»»»»»»»»»»»»»»»»»»»»»»»»»»»»»»»»»»»» Hysteresis ««««««««««««««««««««««««««««««««««««
»»»  Executed Version:	5.48.1
»»»  Vision Version:	5.48.4 (R)
»»»  Vision Compiled:	9/18/24
»»»  Driver Version:	5.47.0
»»»  Windows Version:	Windows 8 or 8.1
»»»  Processor Information:	x86 (AMD or Intel) - 32 Processors
»»»  Tester Name:	PMF21124-494 (100V)
»»»  Tester S/N:	PMF21124-494
»»»  Internal Amp Type:	100V RevK 270k
»»»  Internal Amp S/N:	iAB2-596/K     
»»»  Execution Count:	1
»»»»»»»»»»»»»»»»»»»»»»»»»»»»»»»»»»»»»»»»»»««««««««««««««««««««««««««««««««««««««««««

Stored:	7/10/2025 - 15:44:9
Configured:	07/10/25 01:31:25 PM
Executed:	07/10/25 03:43:45 PM

»»»»»»»»»»»»»»»»»»»»»»»»»»»»»»»»»»» Sample Info ««««««««««««««««««««««««««««««««««««
Sample Name:	
Lot Name:	
Wafer Name:	
Die Row/Column:	0/0
Capacitor Number:	0
Sample Area (cm2):	1.00e-04
Sample Thickness (microns):	1.50e-01

Amplifier:	Internal

»»»»»»»»»»»»»»»»»»»»»»»»»»»»»»»»»»» Tester Info «««««««««««««««««««««««««««««««««««
Tester Name:	PMF21124-494 (100V)
Tester Serial Number:	PMF21124-494
Return Signal Amp. Level:	1.9 [Index: 2]

»»»»»»»»»»»»»»»»»»»»»»»»»»»»»»»» Hysteresis Info ««««««««««««««««««««««««««««««««««
Task Name:	Hyst-3361
Volts:	10.00
Field:	666.67 (kV/cm)
DCBias:	0.00
DCField:	0.00 (kV/cm)
Hysteresis Period (ms):	2.00e+02
Preset:	Enabled
Preset Delay (ms):	1.00e+03
Profile:	Standard Bipolar

»»»»»»»»»»»»»»»»»»»»»»»»»»»»»»»»»»»»»» Data «««««««««««««««««««««««««««««««««««««««
Points:	2009

Valid Data

Point	Time (ms)	Drive Voltage	Measured Polarization (uC/cm2)	Capacitance (uF)	Normalized Capacitance (uF/cm2)	Dielectric Constant	Instantaneous Current (mA)
   1	0.0000e+00	-0.0024	-1.392501	0.000217	2.168097	0.367286	0.000043
   2	9.9500e-02	0.0158	-1.349322	0.000217	2.168097	0.367286	0.000043
   3	1.9900e-01	0.0352	-1.301256	0.000241	2.413542	0.408865	0.000048
   4	2.9850e-01	0.0568	-1.258485	0.000215	2.147643	0.363821	0.000043
   5	3.9800e-01	0.0761	-1.216529	0.000211	2.106736	0.356891	0.000042
   6	4.9750e-01	0.0929	-1.173350	0.000217	2.168097	0.367286	0.000043
   7	5.9700e-01	0.1147	-1.126506	0.000235	2.352181	0.398470	0.000047
   8	6.9650e-01	0.1353	-1.084550	0.000211	2.106736	0.356891	0.000042
   9	7.9600e-01	0.1545	-1.040149	0.000223	2.229458	0.377680	0.000045
  10	8.9550e-01	0.1752	-0.996564	0.000219	2.188551	0.370751	0.000044
  11	9.9500e-01	0.1972	-0.951756	0.000225	2.249912	0.381145	0.000045
  12	1.0945e+00	0.2132	-0.905726	0.000231	2.311273	0.391540	0.000046
  13	1.1940e+00	0.2356	-0.859289	0.000233	2.331727	0.395005	0.000047
  14	1.2935e+00	0.2525	-0.817740	0.000209	2.086282	0.353426	0.000042
  15	1.3930e+00	0.2746	-0.773340	0.000223	2.229458	0.377680	0.000045
  16	1.4925e+00	0.2949	-0.724459	0.000245	2.454449	0.415795	0.000049
  17	1.5920e+00	0.3135	-0.679651	0.000225	2.249912	0.381145	0.000045
  18	1.6915e+00	0.3330	-0.634029	0.000229	2.290820	0.388075	0.000046
  19	1.7910e+00	0.3535	-0.587592	0.000233	2.331727	0.395005	0.000047
  20	1.8905e+00	0.3728	-0.541969	0.000229	2.290820	0.388075	0.000046
  21	1.9900e+00	0.3946	-0.496754	0.000227	2.270366	0.384610	0.000045
  22	2.0895e+00	0.4151	-0.452354	0.000223	2.229458	0.377680	0.000045
  23	2.1890e+00	0.4317	-0.409583	0.000215	2.147643	0.363821	0.000043
  24	2.2885e+00	0.4530	-0.358258	0.000258	2.577172	0.436585	0.000052
  25	2.3880e+00	0.4736	-0.313043	0.000227	2.270366	0.384610	0.000045
  26	2.4875e+00	0.4925	-0.262940	0.000252	2.515811	0.426190	0.000050
  27	2.5870e+00	0.5134	-0.218947	0.000221	2.209005	0.374215	0.000044
  28	2.6865e+00	0.5369	-0.173324	0.000229	2.290820	0.388075	0.000046
  29	2.7860e+00	0.5523	-0.128517	0.000225	2.249912	0.381145	0.000045
  30	2.8855e+00	0.5743	-0.079635	0.000245	2.454449	0.415795	0.000049
  31	2.9850e+00	0.5938	-0.029940	0.000250	2.495357	0.422725	0.000050
  32	3.0845e+00	0.6130	0.012831	0.000215	2.147643	0.363821	0.000043
  33	3.1840e+00	0.6350	0.053158	0.000202	2.024921	0.343031	0.000041
  34	3.2835e+00	0.6561	0.100003	0.000235	2.352181	0.398470	0.000047
  35	3.3830e+00	0.6707	0.143588	0.000219	2.188551	0.370751	0.000044
  36	3.4825e+00	0.6921	0.196543	0.000266	2.658987	0.450445	0.000053
  37	3.5820e+00	0.7131	0.238906	0.000213	2.127190	0.360356	0.000043
  38	3.6815e+00	0.7304	0.286158	0.000237	2.372635	0.401935	0.000047
  39	3.7810e+00	0.7538	0.329744	0.000219	2.188551	0.370751	0.000044
  40	3.8805e+00	0.7731	0.372922	0.000217	2.168097	0.367286	0.000043
  41	3.9800e+00	0.7935	0.418544	0.000229	2.290820	0.388075	0.000046
  42	4.0795e+00	0.8177	0.466611	0.000241	2.413542	0.408865	0.000048
  43	4.1790e+00	0.8327	0.508160	0.000209	2.086282	0.353426	0.000042
  44	4.2785e+00	0.8540	0.551338	0.000217	2.168097	0.367286	0.000043
  45	4.3780e+00	0.8733	0.595331	0.000221	2.209005	0.374215	0.000044
  46	4.4775e+00	0.8923	0.643805	0.000243	2.433996	0.412330	0.000049
  47	4.5770e+00	0.9131	0.686983	0.000217	2.168097	0.367286	0.000043
  48	4.6765e+00	0.9345	0.731791	0.000225	2.249912	0.381145	0.000045
  49	4.7760e+00	0.9534	0.781079	0.000247	2.474903	0.419260	0.000050
  50	4.8755e+00	0.9683	0.825072	0.000221	2.209005	0.374215	0.000044
  51	4.9750e+00	0.9920	0.870287	0.000227	2.270366	0.384610	0.000045
  52	5.0745e+00	1.0107	0.914688	0.000223	2.229458	0.377680	0.000045
  53	5.1740e+00	1.0337	0.961125	0.000233	2.331727	0.395005	0.000047
  54	5.2735e+00	1.0520	1.006747	0.000229	2.290820	0.388075	0.000046
  55	5.3730e+00	1.0712	1.052777	0.000231	2.311273	0.391540	0.000046
  56	5.4725e+00	1.0915	1.097992	0.000227	2.270366	0.384610	0.000045
  57	5.5720e+00	1.1126	1.145651	0.000239	2.393088	0.405400	0.000048
  58	5.6715e+00	1.1302	1.189237	0.000219	2.188551	0.370751	0.000044
  59	5.7710e+00	1.1512	1.234452	0.000227	2.270366	0.384610	0.000045
  60	5.8705e+00	1.1721	1.281296	0.000235	2.352181	0.398470	0.000047
  61	5.9700e+00	1.1926	1.326918	0.000229	2.290820	0.388075	0.000046
  62	6.0695e+00	1.2109	1.376207	0.000247	2.474903	0.419260	0.000050
  63	6.1690e+00	1.2306	1.418978	0.000215	2.147643	0.363821	0.000043
  64	6.2685e+00	1.2527	1.465822	0.000235	2.352181	0.398470	0.000047
  65	6.3680e+00	1.2722	1.507778	0.000211	2.106736	0.356891	0.000042
  66	6.4675e+00	1.2914	1.555438	0.000239	2.393088	0.405400	0.000048
  67	6.5670e+00	1.3096	1.598209	0.000215	2.147643	0.363821	0.000043
  68	6.6665e+00	1.3264	1.645868	0.000239	2.393088	0.405400	0.000048
  69	6.7660e+00	1.3506	1.689453	0.000219	2.188551	0.370751	0.000044
  70	6.8655e+00	1.3706	1.735076	0.000229	2.290820	0.388075	0.000046
  71	6.9650e+00	1.3904	1.777847	0.000215	2.147643	0.363821	0.000043
  72	7.0645e+00	1.4099	1.823876	0.000231	2.311273	0.391540	0.000046
  73	7.1640e+00	1.4295	1.872757	0.000245	2.454449	0.415795	0.000049
  74	7.2635e+00	1.4503	1.917158	0.000223	2.229458	0.377680	0.000045
  75	7.3630e+00	1.4710	1.959114	0.000211	2.106736	0.356891	0.000042
  76	7.4625e+00	1.4880	2.001885	0.000215	2.147643	0.363821	0.000043
  77	7.5620e+00	1.5120	2.044249	0.000213	2.127190	0.360356	0.000043
  78	7.6615e+00	1.5298	2.090278	0.000231	2.311273	0.391540	0.000046
  79	7.7610e+00	1.5492	2.132642	0.000213	2.127190	0.360356	0.000043
  80	7.8605e+00	1.5711	2.179079	0.000233	2.331727	0.395005	0.000047
  81	7.9600e+00	1.5870	2.217777	0.000194	1.943106	0.329171	0.000039
  82	8.0595e+00	1.6105	2.262177	0.000223	2.229458	0.377680	0.000045
  83	8.1590e+00	1.6269	2.307392	0.000227	2.270366	0.384610	0.000045
  84	8.2585e+00	1.6499	2.351385	0.000221	2.209005	0.374215	0.000044
  85	8.3580e+00	1.6720	2.396193	0.000225	2.249912	0.381145	0.000045
  86	8.4575e+00	1.6894	2.438149	0.000211	2.106736	0.356891	0.000042
  87	8.5570e+00	1.7092	2.479290	0.000207	2.065828	0.349961	0.000041
  88	8.6565e+00	1.7293	2.525727	0.000233	2.331727	0.395005	0.000047
  89	8.7560e+00	1.7496	2.570535	0.000225	2.249912	0.381145	0.000045
  90	8.8555e+00	1.7695	2.612491	0.000211	2.106736	0.356891	0.000042
  91	8.9550e+00	1.7875	2.657299	0.000225	2.249912	0.381145	0.000045
  92	9.0545e+00	1.8111	2.700885	0.000219	2.188551	0.370751	0.000044
  93	9.1540e+00	1.8307	2.744878	0.000221	2.209005	0.374215	0.000044
  94	9.2535e+00	1.8488	2.789278	0.000223	2.229458	0.377680	0.000045
  95	9.3530e+00	1.8681	2.833271	0.000221	2.209005	0.374215	0.000044
  96	9.4525e+00	1.8865	2.880116	0.000235	2.352181	0.398470	0.000047
  97	9.5520e+00	1.9087	2.923294	0.000217	2.168097	0.367286	0.000043
  98	9.6515e+00	1.9274	2.966879	0.000219	2.188551	0.370751	0.000044
  99	9.7510e+00	1.9469	3.007206	0.000202	2.024921	0.343031	0.000041
 100	9.8505e+00	1.9661	3.051199	0.000221	2.209005	0.374215	0.000044
 101	9.9500e+00	1.9881	3.093563	0.000213	2.127190	0.360356	0.000043
 102	1.0050e+01	2.0070	3.138778	0.000227	2.270366	0.384610	0.000045
 103	1.0149e+01	2.0289	3.186437	0.000239	2.393088	0.405400	0.000048
 104	1.0248e+01	2.0480	3.231245	0.000225	2.249912	0.381145	0.000045
 105	1.0348e+01	2.0681	3.271572	0.000202	2.024921	0.343031	0.000041
 106	1.0447e+01	2.0860	3.318416	0.000235	2.352181	0.398470	0.000047
 107	1.0547e+01	2.1065	3.359150	0.000205	2.045375	0.346496	0.000041
 108	1.0646e+01	2.1266	3.403551	0.000223	2.229458	0.377680	0.000045
 109	1.0746e+01	2.1468	3.445507	0.000211	2.106736	0.356891	0.000042
 110	1.0845e+01	2.1676	3.490722	0.000227	2.270366	0.384610	0.000045
 111	1.0945e+01	2.1841	3.532678	0.000211	2.106736	0.356891	0.000042
 112	1.1044e+01	2.2072	3.577893	0.000227	2.270366	0.384610	0.000045
 113	1.1144e+01	2.2284	3.621886	0.000221	2.209005	0.374215	0.000044
 114	1.1243e+01	2.2483	3.665065	0.000217	2.168097	0.367286	0.000043
 115	1.1343e+01	2.2689	3.708650	0.000219	2.188551	0.370751	0.000044
 116	1.1443e+01	2.2878	3.757939	0.000247	2.474903	0.419260	0.000050
 117	1.1542e+01	2.3036	3.802746	0.000225	2.249912	0.381145	0.000045
 118	1.1642e+01	2.3277	3.850813	0.000241	2.413542	0.408865	0.000048
 119	1.1741e+01	2.3485	3.894398	0.000219	2.188551	0.370751	0.000044
 120	1.1841e+01	2.3666	3.939613	0.000227	2.270366	0.384610	0.000045
 121	1.1940e+01	2.3864	3.982792	0.000217	2.168097	0.367286	0.000043
 122	1.2040e+01	2.4062	4.026785	0.000221	2.209005	0.374215	0.000044
 123	1.2139e+01	2.4274	4.076481	0.000250	2.495357	0.422725	0.000050
 124	1.2239e+01	2.4470	4.122103	0.000229	2.290820	0.388075	0.000046
 125	1.2338e+01	2.4656	4.166096	0.000221	2.209005	0.374215	0.000044
 126	1.2438e+01	2.4876	4.212533	0.000233	2.331727	0.395005	0.000047
 127	1.2537e+01	2.5071	4.260599	0.000241	2.413542	0.408865	0.000048
 128	1.2636e+01	2.5251	4.305814	0.000227	2.270366	0.384610	0.000045
 129	1.2736e+01	2.5486	4.352251	0.000233	2.331727	0.395005	0.000047
 130	1.2835e+01	2.5649	4.399911	0.000239	2.393088	0.405400	0.000048
 131	1.2935e+01	2.5846	4.441867	0.000211	2.106736	0.356891	0.000042
 132	1.3034e+01	2.6064	4.489526	0.000239	2.393088	0.405400	0.000048
 133	1.3134e+01	2.6263	4.535963	0.000233	2.331727	0.395005	0.000047
 134	1.3233e+01	2.6470	4.582807	0.000235	2.352181	0.398470	0.000047
 135	1.3333e+01	2.6668	4.630466	0.000239	2.393088	0.405400	0.000048
 136	1.3432e+01	2.6867	4.673645	0.000217	2.168097	0.367286	0.000043
 137	1.3532e+01	2.7047	4.714786	0.000207	2.065828	0.349961	0.000041
 138	1.3632e+01	2.7253	4.764889	0.000252	2.515811	0.426190	0.000050
 139	1.3731e+01	2.7457	4.810512	0.000229	2.290820	0.388075	0.000046
 140	1.3831e+01	2.7638	4.860208	0.000250	2.495357	0.422725	0.000050
 141	1.3930e+01	2.7884	4.898905	0.000194	1.943106	0.329171	0.000039
 142	1.4030e+01	2.8043	4.946157	0.000237	2.372635	0.401935	0.000047
 143	1.4129e+01	2.8255	4.991372	0.000227	2.270366	0.384610	0.000045
 144	1.4229e+01	2.8455	5.041882	0.000254	2.536264	0.429655	0.000051
 145	1.4328e+01	2.8635	5.083839	0.000211	2.106736	0.356891	0.000042
 146	1.4428e+01	2.8838	5.127424	0.000219	2.188551	0.370751	0.000044
 147	1.4527e+01	2.9037	5.174269	0.000235	2.352181	0.398470	0.000047
 148	1.4627e+01	2.9220	5.215410	0.000207	2.065828	0.349961	0.000041
 149	1.4726e+01	2.9436	5.262662	0.000237	2.372635	0.401935	0.000047
 150	1.4825e+01	2.9654	5.307062	0.000223	2.229458	0.377680	0.000045
 151	1.4925e+01	2.9839	5.356351	0.000247	2.474903	0.419260	0.000050
 152	1.5024e+01	3.0035	5.401566	0.000227	2.270366	0.384610	0.000045
 153	1.5124e+01	3.0216	5.447188	0.000229	2.290820	0.388075	0.000046
 154	1.5223e+01	3.0418	5.493625	0.000233	2.331727	0.395005	0.000047
 155	1.5323e+01	3.0672	5.541284	0.000239	2.393088	0.405400	0.000048
 156	1.5422e+01	3.0853	5.586907	0.000229	2.290820	0.388075	0.000046
 157	1.5522e+01	3.1039	5.628456	0.000209	2.086282	0.353426	0.000042
 158	1.5621e+01	3.1216	5.678151	0.000250	2.495357	0.422725	0.000050
 159	1.5721e+01	3.1422	5.720922	0.000215	2.147643	0.363821	0.000043
 160	1.5820e+01	3.1625	5.772248	0.000258	2.577172	0.436585	0.000052
 161	1.5920e+01	3.1844	5.811353	0.000196	1.963560	0.332636	0.000039
 162	1.6020e+01	3.2027	5.864307	0.000266	2.658987	0.450445	0.000053
 163	1.6119e+01	3.2238	5.905449	0.000207	2.065828	0.349961	0.000041
 164	1.6218e+01	3.2447	5.957181	0.000260	2.597626	0.440050	0.000052
 165	1.6318e+01	3.2607	6.000359	0.000217	2.168097	0.367286	0.000043
 166	1.6418e+01	3.2815	6.043538	0.000217	2.168097	0.367286	0.000043
 167	1.6517e+01	3.2995	6.092419	0.000245	2.454449	0.415795	0.000049
 168	1.6616e+01	3.3224	6.139263	0.000235	2.352181	0.398470	0.000047
 169	1.6716e+01	3.3413	6.182849	0.000219	2.188551	0.370751	0.000044
 170	1.6816e+01	3.3611	6.228471	0.000229	2.290820	0.388075	0.000046
 171	1.6915e+01	3.3826	6.275723	0.000237	2.372635	0.401935	0.000047
 172	1.7015e+01	3.4023	6.318901	0.000217	2.168097	0.367286	0.000043
 173	1.7114e+01	3.4211	6.365338	0.000233	2.331727	0.395005	0.000047
 174	1.7213e+01	3.4426	6.412183	0.000235	2.352181	0.398470	0.000047
 175	1.7313e+01	3.4643	6.457398	0.000227	2.270366	0.384610	0.000045
 176	1.7413e+01	3.4832	6.499761	0.000213	2.127190	0.360356	0.000043
 177	1.7512e+01	3.5014	6.545384	0.000229	2.290820	0.388075	0.000046
 178	1.7611e+01	3.5198	6.588155	0.000215	2.147643	0.363821	0.000043
 179	1.7711e+01	3.5412	6.631740	0.000219	2.188551	0.370751	0.000044
 180	1.7811e+01	3.5617	6.674104	0.000213	2.127190	0.360356	0.000043
 181	1.7910e+01	3.5809	6.724615	0.000254	2.536264	0.429655	0.000051
 182	1.8009e+01	3.6007	6.763719	0.000196	1.963560	0.332636	0.000039
 183	1.8109e+01	3.6199	6.811378	0.000239	2.393088	0.405400	0.000048
 184	1.8209e+01	3.6417	6.854964	0.000219	2.188551	0.370751	0.000044
 185	1.8308e+01	3.6626	6.900994	0.000231	2.311273	0.391540	0.000046
 186	1.8407e+01	3.6777	6.939284	0.000192	1.922652	0.325706	0.000038
 187	1.8507e+01	3.7016	6.981648	0.000213	2.127190	0.360356	0.000043
 188	1.8607e+01	3.7215	7.025641	0.000221	2.209005	0.374215	0.000044
 189	1.8706e+01	3.7405	7.070041	0.000223	2.229458	0.377680	0.000045
 190	1.8805e+01	3.7623	7.114441	0.000223	2.229458	0.377680	0.000045
 191	1.8905e+01	3.7807	7.159249	0.000225	2.249912	0.381145	0.000045
 192	1.9005e+01	3.7987	7.201205	0.000211	2.106736	0.356891	0.000042
 193	1.9104e+01	3.8213	7.245198	0.000221	2.209005	0.374215	0.000044
 194	1.9203e+01	3.8419	7.286340	0.000207	2.065828	0.349961	0.000041
 195	1.9303e+01	3.8617	7.333184	0.000235	2.352181	0.398470	0.000047
 196	1.9402e+01	3.8783	7.372697	0.000198	1.984013	0.336101	0.000040
 197	1.9502e+01	3.9001	7.418726	0.000231	2.311273	0.391540	0.000046
 198	1.9602e+01	3.9184	7.455794	0.000186	1.861291	0.315311	0.000037
 199	1.9701e+01	3.9417	7.493677	0.000190	1.902198	0.322241	0.000038
 200	1.9800e+01	3.9593	7.534819	0.000207	2.065828	0.349961	0.000041
 201	1.9900e+01	3.9785	7.578404	0.000219	2.188551	0.370751	0.000044
 202	2.0000e+01	3.9986	7.613436	0.000176	1.759022	0.297986	0.000035
 203	2.0099e+01	4.0213	7.652948	0.000198	1.984013	0.336101	0.000040
 204	2.0198e+01	4.0402	7.692868	0.000200	2.004467	0.339566	0.000040
 205	2.0298e+01	4.0611	7.737675	0.000225	2.249912	0.381145	0.000045
 206	2.0398e+01	4.0785	7.774336	0.000184	1.840837	0.311846	0.000037
 207	2.0497e+01	4.0993	7.813441	0.000196	1.963560	0.332636	0.000039
 208	2.0596e+01	4.1189	7.848880	0.000178	1.779476	0.301451	0.000036
 209	2.0696e+01	4.1431	7.887170	0.000192	1.922652	0.325706	0.000038
 210	2.0796e+01	4.1590	7.925868	0.000194	1.943106	0.329171	0.000039
 211	2.0895e+01	4.1798	7.962529	0.000184	1.840837	0.311846	0.000037
 212	2.0994e+01	4.2005	8.001633	0.000196	1.963560	0.332636	0.000039
 213	2.1094e+01	4.2200	8.038702	0.000186	1.861291	0.315311	0.000037
 214	2.1194e+01	4.2371	8.079028	0.000202	2.024921	0.343031	0.000041
 215	2.1293e+01	4.2580	8.114467	0.000178	1.779476	0.301451	0.000036
 216	2.1392e+01	4.2786	8.148684	0.000172	1.718115	0.291056	0.000034
 217	2.1492e+01	4.2993	8.186974	0.000192	1.922652	0.325706	0.000038
 218	2.1591e+01	4.3182	8.224857	0.000190	1.902198	0.322241	0.000038
 219	2.1691e+01	4.3386	8.262740	0.000190	1.902198	0.322241	0.000038
 220	2.1791e+01	4.3602	8.301030	0.000192	1.922652	0.325706	0.000038
 221	2.1890e+01	4.3793	8.337691	0.000184	1.840837	0.311846	0.000037
 222	2.1989e+01	4.3989	8.376796	0.000196	1.963560	0.332636	0.000039
 223	2.2089e+01	4.4185	8.412642	0.000180	1.799930	0.304916	0.000036
 224	2.2189e+01	4.4377	8.451340	0.000194	1.943106	0.329171	0.000039
 225	2.2288e+01	4.4610	8.484742	0.000168	1.677207	0.284127	0.000034
 226	2.2387e+01	4.4772	8.522217	0.000188	1.881745	0.318776	0.000038
 227	2.2487e+01	4.4971	8.555619	0.000168	1.677207	0.284127	0.000034
 228	2.2587e+01	4.5152	8.595946	0.000202	2.024921	0.343031	0.000041
 229	2.2686e+01	4.5391	8.632200	0.000182	1.820383	0.308381	0.000036
 230	2.2785e+01	4.5559	8.668453	0.000182	1.820383	0.308381	0.000036
 231	2.2885e+01	4.5809	8.701448	0.000166	1.656753	0.280662	0.000033
 232	2.2985e+01	4.5985	8.738109	0.000184	1.840837	0.311846	0.000037
 233	2.3084e+01	4.6151	8.773548	0.000178	1.779476	0.301451	0.000036
 234	2.3183e+01	4.6381	8.809801	0.000182	1.820383	0.308381	0.000036
 235	2.3283e+01	4.6591	8.843203	0.000168	1.677207	0.284127	0.000034
 236	2.3383e+01	4.6778	8.883123	0.000200	2.004467	0.339566	0.000040
 237	2.3482e+01	4.6970	8.914895	0.000160	1.595392	0.270267	0.000032
 238	2.3581e+01	4.7173	8.951556	0.000184	1.840837	0.311846	0.000037
 239	2.3681e+01	4.7378	8.981292	0.000149	1.493123	0.252942	0.000030
 240	2.3780e+01	4.7581	9.018768	0.000188	1.881745	0.318776	0.000038
 241	2.3880e+01	4.7770	9.052577	0.000170	1.697661	0.287592	0.000034
 242	2.3980e+01	4.7964	9.086794	0.000172	1.718115	0.291056	0.000034
 243	2.4079e+01	4.8199	9.118567	0.000160	1.595392	0.270267	0.000032
 244	2.4178e+01	4.8376	9.148710	0.000151	1.513577	0.256407	0.000030
 245	2.4278e+01	4.8583	9.183334	0.000174	1.738568	0.294521	0.000035
 246	2.4378e+01	4.8765	9.216736	0.000168	1.677207	0.284127	0.000034
 247	2.4477e+01	4.8986	9.250138	0.000168	1.677207	0.284127	0.000034
 248	2.4576e+01	4.9198	9.284355	0.000172	1.718115	0.291056	0.000034
 249	2.4676e+01	4.9366	9.316128	0.000160	1.595392	0.270267	0.000032
 250	2.4776e+01	4.9574	9.349123	0.000166	1.656753	0.280662	0.000033
 251	2.4875e+01	4.9775	9.380895	0.000160	1.595392	0.270267	0.000032
 252	2.4974e+01	4.9966	9.416741	0.000180	1.799930	0.304916	0.000036
 253	2.5074e+01	5.0172	9.445663	0.000145	1.452216	0.246012	0.000029
 254	2.5174e+01	5.0357	9.475806	0.000151	1.513577	0.256407	0.000030
 255	2.5273e+01	5.0564	9.508801	0.000166	1.656753	0.280662	0.000033
 256	2.5372e+01	5.0752	9.539352	0.000153	1.534031	0.259872	0.000031
 257	2.5472e+01	5.0950	9.568273	0.000145	1.452216	0.246012	0.000029
 258	2.5572e+01	5.1157	9.605341	0.000186	1.861291	0.315311	0.000037
 259	2.5671e+01	5.1364	9.638743	0.000168	1.677207	0.284127	0.000034
 260	2.5770e+01	5.1542	9.672553	0.000170	1.697661	0.287592	0.000034
 261	2.5870e+01	5.1755	9.705140	0.000164	1.636300	0.277197	0.000033
 262	2.5970e+01	5.1943	9.736913	0.000160	1.595392	0.270267	0.000032
 263	2.6069e+01	5.2143	9.771944	0.000176	1.759022	0.297986	0.000035
 264	2.6169e+01	5.2353	9.800458	0.000143	1.431762	0.242547	0.000029
 265	2.6268e+01	5.2557	9.835082	0.000174	1.738568	0.294521	0.000035
 266	2.6367e+01	5.2740	9.863596	0.000143	1.431762	0.242547	0.000029
 267	2.6467e+01	5.2929	9.896591	0.000166	1.656753	0.280662	0.000033
 268	2.6567e+01	5.3179	9.927956	0.000157	1.574938	0.266802	0.000032
 269	2.6666e+01	5.3355	9.962173	0.000172	1.718115	0.291056	0.000034
 270	2.6765e+01	5.3521	9.997612	0.000178	1.779476	0.301451	0.000036
 271	2.6865e+01	5.3719	10.030607	0.000166	1.656753	0.280662	0.000033
 272	2.6965e+01	5.3960	10.061157	0.000153	1.534031	0.259872	0.000031
 273	2.7064e+01	5.4150	10.095374	0.000172	1.718115	0.291056	0.000034
 274	2.7163e+01	5.4337	10.125925	0.000153	1.534031	0.259872	0.000031
 275	2.7263e+01	5.4571	10.155661	0.000149	1.493123	0.252942	0.000030
 276	2.7363e+01	5.4761	10.188248	0.000164	1.636300	0.277197	0.000033
 277	2.7462e+01	5.4952	10.218799	0.000153	1.534031	0.259872	0.000031
 278	2.7561e+01	5.5148	10.253016	0.000172	1.718115	0.291056	0.000034
 279	2.7661e+01	5.5350	10.284381	0.000157	1.574938	0.266802	0.000032
 280	2.7761e+01	5.5544	10.314932	0.000153	1.534031	0.259872	0.000031
 281	2.7860e+01	5.5752	10.348334	0.000168	1.677207	0.284127	0.000034
 282	2.7959e+01	5.5929	10.382143	0.000170	1.697661	0.287592	0.000034
 283	2.8059e+01	5.6150	10.414323	0.000162	1.615846	0.273732	0.000032
 284	2.8159e+01	5.6313	10.450577	0.000182	1.820383	0.308381	0.000036
 285	2.8258e+01	5.6524	10.483979	0.000168	1.677207	0.284127	0.000034
 286	2.8358e+01	5.6719	10.518603	0.000174	1.738568	0.294521	0.000035
 287	2.8457e+01	5.6916	10.550783	0.000162	1.615846	0.273732	0.000032
 288	2.8556e+01	5.7124	10.583371	0.000164	1.636300	0.277197	0.000033
 289	2.8656e+01	5.7320	10.620031	0.000184	1.840837	0.311846	0.000037
 290	2.8756e+01	5.7542	10.656692	0.000184	1.840837	0.311846	0.000037
 291	2.8855e+01	5.7726	10.689687	0.000166	1.656753	0.280662	0.000033
 292	2.8954e+01	5.7912	10.725126	0.000178	1.779476	0.301451	0.000036
 293	2.9054e+01	5.8141	10.753640	0.000143	1.431762	0.242547	0.000029
 294	2.9154e+01	5.8308	10.794374	0.000205	2.045375	0.346496	0.000041
 295	2.9253e+01	5.8524	10.825739	0.000157	1.574938	0.266802	0.000032
 296	2.9352e+01	5.8721	10.861585	0.000180	1.799930	0.304916	0.000036
 297	2.9452e+01	5.8933	10.895802	0.000172	1.718115	0.291056	0.000034
 298	2.9552e+01	5.9130	10.931648	0.000180	1.799930	0.304916	0.000036
 299	2.9651e+01	5.9310	10.967087	0.000178	1.779476	0.301451	0.000036
 300	2.9750e+01	5.9542	11.000082	0.000166	1.656753	0.280662	0.000033
 301	2.9850e+01	5.9742	11.036743	0.000184	1.840837	0.311846	0.000037
 302	2.9950e+01	5.9930	11.066071	0.000147	1.472670	0.249477	0.000029
 303	3.0049e+01	6.0107	11.100696	0.000174	1.738568	0.294521	0.000035
 304	3.0148e+01	6.0325	11.136949	0.000182	1.820383	0.308381	0.000036
 305	3.0248e+01	6.0535	11.169129	0.000162	1.615846	0.273732	0.000032
 306	3.0348e+01	6.0726	11.202124	0.000166	1.656753	0.280662	0.000033
 307	3.0447e+01	6.0892	11.241229	0.000196	1.963560	0.332636	0.000039
 308	3.0547e+01	6.1126	11.273816	0.000164	1.636300	0.277197	0.000033
 309	3.0646e+01	6.1327	11.309662	0.000180	1.799930	0.304916	0.000036
 310	3.0745e+01	6.1514	11.344286	0.000174	1.738568	0.294521	0.000035
 311	3.0845e+01	6.1710	11.375652	0.000157	1.574938	0.266802	0.000032
 312	3.0945e+01	6.1935	11.411905	0.000182	1.820383	0.308381	0.000036
 313	3.1044e+01	6.2112	11.446529	0.000174	1.738568	0.294521	0.000035
 314	3.1143e+01	6.2344	11.478709	0.000162	1.615846	0.273732	0.000032
 315	3.1243e+01	6.2530	11.511704	0.000166	1.656753	0.280662	0.000033
 316	3.1343e+01	6.2699	11.546328	0.000174	1.738568	0.294521	0.000035
 317	3.1442e+01	6.2913	11.579323	0.000166	1.656753	0.280662	0.000033
 318	3.1541e+01	6.3084	11.613947	0.000174	1.738568	0.294521	0.000035
 319	3.1641e+01	6.3308	11.647349	0.000168	1.677207	0.284127	0.000034
 320	3.1741e+01	6.3506	11.680751	0.000168	1.677207	0.284127	0.000034
 321	3.1840e+01	6.3693	11.715375	0.000174	1.738568	0.294521	0.000035
 322	3.1939e+01	6.3882	11.752444	0.000186	1.861291	0.315311	0.000037
 323	3.2039e+01	6.4087	11.785846	0.000168	1.677207	0.284127	0.000034
 324	3.2139e+01	6.4295	11.821692	0.000180	1.799930	0.304916	0.000036
 325	3.2238e+01	6.4485	11.857131	0.000178	1.779476	0.301451	0.000036
 326	3.2337e+01	6.4697	11.896236	0.000196	1.963560	0.332636	0.000039
 327	3.2437e+01	6.4895	11.927601	0.000157	1.574938	0.266802	0.000032
 328	3.2536e+01	6.5081	11.961410	0.000170	1.697661	0.287592	0.000034
 329	3.2636e+01	6.5281	11.997256	0.000180	1.799930	0.304916	0.000036
 330	3.2736e+01	6.5496	12.033510	0.000182	1.820383	0.308381	0.000036
 331	3.2835e+01	6.5675	12.067319	0.000170	1.697661	0.287592	0.000034
 332	3.2934e+01	6.5864	12.103166	0.000180	1.799930	0.304916	0.000036
 333	3.3034e+01	6.6085	12.136568	0.000168	1.677207	0.284127	0.000034
 334	3.3133e+01	6.6303	12.175265	0.000194	1.943106	0.329171	0.000039
 335	3.3233e+01	6.6482	12.211111	0.000180	1.799930	0.304916	0.000036
 336	3.3333e+01	6.6688	12.240847	0.000149	1.493123	0.252942	0.000030
 337	3.3432e+01	6.6877	12.280767	0.000200	2.004467	0.339566	0.000040
 338	3.3532e+01	6.7108	12.317835	0.000186	1.861291	0.315311	0.000037
 339	3.3631e+01	6.7297	12.351645	0.000170	1.697661	0.287592	0.000034
 340	3.3730e+01	6.7484	12.383010	0.000157	1.574938	0.266802	0.000032
 341	3.3830e+01	6.7683	12.419263	0.000182	1.820383	0.308381	0.000036
 342	3.3929e+01	6.7883	12.452665	0.000168	1.677207	0.284127	0.000034
 343	3.4029e+01	6.8084	12.484846	0.000162	1.615846	0.273732	0.000032
 344	3.4129e+01	6.8291	12.518248	0.000168	1.677207	0.284127	0.000034
 345	3.4228e+01	6.8478	12.551650	0.000168	1.677207	0.284127	0.000034
 346	3.4328e+01	6.8639	12.583015	0.000157	1.574938	0.266802	0.000032
 347	3.4427e+01	6.8911	12.618454	0.000178	1.779476	0.301451	0.000036
 348	3.4526e+01	6.9076	12.656337	0.000190	1.902198	0.322241	0.000038
 349	3.4626e+01	6.9302	12.692590	0.000182	1.820383	0.308381	0.000036
 350	3.4725e+01	6.9473	12.721919	0.000147	1.472670	0.249477	0.000029
 351	3.4825e+01	6.9659	12.756136	0.000172	1.718115	0.291056	0.000034
 352	3.4925e+01	6.9857	12.789538	0.000168	1.677207	0.284127	0.000034
 353	3.5024e+01	7.0061	12.823755	0.000172	1.718115	0.291056	0.000034
 354	3.5123e+01	7.0293	12.854713	0.000155	1.554485	0.263337	0.000031
 355	3.5223e+01	7.0486	12.887300	0.000164	1.636300	0.277197	0.000033
 356	3.5322e+01	7.0669	12.916221	0.000145	1.452216	0.246012	0.000029
 357	3.5422e+01	7.0876	12.952475	0.000182	1.820383	0.308381	0.000036
 358	3.5522e+01	7.1085	12.985877	0.000168	1.677207	0.284127	0.000034
 359	3.5621e+01	7.1257	13.019686	0.000170	1.697661	0.287592	0.000034
 360	3.5721e+01	7.1481	13.052681	0.000166	1.656753	0.280662	0.000033
 361	3.5820e+01	7.1674	13.086490	0.000170	1.697661	0.287592	0.000034
 362	3.5919e+01	7.1869	13.119078	0.000164	1.636300	0.277197	0.000033
 363	3.6019e+01	7.2034	13.149629	0.000153	1.534031	0.259872	0.000031
 364	3.6118e+01	7.2266	13.182216	0.000164	1.636300	0.277197	0.000033
 365	3.6218e+01	7.2463	13.213174	0.000155	1.554485	0.263337	0.000031
 366	3.6318e+01	7.2681	13.246169	0.000166	1.656753	0.280662	0.000033
 367	3.6417e+01	7.2872	13.272646	0.000133	1.329493	0.225222	0.000027
 368	3.6517e+01	7.3051	13.304011	0.000157	1.574938	0.266802	0.000032
 369	3.6616e+01	7.3266	13.336191	0.000162	1.615846	0.273732	0.000032
 370	3.6715e+01	7.3463	13.360632	0.000123	1.227225	0.207897	0.000025
 371	3.6815e+01	7.3653	13.393627	0.000166	1.656753	0.280662	0.000033
 372	3.6914e+01	7.3859	13.424992	0.000157	1.574938	0.266802	0.000032
 373	3.7014e+01	7.4073	13.451877	0.000135	1.349947	0.228687	0.000027
 374	3.7114e+01	7.4245	13.477947	0.000131	1.309040	0.221757	0.000026
 375	3.7213e+01	7.4458	13.508497	0.000153	1.534031	0.259872	0.000031
 376	3.7313e+01	7.4660	13.537826	0.000147	1.472670	0.249477	0.000029
 377	3.7412e+01	7.4864	13.566340	0.000143	1.431762	0.242547	0.000029
 378	3.7511e+01	7.5055	13.594039	0.000139	1.390855	0.235617	0.000028
 379	3.7611e+01	7.5266	13.620924	0.000135	1.349947	0.228687	0.000027
 380	3.7711e+01	7.5435	13.642920	0.000110	1.104502	0.187108	0.000022
 381	3.7810e+01	7.5648	13.675915	0.000166	1.656753	0.280662	0.000033
 382	3.7910e+01	7.5877	13.704429	0.000143	1.431762	0.242547	0.000029
 383	3.8009e+01	7.6035	13.728055	0.000119	1.186317	0.200968	0.000024
 384	3.8108e+01	7.6266	13.758198	0.000151	1.513577	0.256407	0.000030
 385	3.8208e+01	7.6440	13.787527	0.000147	1.472670	0.249477	0.000029
 386	3.8307e+01	7.6644	13.814004	0.000133	1.329493	0.225222	0.000027
 387	3.8407e+01	7.6840	13.840482	0.000133	1.329493	0.225222	0.000027
 388	3.8507e+01	7.7051	13.871847	0.000157	1.574938	0.266802	0.000032
 389	3.8606e+01	7.7268	13.894251	0.000112	1.124956	0.190573	0.000023
 390	3.8706e+01	7.7452	13.919913	0.000129	1.288586	0.218292	0.000026
 391	3.8805e+01	7.7651	13.950057	0.000151	1.513577	0.256407	0.000030
 392	3.8904e+01	7.7839	13.976534	0.000133	1.329493	0.225222	0.000027
 393	3.9004e+01	7.8042	14.005863	0.000147	1.472670	0.249477	0.000029
 394	3.9103e+01	7.8234	14.031933	0.000131	1.309040	0.221757	0.000026
 395	3.9203e+01	7.8441	14.055558	0.000119	1.186317	0.200968	0.000024
 396	3.9303e+01	7.8635	14.082850	0.000137	1.370401	0.232152	0.000027
 397	3.9402e+01	7.8835	14.111772	0.000145	1.452216	0.246012	0.000029
 398	3.9502e+01	7.9044	14.136212	0.000123	1.227225	0.207897	0.000025
 399	3.9601e+01	7.9286	14.161060	0.000125	1.247678	0.211362	0.000025
 400	3.9700e+01	7.9462	14.188352	0.000137	1.370401	0.232152	0.000027
 401	3.9800e+01	7.9643	14.214422	0.000131	1.309040	0.221757	0.000026
 402	3.9900e+01	7.9830	14.242936	0.000143	1.431762	0.242547	0.000029
 403	3.9999e+01	8.0032	14.268599	0.000129	1.288586	0.218292	0.000026
 404	4.0099e+01	8.0207	14.295076	0.000133	1.329493	0.225222	0.000027
 405	4.0198e+01	8.0436	14.320738	0.000129	1.288586	0.218292	0.000026
 406	4.0297e+01	8.0634	14.347216	0.000133	1.329493	0.225222	0.000027
 407	4.0397e+01	8.0840	14.372064	0.000125	1.247678	0.211362	0.000025
 408	4.0496e+01	8.1049	14.398133	0.000131	1.309040	0.221757	0.000026
 409	4.0596e+01	8.1251	14.418908	0.000104	1.043141	0.176713	0.000021
 410	4.0696e+01	8.1446	14.444978	0.000131	1.309040	0.221757	0.000026
 411	4.0795e+01	8.1641	14.465752	0.000104	1.043141	0.176713	0.000021
 412	4.0895e+01	8.1836	14.493452	0.000139	1.390855	0.235617	0.000028
 413	4.0994e+01	8.2010	14.515041	0.000108	1.084049	0.183643	0.000022
 414	4.1093e+01	8.2209	14.539889	0.000125	1.247678	0.211362	0.000025
 415	4.1193e+01	8.2422	14.559848	0.000100	1.002234	0.169783	0.000020
 416	4.1292e+01	8.2602	14.586733	0.000135	1.349947	0.228687	0.000027
 417	4.1392e+01	8.2838	14.609544	0.000115	1.145410	0.194038	0.000023
 418	4.1492e+01	8.3013	14.636022	0.000133	1.329493	0.225222	0.000027
 419	4.1591e+01	8.3191	14.658018	0.000110	1.104502	0.187108	0.000022
 420	4.1691e+01	8.3402	14.679200	0.000106	1.063595	0.180178	0.000021
 421	4.1790e+01	8.3627	14.704862	0.000129	1.288586	0.218292	0.000026
 422	4.1889e+01	8.3807	14.727674	0.000115	1.145410	0.194038	0.000023
 423	4.1989e+01	8.4023	14.751299	0.000119	1.186317	0.200968	0.000024
 424	4.2089e+01	8.4214	14.773296	0.000110	1.104502	0.187108	0.000022
 425	4.2188e+01	8.4448	14.795700	0.000112	1.124956	0.190573	0.000023
 426	4.2288e+01	8.4607	14.825436	0.000149	1.493123	0.252942	0.000030
 427	4.2387e+01	8.4837	14.847025	0.000108	1.084049	0.183643	0.000022
 428	4.2486e+01	8.5027	14.872280	0.000127	1.268132	0.214827	0.000025
 429	4.2586e+01	8.5205	14.894277	0.000110	1.104502	0.187108	0.000022
 430	4.2685e+01	8.5425	14.919939	0.000129	1.288586	0.218292	0.000026
 431	4.2785e+01	8.5609	14.944787	0.000125	1.247678	0.211362	0.000025
 432	4.2885e+01	8.5808	14.967191	0.000112	1.124956	0.190573	0.000023
 433	4.2984e+01	8.6012	14.987966	0.000104	1.043141	0.176713	0.000021
 434	4.3084e+01	8.6209	15.010777	0.000115	1.145410	0.194038	0.000023
 435	4.3183e+01	8.6416	15.036439	0.000129	1.288586	0.218292	0.000026
 436	4.3282e+01	8.6610	15.061695	0.000127	1.268132	0.214827	0.000025
 437	4.3382e+01	8.6813	15.085320	0.000119	1.186317	0.200968	0.000024
 438	4.3481e+01	8.6997	15.109354	0.000121	1.206771	0.204433	0.000024
 439	4.3581e+01	8.7214	15.132165	0.000115	1.145410	0.194038	0.000023
 440	4.3681e+01	8.7408	15.159864	0.000139	1.390855	0.235617	0.000028
 441	4.3780e+01	8.7646	15.180639	0.000104	1.043141	0.176713	0.000021
 442	4.3880e+01	8.7784	15.207523	0.000135	1.349947	0.228687	0.000027
 443	4.3979e+01	8.7994	15.232371	0.000125	1.247678	0.211362	0.000025
 444	4.4078e+01	8.8196	15.253146	0.000104	1.043141	0.176713	0.000021
 445	4.4178e+01	8.8405	15.276771	0.000119	1.186317	0.200968	0.000024
 446	4.4278e+01	8.8602	15.299583	0.000115	1.145410	0.194038	0.000023
 447	4.4377e+01	8.8796	15.326060	0.000133	1.329493	0.225222	0.000027
 448	4.4477e+01	8.9008	15.350500	0.000123	1.227225	0.207897	0.000025
 449	4.4576e+01	8.9178	15.374534	0.000121	1.206771	0.204433	0.000024
 450	4.4675e+01	8.9388	15.398974	0.000123	1.227225	0.207897	0.000025
 451	4.4775e+01	8.9581	15.426673	0.000139	1.390855	0.235617	0.000028
 452	4.4874e+01	8.9802	15.452743	0.000131	1.309040	0.221757	0.000026
 453	4.4974e+01	9.0010	15.479628	0.000135	1.349947	0.228687	0.000027
 454	4.5074e+01	9.0160	15.505698	0.000131	1.309040	0.221757	0.000026
 455	4.5173e+01	9.0376	15.535027	0.000147	1.472670	0.249477	0.000029
 456	4.5273e+01	9.0583	15.557838	0.000115	1.145410	0.194038	0.000023
 457	4.5372e+01	9.0784	15.584722	0.000135	1.349947	0.228687	0.000027
 458	4.5471e+01	9.0974	15.612014	0.000137	1.370401	0.232152	0.000027
 459	4.5571e+01	9.1169	15.639714	0.000139	1.390855	0.235617	0.000028
 460	4.5670e+01	9.1367	15.667413	0.000139	1.390855	0.235617	0.000028
 461	4.5770e+01	9.1573	15.692668	0.000127	1.268132	0.214827	0.000025
 462	4.5870e+01	9.1792	15.721997	0.000147	1.472670	0.249477	0.000029
 463	4.5969e+01	9.1988	15.751325	0.000147	1.472670	0.249477	0.000029
 464	4.6069e+01	9.2195	15.777395	0.000131	1.309040	0.221757	0.000026
 465	4.6168e+01	9.2396	15.805909	0.000143	1.431762	0.242547	0.000029
 466	4.6267e+01	9.2564	15.831979	0.000131	1.309040	0.221757	0.000026
 467	4.6367e+01	9.2780	15.861715	0.000149	1.493123	0.252942	0.000030
 468	4.6467e+01	9.2981	15.884934	0.000117	1.165864	0.197503	0.000023
 469	4.6566e+01	9.3164	15.915485	0.000153	1.534031	0.259872	0.000031
 470	4.6666e+01	9.3337	15.941962	0.000133	1.329493	0.225222	0.000027
 471	4.6765e+01	9.3569	15.968439	0.000133	1.329493	0.225222	0.000027
 472	4.6864e+01	9.3758	15.996138	0.000139	1.390855	0.235617	0.000028
 473	4.6964e+01	9.3949	16.026282	0.000151	1.513577	0.256407	0.000030
 474	4.7063e+01	9.4147	16.048686	0.000112	1.124956	0.190573	0.000023
 475	4.7163e+01	9.4360	16.082495	0.000170	1.697661	0.287592	0.000034
 476	4.7263e+01	9.4558	16.110602	0.000141	1.411308	0.239082	0.000028
 477	4.7362e+01	9.4775	16.136264	0.000129	1.288586	0.218292	0.000026
 478	4.7462e+01	9.4971	16.165593	0.000147	1.472670	0.249477	0.000029
 479	4.7561e+01	9.5148	16.194514	0.000145	1.452216	0.246012	0.000029
 480	4.7660e+01	9.5390	16.219769	0.000127	1.268132	0.214827	0.000025
 481	4.7760e+01	9.5549	16.250727	0.000155	1.554485	0.263337	0.000031
 482	4.7859e+01	9.5752	16.276390	0.000129	1.288586	0.218292	0.000026
 483	4.7959e+01	9.5954	16.308570	0.000162	1.615846	0.273732	0.000032
 484	4.8059e+01	9.6149	16.335455	0.000135	1.349947	0.228687	0.000027
 485	4.8158e+01	9.6358	16.358673	0.000117	1.165864	0.197503	0.000023
 486	4.8258e+01	9.6587	16.393297	0.000174	1.738568	0.294521	0.000035
 487	4.8357e+01	9.6771	16.419775	0.000133	1.329493	0.225222	0.000027
 488	4.8456e+01	9.6973	16.445845	0.000131	1.309040	0.221757	0.000026
 489	4.8556e+01	9.7192	16.475581	0.000149	1.493123	0.252942	0.000030
 490	4.8656e+01	9.7369	16.505724	0.000151	1.513577	0.256407	0.000030
 491	4.8755e+01	9.7568	16.534238	0.000143	1.431762	0.242547	0.000029
 492	4.8855e+01	9.7781	16.562344	0.000141	1.411308	0.239082	0.000028
 493	4.8954e+01	9.7949	16.595747	0.000168	1.677207	0.284127	0.000034
 494	4.9053e+01	9.8163	16.623039	0.000137	1.370401	0.232152	0.000027
 495	4.9153e+01	9.8347	16.653997	0.000155	1.554485	0.263337	0.000031
 496	4.9252e+01	9.8554	16.686584	0.000164	1.636300	0.277197	0.000033
 497	4.9352e+01	9.8737	16.719171	0.000164	1.636300	0.277197	0.000033
 498	4.9452e+01	9.8952	16.744834	0.000129	1.288586	0.218292	0.000026
 499	4.9551e+01	9.9121	16.778236	0.000168	1.677207	0.284127	0.000034
 500	4.9651e+01	9.9335	16.810416	0.000162	1.615846	0.273732	0.000032
 501	4.9750e+01	9.9551	16.838523	0.000141	1.411308	0.239082	0.000028
 502	4.9849e+01	9.9746	16.868666	0.000151	1.513577	0.256407	0.000030
 503	4.9949e+01	9.9951	16.898809	0.000151	1.513577	0.256407	0.000030
 504	5.0048e+01	9.9734	16.887811	0.000055	0.552251	0.093554	-0.000011
 505	5.0148e+01	9.9554	16.882923	0.000025	0.245445	0.041579	-0.000005
 506	5.0248e+01	9.9341	16.873147	0.000049	0.490890	0.083159	-0.000010
 507	5.0347e+01	9.9133	16.862149	0.000055	0.552251	0.093554	-0.000011
 508	5.0447e+01	9.8942	16.853594	0.000043	0.429529	0.072764	-0.000009
 509	5.0546e+01	9.8743	16.843818	0.000049	0.490890	0.083159	-0.000010
 510	5.0645e+01	9.8545	16.830783	0.000065	0.654520	0.110879	-0.000013
 511	5.0745e+01	9.8359	16.819378	0.000057	0.572705	0.097019	-0.000011
 512	5.0844e+01	9.8166	16.807972	0.000057	0.572705	0.097019	-0.000011
 513	5.0944e+01	9.7940	16.791678	0.000082	0.818150	0.138598	-0.000016
 514	5.1044e+01	9.7744	16.779865	0.000059	0.593159	0.100484	-0.000012
 515	5.1143e+01	9.7547	16.772941	0.000035	0.347714	0.058904	-0.000007
 516	5.1242e+01	9.7351	16.758276	0.000074	0.736335	0.124738	-0.000015
 517	5.1342e+01	9.7165	16.749722	0.000043	0.429529	0.072764	-0.000009
 518	5.1441e+01	9.6973	16.731799	0.000090	0.899965	0.152458	-0.000018
 519	5.1541e+01	9.6766	16.721208	0.000053	0.531797	0.090089	-0.000011
 520	5.1641e+01	9.6564	16.708173	0.000065	0.654520	0.110879	-0.000013
 521	5.1740e+01	9.6338	16.697990	0.000051	0.511344	0.086624	-0.000010
 522	5.1840e+01	9.6143	16.683733	0.000072	0.715881	0.121274	-0.000014
 523	5.1939e+01	9.5954	16.669883	0.000070	0.695427	0.117809	-0.000014
 524	5.2038e+01	9.5770	16.655626	0.000072	0.715881	0.121274	-0.000014
 525	5.2138e+01	9.5585	16.640962	0.000074	0.736335	0.124738	-0.000015
 526	5.2237e+01	9.5351	16.630371	0.000053	0.531797	0.090089	-0.000011
 527	5.2337e+01	9.5156	16.618558	0.000059	0.593159	0.100484	-0.000012
 528	5.2437e+01	9.4975	16.604301	0.000072	0.715881	0.121274	-0.000014
 529	5.2536e+01	9.4775	16.589229	0.000076	0.756789	0.128203	-0.000015
 530	5.2636e+01	9.4538	16.573750	0.000078	0.777242	0.131668	-0.000016
 531	5.2735e+01	9.4370	16.560308	0.000067	0.674974	0.114344	-0.000014
 532	5.2834e+01	9.4178	16.544014	0.000082	0.818150	0.138598	-0.000016
 533	5.2934e+01	9.3948	16.528942	0.000076	0.756789	0.128203	-0.000015
 534	5.3033e+01	9.3777	16.513056	0.000080	0.797696	0.135133	-0.000016
 535	5.3133e+01	9.3583	16.497170	0.000080	0.797696	0.135133	-0.000016
 536	5.3233e+01	9.3359	16.479247	0.000090	0.899965	0.152458	-0.000018
 537	5.3332e+01	9.3174	16.461731	0.000088	0.879511	0.148993	-0.000018
 538	5.3431e+01	9.2971	16.446659	0.000076	0.756789	0.128203	-0.000015
 539	5.3531e+01	9.2773	16.428329	0.000092	0.920419	0.155923	-0.000018
 540	5.3630e+01	9.2569	16.410813	0.000088	0.879511	0.148993	-0.000018
 541	5.3730e+01	9.2367	16.391668	0.000096	0.961326	0.162853	-0.000019
 542	5.3830e+01	9.2166	16.372930	0.000094	0.940872	0.159388	-0.000019
 543	5.3929e+01	9.1981	16.355414	0.000088	0.879511	0.148993	-0.000018
 544	5.4029e+01	9.1769	16.335862	0.000098	0.981780	0.166318	-0.000020
 545	5.4128e+01	9.1563	16.315495	0.000102	1.022687	0.173248	-0.000020
 546	5.4227e+01	9.1383	16.300016	0.000078	0.777242	0.131668	-0.000016
 547	5.4327e+01	9.1187	16.276390	0.000119	1.186317	0.200968	-0.000024
 548	5.4426e+01	9.0995	16.261726	0.000074	0.736335	0.124738	-0.000015
 549	5.4526e+01	9.0771	16.241359	0.000102	1.022687	0.173248	-0.000020
 550	5.4626e+01	9.0580	16.220584	0.000104	1.043141	0.176713	-0.000021
 551	5.4725e+01	9.0375	16.201032	0.000098	0.981780	0.166318	-0.000020
 552	5.4825e+01	9.0180	16.180665	0.000102	1.022687	0.173248	-0.000020
 553	5.4924e+01	9.0017	16.161519	0.000096	0.961326	0.162853	-0.000019
 554	5.5023e+01	8.9771	16.141152	0.000102	1.022687	0.173248	-0.000020
 555	5.5123e+01	8.9582	16.122007	0.000096	0.961326	0.162853	-0.000019
 556	5.5222e+01	8.9384	16.101640	0.000102	1.022687	0.173248	-0.000020
 557	5.5322e+01	8.9188	16.085754	0.000080	0.797696	0.135133	-0.000016
 558	5.5422e+01	8.8999	16.064979	0.000104	1.043141	0.176713	-0.000021
 559	5.5521e+01	8.8800	16.040131	0.000125	1.247678	0.211362	-0.000025
 560	5.5620e+01	8.8593	16.019764	0.000102	1.022687	0.173248	-0.000020
 561	5.5720e+01	8.8364	15.998990	0.000104	1.043141	0.176713	-0.000021
 562	5.5819e+01	8.8190	15.979845	0.000096	0.961326	0.162853	-0.000019
 563	5.5919e+01	8.8003	15.960700	0.000096	0.961326	0.162853	-0.000019
 564	5.6019e+01	8.7825	15.941147	0.000098	0.981780	0.166318	-0.000020
 565	5.6118e+01	8.7606	15.916707	0.000123	1.227225	0.207897	-0.000025
 566	5.6218e+01	8.7394	15.897969	0.000094	0.940872	0.159388	-0.000019
 567	5.6317e+01	8.7202	15.875972	0.000110	1.104502	0.187108	-0.000022
 568	5.6416e+01	8.6988	15.856420	0.000098	0.981780	0.166318	-0.000020
 569	5.6516e+01	8.6800	15.836460	0.000100	1.002234	0.169783	-0.000020
 570	5.6615e+01	8.6591	15.815278	0.000106	1.063595	0.180178	-0.000021
 571	5.6715e+01	8.6401	15.792467	0.000115	1.145410	0.194038	-0.000023
 572	5.6815e+01	8.6191	15.771285	0.000106	1.063595	0.180178	-0.000021
 573	5.6914e+01	8.5994	15.749696	0.000108	1.084049	0.183643	-0.000022
 574	5.7014e+01	8.5812	15.728514	0.000106	1.063595	0.180178	-0.000021
 575	5.7113e+01	8.5600	15.704481	0.000121	1.206771	0.204433	-0.000024
 576	5.7212e+01	8.5400	15.680855	0.000119	1.186317	0.200968	-0.000024
 577	5.7312e+01	8.5223	15.657637	0.000117	1.165864	0.197503	-0.000023
 578	5.7411e+01	8.5003	15.634011	0.000119	1.186317	0.200968	-0.000024
 579	5.7511e+01	8.4821	15.607534	0.000133	1.329493	0.225222	-0.000027
 580	5.7611e+01	8.4609	15.583500	0.000121	1.206771	0.204433	-0.000024
 581	5.7710e+01	8.4403	15.559874	0.000119	1.186317	0.200968	-0.000024
 582	5.7809e+01	8.4202	15.534212	0.000129	1.288586	0.218292	-0.000026
 583	5.7909e+01	8.4022	15.512623	0.000108	1.084049	0.183643	-0.000022
 584	5.8008e+01	8.3831	15.488182	0.000123	1.227225	0.207897	-0.000025
 585	5.8108e+01	8.3624	15.464964	0.000117	1.165864	0.197503	-0.000023
 586	5.8208e+01	8.3430	15.445004	0.000100	1.002234	0.169783	-0.000020
 587	5.8307e+01	8.3233	15.417305	0.000139	1.390855	0.235617	-0.000028
 588	5.8407e+01	8.3023	15.392049	0.000127	1.268132	0.214827	-0.000025
 589	5.8506e+01	8.2804	15.367609	0.000123	1.227225	0.207897	-0.000025
 590	5.8605e+01	8.2624	15.342354	0.000127	1.268132	0.214827	-0.000025
 591	5.8705e+01	8.2446	15.319950	0.000112	1.124956	0.190573	-0.000023
 592	5.8804e+01	8.2227	15.294287	0.000129	1.288586	0.218292	-0.000026
 593	5.8904e+01	8.2032	15.268625	0.000129	1.288586	0.218292	-0.000026
 594	5.9004e+01	8.1828	15.245813	0.000115	1.145410	0.194038	-0.000023
 595	5.9103e+01	8.1641	15.223002	0.000115	1.145410	0.194038	-0.000023
 596	5.9203e+01	8.1422	15.200598	0.000112	1.124956	0.190573	-0.000023
 597	5.9302e+01	8.1250	15.176158	0.000123	1.227225	0.207897	-0.000025
 598	5.9401e+01	8.1010	15.152125	0.000121	1.206771	0.204433	-0.000024
 599	5.9501e+01	8.0828	15.127277	0.000125	1.247678	0.211362	-0.000025
 600	5.9600e+01	8.0619	15.099577	0.000139	1.390855	0.235617	-0.000028
 601	5.9700e+01	8.0424	15.080025	0.000098	0.981780	0.166318	-0.000020
 602	5.9800e+01	8.0235	15.052326	0.000139	1.390855	0.235617	-0.000028
 603	5.9899e+01	8.0066	15.029514	0.000115	1.145410	0.194038	-0.000023
 604	5.9998e+01	7.9843	15.004259	0.000127	1.268132	0.214827	-0.000025
 605	6.0098e+01	7.9632	14.983485	0.000104	1.043141	0.176713	-0.000021
 606	6.0197e+01	7.9433	14.956193	0.000137	1.370401	0.232152	-0.000027
 607	6.0297e+01	7.9245	14.936233	0.000100	1.002234	0.169783	-0.000020
 608	6.0397e+01	7.9018	14.908126	0.000141	1.411308	0.239082	-0.000028
 609	6.0496e+01	7.8844	14.884908	0.000117	1.165864	0.197503	-0.000023
 610	6.0596e+01	7.8645	14.858023	0.000135	1.349947	0.228687	-0.000027
 611	6.0695e+01	7.8439	14.833175	0.000125	1.247678	0.211362	-0.000025
 612	6.0794e+01	7.8227	14.810772	0.000112	1.124956	0.190573	-0.000023
 613	6.0894e+01	7.8034	14.787960	0.000115	1.145410	0.194038	-0.000023
 614	6.0993e+01	7.7824	14.761076	0.000135	1.349947	0.228687	-0.000027
 615	6.1093e+01	7.7640	14.739487	0.000108	1.084049	0.183643	-0.000022
 616	6.1193e+01	7.7423	14.715861	0.000119	1.186317	0.200968	-0.000024
 617	6.1292e+01	7.7267	14.688569	0.000137	1.370401	0.232152	-0.000027
 618	6.1392e+01	7.7071	14.665350	0.000117	1.165864	0.197503	-0.000023
 619	6.1491e+01	7.6850	14.645390	0.000100	1.002234	0.169783	-0.000020
 620	6.1590e+01	7.6621	14.624616	0.000104	1.043141	0.176713	-0.000021
 621	6.1690e+01	7.6449	14.601397	0.000117	1.165864	0.197503	-0.000023
 622	6.1789e+01	7.6247	14.578586	0.000115	1.145410	0.194038	-0.000023
 623	6.1889e+01	7.6057	14.556182	0.000112	1.124956	0.190573	-0.000023
 624	6.1989e+01	7.5857	14.535815	0.000102	1.022687	0.173248	-0.000020
 625	6.2088e+01	7.5646	14.514226	0.000108	1.084049	0.183643	-0.000022
 626	6.2188e+01	7.5453	14.491008	0.000117	1.165864	0.197503	-0.000023
 627	6.2287e+01	7.5247	14.472270	0.000094	0.940872	0.159388	-0.000019
 628	6.2386e+01	7.5038	14.448644	0.000119	1.186317	0.200968	-0.000024
 629	6.2486e+01	7.4870	14.426240	0.000112	1.124956	0.190573	-0.000023
 630	6.2586e+01	7.4660	14.405466	0.000104	1.043141	0.176713	-0.000021
 631	6.2685e+01	7.4445	14.383877	0.000108	1.084049	0.183643	-0.000022
 632	6.2785e+01	7.4257	14.362287	0.000108	1.084049	0.183643	-0.000022
 633	6.2884e+01	7.4065	14.340291	0.000110	1.104502	0.187108	-0.000022
 634	6.2983e+01	7.3856	14.317887	0.000112	1.124956	0.190573	-0.000023
 635	6.3083e+01	7.3653	14.296705	0.000106	1.063595	0.180178	-0.000021
 636	6.3182e+01	7.3476	14.274709	0.000110	1.104502	0.187108	-0.000022
 637	6.3282e+01	7.3270	14.253527	0.000106	1.063595	0.180178	-0.000021
 638	6.3382e+01	7.3048	14.231530	0.000110	1.104502	0.187108	-0.000022
 639	6.3481e+01	7.2852	14.209127	0.000112	1.124956	0.190573	-0.000023
 640	6.3581e+01	7.2650	14.191611	0.000088	0.879511	0.148993	-0.000018
 641	6.3680e+01	7.2497	14.168800	0.000115	1.145410	0.194038	-0.000023
 642	6.3779e+01	7.2294	14.144359	0.000123	1.227225	0.207897	-0.000025
 643	6.3879e+01	7.2058	14.125214	0.000096	0.961326	0.162853	-0.000019
 644	6.3978e+01	7.1864	14.100366	0.000125	1.247678	0.211362	-0.000025
 645	6.4078e+01	7.1690	14.079999	0.000102	1.022687	0.173248	-0.000020
 646	6.4177e+01	7.1479	14.058002	0.000110	1.104502	0.187108	-0.000022
 647	6.4277e+01	7.1294	14.036413	0.000108	1.084049	0.183643	-0.000022
 648	6.4376e+01	7.1081	14.013602	0.000115	1.145410	0.194038	-0.000023
 649	6.4476e+01	7.0855	13.990791	0.000115	1.145410	0.194038	-0.000023
 650	6.4576e+01	7.0647	13.972868	0.000090	0.899965	0.152458	-0.000018
 651	6.4675e+01	7.0492	13.950464	0.000112	1.124956	0.190573	-0.000023
 652	6.4775e+01	7.0302	13.928468	0.000110	1.104502	0.187108	-0.000022
 653	6.4874e+01	7.0059	13.904027	0.000123	1.227225	0.207897	-0.000025
 654	6.4974e+01	6.9858	13.882845	0.000106	1.063595	0.180178	-0.000021
 655	6.5073e+01	6.9682	13.863293	0.000098	0.981780	0.166318	-0.000020
 656	6.5172e+01	6.9463	13.844962	0.000092	0.920419	0.155923	-0.000018
 657	6.5272e+01	6.9273	13.819707	0.000127	1.268132	0.214827	-0.000025
 658	6.5371e+01	6.9099	13.798118	0.000108	1.084049	0.183643	-0.000022
 659	6.5471e+01	6.8893	13.774899	0.000117	1.165864	0.197503	-0.000023
 660	6.5570e+01	6.8691	13.756976	0.000090	0.899965	0.152458	-0.000018
 661	6.5670e+01	6.8462	13.742719	0.000072	0.715881	0.121274	-0.000014
 662	6.5769e+01	6.8300	13.719501	0.000117	1.165864	0.197503	-0.000023
 663	6.5869e+01	6.8105	13.699948	0.000098	0.981780	0.166318	-0.000020
 664	6.5969e+01	6.7903	13.677952	0.000110	1.104502	0.187108	-0.000022
 665	6.6068e+01	6.7685	13.658807	0.000096	0.961326	0.162853	-0.000019
 666	6.6168e+01	6.7461	13.639254	0.000098	0.981780	0.166318	-0.000020
 667	6.6267e+01	6.7287	13.618073	0.000106	1.063595	0.180178	-0.000021
 668	6.6367e+01	6.7086	13.596483	0.000108	1.084049	0.183643	-0.000022
 669	6.6466e+01	6.6871	13.574487	0.000110	1.104502	0.187108	-0.000022
 670	6.6566e+01	6.6684	13.554120	0.000102	1.022687	0.173248	-0.000020
 671	6.6665e+01	6.6482	13.534975	0.000096	0.961326	0.162853	-0.000019
 672	6.6764e+01	6.6282	13.511756	0.000117	1.165864	0.197503	-0.000023
 673	6.6864e+01	6.6088	13.493018	0.000094	0.940872	0.159388	-0.000019
 674	6.6963e+01	6.5911	13.477947	0.000076	0.756789	0.128203	-0.000015
 675	6.7063e+01	6.5710	13.450247	0.000139	1.390855	0.235617	-0.000028
 676	6.7162e+01	6.5497	13.430288	0.000100	1.002234	0.169783	-0.000020
 677	6.7262e+01	6.5279	13.411550	0.000094	0.940872	0.159388	-0.000019
 678	6.7362e+01	6.5090	13.389961	0.000108	1.084049	0.183643	-0.000022
 679	6.7461e+01	6.4904	13.363891	0.000131	1.309040	0.221757	-0.000026
 680	6.7561e+01	6.4674	13.341894	0.000110	1.104502	0.187108	-0.000022
 681	6.7660e+01	6.4488	13.321120	0.000104	1.043141	0.176713	-0.000021
 682	6.7760e+01	6.4293	13.299123	0.000110	1.104502	0.187108	-0.000022
 683	6.7859e+01	6.4080	13.280386	0.000094	0.940872	0.159388	-0.000019
 684	6.7959e+01	6.3902	13.256760	0.000119	1.186317	0.200968	-0.000024
 685	6.8058e+01	6.3708	13.234356	0.000112	1.124956	0.190573	-0.000023
 686	6.8157e+01	6.3493	13.213174	0.000106	1.063595	0.180178	-0.000021
 687	6.8257e+01	6.3293	13.192807	0.000102	1.022687	0.173248	-0.000020
 688	6.8356e+01	6.3099	13.171218	0.000108	1.084049	0.183643	-0.000022
 689	6.8456e+01	6.2899	13.150443	0.000104	1.043141	0.176713	-0.000021
 690	6.8555e+01	6.2730	13.126410	0.000121	1.206771	0.204433	-0.000024
 691	6.8655e+01	6.2511	13.102784	0.000119	1.186317	0.200968	-0.000024
 692	6.8754e+01	6.2293	13.078344	0.000123	1.227225	0.207897	-0.000025
 693	6.8854e+01	6.2096	13.057977	0.000102	1.022687	0.173248	-0.000020
 694	6.8954e+01	6.1895	13.038017	0.000100	1.002234	0.169783	-0.000020
 695	6.9053e+01	6.1724	13.010317	0.000139	1.390855	0.235617	-0.000028
 696	6.9153e+01	6.1527	12.993616	0.000084	0.838604	0.142063	-0.000017
 697	6.9252e+01	6.1290	12.968768	0.000125	1.247678	0.211362	-0.000025
 698	6.9352e+01	6.1111	12.944328	0.000123	1.227225	0.207897	-0.000025
 699	6.9451e+01	6.0894	12.917851	0.000133	1.329493	0.225222	-0.000027
 700	6.9550e+01	6.0728	12.899113	0.000094	0.940872	0.159388	-0.000019
 701	6.9650e+01	6.0485	12.873450	0.000129	1.288586	0.218292	-0.000026
 702	6.9749e+01	6.0323	12.849417	0.000121	1.206771	0.204433	-0.000024
 703	6.9849e+01	6.0102	12.821718	0.000139	1.390855	0.235617	-0.000028
 704	6.9948e+01	5.9924	12.798499	0.000117	1.165864	0.197503	-0.000023
 705	7.0048e+01	5.9731	12.769171	0.000147	1.472670	0.249477	-0.000029
 706	7.0147e+01	5.9530	12.743101	0.000131	1.309040	0.221757	-0.000026
 707	7.0247e+01	5.9341	12.717031	0.000131	1.309040	0.221757	-0.000026
 708	7.0347e+01	5.9129	12.692998	0.000121	1.206771	0.204433	-0.000024
 709	7.0446e+01	5.8913	12.665298	0.000139	1.390855	0.235617	-0.000028
 710	7.0546e+01	5.8726	12.641672	0.000119	1.186317	0.200968	-0.000024
 711	7.0645e+01	5.8547	12.612751	0.000145	1.452216	0.246012	-0.000029
 712	7.0745e+01	5.8329	12.582608	0.000151	1.513577	0.256407	-0.000030
 713	7.0844e+01	5.8128	12.561019	0.000108	1.084049	0.183643	-0.000022
 714	7.0944e+01	5.7919	12.526802	0.000172	1.718115	0.291056	-0.000034
 715	7.1043e+01	5.7734	12.503176	0.000119	1.186317	0.200968	-0.000024
 716	7.1142e+01	5.7522	12.473033	0.000151	1.513577	0.256407	-0.000030
 717	7.1242e+01	5.7355	12.448185	0.000125	1.247678	0.211362	-0.000025
 718	7.1341e+01	5.7153	12.420893	0.000137	1.370401	0.232152	-0.000027
 719	7.1441e+01	5.6951	12.392786	0.000141	1.411308	0.239082	-0.000028
 720	7.1540e+01	5.6729	12.362235	0.000153	1.534031	0.259872	-0.000031
 721	7.1640e+01	5.6545	12.337388	0.000125	1.247678	0.211362	-0.000025
 722	7.1740e+01	5.6344	12.309688	0.000139	1.390855	0.235617	-0.000028
 723	7.1839e+01	5.6130	12.280767	0.000145	1.452216	0.246012	-0.000029
 724	7.1939e+01	5.5926	12.253475	0.000137	1.370401	0.232152	-0.000027
 725	7.2038e+01	5.5743	12.226590	0.000135	1.349947	0.228687	-0.000027
 726	7.2138e+01	5.5563	12.195632	0.000155	1.554485	0.263337	-0.000031
 727	7.2237e+01	5.5335	12.171192	0.000123	1.227225	0.207897	-0.000025
 728	7.2337e+01	5.5134	12.139826	0.000157	1.574938	0.266802	-0.000032
 729	7.2436e+01	5.4925	12.111720	0.000141	1.411308	0.239082	-0.000028
 730	7.2535e+01	5.4729	12.080762	0.000155	1.554485	0.263337	-0.000031
 731	7.2635e+01	5.4546	12.056321	0.000123	1.227225	0.207897	-0.000025
 732	7.2734e+01	5.4342	12.026993	0.000147	1.472670	0.249477	-0.000029
 733	7.2834e+01	5.4142	11.996849	0.000151	1.513577	0.256407	-0.000030
 734	7.2933e+01	5.3957	11.966706	0.000151	1.513577	0.256407	-0.000030
 735	7.3033e+01	5.3737	11.940636	0.000131	1.309040	0.221757	-0.000026
 736	7.3132e+01	5.3567	11.910900	0.000149	1.493123	0.252942	-0.000030
 737	7.3232e+01	5.3340	11.880349	0.000153	1.534031	0.259872	-0.000031
 738	7.3332e+01	5.3149	11.851835	0.000143	1.431762	0.242547	-0.000029
 739	7.3431e+01	5.2937	11.822099	0.000149	1.493123	0.252942	-0.000030
 740	7.3531e+01	5.2743	11.789104	0.000166	1.656753	0.280662	-0.000033
 741	7.3630e+01	5.2554	11.759776	0.000147	1.472670	0.249477	-0.000029
 742	7.3730e+01	5.2351	11.730040	0.000149	1.493123	0.252942	-0.000030
 743	7.3829e+01	5.2158	11.699896	0.000151	1.513577	0.256407	-0.000030
 744	7.3928e+01	5.1943	11.666494	0.000168	1.677207	0.284127	-0.000034
 745	7.4028e+01	5.1749	11.633092	0.000168	1.677207	0.284127	-0.000034
 746	7.4127e+01	5.1541	11.603356	0.000149	1.493123	0.252942	-0.000030
 747	7.4227e+01	5.1350	11.569954	0.000168	1.677207	0.284127	-0.000034
 748	7.4326e+01	5.1143	11.538181	0.000160	1.595392	0.270267	-0.000032
 749	7.4426e+01	5.0941	11.506816	0.000157	1.574938	0.266802	-0.000032
 750	7.4525e+01	5.0751	11.476673	0.000151	1.513577	0.256407	-0.000030
 751	7.4625e+01	5.0542	11.444493	0.000162	1.615846	0.273732	-0.000032
 752	7.4725e+01	5.0365	11.412313	0.000162	1.615846	0.273732	-0.000032
 753	7.4824e+01	5.0172	11.382577	0.000149	1.493123	0.252942	-0.000030
 754	7.4924e+01	4.9987	11.349582	0.000166	1.656753	0.280662	-0.000033
 755	7.5023e+01	4.9758	11.314958	0.000174	1.738568	0.294521	-0.000035
 756	7.5123e+01	4.9578	11.279519	0.000178	1.779476	0.301451	-0.000036
 757	7.5222e+01	4.9381	11.250190	0.000147	1.472670	0.249477	-0.000029
 758	7.5322e+01	4.9169	11.216381	0.000170	1.697661	0.287592	-0.000034
 759	7.5421e+01	4.8938	11.182979	0.000168	1.677207	0.284127	-0.000034
 760	7.5520e+01	4.8743	11.153650	0.000147	1.472670	0.249477	-0.000029
 761	7.5620e+01	4.8573	11.121063	0.000164	1.636300	0.277197	-0.000033
 762	7.5719e+01	4.8363	11.086439	0.000174	1.738568	0.294521	-0.000035
 763	7.5819e+01	4.8156	11.056295	0.000151	1.513577	0.256407	-0.000030
 764	7.5918e+01	4.7968	11.024930	0.000157	1.574938	0.266802	-0.000032
 765	7.6018e+01	4.7750	10.993157	0.000160	1.595392	0.270267	-0.000032
 766	7.6118e+01	4.7560	10.962606	0.000153	1.534031	0.259872	-0.000031
 767	7.6217e+01	4.7374	10.926353	0.000182	1.820383	0.308381	-0.000036
 768	7.6317e+01	4.7183	10.893358	0.000166	1.656753	0.280662	-0.000033
 769	7.6416e+01	4.6980	10.860771	0.000164	1.636300	0.277197	-0.000033
 770	7.6516e+01	4.6767	10.830220	0.000153	1.534031	0.259872	-0.000031
 771	7.6615e+01	4.6593	10.797633	0.000164	1.636300	0.277197	-0.000033
 772	7.6715e+01	4.6362	10.764638	0.000166	1.656753	0.280662	-0.000033
 773	7.6814e+01	4.6160	10.733680	0.000155	1.554485	0.263337	-0.000031
 774	7.6913e+01	4.5983	10.701907	0.000160	1.595392	0.270267	-0.000032
 775	7.7013e+01	4.5760	10.668505	0.000168	1.677207	0.284127	-0.000034
 776	7.7112e+01	4.5571	10.635918	0.000164	1.636300	0.277197	-0.000033
 777	7.7212e+01	4.5373	10.600479	0.000178	1.779476	0.301451	-0.000036
 778	7.7311e+01	4.5191	10.567077	0.000168	1.677207	0.284127	-0.000034
 779	7.7411e+01	4.4968	10.535304	0.000160	1.595392	0.270267	-0.000032
 780	7.7510e+01	4.4801	10.504346	0.000155	1.554485	0.263337	-0.000031
 781	7.7610e+01	4.4588	10.469722	0.000174	1.738568	0.294521	-0.000035
 782	7.7710e+01	4.4378	10.440801	0.000145	1.452216	0.246012	-0.000029
 783	7.7809e+01	4.4170	10.405362	0.000178	1.779476	0.301451	-0.000036
 784	7.7909e+01	4.3967	10.377255	0.000141	1.411308	0.239082	-0.000028
 785	7.8008e+01	4.3784	10.344668	0.000164	1.636300	0.277197	-0.000033
 786	7.8108e+01	4.3579	10.317376	0.000137	1.370401	0.232152	-0.000027
 787	7.8207e+01	4.3372	10.284788	0.000164	1.636300	0.277197	-0.000033
 788	7.8306e+01	4.3194	10.247313	0.000188	1.881745	0.318776	-0.000038
 789	7.8406e+01	4.2983	10.219206	0.000141	1.411308	0.239082	-0.000028
 790	7.8505e+01	4.2789	10.191100	0.000141	1.411308	0.239082	-0.000028
 791	7.8605e+01	4.2599	10.163808	0.000137	1.370401	0.232152	-0.000027
 792	7.8704e+01	4.2410	10.128776	0.000176	1.759022	0.297986	-0.000035
 793	7.8804e+01	4.2197	10.098633	0.000151	1.513577	0.256407	-0.000030
 794	7.8903e+01	4.1991	10.067675	0.000155	1.554485	0.263337	-0.000031
 795	7.9003e+01	4.1780	10.039568	0.000141	1.411308	0.239082	-0.000028
 796	7.9103e+01	4.1586	10.006981	0.000164	1.636300	0.277197	-0.000033
 797	7.9202e+01	4.1392	9.975615	0.000157	1.574938	0.266802	-0.000032
 798	7.9302e+01	4.1199	9.947101	0.000143	1.431762	0.242547	-0.000029
 799	7.9401e+01	4.0978	9.921439	0.000129	1.288586	0.218292	-0.000026
 800	7.9501e+01	4.0797	9.888444	0.000166	1.656753	0.280662	-0.000033
 801	7.9600e+01	4.0597	9.855449	0.000166	1.656753	0.280662	-0.000033
 802	7.9700e+01	4.0385	9.828157	0.000137	1.370401	0.232152	-0.000027
 803	7.9799e+01	4.0203	9.797199	0.000155	1.554485	0.263337	-0.000031
 804	7.9898e+01	3.9994	9.762983	0.000172	1.718115	0.291056	-0.000034
 805	7.9998e+01	3.9785	9.736098	0.000135	1.349947	0.228687	-0.000027
 806	8.0097e+01	3.9633	9.708399	0.000139	1.390855	0.235617	-0.000028
 807	8.0197e+01	3.9391	9.674589	0.000170	1.697661	0.287592	-0.000034
 808	8.0296e+01	3.9186	9.646890	0.000139	1.390855	0.235617	-0.000028
 809	8.0396e+01	3.9016	9.613081	0.000170	1.697661	0.287592	-0.000034
 810	8.0496e+01	3.8790	9.582123	0.000155	1.554485	0.263337	-0.000031
 811	8.0595e+01	3.8593	9.553609	0.000143	1.431762	0.242547	-0.000029
 812	8.0695e+01	3.8396	9.523465	0.000151	1.513577	0.256407	-0.000030
 813	8.0794e+01	3.8206	9.493729	0.000149	1.493123	0.252942	-0.000030
 814	8.0894e+01	3.8003	9.466030	0.000139	1.390855	0.235617	-0.000028
 815	8.0993e+01	3.7792	9.428962	0.000186	1.861291	0.315311	-0.000037
 816	8.1093e+01	3.7605	9.400040	0.000145	1.452216	0.246012	-0.000029
 817	8.1192e+01	3.7383	9.371119	0.000145	1.452216	0.246012	-0.000029
 818	8.1291e+01	3.7206	9.337310	0.000170	1.697661	0.287592	-0.000034
 819	8.1391e+01	3.7008	9.312054	0.000127	1.268132	0.214827	-0.000025
 820	8.1490e+01	3.6806	9.279060	0.000166	1.656753	0.280662	-0.000033
 821	8.1590e+01	3.6625	9.248102	0.000155	1.554485	0.263337	-0.000031
 822	8.1689e+01	3.6415	9.218773	0.000147	1.472670	0.249477	-0.000029
 823	8.1789e+01	3.6217	9.186593	0.000162	1.615846	0.273732	-0.000032
 824	8.1888e+01	3.6010	9.156042	0.000153	1.534031	0.259872	-0.000031
 825	8.1988e+01	3.5809	9.126714	0.000147	1.472670	0.249477	-0.000029
 826	8.2088e+01	3.5630	9.096570	0.000151	1.513577	0.256407	-0.000030
 827	8.2187e+01	3.5406	9.068056	0.000143	1.431762	0.242547	-0.000029
 828	8.2287e+01	3.5246	9.037098	0.000155	1.554485	0.263337	-0.000031
 829	8.2386e+01	3.5012	9.007770	0.000147	1.472670	0.249477	-0.000029
 830	8.2486e+01	3.4827	8.982514	0.000127	1.268132	0.214827	-0.000025
 831	8.2585e+01	3.4623	8.949520	0.000166	1.656753	0.280662	-0.000033
 832	8.2684e+01	3.4411	8.918154	0.000157	1.574938	0.266802	-0.000032
 833	8.2784e+01	3.4232	8.892899	0.000127	1.268132	0.214827	-0.000025
 834	8.2883e+01	3.4007	8.862756	0.000151	1.513577	0.256407	-0.000030
 835	8.2983e+01	3.3820	8.834242	0.000143	1.431762	0.242547	-0.000029
 836	8.3082e+01	3.3639	8.802876	0.000157	1.574938	0.266802	-0.000032
 837	8.3182e+01	3.3398	8.772733	0.000151	1.513577	0.256407	-0.000030
 838	8.3281e+01	3.3212	8.749107	0.000119	1.186317	0.200968	-0.000024
 839	8.3381e+01	3.3027	8.711224	0.000190	1.902198	0.322241	-0.000038
 840	8.3481e+01	3.2826	8.683525	0.000139	1.390855	0.235617	-0.000028
 841	8.3580e+01	3.2628	8.654196	0.000147	1.472670	0.249477	-0.000029
 842	8.3680e+01	3.2414	8.624460	0.000149	1.493123	0.252942	-0.000030
 843	8.3779e+01	3.2226	8.590243	0.000172	1.718115	0.291056	-0.000034
 844	8.3879e+01	3.1997	8.560507	0.000149	1.493123	0.252942	-0.000030
 845	8.3978e+01	3.1832	8.534437	0.000131	1.309040	0.221757	-0.000026
 846	8.4078e+01	3.1634	8.500628	0.000170	1.697661	0.287592	-0.000034
 847	8.4177e+01	3.1434	8.468855	0.000160	1.595392	0.270267	-0.000032
 848	8.4276e+01	3.1240	8.435861	0.000166	1.656753	0.280662	-0.000033
 849	8.4376e+01	3.1037	8.404495	0.000157	1.574938	0.266802	-0.000032
 850	8.4475e+01	3.0816	8.375981	0.000143	1.431762	0.242547	-0.000029
 851	8.4575e+01	3.0637	8.347467	0.000143	1.431762	0.242547	-0.000029
 852	8.4674e+01	3.0454	8.314472	0.000166	1.656753	0.280662	-0.000033
 853	8.4774e+01	3.0223	8.283107	0.000157	1.574938	0.266802	-0.000032
 854	8.4874e+01	3.0047	8.251334	0.000160	1.595392	0.270267	-0.000032
 855	8.4973e+01	2.9832	8.218747	0.000164	1.636300	0.277197	-0.000033
 856	8.5073e+01	2.9626	8.189418	0.000147	1.472670	0.249477	-0.000029
 857	8.5172e+01	2.9430	8.154794	0.000174	1.738568	0.294521	-0.000035
 858	8.5272e+01	2.9211	8.123021	0.000160	1.595392	0.270267	-0.000032
 859	8.5371e+01	2.9049	8.092063	0.000155	1.554485	0.263337	-0.000031
 860	8.5471e+01	2.8849	8.061513	0.000153	1.534031	0.259872	-0.000031
 861	8.5570e+01	2.8625	8.030555	0.000155	1.554485	0.263337	-0.000031
 862	8.5669e+01	2.8447	7.995931	0.000174	1.738568	0.294521	-0.000035
 863	8.5769e+01	2.8242	7.962936	0.000166	1.656753	0.280662	-0.000033
 864	8.5868e+01	2.8089	7.932385	0.000153	1.534031	0.259872	-0.000031
 865	8.5968e+01	2.7859	7.898576	0.000170	1.697661	0.287592	-0.000034
 866	8.6067e+01	2.7660	7.867210	0.000157	1.574938	0.266802	-0.000032
 867	8.6167e+01	2.7426	7.832994	0.000172	1.718115	0.291056	-0.000034
 868	8.6266e+01	2.7285	7.796740	0.000182	1.820383	0.308381	-0.000036
 869	8.6366e+01	2.7041	7.762931	0.000170	1.697661	0.287592	-0.000034
 870	8.6466e+01	2.6842	7.730343	0.000164	1.636300	0.277197	-0.000033
 871	8.6565e+01	2.6682	7.696126	0.000172	1.718115	0.291056	-0.000034
 872	8.6665e+01	2.6454	7.657429	0.000194	1.943106	0.329171	-0.000039
 873	8.6764e+01	2.6245	7.623620	0.000170	1.697661	0.287592	-0.000034
 874	8.6864e+01	2.6052	7.587366	0.000182	1.820383	0.308381	-0.000036
 875	8.6963e+01	2.5845	7.552742	0.000174	1.738568	0.294521	-0.000035
 876	8.7063e+01	2.5649	7.513230	0.000198	1.984013	0.336101	-0.000040
 877	8.7162e+01	2.5451	7.481050	0.000162	1.615846	0.273732	-0.000032
 878	8.7261e+01	2.5265	7.438686	0.000213	2.127190	0.360356	-0.000043
 879	8.7361e+01	2.5087	7.405691	0.000166	1.656753	0.280662	-0.000033
 880	8.7460e+01	2.4848	7.369030	0.000184	1.840837	0.311846	-0.000037
 881	8.7560e+01	2.4679	7.330333	0.000194	1.943106	0.329171	-0.000039
 882	8.7659e+01	2.4494	7.293265	0.000186	1.861291	0.315311	-0.000037
 883	8.7759e+01	2.4250	7.258233	0.000176	1.759022	0.297986	-0.000035
 884	8.7859e+01	2.4059	7.218314	0.000200	2.004467	0.339566	-0.000040
 885	8.7958e+01	2.3843	7.176765	0.000209	2.086282	0.353426	-0.000042
 886	8.8058e+01	2.3665	7.142548	0.000172	1.718115	0.291056	-0.000034
 887	8.8157e+01	2.3480	7.105887	0.000184	1.840837	0.311846	-0.000037
 888	8.8257e+01	2.3280	7.067190	0.000194	1.943106	0.329171	-0.000039
 889	8.8356e+01	2.3078	7.026455	0.000205	2.045375	0.346496	-0.000041
 890	8.8456e+01	2.2839	6.992646	0.000170	1.697661	0.287592	-0.000034
 891	8.8555e+01	2.2666	6.951912	0.000205	2.045375	0.346496	-0.000041
 892	8.8654e+01	2.2472	6.916880	0.000176	1.759022	0.297986	-0.000035
 893	8.8754e+01	2.2262	6.877775	0.000196	1.963560	0.332636	-0.000039
 894	8.8853e+01	2.2070	6.842337	0.000178	1.779476	0.301451	-0.000036
 895	8.8953e+01	2.1870	6.804046	0.000192	1.922652	0.325706	-0.000038
 896	8.9052e+01	2.1667	6.762090	0.000211	2.106736	0.356891	-0.000042
 897	8.9152e+01	2.1468	6.723392	0.000194	1.943106	0.329171	-0.000039
 898	8.9251e+01	2.1250	6.684695	0.000194	1.943106	0.329171	-0.000039
 899	8.9351e+01	2.1088	6.646812	0.000190	1.902198	0.322241	-0.000038
 900	8.9451e+01	2.0874	6.604856	0.000211	2.106736	0.356891	-0.000042
 901	8.9550e+01	2.0670	6.566973	0.000190	1.902198	0.322241	-0.000038
 902	8.9650e+01	2.0470	6.527868	0.000196	1.963560	0.332636	-0.000039
 903	8.9749e+01	2.0287	6.490800	0.000186	1.861291	0.315311	-0.000037
 904	8.9849e+01	2.0094	6.449251	0.000209	2.086282	0.353426	-0.000042
 905	8.9948e+01	1.9868	6.409739	0.000198	1.984013	0.336101	-0.000040
 906	9.0047e+01	1.9685	6.368597	0.000207	2.065828	0.349961	-0.000041
 907	9.0147e+01	1.9463	6.334380	0.000172	1.718115	0.291056	-0.000034
 908	9.0246e+01	1.9279	6.293646	0.000205	2.045375	0.346496	-0.000041
 909	9.0346e+01	1.9070	6.250468	0.000217	2.168097	0.367286	-0.000043
 910	9.0445e+01	1.8884	6.207289	0.000217	2.168097	0.367286	-0.000043
 911	9.0545e+01	1.8681	6.172665	0.000174	1.738568	0.294521	-0.000035
 912	9.0644e+01	1.8484	6.125414	0.000237	2.372635	0.401935	-0.000047
 913	9.0744e+01	1.8293	6.083050	0.000213	2.127190	0.360356	-0.000043
 914	9.0844e+01	1.8085	6.042723	0.000202	2.024921	0.343031	-0.000041
 915	9.0943e+01	1.7879	6.000767	0.000211	2.106736	0.356891	-0.000042
 916	9.1043e+01	1.7687	5.957996	0.000215	2.147643	0.363821	-0.000043
 917	9.1142e+01	1.7478	5.916854	0.000207	2.065828	0.349961	-0.000041
 918	9.1242e+01	1.7298	5.876527	0.000202	2.024921	0.343031	-0.000041
 919	9.1341e+01	1.7075	5.833756	0.000215	2.147643	0.363821	-0.000043
 920	9.1441e+01	1.6886	5.790985	0.000215	2.147643	0.363821	-0.000043
 921	9.1540e+01	1.6676	5.749436	0.000209	2.086282	0.353426	-0.000042
 922	9.1639e+01	1.6509	5.702592	0.000235	2.352181	0.398470	-0.000047
 923	9.1739e+01	1.6264	5.660228	0.000213	2.127190	0.360356	-0.000043
 924	9.1838e+01	1.6100	5.616643	0.000219	2.188551	0.370751	-0.000044
 925	9.1938e+01	1.5891	5.579982	0.000184	1.840837	0.311846	-0.000037
 926	9.2037e+01	1.5726	5.535989	0.000221	2.209005	0.374215	-0.000044
 927	9.2137e+01	1.5516	5.492403	0.000219	2.188551	0.370751	-0.000044
 928	9.2237e+01	1.5290	5.452484	0.000200	2.004467	0.339566	-0.000040
 929	9.2336e+01	1.5105	5.406861	0.000229	2.290820	0.388075	-0.000046
 930	9.2436e+01	1.4890	5.366534	0.000202	2.024921	0.343031	-0.000041
 931	9.2535e+01	1.4700	5.324171	0.000213	2.127190	0.360356	-0.000043
 932	9.2635e+01	1.4492	5.278548	0.000229	2.290820	0.388075	-0.000046
 933	9.2734e+01	1.4315	5.239851	0.000194	1.943106	0.329171	-0.000039
 934	9.2834e+01	1.4083	5.194229	0.000229	2.290820	0.388075	-0.000046
 935	9.2933e+01	1.3908	5.151865	0.000213	2.127190	0.360356	-0.000043
 936	9.3032e+01	1.3664	5.111131	0.000205	2.045375	0.346496	-0.000041
 937	9.3132e+01	1.3514	5.064694	0.000233	2.331727	0.395005	-0.000047
 938	9.3231e+01	1.3296	5.023145	0.000209	2.086282	0.353426	-0.000042
 939	9.3331e+01	1.3114	4.984447	0.000194	1.943106	0.329171	-0.000039
 940	9.3430e+01	1.2920	4.941269	0.000217	2.168097	0.367286	-0.000043
 941	9.3530e+01	1.2699	4.897683	0.000219	2.188551	0.370751	-0.000044
 942	9.3629e+01	1.2537	4.856542	0.000207	2.065828	0.349961	-0.000041
 943	9.3729e+01	1.2322	4.810919	0.000229	2.290820	0.388075	-0.000046
 944	9.3829e+01	1.2112	4.768556	0.000213	2.127190	0.360356	-0.000043
 945	9.3928e+01	1.1927	4.726599	0.000211	2.106736	0.356891	-0.000042
 946	9.4028e+01	1.1704	4.682199	0.000223	2.229458	0.377680	-0.000045
 947	9.4127e+01	1.1545	4.639835	0.000213	2.127190	0.360356	-0.000043
 948	9.4227e+01	1.1314	4.595842	0.000221	2.209005	0.374215	-0.000044
 949	9.4326e+01	1.1125	4.555108	0.000205	2.045375	0.346496	-0.000041
 950	9.4425e+01	1.0895	4.512337	0.000215	2.147643	0.363821	-0.000043
 951	9.4525e+01	1.0732	4.470381	0.000211	2.106736	0.356891	-0.000042
 952	9.4624e+01	1.0527	4.429239	0.000207	2.065828	0.349961	-0.000041
 953	9.4724e+01	1.0316	4.386468	0.000215	2.147643	0.363821	-0.000043
 954	9.4823e+01	1.0130	4.348993	0.000188	1.881745	0.318776	-0.000038
 955	9.4923e+01	0.9890	4.305814	0.000217	2.168097	0.367286	-0.000043
 956	9.5022e+01	0.9700	4.266710	0.000196	1.963560	0.332636	-0.000039
 957	9.5122e+01	0.9539	4.223939	0.000215	2.147643	0.363821	-0.000043
 958	9.5222e+01	0.9340	4.183204	0.000205	2.045375	0.346496	-0.000041
 959	9.5321e+01	0.9116	4.142063	0.000207	2.065828	0.349961	-0.000041
 960	9.5421e+01	0.8920	4.104587	0.000188	1.881745	0.318776	-0.000038
 961	9.5520e+01	0.8726	4.060594	0.000221	2.209005	0.374215	-0.000044
 962	9.5620e+01	0.8524	4.019860	0.000205	2.045375	0.346496	-0.000041
 963	9.5719e+01	0.8315	3.978718	0.000207	2.065828	0.349961	-0.000041
 964	9.5819e+01	0.8109	3.940836	0.000190	1.902198	0.322241	-0.000038
 965	9.5918e+01	0.7926	3.903360	0.000188	1.881745	0.318776	-0.000038
 966	9.6017e+01	0.7744	3.860589	0.000215	2.147643	0.363821	-0.000043
 967	9.6117e+01	0.7508	3.819040	0.000209	2.086282	0.353426	-0.000042
 968	9.6216e+01	0.7352	3.781565	0.000188	1.881745	0.318776	-0.000038
 969	9.6316e+01	0.7133	3.742460	0.000196	1.963560	0.332636	-0.000039
 970	9.6415e+01	0.6944	3.701318	0.000207	2.065828	0.349961	-0.000041
 971	9.6515e+01	0.6744	3.658140	0.000217	2.168097	0.367286	-0.000043
 972	9.6615e+01	0.6535	3.618220	0.000200	2.004467	0.339566	-0.000040
 973	9.6714e+01	0.6336	3.576671	0.000209	2.086282	0.353426	-0.000042
 974	9.6814e+01	0.6116	3.536752	0.000200	2.004467	0.339566	-0.000040
 975	9.6913e+01	0.5933	3.495610	0.000207	2.065828	0.349961	-0.000041
 976	9.7013e+01	0.5720	3.453654	0.000211	2.106736	0.356891	-0.000042
 977	9.7112e+01	0.5550	3.418622	0.000176	1.759022	0.297986	-0.000035
 978	9.7212e+01	0.5338	3.375851	0.000215	2.147643	0.363821	-0.000043
 979	9.7311e+01	0.5137	3.335117	0.000205	2.045375	0.346496	-0.000041
 980	9.7410e+01	0.4932	3.297234	0.000190	1.902198	0.322241	-0.000038
 981	9.7510e+01	0.4764	3.254056	0.000217	2.168097	0.367286	-0.000043
 982	9.7609e+01	0.4548	3.212507	0.000209	2.086282	0.353426	-0.000042
 983	9.7709e+01	0.4363	3.175846	0.000184	1.840837	0.311846	-0.000037
 984	9.7808e+01	0.4124	3.134297	0.000209	2.086282	0.353426	-0.000042
 985	9.7908e+01	0.3941	3.095192	0.000196	1.963560	0.332636	-0.000039
 986	9.8007e+01	0.3749	3.055680	0.000198	1.984013	0.336101	-0.000040
 987	9.8107e+01	0.3565	3.014131	0.000209	2.086282	0.353426	-0.000042
 988	9.8207e+01	0.3368	2.973397	0.000205	2.045375	0.346496	-0.000041
 989	9.8306e+01	0.3166	2.935107	0.000192	1.922652	0.325706	-0.000038
 990	9.8406e+01	0.2966	2.895595	0.000198	1.984013	0.336101	-0.000040
 991	9.8505e+01	0.2740	2.856897	0.000194	1.943106	0.329171	-0.000039
 992	9.8605e+01	0.2545	2.813719	0.000217	2.168097	0.367286	-0.000043
 993	9.8704e+01	0.2345	2.773392	0.000202	2.024921	0.343031	-0.000041
 994	9.8803e+01	0.2190	2.735509	0.000190	1.902198	0.322241	-0.000038
 995	9.8903e+01	0.1945	2.693960	0.000209	2.086282	0.353426	-0.000042
 996	9.9002e+01	0.1787	2.662595	0.000157	1.574938	0.266802	-0.000032
 997	9.9102e+01	0.1547	2.620638	0.000211	2.106736	0.356891	-0.000042
 998	9.9201e+01	0.1347	2.582348	0.000192	1.922652	0.325706	-0.000038
 999	9.9301e+01	0.1160	2.541614	0.000205	2.045375	0.346496	-0.000041
1000	9.9400e+01	0.0974	2.504953	0.000184	1.840837	0.311846	-0.000037
1001	9.9500e+01	0.0749	2.466663	0.000192	1.922652	0.325706	-0.000038
1002	9.9600e+01	0.0562	2.424299	0.000213	2.127190	0.360356	-0.000043
1003	9.9699e+01	0.0349	2.387638	0.000184	1.840837	0.311846	-0.000037
1004	9.9799e+01	0.0171	2.347311	0.000202	2.024921	0.343031	-0.000041
1005	9.9898e+01	-0.0045	2.309836	0.000188	1.881745	0.318776	-0.000038
1006	9.9998e+01	-0.0220	2.268694	0.000207	2.065828	0.349961	-0.000041
1007	1.0010e+02	-0.0434	2.233256	0.000178	1.779476	0.301451	-0.000036
1008	1.0020e+02	-0.0620	2.194558	0.000194	1.943106	0.329171	-0.000039
1009	1.0030e+02	-0.0837	2.158305	0.000182	1.820383	0.308381	-0.000036
1010	1.0040e+02	-0.1019	2.117570	0.000205	2.045375	0.346496	-0.000041
1011	1.0050e+02	-0.1229	2.080095	0.000188	1.881745	0.318776	-0.000038
1012	1.0059e+02	-0.1423	2.038138	0.000211	2.106736	0.356891	-0.000042
1013	1.0069e+02	-0.1633	1.996997	0.000207	2.065828	0.349961	-0.000041
1014	1.0079e+02	-0.1835	1.960336	0.000184	1.840837	0.311846	-0.000037
1015	1.0089e+02	-0.2017	1.915528	0.000225	2.249912	0.381145	-0.000045
1016	1.0099e+02	-0.2190	1.878053	0.000188	1.881745	0.318776	-0.000038
1017	1.0109e+02	-0.2425	1.836504	0.000209	2.086282	0.353426	-0.000042
1018	1.0119e+02	-0.2631	1.797399	0.000196	1.963560	0.332636	-0.000039
1019	1.0129e+02	-0.2808	1.758701	0.000194	1.943106	0.329171	-0.000039
1020	1.0139e+02	-0.2997	1.718375	0.000202	2.024921	0.343031	-0.000041
1021	1.0149e+02	-0.3202	1.678048	0.000202	2.024921	0.343031	-0.000041
1022	1.0159e+02	-0.3411	1.639350	0.000194	1.943106	0.329171	-0.000039
1023	1.0169e+02	-0.3623	1.599431	0.000200	2.004467	0.339566	-0.000040
1024	1.0179e+02	-0.3835	1.557067	0.000213	2.127190	0.360356	-0.000043
1025	1.0189e+02	-0.4015	1.515518	0.000209	2.086282	0.353426	-0.000042
1026	1.0199e+02	-0.4210	1.472747	0.000215	2.147643	0.363821	-0.000043
1027	1.0209e+02	-0.4411	1.436494	0.000182	1.820383	0.308381	-0.000036
1028	1.0219e+02	-0.4606	1.394130	0.000213	2.127190	0.360356	-0.000043
1029	1.0229e+02	-0.4794	1.357062	0.000186	1.861291	0.315311	-0.000037
1030	1.0239e+02	-0.5027	1.318364	0.000194	1.943106	0.329171	-0.000039
1031	1.0248e+02	-0.5194	1.275186	0.000217	2.168097	0.367286	-0.000043
1032	1.0258e+02	-0.5416	1.232822	0.000213	2.127190	0.360356	-0.000043
1033	1.0268e+02	-0.5582	1.195754	0.000186	1.861291	0.315311	-0.000037
1034	1.0278e+02	-0.5809	1.150132	0.000229	2.290820	0.388075	-0.000046
1035	1.0288e+02	-0.6003	1.113878	0.000182	1.820383	0.308381	-0.000036
1036	1.0298e+02	-0.6209	1.068663	0.000227	2.270366	0.384610	-0.000045
1037	1.0308e+02	-0.6410	1.024670	0.000221	2.209005	0.374215	-0.000044
1038	1.0318e+02	-0.6580	0.983121	0.000209	2.086282	0.353426	-0.000042
1039	1.0328e+02	-0.6805	0.936277	0.000235	2.352181	0.398470	-0.000047
1040	1.0338e+02	-0.7005	0.897579	0.000194	1.943106	0.329171	-0.000039
1041	1.0348e+02	-0.7181	0.855216	0.000213	2.127190	0.360356	-0.000043
1042	1.0358e+02	-0.7407	0.810408	0.000225	2.249912	0.381145	-0.000045
1043	1.0368e+02	-0.7611	0.765193	0.000227	2.270366	0.384610	-0.000045
1044	1.0378e+02	-0.7800	0.721607	0.000219	2.188551	0.370751	-0.000044
1045	1.0388e+02	-0.7981	0.675985	0.000229	2.290820	0.388075	-0.000046
1046	1.0398e+02	-0.8229	0.625882	0.000252	2.515811	0.426190	-0.000050
1047	1.0408e+02	-0.8402	0.589628	0.000182	1.820383	0.308381	-0.000036
1048	1.0418e+02	-0.8609	0.539933	0.000250	2.495357	0.422725	-0.000050
1049	1.0428e+02	-0.8783	0.497976	0.000211	2.106736	0.356891	-0.000042
1050	1.0438e+02	-0.8987	0.453169	0.000225	2.249912	0.381145	-0.000045
1051	1.0447e+02	-0.9206	0.410805	0.000213	2.127190	0.360356	-0.000043
1052	1.0457e+02	-0.9391	0.363553	0.000237	2.372635	0.401935	-0.000047
1053	1.0467e+02	-0.9604	0.319153	0.000223	2.229458	0.377680	-0.000045
1054	1.0477e+02	-0.9798	0.273938	0.000227	2.270366	0.384610	-0.000045
1055	1.0487e+02	-1.0001	0.227501	0.000233	2.331727	0.395005	-0.000047
1056	1.0497e+02	-1.0197	0.185545	0.000211	2.106736	0.356891	-0.000042
1057	1.0507e+02	-1.0397	0.140330	0.000227	2.270366	0.384610	-0.000045
1058	1.0517e+02	-1.0590	0.093078	0.000237	2.372635	0.401935	-0.000047
1059	1.0527e+02	-1.0805	0.050307	0.000215	2.147643	0.363821	-0.000043
1060	1.0537e+02	-1.0964	0.007943	0.000213	2.127190	0.360356	-0.000043
1061	1.0547e+02	-1.1176	-0.042567	0.000254	2.536264	0.429655	-0.000051
1062	1.0557e+02	-1.1387	-0.082487	0.000200	2.004467	0.339566	-0.000040
1063	1.0567e+02	-1.1594	-0.132183	0.000250	2.495357	0.422725	-0.000050
1064	1.0577e+02	-1.1780	-0.176176	0.000221	2.209005	0.374215	-0.000044
1065	1.0587e+02	-1.1968	-0.220983	0.000225	2.249912	0.381145	-0.000045
1066	1.0597e+02	-1.2183	-0.267420	0.000233	2.331727	0.395005	-0.000047
1067	1.0607e+02	-1.2373	-0.308969	0.000209	2.086282	0.353426	-0.000042
1068	1.0617e+02	-1.2576	-0.353777	0.000225	2.249912	0.381145	-0.000045
1069	1.0627e+02	-1.2767	-0.397770	0.000221	2.209005	0.374215	-0.000044
1070	1.0637e+02	-1.2970	-0.445429	0.000239	2.393088	0.405400	-0.000048
1071	1.0647e+02	-1.3184	-0.490237	0.000225	2.249912	0.381145	-0.000045
1072	1.0656e+02	-1.3368	-0.537488	0.000237	2.372635	0.401935	-0.000047
1073	1.0666e+02	-1.3574	-0.581074	0.000219	2.188551	0.370751	-0.000044
1074	1.0676e+02	-1.3766	-0.625882	0.000225	2.249912	0.381145	-0.000045
1075	1.0686e+02	-1.3971	-0.673134	0.000237	2.372635	0.401935	-0.000047
1076	1.0696e+02	-1.4169	-0.719163	0.000231	2.311273	0.391540	-0.000046
1077	1.0706e+02	-1.4348	-0.762342	0.000217	2.168097	0.367286	-0.000043
1078	1.0716e+02	-1.4577	-0.814889	0.000264	2.638533	0.446980	-0.000053
1079	1.0726e+02	-1.4753	-0.855216	0.000202	2.024921	0.343031	-0.000041
1080	1.0736e+02	-1.4968	-0.908170	0.000266	2.658987	0.450445	-0.000053
1081	1.0746e+02	-1.5175	-0.956644	0.000243	2.433996	0.412330	-0.000049
1082	1.0756e+02	-1.5385	-1.000230	0.000219	2.188551	0.370751	-0.000044
1083	1.0766e+02	-1.5549	-1.050333	0.000252	2.515811	0.426190	-0.000050
1084	1.0776e+02	-1.5778	-1.100436	0.000252	2.515811	0.426190	-0.000050
1085	1.0786e+02	-1.5988	-1.141170	0.000205	2.045375	0.346496	-0.000041
1086	1.0796e+02	-1.6161	-1.188829	0.000239	2.393088	0.405400	-0.000048
1087	1.0806e+02	-1.6354	-1.234452	0.000229	2.290820	0.388075	-0.000046
1088	1.0816e+02	-1.6579	-1.284555	0.000252	2.515811	0.426190	-0.000050
1089	1.0826e+02	-1.6773	-1.334658	0.000252	2.515811	0.426190	-0.000050
1090	1.0836e+02	-1.6988	-1.381502	0.000235	2.352181	0.398470	-0.000047
1091	1.0845e+02	-1.7139	-1.427939	0.000233	2.331727	0.395005	-0.000047
1092	1.0855e+02	-1.7376	-1.475598	0.000239	2.393088	0.405400	-0.000048
1093	1.0865e+02	-1.7574	-1.522443	0.000235	2.352181	0.398470	-0.000047
1094	1.0875e+02	-1.7735	-1.570917	0.000243	2.433996	0.412330	-0.000049
1095	1.0885e+02	-1.7939	-1.617761	0.000235	2.352181	0.398470	-0.000047
1096	1.0895e+02	-1.8166	-1.663791	0.000231	2.311273	0.391540	-0.000046
1097	1.0905e+02	-1.8375	-1.707784	0.000221	2.209005	0.374215	-0.000044
1098	1.0915e+02	-1.8555	-1.754628	0.000235	2.352181	0.398470	-0.000047
1099	1.0925e+02	-1.8726	-1.803509	0.000245	2.454449	0.415795	-0.000049
1100	1.0935e+02	-1.8945	-1.843429	0.000200	2.004467	0.339566	-0.000040
1101	1.0945e+02	-1.9159	-1.893532	0.000252	2.515811	0.426190	-0.000050
1102	1.0955e+02	-1.9368	-1.942820	0.000247	2.474903	0.419260	-0.000050
1103	1.0965e+02	-1.9563	-1.986406	0.000219	2.188551	0.370751	-0.000044
1104	1.0975e+02	-1.9733	-2.036916	0.000254	2.536264	0.429655	-0.000051
1105	1.0985e+02	-1.9912	-2.079687	0.000215	2.147643	0.363821	-0.000043
1106	1.0995e+02	-2.0156	-2.125717	0.000231	2.311273	0.391540	-0.000046
1107	1.1005e+02	-2.0329	-2.172561	0.000235	2.352181	0.398470	-0.000047
1108	1.1015e+02	-2.0561	-2.220221	0.000239	2.393088	0.405400	-0.000048
1109	1.1025e+02	-2.0718	-2.262992	0.000215	2.147643	0.363821	-0.000043
1110	1.1035e+02	-2.0956	-2.305763	0.000215	2.147643	0.363821	-0.000043
1111	1.1044e+02	-2.1150	-2.353014	0.000237	2.372635	0.401935	-0.000047
1112	1.1054e+02	-2.1358	-2.401081	0.000241	2.413542	0.408865	-0.000048
1113	1.1064e+02	-2.1555	-2.449147	0.000241	2.413542	0.408865	-0.000048
1114	1.1074e+02	-2.1744	-2.496806	0.000239	2.393088	0.405400	-0.000048
1115	1.1084e+02	-2.1958	-2.544058	0.000237	2.372635	0.401935	-0.000047
1116	1.1094e+02	-2.2157	-2.587644	0.000219	2.188551	0.370751	-0.000044
1117	1.1104e+02	-2.2348	-2.632044	0.000223	2.229458	0.377680	-0.000045
1118	1.1114e+02	-2.2528	-2.676037	0.000221	2.209005	0.374215	-0.000044
1119	1.1124e+02	-2.2733	-2.720030	0.000221	2.209005	0.374215	-0.000044
1120	1.1134e+02	-2.2946	-2.762394	0.000213	2.127190	0.360356	-0.000043
1121	1.1144e+02	-2.3127	-2.802313	0.000200	2.004467	0.339566	-0.000040
1122	1.1154e+02	-2.3351	-2.850787	0.000243	2.433996	0.412330	-0.000049
1123	1.1164e+02	-2.3564	-2.889484	0.000194	1.943106	0.329171	-0.000039
1124	1.1174e+02	-2.3740	-2.934699	0.000227	2.270366	0.384610	-0.000045
1125	1.1184e+02	-2.3950	-2.973397	0.000194	1.943106	0.329171	-0.000039
1126	1.1194e+02	-2.4139	-3.020241	0.000235	2.352181	0.398470	-0.000047
1127	1.1204e+02	-2.4330	-3.061383	0.000207	2.065828	0.349961	-0.000041
1128	1.1214e+02	-2.4553	-3.103747	0.000213	2.127190	0.360356	-0.000043
1129	1.1224e+02	-2.4738	-3.147332	0.000219	2.188551	0.370751	-0.000044
1130	1.1234e+02	-2.4950	-3.186437	0.000196	1.963560	0.332636	-0.000039
1131	1.1244e+02	-2.5127	-3.227579	0.000207	2.065828	0.349961	-0.000041
1132	1.1253e+02	-2.5333	-3.269128	0.000209	2.086282	0.353426	-0.000042
1133	1.1263e+02	-2.5513	-3.311899	0.000215	2.147643	0.363821	-0.000043
1134	1.1273e+02	-2.5742	-3.353040	0.000207	2.065828	0.349961	-0.000041
1135	1.1283e+02	-2.5925	-3.394996	0.000211	2.106736	0.356891	-0.000042
1136	1.1293e+02	-2.6110	-3.436953	0.000211	2.106736	0.356891	-0.000042
1137	1.1303e+02	-2.6315	-3.475650	0.000194	1.943106	0.329171	-0.000039
1138	1.1313e+02	-2.6512	-3.513126	0.000188	1.881745	0.318776	-0.000038
1139	1.1323e+02	-2.6722	-3.559156	0.000231	2.311273	0.391540	-0.000046
1140	1.1333e+02	-2.6927	-3.596224	0.000186	1.861291	0.315311	-0.000037
1141	1.1343e+02	-2.7106	-3.638995	0.000215	2.147643	0.363821	-0.000043
1142	1.1353e+02	-2.7307	-3.680544	0.000209	2.086282	0.353426	-0.000042
1143	1.1363e+02	-2.7527	-3.721278	0.000205	2.045375	0.346496	-0.000041
1144	1.1373e+02	-2.7731	-3.762419	0.000207	2.065828	0.349961	-0.000041
1145	1.1383e+02	-2.7905	-3.802339	0.000200	2.004467	0.339566	-0.000040
1146	1.1393e+02	-2.8098	-3.843481	0.000207	2.065828	0.349961	-0.000041
1147	1.1403e+02	-2.8311	-3.885030	0.000209	2.086282	0.353426	-0.000042
1148	1.1413e+02	-2.8535	-3.922505	0.000188	1.881745	0.318776	-0.000038
1149	1.1423e+02	-2.8710	-3.969349	0.000235	2.352181	0.398470	-0.000047
1150	1.1433e+02	-2.8905	-4.003974	0.000174	1.738568	0.294521	-0.000035
1151	1.1442e+02	-2.9095	-4.045930	0.000211	2.106736	0.356891	-0.000042
1152	1.1452e+02	-2.9291	-4.085442	0.000198	1.984013	0.336101	-0.000040
1153	1.1462e+02	-2.9498	-4.120066	0.000174	1.738568	0.294521	-0.000035
1154	1.1472e+02	-2.9712	-4.161615	0.000209	2.086282	0.353426	-0.000042
1155	1.1482e+02	-2.9906	-4.204386	0.000215	2.147643	0.363821	-0.000043
1156	1.1492e+02	-3.0114	-4.241454	0.000186	1.861291	0.315311	-0.000037
1157	1.1502e+02	-3.0304	-4.278930	0.000188	1.881745	0.318776	-0.000038
1158	1.1512e+02	-3.0521	-4.318849	0.000200	2.004467	0.339566	-0.000040
1159	1.1522e+02	-3.0688	-4.362842	0.000221	2.209005	0.374215	-0.000044
1160	1.1532e+02	-3.0924	-4.396652	0.000170	1.697661	0.287592	-0.000034
1161	1.1542e+02	-3.1112	-4.440645	0.000221	2.209005	0.374215	-0.000044
1162	1.1552e+02	-3.1287	-4.476898	0.000182	1.820383	0.308381	-0.000036
1163	1.1562e+02	-3.1514	-4.511522	0.000174	1.738568	0.294521	-0.000035
1164	1.1572e+02	-3.1708	-4.547776	0.000182	1.820383	0.308381	-0.000036
1165	1.1582e+02	-3.1898	-4.584437	0.000184	1.840837	0.311846	-0.000037
1166	1.1592e+02	-3.2105	-4.625578	0.000207	2.065828	0.349961	-0.000041
1167	1.1602e+02	-3.2278	-4.660202	0.000174	1.738568	0.294521	-0.000035
1168	1.1612e+02	-3.2506	-4.694012	0.000170	1.697661	0.287592	-0.000034
1169	1.1622e+02	-3.2693	-4.734746	0.000205	2.045375	0.346496	-0.000041
1170	1.1632e+02	-3.2914	-4.771407	0.000184	1.840837	0.311846	-0.000037
1171	1.1642e+02	-3.3109	-4.807253	0.000180	1.799930	0.304916	-0.000036
1172	1.1651e+02	-3.3293	-4.844321	0.000186	1.861291	0.315311	-0.000037
1173	1.1661e+02	-3.3491	-4.882611	0.000192	1.922652	0.325706	-0.000038
1174	1.1671e+02	-3.3691	-4.918050	0.000178	1.779476	0.301451	-0.000036
1175	1.1681e+02	-3.3907	-4.954711	0.000184	1.840837	0.311846	-0.000037
1176	1.1691e+02	-3.4087	-4.992187	0.000188	1.881745	0.318776	-0.000038
1177	1.1701e+02	-3.4319	-5.028847	0.000184	1.840837	0.311846	-0.000037
1178	1.1711e+02	-3.4501	-5.064694	0.000180	1.799930	0.304916	-0.000036
1179	1.1721e+02	-3.4686	-5.100540	0.000180	1.799930	0.304916	-0.000036
1180	1.1731e+02	-3.4875	-5.137608	0.000186	1.861291	0.315311	-0.000037
1181	1.1741e+02	-3.5091	-5.177528	0.000200	2.004467	0.339566	-0.000040
1182	1.1751e+02	-3.5294	-5.215410	0.000190	1.902198	0.322241	-0.000038
1183	1.1761e+02	-3.5495	-5.248405	0.000166	1.656753	0.280662	-0.000033
1184	1.1771e+02	-3.5663	-5.289547	0.000207	2.065828	0.349961	-0.000041
1185	1.1781e+02	-3.5875	-5.321319	0.000160	1.595392	0.270267	-0.000032
1186	1.1791e+02	-3.6111	-5.359202	0.000190	1.902198	0.322241	-0.000038
1187	1.1801e+02	-3.6277	-5.396678	0.000188	1.881745	0.318776	-0.000038
1188	1.1811e+02	-3.6450	-5.434561	0.000190	1.902198	0.322241	-0.000038
1189	1.1821e+02	-3.6700	-5.467963	0.000168	1.677207	0.284127	-0.000034
1190	1.1831e+02	-3.6878	-5.510734	0.000215	2.147643	0.363821	-0.000043
1191	1.1841e+02	-3.7090	-5.541284	0.000153	1.534031	0.259872	-0.000031
1192	1.1850e+02	-3.7292	-5.580797	0.000198	1.984013	0.336101	-0.000040
1193	1.1860e+02	-3.7488	-5.618679	0.000190	1.902198	0.322241	-0.000038
1194	1.1870e+02	-3.7691	-5.659006	0.000202	2.024921	0.343031	-0.000041
1195	1.1880e+02	-3.7869	-5.692816	0.000170	1.697661	0.287592	-0.000034
1196	1.1890e+02	-3.8065	-5.724181	0.000157	1.574938	0.266802	-0.000032
1197	1.1900e+02	-3.8292	-5.763693	0.000198	1.984013	0.336101	-0.000040
1198	1.1910e+02	-3.8463	-5.798725	0.000176	1.759022	0.297986	-0.000035
1199	1.1920e+02	-3.8665	-5.838644	0.000200	2.004467	0.339566	-0.000040
1200	1.1930e+02	-3.8879	-5.870825	0.000162	1.615846	0.273732	-0.000032
1201	1.1940e+02	-3.9085	-5.912373	0.000209	2.086282	0.353426	-0.000042
1202	1.1950e+02	-3.9281	-5.944961	0.000164	1.636300	0.277197	-0.000033
1203	1.1960e+02	-3.9465	-5.984066	0.000196	1.963560	0.332636	-0.000039
1204	1.1970e+02	-3.9679	-6.022763	0.000194	1.943106	0.329171	-0.000039
1205	1.1980e+02	-3.9871	-6.063090	0.000202	2.024921	0.343031	-0.000041
1206	1.1990e+02	-4.0062	-6.099344	0.000182	1.820383	0.308381	-0.000036
1207	1.2000e+02	-4.0289	-6.142115	0.000215	2.147643	0.363821	-0.000043
1208	1.2010e+02	-4.0479	-6.177961	0.000180	1.799930	0.304916	-0.000036
1209	1.2020e+02	-4.0662	-6.217880	0.000200	2.004467	0.339566	-0.000040
1210	1.2030e+02	-4.0866	-6.254541	0.000184	1.840837	0.311846	-0.000037
1211	1.2039e+02	-4.1069	-6.292424	0.000190	1.902198	0.322241	-0.000038
1212	1.2049e+02	-4.1272	-6.335602	0.000217	2.168097	0.367286	-0.000043
1213	1.2059e+02	-4.1461	-6.371041	0.000178	1.779476	0.301451	-0.000036
1214	1.2069e+02	-4.1660	-6.414627	0.000219	2.188551	0.370751	-0.000044
1215	1.2079e+02	-4.1880	-6.456990	0.000213	2.127190	0.360356	-0.000043
1216	1.2089e+02	-4.2046	-6.493244	0.000182	1.820383	0.308381	-0.000036
1217	1.2099e+02	-4.2252	-6.531941	0.000194	1.943106	0.329171	-0.000039
1218	1.2109e+02	-4.2453	-6.573898	0.000211	2.106736	0.356891	-0.000042
1219	1.2119e+02	-4.2659	-6.609744	0.000180	1.799930	0.304916	-0.000036
1220	1.2129e+02	-4.2859	-6.649663	0.000200	2.004467	0.339566	-0.000040
1221	1.2139e+02	-4.3051	-6.690398	0.000205	2.045375	0.346496	-0.000041
1222	1.2149e+02	-4.3243	-6.727466	0.000186	1.861291	0.315311	-0.000037
1223	1.2159e+02	-4.3472	-6.767385	0.000200	2.004467	0.339566	-0.000040
1224	1.2169e+02	-4.3649	-6.804861	0.000188	1.881745	0.318776	-0.000038
1225	1.2179e+02	-4.3858	-6.847632	0.000215	2.147643	0.363821	-0.000043
1226	1.2189e+02	-4.4064	-6.886737	0.000196	1.963560	0.332636	-0.000039
1227	1.2199e+02	-4.4268	-6.921768	0.000176	1.759022	0.297986	-0.000035
1228	1.2209e+02	-4.4444	-6.962910	0.000207	2.065828	0.349961	-0.000041
1229	1.2219e+02	-4.4666	-7.004866	0.000211	2.106736	0.356891	-0.000042
1230	1.2229e+02	-4.4849	-7.041120	0.000182	1.820383	0.308381	-0.000036
1231	1.2239e+02	-4.5055	-7.081039	0.000200	2.004467	0.339566	-0.000040
1232	1.2248e+02	-4.5251	-7.122588	0.000209	2.086282	0.353426	-0.000042
1233	1.2258e+02	-4.5467	-7.160471	0.000190	1.902198	0.322241	-0.000038
1234	1.2268e+02	-4.5659	-7.200798	0.000202	2.024921	0.343031	-0.000041
1235	1.2278e+02	-4.5847	-7.239903	0.000196	1.963560	0.332636	-0.000039
1236	1.2288e+02	-4.6048	-7.279008	0.000196	1.963560	0.332636	-0.000039
1237	1.2298e+02	-4.6249	-7.317705	0.000194	1.943106	0.329171	-0.000039
1238	1.2308e+02	-4.6452	-7.358847	0.000207	2.065828	0.349961	-0.000041
1239	1.2318e+02	-4.6646	-7.395915	0.000186	1.861291	0.315311	-0.000037
1240	1.2328e+02	-4.6856	-7.439093	0.000217	2.168097	0.367286	-0.000043
1241	1.2338e+02	-4.7049	-7.472903	0.000170	1.697661	0.287592	-0.000034
1242	1.2348e+02	-4.7238	-7.514044	0.000207	2.065828	0.349961	-0.000041
1243	1.2358e+02	-4.7456	-7.555186	0.000207	2.065828	0.349961	-0.000041
1244	1.2368e+02	-4.7652	-7.590625	0.000178	1.779476	0.301451	-0.000036
1245	1.2378e+02	-4.7839	-7.633396	0.000215	2.147643	0.363821	-0.000043
1246	1.2388e+02	-4.8004	-7.674945	0.000209	2.086282	0.353426	-0.000042
1247	1.2398e+02	-4.8252	-7.716901	0.000211	2.106736	0.356891	-0.000042
1248	1.2408e+02	-4.8448	-7.756413	0.000198	1.984013	0.336101	-0.000040
1249	1.2418e+02	-4.8633	-7.797147	0.000205	2.045375	0.346496	-0.000041
1250	1.2428e+02	-4.8865	-7.838696	0.000209	2.086282	0.353426	-0.000042
1251	1.2438e+02	-4.9025	-7.878616	0.000200	2.004467	0.339566	-0.000040
1252	1.2447e+02	-4.9233	-7.920572	0.000211	2.106736	0.356891	-0.000042
1253	1.2457e+02	-4.9446	-7.957640	0.000186	1.861291	0.315311	-0.000037
1254	1.2467e+02	-4.9657	-7.999597	0.000211	2.106736	0.356891	-0.000042
1255	1.2477e+02	-4.9829	-8.039516	0.000200	2.004467	0.339566	-0.000040
1256	1.2487e+02	-5.0027	-8.081880	0.000213	2.127190	0.360356	-0.000043
1257	1.2497e+02	-5.0227	-8.122614	0.000205	2.045375	0.346496	-0.000041
1258	1.2507e+02	-5.0443	-8.158460	0.000180	1.799930	0.304916	-0.000036
1259	1.2517e+02	-5.0620	-8.205712	0.000237	2.372635	0.401935	-0.000047
1260	1.2527e+02	-5.0835	-8.243188	0.000188	1.881745	0.318776	-0.000038
1261	1.2537e+02	-5.1042	-8.285144	0.000211	2.106736	0.356891	-0.000042
1262	1.2547e+02	-5.1224	-8.326285	0.000207	2.065828	0.349961	-0.000041
1263	1.2557e+02	-5.1450	-8.364983	0.000194	1.943106	0.329171	-0.000039
1264	1.2567e+02	-5.1617	-8.404903	0.000200	2.004467	0.339566	-0.000040
1265	1.2577e+02	-5.1813	-8.440341	0.000178	1.779476	0.301451	-0.000036
1266	1.2587e+02	-5.2031	-8.478224	0.000190	1.902198	0.322241	-0.000038
1267	1.2597e+02	-5.2232	-8.522217	0.000221	2.209005	0.374215	-0.000044
1268	1.2607e+02	-5.2423	-8.559693	0.000188	1.881745	0.318776	-0.000038
1269	1.2617e+02	-5.2641	-8.600427	0.000205	2.045375	0.346496	-0.000041
1270	1.2627e+02	-5.2820	-8.643605	0.000217	2.168097	0.367286	-0.000043
1271	1.2636e+02	-5.3014	-8.680266	0.000184	1.840837	0.311846	-0.000037
1272	1.2646e+02	-5.3228	-8.716520	0.000182	1.820383	0.308381	-0.000036
1273	1.2656e+02	-5.3397	-8.760920	0.000223	2.229458	0.377680	-0.000045
1274	1.2666e+02	-5.3619	-8.798395	0.000188	1.881745	0.318776	-0.000038
1275	1.2676e+02	-5.3819	-8.836686	0.000192	1.922652	0.325706	-0.000038
1276	1.2686e+02	-5.4005	-8.876605	0.000200	2.004467	0.339566	-0.000040
1277	1.2696e+02	-5.4195	-8.912044	0.000178	1.779476	0.301451	-0.000036
1278	1.2706e+02	-5.4399	-8.952778	0.000205	2.045375	0.346496	-0.000041
1279	1.2716e+02	-5.4636	-8.993105	0.000202	2.024921	0.343031	-0.000041
1280	1.2726e+02	-5.4822	-9.033839	0.000205	2.045375	0.346496	-0.000041
1281	1.2736e+02	-5.5005	-9.070500	0.000184	1.840837	0.311846	-0.000037
1282	1.2746e+02	-5.5191	-9.105124	0.000174	1.738568	0.294521	-0.000035
1283	1.2756e+02	-5.5440	-9.146673	0.000209	2.086282	0.353426	-0.000042
1284	1.2766e+02	-5.5595	-9.184149	0.000188	1.881745	0.318776	-0.000038
1285	1.2776e+02	-5.5800	-9.224476	0.000202	2.024921	0.343031	-0.000041
1286	1.2786e+02	-5.6020	-9.261544	0.000186	1.861291	0.315311	-0.000037
1287	1.2796e+02	-5.6217	-9.300649	0.000196	1.963560	0.332636	-0.000039
1288	1.2806e+02	-5.6406	-9.338939	0.000192	1.922652	0.325706	-0.000038
1289	1.2816e+02	-5.6609	-9.367860	0.000145	1.452216	0.246012	-0.000029
1290	1.2826e+02	-5.6805	-9.404929	0.000186	1.861291	0.315311	-0.000037
1291	1.2835e+02	-5.7008	-9.440775	0.000180	1.799930	0.304916	-0.000036
1292	1.2845e+02	-5.7193	-9.476621	0.000180	1.799930	0.304916	-0.000036
1293	1.2855e+02	-5.7407	-9.512467	0.000180	1.799930	0.304916	-0.000036
1294	1.2865e+02	-5.7619	-9.546684	0.000172	1.718115	0.291056	-0.000034
1295	1.2875e+02	-5.7797	-9.582123	0.000178	1.779476	0.301451	-0.000036
1296	1.2885e+02	-5.7988	-9.617969	0.000180	1.799930	0.304916	-0.000036
1297	1.2895e+02	-5.8170	-9.653000	0.000176	1.759022	0.297986	-0.000035
1298	1.2905e+02	-5.8403	-9.689661	0.000184	1.840837	0.311846	-0.000037
1299	1.2915e+02	-5.8597	-9.723878	0.000172	1.718115	0.291056	-0.000034
1300	1.2925e+02	-5.8804	-9.755243	0.000157	1.574938	0.266802	-0.000032
1301	1.2935e+02	-5.8972	-9.791497	0.000182	1.820383	0.308381	-0.000036
1302	1.2945e+02	-5.9178	-9.819603	0.000141	1.411308	0.239082	-0.000028
1303	1.2955e+02	-5.9386	-9.857486	0.000190	1.902198	0.322241	-0.000038
1304	1.2965e+02	-5.9608	-9.892110	0.000174	1.738568	0.294521	-0.000035
1305	1.2975e+02	-5.9781	-9.925512	0.000168	1.677207	0.284127	-0.000034
1306	1.2985e+02	-5.9998	-9.958507	0.000166	1.656753	0.280662	-0.000033
1307	1.2995e+02	-6.0202	-9.991909	0.000168	1.677207	0.284127	-0.000034
1308	1.3005e+02	-6.0391	-10.028163	0.000182	1.820383	0.308381	-0.000036
1309	1.3015e+02	-6.0593	-10.063194	0.000176	1.759022	0.297986	-0.000035
1310	1.3025e+02	-6.0806	-10.099040	0.000180	1.799930	0.304916	-0.000036
1311	1.3034e+02	-6.1006	-10.130813	0.000160	1.595392	0.270267	-0.000032
1312	1.3044e+02	-6.1207	-10.161771	0.000155	1.554485	0.263337	-0.000031
1313	1.3054e+02	-6.1404	-10.193544	0.000160	1.595392	0.270267	-0.000032
1314	1.3064e+02	-6.1624	-10.231834	0.000192	1.922652	0.325706	-0.000038
1315	1.3074e+02	-6.1807	-10.264014	0.000162	1.615846	0.273732	-0.000032
1316	1.3084e+02	-6.1963	-10.295787	0.000160	1.595392	0.270267	-0.000032
1317	1.3094e+02	-6.2180	-10.327152	0.000157	1.574938	0.266802	-0.000032
1318	1.3104e+02	-6.2363	-10.362591	0.000178	1.779476	0.301451	-0.000036
1319	1.3114e+02	-6.2597	-10.393142	0.000153	1.534031	0.259872	-0.000031
1320	1.3124e+02	-6.2791	-10.427766	0.000174	1.738568	0.294521	-0.000035
1321	1.3134e+02	-6.2987	-10.461982	0.000172	1.718115	0.291056	-0.000034
1322	1.3144e+02	-6.3168	-10.493348	0.000157	1.574938	0.266802	-0.000032
1323	1.3154e+02	-6.3376	-10.530009	0.000184	1.840837	0.311846	-0.000037
1324	1.3164e+02	-6.3565	-10.557301	0.000137	1.370401	0.232152	-0.000027
1325	1.3174e+02	-6.3792	-10.588666	0.000157	1.574938	0.266802	-0.000032
1326	1.3184e+02	-6.4011	-10.621661	0.000166	1.656753	0.280662	-0.000033
1327	1.3194e+02	-6.4175	-10.657507	0.000180	1.799930	0.304916	-0.000036
1328	1.3204e+02	-6.4365	-10.688058	0.000153	1.534031	0.259872	-0.000031
1329	1.3214e+02	-6.4575	-10.716572	0.000143	1.431762	0.242547	-0.000029
1330	1.3224e+02	-6.4781	-10.745085	0.000143	1.431762	0.242547	-0.000029
1331	1.3234e+02	-6.4972	-10.777673	0.000164	1.636300	0.277197	-0.000033
1332	1.3243e+02	-6.5163	-10.807409	0.000149	1.493123	0.252942	-0.000030
1333	1.3253e+02	-6.5341	-10.839182	0.000160	1.595392	0.270267	-0.000032
1334	1.3263e+02	-6.5573	-10.870547	0.000157	1.574938	0.266802	-0.000032
1335	1.3273e+02	-6.5771	-10.899876	0.000147	1.472670	0.249477	-0.000029
1336	1.3283e+02	-6.5991	-10.930834	0.000155	1.554485	0.263337	-0.000031
1337	1.3293e+02	-6.6153	-10.962606	0.000160	1.595392	0.270267	-0.000032
1338	1.3303e+02	-6.6378	-10.991120	0.000143	1.431762	0.242547	-0.000029
1339	1.3313e+02	-6.6576	-11.020449	0.000147	1.472670	0.249477	-0.000029
1340	1.3323e+02	-6.6769	-11.055073	0.000174	1.738568	0.294521	-0.000035
1341	1.3333e+02	-6.6968	-11.086031	0.000155	1.554485	0.263337	-0.000031
1342	1.3343e+02	-6.7175	-11.111286	0.000127	1.268132	0.214827	-0.000025
1343	1.3353e+02	-6.7374	-11.141022	0.000149	1.493123	0.252942	-0.000030
1344	1.3363e+02	-6.7545	-11.169944	0.000145	1.452216	0.246012	-0.000029
1345	1.3373e+02	-6.7769	-11.205790	0.000180	1.799930	0.304916	-0.000036
1346	1.3383e+02	-6.7987	-11.235119	0.000147	1.472670	0.249477	-0.000029
1347	1.3393e+02	-6.8161	-11.268521	0.000168	1.677207	0.284127	-0.000034
1348	1.3403e+02	-6.8340	-11.294183	0.000129	1.288586	0.218292	-0.000026
1349	1.3413e+02	-6.8588	-11.327993	0.000170	1.697661	0.287592	-0.000034
1350	1.3423e+02	-6.8769	-11.358136	0.000151	1.513577	0.256407	-0.000030
1351	1.3432e+02	-6.8946	-11.389094	0.000155	1.554485	0.263337	-0.000031
1352	1.3442e+02	-6.9150	-11.416386	0.000137	1.370401	0.232152	-0.000027
1353	1.3452e+02	-6.9327	-11.446937	0.000153	1.534031	0.259872	-0.000031
1354	1.3462e+02	-6.9559	-11.477080	0.000151	1.513577	0.256407	-0.000030
1355	1.3472e+02	-6.9788	-11.501928	0.000125	1.247678	0.211362	-0.000025
1356	1.3482e+02	-6.9936	-11.536552	0.000174	1.738568	0.294521	-0.000035
1357	1.3492e+02	-7.0163	-11.571991	0.000178	1.779476	0.301451	-0.000036
1358	1.3502e+02	-7.0365	-11.596024	0.000121	1.206771	0.204433	-0.000024
1359	1.3512e+02	-7.0566	-11.631463	0.000178	1.779476	0.301451	-0.000036
1360	1.3522e+02	-7.0761	-11.660792	0.000147	1.472670	0.249477	-0.000029
1361	1.3532e+02	-7.0953	-11.693786	0.000166	1.656753	0.280662	-0.000033
1362	1.3542e+02	-7.1137	-11.727596	0.000170	1.697661	0.287592	-0.000034
1363	1.3552e+02	-7.1352	-11.751629	0.000121	1.206771	0.204433	-0.000024
1364	1.3562e+02	-7.1556	-11.785846	0.000172	1.718115	0.291056	-0.000034
1365	1.3572e+02	-7.1735	-11.813138	0.000137	1.370401	0.232152	-0.000027
1366	1.3582e+02	-7.1941	-11.846132	0.000166	1.656753	0.280662	-0.000033
1367	1.3592e+02	-7.2141	-11.880757	0.000174	1.738568	0.294521	-0.000035
1368	1.3602e+02	-7.2360	-11.905604	0.000125	1.247678	0.211362	-0.000025
1369	1.3612e+02	-7.2563	-11.940636	0.000176	1.759022	0.297986	-0.000035
1370	1.3622e+02	-7.2739	-11.967113	0.000133	1.329493	0.225222	-0.000027
1371	1.3631e+02	-7.2961	-12.003774	0.000184	1.840837	0.311846	-0.000037
1372	1.3641e+02	-7.3108	-12.032288	0.000143	1.431762	0.242547	-0.000029
1373	1.3651e+02	-7.3344	-12.068134	0.000180	1.799930	0.304916	-0.000036
1374	1.3661e+02	-7.3546	-12.102758	0.000174	1.738568	0.294521	-0.000035
1375	1.3671e+02	-7.3750	-12.137382	0.000174	1.738568	0.294521	-0.000035
1376	1.3681e+02	-7.3932	-12.169562	0.000162	1.615846	0.273732	-0.000032
1377	1.3691e+02	-7.4130	-12.196854	0.000137	1.370401	0.232152	-0.000027
1378	1.3701e+02	-7.4353	-12.231478	0.000174	1.738568	0.294521	-0.000035
1379	1.3711e+02	-7.4538	-12.267732	0.000182	1.820383	0.308381	-0.000036
1380	1.3721e+02	-7.4747	-12.302763	0.000176	1.759022	0.297986	-0.000035
1381	1.3731e+02	-7.4956	-12.333721	0.000155	1.554485	0.263337	-0.000031
1382	1.3741e+02	-7.5142	-12.374456	0.000205	2.045375	0.346496	-0.000041
1383	1.3751e+02	-7.5346	-12.404599	0.000151	1.513577	0.256407	-0.000030
1384	1.3761e+02	-7.5562	-12.440853	0.000182	1.820383	0.308381	-0.000036
1385	1.3771e+02	-7.5725	-12.473033	0.000162	1.615846	0.273732	-0.000032
1386	1.3781e+02	-7.5937	-12.505620	0.000164	1.636300	0.277197	-0.000033
1387	1.3791e+02	-7.6127	-12.539837	0.000172	1.718115	0.291056	-0.000034
1388	1.3801e+02	-7.6349	-12.574054	0.000172	1.718115	0.291056	-0.000034
1389	1.3811e+02	-7.6514	-12.611122	0.000186	1.861291	0.315311	-0.000037
1390	1.3821e+02	-7.6735	-12.644524	0.000168	1.677207	0.284127	-0.000034
1391	1.3831e+02	-7.6924	-12.674260	0.000149	1.493123	0.252942	-0.000030
1392	1.3840e+02	-7.7113	-12.710921	0.000184	1.840837	0.311846	-0.000037
1393	1.3850e+02	-7.7325	-12.746359	0.000178	1.779476	0.301451	-0.000036
1394	1.3860e+02	-7.7533	-12.778947	0.000164	1.636300	0.277197	-0.000033
1395	1.3870e+02	-7.7713	-12.811127	0.000162	1.615846	0.273732	-0.000032
1396	1.3880e+02	-7.7908	-12.851861	0.000205	2.045375	0.346496	-0.000041
1397	1.3890e+02	-7.8137	-12.885671	0.000170	1.697661	0.287592	-0.000034
1398	1.3900e+02	-7.8311	-12.918665	0.000166	1.656753	0.280662	-0.000033
1399	1.3910e+02	-7.8527	-12.952475	0.000170	1.697661	0.287592	-0.000034
1400	1.3920e+02	-7.8732	-12.989136	0.000184	1.840837	0.311846	-0.000037
1401	1.3930e+02	-7.8912	-13.020908	0.000160	1.595392	0.270267	-0.000032
1402	1.3940e+02	-7.9123	-13.055940	0.000176	1.759022	0.297986	-0.000035
1403	1.3950e+02	-7.9313	-13.086490	0.000153	1.534031	0.259872	-0.000031
1404	1.3960e+02	-7.9511	-13.125188	0.000194	1.943106	0.329171	-0.000039
1405	1.3970e+02	-7.9712	-13.163071	0.000190	1.902198	0.322241	-0.000038
1406	1.3980e+02	-7.9901	-13.198917	0.000180	1.799930	0.304916	-0.000036
1407	1.3990e+02	-8.0114	-13.230282	0.000157	1.574938	0.266802	-0.000032
1408	1.4000e+02	-8.0310	-13.269387	0.000196	1.963560	0.332636	-0.000039
1409	1.4010e+02	-8.0513	-13.301975	0.000164	1.636300	0.277197	-0.000033
1410	1.4020e+02	-8.0713	-13.337006	0.000176	1.759022	0.297986	-0.000035
1411	1.4029e+02	-8.0905	-13.373667	0.000184	1.840837	0.311846	-0.000037
1412	1.4039e+02	-8.1126	-13.409513	0.000180	1.799930	0.304916	-0.000036
1413	1.4049e+02	-8.1329	-13.444952	0.000178	1.779476	0.301451	-0.000036
1414	1.4059e+02	-8.1511	-13.486094	0.000207	2.065828	0.349961	-0.000041
1415	1.4069e+02	-8.1725	-13.521940	0.000180	1.799930	0.304916	-0.000036
1416	1.4079e+02	-8.1889	-13.561452	0.000198	1.984013	0.336101	-0.000040
1417	1.4089e+02	-8.2103	-13.595669	0.000172	1.718115	0.291056	-0.000034
1418	1.4099e+02	-8.2319	-13.632329	0.000184	1.840837	0.311846	-0.000037
1419	1.4109e+02	-8.2486	-13.671434	0.000196	1.963560	0.332636	-0.000039
1420	1.4119e+02	-8.2710	-13.707281	0.000180	1.799930	0.304916	-0.000036
1421	1.4129e+02	-8.2909	-13.743534	0.000182	1.820383	0.308381	-0.000036
1422	1.4139e+02	-8.3100	-13.786712	0.000217	2.168097	0.367286	-0.000043
1423	1.4149e+02	-8.3299	-13.816856	0.000151	1.513577	0.256407	-0.000030
1424	1.4159e+02	-8.3515	-13.856775	0.000200	2.004467	0.339566	-0.000040
1425	1.4169e+02	-8.3694	-13.895880	0.000196	1.963560	0.332636	-0.000039
1426	1.4179e+02	-8.3896	-13.935392	0.000198	1.984013	0.336101	-0.000040
1427	1.4189e+02	-8.4103	-13.972053	0.000184	1.840837	0.311846	-0.000037
1428	1.4199e+02	-8.4301	-14.009121	0.000186	1.861291	0.315311	-0.000037
1429	1.4209e+02	-8.4485	-14.043338	0.000172	1.718115	0.291056	-0.000034
1430	1.4219e+02	-8.4705	-14.082443	0.000196	1.963560	0.332636	-0.000039
1431	1.4228e+02	-8.4908	-14.122363	0.000200	2.004467	0.339566	-0.000040
1432	1.4238e+02	-8.5102	-14.153728	0.000157	1.574938	0.266802	-0.000032
1433	1.4248e+02	-8.5281	-14.194462	0.000205	2.045375	0.346496	-0.000041
1434	1.4258e+02	-8.5501	-14.229901	0.000178	1.779476	0.301451	-0.000036
1435	1.4268e+02	-8.5678	-14.264932	0.000176	1.759022	0.297986	-0.000035
1436	1.4278e+02	-8.5895	-14.304445	0.000198	1.984013	0.336101	-0.000040
1437	1.4288e+02	-8.6066	-14.344364	0.000200	2.004467	0.339566	-0.000040
1438	1.4298e+02	-8.6282	-14.383062	0.000194	1.943106	0.329171	-0.000039
1439	1.4308e+02	-8.6486	-14.415649	0.000164	1.636300	0.277197	-0.000033
1440	1.4318e+02	-8.6665	-14.456791	0.000207	2.065828	0.349961	-0.000041
1441	1.4328e+02	-8.6884	-14.495081	0.000192	1.922652	0.325706	-0.000038
1442	1.4338e+02	-8.7080	-14.526039	0.000155	1.554485	0.263337	-0.000031
1443	1.4348e+02	-8.7267	-14.565144	0.000196	1.963560	0.332636	-0.000039
1444	1.4358e+02	-8.7457	-14.598953	0.000170	1.697661	0.287592	-0.000034
1445	1.4368e+02	-8.7692	-14.638873	0.000200	2.004467	0.339566	-0.000040
1446	1.4378e+02	-8.7881	-14.680422	0.000209	2.086282	0.353426	-0.000042
1447	1.4388e+02	-8.8048	-14.715046	0.000174	1.738568	0.294521	-0.000035
1448	1.4398e+02	-8.8284	-14.754558	0.000198	1.984013	0.336101	-0.000040
1449	1.4408e+02	-8.8483	-14.794478	0.000200	2.004467	0.339566	-0.000040
1450	1.4418e+02	-8.8687	-14.829102	0.000174	1.738568	0.294521	-0.000035
1451	1.4428e+02	-8.8852	-14.866170	0.000186	1.861291	0.315311	-0.000037
1452	1.4437e+02	-8.9087	-14.903646	0.000188	1.881745	0.318776	-0.000038
1453	1.4447e+02	-8.9276	-14.942750	0.000196	1.963560	0.332636	-0.000039
1454	1.4457e+02	-8.9476	-14.973301	0.000153	1.534031	0.259872	-0.000031
1455	1.4467e+02	-8.9655	-15.011184	0.000190	1.902198	0.322241	-0.000038
1456	1.4477e+02	-8.9861	-15.047438	0.000182	1.820383	0.308381	-0.000036
1457	1.4487e+02	-9.0071	-15.079618	0.000162	1.615846	0.273732	-0.000032
1458	1.4497e+02	-9.0257	-15.121167	0.000209	2.086282	0.353426	-0.000042
1459	1.4507e+02	-9.0466	-15.155791	0.000174	1.738568	0.294521	-0.000035
1460	1.4517e+02	-9.0669	-15.193673	0.000190	1.902198	0.322241	-0.000038
1461	1.4527e+02	-9.0894	-15.230742	0.000186	1.861291	0.315311	-0.000037
1462	1.4537e+02	-9.1069	-15.265773	0.000176	1.759022	0.297986	-0.000035
1463	1.4547e+02	-9.1266	-15.299990	0.000172	1.718115	0.291056	-0.000034
1464	1.4557e+02	-9.1466	-15.337873	0.000190	1.902198	0.322241	-0.000038
1465	1.4567e+02	-9.1684	-15.370868	0.000166	1.656753	0.280662	-0.000033
1466	1.4577e+02	-9.1856	-15.407936	0.000186	1.861291	0.315311	-0.000037
1467	1.4587e+02	-9.2085	-15.447041	0.000196	1.963560	0.332636	-0.000039
1468	1.4597e+02	-9.2258	-15.477184	0.000151	1.513577	0.256407	-0.000030
1469	1.4607e+02	-9.2453	-15.514252	0.000186	1.861291	0.315311	-0.000037
1470	1.4617e+02	-9.2661	-15.550506	0.000182	1.820383	0.308381	-0.000036
1471	1.4626e+02	-9.2842	-15.585944	0.000178	1.779476	0.301451	-0.000036
1472	1.4636e+02	-9.3027	-15.618532	0.000164	1.636300	0.277197	-0.000033
1473	1.4646e+02	-9.3253	-15.653156	0.000174	1.738568	0.294521	-0.000035
1474	1.4656e+02	-9.3459	-15.691039	0.000190	1.902198	0.322241	-0.000038
1475	1.4666e+02	-9.3634	-15.728514	0.000188	1.881745	0.318776	-0.000038
1476	1.4676e+02	-9.3857	-15.763546	0.000176	1.759022	0.297986	-0.000035
1477	1.4686e+02	-9.4038	-15.795726	0.000162	1.615846	0.273732	-0.000032
1478	1.4696e+02	-9.4237	-15.838089	0.000213	2.127190	0.360356	-0.000043
1479	1.4706e+02	-9.4450	-15.865381	0.000137	1.370401	0.232152	-0.000027
1480	1.4716e+02	-9.4641	-15.906523	0.000207	2.065828	0.349961	-0.000041
1481	1.4726e+02	-9.4853	-15.948479	0.000211	2.106736	0.356891	-0.000042
1482	1.4736e+02	-9.5030	-15.983103	0.000174	1.738568	0.294521	-0.000035
1483	1.4746e+02	-9.5258	-16.016098	0.000166	1.656753	0.280662	-0.000033
1484	1.4756e+02	-9.5438	-16.052352	0.000182	1.820383	0.308381	-0.000036
1485	1.4766e+02	-9.5641	-16.092679	0.000202	2.024921	0.343031	-0.000041
1486	1.4776e+02	-9.5883	-16.122822	0.000151	1.513577	0.256407	-0.000030
1487	1.4786e+02	-9.6051	-16.163963	0.000207	2.065828	0.349961	-0.000041
1488	1.4796e+02	-9.6243	-16.199402	0.000178	1.779476	0.301451	-0.000036
1489	1.4806e+02	-9.6439	-16.237692	0.000192	1.922652	0.325706	-0.000038
1490	1.4816e+02	-9.6642	-16.278019	0.000202	2.024921	0.343031	-0.000041
1491	1.4825e+02	-9.6841	-16.311829	0.000170	1.697661	0.287592	-0.000034
1492	1.4835e+02	-9.7058	-16.349304	0.000188	1.881745	0.318776	-0.000038
1493	1.4845e+02	-9.7218	-16.384743	0.000178	1.779476	0.301451	-0.000036
1494	1.4855e+02	-9.7431	-16.421811	0.000186	1.861291	0.315311	-0.000037
1495	1.4865e+02	-9.7652	-16.456028	0.000172	1.718115	0.291056	-0.000034
1496	1.4875e+02	-9.7823	-16.494318	0.000192	1.922652	0.325706	-0.000038
1497	1.4885e+02	-9.8044	-16.532201	0.000190	1.902198	0.322241	-0.000038
1498	1.4895e+02	-9.8239	-16.562752	0.000153	1.534031	0.259872	-0.000031
1499	1.4905e+02	-9.8413	-16.599005	0.000182	1.820383	0.308381	-0.000036
1500	1.4915e+02	-9.8636	-16.642184	0.000217	2.168097	0.367286	-0.000043
1501	1.4925e+02	-9.8828	-16.673956	0.000160	1.595392	0.270267	-0.000032
1502	1.4935e+02	-9.9046	-16.710617	0.000184	1.840837	0.311846	-0.000037
1503	1.4945e+02	-9.9224	-16.750537	0.000200	2.004467	0.339566	-0.000040
1504	1.4955e+02	-9.9417	-16.789642	0.000196	1.963560	0.332636	-0.000039
1505	1.4965e+02	-9.9649	-16.821822	0.000162	1.615846	0.273732	-0.000032
1506	1.4975e+02	-9.9841	-16.858890	0.000186	1.861291	0.315311	-0.000037
1507	1.4985e+02	-10.0000	-16.897995	0.000196	1.963560	0.332636	-0.000039
1508	1.4995e+02	-9.9821	-16.893514	0.000022	0.224991	0.038115	0.000005
1509	1.5005e+02	-9.9643	-16.898809	-0.000027	-0.265899	-0.045044	-0.000005
1510	1.5015e+02	-9.9434	-16.891070	0.000039	0.388621	0.065834	0.000008
1511	1.5025e+02	-9.9235	-16.887811	0.000016	0.163630	0.027720	0.000003
1512	1.5034e+02	-9.9054	-16.889033	-0.000006	-0.061361	-0.010395	-0.000001
1513	1.5044e+02	-9.8848	-16.880072	0.000045	0.449982	0.076229	0.000009
1514	1.5054e+02	-9.8653	-16.881701	-0.000008	-0.081815	-0.013860	-0.000002
1515	1.5064e+02	-9.8457	-16.878442	0.000016	0.163630	0.027720	0.000003
1516	1.5074e+02	-9.8221	-16.874369	0.000020	0.204537	0.034650	0.000004
1517	1.5084e+02	-9.8042	-16.870295	0.000020	0.204537	0.034650	0.000004
1518	1.5094e+02	-9.7846	-16.861334	0.000045	0.449982	0.076229	0.000009
1519	1.5104e+02	-9.7630	-16.860112	0.000006	0.061361	0.010395	0.000001
1520	1.5114e+02	-9.7446	-16.850336	0.000049	0.490890	0.083159	0.000010
1521	1.5124e+02	-9.7214	-16.838930	0.000057	0.572705	0.097019	0.000011
1522	1.5134e+02	-9.7045	-16.833227	0.000029	0.286352	0.048509	0.000006
1523	1.5144e+02	-9.6846	-16.825895	0.000037	0.368167	0.062369	0.000007
1524	1.5154e+02	-9.6645	-16.815304	0.000053	0.531797	0.090089	0.000011
1525	1.5164e+02	-9.6434	-16.805935	0.000047	0.470436	0.079694	0.000009
1526	1.5174e+02	-9.6235	-16.801862	0.000020	0.204537	0.034650	0.000004
1527	1.5184e+02	-9.6033	-16.788420	0.000067	0.674974	0.114344	0.000014
1528	1.5194e+02	-9.5831	-16.784754	0.000018	0.184084	0.031185	0.000004
1529	1.5204e+02	-9.5642	-16.774977	0.000049	0.490890	0.083159	0.000010
1530	1.5214e+02	-9.5464	-16.763572	0.000057	0.572705	0.097019	0.000011
1531	1.5224e+02	-9.5260	-16.750944	0.000063	0.634066	0.107414	0.000013
1532	1.5233e+02	-9.5058	-16.736280	0.000074	0.736335	0.124738	0.000015
1533	1.5243e+02	-9.4855	-16.728540	0.000039	0.388621	0.065834	0.000008
1534	1.5253e+02	-9.4648	-16.720393	0.000041	0.409075	0.069299	0.000008
1535	1.5263e+02	-9.4466	-16.703692	0.000084	0.838604	0.142063	0.000017
1536	1.5273e+02	-9.4253	-16.695953	0.000039	0.388621	0.065834	0.000008
1537	1.5283e+02	-9.4049	-16.686584	0.000047	0.470436	0.079694	0.000009
1538	1.5293e+02	-9.3846	-16.676400	0.000051	0.511344	0.086624	0.000010
1539	1.5303e+02	-9.3669	-16.667846	0.000043	0.429529	0.072764	0.000009
1540	1.5313e+02	-9.3475	-16.659292	0.000043	0.429529	0.072764	0.000009
1541	1.5323e+02	-9.3265	-16.645442	0.000070	0.695427	0.117809	0.000014
1542	1.5333e+02	-9.3074	-16.639332	0.000031	0.306806	0.051974	0.000006
1543	1.5343e+02	-9.2860	-16.626297	0.000065	0.654520	0.110879	0.000013
1544	1.5353e+02	-9.2671	-16.616521	0.000049	0.490890	0.083159	0.000010
1545	1.5363e+02	-9.2471	-16.607152	0.000047	0.470436	0.079694	0.000009
1546	1.5373e+02	-9.2261	-16.593303	0.000070	0.695427	0.117809	0.000014
1547	1.5383e+02	-9.2047	-16.586785	0.000033	0.327260	0.055439	0.000007
1548	1.5393e+02	-9.1848	-16.577823	0.000045	0.449982	0.076229	0.000009
1549	1.5403e+02	-9.1666	-16.566011	0.000059	0.593159	0.100484	0.000012
1550	1.5413e+02	-9.1467	-16.554605	0.000057	0.572705	0.097019	0.000011
1551	1.5422e+02	-9.1283	-16.544421	0.000051	0.511344	0.086624	0.000010
1552	1.5432e+02	-9.1064	-16.533016	0.000057	0.572705	0.097019	0.000011
1553	1.5442e+02	-9.0864	-16.524054	0.000045	0.449982	0.076229	0.000009
1554	1.5452e+02	-9.0676	-16.511834	0.000061	0.613612	0.103949	0.000012
1555	1.5462e+02	-9.0469	-16.502872	0.000045	0.449982	0.076229	0.000009
1556	1.5472e+02	-9.0268	-16.487801	0.000076	0.756789	0.128203	0.000015
1557	1.5482e+02	-9.0086	-16.479247	0.000043	0.429529	0.072764	0.000009
1558	1.5492e+02	-8.9891	-16.468656	0.000053	0.531797	0.090089	0.000011
1559	1.5502e+02	-8.9666	-16.453991	0.000074	0.736335	0.124738	0.000015
1560	1.5512e+02	-8.9476	-16.440956	0.000065	0.654520	0.110879	0.000013
1561	1.5522e+02	-8.9272	-16.430773	0.000051	0.511344	0.086624	0.000010
1562	1.5532e+02	-8.9081	-16.418145	0.000063	0.634066	0.107414	0.000013
1563	1.5542e+02	-8.8884	-16.407147	0.000055	0.552251	0.093554	0.000011
1564	1.5552e+02	-8.8670	-16.399000	0.000041	0.409075	0.069299	0.000008
1565	1.5562e+02	-8.8477	-16.379855	0.000096	0.961326	0.162853	0.000019
1566	1.5572e+02	-8.8281	-16.373745	0.000031	0.306806	0.051974	0.000006
1567	1.5582e+02	-8.8072	-16.359895	0.000070	0.695427	0.117809	0.000014
1568	1.5592e+02	-8.7886	-16.348897	0.000055	0.552251	0.093554	0.000011
1569	1.5602e+02	-8.7668	-16.333825	0.000076	0.756789	0.128203	0.000015
1570	1.5612e+02	-8.7479	-16.316310	0.000088	0.879511	0.148993	0.000018
1571	1.5622e+02	-8.7284	-16.310607	0.000029	0.286352	0.048509	0.000006
1572	1.5631e+02	-8.7082	-16.296350	0.000072	0.715881	0.121274	0.000014
1573	1.5641e+02	-8.6896	-16.284130	0.000061	0.613612	0.103949	0.000012
1574	1.5651e+02	-8.6679	-16.269873	0.000072	0.715881	0.121274	0.000014
1575	1.5661e+02	-8.6491	-16.258060	0.000059	0.593159	0.100484	0.000012
1576	1.5671e+02	-8.6299	-16.242988	0.000076	0.756789	0.128203	0.000015
1577	1.5681e+02	-8.6055	-16.231175	0.000059	0.593159	0.100484	0.000012
1578	1.5691e+02	-8.5902	-16.217325	0.000070	0.695427	0.117809	0.000014
1579	1.5701e+02	-8.5684	-16.205512	0.000059	0.593159	0.100484	0.000012
1580	1.5711e+02	-8.5471	-16.191663	0.000070	0.695427	0.117809	0.000014
1581	1.5721e+02	-8.5300	-16.178220	0.000067	0.674974	0.114344	0.000014
1582	1.5731e+02	-8.5106	-16.170074	0.000041	0.409075	0.069299	0.000008
1583	1.5741e+02	-8.4907	-16.156224	0.000070	0.695427	0.117809	0.000014
1584	1.5751e+02	-8.4702	-16.142782	0.000067	0.674974	0.114344	0.000014
1585	1.5761e+02	-8.4492	-16.131783	0.000055	0.552251	0.093554	0.000011
1586	1.5771e+02	-8.4291	-16.122415	0.000047	0.470436	0.079694	0.000009
1587	1.5781e+02	-8.4082	-16.105713	0.000084	0.838604	0.142063	0.000017
1588	1.5791e+02	-8.3891	-16.099603	0.000031	0.306806	0.051974	0.000006
1589	1.5801e+02	-8.3690	-16.082088	0.000088	0.879511	0.148993	0.000018
1590	1.5811e+02	-8.3514	-16.066201	0.000080	0.797696	0.135133	0.000016
1591	1.5821e+02	-8.3290	-16.058462	0.000039	0.388621	0.065834	0.000008
1592	1.5830e+02	-8.3080	-16.046649	0.000059	0.593159	0.100484	0.000012
1593	1.5840e+02	-8.2874	-16.036465	0.000051	0.511344	0.086624	0.000010
1594	1.5850e+02	-8.2678	-16.022208	0.000072	0.715881	0.121274	0.000014
1595	1.5860e+02	-8.2486	-16.002248	0.000100	1.002234	0.169783	0.000020
1596	1.5870e+02	-8.2306	-15.996138	0.000031	0.306806	0.051974	0.000006
1597	1.5880e+02	-8.2102	-15.979845	0.000082	0.818150	0.138598	0.000016
1598	1.5890e+02	-8.1938	-15.967217	0.000063	0.634066	0.107414	0.000013
1599	1.5900e+02	-8.1702	-15.949294	0.000090	0.899965	0.152458	0.000018
1600	1.5910e+02	-8.1512	-15.939925	0.000047	0.470436	0.079694	0.000009
1601	1.5920e+02	-8.1310	-15.921595	0.000092	0.920419	0.155923	0.000018
1602	1.5930e+02	-8.1094	-15.910189	0.000057	0.572705	0.097019	0.000011
1603	1.5940e+02	-8.0911	-15.892266	0.000090	0.899965	0.152458	0.000018
1604	1.5950e+02	-8.0708	-15.879231	0.000065	0.654520	0.110879	0.000013
1605	1.5960e+02	-8.0505	-15.863345	0.000080	0.797696	0.135133	0.000016
1606	1.5970e+02	-8.0309	-15.851532	0.000059	0.593159	0.100484	0.000012
1607	1.5980e+02	-8.0102	-15.836460	0.000076	0.756789	0.128203	0.000015
1608	1.5990e+02	-7.9907	-15.822610	0.000070	0.695427	0.117809	0.000014
1609	1.6000e+02	-7.9709	-15.806724	0.000080	0.797696	0.135133	0.000016
1610	1.6010e+02	-7.9526	-15.787579	0.000096	0.961326	0.162853	0.000019
1611	1.6019e+02	-7.9324	-15.772915	0.000074	0.736335	0.124738	0.000015
1612	1.6029e+02	-7.9114	-15.759065	0.000070	0.695427	0.117809	0.000014
1613	1.6039e+02	-7.8918	-15.744808	0.000072	0.715881	0.121274	0.000014
1614	1.6049e+02	-7.8717	-15.728514	0.000082	0.818150	0.138598	0.000016
1615	1.6059e+02	-7.8513	-15.714665	0.000070	0.695427	0.117809	0.000014
1616	1.6069e+02	-7.8339	-15.700408	0.000072	0.715881	0.121274	0.000014
1617	1.6079e+02	-7.8120	-15.680041	0.000102	1.022687	0.173248	0.000020
1618	1.6089e+02	-7.7940	-15.667006	0.000065	0.654520	0.110879	0.000013
1619	1.6099e+02	-7.7713	-15.649082	0.000090	0.899965	0.152458	0.000018
1620	1.6109e+02	-7.7544	-15.631567	0.000088	0.879511	0.148993	0.000018
1621	1.6119e+02	-7.7319	-15.616088	0.000078	0.777242	0.131668	0.000016
1622	1.6129e+02	-7.7118	-15.599387	0.000084	0.838604	0.142063	0.000017
1623	1.6139e+02	-7.6920	-15.574946	0.000123	1.227225	0.207897	0.000025
1624	1.6149e+02	-7.6723	-15.557023	0.000090	0.899965	0.152458	0.000018
1625	1.6159e+02	-7.6526	-15.540729	0.000082	0.818150	0.138598	0.000016
1626	1.6169e+02	-7.6306	-15.519548	0.000106	1.063595	0.180178	0.000021
1627	1.6179e+02	-7.6123	-15.497551	0.000110	1.104502	0.187108	0.000022
1628	1.6189e+02	-7.5900	-15.477999	0.000098	0.981780	0.166318	0.000020
1629	1.6199e+02	-7.5731	-15.460076	0.000090	0.899965	0.152458	0.000018
1630	1.6209e+02	-7.5546	-15.440930	0.000096	0.961326	0.162853	0.000019
1631	1.6219e+02	-7.5336	-15.420156	0.000104	1.043141	0.176713	0.000021
1632	1.6228e+02	-7.5134	-15.401011	0.000096	0.961326	0.162853	0.000019
1633	1.6238e+02	-7.4939	-15.376570	0.000123	1.227225	0.207897	0.000025
1634	1.6248e+02	-7.4725	-15.360684	0.000080	0.797696	0.135133	0.000016
1635	1.6258e+02	-7.4530	-15.340317	0.000102	1.022687	0.173248	0.000020
1636	1.6268e+02	-7.4333	-15.317913	0.000112	1.124956	0.190573	0.000023
1637	1.6278e+02	-7.4157	-15.295916	0.000110	1.104502	0.187108	0.000022
1638	1.6288e+02	-7.3950	-15.275957	0.000100	1.002234	0.169783	0.000020
1639	1.6298e+02	-7.3746	-15.253960	0.000110	1.104502	0.187108	0.000022
1640	1.6308e+02	-7.3544	-15.230742	0.000117	1.165864	0.197503	0.000023
1641	1.6318e+02	-7.3357	-15.212004	0.000094	0.940872	0.159388	0.000019
1642	1.6328e+02	-7.3131	-15.189193	0.000115	1.145410	0.194038	0.000023
1643	1.6338e+02	-7.2922	-15.166789	0.000112	1.124956	0.190573	0.000023
1644	1.6348e+02	-7.2751	-15.148458	0.000092	0.920419	0.155923	0.000018
1645	1.6358e+02	-7.2560	-15.122389	0.000131	1.309040	0.221757	0.000026
1646	1.6368e+02	-7.2347	-15.101207	0.000106	1.063595	0.180178	0.000021
1647	1.6378e+02	-7.2153	-15.080432	0.000104	1.043141	0.176713	0.000021
1648	1.6388e+02	-7.1962	-15.059658	0.000104	1.043141	0.176713	0.000021
1649	1.6398e+02	-7.1748	-15.038069	0.000108	1.084049	0.183643	0.000022
1650	1.6408e+02	-7.1559	-15.011184	0.000135	1.349947	0.228687	0.000027
1651	1.6418e+02	-7.1364	-14.988780	0.000112	1.124956	0.190573	0.000023
1652	1.6427e+02	-7.1159	-14.965154	0.000119	1.186317	0.200968	0.000024
1653	1.6437e+02	-7.0963	-14.945195	0.000100	1.002234	0.169783	0.000020
1654	1.6447e+02	-7.0752	-14.924827	0.000102	1.022687	0.173248	0.000020
1655	1.6457e+02	-7.0540	-14.898350	0.000133	1.329493	0.225222	0.000027
1656	1.6467e+02	-7.0366	-14.876354	0.000110	1.104502	0.187108	0.000022
1657	1.6477e+02	-7.0142	-14.849469	0.000135	1.349947	0.228687	0.000027
1658	1.6487e+02	-6.9958	-14.831953	0.000088	0.879511	0.148993	0.000018
1659	1.6497e+02	-6.9737	-14.803847	0.000141	1.411308	0.239082	0.000028
1660	1.6507e+02	-6.9559	-14.780628	0.000117	1.165864	0.197503	0.000023
1661	1.6517e+02	-6.9385	-14.757410	0.000117	1.165864	0.197503	0.000023
1662	1.6527e+02	-6.9170	-14.732562	0.000125	1.247678	0.211362	0.000025
1663	1.6537e+02	-6.8960	-14.706084	0.000133	1.329493	0.225222	0.000027
1664	1.6547e+02	-6.8776	-14.686939	0.000096	0.961326	0.162853	0.000019
1665	1.6557e+02	-6.8559	-14.657611	0.000147	1.472670	0.249477	0.000029
1666	1.6567e+02	-6.8349	-14.631541	0.000131	1.309040	0.221757	0.000026
1667	1.6577e+02	-6.8173	-14.607508	0.000121	1.206771	0.204433	0.000024
1668	1.6587e+02	-6.7953	-14.576957	0.000153	1.534031	0.259872	0.000031
1669	1.6597e+02	-6.7758	-14.552516	0.000123	1.227225	0.207897	0.000025
1670	1.6607e+02	-6.7558	-14.524002	0.000143	1.431762	0.242547	0.000029
1671	1.6616e+02	-6.7358	-14.504450	0.000098	0.981780	0.166318	0.000020
1672	1.6626e+02	-6.7173	-14.477565	0.000135	1.349947	0.228687	0.000027
1673	1.6636e+02	-6.6971	-14.451088	0.000133	1.329493	0.225222	0.000027
1674	1.6646e+02	-6.6765	-14.427870	0.000117	1.165864	0.197503	0.000023
1675	1.6656e+02	-6.6582	-14.396504	0.000157	1.574938	0.266802	0.000032
1676	1.6666e+02	-6.6376	-14.373286	0.000117	1.165864	0.197503	0.000023
1677	1.6676e+02	-6.6179	-14.345586	0.000139	1.390855	0.235617	0.000028
1678	1.6686e+02	-6.5964	-14.317887	0.000139	1.390855	0.235617	0.000028
1679	1.6696e+02	-6.5775	-14.291817	0.000131	1.309040	0.221757	0.000026
1680	1.6706e+02	-6.5572	-14.268191	0.000119	1.186317	0.200968	0.000024
1681	1.6716e+02	-6.5395	-14.240899	0.000137	1.370401	0.232152	0.000027
1682	1.6726e+02	-6.5173	-14.217273	0.000119	1.186317	0.200968	0.000024
1683	1.6736e+02	-6.4988	-14.188352	0.000145	1.452216	0.246012	0.000029
1684	1.6746e+02	-6.4775	-14.159838	0.000143	1.431762	0.242547	0.000029
1685	1.6756e+02	-6.4578	-14.139064	0.000104	1.043141	0.176713	0.000021
1686	1.6766e+02	-6.4377	-14.111364	0.000139	1.390855	0.235617	0.000028
1687	1.6776e+02	-6.4162	-14.081628	0.000149	1.493123	0.252942	0.000030
1688	1.6786e+02	-6.3981	-14.058410	0.000117	1.165864	0.197503	0.000023
1689	1.6796e+02	-6.3779	-14.028266	0.000151	1.513577	0.256407	0.000030
1690	1.6806e+02	-6.3583	-14.006270	0.000110	1.104502	0.187108	0.000022
1691	1.6816e+02	-6.3379	-13.976534	0.000149	1.493123	0.252942	0.000030
1692	1.6825e+02	-6.3196	-13.951279	0.000127	1.268132	0.214827	0.000025
1693	1.6835e+02	-6.2968	-13.926838	0.000123	1.227225	0.207897	0.000025
1694	1.6845e+02	-6.2756	-13.897510	0.000147	1.472670	0.249477	0.000029
1695	1.6855e+02	-6.2582	-13.868588	0.000145	1.452216	0.246012	0.000029
1696	1.6865e+02	-6.2384	-13.845370	0.000117	1.165864	0.197503	0.000023
1697	1.6875e+02	-6.2191	-13.817670	0.000139	1.390855	0.235617	0.000028
1698	1.6885e+02	-6.1998	-13.793230	0.000123	1.227225	0.207897	0.000025
1699	1.6895e+02	-6.1792	-13.762679	0.000153	1.534031	0.259872	0.000031
1700	1.6905e+02	-6.1609	-13.736609	0.000131	1.309040	0.221757	0.000026
1701	1.6915e+02	-6.1382	-13.705651	0.000155	1.554485	0.263337	0.000031
1702	1.6925e+02	-6.1203	-13.683655	0.000110	1.104502	0.187108	0.000022
1703	1.6935e+02	-6.0982	-13.657585	0.000131	1.309040	0.221757	0.000026
1704	1.6945e+02	-6.0805	-13.629071	0.000143	1.431762	0.242547	0.000029
1705	1.6955e+02	-6.0611	-13.602593	0.000133	1.329493	0.225222	0.000027
1706	1.6965e+02	-6.0362	-13.578153	0.000123	1.227225	0.207897	0.000025
1707	1.6975e+02	-6.0178	-13.552898	0.000127	1.268132	0.214827	0.000025
1708	1.6985e+02	-5.9978	-13.530494	0.000112	1.124956	0.190573	0.000023
1709	1.6995e+02	-5.9807	-13.502387	0.000141	1.411308	0.239082	0.000028
1710	1.7005e+02	-5.9610	-13.479169	0.000117	1.165864	0.197503	0.000023
1711	1.7015e+02	-5.9406	-13.460024	0.000096	0.961326	0.162853	0.000019
1712	1.7024e+02	-5.9201	-13.434768	0.000127	1.268132	0.214827	0.000025
1713	1.7034e+02	-5.8945	-13.405847	0.000145	1.452216	0.246012	0.000029
1714	1.7044e+02	-5.8786	-13.381406	0.000123	1.227225	0.207897	0.000025
1715	1.7054e+02	-5.8586	-13.356559	0.000125	1.247678	0.211362	0.000025
1716	1.7064e+02	-5.8414	-13.331303	0.000127	1.268132	0.214827	0.000025
1717	1.7074e+02	-5.8200	-13.312158	0.000096	0.961326	0.162853	0.000019
1718	1.7084e+02	-5.7996	-13.286496	0.000129	1.288586	0.218292	0.000026
1719	1.7094e+02	-5.7800	-13.262462	0.000121	1.206771	0.204433	0.000024
1720	1.7104e+02	-5.7608	-13.237207	0.000127	1.268132	0.214827	0.000025
1721	1.7114e+02	-5.7411	-13.211952	0.000127	1.268132	0.214827	0.000025
1722	1.7124e+02	-5.7207	-13.191992	0.000100	1.002234	0.169783	0.000020
1723	1.7134e+02	-5.6999	-13.164700	0.000137	1.370401	0.232152	0.000027
1724	1.7144e+02	-5.6819	-13.142296	0.000112	1.124956	0.190573	0.000023
1725	1.7154e+02	-5.6621	-13.117041	0.000127	1.268132	0.214827	0.000025
1726	1.7164e+02	-5.6403	-13.094230	0.000115	1.145410	0.194038	0.000023
1727	1.7174e+02	-5.6190	-13.070604	0.000119	1.186317	0.200968	0.000024
1728	1.7184e+02	-5.6018	-13.047386	0.000117	1.165864	0.197503	0.000023
1729	1.7194e+02	-5.5830	-13.020501	0.000135	1.349947	0.228687	0.000027
1730	1.7204e+02	-5.5624	-12.994431	0.000131	1.309040	0.221757	0.000026
1731	1.7213e+02	-5.5389	-12.971620	0.000115	1.145410	0.194038	0.000023
1732	1.7223e+02	-5.5208	-12.945143	0.000133	1.329493	0.225222	0.000027
1733	1.7233e+02	-5.4979	-12.918258	0.000135	1.349947	0.228687	0.000027
1734	1.7243e+02	-5.4814	-12.895447	0.000115	1.145410	0.194038	0.000023
1735	1.7253e+02	-5.4611	-12.871821	0.000119	1.186317	0.200968	0.000024
1736	1.7263e+02	-5.4427	-12.848602	0.000117	1.165864	0.197503	0.000023
1737	1.7273e+02	-5.4208	-12.820088	0.000143	1.431762	0.242547	0.000029
1738	1.7283e+02	-5.4019	-12.797685	0.000112	1.124956	0.190573	0.000023
1739	1.7293e+02	-5.3814	-12.776095	0.000108	1.084049	0.183643	0.000022
1740	1.7303e+02	-5.3622	-12.750840	0.000127	1.268132	0.214827	0.000025
1741	1.7313e+02	-5.3436	-12.725992	0.000125	1.247678	0.211362	0.000025
1742	1.7323e+02	-5.3204	-12.701552	0.000123	1.227225	0.207897	0.000025
1743	1.7333e+02	-5.3002	-12.676704	0.000125	1.247678	0.211362	0.000025
1744	1.7343e+02	-5.2819	-12.649819	0.000135	1.349947	0.228687	0.000027
1745	1.7353e+02	-5.2637	-12.627008	0.000115	1.145410	0.194038	0.000023
1746	1.7363e+02	-5.2426	-12.604197	0.000115	1.145410	0.194038	0.000023
1747	1.7373e+02	-5.2231	-12.577312	0.000135	1.349947	0.228687	0.000027
1748	1.7383e+02	-5.2014	-12.556538	0.000104	1.043141	0.176713	0.000021
1749	1.7393e+02	-5.1802	-12.530875	0.000129	1.288586	0.218292	0.000026
1750	1.7403e+02	-5.1637	-12.506842	0.000121	1.206771	0.204433	0.000024
1751	1.7413e+02	-5.1431	-12.482401	0.000123	1.227225	0.207897	0.000025
1752	1.7422e+02	-5.1227	-12.462442	0.000100	1.002234	0.169783	0.000020
1753	1.7432e+02	-5.1021	-12.439631	0.000115	1.145410	0.194038	0.000023
1754	1.7442e+02	-5.0839	-12.414375	0.000127	1.268132	0.214827	0.000025
1755	1.7452e+02	-5.0644	-12.393601	0.000104	1.043141	0.176713	0.000021
1756	1.7462e+02	-5.0432	-12.369160	0.000123	1.227225	0.207897	0.000025
1757	1.7472e+02	-5.0243	-12.347571	0.000108	1.084049	0.183643	0.000022
1758	1.7482e+02	-5.0011	-12.319464	0.000141	1.411308	0.239082	0.000028
1759	1.7492e+02	-4.9850	-12.299097	0.000102	1.022687	0.173248	0.000020
1760	1.7502e+02	-4.9636	-12.278323	0.000104	1.043141	0.176713	0.000021
1761	1.7512e+02	-4.9435	-12.253475	0.000125	1.247678	0.211362	0.000025
1762	1.7522e+02	-4.9234	-12.231478	0.000110	1.104502	0.187108	0.000022
1763	1.7532e+02	-4.9046	-12.202150	0.000147	1.472670	0.249477	0.000029
1764	1.7542e+02	-4.8840	-12.183005	0.000096	0.961326	0.162853	0.000019
1765	1.7552e+02	-4.8622	-12.155305	0.000139	1.390855	0.235617	0.000028
1766	1.7562e+02	-4.8433	-12.128421	0.000135	1.349947	0.228687	0.000027
1767	1.7572e+02	-4.8251	-12.103573	0.000125	1.247678	0.211362	0.000025
1768	1.7582e+02	-4.8042	-12.079540	0.000121	1.206771	0.204433	0.000024
1769	1.7592e+02	-4.7832	-12.051840	0.000139	1.390855	0.235617	0.000028
1770	1.7602e+02	-4.7640	-12.033103	0.000094	0.940872	0.159388	0.000019
1771	1.7612e+02	-4.7427	-12.009069	0.000121	1.206771	0.204433	0.000024
1772	1.7621e+02	-4.7262	-11.979741	0.000147	1.472670	0.249477	0.000029
1773	1.7631e+02	-4.7039	-11.956115	0.000119	1.186317	0.200968	0.000024
1774	1.7641e+02	-4.6850	-11.931267	0.000125	1.247678	0.211362	0.000025
1775	1.7651e+02	-4.6627	-11.906012	0.000127	1.268132	0.214827	0.000025
1776	1.7661e+02	-4.6465	-11.881979	0.000121	1.206771	0.204433	0.000024
1777	1.7671e+02	-4.6263	-11.851835	0.000151	1.513577	0.256407	0.000030
1778	1.7681e+02	-4.6054	-11.825358	0.000133	1.329493	0.225222	0.000027
1779	1.7691e+02	-4.5877	-11.801325	0.000121	1.206771	0.204433	0.000024
1780	1.7701e+02	-4.5642	-11.777292	0.000121	1.206771	0.204433	0.000024
1781	1.7711e+02	-4.5451	-11.749185	0.000141	1.411308	0.239082	0.000028
1782	1.7721e+02	-4.5242	-11.724744	0.000123	1.227225	0.207897	0.000025
1783	1.7731e+02	-4.5052	-11.700711	0.000121	1.206771	0.204433	0.000024
1784	1.7741e+02	-4.4865	-11.669346	0.000157	1.574938	0.266802	0.000032
1785	1.7751e+02	-4.4641	-11.648979	0.000102	1.022687	0.173248	0.000020
1786	1.7761e+02	-4.4451	-11.619243	0.000149	1.493123	0.252942	0.000030
1787	1.7771e+02	-4.4258	-11.597653	0.000108	1.084049	0.183643	0.000022
1788	1.7781e+02	-4.4057	-11.564251	0.000168	1.677207	0.284127	0.000034
1789	1.7791e+02	-4.3845	-11.534515	0.000149	1.493123	0.252942	0.000030
1790	1.7801e+02	-4.3661	-11.509260	0.000127	1.268132	0.214827	0.000025
1791	1.7810e+02	-4.3449	-11.480339	0.000145	1.452216	0.246012	0.000029
1792	1.7820e+02	-4.3258	-11.451825	0.000143	1.431762	0.242547	0.000029
1793	1.7830e+02	-4.3074	-11.422496	0.000147	1.472670	0.249477	0.000029
1794	1.7840e+02	-4.2870	-11.391131	0.000157	1.574938	0.266802	0.000032
1795	1.7850e+02	-4.2654	-11.360987	0.000151	1.513577	0.256407	0.000030
1796	1.7860e+02	-4.2462	-11.332473	0.000143	1.431762	0.242547	0.000029
1797	1.7870e+02	-4.2231	-11.302330	0.000151	1.513577	0.256407	0.000030
1798	1.7880e+02	-4.2078	-11.273001	0.000147	1.472670	0.249477	0.000029
1799	1.7890e+02	-4.1849	-11.237970	0.000176	1.759022	0.297986	0.000035
1800	1.7900e+02	-4.1676	-11.208641	0.000147	1.472670	0.249477	0.000029
1801	1.7910e+02	-4.1467	-11.178498	0.000151	1.513577	0.256407	0.000030
1802	1.7920e+02	-4.1277	-11.146318	0.000162	1.615846	0.273732	0.000032
1803	1.7930e+02	-4.1077	-11.112916	0.000168	1.677207	0.284127	0.000034
1804	1.7940e+02	-4.0866	-11.081958	0.000155	1.554485	0.263337	0.000031
1805	1.7950e+02	-4.0659	-11.053036	0.000145	1.452216	0.246012	0.000029
1806	1.7960e+02	-4.0456	-11.023300	0.000149	1.493123	0.252942	0.000030
1807	1.7970e+02	-4.0263	-10.988676	0.000174	1.738568	0.294521	0.000035
1808	1.7980e+02	-4.0086	-10.955274	0.000168	1.677207	0.284127	0.000034
1809	1.7990e+02	-3.9868	-10.919835	0.000178	1.779476	0.301451	0.000036
1810	1.8000e+02	-3.9685	-10.895395	0.000123	1.227225	0.207897	0.000025
1811	1.8009e+02	-3.9470	-10.861178	0.000172	1.718115	0.291056	0.000034
1812	1.8019e+02	-3.9275	-10.828183	0.000166	1.656753	0.280662	0.000033
1813	1.8029e+02	-3.9060	-10.796003	0.000162	1.615846	0.273732	0.000032
1814	1.8039e+02	-3.8864	-10.762194	0.000170	1.697661	0.287592	0.000034
1815	1.8049e+02	-3.8673	-10.730014	0.000162	1.615846	0.273732	0.000032
1816	1.8059e+02	-3.8488	-10.697426	0.000164	1.636300	0.277197	0.000033
1817	1.8069e+02	-3.8275	-10.666061	0.000157	1.574938	0.266802	0.000032
1818	1.8079e+02	-3.8087	-10.636732	0.000147	1.472670	0.249477	0.000029
1819	1.8089e+02	-3.7891	-10.600886	0.000180	1.799930	0.304916	0.000036
1820	1.8099e+02	-3.7663	-10.569114	0.000160	1.595392	0.270267	0.000032
1821	1.8109e+02	-3.7488	-10.533675	0.000178	1.779476	0.301451	0.000036
1822	1.8119e+02	-3.7284	-10.499051	0.000174	1.738568	0.294521	0.000035
1823	1.8129e+02	-3.7069	-10.467685	0.000157	1.574938	0.266802	0.000032
1824	1.8139e+02	-3.6880	-10.433876	0.000170	1.697661	0.287592	0.000034
1825	1.8149e+02	-3.6670	-10.403732	0.000151	1.513577	0.256407	0.000030
1826	1.8159e+02	-3.6484	-10.360147	0.000219	2.188551	0.370751	0.000044
1827	1.8169e+02	-3.6305	-10.332447	0.000139	1.390855	0.235617	0.000028
1828	1.8179e+02	-3.6070	-10.300675	0.000160	1.595392	0.270267	0.000032
1829	1.8189e+02	-3.5869	-10.260755	0.000200	2.004467	0.339566	0.000040
1830	1.8199e+02	-3.5667	-10.230205	0.000153	1.534031	0.259872	0.000031
1831	1.8209e+02	-3.5490	-10.191914	0.000192	1.922652	0.325706	0.000038
1832	1.8218e+02	-3.5290	-10.155253	0.000184	1.840837	0.311846	0.000037
1833	1.8228e+02	-3.5103	-10.121037	0.000172	1.718115	0.291056	0.000034
1834	1.8238e+02	-3.4900	-10.081524	0.000198	1.984013	0.336101	0.000040
1835	1.8248e+02	-3.4692	-10.048530	0.000166	1.656753	0.280662	0.000033
1836	1.8258e+02	-3.4502	-10.011054	0.000188	1.881745	0.318776	0.000038
1837	1.8268e+02	-3.4276	-9.973579	0.000188	1.881745	0.318776	0.000038
1838	1.8278e+02	-3.4078	-9.936103	0.000188	1.881745	0.318776	0.000038
1839	1.8288e+02	-3.3915	-9.895369	0.000205	2.045375	0.346496	0.000041
1840	1.8298e+02	-3.3707	-9.859115	0.000182	1.820383	0.308381	0.000036
1841	1.8308e+02	-3.3484	-9.826528	0.000164	1.636300	0.277197	0.000033
1842	1.8318e+02	-3.3289	-9.792311	0.000172	1.718115	0.291056	0.000034
1843	1.8328e+02	-3.3109	-9.751170	0.000207	2.065828	0.349961	0.000041
1844	1.8338e+02	-3.2893	-9.717360	0.000170	1.697661	0.287592	0.000034
1845	1.8348e+02	-3.2690	-9.677033	0.000202	2.024921	0.343031	0.000041
1846	1.8358e+02	-3.2481	-9.637521	0.000198	1.984013	0.336101	0.000040
1847	1.8368e+02	-3.2318	-9.601268	0.000182	1.820383	0.308381	0.000036
1848	1.8378e+02	-3.2102	-9.562163	0.000196	1.963560	0.332636	0.000039
1849	1.8388e+02	-3.1897	-9.527946	0.000172	1.718115	0.291056	0.000034
1850	1.8398e+02	-3.1712	-9.489248	0.000194	1.943106	0.329171	0.000039
1851	1.8407e+02	-3.1528	-9.457883	0.000157	1.574938	0.266802	0.000032
1852	1.8417e+02	-3.1290	-9.418371	0.000198	1.984013	0.336101	0.000040
1853	1.8427e+02	-3.1091	-9.384154	0.000172	1.718115	0.291056	0.000034
1854	1.8437e+02	-3.0920	-9.344642	0.000198	1.984013	0.336101	0.000040
1855	1.8447e+02	-3.0708	-9.306352	0.000192	1.922652	0.325706	0.000038
1856	1.8457e+02	-3.0493	-9.265617	0.000205	2.045375	0.346496	0.000041
1857	1.8467e+02	-3.0289	-9.226512	0.000196	1.963560	0.332636	0.000039
1858	1.8477e+02	-3.0098	-9.189852	0.000184	1.840837	0.311846	0.000037
1859	1.8487e+02	-2.9908	-9.154413	0.000178	1.779476	0.301451	0.000036
1860	1.8497e+02	-2.9706	-9.116530	0.000190	1.902198	0.322241	0.000038
1861	1.8507e+02	-2.9503	-9.078647	0.000190	1.902198	0.322241	0.000038
1862	1.8517e+02	-2.9292	-9.041172	0.000188	1.881745	0.318776	0.000038
1863	1.8527e+02	-2.9091	-9.006547	0.000174	1.738568	0.294521	0.000035
1864	1.8537e+02	-2.8920	-8.968257	0.000192	1.922652	0.325706	0.000038
1865	1.8547e+02	-2.8699	-8.923450	0.000225	2.249912	0.381145	0.000045
1866	1.8557e+02	-2.8527	-8.885974	0.000188	1.881745	0.318776	0.000038
1867	1.8567e+02	-2.8313	-8.848906	0.000186	1.861291	0.315311	0.000037
1868	1.8577e+02	-2.8101	-8.809394	0.000198	1.984013	0.336101	0.000040
1869	1.8587e+02	-2.7892	-8.769067	0.000202	2.024921	0.343031	0.000041
1870	1.8597e+02	-2.7725	-8.737701	0.000157	1.574938	0.266802	0.000032
1871	1.8606e+02	-2.7514	-8.695338	0.000213	2.127190	0.360356	0.000043
1872	1.8616e+02	-2.7306	-8.657862	0.000188	1.881745	0.318776	0.000038
1873	1.8626e+02	-2.7110	-8.622423	0.000178	1.779476	0.301451	0.000036
1874	1.8636e+02	-2.6913	-8.582911	0.000198	1.984013	0.336101	0.000040
1875	1.8646e+02	-2.6700	-8.551139	0.000160	1.595392	0.270267	0.000032
1876	1.8656e+02	-2.6527	-8.511626	0.000198	1.984013	0.336101	0.000040
1877	1.8666e+02	-2.6330	-8.477817	0.000170	1.697661	0.287592	0.000034
1878	1.8676e+02	-2.6129	-8.437083	0.000205	2.045375	0.346496	0.000041
1879	1.8686e+02	-2.5912	-8.403273	0.000170	1.697661	0.287592	0.000034
1880	1.8696e+02	-2.5720	-8.363761	0.000198	1.984013	0.336101	0.000040
1881	1.8706e+02	-2.5523	-8.328729	0.000176	1.759022	0.297986	0.000035
1882	1.8716e+02	-2.5323	-8.293291	0.000178	1.779476	0.301451	0.000036
1883	1.8726e+02	-2.5122	-8.261111	0.000162	1.615846	0.273732	0.000032
1884	1.8736e+02	-2.4949	-8.223635	0.000188	1.881745	0.318776	0.000038
1885	1.8746e+02	-2.4749	-8.188604	0.000176	1.759022	0.297986	0.000035
1886	1.8756e+02	-2.4538	-8.146240	0.000213	2.127190	0.360356	0.000043
1887	1.8766e+02	-2.4319	-8.116504	0.000149	1.493123	0.252942	0.000030
1888	1.8776e+02	-2.4139	-8.079436	0.000186	1.861291	0.315311	0.000037
1889	1.8786e+02	-2.3936	-8.044812	0.000174	1.738568	0.294521	0.000035
1890	1.8796e+02	-2.3757	-8.004485	0.000202	2.024921	0.343031	0.000041
1891	1.8806e+02	-2.3546	-7.971083	0.000168	1.677207	0.284127	0.000034
1892	1.8815e+02	-2.3322	-7.929941	0.000207	2.065828	0.349961	0.000041
1893	1.8825e+02	-2.3154	-7.893280	0.000184	1.840837	0.311846	0.000037
1894	1.8835e+02	-2.2922	-7.859064	0.000172	1.718115	0.291056	0.000034
1895	1.8845e+02	-2.2760	-7.818737	0.000202	2.024921	0.343031	0.000041
1896	1.8855e+02	-2.2553	-7.786149	0.000164	1.636300	0.277197	0.000033
1897	1.8865e+02	-2.2336	-7.747859	0.000192	1.922652	0.325706	0.000038
1898	1.8875e+02	-2.2136	-7.710383	0.000188	1.881745	0.318776	0.000038
1899	1.8885e+02	-2.1947	-7.675352	0.000176	1.759022	0.297986	0.000035
1900	1.8895e+02	-2.1742	-7.638284	0.000186	1.861291	0.315311	0.000037
1901	1.8905e+02	-2.1558	-7.604474	0.000170	1.697661	0.287592	0.000034
1902	1.8915e+02	-2.1331	-7.565370	0.000196	1.963560	0.332636	0.000039
1903	1.8925e+02	-2.1148	-7.527487	0.000190	1.902198	0.322241	0.000038
1904	1.8935e+02	-2.0935	-7.489196	0.000192	1.922652	0.325706	0.000038
1905	1.8945e+02	-2.0743	-7.449684	0.000198	1.984013	0.336101	0.000040
1906	1.8955e+02	-2.0555	-7.417097	0.000164	1.636300	0.277197	0.000033
1907	1.8965e+02	-2.0341	-7.373919	0.000217	2.168097	0.367286	0.000043
1908	1.8975e+02	-2.0134	-7.342553	0.000157	1.574938	0.266802	0.000032
1909	1.8985e+02	-1.9969	-7.299782	0.000215	2.147643	0.363821	0.000043
1910	1.8995e+02	-1.9759	-7.265158	0.000174	1.738568	0.294521	0.000035
1911	1.9004e+02	-1.9561	-7.228497	0.000184	1.840837	0.311846	0.000037
1912	1.9014e+02	-1.9344	-7.188170	0.000202	2.024921	0.343031	0.000041
1913	1.9024e+02	-1.9133	-7.152732	0.000178	1.779476	0.301451	0.000036
1914	1.9034e+02	-1.8974	-7.114034	0.000194	1.943106	0.329171	0.000039
1915	1.9044e+02	-1.8755	-7.080632	0.000168	1.677207	0.284127	0.000034
1916	1.9054e+02	-1.8557	-7.044786	0.000180	1.799930	0.304916	0.000036
1917	1.9064e+02	-1.8356	-7.008125	0.000184	1.840837	0.311846	0.000037
1918	1.9074e+02	-1.8150	-6.969427	0.000194	1.943106	0.329171	0.000039
1919	1.9084e+02	-1.7947	-6.935618	0.000170	1.697661	0.287592	0.000034
1920	1.9094e+02	-1.7766	-6.895698	0.000200	2.004467	0.339566	0.000040
1921	1.9104e+02	-1.7555	-6.863926	0.000160	1.595392	0.270267	0.000032
1922	1.9114e+02	-1.7374	-6.823191	0.000205	2.045375	0.346496	0.000041
1923	1.9124e+02	-1.7146	-6.789382	0.000170	1.697661	0.287592	0.000034
1924	1.9134e+02	-1.6961	-6.750277	0.000196	1.963560	0.332636	0.000039
1925	1.9144e+02	-1.6756	-6.716875	0.000168	1.677207	0.284127	0.000034
1926	1.9154e+02	-1.6576	-6.674919	0.000211	2.106736	0.356891	0.000042
1927	1.9164e+02	-1.6370	-6.642331	0.000164	1.636300	0.277197	0.000033
1928	1.9174e+02	-1.6164	-6.601597	0.000205	2.045375	0.346496	0.000041
1929	1.9184e+02	-1.5961	-6.568195	0.000168	1.677207	0.284127	0.000034
1930	1.9194e+02	-1.5775	-6.529497	0.000194	1.943106	0.329171	0.000039
1931	1.9203e+02	-1.5561	-6.491207	0.000192	1.922652	0.325706	0.000038
1932	1.9213e+02	-1.5361	-6.452510	0.000194	1.943106	0.329171	0.000039
1933	1.9223e+02	-1.5147	-6.415442	0.000186	1.861291	0.315311	0.000037
1934	1.9233e+02	-1.4955	-6.377151	0.000192	1.922652	0.325706	0.000038
1935	1.9243e+02	-1.4782	-6.337232	0.000200	2.004467	0.339566	0.000040
1936	1.9253e+02	-1.4571	-6.298127	0.000196	1.963560	0.332636	0.000039
1937	1.9263e+02	-1.4353	-6.260651	0.000188	1.881745	0.318776	0.000038
1938	1.9273e+02	-1.4166	-6.224398	0.000182	1.820383	0.308381	0.000036
1939	1.9283e+02	-1.3980	-6.182849	0.000209	2.086282	0.353426	0.000042
1940	1.9293e+02	-1.3787	-6.143337	0.000198	1.984013	0.336101	0.000040
1941	1.9303e+02	-1.3574	-6.106676	0.000184	1.840837	0.311846	0.000037
1942	1.9313e+02	-1.3391	-6.067978	0.000194	1.943106	0.329171	0.000039
1943	1.9323e+02	-1.3159	-6.026429	0.000209	2.086282	0.353426	0.000042
1944	1.9333e+02	-1.2984	-5.982844	0.000219	2.188551	0.370751	0.000044
1945	1.9343e+02	-1.2791	-5.944961	0.000190	1.902198	0.322241	0.000038
1946	1.9353e+02	-1.2616	-5.910744	0.000172	1.718115	0.291056	0.000034
1947	1.9363e+02	-1.2390	-5.868788	0.000211	2.106736	0.356891	0.000042
1948	1.9373e+02	-1.2176	-5.827239	0.000209	2.086282	0.353426	0.000042
1949	1.9383e+02	-1.1962	-5.789763	0.000188	1.881745	0.318776	0.000038
1950	1.9393e+02	-1.1774	-5.752695	0.000186	1.861291	0.315311	0.000037
1951	1.9403e+02	-1.1588	-5.707888	0.000225	2.249912	0.381145	0.000045
1952	1.9412e+02	-1.1407	-5.667153	0.000205	2.045375	0.346496	0.000041
1953	1.9422e+02	-1.1176	-5.629678	0.000188	1.881745	0.318776	0.000038
1954	1.9432e+02	-1.0968	-5.586499	0.000217	2.168097	0.367286	0.000043
1955	1.9442e+02	-1.0782	-5.541692	0.000225	2.249912	0.381145	0.000045
1956	1.9452e+02	-1.0596	-5.504624	0.000186	1.861291	0.315311	0.000037
1957	1.9462e+02	-1.0396	-5.460631	0.000221	2.209005	0.374215	0.000044
1958	1.9472e+02	-1.0207	-5.417860	0.000215	2.147643	0.363821	0.000043
1959	1.9482e+02	-0.9959	-5.373052	0.000225	2.249912	0.381145	0.000045
1960	1.9492e+02	-0.9787	-5.333132	0.000200	2.004467	0.339566	0.000040
1961	1.9502e+02	-0.9605	-5.289139	0.000221	2.209005	0.374215	0.000044
1962	1.9512e+02	-0.9387	-5.242702	0.000233	2.331727	0.395005	0.000047
1963	1.9522e+02	-0.9202	-5.200746	0.000211	2.106736	0.356891	0.000042
1964	1.9532e+02	-0.8990	-5.150643	0.000252	2.515811	0.426190	0.000050
1965	1.9542e+02	-0.8801	-5.110723	0.000200	2.004467	0.339566	0.000040
1966	1.9552e+02	-0.8598	-5.067138	0.000219	2.188551	0.370751	0.000044
1967	1.9562e+02	-0.8411	-5.024367	0.000215	2.147643	0.363821	0.000043
1968	1.9572e+02	-0.8176	-4.975893	0.000243	2.433996	0.412330	0.000049
1969	1.9582e+02	-0.7998	-4.929863	0.000231	2.311273	0.391540	0.000046
1970	1.9592e+02	-0.7796	-4.884241	0.000229	2.290820	0.388075	0.000046
1971	1.9601e+02	-0.7619	-4.838211	0.000231	2.311273	0.391540	0.000046
1972	1.9611e+02	-0.7376	-4.792181	0.000231	2.311273	0.391540	0.000046
1973	1.9621e+02	-0.7199	-4.747374	0.000225	2.249912	0.381145	0.000045
1974	1.9631e+02	-0.7021	-4.697271	0.000252	2.515811	0.426190	0.000050
1975	1.9641e+02	-0.6779	-4.658166	0.000196	1.963560	0.332636	0.000039
1976	1.9651e+02	-0.6623	-4.606026	0.000262	2.618079	0.443515	0.000052
1977	1.9661e+02	-0.6406	-4.555923	0.000252	2.515811	0.426190	0.000050
1978	1.9671e+02	-0.6184	-4.514374	0.000209	2.086282	0.353426	0.000042
1979	1.9681e+02	-0.6007	-4.464678	0.000250	2.495357	0.422725	0.000050
1980	1.9691e+02	-0.5814	-4.420685	0.000221	2.209005	0.374215	0.000044
1981	1.9701e+02	-0.5598	-4.374655	0.000231	2.311273	0.391540	0.000046
1982	1.9711e+02	-0.5416	-4.326589	0.000241	2.413542	0.408865	0.000048
1983	1.9721e+02	-0.5222	-4.281374	0.000227	2.270366	0.384610	0.000045
1984	1.9731e+02	-0.4999	-4.232493	0.000245	2.454449	0.415795	0.000049
1985	1.9741e+02	-0.4828	-4.182797	0.000250	2.495357	0.422725	0.000050
1986	1.9751e+02	-0.4616	-4.136360	0.000233	2.331727	0.395005	0.000047
1987	1.9761e+02	-0.4391	-4.089923	0.000233	2.331727	0.395005	0.000047
1988	1.9771e+02	-0.4205	-4.037783	0.000262	2.618079	0.443515	0.000052
1989	1.9781e+02	-0.4002	-3.994605	0.000217	2.168097	0.367286	0.000043
1990	1.9791e+02	-0.3823	-3.944909	0.000250	2.495357	0.422725	0.000050
1991	1.9800e+02	-0.3586	-3.897657	0.000237	2.372635	0.401935	0.000047
1992	1.9810e+02	-0.3408	-3.851220	0.000233	2.331727	0.395005	0.000047
1993	1.9820e+02	-0.3178	-3.799488	0.000260	2.597626	0.440050	0.000052
1994	1.9830e+02	-0.3023	-3.752643	0.000235	2.352181	0.398470	0.000047
1995	1.9840e+02	-0.2807	-3.699689	0.000266	2.658987	0.450445	0.000053
1996	1.9850e+02	-0.2622	-3.656103	0.000219	2.188551	0.370751	0.000044
1997	1.9860e+02	-0.2412	-3.603963	0.000262	2.618079	0.443515	0.000052
1998	1.9870e+02	-0.2225	-3.557526	0.000233	2.331727	0.395005	0.000047
1999	1.9880e+02	-0.2030	-3.503350	0.000272	2.720348	0.460839	0.000054
2000	1.9890e+02	-0.1816	-3.454876	0.000243	2.433996	0.412330	0.000049
2001	1.9900e+02	-0.1623	-3.399885	0.000276	2.761256	0.467769	0.000055
2002	1.9910e+02	-0.1431	-3.348967	0.000256	2.556718	0.433120	0.000051
2003	1.9920e+02	-0.1237	-3.299271	0.000250	2.495357	0.422725	0.000050
2004	1.9930e+02	-0.1030	-3.252019	0.000237	2.372635	0.401935	0.000047
2005	1.9940e+02	-0.0788	-3.198250	0.000270	2.699894	0.457374	0.000054
2006	1.9950e+02	-0.0638	-3.144888	0.000268	2.679441	0.453910	0.000054
2007	1.9960e+02	-0.0398	-3.093563	0.000258	2.577172	0.436585	0.000052
2008	1.9970e+02	-0.0230	-3.041423	0.000262	2.618079	0.443515	0.000052
2009	1.9980e+02	-0.0027	-2.999874	0.000262	2.618079	0.443515	0.000042

Smooth data before PMax, +/-Pr and +/-Vc Calc.

PMax (uC/cm2):	1.83e+01
Pr (uC/cm2):	3.73e+00
-Pr (uC/cm2):	-1.59e+00
PLoss (uC/cm2):	-1.63e+00
-Vc:	-1.71e+00
C (Max-Eff) (nF):	1.83e-01
K (Eff):	3.10e+02
Vert. (+/-Pr) Shift (uC/cm2):	1.07e+00
Offset (uC/cm2):	1.42e+00

A (Loop Area - uC/cm2·Volts):	2.01e-03



Hysteresis Version: 5.48.1 - Radiant Technologies, Inc., 1999 - 9/12/24

