»»»»»»»»»»»»»»»»»»»»»»»»»»»»»»»»»»»» Hysteresis ««««««««««««««««««««««««««««««««««««
»»»  Executed Version:	5.48.1
»»»  Vision Version:	5.48.4 (R)
»»»  Vision Compiled:	9/18/24
»»»  Driver Version:	5.47.0
»»»  Windows Version:	Windows 8 or 8.1
»»»  Processor Information:	x86 (AMD or Intel) - 32 Processors
»»»  Tester Name:	PMF21124-494 (100V)
»»»  Tester S/N:	PMF21124-494
»»»  Internal Amp Type:	100V RevK 270k
»»»  Internal Amp S/N:	iAB2-596/K     
»»»  Execution Count:	1
»»»»»»»»»»»»»»»»»»»»»»»»»»»»»»»»»»»»»»»»»»««««««««««««««««««««««««««««««««««««««««««

Stored:	7/10/2025 - 18:1:57
Configured:	07/10/25 01:31:25 PM
Executed:	07/10/25 05:58:03 PM

»»»»»»»»»»»»»»»»»»»»»»»»»»»»»»»»»»» Sample Info ««««««««««««««««««««««««««««««««««««
Sample Name:	
Lot Name:	
Wafer Name:	
Die Row/Column:	0/0
Capacitor Number:	0
Sample Area (cm2):	1.00e-04
Sample Thickness (microns):	1.50e-01

Amplifier:	Internal

»»»»»»»»»»»»»»»»»»»»»»»»»»»»»»»»»»» Tester Info «««««««««««««««««««««««««««««««««««
Tester Name:	PMF21124-494 (100V)
Tester Serial Number:	PMF21124-494
Return Signal Amp. Level:	1.9 [Index: 2]

»»»»»»»»»»»»»»»»»»»»»»»»»»»»»»»» Hysteresis Info ««««««««««««««««««««««««««««««««««
Task Name:	Hyst-3361
Volts:	10.00
Field:	666.67 (kV/cm)
DCBias:	0.00
DCField:	0.00 (kV/cm)
Hysteresis Period (ms):	2.00e+02
Preset:	Enabled
Preset Delay (ms):	1.00e+03
Profile:	Standard Bipolar

»»»»»»»»»»»»»»»»»»»»»»»»»»»»»»»»»»»»»» Data «««««««««««««««««««««««««««««««««««««««
Points:	2009

Valid Data

Point	Time (ms)	Drive Voltage	Measured Polarization (uC/cm2)	Capacitance (uF)	Normalized Capacitance (uF/cm2)	Dielectric Constant	Instantaneous Current (mA)
   1	0.0000e+00	-0.0030	-2.659540	0.000201	2.005026	0.339661	0.000040
   2	9.9500e-02	0.0137	-2.619620	0.000201	2.005026	0.339661	0.000040
   3	1.9900e-01	0.0384	-2.581330	0.000192	1.923188	0.325797	0.000038
   4	2.9850e-01	0.0561	-2.541818	0.000198	1.984566	0.336195	0.000040
   5	3.9800e-01	0.0752	-2.502713	0.000196	1.964107	0.332729	0.000039
   6	4.9750e-01	0.0938	-2.459942	0.000215	2.148242	0.363922	0.000043
   7	5.9700e-01	0.1140	-2.422059	0.000190	1.902728	0.322331	0.000038
   8	6.9650e-01	0.1367	-2.378473	0.000219	2.189161	0.370854	0.000044
   9	7.9600e-01	0.1520	-2.336110	0.000213	2.127782	0.360456	0.000043
  10	8.9550e-01	0.1754	-2.297005	0.000196	1.964107	0.332729	0.000039
  11	9.9500e-01	0.1942	-2.256270	0.000205	2.045944	0.346592	0.000041
  12	1.0945e+00	0.2139	-2.213499	0.000215	2.148242	0.363922	0.000043
  13	1.1940e+00	0.2349	-2.166248	0.000237	2.373296	0.402047	0.000047
  14	1.2935e+00	0.2567	-2.128365	0.000190	1.902728	0.322331	0.000038
  15	1.3930e+00	0.2743	-2.081113	0.000237	2.373296	0.402047	0.000047
  16	1.4925e+00	0.2930	-2.041194	0.000201	2.005026	0.339661	0.000040
  17	1.5920e+00	0.3170	-1.996793	0.000223	2.230079	0.377786	0.000045
  18	1.6915e+00	0.3332	-1.954430	0.000213	2.127782	0.360456	0.000043
  19	1.7910e+00	0.3544	-1.911659	0.000215	2.148242	0.363922	0.000043
  20	1.8905e+00	0.3749	-1.865222	0.000233	2.332377	0.395115	0.000047
  21	1.9900e+00	0.3967	-1.823673	0.000209	2.086863	0.353524	0.000042
  22	2.0895e+00	0.4153	-1.779680	0.000221	2.209620	0.374320	0.000044
  23	2.1890e+00	0.4327	-1.734872	0.000225	2.250539	0.381252	0.000045
  24	2.2885e+00	0.4533	-1.690064	0.000225	2.250539	0.381252	0.000045
  25	2.3880e+00	0.4730	-1.643220	0.000235	2.352836	0.398581	0.000047
  26	2.4875e+00	0.4924	-1.600449	0.000215	2.148242	0.363922	0.000043
  27	2.5870e+00	0.5125	-1.551975	0.000243	2.434674	0.412445	0.000049
  28	2.6865e+00	0.5312	-1.503501	0.000243	2.434674	0.412445	0.000049
  29	2.7860e+00	0.5535	-1.462767	0.000205	2.045944	0.346592	0.000041
  30	2.8855e+00	0.5737	-1.418774	0.000221	2.209620	0.374320	0.000044
  31	2.9850e+00	0.5925	-1.371930	0.000235	2.352836	0.398581	0.000047
  32	3.0845e+00	0.6131	-1.325085	0.000235	2.352836	0.398581	0.000047
  33	3.1840e+00	0.6329	-1.286388	0.000194	1.943647	0.329263	0.000039
  34	3.2835e+00	0.6539	-1.243617	0.000215	2.148242	0.363922	0.000043
  35	3.3830e+00	0.6737	-1.195958	0.000239	2.393755	0.405513	0.000048
  36	3.4825e+00	0.6929	-1.151557	0.000223	2.230079	0.377786	0.000045
  37	3.5820e+00	0.7129	-1.107157	0.000223	2.230079	0.377786	0.000045
  38	3.6815e+00	0.7305	-1.061535	0.000229	2.291458	0.388183	0.000046
  39	3.7810e+00	0.7500	-1.015505	0.000231	2.311917	0.391649	0.000046
  40	3.8805e+00	0.7712	-0.967846	0.000239	2.393755	0.405513	0.000048
  41	3.9800e+00	0.7918	-0.926704	0.000207	2.066404	0.350058	0.000041
  42	4.0795e+00	0.8118	-0.877009	0.000250	2.496052	0.422843	0.000050
  43	4.1790e+00	0.8347	-0.831386	0.000229	2.291458	0.388183	0.000046
  44	4.2785e+00	0.8506	-0.785356	0.000231	2.311917	0.391649	0.000046
  45	4.3780e+00	0.8729	-0.738919	0.000233	2.332377	0.395115	0.000047
  46	4.4775e+00	0.8931	-0.696963	0.000211	2.107323	0.356990	0.000042
  47	4.5770e+00	0.9142	-0.650526	0.000233	2.332377	0.395115	0.000047
  48	4.6765e+00	0.9307	-0.606533	0.000221	2.209620	0.374320	0.000044
  49	4.7760e+00	0.9558	-0.562133	0.000223	2.230079	0.377786	0.000045
  50	4.8755e+00	0.9710	-0.506734	0.000278	2.782484	0.471366	0.000056
  51	4.9750e+00	0.9929	-0.459075	0.000239	2.393755	0.405513	0.000048
  52	5.0745e+00	1.0130	-0.410194	0.000246	2.455133	0.415911	0.000049
  53	5.1740e+00	1.0326	-0.361720	0.000243	2.434674	0.412445	0.000049
  54	5.2735e+00	1.0514	-0.308358	0.000268	2.680187	0.454036	0.000054
  55	5.3730e+00	1.0732	-0.259070	0.000248	2.475593	0.419377	0.000050
  56	5.4725e+00	1.0925	-0.207337	0.000260	2.598349	0.440172	0.000052
  57	5.5720e+00	1.1121	-0.153975	0.000268	2.680187	0.454036	0.000054
  58	5.6715e+00	1.1314	-0.101428	0.000264	2.639268	0.447104	0.000053
  59	5.7710e+00	1.1497	-0.053362	0.000241	2.414214	0.408979	0.000048
  60	5.8705e+00	1.1705	-0.002037	0.000258	2.577890	0.436706	0.000052
  61	5.9700e+00	1.1919	0.050103	0.000262	2.618809	0.443638	0.000052
  62	6.0695e+00	1.2109	0.098577	0.000243	2.434674	0.412445	0.000049
  63	6.1690e+00	1.2328	0.153161	0.000274	2.741566	0.464434	0.000055
  64	6.2685e+00	1.2549	0.203264	0.000252	2.516512	0.426309	0.000050
  65	6.3680e+00	1.2717	0.256218	0.000266	2.659728	0.450570	0.000053
  66	6.4675e+00	1.2891	0.310395	0.000272	2.721106	0.460968	0.000054
  67	6.5670e+00	1.3087	0.362128	0.000260	2.598349	0.440172	0.000052
  68	6.6665e+00	1.3307	0.412231	0.000252	2.516512	0.426309	0.000050
  69	6.7660e+00	1.3521	0.467222	0.000276	2.762025	0.467900	0.000055
  70	6.8655e+00	1.3689	0.515288	0.000241	2.414214	0.408979	0.000048
  71	6.9650e+00	1.3897	0.569465	0.000272	2.721106	0.460968	0.000054
  72	7.0645e+00	1.4124	0.620790	0.000258	2.577890	0.436706	0.000052
  73	7.1640e+00	1.4271	0.672115	0.000258	2.577890	0.436706	0.000052
  74	7.2635e+00	1.4517	0.725070	0.000266	2.659728	0.450570	0.000053
  75	7.3630e+00	1.4690	0.779246	0.000272	2.721106	0.460968	0.000054
  76	7.4625e+00	1.4883	0.825683	0.000233	2.332377	0.395115	0.000047
  77	7.5620e+00	1.5079	0.876601	0.000256	2.557431	0.433240	0.000051
  78	7.6615e+00	1.5281	0.930778	0.000272	2.721106	0.460968	0.000054
  79	7.7610e+00	1.5493	0.978437	0.000239	2.393755	0.405513	0.000048
  80	7.8605e+00	1.5710	1.028540	0.000252	2.516512	0.426309	0.000050
  81	7.9600e+00	1.5894	1.082717	0.000272	2.721106	0.460968	0.000054
  82	8.0595e+00	1.6082	1.134856	0.000262	2.618809	0.443638	0.000052
  83	8.1590e+00	1.6282	1.184959	0.000252	2.516512	0.426309	0.000050
  84	8.2585e+00	1.6499	1.233841	0.000246	2.455133	0.415911	0.000049
  85	8.3580e+00	1.6689	1.287610	0.000270	2.700647	0.457502	0.000054
  86	8.4575e+00	1.6882	1.340564	0.000266	2.659728	0.450570	0.000053
  87	8.5570e+00	1.7104	1.393112	0.000264	2.639268	0.447104	0.000053
  88	8.6565e+00	1.7274	1.444029	0.000256	2.557431	0.433240	0.000051
  89	8.7560e+00	1.7493	1.495762	0.000260	2.598349	0.440172	0.000052
  90	8.8555e+00	1.7666	1.545458	0.000250	2.496052	0.422843	0.000050
  91	8.9550e+00	1.7883	1.598005	0.000264	2.639268	0.447104	0.000053
  92	9.0545e+00	1.8090	1.650959	0.000266	2.659728	0.450570	0.000053
  93	9.1540e+00	1.8304	1.701062	0.000252	2.516512	0.426309	0.000050
  94	9.2535e+00	1.8457	1.754017	0.000266	2.659728	0.450570	0.000053
  95	9.3530e+00	1.8658	1.803713	0.000250	2.496052	0.422843	0.000050
  96	9.4525e+00	1.8892	1.858297	0.000274	2.741566	0.464434	0.000055
  97	9.5520e+00	1.9082	1.908807	0.000254	2.536971	0.429775	0.000051
  98	9.6515e+00	1.9263	1.955244	0.000233	2.332377	0.395115	0.000047
  99	9.7510e+00	1.9498	2.015531	0.000303	3.027998	0.512957	0.000061
 100	9.8505e+00	1.9666	2.061153	0.000229	2.291458	0.388183	0.000046
 101	9.9500e+00	1.9870	2.110442	0.000248	2.475593	0.419377	0.000050
 102	1.0050e+01	2.0073	2.165026	0.000274	2.741566	0.464434	0.000055
 103	1.0149e+01	2.0263	2.216351	0.000258	2.577890	0.436706	0.000052
 104	1.0248e+01	2.0472	2.265232	0.000246	2.455133	0.415911	0.000049
 105	1.0348e+01	2.0670	2.322260	0.000286	2.864322	0.485229	0.000057
 106	1.0447e+01	2.0880	2.367475	0.000227	2.270998	0.384718	0.000045
 107	1.0547e+01	2.1062	2.420429	0.000266	2.659728	0.450570	0.000053
 108	1.0646e+01	2.1249	2.467681	0.000237	2.373296	0.402047	0.000047
 109	1.0746e+01	2.1451	2.520228	0.000264	2.639268	0.447104	0.000053
 110	1.0845e+01	2.1678	2.571146	0.000256	2.557431	0.433240	0.000051
 111	1.0945e+01	2.1866	2.621249	0.000252	2.516512	0.426309	0.000050
 112	1.1044e+01	2.2047	2.670538	0.000248	2.475593	0.419377	0.000050
 113	1.1144e+01	2.2253	2.725529	0.000276	2.762025	0.467900	0.000055
 114	1.1243e+01	2.2459	2.774817	0.000248	2.475593	0.419377	0.000050
 115	1.1343e+01	2.2672	2.827365	0.000264	2.639268	0.447104	0.000053
 116	1.1443e+01	2.2859	2.881949	0.000274	2.741566	0.464434	0.000055
 117	1.1542e+01	2.3081	2.934088	0.000262	2.618809	0.443638	0.000052
 118	1.1642e+01	2.3273	2.987450	0.000268	2.680187	0.454036	0.000054
 119	1.1741e+01	2.3447	3.042849	0.000278	2.782484	0.471366	0.000056
 120	1.1841e+01	2.3665	3.092545	0.000250	2.496052	0.422843	0.000050
 121	1.1940e+01	2.3862	3.149980	0.000288	2.884782	0.488695	0.000058
 122	1.2040e+01	2.4032	3.200083	0.000252	2.516512	0.426309	0.000050
 123	1.2139e+01	2.4263	3.251001	0.000256	2.557431	0.433240	0.000051
 124	1.2239e+01	2.4435	3.303955	0.000266	2.659728	0.450570	0.000053
 125	1.2338e+01	2.4672	3.352429	0.000243	2.434674	0.412445	0.000049
 126	1.2438e+01	2.4860	3.408642	0.000282	2.823403	0.478297	0.000056
 127	1.2537e+01	2.5034	3.462004	0.000268	2.680187	0.454036	0.000054
 128	1.2636e+01	2.5298	3.516996	0.000276	2.762025	0.467900	0.000055
 129	1.2736e+01	2.5461	3.567913	0.000256	2.557431	0.433240	0.000051
 130	1.2835e+01	2.5662	3.624127	0.000282	2.823403	0.478297	0.000056
 131	1.2935e+01	2.5848	3.675452	0.000258	2.577890	0.436706	0.000052
 132	1.3034e+01	2.6052	3.726370	0.000256	2.557431	0.433240	0.000051
 133	1.3134e+01	2.6270	3.780954	0.000274	2.741566	0.464434	0.000055
 134	1.3233e+01	2.6453	3.828205	0.000237	2.373296	0.402047	0.000047
 135	1.3333e+01	2.6670	3.877901	0.000250	2.496052	0.422843	0.000050
 136	1.3432e+01	2.6827	3.930041	0.000262	2.618809	0.443638	0.000052
 137	1.3532e+01	2.7046	3.979737	0.000250	2.496052	0.422843	0.000050
 138	1.3632e+01	2.7239	4.029025	0.000248	2.475593	0.419377	0.000050
 139	1.3731e+01	2.7459	4.076277	0.000237	2.373296	0.402047	0.000047
 140	1.3831e+01	2.7647	4.129231	0.000266	2.659728	0.450570	0.000053
 141	1.3930e+01	2.7840	4.176891	0.000239	2.393755	0.405513	0.000048
 142	1.4030e+01	2.8025	4.225772	0.000246	2.455133	0.415911	0.000049
 143	1.4129e+01	2.8220	4.271801	0.000231	2.311917	0.391649	0.000046
 144	1.4229e+01	2.8451	4.323941	0.000262	2.618809	0.443638	0.000052
 145	1.4328e+01	2.8653	4.373637	0.000250	2.496052	0.422843	0.000050
 146	1.4428e+01	2.8851	4.419259	0.000229	2.291458	0.388183	0.000046
 147	1.4527e+01	2.9026	4.468955	0.000250	2.496052	0.422843	0.000050
 148	1.4627e+01	2.9251	4.519873	0.000256	2.557431	0.433240	0.000051
 149	1.4726e+01	2.9443	4.569976	0.000252	2.516512	0.426309	0.000050
 150	1.4825e+01	2.9641	4.613562	0.000219	2.189161	0.370854	0.000044
 151	1.4925e+01	2.9842	4.663258	0.000250	2.496052	0.422843	0.000050
 152	1.5024e+01	3.0048	4.714175	0.000256	2.557431	0.433240	0.000051
 153	1.5124e+01	3.0226	4.757761	0.000219	2.189161	0.370854	0.000044
 154	1.5223e+01	3.0456	4.807457	0.000250	2.496052	0.422843	0.000050
 155	1.5323e+01	3.0630	4.861226	0.000270	2.700647	0.457502	0.000054
 156	1.5422e+01	3.0845	4.910922	0.000250	2.496052	0.422843	0.000050
 157	1.5522e+01	3.1002	4.960618	0.000250	2.496052	0.422843	0.000050
 158	1.5621e+01	3.1230	5.010313	0.000250	2.496052	0.422843	0.000050
 159	1.5721e+01	3.1451	5.057565	0.000237	2.373296	0.402047	0.000047
 160	1.5820e+01	3.1656	5.110520	0.000266	2.659728	0.450570	0.000053
 161	1.5920e+01	3.1828	5.156142	0.000229	2.291458	0.388183	0.000046
 162	1.6020e+01	3.2050	5.207875	0.000260	2.598349	0.440172	0.000052
 163	1.6119e+01	3.2229	5.260422	0.000264	2.639268	0.447104	0.000053
 164	1.6218e+01	3.2410	5.309303	0.000246	2.455133	0.415911	0.000049
 165	1.6318e+01	3.2618	5.359406	0.000252	2.516512	0.426309	0.000050
 166	1.6418e+01	3.2810	5.408287	0.000246	2.455133	0.415911	0.000049
 167	1.6517e+01	3.3028	5.459612	0.000258	2.577890	0.436706	0.000052
 168	1.6616e+01	3.3235	5.506864	0.000237	2.373296	0.402047	0.000047
 169	1.6716e+01	3.3419	5.556560	0.000250	2.496052	0.422843	0.000050
 170	1.6816e+01	3.3630	5.605034	0.000243	2.434674	0.412445	0.000049
 171	1.6915e+01	3.3803	5.656359	0.000258	2.577890	0.436706	0.000052
 172	1.7015e+01	3.4014	5.705647	0.000248	2.475593	0.419377	0.000050
 173	1.7114e+01	3.4245	5.752492	0.000235	2.352836	0.398581	0.000047
 174	1.7213e+01	3.4416	5.802187	0.000250	2.496052	0.422843	0.000050
 175	1.7313e+01	3.4646	5.854734	0.000264	2.639268	0.447104	0.000053
 176	1.7413e+01	3.4808	5.901579	0.000235	2.352836	0.398581	0.000047
 177	1.7512e+01	3.5018	5.948423	0.000235	2.352836	0.398581	0.000047
 178	1.7611e+01	3.5217	5.999341	0.000256	2.557431	0.433240	0.000051
 179	1.7711e+01	3.5418	6.047000	0.000239	2.393755	0.405513	0.000048
 180	1.7811e+01	3.5616	6.095881	0.000246	2.455133	0.415911	0.000049
 181	1.7910e+01	3.5805	6.150058	0.000272	2.721106	0.460968	0.000054
 182	1.8009e+01	3.6016	6.197310	0.000237	2.373296	0.402047	0.000047
 183	1.8109e+01	3.6211	6.244154	0.000235	2.352836	0.398581	0.000047
 184	1.8209e+01	3.6407	6.290998	0.000235	2.352836	0.398581	0.000047
 185	1.8308e+01	3.6629	6.339879	0.000246	2.455133	0.415911	0.000049
 186	1.8407e+01	3.6847	6.387131	0.000237	2.373296	0.402047	0.000047
 187	1.8507e+01	3.7011	6.438049	0.000256	2.557431	0.433240	0.000051
 188	1.8607e+01	3.7212	6.485708	0.000239	2.393755	0.405513	0.000048
 189	1.8706e+01	3.7399	6.535404	0.000250	2.496052	0.422843	0.000050
 190	1.8805e+01	3.7606	6.583063	0.000239	2.393755	0.405513	0.000048
 191	1.8905e+01	3.7805	6.632351	0.000248	2.475593	0.419377	0.000050
 192	1.9005e+01	3.7981	6.682455	0.000252	2.516512	0.426309	0.000050
 193	1.9104e+01	3.8208	6.731743	0.000248	2.475593	0.419377	0.000050
 194	1.9203e+01	3.8418	6.777365	0.000229	2.291458	0.388183	0.000046
 195	1.9303e+01	3.8628	6.825024	0.000239	2.393755	0.405513	0.000048
 196	1.9402e+01	3.8783	6.871869	0.000235	2.352836	0.398581	0.000047
 197	1.9502e+01	3.9005	6.923601	0.000260	2.598349	0.440172	0.000052
 198	1.9602e+01	3.9205	6.966780	0.000217	2.168701	0.367388	0.000043
 199	1.9701e+01	3.9397	7.014439	0.000239	2.393755	0.405513	0.000048
 200	1.9800e+01	3.9584	7.058839	0.000223	2.230079	0.377786	0.000045
 201	1.9900e+01	3.9800	7.100795	0.000211	2.107323	0.356990	0.000042
 202	2.0000e+01	3.9999	7.148862	0.000241	2.414214	0.408979	0.000048
 203	2.0099e+01	4.0217	7.194484	0.000229	2.291458	0.388183	0.000046
 204	2.0198e+01	4.0359	7.238884	0.000223	2.230079	0.377786	0.000045
 205	2.0298e+01	4.0608	7.283285	0.000223	2.230079	0.377786	0.000045
 206	2.0398e+01	4.0789	7.328093	0.000225	2.250539	0.381252	0.000045
 207	2.0497e+01	4.0963	7.375344	0.000237	2.373296	0.402047	0.000047
 208	2.0596e+01	4.1190	7.419337	0.000221	2.209620	0.374320	0.000044
 209	2.0696e+01	4.1417	7.462923	0.000219	2.189161	0.370854	0.000044
 210	2.0796e+01	4.1602	7.508953	0.000231	2.311917	0.391649	0.000046
 211	2.0895e+01	4.1766	7.554575	0.000229	2.291458	0.388183	0.000046
 212	2.0994e+01	4.1993	7.594087	0.000198	1.984566	0.336195	0.000040
 213	2.1094e+01	4.2194	7.638488	0.000223	2.230079	0.377786	0.000045
 214	2.1194e+01	4.2399	7.680851	0.000213	2.127782	0.360456	0.000043
 215	2.1293e+01	4.2599	7.727696	0.000235	2.352836	0.398581	0.000047
 216	2.1392e+01	4.2777	7.766393	0.000194	1.943647	0.329263	0.000039
 217	2.1492e+01	4.2995	7.816496	0.000252	2.516512	0.426309	0.000050
 218	2.1591e+01	4.3156	7.861304	0.000225	2.250539	0.381252	0.000045
 219	2.1691e+01	4.3385	7.904075	0.000215	2.148242	0.363922	0.000043
 220	2.1791e+01	4.3613	7.954993	0.000256	2.557431	0.433240	0.000051
 221	2.1890e+01	4.3778	7.996949	0.000211	2.107323	0.356990	0.000042
 222	2.1989e+01	4.3961	8.046237	0.000248	2.475593	0.419377	0.000050
 223	2.2089e+01	4.4183	8.093489	0.000237	2.373296	0.402047	0.000047
 224	2.2189e+01	4.4358	8.139926	0.000233	2.332377	0.395115	0.000047
 225	2.2288e+01	4.4554	8.185141	0.000227	2.270998	0.384718	0.000045
 226	2.2387e+01	4.4788	8.229949	0.000225	2.250539	0.381252	0.000045
 227	2.2487e+01	4.4988	8.274349	0.000223	2.230079	0.377786	0.000045
 228	2.2587e+01	4.5189	8.323638	0.000248	2.475593	0.419377	0.000050
 229	2.2686e+01	4.5361	8.366816	0.000217	2.168701	0.367388	0.000043
 230	2.2785e+01	4.5579	8.414068	0.000237	2.373296	0.402047	0.000047
 231	2.2885e+01	4.5802	8.463764	0.000250	2.496052	0.422843	0.000050
 232	2.2985e+01	4.5963	8.509386	0.000229	2.291458	0.388183	0.000046
 233	2.3084e+01	4.6188	8.555416	0.000231	2.311917	0.391649	0.000046
 234	2.3183e+01	4.6362	8.600223	0.000225	2.250539	0.381252	0.000045
 235	2.3283e+01	4.6571	8.643809	0.000219	2.189161	0.370854	0.000044
 236	2.3383e+01	4.6763	8.691061	0.000237	2.373296	0.402047	0.000047
 237	2.3482e+01	4.6998	8.734646	0.000219	2.189161	0.370854	0.000044
 238	2.3581e+01	4.7190	8.778639	0.000221	2.209620	0.374320	0.000044
 239	2.3681e+01	4.7372	8.826298	0.000239	2.393755	0.405513	0.000048
 240	2.3780e+01	4.7544	8.867440	0.000207	2.066404	0.350058	0.000041
 241	2.3880e+01	4.7759	8.911433	0.000221	2.209620	0.374320	0.000044
 242	2.3980e+01	4.7950	8.951353	0.000201	2.005026	0.339661	0.000040
 243	2.4079e+01	4.8154	8.998604	0.000237	2.373296	0.402047	0.000047
 244	2.4178e+01	4.8374	9.042190	0.000219	2.189161	0.370854	0.000044
 245	2.4278e+01	4.8562	9.083739	0.000209	2.086863	0.353524	0.000042
 246	2.4378e+01	4.8767	9.124473	0.000205	2.045944	0.346592	0.000041
 247	2.4477e+01	4.8960	9.168466	0.000221	2.209620	0.374320	0.000044
 248	2.4576e+01	4.9170	9.208386	0.000201	2.005026	0.339661	0.000040
 249	2.4676e+01	4.9371	9.251157	0.000215	2.148242	0.363922	0.000043
 250	2.4776e+01	4.9561	9.293520	0.000213	2.127782	0.360456	0.000043
 251	2.4875e+01	4.9740	9.334662	0.000207	2.066404	0.350058	0.000041
 252	2.4974e+01	4.9957	9.377433	0.000215	2.148242	0.363922	0.000043
 253	2.5074e+01	5.0172	9.420204	0.000215	2.148242	0.363922	0.000043
 254	2.5174e+01	5.0356	9.460123	0.000201	2.005026	0.339661	0.000040
 255	2.5273e+01	5.0533	9.501672	0.000209	2.086863	0.353524	0.000042
 256	2.5372e+01	5.0729	9.541185	0.000198	1.984566	0.336195	0.000040
 257	2.5472e+01	5.0961	9.583956	0.000215	2.148242	0.363922	0.000043
 258	2.5572e+01	5.1141	9.625097	0.000207	2.066404	0.350058	0.000041
 259	2.5671e+01	5.1327	9.662165	0.000186	1.861809	0.315399	0.000037
 260	2.5770e+01	5.1544	9.706566	0.000223	2.230079	0.377786	0.000045
 261	2.5870e+01	5.1737	9.746893	0.000203	2.025485	0.343126	0.000041
 262	2.5970e+01	5.1965	9.788849	0.000211	2.107323	0.356990	0.000042
 263	2.6069e+01	5.2152	9.825510	0.000184	1.841350	0.311933	0.000037
 264	2.6169e+01	5.2338	9.866244	0.000205	2.045944	0.346592	0.000041
 265	2.6268e+01	5.2554	9.904941	0.000194	1.943647	0.329263	0.000039
 266	2.6367e+01	5.2762	9.944454	0.000198	1.984566	0.336195	0.000040
 267	2.6467e+01	5.2938	9.988854	0.000223	2.230079	0.377786	0.000045
 268	2.6567e+01	5.3143	10.026737	0.000190	1.902728	0.322331	0.000038
 269	2.6666e+01	5.3338	10.065842	0.000196	1.964107	0.332729	0.000039
 270	2.6765e+01	5.3539	10.104947	0.000196	1.964107	0.332729	0.000039
 271	2.6865e+01	5.3739	10.145274	0.000203	2.025485	0.343126	0.000041
 272	2.6965e+01	5.3932	10.182749	0.000188	1.882269	0.318865	0.000038
 273	2.7064e+01	5.4161	10.222669	0.000201	2.005026	0.339661	0.000040
 274	2.7163e+01	5.4337	10.260552	0.000190	1.902728	0.322331	0.000038
 275	2.7263e+01	5.4556	10.297620	0.000186	1.861809	0.315399	0.000037
 276	2.7363e+01	5.4733	10.335095	0.000188	1.882269	0.318865	0.000038
 277	2.7462e+01	5.4940	10.375829	0.000205	2.045944	0.346592	0.000041
 278	2.7561e+01	5.5126	10.410454	0.000174	1.739053	0.294604	0.000035
 279	2.7661e+01	5.5341	10.447929	0.000188	1.882269	0.318865	0.000038
 280	2.7761e+01	5.5541	10.488256	0.000203	2.025485	0.343126	0.000041
 281	2.7860e+01	5.5732	10.526139	0.000190	1.902728	0.322331	0.000038
 282	2.7959e+01	5.5935	10.562392	0.000182	1.820891	0.308467	0.000036
 283	2.8059e+01	5.6123	10.604349	0.000211	2.107323	0.356990	0.000042
 284	2.8159e+01	5.6327	10.646712	0.000213	2.127782	0.360456	0.000043
 285	2.8258e+01	5.6518	10.685002	0.000192	1.923188	0.325797	0.000038
 286	2.8358e+01	5.6727	10.724107	0.000196	1.964107	0.332729	0.000039
 287	2.8457e+01	5.6916	10.759953	0.000180	1.800431	0.305001	0.000036
 288	2.8556e+01	5.7140	10.797836	0.000190	1.902728	0.322331	0.000038
 289	2.8656e+01	5.7294	10.840607	0.000215	2.148242	0.363922	0.000043
 290	2.8756e+01	5.7539	10.875231	0.000174	1.739053	0.294604	0.000035
 291	2.8855e+01	5.7717	10.909448	0.000172	1.718593	0.291138	0.000034
 292	2.8954e+01	5.7919	10.950590	0.000207	2.066404	0.350058	0.000041
 293	2.9054e+01	5.8120	10.988473	0.000190	1.902728	0.322331	0.000038
 294	2.9154e+01	5.8320	11.022689	0.000172	1.718593	0.291138	0.000034
 295	2.9253e+01	5.8521	11.060980	0.000192	1.923188	0.325797	0.000038
 296	2.9352e+01	5.8722	11.103343	0.000213	2.127782	0.360456	0.000043
 297	2.9452e+01	5.8920	11.139189	0.000180	1.800431	0.305001	0.000036
 298	2.9552e+01	5.9121	11.178294	0.000196	1.964107	0.332729	0.000039
 299	2.9651e+01	5.9310	11.216992	0.000194	1.943647	0.329263	0.000039
 300	2.9750e+01	5.9516	11.253653	0.000184	1.841350	0.311933	0.000037
 301	2.9850e+01	5.9734	11.290721	0.000186	1.861809	0.315399	0.000037
 302	2.9950e+01	5.9921	11.324123	0.000168	1.677674	0.284206	0.000034
 303	3.0049e+01	6.0130	11.359562	0.000178	1.779972	0.301535	0.000036
 304	3.0148e+01	6.0307	11.392556	0.000166	1.657215	0.280740	0.000033
 305	3.0248e+01	6.0513	11.425959	0.000168	1.677674	0.284206	0.000034
 306	3.0348e+01	6.0714	11.458546	0.000164	1.636756	0.277274	0.000033
 307	3.0447e+01	6.0902	11.489911	0.000158	1.575377	0.266876	0.000032
 308	3.0547e+01	6.1109	11.524128	0.000172	1.718593	0.291138	0.000034
 309	3.0646e+01	6.1304	11.555901	0.000160	1.595837	0.270342	0.000032
 310	3.0745e+01	6.1520	11.589303	0.000168	1.677674	0.284206	0.000034
 311	3.0845e+01	6.1722	11.622298	0.000166	1.657215	0.280740	0.000033
 312	3.0945e+01	6.1908	11.653663	0.000158	1.575377	0.266876	0.000032
 313	3.1044e+01	6.2108	11.690324	0.000184	1.841350	0.311933	0.000037
 314	3.1143e+01	6.2312	11.720060	0.000149	1.493539	0.253012	0.000030
 315	3.1243e+01	6.2514	11.751833	0.000160	1.595837	0.270342	0.000032
 316	3.1343e+01	6.2708	11.782791	0.000155	1.554918	0.263410	0.000031
 317	3.1442e+01	6.2905	11.812119	0.000147	1.473080	0.249547	0.000029
 318	3.1541e+01	6.3101	11.843077	0.000155	1.554918	0.263410	0.000031
 319	3.1641e+01	6.3305	11.873221	0.000151	1.513999	0.256478	0.000030
 320	3.1741e+01	6.3516	11.908659	0.000178	1.779972	0.301535	0.000036
 321	3.1840e+01	6.3721	11.937988	0.000147	1.473080	0.249547	0.000029
 322	3.1939e+01	6.3908	11.968539	0.000153	1.534458	0.259944	0.000031
 323	3.2039e+01	6.4091	12.002348	0.000170	1.698134	0.287672	0.000034
 324	3.2139e+01	6.4293	12.032899	0.000153	1.534458	0.259944	0.000031
 325	3.2238e+01	6.4516	12.070782	0.000190	1.902728	0.322331	0.000038
 326	3.2337e+01	6.4676	12.099703	0.000145	1.452621	0.246081	0.000029
 327	3.2437e+01	6.4899	12.131883	0.000162	1.616296	0.273808	0.000032
 328	3.2536e+01	6.5093	12.164878	0.000166	1.657215	0.280740	0.000033
 329	3.2636e+01	6.5281	12.196651	0.000160	1.595837	0.270342	0.000032
 330	3.2736e+01	6.5473	12.226794	0.000151	1.513999	0.256478	0.000030
 331	3.2835e+01	6.5679	12.261011	0.000172	1.718593	0.291138	0.000034
 332	3.2934e+01	6.5884	12.293598	0.000164	1.636756	0.277274	0.000033
 333	3.3034e+01	6.6096	12.326186	0.000164	1.636756	0.277274	0.000033
 334	3.3133e+01	6.6266	12.352663	0.000133	1.329864	0.225285	0.000027
 335	3.3233e+01	6.6482	12.389731	0.000186	1.861809	0.315399	0.000037
 336	3.3333e+01	6.6680	12.419467	0.000149	1.493539	0.253012	0.000030
 337	3.3432e+01	6.6874	12.450018	0.000153	1.534458	0.259944	0.000031
 338	3.3532e+01	6.7085	12.480976	0.000155	1.554918	0.263410	0.000031
 339	3.3631e+01	6.7300	12.512748	0.000160	1.595837	0.270342	0.000032
 340	3.3730e+01	6.7467	12.541670	0.000145	1.452621	0.246081	0.000029
 341	3.3830e+01	6.7664	12.575479	0.000170	1.698134	0.287672	0.000034
 342	3.3929e+01	6.7872	12.605215	0.000149	1.493539	0.253012	0.000030
 343	3.4029e+01	6.8084	12.641876	0.000184	1.841350	0.311933	0.000037
 344	3.4129e+01	6.8269	12.669983	0.000141	1.411702	0.239149	0.000028
 345	3.4228e+01	6.8468	12.701348	0.000158	1.575377	0.266876	0.000032
 346	3.4328e+01	6.8665	12.731491	0.000151	1.513999	0.256478	0.000030
 347	3.4427e+01	6.8872	12.764894	0.000168	1.677674	0.284206	0.000034
 348	3.4526e+01	6.9079	12.795037	0.000151	1.513999	0.256478	0.000030
 349	3.4626e+01	6.9274	12.826810	0.000160	1.595837	0.270342	0.000032
 350	3.4725e+01	6.9460	12.855731	0.000145	1.452621	0.246081	0.000029
 351	3.4825e+01	6.9679	12.888726	0.000166	1.657215	0.280740	0.000033
 352	3.4925e+01	6.9877	12.918462	0.000149	1.493539	0.253012	0.000030
 353	3.5024e+01	7.0070	12.946161	0.000139	1.391242	0.235683	0.000028
 354	3.5123e+01	7.0253	12.979970	0.000170	1.698134	0.287672	0.000034
 355	3.5223e+01	7.0467	13.008892	0.000145	1.452621	0.246081	0.000029
 356	3.5322e+01	7.0650	13.038628	0.000149	1.493539	0.253012	0.000030
 357	3.5422e+01	7.0864	13.071622	0.000166	1.657215	0.280740	0.000033
 358	3.5522e+01	7.1050	13.104210	0.000164	1.636756	0.277274	0.000033
 359	3.5621e+01	7.1268	13.134353	0.000151	1.513999	0.256478	0.000030
 360	3.5721e+01	7.1455	13.164497	0.000151	1.513999	0.256478	0.000030
 361	3.5820e+01	7.1669	13.199935	0.000178	1.779972	0.301535	0.000036
 362	3.5919e+01	7.1868	13.230079	0.000151	1.513999	0.256478	0.000030
 363	3.6019e+01	7.2076	13.259407	0.000147	1.473080	0.249547	0.000029
 364	3.6118e+01	7.2344	13.287107	0.000139	1.391242	0.235683	0.000028
 365	3.6218e+01	7.2445	13.320101	0.000166	1.657215	0.280740	0.000033
 366	3.6318e+01	7.2656	13.347393	0.000137	1.370783	0.232217	0.000027
 367	3.6417e+01	7.2842	13.375500	0.000141	1.411702	0.239149	0.000028
 368	3.6517e+01	7.3048	13.401570	0.000131	1.309404	0.221819	0.000026
 369	3.6616e+01	7.3266	13.431713	0.000151	1.513999	0.256478	0.000030
 370	3.6715e+01	7.3440	13.461857	0.000151	1.513999	0.256478	0.000030
 371	3.6815e+01	7.3633	13.493222	0.000158	1.575377	0.266876	0.000032
 372	3.6914e+01	7.3858	13.518477	0.000127	1.268486	0.214887	0.000025
 373	3.7014e+01	7.4059	13.546991	0.000143	1.432161	0.242615	0.000029
 374	3.7114e+01	7.4261	13.575505	0.000143	1.432161	0.242615	0.000029
 375	3.7213e+01	7.4464	13.603205	0.000139	1.391242	0.235683	0.000028
 376	3.7313e+01	7.4684	13.631311	0.000141	1.411702	0.239149	0.000028
 377	3.7412e+01	7.4862	13.662677	0.000158	1.575377	0.266876	0.000032
 378	3.7511e+01	7.5040	13.689561	0.000135	1.350323	0.228751	0.000027
 379	3.7611e+01	7.5249	13.713187	0.000119	1.186648	0.201024	0.000024
 380	3.7711e+01	7.5474	13.738850	0.000129	1.288945	0.218353	0.000026
 381	3.7810e+01	7.5648	13.771030	0.000162	1.616296	0.273808	0.000032
 382	3.7910e+01	7.5853	13.799136	0.000141	1.411702	0.239149	0.000028
 383	3.8009e+01	7.6038	13.824392	0.000127	1.268486	0.214887	0.000025
 384	3.8108e+01	7.6266	13.852498	0.000141	1.411702	0.239149	0.000028
 385	3.8208e+01	7.6432	13.882234	0.000149	1.493539	0.253012	0.000030
 386	3.8307e+01	7.6661	13.909933	0.000139	1.391242	0.235683	0.000028
 387	3.8407e+01	7.6864	13.944150	0.000172	1.718593	0.291138	0.000034
 388	3.8507e+01	7.7043	13.975923	0.000160	1.595837	0.270342	0.000032
 389	3.8606e+01	7.7246	14.012991	0.000186	1.861809	0.315399	0.000037
 390	3.8706e+01	7.7420	14.038654	0.000129	1.288945	0.218353	0.000026
 391	3.8805e+01	7.7647	14.073278	0.000174	1.739053	0.294604	0.000035
 392	3.8904e+01	7.7837	14.105458	0.000162	1.616296	0.273808	0.000032
 393	3.9004e+01	7.8043	14.134379	0.000145	1.452621	0.246081	0.000029
 394	3.9103e+01	7.8237	14.165745	0.000158	1.575377	0.266876	0.000032
 395	3.9203e+01	7.8437	14.195481	0.000149	1.493539	0.253012	0.000030
 396	3.9303e+01	7.8638	14.227661	0.000162	1.616296	0.273808	0.000032
 397	3.9402e+01	7.8833	14.257397	0.000149	1.493539	0.253012	0.000030
 398	3.9502e+01	7.9053	14.291613	0.000172	1.718593	0.291138	0.000034
 399	3.9601e+01	7.9234	14.323386	0.000160	1.595837	0.270342	0.000032
 400	3.9700e+01	7.9453	14.353937	0.000153	1.534458	0.259944	0.000031
 401	3.9800e+01	7.9652	14.384488	0.000153	1.534458	0.259944	0.000031
 402	3.9900e+01	7.9834	14.419112	0.000174	1.739053	0.294604	0.000035
 403	3.9999e+01	8.0022	14.452514	0.000168	1.677674	0.284206	0.000034
 404	4.0099e+01	8.0234	14.482250	0.000149	1.493539	0.253012	0.000030
 405	4.0198e+01	8.0421	14.515652	0.000168	1.677674	0.284206	0.000034
 406	4.0297e+01	8.0620	14.545795	0.000151	1.513999	0.256478	0.000030
 407	4.0397e+01	8.0814	14.575124	0.000147	1.473080	0.249547	0.000029
 408	4.0496e+01	8.1038	14.605675	0.000153	1.534458	0.259944	0.000031
 409	4.0596e+01	8.1227	14.636225	0.000153	1.534458	0.259944	0.000031
 410	4.0696e+01	8.1400	14.667183	0.000155	1.554918	0.263410	0.000031
 411	4.0795e+01	8.1606	14.697327	0.000151	1.513999	0.256478	0.000030
 412	4.0895e+01	8.1815	14.727470	0.000151	1.513999	0.256478	0.000030
 413	4.0994e+01	8.2014	14.754762	0.000137	1.370783	0.232217	0.000027
 414	4.1093e+01	8.2235	14.784091	0.000147	1.473080	0.249547	0.000029
 415	4.1193e+01	8.2420	14.818307	0.000172	1.718593	0.291138	0.000034
 416	4.1292e+01	8.2626	14.841933	0.000119	1.186648	0.201024	0.000024
 417	4.1392e+01	8.2822	14.874521	0.000164	1.636756	0.277274	0.000033
 418	4.1492e+01	8.3044	14.905479	0.000155	1.554918	0.263410	0.000031
 419	4.1591e+01	8.3225	14.936437	0.000155	1.554918	0.263410	0.000031
 420	4.1691e+01	8.3415	14.964951	0.000143	1.432161	0.242615	0.000029
 421	4.1790e+01	8.3615	14.995501	0.000153	1.534458	0.259944	0.000031
 422	4.1889e+01	8.3821	15.025645	0.000151	1.513999	0.256478	0.000030
 423	4.1989e+01	8.4039	15.054159	0.000143	1.432161	0.242615	0.000029
 424	4.2089e+01	8.4218	15.083487	0.000147	1.473080	0.249547	0.000029
 425	4.2188e+01	8.4409	15.116482	0.000166	1.657215	0.280740	0.000033
 426	4.2288e+01	8.4619	15.142552	0.000131	1.309404	0.221819	0.000026
 427	4.2387e+01	8.4826	15.176361	0.000170	1.698134	0.287672	0.000034
 428	4.2486e+01	8.5010	15.202431	0.000131	1.309404	0.221819	0.000026
 429	4.2586e+01	8.5207	15.232575	0.000151	1.513999	0.256478	0.000030
 430	4.2685e+01	8.5416	15.263533	0.000155	1.554918	0.263410	0.000031
 431	4.2785e+01	8.5611	15.292861	0.000147	1.473080	0.249547	0.000029
 432	4.2885e+01	8.5819	15.323819	0.000155	1.554918	0.263410	0.000031
 433	4.2984e+01	8.5999	15.352741	0.000145	1.452621	0.246081	0.000029
 434	4.3084e+01	8.6219	15.383291	0.000153	1.534458	0.259944	0.000031
 435	4.3183e+01	8.6395	15.408547	0.000127	1.268486	0.214887	0.000025
 436	4.3282e+01	8.6594	15.441541	0.000166	1.657215	0.280740	0.000033
 437	4.3382e+01	8.6810	15.470463	0.000145	1.452621	0.246081	0.000029
 438	4.3481e+01	8.7000	15.500199	0.000149	1.493539	0.253012	0.000030
 439	4.3581e+01	8.7189	15.527898	0.000139	1.391242	0.235683	0.000028
 440	4.3681e+01	8.7411	15.559263	0.000158	1.575377	0.266876	0.000032
 441	4.3780e+01	8.7583	15.590221	0.000155	1.554918	0.263410	0.000031
 442	4.3880e+01	8.7800	15.618328	0.000141	1.411702	0.239149	0.000028
 443	4.3979e+01	8.8010	15.647657	0.000147	1.473080	0.249547	0.000029
 444	4.4078e+01	8.8205	15.677393	0.000149	1.493539	0.253012	0.000030
 445	4.4178e+01	8.8374	15.706721	0.000147	1.473080	0.249547	0.000029
 446	4.4278e+01	8.8612	15.736865	0.000151	1.513999	0.256478	0.000030
 447	4.4377e+01	8.8805	15.765379	0.000143	1.432161	0.242615	0.000029
 448	4.4477e+01	8.9008	15.791856	0.000133	1.329864	0.225285	0.000027
 449	4.4576e+01	8.9228	15.823629	0.000160	1.595837	0.270342	0.000032
 450	4.4675e+01	8.9371	15.860290	0.000184	1.841350	0.311933	0.000037
 451	4.4775e+01	8.9576	15.890026	0.000149	1.493539	0.253012	0.000030
 452	4.4874e+01	8.9780	15.920169	0.000151	1.513999	0.256478	0.000030
 453	4.4974e+01	8.9997	15.953571	0.000168	1.677674	0.284206	0.000034
 454	4.5074e+01	9.0179	15.986158	0.000164	1.636756	0.277274	0.000033
 455	4.5173e+01	9.0381	16.015487	0.000147	1.473080	0.249547	0.000029
 456	4.5273e+01	9.0598	16.047667	0.000162	1.616296	0.273808	0.000032
 457	4.5372e+01	9.0788	16.079847	0.000162	1.616296	0.273808	0.000032
 458	4.5471e+01	9.0967	16.113657	0.000170	1.698134	0.287672	0.000034
 459	4.5571e+01	9.1179	16.142578	0.000145	1.452621	0.246081	0.000029
 460	4.5670e+01	9.1374	16.170685	0.000141	1.411702	0.239149	0.000028
 461	4.5770e+01	9.1577	16.205716	0.000176	1.759512	0.298069	0.000035
 462	4.5870e+01	9.1782	16.234637	0.000145	1.452621	0.246081	0.000029
 463	4.5969e+01	9.1962	16.271298	0.000184	1.841350	0.311933	0.000037
 464	4.6069e+01	9.2167	16.302664	0.000158	1.575377	0.266876	0.000032
 465	4.6168e+01	9.2391	16.334029	0.000158	1.575377	0.266876	0.000032
 466	4.6267e+01	9.2567	16.370690	0.000184	1.841350	0.311933	0.000037
 467	4.6367e+01	9.2810	16.402463	0.000160	1.595837	0.270342	0.000032
 468	4.6467e+01	9.2969	16.429754	0.000137	1.370783	0.232217	0.000027
 469	4.6566e+01	9.3185	16.463564	0.000170	1.698134	0.287672	0.000034
 470	4.6666e+01	9.3384	16.491671	0.000141	1.411702	0.239149	0.000028
 471	4.6765e+01	9.3587	16.527517	0.000180	1.800431	0.305001	0.000036
 472	4.6864e+01	9.3762	16.550735	0.000117	1.166188	0.197558	0.000023
 473	4.6964e+01	9.3954	16.576805	0.000131	1.309404	0.221819	0.000026
 474	4.7063e+01	9.4189	16.608578	0.000160	1.595837	0.270342	0.000032
 475	4.7163e+01	9.4386	16.634648	0.000131	1.309404	0.221819	0.000026
 476	4.7263e+01	9.4565	16.667235	0.000164	1.636756	0.277274	0.000033
 477	4.7362e+01	9.4775	16.694527	0.000137	1.370783	0.232217	0.000027
 478	4.7462e+01	9.4950	16.729151	0.000174	1.739053	0.294604	0.000035
 479	4.7561e+01	9.5184	16.756851	0.000139	1.391242	0.235683	0.000028
 480	4.7660e+01	9.5365	16.784550	0.000139	1.391242	0.235683	0.000028
 481	4.7760e+01	9.5550	16.816323	0.000160	1.595837	0.270342	0.000032
 482	4.7859e+01	9.5759	16.845244	0.000145	1.452621	0.246081	0.000029
 483	4.7959e+01	9.5937	16.871721	0.000133	1.329864	0.225285	0.000027
 484	4.8059e+01	9.6160	16.901050	0.000147	1.473080	0.249547	0.000029
 485	4.8158e+01	9.6368	16.929564	0.000143	1.432161	0.242615	0.000029
 486	4.8258e+01	9.6558	16.958892	0.000147	1.473080	0.249547	0.000029
 487	4.8357e+01	9.6777	16.990665	0.000160	1.595837	0.270342	0.000032
 488	4.8456e+01	9.6953	17.017957	0.000137	1.370783	0.232217	0.000027
 489	4.8556e+01	9.7146	17.048508	0.000153	1.534458	0.259944	0.000031
 490	4.8656e+01	9.7347	17.082317	0.000170	1.698134	0.287672	0.000034
 491	4.8755e+01	9.7559	17.111646	0.000147	1.473080	0.249547	0.000029
 492	4.8855e+01	9.7763	17.142604	0.000155	1.554918	0.263410	0.000031
 493	4.8954e+01	9.7949	17.178857	0.000182	1.820891	0.308467	0.000036
 494	4.9053e+01	9.8151	17.208593	0.000149	1.493539	0.253012	0.000030
 495	4.9153e+01	9.8346	17.242403	0.000170	1.698134	0.287672	0.000034
 496	4.9252e+01	9.8529	17.273361	0.000155	1.554918	0.263410	0.000031
 497	4.9352e+01	9.8756	17.305134	0.000160	1.595837	0.270342	0.000032
 498	4.9452e+01	9.8965	17.337314	0.000162	1.616296	0.273808	0.000032
 499	4.9551e+01	9.9136	17.369901	0.000164	1.636756	0.277274	0.000033
 500	4.9651e+01	9.9321	17.401674	0.000160	1.595837	0.270342	0.000032
 501	4.9750e+01	9.9564	17.434261	0.000164	1.636756	0.277274	0.000033
 502	4.9849e+01	9.9718	17.468885	0.000174	1.739053	0.294604	0.000035
 503	4.9949e+01	9.9896	17.499843	0.000155	1.554918	0.263410	0.000031
 504	5.0048e+01	9.9768	17.496177	0.000018	0.184135	0.031193	-0.000004
 505	5.0148e+01	9.9553	17.494141	0.000010	0.102297	0.017330	-0.000002
 506	5.0248e+01	9.9329	17.486808	0.000037	0.368270	0.062387	-0.000007
 507	5.0347e+01	9.9149	17.477847	0.000045	0.450108	0.076250	-0.000009
 508	5.0447e+01	9.8952	17.474588	0.000016	0.163676	0.027727	-0.000003
 509	5.0546e+01	9.8737	17.468885	0.000029	0.286432	0.048523	-0.000006
 510	5.0645e+01	9.8547	17.461960	0.000035	0.347811	0.058921	-0.000007
 511	5.0745e+01	9.8340	17.453406	0.000043	0.429648	0.072784	-0.000009
 512	5.0844e+01	9.8152	17.447296	0.000031	0.306892	0.051989	-0.000006
 513	5.0944e+01	9.7958	17.436298	0.000055	0.552405	0.093580	-0.000011
 514	5.1044e+01	9.7742	17.431410	0.000025	0.245513	0.041591	-0.000005
 515	5.1143e+01	9.7546	17.428966	0.000012	0.122757	0.020796	-0.000002
 516	5.1242e+01	9.7348	17.415523	0.000068	0.675162	0.114375	-0.000014
 517	5.1342e+01	9.7149	17.409006	0.000033	0.327351	0.055455	-0.000007
 518	5.1441e+01	9.6955	17.399230	0.000049	0.491027	0.083182	-0.000010
 519	5.1541e+01	9.6760	17.391490	0.000039	0.388729	0.065853	-0.000008
 520	5.1641e+01	9.6545	17.380492	0.000055	0.552405	0.093580	-0.000011
 521	5.1740e+01	9.6363	17.372752	0.000039	0.388729	0.065853	-0.000008
 522	5.1840e+01	9.6164	17.361754	0.000055	0.552405	0.093580	-0.000011
 523	5.1939e+01	9.5974	17.353200	0.000043	0.429648	0.072784	-0.000009
 524	5.2038e+01	9.5745	17.343424	0.000049	0.491027	0.083182	-0.000010
 525	5.2138e+01	9.5529	17.332018	0.000057	0.572864	0.097046	-0.000011
 526	5.2237e+01	9.5361	17.322649	0.000047	0.470567	0.079716	-0.000009
 527	5.2337e+01	9.5166	17.318576	0.000020	0.204594	0.034659	-0.000004
 528	5.2437e+01	9.4959	17.305134	0.000068	0.675162	0.114375	-0.000014
 529	5.2536e+01	9.4740	17.295765	0.000047	0.470567	0.079716	-0.000009
 530	5.2636e+01	9.4571	17.282730	0.000065	0.654702	0.110910	-0.000013
 531	5.2735e+01	9.4386	17.271732	0.000055	0.552405	0.093580	-0.000011
 532	5.2834e+01	9.4170	17.262363	0.000047	0.470567	0.079716	-0.000009
 533	5.2934e+01	9.3954	17.248920	0.000068	0.675162	0.114375	-0.000014
 534	5.3033e+01	9.3756	17.237107	0.000059	0.593324	0.100512	-0.000012
 535	5.3133e+01	9.3576	17.222443	0.000074	0.736540	0.124773	-0.000015
 536	5.3233e+01	9.3375	17.206964	0.000078	0.777459	0.131705	-0.000016
 537	5.3332e+01	9.3164	17.189856	0.000086	0.859297	0.145569	-0.000017
 538	5.3431e+01	9.2985	17.178450	0.000057	0.572864	0.097046	-0.000011
 539	5.3531e+01	9.2768	17.165008	0.000068	0.675162	0.114375	-0.000014
 540	5.3630e+01	9.2583	17.149936	0.000076	0.756999	0.128239	-0.000015
 541	5.3730e+01	9.2386	17.138531	0.000057	0.572864	0.097046	-0.000011
 542	5.3830e+01	9.2214	17.123866	0.000074	0.736540	0.124773	-0.000015
 543	5.3929e+01	9.1952	17.110831	0.000065	0.654702	0.110910	-0.000013
 544	5.4029e+01	9.1785	17.094130	0.000084	0.838837	0.142103	-0.000017
 545	5.4128e+01	9.1560	17.079873	0.000072	0.716081	0.121307	-0.000014
 546	5.4227e+01	9.1398	17.065209	0.000074	0.736540	0.124773	-0.000015
 547	5.4327e+01	9.1203	17.048508	0.000084	0.838837	0.142103	-0.000017
 548	5.4426e+01	9.1003	17.035066	0.000068	0.675162	0.114375	-0.000014
 549	5.4526e+01	9.0763	17.016328	0.000094	0.941134	0.159432	-0.000019
 550	5.4626e+01	9.0563	17.000849	0.000078	0.777459	0.131705	-0.000016
 551	5.4725e+01	9.0369	16.982111	0.000094	0.941134	0.159432	-0.000019
 552	5.4825e+01	9.0178	16.968261	0.000070	0.695621	0.117841	-0.000014
 553	5.4924e+01	9.0005	16.955226	0.000065	0.654702	0.110910	-0.000013
 554	5.5023e+01	8.9777	16.942191	0.000065	0.654702	0.110910	-0.000013
 555	5.5123e+01	8.9594	16.929156	0.000065	0.654702	0.110910	-0.000013
 556	5.5222e+01	8.9395	16.915307	0.000070	0.695621	0.117841	-0.000014
 557	5.5322e+01	8.9178	16.901050	0.000072	0.716081	0.121307	-0.000014
 558	5.5422e+01	8.8984	16.893718	0.000037	0.368270	0.062387	-0.000007
 559	5.5521e+01	8.8760	16.879461	0.000072	0.716081	0.121307	-0.000014
 560	5.5620e+01	8.8565	16.865611	0.000070	0.695621	0.117841	-0.000014
 561	5.5720e+01	8.8380	16.852576	0.000065	0.654702	0.110910	-0.000013
 562	5.5819e+01	8.8202	16.835060	0.000088	0.879756	0.149035	-0.000018
 563	5.5919e+01	8.7983	16.827321	0.000039	0.388729	0.065853	-0.000008
 564	5.6019e+01	8.7808	16.813064	0.000072	0.716081	0.121307	-0.000014
 565	5.6118e+01	8.7612	16.798807	0.000072	0.716081	0.121307	-0.000014
 566	5.6218e+01	8.7438	16.786179	0.000063	0.634243	0.107444	-0.000013
 567	5.6317e+01	8.7215	16.775181	0.000055	0.552405	0.093580	-0.000011
 568	5.6416e+01	8.7028	16.760517	0.000074	0.736540	0.124773	-0.000015
 569	5.6516e+01	8.6794	16.746667	0.000070	0.695621	0.117841	-0.000014
 570	5.6615e+01	8.6602	16.738113	0.000043	0.429648	0.072784	-0.000009
 571	5.6715e+01	8.6400	16.722226	0.000080	0.797918	0.135171	-0.000016
 572	5.6815e+01	8.6207	16.707562	0.000074	0.736540	0.124773	-0.000015
 573	5.6914e+01	8.6021	16.691268	0.000082	0.818378	0.138637	-0.000016
 574	5.7014e+01	8.5818	16.675789	0.000078	0.777459	0.131705	-0.000016
 575	5.7113e+01	8.5609	16.666828	0.000045	0.450108	0.076250	-0.000009
 576	5.7212e+01	8.5411	16.644831	0.000110	1.104810	0.187160	-0.000022
 577	5.7312e+01	8.5208	16.629352	0.000078	0.777459	0.131705	-0.000016
 578	5.7411e+01	8.5004	16.612651	0.000084	0.838837	0.142103	-0.000017
 579	5.7511e+01	8.4809	16.598394	0.000072	0.716081	0.121307	-0.000014
 580	5.7611e+01	8.4614	16.579657	0.000094	0.941134	0.159432	-0.000019
 581	5.7710e+01	8.4440	16.564992	0.000074	0.736540	0.124773	-0.000015
 582	5.7809e+01	8.4230	16.549513	0.000078	0.777459	0.131705	-0.000016
 583	5.7909e+01	8.4016	16.530775	0.000094	0.941134	0.159432	-0.000019
 584	5.8008e+01	8.3811	16.514074	0.000084	0.838837	0.142103	-0.000017
 585	5.8108e+01	8.3611	16.498595	0.000078	0.777459	0.131705	-0.000016
 586	5.8208e+01	8.3427	16.483116	0.000078	0.777459	0.131705	-0.000016
 587	5.8307e+01	8.3202	16.463971	0.000096	0.961594	0.162898	-0.000019
 588	5.8407e+01	8.3022	16.448492	0.000078	0.777459	0.131705	-0.000016
 589	5.8506e+01	8.2835	16.431384	0.000086	0.859297	0.145569	-0.000017
 590	5.8605e+01	8.2629	16.413461	0.000090	0.900216	0.152501	-0.000018
 591	5.8705e+01	8.2424	16.397982	0.000078	0.777459	0.131705	-0.000016
 592	5.8804e+01	8.2205	16.381281	0.000084	0.838837	0.142103	-0.000017
 593	5.8904e+01	8.2031	16.360506	0.000104	1.043432	0.176762	-0.000021
 594	5.9004e+01	8.1824	16.346657	0.000070	0.695621	0.117841	-0.000014
 595	5.9103e+01	8.1609	16.328734	0.000090	0.900216	0.152501	-0.000018
 596	5.9203e+01	8.1436	16.309588	0.000096	0.961594	0.162898	-0.000019
 597	5.9302e+01	8.1241	16.292480	0.000086	0.859297	0.145569	-0.000017
 598	5.9401e+01	8.1023	16.276594	0.000080	0.797918	0.135171	-0.000016
 599	5.9501e+01	8.0822	16.256634	0.000100	1.002513	0.169830	-0.000020
 600	5.9600e+01	8.0638	16.235045	0.000108	1.084351	0.183694	-0.000022
 601	5.9700e+01	8.0437	16.218751	0.000082	0.818378	0.138637	-0.000016
 602	5.9800e+01	8.0209	16.197162	0.000108	1.084351	0.183694	-0.000022
 603	5.9899e+01	8.0056	16.183312	0.000070	0.695621	0.117841	-0.000014
 604	5.9998e+01	7.9845	16.164982	0.000092	0.920675	0.155967	-0.000018
 605	6.0098e+01	7.9649	16.147873	0.000086	0.859297	0.145569	-0.000017
 606	6.0197e+01	7.9436	16.131172	0.000084	0.838837	0.142103	-0.000017
 607	6.0297e+01	7.9237	16.108769	0.000113	1.125269	0.190626	-0.000023
 608	6.0397e+01	7.9041	16.088809	0.000100	1.002513	0.169830	-0.000020
 609	6.0496e+01	7.8839	16.072515	0.000082	0.818378	0.138637	-0.000016
 610	6.0596e+01	7.8638	16.051333	0.000106	1.063891	0.180228	-0.000021
 611	6.0695e+01	7.8437	16.029744	0.000108	1.084351	0.183694	-0.000022
 612	6.0794e+01	7.8247	16.012636	0.000086	0.859297	0.145569	-0.000017
 613	6.0894e+01	7.8039	15.992269	0.000102	1.022972	0.173296	-0.000020
 614	6.0993e+01	7.7836	15.972309	0.000100	1.002513	0.169830	-0.000020
 615	6.1093e+01	7.7616	15.952349	0.000100	1.002513	0.169830	-0.000020
 616	6.1193e+01	7.7433	15.931575	0.000104	1.043432	0.176762	-0.000021
 617	6.1292e+01	7.7248	15.916503	0.000076	0.756999	0.128239	-0.000015
 618	6.1392e+01	7.7061	15.898172	0.000092	0.920675	0.155967	-0.000018
 619	6.1491e+01	7.6836	15.882693	0.000078	0.777459	0.131705	-0.000016
 620	6.1590e+01	7.6667	15.864363	0.000092	0.920675	0.155967	-0.000018
 621	6.1690e+01	7.6427	15.847662	0.000084	0.838837	0.142103	-0.000017
 622	6.1789e+01	7.6273	15.827702	0.000100	1.002513	0.169830	-0.000020
 623	6.1889e+01	7.6039	15.808964	0.000094	0.941134	0.159432	-0.000019
 624	6.1989e+01	7.5842	15.788190	0.000104	1.043432	0.176762	-0.000021
 625	6.2088e+01	7.5660	15.770267	0.000090	0.900216	0.152501	-0.000018
 626	6.2188e+01	7.5447	15.754381	0.000080	0.797918	0.135171	-0.000016
 627	6.2287e+01	7.5262	15.733606	0.000104	1.043432	0.176762	-0.000021
 628	6.2386e+01	7.5054	15.712017	0.000108	1.084351	0.183694	-0.000022
 629	6.2486e+01	7.4885	15.693686	0.000092	0.920675	0.155967	-0.000018
 630	6.2586e+01	7.4655	15.676578	0.000086	0.859297	0.145569	-0.000017
 631	6.2685e+01	7.4431	15.661099	0.000078	0.777459	0.131705	-0.000016
 632	6.2785e+01	7.4261	15.641954	0.000096	0.961594	0.162898	-0.000019
 633	6.2884e+01	7.4056	15.623216	0.000094	0.941134	0.159432	-0.000019
 634	6.2983e+01	7.3851	15.605700	0.000088	0.879756	0.149035	-0.000018
 635	6.3083e+01	7.3658	15.582889	0.000115	1.145729	0.194092	-0.000023
 636	6.3182e+01	7.3468	15.565374	0.000088	0.879756	0.149035	-0.000018
 637	6.3282e+01	7.3238	15.542970	0.000113	1.125269	0.190626	-0.000023
 638	6.3382e+01	7.3084	15.523010	0.000100	1.002513	0.169830	-0.000020
 639	6.3481e+01	7.2836	15.497347	0.000129	1.288945	0.218353	-0.000026
 640	6.3581e+01	7.2648	15.472907	0.000123	1.227567	0.207955	-0.000025
 641	6.3680e+01	7.2439	15.449281	0.000119	1.186648	0.201024	-0.000024
 642	6.3779e+01	7.2253	15.423211	0.000131	1.309404	0.221819	-0.000026
 643	6.3879e+01	7.2089	15.402437	0.000104	1.043432	0.176762	-0.000021
 644	6.3978e+01	7.1870	15.380033	0.000113	1.125269	0.190626	-0.000023
 645	6.4078e+01	7.1666	15.356000	0.000121	1.207107	0.204490	-0.000024
 646	6.4177e+01	7.1459	15.337669	0.000092	0.920675	0.155967	-0.000018
 647	6.4277e+01	7.1255	15.313636	0.000121	1.207107	0.204490	-0.000024
 648	6.4376e+01	7.1062	15.288788	0.000125	1.248026	0.211421	-0.000025
 649	6.4476e+01	7.0873	15.263940	0.000125	1.248026	0.211421	-0.000025
 650	6.4576e+01	7.0667	15.239500	0.000123	1.227567	0.207955	-0.000025
 651	6.4675e+01	7.0481	15.217503	0.000110	1.104810	0.187160	-0.000022
 652	6.4775e+01	7.0286	15.191433	0.000131	1.309404	0.221819	-0.000026
 653	6.4874e+01	7.0104	15.169437	0.000110	1.104810	0.187160	-0.000022
 654	6.4974e+01	6.9893	15.140923	0.000143	1.432161	0.242615	-0.000029
 655	6.5073e+01	6.9667	15.119333	0.000108	1.084351	0.183694	-0.000022
 656	6.5172e+01	6.9510	15.093264	0.000131	1.309404	0.221819	-0.000026
 657	6.5272e+01	6.9278	15.069230	0.000121	1.207107	0.204490	-0.000024
 658	6.5371e+01	6.9094	15.049271	0.000100	1.002513	0.169830	-0.000020
 659	6.5471e+01	6.8884	15.024423	0.000125	1.248026	0.211421	-0.000025
 660	6.5570e+01	6.8670	14.999167	0.000127	1.268486	0.214887	-0.000025
 661	6.5670e+01	6.8491	14.978393	0.000104	1.043432	0.176762	-0.000021
 662	6.5769e+01	6.8295	14.953952	0.000123	1.227567	0.207955	-0.000025
 663	6.5869e+01	6.8060	14.931141	0.000115	1.145729	0.194092	-0.000023
 664	6.5969e+01	6.7886	14.907515	0.000119	1.186648	0.201024	-0.000024
 665	6.6068e+01	6.7698	14.887148	0.000102	1.022972	0.173296	-0.000020
 666	6.6168e+01	6.7471	14.864744	0.000113	1.125269	0.190626	-0.000023
 667	6.6267e+01	6.7280	14.842341	0.000113	1.125269	0.190626	-0.000023
 668	6.6367e+01	6.7080	14.819937	0.000113	1.125269	0.190626	-0.000023
 669	6.6466e+01	6.6888	14.795496	0.000123	1.227567	0.207955	-0.000025
 670	6.6566e+01	6.6676	14.771056	0.000123	1.227567	0.207955	-0.000025
 671	6.6665e+01	6.6492	14.746615	0.000123	1.227567	0.207955	-0.000025
 672	6.6764e+01	6.6265	14.720138	0.000133	1.329864	0.225285	-0.000027
 673	6.6864e+01	6.6106	14.701400	0.000094	0.941134	0.159432	-0.000019
 674	6.6963e+01	6.5873	14.675737	0.000129	1.288945	0.218353	-0.000026
 675	6.7063e+01	6.5693	14.650482	0.000127	1.268486	0.214887	-0.000025
 676	6.7162e+01	6.5491	14.625634	0.000125	1.248026	0.211421	-0.000025
 677	6.7262e+01	6.5308	14.604860	0.000104	1.043432	0.176762	-0.000021
 678	6.7362e+01	6.5093	14.580827	0.000121	1.207107	0.204490	-0.000024
 679	6.7461e+01	6.4897	14.556386	0.000123	1.227567	0.207955	-0.000025
 680	6.7561e+01	6.4689	14.532760	0.000119	1.186648	0.201024	-0.000024
 681	6.7660e+01	6.4489	14.509949	0.000115	1.145729	0.194092	-0.000023
 682	6.7760e+01	6.4312	14.487545	0.000113	1.125269	0.190626	-0.000023
 683	6.7859e+01	6.4095	14.465956	0.000108	1.084351	0.183694	-0.000022
 684	6.7959e+01	6.3884	14.439479	0.000133	1.329864	0.225285	-0.000027
 685	6.8058e+01	6.3683	14.415038	0.000123	1.227567	0.207955	-0.000025
 686	6.8157e+01	6.3481	14.393042	0.000110	1.104810	0.187160	-0.000022
 687	6.8257e+01	6.3313	14.364935	0.000141	1.411702	0.239149	-0.000028
 688	6.8356e+01	6.3100	14.342531	0.000113	1.125269	0.190626	-0.000023
 689	6.8456e+01	6.2928	14.322164	0.000102	1.022972	0.173296	-0.000020
 690	6.8555e+01	6.2714	14.295687	0.000133	1.329864	0.225285	-0.000027
 691	6.8655e+01	6.2523	14.270024	0.000129	1.288945	0.218353	-0.000026
 692	6.8754e+01	6.2331	14.250472	0.000098	0.982053	0.166364	-0.000020
 693	6.8854e+01	6.2135	14.227253	0.000117	1.166188	0.197558	-0.000023
 694	6.8954e+01	6.1910	14.204849	0.000113	1.125269	0.190626	-0.000023
 695	6.9053e+01	6.1715	14.183668	0.000106	1.063891	0.180228	-0.000021
 696	6.9153e+01	6.1523	14.159227	0.000123	1.227567	0.207955	-0.000025
 697	6.9252e+01	6.1321	14.136009	0.000117	1.166188	0.197558	-0.000023
 698	6.9352e+01	6.1088	14.110753	0.000127	1.268486	0.214887	-0.000025
 699	6.9451e+01	6.0903	14.084683	0.000131	1.309404	0.221819	-0.000026
 700	6.9550e+01	6.0717	14.058613	0.000131	1.309404	0.221819	-0.000026
 701	6.9650e+01	6.0537	14.034988	0.000119	1.186648	0.201024	-0.000024
 702	6.9749e+01	6.0308	14.005252	0.000149	1.493539	0.253012	-0.000030
 703	6.9849e+01	6.0136	13.982440	0.000115	1.145729	0.194092	-0.000023
 704	6.9948e+01	5.9916	13.954334	0.000141	1.411702	0.239149	-0.000028
 705	7.0048e+01	5.9719	13.931523	0.000115	1.145729	0.194092	-0.000023
 706	7.0147e+01	5.9534	13.906267	0.000127	1.268486	0.214887	-0.000025
 707	7.0247e+01	5.9344	13.878161	0.000141	1.411702	0.239149	-0.000028
 708	7.0347e+01	5.9110	13.849647	0.000143	1.432161	0.242615	-0.000029
 709	7.0446e+01	5.8900	13.827650	0.000110	1.104810	0.187160	-0.000022
 710	7.0546e+01	5.8746	13.803210	0.000123	1.227567	0.207955	-0.000025
 711	7.0645e+01	5.8515	13.773066	0.000151	1.513999	0.256478	-0.000030
 712	7.0745e+01	5.8306	13.750255	0.000115	1.145729	0.194092	-0.000023
 713	7.0844e+01	5.8111	13.724593	0.000129	1.288945	0.218353	-0.000026
 714	7.0944e+01	5.7964	13.694042	0.000153	1.534458	0.259944	-0.000031
 715	7.1043e+01	5.7722	13.667565	0.000133	1.329864	0.225285	-0.000027
 716	7.1142e+01	5.7536	13.638643	0.000145	1.452621	0.246081	-0.000029
 717	7.1242e+01	5.7320	13.614610	0.000121	1.207107	0.204490	-0.000024
 718	7.1341e+01	5.7098	13.584467	0.000151	1.513999	0.256478	-0.000030
 719	7.1441e+01	5.6922	13.559212	0.000127	1.268486	0.214887	-0.000025
 720	7.1540e+01	5.6769	13.533956	0.000127	1.268486	0.214887	-0.000025
 721	7.1640e+01	5.6536	13.509923	0.000121	1.207107	0.204490	-0.000024
 722	7.1740e+01	5.6333	13.485890	0.000121	1.207107	0.204490	-0.000024
 723	7.1839e+01	5.6145	13.463079	0.000115	1.145729	0.194092	-0.000023
 724	7.1939e+01	5.5921	13.441490	0.000108	1.084351	0.183694	-0.000022
 725	7.2038e+01	5.5735	13.419086	0.000113	1.125269	0.190626	-0.000023
 726	7.2138e+01	5.5543	13.393016	0.000131	1.309404	0.221819	-0.000026
 727	7.2237e+01	5.5320	13.372241	0.000104	1.043432	0.176762	-0.000021
 728	7.2337e+01	5.5114	13.349430	0.000115	1.145729	0.194092	-0.000023
 729	7.2436e+01	5.4945	13.322138	0.000137	1.370783	0.232217	-0.000027
 730	7.2535e+01	5.4748	13.302178	0.000100	1.002513	0.169830	-0.000020
 731	7.2635e+01	5.4522	13.274886	0.000137	1.370783	0.232217	-0.000027
 732	7.2734e+01	5.4336	13.254519	0.000102	1.022972	0.173296	-0.000020
 733	7.2834e+01	5.4171	13.230079	0.000123	1.227567	0.207955	-0.000025
 734	7.2933e+01	5.3950	13.208490	0.000108	1.084351	0.183694	-0.000022
 735	7.3033e+01	5.3744	13.186900	0.000108	1.084351	0.183694	-0.000022
 736	7.3132e+01	5.3545	13.162053	0.000125	1.248026	0.211421	-0.000025
 737	7.3232e+01	5.3330	13.142093	0.000100	1.002513	0.169830	-0.000020
 738	7.3332e+01	5.3114	13.116838	0.000127	1.268486	0.214887	-0.000025
 739	7.3431e+01	5.2938	13.094434	0.000113	1.125269	0.190626	-0.000023
 740	7.3531e+01	5.2731	13.067549	0.000135	1.350323	0.228751	-0.000027
 741	7.3630e+01	5.2578	13.042294	0.000127	1.268486	0.214887	-0.000025
 742	7.3730e+01	5.2331	13.018668	0.000119	1.186648	0.201024	-0.000024
 743	7.3829e+01	5.2175	12.994227	0.000123	1.227567	0.207955	-0.000025
 744	7.3928e+01	5.1945	12.967343	0.000135	1.350323	0.228751	-0.000027
 745	7.4028e+01	5.1763	12.940866	0.000133	1.329864	0.225285	-0.000027
 746	7.4127e+01	5.1537	12.913981	0.000135	1.350323	0.228751	-0.000027
 747	7.4227e+01	5.1334	12.892799	0.000106	1.063891	0.180228	-0.000021
 748	7.4326e+01	5.1138	12.865100	0.000139	1.391242	0.235683	-0.000028
 749	7.4426e+01	5.0942	12.838215	0.000135	1.350323	0.228751	-0.000027
 750	7.4525e+01	5.0743	12.813367	0.000125	1.248026	0.211421	-0.000025
 751	7.4625e+01	5.0549	12.786075	0.000137	1.370783	0.232217	-0.000027
 752	7.4725e+01	5.0353	12.759191	0.000135	1.350323	0.228751	-0.000027
 753	7.4824e+01	5.0167	12.735565	0.000119	1.186648	0.201024	-0.000024
 754	7.4924e+01	4.9937	12.707866	0.000139	1.391242	0.235683	-0.000028
 755	7.5023e+01	4.9747	12.683832	0.000121	1.207107	0.204490	-0.000024
 756	7.5123e+01	4.9564	12.660614	0.000117	1.166188	0.197558	-0.000023
 757	7.5222e+01	4.9372	12.632915	0.000139	1.391242	0.235683	-0.000028
 758	7.5322e+01	4.9171	12.607252	0.000129	1.288945	0.218353	-0.000026
 759	7.5421e+01	4.8968	12.580367	0.000135	1.350323	0.228751	-0.000027
 760	7.5520e+01	4.8757	12.552668	0.000139	1.391242	0.235683	-0.000028
 761	7.5620e+01	4.8567	12.526191	0.000133	1.329864	0.225285	-0.000027
 762	7.5719e+01	4.8358	12.495640	0.000153	1.534458	0.259944	-0.000031
 763	7.5819e+01	4.8180	12.472829	0.000115	1.145729	0.194092	-0.000023
 764	7.5918e+01	4.7956	12.447166	0.000129	1.288945	0.218353	-0.000026
 765	7.6018e+01	4.7769	12.421911	0.000127	1.268486	0.214887	-0.000025
 766	7.6118e+01	4.7570	12.391768	0.000151	1.513999	0.256478	-0.000030
 767	7.6217e+01	4.7373	12.363661	0.000141	1.411702	0.239149	-0.000028
 768	7.6317e+01	4.7174	12.338406	0.000127	1.268486	0.214887	-0.000025
 769	7.6416e+01	4.6980	12.310299	0.000141	1.411702	0.239149	-0.000028
 770	7.6516e+01	4.6761	12.285859	0.000123	1.227567	0.207955	-0.000025
 771	7.6615e+01	4.6568	12.257752	0.000141	1.411702	0.239149	-0.000028
 772	7.6715e+01	4.6368	12.229645	0.000141	1.411702	0.239149	-0.000028
 773	7.6814e+01	4.6181	12.203168	0.000133	1.329864	0.225285	-0.000027
 774	7.6913e+01	4.5960	12.175876	0.000137	1.370783	0.232217	-0.000027
 775	7.7013e+01	4.5796	12.147770	0.000141	1.411702	0.239149	-0.000028
 776	7.7112e+01	4.5599	12.122514	0.000127	1.268486	0.214887	-0.000025
 777	7.7212e+01	4.5385	12.091149	0.000158	1.575377	0.266876	-0.000032
 778	7.7311e+01	4.5171	12.060191	0.000155	1.554918	0.263410	-0.000031
 779	7.7411e+01	4.4965	12.032084	0.000141	1.411702	0.239149	-0.000028
 780	7.7510e+01	4.4804	12.004385	0.000139	1.391242	0.235683	-0.000028
 781	7.7610e+01	4.4595	11.976278	0.000141	1.411702	0.239149	-0.000028
 782	7.7710e+01	4.4352	11.948579	0.000139	1.391242	0.235683	-0.000028
 783	7.7809e+01	4.4175	11.918843	0.000149	1.493539	0.253012	-0.000030
 784	7.7909e+01	4.3996	11.893180	0.000129	1.288945	0.218353	-0.000026
 785	7.8008e+01	4.3775	11.865074	0.000141	1.411702	0.239149	-0.000028
 786	7.8108e+01	4.3586	11.836560	0.000143	1.432161	0.242615	-0.000029
 787	7.8207e+01	4.3404	11.812934	0.000119	1.186648	0.201024	-0.000024
 788	7.8306e+01	4.3179	11.783605	0.000147	1.473080	0.249547	-0.000029
 789	7.8406e+01	4.2995	11.757128	0.000133	1.329864	0.225285	-0.000027
 790	7.8505e+01	4.2794	11.733095	0.000121	1.207107	0.204490	-0.000024
 791	7.8605e+01	4.2588	11.704581	0.000143	1.432161	0.242615	-0.000029
 792	7.8704e+01	4.2411	11.678511	0.000131	1.309404	0.221819	-0.000026
 793	7.8804e+01	4.2175	11.647553	0.000155	1.554918	0.263410	-0.000031
 794	7.8903e+01	4.1985	11.619854	0.000139	1.391242	0.235683	-0.000028
 795	7.9003e+01	4.1784	11.589303	0.000153	1.534458	0.259944	-0.000031
 796	7.9103e+01	4.1599	11.568121	0.000106	1.063891	0.180228	-0.000021
 797	7.9202e+01	4.1422	11.536348	0.000160	1.595837	0.270342	-0.000032
 798	7.9302e+01	4.1190	11.510686	0.000129	1.288945	0.218353	-0.000026
 799	7.9401e+01	4.1026	11.484616	0.000131	1.309404	0.221819	-0.000026
 800	7.9501e+01	4.0788	11.458953	0.000129	1.288945	0.218353	-0.000026
 801	7.9600e+01	4.0572	11.426773	0.000162	1.616296	0.273808	-0.000032
 802	7.9700e+01	4.0379	11.405184	0.000108	1.084351	0.183694	-0.000022
 803	7.9799e+01	4.0189	11.371782	0.000168	1.677674	0.284206	-0.000034
 804	7.9898e+01	3.9996	11.341231	0.000153	1.534458	0.259944	-0.000031
 805	7.9998e+01	3.9806	11.313532	0.000139	1.391242	0.235683	-0.000028
 806	8.0097e+01	3.9608	11.282981	0.000153	1.534458	0.259944	-0.000031
 807	8.0197e+01	3.9407	11.249172	0.000170	1.698134	0.287672	-0.000034
 808	8.0296e+01	3.9188	11.219029	0.000151	1.513999	0.256478	-0.000030
 809	8.0396e+01	3.9001	11.182775	0.000182	1.820891	0.308467	-0.000036
 810	8.0496e+01	3.8798	11.151002	0.000160	1.595837	0.270342	-0.000032
 811	8.0595e+01	3.8610	11.119637	0.000158	1.575377	0.266876	-0.000032
 812	8.0695e+01	3.8392	11.091123	0.000143	1.432161	0.242615	-0.000029
 813	8.0794e+01	3.8198	11.053647	0.000188	1.882269	0.318865	-0.000038
 814	8.0894e+01	3.8007	11.024319	0.000147	1.473080	0.249547	-0.000029
 815	8.0993e+01	3.7794	10.993768	0.000153	1.534458	0.259944	-0.000031
 816	8.1093e+01	3.7608	10.959144	0.000174	1.739053	0.294604	-0.000035
 817	8.1192e+01	3.7414	10.926149	0.000166	1.657215	0.280740	-0.000033
 818	8.1291e+01	3.7217	10.891932	0.000172	1.718593	0.291138	-0.000034
 819	8.1391e+01	3.7035	10.858123	0.000170	1.698134	0.287672	-0.000034
 820	8.1490e+01	3.6822	10.826350	0.000160	1.595837	0.270342	-0.000032
 821	8.1590e+01	3.6608	10.795800	0.000153	1.534458	0.259944	-0.000031
 822	8.1689e+01	3.6407	10.761990	0.000170	1.698134	0.287672	-0.000034
 823	8.1789e+01	3.6227	10.728588	0.000168	1.677674	0.284206	-0.000034
 824	8.1888e+01	3.5986	10.695186	0.000168	1.677674	0.284206	-0.000034
 825	8.1988e+01	3.5830	10.661784	0.000168	1.677674	0.284206	-0.000034
 826	8.2088e+01	3.5648	10.630011	0.000160	1.595837	0.270342	-0.000032
 827	8.2187e+01	3.5406	10.599868	0.000151	1.513999	0.256478	-0.000030
 828	8.2287e+01	3.5214	10.565244	0.000174	1.739053	0.294604	-0.000035
 829	8.2386e+01	3.4998	10.533878	0.000158	1.575377	0.266876	-0.000032
 830	8.2486e+01	3.4827	10.502106	0.000160	1.595837	0.270342	-0.000032
 831	8.2585e+01	3.4617	10.465852	0.000182	1.820891	0.308467	-0.000036
 832	8.2684e+01	3.4411	10.437338	0.000143	1.432161	0.242615	-0.000029
 833	8.2784e+01	3.4243	10.406788	0.000153	1.534458	0.259944	-0.000031
 834	8.2883e+01	3.4020	10.372978	0.000170	1.698134	0.287672	-0.000034
 835	8.2983e+01	3.3822	10.342427	0.000153	1.534458	0.259944	-0.000031
 836	8.3082e+01	3.3628	10.306989	0.000178	1.779972	0.301535	-0.000036
 837	8.3182e+01	3.3417	10.275623	0.000158	1.575377	0.266876	-0.000032
 838	8.3281e+01	3.3208	10.245073	0.000153	1.534458	0.259944	-0.000031
 839	8.3381e+01	3.3031	10.211670	0.000168	1.677674	0.284206	-0.000034
 840	8.3481e+01	3.2837	10.177046	0.000174	1.739053	0.294604	-0.000035
 841	8.3580e+01	3.2623	10.144459	0.000164	1.636756	0.277274	-0.000033
 842	8.3680e+01	3.2410	10.110649	0.000170	1.698134	0.287672	-0.000034
 843	8.3779e+01	3.2224	10.078469	0.000162	1.616296	0.273808	-0.000032
 844	8.3879e+01	3.2015	10.044660	0.000170	1.698134	0.287672	-0.000034
 845	8.3978e+01	3.1816	10.013702	0.000155	1.554918	0.263410	-0.000031
 846	8.4078e+01	3.1623	9.981522	0.000162	1.616296	0.273808	-0.000032
 847	8.4177e+01	3.1432	9.948120	0.000168	1.677674	0.284206	-0.000034
 848	8.4276e+01	3.1226	9.911459	0.000184	1.841350	0.311933	-0.000037
 849	8.4376e+01	3.1036	9.881723	0.000149	1.493539	0.253012	-0.000030
 850	8.4475e+01	3.0834	9.847914	0.000170	1.698134	0.287672	-0.000034
 851	8.4575e+01	3.0648	9.812067	0.000180	1.800431	0.305001	-0.000036
 852	8.4674e+01	3.0427	9.781517	0.000153	1.534458	0.259944	-0.000031
 853	8.4774e+01	3.0241	9.745671	0.000180	1.800431	0.305001	-0.000036
 854	8.4874e+01	3.0038	9.717564	0.000141	1.411702	0.239149	-0.000028
 855	8.4973e+01	2.9861	9.680903	0.000184	1.841350	0.311933	-0.000037
 856	8.5073e+01	2.9649	9.649538	0.000158	1.575377	0.266876	-0.000032
 857	8.5172e+01	2.9435	9.615728	0.000170	1.698134	0.287672	-0.000034
 858	8.5272e+01	2.9248	9.581104	0.000174	1.739053	0.294604	-0.000035
 859	8.5371e+01	2.9031	9.548109	0.000166	1.657215	0.280740	-0.000033
 860	8.5471e+01	2.8841	9.514300	0.000170	1.698134	0.287672	-0.000034
 861	8.5570e+01	2.8663	9.484564	0.000149	1.493539	0.253012	-0.000030
 862	8.5669e+01	2.8455	9.452791	0.000160	1.595837	0.270342	-0.000032
 863	8.5769e+01	2.8223	9.417352	0.000178	1.779972	0.301535	-0.000036
 864	8.5868e+01	2.8045	9.385172	0.000162	1.616296	0.273808	-0.000032
 865	8.5968e+01	2.7837	9.350548	0.000174	1.739053	0.294604	-0.000035
 866	8.6067e+01	2.7617	9.315924	0.000174	1.739053	0.294604	-0.000035
 867	8.6167e+01	2.7454	9.281707	0.000172	1.718593	0.291138	-0.000034
 868	8.6266e+01	2.7265	9.247898	0.000170	1.698134	0.287672	-0.000034
 869	8.6366e+01	2.7052	9.214089	0.000170	1.698134	0.287672	-0.000034
 870	8.6466e+01	2.6840	9.178242	0.000180	1.800431	0.305001	-0.000036
 871	8.6565e+01	2.6648	9.138730	0.000198	1.984566	0.336195	-0.000040
 872	8.6665e+01	2.6432	9.103699	0.000176	1.759512	0.298069	-0.000035
 873	8.6764e+01	2.6258	9.071111	0.000164	1.636756	0.277274	-0.000033
 874	8.6864e+01	2.6042	9.032414	0.000194	1.943647	0.329263	-0.000039
 875	8.6963e+01	2.5866	8.999012	0.000168	1.677674	0.284206	-0.000034
 876	8.7063e+01	2.5642	8.963980	0.000176	1.759512	0.298069	-0.000035
 877	8.7162e+01	2.5445	8.926912	0.000186	1.861809	0.315399	-0.000037
 878	8.7261e+01	2.5240	8.889437	0.000188	1.882269	0.318865	-0.000038
 879	8.7361e+01	2.5093	8.857664	0.000160	1.595837	0.270342	-0.000032
 880	8.7460e+01	2.4848	8.819781	0.000190	1.902728	0.322331	-0.000038
 881	8.7560e+01	2.4652	8.781491	0.000192	1.923188	0.325797	-0.000038
 882	8.7659e+01	2.4468	8.739127	0.000213	2.127782	0.360456	-0.000043
 883	8.7759e+01	2.4267	8.705318	0.000170	1.698134	0.287672	-0.000034
 884	8.7859e+01	2.4072	8.666620	0.000194	1.943647	0.329263	-0.000039
 885	8.7958e+01	2.3869	8.633218	0.000168	1.677674	0.284206	-0.000034
 886	8.8058e+01	2.3649	8.595335	0.000190	1.902728	0.322331	-0.000038
 887	8.8157e+01	2.3476	8.559489	0.000180	1.800431	0.305001	-0.000036
 888	8.8257e+01	2.3280	8.524458	0.000176	1.759512	0.298069	-0.000035
 889	8.8356e+01	2.3042	8.490648	0.000170	1.698134	0.287672	-0.000034
 890	8.8456e+01	2.2871	8.458875	0.000160	1.595837	0.270342	-0.000032
 891	8.8555e+01	2.2663	8.424659	0.000172	1.718593	0.291138	-0.000034
 892	8.8654e+01	2.2485	8.391664	0.000166	1.657215	0.280740	-0.000033
 893	8.8754e+01	2.2281	8.358262	0.000168	1.677674	0.284206	-0.000034
 894	8.8853e+01	2.2051	8.322008	0.000182	1.820891	0.308467	-0.000036
 895	8.8953e+01	2.1892	8.293494	0.000143	1.432161	0.242615	-0.000029
 896	8.9052e+01	2.1697	8.260092	0.000168	1.677674	0.284206	-0.000034
 897	8.9152e+01	2.1456	8.224246	0.000180	1.800431	0.305001	-0.000036
 898	8.9251e+01	2.1265	8.188400	0.000180	1.800431	0.305001	-0.000036
 899	8.9351e+01	2.1070	8.155813	0.000164	1.636756	0.277274	-0.000033
 900	8.9451e+01	2.0882	8.122410	0.000168	1.677674	0.284206	-0.000034
 901	8.9550e+01	2.0676	8.087379	0.000176	1.759512	0.298069	-0.000035
 902	8.9650e+01	2.0486	8.055199	0.000162	1.616296	0.273808	-0.000032
 903	8.9749e+01	2.0266	8.025056	0.000151	1.513999	0.256478	-0.000030
 904	8.9849e+01	2.0074	7.990024	0.000176	1.759512	0.298069	-0.000035
 905	8.9948e+01	1.9868	7.956215	0.000170	1.698134	0.287672	-0.000034
 906	9.0047e+01	1.9701	7.923220	0.000166	1.657215	0.280740	-0.000033
 907	9.0147e+01	1.9468	7.887781	0.000178	1.779972	0.301535	-0.000036
 908	9.0246e+01	1.9250	7.853564	0.000172	1.718593	0.291138	-0.000034
 909	9.0346e+01	1.9073	7.821384	0.000162	1.616296	0.273808	-0.000032
 910	9.0445e+01	1.8855	7.783094	0.000192	1.923188	0.325797	-0.000038
 911	9.0545e+01	1.8692	7.746026	0.000186	1.861809	0.315399	-0.000037
 912	9.0644e+01	1.8490	7.710994	0.000176	1.759512	0.298069	-0.000035
 913	9.0744e+01	1.8275	7.678814	0.000162	1.616296	0.273808	-0.000032
 914	9.0844e+01	1.8089	7.638080	0.000205	2.045944	0.346592	-0.000041
 915	9.0943e+01	1.7893	7.607122	0.000155	1.554918	0.263410	-0.000031
 916	9.1043e+01	1.7686	7.568425	0.000194	1.943647	0.329263	-0.000039
 917	9.1142e+01	1.7498	7.529320	0.000196	1.964107	0.332729	-0.000039
 918	9.1242e+01	1.7292	7.493881	0.000178	1.779972	0.301535	-0.000036
 919	9.1341e+01	1.7086	7.458849	0.000176	1.759512	0.298069	-0.000035
 920	9.1441e+01	1.6891	7.419337	0.000198	1.984566	0.336195	-0.000040
 921	9.1540e+01	1.6698	7.384713	0.000174	1.739053	0.294604	-0.000035
 922	9.1639e+01	1.6464	7.347645	0.000186	1.861809	0.315399	-0.000037
 923	9.1739e+01	1.6291	7.308947	0.000194	1.943647	0.329263	-0.000039
 924	9.1838e+01	1.6109	7.273509	0.000178	1.779972	0.301535	-0.000036
 925	9.1938e+01	1.5900	7.238884	0.000174	1.739053	0.294604	-0.000035
 926	9.2037e+01	1.5701	7.201816	0.000186	1.861809	0.315399	-0.000037
 927	9.2137e+01	1.5488	7.163933	0.000190	1.902728	0.322331	-0.000038
 928	9.2237e+01	1.5292	7.127273	0.000184	1.841350	0.311933	-0.000037
 929	9.2336e+01	1.5102	7.088982	0.000192	1.923188	0.325797	-0.000038
 930	9.2436e+01	1.4914	7.052729	0.000182	1.820891	0.308467	-0.000036
 931	9.2535e+01	1.4667	7.014031	0.000194	1.943647	0.329263	-0.000039
 932	9.2635e+01	1.4471	6.976556	0.000188	1.882269	0.318865	-0.000038
 933	9.2734e+01	1.4298	6.939488	0.000186	1.861809	0.315399	-0.000037
 934	9.2834e+01	1.4094	6.902420	0.000186	1.861809	0.315399	-0.000037
 935	9.2933e+01	1.3885	6.865351	0.000186	1.861809	0.315399	-0.000037
 936	9.3032e+01	1.3683	6.826246	0.000196	1.964107	0.332729	-0.000039
 937	9.3132e+01	1.3496	6.787549	0.000194	1.943647	0.329263	-0.000039
 938	9.3231e+01	1.3319	6.752517	0.000176	1.759512	0.298069	-0.000035
 939	9.3331e+01	1.3107	6.710561	0.000211	2.107323	0.356990	-0.000042
 940	9.3430e+01	1.2904	6.673900	0.000184	1.841350	0.311933	-0.000037
 941	9.3530e+01	1.2704	6.632759	0.000207	2.066404	0.350058	-0.000041
 942	9.3629e+01	1.2512	6.598135	0.000174	1.739053	0.294604	-0.000035
 943	9.3729e+01	1.2310	6.558622	0.000198	1.984566	0.336195	-0.000040
 944	9.3829e+01	1.2092	6.518296	0.000203	2.025485	0.343126	-0.000041
 945	9.3928e+01	1.1919	6.478376	0.000201	2.005026	0.339661	-0.000040
 946	9.4028e+01	1.1710	6.438456	0.000201	2.005026	0.339661	-0.000040
 947	9.4127e+01	1.1531	6.399759	0.000194	1.943647	0.329263	-0.000039
 948	9.4227e+01	1.1348	6.363913	0.000180	1.800431	0.305001	-0.000036
 949	9.4326e+01	1.1140	6.320734	0.000217	2.168701	0.367388	-0.000043
 950	9.4425e+01	1.0911	6.284074	0.000184	1.841350	0.311933	-0.000037
 951	9.4525e+01	1.0708	6.244561	0.000198	1.984566	0.336195	-0.000040
 952	9.4624e+01	1.0532	6.208308	0.000182	1.820891	0.308467	-0.000036
 953	9.4724e+01	1.0316	6.168388	0.000201	2.005026	0.339661	-0.000040
 954	9.4823e+01	1.0098	6.132135	0.000182	1.820891	0.308467	-0.000036
 955	9.4923e+01	0.9921	6.096289	0.000180	1.800431	0.305001	-0.000036
 956	9.5022e+01	0.9727	6.055962	0.000203	2.025485	0.343126	-0.000041
 957	9.5122e+01	0.9519	6.019301	0.000184	1.841350	0.311933	-0.000037
 958	9.5222e+01	0.9326	5.979381	0.000201	2.005026	0.339661	-0.000040
 959	9.5321e+01	0.9125	5.943128	0.000182	1.820891	0.308467	-0.000036
 960	9.5421e+01	0.8915	5.902801	0.000203	2.025485	0.343126	-0.000041
 961	9.5520e+01	0.8714	5.863696	0.000196	1.964107	0.332729	-0.000039
 962	9.5620e+01	0.8540	5.825406	0.000192	1.923188	0.325797	-0.000038
 963	9.5719e+01	0.8319	5.786708	0.000194	1.943647	0.329263	-0.000039
 964	9.5819e+01	0.8134	5.747603	0.000196	1.964107	0.332729	-0.000039
 965	9.5918e+01	0.7937	5.709313	0.000192	1.923188	0.325797	-0.000038
 966	9.6017e+01	0.7745	5.676318	0.000166	1.657215	0.280740	-0.000033
 967	9.6117e+01	0.7542	5.636399	0.000201	2.005026	0.339661	-0.000040
 968	9.6216e+01	0.7330	5.594850	0.000209	2.086863	0.353524	-0.000042
 969	9.6316e+01	0.7117	5.556967	0.000190	1.902728	0.322331	-0.000038
 970	9.6415e+01	0.6944	5.515418	0.000209	2.086863	0.353524	-0.000042
 971	9.6515e+01	0.6723	5.479165	0.000182	1.820891	0.308467	-0.000036
 972	9.6615e+01	0.6528	5.435172	0.000221	2.209620	0.374320	-0.000044
 973	9.6714e+01	0.6327	5.394030	0.000207	2.066404	0.350058	-0.000041
 974	9.6814e+01	0.6132	5.352888	0.000207	2.066404	0.350058	-0.000041
 975	9.6913e+01	0.5927	5.306859	0.000231	2.311917	0.391649	-0.000046
 976	9.7013e+01	0.5721	5.264902	0.000211	2.107323	0.356990	-0.000042
 977	9.7112e+01	0.5541	5.220909	0.000221	2.209620	0.374320	-0.000044
 978	9.7212e+01	0.5325	5.178546	0.000213	2.127782	0.360456	-0.000043
 979	9.7311e+01	0.5119	5.131294	0.000237	2.373296	0.402047	-0.000047
 980	9.7410e+01	0.4919	5.089338	0.000211	2.107323	0.356990	-0.000042
 981	9.7510e+01	0.4738	5.050640	0.000194	1.943647	0.329263	-0.000039
 982	9.7609e+01	0.4549	5.007462	0.000217	2.168701	0.367388	-0.000043
 983	9.7709e+01	0.4337	4.964284	0.000217	2.168701	0.367388	-0.000043
 984	9.7808e+01	0.4140	4.917847	0.000233	2.332377	0.395115	-0.000047
 985	9.7908e+01	0.3950	4.875483	0.000213	2.127782	0.360456	-0.000043
 986	9.8007e+01	0.3746	4.827824	0.000239	2.393755	0.405513	-0.000048
 987	9.8107e+01	0.3539	4.781387	0.000233	2.332377	0.395115	-0.000047
 988	9.8207e+01	0.3349	4.737801	0.000219	2.189161	0.370854	-0.000044
 989	9.8306e+01	0.3152	4.691772	0.000231	2.311917	0.391649	-0.000046
 990	9.8406e+01	0.2926	4.650223	0.000209	2.086863	0.353524	-0.000042
 991	9.8505e+01	0.2740	4.606230	0.000221	2.209620	0.374320	-0.000044
 992	9.8605e+01	0.2563	4.562644	0.000219	2.189161	0.370854	-0.000044
 993	9.8704e+01	0.2345	4.516614	0.000231	2.311917	0.391649	-0.000046
 994	9.8803e+01	0.2155	4.478324	0.000192	1.923188	0.325797	-0.000038
 995	9.8903e+01	0.1939	4.431887	0.000233	2.332377	0.395115	-0.000047
 996	9.9002e+01	0.1747	4.384635	0.000237	2.373296	0.402047	-0.000047
 997	9.9102e+01	0.1560	4.347160	0.000188	1.882269	0.318865	-0.000038
 998	9.9201e+01	0.1330	4.301945	0.000227	2.270998	0.384718	-0.000045
 999	9.9301e+01	0.1151	4.259581	0.000213	2.127782	0.360456	-0.000043
1000	9.9400e+01	0.0951	4.213551	0.000231	2.311917	0.391649	-0.000046
1001	9.9500e+01	0.0767	4.175261	0.000192	1.923188	0.325797	-0.000038
1002	9.9600e+01	0.0562	4.134120	0.000207	2.066404	0.350058	-0.000041
1003	9.9699e+01	0.0364	4.086053	0.000241	2.414214	0.408979	-0.000048
1004	9.9799e+01	0.0169	4.045319	0.000205	2.045944	0.346592	-0.000041
1005	9.9898e+01	-0.0008	3.996438	0.000246	2.455133	0.415911	-0.000049
1006	9.9998e+01	-0.0228	3.958555	0.000190	1.902728	0.322331	-0.000038
1007	1.0010e+02	-0.0402	3.913747	0.000225	2.250539	0.381252	-0.000045
1008	1.0020e+02	-0.0632	3.868532	0.000227	2.270998	0.384718	-0.000045
1009	1.0030e+02	-0.0815	3.826576	0.000211	2.107323	0.356990	-0.000042
1010	1.0040e+02	-0.1028	3.781768	0.000225	2.250539	0.381252	-0.000045
1011	1.0050e+02	-0.1228	3.739812	0.000211	2.107323	0.356990	-0.000042
1012	1.0059e+02	-0.1424	3.695819	0.000221	2.209620	0.374320	-0.000044
1013	1.0069e+02	-0.1625	3.650604	0.000227	2.270998	0.384718	-0.000045
1014	1.0079e+02	-0.1830	3.607833	0.000215	2.148242	0.363922	-0.000043
1015	1.0089e+02	-0.2034	3.563433	0.000223	2.230079	0.377786	-0.000045
1016	1.0099e+02	-0.2227	3.518218	0.000227	2.270998	0.384718	-0.000045
1017	1.0109e+02	-0.2427	3.474225	0.000221	2.209620	0.374320	-0.000044
1018	1.0119e+02	-0.2623	3.431861	0.000213	2.127782	0.360456	-0.000043
1019	1.0129e+02	-0.2853	3.389090	0.000215	2.148242	0.363922	-0.000043
1020	1.0139e+02	-0.2985	3.342246	0.000235	2.352836	0.398581	-0.000047
1021	1.0149e+02	-0.3231	3.300697	0.000209	2.086863	0.353524	-0.000042
1022	1.0159e+02	-0.3422	3.253038	0.000239	2.393755	0.405513	-0.000048
1023	1.0169e+02	-0.3608	3.209045	0.000221	2.209620	0.374320	-0.000044
1024	1.0179e+02	-0.3802	3.167903	0.000207	2.066404	0.350058	-0.000041
1025	1.0189e+02	-0.3997	3.120244	0.000239	2.393755	0.405513	-0.000048
1026	1.0199e+02	-0.4204	3.078695	0.000209	2.086863	0.353524	-0.000042
1027	1.0209e+02	-0.4397	3.031036	0.000239	2.393755	0.405513	-0.000048
1028	1.0219e+02	-0.4604	2.991931	0.000196	1.964107	0.332729	-0.000039
1029	1.0229e+02	-0.4850	2.946716	0.000227	2.270998	0.384718	-0.000045
1030	1.0239e+02	-0.5002	2.904760	0.000211	2.107323	0.356990	-0.000042
1031	1.0248e+02	-0.5202	2.861174	0.000219	2.189161	0.370854	-0.000044
1032	1.0258e+02	-0.5420	2.815144	0.000231	2.311917	0.391649	-0.000046
1033	1.0268e+02	-0.5598	2.770744	0.000223	2.230079	0.377786	-0.000045
1034	1.0278e+02	-0.5806	2.725936	0.000225	2.250539	0.381252	-0.000045
1035	1.0288e+02	-0.5980	2.681536	0.000223	2.230079	0.377786	-0.000045
1036	1.0298e+02	-0.6219	2.633877	0.000239	2.393755	0.405513	-0.000048
1037	1.0308e+02	-0.6400	2.589884	0.000221	2.209620	0.374320	-0.000044
1038	1.0318e+02	-0.6613	2.542225	0.000239	2.393755	0.405513	-0.000048
1039	1.0328e+02	-0.6812	2.494158	0.000241	2.414214	0.408979	-0.000048
1040	1.0338e+02	-0.7011	2.450573	0.000219	2.189161	0.370854	-0.000044
1041	1.0348e+02	-0.7217	2.402914	0.000239	2.393755	0.405513	-0.000048
1042	1.0358e+02	-0.7395	2.355255	0.000239	2.393755	0.405513	-0.000048
1043	1.0368e+02	-0.7616	2.310447	0.000225	2.250539	0.381252	-0.000045
1044	1.0378e+02	-0.7805	2.262788	0.000239	2.393755	0.405513	-0.000048
1045	1.0388e+02	-0.8014	2.218388	0.000223	2.230079	0.377786	-0.000045
1046	1.0398e+02	-0.8194	2.170728	0.000239	2.393755	0.405513	-0.000048
1047	1.0408e+02	-0.8428	2.125106	0.000229	2.291458	0.388183	-0.000046
1048	1.0418e+02	-0.8596	2.079076	0.000231	2.311917	0.391649	-0.000046
1049	1.0428e+02	-0.8816	2.028566	0.000254	2.536971	0.429775	-0.000051
1050	1.0438e+02	-0.8975	1.981722	0.000235	2.352836	0.398581	-0.000047
1051	1.0447e+02	-0.9189	1.931211	0.000254	2.536971	0.429775	-0.000051
1052	1.0457e+02	-0.9409	1.887625	0.000219	2.189161	0.370854	-0.000044
1053	1.0467e+02	-0.9599	1.841596	0.000231	2.311917	0.391649	-0.000046
1054	1.0477e+02	-0.9822	1.793937	0.000239	2.393755	0.405513	-0.000048
1055	1.0487e+02	-0.9982	1.748722	0.000227	2.270998	0.384718	-0.000045
1056	1.0497e+02	-1.0200	1.706765	0.000211	2.107323	0.356990	-0.000042
1057	1.0507e+02	-1.0408	1.659921	0.000235	2.352836	0.398581	-0.000047
1058	1.0517e+02	-1.0583	1.614706	0.000227	2.270998	0.384718	-0.000045
1059	1.0527e+02	-1.0800	1.572342	0.000213	2.127782	0.360456	-0.000043
1060	1.0537e+02	-1.1012	1.526720	0.000229	2.291458	0.388183	-0.000046
1061	1.0547e+02	-1.1190	1.485578	0.000207	2.066404	0.350058	-0.000041
1062	1.0557e+02	-1.1407	1.443622	0.000211	2.107323	0.356990	-0.000042
1063	1.0567e+02	-1.1588	1.399629	0.000221	2.209620	0.374320	-0.000044
1064	1.0577e+02	-1.1764	1.356451	0.000217	2.168701	0.367388	-0.000043
1065	1.0587e+02	-1.1993	1.308792	0.000239	2.393755	0.405513	-0.000048
1066	1.0597e+02	-1.2203	1.267650	0.000207	2.066404	0.350058	-0.000041
1067	1.0607e+02	-1.2347	1.225694	0.000211	2.107323	0.356990	-0.000042
1068	1.0617e+02	-1.2586	1.182108	0.000219	2.189161	0.370854	-0.000044
1069	1.0627e+02	-1.2779	1.140966	0.000207	2.066404	0.350058	-0.000041
1070	1.0637e+02	-1.2956	1.100232	0.000205	2.045944	0.346592	-0.000041
1071	1.0647e+02	-1.3182	1.054203	0.000231	2.311917	0.391649	-0.000046
1072	1.0656e+02	-1.3376	1.011432	0.000215	2.148242	0.363922	-0.000043
1073	1.0666e+02	-1.3591	0.968253	0.000217	2.168701	0.367388	-0.000043
1074	1.0676e+02	-1.3787	0.927112	0.000207	2.066404	0.350058	-0.000041
1075	1.0686e+02	-1.3974	0.878638	0.000243	2.434674	0.412445	-0.000049
1076	1.0696e+02	-1.4159	0.835867	0.000215	2.148242	0.363922	-0.000043
1077	1.0706e+02	-1.4414	0.789837	0.000231	2.311917	0.391649	-0.000046
1078	1.0716e+02	-1.4569	0.747881	0.000211	2.107323	0.356990	-0.000042
1079	1.0726e+02	-1.4767	0.699000	0.000246	2.455133	0.415911	-0.000049
1080	1.0736e+02	-1.4963	0.652970	0.000231	2.311917	0.391649	-0.000046
1081	1.0746e+02	-1.5180	0.612236	0.000205	2.045944	0.346592	-0.000041
1082	1.0756e+02	-1.5363	0.563355	0.000246	2.455133	0.415911	-0.000049
1083	1.0766e+02	-1.5562	0.518547	0.000225	2.250539	0.381252	-0.000045
1084	1.0776e+02	-1.5765	0.473332	0.000227	2.270998	0.384718	-0.000045
1085	1.0786e+02	-1.5987	0.426895	0.000233	2.332377	0.395115	-0.000047
1086	1.0796e+02	-1.6160	0.378829	0.000241	2.414214	0.408979	-0.000048
1087	1.0806e+02	-1.6341	0.334021	0.000225	2.250539	0.381252	-0.000045
1088	1.0816e+02	-1.6553	0.287176	0.000235	2.352836	0.398581	-0.000047
1089	1.0826e+02	-1.6753	0.245220	0.000211	2.107323	0.356990	-0.000042
1090	1.0836e+02	-1.6942	0.196339	0.000246	2.455133	0.415911	-0.000049
1091	1.0845e+02	-1.7140	0.156012	0.000203	2.025485	0.343126	-0.000041
1092	1.0855e+02	-1.7368	0.108353	0.000239	2.393755	0.405513	-0.000048
1093	1.0865e+02	-1.7556	0.065175	0.000217	2.168701	0.367388	-0.000043
1094	1.0875e+02	-1.7764	0.016294	0.000246	2.455133	0.415911	-0.000049
1095	1.0885e+02	-1.7937	-0.032180	0.000243	2.434674	0.412445	-0.000049
1096	1.0895e+02	-1.8182	-0.074136	0.000211	2.107323	0.356990	-0.000042
1097	1.0905e+02	-1.8347	-0.118537	0.000223	2.230079	0.377786	-0.000045
1098	1.0915e+02	-1.8559	-0.163344	0.000225	2.250539	0.381252	-0.000045
1099	1.0925e+02	-1.8748	-0.211003	0.000239	2.393755	0.405513	-0.000048
1100	1.0935e+02	-1.8961	-0.259070	0.000241	2.414214	0.408979	-0.000048
1101	1.0945e+02	-1.9167	-0.305507	0.000233	2.332377	0.395115	-0.000047
1102	1.0955e+02	-1.9357	-0.348685	0.000217	2.168701	0.367388	-0.000043
1103	1.0965e+02	-1.9548	-0.396344	0.000239	2.393755	0.405513	-0.000048
1104	1.0975e+02	-1.9747	-0.441559	0.000227	2.270998	0.384718	-0.000045
1105	1.0985e+02	-1.9953	-0.489218	0.000239	2.393755	0.405513	-0.000048
1106	1.0995e+02	-2.0166	-0.534433	0.000227	2.270998	0.384718	-0.000045
1107	1.1005e+02	-2.0352	-0.578019	0.000219	2.189161	0.370854	-0.000044
1108	1.1015e+02	-2.0557	-0.625271	0.000237	2.373296	0.402047	-0.000047
1109	1.1025e+02	-2.0739	-0.672523	0.000237	2.373296	0.402047	-0.000047
1110	1.1035e+02	-2.0944	-0.720589	0.000241	2.414214	0.408979	-0.000048
1111	1.1044e+02	-2.1152	-0.768655	0.000241	2.414214	0.408979	-0.000048
1112	1.1054e+02	-2.1339	-0.816314	0.000239	2.393755	0.405513	-0.000048
1113	1.1064e+02	-2.1547	-0.860307	0.000221	2.209620	0.374320	-0.000044
1114	1.1074e+02	-2.1761	-0.904300	0.000221	2.209620	0.374320	-0.000044
1115	1.1084e+02	-2.1956	-0.953996	0.000250	2.496052	0.422843	-0.000050
1116	1.1094e+02	-2.2139	-1.002470	0.000243	2.434674	0.412445	-0.000049
1117	1.1104e+02	-2.2337	-1.047278	0.000225	2.250539	0.381252	-0.000045
1118	1.1114e+02	-2.2543	-1.094122	0.000235	2.352836	0.398581	-0.000047
1119	1.1124e+02	-2.2739	-1.140966	0.000235	2.352836	0.398581	-0.000047
1120	1.1134e+02	-2.2963	-1.181701	0.000205	2.045944	0.346592	-0.000041
1121	1.1144e+02	-2.3154	-1.231804	0.000252	2.516512	0.426309	-0.000050
1122	1.1154e+02	-2.3361	-1.274168	0.000213	2.127782	0.360456	-0.000043
1123	1.1164e+02	-2.3543	-1.319383	0.000227	2.270998	0.384718	-0.000045
1124	1.1174e+02	-2.3746	-1.361746	0.000213	2.127782	0.360456	-0.000043
1125	1.1184e+02	-2.3941	-1.411442	0.000250	2.496052	0.422843	-0.000050
1126	1.1194e+02	-2.4158	-1.453398	0.000211	2.107323	0.356990	-0.000042
1127	1.1204e+02	-2.4332	-1.497391	0.000221	2.209620	0.374320	-0.000044
1128	1.1214e+02	-2.4533	-1.543421	0.000231	2.311917	0.391649	-0.000046
1129	1.1224e+02	-2.4707	-1.591895	0.000243	2.434674	0.412445	-0.000049
1130	1.1234e+02	-2.4947	-1.635480	0.000219	2.189161	0.370854	-0.000044
1131	1.1244e+02	-2.5126	-1.682732	0.000237	2.373296	0.402047	-0.000047
1132	1.1253e+02	-2.5298	-1.726725	0.000221	2.209620	0.374320	-0.000044
1133	1.1263e+02	-2.5530	-1.768681	0.000211	2.107323	0.356990	-0.000042
1134	1.1273e+02	-2.5722	-1.813082	0.000223	2.230079	0.377786	-0.000045
1135	1.1283e+02	-2.5928	-1.857889	0.000225	2.250539	0.381252	-0.000045
1136	1.1293e+02	-2.6125	-1.899031	0.000207	2.066404	0.350058	-0.000041
1137	1.1303e+02	-2.6336	-1.950356	0.000258	2.577890	0.436706	-0.000052
1138	1.1313e+02	-2.6529	-1.993942	0.000219	2.189161	0.370854	-0.000044
1139	1.1323e+02	-2.6723	-2.043638	0.000250	2.496052	0.422843	-0.000050
1140	1.1333e+02	-2.6923	-2.091297	0.000239	2.393755	0.405513	-0.000048
1141	1.1343e+02	-2.7117	-2.134475	0.000217	2.168701	0.367388	-0.000043
1142	1.1353e+02	-2.7331	-2.185393	0.000256	2.557431	0.433240	-0.000051
1143	1.1363e+02	-2.7527	-2.232645	0.000237	2.373296	0.402047	-0.000047
1144	1.1373e+02	-2.7725	-2.284377	0.000260	2.598349	0.440172	-0.000052
1145	1.1383e+02	-2.7917	-2.332443	0.000241	2.414214	0.408979	-0.000048
1146	1.1393e+02	-2.8117	-2.385398	0.000266	2.659728	0.450570	-0.000053
1147	1.1403e+02	-2.8326	-2.429391	0.000221	2.209620	0.374320	-0.000044
1148	1.1413e+02	-2.8519	-2.478679	0.000248	2.475593	0.419377	-0.000050
1149	1.1423e+02	-2.8728	-2.525931	0.000237	2.373296	0.402047	-0.000047
1150	1.1433e+02	-2.8904	-2.576034	0.000252	2.516512	0.426309	-0.000050
1151	1.1442e+02	-2.9111	-2.628174	0.000262	2.618809	0.443638	-0.000052
1152	1.1452e+02	-2.9311	-2.670945	0.000215	2.148242	0.363922	-0.000043
1153	1.1462e+02	-2.9517	-2.722678	0.000260	2.598349	0.440172	-0.000052
1154	1.1472e+02	-2.9715	-2.773188	0.000254	2.536971	0.429775	-0.000051
1155	1.1482e+02	-2.9912	-2.822069	0.000246	2.455133	0.415911	-0.000049
1156	1.1492e+02	-3.0114	-2.870543	0.000243	2.434674	0.412445	-0.000049
1157	1.1502e+02	-3.0314	-2.921461	0.000256	2.557431	0.433240	-0.000051
1158	1.1512e+02	-3.0521	-2.970749	0.000248	2.475593	0.419377	-0.000050
1159	1.1522e+02	-3.0702	-3.018001	0.000237	2.373296	0.402047	-0.000047
1160	1.1532e+02	-3.0922	-3.063623	0.000229	2.291458	0.388183	-0.000046
1161	1.1542e+02	-3.1112	-3.110875	0.000237	2.373296	0.402047	-0.000047
1162	1.1552e+02	-3.1308	-3.161793	0.000256	2.557431	0.433240	-0.000051
1163	1.1562e+02	-3.1510	-3.209045	0.000237	2.373296	0.402047	-0.000047
1164	1.1572e+02	-3.1720	-3.254667	0.000229	2.291458	0.388183	-0.000046
1165	1.1582e+02	-3.1892	-3.301104	0.000233	2.332377	0.395115	-0.000047
1166	1.1592e+02	-3.2108	-3.348763	0.000239	2.393755	0.405513	-0.000048
1167	1.1602e+02	-3.2278	-3.396422	0.000239	2.393755	0.405513	-0.000048
1168	1.1612e+02	-3.2498	-3.439193	0.000215	2.148242	0.363922	-0.000043
1169	1.1622e+02	-3.2675	-3.485630	0.000233	2.332377	0.395115	-0.000047
1170	1.1632e+02	-3.2881	-3.537770	0.000262	2.618809	0.443638	-0.000052
1171	1.1642e+02	-3.3115	-3.585836	0.000241	2.414214	0.408979	-0.000048
1172	1.1651e+02	-3.3326	-3.630237	0.000223	2.230079	0.377786	-0.000045
1173	1.1661e+02	-3.3470	-3.675452	0.000227	2.270998	0.384718	-0.000045
1174	1.1671e+02	-3.3692	-3.725148	0.000250	2.496052	0.422843	-0.000050
1175	1.1681e+02	-3.3894	-3.773621	0.000243	2.434674	0.412445	-0.000049
1176	1.1691e+02	-3.4100	-3.820873	0.000237	2.373296	0.402047	-0.000047
1177	1.1701e+02	-3.4295	-3.864866	0.000221	2.209620	0.374320	-0.000044
1178	1.1711e+02	-3.4482	-3.912118	0.000237	2.373296	0.402047	-0.000047
1179	1.1721e+02	-3.4694	-3.959777	0.000239	2.393755	0.405513	-0.000048
1180	1.1731e+02	-3.4901	-4.008251	0.000243	2.434674	0.412445	-0.000049
1181	1.1741e+02	-3.5066	-4.053466	0.000227	2.270998	0.384718	-0.000045
1182	1.1751e+02	-3.5272	-4.102754	0.000248	2.475593	0.419377	-0.000050
1183	1.1761e+02	-3.5503	-4.142266	0.000198	1.984566	0.336195	-0.000040
1184	1.1771e+02	-3.5690	-4.193592	0.000258	2.577890	0.436706	-0.000052
1185	1.1781e+02	-3.5889	-4.239621	0.000231	2.311917	0.391649	-0.000046
1186	1.1791e+02	-3.6108	-4.282392	0.000215	2.148242	0.363922	-0.000043
1187	1.1801e+02	-3.6285	-4.330866	0.000243	2.434674	0.412445	-0.000049
1188	1.1811e+02	-3.6475	-4.379340	0.000243	2.434674	0.412445	-0.000049
1189	1.1821e+02	-3.6701	-4.429850	0.000254	2.536971	0.429775	-0.000051
1190	1.1831e+02	-3.6867	-4.472214	0.000213	2.127782	0.360456	-0.000043
1191	1.1841e+02	-3.7066	-4.515800	0.000219	2.189161	0.370854	-0.000044
1192	1.1850e+02	-3.7280	-4.564681	0.000246	2.455133	0.415911	-0.000049
1193	1.1860e+02	-3.7501	-4.613562	0.000246	2.455133	0.415911	-0.000049
1194	1.1870e+02	-3.7666	-4.655111	0.000209	2.086863	0.353524	-0.000042
1195	1.1880e+02	-3.7888	-4.700733	0.000229	2.291458	0.388183	-0.000046
1196	1.1890e+02	-3.8071	-4.747577	0.000235	2.352836	0.398581	-0.000047
1197	1.1900e+02	-3.8290	-4.791163	0.000219	2.189161	0.370854	-0.000044
1198	1.1910e+02	-3.8473	-4.831490	0.000203	2.025485	0.343126	-0.000041
1199	1.1920e+02	-3.8664	-4.880778	0.000248	2.475593	0.419377	-0.000050
1200	1.1930e+02	-3.8877	-4.927623	0.000235	2.352836	0.398581	-0.000047
1201	1.1940e+02	-3.9079	-4.970801	0.000217	2.168701	0.367388	-0.000043
1202	1.1950e+02	-3.9257	-5.016016	0.000227	2.270998	0.384718	-0.000045
1203	1.1960e+02	-3.9466	-5.058380	0.000213	2.127782	0.360456	-0.000043
1204	1.1970e+02	-3.9673	-5.108483	0.000252	2.516512	0.426309	-0.000050
1205	1.1980e+02	-3.9865	-5.158993	0.000254	2.536971	0.429775	-0.000051
1206	1.1990e+02	-4.0068	-5.207467	0.000243	2.434674	0.412445	-0.000049
1207	1.2000e+02	-4.0266	-5.252275	0.000225	2.250539	0.381252	-0.000045
1208	1.2010e+02	-4.0484	-5.299934	0.000239	2.393755	0.405513	-0.000048
1209	1.2020e+02	-4.0685	-5.346371	0.000233	2.332377	0.395115	-0.000047
1210	1.2030e+02	-4.0903	-5.393215	0.000235	2.352836	0.398581	-0.000047
1211	1.2039e+02	-4.1063	-5.441282	0.000241	2.414214	0.408979	-0.000048
1212	1.2049e+02	-4.1257	-5.487719	0.000233	2.332377	0.395115	-0.000047
1213	1.2059e+02	-4.1467	-5.533341	0.000229	2.291458	0.388183	-0.000046
1214	1.2069e+02	-4.1660	-5.578556	0.000227	2.270998	0.384718	-0.000045
1215	1.2079e+02	-4.1837	-5.624993	0.000233	2.332377	0.395115	-0.000047
1216	1.2089e+02	-4.2055	-5.674689	0.000250	2.496052	0.422843	-0.000050
1217	1.2099e+02	-4.2270	-5.722756	0.000241	2.414214	0.408979	-0.000048
1218	1.2109e+02	-4.2470	-5.767971	0.000227	2.270998	0.384718	-0.000045
1219	1.2119e+02	-4.2668	-5.817666	0.000250	2.496052	0.422843	-0.000050
1220	1.2129e+02	-4.2852	-5.862881	0.000227	2.270998	0.384718	-0.000045
1221	1.2139e+02	-4.3058	-5.907689	0.000225	2.250539	0.381252	-0.000045
1222	1.2149e+02	-4.3249	-5.948831	0.000207	2.066404	0.350058	-0.000041
1223	1.2159e+02	-4.3448	-5.995675	0.000235	2.352836	0.398581	-0.000047
1224	1.2169e+02	-4.3670	-6.040075	0.000223	2.230079	0.377786	-0.000045
1225	1.2179e+02	-4.3875	-6.084883	0.000225	2.250539	0.381252	-0.000045
1226	1.2189e+02	-4.4064	-6.119914	0.000176	1.759512	0.298069	-0.000035
1227	1.2199e+02	-4.4278	-6.167166	0.000237	2.373296	0.402047	-0.000047
1228	1.2209e+02	-4.4466	-6.209937	0.000215	2.148242	0.363922	-0.000043
1229	1.2219e+02	-4.4659	-6.249449	0.000198	1.984566	0.336195	-0.000040
1230	1.2229e+02	-4.4857	-6.292628	0.000217	2.168701	0.367388	-0.000043
1231	1.2239e+02	-4.5041	-6.333769	0.000207	2.066404	0.350058	-0.000041
1232	1.2248e+02	-4.5250	-6.380206	0.000233	2.332377	0.395115	-0.000047
1233	1.2258e+02	-4.5443	-6.417275	0.000186	1.861809	0.315399	-0.000037
1234	1.2268e+02	-4.5636	-6.459231	0.000211	2.107323	0.356990	-0.000042
1235	1.2278e+02	-4.5859	-6.501594	0.000213	2.127782	0.360456	-0.000043
1236	1.2288e+02	-4.6048	-6.541921	0.000203	2.025485	0.343126	-0.000041
1237	1.2298e+02	-4.6252	-6.584285	0.000213	2.127782	0.360456	-0.000043
1238	1.2308e+02	-4.6442	-6.625427	0.000207	2.066404	0.350058	-0.000041
1239	1.2318e+02	-4.6655	-6.668198	0.000215	2.148242	0.363922	-0.000043
1240	1.2328e+02	-4.6846	-6.706080	0.000190	1.902728	0.322331	-0.000038
1241	1.2338e+02	-4.7041	-6.747222	0.000207	2.066404	0.350058	-0.000041
1242	1.2348e+02	-4.7234	-6.790400	0.000217	2.168701	0.367388	-0.000043
1243	1.2358e+02	-4.7446	-6.832357	0.000211	2.107323	0.356990	-0.000042
1244	1.2368e+02	-4.7637	-6.876757	0.000223	2.230079	0.377786	-0.000045
1245	1.2378e+02	-4.7839	-6.915862	0.000196	1.964107	0.332729	-0.000039
1246	1.2388e+02	-4.8033	-6.959447	0.000219	2.189161	0.370854	-0.000044
1247	1.2398e+02	-4.8265	-6.997738	0.000192	1.923188	0.325797	-0.000038
1248	1.2408e+02	-4.8441	-7.042138	0.000223	2.230079	0.377786	-0.000045
1249	1.2418e+02	-4.8631	-7.084094	0.000211	2.107323	0.356990	-0.000042
1250	1.2428e+02	-4.8840	-7.128087	0.000221	2.209620	0.374320	-0.000044
1251	1.2438e+02	-4.9023	-7.169229	0.000207	2.066404	0.350058	-0.000041
1252	1.2447e+02	-4.9242	-7.211185	0.000211	2.107323	0.356990	-0.000042
1253	1.2457e+02	-4.9454	-7.252734	0.000209	2.086863	0.353524	-0.000042
1254	1.2467e+02	-4.9641	-7.294283	0.000209	2.086863	0.353524	-0.000042
1255	1.2477e+02	-4.9831	-7.343572	0.000248	2.475593	0.419377	-0.000050
1256	1.2487e+02	-5.0036	-7.383491	0.000201	2.005026	0.339661	-0.000040
1257	1.2497e+02	-5.0236	-7.422596	0.000196	1.964107	0.332729	-0.000039
1258	1.2507e+02	-5.0450	-7.467811	0.000227	2.270998	0.384718	-0.000045
1259	1.2517e+02	-5.0644	-7.505694	0.000190	1.902728	0.322331	-0.000038
1260	1.2527e+02	-5.0836	-7.548057	0.000213	2.127782	0.360456	-0.000043
1261	1.2537e+02	-5.1036	-7.591643	0.000219	2.189161	0.370854	-0.000044
1262	1.2547e+02	-5.1241	-7.629933	0.000192	1.923188	0.325797	-0.000038
1263	1.2557e+02	-5.1428	-7.673519	0.000219	2.189161	0.370854	-0.000044
1264	1.2567e+02	-5.1631	-7.715068	0.000209	2.086863	0.353524	-0.000042
1265	1.2577e+02	-5.1857	-7.757024	0.000211	2.107323	0.356990	-0.000042
1266	1.2587e+02	-5.2030	-7.797758	0.000205	2.045944	0.346592	-0.000041
1267	1.2597e+02	-5.2234	-7.839715	0.000211	2.107323	0.356990	-0.000042
1268	1.2607e+02	-5.2417	-7.883300	0.000219	2.189161	0.370854	-0.000044
1269	1.2617e+02	-5.2638	-7.924849	0.000209	2.086863	0.353524	-0.000042
1270	1.2627e+02	-5.2811	-7.963954	0.000196	1.964107	0.332729	-0.000039
1271	1.2636e+02	-5.3003	-8.003466	0.000198	1.984566	0.336195	-0.000040
1272	1.2646e+02	-5.3226	-8.047867	0.000223	2.230079	0.377786	-0.000045
1273	1.2656e+02	-5.3390	-8.083713	0.000180	1.800431	0.305001	-0.000036
1274	1.2666e+02	-5.3622	-8.127706	0.000221	2.209620	0.374320	-0.000044
1275	1.2676e+02	-5.3832	-8.168848	0.000207	2.066404	0.350058	-0.000041
1276	1.2686e+02	-5.4015	-8.208767	0.000201	2.005026	0.339661	-0.000040
1277	1.2696e+02	-5.4218	-8.251131	0.000213	2.127782	0.360456	-0.000043
1278	1.2706e+02	-5.4425	-8.295938	0.000225	2.250539	0.381252	-0.000045
1279	1.2716e+02	-5.4616	-8.332192	0.000182	1.820891	0.308467	-0.000036
1280	1.2726e+02	-5.4828	-8.373741	0.000209	2.086863	0.353524	-0.000042
1281	1.2736e+02	-5.5002	-8.418956	0.000227	2.270998	0.384718	-0.000045
1282	1.2746e+02	-5.5222	-8.457653	0.000194	1.943647	0.329263	-0.000039
1283	1.2756e+02	-5.5414	-8.500017	0.000213	2.127782	0.360456	-0.000043
1284	1.2766e+02	-5.5622	-8.541973	0.000211	2.107323	0.356990	-0.000042
1285	1.2776e+02	-5.5809	-8.580264	0.000192	1.923188	0.325797	-0.000038
1286	1.2786e+02	-5.5998	-8.622627	0.000213	2.127782	0.360456	-0.000043
1287	1.2796e+02	-5.6206	-8.662139	0.000198	1.984566	0.336195	-0.000040
1288	1.2806e+02	-5.6429	-8.701244	0.000196	1.964107	0.332729	-0.000039
1289	1.2816e+02	-5.6607	-8.735461	0.000172	1.718593	0.291138	-0.000034
1290	1.2826e+02	-5.6805	-8.774566	0.000196	1.964107	0.332729	-0.000039
1291	1.2835e+02	-5.7024	-8.812041	0.000188	1.882269	0.318865	-0.000038
1292	1.2845e+02	-5.7193	-8.851554	0.000198	1.984566	0.336195	-0.000040
1293	1.2855e+02	-5.7414	-8.891066	0.000198	1.984566	0.336195	-0.000040
1294	1.2865e+02	-5.7588	-8.930985	0.000201	2.005026	0.339661	-0.000040
1295	1.2875e+02	-5.7797	-8.967646	0.000184	1.841350	0.311933	-0.000037
1296	1.2885e+02	-5.7999	-9.012047	0.000223	2.230079	0.377786	-0.000045
1297	1.2895e+02	-5.8199	-9.052781	0.000205	2.045944	0.346592	-0.000041
1298	1.2905e+02	-5.8374	-9.089442	0.000184	1.841350	0.311933	-0.000037
1299	1.2915e+02	-5.8609	-9.127732	0.000192	1.923188	0.325797	-0.000038
1300	1.2925e+02	-5.8803	-9.160727	0.000166	1.657215	0.280740	-0.000033
1301	1.2935e+02	-5.9017	-9.198609	0.000190	1.902728	0.322331	-0.000038
1302	1.2945e+02	-5.9216	-9.236900	0.000192	1.923188	0.325797	-0.000038
1303	1.2955e+02	-5.9393	-9.273561	0.000184	1.841350	0.311933	-0.000037
1304	1.2965e+02	-5.9612	-9.313480	0.000201	2.005026	0.339661	-0.000040
1305	1.2975e+02	-5.9789	-9.349734	0.000182	1.820891	0.308467	-0.000036
1306	1.2985e+02	-6.0009	-9.388024	0.000192	1.923188	0.325797	-0.000038
1307	1.2995e+02	-6.0193	-9.430387	0.000213	2.127782	0.360456	-0.000043
1308	1.3005e+02	-6.0384	-9.471936	0.000209	2.086863	0.353524	-0.000042
1309	1.3015e+02	-6.0590	-9.513485	0.000209	2.086863	0.353524	-0.000042
1310	1.3025e+02	-6.0785	-9.551368	0.000190	1.902728	0.322331	-0.000038
1311	1.3034e+02	-6.0992	-9.599842	0.000243	2.434674	0.412445	-0.000049
1312	1.3044e+02	-6.1182	-9.637725	0.000190	1.902728	0.322331	-0.000038
1313	1.3054e+02	-6.1388	-9.680088	0.000213	2.127782	0.360456	-0.000043
1314	1.3064e+02	-6.1600	-9.726118	0.000231	2.311917	0.391649	-0.000046
1315	1.3074e+02	-6.1797	-9.759520	0.000168	1.677674	0.284206	-0.000034
1316	1.3084e+02	-6.1987	-9.801476	0.000211	2.107323	0.356990	-0.000042
1317	1.3094e+02	-6.2183	-9.844655	0.000217	2.168701	0.367388	-0.000043
1318	1.3104e+02	-6.2407	-9.882538	0.000190	1.902728	0.322331	-0.000038
1319	1.3114e+02	-6.2598	-9.923679	0.000207	2.066404	0.350058	-0.000041
1320	1.3124e+02	-6.2773	-9.965636	0.000211	2.107323	0.356990	-0.000042
1321	1.3134e+02	-6.2985	-10.007592	0.000211	2.107323	0.356990	-0.000042
1322	1.3144e+02	-6.3186	-10.047919	0.000203	2.025485	0.343126	-0.000041
1323	1.3154e+02	-6.3390	-10.092319	0.000223	2.230079	0.377786	-0.000045
1324	1.3164e+02	-6.3585	-10.135905	0.000219	2.189161	0.370854	-0.000044
1325	1.3174e+02	-6.3780	-10.171751	0.000180	1.800431	0.305001	-0.000036
1326	1.3184e+02	-6.3992	-10.210448	0.000194	1.943647	0.329263	-0.000039
1327	1.3194e+02	-6.4198	-10.255256	0.000225	2.250539	0.381252	-0.000045
1328	1.3204e+02	-6.4391	-10.291102	0.000180	1.800431	0.305001	-0.000036
1329	1.3214e+02	-6.4597	-10.331836	0.000205	2.045944	0.346592	-0.000041
1330	1.3224e+02	-6.4769	-10.370534	0.000194	1.943647	0.329263	-0.000039
1331	1.3234e+02	-6.4998	-10.409232	0.000194	1.943647	0.329263	-0.000039
1332	1.3243e+02	-6.5186	-10.443856	0.000174	1.739053	0.294604	-0.000035
1333	1.3253e+02	-6.5385	-10.482961	0.000196	1.964107	0.332729	-0.000039
1334	1.3263e+02	-6.5585	-10.524917	0.000211	2.107323	0.356990	-0.000042
1335	1.3273e+02	-6.5768	-10.560763	0.000180	1.800431	0.305001	-0.000036
1336	1.3283e+02	-6.5980	-10.602312	0.000209	2.086863	0.353524	-0.000042
1337	1.3293e+02	-6.6174	-10.642232	0.000201	2.005026	0.339661	-0.000040
1338	1.3303e+02	-6.6363	-10.680929	0.000194	1.943647	0.329263	-0.000039
1339	1.3313e+02	-6.6570	-10.718812	0.000190	1.902728	0.322331	-0.000038
1340	1.3323e+02	-6.6769	-10.755880	0.000186	1.861809	0.315399	-0.000037
1341	1.3333e+02	-6.6965	-10.794985	0.000196	1.964107	0.332729	-0.000039
1342	1.3343e+02	-6.7189	-10.833682	0.000194	1.943647	0.329263	-0.000039
1343	1.3353e+02	-6.7351	-10.874824	0.000207	2.066404	0.350058	-0.000041
1344	1.3363e+02	-6.7567	-10.913522	0.000194	1.943647	0.329263	-0.000039
1345	1.3373e+02	-6.7767	-10.948960	0.000178	1.779972	0.301535	-0.000036
1346	1.3383e+02	-6.7969	-10.986029	0.000186	1.861809	0.315399	-0.000037
1347	1.3393e+02	-6.8162	-11.024319	0.000192	1.923188	0.325797	-0.000038
1348	1.3403e+02	-6.8350	-11.062202	0.000190	1.902728	0.322331	-0.000038
1349	1.3413e+02	-6.8558	-11.103751	0.000209	2.086863	0.353524	-0.000042
1350	1.3423e+02	-6.8747	-11.141226	0.000188	1.882269	0.318865	-0.000038
1351	1.3432e+02	-6.8974	-11.179516	0.000192	1.923188	0.325797	-0.000038
1352	1.3442e+02	-6.9162	-11.212511	0.000166	1.657215	0.280740	-0.000033
1353	1.3452e+02	-6.9360	-11.250394	0.000190	1.902728	0.322331	-0.000038
1354	1.3462e+02	-6.9559	-11.288684	0.000192	1.923188	0.325797	-0.000038
1355	1.3472e+02	-6.9751	-11.324530	0.000180	1.800431	0.305001	-0.000036
1356	1.3482e+02	-6.9962	-11.366079	0.000209	2.086863	0.353524	-0.000042
1357	1.3492e+02	-7.0154	-11.400296	0.000172	1.718593	0.291138	-0.000034
1358	1.3502e+02	-7.0367	-11.441438	0.000207	2.066404	0.350058	-0.000041
1359	1.3512e+02	-7.0572	-11.478098	0.000184	1.841350	0.311933	-0.000037
1360	1.3522e+02	-7.0752	-11.513537	0.000178	1.779972	0.301535	-0.000036
1361	1.3532e+02	-7.0956	-11.553049	0.000198	1.984566	0.336195	-0.000040
1362	1.3542e+02	-7.1147	-11.586452	0.000168	1.677674	0.284206	-0.000034
1363	1.3552e+02	-7.1358	-11.623112	0.000184	1.841350	0.311933	-0.000037
1364	1.3562e+02	-7.1529	-11.663032	0.000201	2.005026	0.339661	-0.000040
1365	1.3572e+02	-7.1722	-11.695619	0.000164	1.636756	0.277274	-0.000033
1366	1.3582e+02	-7.1941	-11.729021	0.000168	1.677674	0.284206	-0.000034
1367	1.3592e+02	-7.2146	-11.767719	0.000194	1.943647	0.329263	-0.000039
1368	1.3602e+02	-7.2359	-11.808046	0.000203	2.025485	0.343126	-0.000041
1369	1.3612e+02	-7.2534	-11.843892	0.000180	1.800431	0.305001	-0.000036
1370	1.3622e+02	-7.2745	-11.882590	0.000194	1.943647	0.329263	-0.000039
1371	1.3631e+02	-7.2928	-11.922916	0.000203	2.025485	0.343126	-0.000041
1372	1.3641e+02	-7.3117	-11.957541	0.000174	1.739053	0.294604	-0.000035
1373	1.3651e+02	-7.3375	-11.995016	0.000188	1.882269	0.318865	-0.000038
1374	1.3661e+02	-7.3555	-12.037380	0.000213	2.127782	0.360456	-0.000043
1375	1.3671e+02	-7.3727	-12.069560	0.000162	1.616296	0.273808	-0.000032
1376	1.3681e+02	-7.3935	-12.108257	0.000194	1.943647	0.329263	-0.000039
1377	1.3691e+02	-7.4146	-12.148584	0.000203	2.025485	0.343126	-0.000041
1378	1.3701e+02	-7.4333	-12.189319	0.000205	2.045944	0.346592	-0.000041
1379	1.3711e+02	-7.4542	-12.225979	0.000184	1.841350	0.311933	-0.000037
1380	1.3721e+02	-7.4744	-12.258974	0.000166	1.657215	0.280740	-0.000033
1381	1.3731e+02	-7.4930	-12.304189	0.000227	2.270998	0.384718	-0.000045
1382	1.3741e+02	-7.5137	-12.335962	0.000160	1.595837	0.270342	-0.000032
1383	1.3751e+02	-7.5299	-12.377511	0.000209	2.086863	0.353524	-0.000042
1384	1.3761e+02	-7.5542	-12.416208	0.000194	1.943647	0.329263	-0.000039
1385	1.3771e+02	-7.5703	-12.458165	0.000211	2.107323	0.356990	-0.000042
1386	1.3781e+02	-7.5925	-12.494011	0.000180	1.800431	0.305001	-0.000036
1387	1.3791e+02	-7.6118	-12.531486	0.000188	1.882269	0.318865	-0.000038
1388	1.3801e+02	-7.6331	-12.571813	0.000203	2.025485	0.343126	-0.000041
1389	1.3811e+02	-7.6529	-12.606437	0.000174	1.739053	0.294604	-0.000035
1390	1.3821e+02	-7.6752	-12.639025	0.000164	1.636756	0.277274	-0.000033
1391	1.3831e+02	-7.6939	-12.680166	0.000207	2.066404	0.350058	-0.000041
1392	1.3840e+02	-7.7121	-12.712346	0.000162	1.616296	0.273808	-0.000032
1393	1.3850e+02	-7.7344	-12.750637	0.000192	1.923188	0.325797	-0.000038
1394	1.3860e+02	-7.7512	-12.777114	0.000133	1.329864	0.225285	-0.000027
1395	1.3870e+02	-7.7719	-12.815811	0.000194	1.943647	0.329263	-0.000039
1396	1.3880e+02	-7.7909	-12.848399	0.000164	1.636756	0.277274	-0.000033
1397	1.3890e+02	-7.8123	-12.883430	0.000176	1.759512	0.298069	-0.000035
1398	1.3900e+02	-7.8303	-12.921313	0.000190	1.902728	0.322331	-0.000038
1399	1.3910e+02	-7.8528	-12.953086	0.000160	1.595837	0.270342	-0.000032
1400	1.3920e+02	-7.8726	-12.985673	0.000164	1.636756	0.277274	-0.000033
1401	1.3930e+02	-7.8921	-13.023556	0.000190	1.902728	0.322331	-0.000038
1402	1.3940e+02	-7.9128	-13.056143	0.000164	1.636756	0.277274	-0.000033
1403	1.3950e+02	-7.9306	-13.087101	0.000155	1.554918	0.263410	-0.000031
1404	1.3960e+02	-7.9506	-13.124170	0.000186	1.861809	0.315399	-0.000037
1405	1.3970e+02	-7.9709	-13.154313	0.000151	1.513999	0.256478	-0.000030
1406	1.3980e+02	-7.9893	-13.191381	0.000186	1.861809	0.315399	-0.000037
1407	1.3990e+02	-8.0110	-13.224376	0.000166	1.657215	0.280740	-0.000033
1408	1.4000e+02	-8.0309	-13.256556	0.000162	1.616296	0.273808	-0.000032
1409	1.4010e+02	-8.0493	-13.296068	0.000198	1.984566	0.336195	-0.000040
1410	1.4020e+02	-8.0708	-13.326212	0.000151	1.513999	0.256478	-0.000030
1411	1.4029e+02	-8.0890	-13.362058	0.000180	1.800431	0.305001	-0.000036
1412	1.4039e+02	-8.1107	-13.398719	0.000184	1.841350	0.311933	-0.000037
1413	1.4049e+02	-8.1316	-13.432935	0.000172	1.718593	0.291138	-0.000034
1414	1.4059e+02	-8.1519	-13.469596	0.000184	1.841350	0.311933	-0.000037
1415	1.4069e+02	-8.1710	-13.502184	0.000164	1.636756	0.277274	-0.000033
1416	1.4079e+02	-8.1905	-13.538844	0.000184	1.841350	0.311933	-0.000037
1417	1.4089e+02	-8.2120	-13.573469	0.000174	1.739053	0.294604	-0.000035
1418	1.4099e+02	-8.2291	-13.612166	0.000194	1.943647	0.329263	-0.000039
1419	1.4109e+02	-8.2523	-13.648012	0.000180	1.800431	0.305001	-0.000036
1420	1.4119e+02	-8.2702	-13.685488	0.000188	1.882269	0.318865	-0.000038
1421	1.4129e+02	-8.2887	-13.720519	0.000176	1.759512	0.298069	-0.000035
1422	1.4139e+02	-8.3109	-13.761253	0.000205	2.045944	0.346592	-0.000041
1423	1.4149e+02	-8.3287	-13.797100	0.000180	1.800431	0.305001	-0.000036
1424	1.4159e+02	-8.3495	-13.831724	0.000174	1.739053	0.294604	-0.000035
1425	1.4169e+02	-8.3699	-13.869607	0.000190	1.902728	0.322331	-0.000038
1426	1.4179e+02	-8.3899	-13.907489	0.000190	1.902728	0.322331	-0.000038
1427	1.4189e+02	-8.4077	-13.940484	0.000166	1.657215	0.280740	-0.000033
1428	1.4199e+02	-8.4313	-13.977960	0.000188	1.882269	0.318865	-0.000038
1429	1.4209e+02	-8.4482	-14.010140	0.000162	1.616296	0.273808	-0.000032
1430	1.4219e+02	-8.4679	-14.045986	0.000180	1.800431	0.305001	-0.000036
1431	1.4228e+02	-8.4909	-14.087535	0.000209	2.086863	0.353524	-0.000042
1432	1.4238e+02	-8.5085	-14.127862	0.000203	2.025485	0.343126	-0.000041
1433	1.4248e+02	-8.5281	-14.162078	0.000172	1.718593	0.291138	-0.000034
1434	1.4258e+02	-8.5480	-14.197925	0.000180	1.800431	0.305001	-0.000036
1435	1.4268e+02	-8.5699	-14.236622	0.000194	1.943647	0.329263	-0.000039
1436	1.4278e+02	-8.5884	-14.274912	0.000192	1.923188	0.325797	-0.000038
1437	1.4288e+02	-8.6086	-14.311573	0.000184	1.841350	0.311933	-0.000037
1438	1.4298e+02	-8.6278	-14.348234	0.000184	1.841350	0.311933	-0.000037
1439	1.4308e+02	-8.6501	-14.385302	0.000186	1.861809	0.315399	-0.000037
1440	1.4318e+02	-8.6690	-14.426444	0.000207	2.066404	0.350058	-0.000041
1441	1.4328e+02	-8.6874	-14.459031	0.000164	1.636756	0.277274	-0.000033
1442	1.4338e+02	-8.7082	-14.498951	0.000201	2.005026	0.339661	-0.000040
1443	1.4348e+02	-8.7280	-14.538056	0.000196	1.964107	0.332729	-0.000039
1444	1.4358e+02	-8.7502	-14.571458	0.000168	1.677674	0.284206	-0.000034
1445	1.4368e+02	-8.7690	-14.618709	0.000237	2.373296	0.402047	-0.000047
1446	1.4378e+02	-8.7878	-14.651704	0.000166	1.657215	0.280740	-0.000033
1447	1.4388e+02	-8.8103	-14.693253	0.000209	2.086863	0.353524	-0.000042
1448	1.4398e+02	-8.8284	-14.731136	0.000190	1.902728	0.322331	-0.000038
1449	1.4408e+02	-8.8452	-14.771463	0.000203	2.025485	0.343126	-0.000041
1450	1.4418e+02	-8.8695	-14.810975	0.000198	1.984566	0.336195	-0.000040
1451	1.4428e+02	-8.8862	-14.847636	0.000184	1.841350	0.311933	-0.000037
1452	1.4437e+02	-8.9075	-14.885926	0.000192	1.923188	0.325797	-0.000038
1453	1.4447e+02	-8.9275	-14.929105	0.000217	2.168701	0.367388	-0.000043
1454	1.4457e+02	-8.9464	-14.962914	0.000170	1.698134	0.287672	-0.000034
1455	1.4467e+02	-8.9643	-15.001204	0.000192	1.923188	0.325797	-0.000038
1456	1.4477e+02	-8.9883	-15.040716	0.000198	1.984566	0.336195	-0.000040
1457	1.4487e+02	-9.0084	-15.079007	0.000192	1.923188	0.325797	-0.000038
1458	1.4497e+02	-9.0257	-15.115667	0.000184	1.841350	0.311933	-0.000037
1459	1.4507e+02	-9.0436	-15.152736	0.000186	1.861809	0.315399	-0.000037
1460	1.4517e+02	-9.0678	-15.191026	0.000192	1.923188	0.325797	-0.000038
1461	1.4527e+02	-9.0887	-15.230131	0.000196	1.964107	0.332729	-0.000039
1462	1.4537e+02	-9.1051	-15.272087	0.000211	2.107323	0.356990	-0.000042
1463	1.4547e+02	-9.1237	-15.308340	0.000182	1.820891	0.308467	-0.000036
1464	1.4557e+02	-9.1479	-15.354777	0.000233	2.332377	0.395115	-0.000047
1465	1.4567e+02	-9.1670	-15.386958	0.000162	1.616296	0.273808	-0.000032
1466	1.4577e+02	-9.1866	-15.426877	0.000201	2.005026	0.339661	-0.000040
1467	1.4587e+02	-9.2062	-15.470055	0.000217	2.168701	0.367388	-0.000043
1468	1.4597e+02	-9.2280	-15.503050	0.000166	1.657215	0.280740	-0.000033
1469	1.4607e+02	-9.2465	-15.543377	0.000203	2.025485	0.343126	-0.000041
1470	1.4617e+02	-9.2657	-15.579223	0.000180	1.800431	0.305001	-0.000036
1471	1.4626e+02	-9.2859	-15.623216	0.000221	2.209620	0.374320	-0.000044
1472	1.4636e+02	-9.3040	-15.658655	0.000178	1.779972	0.301535	-0.000036
1473	1.4646e+02	-9.3267	-15.704685	0.000231	2.311917	0.391649	-0.000046
1474	1.4656e+02	-9.3475	-15.743382	0.000194	1.943647	0.329263	-0.000039
1475	1.4666e+02	-9.3647	-15.786153	0.000215	2.148242	0.363922	-0.000043
1476	1.4676e+02	-9.3867	-15.830961	0.000225	2.250539	0.381252	-0.000045
1477	1.4686e+02	-9.4050	-15.877805	0.000235	2.352836	0.398581	-0.000047
1478	1.4696e+02	-9.4246	-15.919762	0.000211	2.107323	0.356990	-0.000042
1479	1.4706e+02	-9.4455	-15.969457	0.000250	2.496052	0.422843	-0.000050
1480	1.4716e+02	-9.4662	-16.012228	0.000215	2.148242	0.363922	-0.000043
1481	1.4726e+02	-9.4870	-16.055814	0.000219	2.189161	0.370854	-0.000044
1482	1.4736e+02	-9.5025	-16.099807	0.000221	2.209620	0.374320	-0.000044
1483	1.4746e+02	-9.5247	-16.148281	0.000243	2.434674	0.412445	-0.000049
1484	1.4756e+02	-9.5448	-16.192681	0.000223	2.230079	0.377786	-0.000045
1485	1.4766e+02	-9.5653	-16.239933	0.000237	2.373296	0.402047	-0.000047
1486	1.4776e+02	-9.5825	-16.281482	0.000209	2.086863	0.353524	-0.000042
1487	1.4786e+02	-9.6040	-16.328734	0.000237	2.373296	0.402047	-0.000047
1488	1.4796e+02	-9.6242	-16.376393	0.000239	2.393755	0.405513	-0.000048
1489	1.4806e+02	-9.6449	-16.424866	0.000243	2.434674	0.412445	-0.000049
1490	1.4816e+02	-9.6642	-16.474969	0.000252	2.516512	0.426309	-0.000050
1491	1.4825e+02	-9.6835	-16.519370	0.000223	2.230079	0.377786	-0.000045
1492	1.4835e+02	-9.7046	-16.567844	0.000243	2.434674	0.412445	-0.000049
1493	1.4845e+02	-9.7235	-16.616725	0.000246	2.455133	0.415911	-0.000049
1494	1.4855e+02	-9.7429	-16.663976	0.000237	2.373296	0.402047	-0.000047
1495	1.4865e+02	-9.7636	-16.710006	0.000231	2.311917	0.391649	-0.000046
1496	1.4875e+02	-9.7829	-16.755629	0.000229	2.291458	0.388183	-0.000046
1497	1.4885e+02	-9.8046	-16.805324	0.000250	2.496052	0.422843	-0.000050
1498	1.4895e+02	-9.8244	-16.855020	0.000250	2.496052	0.422843	-0.000050
1499	1.4905e+02	-9.8432	-16.899828	0.000225	2.250539	0.381252	-0.000045
1500	1.4915e+02	-9.8645	-16.945043	0.000227	2.270998	0.384718	-0.000045
1501	1.4925e+02	-9.8840	-16.994331	0.000248	2.475593	0.419377	-0.000050
1502	1.4935e+02	-9.9019	-17.044434	0.000252	2.516512	0.426309	-0.000050
1503	1.4945e+02	-9.9223	-17.096167	0.000260	2.598349	0.440172	-0.000052
1504	1.4955e+02	-9.9438	-17.140160	0.000221	2.209620	0.374320	-0.000044
1505	1.4965e+02	-9.9638	-17.185375	0.000227	2.270998	0.384718	-0.000045
1506	1.4975e+02	-9.9826	-17.236293	0.000256	2.557431	0.433240	-0.000051
1507	1.4985e+02	-10.0000	-17.287211	0.000256	2.557431	0.433240	-0.000051
1508	1.4995e+02	-9.9808	-17.303912	-0.000084	-0.838837	-0.142103	-0.000017
1509	1.5005e+02	-9.9653	-17.316947	-0.000065	-0.654702	-0.110910	-0.000013
1510	1.5015e+02	-9.9420	-17.333648	-0.000084	-0.838837	-0.142103	-0.000017
1511	1.5025e+02	-9.9222	-17.343831	-0.000051	-0.511486	-0.086648	-0.000010
1512	1.5034e+02	-9.9018	-17.355644	-0.000059	-0.593324	-0.100512	-0.000012
1513	1.5044e+02	-9.8808	-17.371530	-0.000080	-0.797918	-0.135171	-0.000016
1514	1.5054e+02	-9.8621	-17.378048	-0.000033	-0.327351	-0.055455	-0.000007
1515	1.5064e+02	-9.8416	-17.390676	-0.000063	-0.634243	-0.107444	-0.000013
1516	1.5074e+02	-9.8237	-17.399637	-0.000045	-0.450108	-0.076250	-0.000009
1517	1.5084e+02	-9.8042	-17.409006	-0.000047	-0.470567	-0.079716	-0.000009
1518	1.5094e+02	-9.7835	-17.412265	-0.000016	-0.163676	-0.027727	-0.000003
1519	1.5104e+02	-9.7667	-17.423263	-0.000055	-0.552405	-0.093580	-0.000011
1520	1.5114e+02	-9.7440	-17.430188	-0.000035	-0.347811	-0.058921	-0.000007
1521	1.5124e+02	-9.7243	-17.441593	-0.000057	-0.572864	-0.097046	-0.000011
1522	1.5134e+02	-9.7055	-17.441186	0.000002	0.020459	0.003466	0.000000
1523	1.5144e+02	-9.6841	-17.448926	-0.000039	-0.388729	-0.065853	-0.000008
1524	1.5154e+02	-9.6650	-17.459516	-0.000053	-0.531946	-0.090114	-0.000011
1525	1.5164e+02	-9.6436	-17.462775	-0.000016	-0.163676	-0.027727	-0.000003
1526	1.5174e+02	-9.6253	-17.467256	-0.000023	-0.225054	-0.038125	-0.000005
1527	1.5184e+02	-9.6051	-17.469700	-0.000012	-0.122757	-0.020796	-0.000002
1528	1.5194e+02	-9.5837	-17.475810	-0.000031	-0.306892	-0.051989	-0.000006
1529	1.5204e+02	-9.5653	-17.476625	-0.000004	-0.040919	-0.006932	-0.000001
1530	1.5214e+02	-9.5443	-17.480698	-0.000020	-0.204594	-0.034659	-0.000004
1531	1.5224e+02	-9.5276	-17.485179	-0.000023	-0.225054	-0.038125	-0.000005
1532	1.5233e+02	-9.5040	-17.480291	0.000025	0.245513	0.041591	0.000005
1533	1.5243e+02	-9.4844	-17.485179	-0.000025	-0.245513	-0.041591	-0.000005
1534	1.5253e+02	-9.4624	-17.485994	-0.000004	-0.040919	-0.006932	-0.000001
1535	1.5263e+02	-9.4455	-17.487216	-0.000006	-0.061378	-0.010398	-0.000001
1536	1.5273e+02	-9.4255	-17.486401	0.000004	0.040919	0.006932	0.000001
1537	1.5283e+02	-9.4041	-17.494141	-0.000039	-0.388729	-0.065853	-0.000008
1538	1.5293e+02	-9.3857	-17.494955	-0.000004	-0.040919	-0.006932	-0.000001
1539	1.5303e+02	-9.3648	-17.495363	-0.000002	-0.020459	-0.003466	-0.000000
1540	1.5313e+02	-9.3445	-17.495363	0.000000	0.000000	0.000000	0.000000
1541	1.5323e+02	-9.3275	-17.496585	-0.000006	-0.061378	-0.010398	-0.000001
1542	1.5333e+02	-9.3046	-17.499843	-0.000016	-0.163676	-0.027727	-0.000003
1543	1.5343e+02	-9.2874	-17.496177	0.000018	0.184135	0.031193	0.000004
1544	1.5353e+02	-9.2670	-17.496992	-0.000004	-0.040919	-0.006932	-0.000001
1545	1.5363e+02	-9.2465	-17.499843	-0.000014	-0.143216	-0.024261	-0.000003
1546	1.5373e+02	-9.2245	-17.493733	0.000031	0.306892	0.051989	0.000006
1547	1.5383e+02	-9.2072	-17.492511	0.000006	0.061378	0.010398	0.000001
1548	1.5393e+02	-9.1859	-17.494141	-0.000008	-0.081838	-0.013864	-0.000002
1549	1.5403e+02	-9.1663	-17.492104	0.000010	0.102297	0.017330	0.000002
1550	1.5413e+02	-9.1440	-17.489660	0.000012	0.122757	0.020796	0.000002
1551	1.5422e+02	-9.1248	-17.491697	-0.000010	-0.102297	-0.017330	-0.000002
1552	1.5432e+02	-9.1068	-17.489660	0.000010	0.102297	0.017330	0.000002
1553	1.5442e+02	-9.0875	-17.492511	-0.000014	-0.143216	-0.024261	-0.000003
1554	1.5452e+02	-9.0657	-17.487216	0.000027	0.265973	0.045057	0.000005
1555	1.5462e+02	-9.0473	-17.482735	0.000023	0.225054	0.038125	0.000005
1556	1.5472e+02	-9.0266	-17.479069	0.000018	0.184135	0.031193	0.000004
1557	1.5482e+02	-9.0076	-17.477032	0.000010	0.102297	0.017330	0.000002
1558	1.5492e+02	-8.9865	-17.471737	0.000027	0.265973	0.045057	0.000005
1559	1.5502e+02	-8.9651	-17.466849	0.000025	0.245513	0.041591	0.000005
1560	1.5512e+02	-8.9497	-17.459109	0.000039	0.388729	0.065853	0.000008
1561	1.5522e+02	-8.9252	-17.451777	0.000037	0.368270	0.062387	0.000007
1562	1.5532e+02	-8.9079	-17.440371	0.000057	0.572864	0.097046	0.000011
1563	1.5542e+02	-8.8870	-17.430188	0.000051	0.511486	0.086648	0.000010
1564	1.5552e+02	-8.8670	-17.425707	0.000023	0.225054	0.038125	0.000005
1565	1.5562e+02	-8.8454	-17.418375	0.000037	0.368270	0.062387	0.000007
1566	1.5572e+02	-8.8276	-17.405747	0.000063	0.634243	0.107444	0.000013
1567	1.5582e+02	-8.8081	-17.394342	0.000057	0.572864	0.097046	0.000011
1568	1.5592e+02	-8.7875	-17.387417	0.000035	0.347811	0.058921	0.000007
1569	1.5602e+02	-8.7664	-17.381307	0.000031	0.306892	0.051989	0.000006
1570	1.5612e+02	-8.7496	-17.367457	0.000070	0.695621	0.117841	0.000014
1571	1.5622e+02	-8.7292	-17.358495	0.000045	0.450108	0.076250	0.000009
1572	1.5631e+02	-8.7097	-17.345868	0.000063	0.634243	0.107444	0.000013
1573	1.5641e+02	-8.6877	-17.334462	0.000057	0.572864	0.097046	0.000011
1574	1.5651e+02	-8.6682	-17.326315	0.000041	0.409189	0.069318	0.000008
1575	1.5661e+02	-8.6485	-17.316539	0.000049	0.491027	0.083182	0.000010
1576	1.5671e+02	-8.6292	-17.302282	0.000072	0.716081	0.121307	0.000014
1577	1.5681e+02	-8.6087	-17.294135	0.000041	0.409189	0.069318	0.000008
1578	1.5691e+02	-8.5887	-17.281915	0.000061	0.613783	0.103978	0.000012
1579	1.5701e+02	-8.5678	-17.272546	0.000047	0.470567	0.079716	0.000009
1580	1.5711e+02	-8.5488	-17.262770	0.000049	0.491027	0.083182	0.000010
1581	1.5721e+02	-8.5289	-17.251364	0.000057	0.572864	0.097046	0.000011
1582	1.5731e+02	-8.5069	-17.241588	0.000049	0.491027	0.083182	0.000010
1583	1.5741e+02	-8.4899	-17.231812	0.000049	0.491027	0.083182	0.000010
1584	1.5751e+02	-8.4689	-17.218370	0.000068	0.675162	0.114375	0.000014
1585	1.5761e+02	-8.4496	-17.206149	0.000061	0.613783	0.103978	0.000012
1586	1.5771e+02	-8.4286	-17.194744	0.000057	0.572864	0.097046	0.000011
1587	1.5781e+02	-8.4094	-17.186190	0.000043	0.429648	0.072784	0.000009
1588	1.5791e+02	-8.3893	-17.173562	0.000063	0.634243	0.107444	0.000013
1589	1.5801e+02	-8.3698	-17.163786	0.000049	0.491027	0.083182	0.000010
1590	1.5811e+02	-8.3505	-17.153195	0.000053	0.531946	0.090114	0.000011
1591	1.5821e+02	-8.3299	-17.142604	0.000053	0.531946	0.090114	0.000011
1592	1.5830e+02	-8.3123	-17.129976	0.000063	0.634243	0.107444	0.000013
1593	1.5840e+02	-8.2881	-17.115312	0.000074	0.736540	0.124773	0.000015
1594	1.5850e+02	-8.2682	-17.101462	0.000070	0.695621	0.117841	0.000014
1595	1.5860e+02	-8.2504	-17.087205	0.000072	0.716081	0.121307	0.000014
1596	1.5870e+02	-8.2289	-17.077836	0.000047	0.470567	0.079716	0.000009
1597	1.5880e+02	-8.2092	-17.062765	0.000076	0.756999	0.128239	0.000015
1598	1.5890e+02	-8.1911	-17.058284	0.000023	0.225054	0.038125	0.000005
1599	1.5900e+02	-8.1689	-17.042805	0.000078	0.777459	0.131705	0.000016
1600	1.5910e+02	-8.1503	-17.022845	0.000100	1.002513	0.169830	0.000020
1601	1.5920e+02	-8.1320	-17.013884	0.000045	0.450108	0.076250	0.000009
1602	1.5930e+02	-8.1104	-17.000849	0.000065	0.654702	0.110910	0.000013
1603	1.5940e+02	-8.0896	-16.985370	0.000078	0.777459	0.131705	0.000016
1604	1.5950e+02	-8.0722	-16.978038	0.000037	0.368270	0.062387	0.000007
1605	1.5960e+02	-8.0496	-16.960929	0.000086	0.859297	0.145569	0.000017
1606	1.5970e+02	-8.0317	-16.944635	0.000082	0.818378	0.138637	0.000016
1607	1.5980e+02	-8.0142	-16.933230	0.000057	0.572864	0.097046	0.000011
1608	1.5990e+02	-7.9921	-16.917344	0.000080	0.797918	0.135171	0.000016
1609	1.6000e+02	-7.9701	-16.903087	0.000072	0.716081	0.121307	0.000014
1610	1.6010e+02	-7.9521	-16.893718	0.000047	0.470567	0.079716	0.000009
1611	1.6019e+02	-7.9312	-16.879053	0.000074	0.736540	0.124773	0.000015
1612	1.6029e+02	-7.9109	-16.863167	0.000080	0.797918	0.135171	0.000016
1613	1.6039e+02	-7.8915	-16.849725	0.000068	0.675162	0.114375	0.000014
1614	1.6049e+02	-7.8719	-16.837097	0.000063	0.634243	0.107444	0.000013
1615	1.6059e+02	-7.8515	-16.820803	0.000082	0.818378	0.138637	0.000016
1616	1.6069e+02	-7.8331	-16.806954	0.000070	0.695621	0.117841	0.000014
1617	1.6079e+02	-7.8137	-16.791882	0.000076	0.756999	0.128239	0.000015
1618	1.6089e+02	-7.7930	-16.782513	0.000047	0.470567	0.079716	0.000009
1619	1.6099e+02	-7.7713	-16.767034	0.000078	0.777459	0.131705	0.000016
1620	1.6109e+02	-7.7521	-16.748704	0.000092	0.920675	0.155967	0.000018
1621	1.6119e+02	-7.7319	-16.732817	0.000080	0.797918	0.135171	0.000016
1622	1.6129e+02	-7.7112	-16.718560	0.000072	0.716081	0.121307	0.000014
1623	1.6139e+02	-7.6907	-16.702674	0.000080	0.797918	0.135171	0.000016
1624	1.6149e+02	-7.6727	-16.684344	0.000092	0.920675	0.155967	0.000018
1625	1.6159e+02	-7.6537	-16.664791	0.000098	0.982053	0.166364	0.000020
1626	1.6169e+02	-7.6318	-16.650127	0.000074	0.736540	0.124773	0.000015
1627	1.6179e+02	-7.6118	-16.631796	0.000092	0.920675	0.155967	0.000018
1628	1.6189e+02	-7.5903	-16.615095	0.000084	0.838837	0.142103	0.000017
1629	1.6199e+02	-7.5723	-16.593914	0.000106	1.063891	0.180228	0.000021
1630	1.6209e+02	-7.5537	-16.581286	0.000063	0.634243	0.107444	0.000013
1631	1.6219e+02	-7.5331	-16.563363	0.000090	0.900216	0.152501	0.000018
1632	1.6228e+02	-7.5141	-16.545032	0.000092	0.920675	0.155967	0.000018
1633	1.6238e+02	-7.4927	-16.529961	0.000076	0.756999	0.128239	0.000015
1634	1.6248e+02	-7.4746	-16.510816	0.000096	0.961594	0.162898	0.000019
1635	1.6258e+02	-7.4548	-16.491671	0.000096	0.961594	0.162898	0.000019
1636	1.6268e+02	-7.4323	-16.469674	0.000110	1.104810	0.187160	0.000022
1637	1.6278e+02	-7.4149	-16.452566	0.000086	0.859297	0.145569	0.000017
1638	1.6288e+02	-7.3962	-16.434643	0.000090	0.900216	0.152501	0.000018
1639	1.6298e+02	-7.3726	-16.415497	0.000096	0.961594	0.162898	0.000019
1640	1.6308e+02	-7.3531	-16.399204	0.000082	0.818378	0.138637	0.000016
1641	1.6318e+02	-7.3339	-16.384539	0.000074	0.736540	0.124773	0.000015
1642	1.6328e+02	-7.3117	-16.362950	0.000108	1.084351	0.183694	0.000022
1643	1.6338e+02	-7.2928	-16.352359	0.000053	0.531946	0.090114	0.000011
1644	1.6348e+02	-7.2734	-16.335251	0.000086	0.859297	0.145569	0.000017
1645	1.6358e+02	-7.2543	-16.323845	0.000057	0.572864	0.097046	0.000011
1646	1.6368e+02	-7.2359	-16.302256	0.000108	1.084351	0.183694	0.000022
1647	1.6378e+02	-7.2154	-16.290443	0.000059	0.593324	0.100512	0.000012
1648	1.6388e+02	-7.1960	-16.277408	0.000065	0.654702	0.110910	0.000013
1649	1.6398e+02	-7.1753	-16.258263	0.000096	0.961594	0.162898	0.000019
1650	1.6408e+02	-7.1528	-16.243192	0.000076	0.756999	0.128239	0.000015
1651	1.6418e+02	-7.1347	-16.228120	0.000076	0.756999	0.128239	0.000015
1652	1.6427e+02	-7.1160	-16.211419	0.000084	0.838837	0.142103	0.000017
1653	1.6437e+02	-7.0940	-16.195125	0.000082	0.818378	0.138637	0.000016
1654	1.6447e+02	-7.0747	-16.182498	0.000063	0.634243	0.107444	0.000013
1655	1.6457e+02	-7.0544	-16.167019	0.000078	0.777459	0.131705	0.000016
1656	1.6467e+02	-7.0346	-16.151132	0.000080	0.797918	0.135171	0.000016
1657	1.6477e+02	-7.0152	-16.131172	0.000100	1.002513	0.169830	0.000020
1658	1.6487e+02	-6.9980	-16.117323	0.000070	0.695621	0.117841	0.000014
1659	1.6497e+02	-6.9759	-16.103473	0.000070	0.695621	0.117841	0.000014
1660	1.6507e+02	-6.9571	-16.088809	0.000074	0.736540	0.124773	0.000015
1661	1.6517e+02	-6.9363	-16.070478	0.000092	0.920675	0.155967	0.000018
1662	1.6527e+02	-6.9167	-16.048482	0.000110	1.104810	0.187160	0.000022
1663	1.6537e+02	-6.8980	-16.035040	0.000068	0.675162	0.114375	0.000014
1664	1.6547e+02	-6.8765	-16.017931	0.000086	0.859297	0.145569	0.000017
1665	1.6557e+02	-6.8568	-15.999601	0.000092	0.920675	0.155967	0.000018
1666	1.6567e+02	-6.8369	-15.982900	0.000084	0.838837	0.142103	0.000017
1667	1.6577e+02	-6.8181	-15.962533	0.000102	1.022972	0.173296	0.000020
1668	1.6587e+02	-6.7968	-15.943795	0.000094	0.941134	0.159432	0.000019
1669	1.6597e+02	-6.7773	-15.923020	0.000104	1.043432	0.176762	0.000021
1670	1.6607e+02	-6.7568	-15.905505	0.000088	0.879756	0.149035	0.000018
1671	1.6616e+02	-6.7360	-15.888804	0.000084	0.838837	0.142103	0.000017
1672	1.6626e+02	-6.7152	-15.866807	0.000110	1.104810	0.187160	0.000022
1673	1.6636e+02	-6.6973	-15.848884	0.000090	0.900216	0.152501	0.000018
1674	1.6646e+02	-6.6731	-15.831368	0.000088	0.879756	0.149035	0.000018
1675	1.6656e+02	-6.6551	-15.809372	0.000110	1.104810	0.187160	0.000022
1676	1.6666e+02	-6.6383	-15.793893	0.000078	0.777459	0.131705	0.000016
1677	1.6676e+02	-6.6180	-15.773933	0.000100	1.002513	0.169830	0.000020
1678	1.6686e+02	-6.5952	-15.756010	0.000090	0.900216	0.152501	0.000018
1679	1.6696e+02	-6.5784	-15.736457	0.000098	0.982053	0.166364	0.000020
1680	1.6706e+02	-6.5575	-15.716498	0.000100	1.002513	0.169830	0.000020
1681	1.6716e+02	-6.5384	-15.696945	0.000098	0.982053	0.166364	0.000020
1682	1.6726e+02	-6.5161	-15.677393	0.000098	0.982053	0.166364	0.000020
1683	1.6736e+02	-6.4966	-15.659877	0.000088	0.879756	0.149035	0.000018
1684	1.6746e+02	-6.4790	-15.640732	0.000096	0.961594	0.162898	0.000019
1685	1.6756e+02	-6.4589	-15.617513	0.000117	1.166188	0.197558	0.000023
1686	1.6766e+02	-6.4359	-15.600812	0.000084	0.838837	0.142103	0.000017
1687	1.6776e+02	-6.4185	-15.576779	0.000121	1.207107	0.204490	0.000024
1688	1.6786e+02	-6.3995	-15.560078	0.000084	0.838837	0.142103	0.000017
1689	1.6796e+02	-6.3788	-15.537674	0.000113	1.125269	0.190626	0.000023
1690	1.6806e+02	-6.3586	-15.516492	0.000106	1.063891	0.180228	0.000021
1691	1.6816e+02	-6.3394	-15.497347	0.000096	0.961594	0.162898	0.000019
1692	1.6825e+02	-6.3184	-15.478202	0.000096	0.961594	0.162898	0.000019
1693	1.6835e+02	-6.2972	-15.454576	0.000119	1.186648	0.201024	0.000024
1694	1.6845e+02	-6.2785	-15.435024	0.000098	0.982053	0.166364	0.000020
1695	1.6855e+02	-6.2602	-15.417508	0.000088	0.879756	0.149035	0.000018
1696	1.6865e+02	-6.2410	-15.396326	0.000106	1.063891	0.180228	0.000021
1697	1.6875e+02	-6.2206	-15.371886	0.000123	1.227567	0.207955	0.000025
1698	1.6885e+02	-6.1984	-15.348667	0.000117	1.166188	0.197558	0.000023
1699	1.6895e+02	-6.1787	-15.325856	0.000115	1.145729	0.194092	0.000023
1700	1.6905e+02	-6.1589	-15.304674	0.000106	1.063891	0.180228	0.000021
1701	1.6915e+02	-6.1388	-15.283900	0.000104	1.043432	0.176762	0.000021
1702	1.6925e+02	-6.1181	-15.261089	0.000115	1.145729	0.194092	0.000023
1703	1.6935e+02	-6.0999	-15.240314	0.000104	1.043432	0.176762	0.000021
1704	1.6945e+02	-6.0786	-15.220354	0.000100	1.002513	0.169830	0.000020
1705	1.6955e+02	-6.0593	-15.198358	0.000110	1.104810	0.187160	0.000022
1706	1.6965e+02	-6.0347	-15.178398	0.000100	1.002513	0.169830	0.000020
1707	1.6975e+02	-6.0187	-15.159253	0.000096	0.961594	0.162898	0.000019
1708	1.6985e+02	-5.9975	-15.139293	0.000100	1.002513	0.169830	0.000020
1709	1.6995e+02	-5.9777	-15.116075	0.000117	1.166188	0.197558	0.000023
1710	1.7005e+02	-5.9603	-15.094893	0.000106	1.063891	0.180228	0.000021
1711	1.7015e+02	-5.9412	-15.078192	0.000084	0.838837	0.142103	0.000017
1712	1.7024e+02	-5.9209	-15.054566	0.000119	1.186648	0.201024	0.000024
1713	1.7034e+02	-5.8992	-15.034606	0.000100	1.002513	0.169830	0.000020
1714	1.7044e+02	-5.8797	-15.015461	0.000096	0.961594	0.162898	0.000019
1715	1.7054e+02	-5.8569	-14.990613	0.000125	1.248026	0.211421	0.000025
1716	1.7064e+02	-5.8398	-14.973505	0.000086	0.859297	0.145569	0.000017
1717	1.7074e+02	-5.8197	-14.950286	0.000117	1.166188	0.197558	0.000023
1718	1.7084e+02	-5.8001	-14.927475	0.000115	1.145729	0.194092	0.000023
1719	1.7094e+02	-5.7794	-14.910774	0.000084	0.838837	0.142103	0.000017
1720	1.7104e+02	-5.7589	-14.889592	0.000106	1.063891	0.180228	0.000021
1721	1.7114e+02	-5.7378	-14.868818	0.000104	1.043432	0.176762	0.000021
1722	1.7124e+02	-5.7205	-14.844785	0.000121	1.207107	0.204490	0.000024
1723	1.7134e+02	-5.6979	-14.822381	0.000113	1.125269	0.190626	0.000023
1724	1.7144e+02	-5.6837	-14.802421	0.000100	1.002513	0.169830	0.000020
1725	1.7154e+02	-5.6584	-14.782461	0.000100	1.002513	0.169830	0.000020
1726	1.7164e+02	-5.6399	-14.758428	0.000121	1.207107	0.204490	0.000024
1727	1.7174e+02	-5.6189	-14.731136	0.000137	1.370783	0.232217	0.000027
1728	1.7184e+02	-5.6012	-14.710769	0.000102	1.022972	0.173296	0.000020
1729	1.7194e+02	-5.5792	-14.681440	0.000147	1.473080	0.249547	0.000029
1730	1.7204e+02	-5.5637	-14.653334	0.000141	1.411702	0.239149	0.000028
1731	1.7213e+02	-5.5408	-14.631744	0.000108	1.084351	0.183694	0.000022
1732	1.7223e+02	-5.5212	-14.606489	0.000127	1.268486	0.214887	0.000025
1733	1.7233e+02	-5.5006	-14.582049	0.000123	1.227567	0.207955	0.000025
1734	1.7243e+02	-5.4814	-14.551091	0.000155	1.554918	0.263410	0.000031
1735	1.7253e+02	-5.4616	-14.526650	0.000123	1.227567	0.207955	0.000025
1736	1.7263e+02	-5.4385	-14.499765	0.000135	1.350323	0.228751	0.000027
1737	1.7273e+02	-5.4221	-14.474510	0.000127	1.268486	0.214887	0.000025
1738	1.7283e+02	-5.3999	-14.447626	0.000135	1.350323	0.228751	0.000027
1739	1.7293e+02	-5.3818	-14.420334	0.000137	1.370783	0.232217	0.000027
1740	1.7303e+02	-5.3632	-14.395078	0.000127	1.268486	0.214887	0.000025
1741	1.7313e+02	-5.3441	-14.365342	0.000149	1.493539	0.253012	0.000030
1742	1.7323e+02	-5.3239	-14.336014	0.000147	1.473080	0.249547	0.000029
1743	1.7333e+02	-5.3012	-14.307907	0.000141	1.411702	0.239149	0.000028
1744	1.7343e+02	-5.2837	-14.285096	0.000115	1.145729	0.194092	0.000023
1745	1.7353e+02	-5.2608	-14.258211	0.000135	1.350323	0.228751	0.000027
1746	1.7363e+02	-5.2420	-14.232549	0.000129	1.288945	0.218353	0.000026
1747	1.7373e+02	-5.2209	-14.205257	0.000137	1.370783	0.232217	0.000027
1748	1.7383e+02	-5.2014	-14.180816	0.000123	1.227567	0.207955	0.000025
1749	1.7393e+02	-5.1834	-14.151895	0.000145	1.452621	0.246081	0.000029
1750	1.7403e+02	-5.1617	-14.131120	0.000104	1.043432	0.176762	0.000021
1751	1.7413e+02	-5.1431	-14.099348	0.000160	1.595837	0.270342	0.000032
1752	1.7422e+02	-5.1230	-14.080610	0.000094	0.941134	0.159432	0.000019
1753	1.7432e+02	-5.1021	-14.052503	0.000141	1.411702	0.239149	0.000028
1754	1.7442e+02	-5.0830	-14.026433	0.000131	1.309404	0.221819	0.000026
1755	1.7452e+02	-5.0634	-14.004030	0.000113	1.125269	0.190626	0.000023
1756	1.7462e+02	-5.0427	-13.978774	0.000127	1.268486	0.214887	0.000025
1757	1.7472e+02	-5.0262	-13.947816	0.000155	1.554918	0.263410	0.000031
1758	1.7482e+02	-5.0050	-13.927857	0.000100	1.002513	0.169830	0.000020
1759	1.7492e+02	-4.9861	-13.896491	0.000158	1.575377	0.266876	0.000032
1760	1.7502e+02	-4.9643	-13.871236	0.000127	1.268486	0.214887	0.000025
1761	1.7512e+02	-4.9442	-13.844759	0.000133	1.329864	0.225285	0.000027
1762	1.7522e+02	-4.9258	-13.817059	0.000139	1.391242	0.235683	0.000028
1763	1.7532e+02	-4.9043	-13.792211	0.000125	1.248026	0.211421	0.000025
1764	1.7542e+02	-4.8849	-13.763697	0.000143	1.432161	0.242615	0.000029
1765	1.7552e+02	-4.8628	-13.737628	0.000131	1.309404	0.221819	0.000026
1766	1.7562e+02	-4.8457	-13.711150	0.000133	1.329864	0.225285	0.000027
1767	1.7572e+02	-4.8248	-13.688746	0.000113	1.125269	0.190626	0.000023
1768	1.7582e+02	-4.8029	-13.661047	0.000139	1.391242	0.235683	0.000028
1769	1.7592e+02	-4.7832	-13.631311	0.000149	1.493539	0.253012	0.000030
1770	1.7602e+02	-4.7623	-13.607278	0.000121	1.207107	0.204490	0.000024
1771	1.7612e+02	-4.7470	-13.582023	0.000127	1.268486	0.214887	0.000025
1772	1.7621e+02	-4.7258	-13.554323	0.000139	1.391242	0.235683	0.000028
1773	1.7631e+02	-4.7040	-13.526624	0.000139	1.391242	0.235683	0.000028
1774	1.7641e+02	-4.6851	-13.498925	0.000139	1.391242	0.235683	0.000028
1775	1.7651e+02	-4.6667	-13.473262	0.000129	1.288945	0.218353	0.000026
1776	1.7661e+02	-4.6455	-13.446378	0.000135	1.350323	0.228751	0.000027
1777	1.7671e+02	-4.6257	-13.417049	0.000147	1.473080	0.249547	0.000029
1778	1.7681e+02	-4.6060	-13.391794	0.000127	1.268486	0.214887	0.000025
1779	1.7691e+02	-4.5866	-13.363280	0.000143	1.432161	0.242615	0.000029
1780	1.7701e+02	-4.5638	-13.339654	0.000119	1.186648	0.201024	0.000024
1781	1.7711e+02	-4.5454	-13.311140	0.000143	1.432161	0.242615	0.000029
1782	1.7721e+02	-4.5242	-13.282626	0.000143	1.432161	0.242615	0.000029
1783	1.7731e+02	-4.5062	-13.258593	0.000121	1.207107	0.204490	0.000024
1784	1.7741e+02	-4.4824	-13.230486	0.000141	1.411702	0.239149	0.000028
1785	1.7751e+02	-4.4640	-13.205638	0.000125	1.248026	0.211421	0.000025
1786	1.7761e+02	-4.4461	-13.176717	0.000145	1.452621	0.246081	0.000029
1787	1.7771e+02	-4.4254	-13.148203	0.000143	1.432161	0.242615	0.000029
1788	1.7781e+02	-4.4070	-13.117652	0.000153	1.534458	0.259944	0.000031
1789	1.7791e+02	-4.3861	-13.094026	0.000119	1.186648	0.201024	0.000024
1790	1.7801e+02	-4.3638	-13.060217	0.000170	1.698134	0.287672	0.000034
1791	1.7810e+02	-4.3460	-13.032925	0.000137	1.370783	0.232217	0.000027
1792	1.7820e+02	-4.3256	-13.001560	0.000158	1.575377	0.266876	0.000032
1793	1.7830e+02	-4.3045	-12.973046	0.000143	1.432161	0.242615	0.000029
1794	1.7840e+02	-4.2841	-12.938014	0.000176	1.759512	0.298069	0.000035
1795	1.7850e+02	-4.2637	-12.912759	0.000127	1.268486	0.214887	0.000025
1796	1.7860e+02	-4.2435	-12.885467	0.000137	1.370783	0.232217	0.000027
1797	1.7870e+02	-4.2255	-12.858175	0.000137	1.370783	0.232217	0.000027
1798	1.7880e+02	-4.2065	-12.825588	0.000164	1.636756	0.277274	0.000033
1799	1.7890e+02	-4.1876	-12.795852	0.000149	1.493539	0.253012	0.000030
1800	1.7900e+02	-4.1638	-12.766116	0.000149	1.493539	0.253012	0.000030
1801	1.7910e+02	-4.1476	-12.739638	0.000133	1.329864	0.225285	0.000027
1802	1.7920e+02	-4.1265	-12.708680	0.000155	1.554918	0.263410	0.000031
1803	1.7930e+02	-4.1068	-12.673241	0.000178	1.779972	0.301535	0.000036
1804	1.7940e+02	-4.0871	-12.644320	0.000145	1.452621	0.246081	0.000029
1805	1.7950e+02	-4.0683	-12.611325	0.000166	1.657215	0.280740	0.000033
1806	1.7960e+02	-4.0453	-12.582404	0.000145	1.452621	0.246081	0.000029
1807	1.7970e+02	-4.0293	-12.553075	0.000147	1.473080	0.249547	0.000029
1808	1.7980e+02	-4.0074	-12.524969	0.000141	1.411702	0.239149	0.000028
1809	1.7990e+02	-3.9861	-12.496047	0.000145	1.452621	0.246081	0.000029
1810	1.8000e+02	-3.9680	-12.467533	0.000143	1.432161	0.242615	0.000029
1811	1.8009e+02	-3.9453	-12.439019	0.000143	1.432161	0.242615	0.000029
1812	1.8019e+02	-3.9282	-12.414579	0.000123	1.227567	0.207955	0.000025
1813	1.8029e+02	-3.9059	-12.385250	0.000147	1.473080	0.249547	0.000029
1814	1.8039e+02	-3.8877	-12.359995	0.000127	1.268486	0.214887	0.000025
1815	1.8049e+02	-3.8684	-12.329444	0.000153	1.534458	0.259944	0.000031
1816	1.8059e+02	-3.8468	-12.301745	0.000139	1.391242	0.235683	0.000028
1817	1.8069e+02	-3.8284	-12.276082	0.000129	1.288945	0.218353	0.000026
1818	1.8079e+02	-3.8074	-12.247568	0.000143	1.432161	0.242615	0.000029
1819	1.8089e+02	-3.7888	-12.220277	0.000137	1.370783	0.232217	0.000027
1820	1.8099e+02	-3.7691	-12.191763	0.000143	1.432161	0.242615	0.000029
1821	1.8109e+02	-3.7491	-12.165693	0.000131	1.309404	0.221819	0.000026
1822	1.8119e+02	-3.7297	-12.136364	0.000147	1.473080	0.249547	0.000029
1823	1.8129e+02	-3.7102	-12.108257	0.000141	1.411702	0.239149	0.000028
1824	1.8139e+02	-3.6884	-12.085854	0.000113	1.125269	0.190626	0.000023
1825	1.8149e+02	-3.6676	-12.057747	0.000141	1.411702	0.239149	0.000028
1826	1.8159e+02	-3.6499	-12.029640	0.000141	1.411702	0.239149	0.000028
1827	1.8169e+02	-3.6280	-12.000312	0.000147	1.473080	0.249547	0.000029
1828	1.8179e+02	-3.6089	-11.974649	0.000129	1.288945	0.218353	0.000026
1829	1.8189e+02	-3.5873	-11.944098	0.000153	1.534458	0.259944	0.000031
1830	1.8199e+02	-3.5686	-11.915177	0.000145	1.452621	0.246081	0.000029
1831	1.8209e+02	-3.5489	-11.885034	0.000151	1.513999	0.256478	0.000030
1832	1.8218e+02	-3.5298	-11.857334	0.000139	1.391242	0.235683	0.000028
1833	1.8228e+02	-3.5107	-11.825969	0.000158	1.575377	0.266876	0.000032
1834	1.8238e+02	-3.4903	-11.795011	0.000155	1.554918	0.263410	0.000031
1835	1.8248e+02	-3.4696	-11.764460	0.000153	1.534458	0.259944	0.000031
1836	1.8258e+02	-3.4518	-11.734317	0.000151	1.513999	0.256478	0.000030
1837	1.8268e+02	-3.4291	-11.705396	0.000145	1.452621	0.246081	0.000029
1838	1.8278e+02	-3.4085	-11.670771	0.000174	1.739053	0.294604	0.000035
1839	1.8288e+02	-3.3904	-11.642665	0.000141	1.411702	0.239149	0.000028
1840	1.8298e+02	-3.3701	-11.612114	0.000153	1.534458	0.259944	0.000031
1841	1.8308e+02	-3.3503	-11.577083	0.000176	1.759512	0.298069	0.000035
1842	1.8318e+02	-3.3302	-11.547347	0.000149	1.493539	0.253012	0.000030
1843	1.8328e+02	-3.3099	-11.516389	0.000155	1.554918	0.263410	0.000031
1844	1.8338e+02	-3.2901	-11.484616	0.000160	1.595837	0.270342	0.000032
1845	1.8348e+02	-3.2686	-11.458139	0.000133	1.329864	0.225285	0.000027
1846	1.8358e+02	-3.2504	-11.425551	0.000164	1.636756	0.277274	0.000033
1847	1.8368e+02	-3.2312	-11.395001	0.000153	1.534458	0.259944	0.000031
1848	1.8378e+02	-3.2104	-11.365672	0.000147	1.473080	0.249547	0.000029
1849	1.8388e+02	-3.1899	-11.335121	0.000153	1.534458	0.259944	0.000031
1850	1.8398e+02	-3.1698	-11.298868	0.000182	1.820891	0.308467	0.000036
1851	1.8407e+02	-3.1487	-11.271576	0.000137	1.370783	0.232217	0.000027
1852	1.8417e+02	-3.1298	-11.236137	0.000178	1.779972	0.301535	0.000036
1853	1.8427e+02	-3.1114	-11.204772	0.000158	1.575377	0.266876	0.000032
1854	1.8437e+02	-3.0913	-11.175036	0.000149	1.493539	0.253012	0.000030
1855	1.8447e+02	-3.0696	-11.140411	0.000174	1.739053	0.294604	0.000035
1856	1.8457e+02	-3.0492	-11.106195	0.000172	1.718593	0.291138	0.000034
1857	1.8467e+02	-3.0310	-11.070756	0.000178	1.779972	0.301535	0.000036
1858	1.8477e+02	-3.0122	-11.041020	0.000149	1.493539	0.253012	0.000030
1859	1.8487e+02	-2.9901	-11.011691	0.000147	1.473080	0.249547	0.000029
1860	1.8497e+02	-2.9716	-10.973808	0.000190	1.902728	0.322331	0.000038
1861	1.8507e+02	-2.9509	-10.945702	0.000141	1.411702	0.239149	0.000028
1862	1.8517e+02	-2.9308	-10.911078	0.000174	1.739053	0.294604	0.000035
1863	1.8527e+02	-2.9116	-10.878083	0.000166	1.657215	0.280740	0.000033
1864	1.8537e+02	-2.8887	-10.840607	0.000188	1.882269	0.318865	0.000038
1865	1.8547e+02	-2.8732	-10.812501	0.000141	1.411702	0.239149	0.000028
1866	1.8557e+02	-2.8525	-10.773396	0.000196	1.964107	0.332729	0.000039
1867	1.8567e+02	-2.8352	-10.738772	0.000174	1.739053	0.294604	0.000035
1868	1.8577e+02	-2.8142	-10.705777	0.000166	1.657215	0.280740	0.000033
1869	1.8587e+02	-2.7940	-10.668709	0.000186	1.861809	0.315399	0.000037
1870	1.8597e+02	-2.7701	-10.636529	0.000162	1.616296	0.273808	0.000032
1871	1.8606e+02	-2.7501	-10.601905	0.000174	1.739053	0.294604	0.000035
1872	1.8616e+02	-2.7328	-10.568910	0.000166	1.657215	0.280740	0.000033
1873	1.8626e+02	-2.7122	-10.533471	0.000178	1.779972	0.301535	0.000036
1874	1.8636e+02	-2.6917	-10.500884	0.000164	1.636756	0.277274	0.000033
1875	1.8646e+02	-2.6732	-10.472370	0.000143	1.432161	0.242615	0.000029
1876	1.8656e+02	-2.6536	-10.437746	0.000174	1.739053	0.294604	0.000035
1877	1.8666e+02	-2.6318	-10.412083	0.000129	1.288945	0.218353	0.000026
1878	1.8676e+02	-2.6116	-10.370534	0.000209	2.086863	0.353524	0.000042
1879	1.8686e+02	-2.5919	-10.337947	0.000164	1.636756	0.277274	0.000033
1880	1.8696e+02	-2.5736	-10.304952	0.000166	1.657215	0.280740	0.000033
1881	1.8706e+02	-2.5533	-10.271142	0.000170	1.698134	0.287672	0.000034
1882	1.8716e+02	-2.5332	-10.234074	0.000186	1.861809	0.315399	0.000037
1883	1.8726e+02	-2.5118	-10.199450	0.000174	1.739053	0.294604	0.000035
1884	1.8736e+02	-2.4925	-10.170529	0.000145	1.452621	0.246081	0.000029
1885	1.8746e+02	-2.4733	-10.130609	0.000201	2.005026	0.339661	0.000040
1886	1.8756e+02	-2.4530	-10.100059	0.000153	1.534458	0.259944	0.000031
1887	1.8766e+02	-2.4351	-10.066249	0.000170	1.698134	0.287672	0.000034
1888	1.8776e+02	-2.4126	-10.034476	0.000160	1.595837	0.270342	0.000032
1889	1.8786e+02	-2.3921	-9.998223	0.000182	1.820891	0.308467	0.000036
1890	1.8796e+02	-2.3730	-9.964821	0.000168	1.677674	0.284206	0.000034
1891	1.8806e+02	-2.3543	-9.926531	0.000192	1.923188	0.325797	0.000038
1892	1.8815e+02	-2.3328	-9.894351	0.000162	1.616296	0.273808	0.000032
1893	1.8825e+02	-2.3164	-9.858097	0.000182	1.820891	0.308467	0.000036
1894	1.8835e+02	-2.2935	-9.817770	0.000203	2.025485	0.343126	0.000041
1895	1.8845e+02	-2.2734	-9.781517	0.000182	1.820891	0.308467	0.000036
1896	1.8855e+02	-2.2535	-9.739560	0.000211	2.107323	0.356990	0.000042
1897	1.8865e+02	-2.2320	-9.703307	0.000182	1.820891	0.308467	0.000036
1898	1.8875e+02	-2.2122	-9.663387	0.000201	2.005026	0.339661	0.000040
1899	1.8885e+02	-2.1957	-9.623060	0.000203	2.025485	0.343126	0.000041
1900	1.8895e+02	-2.1745	-9.582326	0.000205	2.045944	0.346592	0.000041
1901	1.8905e+02	-2.1527	-9.545258	0.000186	1.861809	0.315399	0.000037
1902	1.8915e+02	-2.1356	-9.504931	0.000203	2.025485	0.343126	0.000041
1903	1.8925e+02	-2.1167	-9.464604	0.000203	2.025485	0.343126	0.000041
1904	1.8935e+02	-2.0923	-9.426314	0.000192	1.923188	0.325797	0.000038
1905	1.8945e+02	-2.0745	-9.382728	0.000219	2.189161	0.370854	0.000044
1906	1.8955e+02	-2.0562	-9.343623	0.000196	1.964107	0.332729	0.000039
1907	1.8965e+02	-2.0352	-9.299223	0.000223	2.230079	0.377786	0.000045
1908	1.8975e+02	-2.0157	-9.259304	0.000201	2.005026	0.339661	0.000040
1909	1.8985e+02	-1.9981	-9.223050	0.000182	1.820891	0.308467	0.000036
1910	1.8995e+02	-1.9743	-9.179872	0.000217	2.168701	0.367388	0.000043
1911	1.9004e+02	-1.9560	-9.137508	0.000213	2.127782	0.360456	0.000043
1912	1.9014e+02	-1.9341	-9.095959	0.000209	2.086863	0.353524	0.000042
1913	1.9024e+02	-1.9155	-9.060520	0.000178	1.779972	0.301535	0.000036
1914	1.9034e+02	-1.8965	-9.016935	0.000219	2.189161	0.370854	0.000044
1915	1.9044e+02	-1.8761	-8.974571	0.000213	2.127782	0.360456	0.000043
1916	1.9054e+02	-1.8588	-8.935466	0.000196	1.964107	0.332729	0.000039
1917	1.9064e+02	-1.8369	-8.897176	0.000192	1.923188	0.325797	0.000038
1918	1.9074e+02	-1.8178	-8.860108	0.000186	1.861809	0.315399	0.000037
1919	1.9084e+02	-1.7955	-8.812449	0.000239	2.393755	0.405513	0.000048
1920	1.9094e+02	-1.7757	-8.777417	0.000176	1.759512	0.298069	0.000035
1921	1.9104e+02	-1.7559	-8.735054	0.000213	2.127782	0.360456	0.000043
1922	1.9114e+02	-1.7363	-8.693912	0.000207	2.066404	0.350058	0.000041
1923	1.9124e+02	-1.7154	-8.655622	0.000192	1.923188	0.325797	0.000038
1924	1.9134e+02	-1.6967	-8.612036	0.000219	2.189161	0.370854	0.000044
1925	1.9144e+02	-1.6782	-8.575783	0.000182	1.820891	0.308467	0.000036
1926	1.9154e+02	-1.6564	-8.532604	0.000217	2.168701	0.367388	0.000043
1927	1.9164e+02	-1.6374	-8.491870	0.000205	2.045944	0.346592	0.000041
1928	1.9174e+02	-1.6156	-8.446655	0.000227	2.270998	0.384718	0.000045
1929	1.9184e+02	-1.5960	-8.407550	0.000196	1.964107	0.332729	0.000039
1930	1.9194e+02	-1.5762	-8.365187	0.000213	2.127782	0.360456	0.000043
1931	1.9203e+02	-1.5565	-8.322008	0.000217	2.168701	0.367388	0.000043
1932	1.9213e+02	-1.5378	-8.282496	0.000198	1.984566	0.336195	0.000040
1933	1.9223e+02	-1.5174	-8.239318	0.000217	2.168701	0.367388	0.000043
1934	1.9233e+02	-1.4967	-8.197362	0.000211	2.107323	0.356990	0.000042
1935	1.9243e+02	-1.4760	-8.153369	0.000221	2.209620	0.374320	0.000044
1936	1.9253e+02	-1.4563	-8.112634	0.000205	2.045944	0.346592	0.000041
1937	1.9263e+02	-1.4386	-8.071493	0.000207	2.066404	0.350058	0.000041
1938	1.9273e+02	-1.4171	-8.029129	0.000213	2.127782	0.360456	0.000043
1939	1.9283e+02	-1.3968	-7.987580	0.000209	2.086863	0.353524	0.000042
1940	1.9293e+02	-1.3738	-7.943180	0.000223	2.230079	0.377786	0.000045
1941	1.9303e+02	-1.3577	-7.900001	0.000217	2.168701	0.367388	0.000043
1942	1.9313e+02	-1.3383	-7.856416	0.000219	2.189161	0.370854	0.000044
1943	1.9323e+02	-1.3182	-7.817718	0.000194	1.943647	0.329263	0.000039
1944	1.9333e+02	-1.2956	-7.773725	0.000221	2.209620	0.374320	0.000044
1945	1.9343e+02	-1.2772	-7.730954	0.000215	2.148242	0.363922	0.000043
1946	1.9353e+02	-1.2565	-7.686554	0.000223	2.230079	0.377786	0.000045
1947	1.9363e+02	-1.2370	-7.644598	0.000211	2.107323	0.356990	0.000042
1948	1.9373e+02	-1.2189	-7.607122	0.000188	1.882269	0.318865	0.000038
1949	1.9383e+02	-1.1971	-7.557834	0.000248	2.475593	0.419377	0.000050
1950	1.9393e+02	-1.1777	-7.515470	0.000213	2.127782	0.360456	0.000043
1951	1.9403e+02	-1.1587	-7.473921	0.000209	2.086863	0.353524	0.000042
1952	1.9412e+02	-1.1403	-7.431558	0.000213	2.127782	0.360456	0.000043
1953	1.9422e+02	-1.1191	-7.388787	0.000215	2.148242	0.363922	0.000043
1954	1.9432e+02	-1.0989	-7.343572	0.000227	2.270998	0.384718	0.000045
1955	1.9442e+02	-1.0789	-7.297134	0.000233	2.332377	0.395115	0.000047
1956	1.9452e+02	-1.0608	-7.255993	0.000207	2.066404	0.350058	0.000041
1957	1.9462e+02	-1.0396	-7.208741	0.000237	2.373296	0.402047	0.000047
1958	1.9472e+02	-1.0162	-7.162711	0.000231	2.311917	0.391649	0.000046
1959	1.9482e+02	-0.9982	-7.113423	0.000248	2.475593	0.419377	0.000050
1960	1.9492e+02	-0.9797	-7.068615	0.000225	2.250539	0.381252	0.000045
1961	1.9502e+02	-0.9586	-7.020956	0.000239	2.393755	0.405513	0.000048
1962	1.9512e+02	-0.9416	-6.976149	0.000225	2.250539	0.381252	0.000045
1963	1.9522e+02	-0.9190	-6.933378	0.000215	2.148242	0.363922	0.000043
1964	1.9532e+02	-0.8983	-6.882460	0.000256	2.557431	0.433240	0.000051
1965	1.9542e+02	-0.8803	-6.835615	0.000235	2.352836	0.398581	0.000047
1966	1.9552e+02	-0.8590	-6.791215	0.000223	2.230079	0.377786	0.000045
1967	1.9562e+02	-0.8390	-6.744371	0.000235	2.352836	0.398581	0.000047
1968	1.9572e+02	-0.8201	-6.698341	0.000231	2.311917	0.391649	0.000046
1969	1.9582e+02	-0.8007	-6.649460	0.000246	2.455133	0.415911	0.000049
1970	1.9592e+02	-0.7796	-6.603023	0.000233	2.332377	0.395115	0.000047
1971	1.9601e+02	-0.7610	-6.552105	0.000256	2.557431	0.433240	0.000051
1972	1.9611e+02	-0.7397	-6.505668	0.000233	2.332377	0.395115	0.000047
1973	1.9621e+02	-0.7182	-6.455972	0.000250	2.496052	0.422843	0.000050
1974	1.9631e+02	-0.6993	-6.412386	0.000219	2.189161	0.370854	0.000044
1975	1.9641e+02	-0.6766	-6.364727	0.000239	2.393755	0.405513	0.000048
1976	1.9651e+02	-0.6603	-6.319105	0.000229	2.291458	0.388183	0.000046
1977	1.9661e+02	-0.6411	-6.273075	0.000231	2.311917	0.391649	0.000046
1978	1.9671e+02	-0.6219	-6.229082	0.000221	2.209620	0.374320	0.000044
1979	1.9681e+02	-0.6031	-6.185904	0.000217	2.168701	0.367388	0.000043
1980	1.9691e+02	-0.5841	-6.140282	0.000229	2.291458	0.388183	0.000046
1981	1.9701e+02	-0.5594	-6.095474	0.000225	2.250539	0.381252	0.000045
1982	1.9711e+02	-0.5415	-6.051481	0.000221	2.209620	0.374320	0.000044
1983	1.9721e+02	-0.5200	-6.003415	0.000241	2.414214	0.408979	0.000048
1984	1.9731e+02	-0.5013	-5.961866	0.000209	2.086863	0.353524	0.000042
1985	1.9741e+02	-0.4801	-5.920724	0.000207	2.066404	0.350058	0.000041
1986	1.9751e+02	-0.4601	-5.869806	0.000256	2.557431	0.433240	0.000051
1987	1.9761e+02	-0.4424	-5.826628	0.000217	2.168701	0.367388	0.000043
1988	1.9771e+02	-0.4210	-5.776525	0.000252	2.516512	0.426309	0.000050
1989	1.9781e+02	-0.4051	-5.731310	0.000227	2.270998	0.384718	0.000045
1990	1.9791e+02	-0.3844	-5.690168	0.000207	2.066404	0.350058	0.000041
1991	1.9800e+02	-0.3594	-5.644953	0.000227	2.270998	0.384718	0.000045
1992	1.9810e+02	-0.3421	-5.598516	0.000233	2.332377	0.395115	0.000047
1993	1.9820e+02	-0.3200	-5.549635	0.000246	2.455133	0.415911	0.000049
1994	1.9830e+02	-0.2999	-5.505642	0.000221	2.209620	0.374320	0.000044
1995	1.9840e+02	-0.2819	-5.462056	0.000219	2.189161	0.370854	0.000044
1996	1.9850e+02	-0.2637	-5.414805	0.000237	2.373296	0.402047	0.000047
1997	1.9860e+02	-0.2438	-5.369590	0.000227	2.270998	0.384718	0.000045
1998	1.9870e+02	-0.2246	-5.321523	0.000241	2.414214	0.408979	0.000048
1999	1.9880e+02	-0.2013	-5.272642	0.000246	2.455133	0.415911	0.000049
2000	1.9890e+02	-0.1804	-5.224983	0.000239	2.393755	0.405513	0.000048
2001	1.9900e+02	-0.1630	-5.176509	0.000243	2.434674	0.412445	0.000049
2002	1.9910e+02	-0.1418	-5.128443	0.000241	2.414214	0.408979	0.000048
2003	1.9920e+02	-0.1231	-5.078747	0.000250	2.496052	0.422843	0.000050
2004	1.9930e+02	-0.1029	-5.031903	0.000235	2.352836	0.398581	0.000047
2005	1.9940e+02	-0.0834	-4.989132	0.000215	2.148242	0.363922	0.000043
2006	1.9950e+02	-0.0607	-4.932511	0.000284	2.843863	0.481763	0.000057
2007	1.9960e+02	-0.0424	-4.884852	0.000239	2.393755	0.405513	0.000048
2008	1.9970e+02	-0.0218	-4.835971	0.000246	2.455133	0.415911	0.000049
2009	1.9980e+02	-0.0034	-4.794014	0.000246	2.455133	0.415911	0.000042

Smooth data before PMax, +/-Pr and +/-Vc Calc.

PMax (uC/cm2):	2.01e+01
Pr (uC/cm2):	6.66e+00
-Pr (uC/cm2):	-2.15e+00
PLoss (uC/cm2):	-2.16e+00
-Vc:	-2.92e+00
C (Max-Eff) (nF):	2.02e-01
K (Eff):	3.42e+02
Vert. (+/-Pr) Shift (uC/cm2):	2.25e+00
Offset (uC/cm2):	2.65e+00

A (Loop Area - uC/cm2·Volts):	-3.06e-03



Hysteresis Version: 5.48.1 - Radiant Technologies, Inc., 1999 - 9/12/24

