»»»»»»»»»»»»»»»»»»»»»»»»»»»»»»»»»»»» Hysteresis ««««««««««««««««««««««««««««««««««««
»»»  Executed Version:	5.48.1
»»»  Vision Version:	5.48.4 (R)
»»»  Vision Compiled:	9/18/24
»»»  Driver Version:	5.47.0
»»»  Windows Version:	Windows 8 or 8.1
»»»  Processor Information:	x86 (AMD or Intel) - 32 Processors
»»»  Tester Name:	PMF21124-494 (100V)
»»»  Tester S/N:	PMF21124-494
»»»  Internal Amp Type:	100V RevK 270k
»»»  Internal Amp S/N:	iAB2-596/K     
»»»  Execution Count:	1
»»»»»»»»»»»»»»»»»»»»»»»»»»»»»»»»»»»»»»»»»»««««««««««««««««««««««««««««««««««««««««««

Stored:	7/10/2025 - 18:3:58
Configured:	07/10/25 01:31:25 PM
Executed:	07/10/25 06:03:39 PM

»»»»»»»»»»»»»»»»»»»»»»»»»»»»»»»»»»» Sample Info ««««««««««««««««««««««««««««««««««««
Sample Name:	
Lot Name:	
Wafer Name:	
Die Row/Column:	0/0
Capacitor Number:	0
Sample Area (cm2):	1.00e-04
Sample Thickness (microns):	1.50e-01

Amplifier:	Internal

»»»»»»»»»»»»»»»»»»»»»»»»»»»»»»»»»»» Tester Info «««««««««««««««««««««««««««««««««««
Tester Name:	PMF21124-494 (100V)
Tester Serial Number:	PMF21124-494
Return Signal Amp. Level:	1.79 [Index: 2]

»»»»»»»»»»»»»»»»»»»»»»»»»»»»»»»» Hysteresis Info ««««««««««««««««««««««««««««««««««
Task Name:	Hyst-3361
Volts:	10.00
Field:	666.67 (kV/cm)
DCBias:	0.00
DCField:	0.00 (kV/cm)
Hysteresis Period (ms):	1.00e+00
Preset:	Enabled
Preset Delay (ms):	1.00e+03
Profile:	Standard Bipolar

»»»»»»»»»»»»»»»»»»»»»»»»»»»»»»»»»»»»»» Data «««««««««««««««««««««««««««««««««««««««
Points:	2001

Valid Data

Point	Time (ms)	Drive Voltage	Measured Polarization (uC/cm2)	Capacitance (uF)	Normalized Capacitance (uF/cm2)	Dielectric Constant	Instantaneous Current (mA)
   1	0.0000e+00	-0.0057	-0.422494	0.000036	0.363561	0.061589	0.001454
   2	5.0000e-04	0.0156	-0.415224	0.000036	0.363561	0.061589	0.001454
   3	1.0000e-03	0.0356	-0.407955	0.000036	0.363561	0.061589	0.001454
   4	1.5000e-03	0.0585	-0.394271	0.000068	0.684349	0.115932	0.002737
   5	2.0000e-03	0.0732	-0.372034	0.000111	1.112068	0.188389	0.004447
   6	2.5000e-03	0.0957	-0.351508	0.000103	1.026524	0.173898	0.004105
   7	3.0000e-03	0.1126	-0.340390	0.000056	0.556034	0.094195	0.002224
   8	3.5000e-03	0.1324	-0.339962	0.000002	0.021386	0.003623	0.000086
   9	4.0000e-03	0.1540	-0.320719	0.000096	0.962366	0.163029	0.003849
  10	4.5000e-03	0.1761	-0.309601	0.000056	0.556034	0.094195	0.002224
  11	5.0000e-03	0.1940	-0.292068	0.000088	0.876822	0.148538	0.003507
  12	5.5000e-03	0.2144	-0.281805	0.000051	0.513262	0.086949	0.002053
  13	6.0000e-03	0.2380	-0.267266	0.000073	0.727121	0.123178	0.002908
  14	6.5000e-03	0.2557	-0.250161	0.000086	0.855437	0.144915	0.003421
  15	7.0000e-03	0.2779	-0.242464	0.000038	0.384946	0.065212	0.001539
  16	7.5000e-03	0.2964	-0.224503	0.000090	0.898208	0.152161	0.003592
  17	8.0000e-03	0.3150	-0.209109	0.000077	0.769893	0.130423	0.003079
  18	8.5000e-03	0.3362	-0.191148	0.000090	0.898208	0.152161	0.003592
  19	9.0000e-03	0.3543	-0.174899	0.000081	0.812665	0.137669	0.003250
  20	9.5000e-03	0.3730	-0.162925	0.000060	0.598806	0.101440	0.002395
  21	1.0000e-02	0.3944	-0.139406	0.000118	1.176225	0.199258	0.004704
  22	1.0500e-02	0.4144	-0.133419	0.000030	0.299403	0.050720	0.001197
  23	1.1000e-02	0.4342	-0.117597	0.000079	0.791279	0.134046	0.003164
  24	1.1500e-02	0.4543	-0.108189	0.000047	0.470490	0.079703	0.001882
  25	1.2000e-02	0.4755	-0.090229	0.000090	0.898208	0.152161	0.003592
  26	1.2500e-02	0.4945	-0.082532	0.000038	0.384946	0.065212	0.001539
  27	1.3000e-02	0.5157	-0.075690	0.000034	0.342175	0.057966	0.001368
  28	1.3500e-02	0.5346	-0.050032	0.000128	1.283155	0.217372	0.005132
  29	1.4000e-02	0.5551	-0.039769	0.000051	0.513262	0.086949	0.002053
  30	1.4500e-02	0.5749	-0.011546	0.000141	1.411470	0.239110	0.005645
  31	1.5000e-02	0.5955	-0.000855	0.000053	0.534648	0.090572	0.002138
  32	1.5500e-02	0.6139	0.006414	0.000036	0.363561	0.061589	0.001454
  33	1.6000e-02	0.6353	0.021809	0.000077	0.769893	0.130423	0.003079
  34	1.6500e-02	0.6536	0.044473	0.000113	1.133453	0.192012	0.004533
  35	1.7000e-02	0.6737	0.054736	0.000051	0.513262	0.086949	0.002053
  36	1.7500e-02	0.6938	0.052170	-0.000013	-0.128315	-0.021737	-0.000513
  37	1.8000e-02	0.7134	0.081676	0.000148	1.475628	0.249978	0.005901
  38	1.8500e-02	0.7349	0.104341	0.000113	1.133453	0.192012	0.004533
  39	1.9000e-02	0.7545	0.111610	0.000036	0.363561	0.061589	0.001454
  40	1.9500e-02	0.7726	0.121018	0.000047	0.470490	0.079703	0.001882
  41	2.0000e-02	0.7928	0.163353	0.000212	2.117205	0.358664	0.008467
  42	2.0500e-02	0.8141	0.152235	-0.000056	-0.556034	-0.094195	-0.002224
  43	2.1000e-02	0.8389	0.177037	0.000124	1.240383	0.210127	0.004960
  44	2.1500e-02	0.8527	0.196280	0.000096	0.962366	0.163029	0.003849
  45	2.2000e-02	0.8744	0.201839	0.000028	0.278017	0.047097	0.001112
  46	2.2500e-02	0.8982	0.216806	0.000075	0.748507	0.126801	0.002993
  47	2.3000e-02	0.9140	0.235622	0.000094	0.940980	0.159406	0.003763
  48	2.3500e-02	0.9325	0.250161	0.000073	0.727121	0.123178	0.002908
  49	2.4000e-02	0.9534	0.264272	0.000071	0.705735	0.119555	0.002822
  50	2.4500e-02	0.9746	0.278812	0.000073	0.727121	0.123178	0.002908
  51	2.5000e-02	0.9942	0.301903	0.000115	1.154839	0.195635	0.004618
  52	2.5500e-02	1.0152	0.303186	0.000006	0.064158	0.010869	0.000257
  53	2.6000e-02	1.0358	0.317726	0.000073	0.727121	0.123178	0.002908
  54	2.6500e-02	1.0577	0.336113	0.000092	0.919594	0.155783	0.003678
  55	2.7000e-02	1.0761	0.345949	0.000049	0.491876	0.083326	0.001967
  56	2.7500e-02	1.0960	0.365620	0.000098	0.983752	0.166652	0.003934
  57	2.8000e-02	1.1176	0.387856	0.000111	1.112068	0.188389	0.004447
  58	2.8500e-02	1.1389	0.399402	0.000058	0.577420	0.097818	0.002309
  59	2.9000e-02	1.1568	0.414369	0.000075	0.748507	0.126801	0.002993
  60	2.9500e-02	1.1749	0.426342	0.000060	0.598806	0.101440	0.002395
  61	3.0000e-02	1.1951	0.446868	0.000103	1.026524	0.173898	0.004105
  62	3.0500e-02	1.2135	0.462691	0.000079	0.791279	0.134046	0.003164
  63	3.1000e-02	1.2338	0.477230	0.000073	0.727121	0.123178	0.002908
  64	3.1500e-02	1.2575	0.496473	0.000096	0.962366	0.163029	0.003849
  65	3.2000e-02	1.2778	0.492197	-0.000021	-0.213859	-0.036229	-0.000855
  66	3.2500e-02	1.2928	0.528972	0.000184	1.839189	0.311567	0.007355
  67	3.3000e-02	1.3130	0.547788	0.000094	0.940980	0.159406	0.003763
  68	3.3500e-02	1.3351	0.561044	0.000066	0.662963	0.112309	0.002651
  69	3.4000e-02	1.3524	0.570880	0.000049	0.491876	0.083326	0.001967
  70	3.4500e-02	1.3763	0.587985	0.000086	0.855437	0.144915	0.003421
  71	3.5000e-02	1.3953	0.598248	0.000051	0.513262	0.086949	0.002053
  72	3.5500e-02	1.4151	0.623905	0.000128	1.283155	0.217372	0.005132
  73	3.6000e-02	1.4339	0.635024	0.000056	0.556034	0.094195	0.002224
  74	3.6500e-02	1.4540	0.650418	0.000077	0.769893	0.130423	0.003079
  75	3.7000e-02	1.4752	0.663247	0.000064	0.641577	0.108686	0.002566
  76	3.7500e-02	1.4941	0.688049	0.000124	1.240383	0.210127	0.004960
  77	3.8000e-02	1.5154	0.692753	0.000024	0.235245	0.039852	0.000941
  78	3.8500e-02	1.5327	0.726108	0.000167	1.668101	0.282584	0.006671
  79	3.9000e-02	1.5565	0.735943	0.000049	0.491876	0.083326	0.001967
  80	3.9500e-02	1.5758	0.747917	0.000060	0.598806	0.101440	0.002395
  81	4.0000e-02	1.5961	0.760745	0.000064	0.641577	0.108686	0.002566
  82	4.0500e-02	1.6151	0.779561	0.000094	0.940980	0.159406	0.003763
  83	4.1000e-02	1.6354	0.799232	0.000098	0.983752	0.166652	0.003934
  84	4.1500e-02	1.6544	0.807784	0.000043	0.427718	0.072457	0.001711
  85	4.2000e-02	1.6743	0.823179	0.000077	0.769893	0.130423	0.003079
  86	4.2500e-02	1.6966	0.847553	0.000122	1.218997	0.206504	0.004875
  87	4.3000e-02	1.7162	0.858672	0.000056	0.556034	0.094195	0.002224
  88	4.3500e-02	1.7339	0.875349	0.000083	0.834051	0.141292	0.003335
  89	4.4000e-02	1.7570	0.896730	0.000107	1.069296	0.181144	0.004276
  90	4.4500e-02	1.7725	0.906138	0.000047	0.470490	0.079703	0.001882
  91	4.5000e-02	1.7923	0.919822	0.000068	0.684349	0.115932	0.002737
  92	4.5500e-02	1.8140	0.928374	0.000043	0.427718	0.072457	0.001711
  93	4.6000e-02	1.8408	0.963867	0.000178	1.775031	0.300698	0.007099
  94	4.6500e-02	1.8543	0.958308	-0.000028	-0.278017	-0.047097	-0.001112
  95	4.7000e-02	1.8750	0.987814	0.000148	1.475628	0.249978	0.005901
  96	4.7500e-02	1.8970	0.986959	-0.000004	-0.042772	-0.007246	-0.000171
  97	4.8000e-02	1.9128	1.013044	0.000130	1.304541	0.220995	0.005217
  98	4.8500e-02	1.9345	1.031860	0.000094	0.940980	0.159406	0.003763
  99	4.9000e-02	1.9534	1.053669	0.000109	1.090682	0.184766	0.004362
 100	4.9500e-02	1.9763	1.057945	0.000021	0.213859	0.036229	0.000855
 101	5.0000e-02	1.9975	1.092155	0.000171	1.710873	0.289830	0.006842
 102	5.0500e-02	2.0172	1.097714	0.000028	0.278017	0.047097	0.001112
 103	5.1000e-02	2.0340	1.113536	0.000079	0.791279	0.134046	0.003164
 104	5.1500e-02	2.0560	1.138338	0.000124	1.240383	0.210127	0.004960
 105	5.2000e-02	2.0752	1.145608	0.000036	0.363561	0.061589	0.001454
 106	5.2500e-02	2.0969	1.152878	0.000036	0.363561	0.061589	0.001454
 107	5.3000e-02	2.1162	1.173404	0.000103	1.026524	0.173898	0.004105
 108	5.3500e-02	2.1346	1.202482	0.000145	1.454242	0.246355	0.005816
 109	5.4000e-02	2.1554	1.214028	0.000058	0.577420	0.097818	0.002309
 110	5.4500e-02	2.1748	1.223008	0.000045	0.449104	0.076080	0.001796
 111	5.5000e-02	2.1964	1.249093	0.000130	1.304541	0.220995	0.005217
 112	5.5500e-02	2.2180	1.255935	0.000034	0.342175	0.057966	0.001368
 113	5.6000e-02	2.2357	1.278600	0.000113	1.133453	0.192012	0.004533
 114	5.6500e-02	2.2545	1.291001	0.000062	0.620192	0.105063	0.002480
 115	5.7000e-02	2.2749	1.301264	0.000051	0.513262	0.086949	0.002053
 116	5.7500e-02	2.2959	1.323500	0.000111	1.112068	0.188389	0.004447
 117	5.8000e-02	2.3148	1.338467	0.000075	0.748507	0.126801	0.002993
 118	5.8500e-02	2.3340	1.361131	0.000113	1.133453	0.192012	0.004533
 119	5.9000e-02	2.3533	1.365835	0.000024	0.235245	0.039852	0.000941
 120	5.9500e-02	2.3746	1.390637	0.000124	1.240383	0.210127	0.004960
 121	6.0000e-02	2.3944	1.407742	0.000086	0.855437	0.144915	0.003421
 122	6.0500e-02	2.4170	1.409025	0.000006	0.064158	0.010869	0.000257
 123	6.1000e-02	2.4344	1.435538	0.000133	1.325927	0.224618	0.005303
 124	6.1500e-02	2.4576	1.448794	0.000066	0.662963	0.112309	0.002651
 125	6.2000e-02	2.4763	1.470176	0.000107	1.069296	0.181144	0.004276
 126	6.2500e-02	2.4939	1.487708	0.000088	0.876822	0.148538	0.003507
 127	6.3000e-02	2.5134	1.503103	0.000077	0.769893	0.130423	0.003079
 128	6.3500e-02	2.5342	1.518497	0.000077	0.769893	0.130423	0.003079
 129	6.4000e-02	2.5562	1.524912	0.000032	0.320789	0.054343	0.001283
 130	6.4500e-02	2.5760	1.552280	0.000137	1.368698	0.231864	0.005474
 131	6.5000e-02	2.5977	1.555701	0.000017	0.171087	0.028983	0.000684
 132	6.5500e-02	2.6148	1.585635	0.000150	1.497014	0.253601	0.005987
 133	6.6000e-02	2.6343	1.592904	0.000036	0.363561	0.061589	0.001454
 134	6.6500e-02	2.6575	1.617706	0.000124	1.240383	0.210127	0.004960
 135	6.7000e-02	2.6743	1.628825	0.000056	0.556034	0.094195	0.002224
 136	6.7500e-02	2.6954	1.647213	0.000092	0.919594	0.155783	0.003678
 137	6.8000e-02	2.7131	1.660897	0.000068	0.684349	0.115932	0.002737
 138	6.8500e-02	2.7358	1.678429	0.000088	0.876822	0.148538	0.003507
 139	6.9000e-02	2.7579	1.689975	0.000058	0.577420	0.097818	0.002309
 140	6.9500e-02	2.7729	1.704942	0.000075	0.748507	0.126801	0.002993
 141	7.0000e-02	2.7942	1.718626	0.000068	0.684349	0.115932	0.002737
 142	7.0500e-02	2.8126	1.731027	0.000062	0.620192	0.105063	0.002480
 143	7.1000e-02	2.8372	1.749415	0.000092	0.919594	0.155783	0.003678
 144	7.1500e-02	2.8549	1.760533	0.000056	0.556034	0.094195	0.002224
 145	7.2000e-02	2.8746	1.788329	0.000139	1.390084	0.235487	0.005559
 146	7.2500e-02	2.8949	1.796026	0.000038	0.384946	0.065212	0.001539
 147	7.3000e-02	2.9156	1.816552	0.000103	1.026524	0.173898	0.004105
 148	7.3500e-02	2.9340	1.822111	0.000028	0.278017	0.047097	0.001112
 149	7.4000e-02	2.9538	1.844348	0.000111	1.112068	0.188389	0.004447
 150	7.4500e-02	2.9742	1.856749	0.000062	0.620192	0.105063	0.002480
 151	7.5000e-02	2.9971	1.872999	0.000081	0.812665	0.137669	0.003250
 152	7.5500e-02	3.0148	1.890104	0.000086	0.855437	0.144915	0.003421
 153	7.6000e-02	3.0373	1.902932	0.000064	0.641577	0.108686	0.002566
 154	7.6500e-02	3.0560	1.921748	0.000094	0.940980	0.159406	0.003763
 155	7.7000e-02	3.0751	1.932866	0.000056	0.556034	0.094195	0.002224
 156	7.7500e-02	3.0943	1.950827	0.000090	0.898208	0.152161	0.003592
 157	7.8000e-02	3.1133	1.982898	0.000160	1.603944	0.271715	0.006414
 158	7.8500e-02	3.1339	1.985464	0.000013	0.128315	0.021737	0.000513
 159	7.9000e-02	3.1567	2.007273	0.000109	1.090682	0.184766	0.004362
 160	7.9500e-02	3.1726	2.007273	0.000000	0.000000	0.000000	0.000000
 161	8.0000e-02	3.1937	2.029510	0.000111	1.112068	0.188389	0.004447
 162	8.0500e-02	3.2143	2.046187	0.000083	0.834051	0.141292	0.003335
 163	8.1000e-02	3.2339	2.067568	0.000107	1.069296	0.181144	0.004276
 164	8.1500e-02	3.2529	2.071844	0.000021	0.213859	0.036229	0.000855
 165	8.2000e-02	3.2706	2.090660	0.000094	0.940980	0.159406	0.003763
 166	8.2500e-02	3.2951	2.101351	0.000053	0.534648	0.090572	0.002138
 167	8.3000e-02	3.3154	2.118883	0.000088	0.876822	0.148538	0.003507
 168	8.3500e-02	3.3350	2.134278	0.000077	0.769893	0.130423	0.003079
 169	8.4000e-02	3.3539	2.138126	0.000019	0.192473	0.032606	0.000770
 170	8.4500e-02	3.3746	2.162929	0.000124	1.240383	0.210127	0.004960
 171	8.5000e-02	3.3960	2.175757	0.000064	0.641577	0.108686	0.002566
 172	8.5500e-02	3.4137	2.191152	0.000077	0.769893	0.130423	0.003079
 173	8.6000e-02	3.4378	2.205691	0.000073	0.727121	0.123178	0.002908
 174	8.6500e-02	3.4554	2.227500	0.000109	1.090682	0.184766	0.004362
 175	8.7000e-02	3.4760	2.236908	0.000047	0.470490	0.079703	0.001882
 176	8.7500e-02	3.4955	2.247171	0.000051	0.513262	0.086949	0.002053
 177	8.8000e-02	3.5156	2.267269	0.000101	1.005138	0.170275	0.004020
 178	8.8500e-02	3.5394	2.279670	0.000062	0.620192	0.105063	0.002480
 179	8.9000e-02	3.5551	2.292499	0.000064	0.641577	0.108686	0.002566
 180	8.9500e-02	3.5779	2.314736	0.000111	1.112068	0.188389	0.004447
 181	9.0000e-02	3.5941	2.326281	0.000058	0.577420	0.097818	0.002309
 182	9.0500e-02	3.6157	2.339966	0.000068	0.684349	0.115932	0.002737
 183	9.1000e-02	3.6356	2.359209	0.000096	0.962366	0.163029	0.003849
 184	9.1500e-02	3.6539	2.364768	0.000028	0.278017	0.047097	0.001112
 185	9.2000e-02	3.6744	2.388287	0.000118	1.176225	0.199258	0.004704
 186	9.2500e-02	3.6954	2.400261	0.000060	0.598806	0.101440	0.002395
 187	9.3000e-02	3.7173	2.410524	0.000051	0.513262	0.086949	0.002053
 188	9.3500e-02	3.7347	2.428484	0.000090	0.898208	0.152161	0.003592
 189	9.4000e-02	3.7543	2.446017	0.000088	0.876822	0.148538	0.003507
 190	9.4500e-02	3.7721	2.458845	0.000064	0.641577	0.108686	0.002566
 191	9.5000e-02	3.7973	2.471674	0.000064	0.641577	0.108686	0.002566
 192	9.5500e-02	3.8147	2.486641	0.000075	0.748507	0.126801	0.002993
 193	9.6000e-02	3.8336	2.499042	0.000062	0.620192	0.105063	0.002480
 194	9.6500e-02	3.8551	2.511443	0.000062	0.620192	0.105063	0.002480
 195	9.7000e-02	3.8763	2.526838	0.000077	0.769893	0.130423	0.003079
 196	9.7500e-02	3.8956	2.547364	0.000103	1.026524	0.173898	0.004105
 197	9.8000e-02	3.9136	2.557199	0.000049	0.491876	0.083326	0.001967
 198	9.8500e-02	3.9352	2.566179	0.000045	0.449104	0.076080	0.001796
 199	9.9000e-02	3.9551	2.579436	0.000066	0.662963	0.112309	0.002651
 200	9.9500e-02	3.9749	2.602955	0.000118	1.176225	0.199258	0.004704
 201	1.0000e-01	3.9938	2.620488	0.000088	0.876822	0.148538	0.003507
 202	1.0050e-01	4.0146	2.627757	0.000036	0.363561	0.061589	0.001454
 203	1.0100e-01	4.0350	2.641869	0.000071	0.705735	0.119555	0.002822
 204	1.0150e-01	4.0536	2.657263	0.000077	0.769893	0.130423	0.003079
 205	1.0200e-01	4.0732	2.673086	0.000079	0.791279	0.134046	0.003164
 206	1.0250e-01	4.0962	2.681638	0.000043	0.427718	0.072457	0.001711
 207	1.0300e-01	4.1156	2.702164	0.000103	1.026524	0.173898	0.004105
 208	1.0350e-01	4.1351	2.685059	-0.000086	-0.855437	-0.144915	-0.003421
 209	1.0400e-01	4.1562	2.732526	0.000237	2.373836	0.402139	0.009493
 210	1.0450e-01	4.1756	2.733808	0.000006	0.064158	0.010869	0.000257
 211	1.0500e-01	4.1959	2.755617	0.000109	1.090682	0.184766	0.004362
 212	1.0550e-01	4.2140	2.769301	0.000068	0.684349	0.115932	0.002737
 213	1.0600e-01	4.2361	2.779564	0.000051	0.513262	0.086949	0.002053
 214	1.0650e-01	4.2560	2.787689	0.000041	0.406332	0.068835	0.001625
 215	1.0700e-01	4.2773	2.816340	0.000143	1.432856	0.242732	0.005730
 216	1.0750e-01	4.2970	2.821472	0.000026	0.256631	0.043474	0.001026
 217	1.0800e-01	4.3158	2.844991	0.000118	1.176225	0.199258	0.004704
 218	1.0850e-01	4.3372	2.856537	0.000058	0.577420	0.097818	0.002309
 219	1.0900e-01	4.3549	2.862524	0.000030	0.299403	0.050720	0.001197
 220	1.0950e-01	4.3771	2.874925	0.000062	0.620192	0.105063	0.002480
 221	1.1000e-01	4.3988	2.892885	0.000090	0.898208	0.152161	0.003592
 222	1.1050e-01	4.4186	2.893740	0.000004	0.042772	0.007246	0.000171
 223	1.1100e-01	4.4360	2.917687	0.000120	1.197611	0.202881	0.004789
 224	1.1150e-01	4.4562	2.926240	0.000043	0.427718	0.072457	0.001711
 225	1.1200e-01	4.4754	2.942490	0.000081	0.812665	0.137669	0.003250
 226	1.1250e-01	4.4968	2.958312	0.000079	0.791279	0.134046	0.003164
 227	1.1300e-01	4.5166	2.971568	0.000066	0.662963	0.112309	0.002651
 228	1.1350e-01	4.5382	2.977127	0.000028	0.278017	0.047097	0.001112
 229	1.1400e-01	4.5563	2.998508	0.000107	1.069296	0.181144	0.004276
 230	1.1450e-01	4.5770	3.013903	0.000077	0.769893	0.130423	0.003079
 231	1.1500e-01	4.5949	3.017752	0.000019	0.192473	0.032606	0.000770
 232	1.1550e-01	4.6149	3.030153	0.000062	0.620192	0.105063	0.002480
 233	1.1600e-01	4.6368	3.051962	0.000109	1.090682	0.184766	0.004362
 234	1.1650e-01	4.6564	3.063080	0.000056	0.556034	0.094195	0.002224
 235	1.1700e-01	4.6771	3.078474	0.000077	0.769893	0.130423	0.003079
 236	1.1750e-01	4.6964	3.088310	0.000049	0.491876	0.083326	0.001967
 237	1.1800e-01	4.7168	3.107553	0.000096	0.962366	0.163029	0.003849
 238	1.1850e-01	4.7366	3.118671	0.000056	0.556034	0.094195	0.002224
 239	1.1900e-01	4.7546	3.131928	0.000066	0.662963	0.112309	0.002651
 240	1.1950e-01	4.7769	3.136204	0.000021	0.213859	0.036229	0.000855
 241	1.2000e-01	4.7987	3.152881	0.000083	0.834051	0.141292	0.003335
 242	1.2050e-01	4.8193	3.164427	0.000058	0.577420	0.097818	0.002309
 243	1.2100e-01	4.8358	3.186236	0.000109	1.090682	0.184766	0.004362
 244	1.2150e-01	4.8572	3.193933	0.000038	0.384946	0.065212	0.001539
 245	1.2200e-01	4.8749	3.212749	0.000094	0.940980	0.159406	0.003763
 246	1.2250e-01	4.8965	3.218308	0.000028	0.278017	0.047097	0.001112
 247	1.2300e-01	4.9170	3.235413	0.000086	0.855437	0.144915	0.003421
 248	1.2350e-01	4.9390	3.247386	0.000060	0.598806	0.101440	0.002395
 249	1.2400e-01	4.9570	3.258077	0.000053	0.534648	0.090572	0.002138
 250	1.2450e-01	4.9759	3.268768	0.000053	0.534648	0.090572	0.002138
 251	1.2500e-01	4.9954	3.278175	0.000047	0.470490	0.079703	0.001882
 252	1.2550e-01	5.0168	3.291004	0.000064	0.641577	0.108686	0.002566
 253	1.2600e-01	5.0363	3.312813	0.000109	1.090682	0.184766	0.004362
 254	1.2650e-01	5.0557	3.325214	0.000062	0.620192	0.105063	0.002480
 255	1.2700e-01	5.0751	3.337188	0.000060	0.598806	0.101440	0.002395
 256	1.2750e-01	5.0972	3.347023	0.000049	0.491876	0.083326	0.001967
 257	1.2800e-01	5.1138	3.363273	0.000081	0.812665	0.137669	0.003250
 258	1.2850e-01	5.1355	3.377812	0.000073	0.727121	0.123178	0.002908
 259	1.2900e-01	5.1550	3.382088	0.000021	0.213859	0.036229	0.000855
 260	1.2950e-01	5.1758	3.406463	0.000122	1.218997	0.206504	0.004875
 261	1.3000e-01	5.1971	3.414588	0.000041	0.406332	0.068835	0.001625
 262	1.3050e-01	5.2136	3.426561	0.000060	0.598806	0.101440	0.002395
 263	1.3100e-01	5.2347	3.442383	0.000079	0.791279	0.134046	0.003164
 264	1.3150e-01	5.2560	3.449225	0.000034	0.342175	0.057966	0.001368
 265	1.3200e-01	5.2771	3.472317	0.000115	1.154839	0.195635	0.004618
 266	1.3250e-01	5.2942	3.468469	-0.000019	-0.192473	-0.032606	-0.000770
 267	1.3300e-01	5.3162	3.482580	0.000071	0.705735	0.119555	0.002822
 268	1.3350e-01	5.3357	3.497119	0.000073	0.727121	0.123178	0.002908
 269	1.3400e-01	5.3598	3.506527	0.000047	0.470490	0.079703	0.001882
 270	1.3450e-01	5.3749	3.523205	0.000083	0.834051	0.141292	0.003335
 271	1.3500e-01	5.3967	3.533895	0.000053	0.534648	0.090572	0.002138
 272	1.3550e-01	5.4158	3.545869	0.000060	0.598806	0.101440	0.002395
 273	1.3600e-01	5.4359	3.556132	0.000051	0.513262	0.086949	0.002053
 274	1.3650e-01	5.4585	3.580934	0.000124	1.240383	0.210127	0.004960
 275	1.3700e-01	5.4752	3.582645	0.000009	0.085544	0.014491	0.000342
 276	1.3750e-01	5.4950	3.595901	0.000066	0.662963	0.112309	0.002651
 277	1.3800e-01	5.5142	3.603171	0.000036	0.363561	0.061589	0.001454
 278	1.3850e-01	5.5347	3.617710	0.000073	0.727121	0.123178	0.002908
 279	1.3900e-01	5.5571	3.635670	0.000090	0.898208	0.152161	0.003592
 280	1.3950e-01	5.5763	3.653630	0.000090	0.898208	0.152161	0.003592
 281	1.4000e-01	5.5985	3.658334	0.000024	0.235245	0.039852	0.000941
 282	1.4050e-01	5.6165	3.672873	0.000073	0.727121	0.123178	0.002908
 283	1.4100e-01	5.6363	3.682281	0.000047	0.470490	0.079703	0.001882
 284	1.4150e-01	5.6555	3.690834	0.000043	0.427718	0.072457	0.001711
 285	1.4200e-01	5.6778	3.698531	0.000038	0.384946	0.065212	0.001539
 286	1.4250e-01	5.6989	3.717774	0.000096	0.962366	0.163029	0.003849
 287	1.4300e-01	5.7172	3.729748	0.000060	0.598806	0.101440	0.002395
 288	1.4350e-01	5.7349	3.735307	0.000028	0.278017	0.047097	0.001112
 289	1.4400e-01	5.7570	3.757971	0.000113	1.133453	0.192012	0.004533
 290	1.4450e-01	5.7745	3.760964	0.000015	0.149701	0.025360	0.000599
 291	1.4500e-01	5.7965	3.769517	0.000043	0.427718	0.072457	0.001711
 292	1.4550e-01	5.8148	3.776359	0.000034	0.342175	0.057966	0.001368
 293	1.4600e-01	5.8386	3.798595	0.000111	1.112068	0.188389	0.004447
 294	1.4650e-01	5.8563	3.809286	0.000053	0.534648	0.090572	0.002138
 295	1.4700e-01	5.8752	3.825536	0.000081	0.812665	0.137669	0.003250
 296	1.4750e-01	5.8949	3.832378	0.000034	0.342175	0.057966	0.001368
 297	1.4800e-01	5.9149	3.841358	0.000045	0.449104	0.076080	0.001796
 298	1.4850e-01	5.9329	3.855469	0.000071	0.705735	0.119555	0.002822
 299	1.4900e-01	5.9583	3.867871	0.000062	0.620192	0.105063	0.002480
 300	1.4950e-01	5.9747	3.873857	0.000030	0.299403	0.050720	0.001197
 301	1.5000e-01	5.9967	3.892673	0.000094	0.940980	0.159406	0.003763
 302	1.5050e-01	6.0168	3.905929	0.000066	0.662963	0.112309	0.002651
 303	1.5100e-01	6.0370	3.917903	0.000060	0.598806	0.101440	0.002395
 304	1.5150e-01	6.0561	3.921324	0.000017	0.171087	0.028983	0.000684
 305	1.5200e-01	6.0751	3.937574	0.000081	0.812665	0.137669	0.003250
 306	1.5250e-01	6.0951	3.944843	0.000036	0.363561	0.061589	0.001454
 307	1.5300e-01	6.1160	3.962376	0.000088	0.876822	0.148538	0.003507
 308	1.5350e-01	6.1353	3.967507	0.000026	0.256631	0.043474	0.001026
 309	1.5400e-01	6.1554	3.982474	0.000075	0.748507	0.126801	0.002993
 310	1.5450e-01	6.1749	3.999152	0.000083	0.834051	0.141292	0.003335
 311	1.5500e-01	6.1966	4.003000	0.000019	0.192473	0.032606	0.000770
 312	1.5550e-01	6.2183	4.013263	0.000051	0.513262	0.086949	0.002053
 313	1.5600e-01	6.2347	4.026947	0.000068	0.684349	0.115932	0.002737
 314	1.5650e-01	6.2567	4.043197	0.000081	0.812665	0.137669	0.003250
 315	1.5700e-01	6.2766	4.056453	0.000066	0.662963	0.112309	0.002651
 316	1.5750e-01	6.2947	4.062012	0.000028	0.278017	0.047097	0.001112
 317	1.5800e-01	6.3165	4.073131	0.000056	0.556034	0.094195	0.002224
 318	1.5850e-01	6.3358	4.084677	0.000058	0.577420	0.097818	0.002309
 319	1.5900e-01	6.3544	4.099644	0.000075	0.748507	0.126801	0.002993
 320	1.5950e-01	6.3742	4.107768	0.000041	0.406332	0.068835	0.001625
 321	1.6000e-01	6.3928	4.110334	0.000013	0.128315	0.021737	0.000513
 322	1.6050e-01	6.4142	4.125301	0.000075	0.748507	0.126801	0.002993
 323	1.6100e-01	6.4368	4.130433	0.000026	0.256631	0.043474	0.001026
 324	1.6150e-01	6.4545	4.157373	0.000135	1.347313	0.228241	0.005388
 325	1.6200e-01	6.4771	4.163360	0.000030	0.299403	0.050720	0.001197
 326	1.6250e-01	6.4966	4.177471	0.000071	0.705735	0.119555	0.002822
 327	1.6300e-01	6.5161	4.192438	0.000075	0.748507	0.126801	0.002993
 328	1.6350e-01	6.5347	4.195004	0.000013	0.128315	0.021737	0.000513
 329	1.6400e-01	6.5543	4.208260	0.000066	0.662963	0.112309	0.002651
 330	1.6450e-01	6.5765	4.229642	0.000107	1.069296	0.181144	0.004276
 331	1.6500e-01	6.5936	4.229214	-0.000002	-0.021386	-0.003623	-0.000086
 332	1.6550e-01	6.6132	4.249740	0.000103	1.026524	0.173898	0.004105
 333	1.6600e-01	6.6351	4.254016	0.000021	0.213859	0.036229	0.000855
 334	1.6650e-01	6.6534	4.265562	0.000058	0.577420	0.097818	0.002309
 335	1.6700e-01	6.6772	4.274970	0.000047	0.470490	0.079703	0.001882
 336	1.6750e-01	6.6949	4.285233	0.000051	0.513262	0.086949	0.002053
 337	1.6800e-01	6.7154	4.293358	0.000041	0.406332	0.068835	0.001625
 338	1.6850e-01	6.7352	4.318588	0.000126	1.261769	0.213749	0.005046
 339	1.6900e-01	6.7538	4.313884	-0.000024	-0.235245	-0.039852	-0.000941
 340	1.6950e-01	6.7740	4.336120	0.000111	1.112068	0.188389	0.004447
 341	1.7000e-01	6.7935	4.340397	0.000021	0.213859	0.036229	0.000855
 342	1.7050e-01	6.8201	4.346383	0.000030	0.299403	0.050720	0.001197
 343	1.7100e-01	6.8356	4.354508	0.000041	0.406332	0.068835	0.001625
 344	1.7150e-01	6.8524	4.373324	0.000094	0.940980	0.159406	0.003763
 345	1.7200e-01	6.8774	4.384014	0.000053	0.534648	0.090572	0.002138
 346	1.7250e-01	6.8958	4.396843	0.000064	0.641577	0.108686	0.002566
 347	1.7300e-01	6.9153	4.400264	0.000017	0.171087	0.028983	0.000684
 348	1.7350e-01	6.9342	4.413520	0.000066	0.662963	0.112309	0.002651
 349	1.7400e-01	6.9556	4.425066	0.000058	0.577420	0.097818	0.002309
 350	1.7450e-01	6.9757	4.437895	0.000064	0.641577	0.108686	0.002566
 351	1.7500e-01	6.9974	4.447303	0.000047	0.470490	0.079703	0.001882
 352	1.7550e-01	7.0148	4.458849	0.000058	0.577420	0.097818	0.002309
 353	1.7600e-01	7.0340	4.467401	0.000043	0.427718	0.072457	0.001711
 354	1.7650e-01	7.0557	4.479375	0.000060	0.598806	0.101440	0.002395
 355	1.7700e-01	7.0773	4.485362	0.000030	0.299403	0.050720	0.001197
 356	1.7750e-01	7.0947	4.502467	0.000086	0.855437	0.144915	0.003421
 357	1.7800e-01	7.1155	4.510591	0.000041	0.406332	0.068835	0.001625
 358	1.7850e-01	7.1362	4.516151	0.000028	0.278017	0.047097	0.001112
 359	1.7900e-01	7.1559	4.523848	0.000038	0.384946	0.065212	0.001539
 360	1.7950e-01	7.1744	4.546512	0.000113	1.133453	0.192012	0.004533
 361	1.8000e-01	7.1973	4.549933	0.000017	0.171087	0.028983	0.000684
 362	1.8050e-01	7.2141	4.561479	0.000058	0.577420	0.097818	0.002309
 363	1.8100e-01	7.2351	4.572597	0.000056	0.556034	0.094195	0.002224
 364	1.8150e-01	7.2537	4.588847	0.000081	0.812665	0.137669	0.003250
 365	1.8200e-01	7.2766	4.587564	-0.000006	-0.064158	-0.010869	-0.000257
 366	1.8250e-01	7.2949	4.600393	0.000064	0.641577	0.108686	0.002566
 367	1.8300e-01	7.3164	4.620491	0.000101	1.005138	0.170275	0.004020
 368	1.8350e-01	7.3334	4.629899	0.000047	0.470490	0.079703	0.001882
 369	1.8400e-01	7.3566	4.637168	0.000036	0.363561	0.061589	0.001454
 370	1.8450e-01	7.3773	4.648714	0.000058	0.577420	0.097818	0.002309
 371	1.8500e-01	7.3959	4.657694	0.000045	0.449104	0.076080	0.001796
 372	1.8550e-01	7.4182	4.660260	0.000013	0.128315	0.021737	0.000513
 373	1.8600e-01	7.4359	4.677793	0.000088	0.876822	0.148538	0.003507
 374	1.8650e-01	7.4557	4.681642	0.000019	0.192473	0.032606	0.000770
 375	1.8700e-01	7.4768	4.700457	0.000094	0.940980	0.159406	0.003763
 376	1.8750e-01	7.4957	4.701312	0.000004	0.042772	0.007246	0.000171
 377	1.8800e-01	7.5140	4.712858	0.000058	0.577420	0.097818	0.002309
 378	1.8850e-01	7.5372	4.725687	0.000064	0.641577	0.108686	0.002566
 379	1.8900e-01	7.5557	4.728253	0.000013	0.128315	0.021737	0.000513
 380	1.8950e-01	7.5769	4.763318	0.000175	1.753645	0.297075	0.007013
 381	1.9000e-01	7.5958	4.747923	-0.000077	-0.769893	-0.130423	-0.003079
 382	1.9050e-01	7.6147	4.762035	0.000071	0.705735	0.119555	0.002822
 383	1.9100e-01	7.6337	4.775719	0.000068	0.684349	0.115932	0.002737
 384	1.9150e-01	7.6569	4.780423	0.000024	0.235245	0.039852	0.000941
 385	1.9200e-01	7.6794	4.794962	0.000073	0.727121	0.123178	0.002908
 386	1.9250e-01	7.6953	4.799238	0.000021	0.213859	0.036229	0.000855
 387	1.9300e-01	7.7148	4.811212	0.000060	0.598806	0.101440	0.002395
 388	1.9350e-01	7.7350	4.821475	0.000051	0.513262	0.086949	0.002053
 389	1.9400e-01	7.7570	4.840290	0.000094	0.940980	0.159406	0.003763
 390	1.9450e-01	7.7754	4.841146	0.000004	0.042772	0.007246	0.000171
 391	1.9500e-01	7.7954	4.861244	0.000101	1.005138	0.170275	0.004020
 392	1.9550e-01	7.8125	4.862527	0.000006	0.064158	0.010869	0.000257
 393	1.9600e-01	7.8372	4.869369	0.000034	0.342175	0.057966	0.001368
 394	1.9650e-01	7.8580	4.882198	0.000064	0.641577	0.108686	0.002566
 395	1.9700e-01	7.8769	4.891178	0.000045	0.449104	0.076080	0.001796
 396	1.9750e-01	7.8970	4.904434	0.000066	0.662963	0.112309	0.002651
 397	1.9800e-01	7.9160	4.911276	0.000034	0.342175	0.057966	0.001368
 398	1.9850e-01	7.9347	4.920684	0.000047	0.470490	0.079703	0.001882
 399	1.9900e-01	7.9541	4.930092	0.000047	0.470490	0.079703	0.001882
 400	1.9950e-01	7.9755	4.934368	0.000021	0.213859	0.036229	0.000855
 401	2.0000e-01	7.9956	4.955749	0.000107	1.069296	0.181144	0.004276
 402	2.0050e-01	8.0164	4.957032	0.000006	0.064158	0.010869	0.000257
 403	2.0100e-01	8.0334	4.974565	0.000088	0.876822	0.148538	0.003507
 404	2.0150e-01	8.0554	4.979269	0.000024	0.235245	0.039852	0.000941
 405	2.0200e-01	8.0774	4.986966	0.000038	0.384946	0.065212	0.001539
 406	2.0250e-01	8.0945	4.995518	0.000043	0.427718	0.072457	0.001711
 407	2.0300e-01	8.1152	5.010058	0.000073	0.727121	0.123178	0.002908
 408	2.0350e-01	8.1360	5.018610	0.000043	0.427718	0.072457	0.001711
 409	2.0400e-01	8.1555	5.023314	0.000024	0.235245	0.039852	0.000941
 410	2.0450e-01	8.1763	5.033149	0.000049	0.491876	0.083326	0.001967
 411	2.0500e-01	8.1952	5.047261	0.000071	0.705735	0.119555	0.002822
 412	2.0550e-01	8.2159	5.054103	0.000034	0.342175	0.057966	0.001368
 413	2.0600e-01	8.2376	5.066077	0.000060	0.598806	0.101440	0.002395
 414	2.0650e-01	8.2553	5.072919	0.000034	0.342175	0.057966	0.001368
 415	2.0700e-01	8.2748	5.092589	0.000098	0.983752	0.166652	0.003934
 416	2.0750e-01	8.2947	5.090451	-0.000011	-0.106930	-0.018114	-0.000428
 417	2.0800e-01	8.3173	5.099859	0.000047	0.470490	0.079703	0.001882
 418	2.0850e-01	8.3356	5.112688	0.000064	0.641577	0.108686	0.002566
 419	2.0900e-01	8.3548	5.120813	0.000041	0.406332	0.068835	0.001625
 420	2.0950e-01	8.3771	5.121240	0.000002	0.021386	0.003623	0.000086
 421	2.1000e-01	8.3960	5.142194	0.000105	1.047910	0.177521	0.004191
 422	2.1050e-01	8.4137	5.146470	0.000021	0.213859	0.036229	0.000855
 423	2.1100e-01	8.4357	5.159727	0.000066	0.662963	0.112309	0.002651
 424	2.1150e-01	8.4583	5.167424	0.000038	0.384946	0.065212	0.001539
 425	2.1200e-01	8.4760	5.174266	0.000034	0.342175	0.057966	0.001368
 426	2.1250e-01	8.4967	5.185384	0.000056	0.556034	0.094195	0.002224
 427	2.1300e-01	8.5150	5.192226	0.000034	0.342175	0.057966	0.001368
 428	2.1350e-01	8.5364	5.208903	0.000083	0.834051	0.141292	0.003335
 429	2.1400e-01	8.5571	5.208903	0.000000	0.000000	0.000000	0.000000
 430	2.1450e-01	8.5748	5.223443	0.000073	0.727121	0.123178	0.002908
 431	2.1500e-01	8.5953	5.231568	0.000041	0.406332	0.068835	0.001625
 432	2.1550e-01	8.6157	5.241831	0.000051	0.513262	0.086949	0.002053
 433	2.1600e-01	8.6365	5.254659	0.000064	0.641577	0.108686	0.002566
 434	2.1650e-01	8.6551	5.261501	0.000034	0.342175	0.057966	0.001368
 435	2.1700e-01	8.6758	5.263212	0.000009	0.085544	0.014491	0.000342
 436	2.1750e-01	8.6975	5.273903	0.000053	0.534648	0.090572	0.002138
 437	2.1800e-01	8.7170	5.284166	0.000051	0.513262	0.086949	0.002053
 438	2.1850e-01	8.7335	5.297850	0.000068	0.684349	0.115932	0.002737
 439	2.1900e-01	8.7555	5.306830	0.000045	0.449104	0.076080	0.001796
 440	2.1950e-01	8.7756	5.314099	0.000036	0.363561	0.061589	0.001454
 441	2.2000e-01	8.8007	5.320941	0.000034	0.342175	0.057966	0.001368
 442	2.2050e-01	8.8171	5.329921	0.000045	0.449104	0.076080	0.001796
 443	2.2100e-01	8.8379	5.343605	0.000068	0.684349	0.115932	0.002737
 444	2.2150e-01	8.8562	5.337619	-0.000030	-0.299403	-0.050720	-0.001197
 445	2.2200e-01	8.8770	5.347026	0.000047	0.470490	0.079703	0.001882
 446	2.2250e-01	8.8940	5.369263	0.000111	1.112068	0.188389	0.004447
 447	2.2300e-01	8.9154	5.371401	0.000011	0.106930	0.018114	0.000428
 448	2.2350e-01	8.9365	5.394920	0.000118	1.176225	0.199258	0.004704
 449	2.2400e-01	8.9526	5.395348	0.000002	0.021386	0.003623	0.000086
 450	2.2450e-01	8.9752	5.400052	0.000024	0.235245	0.039852	0.000941
 451	2.2500e-01	8.9948	5.415446	0.000077	0.769893	0.130423	0.003079
 452	2.2550e-01	9.0143	5.425282	0.000049	0.491876	0.083326	0.001967
 453	2.2600e-01	9.0363	5.427420	0.000011	0.106930	0.018114	0.000428
 454	2.2650e-01	9.0558	5.434262	0.000034	0.342175	0.057966	0.001368
 455	2.2700e-01	9.0771	5.446663	0.000062	0.620192	0.105063	0.002480
 456	2.2750e-01	9.0964	5.450512	0.000019	0.192473	0.032606	0.000770
 457	2.2800e-01	9.1162	5.461202	0.000053	0.534648	0.090572	0.002138
 458	2.2850e-01	9.1357	5.461630	0.000002	0.021386	0.003623	0.000086
 459	2.2900e-01	9.1565	5.480873	0.000096	0.962366	0.163029	0.003849
 460	2.2950e-01	9.1772	5.486432	0.000028	0.278017	0.047097	0.001112
 461	2.3000e-01	9.1974	5.497123	0.000053	0.534648	0.090572	0.002138
 462	2.3050e-01	9.2169	5.497123	0.000000	0.000000	0.000000	0.000000
 463	2.3100e-01	9.2358	5.521070	0.000120	1.197611	0.202881	0.004789
 464	2.3150e-01	9.2554	5.528340	0.000036	0.363561	0.061589	0.001454
 465	2.3200e-01	9.2767	5.534326	0.000030	0.299403	0.050720	0.001197
 466	2.3250e-01	9.2944	5.540313	0.000030	0.299403	0.050720	0.001197
 467	2.3300e-01	9.3195	5.546300	0.000030	0.299403	0.050720	0.001197
 468	2.3350e-01	9.3356	5.559556	0.000066	0.662963	0.112309	0.002651
 469	2.3400e-01	9.3576	5.568109	0.000043	0.427718	0.072457	0.001711
 470	2.3450e-01	9.3762	5.576234	0.000041	0.406332	0.068835	0.001625
 471	2.3500e-01	9.3958	5.584358	0.000041	0.406332	0.068835	0.001625
 472	2.3550e-01	9.4147	5.592483	0.000041	0.406332	0.068835	0.001625
 473	2.3600e-01	9.4373	5.602319	0.000049	0.491876	0.083326	0.001967
 474	2.3650e-01	9.4531	5.613865	0.000058	0.577420	0.097818	0.002309
 475	2.3700e-01	9.4757	5.617713	0.000019	0.192473	0.032606	0.000770
 476	2.3750e-01	9.4983	5.621562	0.000019	0.192473	0.032606	0.000770
 477	2.3800e-01	9.5172	5.638239	0.000083	0.834051	0.141292	0.003335
 478	2.3850e-01	9.5355	5.646364	0.000041	0.406332	0.068835	0.001625
 479	2.3900e-01	9.5554	5.658338	0.000060	0.598806	0.101440	0.002395
 480	2.3950e-01	9.5776	5.657055	-0.000006	-0.064158	-0.010869	-0.000257
 481	2.4000e-01	9.5959	5.672449	0.000077	0.769893	0.130423	0.003079
 482	2.4050e-01	9.6167	5.678008	0.000028	0.278017	0.047097	0.001112
 483	2.4100e-01	9.6353	5.687416	0.000047	0.470490	0.079703	0.001882
 484	2.4150e-01	9.6558	5.695541	0.000041	0.406332	0.068835	0.001625
 485	2.4200e-01	9.6771	5.704094	0.000043	0.427718	0.072457	0.001711
 486	2.4250e-01	9.6924	5.707515	0.000017	0.171087	0.028983	0.000684
 487	2.4300e-01	9.7156	5.716922	0.000047	0.470490	0.079703	0.001882
 488	2.4350e-01	9.7351	5.728896	0.000060	0.598806	0.101440	0.002395
 489	2.4400e-01	9.7540	5.736593	0.000038	0.384946	0.065212	0.001539
 490	2.4450e-01	9.7748	5.743863	0.000036	0.363561	0.061589	0.001454
 491	2.4500e-01	9.7925	5.751132	0.000036	0.363561	0.061589	0.001454
 492	2.4550e-01	9.8157	5.759257	0.000041	0.406332	0.068835	0.001625
 493	2.4600e-01	9.8352	5.775507	0.000081	0.812665	0.137669	0.003250
 494	2.4650e-01	9.8560	5.776790	0.000006	0.064158	0.010869	0.000257
 495	2.4700e-01	9.8730	5.775935	-0.000004	-0.042772	-0.007246	-0.000171
 496	2.4750e-01	9.8975	5.805868	0.000150	1.497014	0.253601	0.005987
 497	2.4800e-01	9.9133	5.795605	-0.000051	-0.513262	-0.086949	-0.002053
 498	2.4850e-01	9.9371	5.806296	0.000053	0.534648	0.090572	0.002138
 499	2.4900e-01	9.9561	5.815276	0.000045	0.449104	0.076080	0.001796
 500	2.4950e-01	9.9765	5.834519	0.000096	0.962366	0.163029	0.003849
 501	2.5000e-01	9.9942	5.833236	-0.000006	-0.064158	-0.010869	-0.000257
 502	2.5050e-01	9.9786	5.830243	0.000015	0.149701	0.025360	-0.000599
 503	2.5100e-01	9.9524	5.821263	0.000045	0.449104	0.076080	-0.001796
 504	2.5150e-01	9.9380	5.831953	-0.000053	-0.534648	-0.090572	0.002138
 505	2.5200e-01	9.9179	5.821690	0.000051	0.513262	0.086949	-0.002053
 506	2.5250e-01	9.8999	5.812283	0.000047	0.470490	0.079703	-0.001882
 507	2.5300e-01	9.8737	5.800309	0.000060	0.598806	0.101440	-0.002395
 508	2.5350e-01	9.8553	5.804585	-0.000021	-0.213859	-0.036229	0.000855
 509	2.5400e-01	9.8370	5.799882	0.000024	0.235245	0.039852	-0.000941
 510	2.5450e-01	9.8181	5.788336	0.000058	0.577420	0.097818	-0.002309
 511	2.5500e-01	9.7949	5.781921	0.000032	0.320789	0.054343	-0.001283
 512	2.5550e-01	9.7760	5.776362	0.000028	0.278017	0.047097	-0.001112
 513	2.5600e-01	9.7574	5.767810	0.000043	0.427718	0.072457	-0.001711
 514	2.5650e-01	9.7357	5.760540	0.000036	0.363561	0.061589	-0.001454
 515	2.5700e-01	9.7180	5.758402	0.000011	0.106930	0.018114	-0.000428
 516	2.5750e-01	9.6954	5.747284	0.000056	0.556034	0.094195	-0.002224
 517	2.5800e-01	9.6765	5.744290	0.000015	0.149701	0.025360	-0.000599
 518	2.5850e-01	9.6570	5.738731	0.000028	0.278017	0.047097	-0.001112
 519	2.5900e-01	9.6368	5.728896	0.000049	0.491876	0.083326	-0.001967
 520	2.5950e-01	9.6130	5.722909	0.000030	0.299403	0.050720	-0.001197
 521	2.6000e-01	9.5981	5.712646	0.000051	0.513262	0.086949	-0.002053
 522	2.6050e-01	9.5764	5.712218	0.000002	0.021386	0.003623	-0.000086
 523	2.6100e-01	9.5535	5.708370	0.000019	0.192473	0.032606	-0.000770
 524	2.6150e-01	9.5319	5.697252	0.000056	0.556034	0.094195	-0.002224
 525	2.6200e-01	9.5178	5.689554	0.000038	0.384946	0.065212	-0.001539
 526	2.6250e-01	9.4958	5.685706	0.000019	0.192473	0.032606	-0.000770
 527	2.6300e-01	9.4751	5.680147	0.000028	0.278017	0.047097	-0.001112
 528	2.6350e-01	9.4556	5.669456	0.000053	0.534648	0.090572	-0.002138
 529	2.6400e-01	9.4366	5.664752	0.000024	0.235245	0.039852	-0.000941
 530	2.6450e-01	9.4183	5.655772	0.000045	0.449104	0.076080	-0.001796
 531	2.6500e-01	9.3939	5.655772	-0.000000	-0.000000	-0.000000	0.000000
 532	2.6550e-01	9.3750	5.635246	0.000103	1.026524	0.173898	-0.004105
 533	2.6600e-01	9.3512	5.637384	-0.000011	-0.106930	-0.018114	0.000428
 534	2.6650e-01	9.3365	5.629259	0.000041	0.406332	0.068835	-0.001625
 535	2.6700e-01	9.3152	5.632252	-0.000015	-0.149701	-0.025360	0.000599
 536	2.6750e-01	9.2981	5.621134	0.000056	0.556034	0.094195	-0.002224
 537	2.6800e-01	9.2769	5.605312	0.000079	0.791279	0.134046	-0.003164
 538	2.6850e-01	9.2554	5.599325	0.000030	0.299403	0.050720	-0.001197
 539	2.6900e-01	9.2352	5.601036	-0.000009	-0.085544	-0.014491	0.000342
 540	2.6950e-01	9.2151	5.586924	0.000071	0.705735	0.119555	-0.002822
 541	2.7000e-01	9.1968	5.589490	-0.000013	-0.128315	-0.021737	0.000513
 542	2.7050e-01	9.1754	5.580510	0.000045	0.449104	0.076080	-0.001796
 543	2.7100e-01	9.1568	5.568964	0.000058	0.577420	0.097818	-0.002309
 544	2.7150e-01	9.1376	5.562977	0.000030	0.299403	0.050720	-0.001197
 545	2.7200e-01	9.1174	5.555280	0.000038	0.384946	0.065212	-0.001539
 546	2.7250e-01	9.0961	5.551859	0.000017	0.171087	0.028983	-0.000684
 547	2.7300e-01	9.0765	5.539030	0.000064	0.641577	0.108686	-0.002566
 548	2.7350e-01	9.0570	5.539885	-0.000004	-0.042772	-0.007246	0.000171
 549	2.7400e-01	9.0363	5.526201	0.000068	0.684349	0.115932	-0.002737
 550	2.7450e-01	9.0155	5.521925	0.000021	0.213859	0.036229	-0.000855
 551	2.7500e-01	8.9948	5.518504	0.000017	0.171087	0.028983	-0.000684
 552	2.7550e-01	8.9783	5.500116	0.000092	0.919594	0.155783	-0.003678
 553	2.7600e-01	8.9563	5.491991	0.000041	0.406332	0.068835	-0.001625
 554	2.7650e-01	8.9368	5.486432	0.000028	0.278017	0.047097	-0.001112
 555	2.7700e-01	8.9178	5.482156	0.000021	0.213859	0.036229	-0.000855
 556	2.7750e-01	8.8953	5.467189	0.000075	0.748507	0.126801	-0.002993
 557	2.7800e-01	8.8751	5.462913	0.000021	0.213859	0.036229	-0.000855
 558	2.7850e-01	8.8556	5.458209	0.000024	0.235245	0.039852	-0.000941
 559	2.7900e-01	8.8348	5.453933	0.000021	0.213859	0.036229	-0.000855
 560	2.7950e-01	8.8123	5.444953	0.000045	0.449104	0.076080	-0.001796
 561	2.8000e-01	8.7982	5.445380	-0.000002	-0.021386	-0.003623	0.000086
 562	2.8050e-01	8.7793	5.434690	0.000053	0.534648	0.090572	-0.002138
 563	2.8100e-01	8.7582	5.430841	0.000019	0.192473	0.032606	-0.000770
 564	2.8150e-01	8.7378	5.424854	0.000030	0.299403	0.050720	-0.001197
 565	2.8200e-01	8.7164	5.412881	0.000060	0.598806	0.101440	-0.002395
 566	2.8250e-01	8.6957	5.400480	0.000062	0.620192	0.105063	-0.002480
 567	2.8300e-01	8.6786	5.391927	0.000043	0.427718	0.072457	-0.001711
 568	2.8350e-01	8.6572	5.393210	-0.000006	-0.064158	-0.010869	0.000257
 569	2.8400e-01	8.6353	5.379526	0.000068	0.684349	0.115932	-0.002737
 570	2.8450e-01	8.6206	5.369263	0.000051	0.513262	0.086949	-0.002053
 571	2.8500e-01	8.5962	5.367980	0.000006	0.064158	0.010869	-0.000257
 572	2.8550e-01	8.5760	5.352158	0.000079	0.791279	0.134046	-0.003164
 573	2.8600e-01	8.5565	5.350447	0.000009	0.085544	0.014491	-0.000342
 574	2.8650e-01	8.5370	5.337619	0.000064	0.641577	0.108686	-0.002566
 575	2.8700e-01	8.5168	5.336763	0.000004	0.042772	0.007246	-0.000171
 576	2.8750e-01	8.4964	5.335908	0.000004	0.042772	0.007246	-0.000171
 577	2.8800e-01	8.4766	5.320941	0.000075	0.748507	0.126801	-0.002993
 578	2.8850e-01	8.4567	5.315810	0.000026	0.256631	0.043474	-0.001026
 579	2.8900e-01	8.4352	5.298705	0.000086	0.855437	0.144915	-0.003421
 580	2.8950e-01	8.4174	5.296994	0.000009	0.085544	0.014491	-0.000342
 581	2.9000e-01	8.3997	5.291435	0.000028	0.278017	0.047097	-0.001112
 582	2.9050e-01	8.3765	5.279889	0.000058	0.577420	0.097818	-0.002309
 583	2.9100e-01	8.3545	5.273903	0.000030	0.299403	0.050720	-0.001197
 584	2.9150e-01	8.3337	5.267916	0.000030	0.299403	0.050720	-0.001197
 585	2.9200e-01	8.3185	5.261929	0.000030	0.299403	0.050720	-0.001197
 586	2.9250e-01	8.2959	5.252094	0.000049	0.491876	0.083326	-0.001967
 587	2.9300e-01	8.2764	5.242258	0.000049	0.491876	0.083326	-0.001967
 588	2.9350e-01	8.2574	5.232850	0.000047	0.470490	0.079703	-0.001882
 589	2.9400e-01	8.2379	5.229002	0.000019	0.192473	0.032606	-0.000770
 590	2.9450e-01	8.2159	5.221732	0.000036	0.363561	0.061589	-0.001454
 591	2.9500e-01	8.1970	5.212752	0.000045	0.449104	0.076080	-0.001796
 592	2.9550e-01	8.1763	5.206338	0.000032	0.320789	0.054343	-0.001283
 593	2.9600e-01	8.1567	5.193509	0.000064	0.641577	0.108686	-0.002566
 594	2.9650e-01	8.1360	5.193937	-0.000002	-0.021386	-0.003623	0.000086
 595	2.9700e-01	8.1177	5.179825	0.000071	0.705735	0.119555	-0.002822
 596	2.9750e-01	8.0945	5.176404	0.000017	0.171087	0.028983	-0.000684
 597	2.9800e-01	8.0756	5.167851	0.000043	0.427718	0.072457	-0.001711
 598	2.9850e-01	8.0573	5.149036	0.000094	0.940980	0.159406	-0.003763
 599	2.9900e-01	8.0377	5.156306	-0.000036	-0.363561	-0.061589	0.001454
 600	2.9950e-01	8.0179	5.143477	0.000064	0.641577	0.108686	-0.002566
 601	3.0000e-01	7.9987	5.140483	0.000015	0.149701	0.025360	-0.000599
 602	3.0050e-01	7.9767	5.135352	0.000026	0.256631	0.043474	-0.001026
 603	3.0100e-01	7.9553	5.116536	0.000094	0.940980	0.159406	-0.003763
 604	3.0150e-01	7.9358	5.114398	0.000011	0.106930	0.018114	-0.000428
 605	3.0200e-01	7.9150	5.105418	0.000045	0.449104	0.076080	-0.001796
 606	3.0250e-01	7.8989	5.095583	0.000049	0.491876	0.083326	-0.001967
 607	3.0300e-01	7.8754	5.086175	0.000047	0.470490	0.079703	-0.001882
 608	3.0350e-01	7.8595	5.079333	0.000034	0.342175	0.057966	-0.001368
 609	3.0400e-01	7.8375	5.079333	-0.000000	-0.000000	-0.000000	0.000000
 610	3.0450e-01	7.8186	5.058807	0.000103	1.026524	0.173898	-0.004105
 611	3.0500e-01	7.7972	5.064366	-0.000028	-0.278017	-0.047097	0.001112
 612	3.0550e-01	7.7762	5.047689	0.000083	0.834051	0.141292	-0.003335
 613	3.0600e-01	7.7570	5.038709	0.000045	0.449104	0.076080	-0.001796
 614	3.0650e-01	7.7405	5.030584	0.000041	0.406332	0.068835	-0.001625
 615	3.0700e-01	7.7161	5.021176	0.000047	0.470490	0.079703	-0.001882
 616	3.0750e-01	7.6981	5.025025	-0.000019	-0.192473	-0.032606	0.000770
 617	3.0800e-01	7.6764	5.012623	0.000062	0.620192	0.105063	-0.002480
 618	3.0850e-01	7.6550	5.006209	0.000032	0.320789	0.054343	-0.001283
 619	3.0900e-01	7.6343	5.001078	0.000026	0.256631	0.043474	-0.001026
 620	3.0950e-01	7.6160	4.987394	0.000068	0.684349	0.115932	-0.002737
 621	3.1000e-01	7.5998	4.980979	0.000032	0.320789	0.054343	-0.001283
 622	3.1050e-01	7.5793	4.972854	0.000041	0.406332	0.068835	-0.001625
 623	3.1100e-01	7.5574	4.955322	0.000088	0.876822	0.148538	-0.003507
 624	3.1150e-01	7.5391	4.959598	-0.000021	-0.213859	-0.036229	0.000855
 625	3.1200e-01	7.5168	4.940782	0.000094	0.940980	0.159406	-0.003763
 626	3.1250e-01	7.4994	4.939500	0.000006	0.064158	0.010869	-0.000257
 627	3.1300e-01	7.4780	4.927098	0.000062	0.620192	0.105063	-0.002480
 628	3.1350e-01	7.4561	4.915125	0.000060	0.598806	0.101440	-0.002395
 629	3.1400e-01	7.4364	4.909566	0.000028	0.278017	0.047097	-0.001112
 630	3.1450e-01	7.4139	4.907000	0.000013	0.128315	0.021737	-0.000513
 631	3.1500e-01	7.3956	4.895454	0.000058	0.577420	0.097818	-0.002309
 632	3.1550e-01	7.3767	4.883481	0.000060	0.598806	0.101440	-0.002395
 633	3.1600e-01	7.3584	4.884336	-0.000004	-0.042772	-0.007246	0.000171
 634	3.1650e-01	7.3352	4.871507	0.000064	0.641577	0.108686	-0.002566
 635	3.1700e-01	7.3187	4.859961	0.000058	0.577420	0.097818	-0.002309
 636	3.1750e-01	7.2968	4.863382	-0.000017	-0.171087	-0.028983	0.000684
 637	3.1800e-01	7.2778	4.848843	0.000073	0.727121	0.123178	-0.002908
 638	3.1850e-01	7.2571	4.843284	0.000028	0.278017	0.047097	-0.001112
 639	3.1900e-01	7.2363	4.829600	0.000068	0.684349	0.115932	-0.002737
 640	3.1950e-01	7.2147	4.818909	0.000053	0.534648	0.090572	-0.002138
 641	3.2000e-01	7.2005	4.814633	0.000021	0.213859	0.036229	-0.000855
 642	3.2050e-01	7.1754	4.806508	0.000041	0.406332	0.068835	-0.001625
 643	3.2100e-01	7.1552	4.798383	0.000041	0.406332	0.068835	-0.001625
 644	3.2150e-01	7.1368	4.793679	0.000024	0.235245	0.039852	-0.000941
 645	3.2200e-01	7.1179	4.790686	0.000015	0.149701	0.025360	-0.000599
 646	3.2250e-01	7.0972	4.771870	0.000094	0.940980	0.159406	-0.003763
 647	3.2300e-01	7.0758	4.760752	0.000056	0.556034	0.094195	-0.002224
 648	3.2350e-01	7.0593	4.744502	0.000081	0.812665	0.137669	-0.003250
 649	3.2400e-01	7.0367	4.741509	0.000015	0.149701	0.025360	-0.000599
 650	3.2450e-01	7.0178	4.738088	0.000017	0.171087	0.028983	-0.000684
 651	3.2500e-01	6.9965	4.723549	0.000073	0.727121	0.123178	-0.002908
 652	3.2550e-01	6.9754	4.719273	0.000021	0.213859	0.036229	-0.000855
 653	3.2600e-01	6.9580	4.702168	0.000086	0.855437	0.144915	-0.003421
 654	3.2650e-01	6.9379	4.704306	-0.000011	-0.106930	-0.018114	0.000428
 655	3.2700e-01	6.9131	4.692760	0.000058	0.577420	0.097818	-0.002309
 656	3.2750e-01	6.8958	4.679931	0.000064	0.641577	0.108686	-0.002566
 657	3.2800e-01	6.8750	4.682497	-0.000013	-0.128315	-0.021737	0.000513
 658	3.2850e-01	6.8549	4.674800	0.000038	0.384946	0.065212	-0.001539
 659	3.2900e-01	6.8365	4.664536	0.000051	0.513262	0.086949	-0.002053
 660	3.2950e-01	6.8188	4.648287	0.000081	0.812665	0.137669	-0.003250
 661	3.3000e-01	6.7975	4.644438	0.000019	0.192473	0.032606	-0.000770
 662	3.3050e-01	6.7767	4.630754	0.000068	0.684349	0.115932	-0.002737
 663	3.3100e-01	6.7572	4.628616	0.000011	0.106930	0.018114	-0.000428
 664	3.3150e-01	6.7358	4.625195	0.000017	0.171087	0.028983	-0.000684
 665	3.3200e-01	6.7206	4.605524	0.000098	0.983752	0.166652	-0.003934
 666	3.3250e-01	6.6968	4.603814	0.000009	0.085544	0.014491	-0.000342
 667	3.3300e-01	6.6772	4.561479	0.000212	2.117205	0.358664	-0.008467
 668	3.3350e-01	6.6586	4.583288	-0.000109	-1.090682	-0.184766	0.004362
 669	3.3400e-01	6.6376	4.570887	0.000062	0.620192	0.105063	-0.002480
 670	3.3450e-01	6.6141	4.555920	0.000075	0.748507	0.126801	-0.002993
 671	3.3500e-01	6.5948	4.553782	0.000011	0.106930	0.018114	-0.000428
 672	3.3550e-01	6.5765	4.549078	0.000024	0.235245	0.039852	-0.000941
 673	3.3600e-01	6.5594	4.525558	0.000118	1.176225	0.199258	-0.004704
 674	3.3650e-01	6.5372	4.527269	-0.000009	-0.085544	-0.014491	0.000342
 675	3.3700e-01	6.5179	4.521282	0.000030	0.299403	0.050720	-0.001197
 676	3.3750e-01	6.4969	4.517006	0.000021	0.213859	0.036229	-0.000855
 677	3.3800e-01	6.4771	4.496907	0.000101	1.005138	0.170275	-0.004020
 678	3.3850e-01	6.4539	4.493914	0.000015	0.149701	0.025360	-0.000599
 679	3.3900e-01	6.4374	4.486644	0.000036	0.363561	0.061589	-0.001454
 680	3.3950e-01	6.4156	4.473388	0.000066	0.662963	0.112309	-0.002651
 681	3.4000e-01	6.3965	4.468256	0.000026	0.256631	0.043474	-0.001026
 682	3.4050e-01	6.3776	4.456283	0.000060	0.598806	0.101440	-0.002395
 683	3.4100e-01	6.3565	4.446020	0.000051	0.513262	0.086949	-0.002053
 684	3.4150e-01	6.3367	4.440888	0.000026	0.256631	0.043474	-0.001026
 685	3.4200e-01	6.3165	4.428060	0.000064	0.641577	0.108686	-0.002566
 686	3.4250e-01	6.2958	4.423783	0.000021	0.213859	0.036229	-0.000855
 687	3.4300e-01	6.2759	4.412665	0.000056	0.556034	0.094195	-0.002224
 688	3.4350e-01	6.2585	4.407961	0.000024	0.235245	0.039852	-0.000941
 689	3.4400e-01	6.2384	4.390001	0.000090	0.898208	0.152161	-0.003592
 690	3.4450e-01	6.2164	4.383587	0.000032	0.320789	0.054343	-0.001283
 691	3.4500e-01	6.1964	4.378883	0.000024	0.235245	0.039852	-0.000941
 692	3.4550e-01	6.1749	4.369047	0.000049	0.491876	0.083326	-0.001967
 693	3.4600e-01	6.1568	4.351942	0.000086	0.855437	0.144915	-0.003421
 694	3.4650e-01	6.1407	4.347666	0.000021	0.213859	0.036229	-0.000855
 695	3.4700e-01	6.1160	4.337403	0.000051	0.513262	0.086949	-0.002053
 696	3.4750e-01	6.0974	4.336548	0.000004	0.042772	0.007246	-0.000171
 697	3.4800e-01	6.0779	4.319871	0.000083	0.834051	0.141292	-0.003335
 698	3.4850e-01	6.0562	4.317732	0.000011	0.106930	0.018114	-0.000428
 699	3.4900e-01	6.0359	4.300627	0.000086	0.855437	0.144915	-0.003421
 700	3.4950e-01	6.0175	4.292075	0.000043	0.427718	0.072457	-0.001711
 701	3.5000e-01	5.9995	4.295496	-0.000017	-0.171087	-0.028983	0.000684
 702	3.5050e-01	5.9805	4.268555	0.000135	1.347313	0.228241	-0.005388
 703	3.5100e-01	5.9570	4.267700	0.000004	0.042772	0.007246	-0.000171
 704	3.5150e-01	5.9357	4.260858	0.000034	0.342175	0.057966	-0.001368
 705	3.5200e-01	5.9167	4.246319	0.000073	0.727121	0.123178	-0.002908
 706	3.5250e-01	5.8978	4.233918	0.000062	0.620192	0.105063	-0.002480
 707	3.5300e-01	5.8772	4.225365	0.000043	0.427718	0.072457	-0.001711
 708	3.5350e-01	5.8594	4.219806	0.000028	0.278017	0.047097	-0.001112
 709	3.5400e-01	5.8350	4.208260	0.000058	0.577420	0.097818	-0.002309
 710	3.5450e-01	5.8185	4.193721	0.000073	0.727121	0.123178	-0.002908
 711	3.5500e-01	5.7954	4.190300	0.000017	0.171087	0.028983	-0.000684
 712	3.5550e-01	5.7782	4.181320	0.000045	0.449104	0.076080	-0.001796
 713	3.5600e-01	5.7605	4.171485	0.000049	0.491876	0.083326	-0.001967
 714	3.5650e-01	5.7361	4.162504	0.000045	0.449104	0.076080	-0.001796
 715	3.5700e-01	5.7156	4.152241	0.000051	0.513262	0.086949	-0.002053
 716	3.5750e-01	5.6973	4.143689	0.000043	0.427718	0.072457	-0.001711
 717	3.5800e-01	5.6775	4.130433	0.000066	0.662963	0.112309	-0.002651
 718	3.5850e-01	5.6567	4.121452	0.000045	0.449104	0.076080	-0.001796
 719	3.5900e-01	5.6363	4.115893	0.000028	0.278017	0.047097	-0.001112
 720	3.5950e-01	5.6177	4.102209	0.000068	0.684349	0.115932	-0.002737
 721	3.6000e-01	5.5963	4.094940	0.000036	0.363561	0.061589	-0.001454
 722	3.6050e-01	5.5786	4.086387	0.000043	0.427718	0.072457	-0.001711
 723	3.6100e-01	5.5579	4.068427	0.000090	0.898208	0.152161	-0.003592
 724	3.6150e-01	5.5347	4.070565	-0.000011	-0.106930	-0.018114	0.000428
 725	3.6200e-01	5.5151	4.048328	0.000111	1.112068	0.188389	-0.004447
 726	3.6250e-01	5.4956	4.043625	0.000024	0.235245	0.039852	-0.000941
 727	3.6300e-01	5.4770	4.034644	0.000045	0.449104	0.076080	-0.001796
 728	3.6350e-01	5.4553	4.024809	0.000049	0.491876	0.083326	-0.001967
 729	3.6400e-01	5.4376	4.014118	0.000053	0.534648	0.090572	-0.002138
 730	3.6450e-01	5.4172	4.001717	0.000062	0.620192	0.105063	-0.002480
 731	3.6500e-01	5.3979	3.991454	0.000051	0.513262	0.086949	-0.002053
 732	3.6550e-01	5.3745	3.997013	-0.000028	-0.278017	-0.047097	0.001112
 733	3.6600e-01	5.3558	3.978198	0.000094	0.940980	0.159406	-0.003763
 734	3.6650e-01	5.3375	3.961521	0.000083	0.834051	0.141292	-0.003335
 735	3.6700e-01	5.3168	3.952113	0.000047	0.470490	0.079703	-0.001882
 736	3.6750e-01	5.2991	3.945698	0.000032	0.320789	0.054343	-0.001283
 737	3.6800e-01	5.2765	3.929449	0.000081	0.812665	0.137669	-0.003250
 738	3.6850e-01	5.2571	3.927311	0.000011	0.106930	0.018114	-0.000428
 739	3.6900e-01	5.2377	3.914054	0.000066	0.662963	0.112309	-0.002651
 740	3.6950e-01	5.2155	3.906785	0.000036	0.363561	0.061589	-0.001454
 741	3.7000e-01	5.1959	3.898232	0.000043	0.427718	0.072457	-0.001711
 742	3.7050e-01	5.1765	3.885831	0.000062	0.620192	0.105063	-0.002480
 743	3.7100e-01	5.1550	3.881982	0.000019	0.192473	0.032606	-0.000770
 744	3.7150e-01	5.1373	3.868726	0.000066	0.662963	0.112309	-0.002651
 745	3.7200e-01	5.1190	3.849910	0.000094	0.940980	0.159406	-0.003763
 746	3.7250e-01	5.0958	3.848627	0.000006	0.064158	0.010869	-0.000257
 747	3.7300e-01	5.0754	3.834088	0.000073	0.727121	0.123178	-0.002908
 748	3.7350e-01	5.0580	3.828101	0.000030	0.299403	0.050720	-0.001197
 749	3.7400e-01	5.0354	3.815700	0.000062	0.620192	0.105063	-0.002480
 750	3.7450e-01	5.0174	3.801161	0.000073	0.727121	0.123178	-0.002908
 751	3.7500e-01	4.9946	3.802016	-0.000004	-0.042772	-0.007246	0.000171
 752	3.7550e-01	4.9753	3.792609	0.000047	0.470490	0.079703	-0.001882
 753	3.7600e-01	4.9561	3.777214	0.000077	0.769893	0.130423	-0.003079
 754	3.7650e-01	4.9356	3.761820	0.000077	0.769893	0.130423	-0.003079
 755	3.7700e-01	4.9176	3.754550	0.000036	0.363561	0.061589	-0.001454
 756	3.7750e-01	4.8950	3.751129	0.000017	0.171087	0.028983	-0.000684
 757	3.7800e-01	4.8770	3.735307	0.000079	0.791279	0.134046	-0.003164
 758	3.7850e-01	4.8587	3.724616	0.000053	0.534648	0.090572	-0.002138
 759	3.7900e-01	4.8373	3.714781	0.000049	0.491876	0.083326	-0.001967
 760	3.7950e-01	4.8163	3.705801	0.000045	0.449104	0.076080	-0.001796
 761	3.8000e-01	4.7961	3.692544	0.000066	0.662963	0.112309	-0.002651
 762	3.8050e-01	4.7769	3.686130	0.000032	0.320789	0.054343	-0.001283
 763	3.8100e-01	4.7559	3.669880	0.000081	0.812665	0.137669	-0.003250
 764	3.8150e-01	4.7364	3.665176	0.000024	0.235245	0.039852	-0.000941
 765	3.8200e-01	4.7162	3.647644	0.000088	0.876822	0.148538	-0.003507
 766	3.8250e-01	4.6967	3.642940	0.000024	0.235245	0.039852	-0.000941
 767	3.8300e-01	4.6753	3.625407	0.000088	0.876822	0.148538	-0.003507
 768	3.8350e-01	4.6561	3.618565	0.000034	0.342175	0.057966	-0.001368
 769	3.8400e-01	4.6353	3.610868	0.000038	0.384946	0.065212	-0.001539
 770	3.8450e-01	4.6182	3.598894	0.000060	0.598806	0.101440	-0.002395
 771	3.8500e-01	4.5966	3.580934	0.000090	0.898208	0.152161	-0.003592
 772	3.8550e-01	4.5789	3.575375	0.000028	0.278017	0.047097	-0.001112
 773	3.8600e-01	4.5596	3.560836	0.000073	0.727121	0.123178	-0.002908
 774	3.8650e-01	4.5358	3.556987	0.000019	0.192473	0.032606	-0.000770
 775	3.8700e-01	4.5175	3.546296	0.000053	0.534648	0.090572	-0.002138
 776	3.8750e-01	4.4946	3.537316	0.000045	0.449104	0.076080	-0.001796
 777	3.8800e-01	4.4763	3.520211	0.000086	0.855437	0.144915	-0.003421
 778	3.8850e-01	4.4574	3.512942	0.000036	0.363561	0.061589	-0.001454
 779	3.8900e-01	4.4348	3.496692	0.000081	0.812665	0.137669	-0.003250
 780	3.8950e-01	4.4177	3.491560	0.000026	0.256631	0.043474	-0.001026
 781	3.9000e-01	4.3951	3.486001	0.000028	0.278017	0.047097	-0.001112
 782	3.9050e-01	4.3779	3.471462	0.000073	0.727121	0.123178	-0.002908
 783	3.9100e-01	4.3567	3.452219	0.000096	0.962366	0.163029	-0.003849
 784	3.9150e-01	4.3385	3.449653	0.000013	0.128315	0.021737	-0.000513
 785	3.9200e-01	4.3182	3.439818	0.000049	0.491876	0.083326	-0.001967
 786	3.9250e-01	4.2981	3.410739	0.000145	1.454242	0.246355	-0.005816
 787	3.9300e-01	4.2761	3.415015	-0.000021	-0.213859	-0.036229	0.000855
 788	3.9350e-01	4.2554	3.407318	0.000038	0.384946	0.065212	-0.001539
 789	3.9400e-01	4.2347	3.393207	0.000071	0.705735	0.119555	-0.002822
 790	3.9450e-01	4.2157	3.385509	0.000038	0.384946	0.065212	-0.001539
 791	3.9500e-01	4.1971	3.370542	0.000075	0.748507	0.126801	-0.002993
 792	3.9550e-01	4.1782	3.358569	0.000060	0.598806	0.101440	-0.002395
 793	3.9600e-01	4.1574	3.343602	0.000075	0.748507	0.126801	-0.002993
 794	3.9650e-01	4.1383	3.333767	0.000049	0.491876	0.083326	-0.001967
 795	3.9700e-01	4.1125	3.333339	0.000002	0.021386	0.003623	-0.000086
 796	3.9750e-01	4.0963	3.317089	0.000081	0.812665	0.137669	-0.003250
 797	3.9800e-01	4.0749	3.310247	0.000034	0.342175	0.057966	-0.001368
 798	3.9850e-01	4.0552	3.295280	0.000075	0.748507	0.126801	-0.002993
 799	3.9900e-01	4.0381	3.292287	0.000015	0.149701	0.025360	-0.000599
 800	3.9950e-01	4.0170	3.275182	0.000086	0.855437	0.144915	-0.003421
 801	4.0000e-01	3.9941	3.263208	0.000060	0.598806	0.101440	-0.002395
 802	4.0050e-01	3.9780	3.247386	0.000079	0.791279	0.134046	-0.003164
 803	4.0100e-01	3.9548	3.244393	0.000015	0.149701	0.025360	-0.000599
 804	4.0150e-01	3.9352	3.226860	0.000088	0.876822	0.148538	-0.003507
 805	4.0200e-01	3.9169	3.215742	0.000056	0.556034	0.094195	-0.002224
 806	4.0250e-01	3.8974	3.198209	0.000088	0.876822	0.148538	-0.003507
 807	4.0300e-01	3.8788	3.186664	0.000058	0.577420	0.097818	-0.002309
 808	4.0350e-01	3.8547	3.181960	0.000024	0.235245	0.039852	-0.000941
 809	4.0400e-01	3.8342	3.172980	0.000045	0.449104	0.076080	-0.001796
 810	4.0450e-01	3.8177	3.155875	0.000086	0.855437	0.144915	-0.003421
 811	4.0500e-01	3.7958	3.152026	0.000019	0.192473	0.032606	-0.000770
 812	4.0550e-01	3.7733	3.132783	0.000096	0.962366	0.163029	-0.003849
 813	4.0600e-01	3.7576	3.131072	0.000009	0.085544	0.014491	-0.000342
 814	4.0650e-01	3.7390	3.122520	0.000043	0.427718	0.072457	-0.001711
 815	4.0700e-01	3.7166	3.104132	0.000092	0.919594	0.155783	-0.003678
 816	4.0750e-01	3.6984	3.085744	0.000092	0.919594	0.155783	-0.003678
 817	4.0800e-01	3.6789	3.076764	0.000045	0.449104	0.076080	-0.001796
 818	4.0850e-01	3.6609	3.059231	0.000088	0.876822	0.148538	-0.003507
 819	4.0900e-01	3.6346	3.050679	0.000043	0.427718	0.072457	-0.001711
 820	4.0950e-01	3.6169	3.038278	0.000062	0.620192	0.105063	-0.002480
 821	4.1000e-01	3.5950	3.031008	0.000036	0.363561	0.061589	-0.001454
 822	4.1050e-01	3.5760	3.025876	0.000026	0.256631	0.043474	-0.001026
 823	4.1100e-01	3.5591	3.007916	0.000090	0.898208	0.152161	-0.003592
 824	4.1150e-01	3.5358	2.995943	0.000060	0.598806	0.101440	-0.002395
 825	4.1200e-01	3.5158	2.973706	0.000111	1.112068	0.188389	-0.004447
 826	4.1250e-01	3.4943	2.970713	0.000015	0.149701	0.025360	-0.000599
 827	4.1300e-01	3.4753	2.960022	0.000053	0.534648	0.090572	-0.002138
 828	4.1350e-01	3.4581	2.941634	0.000092	0.919594	0.155783	-0.003678
 829	4.1400e-01	3.4385	2.928378	0.000066	0.662963	0.112309	-0.002651
 830	4.1450e-01	3.4172	2.928378	-0.000000	-0.000000	-0.000000	0.000000
 831	4.1500e-01	3.3955	2.910418	0.000090	0.898208	0.152161	-0.003592
 832	4.1550e-01	3.3768	2.891174	0.000096	0.962366	0.163029	-0.003849
 833	4.1600e-01	3.3548	2.882622	0.000043	0.427718	0.072457	-0.001711
 834	4.1650e-01	3.3377	2.883477	-0.000004	-0.042772	-0.007246	0.000171
 835	4.1700e-01	3.3180	2.866372	0.000086	0.855437	0.144915	-0.003421
 836	4.1750e-01	3.2979	2.845846	0.000103	1.026524	0.173898	-0.004105
 837	4.1800e-01	3.2784	2.840715	0.000026	0.256631	0.043474	-0.001026
 838	4.1850e-01	3.2545	2.837721	0.000015	0.149701	0.025360	-0.000599
 839	4.1900e-01	3.2349	2.803084	0.000173	1.732259	0.293453	-0.006928
 840	4.1950e-01	3.2159	2.808215	-0.000026	-0.256631	-0.043474	0.001026
 841	4.2000e-01	3.1970	2.797952	0.000051	0.513262	0.086949	-0.002053
 842	4.2050e-01	3.1781	2.781702	0.000081	0.812665	0.137669	-0.003250
 843	4.2100e-01	3.1583	2.757755	0.000120	1.197611	0.202881	-0.004789
 844	4.2150e-01	3.1378	2.748348	0.000047	0.470490	0.079703	-0.001882
 845	4.2200e-01	3.1158	2.742789	0.000028	0.278017	0.047097	-0.001112
 846	4.2250e-01	3.0961	2.730815	0.000060	0.598806	0.101440	-0.002395
 847	4.2300e-01	3.0759	2.723118	0.000038	0.384946	0.065212	-0.001539
 848	4.2350e-01	3.0562	2.706440	0.000083	0.834051	0.141292	-0.003335
 849	4.2400e-01	3.0377	2.691473	0.000075	0.748507	0.126801	-0.002993
 850	4.2450e-01	3.0170	2.682921	0.000043	0.427718	0.072457	-0.001711
 851	4.2500e-01	2.9950	2.672230	0.000053	0.534648	0.090572	-0.002138
 852	4.2550e-01	2.9794	2.663250	0.000045	0.449104	0.076080	-0.001796
 853	4.2600e-01	2.9572	2.635455	0.000139	1.390084	0.235487	-0.005559
 854	4.2650e-01	2.9361	2.631178	0.000021	0.213859	0.036229	-0.000855
 855	4.2700e-01	2.9172	2.616639	0.000073	0.727121	0.123178	-0.002908
 856	4.2750e-01	2.8957	2.609797	0.000034	0.342175	0.057966	-0.001368
 857	4.2800e-01	2.8762	2.596968	0.000064	0.641577	0.108686	-0.002566
 858	4.2850e-01	2.8565	2.579436	0.000088	0.876822	0.148538	-0.003507
 859	4.2900e-01	2.8375	2.565324	0.000071	0.705735	0.119555	-0.002822
 860	4.2950e-01	2.8146	2.561903	0.000017	0.171087	0.028983	-0.000684
 861	4.3000e-01	2.8006	2.535818	0.000130	1.304541	0.220995	-0.005217
 862	4.3050e-01	2.7768	2.538811	-0.000015	-0.149701	-0.025360	0.000599
 863	4.3100e-01	2.7602	2.518285	0.000103	1.026524	0.173898	-0.004105
 864	4.3150e-01	2.7357	2.506312	0.000060	0.598806	0.101440	-0.002395
 865	4.3200e-01	2.7162	2.481937	0.000122	1.218997	0.206504	-0.004875
 866	4.3250e-01	2.6955	2.483220	-0.000006	-0.064158	-0.010869	0.000257
 867	4.3300e-01	2.6743	2.477661	0.000028	0.278017	0.047097	-0.001112
 868	4.3350e-01	2.6559	2.446444	0.000156	1.561172	0.264470	-0.006243
 869	4.3400e-01	2.6370	2.440885	0.000028	0.278017	0.047097	-0.001112
 870	4.3450e-01	2.6172	2.428912	0.000060	0.598806	0.101440	-0.002395
 871	4.3500e-01	2.5961	2.417366	0.000058	0.577420	0.097818	-0.002309
 872	4.3550e-01	2.5769	2.398550	0.000094	0.940980	0.159406	-0.003763
 873	4.3600e-01	2.5574	2.382728	0.000079	0.791279	0.134046	-0.003164
 874	4.3650e-01	2.5378	2.376314	0.000032	0.320789	0.054343	-0.001283
 875	4.3700e-01	2.5168	2.356643	0.000098	0.983752	0.166652	-0.003934
 876	4.3750e-01	2.4973	2.350656	0.000030	0.299403	0.050720	-0.001197
 877	4.3800e-01	2.4779	2.340821	0.000049	0.491876	0.083326	-0.001967
 878	4.3850e-01	2.4557	2.322005	0.000094	0.940980	0.159406	-0.003763
 879	4.3900e-01	2.4374	2.307466	0.000073	0.727121	0.123178	-0.002908
 880	4.3950e-01	2.4181	2.293782	0.000068	0.684349	0.115932	-0.002737
 881	4.4000e-01	2.3956	2.283091	0.000053	0.534648	0.090572	-0.002138
 882	4.4050e-01	2.3738	2.276677	0.000032	0.320789	0.054343	-0.001283
 883	4.4100e-01	2.3547	2.263421	0.000066	0.662963	0.112309	-0.002651
 884	4.4150e-01	2.3386	2.243322	0.000101	1.005138	0.170275	-0.004020
 885	4.4200e-01	2.3151	2.230921	0.000062	0.620192	0.105063	-0.002480
 886	4.4250e-01	2.2957	2.218092	0.000064	0.641577	0.108686	-0.002566
 887	4.4300e-01	2.2756	2.203981	0.000071	0.705735	0.119555	-0.002822
 888	4.4350e-01	2.2562	2.192007	0.000060	0.598806	0.101440	-0.002395
 889	4.4400e-01	2.2395	2.177896	0.000071	0.705735	0.119555	-0.002822
 890	4.4450e-01	2.2157	2.172336	0.000028	0.278017	0.047097	-0.001112
 891	4.4500e-01	2.1951	2.146251	0.000130	1.304541	0.220995	-0.005217
 892	4.4550e-01	2.1759	2.142403	0.000019	0.192473	0.032606	-0.000770
 893	4.4600e-01	2.1564	2.135561	0.000034	0.342175	0.057966	-0.001368
 894	4.4650e-01	2.1375	2.115035	0.000103	1.026524	0.173898	-0.004105
 895	4.4700e-01	2.1156	2.108620	0.000032	0.320789	0.054343	-0.001283
 896	4.4750e-01	2.0985	2.100068	0.000043	0.427718	0.072457	-0.001711
 897	4.4800e-01	2.0753	2.064575	0.000178	1.775031	0.300698	-0.007099
 898	4.4850e-01	2.0570	2.059016	0.000028	0.278017	0.047097	-0.001112
 899	4.4900e-01	2.0353	2.042338	0.000083	0.834051	0.141292	-0.003335
 900	4.4950e-01	2.0175	2.027799	0.000073	0.727121	0.123178	-0.002908
 901	4.5000e-01	1.9975	2.010266	0.000088	0.876822	0.148538	-0.003507
 902	4.5050e-01	1.9781	2.001286	0.000045	0.449104	0.076080	-0.001796
 903	4.5100e-01	1.9558	1.990596	0.000053	0.534648	0.090572	-0.002138
 904	4.5150e-01	1.9382	1.987602	0.000015	0.149701	0.025360	-0.000599
 905	4.5200e-01	1.9170	1.967932	0.000098	0.983752	0.166652	-0.003934
 906	4.5250e-01	1.9003	1.943557	0.000122	1.218997	0.206504	-0.004875
 907	4.5300e-01	1.8746	1.940991	0.000013	0.128315	0.021737	-0.000513
 908	4.5350e-01	1.8576	1.921748	0.000096	0.962366	0.163029	-0.003849
 909	4.5400e-01	1.8352	1.912768	0.000045	0.449104	0.076080	-0.001796
 910	4.5450e-01	1.8165	1.899511	0.000066	0.662963	0.112309	-0.002651
 911	4.5500e-01	1.7975	1.884972	0.000073	0.727121	0.123178	-0.002908
 912	4.5550e-01	1.7727	1.870433	0.000073	0.727121	0.123178	-0.002908
 913	4.5600e-01	1.7560	1.852900	0.000088	0.876822	0.148538	-0.003507
 914	4.5650e-01	1.7381	1.846914	0.000030	0.299403	0.050720	-0.001197
 915	4.5700e-01	1.7151	1.824677	0.000111	1.112068	0.188389	-0.004447
 916	4.5750e-01	1.6971	1.812276	0.000062	0.620192	0.105063	-0.002480
 917	4.5800e-01	1.6763	1.794316	0.000090	0.898208	0.152161	-0.003592
 918	4.5850e-01	1.6544	1.784908	0.000047	0.470490	0.079703	-0.001882
 919	4.5900e-01	1.6371	1.766092	0.000094	0.940980	0.159406	-0.003763
 920	4.5950e-01	1.6173	1.763954	0.000011	0.106930	0.018114	-0.000428
 921	4.6000e-01	1.5948	1.746849	0.000086	0.855437	0.144915	-0.003421
 922	4.6050e-01	1.5762	1.722047	0.000124	1.240383	0.210127	-0.004960
 923	4.6100e-01	1.5549	1.715205	0.000034	0.342175	0.057966	-0.001368
 924	4.6150e-01	1.5366	1.695962	0.000096	0.962366	0.163029	-0.003849
 925	4.6200e-01	1.5147	1.679284	0.000083	0.834051	0.141292	-0.003335
 926	4.6250e-01	1.4954	1.669021	0.000051	0.513262	0.086949	-0.002053
 927	4.6300e-01	1.4784	1.666883	0.000011	0.106930	0.018114	-0.000428
 928	4.6350e-01	1.4584	1.642509	0.000122	1.218997	0.206504	-0.004875
 929	4.6400e-01	1.4359	1.632673	0.000049	0.491876	0.083326	-0.001967
 930	4.6450e-01	1.4162	1.611720	0.000105	1.047910	0.177521	-0.004191
 931	4.6500e-01	1.3953	1.601457	0.000051	0.513262	0.086949	-0.002053
 932	4.6550e-01	1.3770	1.587345	0.000071	0.705735	0.119555	-0.002822
 933	4.6600e-01	1.3572	1.569812	0.000088	0.876822	0.148538	-0.003507
 934	4.6650e-01	1.3351	1.559122	0.000053	0.534648	0.090572	-0.002138
 935	4.6700e-01	1.3153	1.541589	0.000088	0.876822	0.148538	-0.003507
 936	4.6750e-01	1.2952	1.523201	0.000092	0.919594	0.155783	-0.003678
 937	4.6800e-01	1.2759	1.524056	-0.000004	-0.042772	-0.007246	0.000171
 938	4.6850e-01	1.2549	1.499682	0.000122	1.218997	0.206504	-0.004875
 939	4.6900e-01	1.2350	1.484715	0.000075	0.748507	0.126801	-0.002993
 940	4.6950e-01	1.2155	1.466755	0.000090	0.898208	0.152161	-0.003592
 941	4.7000e-01	1.1943	1.452215	0.000073	0.727121	0.123178	-0.002908
 942	4.7050e-01	1.1752	1.442808	0.000047	0.470490	0.079703	-0.001882
 943	4.7100e-01	1.1576	1.429124	0.000068	0.684349	0.115932	-0.002737
 944	4.7150e-01	1.1363	1.411591	0.000088	0.876822	0.148538	-0.003507
 945	4.7200e-01	1.1172	1.400900	0.000053	0.534648	0.090572	-0.002138
 946	4.7250e-01	1.0971	1.381230	0.000098	0.983752	0.166652	-0.003934
 947	4.7300e-01	1.0754	1.363697	0.000088	0.876822	0.148538	-0.003507
 948	4.7350e-01	1.0559	1.343171	0.000103	1.026524	0.173898	-0.004105
 949	4.7400e-01	1.0349	1.344454	-0.000006	-0.064158	-0.010869	0.000257
 950	4.7450e-01	1.0159	1.332908	0.000058	0.577420	0.097818	-0.002309
 951	4.7500e-01	0.9979	1.311099	0.000109	1.090682	0.184766	-0.004362
 952	4.7550e-01	0.9765	1.295705	0.000077	0.769893	0.130423	-0.003079
 953	4.7600e-01	0.9578	1.282876	0.000064	0.641577	0.108686	-0.002566
 954	4.7650e-01	0.9362	1.262350	0.000103	1.026524	0.173898	-0.004105
 955	4.7700e-01	0.9156	1.239258	0.000115	1.154839	0.195635	-0.004618
 956	4.7750e-01	0.8964	1.232844	0.000032	0.320789	0.054343	-0.001283
 957	4.7800e-01	0.8770	1.213173	0.000098	0.983752	0.166652	-0.003934
 958	4.7850e-01	0.8554	1.207186	0.000030	0.299403	0.050720	-0.001197
 959	4.7900e-01	0.8325	1.193075	0.000071	0.705735	0.119555	-0.002822
 960	4.7950e-01	0.8176	1.175970	0.000086	0.855437	0.144915	-0.003421
 961	4.8000e-01	0.7983	1.158864	0.000086	0.855437	0.144915	-0.003421
 962	4.8050e-01	0.7754	1.154588	0.000021	0.213859	0.036229	-0.000855
 963	4.8100e-01	0.7570	1.140049	0.000073	0.727121	0.123178	-0.002908
 964	4.8150e-01	0.7367	1.125510	0.000073	0.727121	0.123178	-0.002908
 965	4.8200e-01	0.7163	1.114819	0.000053	0.534648	0.090572	-0.002138
 966	4.8250e-01	0.6959	1.091727	0.000115	1.154839	0.195635	-0.004618
 967	4.8300e-01	0.6755	1.078471	0.000066	0.662963	0.112309	-0.002651
 968	4.8350e-01	0.6547	1.064787	0.000068	0.684349	0.115932	-0.002737
 969	4.8400e-01	0.6394	1.043833	0.000105	1.047910	0.177521	-0.004191
 970	4.8450e-01	0.6158	1.036564	0.000036	0.363561	0.061589	-0.001454
 971	4.8500e-01	0.5965	1.021169	0.000077	0.769893	0.130423	-0.003079
 972	4.8550e-01	0.5768	1.002781	0.000092	0.919594	0.155783	-0.003678
 973	4.8600e-01	0.5583	0.976696	0.000130	1.304541	0.220995	-0.005217
 974	4.8650e-01	0.5362	0.967716	0.000045	0.449104	0.076080	-0.001796
 975	4.8700e-01	0.5157	0.954032	0.000068	0.684349	0.115932	-0.002737
 976	4.8750e-01	0.4947	0.936927	0.000086	0.855437	0.144915	-0.003421
 977	4.8800e-01	0.4784	0.923671	0.000066	0.662963	0.112309	-0.002651
 978	4.8850e-01	0.4549	0.918111	0.000028	0.278017	0.047097	-0.001112
 979	4.8900e-01	0.4350	0.892882	0.000126	1.261769	0.213749	-0.005046
 980	4.8950e-01	0.4166	0.879198	0.000068	0.684349	0.115932	-0.002737
 981	4.9000e-01	0.3992	0.853968	0.000126	1.261769	0.213749	-0.005046
 982	4.9050e-01	0.3753	0.856106	-0.000011	-0.106930	-0.018114	0.000428
 983	4.9100e-01	0.3581	0.837290	0.000094	0.940980	0.159406	-0.003763
 984	4.9150e-01	0.3362	0.812488	0.000124	1.240383	0.210127	-0.004960
 985	4.9200e-01	0.3175	0.800942	0.000058	0.577420	0.097818	-0.002309
 986	4.9250e-01	0.2948	0.801797	-0.000004	-0.042772	-0.007246	0.000171
 987	4.9300e-01	0.2747	0.773574	0.000141	1.411470	0.239110	-0.005645
 988	4.9350e-01	0.2531	0.750482	0.000115	1.154839	0.195635	-0.004618
 989	4.9400e-01	0.2364	0.734233	0.000081	0.812665	0.137669	-0.003250
 990	4.9450e-01	0.2170	0.723542	0.000053	0.534648	0.090572	-0.002138
 991	4.9500e-01	0.1952	0.704299	0.000096	0.962366	0.163029	-0.003849
 992	4.9550e-01	0.1749	0.696174	0.000041	0.406332	0.068835	-0.001625
 993	4.9600e-01	0.1579	0.682918	0.000066	0.662963	0.112309	-0.002651
 994	4.9650e-01	0.1347	0.666240	0.000083	0.834051	0.141292	-0.003335
 995	4.9700e-01	0.1196	0.652556	0.000068	0.684349	0.115932	-0.002737
 996	4.9750e-01	0.0947	0.632030	0.000103	1.026524	0.173898	-0.004105
 997	4.9800e-01	0.0748	0.616636	0.000077	0.769893	0.130423	-0.003079
 998	4.9850e-01	0.0572	0.602952	0.000068	0.684349	0.115932	-0.002737
 999	4.9900e-01	0.0379	0.590123	0.000064	0.641577	0.108686	-0.002566
1000	4.9950e-01	0.0156	0.570024	0.000101	1.005138	0.170275	-0.004020
1001	5.0000e-01	-0.0041	0.547360	0.000113	1.133453	0.192012	-0.004533
1002	5.0050e-01	-0.0224	0.543939	0.000017	0.171087	0.028983	-0.000684
1003	5.0100e-01	-0.0471	0.529828	0.000071	0.705735	0.119555	-0.002822
1004	5.0150e-01	-0.0629	0.510585	0.000096	0.962366	0.163029	-0.003849
1005	5.0200e-01	-0.0831	0.493052	0.000088	0.876822	0.148538	-0.003507
1006	5.0250e-01	-0.0984	0.483644	0.000047	0.470490	0.079703	-0.001882
1007	5.0300e-01	-0.1228	0.466539	0.000086	0.855437	0.144915	-0.003421
1008	5.0350e-01	-0.1446	0.451572	0.000075	0.748507	0.126801	-0.002993
1009	5.0400e-01	-0.1620	0.438744	0.000064	0.641577	0.108686	-0.002566
1010	5.0450e-01	-0.1826	0.422066	0.000083	0.834051	0.141292	-0.003335
1011	5.0500e-01	-0.2045	0.392560	0.000148	1.475628	0.249978	-0.005901
1012	5.0550e-01	-0.2255	0.392560	-0.000000	-0.000000	-0.000000	0.000000
1013	5.0600e-01	-0.2416	0.359633	0.000165	1.646715	0.278961	-0.006585
1014	5.0650e-01	-0.2613	0.352791	0.000034	0.342175	0.057966	-0.001368
1015	5.0700e-01	-0.2827	0.336541	0.000081	0.812665	0.137669	-0.003250
1016	5.0750e-01	-0.3043	0.323285	0.000066	0.662963	0.112309	-0.002651
1017	5.0800e-01	-0.3192	0.305324	0.000090	0.898208	0.152161	-0.003592
1018	5.0850e-01	-0.3425	0.287792	0.000088	0.876822	0.148538	-0.003507
1019	5.0900e-01	-0.3632	0.270259	0.000088	0.876822	0.148538	-0.003507
1020	5.0950e-01	-0.3823	0.265128	0.000026	0.256631	0.043474	-0.001026
1021	5.1000e-01	-0.4047	0.256575	0.000043	0.427718	0.072457	-0.001711
1022	5.1050e-01	-0.4230	0.233911	0.000113	1.133453	0.192012	-0.004533
1023	5.1100e-01	-0.4424	0.212530	0.000107	1.069296	0.181144	-0.004276
1024	5.1150e-01	-0.4643	0.200556	0.000060	0.598806	0.101440	-0.002395
1025	5.1200e-01	-0.4835	0.189438	0.000056	0.556034	0.094195	-0.002224
1026	5.1250e-01	-0.5012	0.174043	0.000077	0.769893	0.130423	-0.003079
1027	5.1300e-01	-0.5207	0.151379	0.000113	1.133453	0.192012	-0.004533
1028	5.1350e-01	-0.5412	0.138978	0.000062	0.620192	0.105063	-0.002480
1029	5.1400e-01	-0.5632	0.115031	0.000120	1.197611	0.202881	-0.004789
1030	5.1450e-01	-0.5856	0.106051	0.000045	0.449104	0.076080	-0.001796
1031	5.1500e-01	-0.6013	0.079966	0.000130	1.304541	0.220995	-0.005217
1032	5.1550e-01	-0.6224	0.078255	0.000009	0.085544	0.014491	-0.000342
1033	5.1600e-01	-0.6464	0.059012	0.000096	0.962366	0.163029	-0.003849
1034	5.1650e-01	-0.6623	0.047466	0.000058	0.577420	0.097818	-0.002309
1035	5.1700e-01	-0.6808	0.026085	0.000107	1.069296	0.181144	-0.004276
1036	5.1750e-01	-0.7029	0.008125	0.000090	0.898208	0.152161	-0.003592
1037	5.1800e-01	-0.7217	-0.003421	0.000058	0.577420	0.097818	-0.002309
1038	5.1850e-01	-0.7436	-0.025658	0.000111	1.112068	0.188389	-0.004447
1039	5.1900e-01	-0.7623	-0.036776	0.000056	0.556034	0.094195	-0.002224
1040	5.1950e-01	-0.7829	-0.050887	0.000071	0.705735	0.119555	-0.002822
1041	5.2000e-01	-0.8016	-0.071413	0.000103	1.026524	0.173898	-0.004105
1042	5.2050e-01	-0.8199	-0.085525	0.000071	0.705735	0.119555	-0.002822
1043	5.2100e-01	-0.8388	-0.094933	0.000047	0.470490	0.079703	-0.001882
1044	5.2150e-01	-0.8623	-0.114604	0.000098	0.983752	0.166652	-0.003934
1045	5.2200e-01	-0.8798	-0.141972	0.000137	1.368698	0.231864	-0.005474
1046	5.2250e-01	-0.9042	-0.144537	0.000013	0.128315	0.021737	-0.000513
1047	5.2300e-01	-0.9233	-0.162070	0.000088	0.876822	0.148538	-0.003507
1048	5.2350e-01	-0.9447	-0.176182	0.000071	0.705735	0.119555	-0.002822
1049	5.2400e-01	-0.9626	-0.194997	0.000094	0.940980	0.159406	-0.003763
1050	5.2450e-01	-0.9824	-0.207826	0.000064	0.641577	0.108686	-0.002566
1051	5.2500e-01	-1.0020	-0.224503	0.000083	0.834051	0.141292	-0.003335
1052	5.2550e-01	-1.0247	-0.230490	0.000030	0.299403	0.050720	-0.001197
1053	5.2600e-01	-1.0397	-0.247167	0.000083	0.834051	0.141292	-0.003335
1054	5.2650e-01	-1.0629	-0.275391	0.000141	1.411470	0.239110	-0.005645
1055	5.2700e-01	-1.0815	-0.287792	0.000062	0.620192	0.105063	-0.002480
1056	5.2750e-01	-1.1024	-0.303186	0.000077	0.769893	0.130423	-0.003079
1057	5.2800e-01	-1.1240	-0.311739	0.000043	0.427718	0.072457	-0.001711
1058	5.2850e-01	-1.1448	-0.334403	0.000113	1.133453	0.192012	-0.004533
1059	5.2900e-01	-1.1620	-0.350653	0.000081	0.812665	0.137669	-0.003250
1060	5.2950e-01	-1.1819	-0.367330	0.000083	0.834051	0.141292	-0.003335
1061	5.3000e-01	-1.2008	-0.380159	0.000064	0.641577	0.108686	-0.002566
1062	5.3050e-01	-1.2213	-0.402395	0.000111	1.112068	0.188389	-0.004447
1063	5.3100e-01	-1.2406	-0.413514	0.000056	0.556034	0.094195	-0.002224
1064	5.3150e-01	-1.2627	-0.430619	0.000086	0.855437	0.144915	-0.003421
1065	5.3200e-01	-1.2837	-0.441309	0.000053	0.534648	0.090572	-0.002138
1066	5.3250e-01	-1.3039	-0.453283	0.000060	0.598806	0.101440	-0.002395
1067	5.3300e-01	-1.3224	-0.472954	0.000098	0.983752	0.166652	-0.003934
1068	5.3350e-01	-1.3371	-0.486210	0.000066	0.662963	0.112309	-0.002651
1069	5.3400e-01	-1.3605	-0.508874	0.000113	1.133453	0.192012	-0.004533
1070	5.3450e-01	-1.3804	-0.526834	0.000090	0.898208	0.152161	-0.003592
1071	5.3500e-01	-1.4018	-0.535814	0.000045	0.449104	0.076080	-0.001796
1072	5.3550e-01	-1.4226	-0.560189	0.000122	1.218997	0.206504	-0.004875
1073	5.3600e-01	-1.4406	-0.567459	0.000036	0.363561	0.061589	-0.001454
1074	5.3650e-01	-1.4625	-0.584136	0.000083	0.834051	0.141292	-0.003335
1075	5.3700e-01	-1.4790	-0.600814	0.000083	0.834051	0.141292	-0.003335
1076	5.3750e-01	-1.5017	-0.614498	0.000068	0.684349	0.115932	-0.002737
1077	5.3800e-01	-1.5248	-0.628609	0.000071	0.705735	0.119555	-0.002822
1078	5.3850e-01	-1.5434	-0.646142	0.000088	0.876822	0.148538	-0.003507
1079	5.3900e-01	-1.5626	-0.663674	0.000088	0.876822	0.148538	-0.003507
1080	5.3950e-01	-1.5821	-0.675648	0.000060	0.598806	0.101440	-0.002395
1081	5.4000e-01	-1.6023	-0.704299	0.000143	1.432856	0.242732	-0.005730
1082	5.4050e-01	-1.6232	-0.711141	0.000034	0.342175	0.057966	-0.001368
1083	5.4100e-01	-1.6441	-0.724825	0.000068	0.684349	0.115932	-0.002737
1084	5.4150e-01	-1.6599	-0.744068	0.000096	0.962366	0.163029	-0.003849
1085	5.4200e-01	-1.6853	-0.745351	0.000006	0.064158	0.010869	-0.000257
1086	5.4250e-01	-1.7032	-0.773574	0.000141	1.411470	0.239110	-0.005645
1087	5.4300e-01	-1.7225	-0.798804	0.000126	1.261769	0.213749	-0.005046
1088	5.4350e-01	-1.7430	-0.797521	-0.000006	-0.064158	-0.010869	0.000257
1089	5.4400e-01	-1.7609	-0.828738	0.000156	1.561172	0.264470	-0.006243
1090	5.4450e-01	-1.7808	-0.839428	0.000053	0.534648	0.090572	-0.002138
1091	5.4500e-01	-1.8010	-0.844132	0.000024	0.235245	0.039852	-0.000941
1092	5.4550e-01	-1.8223	-0.860382	0.000081	0.812665	0.137669	-0.003250
1093	5.4600e-01	-1.8439	-0.884329	0.000120	1.197611	0.202881	-0.004789
1094	5.4650e-01	-1.8642	-0.896303	0.000060	0.598806	0.101440	-0.002395
1095	5.4700e-01	-1.8800	-0.909559	0.000066	0.662963	0.112309	-0.002651
1096	5.4750e-01	-1.9028	-0.922815	0.000066	0.662963	0.112309	-0.002651
1097	5.4800e-01	-1.9245	-0.938210	0.000077	0.769893	0.130423	-0.003079
1098	5.4850e-01	-1.9393	-0.966005	0.000139	1.390084	0.235487	-0.005559
1099	5.4900e-01	-1.9627	-0.973275	0.000036	0.363561	0.061589	-0.001454
1100	5.4950e-01	-1.9843	-0.986532	0.000066	0.662963	0.112309	-0.002651
1101	5.5000e-01	-2.0045	-1.000643	0.000071	0.705735	0.119555	-0.002822
1102	5.5050e-01	-2.0219	-1.028866	0.000141	1.411470	0.239110	-0.005645
1103	5.5100e-01	-2.0406	-1.039985	0.000056	0.556034	0.094195	-0.002224
1104	5.5150e-01	-2.0618	-1.047254	0.000036	0.363561	0.061589	-0.001454
1105	5.5200e-01	-2.0829	-1.065642	0.000092	0.919594	0.155783	-0.003678
1106	5.5250e-01	-2.1046	-1.081037	0.000077	0.769893	0.130423	-0.003079
1107	5.5300e-01	-2.1220	-1.099852	0.000094	0.940980	0.159406	-0.003763
1108	5.5350e-01	-2.1439	-1.113964	0.000071	0.705735	0.119555	-0.002822
1109	5.5400e-01	-2.1585	-1.131924	0.000090	0.898208	0.152161	-0.003592
1110	5.5450e-01	-2.1833	-1.145608	0.000068	0.684349	0.115932	-0.002737
1111	5.5500e-01	-2.2022	-1.164424	0.000094	0.940980	0.159406	-0.003763
1112	5.5550e-01	-2.2231	-1.172976	0.000043	0.427718	0.072457	-0.001711
1113	5.5600e-01	-2.2431	-1.184950	0.000060	0.598806	0.101440	-0.002395
1114	5.5650e-01	-2.2628	-1.192219	0.000036	0.363561	0.061589	-0.001454
1115	5.5700e-01	-2.2840	-1.220443	0.000141	1.411470	0.239110	-0.005645
1116	5.5750e-01	-2.3029	-1.237548	0.000086	0.855437	0.144915	-0.003421
1117	5.5800e-01	-2.3232	-1.249521	0.000060	0.598806	0.101440	-0.002395
1118	5.5850e-01	-2.3450	-1.258501	0.000045	0.449104	0.076080	-0.001796
1119	5.5900e-01	-2.3623	-1.282448	0.000120	1.197611	0.202881	-0.004789
1120	5.5950e-01	-2.3848	-1.299981	0.000088	0.876822	0.148538	-0.003507
1121	5.6000e-01	-2.4012	-1.317941	0.000090	0.898208	0.152161	-0.003592
1122	5.6050e-01	-2.4238	-1.326066	0.000041	0.406332	0.068835	-0.001625
1123	5.6100e-01	-2.4436	-1.339750	0.000068	0.684349	0.115932	-0.002737
1124	5.6150e-01	-2.4635	-1.357710	0.000090	0.898208	0.152161	-0.003592
1125	5.6200e-01	-2.4826	-1.374388	0.000083	0.834051	0.141292	-0.003335
1126	5.6250e-01	-2.5034	-1.378664	0.000021	0.213859	0.036229	-0.000855
1127	5.6300e-01	-2.5202	-1.404749	0.000130	1.304541	0.220995	-0.005217
1128	5.6350e-01	-2.5436	-1.414584	0.000049	0.491876	0.083326	-0.001967
1129	5.6400e-01	-2.5608	-1.438104	0.000118	1.176225	0.199258	-0.004704
1130	5.6450e-01	-2.5813	-1.445801	0.000038	0.384946	0.065212	-0.001539
1131	5.6500e-01	-2.6029	-1.467610	0.000109	1.090682	0.184766	-0.004362
1132	5.6550e-01	-2.6209	-1.473597	0.000030	0.299403	0.050720	-0.001197
1133	5.6600e-01	-2.6389	-1.492840	0.000096	0.962366	0.163029	-0.003849
1134	5.6650e-01	-2.6579	-1.499682	0.000034	0.342175	0.057966	-0.001368
1135	5.6700e-01	-2.6841	-1.521918	0.000111	1.112068	0.188389	-0.004447
1136	5.6750e-01	-2.7027	-1.529616	0.000038	0.384946	0.065212	-0.001539
1137	5.6800e-01	-2.7222	-1.547148	0.000088	0.876822	0.148538	-0.003507
1138	5.6850e-01	-2.7424	-1.567247	0.000101	1.005138	0.170275	-0.004020
1139	5.6900e-01	-2.7615	-1.582214	0.000075	0.748507	0.126801	-0.002993
1140	5.6950e-01	-2.7821	-1.592904	0.000053	0.534648	0.090572	-0.002138
1141	5.7000e-01	-2.8025	-1.612147	0.000096	0.962366	0.163029	-0.003849
1142	5.7050e-01	-2.8217	-1.636094	0.000120	1.197611	0.202881	-0.004789
1143	5.7100e-01	-2.8423	-1.643792	0.000038	0.384946	0.065212	-0.001539
1144	5.7150e-01	-2.8635	-1.652344	0.000043	0.427718	0.072457	-0.001711
1145	5.7200e-01	-2.8819	-1.670304	0.000090	0.898208	0.152161	-0.003592
1146	5.7250e-01	-2.9030	-1.689547	0.000096	0.962366	0.163029	-0.003849
1147	5.7300e-01	-2.9226	-1.698100	0.000043	0.427718	0.072457	-0.001711
1148	5.7350e-01	-2.9444	-1.714777	0.000083	0.834051	0.141292	-0.003335
1149	5.7400e-01	-2.9613	-1.731882	0.000086	0.855437	0.144915	-0.003421
1150	5.7450e-01	-2.9829	-1.742573	0.000053	0.534648	0.090572	-0.002138
1151	5.7500e-01	-3.0058	-1.751125	0.000043	0.427718	0.072457	-0.001711
1152	5.7550e-01	-3.0208	-1.772934	0.000109	1.090682	0.184766	-0.004362
1153	5.7600e-01	-3.0410	-1.788329	0.000077	0.769893	0.130423	-0.003079
1154	5.7650e-01	-3.0649	-1.797309	0.000045	0.449104	0.076080	-0.001796
1155	5.7700e-01	-3.0830	-1.818263	0.000105	1.047910	0.177521	-0.004191
1156	5.7750e-01	-3.1037	-1.832802	0.000073	0.727121	0.123178	-0.002908
1157	5.7800e-01	-3.1226	-1.842637	0.000049	0.491876	0.083326	-0.001967
1158	5.7850e-01	-3.1437	-1.855038	0.000062	0.620192	0.105063	-0.002480
1159	5.7900e-01	-3.1635	-1.872571	0.000088	0.876822	0.148538	-0.003507
1160	5.7950e-01	-3.1843	-1.883262	0.000053	0.534648	0.090572	-0.002138
1161	5.8000e-01	-3.2020	-1.907209	0.000120	1.197611	0.202881	-0.004789
1162	5.8050e-01	-3.2209	-1.917044	0.000049	0.491876	0.083326	-0.001967
1163	5.8100e-01	-3.2420	-1.920893	0.000019	0.192473	0.032606	-0.000770
1164	5.8150e-01	-3.2601	-1.946978	0.000130	1.304541	0.220995	-0.005217
1165	5.8200e-01	-3.2838	-1.954248	0.000036	0.363561	0.061589	-0.001454
1166	5.8250e-01	-3.3027	-1.973918	0.000098	0.983752	0.166652	-0.003934
1167	5.8300e-01	-3.3251	-1.982898	0.000045	0.449104	0.076080	-0.001796
1168	5.8350e-01	-3.3405	-1.999148	0.000081	0.812665	0.137669	-0.003250
1169	5.8400e-01	-3.3607	-2.017108	0.000090	0.898208	0.152161	-0.003592
1170	5.8450e-01	-3.3866	-2.033358	0.000081	0.812665	0.137669	-0.003250
1171	5.8500e-01	-3.4047	-2.041055	0.000038	0.384946	0.065212	-0.001539
1172	5.8550e-01	-3.4238	-2.062009	0.000105	1.047910	0.177521	-0.004191
1173	5.8600e-01	-3.4446	-2.059016	-0.000015	-0.149701	-0.025360	0.000599
1174	5.8650e-01	-3.4646	-2.087239	0.000141	1.411470	0.239110	-0.005645
1175	5.8700e-01	-3.4859	-2.091515	0.000021	0.213859	0.036229	-0.000855
1176	5.8750e-01	-3.5038	-2.113324	0.000109	1.090682	0.184766	-0.004362
1177	5.8800e-01	-3.5223	-2.124442	0.000056	0.556034	0.094195	-0.002224
1178	5.8850e-01	-3.5429	-2.143686	0.000096	0.962366	0.163029	-0.003849
1179	5.8900e-01	-3.5642	-2.151383	0.000038	0.384946	0.065212	-0.001539
1180	5.8950e-01	-3.5831	-2.173192	0.000109	1.090682	0.184766	-0.004362
1181	5.9000e-01	-3.6060	-2.181744	0.000043	0.427718	0.072457	-0.001711
1182	5.9050e-01	-3.6228	-2.197994	0.000081	0.812665	0.137669	-0.003250
1183	5.9100e-01	-3.6411	-2.216809	0.000094	0.940980	0.159406	-0.003763
1184	5.9150e-01	-3.6646	-2.213816	-0.000015	-0.149701	-0.025360	0.000599
1185	5.9200e-01	-3.6835	-2.248026	0.000171	1.710873	0.289830	-0.006842
1186	5.9250e-01	-3.7028	-2.254013	0.000030	0.299403	0.050720	-0.001197
1187	5.9300e-01	-3.7229	-2.273684	0.000098	0.983752	0.166652	-0.003934
1188	5.9350e-01	-3.7422	-2.285229	0.000058	0.577420	0.097818	-0.002309
1189	5.9400e-01	-3.7644	-2.298058	0.000064	0.641577	0.108686	-0.002566
1190	5.9450e-01	-3.7849	-2.315591	0.000088	0.876822	0.148538	-0.003507
1191	5.9500e-01	-3.8071	-2.300196	-0.000077	-0.769893	-0.130423	0.003079
1192	5.9550e-01	-3.8248	-2.332268	0.000160	1.603944	0.271715	-0.006414
1193	5.9600e-01	-3.8422	-2.350656	0.000092	0.919594	0.155783	-0.003678
1194	5.9650e-01	-3.8636	-2.364768	0.000071	0.705735	0.119555	-0.002822
1195	5.9700e-01	-3.8840	-2.377597	0.000064	0.641577	0.108686	-0.002566
1196	5.9750e-01	-3.9030	-2.389142	0.000058	0.577420	0.097818	-0.002309
1197	5.9800e-01	-3.9198	-2.402399	0.000066	0.662963	0.112309	-0.002651
1198	5.9850e-01	-3.9400	-2.419076	0.000083	0.834051	0.141292	-0.003335
1199	5.9900e-01	-3.9649	-2.440457	0.000107	1.069296	0.181144	-0.004276
1200	5.9950e-01	-3.9832	-2.446017	0.000028	0.278017	0.047097	-0.001112
1201	6.0000e-01	-4.0006	-2.454141	0.000041	0.406332	0.068835	-0.001625
1202	6.0050e-01	-4.0247	-2.472102	0.000090	0.898208	0.152161	-0.003592
1203	6.0100e-01	-4.0427	-2.486641	0.000073	0.727121	0.123178	-0.002908
1204	6.0150e-01	-4.0632	-2.505029	0.000092	0.919594	0.155783	-0.003678
1205	6.0200e-01	-4.0842	-2.511871	0.000034	0.342175	0.057966	-0.001368
1206	6.0250e-01	-4.1032	-2.524700	0.000064	0.641577	0.108686	-0.002566
1207	6.0300e-01	-4.1239	-2.536246	0.000058	0.577420	0.097818	-0.002309
1208	6.0350e-01	-4.1425	-2.557199	0.000105	1.047910	0.177521	-0.004191
1209	6.0400e-01	-4.1642	-2.574732	0.000088	0.876822	0.148538	-0.003507
1210	6.0450e-01	-4.1848	-2.584995	0.000051	0.513262	0.086949	-0.002053
1211	6.0500e-01	-4.2020	-2.592692	0.000038	0.384946	0.065212	-0.001539
1212	6.0550e-01	-4.2243	-2.606376	0.000068	0.684349	0.115932	-0.002737
1213	6.0600e-01	-4.2427	-2.621343	0.000075	0.748507	0.126801	-0.002993
1214	6.0650e-01	-4.2634	-2.640586	0.000096	0.962366	0.163029	-0.003849
1215	6.0700e-01	-4.2847	-2.648283	0.000038	0.384946	0.065212	-0.001539
1216	6.0750e-01	-4.3027	-2.662823	0.000073	0.727121	0.123178	-0.002908
1217	6.0800e-01	-4.3208	-2.677789	0.000075	0.748507	0.126801	-0.002993
1218	6.0850e-01	-4.3446	-2.686770	0.000045	0.449104	0.076080	-0.001796
1219	6.0900e-01	-4.3626	-2.703875	0.000086	0.855437	0.144915	-0.003421
1220	6.0950e-01	-4.3836	-2.717986	0.000071	0.705735	0.119555	-0.002822
1221	6.1000e-01	-4.4028	-2.733381	0.000077	0.769893	0.130423	-0.003079
1222	6.1050e-01	-4.4190	-2.737657	0.000021	0.213859	0.036229	-0.000855
1223	6.1100e-01	-4.4450	-2.753907	0.000081	0.812665	0.137669	-0.003250
1224	6.1150e-01	-4.4630	-2.769301	0.000077	0.769893	0.130423	-0.003079
1225	6.1200e-01	-4.4816	-2.777854	0.000043	0.427718	0.072457	-0.001711
1226	6.1250e-01	-4.5039	-2.790255	0.000062	0.620192	0.105063	-0.002480
1227	6.1300e-01	-4.5243	-2.804367	0.000071	0.705735	0.119555	-0.002822
1228	6.1350e-01	-4.5472	-2.813347	0.000045	0.449104	0.076080	-0.001796
1229	6.1400e-01	-4.5655	-2.836438	0.000115	1.154839	0.195635	-0.004618
1230	6.1450e-01	-4.5835	-2.843708	0.000036	0.363561	0.061589	-0.001454
1231	6.1500e-01	-4.6027	-2.864662	0.000105	1.047910	0.177521	-0.004191
1232	6.1550e-01	-4.6241	-2.871504	0.000034	0.342175	0.057966	-0.001368
1233	6.1600e-01	-4.6455	-2.877490	0.000030	0.299403	0.050720	-0.001197
1234	6.1650e-01	-4.6638	-2.901010	0.000118	1.176225	0.199258	-0.004704
1235	6.1700e-01	-4.6861	-2.907424	0.000032	0.320789	0.054343	-0.001283
1236	6.1750e-01	-4.7041	-2.930088	0.000113	1.133453	0.192012	-0.004533
1237	6.1800e-01	-4.7224	-2.936503	0.000032	0.320789	0.054343	-0.001283
1238	6.1850e-01	-4.7431	-2.945483	0.000045	0.449104	0.076080	-0.001796
1239	6.1900e-01	-4.7639	-2.962588	0.000086	0.855437	0.144915	-0.003421
1240	6.1950e-01	-4.7836	-2.977982	0.000077	0.769893	0.130423	-0.003079
1241	6.2000e-01	-4.8037	-2.986107	0.000041	0.406332	0.068835	-0.001625
1242	6.2050e-01	-4.8252	-2.995943	0.000049	0.491876	0.083326	-0.001967
1243	6.2100e-01	-4.8429	-3.015186	0.000096	0.962366	0.163029	-0.003849
1244	6.2150e-01	-4.8621	-3.026732	0.000058	0.577420	0.097818	-0.002309
1245	6.2200e-01	-4.8866	-3.044692	0.000090	0.898208	0.152161	-0.003592
1246	6.2250e-01	-4.9067	-3.063935	0.000096	0.962366	0.163029	-0.003849
1247	6.2300e-01	-4.9262	-3.067356	0.000017	0.171087	0.028983	-0.000684
1248	6.2350e-01	-4.9421	-3.076336	0.000045	0.449104	0.076080	-0.001796
1249	6.2400e-01	-4.9616	-3.092586	0.000081	0.812665	0.137669	-0.003250
1250	6.2450e-01	-4.9825	-3.093014	0.000002	0.021386	0.003623	-0.000086
1251	6.2500e-01	-5.0016	-3.107125	0.000071	0.705735	0.119555	-0.002822
1252	6.2550e-01	-5.0251	-3.125941	0.000094	0.940980	0.159406	-0.003763
1253	6.2600e-01	-5.0434	-3.146039	0.000101	1.005138	0.170275	-0.004020
1254	6.2650e-01	-5.0642	-3.143901	-0.000011	-0.106930	-0.018114	0.000428
1255	6.2700e-01	-5.0819	-3.155447	0.000058	0.577420	0.097818	-0.002309
1256	6.2750e-01	-5.1035	-3.173835	0.000092	0.919594	0.155783	-0.003678
1257	6.2800e-01	-5.1221	-3.188374	0.000073	0.727121	0.123178	-0.002908
1258	6.2850e-01	-5.1440	-3.196071	0.000038	0.384946	0.065212	-0.001539
1259	6.2900e-01	-5.1619	-3.208900	0.000064	0.641577	0.108686	-0.002566
1260	6.2950e-01	-5.1832	-3.234130	0.000126	1.261769	0.213749	-0.005046
1261	6.3000e-01	-5.2034	-3.236268	0.000011	0.106930	0.018114	-0.000428
1262	6.3050e-01	-5.2235	-3.249952	0.000068	0.684349	0.115932	-0.002737
1263	6.3100e-01	-5.2450	-3.256794	0.000034	0.342175	0.057966	-0.001368
1264	6.3150e-01	-5.2645	-3.273899	0.000086	0.855437	0.144915	-0.003421
1265	6.3200e-01	-5.2821	-3.279458	0.000028	0.278017	0.047097	-0.001112
1266	6.3250e-01	-5.3059	-3.300839	0.000107	1.069296	0.181144	-0.004276
1267	6.3300e-01	-5.3211	-3.310675	0.000049	0.491876	0.083326	-0.001967
1268	6.3350e-01	-5.3422	-3.323076	0.000062	0.620192	0.105063	-0.002480
1269	6.3400e-01	-5.3623	-3.337615	0.000073	0.727121	0.123178	-0.002908
1270	6.3450e-01	-5.3837	-3.347023	0.000047	0.470490	0.079703	-0.001882
1271	6.3500e-01	-5.4047	-3.357714	0.000053	0.534648	0.090572	-0.002138
1272	6.3550e-01	-5.4224	-3.364983	0.000036	0.363561	0.061589	-0.001454
1273	6.3600e-01	-5.4462	-3.385082	0.000101	1.005138	0.170275	-0.004020
1274	6.3650e-01	-5.4621	-3.390213	0.000026	0.256631	0.043474	-0.001026
1275	6.3700e-01	-5.4859	-3.409884	0.000098	0.983752	0.166652	-0.003934
1276	6.3750e-01	-5.5024	-3.415871	0.000030	0.299403	0.050720	-0.001197
1277	6.3800e-01	-5.5250	-3.426134	0.000051	0.513262	0.086949	-0.002053
1278	6.3850e-01	-5.5436	-3.443239	0.000086	0.855437	0.144915	-0.003421
1279	6.3900e-01	-5.5640	-3.455640	0.000062	0.620192	0.105063	-0.002480
1280	6.3950e-01	-5.5830	-3.471462	0.000079	0.791279	0.134046	-0.003164
1281	6.4000e-01	-5.6028	-3.479159	0.000038	0.384946	0.065212	-0.001539
1282	6.4050e-01	-5.6239	-3.489850	0.000053	0.534648	0.090572	-0.002138
1283	6.4100e-01	-5.6440	-3.501396	0.000058	0.577420	0.097818	-0.002309
1284	6.4150e-01	-5.6629	-3.511659	0.000051	0.513262	0.086949	-0.002053
1285	6.4200e-01	-5.6849	-3.531330	0.000098	0.983752	0.166652	-0.003934
1286	6.4250e-01	-5.7050	-3.529619	-0.000009	-0.085544	-0.014491	0.000342
1287	6.4300e-01	-5.7227	-3.550573	0.000105	1.047910	0.177521	-0.004191
1288	6.4350e-01	-5.7447	-3.563401	0.000064	0.641577	0.108686	-0.002566
1289	6.4400e-01	-5.7633	-3.574947	0.000058	0.577420	0.097818	-0.002309
1290	6.4450e-01	-5.7862	-3.585638	0.000053	0.534648	0.090572	-0.002138
1291	6.4500e-01	-5.8021	-3.594618	0.000045	0.449104	0.076080	-0.001796
1292	6.4550e-01	-5.8253	-3.614716	0.000101	1.005138	0.170275	-0.004020
1293	6.4600e-01	-5.8442	-3.628400	0.000068	0.684349	0.115932	-0.002737
1294	6.4650e-01	-5.8631	-3.639091	0.000053	0.534648	0.090572	-0.002138
1295	6.4700e-01	-5.8826	-3.639091	-0.000000	-0.000000	-0.000000	0.000000
1296	6.4750e-01	-5.9058	-3.655768	0.000083	0.834051	0.141292	-0.003335
1297	6.4800e-01	-5.9219	-3.671591	0.000079	0.791279	0.134046	-0.003164
1298	6.4850e-01	-5.9382	-3.661755	-0.000049	-0.491876	-0.083326	0.001967
1299	6.4900e-01	-5.9666	-3.711360	0.000248	2.480766	0.420253	-0.009921
1300	6.4950e-01	-5.9852	-3.699814	-0.000058	-0.577420	-0.097818	0.002309
1301	6.5000e-01	-6.0029	-3.715636	0.000079	0.791279	0.134046	-0.003164
1302	6.5050e-01	-6.0255	-3.734452	0.000094	0.940980	0.159406	-0.003763
1303	6.5100e-01	-6.0419	-3.738300	0.000019	0.192473	0.032606	-0.000770
1304	6.5150e-01	-6.0645	-3.750274	0.000060	0.598806	0.101440	-0.002395
1305	6.5200e-01	-6.0873	-3.763530	0.000066	0.662963	0.112309	-0.002651
1306	6.5250e-01	-6.1048	-3.748563	-0.000075	-0.748507	-0.126801	0.002993
1307	6.5300e-01	-6.1250	-3.790470	0.000210	2.095820	0.355041	-0.008381
1308	6.5350e-01	-6.1451	-3.792609	0.000011	0.106930	0.018114	-0.000428
1309	6.5400e-01	-6.1658	-3.803727	0.000056	0.556034	0.094195	-0.002224
1310	6.5450e-01	-6.1839	-3.811852	0.000041	0.406332	0.068835	-0.001625
1311	6.5500e-01	-6.2049	-3.816983	0.000026	0.256631	0.043474	-0.001026
1312	6.5550e-01	-6.2275	-3.840503	0.000118	1.176225	0.199258	-0.004704
1313	6.5600e-01	-6.2415	-3.841358	0.000004	0.042772	0.007246	-0.000171
1314	6.5650e-01	-6.2623	-3.862311	0.000105	1.047910	0.177521	-0.004191
1315	6.5700e-01	-6.2849	-3.873002	0.000053	0.534648	0.090572	-0.002138
1316	6.5750e-01	-6.3038	-3.887969	0.000075	0.748507	0.126801	-0.002993
1317	6.5800e-01	-6.3264	-3.896949	0.000045	0.449104	0.076080	-0.001796
1318	6.5850e-01	-6.3441	-3.908495	0.000058	0.577420	0.097818	-0.002309
1319	6.5900e-01	-6.3660	-3.920896	0.000062	0.620192	0.105063	-0.002480
1320	6.5950e-01	-6.3828	-3.923462	0.000013	0.128315	0.021737	-0.000513
1321	6.6000e-01	-6.4024	-3.933725	0.000051	0.513262	0.086949	-0.002053
1322	6.6050e-01	-6.4222	-3.952113	0.000092	0.919594	0.155783	-0.003678
1323	6.6100e-01	-6.4439	-3.966652	0.000073	0.727121	0.123178	-0.002908
1324	6.6150e-01	-6.4649	-3.976915	0.000051	0.513262	0.086949	-0.002053
1325	6.6200e-01	-6.4851	-3.990599	0.000068	0.684349	0.115932	-0.002737
1326	6.6250e-01	-6.5040	-3.992737	0.000011	0.106930	0.018114	-0.000428
1327	6.6300e-01	-6.5241	-4.008559	0.000079	0.791279	0.134046	-0.003164
1328	6.6350e-01	-6.5452	-4.017112	0.000043	0.427718	0.072457	-0.001711
1329	6.6400e-01	-6.5644	-4.035072	0.000090	0.898208	0.152161	-0.003592
1330	6.6450e-01	-6.5852	-4.041914	0.000034	0.342175	0.057966	-0.001368
1331	6.6500e-01	-6.6047	-4.054743	0.000064	0.641577	0.108686	-0.002566
1332	6.6550e-01	-6.6230	-4.065006	0.000051	0.513262	0.086949	-0.002053
1333	6.6600e-01	-6.6444	-4.081683	0.000083	0.834051	0.141292	-0.003335
1334	6.6650e-01	-6.6633	-4.077835	-0.000019	-0.192473	-0.032606	0.000770
1335	6.6700e-01	-6.6846	-4.093657	0.000079	0.791279	0.134046	-0.003164
1336	6.6750e-01	-6.7011	-4.107768	0.000071	0.705735	0.119555	-0.002822
1337	6.6800e-01	-6.7249	-4.123591	0.000079	0.791279	0.134046	-0.003164
1338	6.6850e-01	-6.7457	-4.129577	0.000030	0.299403	0.050720	-0.001197
1339	6.6900e-01	-6.7640	-4.130433	0.000004	0.042772	0.007246	-0.000171
1340	6.6950e-01	-6.7835	-4.153524	0.000115	1.154839	0.195635	-0.004618
1341	6.7000e-01	-6.8018	-4.165070	0.000058	0.577420	0.097818	-0.002309
1342	6.7050e-01	-6.8240	-4.166781	0.000009	0.085544	0.014491	-0.000342
1343	6.7100e-01	-6.8430	-4.187734	0.000105	1.047910	0.177521	-0.004191
1344	6.7150e-01	-6.8641	-4.189872	0.000011	0.106930	0.018114	-0.000428
1345	6.7200e-01	-6.8824	-4.207833	0.000090	0.898208	0.152161	-0.003592
1346	6.7250e-01	-6.9044	-4.218096	0.000051	0.513262	0.086949	-0.002053
1347	6.7300e-01	-6.9257	-4.230924	0.000064	0.641577	0.108686	-0.002566
1348	6.7350e-01	-6.9453	-4.241615	0.000053	0.534648	0.090572	-0.002138
1349	6.7400e-01	-6.9630	-4.253589	0.000060	0.598806	0.101440	-0.002395
1350	6.7450e-01	-6.9837	-4.262996	0.000047	0.470490	0.079703	-0.001882
1351	6.7500e-01	-7.0036	-4.276253	0.000066	0.662963	0.112309	-0.002651
1352	6.7550e-01	-7.0246	-4.274115	-0.000011	-0.106930	-0.018114	0.000428
1353	6.7600e-01	-7.0435	-4.289082	0.000075	0.748507	0.126801	-0.002993
1354	6.7650e-01	-7.0649	-4.300627	0.000058	0.577420	0.097818	-0.002309
1355	6.7700e-01	-7.0856	-4.313884	0.000066	0.662963	0.112309	-0.002651
1356	6.7750e-01	-7.1003	-4.322009	0.000041	0.406332	0.068835	-0.001625
1357	6.7800e-01	-7.1244	-4.339541	0.000088	0.876822	0.148538	-0.003507
1358	6.7850e-01	-7.1452	-4.340824	0.000006	0.064158	0.010869	-0.000257
1359	6.7900e-01	-7.1644	-4.354936	0.000071	0.705735	0.119555	-0.002822
1360	6.7950e-01	-7.1836	-4.373324	0.000092	0.919594	0.155783	-0.003678
1361	6.8000e-01	-7.2016	-4.378883	0.000028	0.278017	0.047097	-0.001112
1362	6.8050e-01	-7.2260	-4.387863	0.000045	0.449104	0.076080	-0.001796
1363	6.8100e-01	-7.2431	-4.402830	0.000075	0.748507	0.126801	-0.002993
1364	6.8150e-01	-7.2669	-4.401119	-0.000009	-0.085544	-0.014491	0.000342
1365	6.8200e-01	-7.2858	-4.416941	0.000079	0.791279	0.134046	-0.003164
1366	6.8250e-01	-7.3054	-4.427632	0.000053	0.534648	0.090572	-0.002138
1367	6.8300e-01	-7.3255	-4.440888	0.000066	0.662963	0.112309	-0.002651
1368	6.8350e-01	-7.3457	-4.446020	0.000026	0.256631	0.043474	-0.001026
1369	6.8400e-01	-7.3652	-4.457566	0.000058	0.577420	0.097818	-0.002309
1370	6.8450e-01	-7.3847	-4.471250	0.000068	0.684349	0.115932	-0.002737
1371	6.8500e-01	-7.4052	-4.481085	0.000049	0.491876	0.083326	-0.001967
1372	6.8550e-01	-7.4235	-4.496907	0.000079	0.791279	0.134046	-0.003164
1373	6.8600e-01	-7.4427	-4.502039	0.000026	0.256631	0.043474	-0.001026
1374	6.8650e-01	-7.4653	-4.512730	0.000053	0.534648	0.090572	-0.002138
1375	6.8700e-01	-7.4873	-4.518289	0.000028	0.278017	0.047097	-0.001112
1376	6.8750e-01	-7.5014	-4.535821	0.000088	0.876822	0.148538	-0.003507
1377	6.8800e-01	-7.5245	-4.541380	0.000028	0.278017	0.047097	-0.001112
1378	6.8850e-01	-7.5440	-4.556347	0.000075	0.748507	0.126801	-0.002993
1379	6.8900e-01	-7.5648	-4.559341	0.000015	0.149701	0.025360	-0.000599
1380	6.8950e-01	-7.5855	-4.580294	0.000105	1.047910	0.177521	-0.004191
1381	6.9000e-01	-7.6028	-4.591413	0.000056	0.556034	0.094195	-0.002224
1382	6.9050e-01	-7.6255	-4.602103	0.000053	0.534648	0.090572	-0.002138
1383	6.9100e-01	-7.6441	-4.602103	-0.000000	-0.000000	-0.000000	0.000000
1384	6.9150e-01	-7.6630	-4.615787	0.000068	0.684349	0.115932	-0.002737
1385	6.9200e-01	-7.6838	-4.628188	0.000062	0.620192	0.105063	-0.002480
1386	6.9250e-01	-7.7058	-4.641017	0.000064	0.641577	0.108686	-0.002566
1387	6.9300e-01	-7.7235	-4.647431	0.000032	0.320789	0.054343	-0.001283
1388	6.9350e-01	-7.7442	-4.666675	0.000096	0.962366	0.163029	-0.003849
1389	6.9400e-01	-7.7631	-4.664536	-0.000011	-0.106930	-0.018114	0.000428
1390	6.9450e-01	-7.7851	-4.679503	0.000075	0.748507	0.126801	-0.002993
1391	6.9500e-01	-7.8031	-4.685063	0.000028	0.278017	0.047097	-0.001112
1392	6.9550e-01	-7.8242	-4.696608	0.000058	0.577420	0.097818	-0.002309
1393	6.9600e-01	-7.8407	-4.706871	0.000051	0.513262	0.086949	-0.002053
1394	6.9650e-01	-7.8645	-4.726970	0.000101	1.005138	0.170275	-0.004020
1395	6.9700e-01	-7.8855	-4.726115	-0.000004	-0.042772	-0.007246	0.000171
1396	6.9750e-01	-7.9072	-4.732101	0.000030	0.299403	0.050720	-0.001197
1397	6.9800e-01	-7.9243	-4.756476	0.000122	1.218997	0.206504	-0.004875
1398	6.9850e-01	-7.9438	-4.756904	0.000002	0.021386	0.003623	-0.000086
1399	6.9900e-01	-7.9621	-4.774864	0.000090	0.898208	0.152161	-0.003592
1400	6.9950e-01	-7.9841	-4.784699	0.000049	0.491876	0.083326	-0.001967
1401	7.0000e-01	-8.0039	-4.793252	0.000043	0.427718	0.072457	-0.001711
1402	7.0050e-01	-8.0244	-4.803087	0.000049	0.491876	0.083326	-0.001967
1403	7.0100e-01	-8.0439	-4.812067	0.000045	0.449104	0.076080	-0.001796
1404	7.0150e-01	-8.0628	-4.830027	0.000090	0.898208	0.152161	-0.003592
1405	7.0200e-01	-8.0842	-4.834731	0.000024	0.235245	0.039852	-0.000941
1406	7.0250e-01	-8.1055	-4.844994	0.000051	0.513262	0.086949	-0.002053
1407	7.0300e-01	-8.1245	-4.849271	0.000021	0.213859	0.036229	-0.000855
1408	7.0350e-01	-8.1422	-4.866803	0.000088	0.876822	0.148538	-0.003507
1409	7.0400e-01	-8.1623	-4.868941	0.000011	0.106930	0.018114	-0.000428
1410	7.0450e-01	-8.1864	-4.888612	0.000098	0.983752	0.166652	-0.003934
1411	7.0500e-01	-8.2056	-4.889467	0.000004	0.042772	0.007246	-0.000171
1412	7.0550e-01	-8.2221	-4.904862	0.000077	0.769893	0.130423	-0.003079
1413	7.0600e-01	-8.2386	-4.930092	0.000126	1.261769	0.213749	-0.005046
1414	7.0650e-01	-8.2661	-4.932230	0.000011	0.106930	0.018114	-0.000428
1415	7.0700e-01	-8.2825	-4.938644	0.000032	0.320789	0.054343	-0.001283
1416	7.0750e-01	-8.3039	-4.950190	0.000058	0.577420	0.097818	-0.002309
1417	7.0800e-01	-8.3228	-4.951473	0.000006	0.064158	0.010869	-0.000257
1418	7.0850e-01	-8.3442	-4.963874	0.000062	0.620192	0.105063	-0.002480
1419	7.0900e-01	-8.3631	-4.974565	0.000053	0.534648	0.090572	-0.002138
1420	7.0950e-01	-8.3869	-4.988249	0.000068	0.684349	0.115932	-0.002737
1421	7.1000e-01	-8.4043	-4.990815	0.000013	0.128315	0.021737	-0.000513
1422	7.1050e-01	-8.4229	-5.002360	0.000058	0.577420	0.097818	-0.002309
1423	7.1100e-01	-8.4437	-5.013479	0.000056	0.556034	0.094195	-0.002224
1424	7.1150e-01	-8.4620	-5.022031	0.000043	0.427718	0.072457	-0.001711
1425	7.1200e-01	-8.4834	-5.033577	0.000058	0.577420	0.097818	-0.002309
1426	7.1250e-01	-8.5047	-5.037426	0.000019	0.192473	0.032606	-0.000770
1427	7.1300e-01	-8.5249	-5.052820	0.000077	0.769893	0.130423	-0.003079
1428	7.1350e-01	-8.5432	-5.065221	0.000062	0.620192	0.105063	-0.002480
1429	7.1400e-01	-8.5639	-5.075912	0.000053	0.534648	0.090572	-0.002138
1430	7.1450e-01	-8.5838	-5.070781	-0.000026	-0.256631	-0.043474	0.001026
1431	7.1500e-01	-8.6045	-5.090879	0.000101	1.005138	0.170275	-0.004020
1432	7.1550e-01	-8.6225	-5.101142	0.000051	0.513262	0.086949	-0.002053
1433	7.1600e-01	-8.6439	-5.118675	0.000088	0.876822	0.148538	-0.003507
1434	7.1650e-01	-8.6616	-5.136207	0.000088	0.876822	0.148538	-0.003507
1435	7.1700e-01	-8.6817	-5.137062	0.000004	0.042772	0.007246	-0.000171
1436	7.1750e-01	-8.7037	-5.144332	0.000036	0.363561	0.061589	-0.001454
1437	7.1800e-01	-8.7232	-5.156306	0.000060	0.598806	0.101440	-0.002395
1438	7.1850e-01	-8.7435	-5.166569	0.000051	0.513262	0.086949	-0.002053
1439	7.1900e-01	-8.7641	-5.170845	0.000021	0.213859	0.036229	-0.000855
1440	7.1950e-01	-8.7843	-5.188805	0.000090	0.898208	0.152161	-0.003592
1441	7.2000e-01	-8.8026	-5.197358	0.000043	0.427718	0.072457	-0.001711
1442	7.2050e-01	-8.8239	-5.206338	0.000045	0.449104	0.076080	-0.001796
1443	7.2100e-01	-8.8471	-5.206765	0.000002	0.021386	0.003623	-0.000086
1444	7.2150e-01	-8.8648	-5.231140	0.000122	1.218997	0.206504	-0.004875
1445	7.2200e-01	-8.8850	-5.237127	0.000030	0.299403	0.050720	-0.001197
1446	7.2250e-01	-8.9045	-5.248673	0.000058	0.577420	0.097818	-0.002309
1447	7.2300e-01	-8.9259	-5.258936	0.000051	0.513262	0.086949	-0.002053
1448	7.2350e-01	-8.9454	-5.269626	0.000053	0.534648	0.090572	-0.002138
1449	7.2400e-01	-8.9680	-5.272620	0.000015	0.149701	0.025360	-0.000599
1450	7.2450e-01	-8.9838	-5.283310	0.000053	0.534648	0.090572	-0.002138
1451	7.2500e-01	-9.0052	-5.298277	0.000075	0.748507	0.126801	-0.002993
1452	7.2550e-01	-9.0223	-5.311961	0.000068	0.684349	0.115932	-0.002737
1453	7.2600e-01	-9.0437	-5.323935	0.000060	0.598806	0.101440	-0.002395
1454	7.2650e-01	-9.0644	-5.322224	-0.000009	-0.085544	-0.014491	0.000342
1455	7.2700e-01	-9.0858	-5.341467	0.000096	0.962366	0.163029	-0.003849
1456	7.2750e-01	-9.1010	-5.346171	0.000024	0.235245	0.039852	-0.000941
1457	7.2800e-01	-9.1242	-5.361993	0.000079	0.791279	0.134046	-0.003164
1458	7.2850e-01	-9.1431	-5.373112	0.000056	0.556034	0.094195	-0.002224
1459	7.2900e-01	-9.1660	-5.378671	0.000028	0.278017	0.047097	-0.001112
1460	7.2950e-01	-9.1807	-5.399197	0.000103	1.026524	0.173898	-0.004105
1461	7.3000e-01	-9.2036	-5.406466	0.000036	0.363561	0.061589	-0.001454
1462	7.3050e-01	-9.2271	-5.409032	0.000013	0.128315	0.021737	-0.000513
1463	7.3100e-01	-9.2432	-5.419295	0.000051	0.513262	0.086949	-0.002053
1464	7.3150e-01	-9.2646	-5.437255	0.000090	0.898208	0.152161	-0.003592
1465	7.3200e-01	-9.2841	-5.442387	0.000026	0.256631	0.043474	-0.001026
1466	7.3250e-01	-9.3040	-5.452222	0.000049	0.491876	0.083326	-0.001967
1467	7.3300e-01	-9.3244	-5.461202	0.000045	0.449104	0.076080	-0.001796
1468	7.3350e-01	-9.3436	-5.473176	0.000060	0.598806	0.101440	-0.002395
1469	7.3400e-01	-9.3632	-5.476597	0.000017	0.171087	0.028983	-0.000684
1470	7.3450e-01	-9.3867	-5.494557	0.000090	0.898208	0.152161	-0.003592
1471	7.3500e-01	-9.4038	-5.512517	0.000090	0.898208	0.152161	-0.003592
1472	7.3550e-01	-9.4233	-5.514228	0.000009	0.085544	0.014491	-0.000342
1473	7.3600e-01	-9.4453	-5.523636	0.000047	0.470490	0.079703	-0.001882
1474	7.3650e-01	-9.4657	-5.543734	0.000101	1.005138	0.170275	-0.004020
1475	7.3700e-01	-9.4855	-5.546727	0.000015	0.149701	0.025360	-0.000599
1476	7.3750e-01	-9.5033	-5.557846	0.000056	0.556034	0.094195	-0.002224
1477	7.3800e-01	-9.5258	-5.565543	0.000038	0.384946	0.065212	-0.001539
1478	7.3850e-01	-9.5411	-5.557846	-0.000038	-0.384946	-0.065212	0.001539
1479	7.3900e-01	-9.5646	-5.589490	0.000158	1.582558	0.268093	-0.006329
1480	7.3950e-01	-9.5863	-5.596332	0.000034	0.342175	0.057966	-0.001368
1481	7.4000e-01	-9.6040	-5.613437	0.000086	0.855437	0.144915	-0.003421
1482	7.4050e-01	-9.6259	-5.616858	0.000017	0.171087	0.028983	-0.000684
1483	7.4100e-01	-9.6436	-5.624128	0.000036	0.363561	0.061589	-0.001454
1484	7.4150e-01	-9.6626	-5.643371	0.000096	0.962366	0.163029	-0.003849
1485	7.4200e-01	-9.6821	-5.646792	0.000017	0.171087	0.028983	-0.000684
1486	7.4250e-01	-9.7059	-5.664752	0.000090	0.898208	0.152161	-0.003592
1487	7.4300e-01	-9.7248	-5.676298	0.000058	0.577420	0.097818	-0.002309
1488	7.4350e-01	-9.7445	-5.677581	0.000006	0.064158	0.010869	-0.000257
1489	7.4400e-01	-9.7663	-5.683140	0.000028	0.278017	0.047097	-0.001112
1490	7.4450e-01	-9.7865	-5.703666	0.000103	1.026524	0.173898	-0.004105
1491	7.4500e-01	-9.8029	-5.721626	0.000090	0.898208	0.152161	-0.003592
1492	7.4550e-01	-9.8243	-5.726330	0.000024	0.235245	0.039852	-0.000941
1493	7.4600e-01	-9.8450	-5.734455	0.000041	0.406332	0.068835	-0.001625
1494	7.4650e-01	-9.8615	-5.747284	0.000064	0.641577	0.108686	-0.002566
1495	7.4700e-01	-9.8811	-5.767810	0.000103	1.026524	0.173898	-0.004105
1496	7.4750e-01	-9.9049	-5.772941	0.000026	0.256631	0.043474	-0.001026
1497	7.4800e-01	-9.9250	-5.776362	0.000017	0.171087	0.028983	-0.000684
1498	7.4850e-01	-9.9439	-5.791329	0.000075	0.748507	0.126801	-0.002993
1499	7.4900e-01	-9.9635	-5.801592	0.000051	0.513262	0.086949	-0.002053
1500	7.4950e-01	-9.9848	-5.810145	0.000043	0.427718	0.072457	-0.001711
1501	7.5000e-01	-10.0000	-5.834519	0.000122	1.218997	0.206504	-0.004875
1502	7.5050e-01	-9.9879	-5.816559	0.000090	0.898208	0.152161	0.003592
1503	7.5100e-01	-9.9641	-5.817842	-0.000006	-0.064158	-0.010869	-0.000257
1504	7.5150e-01	-9.9451	-5.816131	0.000009	0.085544	0.014491	0.000342
1505	7.5200e-01	-9.9213	-5.824256	-0.000041	-0.406332	-0.068835	-0.001625
1506	7.5250e-01	-9.9036	-5.814848	0.000047	0.470490	0.079703	0.001882
1507	7.5300e-01	-9.8856	-5.801592	0.000066	0.662963	0.112309	0.002651
1508	7.5350e-01	-9.8615	-5.800309	0.000006	0.064158	0.010869	0.000257
1509	7.5400e-01	-9.8435	-5.801164	-0.000004	-0.042772	-0.007246	-0.000171
1510	7.5450e-01	-9.8231	-5.794322	0.000034	0.342175	0.057966	0.001368
1511	7.5500e-01	-9.8042	-5.800309	-0.000030	-0.299403	-0.050720	-0.001197
1512	7.5550e-01	-9.7834	-5.786625	0.000068	0.684349	0.115932	0.002737
1513	7.5600e-01	-9.7681	-5.778073	0.000043	0.427718	0.072457	0.001711
1514	7.5650e-01	-9.7456	-5.781066	-0.000015	-0.149701	-0.025360	-0.000599
1515	7.5700e-01	-9.7236	-5.771231	0.000049	0.491876	0.083326	0.001967
1516	7.5750e-01	-9.7077	-5.760968	0.000051	0.513262	0.086949	0.002053
1517	7.5800e-01	-9.6845	-5.766954	-0.000030	-0.299403	-0.050720	-0.001197
1518	7.5850e-01	-9.6632	-5.758830	0.000041	0.406332	0.068835	0.001625
1519	7.5900e-01	-9.6461	-5.757974	0.000004	0.042772	0.007246	0.000171
1520	7.5950e-01	-9.6253	-5.747711	0.000051	0.513262	0.086949	0.002053
1521	7.6000e-01	-9.6064	-5.744290	0.000017	0.171087	0.028983	0.000684
1522	7.6050e-01	-9.5850	-5.748139	-0.000019	-0.192473	-0.032606	-0.000770
1523	7.6100e-01	-9.5655	-5.732744	0.000077	0.769893	0.130423	0.003079
1524	7.6150e-01	-9.5448	-5.729751	0.000015	0.149701	0.025360	0.000599
1525	7.6200e-01	-9.5228	-5.732317	-0.000013	-0.128315	-0.021737	-0.000513
1526	7.6250e-01	-9.5042	-5.724192	0.000041	0.406332	0.068835	0.001625
1527	7.6300e-01	-9.4862	-5.716922	0.000036	0.363561	0.061589	0.001454
1528	7.6350e-01	-9.4648	-5.704521	0.000062	0.620192	0.105063	0.002480
1529	7.6400e-01	-9.4434	-5.703238	0.000006	0.064158	0.010869	0.000257
1530	7.6450e-01	-9.4270	-5.705376	-0.000011	-0.106930	-0.018114	-0.000428
1531	7.6500e-01	-9.4038	-5.695969	0.000047	0.470490	0.079703	0.001882
1532	7.6550e-01	-9.3861	-5.689982	0.000030	0.299403	0.050720	0.001197
1533	7.6600e-01	-9.3635	-5.693831	-0.000019	-0.192473	-0.032606	-0.000770
1534	7.6650e-01	-9.3464	-5.676298	0.000088	0.876822	0.148538	0.003507
1535	7.6700e-01	-9.3269	-5.681002	-0.000024	-0.235245	-0.039852	-0.000941
1536	7.6750e-01	-9.3049	-5.669884	0.000056	0.556034	0.094195	0.002224
1537	7.6800e-01	-9.2847	-5.660476	0.000047	0.470490	0.079703	0.001882
1538	7.6850e-01	-9.2616	-5.655344	0.000026	0.256631	0.043474	0.001026
1539	7.6900e-01	-9.2457	-5.651496	0.000019	0.192473	0.032606	0.000770
1540	7.6950e-01	-9.2255	-5.639522	0.000060	0.598806	0.101440	0.002395
1541	7.7000e-01	-9.2023	-5.635673	0.000019	0.192473	0.032606	0.000770
1542	7.7050e-01	-9.1859	-5.636956	-0.000006	-0.064158	-0.010869	-0.000257
1543	7.7100e-01	-9.1651	-5.619424	0.000088	0.876822	0.148538	0.003507
1544	7.7150e-01	-9.1450	-5.616003	0.000017	0.171087	0.028983	0.000684
1545	7.7200e-01	-9.1239	-5.609161	0.000034	0.342175	0.057966	0.001368
1546	7.7250e-01	-9.1047	-5.603602	0.000028	0.278017	0.047097	0.001112
1547	7.7300e-01	-9.0858	-5.602746	0.000004	0.042772	0.007246	0.000171
1548	7.7350e-01	-9.0645	-5.597615	0.000026	0.256631	0.043474	0.001026
1549	7.7400e-01	-9.0437	-5.582648	0.000075	0.748507	0.126801	0.002993
1550	7.7450e-01	-9.0235	-5.588635	-0.000030	-0.299403	-0.050720	-0.001197
1551	7.7500e-01	-9.0034	-5.574523	0.000071	0.705735	0.119555	0.002822
1552	7.7550e-01	-8.9832	-5.572385	0.000011	0.106930	0.018114	0.000428
1553	7.7600e-01	-8.9637	-5.563832	0.000043	0.427718	0.072457	0.001711
1554	7.7650e-01	-8.9448	-5.565115	-0.000006	-0.064158	-0.010869	-0.000257
1555	7.7700e-01	-8.9283	-5.555280	0.000049	0.491876	0.083326	0.001967
1556	7.7750e-01	-8.9088	-5.547155	0.000041	0.406332	0.068835	0.001625
1557	7.7800e-01	-8.8862	-5.536464	0.000053	0.534648	0.090572	0.002138
1558	7.7850e-01	-8.8660	-5.536892	-0.000002	-0.021386	-0.003623	-0.000086
1559	7.7900e-01	-8.8453	-5.527484	0.000047	0.470490	0.079703	0.001882
1560	7.7950e-01	-8.8258	-5.518504	0.000045	0.449104	0.076080	0.001796
1561	7.8000e-01	-8.8062	-5.510379	0.000041	0.406332	0.068835	0.001625
1562	7.8050e-01	-8.7861	-5.512945	-0.000013	-0.128315	-0.021737	-0.000513
1563	7.8100e-01	-8.7647	-5.503965	0.000045	0.449104	0.076080	0.001796
1564	7.8150e-01	-8.7476	-5.492419	0.000058	0.577420	0.097818	0.002309
1565	7.8200e-01	-8.7263	-5.485577	0.000034	0.342175	0.057966	0.001368
1566	7.8250e-01	-8.7043	-5.472748	0.000064	0.641577	0.108686	0.002566
1567	7.8300e-01	-8.6829	-5.473604	-0.000004	-0.042772	-0.007246	-0.000171
1568	7.8350e-01	-8.6646	-5.469327	0.000021	0.213859	0.036229	0.000855
1569	7.8400e-01	-8.6439	-5.463341	0.000030	0.299403	0.050720	0.001197
1570	7.8450e-01	-8.6268	-5.450939	0.000062	0.620192	0.105063	0.002480
1571	7.8500e-01	-8.6054	-5.453078	-0.000011	-0.106930	-0.018114	-0.000428
1572	7.8550e-01	-8.5831	-5.433834	0.000096	0.962366	0.163029	0.003849
1573	7.8600e-01	-8.5639	-5.435545	-0.000009	-0.085544	-0.014491	-0.000342
1574	7.8650e-01	-8.5456	-5.429558	0.000030	0.299403	0.050720	0.001197
1575	7.8700e-01	-8.5249	-5.426137	0.000017	0.171087	0.028983	0.000684
1576	7.8750e-01	-8.5026	-5.420150	0.000030	0.299403	0.050720	0.001197
1577	7.8800e-01	-8.4861	-5.405611	0.000073	0.727121	0.123178	0.002908
1578	7.8850e-01	-8.4657	-5.399624	0.000030	0.299403	0.050720	0.001197
1579	7.8900e-01	-8.4437	-5.393210	0.000032	0.320789	0.054343	0.001283
1580	7.8950e-01	-8.4248	-5.388934	0.000021	0.213859	0.036229	0.000855
1581	7.9000e-01	-8.4046	-5.380381	0.000043	0.427718	0.072457	0.001711
1582	7.9050e-01	-8.3839	-5.375677	0.000024	0.235245	0.039852	0.000941
1583	7.9100e-01	-8.3637	-5.366270	0.000047	0.470490	0.079703	0.001882
1584	7.9150e-01	-8.3424	-5.363276	0.000015	0.149701	0.025360	0.000599
1585	7.9200e-01	-8.3247	-5.350447	0.000064	0.641577	0.108686	0.002566
1586	7.9250e-01	-8.3009	-5.357289	-0.000034	-0.342175	-0.057966	-0.001368
1587	7.9300e-01	-8.2844	-5.346171	0.000056	0.556034	0.094195	0.002224
1588	7.9350e-01	-8.2648	-5.332487	0.000068	0.684349	0.115932	0.002737
1589	7.9400e-01	-8.2455	-5.327783	0.000024	0.235245	0.039852	0.000941
1590	7.9450e-01	-8.2255	-5.320514	0.000036	0.363561	0.061589	0.001454
1591	7.9500e-01	-8.2056	-5.310678	0.000049	0.491876	0.083326	0.001967
1592	7.9550e-01	-8.1794	-5.292718	0.000090	0.898208	0.152161	0.003592
1593	7.9600e-01	-8.1648	-5.291863	0.000004	0.042772	0.007246	0.000171
1594	7.9650e-01	-8.1446	-5.285876	0.000030	0.299403	0.050720	0.001197
1595	7.9700e-01	-8.1246	-5.272192	0.000068	0.684349	0.115932	0.002737
1596	7.9750e-01	-8.1043	-5.272620	-0.000002	-0.021386	-0.003623	-0.000086
1597	7.9800e-01	-8.0860	-5.258080	0.000073	0.727121	0.123178	0.002908
1598	7.9850e-01	-8.0680	-5.258936	-0.000004	-0.042772	-0.007246	-0.000171
1599	7.9900e-01	-8.0463	-5.252949	0.000030	0.299403	0.050720	0.001197
1600	7.9950e-01	-8.0274	-5.247817	0.000026	0.256631	0.043474	0.001026
1601	8.0000e-01	-8.0054	-5.231995	0.000079	0.791279	0.134046	0.003164
1602	8.0050e-01	-7.9841	-5.226864	0.000026	0.256631	0.043474	0.001026
1603	8.0100e-01	-7.9658	-5.224298	0.000013	0.128315	0.021737	0.000513
1604	8.0150e-01	-7.9444	-5.220449	0.000019	0.192473	0.032606	0.000770
1605	8.0200e-01	-7.9240	-5.210186	0.000051	0.513262	0.086949	0.002053
1606	8.0250e-01	-7.9041	-5.199068	0.000056	0.556034	0.094195	0.002224
1607	8.0300e-01	-7.8840	-5.202061	-0.000015	-0.149701	-0.025360	-0.000599
1608	8.0350e-01	-7.8657	-5.183674	0.000092	0.919594	0.155783	0.003678
1609	8.0400e-01	-7.8492	-5.181108	0.000013	0.128315	0.021737	0.000513
1610	8.0450e-01	-7.8242	-5.173411	0.000038	0.384946	0.065212	0.001539
1611	8.0500e-01	-7.8068	-5.163148	0.000051	0.513262	0.086949	0.002053
1612	8.0550e-01	-7.7903	-5.153312	0.000049	0.491876	0.083326	0.001967
1613	8.0600e-01	-7.7650	-5.152457	0.000004	0.042772	0.007246	0.000171
1614	8.0650e-01	-7.7454	-5.143477	0.000045	0.449104	0.076080	0.001796
1615	8.0700e-01	-7.7256	-5.137062	0.000032	0.320789	0.054343	0.001283
1616	8.0750e-01	-7.7052	-5.124661	0.000062	0.620192	0.105063	0.002480
1617	8.0800e-01	-7.6832	-5.120813	0.000019	0.192473	0.032606	0.000770
1618	8.0850e-01	-7.6649	-5.113543	0.000036	0.363561	0.061589	0.001454
1619	8.0900e-01	-7.6460	-5.109694	0.000019	0.192473	0.032606	0.000770
1620	8.0950e-01	-7.6270	-5.093872	0.000079	0.791279	0.134046	0.003164
1621	8.1000e-01	-7.6038	-5.091307	0.000013	0.128315	0.021737	0.000513
1622	8.1050e-01	-7.5825	-5.080616	0.000053	0.534648	0.090572	0.002138
1623	8.1100e-01	-7.5629	-5.082326	-0.000009	-0.085544	-0.014491	-0.000342
1624	8.1150e-01	-7.5462	-5.066504	0.000079	0.791279	0.134046	0.003164
1625	8.1200e-01	-7.5269	-5.062228	0.000021	0.213859	0.036229	0.000855
1626	8.1250e-01	-7.5068	-5.049827	0.000062	0.620192	0.105063	0.002480
1627	8.1300e-01	-7.4863	-5.041274	0.000043	0.427718	0.072457	0.001711
1628	8.1350e-01	-7.4647	-5.039991	0.000006	0.064158	0.010869	0.000257
1629	8.1400e-01	-7.4464	-5.032294	0.000038	0.384946	0.065212	0.001539
1630	8.1450e-01	-7.4244	-5.024169	0.000041	0.406332	0.068835	0.001625
1631	8.1500e-01	-7.4036	-5.012196	0.000060	0.598806	0.101440	0.002395
1632	8.1550e-01	-7.3844	-5.009202	0.000015	0.149701	0.025360	0.000599
1633	8.1600e-01	-7.3682	-4.993808	0.000077	0.769893	0.130423	0.003079
1634	8.1650e-01	-7.3460	-4.993380	0.000002	0.021386	0.003623	0.000086
1635	8.1700e-01	-7.3243	-4.976703	0.000083	0.834051	0.141292	0.003335
1636	8.1750e-01	-7.3054	-4.972854	0.000019	0.192473	0.032606	0.000770
1637	8.1800e-01	-7.2858	-4.966440	0.000032	0.320789	0.054343	0.001283
1638	8.1850e-01	-7.2646	-4.958743	0.000038	0.384946	0.065212	0.001539
1639	8.1900e-01	-7.2431	-4.958315	0.000002	0.021386	0.003623	0.000086
1640	8.1950e-01	-7.2260	-4.949335	0.000045	0.449104	0.076080	0.001796
1641	8.2000e-01	-7.2053	-4.934796	0.000073	0.727121	0.123178	0.002908
1642	8.2050e-01	-7.1867	-4.930519	0.000021	0.213859	0.036229	0.000855
1643	8.2100e-01	-7.1665	-4.920256	0.000051	0.513262	0.086949	0.002053
1644	8.2150e-01	-7.1436	-4.912559	0.000038	0.384946	0.065212	0.001539
1645	8.2200e-01	-7.1244	-4.900586	0.000060	0.598806	0.101440	0.002395
1646	8.2250e-01	-7.1021	-4.901441	-0.000004	-0.042772	-0.007246	-0.000171
1647	8.2300e-01	-7.0860	-4.874928	0.000133	1.325927	0.224618	0.005303
1648	8.2350e-01	-7.0686	-4.880487	-0.000028	-0.278017	-0.047097	-0.001112
1649	8.2400e-01	-7.0448	-4.875783	0.000024	0.235245	0.039852	0.000941
1650	8.2450e-01	-7.0249	-4.865520	0.000051	0.513262	0.086949	0.002053
1651	8.2500e-01	-7.0033	-4.847560	0.000090	0.898208	0.152161	0.003592
1652	8.2550e-01	-6.9877	-4.844139	0.000017	0.171087	0.028983	0.000684
1653	8.2600e-01	-6.9657	-4.833021	0.000056	0.556034	0.094195	0.002224
1654	8.2650e-01	-6.9447	-4.824896	0.000041	0.406332	0.068835	0.001625
1655	8.2700e-01	-6.9242	-4.818909	0.000030	0.299403	0.050720	0.001197
1656	8.2750e-01	-6.9064	-4.812495	0.000032	0.320789	0.054343	0.001283
1657	8.2800e-01	-6.8836	-4.804798	0.000038	0.384946	0.065212	0.001539
1658	8.2850e-01	-6.8629	-4.794962	0.000049	0.491876	0.083326	0.001967
1659	8.2900e-01	-6.8443	-4.791114	0.000019	0.192473	0.032606	0.000770
1660	8.2950e-01	-6.8220	-4.778285	0.000064	0.641577	0.108686	0.002566
1661	8.3000e-01	-6.8073	-4.765884	0.000062	0.620192	0.105063	0.002480
1662	8.3050e-01	-6.7841	-4.760325	0.000028	0.278017	0.047097	0.001112
1663	8.3100e-01	-6.7652	-4.748779	0.000058	0.577420	0.097818	0.002309
1664	8.3150e-01	-6.7458	-4.747496	0.000006	0.064158	0.010869	0.000257
1665	8.3200e-01	-6.7240	-4.737660	0.000049	0.491876	0.083326	0.001967
1666	8.3250e-01	-6.7036	-4.731246	0.000032	0.320789	0.054343	0.001283
1667	8.3300e-01	-6.6865	-4.723976	0.000036	0.363561	0.061589	0.001454
1668	8.3350e-01	-6.6676	-4.712003	0.000060	0.598806	0.101440	0.002395
1669	8.3400e-01	-6.6444	-4.703878	0.000041	0.406332	0.068835	0.001625
1670	8.3450e-01	-6.6242	-4.700885	0.000015	0.149701	0.025360	0.000599
1671	8.3500e-01	-6.6041	-4.683780	0.000086	0.855437	0.144915	0.003421
1672	8.3550e-01	-6.5845	-4.670523	0.000066	0.662963	0.112309	0.002651
1673	8.3600e-01	-6.5635	-4.672661	-0.000011	-0.106930	-0.018114	-0.000428
1674	8.3650e-01	-6.5443	-4.658550	0.000071	0.705735	0.119555	0.002822
1675	8.3700e-01	-6.5260	-4.652991	0.000028	0.278017	0.047097	0.001112
1676	8.3750e-01	-6.5058	-4.641445	0.000058	0.577420	0.097818	0.002309
1677	8.3800e-01	-6.4869	-4.623484	0.000090	0.898208	0.152161	0.003592
1678	8.3850e-01	-6.4666	-4.625623	-0.000011	-0.106930	-0.018114	-0.000428
1679	8.3900e-01	-6.4466	-4.617498	0.000041	0.406332	0.068835	0.001625
1680	8.3950e-01	-6.4243	-4.610228	0.000036	0.363561	0.061589	0.001454
1681	8.4000e-01	-6.4036	-4.607235	0.000015	0.149701	0.025360	0.000599
1682	8.4050e-01	-6.3862	-4.585426	0.000109	1.090682	0.184766	0.004362
1683	8.4100e-01	-6.3667	-4.581577	0.000019	0.192473	0.032606	0.000770
1684	8.4150e-01	-6.3471	-4.563189	0.000092	0.919594	0.155783	0.003678
1685	8.4200e-01	-6.3197	-4.570031	-0.000034	-0.342175	-0.057966	-0.001368
1686	8.4250e-01	-6.3050	-4.555064	0.000075	0.748507	0.126801	0.002993
1687	8.4300e-01	-6.2843	-4.549078	0.000030	0.299403	0.050720	0.001197
1688	8.4350e-01	-6.2656	-4.541380	0.000038	0.384946	0.065212	0.001539
1689	8.4400e-01	-6.2459	-4.537959	0.000017	0.171087	0.028983	0.000684
1690	8.4450e-01	-6.2214	-4.524703	0.000066	0.662963	0.112309	0.002651
1691	8.4500e-01	-6.2043	-4.517861	0.000034	0.342175	0.057966	0.001368
1692	8.4550e-01	-6.1835	-4.503322	0.000073	0.727121	0.123178	0.002908
1693	8.4600e-01	-6.1631	-4.504605	-0.000006	-0.064158	-0.010869	-0.000257
1694	8.4650e-01	-6.1420	-4.492631	0.000060	0.598806	0.101440	0.002395
1695	8.4700e-01	-6.1262	-4.482368	0.000051	0.513262	0.086949	0.002053
1696	8.4750e-01	-6.1030	-4.472533	0.000049	0.491876	0.083326	0.001967
1697	8.4800e-01	-6.0859	-4.461414	0.000056	0.556034	0.094195	0.002224
1698	8.4850e-01	-6.0615	-4.454572	0.000034	0.342175	0.057966	0.001368
1699	8.4900e-01	-6.0465	-4.448586	0.000030	0.299403	0.050720	0.001197
1700	8.4950e-01	-6.0224	-4.446448	0.000011	0.106930	0.018114	0.000428
1701	8.5000e-01	-6.0053	-4.427204	0.000096	0.962366	0.163029	0.003849
1702	8.5050e-01	-5.9852	-4.422501	0.000024	0.235245	0.039852	0.000941
1703	8.5100e-01	-5.9653	-4.414376	0.000041	0.406332	0.068835	0.001625
1704	8.5150e-01	-5.9443	-4.393422	0.000105	1.047910	0.177521	0.004191
1705	8.5200e-01	-5.9260	-4.390429	0.000015	0.149701	0.025360	0.000599
1706	8.5250e-01	-5.9040	-4.381449	0.000045	0.449104	0.076080	0.001796
1707	8.5300e-01	-5.8866	-4.363916	0.000088	0.876822	0.148538	0.003507
1708	8.5350e-01	-5.8665	-4.364344	-0.000002	-0.021386	-0.003623	-0.000086
1709	8.5400e-01	-5.8448	-4.357502	0.000034	0.342175	0.057966	0.001368
1710	8.5450e-01	-5.8256	-4.336976	0.000103	1.026524	0.173898	0.004105
1711	8.5500e-01	-5.8041	-4.328423	0.000043	0.427718	0.072457	0.001711
1712	8.5550e-01	-5.7832	-4.319443	0.000045	0.449104	0.076080	0.001796
1713	8.5600e-01	-5.7624	-4.319015	0.000002	0.021386	0.003623	0.000086
1714	8.5650e-01	-5.7459	-4.312601	0.000032	0.320789	0.054343	0.001283
1715	8.5700e-01	-5.7212	-4.303193	0.000047	0.470490	0.079703	0.001882
1716	8.5750e-01	-5.7045	-4.292075	0.000056	0.556034	0.094195	0.002224
1717	8.5800e-01	-5.6849	-4.275825	0.000081	0.812665	0.137669	0.003250
1718	8.5850e-01	-5.6654	-4.259575	0.000081	0.812665	0.137669	0.003250
1719	8.5900e-01	-5.6434	-4.257010	0.000013	0.128315	0.021737	0.000513
1720	8.5950e-01	-5.6257	-4.255299	0.000009	0.085544	0.014491	0.000342
1721	8.6000e-01	-5.6071	-4.239905	0.000077	0.769893	0.130423	0.003079
1722	8.6050e-01	-5.5830	-4.230069	0.000049	0.491876	0.083326	0.001967
1723	8.6100e-01	-5.5654	-4.223655	0.000032	0.320789	0.054343	0.001283
1724	8.6150e-01	-5.5439	-4.209543	0.000071	0.705735	0.119555	0.002822
1725	8.6200e-01	-5.5274	-4.201846	0.000038	0.384946	0.065212	0.001539
1726	8.6250e-01	-5.5050	-4.195859	0.000030	0.299403	0.050720	0.001197
1727	8.6300e-01	-5.4841	-4.181320	0.000073	0.727121	0.123178	0.002908
1728	8.6350e-01	-5.4652	-4.175333	0.000030	0.299403	0.050720	0.001197
1729	8.6400e-01	-5.4441	-4.165070	0.000051	0.513262	0.086949	0.002053
1730	8.6450e-01	-5.4249	-4.156945	0.000041	0.406332	0.068835	0.001625
1731	8.6500e-01	-5.4029	-4.144972	0.000060	0.598806	0.101440	0.002395
1732	8.6550e-01	-5.3876	-4.133854	0.000056	0.556034	0.094195	0.002224
1733	8.6600e-01	-5.3635	-4.124873	0.000045	0.449104	0.076080	0.001796
1734	8.6650e-01	-5.3452	-4.114183	0.000053	0.534648	0.090572	0.002138
1735	8.6700e-01	-5.3236	-4.104347	0.000049	0.491876	0.083326	0.001967
1736	8.6750e-01	-5.3083	-4.091946	0.000062	0.620192	0.105063	0.002480
1737	8.6800e-01	-5.2851	-4.082111	0.000049	0.491876	0.083326	0.001967
1738	8.6850e-01	-5.2656	-4.077835	0.000021	0.213859	0.036229	0.000855
1739	8.6900e-01	-5.2436	-4.069282	0.000043	0.427718	0.072457	0.001711
1740	8.6950e-01	-5.2247	-4.049611	0.000098	0.983752	0.166652	0.003934
1741	8.7000e-01	-5.2018	-4.049611	0.000000	0.000000	0.000000	0.000000
1742	8.7050e-01	-5.1853	-4.046618	0.000015	0.149701	0.025360	0.000599
1743	8.7100e-01	-5.1643	-4.028658	0.000090	0.898208	0.152161	0.003592
1744	8.7150e-01	-5.1460	-4.020533	0.000041	0.406332	0.068835	0.001625
1745	8.7200e-01	-5.1240	-4.015401	0.000026	0.256631	0.043474	0.001026
1746	8.7250e-01	-5.1038	-3.998296	0.000086	0.855437	0.144915	0.003421
1747	8.7300e-01	-5.0831	-3.988033	0.000051	0.513262	0.086949	0.002053
1748	8.7350e-01	-5.0636	-3.976487	0.000058	0.577420	0.097818	0.002309
1749	8.7400e-01	-5.0419	-3.965797	0.000053	0.534648	0.090572	0.002138
1750	8.7450e-01	-5.0214	-3.985040	-0.000096	-0.962366	-0.163029	-0.003849
1751	8.7500e-01	-5.0043	-3.950402	0.000173	1.732259	0.293453	0.006928
1752	8.7550e-01	-4.9854	-3.942277	0.000041	0.406332	0.068835	0.001625
1753	8.7600e-01	-4.9659	-3.925600	0.000083	0.834051	0.141292	0.003335
1754	8.7650e-01	-4.9439	-3.927311	-0.000009	-0.085544	-0.014491	-0.000342
1755	8.7700e-01	-4.9235	-3.914482	0.000064	0.641577	0.108686	0.002566
1756	8.7750e-01	-4.9055	-3.903791	0.000053	0.534648	0.090572	0.002138
1757	8.7800e-01	-4.8837	-3.885831	0.000090	0.898208	0.152161	0.003592
1758	8.7850e-01	-4.8646	-3.858463	0.000137	1.368698	0.231864	0.005474
1759	8.7900e-01	-4.8446	-3.867443	-0.000045	-0.449104	-0.076080	-0.001796
1760	8.7950e-01	-4.8231	-3.864022	0.000017	0.171087	0.028983	0.000684
1761	8.8000e-01	-4.8058	-3.850766	0.000066	0.662963	0.112309	0.002651
1762	8.8050e-01	-4.7855	-3.836226	0.000073	0.727121	0.123178	0.002908
1763	8.8100e-01	-4.7657	-3.827674	0.000043	0.427718	0.072457	0.001711
1764	8.8150e-01	-4.7443	-3.814417	0.000066	0.662963	0.112309	0.002651
1765	8.8200e-01	-4.7245	-3.808858	0.000028	0.278017	0.047097	0.001112
1766	8.8250e-01	-4.7050	-3.793036	0.000079	0.791279	0.134046	0.003164
1767	8.8300e-01	-4.6842	-3.779780	0.000066	0.662963	0.112309	0.002651
1768	8.8350e-01	-4.6674	-3.783201	-0.000017	-0.171087	-0.028983	-0.000684
1769	8.8400e-01	-4.6452	-3.769089	0.000071	0.705735	0.119555	0.002822
1770	8.8450e-01	-4.6241	-3.751984	0.000086	0.855437	0.144915	0.003421
1771	8.8500e-01	-4.6047	-3.742576	0.000047	0.470490	0.079703	0.001882
1772	8.8550e-01	-4.5856	-3.725044	0.000088	0.876822	0.148538	0.003507
1773	8.8600e-01	-4.5643	-3.719057	0.000030	0.299403	0.050720	0.001197
1774	8.8650e-01	-4.5431	-3.712215	0.000034	0.342175	0.057966	0.001368
1775	8.8700e-01	-4.5243	-3.703235	0.000045	0.449104	0.076080	0.001796
1776	8.8750e-01	-4.5033	-3.687840	0.000077	0.769893	0.130423	0.003079
1777	8.8800e-01	-4.4840	-3.675012	0.000064	0.641577	0.108686	0.002566
1778	8.8850e-01	-4.4636	-3.670308	0.000024	0.235245	0.039852	0.000941
1779	8.8900e-01	-4.4453	-3.660045	0.000051	0.513262	0.086949	0.002053
1780	8.8950e-01	-4.4245	-3.653630	0.000032	0.320789	0.054343	0.001283
1781	8.9000e-01	-4.4038	-3.649354	0.000021	0.213859	0.036229	0.000855
1782	8.9050e-01	-4.3848	-3.627545	0.000109	1.090682	0.184766	0.004362
1783	8.9100e-01	-4.3610	-3.612151	0.000077	0.769893	0.130423	0.003079
1784	8.9150e-01	-4.3415	-3.604026	0.000041	0.406332	0.068835	0.001625
1785	8.9200e-01	-4.3220	-3.592908	0.000056	0.556034	0.094195	0.002224
1786	8.9250e-01	-4.3073	-3.578368	0.000073	0.727121	0.123178	0.002908
1787	8.9300e-01	-4.2829	-3.576230	0.000011	0.106930	0.018114	0.000428
1788	8.9350e-01	-4.2612	-3.564684	0.000058	0.577420	0.097818	0.002309
1789	8.9400e-01	-4.2435	-3.561263	0.000017	0.171087	0.028983	0.000684
1790	8.9450e-01	-4.2245	-3.536461	0.000124	1.240383	0.210127	0.004960
1791	8.9500e-01	-4.2042	-3.524488	0.000060	0.598806	0.101440	0.002395
1792	8.9550e-01	-4.1819	-3.512942	0.000058	0.577420	0.097818	0.002309
1793	8.9600e-01	-4.1651	-3.507383	0.000028	0.278017	0.047097	0.001112
1794	8.9650e-01	-4.1450	-3.490277	0.000086	0.855437	0.144915	0.003421
1795	8.9700e-01	-4.1273	-3.478304	0.000060	0.598806	0.101440	0.002395
1796	8.9750e-01	-4.1007	-3.466330	0.000060	0.598806	0.101440	0.002395
1797	8.9800e-01	-4.0844	-3.470179	-0.000019	-0.192473	-0.032606	-0.000770
1798	8.9850e-01	-4.0626	-3.447943	0.000111	1.112068	0.188389	0.004447
1799	8.9900e-01	-4.0458	-3.438962	0.000045	0.449104	0.076080	0.001796
1800	8.9950e-01	-4.0229	-3.438107	0.000004	0.042772	0.007246	0.000171
1801	9.0000e-01	-4.0046	-3.418864	0.000096	0.962366	0.163029	0.003849
1802	9.0050e-01	-3.9833	-3.414160	0.000024	0.235245	0.039852	0.000941
1803	9.0100e-01	-3.9629	-3.395772	0.000092	0.919594	0.155783	0.003678
1804	9.0150e-01	-3.9433	-3.387647	0.000041	0.406332	0.068835	0.001625
1805	9.0200e-01	-3.9246	-3.379523	0.000041	0.406332	0.068835	0.001625
1806	9.0250e-01	-3.9002	-3.353865	0.000128	1.283155	0.217372	0.005132
1807	9.0300e-01	-3.8825	-3.362845	-0.000045	-0.449104	-0.076080	-0.001796
1808	9.0350e-01	-3.8612	-3.345313	0.000088	0.876822	0.148538	0.003507
1809	9.0400e-01	-3.8453	-3.331629	0.000068	0.684349	0.115932	0.002737
1810	9.0450e-01	-3.8250	-3.314951	0.000083	0.834051	0.141292	0.003335
1811	9.0500e-01	-3.8074	-3.312813	0.000011	0.106930	0.018114	0.000428
1812	9.0550e-01	-3.7807	-3.299984	0.000064	0.641577	0.108686	0.002566
1813	9.0600e-01	-3.7699	-3.286300	0.000068	0.684349	0.115932	0.002737
1814	9.0650e-01	-3.7435	-3.259360	0.000135	1.347313	0.228241	0.005388
1815	9.0700e-01	-3.7241	-3.259360	0.000000	0.000000	0.000000	0.000000
1816	9.0750e-01	-3.7055	-3.246103	0.000066	0.662963	0.112309	0.002651
1817	9.0800e-01	-3.6823	-3.237551	0.000043	0.427718	0.072457	0.001711
1818	9.0850e-01	-3.6652	-3.217880	0.000098	0.983752	0.166652	0.003934
1819	9.0900e-01	-3.6463	-3.208472	0.000047	0.470490	0.079703	0.001882
1820	9.0950e-01	-3.6244	-3.193933	0.000073	0.727121	0.123178	0.002908
1821	9.1000e-01	-3.6036	-3.189657	0.000021	0.213859	0.036229	0.000855
1822	9.1050e-01	-3.5838	-3.176401	0.000066	0.662963	0.112309	0.002651
1823	9.1100e-01	-3.5658	-3.158440	0.000090	0.898208	0.152161	0.003592
1824	9.1150e-01	-3.5447	-3.152454	0.000030	0.299403	0.050720	0.001197
1825	9.1200e-01	-3.5239	-3.146894	0.000028	0.278017	0.047097	0.001112
1826	9.1250e-01	-3.5047	-3.129789	0.000086	0.855437	0.144915	0.003421
1827	9.1300e-01	-3.4843	-3.120382	0.000047	0.470490	0.079703	0.001882
1828	9.1350e-01	-3.4644	-3.105842	0.000073	0.727121	0.123178	0.002908
1829	9.1400e-01	-3.4422	-3.101138	0.000024	0.235245	0.039852	0.000941
1830	9.1450e-01	-3.4245	-3.088310	0.000064	0.641577	0.108686	0.002566
1831	9.1500e-01	-3.4046	-3.074626	0.000068	0.684349	0.115932	0.002737
1832	9.1550e-01	-3.3822	-3.060942	0.000068	0.684349	0.115932	0.002737
1833	9.1600e-01	-3.3634	-3.048541	0.000062	0.620192	0.105063	0.002480
1834	9.1650e-01	-3.3436	-3.028870	0.000098	0.983752	0.166652	0.003934
1835	9.1700e-01	-3.3241	-3.031008	-0.000011	-0.106930	-0.018114	-0.000428
1836	9.1750e-01	-3.3037	-3.011765	0.000096	0.962366	0.163029	0.003849
1837	9.1800e-01	-3.2832	-2.999791	0.000060	0.598806	0.101440	0.002395
1838	9.1850e-01	-3.2619	-2.988673	0.000056	0.556034	0.094195	0.002224
1839	9.1900e-01	-3.2453	-2.975844	0.000064	0.641577	0.108686	0.002566
1840	9.1950e-01	-3.2252	-2.965581	0.000051	0.513262	0.086949	0.002053
1841	9.2000e-01	-3.2041	-2.950187	0.000077	0.769893	0.130423	0.003079
1842	9.2050e-01	-3.1843	-2.932227	0.000090	0.898208	0.152161	0.003592
1843	9.2100e-01	-3.1657	-2.914266	0.000090	0.898208	0.152161	0.003592
1844	9.2150e-01	-3.1440	-2.907424	0.000034	0.342175	0.057966	0.001368
1845	9.2200e-01	-3.1251	-2.899299	0.000041	0.406332	0.068835	0.001625
1846	9.2250e-01	-3.1051	-2.883905	0.000077	0.769893	0.130423	0.003079
1847	9.2300e-01	-3.0852	-2.871931	0.000060	0.598806	0.101440	0.002395
1848	9.2350e-01	-3.0647	-2.861668	0.000051	0.513262	0.086949	0.002053
1849	9.2400e-01	-3.0456	-2.847984	0.000068	0.684349	0.115932	0.002737
1850	9.2450e-01	-3.0244	-2.836438	0.000058	0.577420	0.097818	0.002309
1851	9.2500e-01	-3.0048	-2.816340	0.000101	1.005138	0.170275	0.004020
1852	9.2550e-01	-2.9805	-2.816340	0.000000	0.000000	0.000000	0.000000
1853	9.2600e-01	-2.9646	-2.802228	0.000071	0.705735	0.119555	0.002822
1854	9.2650e-01	-2.9447	-2.787262	0.000075	0.748507	0.126801	0.002993
1855	9.2700e-01	-2.9243	-2.772295	0.000075	0.748507	0.126801	0.002993
1856	9.2750e-01	-2.9041	-2.758611	0.000068	0.684349	0.115932	0.002737
1857	9.2800e-01	-2.8860	-2.755617	0.000015	0.149701	0.025360	0.000599
1858	9.2850e-01	-2.8638	-2.741933	0.000068	0.684349	0.115932	0.002737
1859	9.2900e-01	-2.8463	-2.721407	0.000103	1.026524	0.173898	0.004105
1860	9.2950e-01	-2.8239	-2.714138	0.000036	0.363561	0.061589	0.001454
1861	9.3000e-01	-2.8102	-2.688908	0.000126	1.261769	0.213749	0.005046
1862	9.3050e-01	-2.7860	-2.681638	0.000036	0.363561	0.061589	0.001454
1863	9.3100e-01	-2.7639	-2.681638	0.000000	0.000000	0.000000	0.000000
1864	9.3150e-01	-2.7418	-2.657263	0.000122	1.218997	0.206504	0.004875
1865	9.3200e-01	-2.7210	-2.654270	0.000015	0.149701	0.025360	0.000599
1866	9.3250e-01	-2.7058	-2.633316	0.000105	1.047910	0.177521	0.004191
1867	9.3300e-01	-2.6835	-2.618777	0.000073	0.727121	0.123178	0.002908
1868	9.3350e-01	-2.6630	-2.611080	0.000038	0.384946	0.065212	0.001539
1869	9.3400e-01	-2.6423	-2.585850	0.000126	1.261769	0.213749	0.005046
1870	9.3450e-01	-2.6216	-2.581574	0.000021	0.213859	0.036229	0.000855
1871	9.3500e-01	-2.6048	-2.561475	0.000101	1.005138	0.170275	0.004020
1872	9.3550e-01	-2.5829	-2.557627	0.000019	0.192473	0.032606	0.000770
1873	9.3600e-01	-2.5642	-2.535818	0.000109	1.090682	0.184766	0.004362
1874	9.3650e-01	-2.5443	-2.527693	0.000041	0.406332	0.068835	0.001625
1875	9.3700e-01	-2.5211	-2.514009	0.000068	0.684349	0.115932	0.002737
1876	9.3750e-01	-2.5068	-2.500325	0.000068	0.684349	0.115932	0.002737
1877	9.3800e-01	-2.4830	-2.478516	0.000109	1.090682	0.184766	0.004362
1878	9.3850e-01	-2.4650	-2.475095	0.000017	0.171087	0.028983	0.000684
1879	9.3900e-01	-2.4415	-2.456280	0.000094	0.940980	0.159406	0.003763
1880	9.3950e-01	-2.4245	-2.448582	0.000038	0.384946	0.065212	0.001539
1881	9.4000e-01	-2.4049	-2.442168	0.000032	0.320789	0.054343	0.001283
1882	9.4050e-01	-2.3866	-2.425491	0.000083	0.834051	0.141292	0.003335
1883	9.4100e-01	-2.3631	-2.410524	0.000075	0.748507	0.126801	0.002993
1884	9.4150e-01	-2.3454	-2.391281	0.000096	0.962366	0.163029	0.003849
1885	9.4200e-01	-2.3214	-2.381445	0.000049	0.491876	0.083326	0.001967
1886	9.4250e-01	-2.3037	-2.371610	0.000049	0.491876	0.083326	0.001967
1887	9.4300e-01	-2.2846	-2.356215	0.000077	0.769893	0.130423	0.003079
1888	9.4350e-01	-2.2639	-2.342104	0.000071	0.705735	0.119555	0.002822
1889	9.4400e-01	-2.2456	-2.328420	0.000068	0.684349	0.115932	0.002737
1890	9.4450e-01	-2.2269	-2.307894	0.000103	1.026524	0.173898	0.004105
1891	9.4500e-01	-2.2025	-2.296775	0.000056	0.556034	0.094195	0.002224
1892	9.4550e-01	-2.1833	-2.286940	0.000049	0.491876	0.083326	0.001967
1893	9.4600e-01	-2.1626	-2.270263	0.000083	0.834051	0.141292	0.003335
1894	9.4650e-01	-2.1439	-2.251875	0.000092	0.919594	0.155783	0.003678
1895	9.4700e-01	-2.1247	-2.237763	0.000071	0.705735	0.119555	0.002822
1896	9.4750e-01	-2.1050	-2.226645	0.000056	0.556034	0.094195	0.002224
1897	9.4800e-01	-2.0853	-2.211678	0.000075	0.748507	0.126801	0.002993
1898	9.4850e-01	-2.0644	-2.198422	0.000066	0.662963	0.112309	0.002651
1899	9.4900e-01	-2.0434	-2.189869	0.000043	0.427718	0.072457	0.001711
1900	9.4950e-01	-2.0235	-2.176185	0.000068	0.684349	0.115932	0.002737
1901	9.5000e-01	-2.0036	-2.168488	0.000038	0.384946	0.065212	0.001539
1902	9.5050e-01	-1.9846	-2.137271	0.000156	1.561172	0.264470	0.006243
1903	9.5100e-01	-1.9613	-2.127436	0.000049	0.491876	0.083326	0.001967
1904	9.5150e-01	-1.9453	-2.123159	0.000021	0.213859	0.036229	0.000855
1905	9.5200e-01	-1.9249	-2.104772	0.000092	0.919594	0.155783	0.003678
1906	9.5250e-01	-1.9056	-2.081680	0.000115	1.154839	0.195635	0.004618
1907	9.5300e-01	-1.8821	-2.083818	-0.000011	-0.106930	-0.018114	-0.000428
1908	9.5350e-01	-1.8636	-2.069706	0.000071	0.705735	0.119555	0.002822
1909	9.5400e-01	-1.8449	-2.048325	0.000107	1.069296	0.181144	0.004276
1910	9.5450e-01	-1.8233	-2.034641	0.000068	0.684349	0.115932	0.002737
1911	9.5500e-01	-1.8046	-2.019674	0.000075	0.748507	0.126801	0.002993
1912	9.5550e-01	-1.7841	-2.004280	0.000077	0.769893	0.130423	0.003079
1913	9.5600e-01	-1.7640	-1.997438	0.000034	0.342175	0.057966	0.001368
1914	9.5650e-01	-1.7432	-1.987175	0.000051	0.513262	0.086949	0.002053
1915	9.5700e-01	-1.7240	-1.964938	0.000111	1.112068	0.188389	0.004447
1916	9.5750e-01	-1.7048	-1.955530	0.000047	0.470490	0.079703	0.001882
1917	9.5800e-01	-1.6834	-1.949544	0.000030	0.299403	0.050720	0.001197
1918	9.5850e-01	-1.6655	-1.920037	0.000148	1.475628	0.249978	0.005901
1919	9.5900e-01	-1.6441	-1.912768	0.000036	0.363561	0.061589	0.001454
1920	9.5950e-01	-1.6236	-1.894808	0.000090	0.898208	0.152161	0.003592
1921	9.6000e-01	-1.6047	-1.873426	0.000107	1.069296	0.181144	0.004276
1922	9.6050e-01	-1.5833	-1.867440	0.000030	0.299403	0.050720	0.001197
1923	9.6100e-01	-1.5626	-1.855038	0.000062	0.620192	0.105063	0.002480
1924	9.6150e-01	-1.5429	-1.839644	0.000077	0.769893	0.130423	0.003079
1925	9.6200e-01	-1.5237	-1.812276	0.000137	1.368698	0.231864	0.005474
1926	9.6250e-01	-1.5028	-1.801585	0.000053	0.534648	0.090572	0.002138
1927	9.6300e-01	-1.4852	-1.791322	0.000051	0.513262	0.086949	0.002053
1928	9.6350e-01	-1.4643	-1.771652	0.000098	0.983752	0.166652	0.003934
1929	9.6400e-01	-1.4427	-1.763099	0.000043	0.427718	0.072457	0.001711
1930	9.6450e-01	-1.4230	-1.745139	0.000090	0.898208	0.152161	0.003592
1931	9.6500e-01	-1.4002	-1.738297	0.000034	0.342175	0.057966	0.001368
1932	9.6550e-01	-1.3816	-1.720764	0.000088	0.876822	0.148538	0.003507
1933	9.6600e-01	-1.3638	-1.704942	0.000079	0.791279	0.134046	0.003164
1934	9.6650e-01	-1.3441	-1.683133	0.000109	1.090682	0.184766	0.004362
1935	9.6700e-01	-1.3264	-1.659186	0.000120	1.197611	0.202881	0.004789
1936	9.6750e-01	-1.3042	-1.654910	0.000021	0.213859	0.036229	0.000855
1937	9.6800e-01	-1.2846	-1.647213	0.000038	0.384946	0.065212	0.001539
1938	9.6850e-01	-1.2617	-1.635239	0.000060	0.598806	0.101440	0.002395
1939	9.6900e-01	-1.2431	-1.615141	0.000101	1.005138	0.170275	0.004020
1940	9.6950e-01	-1.2241	-1.599319	0.000079	0.791279	0.134046	0.003164
1941	9.7000e-01	-1.2022	-1.589056	0.000051	0.513262	0.086949	0.002053
1942	9.7050e-01	-1.1852	-1.568530	0.000103	1.026524	0.173898	0.004105
1943	9.7100e-01	-1.1627	-1.554418	0.000071	0.705735	0.119555	0.002822
1944	9.7150e-01	-1.1423	-1.539023	0.000077	0.769893	0.130423	0.003079
1945	9.7200e-01	-1.1248	-1.532609	0.000032	0.320789	0.054343	0.001283
1946	9.7250e-01	-1.1002	-1.515932	0.000083	0.834051	0.141292	0.003335
1947	9.7300e-01	-1.0847	-1.503103	0.000064	0.641577	0.108686	0.002566
1948	9.7350e-01	-1.0651	-1.482577	0.000103	1.026524	0.173898	0.004105
1949	9.7400e-01	-1.0445	-1.461623	0.000105	1.047910	0.177521	0.004191
1950	9.7450e-01	-1.0218	-1.453071	0.000043	0.427718	0.072457	0.001711
1951	9.7500e-01	-1.0041	-1.432972	0.000101	1.005138	0.170275	0.004020
1952	9.7550e-01	-0.9846	-1.408170	0.000124	1.240383	0.210127	0.004960
1953	9.7600e-01	-0.9640	-1.399190	0.000045	0.449104	0.076080	0.001796
1954	9.7650e-01	-0.9421	-1.382940	0.000081	0.812665	0.137669	0.003250
1955	9.7700e-01	-0.9229	-1.370967	0.000060	0.598806	0.101440	0.002395
1956	9.7750e-01	-0.9039	-1.359421	0.000058	0.577420	0.097818	0.002309
1957	9.7800e-01	-0.8813	-1.337612	0.000109	1.090682	0.184766	0.004362
1958	9.7850e-01	-0.8656	-1.323928	0.000068	0.684349	0.115932	0.002737
1959	9.7900e-01	-0.8415	-1.310244	0.000068	0.684349	0.115932	0.002737
1960	9.7950e-01	-0.8247	-1.294422	0.000079	0.791279	0.134046	0.003164
1961	9.8000e-01	-0.8051	-1.270475	0.000120	1.197611	0.202881	0.004789
1962	9.8050e-01	-0.7838	-1.267909	0.000013	0.128315	0.021737	0.000513
1963	9.8100e-01	-0.7649	-1.250804	0.000086	0.855437	0.144915	0.003421
1964	9.8150e-01	-0.7415	-1.249093	0.000009	0.085544	0.014491	0.000342
1965	9.8200e-01	-0.7240	-1.219160	0.000150	1.497014	0.253601	0.005987
1966	9.8250e-01	-0.7053	-1.198206	0.000105	1.047910	0.177521	0.004191
1967	9.8300e-01	-0.6832	-1.187943	0.000051	0.513262	0.086949	0.002053
1968	9.8350e-01	-0.6651	-1.178108	0.000049	0.491876	0.083326	0.001967
1969	9.8400e-01	-0.6438	-1.160575	0.000088	0.876822	0.148538	0.003507
1970	9.8450e-01	-0.6227	-1.141759	0.000094	0.940980	0.159406	0.003763
1971	9.8500e-01	-0.6043	-1.131924	0.000049	0.491876	0.083326	0.001967
1972	9.8550e-01	-0.5824	-1.120378	0.000058	0.577420	0.097818	0.002309
1973	9.8600e-01	-0.5642	-1.107977	0.000062	0.620192	0.105063	0.002480
1974	9.8650e-01	-0.5440	-1.080181	0.000139	1.390084	0.235487	0.005559
1975	9.8700e-01	-0.5262	-1.058800	0.000107	1.069296	0.181144	0.004276
1976	9.8750e-01	-0.5037	-1.042978	0.000079	0.791279	0.134046	0.003164
1977	9.8800e-01	-0.4829	-1.033998	0.000045	0.449104	0.076080	0.001796
1978	9.8850e-01	-0.4623	-1.012189	0.000109	1.090682	0.184766	0.004362
1979	9.8900e-01	-0.4444	-1.007058	0.000026	0.256631	0.043474	0.001026
1980	9.8950e-01	-0.4298	-0.990380	0.000083	0.834051	0.141292	0.003335
1981	9.9000e-01	-0.4020	-0.956170	0.000171	1.710873	0.289830	0.006842
1982	9.9050e-01	-0.3822	-0.952749	0.000017	0.171087	0.028983	0.000684
1983	9.9100e-01	-0.3622	-0.929230	0.000118	1.176225	0.199258	0.004704
1984	9.9150e-01	-0.3445	-0.918967	0.000051	0.513262	0.086949	0.002053
1985	9.9200e-01	-0.3217	-0.903572	0.000077	0.769893	0.130423	0.003079
1986	9.9250e-01	-0.3005	-0.897158	0.000032	0.320789	0.054343	0.001283
1987	9.9300e-01	-0.2844	-0.863803	0.000167	1.668101	0.282584	0.006671
1988	9.9350e-01	-0.2622	-0.857816	0.000030	0.299403	0.050720	0.001197
1989	9.9400e-01	-0.2426	-0.847553	0.000051	0.513262	0.086949	0.002053
1990	9.9450e-01	-0.2225	-0.823606	0.000120	1.197611	0.202881	0.004789
1991	9.9500e-01	-0.2017	-0.810350	0.000066	0.662963	0.112309	0.002651
1992	9.9550e-01	-0.1846	-0.794955	0.000077	0.769893	0.130423	0.003079
1993	9.9600e-01	-0.1591	-0.787258	0.000038	0.384946	0.065212	0.001539
1994	9.9650e-01	-0.1449	-0.762028	0.000126	1.261769	0.213749	0.005046
1995	9.9700e-01	-0.1228	-0.747061	0.000075	0.748507	0.126801	0.002993
1996	9.9750e-01	-0.1040	-0.734233	0.000064	0.641577	0.108686	0.002566
1997	9.9800e-01	-0.0849	-0.711141	0.000115	1.154839	0.195635	0.004618
1998	9.9850e-01	-0.0631	-0.706009	0.000026	0.256631	0.043474	0.001026
1999	9.9900e-01	-0.0423	-0.690187	0.000079	0.791279	0.134046	0.003164
2000	9.9950e-01	-0.0246	-0.665385	0.000124	1.240383	0.210127	0.004960
2001	1.0000e+00	-0.0028	-0.651701	0.000124	1.240383	0.210127	0.002737

Smooth data before PMax, +/-Pr and +/-Vc Calc.

PMax (uC/cm2):	6.26e+00
Pr (uC/cm2):	9.80e-01
-Pr (uC/cm2):	-2.31e-01
PLoss (uC/cm2):	-2.34e-01
-Vc:	-1.25e+00
C (Max-Eff) (nF):	6.26e-02
K (Eff):	1.06e+02
Vert. (+/-Pr) Shift (uC/cm2):	3.75e-01
Offset (uC/cm2):	4.24e-01

A (Loop Area - uC/cm2·Volts):	-1.28e-03



Hysteresis Version: 5.48.1 - Radiant Technologies, Inc., 1999 - 9/12/24

