»»»»»»»»»»»»»»»»»»»»»»»»»»»»»»»»»»»» Hysteresis ««««««««««««««««««««««««««««««««««««
»»»  Executed Version:	5.48.1
»»»  Vision Version:	5.48.4 (R)
»»»  Vision Compiled:	9/18/24
»»»  Driver Version:	5.47.0
»»»  Windows Version:	Windows 8 or 8.1
»»»  Processor Information:	x86 (AMD or Intel) - 32 Processors
»»»  Tester Name:	PMF21124-494 (100V)
»»»  Tester S/N:	PMF21124-494
»»»  Internal Amp Type:	100V RevK 270k
»»»  Internal Amp S/N:	iAB2-596/K     
»»»  Execution Count:	1
»»»»»»»»»»»»»»»»»»»»»»»»»»»»»»»»»»»»»»»»»»««««««««««««««««««««««««««««««««««««««««««

Stored:	7/11/2025 - 13:47:13
Configured:	07/11/25 01:34:37 PM
Executed:	07/11/25 01:46:48 PM

»»»»»»»»»»»»»»»»»»»»»»»»»»»»»»»»»»» Sample Info ««««««««««««««««««««««««««««««««««««
Sample Name:	
Lot Name:	
Wafer Name:	
Die Row/Column:	0/0
Capacitor Number:	0
Sample Area (cm2):	1.00e-04
Sample Thickness (microns):	1.50e-01

Amplifier:	Internal

»»»»»»»»»»»»»»»»»»»»»»»»»»»»»»»»»»» Tester Info «««««««««««««««««««««««««««««««««««
Tester Name:	PMF21124-494 (100V)
Tester Serial Number:	PMF21124-494
Return Signal Amp. Level:	1.9 [Index: 2]

»»»»»»»»»»»»»»»»»»»»»»»»»»»»»»»» Hysteresis Info ««««««««««««««««««««««««««««««««««
Task Name:	Hyst-1184
Volts:	10.00
Field:	666.67 (kV/cm)
DCBias:	0.00
DCField:	0.00 (kV/cm)
Hysteresis Period (ms):	2.00e+02
Preset:	Enabled
Preset Delay (ms):	1.00e+03
Profile:	Standard Bipolar

»»»»»»»»»»»»»»»»»»»»»»»»»»»»»»»»»»»»»» Data «««««««««««««««««««««««««««««««««««««««
Points:	2009

Valid Data

Point	Time (ms)	Drive Voltage	Measured Polarization (uC/cm2)	Capacitance (uF)	Normalized Capacitance (uF/cm2)	Dielectric Constant	Instantaneous Current (mA)
   1	0.0000e+00	-0.0030	-2.613713	0.000078	0.777176	0.131657	0.000016
   2	9.9500e-02	0.0181	-2.598234	0.000078	0.777176	0.131657	0.000016
   3	1.9900e-01	0.0382	-2.582755	0.000078	0.777176	0.131657	0.000016
   4	2.9850e-01	0.0580	-2.561981	0.000104	1.043051	0.176698	0.000021
   5	3.9800e-01	0.0753	-2.547317	0.000074	0.736272	0.124728	0.000015
   6	4.9750e-01	0.0983	-2.523283	0.000121	1.206667	0.204415	0.000024
   7	5.9700e-01	0.1163	-2.506582	0.000084	0.838532	0.142051	0.000017
   8	6.9650e-01	0.1369	-2.485401	0.000106	1.063503	0.180162	0.000021
   9	7.9600e-01	0.1584	-2.460553	0.000125	1.247571	0.211344	0.000025
  10	8.9550e-01	0.1768	-2.445074	0.000078	0.777176	0.131657	0.000016
  11	9.9500e-01	0.1952	-2.425929	0.000096	0.961244	0.162839	0.000019
  12	1.0945e+00	0.2168	-2.401488	0.000123	1.227119	0.207880	0.000025
  13	1.1940e+00	0.2395	-2.382750	0.000094	0.940792	0.159374	0.000019
  14	1.2935e+00	0.2580	-2.364420	0.000092	0.920340	0.155910	0.000018
  15	1.3930e+00	0.2763	-2.343645	0.000104	1.043051	0.176698	0.000021
  16	1.4925e+00	0.2986	-2.322464	0.000106	1.063503	0.180162	0.000021
  17	1.5920e+00	0.3153	-2.296801	0.000129	1.288475	0.218274	0.000026
  18	1.6915e+00	0.3374	-2.274397	0.000112	1.124859	0.190556	0.000023
  19	1.7910e+00	0.3561	-2.255252	0.000096	0.961244	0.162839	0.000019
  20	1.8905e+00	0.3747	-2.230811	0.000123	1.227119	0.207880	0.000025
  21	1.9900e+00	0.3981	-2.204334	0.000133	1.329379	0.225203	0.000027
  22	2.0895e+00	0.4152	-2.182745	0.000108	1.083955	0.183627	0.000022
  23	2.1890e+00	0.4370	-2.155453	0.000137	1.370283	0.232132	0.000027
  24	2.2885e+00	0.4555	-2.133457	0.000110	1.104407	0.187092	0.000022
  25	2.3880e+00	0.4758	-2.103721	0.000149	1.492995	0.252920	0.000030
  26	2.4875e+00	0.4942	-2.084168	0.000098	0.981696	0.166304	0.000020
  27	2.5870e+00	0.5142	-2.056469	0.000139	1.390735	0.235597	0.000028
  28	2.6865e+00	0.5365	-2.033658	0.000115	1.145311	0.194021	0.000023
  29	2.7860e+00	0.5559	-2.010032	0.000119	1.186215	0.200950	0.000024
  30	2.8855e+00	0.5762	-1.982333	0.000139	1.390735	0.235597	0.000028
  31	2.9850e+00	0.5956	-1.960743	0.000108	1.083955	0.183627	0.000022
  32	3.0845e+00	0.6149	-1.932229	0.000143	1.431639	0.242526	0.000029
  33	3.1840e+00	0.6355	-1.908196	0.000121	1.206667	0.204415	0.000024
  34	3.2835e+00	0.6560	-1.881719	0.000133	1.329379	0.225203	0.000027
  35	3.3830e+00	0.6737	-1.856464	0.000127	1.268023	0.214809	0.000025
  36	3.4825e+00	0.6953	-1.831616	0.000125	1.247571	0.211344	0.000025
  37	3.5820e+00	0.7151	-1.803916	0.000139	1.390735	0.235597	0.000028
  38	3.6815e+00	0.7346	-1.773366	0.000153	1.533899	0.259850	0.000031
  39	3.7810e+00	0.7561	-1.749740	0.000119	1.186215	0.200950	0.000024
  40	3.8805e+00	0.7772	-1.725299	0.000123	1.227119	0.207880	0.000025
  41	3.9800e+00	0.7951	-1.693527	0.000160	1.595255	0.270244	0.000032
  42	4.0795e+00	0.8150	-1.668679	0.000125	1.247571	0.211344	0.000025
  43	4.1790e+00	0.8343	-1.640165	0.000143	1.431639	0.242526	0.000029
  44	4.2785e+00	0.8542	-1.608392	0.000160	1.595255	0.270244	0.000032
  45	4.3780e+00	0.8731	-1.583137	0.000127	1.268023	0.214809	0.000025
  46	4.4775e+00	0.8955	-1.556252	0.000135	1.349831	0.228668	0.000027
  47	4.5770e+00	0.9155	-1.528553	0.000139	1.390735	0.235597	0.000028
  48	4.6765e+00	0.9367	-1.501668	0.000135	1.349831	0.228668	0.000027
  49	4.7760e+00	0.9536	-1.475598	0.000131	1.308927	0.221738	0.000026
  50	4.8755e+00	0.9735	-1.445048	0.000153	1.533899	0.259850	0.000031
  51	4.9750e+00	0.9953	-1.415312	0.000149	1.492995	0.252920	0.000030
  52	5.0745e+00	1.0143	-1.388427	0.000135	1.349831	0.228668	0.000027
  53	5.1740e+00	1.0365	-1.359506	0.000145	1.452091	0.245991	0.000029
  54	5.2735e+00	1.0555	-1.332621	0.000135	1.349831	0.228668	0.000027
  55	5.3730e+00	1.0725	-1.300848	0.000160	1.595255	0.270244	0.000032
  56	5.4725e+00	1.0921	-1.271927	0.000145	1.452091	0.245991	0.000029
  57	5.5720e+00	1.1136	-1.242191	0.000149	1.492995	0.252920	0.000030
  58	5.6715e+00	1.1330	-1.210418	0.000160	1.595255	0.270244	0.000032
  59	5.7710e+00	1.1537	-1.187200	0.000117	1.165763	0.197486	0.000023
  60	5.8705e+00	1.1742	-1.156649	0.000153	1.533899	0.259850	0.000031
  61	5.9700e+00	1.1967	-1.126913	0.000149	1.492995	0.252920	0.000030
  62	6.0695e+00	1.2135	-1.096362	0.000153	1.533899	0.259850	0.000031
  63	6.1690e+00	1.2313	-1.070700	0.000129	1.288475	0.218274	0.000026
  64	6.2685e+00	1.2507	-1.040964	0.000149	1.492995	0.252920	0.000030
  65	6.3680e+00	1.2734	-1.008376	0.000164	1.636159	0.277173	0.000033
  66	6.4675e+00	1.2920	-0.983529	0.000125	1.247571	0.211344	0.000025
  67	6.5670e+00	1.3123	-0.951756	0.000160	1.595255	0.270244	0.000032
  68	6.6665e+00	1.3319	-0.923242	0.000143	1.431639	0.242526	0.000029
  69	6.7660e+00	1.3534	-0.888210	0.000176	1.758871	0.297961	0.000035
  70	6.8655e+00	1.3733	-0.858474	0.000149	1.492995	0.252920	0.000030
  71	6.9650e+00	1.3903	-0.826702	0.000160	1.595255	0.270244	0.000032
  72	7.0645e+00	1.4123	-0.794522	0.000162	1.615707	0.273708	0.000032
  73	7.1640e+00	1.4321	-0.761934	0.000164	1.636159	0.277173	0.000033
  74	7.2635e+00	1.4504	-0.731384	0.000153	1.533899	0.259850	0.000031
  75	7.3630e+00	1.4725	-0.700426	0.000155	1.554351	0.263314	0.000031
  76	7.4625e+00	1.4895	-0.669875	0.000153	1.533899	0.259850	0.000031
  77	7.5620e+00	1.5118	-0.638917	0.000155	1.554351	0.263314	0.000031
  78	7.6615e+00	1.5322	-0.605922	0.000166	1.656611	0.280638	0.000033
  79	7.7610e+00	1.5508	-0.578223	0.000139	1.390735	0.235597	0.000028
  80	7.8605e+00	1.5699	-0.541155	0.000186	1.861131	0.315284	0.000037
  81	7.9600e+00	1.5928	-0.508160	0.000166	1.656611	0.280638	0.000033
  82	8.0595e+00	1.6126	-0.477202	0.000155	1.554351	0.263314	0.000031
  83	8.1590e+00	1.6294	-0.443800	0.000168	1.677063	0.284102	0.000034
  84	8.2585e+00	1.6527	-0.405917	0.000190	1.902035	0.322213	0.000038
  85	8.3580e+00	1.6727	-0.373329	0.000164	1.636159	0.277173	0.000033
  86	8.4575e+00	1.6900	-0.337076	0.000182	1.820227	0.308355	0.000036
  87	8.5570e+00	1.7089	-0.306933	0.000151	1.513447	0.256385	0.000030
  88	8.6565e+00	1.7286	-0.274345	0.000164	1.636159	0.277173	0.000033
  89	8.7560e+00	1.7527	-0.235648	0.000194	1.942939	0.329143	0.000039
  90	8.8555e+00	1.7716	-0.209578	0.000131	1.308927	0.221738	0.000026
  91	8.9550e+00	1.7911	-0.174954	0.000174	1.738419	0.294496	0.000035
  92	9.0545e+00	1.8105	-0.143996	0.000155	1.554351	0.263314	0.000031
  93	9.1540e+00	1.8305	-0.111001	0.000166	1.656611	0.280638	0.000033
  94	9.2535e+00	1.8495	-0.081672	0.000147	1.472543	0.249456	0.000029
  95	9.3530e+00	1.8700	-0.045826	0.000180	1.799775	0.304890	0.000036
  96	9.4525e+00	1.8911	-0.015275	0.000153	1.533899	0.259850	0.000031
  97	9.5520e+00	1.9109	0.017312	0.000164	1.636159	0.277173	0.000033
  98	9.6515e+00	1.9311	0.046233	0.000145	1.452091	0.245991	0.000029
  99	9.7510e+00	1.9495	0.079228	0.000166	1.656611	0.280638	0.000033
 100	9.8505e+00	1.9703	0.110186	0.000155	1.554351	0.263314	0.000031
 101	9.9500e+00	1.9902	0.141144	0.000155	1.554351	0.263314	0.000031
 102	1.0050e+01	2.0113	0.173324	0.000162	1.615707	0.273708	0.000032
 103	1.0149e+01	2.0314	0.204690	0.000157	1.574803	0.266779	0.000032
 104	1.0248e+01	2.0495	0.230760	0.000131	1.308927	0.221738	0.000026
 105	1.0348e+01	2.0720	0.262125	0.000157	1.574803	0.266779	0.000032
 106	1.0447e+01	2.0901	0.292268	0.000151	1.513447	0.256385	0.000030
 107	1.0547e+01	2.1109	0.322004	0.000149	1.492995	0.252920	0.000030
 108	1.0646e+01	2.1287	0.349296	0.000137	1.370283	0.232132	0.000027
 109	1.0746e+01	2.1506	0.382698	0.000168	1.677063	0.284102	0.000034
 110	1.0845e+01	2.1712	0.410398	0.000139	1.390735	0.235597	0.000028
 111	1.0945e+01	2.1886	0.436875	0.000133	1.329379	0.225203	0.000027
 112	1.1044e+01	2.2085	0.467018	0.000151	1.513447	0.256385	0.000030
 113	1.1144e+01	2.2309	0.498384	0.000157	1.574803	0.266779	0.000032
 114	1.1243e+01	2.2493	0.524861	0.000133	1.329379	0.225203	0.000027
 115	1.1343e+01	2.2701	0.552153	0.000137	1.370283	0.232132	0.000027
 116	1.1443e+01	2.2894	0.581889	0.000149	1.492995	0.252920	0.000030
 117	1.1542e+01	2.3071	0.612032	0.000151	1.513447	0.256385	0.000030
 118	1.1642e+01	2.3297	0.643398	0.000157	1.574803	0.266779	0.000032
 119	1.1741e+01	2.3484	0.672319	0.000145	1.452091	0.245991	0.000029
 120	1.1841e+01	2.3673	0.698796	0.000133	1.329379	0.225203	0.000027
 121	1.1940e+01	2.3900	0.726903	0.000141	1.411187	0.239062	0.000028
 122	1.2040e+01	2.4073	0.758676	0.000160	1.595255	0.270244	0.000032
 123	1.2139e+01	2.4291	0.787597	0.000145	1.452091	0.245991	0.000029
 124	1.2239e+01	2.4490	0.813259	0.000129	1.288475	0.218274	0.000026
 125	1.2338e+01	2.4664	0.838922	0.000129	1.288475	0.218274	0.000026
 126	1.2438e+01	2.4900	0.867436	0.000143	1.431639	0.242526	0.000029
 127	1.2537e+01	2.5072	0.897172	0.000149	1.492995	0.252920	0.000030
 128	1.2636e+01	2.5275	0.924871	0.000139	1.390735	0.235597	0.000028
 129	1.2736e+01	2.5504	0.952978	0.000141	1.411187	0.239062	0.000028
 130	1.2835e+01	2.5686	0.979863	0.000135	1.349831	0.228668	0.000027
 131	1.2935e+01	2.5886	1.011635	0.000160	1.595255	0.270244	0.000032
 132	1.3034e+01	2.6089	1.036483	0.000125	1.247571	0.211344	0.000025
 133	1.3134e+01	2.6292	1.064182	0.000139	1.390735	0.235597	0.000028
 134	1.3233e+01	2.6505	1.095548	0.000157	1.574803	0.266779	0.000032
 135	1.3333e+01	2.6667	1.122432	0.000135	1.349831	0.228668	0.000027
 136	1.3432e+01	2.6882	1.150946	0.000143	1.431639	0.242526	0.000029
 137	1.3532e+01	2.7078	1.178238	0.000137	1.370283	0.232132	0.000027
 138	1.3632e+01	2.7283	1.205530	0.000137	1.370283	0.232132	0.000027
 139	1.3731e+01	2.7457	1.229156	0.000119	1.186215	0.200950	0.000024
 140	1.3831e+01	2.7679	1.260522	0.000157	1.574803	0.266779	0.000032
 141	1.3930e+01	2.7868	1.290258	0.000149	1.492995	0.252920	0.000030
 142	1.4030e+01	2.8078	1.316735	0.000133	1.329379	0.225203	0.000027
 143	1.4129e+01	2.8274	1.344027	0.000137	1.370283	0.232132	0.000027
 144	1.4229e+01	2.8489	1.373355	0.000147	1.472543	0.249456	0.000029
 145	1.4328e+01	2.8672	1.400240	0.000135	1.349831	0.228668	0.000027
 146	1.4428e+01	2.8854	1.431605	0.000157	1.574803	0.266779	0.000032
 147	1.4527e+01	2.9063	1.461749	0.000151	1.513447	0.256385	0.000030
 148	1.4627e+01	2.9278	1.487819	0.000131	1.308927	0.221738	0.000026
 149	1.4726e+01	2.9502	1.515925	0.000141	1.411187	0.239062	0.000028
 150	1.4825e+01	2.9659	1.546476	0.000153	1.533899	0.259850	0.000031
 151	1.4925e+01	2.9848	1.570917	0.000123	1.227119	0.207880	0.000025
 152	1.5024e+01	3.0035	1.599838	0.000145	1.452091	0.245991	0.000029
 153	1.5124e+01	3.0276	1.626315	0.000133	1.329379	0.225203	0.000027
 154	1.5223e+01	3.0483	1.651163	0.000125	1.247571	0.211344	0.000025
 155	1.5323e+01	3.0651	1.679677	0.000143	1.431639	0.242526	0.000029
 156	1.5422e+01	3.0868	1.702896	0.000117	1.165763	0.197486	0.000023
 157	1.5522e+01	3.1030	1.727743	0.000125	1.247571	0.211344	0.000025
 158	1.5621e+01	3.1258	1.756665	0.000145	1.452091	0.245991	0.000029
 159	1.5721e+01	3.1478	1.783142	0.000133	1.329379	0.225203	0.000027
 160	1.5820e+01	3.1670	1.810434	0.000137	1.370283	0.232132	0.000027
 161	1.5920e+01	3.1869	1.836911	0.000133	1.329379	0.225203	0.000027
 162	1.6020e+01	3.2073	1.862574	0.000129	1.288475	0.218274	0.000026
 163	1.6119e+01	3.2247	1.893125	0.000153	1.533899	0.259850	0.000031
 164	1.6218e+01	3.2439	1.918380	0.000127	1.268023	0.214809	0.000025
 165	1.6318e+01	3.2671	1.943635	0.000127	1.268023	0.214809	0.000025
 166	1.6418e+01	3.2854	1.968483	0.000125	1.247571	0.211344	0.000025
 167	1.6517e+01	3.3059	1.990479	0.000110	1.104407	0.187092	0.000022
 168	1.6616e+01	3.3254	2.018586	0.000141	1.411187	0.239062	0.000028
 169	1.6716e+01	3.3453	2.038546	0.000100	1.002148	0.169768	0.000020
 170	1.6816e+01	3.3642	2.062172	0.000119	1.186215	0.200950	0.000024
 171	1.6915e+01	3.3840	2.089056	0.000135	1.349831	0.228668	0.000027
 172	1.7015e+01	3.4060	2.113904	0.000125	1.247571	0.211344	0.000025
 173	1.7114e+01	3.4246	2.142825	0.000145	1.452091	0.245991	0.000029
 174	1.7213e+01	3.4463	2.167266	0.000123	1.227119	0.207880	0.000025
 175	1.7313e+01	3.4649	2.196187	0.000145	1.452091	0.245991	0.000029
 176	1.7413e+01	3.4841	2.220221	0.000121	1.206667	0.204415	0.000024
 177	1.7512e+01	3.5049	2.245883	0.000129	1.288475	0.218274	0.000026
 178	1.7611e+01	3.5296	2.274397	0.000143	1.431639	0.242526	0.000029
 179	1.7711e+01	3.5467	2.303726	0.000147	1.472543	0.249456	0.000029
 180	1.7811e+01	3.5654	2.324908	0.000106	1.063503	0.180162	0.000021
 181	1.7910e+01	3.5836	2.356680	0.000160	1.595255	0.270244	0.000032
 182	1.8009e+01	3.6047	2.381121	0.000123	1.227119	0.207880	0.000025
 183	1.8109e+01	3.6257	2.407191	0.000131	1.308927	0.221738	0.000026
 184	1.8209e+01	3.6455	2.436112	0.000145	1.452091	0.245991	0.000029
 185	1.8308e+01	3.6646	2.461367	0.000127	1.268023	0.214809	0.000025
 186	1.8407e+01	3.6861	2.490289	0.000145	1.452091	0.245991	0.000029
 187	1.8507e+01	3.7014	2.519210	0.000145	1.452091	0.245991	0.000029
 188	1.8607e+01	3.7237	2.551797	0.000164	1.636159	0.277173	0.000033
 189	1.8706e+01	3.7402	2.575016	0.000117	1.165763	0.197486	0.000023
 190	1.8805e+01	3.7643	2.605974	0.000155	1.554351	0.263314	0.000031
 191	1.8905e+01	3.7843	2.632451	0.000133	1.329379	0.225203	0.000027
 192	1.9005e+01	3.8015	2.660558	0.000141	1.411187	0.239062	0.000028
 193	1.9104e+01	3.8250	2.690701	0.000151	1.513447	0.256385	0.000030
 194	1.9203e+01	3.8425	2.717993	0.000137	1.370283	0.232132	0.000027
 195	1.9303e+01	3.8618	2.749766	0.000160	1.595255	0.270244	0.000032
 196	1.9402e+01	3.8842	2.778280	0.000143	1.431639	0.242526	0.000029
 197	1.9502e+01	3.9019	2.808831	0.000153	1.533899	0.259850	0.000031
 198	1.9602e+01	3.9230	2.837345	0.000143	1.431639	0.242526	0.000029
 199	1.9701e+01	3.9404	2.865859	0.000143	1.431639	0.242526	0.000029
 200	1.9800e+01	3.9642	2.895595	0.000149	1.492995	0.252920	0.000030
 201	1.9900e+01	3.9819	2.927367	0.000160	1.595255	0.270244	0.000032
 202	2.0000e+01	4.0055	2.956696	0.000147	1.472543	0.249456	0.000029
 203	2.0099e+01	4.0209	2.980322	0.000119	1.186215	0.200950	0.000024
 204	2.0198e+01	4.0405	3.011280	0.000155	1.554351	0.263314	0.000031
 205	2.0298e+01	4.0636	3.040608	0.000147	1.472543	0.249456	0.000029
 206	2.0398e+01	4.0844	3.069530	0.000145	1.452091	0.245991	0.000029
 207	2.0497e+01	4.1039	3.099673	0.000151	1.513447	0.256385	0.000030
 208	2.0596e+01	4.1204	3.131039	0.000157	1.574803	0.266779	0.000032
 209	2.0696e+01	4.1430	3.160775	0.000149	1.492995	0.252920	0.000030
 210	2.0796e+01	4.1631	3.189289	0.000143	1.431639	0.242526	0.000029
 211	2.0895e+01	4.1808	3.221469	0.000162	1.615707	0.273708	0.000032
 212	2.0994e+01	4.2010	3.249575	0.000141	1.411187	0.239062	0.000028
 213	2.1094e+01	4.2217	3.276460	0.000135	1.349831	0.228668	0.000027
 214	2.1194e+01	4.2419	3.311084	0.000174	1.738419	0.294496	0.000035
 215	2.1293e+01	4.2638	3.339191	0.000141	1.411187	0.239062	0.000028
 216	2.1392e+01	4.2802	3.364446	0.000127	1.268023	0.214809	0.000025
 217	2.1492e+01	4.3017	3.395811	0.000157	1.574803	0.266779	0.000032
 218	2.1591e+01	4.3224	3.424325	0.000143	1.431639	0.242526	0.000029
 219	2.1691e+01	4.3395	3.452839	0.000143	1.431639	0.242526	0.000029
 220	2.1791e+01	4.3621	3.481353	0.000143	1.431639	0.242526	0.000029
 221	2.1890e+01	4.3804	3.514755	0.000168	1.677063	0.284102	0.000034
 222	2.1989e+01	4.4021	3.542047	0.000137	1.370283	0.232132	0.000027
 223	2.2089e+01	4.4219	3.573413	0.000157	1.574803	0.266779	0.000032
 224	2.2189e+01	4.4411	3.600704	0.000137	1.370283	0.232132	0.000027
 225	2.2288e+01	4.4625	3.632070	0.000157	1.574803	0.266779	0.000032
 226	2.2387e+01	4.4817	3.660176	0.000141	1.411187	0.239062	0.000028
 227	2.2487e+01	4.5013	3.691542	0.000157	1.574803	0.266779	0.000032
 228	2.2587e+01	4.5202	3.719649	0.000141	1.411187	0.239062	0.000028
 229	2.2686e+01	4.5385	3.747755	0.000141	1.411187	0.239062	0.000028
 230	2.2785e+01	4.5596	3.777084	0.000147	1.472543	0.249456	0.000029
 231	2.2885e+01	4.5794	3.804376	0.000137	1.370283	0.232132	0.000027
 232	2.2985e+01	4.5983	3.830446	0.000131	1.308927	0.221738	0.000026
 233	2.3084e+01	4.6191	3.862218	0.000160	1.595255	0.270244	0.000032
 234	2.3183e+01	4.6407	3.889510	0.000137	1.370283	0.232132	0.000027
 235	2.3283e+01	4.6603	3.917617	0.000141	1.411187	0.239062	0.000028
 236	2.3383e+01	4.6816	3.951426	0.000170	1.697515	0.287567	0.000034
 237	2.3482e+01	4.6996	3.980348	0.000145	1.452091	0.245991	0.000029
 238	2.3581e+01	4.7216	4.008862	0.000143	1.431639	0.242526	0.000029
 239	2.3681e+01	4.7399	4.043486	0.000174	1.738419	0.294496	0.000035
 240	2.3780e+01	4.7601	4.070370	0.000135	1.349831	0.228668	0.000027
 241	2.3880e+01	4.7803	4.103365	0.000166	1.656611	0.280638	0.000033
 242	2.3980e+01	4.8022	4.132287	0.000145	1.452091	0.245991	0.000029
 243	2.4079e+01	4.8186	4.159986	0.000139	1.390735	0.235597	0.000028
 244	2.4178e+01	4.8382	4.191759	0.000160	1.595255	0.270244	0.000032
 245	2.4278e+01	4.8592	4.219458	0.000139	1.390735	0.235597	0.000028
 246	2.4378e+01	4.8800	4.245935	0.000133	1.329379	0.225203	0.000027
 247	2.4477e+01	4.8980	4.276486	0.000153	1.533899	0.259850	0.000031
 248	2.4576e+01	4.9200	4.308666	0.000162	1.615707	0.273708	0.000032
 249	2.4676e+01	4.9374	4.339217	0.000153	1.533899	0.259850	0.000031
 250	2.4776e+01	4.9615	4.370989	0.000160	1.595255	0.270244	0.000032
 251	2.4875e+01	4.9810	4.401540	0.000153	1.533899	0.259850	0.000031
 252	2.4974e+01	4.9993	4.434942	0.000168	1.677063	0.284102	0.000034
 253	2.5074e+01	5.0204	4.463456	0.000143	1.431639	0.242526	0.000029
 254	2.5174e+01	5.0396	4.496043	0.000164	1.636159	0.277173	0.000033
 255	2.5273e+01	5.0578	4.527001	0.000155	1.554351	0.263314	0.000031
 256	2.5372e+01	5.0784	4.554293	0.000137	1.370283	0.232132	0.000027
 257	2.5472e+01	5.0985	4.586881	0.000164	1.636159	0.277173	0.000033
 258	2.5572e+01	5.1192	4.614580	0.000139	1.390735	0.235597	0.000028
 259	2.5671e+01	5.1391	4.642279	0.000139	1.390735	0.235597	0.000028
 260	2.5770e+01	5.1580	4.669571	0.000137	1.370283	0.232132	0.000027
 261	2.5870e+01	5.1754	4.695234	0.000129	1.288475	0.218274	0.000026
 262	2.5970e+01	5.1977	4.727414	0.000162	1.615707	0.273708	0.000032
 263	2.6069e+01	5.2197	4.757557	0.000151	1.513447	0.256385	0.000030
 264	2.6169e+01	5.2383	4.784442	0.000135	1.349831	0.228668	0.000027
 265	2.6268e+01	5.2593	4.814585	0.000151	1.513447	0.256385	0.000030
 266	2.6367e+01	5.2776	4.839433	0.000125	1.247571	0.211344	0.000025
 267	2.6467e+01	5.2966	4.867947	0.000143	1.431639	0.242526	0.000029
 268	2.6567e+01	5.3173	4.895239	0.000137	1.370283	0.232132	0.000027
 269	2.6666e+01	5.3384	4.923753	0.000143	1.431639	0.242526	0.000029
 270	2.6765e+01	5.3573	4.951045	0.000137	1.370283	0.232132	0.000027
 271	2.6865e+01	5.3783	4.974671	0.000119	1.186215	0.200950	0.000024
 272	2.6965e+01	5.3976	4.999519	0.000125	1.247571	0.211344	0.000025
 273	2.7064e+01	5.4180	5.023552	0.000121	1.206667	0.204415	0.000024
 274	2.7163e+01	5.4357	5.049215	0.000129	1.288475	0.218274	0.000026
 275	2.7263e+01	5.4549	5.072433	0.000117	1.165763	0.197486	0.000023
 276	2.7363e+01	5.4742	5.101354	0.000145	1.452091	0.245991	0.000029
 277	2.7462e+01	5.4967	5.124166	0.000115	1.145311	0.194021	0.000023
 278	2.7561e+01	5.5175	5.148199	0.000121	1.206667	0.204415	0.000024
 279	2.7661e+01	5.5387	5.173454	0.000127	1.268023	0.214809	0.000025
 280	2.7761e+01	5.5566	5.197080	0.000119	1.186215	0.200950	0.000024
 281	2.7860e+01	5.5761	5.218262	0.000106	1.063503	0.180162	0.000021
 282	2.7959e+01	5.5968	5.246776	0.000143	1.431639	0.242526	0.000029
 283	2.8059e+01	5.6155	5.270402	0.000119	1.186215	0.200950	0.000024
 284	2.8159e+01	5.6390	5.289547	0.000096	0.961244	0.162839	0.000019
 285	2.8258e+01	5.6591	5.318468	0.000145	1.452091	0.245991	0.000029
 286	2.8358e+01	5.6786	5.338835	0.000102	1.022599	0.173233	0.000020
 287	2.8457e+01	5.6966	5.362054	0.000117	1.165763	0.197486	0.000023
 288	2.8556e+01	5.7183	5.386087	0.000121	1.206667	0.204415	0.000024
 289	2.8656e+01	5.7369	5.409713	0.000119	1.186215	0.200950	0.000024
 290	2.8756e+01	5.7549	5.432117	0.000112	1.124859	0.190556	0.000023
 291	2.8855e+01	5.7781	5.452076	0.000100	1.002148	0.169768	0.000020
 292	2.8954e+01	5.7952	5.477332	0.000127	1.268023	0.214809	0.000025
 293	2.9054e+01	5.8189	5.498921	0.000108	1.083955	0.183627	0.000022
 294	2.9154e+01	5.8367	5.517251	0.000092	0.920340	0.155910	0.000018
 295	2.9253e+01	5.8553	5.544136	0.000135	1.349831	0.228668	0.000027
 296	2.9352e+01	5.8758	5.565318	0.000106	1.063503	0.180162	0.000021
 297	2.9452e+01	5.8959	5.588129	0.000115	1.145311	0.194021	0.000023
 298	2.9552e+01	5.9158	5.608903	0.000104	1.043051	0.176698	0.000021
 299	2.9651e+01	5.9349	5.628863	0.000100	1.002148	0.169768	0.000020
 300	2.9750e+01	5.9533	5.651267	0.000112	1.124859	0.190556	0.000023
 301	2.9850e+01	5.9747	5.676929	0.000129	1.288475	0.218274	0.000026
 302	2.9950e+01	5.9954	5.701370	0.000123	1.227119	0.207880	0.000025
 303	3.0049e+01	6.0149	5.720515	0.000096	0.961244	0.162839	0.000019
 304	3.0148e+01	6.0351	5.742919	0.000112	1.124859	0.190556	0.000023
 305	3.0248e+01	6.0558	5.759620	0.000084	0.838532	0.142051	0.000017
 306	3.0348e+01	6.0772	5.783246	0.000119	1.186215	0.200950	0.000024
 307	3.0447e+01	6.0976	5.801576	0.000092	0.920340	0.155910	0.000018
 308	3.0547e+01	6.1169	5.823980	0.000112	1.124859	0.190556	0.000023
 309	3.0646e+01	6.1356	5.846791	0.000115	1.145311	0.194021	0.000023
 310	3.0745e+01	6.1533	5.868788	0.000110	1.104407	0.187092	0.000022
 311	3.0845e+01	6.1730	5.885896	0.000086	0.858984	0.145516	0.000017
 312	3.0945e+01	6.1932	5.905041	0.000096	0.961244	0.162839	0.000019
 313	3.1044e+01	6.2127	5.931926	0.000135	1.349831	0.228668	0.000027
 314	3.1143e+01	6.2383	5.947812	0.000080	0.797628	0.135122	0.000016
 315	3.1243e+01	6.2560	5.974290	0.000133	1.329379	0.225203	0.000027
 316	3.1343e+01	6.2762	5.993435	0.000096	0.961244	0.162839	0.000019
 317	3.1442e+01	6.2951	6.015838	0.000112	1.124859	0.190556	0.000023
 318	3.1541e+01	6.3122	6.034984	0.000096	0.961244	0.162839	0.000019
 319	3.1641e+01	6.3335	6.053314	0.000092	0.920340	0.155910	0.000018
 320	3.1741e+01	6.3537	6.075718	0.000112	1.124859	0.190556	0.000023
 321	3.1840e+01	6.3741	6.094456	0.000094	0.940792	0.159374	0.000019
 322	3.1939e+01	6.3921	6.113193	0.000094	0.940792	0.159374	0.000019
 323	3.2039e+01	6.4135	6.130302	0.000086	0.858984	0.145516	0.000017
 324	3.2139e+01	6.4349	6.146595	0.000082	0.818080	0.138586	0.000016
 325	3.2238e+01	6.4523	6.164111	0.000088	0.879436	0.148980	0.000018
 326	3.2337e+01	6.4709	6.183664	0.000098	0.981696	0.166304	0.000020
 327	3.2437e+01	6.4935	6.206882	0.000117	1.165763	0.197486	0.000023
 328	3.2536e+01	6.5118	6.221546	0.000074	0.736272	0.124728	0.000015
 329	3.2636e+01	6.5331	6.245172	0.000119	1.186215	0.200950	0.000024
 330	3.2736e+01	6.5539	6.261466	0.000082	0.818080	0.138586	0.000016
 331	3.2835e+01	6.5716	6.281833	0.000102	1.022599	0.173233	0.000020
 332	3.2934e+01	6.5908	6.299349	0.000088	0.879436	0.148980	0.000018
 333	3.3034e+01	6.6143	6.319309	0.000100	1.002148	0.169768	0.000020
 334	3.3133e+01	6.6314	6.332344	0.000065	0.654464	0.110869	0.000013
 335	3.3233e+01	6.6528	6.345786	0.000067	0.674916	0.114334	0.000014
 336	3.3333e+01	6.6729	6.363302	0.000088	0.879436	0.148980	0.000018
 337	3.3432e+01	6.6912	6.380003	0.000084	0.838532	0.142051	0.000017
 338	3.3532e+01	6.7141	6.396704	0.000084	0.838532	0.142051	0.000017
 339	3.3631e+01	6.7327	6.412590	0.000080	0.797628	0.135122	0.000016
 340	3.3730e+01	6.7535	6.432143	0.000098	0.981696	0.166304	0.000020
 341	3.3830e+01	6.7712	6.449658	0.000088	0.879436	0.148980	0.000018
 342	3.3929e+01	6.7907	6.471247	0.000108	1.083955	0.183627	0.000022
 343	3.4029e+01	6.8111	6.487948	0.000084	0.838532	0.142051	0.000017
 344	3.4129e+01	6.8297	6.506686	0.000094	0.940792	0.159374	0.000019
 345	3.4228e+01	6.8526	6.526239	0.000098	0.981696	0.166304	0.000020
 346	3.4328e+01	6.8700	6.540496	0.000072	0.715820	0.121263	0.000014
 347	3.4427e+01	6.8914	6.559641	0.000096	0.961244	0.162839	0.000019
 348	3.4526e+01	6.9146	6.578379	0.000094	0.940792	0.159374	0.000019
 349	3.4626e+01	6.9308	6.599968	0.000108	1.083955	0.183627	0.000022
 350	3.4725e+01	6.9503	6.615447	0.000078	0.777176	0.131657	0.000016
 351	3.4825e+01	6.9701	6.639480	0.000121	1.206667	0.204415	0.000024
 352	3.4925e+01	6.9909	6.657403	0.000090	0.899888	0.152445	0.000018
 353	3.5024e+01	7.0104	6.676548	0.000096	0.961244	0.162839	0.000019
 354	3.5123e+01	7.0286	6.696101	0.000098	0.981696	0.166304	0.000020
 355	3.5223e+01	7.0492	6.715246	0.000096	0.961244	0.162839	0.000019
 356	3.5322e+01	7.0712	6.737649	0.000112	1.124859	0.190556	0.000023
 357	3.5422e+01	7.0922	6.757609	0.000100	1.002148	0.169768	0.000020
 358	3.5522e+01	7.1117	6.777162	0.000098	0.981696	0.166304	0.000020
 359	3.5621e+01	7.1319	6.796714	0.000098	0.981696	0.166304	0.000020
 360	3.5721e+01	7.1496	6.819118	0.000112	1.124859	0.190556	0.000023
 361	3.5820e+01	7.1697	6.842337	0.000117	1.165763	0.197486	0.000023
 362	3.5919e+01	7.1899	6.861889	0.000098	0.981696	0.166304	0.000020
 363	3.6019e+01	7.2106	6.886737	0.000125	1.247571	0.211344	0.000025
 364	3.6118e+01	7.2301	6.905882	0.000096	0.961244	0.162839	0.000019
 365	3.6218e+01	7.2506	6.927878	0.000110	1.104407	0.187092	0.000022
 366	3.6318e+01	7.2677	6.948246	0.000102	1.022599	0.173233	0.000020
 367	3.6417e+01	7.2894	6.966576	0.000092	0.920340	0.155910	0.000018
 368	3.6517e+01	7.3110	6.992239	0.000129	1.288475	0.218274	0.000026
 369	3.6616e+01	7.3296	7.012606	0.000102	1.022599	0.173233	0.000020
 370	3.6715e+01	7.3489	7.031751	0.000096	0.961244	0.162839	0.000019
 371	3.6815e+01	7.3693	7.054562	0.000115	1.145311	0.194021	0.000023
 372	3.6914e+01	7.3898	7.074114	0.000098	0.981696	0.166304	0.000020
 373	3.7014e+01	7.4105	7.097740	0.000119	1.186215	0.200950	0.000024
 374	3.7114e+01	7.4322	7.120144	0.000112	1.124859	0.190556	0.000023
 375	3.7213e+01	7.4480	7.143770	0.000119	1.186215	0.200950	0.000024
 376	3.7313e+01	7.4694	7.166989	0.000117	1.165763	0.197486	0.000023
 377	3.7412e+01	7.4895	7.186948	0.000100	1.002148	0.169768	0.000020
 378	3.7511e+01	7.5076	7.212611	0.000129	1.288475	0.218274	0.000026
 379	3.7611e+01	7.5298	7.228905	0.000082	0.818080	0.138586	0.000016
 380	3.7711e+01	7.5481	7.252530	0.000119	1.186215	0.200950	0.000024
 381	3.7810e+01	7.5713	7.277786	0.000127	1.268023	0.214809	0.000025
 382	3.7910e+01	7.5893	7.297338	0.000098	0.981696	0.166304	0.000020
 383	3.8009e+01	7.6073	7.318927	0.000108	1.083955	0.183627	0.000022
 384	3.8108e+01	7.6296	7.342146	0.000117	1.165763	0.197486	0.000023
 385	3.8208e+01	7.6482	7.362920	0.000104	1.043051	0.176698	0.000021
 386	3.8307e+01	7.6678	7.386139	0.000117	1.165763	0.197486	0.000023
 387	3.8407e+01	7.6855	7.406506	0.000102	1.022599	0.173233	0.000020
 388	3.8507e+01	7.7074	7.431354	0.000125	1.247571	0.211344	0.000025
 389	3.8606e+01	7.7288	7.455794	0.000123	1.227119	0.207880	0.000025
 390	3.8706e+01	7.7489	7.477384	0.000108	1.083955	0.183627	0.000022
 391	3.8805e+01	7.7660	7.501824	0.000123	1.227119	0.207880	0.000025
 392	3.8904e+01	7.7880	7.525043	0.000117	1.165763	0.197486	0.000023
 393	3.9004e+01	7.8082	7.549483	0.000123	1.227119	0.207880	0.000025
 394	3.9103e+01	7.8271	7.569850	0.000102	1.022599	0.173233	0.000020
 395	3.9203e+01	7.8475	7.591439	0.000108	1.083955	0.183627	0.000022
 396	3.9303e+01	7.8680	7.614251	0.000115	1.145311	0.194021	0.000023
 397	3.9402e+01	7.8905	7.633803	0.000098	0.981696	0.166304	0.000020
 398	3.9502e+01	7.9073	7.659466	0.000129	1.288475	0.218274	0.000026
 399	3.9601e+01	7.9290	7.679425	0.000100	1.002148	0.169768	0.000020
 400	3.9700e+01	7.9488	7.700200	0.000104	1.043051	0.176698	0.000021
 401	3.9800e+01	7.9667	7.726677	0.000133	1.329379	0.225203	0.000027
 402	3.9900e+01	7.9870	7.745822	0.000096	0.961244	0.162839	0.000019
 403	3.9999e+01	8.0077	7.768226	0.000112	1.124859	0.190556	0.000023
 404	4.0099e+01	8.0285	7.792667	0.000123	1.227119	0.207880	0.000025
 405	4.0198e+01	8.0468	7.820366	0.000139	1.390735	0.235597	0.000028
 406	4.0297e+01	8.0663	7.842770	0.000112	1.124859	0.190556	0.000023
 407	4.0397e+01	8.0877	7.867618	0.000125	1.247571	0.211344	0.000025
 408	4.0496e+01	8.1048	7.892058	0.000123	1.227119	0.207880	0.000025
 409	4.0596e+01	8.1280	7.915277	0.000117	1.165763	0.197486	0.000023
 410	4.0696e+01	8.1451	7.940939	0.000129	1.288475	0.218274	0.000026
 411	4.0795e+01	8.1657	7.962529	0.000108	1.083955	0.183627	0.000022
 412	4.0895e+01	8.1872	7.984932	0.000112	1.124859	0.190556	0.000023
 413	4.0994e+01	8.2046	8.009780	0.000125	1.247571	0.211344	0.000025
 414	4.1093e+01	8.2256	8.032999	0.000117	1.165763	0.197486	0.000023
 415	4.1193e+01	8.2470	8.056217	0.000117	1.165763	0.197486	0.000023
 416	4.1292e+01	8.2671	8.082287	0.000131	1.308927	0.221738	0.000026
 417	4.1392e+01	8.2867	8.106320	0.000121	1.206667	0.204415	0.000024
 418	4.1492e+01	8.3086	8.132798	0.000133	1.329379	0.225203	0.000027
 419	4.1591e+01	8.3251	8.157646	0.000125	1.247571	0.211344	0.000025
 420	4.1691e+01	8.3456	8.184530	0.000135	1.349831	0.228668	0.000027
 421	4.1790e+01	8.3654	8.212637	0.000141	1.411187	0.239062	0.000028
 422	4.1889e+01	8.3874	8.238299	0.000129	1.288475	0.218274	0.000026
 423	4.1989e+01	8.4048	8.262333	0.000121	1.206667	0.204415	0.000024
 424	4.2089e+01	8.4252	8.286366	0.000121	1.206667	0.204415	0.000024
 425	4.2188e+01	8.4460	8.310806	0.000123	1.227119	0.207880	0.000025
 426	4.2288e+01	8.4679	8.332396	0.000108	1.083955	0.183627	0.000022
 427	4.2387e+01	8.4850	8.356429	0.000121	1.206667	0.204415	0.000024
 428	4.2486e+01	8.5064	8.382499	0.000131	1.308927	0.221738	0.000026
 429	4.2586e+01	8.5284	8.401644	0.000096	0.961244	0.162839	0.000019
 430	4.2685e+01	8.5467	8.428528	0.000135	1.349831	0.228668	0.000027
 431	4.2785e+01	8.5668	8.452969	0.000123	1.227119	0.207880	0.000025
 432	4.2885e+01	8.5870	8.476595	0.000119	1.186215	0.200950	0.000024
 433	4.2984e+01	8.6022	8.501850	0.000127	1.268023	0.214809	0.000025
 434	4.3084e+01	8.6236	8.520588	0.000094	0.940792	0.159374	0.000019
 435	4.3183e+01	8.6443	8.545028	0.000123	1.227119	0.207880	0.000025
 436	4.3282e+01	8.6651	8.568654	0.000119	1.186215	0.200950	0.000024
 437	4.3382e+01	8.6837	8.591058	0.000112	1.124859	0.190556	0.000023
 438	4.3481e+01	8.7038	8.613869	0.000115	1.145311	0.194021	0.000023
 439	4.3581e+01	8.7249	8.634644	0.000104	1.043051	0.176698	0.000021
 440	4.3681e+01	8.7469	8.655826	0.000106	1.063503	0.180162	0.000021
 441	4.3780e+01	8.7640	8.676600	0.000104	1.043051	0.176698	0.000021
 442	4.3880e+01	8.7838	8.696967	0.000102	1.022599	0.173233	0.000020
 443	4.3979e+01	8.8042	8.719778	0.000115	1.145311	0.194021	0.000023
 444	4.4078e+01	8.8256	8.738923	0.000096	0.961244	0.162839	0.000019
 445	4.4178e+01	8.8433	8.761735	0.000115	1.145311	0.194021	0.000023
 446	4.4278e+01	8.8616	8.779658	0.000090	0.899888	0.152445	0.000018
 447	4.4377e+01	8.8818	8.800025	0.000102	1.022599	0.173233	0.000020
 448	4.4477e+01	8.9019	8.819170	0.000096	0.961244	0.162839	0.000019
 449	4.4576e+01	8.9239	8.842796	0.000119	1.186215	0.200950	0.000024
 450	4.4675e+01	8.9434	8.859089	0.000082	0.818080	0.138586	0.000016
 451	4.4775e+01	8.9629	8.879457	0.000102	1.022599	0.173233	0.000020
 452	4.4874e+01	8.9843	8.898602	0.000096	0.961244	0.162839	0.000019
 453	4.4974e+01	9.0029	8.921006	0.000112	1.124859	0.190556	0.000023
 454	4.5074e+01	9.0228	8.940558	0.000098	0.981696	0.166304	0.000020
 455	4.5173e+01	9.0441	8.964999	0.000123	1.227119	0.207880	0.000025
 456	4.5273e+01	9.0606	8.982514	0.000088	0.879436	0.148980	0.000018
 457	4.5372e+01	9.0832	9.002881	0.000102	1.022599	0.173233	0.000020
 458	4.5471e+01	9.1021	9.022434	0.000098	0.981696	0.166304	0.000020
 459	4.5571e+01	9.1204	9.039950	0.000088	0.879436	0.148980	0.000018
 460	4.5670e+01	9.1448	9.060724	0.000104	1.043051	0.176698	0.000021
 461	4.5770e+01	9.1592	9.079054	0.000092	0.920340	0.155910	0.000018
 462	4.5870e+01	9.1824	9.103088	0.000121	1.206667	0.204415	0.000024
 463	4.5969e+01	9.2022	9.119381	0.000082	0.818080	0.138586	0.000016
 464	4.6069e+01	9.2223	9.136897	0.000088	0.879436	0.148980	0.000018
 465	4.6168e+01	9.2400	9.154820	0.000090	0.899888	0.152445	0.000018
 466	4.6267e+01	9.2626	9.176817	0.000110	1.104407	0.187092	0.000022
 467	4.6367e+01	9.2800	9.196776	0.000100	1.002148	0.169768	0.000020
 468	4.6467e+01	9.3029	9.217551	0.000104	1.043051	0.176698	0.000021
 469	4.6566e+01	9.3212	9.234659	0.000086	0.858984	0.145516	0.000017
 470	4.6666e+01	9.3414	9.258693	0.000121	1.206667	0.204415	0.000024
 471	4.6765e+01	9.3594	9.280282	0.000108	1.083955	0.183627	0.000022
 472	4.6864e+01	9.3804	9.295353	0.000076	0.756724	0.128192	0.000015
 473	4.6964e+01	9.4006	9.313276	0.000090	0.899888	0.152445	0.000018
 474	4.7063e+01	9.4189	9.330792	0.000088	0.879436	0.148980	0.000018
 475	4.7163e+01	9.4421	9.353603	0.000115	1.145311	0.194021	0.000023
 476	4.7263e+01	9.4610	9.367046	0.000067	0.674916	0.114334	0.000014
 477	4.7362e+01	9.4811	9.391486	0.000123	1.227119	0.207880	0.000025
 478	4.7462e+01	9.5031	9.409409	0.000090	0.899888	0.152445	0.000018
 479	4.7561e+01	9.5208	9.430591	0.000106	1.063503	0.180162	0.000021
 480	4.7660e+01	9.5409	9.450551	0.000100	1.002148	0.169768	0.000020
 481	4.7760e+01	9.5605	9.471733	0.000106	1.063503	0.180162	0.000021
 482	4.7859e+01	9.5791	9.488841	0.000086	0.858984	0.145516	0.000017
 483	4.7959e+01	9.6001	9.509616	0.000104	1.043051	0.176698	0.000021
 484	4.8059e+01	9.6209	9.531205	0.000108	1.083955	0.183627	0.000022
 485	4.8158e+01	9.6404	9.550757	0.000098	0.981696	0.166304	0.000020
 486	4.8258e+01	9.6618	9.571939	0.000106	1.063503	0.180162	0.000021
 487	4.8357e+01	9.6807	9.588233	0.000082	0.818080	0.138586	0.000016
 488	4.8456e+01	9.6972	9.608600	0.000102	1.022599	0.173233	0.000020
 489	4.8556e+01	9.7201	9.625301	0.000084	0.838532	0.142051	0.000017
 490	4.8656e+01	9.7411	9.642002	0.000084	0.838532	0.142051	0.000017
 491	4.8755e+01	9.7601	9.660332	0.000092	0.920340	0.155910	0.000018
 492	4.8855e+01	9.7802	9.677441	0.000086	0.858984	0.145516	0.000017
 493	4.8954e+01	9.8003	9.696178	0.000094	0.940792	0.159374	0.000019
 494	4.9053e+01	9.8168	9.715324	0.000096	0.961244	0.162839	0.000019
 495	4.9153e+01	9.8376	9.731617	0.000082	0.818080	0.138586	0.000016
 496	4.9252e+01	9.8568	9.754021	0.000112	1.124859	0.190556	0.000023
 497	4.9352e+01	9.8757	9.771537	0.000088	0.879436	0.148980	0.000018
 498	4.9452e+01	9.8998	9.789867	0.000092	0.920340	0.155910	0.000018
 499	4.9551e+01	9.9166	9.808605	0.000094	0.940792	0.159374	0.000019
 500	4.9651e+01	9.9386	9.827343	0.000094	0.940792	0.159374	0.000019
 501	4.9750e+01	9.9578	9.845673	0.000092	0.920340	0.155910	0.000018
 502	4.9849e+01	9.9792	9.861152	0.000078	0.777176	0.131657	0.000016
 503	4.9949e+01	9.9969	9.881112	0.000100	1.002148	0.169768	0.000020
 504	5.0048e+01	9.9828	9.873780	0.000037	0.368136	0.062364	-0.000007
 505	5.0148e+01	9.9590	9.864411	0.000047	0.470396	0.079687	-0.000009
 506	5.0248e+01	9.9383	9.861152	0.000016	0.163616	0.027717	-0.000003
 507	5.0347e+01	9.9206	9.853413	0.000039	0.388588	0.065829	-0.000008
 508	5.0447e+01	9.8992	9.850154	0.000016	0.163616	0.027717	-0.000003
 509	5.0546e+01	9.8785	9.842414	0.000039	0.388588	0.065829	-0.000008
 510	5.0645e+01	9.8595	9.840378	0.000010	0.102260	0.017323	-0.000002
 511	5.0745e+01	9.8391	9.837119	0.000016	0.163616	0.027717	-0.000003
 512	5.0844e+01	9.8186	9.829787	0.000037	0.368136	0.062364	-0.000007
 513	5.0944e+01	9.8009	9.822047	0.000039	0.388588	0.065829	-0.000008
 514	5.1044e+01	9.7814	9.819196	0.000014	0.143164	0.024253	-0.000003
 515	5.1143e+01	9.7591	9.813493	0.000029	0.286328	0.048505	-0.000006
 516	5.1242e+01	9.7387	9.807383	0.000031	0.306780	0.051970	-0.000006
 517	5.1342e+01	9.7186	9.801680	0.000029	0.286328	0.048505	-0.000006
 518	5.1441e+01	9.7009	9.795570	0.000031	0.306780	0.051970	-0.000006
 519	5.1541e+01	9.6813	9.790275	0.000027	0.265876	0.045041	-0.000005
 520	5.1641e+01	9.6606	9.784572	0.000029	0.286328	0.048505	-0.000006
 521	5.1740e+01	9.6423	9.777647	0.000035	0.347684	0.058899	-0.000007
 522	5.1840e+01	9.6191	9.776018	0.000008	0.081808	0.013859	-0.000002
 523	5.1939e+01	9.6001	9.769093	0.000035	0.347684	0.058899	-0.000007
 524	5.2038e+01	9.5782	9.766649	0.000012	0.122712	0.020788	-0.000002
 525	5.2138e+01	9.5617	9.763797	0.000014	0.143164	0.024253	-0.000003
 526	5.2237e+01	9.5379	9.757280	0.000033	0.327232	0.055435	-0.000007
 527	5.2337e+01	9.5226	9.752392	0.000025	0.245424	0.041576	-0.000005
 528	5.2437e+01	9.5000	9.753206	-0.000004	-0.040904	-0.006929	0.000001
 529	5.2536e+01	9.4811	9.746282	0.000035	0.347684	0.058899	-0.000007
 530	5.2636e+01	9.4622	9.739764	0.000033	0.327232	0.055435	-0.000007
 531	5.2735e+01	9.4427	9.736505	0.000016	0.163616	0.027717	-0.000003
 532	5.2834e+01	9.4222	9.732839	0.000018	0.184068	0.031182	-0.000004
 533	5.2934e+01	9.4006	9.729173	0.000018	0.184068	0.031182	-0.000004
 534	5.3033e+01	9.3832	9.723878	0.000027	0.265876	0.045041	-0.000005
 535	5.3133e+01	9.3652	9.717360	0.000033	0.327232	0.055435	-0.000007
 536	5.3233e+01	9.3407	9.714509	0.000014	0.143164	0.024253	-0.000003
 537	5.3332e+01	9.3218	9.708399	0.000031	0.306780	0.051970	-0.000006
 538	5.3431e+01	9.3017	9.705140	0.000016	0.163616	0.027717	-0.000003
 539	5.3531e+01	9.2815	9.700659	0.000022	0.224972	0.038111	-0.000005
 540	5.3630e+01	9.2608	9.694142	0.000033	0.327232	0.055435	-0.000007
 541	5.3730e+01	9.2403	9.691698	0.000012	0.122712	0.020788	-0.000002
 542	5.3830e+01	9.2211	9.688032	0.000018	0.184068	0.031182	-0.000004
 543	5.3929e+01	9.2016	9.685588	0.000012	0.122712	0.020788	-0.000002
 544	5.4029e+01	9.1790	9.679070	0.000033	0.327232	0.055435	-0.000007
 545	5.4128e+01	9.1631	9.675404	0.000018	0.184068	0.031182	-0.000004
 546	5.4227e+01	9.1430	9.672145	0.000016	0.163616	0.027717	-0.000003
 547	5.4327e+01	9.1245	9.666850	0.000027	0.265876	0.045041	-0.000005
 548	5.4426e+01	9.1003	9.664813	0.000010	0.102260	0.017323	-0.000002
 549	5.4526e+01	9.0820	9.661147	0.000018	0.184068	0.031182	-0.000004
 550	5.4626e+01	9.0630	9.654629	0.000033	0.327232	0.055435	-0.000007
 551	5.4725e+01	9.0420	9.648519	0.000031	0.306780	0.051970	-0.000006
 552	5.4825e+01	9.0228	9.641595	0.000035	0.347684	0.058899	-0.000007
 553	5.4924e+01	9.0014	9.638743	0.000014	0.143164	0.024253	-0.000003
 554	5.5023e+01	8.9819	9.635484	0.000016	0.163616	0.027717	-0.000003
 555	5.5123e+01	8.9623	9.632226	0.000016	0.163616	0.027717	-0.000003
 556	5.5222e+01	8.9410	9.625708	0.000033	0.327232	0.055435	-0.000007
 557	5.5322e+01	8.9196	9.619598	0.000031	0.306780	0.051970	-0.000006
 558	5.5422e+01	8.9025	9.618783	0.000004	0.040904	0.006929	-0.000001
 559	5.5521e+01	8.8842	9.613895	0.000025	0.245424	0.041576	-0.000005
 560	5.5620e+01	8.8647	9.610229	0.000018	0.184068	0.031182	-0.000004
 561	5.5720e+01	8.8427	9.606156	0.000020	0.204520	0.034647	-0.000004
 562	5.5819e+01	8.8219	9.599231	0.000035	0.347684	0.058899	-0.000007
 563	5.5919e+01	8.8055	9.594343	0.000025	0.245424	0.041576	-0.000005
 564	5.6019e+01	8.7835	9.589455	0.000025	0.245424	0.041576	-0.000005
 565	5.6118e+01	8.7676	9.582937	0.000033	0.327232	0.055435	-0.000007
 566	5.6218e+01	8.7444	9.577234	0.000029	0.286328	0.048505	-0.000006
 567	5.6317e+01	8.7249	9.571939	0.000027	0.265876	0.045041	-0.000005
 568	5.6416e+01	8.7023	9.562977	0.000045	0.449944	0.076223	-0.000009
 569	5.6516e+01	8.6825	9.559311	0.000018	0.184068	0.031182	-0.000004
 570	5.6615e+01	8.6639	9.553201	0.000031	0.306780	0.051970	-0.000006
 571	5.6715e+01	8.6443	9.554016	-0.000004	-0.040904	-0.006929	0.000001
 572	5.6815e+01	8.6242	9.546684	0.000037	0.368136	0.062364	-0.000007
 573	5.6914e+01	8.6077	9.542610	0.000020	0.204520	0.034647	-0.000004
 574	5.7014e+01	8.5845	9.540981	0.000008	0.081808	0.013859	-0.000002
 575	5.7113e+01	8.5650	9.536907	0.000020	0.204520	0.034647	-0.000004
 576	5.7212e+01	8.5455	9.531205	0.000029	0.286328	0.048505	-0.000006
 577	5.7312e+01	8.5223	9.527946	0.000016	0.163616	0.027717	-0.000003
 578	5.7411e+01	8.5055	9.523873	0.000020	0.204520	0.034647	-0.000004
 579	5.7511e+01	8.4850	9.517762	0.000031	0.306780	0.051970	-0.000006
 580	5.7611e+01	8.4652	9.512874	0.000025	0.245424	0.041576	-0.000005
 581	5.7710e+01	8.4454	9.509616	0.000016	0.163616	0.027717	-0.000003
 582	5.7809e+01	8.4240	9.503913	0.000029	0.286328	0.048505	-0.000006
 583	5.7909e+01	8.4063	9.496988	0.000035	0.347684	0.058899	-0.000007
 584	5.8008e+01	8.3868	9.493322	0.000018	0.184068	0.031182	-0.000004
 585	5.8108e+01	8.3648	9.495766	-0.000012	-0.122712	-0.020788	0.000002
 586	5.8208e+01	8.3462	9.489248	0.000033	0.327232	0.055435	-0.000007
 587	5.8307e+01	8.3251	9.488026	0.000006	0.061356	0.010394	-0.000001
 588	5.8407e+01	8.3074	9.489656	-0.000008	-0.081808	-0.013859	0.000002
 589	5.8506e+01	8.2885	9.483138	0.000033	0.327232	0.055435	-0.000007
 590	5.8605e+01	8.2641	9.477843	0.000027	0.265876	0.045041	-0.000005
 591	5.8705e+01	8.2455	9.477028	0.000004	0.040904	0.006929	-0.000001
 592	5.8804e+01	8.2262	9.468881	0.000041	0.409040	0.069293	-0.000008
 593	5.8904e+01	8.2095	9.463993	0.000025	0.245424	0.041576	-0.000005
 594	5.9004e+01	8.1890	9.458698	0.000027	0.265876	0.045041	-0.000005
 595	5.9103e+01	8.1676	9.452588	0.000031	0.306780	0.051970	-0.000006
 596	5.9203e+01	8.1445	9.445663	0.000035	0.347684	0.058899	-0.000007
 597	5.9302e+01	8.1268	9.439960	0.000029	0.286328	0.048505	-0.000006
 598	5.9401e+01	8.1078	9.437516	0.000012	0.122712	0.020788	-0.000002
 599	5.9501e+01	8.0883	9.433850	0.000018	0.184068	0.031182	-0.000004
 600	5.9600e+01	8.0663	9.426110	0.000039	0.388588	0.065829	-0.000008
 601	5.9700e+01	8.0511	9.422037	0.000020	0.204520	0.034647	-0.000004
 602	5.9800e+01	8.0267	9.412668	0.000047	0.470396	0.079687	-0.000009
 603	5.9899e+01	8.0065	9.407780	0.000025	0.245424	0.041576	-0.000005
 604	5.9998e+01	7.9861	9.398004	0.000049	0.490848	0.083152	-0.000010
 605	6.0098e+01	7.9659	9.392301	0.000029	0.286328	0.048505	-0.000006
 606	6.0197e+01	7.9455	9.382525	0.000049	0.490848	0.083152	-0.000010
 607	6.0297e+01	7.9266	9.373563	0.000045	0.449944	0.076223	-0.000009
 608	6.0397e+01	7.9095	9.363787	0.000049	0.490848	0.083152	-0.000010
 609	6.0496e+01	7.8869	9.357677	0.000031	0.306780	0.051970	-0.000006
 610	6.0596e+01	7.8710	9.346271	0.000057	0.572656	0.097011	-0.000011
 611	6.0695e+01	7.8454	9.339754	0.000033	0.327232	0.055435	-0.000007
 612	6.0794e+01	7.8259	9.329570	0.000051	0.511300	0.086617	-0.000010
 613	6.0894e+01	7.8088	9.318979	0.000053	0.531752	0.090081	-0.000011
 614	6.0993e+01	7.7868	9.311240	0.000039	0.388588	0.065829	-0.000008
 615	6.1093e+01	7.7685	9.300649	0.000053	0.531752	0.090081	-0.000011
 616	6.1193e+01	7.7489	9.290465	0.000051	0.511300	0.086617	-0.000010
 617	6.1292e+01	7.7288	9.277838	0.000063	0.634012	0.107404	-0.000013
 618	6.1392e+01	7.7093	9.268876	0.000045	0.449944	0.076223	-0.000009
 619	6.1491e+01	7.6900	9.258285	0.000053	0.531752	0.090081	-0.000011
 620	6.1590e+01	7.6702	9.246880	0.000057	0.572656	0.097011	-0.000011
 621	6.1690e+01	7.6479	9.238733	0.000041	0.409040	0.069293	-0.000008
 622	6.1789e+01	7.6284	9.225290	0.000067	0.674916	0.114334	-0.000014
 623	6.1889e+01	7.6092	9.217958	0.000037	0.368136	0.062364	-0.000007
 624	6.1989e+01	7.5875	9.204516	0.000067	0.674916	0.114334	-0.000014
 625	6.2088e+01	7.5683	9.193518	0.000055	0.552204	0.093546	-0.000011
 626	6.2188e+01	7.5494	9.181297	0.000061	0.613560	0.103940	-0.000012
 627	6.2287e+01	7.5311	9.172743	0.000043	0.429492	0.072758	-0.000009
 628	6.2386e+01	7.5091	9.156857	0.000080	0.797628	0.135122	-0.000016
 629	6.2486e+01	7.4892	9.148710	0.000041	0.409040	0.069293	-0.000008
 630	6.2586e+01	7.4688	9.134453	0.000072	0.715820	0.121263	-0.000014
 631	6.2685e+01	7.4493	9.122233	0.000061	0.613560	0.103940	-0.000012
 632	6.2785e+01	7.4291	9.110420	0.000059	0.593108	0.100475	-0.000012
 633	6.2884e+01	7.4111	9.098200	0.000061	0.613560	0.103940	-0.000012
 634	6.2983e+01	7.3901	9.084757	0.000067	0.674916	0.114334	-0.000014
 635	6.3083e+01	7.3699	9.075796	0.000045	0.449944	0.076223	-0.000009
 636	6.3182e+01	7.3498	9.064390	0.000057	0.572656	0.097011	-0.000011
 637	6.3282e+01	7.3321	9.051355	0.000065	0.654464	0.110869	-0.000013
 638	6.3382e+01	7.3113	9.039542	0.000059	0.593108	0.100475	-0.000012
 639	6.3481e+01	7.2900	9.031803	0.000039	0.388588	0.065829	-0.000008
 640	6.3581e+01	7.2686	9.016731	0.000076	0.756724	0.128192	-0.000015
 641	6.3680e+01	7.2500	8.997586	0.000096	0.961244	0.162839	-0.000019
 642	6.3779e+01	7.2298	8.984958	0.000063	0.634012	0.107404	-0.000013
 643	6.3879e+01	7.2094	8.972331	0.000063	0.634012	0.107404	-0.000013
 644	6.3978e+01	7.1917	8.961332	0.000055	0.552204	0.093546	-0.000011
 645	6.4078e+01	7.1728	8.946668	0.000074	0.736272	0.124728	-0.000015
 646	6.4177e+01	7.1499	8.932411	0.000072	0.715820	0.121263	-0.000014
 647	6.4277e+01	7.1316	8.920598	0.000059	0.593108	0.100475	-0.000012
 648	6.4376e+01	7.1108	8.907156	0.000067	0.674916	0.114334	-0.000014
 649	6.4476e+01	7.0934	8.896158	0.000055	0.552204	0.093546	-0.000011
 650	6.4576e+01	7.0690	8.884752	0.000057	0.572656	0.097011	-0.000011
 651	6.4675e+01	7.0489	8.872532	0.000061	0.613560	0.103940	-0.000012
 652	6.4775e+01	7.0303	8.854609	0.000090	0.899888	0.152445	-0.000018
 653	6.4874e+01	7.0110	8.842796	0.000059	0.593108	0.100475	-0.000012
 654	6.4974e+01	6.9891	8.830576	0.000061	0.613560	0.103940	-0.000012
 655	6.5073e+01	6.9698	8.815911	0.000074	0.736272	0.124728	-0.000015
 656	6.5172e+01	6.9500	8.800839	0.000076	0.756724	0.128192	-0.000015
 657	6.5272e+01	6.9366	8.785768	0.000076	0.756724	0.128192	-0.000015
 658	6.5371e+01	6.9112	8.769067	0.000084	0.838532	0.142051	-0.000017
 659	6.5471e+01	6.8941	8.752773	0.000082	0.818080	0.138586	-0.000016
 660	6.5570e+01	6.8713	8.737701	0.000076	0.756724	0.128192	-0.000015
 661	6.5670e+01	6.8517	8.721815	0.000080	0.797628	0.135122	-0.000016
 662	6.5769e+01	6.8328	8.710002	0.000059	0.593108	0.100475	-0.000012
 663	6.5869e+01	6.8127	8.692486	0.000088	0.879436	0.148980	-0.000018
 664	6.5969e+01	6.7948	8.677822	0.000074	0.736272	0.124728	-0.000015
 665	6.6068e+01	6.7733	8.665602	0.000061	0.613560	0.103940	-0.000012
 666	6.6168e+01	6.7504	8.648493	0.000086	0.858984	0.145516	-0.000017
 667	6.6267e+01	6.7303	8.630978	0.000088	0.879436	0.148980	-0.000018
 668	6.6367e+01	6.7126	8.613869	0.000086	0.858984	0.145516	-0.000017
 669	6.6466e+01	6.6930	8.596354	0.000088	0.879436	0.148980	-0.000018
 670	6.6566e+01	6.6717	8.578838	0.000088	0.879436	0.148980	-0.000018
 671	6.6665e+01	6.6546	8.561729	0.000086	0.858984	0.145516	-0.000017
 672	6.6764e+01	6.6320	8.542584	0.000096	0.961244	0.162839	-0.000019
 673	6.6864e+01	6.6106	8.525883	0.000084	0.838532	0.142051	-0.000017
 674	6.6963e+01	6.5936	8.506738	0.000096	0.961244	0.162839	-0.000019
 675	6.7063e+01	6.5713	8.488000	0.000094	0.940792	0.159374	-0.000019
 676	6.7162e+01	6.5511	8.474151	0.000070	0.695368	0.117798	-0.000014
 677	6.7262e+01	6.5301	8.457857	0.000082	0.818080	0.138586	-0.000016
 678	6.7362e+01	6.5142	8.443193	0.000074	0.736272	0.124728	-0.000015
 679	6.7461e+01	6.4953	8.428936	0.000072	0.715820	0.121263	-0.000014
 680	6.7561e+01	6.4725	8.413457	0.000078	0.777176	0.131657	-0.000016
 681	6.7660e+01	6.4550	8.396756	0.000084	0.838532	0.142051	-0.000017
 682	6.7760e+01	6.4324	8.381277	0.000078	0.777176	0.131657	-0.000016
 683	6.7859e+01	6.4153	8.362946	0.000092	0.920340	0.155910	-0.000018
 684	6.7959e+01	6.3927	8.346245	0.000084	0.838532	0.142051	-0.000017
 685	6.8058e+01	6.3738	8.332396	0.000070	0.695368	0.117798	-0.000014
 686	6.8157e+01	6.3537	8.315287	0.000086	0.858984	0.145516	-0.000017
 687	6.8257e+01	6.3360	8.305104	0.000051	0.511300	0.086617	-0.000010
 688	6.8356e+01	6.3140	8.285551	0.000098	0.981696	0.166304	-0.000020
 689	6.8456e+01	6.2943	8.273331	0.000061	0.613560	0.103940	-0.000012
 690	6.8555e+01	6.2756	8.259481	0.000070	0.695368	0.117798	-0.000014
 691	6.8655e+01	6.2534	8.245224	0.000072	0.715820	0.121263	-0.000014
 692	6.8754e+01	6.2337	8.234633	0.000053	0.531752	0.090081	-0.000011
 693	6.8854e+01	6.2145	8.219154	0.000078	0.777176	0.131657	-0.000016
 694	6.8954e+01	6.1968	8.207341	0.000059	0.593108	0.100475	-0.000012
 695	6.9053e+01	6.1749	8.192677	0.000074	0.736272	0.124728	-0.000015
 696	6.9153e+01	6.1565	8.175976	0.000084	0.838532	0.142051	-0.000017
 697	6.9252e+01	6.1349	8.165385	0.000053	0.531752	0.090081	-0.000011
 698	6.9352e+01	6.1138	8.155609	0.000049	0.490848	0.083152	-0.000010
 699	6.9451e+01	6.0967	8.140945	0.000074	0.736272	0.124728	-0.000015
 700	6.9550e+01	6.0754	8.125873	0.000076	0.756724	0.128192	-0.000015
 701	6.9650e+01	6.0534	8.112838	0.000065	0.654464	0.110869	-0.000013
 702	6.9749e+01	6.0369	8.096952	0.000080	0.797628	0.135122	-0.000016
 703	6.9849e+01	6.0149	8.085546	0.000057	0.572656	0.097011	-0.000011
 704	6.9948e+01	5.9969	8.073326	0.000061	0.613560	0.103940	-0.000012
 705	7.0048e+01	5.9722	8.057439	0.000080	0.797628	0.135122	-0.000016
 706	7.0147e+01	5.9548	8.046034	0.000057	0.572656	0.097011	-0.000011
 707	7.0247e+01	5.9377	8.031777	0.000072	0.715820	0.121263	-0.000014
 708	7.0347e+01	5.9145	8.019556	0.000061	0.613560	0.103940	-0.000012
 709	7.0446e+01	5.8965	8.007336	0.000061	0.613560	0.103940	-0.000012
 710	7.0546e+01	5.8743	7.994301	0.000065	0.654464	0.110869	-0.000013
 711	7.0645e+01	5.8556	7.985747	0.000043	0.429492	0.072758	-0.000009
 712	7.0745e+01	5.8361	7.973527	0.000061	0.613560	0.103940	-0.000012
 713	7.0844e+01	5.8147	7.958048	0.000078	0.777176	0.131657	-0.000016
 714	7.0944e+01	5.7958	7.948272	0.000049	0.490848	0.083152	-0.000010
 715	7.1043e+01	5.7763	7.932793	0.000078	0.777176	0.131657	-0.000016
 716	7.1142e+01	5.7565	7.919758	0.000065	0.654464	0.110869	-0.000013
 717	7.1242e+01	5.7354	7.907945	0.000059	0.593108	0.100475	-0.000012
 718	7.1341e+01	5.7140	7.891651	0.000082	0.818080	0.138586	-0.000016
 719	7.1441e+01	5.6945	7.880653	0.000055	0.552204	0.093546	-0.000011
 720	7.1540e+01	5.6774	7.870062	0.000053	0.531752	0.090081	-0.000011
 721	7.1640e+01	5.6564	7.854990	0.000076	0.756724	0.128192	-0.000015
 722	7.1740e+01	5.6359	7.841955	0.000065	0.654464	0.110869	-0.000013
 723	7.1839e+01	5.6213	7.830142	0.000059	0.593108	0.100475	-0.000012
 724	7.1939e+01	5.5968	7.819959	0.000051	0.511300	0.086617	-0.000010
 725	7.2038e+01	5.5764	7.807738	0.000061	0.613560	0.103940	-0.000012
 726	7.2138e+01	5.5578	7.794296	0.000067	0.674916	0.114334	-0.000014
 727	7.2237e+01	5.5383	7.783298	0.000055	0.552204	0.093546	-0.000011
 728	7.2337e+01	5.5163	7.767411	0.000080	0.797628	0.135122	-0.000016
 729	7.2436e+01	5.4971	7.757228	0.000051	0.511300	0.086617	-0.000010
 730	7.2535e+01	5.4760	7.745415	0.000059	0.593108	0.100475	-0.000012
 731	7.2635e+01	5.4589	7.731158	0.000072	0.715820	0.121263	-0.000014
 732	7.2734e+01	5.4382	7.719752	0.000057	0.572656	0.097011	-0.000011
 733	7.2834e+01	5.4205	7.703459	0.000082	0.818080	0.138586	-0.000016
 734	7.2933e+01	5.3979	7.690424	0.000065	0.654464	0.110869	-0.000013
 735	7.3033e+01	5.3783	7.678203	0.000061	0.613560	0.103940	-0.000012
 736	7.3132e+01	5.3582	7.664761	0.000067	0.674916	0.114334	-0.000014
 737	7.3232e+01	5.3362	7.650504	0.000072	0.715820	0.121263	-0.000014
 738	7.3332e+01	5.3194	7.639913	0.000053	0.531752	0.090081	-0.000011
 739	7.3431e+01	5.2978	7.630137	0.000049	0.490848	0.083152	-0.000010
 740	7.3531e+01	5.2782	7.617102	0.000065	0.654464	0.110869	-0.000013
 741	7.3630e+01	5.2584	7.606104	0.000055	0.552204	0.093546	-0.000011
 742	7.3730e+01	5.2401	7.594698	0.000057	0.572656	0.097011	-0.000011
 743	7.3829e+01	5.2166	7.584107	0.000053	0.531752	0.090081	-0.000011
 744	7.3928e+01	5.1989	7.572294	0.000059	0.593108	0.100475	-0.000012
 745	7.4028e+01	5.1785	7.558852	0.000067	0.674916	0.114334	-0.000014
 746	7.4127e+01	5.1617	7.551927	0.000035	0.347684	0.058899	-0.000007
 747	7.4227e+01	5.1379	7.537670	0.000072	0.715820	0.121263	-0.000014
 748	7.4326e+01	5.1165	7.525450	0.000061	0.613560	0.103940	-0.000012
 749	7.4426e+01	5.0964	7.510378	0.000076	0.756724	0.128192	-0.000015
 750	7.4525e+01	5.0787	7.496121	0.000072	0.715820	0.121263	-0.000014
 751	7.4625e+01	5.0561	7.488789	0.000037	0.368136	0.062364	-0.000007
 752	7.4725e+01	5.0387	7.478606	0.000051	0.511300	0.086617	-0.000010
 753	7.4824e+01	5.0204	7.467200	0.000057	0.572656	0.097011	-0.000011
 754	7.4924e+01	4.9955	7.459868	0.000037	0.368136	0.062364	-0.000007
 755	7.5023e+01	4.9770	7.452128	0.000039	0.388588	0.065829	-0.000008
 756	7.5123e+01	4.9600	7.439093	0.000065	0.654464	0.110869	-0.000013
 757	7.5222e+01	4.9404	7.428095	0.000055	0.552204	0.093546	-0.000011
 758	7.5322e+01	4.9184	7.419948	0.000041	0.409040	0.069293	-0.000008
 759	7.5421e+01	4.8980	7.408950	0.000055	0.552204	0.093546	-0.000011
 760	7.5520e+01	4.8775	7.397137	0.000059	0.593108	0.100475	-0.000012
 761	7.5620e+01	4.8602	7.378807	0.000092	0.920340	0.155910	-0.000018
 762	7.5719e+01	4.8403	7.369438	0.000047	0.470396	0.079687	-0.000009
 763	7.5819e+01	4.8211	7.355181	0.000072	0.715820	0.121263	-0.000014
 764	7.5918e+01	4.7994	7.339294	0.000080	0.797628	0.135122	-0.000016
 765	7.6018e+01	4.7820	7.328296	0.000055	0.552204	0.093546	-0.000011
 766	7.6118e+01	4.7607	7.316076	0.000061	0.613560	0.103940	-0.000012
 767	7.6217e+01	4.7413	7.304670	0.000057	0.572656	0.097011	-0.000011
 768	7.6317e+01	4.7197	7.292043	0.000063	0.634012	0.107404	-0.000013
 769	7.6416e+01	4.7024	7.276971	0.000076	0.756724	0.128192	-0.000015
 770	7.6516e+01	4.6801	7.264751	0.000061	0.613560	0.103940	-0.000012
 771	7.6615e+01	4.6593	7.254160	0.000053	0.531752	0.090081	-0.000011
 772	7.6715e+01	4.6397	7.237866	0.000082	0.818080	0.138586	-0.000016
 773	7.6814e+01	4.6203	7.219943	0.000090	0.899888	0.152445	-0.000018
 774	7.6913e+01	4.5998	7.204464	0.000078	0.777176	0.131657	-0.000016
 775	7.7013e+01	4.5818	7.191429	0.000065	0.654464	0.110869	-0.000013
 776	7.7112e+01	4.5596	7.175543	0.000080	0.797628	0.135122	-0.000016
 777	7.7212e+01	4.5403	7.157620	0.000090	0.899888	0.152445	-0.000018
 778	7.7311e+01	4.5205	7.143363	0.000072	0.715820	0.121263	-0.000014
 779	7.7411e+01	4.5004	7.123810	0.000098	0.981696	0.166304	-0.000020
 780	7.7510e+01	4.4805	7.112405	0.000057	0.572656	0.097011	-0.000011
 781	7.7610e+01	4.4602	7.093260	0.000096	0.961244	0.162839	-0.000019
 782	7.7710e+01	4.4402	7.076558	0.000084	0.838532	0.142051	-0.000017
 783	7.7809e+01	4.4247	7.061894	0.000074	0.736272	0.124728	-0.000015
 784	7.7909e+01	4.4012	7.045193	0.000084	0.838532	0.142051	-0.000017
 785	7.8008e+01	4.3833	7.026048	0.000096	0.961244	0.162839	-0.000019
 786	7.8108e+01	4.3609	7.009347	0.000084	0.838532	0.142051	-0.000017
 787	7.8207e+01	4.3395	6.993868	0.000078	0.777176	0.131657	-0.000016
 788	7.8306e+01	4.3222	6.972686	0.000106	1.063503	0.180162	-0.000021
 789	7.8406e+01	4.2995	6.958429	0.000072	0.715820	0.121263	-0.000014
 790	7.8505e+01	4.2803	6.940099	0.000092	0.920340	0.155910	-0.000018
 791	7.8605e+01	4.2608	6.919732	0.000102	1.022599	0.173233	-0.000020
 792	7.8704e+01	4.2397	6.901809	0.000090	0.899888	0.152445	-0.000018
 793	7.8804e+01	4.2223	6.884700	0.000086	0.858984	0.145516	-0.000017
 794	7.8903e+01	4.2037	6.865555	0.000096	0.961244	0.162839	-0.000019
 795	7.9003e+01	4.1833	6.849669	0.000080	0.797628	0.135122	-0.000016
 796	7.9103e+01	4.1605	6.828894	0.000104	1.043051	0.176698	-0.000021
 797	7.9202e+01	4.1445	6.809749	0.000096	0.961244	0.162839	-0.000019
 798	7.9302e+01	4.1216	6.791826	0.000090	0.899888	0.152445	-0.000018
 799	7.9401e+01	4.1021	6.770644	0.000106	1.063503	0.180162	-0.000021
 800	7.9501e+01	4.0835	6.751499	0.000096	0.961244	0.162839	-0.000019
 801	7.9600e+01	4.0617	6.736427	0.000076	0.756724	0.128192	-0.000015
 802	7.9700e+01	4.0429	6.714431	0.000110	1.104407	0.187092	-0.000022
 803	7.9799e+01	4.0234	6.696101	0.000092	0.920340	0.155910	-0.000018
 804	7.9898e+01	4.0026	6.678177	0.000090	0.899888	0.152445	-0.000018
 805	7.9998e+01	3.9812	6.661476	0.000084	0.838532	0.142051	-0.000017
 806	8.0097e+01	3.9611	6.639480	0.000110	1.104407	0.187092	-0.000022
 807	8.0197e+01	3.9434	6.617076	0.000112	1.124859	0.190556	-0.000023
 808	8.0296e+01	3.9214	6.605263	0.000059	0.593108	0.100475	-0.000012
 809	8.0396e+01	3.9007	6.581637	0.000119	1.186215	0.200950	-0.000024
 810	8.0496e+01	3.8847	6.558419	0.000117	1.165763	0.197486	-0.000023
 811	8.0595e+01	3.8638	6.540903	0.000088	0.879436	0.148980	-0.000018
 812	8.0695e+01	3.8421	6.520536	0.000102	1.022599	0.173233	-0.000020
 813	8.0794e+01	3.8235	6.500983	0.000098	0.981696	0.166304	-0.000020
 814	8.0894e+01	3.8041	6.480209	0.000104	1.043051	0.176698	-0.000021
 815	8.0993e+01	3.7807	6.462286	0.000090	0.899888	0.152445	-0.000018
 816	8.1093e+01	3.7634	6.446400	0.000080	0.797628	0.135122	-0.000016
 817	8.1192e+01	3.7438	6.423181	0.000117	1.165763	0.197486	-0.000023
 818	8.1291e+01	3.7229	6.404851	0.000092	0.920340	0.155910	-0.000018
 819	8.1391e+01	3.7038	6.384483	0.000102	1.022599	0.173233	-0.000020
 820	8.1490e+01	3.6834	6.367782	0.000084	0.838532	0.142051	-0.000017
 821	8.1590e+01	3.6672	6.345786	0.000110	1.104407	0.187092	-0.000022
 822	8.1689e+01	3.6446	6.325011	0.000104	1.043051	0.176698	-0.000021
 823	8.1789e+01	3.6217	6.302200	0.000115	1.145311	0.194021	-0.000023
 824	8.1888e+01	3.6059	6.280611	0.000108	1.083955	0.183627	-0.000022
 825	8.1988e+01	3.5845	6.257800	0.000115	1.145311	0.194021	-0.000023
 826	8.2088e+01	3.5650	6.239062	0.000094	0.940792	0.159374	-0.000019
 827	8.2187e+01	3.5439	6.215029	0.000121	1.206667	0.204415	-0.000024
 828	8.2287e+01	3.5247	6.191810	0.000117	1.165763	0.197486	-0.000023
 829	8.2386e+01	3.5039	6.168185	0.000119	1.186215	0.200950	-0.000024
 830	8.2486e+01	3.4817	6.149854	0.000092	0.920340	0.155910	-0.000018
 831	8.2585e+01	3.4646	6.127858	0.000110	1.104407	0.187092	-0.000022
 832	8.2684e+01	3.4464	6.106269	0.000108	1.083955	0.183627	-0.000022
 833	8.2784e+01	3.4252	6.083050	0.000117	1.165763	0.197486	-0.000023
 834	8.2883e+01	3.4048	6.063090	0.000100	1.002148	0.169768	-0.000020
 835	8.2983e+01	3.3877	6.037835	0.000127	1.268023	0.214809	-0.000025
 836	8.3082e+01	3.3660	6.015431	0.000112	1.124859	0.190556	-0.000023
 837	8.3182e+01	3.3440	5.990176	0.000127	1.268023	0.214809	-0.000025
 838	8.3281e+01	3.3221	5.964921	0.000127	1.268023	0.214809	-0.000025
 839	8.3381e+01	3.3059	5.939258	0.000129	1.288475	0.218274	-0.000026
 840	8.3481e+01	3.2862	5.913595	0.000129	1.288475	0.218274	-0.000026
 841	8.3580e+01	3.2650	5.889970	0.000119	1.186215	0.200950	-0.000024
 842	8.3680e+01	3.2487	5.868380	0.000108	1.083955	0.183627	-0.000022
 843	8.3779e+01	3.2250	5.842311	0.000131	1.308927	0.221738	-0.000026
 844	8.3879e+01	3.2049	5.820721	0.000108	1.083955	0.183627	-0.000022
 845	8.3978e+01	3.1853	5.801169	0.000098	0.981696	0.166304	-0.000020
 846	8.4078e+01	3.1640	5.774692	0.000133	1.329379	0.225203	-0.000027
 847	8.4177e+01	3.1484	5.758398	0.000082	0.818080	0.138586	-0.000016
 848	8.4276e+01	3.1264	5.733550	0.000125	1.247571	0.211344	-0.000025
 849	8.4376e+01	3.1054	5.710332	0.000117	1.165763	0.197486	-0.000023
 850	8.4475e+01	3.0865	5.688335	0.000110	1.104407	0.187092	-0.000022
 851	8.4575e+01	3.0663	5.662265	0.000131	1.308927	0.221738	-0.000026
 852	8.4674e+01	3.0486	5.640676	0.000108	1.083955	0.183627	-0.000022
 853	8.4774e+01	3.0251	5.618679	0.000110	1.104407	0.187092	-0.000022
 854	8.4874e+01	3.0065	5.597905	0.000104	1.043051	0.176698	-0.000021
 855	8.4973e+01	2.9873	5.577131	0.000104	1.043051	0.176698	-0.000021
 856	8.5073e+01	2.9653	5.557578	0.000098	0.981696	0.166304	-0.000020
 857	8.5172e+01	2.9443	5.531916	0.000129	1.288475	0.218274	-0.000026
 858	8.5272e+01	2.9256	5.510734	0.000106	1.063503	0.180162	-0.000021
 859	8.5371e+01	2.9034	5.495662	0.000076	0.756724	0.128192	-0.000015
 860	8.5471e+01	2.8887	5.470814	0.000125	1.247571	0.211344	-0.000025
 861	8.5570e+01	2.8667	5.454928	0.000080	0.797628	0.135122	-0.000016
 862	8.5669e+01	2.8472	5.434153	0.000104	1.043051	0.176698	-0.000021
 863	8.5769e+01	2.8292	5.413379	0.000104	1.043051	0.176698	-0.000021
 864	8.5868e+01	2.8089	5.395863	0.000088	0.879436	0.148980	-0.000018
 865	8.5968e+01	2.7883	5.373867	0.000110	1.104407	0.187092	-0.000022
 866	8.6067e+01	2.7654	5.353907	0.000100	1.002148	0.169768	-0.000020
 867	8.6167e+01	2.7476	5.335984	0.000090	0.899888	0.152445	-0.000018
 868	8.6266e+01	2.7261	5.313173	0.000115	1.145311	0.194021	-0.000023
 869	8.6366e+01	2.7071	5.298101	0.000076	0.756724	0.128192	-0.000015
 870	8.6466e+01	2.6876	5.275290	0.000115	1.145311	0.194021	-0.000023
 871	8.6565e+01	2.6656	5.254923	0.000102	1.022599	0.173233	-0.000020
 872	8.6665e+01	2.6482	5.237814	0.000086	0.858984	0.145516	-0.000017
 873	8.6764e+01	2.6263	5.214188	0.000119	1.186215	0.200950	-0.000024
 874	8.6864e+01	2.6064	5.197487	0.000084	0.838532	0.142051	-0.000017
 875	8.6963e+01	2.5883	5.172639	0.000125	1.247571	0.211344	-0.000025
 876	8.7063e+01	2.5669	5.154716	0.000090	0.899888	0.152445	-0.000018
 877	8.7162e+01	2.5506	5.137201	0.000088	0.879436	0.148980	-0.000018
 878	8.7261e+01	2.5290	5.117648	0.000098	0.981696	0.166304	-0.000020
 879	8.7361e+01	2.5096	5.102169	0.000078	0.777176	0.131657	-0.000016
 880	8.7460e+01	2.4899	5.084653	0.000088	0.879436	0.148980	-0.000018
 881	8.7560e+01	2.4702	5.059806	0.000125	1.247571	0.211344	-0.000025
 882	8.7659e+01	2.4480	5.041882	0.000090	0.899888	0.152445	-0.000018
 883	8.7759e+01	2.4284	5.024367	0.000088	0.879436	0.148980	-0.000018
 884	8.7859e+01	2.4065	5.006444	0.000090	0.899888	0.152445	-0.000018
 885	8.7958e+01	2.3890	4.987299	0.000096	0.961244	0.162839	-0.000019
 886	8.8058e+01	2.3696	4.969783	0.000088	0.879436	0.148980	-0.000018
 887	8.8157e+01	2.3502	4.944935	0.000125	1.247571	0.211344	-0.000025
 888	8.8257e+01	2.3292	4.924160	0.000104	1.043051	0.176698	-0.000021
 889	8.8356e+01	2.3090	4.906645	0.000088	0.879436	0.148980	-0.000018
 890	8.8456e+01	2.2889	4.887907	0.000094	0.940792	0.159374	-0.000019
 891	8.8555e+01	2.2686	4.869984	0.000090	0.899888	0.152445	-0.000018
 892	8.8654e+01	2.2501	4.850431	0.000098	0.981696	0.166304	-0.000020
 893	8.8754e+01	2.2269	4.834138	0.000082	0.818080	0.138586	-0.000016
 894	8.8853e+01	2.2091	4.812549	0.000108	1.083955	0.183627	-0.000022
 895	8.8953e+01	2.1895	4.792996	0.000098	0.981696	0.166304	-0.000020
 896	8.9052e+01	2.1718	4.774258	0.000094	0.940792	0.159374	-0.000019
 897	8.9152e+01	2.1484	4.754299	0.000100	1.002148	0.169768	-0.000020
 898	8.9251e+01	2.1286	4.734746	0.000098	0.981696	0.166304	-0.000020
 899	8.9351e+01	2.1072	4.717638	0.000086	0.858984	0.145516	-0.000017
 900	8.9451e+01	2.0885	4.697271	0.000102	1.022599	0.173233	-0.000020
 901	8.9550e+01	2.0699	4.675274	0.000110	1.104407	0.187092	-0.000022
 902	8.9650e+01	2.0512	4.654907	0.000102	1.022599	0.173233	-0.000020
 903	8.9749e+01	2.0298	4.638206	0.000084	0.838532	0.142051	-0.000017
 904	8.9849e+01	2.0104	4.619061	0.000096	0.961244	0.162839	-0.000019
 905	8.9948e+01	1.9912	4.599508	0.000098	0.981696	0.166304	-0.000020
 906	9.0047e+01	1.9680	4.577105	0.000112	1.124859	0.190556	-0.000023
 907	9.0147e+01	1.9469	4.562848	0.000072	0.715820	0.121263	-0.000014
 908	9.0246e+01	1.9299	4.543702	0.000096	0.961244	0.162839	-0.000019
 909	9.0346e+01	1.9114	4.525372	0.000092	0.920340	0.155910	-0.000018
 910	9.0445e+01	1.8901	4.512337	0.000065	0.654464	0.110869	-0.000013
 911	9.0545e+01	1.8713	4.493599	0.000094	0.940792	0.159374	-0.000019
 912	9.0644e+01	1.8520	4.472825	0.000104	1.043051	0.176698	-0.000021
 913	9.0744e+01	1.8322	4.454087	0.000094	0.940792	0.159374	-0.000019
 914	9.0844e+01	1.8127	4.439830	0.000072	0.715820	0.121263	-0.000014
 915	9.0943e+01	1.7908	4.416204	0.000119	1.186215	0.200950	-0.000024
 916	9.1043e+01	1.7699	4.397467	0.000094	0.940792	0.159374	-0.000019
 917	9.1142e+01	1.7500	4.379543	0.000090	0.899888	0.152445	-0.000018
 918	9.1242e+01	1.7307	4.362435	0.000086	0.858984	0.145516	-0.000017
 919	9.1341e+01	1.7118	4.344105	0.000092	0.920340	0.155910	-0.000018
 920	9.1441e+01	1.6941	4.328218	0.000080	0.797628	0.135122	-0.000016
 921	9.1540e+01	1.6728	4.310295	0.000090	0.899888	0.152445	-0.000018
 922	9.1639e+01	1.6515	4.298075	0.000061	0.613560	0.103940	-0.000012
 923	9.1739e+01	1.6306	4.278522	0.000098	0.981696	0.166304	-0.000020
 924	9.1838e+01	1.6118	4.261414	0.000086	0.858984	0.145516	-0.000017
 925	9.1938e+01	1.5948	4.246750	0.000074	0.736272	0.124728	-0.000015
 926	9.2037e+01	1.5749	4.224346	0.000112	1.124859	0.190556	-0.000023
 927	9.2137e+01	1.5501	4.211311	0.000065	0.654464	0.110869	-0.000013
 928	9.2237e+01	1.5311	4.187685	0.000119	1.186215	0.200950	-0.000024
 929	9.2336e+01	1.5112	4.171391	0.000082	0.818080	0.138586	-0.000016
 930	9.2436e+01	1.4916	4.150210	0.000106	1.063503	0.180162	-0.000021
 931	9.2535e+01	1.4718	4.134731	0.000078	0.777176	0.131657	-0.000016
 932	9.2635e+01	1.4527	4.108253	0.000133	1.329379	0.225203	-0.000027
 933	9.2734e+01	1.4355	4.093996	0.000072	0.715820	0.121263	-0.000014
 934	9.2834e+01	1.4127	4.073222	0.000104	1.043051	0.176698	-0.000021
 935	9.2933e+01	1.3920	4.054891	0.000092	0.920340	0.155910	-0.000018
 936	9.3032e+01	1.3731	4.035339	0.000098	0.981696	0.166304	-0.000020
 937	9.3132e+01	1.3512	4.017009	0.000092	0.920340	0.155910	-0.000018
 938	9.3231e+01	1.3321	3.997049	0.000100	1.002148	0.169768	-0.000020
 939	9.3331e+01	1.3127	3.974238	0.000115	1.145311	0.194021	-0.000023
 940	9.3430e+01	1.2884	3.958759	0.000078	0.777176	0.131657	-0.000016
 941	9.3530e+01	1.2733	3.934318	0.000123	1.227119	0.207880	-0.000025
 942	9.3629e+01	1.2556	3.909063	0.000127	1.268023	0.214809	-0.000025
 943	9.3729e+01	1.2344	3.886252	0.000115	1.145311	0.194021	-0.000023
 944	9.3829e+01	1.2138	3.867107	0.000096	0.961244	0.162839	-0.000019
 945	9.3928e+01	1.1900	3.847147	0.000100	1.002148	0.169768	-0.000020
 946	9.4028e+01	1.1742	3.823114	0.000121	1.206667	0.204415	-0.000024
 947	9.4127e+01	1.1529	3.798673	0.000123	1.227119	0.207880	-0.000025
 948	9.4227e+01	1.1323	3.775862	0.000115	1.145311	0.194021	-0.000023
 949	9.4326e+01	1.1138	3.753865	0.000110	1.104407	0.187092	-0.000022
 950	9.4425e+01	1.0941	3.729017	0.000125	1.247571	0.211344	-0.000025
 951	9.4525e+01	1.0715	3.703355	0.000129	1.288475	0.218274	-0.000026
 952	9.4624e+01	1.0555	3.679729	0.000119	1.186215	0.200950	-0.000024
 953	9.4724e+01	1.0357	3.660584	0.000096	0.961244	0.162839	-0.000019
 954	9.4823e+01	1.0130	3.636143	0.000123	1.227119	0.207880	-0.000025
 955	9.4923e+01	0.9954	3.614147	0.000110	1.104407	0.187092	-0.000022
 956	9.5022e+01	0.9751	3.587670	0.000133	1.329379	0.225203	-0.000027
 957	9.5122e+01	0.9551	3.562414	0.000127	1.268023	0.214809	-0.000025
 958	9.5222e+01	0.9324	3.543269	0.000096	0.961244	0.162839	-0.000019
 959	9.5321e+01	0.9150	3.517607	0.000129	1.288475	0.218274	-0.000026
 960	9.5421e+01	0.8941	3.491129	0.000133	1.329379	0.225203	-0.000027
 961	9.5520e+01	0.8742	3.468318	0.000115	1.145311	0.194021	-0.000023
 962	9.5620e+01	0.8550	3.441026	0.000137	1.370283	0.232132	-0.000027
 963	9.5719e+01	0.8349	3.415771	0.000127	1.268023	0.214809	-0.000025
 964	9.5819e+01	0.8114	3.392145	0.000119	1.186215	0.200950	-0.000024
 965	9.5918e+01	0.7932	3.366483	0.000129	1.288475	0.218274	-0.000026
 966	9.6017e+01	0.7744	3.341635	0.000125	1.247571	0.211344	-0.000025
 967	9.6117e+01	0.7546	3.315565	0.000131	1.308927	0.221738	-0.000026
 968	9.6216e+01	0.7333	3.293161	0.000112	1.124859	0.190556	-0.000023
 969	9.6316e+01	0.7156	3.264647	0.000143	1.431639	0.242526	-0.000029
 970	9.6415e+01	0.6950	3.239392	0.000127	1.268023	0.214809	-0.000025
 971	9.6515e+01	0.6766	3.214951	0.000123	1.227119	0.207880	-0.000025
 972	9.6615e+01	0.6581	3.191325	0.000119	1.186215	0.200950	-0.000024
 973	9.6714e+01	0.6347	3.169736	0.000108	1.083955	0.183627	-0.000022
 974	9.6814e+01	0.6173	3.143666	0.000131	1.308927	0.221738	-0.000026
 975	9.6913e+01	0.5946	3.115152	0.000143	1.431639	0.242526	-0.000029
 976	9.7013e+01	0.5751	3.090304	0.000125	1.247571	0.211344	-0.000025
 977	9.7112e+01	0.5544	3.060161	0.000151	1.513447	0.256385	-0.000030
 978	9.7212e+01	0.5374	3.034906	0.000127	1.268023	0.214809	-0.000025
 979	9.7311e+01	0.5157	3.014131	0.000104	1.043051	0.176698	-0.000021
 980	9.7410e+01	0.4929	2.981544	0.000164	1.636159	0.277173	-0.000033
 981	9.7510e+01	0.4757	2.957918	0.000119	1.186215	0.200950	-0.000024
 982	9.7609e+01	0.4544	2.932255	0.000129	1.288475	0.218274	-0.000026
 983	9.7709e+01	0.4382	2.907000	0.000127	1.268023	0.214809	-0.000025
 984	9.7808e+01	0.4160	2.880116	0.000135	1.349831	0.228668	-0.000027
 985	9.7908e+01	0.3960	2.855268	0.000125	1.247571	0.211344	-0.000025
 986	9.8007e+01	0.3758	2.831234	0.000121	1.206667	0.204415	-0.000024
 987	9.8107e+01	0.3594	2.801498	0.000149	1.492995	0.252920	-0.000030
 988	9.8207e+01	0.3394	2.775428	0.000131	1.308927	0.221738	-0.000026
 989	9.8306e+01	0.3152	2.753025	0.000112	1.124859	0.190556	-0.000023
 990	9.8406e+01	0.2935	2.723696	0.000147	1.472543	0.249456	-0.000029
 991	9.8505e+01	0.2747	2.691516	0.000162	1.615707	0.273708	-0.000032
 992	9.8605e+01	0.2568	2.663817	0.000139	1.390735	0.235597	-0.000028
 993	9.8704e+01	0.2362	2.638969	0.000125	1.247571	0.211344	-0.000025
 994	9.8803e+01	0.2151	2.608418	0.000153	1.533899	0.259850	-0.000031
 995	9.8903e+01	0.1946	2.578275	0.000151	1.513447	0.256385	-0.000030
 996	9.9002e+01	0.1768	2.551390	0.000135	1.349831	0.228668	-0.000027
 997	9.9102e+01	0.1563	2.522061	0.000147	1.472543	0.249456	-0.000029
 998	9.9201e+01	0.1397	2.495584	0.000133	1.329379	0.225203	-0.000027
 999	9.9301e+01	0.1162	2.469922	0.000129	1.288475	0.218274	-0.000026
1000	9.9400e+01	0.0971	2.439371	0.000153	1.533899	0.259850	-0.000031
1001	9.9500e+01	0.0773	2.414930	0.000123	1.227119	0.207880	-0.000025
1002	9.9600e+01	0.0565	2.385194	0.000149	1.492995	0.252920	-0.000030
1003	9.9699e+01	0.0372	2.355866	0.000147	1.472543	0.249456	-0.000029
1004	9.9799e+01	0.0160	2.320427	0.000178	1.779323	0.301425	-0.000036
1005	9.9898e+01	-0.0013	2.295172	0.000127	1.268023	0.214809	-0.000025
1006	9.9998e+01	-0.0213	2.264214	0.000155	1.554351	0.263314	-0.000031
1007	1.0010e+02	-0.0408	2.229182	0.000176	1.758871	0.297961	-0.000035
1008	1.0020e+02	-0.0618	2.204742	0.000123	1.227119	0.207880	-0.000025
1009	1.0030e+02	-0.0794	2.171747	0.000166	1.656611	0.280638	-0.000033
1010	1.0040e+02	-0.0984	2.140789	0.000155	1.554351	0.263314	-0.000031
1011	1.0050e+02	-0.1199	2.112682	0.000141	1.411187	0.239062	-0.000028
1012	1.0059e+02	-0.1385	2.087020	0.000129	1.288475	0.218274	-0.000026
1013	1.0069e+02	-0.1597	2.058098	0.000145	1.452091	0.245991	-0.000029
1014	1.0079e+02	-0.1799	2.029992	0.000141	1.411187	0.239062	-0.000028
1015	1.0089e+02	-0.2012	1.998626	0.000157	1.574803	0.266779	-0.000032
1016	1.0099e+02	-0.2180	1.974593	0.000121	1.206667	0.204415	-0.000024
1017	1.0109e+02	-0.2399	1.944450	0.000151	1.513447	0.256385	-0.000030
1018	1.0119e+02	-0.2617	1.917565	0.000135	1.349831	0.228668	-0.000027
1019	1.0129e+02	-0.2781	1.887422	0.000151	1.513447	0.256385	-0.000030
1020	1.0139e+02	-0.3001	1.859722	0.000139	1.390735	0.235597	-0.000028
1021	1.0149e+02	-0.3205	1.829986	0.000149	1.492995	0.252920	-0.000030
1022	1.0159e+02	-0.3401	1.803916	0.000131	1.308927	0.221738	-0.000026
1023	1.0169e+02	-0.3619	1.776217	0.000139	1.390735	0.235597	-0.000028
1024	1.0179e+02	-0.3808	1.747296	0.000145	1.452091	0.245991	-0.000029
1025	1.0189e+02	-0.3992	1.722448	0.000125	1.247571	0.211344	-0.000025
1026	1.0199e+02	-0.4201	1.696378	0.000131	1.308927	0.221738	-0.000026
1027	1.0209e+02	-0.4404	1.668271	0.000141	1.411187	0.239062	-0.000028
1028	1.0219e+02	-0.4601	1.643016	0.000127	1.268023	0.214809	-0.000025
1029	1.0229e+02	-0.4819	1.614095	0.000145	1.452091	0.245991	-0.000029
1030	1.0239e+02	-0.4996	1.591691	0.000112	1.124859	0.190556	-0.000023
1031	1.0248e+02	-0.5193	1.565214	0.000133	1.329379	0.225203	-0.000027
1032	1.0258e+02	-0.5437	1.539144	0.000131	1.308927	0.221738	-0.000026
1033	1.0268e+02	-0.5604	1.515518	0.000119	1.186215	0.200950	-0.000024
1034	1.0278e+02	-0.5795	1.489041	0.000133	1.329379	0.225203	-0.000027
1035	1.0288e+02	-0.6010	1.463785	0.000127	1.268023	0.214809	-0.000025
1036	1.0298e+02	-0.6202	1.435679	0.000141	1.411187	0.239062	-0.000028
1037	1.0308e+02	-0.6392	1.412868	0.000115	1.145311	0.194021	-0.000023
1038	1.0318e+02	-0.6587	1.385576	0.000137	1.370283	0.232132	-0.000027
1039	1.0328e+02	-0.6784	1.360320	0.000127	1.268023	0.214809	-0.000025
1040	1.0338e+02	-0.6998	1.336695	0.000119	1.186215	0.200950	-0.000024
1041	1.0348e+02	-0.7133	1.307366	0.000147	1.472543	0.249456	-0.000029
1042	1.0358e+02	-0.7358	1.281703	0.000129	1.288475	0.218274	-0.000026
1043	1.0368e+02	-0.7593	1.261336	0.000102	1.022599	0.173233	-0.000020
1044	1.0378e+02	-0.7791	1.233637	0.000139	1.390735	0.235597	-0.000028
1045	1.0388e+02	-0.7983	1.208789	0.000125	1.247571	0.211344	-0.000025
1046	1.0398e+02	-0.8195	1.184348	0.000123	1.227119	0.207880	-0.000025
1047	1.0408e+02	-0.8405	1.158279	0.000131	1.308927	0.221738	-0.000026
1048	1.0418e+02	-0.8578	1.135875	0.000112	1.124859	0.190556	-0.000023
1049	1.0428e+02	-0.8792	1.112656	0.000117	1.165763	0.197486	-0.000023
1050	1.0438e+02	-0.9000	1.085364	0.000137	1.370283	0.232132	-0.000027
1051	1.0447e+02	-0.9184	1.060109	0.000127	1.268023	0.214809	-0.000025
1052	1.0457e+02	-0.9362	1.040557	0.000098	0.981696	0.166304	-0.000020
1053	1.0467e+02	-0.9588	1.010821	0.000149	1.492995	0.252920	-0.000030
1054	1.0477e+02	-0.9796	0.983936	0.000135	1.349831	0.228668	-0.000027
1055	1.0487e+02	-0.9984	0.965198	0.000094	0.940792	0.159374	-0.000019
1056	1.0497e+02	-1.0197	0.935462	0.000149	1.492995	0.252920	-0.000030
1057	1.0507e+02	-1.0379	0.912651	0.000115	1.145311	0.194021	-0.000023
1058	1.0517e+02	-1.0588	0.884544	0.000141	1.411187	0.239062	-0.000028
1059	1.0527e+02	-1.0786	0.861326	0.000117	1.165763	0.197486	-0.000023
1060	1.0537e+02	-1.0976	0.836478	0.000125	1.247571	0.211344	-0.000025
1061	1.0547e+02	-1.1145	0.814481	0.000110	1.104407	0.187092	-0.000022
1062	1.0557e+02	-1.1368	0.788412	0.000131	1.308927	0.221738	-0.000026
1063	1.0567e+02	-1.1547	0.767230	0.000106	1.063503	0.180162	-0.000021
1064	1.0577e+02	-1.1761	0.742382	0.000125	1.247571	0.211344	-0.000025
1065	1.0587e+02	-1.1948	0.715090	0.000137	1.370283	0.232132	-0.000027
1066	1.0597e+02	-1.2172	0.691871	0.000117	1.165763	0.197486	-0.000023
1067	1.0607e+02	-1.2371	0.662135	0.000149	1.492995	0.252920	-0.000030
1068	1.0617e+02	-1.2585	0.637695	0.000123	1.227119	0.207880	-0.000025
1069	1.0627e+02	-1.2777	0.614476	0.000117	1.165763	0.197486	-0.000023
1070	1.0637e+02	-1.2971	0.593294	0.000106	1.063503	0.180162	-0.000021
1071	1.0647e+02	-1.3162	0.563966	0.000147	1.472543	0.249456	-0.000029
1072	1.0656e+02	-1.3370	0.539525	0.000123	1.227119	0.207880	-0.000025
1073	1.0666e+02	-1.3568	0.517936	0.000108	1.083955	0.183627	-0.000022
1074	1.0676e+02	-1.3766	0.492273	0.000129	1.288475	0.218274	-0.000026
1075	1.0686e+02	-1.3982	0.469870	0.000112	1.124859	0.190556	-0.000023
1076	1.0696e+02	-1.4140	0.448280	0.000108	1.083955	0.183627	-0.000022
1077	1.0706e+02	-1.4354	0.425877	0.000112	1.124859	0.190556	-0.000023
1078	1.0716e+02	-1.4550	0.403473	0.000112	1.124859	0.190556	-0.000023
1079	1.0726e+02	-1.4751	0.381884	0.000108	1.083955	0.183627	-0.000022
1080	1.0736e+02	-1.4967	0.353777	0.000141	1.411187	0.239062	-0.000028
1081	1.0746e+02	-1.5158	0.334632	0.000096	0.961244	0.162839	-0.000019
1082	1.0756e+02	-1.5361	0.307747	0.000135	1.349831	0.228668	-0.000027
1083	1.0766e+02	-1.5558	0.282085	0.000129	1.288475	0.218274	-0.000026
1084	1.0776e+02	-1.5762	0.260496	0.000108	1.083955	0.183627	-0.000022
1085	1.0786e+02	-1.5948	0.236462	0.000121	1.206667	0.204415	-0.000024
1086	1.0796e+02	-1.6159	0.215688	0.000104	1.043051	0.176698	-0.000021
1087	1.0806e+02	-1.6345	0.189618	0.000131	1.308927	0.221738	-0.000026
1088	1.0816e+02	-1.6582	0.169251	0.000102	1.022599	0.173233	-0.000020
1089	1.0826e+02	-1.6733	0.149291	0.000100	1.002148	0.169768	-0.000020
1090	1.0836e+02	-1.6959	0.129739	0.000098	0.981696	0.166304	-0.000020
1091	1.0845e+02	-1.7143	0.106113	0.000119	1.186215	0.200950	-0.000024
1092	1.0855e+02	-1.7351	0.082487	0.000119	1.186215	0.200950	-0.000024
1093	1.0865e+02	-1.7555	0.061712	0.000104	1.043051	0.176698	-0.000021
1094	1.0875e+02	-1.7740	0.044197	0.000088	0.879436	0.148980	-0.000018
1095	1.0885e+02	-1.7978	0.017719	0.000133	1.329379	0.225203	-0.000027
1096	1.0895e+02	-1.8130	-0.004684	0.000112	1.124859	0.190556	-0.000023
1097	1.0905e+02	-1.8344	-0.029532	0.000125	1.247571	0.211344	-0.000025
1098	1.0915e+02	-1.8527	-0.054380	0.000125	1.247571	0.211344	-0.000025
1099	1.0925e+02	-1.8763	-0.081672	0.000137	1.370283	0.232132	-0.000027
1100	1.0935e+02	-1.8942	-0.104076	0.000112	1.124859	0.190556	-0.000023
1101	1.0945e+02	-1.9145	-0.128517	0.000123	1.227119	0.207880	-0.000025
1102	1.0955e+02	-1.9348	-0.150106	0.000108	1.083955	0.183627	-0.000022
1103	1.0965e+02	-1.9507	-0.175361	0.000127	1.268023	0.214809	-0.000025
1104	1.0975e+02	-1.9726	-0.196135	0.000104	1.043051	0.176698	-0.000021
1105	1.0985e+02	-1.9949	-0.225871	0.000149	1.492995	0.252920	-0.000030
1106	1.0995e+02	-2.0150	-0.247053	0.000106	1.063503	0.180162	-0.000021
1107	1.1005e+02	-2.0303	-0.271494	0.000123	1.227119	0.207880	-0.000025
1108	1.1015e+02	-2.0529	-0.301230	0.000149	1.492995	0.252920	-0.000030
1109	1.1025e+02	-2.0740	-0.326078	0.000125	1.247571	0.211344	-0.000025
1110	1.1035e+02	-2.0933	-0.353777	0.000139	1.390735	0.235597	-0.000028
1111	1.1044e+02	-2.1141	-0.378625	0.000125	1.247571	0.211344	-0.000025
1112	1.1054e+02	-2.1342	-0.409176	0.000153	1.533899	0.259850	-0.000031
1113	1.1064e+02	-2.1519	-0.430357	0.000106	1.063503	0.180162	-0.000021
1114	1.1074e+02	-2.1739	-0.458871	0.000143	1.431639	0.242526	-0.000029
1115	1.1084e+02	-2.1930	-0.486163	0.000137	1.370283	0.232132	-0.000027
1116	1.1094e+02	-2.2128	-0.517121	0.000155	1.554351	0.263314	-0.000031
1117	1.1104e+02	-2.2363	-0.543191	0.000131	1.308927	0.221738	-0.000026
1118	1.1114e+02	-2.2532	-0.570076	0.000135	1.349831	0.228668	-0.000027
1119	1.1124e+02	-2.2723	-0.596553	0.000133	1.329379	0.225203	-0.000027
1120	1.1134e+02	-2.2910	-0.626697	0.000151	1.513447	0.256385	-0.000030
1121	1.1144e+02	-2.3138	-0.652766	0.000131	1.308927	0.221738	-0.000026
1122	1.1154e+02	-2.3352	-0.682095	0.000147	1.472543	0.249456	-0.000029
1123	1.1164e+02	-2.3535	-0.710609	0.000143	1.431639	0.242526	-0.000029
1124	1.1174e+02	-2.3723	-0.735050	0.000123	1.227119	0.207880	-0.000025
1125	1.1184e+02	-2.3923	-0.764378	0.000147	1.472543	0.249456	-0.000029
1126	1.1194e+02	-2.4136	-0.794929	0.000153	1.533899	0.259850	-0.000031
1127	1.1204e+02	-2.4362	-0.820592	0.000129	1.288475	0.218274	-0.000026
1128	1.1214e+02	-2.4493	-0.851142	0.000153	1.533899	0.259850	-0.000031
1129	1.1224e+02	-2.4741	-0.880471	0.000147	1.472543	0.249456	-0.000029
1130	1.1234e+02	-2.4944	-0.907763	0.000137	1.370283	0.232132	-0.000027
1131	1.1244e+02	-2.5110	-0.937092	0.000147	1.472543	0.249456	-0.000029
1132	1.1253e+02	-2.5320	-0.967642	0.000153	1.533899	0.259850	-0.000031
1133	1.1263e+02	-2.5528	-0.993712	0.000131	1.308927	0.221738	-0.000026
1134	1.1273e+02	-2.5689	-1.021819	0.000141	1.411187	0.239062	-0.000028
1135	1.1283e+02	-2.5922	-1.054406	0.000164	1.636159	0.277173	-0.000033
1136	1.1293e+02	-2.6128	-1.078439	0.000121	1.206667	0.204415	-0.000024
1137	1.1303e+02	-2.6317	-1.105731	0.000137	1.370283	0.232132	-0.000027
1138	1.1313e+02	-2.6505	-1.137504	0.000160	1.595255	0.270244	-0.000032
1139	1.1323e+02	-2.6732	-1.164389	0.000135	1.349831	0.228668	-0.000027
1140	1.1333e+02	-2.6898	-1.195347	0.000155	1.554351	0.263314	-0.000031
1141	1.1343e+02	-2.7139	-1.222639	0.000137	1.370283	0.232132	-0.000027
1142	1.1353e+02	-2.7301	-1.248709	0.000131	1.308927	0.221738	-0.000026
1143	1.1363e+02	-2.7512	-1.282518	0.000170	1.697515	0.287567	-0.000034
1144	1.1373e+02	-2.7721	-1.311439	0.000145	1.452091	0.245991	-0.000029
1145	1.1383e+02	-2.7921	-1.345656	0.000172	1.717967	0.291032	-0.000034
1146	1.1393e+02	-2.8103	-1.374985	0.000147	1.472543	0.249456	-0.000029
1147	1.1403e+02	-2.8311	-1.399833	0.000125	1.247571	0.211344	-0.000025
1148	1.1413e+02	-2.8500	-1.430791	0.000155	1.554351	0.263314	-0.000031
1149	1.1423e+02	-2.8723	-1.460119	0.000147	1.472543	0.249456	-0.000029
1150	1.1433e+02	-2.8900	-1.488633	0.000143	1.431639	0.242526	-0.000029
1151	1.1442e+02	-2.9123	-1.512667	0.000121	1.206667	0.204415	-0.000024
1152	1.1452e+02	-2.9321	-1.544439	0.000160	1.595255	0.270244	-0.000032
1153	1.1462e+02	-2.9510	-1.578249	0.000170	1.697515	0.287567	-0.000034
1154	1.1472e+02	-2.9688	-1.601875	0.000119	1.186215	0.200950	-0.000024
1155	1.1482e+02	-2.9886	-1.630389	0.000143	1.431639	0.242526	-0.000029
1156	1.1492e+02	-3.0084	-1.659310	0.000145	1.452091	0.245991	-0.000029
1157	1.1502e+02	-3.0307	-1.691083	0.000160	1.595255	0.270244	-0.000032
1158	1.1512e+02	-3.0505	-1.719597	0.000143	1.431639	0.242526	-0.000029
1159	1.1522e+02	-3.0704	-1.748518	0.000145	1.452091	0.245991	-0.000029
1160	1.1532e+02	-3.0908	-1.780291	0.000160	1.595255	0.270244	-0.000032
1161	1.1542e+02	-3.1110	-1.812063	0.000160	1.595255	0.270244	-0.000032
1162	1.1552e+02	-3.1287	-1.845465	0.000168	1.677063	0.284102	-0.000034
1163	1.1562e+02	-3.1512	-1.875609	0.000151	1.513447	0.256385	-0.000030
1164	1.1572e+02	-3.1706	-1.907789	0.000162	1.615707	0.273708	-0.000032
1165	1.1582e+02	-3.1879	-1.938340	0.000153	1.533899	0.259850	-0.000031
1166	1.1592e+02	-3.2119	-1.968890	0.000153	1.533899	0.259850	-0.000031
1167	1.1602e+02	-3.2310	-2.000256	0.000157	1.574803	0.266779	-0.000032
1168	1.1612e+02	-3.2486	-2.024289	0.000121	1.206667	0.204415	-0.000024
1169	1.1622e+02	-3.2687	-2.061357	0.000186	1.861131	0.315284	-0.000037
1170	1.1632e+02	-3.2895	-2.090278	0.000145	1.452091	0.245991	-0.000029
1171	1.1642e+02	-3.3057	-2.120422	0.000151	1.513447	0.256385	-0.000030
1172	1.1651e+02	-3.3301	-2.153416	0.000166	1.656611	0.280638	-0.000033
1173	1.1661e+02	-3.3481	-2.186004	0.000164	1.636159	0.277173	-0.000033
1174	1.1671e+02	-3.3704	-2.219813	0.000170	1.697515	0.287567	-0.000034
1175	1.1681e+02	-3.3905	-2.250771	0.000155	1.554351	0.263314	-0.000031
1176	1.1691e+02	-3.4084	-2.288247	0.000188	1.881583	0.318749	-0.000038
1177	1.1701e+02	-3.4283	-2.317983	0.000149	1.492995	0.252920	-0.000030
1178	1.1711e+02	-3.4476	-2.348533	0.000153	1.533899	0.259850	-0.000031
1179	1.1721e+02	-3.4677	-2.378269	0.000149	1.492995	0.252920	-0.000030
1180	1.1731e+02	-3.4875	-2.410857	0.000164	1.636159	0.277173	-0.000033
1181	1.1741e+02	-3.5101	-2.438149	0.000137	1.370283	0.232132	-0.000027
1182	1.1751e+02	-3.5294	-2.466255	0.000141	1.411187	0.239062	-0.000028
1183	1.1761e+02	-3.5486	-2.498028	0.000160	1.595255	0.270244	-0.000032
1184	1.1771e+02	-3.5687	-2.526950	0.000145	1.452091	0.245991	-0.000029
1185	1.1781e+02	-3.5904	-2.556278	0.000147	1.472543	0.249456	-0.000029
1186	1.1791e+02	-3.6098	-2.591717	0.000178	1.779323	0.301425	-0.000036
1187	1.1801e+02	-3.6291	-2.620638	0.000145	1.452091	0.245991	-0.000029
1188	1.1811e+02	-3.6472	-2.647523	0.000135	1.349831	0.228668	-0.000027
1189	1.1821e+02	-3.6688	-2.676852	0.000147	1.472543	0.249456	-0.000029
1190	1.1831e+02	-3.6899	-2.704144	0.000137	1.370283	0.232132	-0.000027
1191	1.1841e+02	-3.7082	-2.733472	0.000147	1.472543	0.249456	-0.000029
1192	1.1850e+02	-3.7311	-2.762394	0.000145	1.452091	0.245991	-0.000029
1193	1.1860e+02	-3.7462	-2.789278	0.000135	1.349831	0.228668	-0.000027
1194	1.1870e+02	-3.7659	-2.818607	0.000147	1.472543	0.249456	-0.000029
1195	1.1880e+02	-3.7857	-2.844269	0.000129	1.288475	0.218274	-0.000026
1196	1.1890e+02	-3.8074	-2.872376	0.000141	1.411187	0.239062	-0.000028
1197	1.1900e+02	-3.8254	-2.895595	0.000117	1.165763	0.197486	-0.000023
1198	1.1910e+02	-3.8467	-2.924109	0.000143	1.431639	0.242526	-0.000029
1199	1.1920e+02	-3.8678	-2.950993	0.000135	1.349831	0.228668	-0.000027
1200	1.1930e+02	-3.8861	-2.979914	0.000145	1.452091	0.245991	-0.000029
1201	1.1940e+02	-3.9075	-3.003540	0.000119	1.186215	0.200950	-0.000024
1202	1.1950e+02	-3.9288	-3.028388	0.000125	1.247571	0.211344	-0.000025
1203	1.1960e+02	-3.9459	-3.054865	0.000133	1.329379	0.225203	-0.000027
1204	1.1970e+02	-3.9635	-3.080528	0.000129	1.288475	0.218274	-0.000026
1205	1.1980e+02	-3.9862	-3.109449	0.000145	1.452091	0.245991	-0.000029
1206	1.1990e+02	-4.0033	-3.135927	0.000133	1.329379	0.225203	-0.000027
1207	1.2000e+02	-4.0257	-3.161997	0.000131	1.308927	0.221738	-0.000026
1208	1.2010e+02	-4.0460	-3.184400	0.000112	1.124859	0.190556	-0.000023
1209	1.2020e+02	-4.0674	-3.210063	0.000129	1.288475	0.218274	-0.000026
1210	1.2030e+02	-4.0866	-3.235318	0.000127	1.268023	0.214809	-0.000025
1211	1.2039e+02	-4.1049	-3.263018	0.000139	1.390735	0.235597	-0.000028
1212	1.2049e+02	-4.1268	-3.290717	0.000139	1.390735	0.235597	-0.000028
1213	1.2059e+02	-4.1464	-3.313528	0.000115	1.145311	0.194021	-0.000023
1214	1.2069e+02	-4.1638	-3.340005	0.000133	1.329379	0.225203	-0.000027
1215	1.2079e+02	-4.1853	-3.360372	0.000102	1.022599	0.173233	-0.000020
1216	1.2089e+02	-4.2047	-3.384406	0.000121	1.206667	0.204415	-0.000024
1217	1.2099e+02	-4.2255	-3.410883	0.000133	1.329379	0.225203	-0.000027
1218	1.2109e+02	-4.2459	-3.440212	0.000147	1.472543	0.249456	-0.000029
1219	1.2119e+02	-4.2661	-3.459357	0.000096	0.961244	0.162839	-0.000019
1220	1.2129e+02	-4.2841	-3.482168	0.000115	1.145311	0.194021	-0.000023
1221	1.2139e+02	-4.3060	-3.507423	0.000127	1.268023	0.214809	-0.000025
1222	1.2149e+02	-4.3237	-3.531864	0.000123	1.227119	0.207880	-0.000025
1223	1.2159e+02	-4.3475	-3.557934	0.000131	1.308927	0.221738	-0.000026
1224	1.2169e+02	-4.3645	-3.582781	0.000125	1.247571	0.211344	-0.000025
1225	1.2179e+02	-4.3851	-3.606407	0.000119	1.186215	0.200950	-0.000024
1226	1.2189e+02	-4.4031	-3.627589	0.000106	1.063503	0.180162	-0.000021
1227	1.2199e+02	-4.4273	-3.652844	0.000127	1.268023	0.214809	-0.000025
1228	1.2209e+02	-4.4455	-3.675656	0.000115	1.145311	0.194021	-0.000023
1229	1.2219e+02	-4.4656	-3.700503	0.000125	1.247571	0.211344	-0.000025
1230	1.2229e+02	-4.4832	-3.718834	0.000092	0.920340	0.155910	-0.000018
1231	1.2239e+02	-4.5062	-3.744904	0.000131	1.308927	0.221738	-0.000026
1232	1.2248e+02	-4.5273	-3.767715	0.000115	1.145311	0.194021	-0.000023
1233	1.2258e+02	-4.5441	-3.790119	0.000112	1.124859	0.190556	-0.000023
1234	1.2268e+02	-4.5673	-3.815374	0.000127	1.268023	0.214809	-0.000025
1235	1.2278e+02	-4.5838	-3.840629	0.000127	1.268023	0.214809	-0.000025
1236	1.2288e+02	-4.6054	-3.863033	0.000112	1.124859	0.190556	-0.000023
1237	1.2298e+02	-4.6234	-3.886252	0.000117	1.165763	0.197486	-0.000023
1238	1.2308e+02	-4.6454	-3.912729	0.000133	1.329379	0.225203	-0.000027
1239	1.2318e+02	-4.6661	-3.932689	0.000100	1.002148	0.169768	-0.000020
1240	1.2328e+02	-4.6838	-3.957129	0.000123	1.227119	0.207880	-0.000025
1241	1.2338e+02	-4.7040	-3.979533	0.000112	1.124859	0.190556	-0.000023
1242	1.2348e+02	-4.7234	-3.998678	0.000096	0.961244	0.162839	-0.000019
1243	1.2358e+02	-4.7433	-4.023526	0.000125	1.247571	0.211344	-0.000025
1244	1.2368e+02	-4.7623	-4.041856	0.000092	0.920340	0.155910	-0.000018
1245	1.2378e+02	-4.7820	-4.061816	0.000100	1.002148	0.169768	-0.000020
1246	1.2388e+02	-4.8038	-4.085035	0.000117	1.165763	0.197486	-0.000023
1247	1.2398e+02	-4.8241	-4.104587	0.000098	0.981696	0.166304	-0.000020
1248	1.2408e+02	-4.8453	-4.125769	0.000106	1.063503	0.180162	-0.000021
1249	1.2418e+02	-4.8648	-4.149802	0.000121	1.206667	0.204415	-0.000024
1250	1.2428e+02	-4.8819	-4.173835	0.000121	1.206667	0.204415	-0.000024
1251	1.2438e+02	-4.9045	-4.190536	0.000084	0.838532	0.142051	-0.000017
1252	1.2447e+02	-4.9261	-4.210496	0.000100	1.002148	0.169768	-0.000020
1253	1.2457e+02	-4.9435	-4.236159	0.000129	1.288475	0.218274	-0.000026
1254	1.2467e+02	-4.9641	-4.255304	0.000096	0.961244	0.162839	-0.000019
1255	1.2477e+02	-4.9829	-4.274042	0.000094	0.940792	0.159374	-0.000019
1256	1.2487e+02	-5.0043	-4.289928	0.000080	0.797628	0.135122	-0.000016
1257	1.2497e+02	-5.0247	-4.307851	0.000090	0.899888	0.152445	-0.000018
1258	1.2507e+02	-5.0433	-4.327811	0.000100	1.002148	0.169768	-0.000020
1259	1.2517e+02	-5.0653	-4.347771	0.000100	1.002148	0.169768	-0.000020
1260	1.2527e+02	-5.0845	-4.368138	0.000102	1.022599	0.173233	-0.000020
1261	1.2537e+02	-5.1047	-4.386061	0.000090	0.899888	0.152445	-0.000018
1262	1.2547e+02	-5.1208	-4.402355	0.000082	0.818080	0.138586	-0.000016
1263	1.2557e+02	-5.1401	-4.424758	0.000112	1.124859	0.190556	-0.000023
1264	1.2567e+02	-5.1587	-4.445533	0.000104	1.043051	0.176698	-0.000021
1265	1.2577e+02	-5.1831	-4.468751	0.000117	1.165763	0.197486	-0.000023
1266	1.2587e+02	-5.2054	-4.490341	0.000108	1.083955	0.183627	-0.000022
1267	1.2597e+02	-5.2216	-4.512337	0.000110	1.104407	0.187092	-0.000022
1268	1.2607e+02	-5.2429	-4.532704	0.000102	1.022599	0.173233	-0.000020
1269	1.2617e+02	-5.2643	-4.549405	0.000084	0.838532	0.142051	-0.000017
1270	1.2627e+02	-5.2835	-4.572216	0.000115	1.145311	0.194021	-0.000023
1271	1.2636e+02	-5.3009	-4.594620	0.000112	1.124859	0.190556	-0.000023
1272	1.2646e+02	-5.3217	-4.612136	0.000088	0.879436	0.148980	-0.000018
1273	1.2656e+02	-5.3430	-4.635762	0.000119	1.186215	0.200950	-0.000024
1274	1.2666e+02	-5.3607	-4.655722	0.000100	1.002148	0.169768	-0.000020
1275	1.2676e+02	-5.3827	-4.676904	0.000106	1.063503	0.180162	-0.000021
1276	1.2686e+02	-5.4022	-4.703381	0.000133	1.329379	0.225203	-0.000027
1277	1.2696e+02	-5.4218	-4.722933	0.000098	0.981696	0.166304	-0.000020
1278	1.2706e+02	-5.4428	-4.743708	0.000104	1.043051	0.176698	-0.000021
1279	1.2716e+02	-5.4596	-4.768556	0.000125	1.247571	0.211344	-0.000025
1280	1.2726e+02	-5.4819	-4.796662	0.000141	1.411187	0.239062	-0.000028
1281	1.2736e+02	-5.4984	-4.814178	0.000088	0.879436	0.148980	-0.000018
1282	1.2746e+02	-5.5194	-4.836989	0.000115	1.145311	0.194021	-0.000023
1283	1.2756e+02	-5.5408	-4.862244	0.000127	1.268023	0.214809	-0.000025
1284	1.2766e+02	-5.5612	-4.885463	0.000117	1.165763	0.197486	-0.000023
1285	1.2776e+02	-5.5823	-4.910311	0.000125	1.247571	0.211344	-0.000025
1286	1.2786e+02	-5.5975	-4.931493	0.000106	1.063503	0.180162	-0.000021
1287	1.2796e+02	-5.6207	-4.956748	0.000127	1.268023	0.214809	-0.000025
1288	1.2806e+02	-5.6418	-4.977522	0.000104	1.043051	0.176698	-0.000021
1289	1.2816e+02	-5.6586	-5.002778	0.000127	1.268023	0.214809	-0.000025
1290	1.2826e+02	-5.6784	-5.026403	0.000119	1.186215	0.200950	-0.000024
1291	1.2835e+02	-5.7016	-5.047585	0.000106	1.063503	0.180162	-0.000021
1292	1.2845e+02	-5.7190	-5.074470	0.000135	1.349831	0.228668	-0.000027
1293	1.2855e+02	-5.7382	-5.094837	0.000102	1.022599	0.173233	-0.000020
1294	1.2865e+02	-5.7620	-5.116426	0.000108	1.083955	0.183627	-0.000022
1295	1.2875e+02	-5.7819	-5.143311	0.000135	1.349831	0.228668	-0.000027
1296	1.2885e+02	-5.7990	-5.165715	0.000112	1.124859	0.190556	-0.000023
1297	1.2895e+02	-5.8203	-5.188526	0.000115	1.145311	0.194021	-0.000023
1298	1.2905e+02	-5.8398	-5.216225	0.000139	1.390735	0.235597	-0.000028
1299	1.2915e+02	-5.8612	-5.240666	0.000123	1.227119	0.207880	-0.000025
1300	1.2925e+02	-5.8771	-5.263069	0.000112	1.124859	0.190556	-0.000023
1301	1.2935e+02	-5.8990	-5.288325	0.000127	1.268023	0.214809	-0.000025
1302	1.2945e+02	-5.9189	-5.308692	0.000102	1.022599	0.173233	-0.000020
1303	1.2955e+02	-5.9404	-5.335169	0.000133	1.329379	0.225203	-0.000027
1304	1.2965e+02	-5.9579	-5.358388	0.000117	1.165763	0.197486	-0.000023
1305	1.2975e+02	-5.9807	-5.377940	0.000098	0.981696	0.166304	-0.000020
1306	1.2985e+02	-5.9985	-5.406047	0.000141	1.411187	0.239062	-0.000028
1307	1.2995e+02	-6.0217	-5.430895	0.000125	1.247571	0.211344	-0.000025
1308	1.3005e+02	-6.0406	-5.453298	0.000112	1.124859	0.190556	-0.000023
1309	1.3015e+02	-6.0605	-5.476517	0.000117	1.165763	0.197486	-0.000023
1310	1.3025e+02	-6.0815	-5.498106	0.000108	1.083955	0.183627	-0.000022
1311	1.3034e+02	-6.0999	-5.522954	0.000125	1.247571	0.211344	-0.000025
1312	1.3044e+02	-6.1183	-5.548209	0.000127	1.268023	0.214809	-0.000025
1313	1.3054e+02	-6.1375	-5.574279	0.000131	1.308927	0.221738	-0.000026
1314	1.3064e+02	-6.1566	-5.594239	0.000100	1.002148	0.169768	-0.000020
1315	1.3074e+02	-6.1774	-5.620309	0.000131	1.308927	0.221738	-0.000026
1316	1.3084e+02	-6.1987	-5.643120	0.000115	1.145311	0.194021	-0.000023
1317	1.3094e+02	-6.2186	-5.666339	0.000117	1.165763	0.197486	-0.000023
1318	1.3104e+02	-6.2396	-5.691594	0.000127	1.268023	0.214809	-0.000025
1319	1.3114e+02	-6.2585	-5.713590	0.000110	1.104407	0.187092	-0.000022
1320	1.3124e+02	-6.2762	-5.733957	0.000102	1.022599	0.173233	-0.000020
1321	1.3134e+02	-6.3007	-5.760027	0.000131	1.308927	0.221738	-0.000026
1322	1.3144e+02	-6.3165	-5.782839	0.000115	1.145311	0.194021	-0.000023
1323	1.3154e+02	-6.3397	-5.804020	0.000106	1.063503	0.180162	-0.000021
1324	1.3164e+02	-6.3568	-5.833756	0.000149	1.492995	0.252920	-0.000030
1325	1.3174e+02	-6.3788	-5.854531	0.000104	1.043051	0.176698	-0.000021
1326	1.3184e+02	-6.3971	-5.881823	0.000137	1.370283	0.232132	-0.000027
1327	1.3194e+02	-6.4175	-5.901783	0.000100	1.002148	0.169768	-0.000020
1328	1.3204e+02	-6.4383	-5.931926	0.000151	1.513447	0.256385	-0.000030
1329	1.3214e+02	-6.4581	-5.956366	0.000123	1.227119	0.207880	-0.000025
1330	1.3224e+02	-6.4783	-5.983658	0.000137	1.370283	0.232132	-0.000027
1331	1.3234e+02	-6.4978	-6.008506	0.000125	1.247571	0.211344	-0.000025
1332	1.3243e+02	-6.5173	-6.030910	0.000112	1.124859	0.190556	-0.000023
1333	1.3253e+02	-6.5381	-6.052092	0.000106	1.063503	0.180162	-0.000021
1334	1.3263e+02	-6.5540	-6.083457	0.000157	1.574803	0.266779	-0.000032
1335	1.3273e+02	-6.5778	-6.102195	0.000094	0.940792	0.159374	-0.000019
1336	1.3283e+02	-6.5958	-6.124192	0.000110	1.104407	0.187092	-0.000022
1337	1.3293e+02	-6.6193	-6.151076	0.000135	1.349831	0.228668	-0.000027
1338	1.3303e+02	-6.6345	-6.176739	0.000129	1.288475	0.218274	-0.000026
1339	1.3313e+02	-6.6553	-6.208104	0.000157	1.574803	0.266779	-0.000032
1340	1.3323e+02	-6.6782	-6.232952	0.000125	1.247571	0.211344	-0.000025
1341	1.3333e+02	-6.6980	-6.264317	0.000157	1.574803	0.266779	-0.000032
1342	1.3343e+02	-6.7181	-6.284277	0.000100	1.002148	0.169768	-0.000020
1343	1.3353e+02	-6.7365	-6.312384	0.000141	1.411187	0.239062	-0.000028
1344	1.3363e+02	-6.7554	-6.338046	0.000129	1.288475	0.218274	-0.000026
1345	1.3373e+02	-6.7767	-6.364524	0.000133	1.329379	0.225203	-0.000027
1346	1.3383e+02	-6.7987	-6.386113	0.000108	1.083955	0.183627	-0.000022
1347	1.3393e+02	-6.8176	-6.413405	0.000137	1.370283	0.232132	-0.000027
1348	1.3403e+02	-6.8372	-6.438660	0.000127	1.268023	0.214809	-0.000025
1349	1.3413e+02	-6.8549	-6.461471	0.000115	1.145311	0.194021	-0.000023
1350	1.3423e+02	-6.8738	-6.481024	0.000098	0.981696	0.166304	-0.000020
1351	1.3432e+02	-6.8970	-6.506279	0.000127	1.268023	0.214809	-0.000025
1352	1.3442e+02	-6.9171	-6.532349	0.000131	1.308927	0.221738	-0.000026
1353	1.3452e+02	-6.9373	-6.555567	0.000117	1.165763	0.197486	-0.000023
1354	1.3462e+02	-6.9574	-6.577971	0.000112	1.124859	0.190556	-0.000023
1355	1.3472e+02	-6.9763	-6.605670	0.000139	1.390735	0.235597	-0.000028
1356	1.3482e+02	-6.9974	-6.629704	0.000121	1.206667	0.204415	-0.000024
1357	1.3492e+02	-7.0178	-6.651293	0.000108	1.083955	0.183627	-0.000022
1358	1.3502e+02	-7.0377	-6.669623	0.000092	0.920340	0.155910	-0.000018
1359	1.3512e+02	-7.0532	-6.692434	0.000115	1.145311	0.194021	-0.000023
1360	1.3522e+02	-7.0773	-6.716060	0.000119	1.186215	0.200950	-0.000024
1361	1.3532e+02	-7.0953	-6.736427	0.000102	1.022599	0.173233	-0.000020
1362	1.3542e+02	-7.1164	-6.762090	0.000129	1.288475	0.218274	-0.000026
1363	1.3552e+02	-7.1356	-6.779606	0.000088	0.879436	0.148980	-0.000018
1364	1.3562e+02	-7.1561	-6.800380	0.000104	1.043051	0.176698	-0.000021
1365	1.3572e+02	-7.1750	-6.819933	0.000098	0.981696	0.166304	-0.000020
1366	1.3582e+02	-7.1967	-6.839892	0.000100	1.002148	0.169768	-0.000020
1367	1.3592e+02	-7.2159	-6.860260	0.000102	1.022599	0.173233	-0.000020
1368	1.3602e+02	-7.2356	-6.881034	0.000104	1.043051	0.176698	-0.000021
1369	1.3612e+02	-7.2522	-6.903031	0.000110	1.104407	0.187092	-0.000022
1370	1.3622e+02	-7.2763	-6.921768	0.000094	0.940792	0.159374	-0.000019
1371	1.3631e+02	-7.2937	-6.941728	0.000100	1.002148	0.169768	-0.000020
1372	1.3641e+02	-7.3151	-6.960466	0.000094	0.940792	0.159374	-0.000019
1373	1.3651e+02	-7.3364	-6.980018	0.000098	0.981696	0.166304	-0.000020
1374	1.3661e+02	-7.3569	-6.995497	0.000078	0.777176	0.131657	-0.000016
1375	1.3671e+02	-7.3767	-7.022789	0.000137	1.370283	0.232132	-0.000027
1376	1.3681e+02	-7.3926	-7.038268	0.000078	0.777176	0.131657	-0.000016
1377	1.3691e+02	-7.4146	-7.058228	0.000100	1.002148	0.169768	-0.000020
1378	1.3701e+02	-7.4347	-7.075336	0.000086	0.858984	0.145516	-0.000017
1379	1.3711e+02	-7.4542	-7.097740	0.000112	1.124859	0.190556	-0.000023
1380	1.3721e+02	-7.4753	-7.114034	0.000082	0.818080	0.138586	-0.000016
1381	1.3731e+02	-7.4963	-7.133994	0.000100	1.002148	0.169768	-0.000020
1382	1.3741e+02	-7.5153	-7.155990	0.000110	1.104407	0.187092	-0.000022
1383	1.3751e+02	-7.5323	-7.169840	0.000070	0.695368	0.117798	-0.000014
1384	1.3761e+02	-7.5528	-7.192651	0.000115	1.145311	0.194021	-0.000023
1385	1.3771e+02	-7.5726	-7.208945	0.000082	0.818080	0.138586	-0.000016
1386	1.3781e+02	-7.5940	-7.226053	0.000086	0.858984	0.145516	-0.000017
1387	1.3791e+02	-7.6123	-7.246420	0.000102	1.022599	0.173233	-0.000020
1388	1.3801e+02	-7.6355	-7.264751	0.000092	0.920340	0.155910	-0.000018
1389	1.3811e+02	-7.6550	-7.282266	0.000088	0.879436	0.148980	-0.000018
1390	1.3821e+02	-7.6740	-7.303448	0.000106	1.063503	0.180162	-0.000021
1391	1.3831e+02	-7.6923	-7.322593	0.000096	0.961244	0.162839	-0.000019
1392	1.3840e+02	-7.7136	-7.339294	0.000084	0.838532	0.142051	-0.000017
1393	1.3850e+02	-7.7344	-7.358032	0.000094	0.940792	0.159374	-0.000019
1394	1.3860e+02	-7.7551	-7.377585	0.000098	0.981696	0.166304	-0.000020
1395	1.3870e+02	-7.7722	-7.395508	0.000090	0.899888	0.152445	-0.000018
1396	1.3880e+02	-7.7930	-7.407321	0.000059	0.593108	0.100475	-0.000012
1397	1.3890e+02	-7.8113	-7.429317	0.000110	1.104407	0.187092	-0.000022
1398	1.3900e+02	-7.8326	-7.446018	0.000084	0.838532	0.142051	-0.000017
1399	1.3910e+02	-7.8513	-7.462719	0.000084	0.838532	0.142051	-0.000017
1400	1.3920e+02	-7.8720	-7.482679	0.000100	1.002148	0.169768	-0.000020
1401	1.3930e+02	-7.8925	-7.500195	0.000088	0.879436	0.148980	-0.000018
1402	1.3940e+02	-7.9120	-7.522191	0.000110	1.104407	0.187092	-0.000022
1403	1.3950e+02	-7.9327	-7.541336	0.000096	0.961244	0.162839	-0.000019
1404	1.3960e+02	-7.9529	-7.557223	0.000080	0.797628	0.135122	-0.000016
1405	1.3970e+02	-7.9700	-7.574738	0.000088	0.879436	0.148980	-0.000018
1406	1.3980e+02	-7.9926	-7.595513	0.000104	1.043051	0.176698	-0.000021
1407	1.3990e+02	-8.0090	-7.612621	0.000086	0.858984	0.145516	-0.000017
1408	1.4000e+02	-8.0298	-7.630137	0.000088	0.879436	0.148980	-0.000018
1409	1.4010e+02	-8.0511	-7.647653	0.000088	0.879436	0.148980	-0.000018
1410	1.4020e+02	-8.0704	-7.663539	0.000080	0.797628	0.135122	-0.000016
1411	1.4029e+02	-8.0905	-7.680647	0.000086	0.858984	0.145516	-0.000017
1412	1.4039e+02	-8.1116	-7.696126	0.000078	0.777176	0.131657	-0.000016
1413	1.4049e+02	-8.1311	-7.708754	0.000063	0.634012	0.107404	-0.000013
1414	1.4059e+02	-8.1537	-7.725863	0.000086	0.858984	0.145516	-0.000017
1415	1.4069e+02	-8.1702	-7.741749	0.000080	0.797628	0.135122	-0.000016
1416	1.4079e+02	-8.1900	-7.763338	0.000108	1.083955	0.183627	-0.000022
1417	1.4089e+02	-8.2111	-7.776373	0.000065	0.654464	0.110869	-0.000013
1418	1.4099e+02	-8.2324	-7.792259	0.000080	0.797628	0.135122	-0.000016
1419	1.4109e+02	-8.2544	-7.810590	0.000092	0.920340	0.155910	-0.000018
1420	1.4119e+02	-8.2709	-7.831772	0.000106	1.063503	0.180162	-0.000021
1421	1.4129e+02	-8.2922	-7.841955	0.000051	0.511300	0.086617	-0.000010
1422	1.4139e+02	-8.3087	-7.860286	0.000092	0.920340	0.155910	-0.000018
1423	1.4149e+02	-8.3301	-7.872098	0.000059	0.593108	0.100475	-0.000012
1424	1.4159e+02	-8.3521	-7.888800	0.000084	0.838532	0.142051	-0.000017
1425	1.4169e+02	-8.3704	-7.904279	0.000078	0.777176	0.131657	-0.000016
1426	1.4179e+02	-8.3899	-7.919350	0.000076	0.756724	0.128192	-0.000015
1427	1.4189e+02	-8.4143	-7.936051	0.000084	0.838532	0.142051	-0.000017
1428	1.4199e+02	-8.4293	-7.949086	0.000065	0.654464	0.110869	-0.000013
1429	1.4209e+02	-8.4515	-7.962529	0.000067	0.674916	0.114334	-0.000014
1430	1.4219e+02	-8.4708	-7.981266	0.000094	0.940792	0.159374	-0.000019
1431	1.4228e+02	-8.4912	-7.997560	0.000082	0.818080	0.138586	-0.000016
1432	1.4238e+02	-8.5120	-8.015890	0.000092	0.920340	0.155910	-0.000018
1433	1.4248e+02	-8.5303	-8.032591	0.000084	0.838532	0.142051	-0.000017
1434	1.4258e+02	-8.5486	-8.057439	0.000125	1.247571	0.211344	-0.000025
1435	1.4268e+02	-8.5706	-8.067216	0.000049	0.490848	0.083152	-0.000010
1436	1.4278e+02	-8.5895	-8.083102	0.000080	0.797628	0.135122	-0.000016
1437	1.4288e+02	-8.6087	-8.101025	0.000090	0.899888	0.152445	-0.000018
1438	1.4298e+02	-8.6310	-8.121392	0.000102	1.022599	0.173233	-0.000020
1439	1.4308e+02	-8.6450	-8.137686	0.000082	0.818080	0.138586	-0.000016
1440	1.4318e+02	-8.6694	-8.152350	0.000074	0.736272	0.124728	-0.000015
1441	1.4328e+02	-8.6877	-8.177605	0.000127	1.268023	0.214809	-0.000025
1442	1.4338e+02	-8.7085	-8.194714	0.000086	0.858984	0.145516	-0.000017
1443	1.4348e+02	-8.7268	-8.215081	0.000102	1.022599	0.173233	-0.000020
1444	1.4358e+02	-8.7506	-8.232597	0.000088	0.879436	0.148980	-0.000018
1445	1.4368e+02	-8.7695	-8.252964	0.000102	1.022599	0.173233	-0.000020
1446	1.4378e+02	-8.7906	-8.271702	0.000094	0.940792	0.159374	-0.000019
1447	1.4388e+02	-8.8104	-8.292476	0.000104	1.043051	0.176698	-0.000021
1448	1.4398e+02	-8.8281	-8.313250	0.000104	1.043051	0.176698	-0.000021
1449	1.4408e+02	-8.8486	-8.336876	0.000119	1.186215	0.200950	-0.000024
1450	1.4418e+02	-8.8672	-8.355614	0.000094	0.940792	0.159374	-0.000019
1451	1.4428e+02	-8.8861	-8.378425	0.000115	1.145311	0.194021	-0.000023
1452	1.4437e+02	-8.9105	-8.396756	0.000092	0.920340	0.155910	-0.000018
1453	1.4447e+02	-8.9301	-8.418345	0.000108	1.083955	0.183627	-0.000022
1454	1.4457e+02	-8.9502	-8.439934	0.000108	1.083955	0.183627	-0.000022
1455	1.4467e+02	-8.9673	-8.463560	0.000119	1.186215	0.200950	-0.000024
1456	1.4477e+02	-8.9880	-8.483927	0.000102	1.022599	0.173233	-0.000020
1457	1.4487e+02	-9.0094	-8.508775	0.000125	1.247571	0.211344	-0.000025
1458	1.4497e+02	-9.0271	-8.529142	0.000102	1.022599	0.173233	-0.000020
1459	1.4507e+02	-9.0472	-8.549916	0.000104	1.043051	0.176698	-0.000021
1460	1.4517e+02	-9.0674	-8.573135	0.000117	1.165763	0.197486	-0.000023
1461	1.4527e+02	-9.0891	-8.596354	0.000117	1.165763	0.197486	-0.000023
1462	1.4537e+02	-9.1064	-8.614277	0.000090	0.899888	0.152445	-0.000018
1463	1.4547e+02	-9.1272	-8.641976	0.000139	1.390735	0.235597	-0.000028
1464	1.4557e+02	-9.1486	-8.660306	0.000092	0.920340	0.155910	-0.000018
1465	1.4567e+02	-9.1699	-8.686784	0.000133	1.329379	0.225203	-0.000027
1466	1.4577e+02	-9.1864	-8.711631	0.000125	1.247571	0.211344	-0.000025
1467	1.4587e+02	-9.2075	-8.734035	0.000112	1.124859	0.190556	-0.000023
1468	1.4597e+02	-9.2255	-8.760105	0.000131	1.308927	0.221738	-0.000026
1469	1.4607e+02	-9.2474	-8.784138	0.000121	1.206667	0.204415	-0.000024
1470	1.4617e+02	-9.2682	-8.807357	0.000117	1.165763	0.197486	-0.000023
1471	1.4626e+02	-9.2877	-8.826095	0.000094	0.940792	0.159374	-0.000019
1472	1.4636e+02	-9.3060	-8.848906	0.000115	1.145311	0.194021	-0.000023
1473	1.4646e+02	-9.3262	-8.876605	0.000139	1.390735	0.235597	-0.000028
1474	1.4656e+02	-9.3463	-8.898194	0.000108	1.083955	0.183627	-0.000022
1475	1.4666e+02	-9.3655	-8.921006	0.000115	1.145311	0.194021	-0.000023
1476	1.4676e+02	-9.3854	-8.944631	0.000119	1.186215	0.200950	-0.000024
1477	1.4686e+02	-9.4104	-8.967443	0.000115	1.145311	0.194021	-0.000023
1478	1.4696e+02	-9.4275	-8.995549	0.000141	1.411187	0.239062	-0.000028
1479	1.4706e+02	-9.4464	-9.017953	0.000112	1.124859	0.190556	-0.000023
1480	1.4716e+02	-9.4672	-9.044838	0.000135	1.349831	0.228668	-0.000027
1481	1.4726e+02	-9.4861	-9.072537	0.000139	1.390735	0.235597	-0.000028
1482	1.4736e+02	-9.5056	-9.095348	0.000115	1.145311	0.194021	-0.000023
1483	1.4746e+02	-9.5264	-9.120196	0.000125	1.247571	0.211344	-0.000025
1484	1.4756e+02	-9.5465	-9.144637	0.000123	1.227119	0.207880	-0.000025
1485	1.4766e+02	-9.5667	-9.168262	0.000119	1.186215	0.200950	-0.000024
1486	1.4776e+02	-9.5865	-9.194740	0.000133	1.329379	0.225203	-0.000027
1487	1.4786e+02	-9.6063	-9.216736	0.000110	1.104407	0.187092	-0.000022
1488	1.4796e+02	-9.6252	-9.242399	0.000129	1.288475	0.218274	-0.000026
1489	1.4806e+02	-9.6472	-9.268061	0.000129	1.288475	0.218274	-0.000026
1490	1.4816e+02	-9.6655	-9.292909	0.000125	1.247571	0.211344	-0.000025
1491	1.4825e+02	-9.6851	-9.321016	0.000141	1.411187	0.239062	-0.000028
1492	1.4835e+02	-9.7058	-9.347493	0.000133	1.329379	0.225203	-0.000027
1493	1.4845e+02	-9.7241	-9.372748	0.000127	1.268023	0.214809	-0.000025
1494	1.4855e+02	-9.7430	-9.399633	0.000135	1.349831	0.228668	-0.000027
1495	1.4865e+02	-9.7644	-9.428147	0.000143	1.431639	0.242526	-0.000029
1496	1.4875e+02	-9.7876	-9.455439	0.000137	1.370283	0.232132	-0.000027
1497	1.4885e+02	-9.8056	-9.483546	0.000141	1.411187	0.239062	-0.000028
1498	1.4895e+02	-9.8242	-9.514911	0.000157	1.574803	0.266779	-0.000032
1499	1.4905e+02	-9.8450	-9.542610	0.000139	1.390735	0.235597	-0.000028
1500	1.4915e+02	-9.8639	-9.567051	0.000123	1.227119	0.207880	-0.000025
1501	1.4925e+02	-9.8840	-9.592713	0.000129	1.288475	0.218274	-0.000026
1502	1.4935e+02	-9.9066	-9.623671	0.000155	1.554351	0.263314	-0.000031
1503	1.4945e+02	-9.9231	-9.651778	0.000141	1.411187	0.239062	-0.000028
1504	1.4955e+02	-9.9463	-9.677848	0.000131	1.308927	0.221738	-0.000026
1505	1.4965e+02	-9.9646	-9.703103	0.000127	1.268023	0.214809	-0.000025
1506	1.4975e+02	-9.9860	-9.736505	0.000168	1.677063	0.284102	-0.000034
1507	1.4985e+02	-10.0000	-9.771537	0.000176	1.758871	0.297961	-0.000035
1508	1.4995e+02	-9.9841	-9.778462	-0.000035	-0.347684	-0.058899	-0.000007
1509	1.5005e+02	-9.9603	-9.792719	-0.000072	-0.715820	-0.121263	-0.000014
1510	1.5015e+02	-9.9463	-9.801680	-0.000045	-0.449944	-0.076223	-0.000009
1511	1.5025e+02	-9.9249	-9.812271	-0.000053	-0.531752	-0.090081	-0.000011
1512	1.5034e+02	-9.9042	-9.817567	-0.000027	-0.265876	-0.045041	-0.000005
1513	1.5044e+02	-9.8840	-9.823269	-0.000029	-0.286328	-0.048505	-0.000006
1514	1.5054e+02	-9.8645	-9.830601	-0.000037	-0.368136	-0.062364	-0.000007
1515	1.5064e+02	-9.8460	-9.836304	-0.000029	-0.286328	-0.048505	-0.000006
1516	1.5074e+02	-9.8236	-9.842414	-0.000031	-0.306780	-0.051970	-0.000006
1517	1.5084e+02	-9.8035	-9.847303	-0.000025	-0.245424	-0.041576	-0.000005
1518	1.5094e+02	-9.7827	-9.847710	-0.000002	-0.020452	-0.003465	-0.000000
1519	1.5104e+02	-9.7644	-9.855449	-0.000039	-0.388588	-0.065829	-0.000008
1520	1.5114e+02	-9.7421	-9.861967	-0.000033	-0.327232	-0.055435	-0.000007
1521	1.5124e+02	-9.7253	-9.864818	-0.000014	-0.143164	-0.024253	-0.000003
1522	1.5134e+02	-9.7058	-9.870114	-0.000027	-0.265876	-0.045041	-0.000005
1523	1.5144e+02	-9.6848	-9.868892	0.000006	0.061356	0.010394	0.000001
1524	1.5154e+02	-9.6643	-9.872965	-0.000020	-0.204520	-0.034647	-0.000004
1525	1.5164e+02	-9.6478	-9.878668	-0.000029	-0.286328	-0.048505	-0.000006
1526	1.5174e+02	-9.6240	-9.879890	-0.000006	-0.061356	-0.010394	-0.000001
1527	1.5184e+02	-9.6063	-9.881112	-0.000006	-0.061356	-0.010394	-0.000001
1528	1.5194e+02	-9.5856	-9.878668	0.000012	0.122712	0.020788	0.000002
1529	1.5204e+02	-9.5642	-9.880297	-0.000008	-0.081808	-0.013859	-0.000002
1530	1.5214e+02	-9.5453	-9.880297	0.000000	0.000000	0.000000	0.000000
1531	1.5224e+02	-9.5270	-9.878261	0.000010	0.102260	0.017323	0.000002
1532	1.5233e+02	-9.5050	-9.879075	-0.000004	-0.040904	-0.006929	-0.000001
1533	1.5243e+02	-9.4849	-9.876631	0.000012	0.122712	0.020788	0.000002
1534	1.5253e+02	-9.4635	-9.876224	0.000002	0.020452	0.003465	0.000000
1535	1.5263e+02	-9.4495	-9.871336	0.000025	0.245424	0.041576	0.000005
1536	1.5273e+02	-9.4269	-9.871336	0.000000	0.000000	0.000000	0.000000
1537	1.5283e+02	-9.4064	-9.867670	0.000018	0.184068	0.031182	0.000004
1538	1.5293e+02	-9.3878	-9.864411	0.000016	0.163616	0.027717	0.000003
1539	1.5303e+02	-9.3665	-9.861967	0.000012	0.122712	0.020788	0.000002
1540	1.5313e+02	-9.3466	-9.861560	0.000002	0.020452	0.003465	0.000000
1541	1.5323e+02	-9.3262	-9.860337	0.000006	0.061356	0.010394	0.000001
1542	1.5333e+02	-9.3085	-9.851376	0.000045	0.449944	0.076223	0.000009
1543	1.5343e+02	-9.2853	-9.853820	-0.000012	-0.122712	-0.020788	-0.000002
1544	1.5353e+02	-9.2651	-9.844858	0.000045	0.449944	0.076223	0.000009
1545	1.5363e+02	-9.2474	-9.842007	0.000014	0.143164	0.024253	0.000003
1546	1.5373e+02	-9.2273	-9.839563	0.000012	0.122712	0.020788	0.000002
1547	1.5383e+02	-9.2078	-9.831009	0.000043	0.429492	0.072758	0.000009
1548	1.5393e+02	-9.1852	-9.828565	0.000012	0.122712	0.020788	0.000002
1549	1.5403e+02	-9.1660	-9.824491	0.000020	0.204520	0.034647	0.000004
1550	1.5413e+02	-9.1467	-9.819196	0.000027	0.265876	0.045041	0.000005
1551	1.5422e+02	-9.1306	-9.816344	0.000014	0.143164	0.024253	0.000003
1552	1.5432e+02	-9.1083	-9.807790	0.000043	0.429492	0.072758	0.000009
1553	1.5442e+02	-9.0845	-9.803717	0.000020	0.204520	0.034647	0.000004
1554	1.5452e+02	-9.0680	-9.795977	0.000039	0.388588	0.065829	0.000008
1555	1.5462e+02	-9.0488	-9.793126	0.000014	0.143164	0.024253	0.000003
1556	1.5472e+02	-9.0295	-9.787423	0.000029	0.286328	0.048505	0.000006
1557	1.5482e+02	-9.0082	-9.779684	0.000039	0.388588	0.065829	0.000008
1558	1.5492e+02	-8.9877	-9.772351	0.000037	0.368136	0.062364	0.000007
1559	1.5502e+02	-8.9667	-9.766241	0.000031	0.306780	0.051970	0.000006
1560	1.5512e+02	-8.9478	-9.761353	0.000025	0.245424	0.041576	0.000005
1561	1.5522e+02	-8.9301	-9.755650	0.000029	0.286328	0.048505	0.000006
1562	1.5532e+02	-8.9084	-9.747504	0.000041	0.409040	0.069293	0.000008
1563	1.5542e+02	-8.8855	-9.740579	0.000035	0.347684	0.058899	0.000007
1564	1.5552e+02	-8.8690	-9.730803	0.000049	0.490848	0.083152	0.000010
1565	1.5562e+02	-8.8489	-9.729988	0.000004	0.040904	0.006929	0.000001
1566	1.5572e+02	-8.8275	-9.718582	0.000057	0.572656	0.097011	0.000011
1567	1.5582e+02	-8.8065	-9.711657	0.000035	0.347684	0.058899	0.000007
1568	1.5592e+02	-8.7885	-9.701067	0.000053	0.531752	0.090081	0.000011
1569	1.5602e+02	-8.7683	-9.693734	0.000037	0.368136	0.062364	0.000007
1570	1.5612e+02	-8.7482	-9.686402	0.000037	0.368136	0.062364	0.000007
1571	1.5622e+02	-8.7305	-9.684773	0.000008	0.081808	0.013859	0.000002
1572	1.5631e+02	-8.7054	-9.672553	0.000061	0.613560	0.103940	0.000012
1573	1.5641e+02	-8.6890	-9.665220	0.000037	0.368136	0.062364	0.000007
1574	1.5651e+02	-8.6685	-9.657481	0.000039	0.388588	0.065829	0.000008
1575	1.5661e+02	-8.6481	-9.647705	0.000049	0.490848	0.083152	0.000010
1576	1.5671e+02	-8.6285	-9.637114	0.000053	0.531752	0.090081	0.000011
1577	1.5681e+02	-8.6084	-9.629374	0.000039	0.388588	0.065829	0.000008
1578	1.5691e+02	-8.5889	-9.617154	0.000061	0.613560	0.103940	0.000012
1579	1.5701e+02	-8.5699	-9.606156	0.000055	0.552204	0.093546	0.000011
1580	1.5711e+02	-8.5501	-9.597602	0.000043	0.429492	0.072758	0.000009
1581	1.5721e+02	-8.5309	-9.587011	0.000053	0.531752	0.090081	0.000011
1582	1.5731e+02	-8.5095	-9.576012	0.000055	0.552204	0.093546	0.000011
1583	1.5741e+02	-8.4912	-9.567051	0.000045	0.449944	0.076223	0.000009
1584	1.5751e+02	-8.4674	-9.556053	0.000055	0.552204	0.093546	0.000011
1585	1.5761e+02	-8.4479	-9.542610	0.000067	0.674916	0.114334	0.000014
1586	1.5771e+02	-8.4274	-9.537315	0.000027	0.265876	0.045041	0.000005
1587	1.5781e+02	-8.4076	-9.527539	0.000049	0.490848	0.083152	0.000010
1588	1.5791e+02	-8.3902	-9.514911	0.000063	0.634012	0.107404	0.000013
1589	1.5801e+02	-8.3691	-9.506357	0.000043	0.429492	0.072758	0.000009
1590	1.5811e+02	-8.3514	-9.487212	0.000096	0.961244	0.162839	0.000019
1591	1.5821e+02	-8.3310	-9.477435	0.000049	0.490848	0.083152	0.000010
1592	1.5830e+02	-8.3118	-9.468881	0.000043	0.429492	0.072758	0.000009
1593	1.5840e+02	-8.2904	-9.452588	0.000082	0.818080	0.138586	0.000016
1594	1.5850e+02	-8.2709	-9.440775	0.000059	0.593108	0.100475	0.000012
1595	1.5860e+02	-8.2513	-9.424074	0.000084	0.838532	0.142051	0.000017
1596	1.5870e+02	-8.2306	-9.410631	0.000067	0.674916	0.114334	0.000014
1597	1.5880e+02	-8.2104	-9.399226	0.000057	0.572656	0.097011	0.000011
1598	1.5890e+02	-8.1909	-9.388635	0.000053	0.531752	0.090081	0.000011
1599	1.5900e+02	-8.1696	-9.379266	0.000047	0.470396	0.079687	0.000009
1600	1.5910e+02	-8.1509	-9.372748	0.000033	0.327232	0.055435	0.000007
1601	1.5920e+02	-8.1308	-9.360528	0.000061	0.613560	0.103940	0.000012
1602	1.5930e+02	-8.1113	-9.343420	0.000086	0.858984	0.145516	0.000017
1603	1.5940e+02	-8.0908	-9.334866	0.000043	0.429492	0.072758	0.000009
1604	1.5950e+02	-8.0731	-9.323053	0.000059	0.593108	0.100475	0.000012
1605	1.5960e+02	-8.0511	-9.310018	0.000065	0.654464	0.110869	0.000013
1606	1.5970e+02	-8.0341	-9.298612	0.000057	0.572656	0.097011	0.000011
1607	1.5980e+02	-8.0121	-9.289243	0.000047	0.470396	0.079687	0.000009
1608	1.5990e+02	-7.9919	-9.278245	0.000055	0.552204	0.093546	0.000011
1609	1.6000e+02	-7.9724	-9.264803	0.000067	0.674916	0.114334	0.000014
1610	1.6010e+02	-7.9501	-9.256656	0.000041	0.409040	0.069293	0.000008
1611	1.6019e+02	-7.9315	-9.246065	0.000053	0.531752	0.090081	0.000011
1612	1.6029e+02	-7.9138	-9.234659	0.000057	0.572656	0.097011	0.000011
1613	1.6039e+02	-7.8925	-9.227734	0.000035	0.347684	0.058899	0.000007
1614	1.6049e+02	-7.8705	-9.215922	0.000059	0.593108	0.100475	0.000012
1615	1.6059e+02	-7.8516	-9.206960	0.000045	0.449944	0.076223	0.000009
1616	1.6069e+02	-7.8314	-9.198406	0.000043	0.429492	0.072758	0.000009
1617	1.6079e+02	-7.8137	-9.187408	0.000055	0.552204	0.093546	0.000011
1618	1.6089e+02	-7.7924	-9.177631	0.000049	0.490848	0.083152	0.000010
1619	1.6099e+02	-7.7737	-9.172336	0.000027	0.265876	0.045041	0.000005
1620	1.6109e+02	-7.7539	-9.161745	0.000053	0.531752	0.090081	0.000011
1621	1.6119e+02	-7.7338	-9.151561	0.000051	0.511300	0.086617	0.000010
1622	1.6129e+02	-7.7142	-9.143822	0.000039	0.388588	0.065829	0.000008
1623	1.6139e+02	-7.6941	-9.136490	0.000037	0.368136	0.062364	0.000007
1624	1.6149e+02	-7.6727	-9.129972	0.000033	0.327232	0.055435	0.000007
1625	1.6159e+02	-7.6544	-9.118974	0.000055	0.552204	0.093546	0.000011
1626	1.6169e+02	-7.6337	-9.108383	0.000053	0.531752	0.090081	0.000011
1627	1.6179e+02	-7.6126	-9.098607	0.000049	0.490848	0.083152	0.000010
1628	1.6189e+02	-7.5916	-9.090460	0.000041	0.409040	0.069293	0.000008
1629	1.6199e+02	-7.5737	-9.083128	0.000037	0.368136	0.062364	0.000007
1630	1.6209e+02	-7.5522	-9.072537	0.000053	0.531752	0.090081	0.000011
1631	1.6219e+02	-7.5336	-9.064797	0.000039	0.388588	0.065829	0.000008
1632	1.6228e+02	-7.5116	-9.057058	0.000039	0.388588	0.065829	0.000008
1633	1.6238e+02	-7.4939	-9.046874	0.000051	0.511300	0.086617	0.000010
1634	1.6248e+02	-7.4744	-9.040764	0.000031	0.306780	0.051970	0.000006
1635	1.6258e+02	-7.4554	-9.032210	0.000043	0.429492	0.072758	0.000009
1636	1.6268e+02	-7.4393	-9.021212	0.000055	0.552204	0.093546	0.000011
1637	1.6278e+02	-7.4146	-9.015102	0.000031	0.306780	0.051970	0.000006
1638	1.6288e+02	-7.3938	-9.002067	0.000065	0.654464	0.110869	0.000013
1639	1.6298e+02	-7.3737	-8.997179	0.000025	0.245424	0.041576	0.000005
1640	1.6308e+02	-7.3553	-8.982514	0.000074	0.736272	0.124728	0.000015
1641	1.6318e+02	-7.3364	-8.976404	0.000031	0.306780	0.051970	0.000006
1642	1.6328e+02	-7.3145	-8.967035	0.000047	0.470396	0.079687	0.000009
1643	1.6338e+02	-7.2960	-8.960518	0.000033	0.327232	0.055435	0.000007
1644	1.6348e+02	-7.2760	-8.953593	0.000035	0.347684	0.058899	0.000007
1645	1.6358e+02	-7.2540	-8.942595	0.000055	0.552204	0.093546	0.000011
1646	1.6368e+02	-7.2333	-8.935670	0.000035	0.347684	0.058899	0.000007
1647	1.6378e+02	-7.2150	-8.927116	0.000043	0.429492	0.072758	0.000009
1648	1.6388e+02	-7.1948	-8.921413	0.000029	0.286328	0.048505	0.000006
1649	1.6398e+02	-7.1747	-8.912451	0.000045	0.449944	0.076223	0.000009
1650	1.6408e+02	-7.1558	-8.903490	0.000045	0.449944	0.076223	0.000009
1651	1.6418e+02	-7.1317	-8.888418	0.000076	0.756724	0.128192	0.000015
1652	1.6427e+02	-7.1130	-8.884345	0.000020	0.204520	0.034647	0.000004
1653	1.6437e+02	-7.0953	-8.875791	0.000043	0.429492	0.072758	0.000009
1654	1.6447e+02	-7.0764	-8.864385	0.000057	0.572656	0.097011	0.000011
1655	1.6457e+02	-7.0557	-8.852979	0.000057	0.572656	0.097011	0.000011
1656	1.6467e+02	-7.0370	-8.845647	0.000037	0.368136	0.062364	0.000007
1657	1.6477e+02	-7.0142	-8.834649	0.000055	0.552204	0.093546	0.000011
1658	1.6487e+02	-6.9937	-8.826095	0.000043	0.429492	0.072758	0.000009
1659	1.6497e+02	-6.9757	-8.818355	0.000039	0.388588	0.065829	0.000008
1660	1.6507e+02	-6.9568	-8.808986	0.000047	0.470396	0.079687	0.000009
1661	1.6517e+02	-6.9365	-8.803691	0.000027	0.265876	0.045041	0.000005
1662	1.6527e+02	-6.9189	-8.794729	0.000045	0.449944	0.076223	0.000009
1663	1.6537e+02	-6.8961	-8.789841	0.000025	0.245424	0.041576	0.000005
1664	1.6547e+02	-6.8777	-8.780472	0.000047	0.470396	0.079687	0.000009
1665	1.6557e+02	-6.8585	-8.772326	0.000041	0.409040	0.069293	0.000008
1666	1.6567e+02	-6.8372	-8.770289	0.000010	0.102260	0.017323	0.000002
1667	1.6577e+02	-6.8144	-8.762957	0.000037	0.368136	0.062364	0.000007
1668	1.6587e+02	-6.7963	-8.751144	0.000059	0.593108	0.100475	0.000012
1669	1.6597e+02	-6.7761	-8.741775	0.000047	0.470396	0.079687	0.000009
1670	1.6607e+02	-6.7566	-8.731999	0.000049	0.490848	0.083152	0.000010
1671	1.6616e+02	-6.7377	-8.724259	0.000039	0.388588	0.065829	0.000008
1672	1.6626e+02	-6.7163	-8.717334	0.000035	0.347684	0.058899	0.000007
1673	1.6636e+02	-6.6965	-8.707151	0.000051	0.511300	0.086617	0.000010
1674	1.6646e+02	-6.6791	-8.705929	0.000006	0.061356	0.010394	0.000001
1675	1.6656e+02	-6.6568	-8.698597	0.000037	0.368136	0.062364	0.000007
1676	1.6666e+02	-6.6373	-8.693708	0.000025	0.245424	0.041576	0.000005
1677	1.6676e+02	-6.6187	-8.685562	0.000041	0.409040	0.069293	0.000008
1678	1.6686e+02	-6.5979	-8.682710	0.000014	0.143164	0.024253	0.000003
1679	1.6696e+02	-6.5796	-8.671305	0.000057	0.572656	0.097011	0.000011
1680	1.6706e+02	-6.5575	-8.665194	0.000031	0.306780	0.051970	0.000006
1681	1.6716e+02	-6.5399	-8.657862	0.000037	0.368136	0.062364	0.000007
1682	1.6726e+02	-6.5167	-8.648901	0.000045	0.449944	0.076223	0.000009
1683	1.6736e+02	-6.4948	-8.641161	0.000039	0.388588	0.065829	0.000008
1684	1.6746e+02	-6.4777	-8.632607	0.000043	0.429492	0.072758	0.000009
1685	1.6756e+02	-6.4575	-8.623238	0.000047	0.470396	0.079687	0.000009
1686	1.6766e+02	-6.4343	-8.608574	0.000074	0.736272	0.124728	0.000015
1687	1.6776e+02	-6.4197	-8.606944	0.000008	0.081808	0.013859	0.000002
1688	1.6786e+02	-6.3934	-8.594724	0.000061	0.613560	0.103940	0.000012
1689	1.6796e+02	-6.3782	-8.586170	0.000043	0.429492	0.072758	0.000009
1690	1.6806e+02	-6.3559	-8.580467	0.000029	0.286328	0.048505	0.000006
1691	1.6816e+02	-6.3385	-8.571098	0.000047	0.470396	0.079687	0.000009
1692	1.6825e+02	-6.3181	-8.561729	0.000047	0.470396	0.079687	0.000009
1693	1.6835e+02	-6.2964	-8.548694	0.000065	0.654464	0.110869	0.000013
1694	1.6845e+02	-6.2772	-8.539326	0.000047	0.470396	0.079687	0.000009
1695	1.6855e+02	-6.2592	-8.527105	0.000061	0.613560	0.103940	0.000012
1696	1.6865e+02	-6.2390	-8.515700	0.000057	0.572656	0.097011	0.000011
1697	1.6875e+02	-6.2180	-8.500628	0.000076	0.756724	0.128192	0.000015
1698	1.6885e+02	-6.2006	-8.487593	0.000065	0.654464	0.110869	0.000013
1699	1.6895e+02	-6.1784	-8.478224	0.000047	0.470396	0.079687	0.000009
1700	1.6905e+02	-6.1554	-8.462338	0.000080	0.797628	0.135122	0.000016
1701	1.6915e+02	-6.1377	-8.457042	0.000027	0.265876	0.045041	0.000005
1702	1.6925e+02	-6.1181	-8.440341	0.000084	0.838532	0.142051	0.000017
1703	1.6935e+02	-6.0968	-8.428121	0.000061	0.613560	0.103940	0.000012
1704	1.6945e+02	-6.0794	-8.412235	0.000080	0.797628	0.135122	0.000016
1705	1.6955e+02	-6.0596	-8.406532	0.000029	0.286328	0.048505	0.000006
1706	1.6965e+02	-6.0413	-8.389424	0.000086	0.858984	0.145516	0.000017
1707	1.6975e+02	-6.0193	-8.372722	0.000084	0.838532	0.142051	0.000017
1708	1.6985e+02	-5.9991	-8.365798	0.000035	0.347684	0.058899	0.000007
1709	1.6995e+02	-5.9778	-8.351133	0.000074	0.736272	0.124728	0.000015
1710	1.7005e+02	-5.9592	-8.340135	0.000055	0.552204	0.093546	0.000011
1711	1.7015e+02	-5.9418	-8.323027	0.000086	0.858984	0.145516	0.000017
1712	1.7024e+02	-5.9186	-8.312028	0.000055	0.552204	0.093546	0.000011
1713	1.7034e+02	-5.8966	-8.296957	0.000076	0.756724	0.128192	0.000015
1714	1.7044e+02	-5.8795	-8.282292	0.000074	0.736272	0.124728	0.000015
1715	1.7054e+02	-5.8603	-8.267221	0.000076	0.756724	0.128192	0.000015
1716	1.7064e+02	-5.8405	-8.257445	0.000049	0.490848	0.083152	0.000010
1717	1.7074e+02	-5.8206	-8.239929	0.000088	0.879436	0.148980	0.000018
1718	1.7084e+02	-5.7996	-8.223228	0.000084	0.838532	0.142051	0.000017
1719	1.7094e+02	-5.7799	-8.208563	0.000074	0.736272	0.124728	0.000015
1720	1.7104e+02	-5.7593	-8.194714	0.000070	0.695368	0.117798	0.000014
1721	1.7114e+02	-5.7428	-8.180457	0.000072	0.715820	0.121263	0.000014
1722	1.7124e+02	-5.7199	-8.167422	0.000065	0.654464	0.110869	0.000013
1723	1.7134e+02	-5.6970	-8.149499	0.000090	0.899888	0.152445	0.000018
1724	1.7144e+02	-5.6805	-8.135242	0.000072	0.715820	0.121263	0.000014
1725	1.7154e+02	-5.6598	-8.120985	0.000072	0.715820	0.121263	0.000014
1726	1.7164e+02	-5.6427	-8.105506	0.000078	0.777176	0.131657	0.000016
1727	1.7174e+02	-5.6192	-8.091656	0.000070	0.695368	0.117798	0.000014
1728	1.7184e+02	-5.6012	-8.074955	0.000084	0.838532	0.142051	0.000017
1729	1.7194e+02	-5.5804	-8.059476	0.000078	0.777176	0.131657	0.000016
1730	1.7204e+02	-5.5612	-8.043590	0.000080	0.797628	0.135122	0.000016
1731	1.7213e+02	-5.5449	-8.026074	0.000088	0.879436	0.148980	0.000018
1732	1.7223e+02	-5.5219	-8.010595	0.000078	0.777176	0.131657	0.000016
1733	1.7233e+02	-5.4996	-8.000004	0.000053	0.531752	0.090081	0.000011
1734	1.7243e+02	-5.4813	-7.978415	0.000108	1.083955	0.183627	0.000022
1735	1.7253e+02	-5.4623	-7.962529	0.000080	0.797628	0.135122	0.000016
1736	1.7263e+02	-5.4405	-7.948679	0.000070	0.695368	0.117798	0.000014
1737	1.7273e+02	-5.4230	-7.935237	0.000067	0.674916	0.114334	0.000014
1738	1.7283e+02	-5.4019	-7.919350	0.000080	0.797628	0.135122	0.000016
1739	1.7293e+02	-5.3796	-7.901834	0.000088	0.879436	0.148980	0.000018
1740	1.7303e+02	-5.3619	-7.887577	0.000072	0.715820	0.121263	0.000014
1741	1.7313e+02	-5.3442	-7.870469	0.000086	0.858984	0.145516	0.000017
1742	1.7323e+02	-5.3220	-7.853361	0.000086	0.858984	0.145516	0.000017
1743	1.7333e+02	-5.2966	-7.841955	0.000057	0.572656	0.097011	0.000011
1744	1.7343e+02	-5.2832	-7.821588	0.000102	1.022599	0.173233	0.000020
1745	1.7353e+02	-5.2618	-7.802036	0.000098	0.981696	0.166304	0.000020
1746	1.7363e+02	-5.2423	-7.788186	0.000070	0.695368	0.117798	0.000014
1747	1.7373e+02	-5.2222	-7.766189	0.000110	1.104407	0.187092	0.000022
1748	1.7383e+02	-5.2014	-7.751932	0.000072	0.715820	0.121263	0.000014
1749	1.7393e+02	-5.1843	-7.729936	0.000110	1.104407	0.187092	0.000022
1750	1.7403e+02	-5.1620	-7.716086	0.000070	0.695368	0.117798	0.000014
1751	1.7413e+02	-5.1440	-7.694090	0.000110	1.104407	0.187092	0.000022
1752	1.7422e+02	-5.1231	-7.679833	0.000072	0.715820	0.121263	0.000014
1753	1.7432e+02	-5.1025	-7.660688	0.000096	0.961244	0.162839	0.000019
1754	1.7442e+02	-5.0829	-7.646838	0.000070	0.695368	0.117798	0.000014
1755	1.7452e+02	-5.0626	-7.626471	0.000102	1.022599	0.173233	0.000020
1756	1.7462e+02	-5.0415	-7.607733	0.000094	0.940792	0.159374	0.000019
1757	1.7472e+02	-5.0232	-7.592254	0.000078	0.777176	0.131657	0.000016
1758	1.7482e+02	-5.0012	-7.569443	0.000115	1.145311	0.194021	0.000023
1759	1.7492e+02	-4.9829	-7.551927	0.000088	0.879436	0.148980	0.000018
1760	1.7502e+02	-4.9585	-7.529523	0.000112	1.124859	0.190556	0.000023
1761	1.7512e+02	-4.9399	-7.508342	0.000106	1.063503	0.180162	0.000021
1762	1.7522e+02	-4.9194	-7.489196	0.000096	0.961244	0.162839	0.000019
1763	1.7532e+02	-4.9033	-7.465571	0.000119	1.186215	0.200950	0.000024
1764	1.7542e+02	-4.8822	-7.450499	0.000076	0.756724	0.128192	0.000015
1765	1.7552e+02	-4.8642	-7.427688	0.000115	1.145311	0.194021	0.000023
1766	1.7562e+02	-4.8428	-7.411394	0.000082	0.818080	0.138586	0.000016
1767	1.7572e+02	-4.8242	-7.394286	0.000086	0.858984	0.145516	0.000017
1768	1.7582e+02	-4.8022	-7.375955	0.000092	0.920340	0.155910	0.000018
1769	1.7592e+02	-4.7839	-7.358032	0.000090	0.899888	0.152445	0.000018
1770	1.7602e+02	-4.7650	-7.342553	0.000078	0.777176	0.131657	0.000016
1771	1.7612e+02	-4.7424	-7.323815	0.000094	0.940792	0.159374	0.000019
1772	1.7621e+02	-4.7235	-7.305892	0.000090	0.899888	0.152445	0.000018
1773	1.7631e+02	-4.7040	-7.285525	0.000102	1.022599	0.173233	0.000020
1774	1.7641e+02	-4.6841	-7.265158	0.000102	1.022599	0.173233	0.000020
1775	1.7651e+02	-4.6643	-7.244791	0.000102	1.022599	0.173233	0.000020
1776	1.7661e+02	-4.6429	-7.229719	0.000076	0.756724	0.128192	0.000015
1777	1.7671e+02	-4.6240	-7.213833	0.000080	0.797628	0.135122	0.000016
1778	1.7681e+02	-4.6045	-7.197132	0.000084	0.838532	0.142051	0.000017
1779	1.7691e+02	-4.5844	-7.182875	0.000072	0.715820	0.121263	0.000014
1780	1.7701e+02	-4.5653	-7.166989	0.000080	0.797628	0.135122	0.000016
1781	1.7711e+02	-4.5446	-7.147843	0.000096	0.961244	0.162839	0.000019
1782	1.7721e+02	-4.5251	-7.132772	0.000076	0.756724	0.128192	0.000015
1783	1.7731e+02	-4.5029	-7.114441	0.000092	0.920340	0.155910	0.000018
1784	1.7741e+02	-4.4864	-7.098555	0.000080	0.797628	0.135122	0.000016
1785	1.7751e+02	-4.4670	-7.083891	0.000074	0.736272	0.124728	0.000015
1786	1.7761e+02	-4.4485	-7.065153	0.000094	0.940792	0.159374	0.000019
1787	1.7771e+02	-4.4235	-7.052933	0.000061	0.613560	0.103940	0.000012
1788	1.7781e+02	-4.4037	-7.038676	0.000072	0.715820	0.121263	0.000014
1789	1.7791e+02	-4.3848	-7.022789	0.000080	0.797628	0.135122	0.000016
1790	1.7801e+02	-4.3652	-7.006088	0.000084	0.838532	0.142051	0.000017
1791	1.7810e+02	-4.3445	-6.989795	0.000082	0.818080	0.138586	0.000016
1792	1.7820e+02	-4.3268	-6.977167	0.000063	0.634012	0.107404	0.000013
1793	1.7830e+02	-4.3050	-6.962095	0.000076	0.756724	0.128192	0.000015
1794	1.7840e+02	-4.2868	-6.941321	0.000104	1.043051	0.176698	0.000021
1795	1.7850e+02	-4.2651	-6.929100	0.000061	0.613560	0.103940	0.000012
1796	1.7860e+02	-4.2492	-6.911585	0.000088	0.879436	0.148980	0.000018
1797	1.7870e+02	-4.2261	-6.901401	0.000051	0.511300	0.086617	0.000010
1798	1.7880e+02	-4.2072	-6.884700	0.000084	0.838532	0.142051	0.000017
1799	1.7890e+02	-4.1850	-6.870036	0.000074	0.736272	0.124728	0.000015
1800	1.7900e+02	-4.1653	-6.852113	0.000090	0.899888	0.152445	0.000018
1801	1.7910e+02	-4.1483	-6.844373	0.000039	0.388588	0.065829	0.000008
1802	1.7920e+02	-4.1281	-6.823599	0.000104	1.043051	0.176698	0.000021
1803	1.7930e+02	-4.1104	-6.810564	0.000065	0.654464	0.110869	0.000013
1804	1.7940e+02	-4.0866	-6.795085	0.000078	0.777176	0.131657	0.000016
1805	1.7950e+02	-4.0674	-6.779606	0.000078	0.777176	0.131657	0.000016
1806	1.7960e+02	-4.0447	-6.763719	0.000080	0.797628	0.135122	0.000016
1807	1.7970e+02	-4.0268	-6.751499	0.000061	0.613560	0.103940	0.000012
1808	1.7980e+02	-4.0063	-6.733983	0.000088	0.879436	0.148980	0.000018
1809	1.7990e+02	-3.9865	-6.713616	0.000102	1.022599	0.173233	0.000020
1810	1.8000e+02	-3.9694	-6.703433	0.000051	0.511300	0.086617	0.000010
1811	1.8009e+02	-3.9471	-6.688768	0.000074	0.736272	0.124728	0.000015
1812	1.8019e+02	-3.9243	-6.668401	0.000102	1.022599	0.173233	0.000020
1813	1.8029e+02	-3.9069	-6.658625	0.000049	0.490848	0.083152	0.000010
1814	1.8039e+02	-3.8843	-6.642739	0.000080	0.797628	0.135122	0.000016
1815	1.8049e+02	-3.8654	-6.632148	0.000053	0.531752	0.090081	0.000011
1816	1.8059e+02	-3.8483	-6.613410	0.000094	0.940792	0.159374	0.000019
1817	1.8069e+02	-3.8260	-6.601190	0.000061	0.613560	0.103940	0.000012
1818	1.8079e+02	-3.8068	-6.586933	0.000072	0.715820	0.121263	0.000014
1819	1.8089e+02	-3.7875	-6.569010	0.000090	0.899888	0.152445	0.000018
1820	1.8099e+02	-3.7667	-6.559641	0.000047	0.470396	0.079687	0.000009
1821	1.8109e+02	-3.7465	-6.540496	0.000096	0.961244	0.162839	0.000019
1822	1.8119e+02	-3.7274	-6.526646	0.000070	0.695368	0.117798	0.000014
1823	1.8129e+02	-3.7073	-6.507094	0.000098	0.981696	0.166304	0.000020
1824	1.8139e+02	-3.6884	-6.492837	0.000072	0.715820	0.121263	0.000014
1825	1.8149e+02	-3.6685	-6.480209	0.000063	0.634012	0.107404	0.000013
1826	1.8159e+02	-3.6479	-6.463508	0.000084	0.838532	0.142051	0.000017
1827	1.8169e+02	-3.6301	-6.449658	0.000070	0.695368	0.117798	0.000014
1828	1.8179e+02	-3.6087	-6.434994	0.000074	0.736272	0.124728	0.000015
1829	1.8189e+02	-3.5892	-6.419515	0.000078	0.777176	0.131657	0.000016
1830	1.8199e+02	-3.5681	-6.404036	0.000078	0.777176	0.131657	0.000016
1831	1.8209e+02	-3.5461	-6.394260	0.000049	0.490848	0.083152	0.000010
1832	1.8218e+02	-3.5284	-6.381225	0.000065	0.654464	0.110869	0.000013
1833	1.8228e+02	-3.5077	-6.363709	0.000088	0.879436	0.148980	0.000018
1834	1.8238e+02	-3.4903	-6.352711	0.000055	0.552204	0.093546	0.000011
1835	1.8248e+02	-3.4666	-6.338454	0.000072	0.715820	0.121263	0.000014
1836	1.8258e+02	-3.4473	-6.320938	0.000088	0.879436	0.148980	0.000018
1837	1.8268e+02	-3.4283	-6.311569	0.000047	0.470396	0.079687	0.000009
1838	1.8278e+02	-3.4085	-6.292017	0.000098	0.981696	0.166304	0.000020
1839	1.8288e+02	-3.3878	-6.277352	0.000074	0.736272	0.124728	0.000015
1840	1.8298e+02	-3.3691	-6.265539	0.000059	0.593108	0.100475	0.000012
1841	1.8308e+02	-3.3527	-6.250875	0.000074	0.736272	0.124728	0.000015
1842	1.8318e+02	-3.3290	-6.237433	0.000067	0.674916	0.114334	0.000014
1843	1.8328e+02	-3.3080	-6.230101	0.000037	0.368136	0.062364	0.000007
1844	1.8338e+02	-3.2849	-6.212992	0.000086	0.858984	0.145516	0.000017
1845	1.8348e+02	-3.2687	-6.202401	0.000053	0.531752	0.090081	0.000011
1846	1.8358e+02	-3.2489	-6.188144	0.000072	0.715820	0.121263	0.000014
1847	1.8368e+02	-3.2303	-6.177961	0.000051	0.511300	0.086617	0.000010
1848	1.8378e+02	-3.2101	-6.161667	0.000082	0.818080	0.138586	0.000016
1849	1.8388e+02	-3.1912	-6.146188	0.000078	0.777176	0.131657	0.000016
1850	1.8398e+02	-3.1691	-6.135597	0.000053	0.531752	0.090081	0.000011
1851	1.8407e+02	-3.1508	-6.115230	0.000102	1.022599	0.173233	0.000020
1852	1.8417e+02	-3.1289	-6.099751	0.000078	0.777176	0.131657	0.000016
1853	1.8427e+02	-3.1104	-6.082235	0.000088	0.879436	0.148980	0.000018
1854	1.8437e+02	-3.0876	-6.070830	0.000057	0.572656	0.097011	0.000011
1855	1.8447e+02	-3.0699	-6.055351	0.000078	0.777176	0.131657	0.000016
1856	1.8457e+02	-3.0493	-6.041501	0.000070	0.695368	0.117798	0.000014
1857	1.8467e+02	-3.0304	-6.027244	0.000072	0.715820	0.121263	0.000014
1858	1.8477e+02	-3.0109	-6.008914	0.000092	0.920340	0.155910	0.000018
1859	1.8487e+02	-2.9901	-5.989361	0.000098	0.981696	0.166304	0.000020
1860	1.8497e+02	-2.9698	-5.975512	0.000070	0.695368	0.117798	0.000014
1861	1.8507e+02	-2.9510	-5.957996	0.000088	0.879436	0.148980	0.000018
1862	1.8517e+02	-2.9320	-5.942517	0.000078	0.777176	0.131657	0.000016
1863	1.8527e+02	-2.9092	-5.924594	0.000090	0.899888	0.152445	0.000018
1864	1.8537e+02	-2.8917	-5.904227	0.000102	1.022599	0.173233	0.000020
1865	1.8547e+02	-2.8705	-5.887526	0.000084	0.838532	0.142051	0.000017
1866	1.8557e+02	-2.8500	-5.865529	0.000110	1.104407	0.187092	0.000022
1867	1.8567e+02	-2.8299	-5.846384	0.000096	0.961244	0.162839	0.000019
1868	1.8577e+02	-2.8116	-5.832127	0.000072	0.715820	0.121263	0.000014
1869	1.8587e+02	-2.7917	-5.809316	0.000115	1.145311	0.194021	0.000023
1870	1.8597e+02	-2.7707	-5.788949	0.000102	1.022599	0.173233	0.000020
1871	1.8606e+02	-2.7518	-5.771433	0.000088	0.879436	0.148980	0.000018
1872	1.8616e+02	-2.7286	-5.748622	0.000115	1.145311	0.194021	0.000023
1873	1.8626e+02	-2.7113	-5.731921	0.000084	0.838532	0.142051	0.000017
1874	1.8636e+02	-2.6891	-5.711146	0.000104	1.043051	0.176698	0.000021
1875	1.8646e+02	-2.6715	-5.694445	0.000084	0.838532	0.142051	0.000017
1876	1.8656e+02	-2.6508	-5.667153	0.000137	1.370283	0.232132	0.000027
1877	1.8666e+02	-2.6323	-5.652896	0.000072	0.715820	0.121263	0.000014
1878	1.8676e+02	-2.6114	-5.630492	0.000112	1.124859	0.190556	0.000023
1879	1.8686e+02	-2.5916	-5.614199	0.000082	0.818080	0.138586	0.000016
1880	1.8696e+02	-2.5745	-5.592610	0.000108	1.083955	0.183627	0.000022
1881	1.8706e+02	-2.5522	-5.571020	0.000108	1.083955	0.183627	0.000022
1882	1.8716e+02	-2.5316	-5.548209	0.000115	1.145311	0.194021	0.000023
1883	1.8726e+02	-2.5131	-5.529471	0.000094	0.940792	0.159374	0.000019
1884	1.8736e+02	-2.4924	-5.509919	0.000098	0.981696	0.166304	0.000020
1885	1.8746e+02	-2.4733	-5.487515	0.000112	1.124859	0.190556	0.000023
1886	1.8756e+02	-2.4527	-5.460631	0.000135	1.349831	0.228668	0.000027
1887	1.8766e+02	-2.4335	-5.439856	0.000104	1.043051	0.176698	0.000021
1888	1.8776e+02	-2.4136	-5.421526	0.000092	0.920340	0.155910	0.000018
1889	1.8786e+02	-2.3936	-5.401159	0.000102	1.022599	0.173233	0.000020
1890	1.8796e+02	-2.3727	-5.378347	0.000115	1.145311	0.194021	0.000023
1891	1.8806e+02	-2.3529	-5.357980	0.000102	1.022599	0.173233	0.000020
1892	1.8815e+02	-2.3328	-5.337206	0.000104	1.043051	0.176698	0.000021
1893	1.8825e+02	-2.3132	-5.313580	0.000119	1.186215	0.200950	0.000024
1894	1.8835e+02	-2.2940	-5.290769	0.000115	1.145311	0.194021	0.000023
1895	1.8845e+02	-2.2711	-5.267550	0.000117	1.165763	0.197486	0.000023
1896	1.8855e+02	-2.2525	-5.247183	0.000102	1.022599	0.173233	0.000020
1897	1.8865e+02	-2.2314	-5.223150	0.000121	1.206667	0.204415	0.000024
1898	1.8875e+02	-2.2131	-5.200746	0.000112	1.124859	0.190556	0.000023
1899	1.8885e+02	-2.1930	-5.177935	0.000115	1.145311	0.194021	0.000023
1900	1.8895e+02	-2.1751	-5.154716	0.000117	1.165763	0.197486	0.000023
1901	1.8905e+02	-2.1556	-5.130276	0.000123	1.227119	0.207880	0.000025
1902	1.8915e+02	-2.1323	-5.107872	0.000112	1.124859	0.190556	0.000023
1903	1.8925e+02	-2.1136	-5.083024	0.000125	1.247571	0.211344	0.000025
1904	1.8935e+02	-2.0947	-5.061842	0.000106	1.063503	0.180162	0.000021
1905	1.8945e+02	-2.0734	-5.038624	0.000117	1.165763	0.197486	0.000023
1906	1.8955e+02	-2.0538	-5.014998	0.000119	1.186215	0.200950	0.000024
1907	1.8965e+02	-2.0319	-4.995853	0.000096	0.961244	0.162839	0.000019
1908	1.8975e+02	-2.0114	-4.969375	0.000133	1.329379	0.225203	0.000027
1909	1.8985e+02	-1.9942	-4.950230	0.000096	0.961244	0.162839	0.000019
1910	1.8995e+02	-1.9745	-4.926197	0.000121	1.206667	0.204415	0.000024
1911	1.9004e+02	-1.9531	-4.901757	0.000123	1.227119	0.207880	0.000025
1912	1.9014e+02	-1.9335	-4.875279	0.000133	1.329379	0.225203	0.000027
1913	1.9024e+02	-1.9147	-4.850024	0.000127	1.268023	0.214809	0.000025
1914	1.9034e+02	-1.8948	-4.825584	0.000123	1.227119	0.207880	0.000025
1915	1.9044e+02	-1.8770	-4.799921	0.000129	1.288475	0.218274	0.000026
1916	1.9054e+02	-1.8524	-4.772629	0.000137	1.370283	0.232132	0.000027
1917	1.9064e+02	-1.8338	-4.745744	0.000135	1.349831	0.228668	0.000027
1918	1.9074e+02	-1.8134	-4.718860	0.000135	1.349831	0.228668	0.000027
1919	1.9084e+02	-1.7950	-4.695641	0.000117	1.165763	0.197486	0.000023
1920	1.9094e+02	-1.7761	-4.671201	0.000123	1.227119	0.207880	0.000025
1921	1.9104e+02	-1.7535	-4.647982	0.000117	1.165763	0.197486	0.000023
1922	1.9114e+02	-1.7355	-4.619468	0.000143	1.431639	0.242526	0.000029
1923	1.9124e+02	-1.7130	-4.597879	0.000108	1.083955	0.183627	0.000022
1924	1.9134e+02	-1.6955	-4.570180	0.000139	1.390735	0.235597	0.000028
1925	1.9144e+02	-1.6754	-4.544925	0.000127	1.268023	0.214809	0.000025
1926	1.9154e+02	-1.6554	-4.516003	0.000145	1.452091	0.245991	0.000029
1927	1.9164e+02	-1.6367	-4.483008	0.000166	1.656611	0.280638	0.000033
1928	1.9174e+02	-1.6150	-4.454902	0.000141	1.411187	0.239062	0.000028
1929	1.9184e+02	-1.5954	-4.428017	0.000135	1.349831	0.228668	0.000027
1930	1.9194e+02	-1.5771	-4.401540	0.000133	1.329379	0.225203	0.000027
1931	1.9203e+02	-1.5532	-4.376285	0.000127	1.268023	0.214809	0.000025
1932	1.9213e+02	-1.5332	-4.348178	0.000141	1.411187	0.239062	0.000028
1933	1.9223e+02	-1.5182	-4.317220	0.000155	1.554351	0.263314	0.000031
1934	1.9233e+02	-1.4954	-4.296038	0.000106	1.063503	0.180162	0.000021
1935	1.9243e+02	-1.4752	-4.267524	0.000143	1.431639	0.242526	0.000029
1936	1.9253e+02	-1.4574	-4.245528	0.000110	1.104407	0.187092	0.000022
1937	1.9263e+02	-1.4343	-4.221087	0.000123	1.227119	0.207880	0.000025
1938	1.9273e+02	-1.4166	-4.191759	0.000147	1.472543	0.249456	0.000029
1939	1.9283e+02	-1.3954	-4.166503	0.000127	1.268023	0.214809	0.000025
1940	1.9293e+02	-1.3756	-4.134731	0.000160	1.595255	0.270244	0.000032
1941	1.9303e+02	-1.3541	-4.108661	0.000131	1.308927	0.221738	0.000026
1942	1.9313e+02	-1.3400	-4.085849	0.000115	1.145311	0.194021	0.000023
1943	1.9323e+02	-1.3170	-4.060594	0.000127	1.268023	0.214809	0.000025
1944	1.9333e+02	-1.2961	-4.028822	0.000160	1.595255	0.270244	0.000032
1945	1.9343e+02	-1.2783	-4.008862	0.000100	1.002148	0.169768	0.000020
1946	1.9353e+02	-1.2573	-3.983606	0.000127	1.268023	0.214809	0.000025
1947	1.9363e+02	-1.2376	-3.956315	0.000137	1.370283	0.232132	0.000027
1948	1.9373e+02	-1.2180	-3.937984	0.000092	0.920340	0.155910	0.000018
1949	1.9383e+02	-1.1991	-3.912729	0.000127	1.268023	0.214809	0.000025
1950	1.9393e+02	-1.1734	-3.883808	0.000145	1.452091	0.245991	0.000029
1951	1.9403e+02	-1.1586	-3.860996	0.000115	1.145311	0.194021	0.000023
1952	1.9412e+02	-1.1339	-3.837778	0.000117	1.165763	0.197486	0.000023
1953	1.9422e+02	-1.1141	-3.812523	0.000127	1.268023	0.214809	0.000025
1954	1.9432e+02	-1.0979	-3.788897	0.000119	1.186215	0.200950	0.000024
1955	1.9442e+02	-1.0773	-3.762827	0.000131	1.308927	0.221738	0.000026
1956	1.9452e+02	-1.0580	-3.742052	0.000104	1.043051	0.176698	0.000021
1957	1.9462e+02	-1.0368	-3.715575	0.000133	1.329379	0.225203	0.000027
1958	1.9472e+02	-1.0175	-3.696023	0.000098	0.981696	0.166304	0.000020
1959	1.9482e+02	-0.9979	-3.671582	0.000123	1.227119	0.207880	0.000025
1960	1.9492e+02	-0.9782	-3.646327	0.000127	1.268023	0.214809	0.000025
1961	1.9502e+02	-0.9608	-3.623923	0.000112	1.124859	0.190556	0.000023
1962	1.9512e+02	-0.9355	-3.597853	0.000131	1.308927	0.221738	0.000026
1963	1.9522e+02	-0.9149	-3.575449	0.000112	1.124859	0.190556	0.000023
1964	1.9532e+02	-0.9009	-3.551823	0.000119	1.186215	0.200950	0.000024
1965	1.9542e+02	-0.8789	-3.527790	0.000121	1.206667	0.204415	0.000024
1966	1.9552e+02	-0.8574	-3.502128	0.000129	1.288475	0.218274	0.000026
1967	1.9562e+02	-0.8360	-3.478502	0.000119	1.186215	0.200950	0.000024
1968	1.9572e+02	-0.8177	-3.454469	0.000121	1.206667	0.204415	0.000024
1969	1.9582e+02	-0.7974	-3.429621	0.000125	1.247571	0.211344	0.000025
1970	1.9592e+02	-0.7788	-3.409661	0.000100	1.002148	0.169768	0.000020
1971	1.9601e+02	-0.7588	-3.385220	0.000123	1.227119	0.207880	0.000025
1972	1.9611e+02	-0.7397	-3.362816	0.000112	1.124859	0.190556	0.000023
1973	1.9621e+02	-0.7153	-3.338783	0.000121	1.206667	0.204415	0.000024
1974	1.9631e+02	-0.7005	-3.314343	0.000123	1.227119	0.207880	0.000025
1975	1.9641e+02	-0.6799	-3.291531	0.000115	1.145311	0.194021	0.000023
1976	1.9651e+02	-0.6600	-3.267498	0.000121	1.206667	0.204415	0.000024
1977	1.9661e+02	-0.6390	-3.241021	0.000133	1.329379	0.225203	0.000027
1978	1.9671e+02	-0.6183	-3.221876	0.000096	0.961244	0.162839	0.000019
1979	1.9681e+02	-0.5988	-3.195806	0.000131	1.308927	0.221738	0.000026
1980	1.9691e+02	-0.5777	-3.173402	0.000112	1.124859	0.190556	0.000023
1981	1.9701e+02	-0.5592	-3.148554	0.000125	1.247571	0.211344	0.000025
1982	1.9711e+02	-0.5399	-3.124928	0.000119	1.186215	0.200950	0.000024
1983	1.9721e+02	-0.5172	-3.098044	0.000135	1.349831	0.228668	0.000027
1984	1.9731e+02	-0.5006	-3.077269	0.000104	1.043051	0.176698	0.000021
1985	1.9741e+02	-0.4802	-3.052829	0.000123	1.227119	0.207880	0.000025
1986	1.9751e+02	-0.4584	-3.027981	0.000125	1.247571	0.211344	0.000025
1987	1.9761e+02	-0.4408	-3.008428	0.000098	0.981696	0.166304	0.000020
1988	1.9771e+02	-0.4203	-2.980729	0.000139	1.390735	0.235597	0.000028
1989	1.9781e+02	-0.4010	-2.957918	0.000115	1.145311	0.194021	0.000023
1990	1.9791e+02	-0.3787	-2.929404	0.000143	1.431639	0.242526	0.000029
1991	1.9800e+02	-0.3615	-2.905778	0.000119	1.186215	0.200950	0.000024
1992	1.9810e+02	-0.3400	-2.879301	0.000133	1.329379	0.225203	0.000027
1993	1.9820e+02	-0.3207	-2.854860	0.000123	1.227119	0.207880	0.000025
1994	1.9830e+02	-0.2991	-2.835308	0.000098	0.981696	0.166304	0.000020
1995	1.9840e+02	-0.2805	-2.811682	0.000119	1.186215	0.200950	0.000024
1996	1.9850e+02	-0.2590	-2.787241	0.000123	1.227119	0.207880	0.000025
1997	1.9860e+02	-0.2391	-2.758727	0.000143	1.431639	0.242526	0.000029
1998	1.9870e+02	-0.2216	-2.742026	0.000084	0.838532	0.142051	0.000017
1999	1.9880e+02	-0.2017	-2.719215	0.000115	1.145311	0.194021	0.000023
2000	1.9890e+02	-0.1788	-2.698033	0.000106	1.063503	0.180162	0.000021
2001	1.9900e+02	-0.1595	-2.672778	0.000127	1.268023	0.214809	0.000025
2002	1.9910e+02	-0.1411	-2.650782	0.000110	1.104407	0.187092	0.000022
2003	1.9920e+02	-0.1198	-2.621046	0.000149	1.492995	0.252920	0.000030
2004	1.9930e+02	-0.1018	-2.599864	0.000106	1.063503	0.180162	0.000021
2005	1.9940e+02	-0.0825	-2.580719	0.000096	0.961244	0.162839	0.000019
2006	1.9950e+02	-0.0617	-2.551797	0.000145	1.452091	0.245991	0.000029
2007	1.9960e+02	-0.0401	-2.531838	0.000100	1.002148	0.169768	0.000020
2008	1.9970e+02	-0.0209	-2.506175	0.000129	1.288475	0.218274	0.000026
2009	1.9980e+02	-0.0034	-2.482142	0.000129	1.288475	0.218274	0.000024

Smooth data before PMax, +/-Pr and +/-Vc Calc.

PMax (uC/cm2):	1.25e+01
Pr (uC/cm2):	4.87e+00
-Pr (uC/cm2):	8.91e-02
PLoss (uC/cm2):	1.20e-01
Vc:	-8.39e-02
-Vc:	-3.60e+00
C (Max-Eff) (nF):	1.25e-01
K (Eff):	2.11e+02
Vert. (+/-Pr) Shift (uC/cm2):	2.48e+00
Horiz. Shift (+/-Vc):	-1.84e+00
Offset (uC/cm2):	2.58e+00

A (Loop Area - uC/cm2·Volts):	-9.71e-03



Hysteresis Version: 5.48.1 - Radiant Technologies, Inc., 1999 - 9/12/24

