»»»»»»»»»»»»»»»»»»»»»»»»»»»»»»»»»»»» Hysteresis ««««««««««««««««««««««««««««««««««««
»»»  Executed Version:	5.48.1
»»»  Vision Version:	5.48.4 (R)
»»»  Vision Compiled:	9/18/24
»»»  Driver Version:	5.47.0
»»»  Windows Version:	Windows 8 or 8.1
»»»  Processor Information:	x86 (AMD or Intel) - 32 Processors
»»»  Tester Name:	PMF21124-494 (100V)
»»»  Tester S/N:	PMF21124-494
»»»  Internal Amp Type:	100V RevK 270k
»»»  Internal Amp S/N:	iAB2-596/K     
»»»  Execution Count:	1
»»»»»»»»»»»»»»»»»»»»»»»»»»»»»»»»»»»»»»»»»»««««««««««««««««««««««««««««««««««««««««««

Stored:	6/10/2025 - 14:3:14
Configured:	06/10/25 02:01:08 PM
Executed:	06/10/25 02:02:26 PM

»»»»»»»»»»»»»»»»»»»»»»»»»»»»»»»»»»» Sample Info ««««««««««««««««««««««««««««««««««««
Sample Name:	
Lot Name:	
Wafer Name:	
Die Row/Column:	0/0
Capacitor Number:	0
Sample Area (cm2):	1.00e-04
Sample Thickness (microns):	3.00e-01

Amplifier:	Internal

»»»»»»»»»»»»»»»»»»»»»»»»»»»»»»»»»»» Tester Info «««««««««««««««««««««««««««««««««««
Tester Name:	PMF21124-494 (100V)
Tester Serial Number:	PMF21124-494
Return Signal Amp. Level:	0.019 [Index: 4]

»»»»»»»»»»»»»»»»»»»»»»»»»»»»»»»» Hysteresis Info ««««««««««««««««««««««««««««««««««
Task Name:	Hyst-1027
Volts:	20.00
Field:	666.67 (kV/cm)
DCBias:	0.00
DCField:	0.00 (kV/cm)
Hysteresis Period (ms):	1.00e+00
Preset:	Enabled
Preset Delay (ms):	1.00e+03
Profile:	Standard Bipolar

»»»»»»»»»»»»»»»»»»»»»»»»»»»»»»»»»»»»»» Data «««««««««««««««««««««««««««««««««««««««
Points:	2001

Valid Data

Point	Time (ms)	Drive Voltage	Measured Polarization (uC/cm2)	Capacitance (uF)	Normalized Capacitance (uF/cm2)	Dielectric Constant	Instantaneous Current (mA)
   1	0.0000e+00	-0.0160	193.891215	0.000614	6.142086	2.080995	-0.048397
   2	5.0000e-04	-0.0160	193.649229	0.000614	6.142086	2.080995	-0.048397
   3	1.0000e-03	-0.0048	194.254194	0.001536	15.355216	5.202488	0.120993
   4	1.5000e-03	0.0000	193.971877	-0.000717	-7.165768	-2.427828	-0.056463
   5	2.0000e-03	0.0225	194.012208	0.000102	1.023681	0.346833	0.008066
   6	2.5000e-03	0.0369	194.052539	0.000102	1.023681	0.346833	0.008066
   7	3.0000e-03	0.0658	194.173532	0.000307	3.071043	1.040498	0.024199
   8	3.5000e-03	0.0850	194.092870	-0.000205	-2.047362	-0.693665	-0.016132
   9	4.0000e-03	0.1139	194.576842	0.001228	12.284173	4.161990	0.096794
  10	4.5000e-03	0.1412	194.536511	-0.000102	-1.023681	-0.346833	-0.008066
  11	5.0000e-03	0.1668	194.294525	-0.000614	-6.142086	-2.080995	-0.048397
  12	5.5000e-03	0.1877	194.576842	0.000717	7.165768	2.427828	0.056463
  13	6.0000e-03	0.2262	194.576842	0.000000	0.000000	0.000000	0.000000
  14	6.5000e-03	0.2503	194.899490	0.000819	8.189449	2.774660	0.064530
  15	7.0000e-03	0.2920	194.980152	0.000205	2.047362	0.693665	0.016132
  16	7.5000e-03	0.3369	195.020483	0.000102	1.023681	0.346833	0.008066
  17	8.0000e-03	0.3642	195.060814	0.000102	1.023681	0.346833	0.008066
  18	8.5000e-03	0.3914	195.544786	0.001228	12.284173	4.161990	0.096794
  19	9.0000e-03	0.4283	195.383462	-0.000409	-4.094724	-1.387330	-0.032265
  20	9.5000e-03	0.4749	195.504455	0.000307	3.071043	1.040498	0.024199
  21	1.0000e-02	0.5005	195.625448	0.000307	3.071043	1.040498	0.024199
  22	1.0500e-02	0.5438	196.190082	0.001433	14.331535	4.855656	0.112927
  23	1.1000e-02	0.5871	196.149751	-0.000102	-1.023681	-0.346833	-0.008066
  24	1.1500e-02	0.6208	196.875708	0.001843	18.426259	6.242986	0.145192
  25	1.2000e-02	0.6593	196.714384	-0.000409	-4.094724	-1.387330	-0.032265
  26	1.2500e-02	0.6914	197.158025	0.001126	11.260492	3.815158	0.088728
  27	1.3000e-02	0.7347	197.440342	0.000717	7.165768	2.427828	0.056463
  28	1.3500e-02	0.7829	197.480673	0.000102	1.023681	0.346833	0.008066
  29	1.4000e-02	0.8117	197.722659	0.000614	6.142086	2.080995	0.048397
  30	1.4500e-02	0.8551	197.924314	0.000512	5.118405	1.734163	0.040331
  31	1.5000e-02	0.8855	198.085638	0.000409	4.094724	1.387330	0.032265
  32	1.5500e-02	0.9321	198.609941	0.001331	13.307854	4.508823	0.104861
  33	1.6000e-02	0.9802	198.488948	-0.000307	-3.071043	-1.040498	-0.024199
  34	1.6500e-02	1.0091	199.134243	0.001638	16.378897	5.549321	0.129059
  35	1.7000e-02	1.0476	198.892258	-0.000614	-6.142086	-2.080995	-0.048397
  36	1.7500e-02	1.0925	199.376229	0.001228	12.284173	4.161990	0.096794
  37	1.8000e-02	1.1294	199.497222	0.000307	3.071043	1.040498	0.024199
  38	1.8500e-02	1.1534	199.860201	0.000921	9.213130	3.121493	0.072596
  39	1.9000e-02	1.2112	200.223180	0.000921	9.213130	3.121493	0.072596
  40	1.9500e-02	1.2545	200.424835	0.000512	5.118405	1.734163	0.040331
  41	2.0000e-02	1.2914	200.707152	0.000717	7.165768	2.427828	0.056463
  42	2.0500e-02	1.3363	200.868476	0.000409	4.094724	1.387330	0.032265
  43	2.1000e-02	1.3684	201.150793	0.000717	7.165768	2.427828	0.056463
  44	2.1500e-02	1.4101	201.070131	-0.000205	-2.047362	-0.693665	-0.016132
  45	2.2000e-02	1.4438	201.634765	0.001433	14.331535	4.855656	0.112927
  46	2.2500e-02	1.4887	202.078405	0.001126	11.260492	3.815158	0.088728
  47	2.3000e-02	1.5224	202.401053	0.000819	8.189449	2.774660	0.064530
  48	2.3500e-02	1.5641	202.320391	-0.000205	-2.047362	-0.693665	-0.016132
  49	2.4000e-02	1.5994	202.562377	0.000614	6.142086	2.080995	0.048397
  50	2.4500e-02	1.6459	203.127011	0.001433	14.331535	4.855656	0.112927
  51	2.5000e-02	1.6877	203.127011	0.000000	0.000000	0.000000	0.000000
  52	2.5500e-02	1.7278	203.368997	0.000614	6.142086	2.080995	0.048397
  53	2.6000e-02	1.7711	203.772307	0.001024	10.236811	3.468325	0.080662
  54	2.6500e-02	1.8208	203.973962	0.000512	5.118405	1.734163	0.040331
  55	2.7000e-02	1.8401	204.296610	0.000819	8.189449	2.774660	0.064530
  56	2.7500e-02	1.8898	204.780582	0.001228	12.284173	4.161990	0.096794
  57	2.8000e-02	1.9267	204.982236	0.000512	5.118405	1.734163	0.040331
  58	2.8500e-02	1.9684	205.345215	0.000921	9.213130	3.121493	0.072596
  59	2.9000e-02	2.0117	205.224222	-0.000307	-3.071043	-1.040498	-0.024199
  60	2.9500e-02	2.0454	205.587201	0.000921	9.213130	3.121493	0.072596
  61	3.0000e-02	2.0935	206.071173	0.001228	12.284173	4.161990	0.096794
  62	3.0500e-02	2.1336	205.829187	-0.000614	-6.142086	-2.080995	-0.048397
  63	3.1000e-02	2.1705	206.635807	0.002047	20.473621	6.936651	0.161324
  64	3.1500e-02	2.2090	206.837462	0.000512	5.118405	1.734163	0.040331
  65	3.2000e-02	2.2572	206.676138	-0.000409	-4.094724	-1.387330	-0.032265
  66	3.2500e-02	2.2828	207.361765	0.001740	17.402578	5.896153	0.137125
  67	3.3000e-02	2.3245	207.886067	0.001331	13.307854	4.508823	0.104861
  68	3.3500e-02	2.3614	207.886067	0.000000	0.000000	0.000000	0.000000
  69	3.4000e-02	2.4128	208.128053	0.000614	6.142086	2.080995	0.048397
  70	3.4500e-02	2.4481	208.289377	0.000409	4.094724	1.387330	0.032265
  71	3.5000e-02	2.4930	208.491032	0.000512	5.118405	1.734163	0.040331
  72	3.5500e-02	2.5251	209.136328	0.001638	16.378897	5.549321	0.129059
  73	3.6000e-02	2.5668	208.854011	-0.000717	-7.165768	-2.427828	-0.056463
  74	3.6500e-02	2.6053	209.257321	0.001024	10.236811	3.468325	0.080662
  75	3.7000e-02	2.6470	209.862286	0.001536	15.355216	5.202488	0.120993
  76	3.7500e-02	2.6871	209.902617	0.000102	1.023681	0.346833	0.008066
  77	3.8000e-02	2.7304	210.063941	0.000409	4.094724	1.387330	0.032265
  78	3.8500e-02	2.7673	210.628575	0.001433	14.331535	4.855656	0.112927
  79	3.9000e-02	2.8058	210.668905	0.000102	1.023681	0.346833	0.008066
  80	3.9500e-02	2.8491	210.951222	0.000717	7.165768	2.427828	0.056463
  81	4.0000e-02	2.8860	211.556187	0.001536	15.355216	5.202488	0.120993
  82	4.0500e-02	2.9213	211.919166	0.000921	9.213130	3.121493	0.072596
  83	4.1000e-02	2.9694	211.878835	-0.000102	-1.023681	-0.346833	-0.008066
  84	4.1500e-02	3.0015	211.999828	0.000307	3.071043	1.040498	0.024199
  85	4.2000e-02	3.0432	212.403138	0.001024	10.236811	3.468325	0.080662
  86	4.2500e-02	3.0849	212.564462	0.000409	4.094724	1.387330	0.032265
  87	4.3000e-02	3.1234	213.129096	0.001433	14.331535	4.855656	0.112927
  88	4.3500e-02	3.1684	213.290420	0.000409	4.094724	1.387330	0.032265
  89	4.4000e-02	3.2037	213.532405	0.000614	6.142086	2.080995	0.048397
  90	4.4500e-02	3.2422	214.016377	0.001228	12.284173	4.161990	0.096794
  91	4.5000e-02	3.2807	214.137370	0.000307	3.071043	1.040498	0.024199
  92	4.5500e-02	3.3256	213.895384	-0.000614	-6.142086	-2.080995	-0.048397
  93	4.6000e-02	3.3625	214.500349	0.001536	15.355216	5.202488	0.120993
  94	4.6500e-02	3.3994	214.621342	0.000307	3.071043	1.040498	0.024199
  95	4.7000e-02	3.4491	215.145645	0.001331	13.307854	4.508823	0.104861
  96	4.7500e-02	3.4908	215.226307	0.000205	2.047362	0.693665	0.016132
  97	4.8000e-02	3.5213	215.589286	0.000921	9.213130	3.121493	0.072596
  98	4.8500e-02	3.5630	215.831272	0.000614	6.142086	2.080995	0.048397
  99	4.9000e-02	3.6175	215.992596	0.000409	4.094724	1.387330	0.032265
 100	4.9500e-02	3.6480	216.678222	0.001740	17.402578	5.896153	0.137125
 101	5.0000e-02	3.6865	216.718553	0.000102	1.023681	0.346833	0.008066
 102	5.0500e-02	3.7250	216.960539	0.000614	6.142086	2.080995	0.048397
 103	5.1000e-02	3.7619	217.323518	0.000921	9.213130	3.121493	0.072596
 104	5.1500e-02	3.8068	217.404180	0.000205	2.047362	0.693665	0.016132
 105	5.2000e-02	3.8502	217.767159	0.000921	9.213130	3.121493	0.072596
 106	5.2500e-02	3.8871	218.210800	0.001126	11.260492	3.815158	0.088728
 107	5.3000e-02	3.9256	218.089807	-0.000307	-3.071043	-1.040498	-0.024199
 108	5.3500e-02	3.9673	218.694772	0.001536	15.355216	5.202488	0.120993
 109	5.4000e-02	4.0010	218.856096	0.000409	4.094724	1.387330	0.032265
 110	5.4500e-02	4.0362	219.098082	0.000614	6.142086	2.080995	0.048397
 111	5.5000e-02	4.0844	219.380398	0.000717	7.165768	2.427828	0.056463
 112	5.5500e-02	4.1229	219.824039	0.001126	11.260492	3.815158	0.088728
 113	5.6000e-02	4.1726	220.025694	0.000512	5.118405	1.734163	0.040331
 114	5.6500e-02	4.1999	220.146687	0.000307	3.071043	1.040498	0.024199
 115	5.7000e-02	4.2368	220.509666	0.000921	9.213130	3.121493	0.072596
 116	5.7500e-02	4.2945	221.033969	0.001331	13.307854	4.508823	0.104861
 117	5.8000e-02	4.3314	221.114631	0.000205	2.047362	0.693665	0.016132
 118	5.8500e-02	4.3667	221.437279	0.000819	8.189449	2.774660	0.064530
 119	5.9000e-02	4.4004	222.042244	0.001536	15.355216	5.202488	0.120993
 120	5.9500e-02	4.4469	221.840589	-0.000512	-5.118405	-1.734163	-0.040331
 121	6.0000e-02	4.4919	222.203567	0.000921	9.213130	3.121493	0.072596
 122	6.0500e-02	4.5287	222.727870	0.001331	13.307854	4.508823	0.104861
 123	6.1000e-02	4.5673	222.768201	0.000102	1.023681	0.346833	0.008066
 124	6.1500e-02	4.6074	223.131180	0.000921	9.213130	3.121493	0.072596
 125	6.2000e-02	4.6491	223.171511	0.000102	1.023681	0.346833	0.008066
 126	6.2500e-02	4.6876	223.655483	0.001228	12.284173	4.161990	0.096794
 127	6.3000e-02	4.7180	223.897469	0.000614	6.142086	2.080995	0.048397
 128	6.3500e-02	4.7646	224.300779	0.001024	10.236811	3.468325	0.080662
 129	6.4000e-02	4.8047	224.502434	0.000512	5.118405	1.734163	0.040331
 130	6.4500e-02	4.8496	224.583096	0.000205	2.047362	0.693665	0.016132
 131	6.5000e-02	4.8897	225.188060	0.001536	15.355216	5.202488	0.120993
 132	6.5500e-02	4.9298	224.946075	-0.000614	-6.142086	-2.080995	-0.048397
 133	6.6000e-02	4.9683	225.510708	0.001433	14.331535	4.855656	0.112927
 134	6.6500e-02	5.0084	225.551039	0.000102	1.023681	0.346833	0.008066
 135	6.7000e-02	5.0437	226.115673	0.001433	14.331535	4.855656	0.112927
 136	6.7500e-02	5.0838	226.276997	0.000409	4.094724	1.387330	0.032265
 137	6.8000e-02	5.1303	226.841631	0.001433	14.331535	4.855656	0.112927
 138	6.8500e-02	5.1656	226.841631	0.000000	0.000000	0.000000	0.000000
 139	6.9000e-02	5.2073	227.123948	0.000717	7.165768	2.427828	0.056463
 140	6.9500e-02	5.2507	227.365934	0.000614	6.142086	2.080995	0.048397
 141	7.0000e-02	5.2859	227.809575	0.001126	11.260492	3.815158	0.088728
 142	7.0500e-02	5.3357	228.293546	0.001228	12.284173	4.161990	0.096794
 143	7.1000e-02	5.3646	228.011229	-0.000717	-7.165768	-2.427828	-0.056463
 144	7.1500e-02	5.3918	228.414539	0.001024	10.236811	3.468325	0.080662
 145	7.2000e-02	5.4512	228.293546	-0.000307	-3.071043	-1.040498	-0.024199
 146	7.2500e-02	5.4881	229.100166	0.002047	20.473621	6.936651	0.161324
 147	7.3000e-02	5.5266	229.301821	0.000512	5.118405	1.734163	0.040331
 148	7.3500e-02	5.5619	229.826124	0.001331	13.307854	4.508823	0.104861
 149	7.4000e-02	5.6004	229.906786	0.000205	2.047362	0.693665	0.016132
 150	7.4500e-02	5.6453	230.027779	0.000307	3.071043	1.040498	0.024199
 151	7.5000e-02	5.6854	230.632744	0.001536	15.355216	5.202488	0.120993
 152	7.5500e-02	5.7191	230.552082	-0.000205	-2.047362	-0.693665	-0.016132
 153	7.6000e-02	5.7736	231.237708	0.001740	17.402578	5.896153	0.137125
 154	7.6500e-02	5.8073	231.116715	-0.000307	-3.071043	-1.040498	-0.024199
 155	7.7000e-02	5.8490	231.358701	0.000614	6.142086	2.080995	0.048397
 156	7.7500e-02	5.8827	231.923335	0.001433	14.331535	4.855656	0.112927
 157	7.8000e-02	5.9164	231.681349	-0.000614	-6.142086	-2.080995	-0.048397
 158	7.8500e-02	5.9677	232.245983	0.001433	14.331535	4.855656	0.112927
 159	7.9000e-02	6.0014	232.407307	0.000409	4.094724	1.387330	0.032265
 160	7.9500e-02	6.0480	232.649293	0.000614	6.142086	2.080995	0.048397
 161	8.0000e-02	6.0816	233.012272	0.000921	9.213130	3.121493	0.072596
 162	8.0500e-02	6.1201	233.294589	0.000717	7.165768	2.427828	0.056463
 163	8.1000e-02	6.1651	233.617237	0.000819	8.189449	2.774660	0.064530
 164	8.1500e-02	6.2100	233.657568	0.000102	1.023681	0.346833	0.008066
 165	8.2000e-02	6.2469	233.899553	0.000614	6.142086	2.080995	0.048397
 166	8.2500e-02	6.2774	234.383525	0.001228	12.284173	4.161990	0.096794
 167	8.3000e-02	6.3303	234.544849	0.000409	4.094724	1.387330	0.032265
 168	8.3500e-02	6.3640	234.867497	0.000819	8.189449	2.774660	0.064530
 169	8.4000e-02	6.4137	235.028821	0.000409	4.094724	1.387330	0.032265
 170	8.4500e-02	6.4458	235.472462	0.001126	11.260492	3.815158	0.088728
 171	8.5000e-02	6.4827	235.795110	0.000819	8.189449	2.774660	0.064530
 172	8.5500e-02	6.5260	235.835441	0.000102	1.023681	0.346833	0.008066
 173	8.6000e-02	6.5661	236.198420	0.000921	9.213130	3.121493	0.072596
 174	8.6500e-02	6.5966	236.238751	0.000102	1.023681	0.346833	0.008066
 175	8.7000e-02	6.6511	237.045370	0.002047	20.473621	6.936651	0.161324
 176	8.7500e-02	6.6768	237.085701	0.000102	1.023681	0.346833	0.008066
 177	8.8000e-02	6.7330	237.327687	0.000614	6.142086	2.080995	0.048397
 178	8.8500e-02	6.7554	237.610004	0.000717	7.165768	2.427828	0.056463
 179	8.9000e-02	6.8068	237.569673	-0.000102	-1.023681	-0.346833	-0.008066
 180	8.9500e-02	6.8453	238.335962	0.001945	19.449940	6.589818	0.153258
 181	9.0000e-02	6.8757	238.053645	-0.000717	-7.165768	-2.427828	-0.056463
 182	9.0500e-02	6.9239	238.456955	0.001024	10.236811	3.468325	0.080662
 183	9.1000e-02	6.9640	238.940927	0.001228	12.284173	4.161990	0.096794
 184	9.1500e-02	7.0009	238.618279	-0.000819	-8.189449	-2.774660	-0.064530
 185	9.2000e-02	7.0410	239.223244	0.001536	15.355216	5.202488	0.120993
 186	9.2500e-02	7.0859	239.344237	0.000307	3.071043	1.040498	0.024199
 187	9.3000e-02	7.1164	239.666884	0.000819	8.189449	2.774660	0.064530
 188	9.3500e-02	7.1645	239.787877	0.000307	3.071043	1.040498	0.024199
 189	9.4000e-02	7.2014	240.231518	0.001126	11.260492	3.815158	0.088728
 190	9.4500e-02	7.2463	240.876814	0.001638	16.378897	5.549321	0.129059
 191	9.5000e-02	7.2800	240.997807	0.000307	3.071043	1.040498	0.024199
 192	9.5500e-02	7.3265	240.836483	-0.000409	-4.094724	-1.387330	-0.032265
 193	9.6000e-02	7.3618	241.239793	0.001024	10.236811	3.468325	0.080662
 194	9.6500e-02	7.4019	241.602772	0.000921	9.213130	3.121493	0.072596
 195	9.7000e-02	7.4501	241.885089	0.000717	7.165768	2.427828	0.056463
 196	9.7500e-02	7.4821	242.328730	0.001126	11.260492	3.815158	0.088728
 197	9.8000e-02	7.5303	242.490053	0.000409	4.094724	1.387330	0.032265
 198	9.8500e-02	7.5688	242.409391	-0.000205	-2.047362	-0.693665	-0.016132
 199	9.9000e-02	7.6073	242.732039	0.000819	8.189449	2.774660	0.064530
 200	9.9500e-02	7.6442	243.054687	0.000819	8.189449	2.774660	0.064530
 201	1.0000e-01	7.6843	243.014356	-0.000102	-1.023681	-0.346833	-0.008066
 202	1.0050e-01	7.7212	243.619321	0.001536	15.355216	5.202488	0.120993
 203	1.0100e-01	7.7581	243.699983	0.000205	2.047362	0.693665	0.016132
 204	1.0150e-01	7.8014	243.861307	0.000409	4.094724	1.387330	0.032265
 205	1.0200e-01	7.8511	244.385610	0.001331	13.307854	4.508823	0.104861
 206	1.0250e-01	7.8832	244.627596	0.000614	6.142086	2.080995	0.048397
 207	1.0300e-01	7.9169	244.587265	-0.000102	-1.023681	-0.346833	-0.008066
 208	1.0350e-01	7.9698	244.950244	0.000921	9.213130	3.121493	0.072596
 209	1.0400e-01	7.9955	245.192230	0.000614	6.142086	2.080995	0.048397
 210	1.0450e-01	8.0436	245.676201	0.001228	12.284173	4.161990	0.096794
 211	1.0500e-01	8.0773	245.797194	0.000307	3.071043	1.040498	0.024199
 212	1.0550e-01	8.1206	246.039180	0.000614	6.142086	2.080995	0.048397
 213	1.0600e-01	8.1655	246.240835	0.000512	5.118405	1.734163	0.040331
 214	1.0650e-01	8.1992	246.402159	0.000409	4.094724	1.387330	0.032265
 215	1.0700e-01	8.2329	246.765138	0.000921	9.213130	3.121493	0.072596
 216	1.0750e-01	8.2843	246.886131	0.000307	3.071043	1.040498	0.024199
 217	1.0800e-01	8.3244	247.047455	0.000409	4.094724	1.387330	0.032265
 218	1.0850e-01	8.3613	247.692751	0.001638	16.378897	5.549321	0.129059
 219	1.0900e-01	8.4110	247.370103	-0.000819	-8.189449	-2.774660	-0.064530
 220	1.0950e-01	8.4495	248.136392	0.001945	19.449940	6.589818	0.153258
 221	1.1000e-01	8.4752	248.055730	-0.000205	-2.047362	-0.693665	-0.016132
 222	1.1050e-01	8.5281	248.459039	0.001024	10.236811	3.468325	0.080662
 223	1.1100e-01	8.5602	248.620363	0.000409	4.094724	1.387330	0.032265
 224	1.1150e-01	8.5971	248.902680	0.000717	7.165768	2.427828	0.056463
 225	1.1200e-01	8.6500	249.507645	0.001536	15.355216	5.202488	0.120993
 226	1.1250e-01	8.6789	249.225328	-0.000717	-7.165768	-2.427828	-0.056463
 227	1.1300e-01	8.7238	249.305990	0.000205	2.047362	0.693665	0.016132
 228	1.1350e-01	8.7719	249.991617	0.001740	17.402578	5.896153	0.137125
 229	1.1400e-01	8.8008	250.273934	0.000717	7.165768	2.427828	0.056463
 230	1.1450e-01	8.8409	250.193272	-0.000205	-2.047362	-0.693665	-0.016132
 231	1.1500e-01	8.8778	250.636913	0.001126	11.260492	3.815158	0.088728
 232	1.1550e-01	8.9227	250.636913	0.000000	0.000000	0.000000	0.000000
 233	1.1600e-01	8.9709	251.161215	0.001331	13.307854	4.508823	0.104861
 234	1.1650e-01	8.9997	251.161215	0.000000	0.000000	0.000000	0.000000
 235	1.1700e-01	9.0431	251.322539	0.000409	4.094724	1.387330	0.032265
 236	1.1750e-01	9.0767	252.008166	0.001740	17.402578	5.896153	0.137125
 237	1.1800e-01	9.1265	251.967835	-0.000102	-1.023681	-0.346833	-0.008066
 238	1.1850e-01	9.1602	252.250152	0.000717	7.165768	2.427828	0.056463
 239	1.1900e-01	9.2067	252.572800	0.000819	8.189449	2.774660	0.064530
 240	1.1950e-01	9.2468	252.895448	0.000819	8.189449	2.774660	0.064530
 241	1.2000e-01	9.2853	252.976110	0.000205	2.047362	0.693665	0.016132
 242	1.2050e-01	9.3254	253.258427	0.000717	7.165768	2.427828	0.056463
 243	1.2100e-01	9.3639	253.540744	0.000717	7.165768	2.427828	0.056463
 244	1.2150e-01	9.3992	253.621406	0.000205	2.047362	0.693665	0.016132
 245	1.2200e-01	9.4329	253.984384	0.000921	9.213130	3.121493	0.072596
 246	1.2250e-01	9.4842	254.145708	0.000409	4.094724	1.387330	0.032265
 247	1.2300e-01	9.5099	254.065046	-0.000205	-2.047362	-0.693665	-0.016132
 248	1.2350e-01	9.5644	254.307032	0.000614	6.142086	2.080995	0.048397
 249	1.2400e-01	9.5981	255.032990	0.001843	18.426259	6.242986	0.145192
 250	1.2450e-01	9.6446	255.234645	0.000512	5.118405	1.734163	0.040331
 251	1.2500e-01	9.6864	254.992659	-0.000614	-6.142086	-2.080995	-0.048397
 252	1.2550e-01	9.7217	255.557293	0.001433	14.331535	4.855656	0.112927
 253	1.2600e-01	9.7602	255.920272	0.000921	9.213130	3.121493	0.072596
 254	1.2650e-01	9.8067	255.879941	-0.000102	-1.023681	-0.346833	-0.008066
 255	1.2700e-01	9.8452	256.767223	0.002252	22.520984	7.630316	0.177456
 256	1.2750e-01	9.8869	256.363913	-0.001024	-10.236811	-3.468325	-0.080662
 257	1.2800e-01	9.9254	256.323582	-0.000102	-1.023681	-0.346833	-0.008066
 258	1.2850e-01	9.9655	256.888215	0.001433	14.331535	4.855656	0.112927
 259	1.2900e-01	10.0072	257.331856	0.001126	11.260492	3.815158	0.088728
 260	1.2950e-01	10.0505	257.210863	-0.000307	-3.071043	-1.040498	-0.024199
 261	1.3000e-01	10.0730	257.735166	0.001331	13.307854	4.508823	0.104861
 262	1.3050e-01	10.1163	257.735166	0.000000	0.000000	0.000000	0.000000
 263	1.3100e-01	10.1628	258.017483	0.000717	7.165768	2.427828	0.056463
 264	1.3150e-01	10.1949	258.461124	0.001126	11.260492	3.815158	0.088728
 265	1.3200e-01	10.2430	258.743441	0.000717	7.165768	2.427828	0.056463
 266	1.3250e-01	10.2831	258.904765	0.000409	4.094724	1.387330	0.032265
 267	1.3300e-01	10.3248	258.743441	-0.000409	-4.094724	-1.387330	-0.032265
 268	1.3350e-01	10.3617	259.308075	0.001433	14.331535	4.855656	0.112927
 269	1.3400e-01	10.4115	259.429068	0.000307	3.071043	1.040498	0.024199
 270	1.3450e-01	10.4500	259.630723	0.000512	5.118405	1.734163	0.040331
 271	1.3500e-01	10.4853	260.195356	0.001433	14.331535	4.855656	0.112927
 272	1.3550e-01	10.5254	260.235687	0.000102	1.023681	0.346833	0.008066
 273	1.3600e-01	10.5542	260.235687	0.000000	0.000000	0.000000	0.000000
 274	1.3650e-01	10.6040	261.042307	0.002047	20.473621	6.936651	0.161324
 275	1.3700e-01	10.6457	260.921314	-0.000307	-3.071043	-1.040498	-0.024199
 276	1.3750e-01	10.6778	261.082638	0.000409	4.094724	1.387330	0.032265
 277	1.3800e-01	10.7211	261.606941	0.001331	13.307854	4.508823	0.104861
 278	1.3850e-01	10.7532	261.566610	-0.000102	-1.023681	-0.346833	-0.008066
 279	1.3900e-01	10.8045	261.485948	-0.000205	-2.047362	-0.693665	-0.016132
 280	1.3950e-01	10.8430	262.010251	0.001331	13.307854	4.508823	0.104861
 281	1.4000e-01	10.8735	262.131244	0.000307	3.071043	1.040498	0.024199
 282	1.4050e-01	10.9216	262.332899	0.000512	5.118405	1.734163	0.040331
 283	1.4100e-01	10.9633	262.615215	0.000717	7.165768	2.427828	0.056463
 284	1.4150e-01	11.0066	262.897532	0.000717	7.165768	2.427828	0.056463
 285	1.4200e-01	11.0403	263.300842	0.001024	10.236811	3.468325	0.080662
 286	1.4250e-01	11.0772	263.341173	0.000102	1.023681	0.346833	0.008066
 287	1.4300e-01	11.1318	263.502497	0.000409	4.094724	1.387330	0.032265
 288	1.4350e-01	11.1623	263.583159	0.000205	2.047362	0.693665	0.016132
 289	1.4400e-01	11.2008	264.107462	0.001331	13.307854	4.508823	0.104861
 290	1.4450e-01	11.2360	264.309117	0.000512	5.118405	1.734163	0.040331
 291	1.4500e-01	11.2745	264.349448	0.000102	1.023681	0.346833	0.008066
 292	1.4550e-01	11.3227	264.591434	0.000614	6.142086	2.080995	0.048397
 293	1.4600e-01	11.3628	265.156068	0.001433	14.331535	4.855656	0.112927
 294	1.4650e-01	11.3997	265.438385	0.000717	7.165768	2.427828	0.056463
 295	1.4700e-01	11.4398	265.398054	-0.000102	-1.023681	-0.346833	-0.008066
 296	1.4750e-01	11.4719	265.317392	-0.000205	-2.047362	-0.693665	-0.016132
 297	1.4800e-01	11.5248	265.277061	-0.000102	-1.023681	-0.346833	-0.008066
 298	1.4850e-01	11.5617	265.922356	0.001638	16.378897	5.549321	0.129059
 299	1.4900e-01	11.5906	266.124011	0.000512	5.118405	1.734163	0.040331
 300	1.4950e-01	11.6419	266.527321	0.001024	10.236811	3.468325	0.080662
 301	1.5000e-01	11.6804	266.406328	-0.000307	-3.071043	-1.040498	-0.024199
 302	1.5050e-01	11.7189	266.849969	0.001126	11.260492	3.815158	0.088728
 303	1.5100e-01	11.7590	267.051624	0.000512	5.118405	1.734163	0.040331
 304	1.5150e-01	11.8120	267.091955	0.000102	1.023681	0.346833	0.008066
 305	1.5200e-01	11.8441	267.333941	0.000614	6.142086	2.080995	0.048397
 306	1.5250e-01	11.8826	267.535596	0.000512	5.118405	1.734163	0.040331
 307	1.5300e-01	11.9146	267.817913	0.000717	7.165768	2.427828	0.056463
 308	1.5350e-01	11.9644	268.059899	0.000614	6.142086	2.080995	0.048397
 309	1.5400e-01	11.9997	268.221223	0.000409	4.094724	1.387330	0.032265
 310	1.5450e-01	12.0398	268.463208	0.000614	6.142086	2.080995	0.048397
 311	1.5500e-01	12.0799	268.705194	0.000614	6.142086	2.080995	0.048397
 312	1.5550e-01	12.1152	269.068173	0.000921	9.213130	3.121493	0.072596
 313	1.5600e-01	12.1617	268.906849	-0.000409	-4.094724	-1.387330	-0.032265
 314	1.5650e-01	12.1986	269.753800	0.002150	21.497303	7.283483	0.169390
 315	1.5700e-01	12.2339	269.310159	-0.001126	-11.260492	-3.815158	-0.088728
 316	1.5750e-01	12.2852	269.794131	0.001228	12.284173	4.161990	0.096794
 317	1.5800e-01	12.3189	269.955455	0.000409	4.094724	1.387330	0.032265
 318	1.5850e-01	12.3606	269.874793	-0.000205	-2.047362	-0.693665	-0.016132
 319	1.5900e-01	12.3911	270.762075	0.002252	22.520984	7.630316	0.177456
 320	1.5950e-01	12.4360	270.076448	-0.001740	-17.402578	-5.896153	-0.137125
 321	1.6000e-01	12.4825	270.842737	0.001945	19.449940	6.589818	0.153258
 322	1.6050e-01	12.5082	271.125054	0.000717	7.165768	2.427828	0.056463
 323	1.6100e-01	12.5611	271.246046	0.000307	3.071043	1.040498	0.024199
 324	1.6150e-01	12.6029	271.689687	0.001126	11.260492	3.815158	0.088728
 325	1.6200e-01	12.6430	271.770349	0.000205	2.047362	0.693665	0.016132
 326	1.6250e-01	12.6799	271.891342	0.000307	3.071043	1.040498	0.024199
 327	1.6300e-01	12.7135	271.730018	-0.000409	-4.094724	-1.387330	-0.032265
 328	1.6350e-01	12.7585	272.213990	0.001228	12.284173	4.161990	0.096794
 329	1.6400e-01	12.8034	272.455976	0.000614	6.142086	2.080995	0.048397
 330	1.6450e-01	12.8419	272.980279	0.001331	13.307854	4.508823	0.104861
 331	1.6500e-01	12.8740	272.657631	-0.000819	-8.189449	-2.774660	-0.064530
 332	1.6550e-01	12.9125	273.020610	0.000921	9.213130	3.121493	0.072596
 333	1.6600e-01	12.9526	273.383589	0.000921	9.213130	3.121493	0.072596
 334	1.6650e-01	12.9863	273.585244	0.000512	5.118405	1.734163	0.040331
 335	1.6700e-01	13.0360	273.625575	0.000102	1.023681	0.346833	0.008066
 336	1.6750e-01	13.0761	274.028885	0.001024	10.236811	3.468325	0.080662
 337	1.6800e-01	13.1194	273.988554	-0.000102	-1.023681	-0.346833	-0.008066
 338	1.6850e-01	13.1515	274.593518	0.001536	15.355216	5.202488	0.120993
 339	1.6900e-01	13.1996	274.593518	0.000000	0.000000	0.000000	0.000000
 340	1.6950e-01	13.2349	274.391863	-0.000512	-5.118405	-1.734163	-0.040331
 341	1.7000e-01	13.2766	274.835504	0.001126	11.260492	3.815158	0.088728
 342	1.7050e-01	13.3039	275.400138	0.001433	14.331535	4.855656	0.112927
 343	1.7100e-01	13.3552	275.279145	-0.000307	-3.071043	-1.040498	-0.024199
 344	1.7150e-01	13.3937	275.964772	0.001740	17.402578	5.896153	0.137125
 345	1.7200e-01	13.4371	275.642124	-0.000819	-8.189449	-2.774660	-0.064530
 346	1.7250e-01	13.4772	275.964772	0.000819	8.189449	2.774660	0.064530
 347	1.7300e-01	13.5060	275.884110	-0.000205	-2.047362	-0.693665	-0.016132
 348	1.7350e-01	13.5558	276.489075	0.001536	15.355216	5.202488	0.120993
 349	1.7400e-01	13.5943	276.932716	0.001126	11.260492	3.815158	0.088728
 350	1.7450e-01	13.6344	276.771392	-0.000409	-4.094724	-1.387330	-0.032265
 351	1.7500e-01	13.6729	276.973047	0.000512	5.118405	1.734163	0.040331
 352	1.7550e-01	13.7130	277.094039	0.000307	3.071043	1.040498	0.024199
 353	1.7600e-01	13.7531	277.658673	0.001433	14.331535	4.855656	0.112927
 354	1.7650e-01	13.8012	277.578011	-0.000205	-2.047362	-0.693665	-0.016132
 355	1.7700e-01	13.8317	277.900659	0.000819	8.189449	2.774660	0.064530
 356	1.7750e-01	13.8702	277.860328	-0.000102	-1.023681	-0.346833	-0.008066
 357	1.7800e-01	13.9183	278.384631	0.001331	13.307854	4.508823	0.104861
 358	1.7850e-01	13.9632	278.263638	-0.000307	-3.071043	-1.040498	-0.024199
 359	1.7900e-01	13.9953	278.142645	-0.000307	-3.071043	-1.040498	-0.024199
 360	1.7950e-01	14.0306	278.787941	0.001638	16.378897	5.549321	0.129059
 361	1.8000e-01	14.0787	278.949265	0.000409	4.094724	1.387330	0.032265
 362	1.8050e-01	14.1140	279.150920	0.000512	5.118405	1.734163	0.040331
 363	1.8100e-01	14.1525	279.271913	0.000307	3.071043	1.040498	0.024199
 364	1.8150e-01	14.1878	279.634892	0.000921	9.213130	3.121493	0.072596
 365	1.8200e-01	14.2311	279.715554	0.000205	2.047362	0.693665	0.016132
 366	1.8250e-01	14.2697	280.038201	0.000819	8.189449	2.774660	0.064530
 367	1.8300e-01	14.3098	280.320518	0.000717	7.165768	2.427828	0.056463
 368	1.8350e-01	14.3563	280.320518	0.000000	0.000000	0.000000	0.000000
 369	1.8400e-01	14.3884	280.159194	-0.000409	-4.094724	-1.387330	-0.032265
 370	1.8450e-01	14.4301	280.925483	0.001945	19.449940	6.589818	0.153258
 371	1.8500e-01	14.4846	280.885152	-0.000102	-1.023681	-0.346833	-0.008066
 372	1.8550e-01	14.5103	281.167469	0.000717	7.165768	2.427828	0.056463
 373	1.8600e-01	14.5584	281.046476	-0.000307	-3.071043	-1.040498	-0.024199
 374	1.8650e-01	14.6049	281.288462	0.000614	6.142086	2.080995	0.048397
 375	1.8700e-01	14.6338	281.409455	0.000307	3.071043	1.040498	0.024199
 376	1.8750e-01	14.6723	282.014420	0.001536	15.355216	5.202488	0.120993
 377	1.8800e-01	14.7076	281.691772	-0.000819	-8.189449	-2.774660	-0.064530
 378	1.8850e-01	14.7589	282.337068	0.001638	16.378897	5.549321	0.129059
 379	1.8900e-01	14.7926	282.377399	0.000102	1.023681	0.346833	0.008066
 380	1.8950e-01	14.8311	282.901701	0.001331	13.307854	4.508823	0.104861
 381	1.9000e-01	14.8761	282.740378	-0.000409	-4.094724	-1.387330	-0.032265
 382	1.9050e-01	14.9113	283.184018	0.001126	11.260492	3.815158	0.088728
 383	1.9100e-01	14.9514	283.345342	0.000409	4.094724	1.387330	0.032265
 384	1.9150e-01	14.9948	283.385673	0.000102	1.023681	0.346833	0.008066
 385	1.9200e-01	15.0365	283.829314	0.001126	11.260492	3.815158	0.088728
 386	1.9250e-01	15.0750	283.829314	0.000000	0.000000	0.000000	0.000000
 387	1.9300e-01	15.1247	284.272955	0.001126	11.260492	3.815158	0.088728
 388	1.9350e-01	15.1552	284.353617	0.000205	2.047362	0.693665	0.016132
 389	1.9400e-01	15.1953	284.313286	-0.000102	-1.023681	-0.346833	-0.008066
 390	1.9450e-01	15.2386	284.393948	0.000205	2.047362	0.693665	0.016132
 391	1.9500e-01	15.2787	285.079575	0.001740	17.402578	5.896153	0.137125
 392	1.9550e-01	15.3124	285.160237	0.000205	2.047362	0.693665	0.016132
 393	1.9600e-01	15.3525	284.877920	-0.000717	-7.165768	-2.427828	-0.056463
 394	1.9650e-01	15.4006	284.998913	0.000307	3.071043	1.040498	0.024199
 395	1.9700e-01	15.4343	285.160237	0.000409	4.094724	1.387330	0.032265
 396	1.9750e-01	15.4696	285.886194	0.001843	18.426259	6.242986	0.145192
 397	1.9800e-01	15.5129	285.684539	-0.000512	-5.118405	-1.734163	-0.040331
 398	1.9850e-01	15.5595	286.329835	0.001638	16.378897	5.549321	0.129059
 399	1.9900e-01	15.5915	286.450828	0.000307	3.071043	1.040498	0.024199
 400	1.9950e-01	15.6365	286.370166	-0.000205	-2.047362	-0.693665	-0.016132
 401	2.0000e-01	15.6750	286.571821	0.000512	5.118405	1.734163	0.040331
 402	2.0050e-01	15.7167	286.773476	0.000512	5.118405	1.734163	0.040331
 403	2.0100e-01	15.7552	287.055793	0.000717	7.165768	2.427828	0.056463
 404	2.0150e-01	15.7953	287.297779	0.000614	6.142086	2.080995	0.048397
 405	2.0200e-01	15.8306	287.418772	0.000307	3.071043	1.040498	0.024199
 406	2.0250e-01	15.8723	287.781751	0.000921	9.213130	3.121493	0.072596
 407	2.0300e-01	15.9108	287.781751	0.000000	0.000000	0.000000	0.000000
 408	2.0350e-01	15.9525	288.225392	0.001126	11.260492	3.815158	0.088728
 409	2.0400e-01	15.9910	287.862413	-0.000921	-9.213130	-3.121493	-0.072596
 410	2.0450e-01	16.0375	288.144730	0.000717	7.165768	2.427828	0.056463
 411	2.0500e-01	16.0680	288.507709	0.000921	9.213130	3.121493	0.072596
 412	2.0550e-01	16.1209	288.870687	0.000921	9.213130	3.121493	0.072596
 413	2.0600e-01	16.1466	288.870687	0.000000	0.000000	0.000000	0.000000
 414	2.0650e-01	16.1883	289.314328	0.001126	11.260492	3.815158	0.088728
 415	2.0700e-01	16.2348	289.233666	-0.000205	-2.047362	-0.693665	-0.016132
 416	2.0750e-01	16.2717	289.556314	0.000819	8.189449	2.774660	0.064530
 417	2.0800e-01	16.3134	289.798300	0.000614	6.142086	2.080995	0.048397
 418	2.0850e-01	16.3552	289.515983	-0.000717	-7.165768	-2.427828	-0.056463
 419	2.0900e-01	16.3953	289.999955	0.001228	12.284173	4.161990	0.096794
 420	2.0950e-01	16.4402	290.322603	0.000819	8.189449	2.774660	0.064530
 421	2.1000e-01	16.4771	290.524258	0.000512	5.118405	1.734163	0.040331
 422	2.1050e-01	16.5076	290.483927	-0.000102	-1.023681	-0.346833	-0.008066
 423	2.1100e-01	16.5461	291.129223	0.001638	16.378897	5.549321	0.129059
 424	2.1150e-01	16.5958	290.927568	-0.000512	-5.118405	-1.734163	-0.040331
 425	2.1200e-01	16.6311	291.048561	0.000307	3.071043	1.040498	0.024199
 426	2.1250e-01	16.6728	291.774518	0.001843	18.426259	6.242986	0.145192
 427	2.1300e-01	16.7177	291.451870	-0.000819	-8.189449	-2.774660	-0.064530
 428	2.1350e-01	16.7482	291.653525	0.000512	5.118405	1.734163	0.040331
 429	2.1400e-01	16.7883	292.016504	0.000921	9.213130	3.121493	0.072596
 430	2.1450e-01	16.8300	292.097166	0.000205	2.047362	0.693665	0.016132
 431	2.1500e-01	16.8765	292.137497	0.000102	1.023681	0.346833	0.008066
 432	2.1550e-01	16.9102	292.540807	0.001024	10.236811	3.468325	0.080662
 433	2.1600e-01	16.9535	292.621469	0.000205	2.047362	0.693665	0.016132
 434	2.1650e-01	16.9968	292.702131	0.000205	2.047362	0.693665	0.016132
 435	2.1700e-01	17.0353	293.145772	0.001126	11.260492	3.815158	0.088728
 436	2.1750e-01	17.0803	293.065110	-0.000205	-2.047362	-0.693665	-0.016132
 437	2.1800e-01	17.1156	293.670075	0.001536	15.355216	5.202488	0.120993
 438	2.1850e-01	17.1509	293.831399	0.000409	4.094724	1.387330	0.032265
 439	2.1900e-01	17.2022	293.549082	-0.000717	-7.165768	-2.427828	-0.056463
 440	2.1950e-01	17.2375	293.589413	0.000102	1.023681	0.346833	0.008066
 441	2.2000e-01	17.2696	293.952392	0.000921	9.213130	3.121493	0.072596
 442	2.2050e-01	17.3177	294.476694	0.001331	13.307854	4.508823	0.104861
 443	2.2100e-01	17.3594	294.839673	0.000921	9.213130	3.121493	0.072596
 444	2.2150e-01	17.3995	294.517025	-0.000819	-8.189449	-2.774660	-0.064530
 445	2.2200e-01	17.4332	294.597687	0.000205	2.047362	0.693665	0.016132
 446	2.2250e-01	17.4829	295.081659	0.001228	12.284173	4.161990	0.096794
 447	2.2300e-01	17.5166	295.404307	0.000819	8.189449	2.774660	0.064530
 448	2.2350e-01	17.5663	295.444638	0.000102	1.023681	0.346833	0.008066
 449	2.2400e-01	17.6000	295.565631	0.000307	3.071043	1.040498	0.024199
 450	2.2450e-01	17.6305	295.767286	0.000512	5.118405	1.734163	0.040331
 451	2.2500e-01	17.6802	296.049603	0.000717	7.165768	2.427828	0.056463
 452	2.2550e-01	17.7204	296.331920	0.000717	7.165768	2.427828	0.056463
 453	2.2600e-01	17.7589	296.089934	-0.000614	-6.142086	-2.080995	-0.048397
 454	2.2650e-01	17.7893	296.533575	0.001126	11.260492	3.815158	0.088728
 455	2.2700e-01	17.8439	296.412582	-0.000307	-3.071043	-1.040498	-0.024199
 456	2.2750e-01	17.8776	296.977216	0.001433	14.331535	4.855656	0.112927
 457	2.2800e-01	17.9177	297.017547	0.000102	1.023681	0.346833	0.008066
 458	2.2850e-01	17.9530	297.461187	0.001126	11.260492	3.815158	0.088728
 459	2.2900e-01	17.9995	297.380525	-0.000205	-2.047362	-0.693665	-0.016132
 460	2.2950e-01	18.0364	297.622511	0.000614	6.142086	2.080995	0.048397
 461	2.3000e-01	18.0749	297.985490	0.000921	9.213130	3.121493	0.072596
 462	2.3050e-01	18.1134	298.106483	0.000307	3.071043	1.040498	0.024199
 463	2.3100e-01	18.1519	298.066152	-0.000102	-1.023681	-0.346833	-0.008066
 464	2.3150e-01	18.1968	298.671117	0.001536	15.355216	5.202488	0.120993
 465	2.3200e-01	18.2337	298.509793	-0.000409	-4.094724	-1.387330	-0.032265
 466	2.3250e-01	18.2770	298.550124	0.000102	1.023681	0.346833	0.008066
 467	2.3300e-01	18.3139	299.114758	0.001433	14.331535	4.855656	0.112927
 468	2.3350e-01	18.3540	298.913103	-0.000512	-5.118405	-1.734163	-0.040331
 469	2.3400e-01	18.4038	299.276082	0.000921	9.213130	3.121493	0.072596
 470	2.3450e-01	18.4374	299.840716	0.001433	14.331535	4.855656	0.112927
 471	2.3500e-01	18.4727	299.477737	-0.000921	-9.213130	-3.121493	-0.072596
 472	2.3550e-01	18.5145	299.598730	0.000307	3.071043	1.040498	0.024199
 473	2.3600e-01	18.5578	299.800385	0.000512	5.118405	1.734163	0.040331
 474	2.3650e-01	18.5979	299.961709	0.000409	4.094724	1.387330	0.032265
 475	2.3700e-01	18.6428	300.324687	0.000921	9.213130	3.121493	0.072596
 476	2.3750e-01	18.6829	300.365018	0.000102	1.023681	0.346833	0.008066
 477	2.3800e-01	18.7246	300.647335	0.000717	7.165768	2.427828	0.056463
 478	2.3850e-01	18.7551	300.808659	0.000409	4.094724	1.387330	0.032265
 479	2.3900e-01	18.7936	300.889321	0.000205	2.047362	0.693665	0.016132
 480	2.3950e-01	18.8433	301.292631	0.001024	10.236811	3.468325	0.080662
 481	2.4000e-01	18.8898	301.292631	0.000000	0.000000	0.000000	0.000000
 482	2.4050e-01	18.9171	301.090976	-0.000512	-5.118405	-1.734163	-0.040331
 483	2.4100e-01	18.9572	301.816934	0.001843	18.426259	6.242986	0.145192
 484	2.4150e-01	18.9957	301.695941	-0.000307	-3.071043	-1.040498	-0.024199
 485	2.4200e-01	19.0358	302.179913	0.001228	12.284173	4.161990	0.096794
 486	2.4250e-01	19.0775	302.139582	-0.000102	-1.023681	-0.346833	-0.008066
 487	2.4300e-01	19.1160	302.179913	0.000102	1.023681	0.346833	0.008066
 488	2.4350e-01	19.1610	302.381568	0.000512	5.118405	1.734163	0.040331
 489	2.4400e-01	19.2059	302.583223	0.000512	5.118405	1.734163	0.040331
 490	2.4450e-01	19.2364	302.744547	0.000409	4.094724	1.387330	0.032265
 491	2.4500e-01	19.2781	303.067194	0.000819	8.189449	2.774660	0.064530
 492	2.4550e-01	19.3198	303.309180	0.000614	6.142086	2.080995	0.048397
 493	2.4600e-01	19.3631	303.470504	0.000409	4.094724	1.387330	0.032265
 494	2.4650e-01	19.3936	303.591497	0.000307	3.071043	1.040498	0.024199
 495	2.4700e-01	19.4369	303.349511	-0.000614	-6.142086	-2.080995	-0.048397
 496	2.4750e-01	19.4818	304.035138	0.001740	17.402578	5.896153	0.137125
 497	2.4800e-01	19.5155	304.277124	0.000614	6.142086	2.080995	0.048397
 498	2.4850e-01	19.5604	304.398117	0.000307	3.071043	1.040498	0.024199
 499	2.4900e-01	19.5989	304.478779	0.000205	2.047362	0.693665	0.016132
 500	2.4950e-01	19.6342	304.519110	0.000102	1.023681	0.346833	0.008066
 501	2.5000e-01	19.6727	304.761096	0.000614	6.142086	2.080995	0.048397
 502	2.5050e-01	19.7032	304.720765	-0.000102	-1.023681	-0.346833	-0.008066
 503	2.5100e-01	19.7240	305.083744	0.000921	9.213130	3.121493	0.072596
 504	2.5150e-01	19.7385	304.962751	-0.000307	-3.071043	-1.040498	-0.024199
 505	2.5200e-01	19.7433	305.003082	0.000102	1.023681	0.346833	0.008066
 506	2.5250e-01	19.7481	305.245068	0.000614	6.142086	2.080995	0.048397
 507	2.5300e-01	19.7401	305.487054	-0.000614	-6.142086	-2.080995	0.048397
 508	2.5350e-01	19.7273	305.769371	-0.000717	-7.165768	-2.427828	0.056463
 509	2.5400e-01	19.7224	305.648378	0.000307	3.071043	1.040498	-0.024199
 510	2.5450e-01	19.6936	305.729040	-0.000205	-2.047362	-0.693665	0.016132
 511	2.5500e-01	19.6807	305.769371	-0.000102	-1.023681	-0.346833	0.008066
 512	2.5550e-01	19.6631	305.769371	-0.000000	-0.000000	-0.000000	0.000000
 513	2.5600e-01	19.6454	305.930694	-0.000409	-4.094724	-1.387330	0.032265
 514	2.5650e-01	19.6117	305.608047	0.000819	8.189449	2.774660	-0.064530
 515	2.5700e-01	19.5845	305.850033	-0.000614	-6.142086	-2.080995	0.048397
 516	2.5750e-01	19.5572	305.688709	0.000409	4.094724	1.387330	-0.032265
 517	2.5800e-01	19.5251	305.648378	0.000102	1.023681	0.346833	-0.008066
 518	2.5850e-01	19.4994	305.567716	0.000205	2.047362	0.693665	-0.016132
 519	2.5900e-01	19.4658	305.567716	-0.000000	-0.000000	-0.000000	0.000000
 520	2.5950e-01	19.4385	305.608047	-0.000102	-1.023681	-0.346833	0.008066
 521	2.6000e-01	19.4048	305.487054	0.000307	3.071043	1.040498	-0.024199
 522	2.6050e-01	19.3663	305.325730	0.000409	4.094724	1.387330	-0.032265
 523	2.6100e-01	19.3262	305.487054	-0.000409	-4.094724	-1.387330	0.032265
 524	2.6150e-01	19.3102	304.922420	0.001433	14.331535	4.855656	-0.112927
 525	2.6200e-01	19.2652	305.406392	-0.001228	-12.284173	-4.161990	0.096794
 526	2.6250e-01	19.2203	305.325730	0.000205	2.047362	0.693665	-0.016132
 527	2.6300e-01	19.1866	305.083744	0.000614	6.142086	2.080995	-0.048397
 528	2.6350e-01	19.1481	304.922420	0.000409	4.094724	1.387330	-0.032265
 529	2.6400e-01	19.1064	304.761096	0.000409	4.094724	1.387330	-0.032265
 530	2.6450e-01	19.0759	304.962751	-0.000512	-5.118405	-1.734163	0.040331
 531	2.6500e-01	19.0326	304.236793	0.001843	18.426259	6.242986	-0.145192
 532	2.6550e-01	19.0005	304.438448	-0.000512	-5.118405	-1.734163	0.040331
 533	2.6600e-01	18.9620	304.398117	0.000102	1.023681	0.346833	-0.008066
 534	2.6650e-01	18.9267	304.156131	0.000614	6.142086	2.080995	-0.048397
 535	2.6700e-01	18.8898	304.277124	-0.000307	-3.071043	-1.040498	0.024199
 536	2.6750e-01	18.8449	303.914145	0.000921	9.213130	3.121493	-0.072596
 537	2.6800e-01	18.8080	303.309180	0.001536	15.355216	5.202488	-0.120993
 538	2.6850e-01	18.7679	303.914145	-0.001536	-15.355216	-5.202488	0.120993
 539	2.6900e-01	18.7278	303.389842	0.001331	13.307854	4.508823	-0.104861
 540	2.6950e-01	18.6877	303.591497	-0.000512	-5.118405	-1.734163	0.040331
 541	2.7000e-01	18.6492	303.389842	0.000512	5.118405	1.734163	-0.040331
 542	2.7050e-01	18.6139	303.349511	0.000102	1.023681	0.346833	-0.008066
 543	2.7100e-01	18.5722	303.188187	0.000409	4.094724	1.387330	-0.032265
 544	2.7150e-01	18.5353	303.067194	0.000307	3.071043	1.040498	-0.024199
 545	2.7200e-01	18.4952	302.946202	0.000307	3.071043	1.040498	-0.024199
 546	2.7250e-01	18.4455	303.067194	-0.000307	-3.071043	-1.040498	0.024199
 547	2.7300e-01	18.4166	302.986532	0.000205	2.047362	0.693665	-0.016132
 548	2.7350e-01	18.3813	302.421899	0.001433	14.331535	4.855656	-0.112927
 549	2.7400e-01	18.3316	302.260575	0.000409	4.094724	1.387330	-0.032265
 550	2.7450e-01	18.2979	302.179913	0.000205	2.047362	0.693665	-0.016132
 551	2.7500e-01	18.2562	301.978258	0.000512	5.118405	1.734163	-0.040331
 552	2.7550e-01	18.2177	302.018589	-0.000102	-1.023681	-0.346833	0.008066
 553	2.7600e-01	18.1792	302.018589	-0.000000	-0.000000	-0.000000	0.000000
 554	2.7650e-01	18.1326	301.413624	0.001536	15.355216	5.202488	-0.120993
 555	2.7700e-01	18.0990	302.018589	-0.001536	-15.355216	-5.202488	0.120993
 556	2.7750e-01	18.0540	301.574948	0.001126	11.260492	3.815158	-0.088728
 557	2.7800e-01	18.0075	301.574948	-0.000000	-0.000000	-0.000000	0.000000
 558	2.7850e-01	17.9674	301.292631	0.000717	7.165768	2.427828	-0.056463
 559	2.7900e-01	17.9273	301.131307	0.000409	4.094724	1.387330	-0.032265
 560	2.7950e-01	17.8936	301.292631	-0.000409	-4.094724	-1.387330	0.032265
 561	2.8000e-01	17.8535	301.010314	0.000717	7.165768	2.427828	-0.056463
 562	2.8050e-01	17.8134	301.010314	-0.000000	-0.000000	-0.000000	0.000000
 563	2.8100e-01	17.7733	300.607004	0.001024	10.236811	3.468325	-0.080662
 564	2.8150e-01	17.7364	300.526342	0.000205	2.047362	0.693665	-0.016132
 565	2.8200e-01	17.6963	300.566673	-0.000102	-1.023681	-0.346833	0.008066
 566	2.8250e-01	17.6546	300.284356	0.000717	7.165768	2.427828	-0.056463
 567	2.8300e-01	17.6177	300.244025	0.000102	1.023681	0.346833	-0.008066
 568	2.8350e-01	17.5792	299.921378	0.000819	8.189449	2.774660	-0.064530
 569	2.8400e-01	17.5407	299.881047	0.000102	1.023681	0.346833	-0.008066
 570	2.8450e-01	17.4958	299.921378	-0.000102	-1.023681	-0.346833	0.008066
 571	2.8500e-01	17.4557	299.760054	0.000409	4.094724	1.387330	-0.032265
 572	2.8550e-01	17.4220	299.719723	0.000102	1.023681	0.346833	-0.008066
 573	2.8600e-01	17.3706	299.356744	0.000921	9.213130	3.121493	-0.072596
 574	2.8650e-01	17.3337	299.155089	0.000512	5.118405	1.734163	-0.040331
 575	2.8700e-01	17.2904	299.074427	0.000205	2.047362	0.693665	-0.016132
 576	2.8750e-01	17.2471	299.074427	-0.000000	-0.000000	-0.000000	0.000000
 577	2.8800e-01	17.2182	298.832441	0.000614	6.142086	2.080995	-0.048397
 578	2.8850e-01	17.1717	298.671117	0.000409	4.094724	1.387330	-0.032265
 579	2.8900e-01	17.1348	298.872772	-0.000512	-5.118405	-1.734163	0.040331
 580	2.8950e-01	17.1011	298.711448	0.000409	4.094724	1.387330	-0.032265
 581	2.9000e-01	17.0530	298.267807	0.001126	11.260492	3.815158	-0.088728
 582	2.9050e-01	17.0193	297.985490	0.000717	7.165768	2.427828	-0.056463
 583	2.9100e-01	16.9696	297.703173	0.000717	7.165768	2.427828	-0.056463
 584	2.9150e-01	16.9359	298.146814	-0.001126	-11.260492	-3.815158	0.088728
 585	2.9200e-01	16.8942	297.541849	0.001536	15.355216	5.202488	-0.120993
 586	2.9250e-01	16.8493	297.380525	0.000409	4.094724	1.387330	-0.032265
 587	2.9300e-01	16.8156	297.501518	-0.000307	-3.071043	-1.040498	0.024199
 588	2.9350e-01	16.7690	297.420856	0.000205	2.047362	0.693665	-0.016132
 589	2.9400e-01	16.7289	297.299863	0.000307	3.071043	1.040498	-0.024199
 590	2.9450e-01	16.6936	297.057878	0.000614	6.142086	2.080995	-0.048397
 591	2.9500e-01	16.6584	297.017547	0.000102	1.023681	0.346833	-0.008066
 592	2.9550e-01	16.6022	296.694899	0.000819	8.189449	2.774660	-0.064530
 593	2.9600e-01	16.5701	296.775561	-0.000205	-2.047362	-0.693665	0.016132
 594	2.9650e-01	16.5396	296.452913	0.000819	8.189449	2.774660	-0.064530
 595	2.9700e-01	16.4979	296.372251	0.000205	2.047362	0.693665	-0.016132
 596	2.9750e-01	16.4578	296.089934	0.000717	7.165768	2.427828	-0.056463
 597	2.9800e-01	16.4193	296.291589	-0.000512	-5.118405	-1.734163	0.040331
 598	2.9850e-01	16.3824	296.009272	0.000717	7.165768	2.427828	-0.056463
 599	2.9900e-01	16.3359	295.686624	0.000819	8.189449	2.774660	-0.064530
 600	2.9950e-01	16.3038	295.484969	0.000512	5.118405	1.734163	-0.040331
 601	3.0000e-01	16.2541	295.363976	0.000307	3.071043	1.040498	-0.024199
 602	3.0050e-01	16.2188	295.081659	0.000717	7.165768	2.427828	-0.056463
 603	3.0100e-01	16.1739	295.000997	0.000205	2.047362	0.693665	-0.016132
 604	3.0150e-01	16.1306	294.718680	0.000717	7.165768	2.427828	-0.056463
 605	3.0200e-01	16.1001	295.081659	-0.000921	-9.213130	-3.121493	0.072596
 606	3.0250e-01	16.0584	294.880004	0.000512	5.118405	1.734163	-0.040331
 607	3.0300e-01	16.0070	294.517025	0.000921	9.213130	3.121493	-0.072596
 608	3.0350e-01	15.9717	294.597687	-0.000205	-2.047362	-0.693665	0.016132
 609	3.0400e-01	15.9332	294.396032	0.000512	5.118405	1.734163	-0.040331
 610	3.0450e-01	15.8899	294.154047	0.000614	6.142086	2.080995	-0.048397
 611	3.0500e-01	15.8578	294.154047	-0.000000	-0.000000	-0.000000	0.000000
 612	3.0550e-01	15.8145	294.033054	0.000307	3.071043	1.040498	-0.024199
 613	3.0600e-01	15.7792	293.871730	0.000409	4.094724	1.387330	-0.032265
 614	3.0650e-01	15.7247	293.428089	0.001126	11.260492	3.815158	-0.088728
 615	3.0700e-01	15.6942	293.387758	0.000102	1.023681	0.346833	-0.008066
 616	3.0750e-01	15.6509	292.944117	0.001126	11.260492	3.815158	-0.088728
 617	3.0800e-01	15.6108	293.347427	-0.001024	-10.236811	-3.468325	0.080662
 618	3.0850e-01	15.5755	293.347427	-0.000000	-0.000000	-0.000000	0.000000
 619	3.0900e-01	15.5402	292.903786	0.001126	11.260492	3.815158	-0.088728
 620	3.0950e-01	15.4857	292.823124	0.000205	2.047362	0.693665	-0.016132
 621	3.1000e-01	15.4472	292.460145	0.000921	9.213130	3.121493	-0.072596
 622	3.1050e-01	15.4215	292.339152	0.000307	3.071043	1.040498	-0.024199
 623	3.1100e-01	15.3669	292.258490	0.000205	2.047362	0.693665	-0.016132
 624	3.1150e-01	15.3413	292.097166	0.000409	4.094724	1.387330	-0.032265
 625	3.1200e-01	15.2867	291.935842	0.000409	4.094724	1.387330	-0.032265
 626	3.1250e-01	15.2498	291.976173	-0.000102	-1.023681	-0.346833	0.008066
 627	3.1300e-01	15.2113	291.653525	0.000819	8.189449	2.774660	-0.064530
 628	3.1350e-01	15.1712	291.653525	-0.000000	-0.000000	-0.000000	0.000000
 629	3.1400e-01	15.1311	291.250216	0.001024	10.236811	3.468325	-0.080662
 630	3.1450e-01	15.0958	291.088892	0.000409	4.094724	1.387330	-0.032265
 631	3.1500e-01	15.0541	290.806575	0.000717	7.165768	2.427828	-0.056463
 632	3.1550e-01	15.0124	291.209885	-0.001024	-10.236811	-3.468325	0.080662
 633	3.1600e-01	14.9739	290.846906	0.000921	9.213130	3.121493	-0.072596
 634	3.1650e-01	14.9306	290.604920	0.000614	6.142086	2.080995	-0.048397
 635	3.1700e-01	14.8889	290.282272	0.000819	8.189449	2.774660	-0.064530
 636	3.1750e-01	14.8504	290.322603	-0.000102	-1.023681	-0.346833	0.008066
 637	3.1800e-01	14.8151	290.120948	0.000512	5.118405	1.734163	-0.040331
 638	3.1850e-01	14.7766	289.919293	0.000512	5.118405	1.734163	-0.040331
 639	3.1900e-01	14.7381	289.838631	0.000205	2.047362	0.693665	-0.016132
 640	3.1950e-01	14.6996	289.636976	0.000512	5.118405	1.734163	-0.040331
 641	3.2000e-01	14.6547	289.636976	-0.000000	-0.000000	-0.000000	0.000000
 642	3.2050e-01	14.6210	289.273997	0.000921	9.213130	3.121493	-0.072596
 643	3.2100e-01	14.5729	289.314328	-0.000102	-1.023681	-0.346833	0.008066
 644	3.2150e-01	14.5343	289.435321	-0.000307	-3.071043	-1.040498	0.024199
 645	3.2200e-01	14.4942	289.112673	0.000819	8.189449	2.774660	-0.064530
 646	3.2250e-01	14.4573	288.628701	0.001228	12.284173	4.161990	-0.096794
 647	3.2300e-01	14.4188	288.588370	0.000102	1.023681	0.346833	-0.008066
 648	3.2350e-01	14.3691	288.427047	0.000409	4.094724	1.387330	-0.032265
 649	3.2400e-01	14.3338	288.104399	0.000819	8.189449	2.774660	-0.064530
 650	3.2450e-01	14.2985	288.185061	-0.000205	-2.047362	-0.693665	0.016132
 651	3.2500e-01	14.2568	288.265723	-0.000205	-2.047362	-0.693665	0.016132
 652	3.2550e-01	14.2055	287.943075	0.000819	8.189449	2.774660	-0.064530
 653	3.2600e-01	14.1734	287.902744	0.000102	1.023681	0.346833	-0.008066
 654	3.2650e-01	14.1381	287.378441	0.001331	13.307854	4.508823	-0.104861
 655	3.2700e-01	14.1028	287.499434	-0.000307	-3.071043	-1.040498	0.024199
 656	3.2750e-01	14.0515	287.015462	0.001228	12.284173	4.161990	-0.096794
 657	3.2800e-01	14.0210	287.136455	-0.000307	-3.071043	-1.040498	0.024199
 658	3.2850e-01	13.9809	286.531490	0.001536	15.355216	5.202488	-0.120993
 659	3.2900e-01	13.9279	286.612152	-0.000205	-2.047362	-0.693665	0.016132
 660	3.2950e-01	13.8943	286.612152	-0.000000	-0.000000	-0.000000	0.000000
 661	3.3000e-01	13.8574	286.289504	0.000819	8.189449	2.774660	-0.064530
 662	3.3050e-01	13.8092	286.249173	0.000102	1.023681	0.346833	-0.008066
 663	3.3100e-01	13.7723	285.886194	0.000921	9.213130	3.121493	-0.072596
 664	3.3150e-01	13.7386	285.805532	0.000205	2.047362	0.693665	-0.016132
 665	3.3200e-01	13.6969	285.482885	0.000819	8.189449	2.774660	-0.064530
 666	3.3250e-01	13.6568	285.563547	-0.000205	-2.047362	-0.693665	0.016132
 667	3.3300e-01	13.6167	285.603878	-0.000102	-1.023681	-0.346833	0.008066
 668	3.3350e-01	13.5750	285.240899	0.000921	9.213130	3.121493	-0.072596
 669	3.3400e-01	13.5333	284.918251	0.000819	8.189449	2.774660	-0.064530
 670	3.3450e-01	13.5012	285.079575	-0.000409	-4.094724	-1.387330	0.032265
 671	3.3500e-01	13.4531	284.716596	0.000921	9.213130	3.121493	-0.072596
 672	3.3550e-01	13.4098	284.393948	0.000819	8.189449	2.774660	-0.064530
 673	3.3600e-01	13.3729	284.192293	0.000512	5.118405	1.734163	-0.040331
 674	3.3650e-01	13.3392	284.071300	0.000307	3.071043	1.040498	-0.024199
 675	3.3700e-01	13.3023	283.909976	0.000409	4.094724	1.387330	-0.032265
 676	3.3750e-01	13.2494	283.869645	0.000102	1.023681	0.346833	-0.008066
 677	3.3800e-01	13.2093	284.192293	-0.000819	-8.189449	-2.774660	0.064530
 678	3.3850e-01	13.1756	283.546997	0.001638	16.378897	5.549321	-0.129059
 679	3.3900e-01	13.1371	283.143687	0.001024	10.236811	3.468325	-0.080662
 680	3.3950e-01	13.0954	283.506666	-0.000921	-9.213130	-3.121493	0.072596
 681	3.4000e-01	13.0536	283.224349	0.000717	7.165768	2.427828	-0.056463
 682	3.4050e-01	13.0200	283.063025	0.000409	4.094724	1.387330	-0.032265
 683	3.4100e-01	12.9734	282.458061	0.001536	15.355216	5.202488	-0.120993
 684	3.4150e-01	12.9413	282.337068	0.000307	3.071043	1.040498	-0.024199
 685	3.4200e-01	12.8948	282.579054	-0.000614	-6.142086	-2.080995	0.048397
 686	3.4250e-01	12.8595	282.296737	0.000717	7.165768	2.427828	-0.056463
 687	3.4300e-01	12.8130	281.893427	0.001024	10.236811	3.468325	-0.080662
 688	3.4350e-01	12.7793	282.014420	-0.000307	-3.071043	-1.040498	0.024199
 689	3.4400e-01	12.7440	281.611110	0.001024	10.236811	3.468325	-0.080662
 690	3.4450e-01	12.6991	281.570779	0.000102	1.023681	0.346833	-0.008066
 691	3.4500e-01	12.6526	281.570779	-0.000000	-0.000000	-0.000000	0.000000
 692	3.4550e-01	12.6141	281.328793	0.000614	6.142086	2.080995	-0.048397
 693	3.4600e-01	12.5868	281.006145	0.000819	8.189449	2.774660	-0.064530
 694	3.4650e-01	12.5387	280.643166	0.000921	9.213130	3.121493	-0.072596
 695	3.4700e-01	12.5018	280.764159	-0.000307	-3.071043	-1.040498	0.024199
 696	3.4750e-01	12.4601	280.159194	0.001536	15.355216	5.202488	-0.120993
 697	3.4800e-01	12.4232	280.481842	-0.000819	-8.189449	-2.774660	0.064530
 698	3.4850e-01	12.3734	280.239856	0.000614	6.142086	2.080995	-0.048397
 699	3.4900e-01	12.3414	279.917208	0.000819	8.189449	2.774660	-0.064530
 700	3.4950e-01	12.2964	279.715554	0.000512	5.118405	1.734163	-0.040331
 701	3.5000e-01	12.2547	279.513899	0.000512	5.118405	1.734163	-0.040331
 702	3.5050e-01	12.2162	279.513899	-0.000000	-0.000000	-0.000000	0.000000
 703	3.5100e-01	12.1761	279.231582	0.000717	7.165768	2.427828	-0.056463
 704	3.5150e-01	12.1344	279.231582	-0.000000	-0.000000	-0.000000	0.000000
 705	3.5200e-01	12.1023	279.150920	0.000205	2.047362	0.693665	-0.016132
 706	3.5250e-01	12.0558	278.545955	0.001536	15.355216	5.202488	-0.120993
 707	3.5300e-01	12.0221	278.787941	-0.000614	-6.142086	-2.080995	0.048397
 708	3.5350e-01	11.9788	278.303969	0.001228	12.284173	4.161990	-0.096794
 709	3.5400e-01	11.9483	278.102314	0.000512	5.118405	1.734163	-0.040331
 710	3.5450e-01	11.9018	278.263638	-0.000409	-4.094724	-1.387330	0.032265
 711	3.5500e-01	11.8633	278.102314	0.000409	4.094724	1.387330	-0.032265
 712	3.5550e-01	11.8232	277.860328	0.000614	6.142086	2.080995	-0.048397
 713	3.5600e-01	11.7735	277.658673	0.000512	5.118405	1.734163	-0.040331
 714	3.5650e-01	11.7350	277.215032	0.001126	11.260492	3.815158	-0.088728
 715	3.5700e-01	11.6965	277.215032	-0.000000	-0.000000	-0.000000	0.000000
 716	3.5750e-01	11.6564	277.053708	0.000409	4.094724	1.387330	-0.032265
 717	3.5800e-01	11.6227	277.013377	0.000102	1.023681	0.346833	-0.008066
 718	3.5850e-01	11.5745	276.892385	0.000307	3.071043	1.040498	-0.024199
 719	3.5900e-01	11.5441	276.569737	0.000819	8.189449	2.774660	-0.064530
 720	3.5950e-01	11.4975	276.368082	0.000512	5.118405	1.734163	-0.040331
 721	3.6000e-01	11.4558	275.843779	0.001331	13.307854	4.508823	-0.104861
 722	3.6050e-01	11.4253	276.126096	-0.000717	-7.165768	-2.427828	0.056463
 723	3.6100e-01	11.3756	275.722786	0.001024	10.236811	3.468325	-0.080662
 724	3.6150e-01	11.3371	275.601793	0.000307	3.071043	1.040498	-0.024199
 725	3.6200e-01	11.3002	275.319476	0.000717	7.165768	2.427828	-0.056463
 726	3.6250e-01	11.2617	275.198483	0.000307	3.071043	1.040498	-0.024199
 727	3.6300e-01	11.2200	275.037159	0.000409	4.094724	1.387330	-0.032265
 728	3.6350e-01	11.1655	274.835504	0.000512	5.118405	1.734163	-0.040331
 729	3.6400e-01	11.1270	274.553187	0.000717	7.165768	2.427828	-0.056463
 730	3.6450e-01	11.1029	274.391863	0.000409	4.094724	1.387330	-0.032265
 731	3.6500e-01	11.0564	274.270870	0.000307	3.071043	1.040498	-0.024199
 732	3.6550e-01	11.0131	273.907892	0.000921	9.213130	3.121493	-0.072596
 733	3.6600e-01	10.9762	273.786899	0.000307	3.071043	1.040498	-0.024199
 734	3.6650e-01	10.9409	273.786899	-0.000000	-0.000000	-0.000000	0.000000
 735	3.6700e-01	10.8959	273.867561	-0.000205	-2.047362	-0.693665	0.016132
 736	3.6750e-01	10.8494	273.464251	0.001024	10.236811	3.468325	-0.080662
 737	3.6800e-01	10.8189	273.181934	0.000717	7.165768	2.427828	-0.056463
 738	3.6850e-01	10.7772	273.262596	-0.000205	-2.047362	-0.693665	0.016132
 739	3.6900e-01	10.7371	272.818955	0.001126	11.260492	3.815158	-0.088728
 740	3.6950e-01	10.6938	272.697962	0.000307	3.071043	1.040498	-0.024199
 741	3.7000e-01	10.6505	272.375314	0.000819	8.189449	2.774660	-0.064530
 742	3.7050e-01	10.6200	272.254321	0.000307	3.071043	1.040498	-0.024199
 743	3.7100e-01	10.5719	272.213990	0.000102	1.023681	0.346833	-0.008066
 744	3.7150e-01	10.5222	272.133328	0.000205	2.047362	0.693665	-0.016132
 745	3.7200e-01	10.4965	271.770349	0.000921	9.213130	3.121493	-0.072596
 746	3.7250e-01	10.4596	271.528363	0.000614	6.142086	2.080995	-0.048397
 747	3.7300e-01	10.4243	271.326708	0.000512	5.118405	1.734163	-0.040331
 748	3.7350e-01	10.3762	271.286377	0.000102	1.023681	0.346833	-0.008066
 749	3.7400e-01	10.3393	270.842737	0.001126	11.260492	3.815158	-0.088728
 750	3.7450e-01	10.3024	270.883068	-0.000102	-1.023681	-0.346833	0.008066
 751	3.7500e-01	10.2607	270.883068	-0.000000	-0.000000	-0.000000	0.000000
 752	3.7550e-01	10.2093	270.358765	0.001331	13.307854	4.508823	-0.104861
 753	3.7600e-01	10.1724	270.076448	0.000717	7.165768	2.427828	-0.056463
 754	3.7650e-01	10.1436	270.278103	-0.000512	-5.118405	-1.734163	0.040331
 755	3.7700e-01	10.0970	269.552145	0.001843	18.426259	6.242986	-0.145192
 756	3.7750e-01	10.0521	269.713469	-0.000409	-4.094724	-1.387330	0.032265
 757	3.7800e-01	10.0168	269.511814	0.000512	5.118405	1.734163	-0.040331
 758	3.7850e-01	9.9751	269.229497	0.000717	7.165768	2.427828	-0.056463
 759	3.7900e-01	9.9318	269.027842	0.000512	5.118405	1.734163	-0.040331
 760	3.7950e-01	9.9013	268.866518	0.000409	4.094724	1.387330	-0.032265
 761	3.8000e-01	9.8548	268.866518	-0.000000	-0.000000	-0.000000	0.000000
 762	3.8050e-01	9.8179	268.301885	0.001433	14.331535	4.855656	-0.112927
 763	3.8100e-01	9.7746	268.463208	-0.000409	-4.094724	-1.387330	0.032265
 764	3.8150e-01	9.7329	268.140561	0.000819	8.189449	2.774660	-0.064530
 765	3.8200e-01	9.6976	268.180892	-0.000102	-1.023681	-0.346833	0.008066
 766	3.8250e-01	9.6543	267.938906	0.000614	6.142086	2.080995	-0.048397
 767	3.8300e-01	9.6190	268.059899	-0.000307	-3.071043	-1.040498	0.024199
 768	3.8350e-01	9.5741	267.293610	0.001945	19.449940	6.589818	-0.153258
 769	3.8400e-01	9.5307	267.172617	0.000307	3.071043	1.040498	-0.024199
 770	3.8450e-01	9.4938	267.132286	0.000102	1.023681	0.346833	-0.008066
 771	3.8500e-01	9.4586	267.132286	-0.000000	-0.000000	-0.000000	0.000000
 772	3.8550e-01	9.4201	266.809638	0.000819	8.189449	2.774660	-0.064530
 773	3.8600e-01	9.3735	266.486990	0.000819	8.189449	2.774660	-0.064530
 774	3.8650e-01	9.3398	266.124011	0.000921	9.213130	3.121493	-0.072596
 775	3.8700e-01	9.3046	266.245004	-0.000307	-3.071043	-1.040498	0.024199
 776	3.8750e-01	9.2660	265.922356	0.000819	8.189449	2.774660	-0.064530
 777	3.8800e-01	9.2147	265.559377	0.000921	9.213130	3.121493	-0.072596
 778	3.8850e-01	9.1714	265.599708	-0.000102	-1.023681	-0.346833	0.008066
 779	3.8900e-01	9.1313	265.438385	0.000409	4.094724	1.387330	-0.032265
 780	3.8950e-01	9.0992	264.793089	0.001638	16.378897	5.549321	-0.129059
 781	3.9000e-01	9.0591	264.833420	-0.000102	-1.023681	-0.346833	0.008066
 782	3.9050e-01	9.0142	264.672096	0.000409	4.094724	1.387330	-0.032265
 783	3.9100e-01	8.9725	264.389779	0.000717	7.165768	2.427828	-0.056463
 784	3.9150e-01	8.9276	264.309117	0.000205	2.047362	0.693665	-0.016132
 785	3.9200e-01	8.8955	263.905807	0.001024	10.236811	3.468325	-0.080662
 786	3.9250e-01	8.8522	263.986469	-0.000205	-2.047362	-0.693665	0.016132
 787	3.9300e-01	8.8169	263.946138	0.000102	1.023681	0.346833	-0.008066
 788	3.9350e-01	8.7703	263.462166	0.001228	12.284173	4.161990	-0.096794
 789	3.9400e-01	8.7318	263.220180	0.000614	6.142086	2.080995	-0.048397
 790	3.9450e-01	8.6933	263.300842	-0.000205	-2.047362	-0.693665	0.016132
 791	3.9500e-01	8.6564	262.736208	0.001433	14.331535	4.855656	-0.112927
 792	3.9550e-01	8.6147	262.978194	-0.000614	-6.142086	-2.080995	0.048397
 793	3.9600e-01	8.5746	262.494223	0.001228	12.284173	4.161990	-0.096794
 794	3.9650e-01	8.5377	262.171575	0.000819	8.189449	2.774660	-0.064530
 795	3.9700e-01	8.4992	262.131244	0.000102	1.023681	0.346833	-0.008066
 796	3.9750e-01	8.4479	261.969920	0.000409	4.094724	1.387330	-0.032265
 797	3.9800e-01	8.4078	261.606941	0.000921	9.213130	3.121493	-0.072596
 798	3.9850e-01	8.3837	261.606941	-0.000000	-0.000000	-0.000000	0.000000
 799	3.9900e-01	8.3244	261.001976	0.001536	15.355216	5.202488	-0.120993
 800	3.9950e-01	8.2891	261.163300	-0.000409	-4.094724	-1.387330	0.032265
 801	4.0000e-01	8.2538	260.638997	0.001331	13.307854	4.508823	-0.104861
 802	4.0050e-01	8.2153	260.921314	-0.000717	-7.165768	-2.427828	0.056463
 803	4.0100e-01	8.1768	260.155025	0.001945	19.449940	6.589818	-0.153258
 804	4.0150e-01	8.1415	260.114694	0.000102	1.023681	0.346833	-0.008066
 805	4.0200e-01	8.1014	259.953370	0.000409	4.094724	1.387330	-0.032265
 806	4.0250e-01	8.0516	259.832377	0.000307	3.071043	1.040498	-0.024199
 807	4.0300e-01	8.0212	259.751715	0.000205	2.047362	0.693665	-0.016132
 808	4.0350e-01	7.9778	259.469399	0.000717	7.165768	2.427828	-0.056463
 809	4.0400e-01	7.9345	259.146751	0.000819	8.189449	2.774660	-0.064530
 810	4.0450e-01	7.8976	259.025758	0.000307	3.071043	1.040498	-0.024199
 811	4.0500e-01	7.8623	258.783772	0.000614	6.142086	2.080995	-0.048397
 812	4.0550e-01	7.8110	258.743441	0.000102	1.023681	0.346833	-0.008066
 813	4.0600e-01	7.7741	258.420793	0.000819	8.189449	2.774660	-0.064530
 814	4.0650e-01	7.7404	258.098145	0.000819	8.189449	2.774660	-0.064530
 815	4.0700e-01	7.6955	257.977152	0.000307	3.071043	1.040498	-0.024199
 816	4.0750e-01	7.6570	257.533511	0.001126	11.260492	3.815158	-0.088728
 817	4.0800e-01	7.6025	257.452849	0.000205	2.047362	0.693665	-0.016132
 818	4.0850e-01	7.5832	257.573842	-0.000307	-3.071043	-1.040498	0.024199
 819	4.0900e-01	7.5415	257.291525	0.000717	7.165768	2.427828	-0.056463
 820	4.0950e-01	7.4934	257.210863	0.000205	2.047362	0.693665	-0.016132
 821	4.1000e-01	7.4501	256.646230	0.001433	14.331535	4.855656	-0.112927
 822	4.1050e-01	7.4212	256.565568	0.000205	2.047362	0.693665	-0.016132
 823	4.1100e-01	7.3763	256.242920	0.000819	8.189449	2.774660	-0.064530
 824	4.1150e-01	7.3394	255.799279	0.001126	11.260492	3.815158	-0.088728
 825	4.1200e-01	7.3073	256.041265	-0.000614	-6.142086	-2.080995	0.048397
 826	4.1250e-01	7.2495	255.799279	0.000614	6.142086	2.080995	-0.048397
 827	4.1300e-01	7.2142	255.597624	0.000512	5.118405	1.734163	-0.040331
 828	4.1350e-01	7.1709	255.315307	0.000717	7.165768	2.427828	-0.056463
 829	4.1400e-01	7.1324	254.871666	0.001126	11.260492	3.815158	-0.088728
 830	4.1450e-01	7.0955	254.911997	-0.000102	-1.023681	-0.346833	0.008066
 831	4.1500e-01	7.0538	254.871666	0.000102	1.023681	0.346833	-0.008066
 832	4.1550e-01	7.0121	254.468356	0.001024	10.236811	3.468325	-0.080662
 833	4.1600e-01	6.9736	254.226370	0.000614	6.142086	2.080995	-0.048397
 834	4.1650e-01	6.9303	254.065046	0.000409	4.094724	1.387330	-0.032265
 835	4.1700e-01	6.8998	253.621406	0.001126	11.260492	3.815158	-0.088728
 836	4.1750e-01	6.8581	253.903723	-0.000717	-7.165768	-2.427828	0.056463
 837	4.1800e-01	6.8148	253.621406	0.000717	7.165768	2.427828	-0.056463
 838	4.1850e-01	6.7795	252.855117	0.001945	19.449940	6.589818	-0.153258
 839	4.1900e-01	6.7410	253.097103	-0.000614	-6.142086	-2.080995	0.048397
 840	4.1950e-01	6.7041	252.855117	0.000614	6.142086	2.080995	-0.048397
 841	4.2000e-01	6.6544	252.330814	0.001331	13.307854	4.508823	-0.104861
 842	4.2050e-01	6.6062	252.290483	0.000102	1.023681	0.346833	-0.008066
 843	4.2100e-01	6.5693	251.725849	0.001433	14.331535	4.855656	-0.112927
 844	4.2150e-01	6.5372	252.008166	-0.000717	-7.165768	-2.427828	0.056463
 845	4.2200e-01	6.5004	251.766180	0.000614	6.142086	2.080995	-0.048397
 846	4.2250e-01	6.4570	251.927504	-0.000409	-4.094724	-1.387330	0.032265
 847	4.2300e-01	6.4169	251.322539	0.001536	15.355216	5.202488	-0.120993
 848	4.2350e-01	6.3881	250.999892	0.000819	8.189449	2.774660	-0.064530
 849	4.2400e-01	6.3351	250.314265	0.001740	17.402578	5.896153	-0.137125
 850	4.2450e-01	6.3030	250.394927	-0.000205	-2.047362	-0.693665	0.016132
 851	4.2500e-01	6.2629	250.354596	0.000102	1.023681	0.346833	-0.008066
 852	4.2550e-01	6.2148	250.031948	0.000819	8.189449	2.774660	-0.064530
 853	4.2600e-01	6.1779	250.193272	-0.000409	-4.094724	-1.387330	0.032265
 854	4.2650e-01	6.1330	250.072279	0.000307	3.071043	1.040498	-0.024199
 855	4.2700e-01	6.1089	249.426983	0.001638	16.378897	5.549321	-0.129059
 856	4.2750e-01	6.0576	249.023673	0.001024	10.236811	3.468325	-0.080662
 857	4.2800e-01	6.0207	248.862349	0.000409	4.094724	1.387330	-0.032265
 858	4.2850e-01	5.9822	248.943011	-0.000205	-2.047362	-0.693665	0.016132
 859	4.2900e-01	5.9357	248.620363	0.000819	8.189449	2.774660	-0.064530
 860	4.2950e-01	5.8988	248.096061	0.001331	13.307854	4.508823	-0.104861
 861	4.3000e-01	5.8571	248.257384	-0.000409	-4.094724	-1.387330	0.032265
 862	4.3050e-01	5.8266	247.975068	0.000717	7.165768	2.427828	-0.056463
 863	4.3100e-01	5.7801	247.692751	0.000717	7.165768	2.427828	-0.056463
 864	4.3150e-01	5.7399	247.692751	-0.000000	-0.000000	-0.000000	0.000000
 865	4.3200e-01	5.6966	247.128117	0.001433	14.331535	4.855656	-0.112927
 866	4.3250e-01	5.6565	247.007124	0.000307	3.071043	1.040498	-0.024199
 867	4.3300e-01	5.6132	246.603814	0.001024	10.236811	3.468325	-0.080662
 868	4.3350e-01	5.5699	246.482821	0.000307	3.071043	1.040498	-0.024199
 869	4.3400e-01	5.5410	246.321497	0.000409	4.094724	1.387330	-0.032265
 870	4.3450e-01	5.4945	245.877856	0.001126	11.260492	3.815158	-0.088728
 871	4.3500e-01	5.4528	245.676201	0.000512	5.118405	1.734163	-0.040331
 872	4.3550e-01	5.4207	245.797194	-0.000307	-3.071043	-1.040498	0.024199
 873	4.3600e-01	5.3774	245.030906	0.001945	19.449940	6.589818	-0.153258
 874	4.3650e-01	5.3389	244.990575	0.000102	1.023681	0.346833	-0.008066
 875	4.3700e-01	5.2972	244.829251	0.000409	4.094724	1.387330	-0.032265
 876	4.3750e-01	5.2683	244.587265	0.000614	6.142086	2.080995	-0.048397
 877	4.3800e-01	5.2138	244.587265	-0.000000	-0.000000	-0.000000	0.000000
 878	4.3850e-01	5.1753	244.385610	0.000512	5.118405	1.734163	-0.040331
 879	4.3900e-01	5.1400	244.183955	0.000512	5.118405	1.734163	-0.040331
 880	4.3950e-01	5.0966	243.578990	0.001536	15.355216	5.202488	-0.120993
 881	4.4000e-01	5.0453	243.337004	0.000614	6.142086	2.080995	-0.048397
 882	4.4050e-01	5.0196	243.135349	0.000512	5.118405	1.734163	-0.040331
 883	4.4100e-01	4.9860	242.812701	0.000819	8.189449	2.774660	-0.064530
 884	4.4150e-01	4.9314	242.812701	-0.000000	-0.000000	-0.000000	0.000000
 885	4.4200e-01	4.8897	242.248068	0.001433	14.331535	4.855656	-0.112927
 886	4.4250e-01	4.8576	242.369061	-0.000307	-3.071043	-1.040498	0.024199
 887	4.4300e-01	4.8175	242.369061	-0.000000	-0.000000	-0.000000	0.000000
 888	4.4350e-01	4.7774	241.844758	0.001331	13.307854	4.508823	-0.104861
 889	4.4400e-01	4.7373	241.522110	0.000819	8.189449	2.774660	-0.064530
 890	4.4450e-01	4.7020	241.360786	0.000409	4.094724	1.387330	-0.032265
 891	4.4500e-01	4.6619	241.239793	0.000307	3.071043	1.040498	-0.024199
 892	4.4550e-01	4.6154	240.997807	0.000614	6.142086	2.080995	-0.048397
 893	4.4600e-01	4.5753	240.473504	0.001331	13.307854	4.508823	-0.104861
 894	4.4650e-01	4.5464	240.392842	0.000205	2.047362	0.693665	-0.016132
 895	4.4700e-01	4.4902	239.989532	0.001024	10.236811	3.468325	-0.080662
 896	4.4750e-01	4.4582	240.191187	-0.000512	-5.118405	-1.734163	0.040331
 897	4.4800e-01	4.4148	239.989532	0.000512	5.118405	1.734163	-0.040331
 898	4.4850e-01	4.3780	239.787877	0.000512	5.118405	1.734163	-0.040331
 899	4.4900e-01	4.3394	239.344237	0.001126	11.260492	3.815158	-0.088728
 900	4.4950e-01	4.3009	239.061920	0.000717	7.165768	2.427828	-0.056463
 901	4.5000e-01	4.2544	238.658610	0.001024	10.236811	3.468325	-0.080662
 902	4.5050e-01	4.2143	238.658610	-0.000000	-0.000000	-0.000000	0.000000
 903	4.5100e-01	4.1726	238.376293	0.000717	7.165768	2.427828	-0.056463
 904	4.5150e-01	4.1405	237.972983	0.001024	10.236811	3.468325	-0.080662
 905	4.5200e-01	4.0892	237.972983	-0.000000	-0.000000	-0.000000	0.000000
 906	4.5250e-01	4.0651	237.448680	0.001331	13.307854	4.508823	-0.104861
 907	4.5300e-01	4.0154	236.924377	0.001331	13.307854	4.508823	-0.104861
 908	4.5350e-01	3.9833	237.206694	-0.000717	-7.165768	-2.427828	0.056463
 909	4.5400e-01	3.9368	236.763053	0.001126	11.260492	3.815158	-0.088728
 910	4.5450e-01	3.9031	236.359744	0.001024	10.236811	3.468325	-0.080662
 911	4.5500e-01	3.8566	236.440406	-0.000205	-2.047362	-0.693665	0.016132
 912	4.5550e-01	3.8197	236.319413	0.000307	3.071043	1.040498	-0.024199
 913	4.5600e-01	3.7764	235.512793	0.002047	20.473621	6.936651	-0.161324
 914	4.5650e-01	3.7347	235.472462	0.000102	1.023681	0.346833	-0.008066
 915	4.5700e-01	3.7010	235.190145	0.000717	7.165768	2.427828	-0.056463
 916	4.5750e-01	3.6528	235.149814	0.000102	1.023681	0.346833	-0.008066
 917	4.5800e-01	3.6175	234.988490	0.000409	4.094724	1.387330	-0.032265
 918	4.5850e-01	3.5790	234.302863	0.001740	17.402578	5.896153	-0.137125
 919	4.5900e-01	3.5325	234.262532	0.000102	1.023681	0.346833	-0.008066
 920	4.5950e-01	3.4956	234.101208	0.000409	4.094724	1.387330	-0.032265
 921	4.6000e-01	3.4587	233.455913	0.001638	16.378897	5.549321	-0.129059
 922	4.6050e-01	3.4138	233.617237	-0.000409	-4.094724	-1.387330	0.032265
 923	4.6100e-01	3.3849	233.455913	0.000409	4.094724	1.387330	-0.032265
 924	4.6150e-01	3.3480	232.971941	0.001228	12.284173	4.161990	-0.096794
 925	4.6200e-01	3.2983	232.649293	0.000819	8.189449	2.774660	-0.064530
 926	4.6250e-01	3.2518	232.487969	0.000409	4.094724	1.387330	-0.032265
 927	4.6300e-01	3.2213	232.003997	0.001228	12.284173	4.161990	-0.096794
 928	4.6350e-01	3.1780	231.762011	0.000614	6.142086	2.080995	-0.048397
 929	4.6400e-01	3.1299	231.600687	0.000409	4.094724	1.387330	-0.032265
 930	4.6450e-01	3.0881	231.439363	0.000409	4.094724	1.387330	-0.032265
 931	4.6500e-01	3.0529	231.439363	-0.000000	-0.000000	-0.000000	0.000000
 932	4.6550e-01	3.0176	230.794068	0.001638	16.378897	5.549321	-0.129059
 933	4.6600e-01	2.9694	230.834399	-0.000102	-1.023681	-0.346833	0.008066
 934	4.6650e-01	2.9357	230.269765	0.001433	14.331535	4.855656	-0.112927
 935	4.6700e-01	2.8908	230.108441	0.000409	4.094724	1.387330	-0.032265
 936	4.6750e-01	2.8555	230.068110	0.000102	1.023681	0.346833	-0.008066
 937	4.6800e-01	2.8138	229.543807	0.001331	13.307854	4.508823	-0.104861
 938	4.6850e-01	2.7721	229.382483	0.000409	4.094724	1.387330	-0.032265
 939	4.6900e-01	2.7400	229.221159	0.000409	4.094724	1.387330	-0.032265
 940	4.6950e-01	2.6999	228.817849	0.001024	10.236811	3.468325	-0.080662
 941	4.7000e-01	2.6614	228.737187	0.000205	2.047362	0.693665	-0.016132
 942	4.7050e-01	2.6197	228.535532	0.000512	5.118405	1.734163	-0.040331
 943	4.7100e-01	2.5716	227.930568	0.001536	15.355216	5.202488	-0.120993
 944	4.7150e-01	2.5347	228.011229	-0.000205	-2.047362	-0.693665	0.016132
 945	4.7200e-01	2.4914	227.930568	0.000205	2.047362	0.693665	-0.016132
 946	4.7250e-01	2.4641	227.164279	0.001945	19.449940	6.589818	-0.153258
 947	4.7300e-01	2.4144	227.446596	-0.000717	-7.165768	-2.427828	0.056463
 948	4.7350e-01	2.3662	227.002955	0.001126	11.260492	3.815158	-0.088728
 949	4.7400e-01	2.3261	226.559314	0.001126	11.260492	3.815158	-0.088728
 950	4.7450e-01	2.2908	226.317328	0.000614	6.142086	2.080995	-0.048397
 951	4.7500e-01	2.2475	226.236666	0.000205	2.047362	0.693665	-0.016132
 952	4.7550e-01	2.2090	225.631701	0.001536	15.355216	5.202488	-0.120993
 953	4.7600e-01	2.1818	225.510708	0.000307	3.071043	1.040498	-0.024199
 954	4.7650e-01	2.1384	225.510708	-0.000000	-0.000000	-0.000000	0.000000
 955	4.7700e-01	2.0887	225.268722	0.000614	6.142086	2.080995	-0.048397
 956	4.7750e-01	2.0534	224.623427	0.001638	16.378897	5.549321	-0.129059
 957	4.7800e-01	2.0245	224.341110	0.000717	7.165768	2.427828	-0.056463
 958	4.7850e-01	1.9780	224.220117	0.000307	3.071043	1.040498	-0.024199
 959	4.7900e-01	1.9347	223.937800	0.000717	7.165768	2.427828	-0.056463
 960	4.7950e-01	1.8946	223.413497	0.001331	13.307854	4.508823	-0.104861
 961	4.8000e-01	1.8545	223.373166	0.000102	1.023681	0.346833	-0.008066
 962	4.8050e-01	1.8256	222.969856	0.001024	10.236811	3.468325	-0.080662
 963	4.8100e-01	1.7695	222.566546	0.001024	10.236811	3.468325	-0.080662
 964	4.8150e-01	1.7229	222.606877	-0.000102	-1.023681	-0.346833	0.008066
 965	4.8200e-01	1.6909	222.082575	0.001331	13.307854	4.508823	-0.104861
 966	4.8250e-01	1.6556	222.203567	-0.000307	-3.071043	-1.040498	0.024199
 967	4.8300e-01	1.6123	221.477610	0.001843	18.426259	6.242986	-0.145192
 968	4.8350e-01	1.5738	221.114631	0.000921	9.213130	3.121493	-0.072596
 969	4.8400e-01	1.5288	220.912976	0.000512	5.118405	1.734163	-0.040331
 970	4.8450e-01	1.4871	220.872645	0.000102	1.023681	0.346833	-0.008066
 971	4.8500e-01	1.4599	220.106356	0.001945	19.449940	6.589818	-0.153258
 972	4.8550e-01	1.4165	220.388673	-0.000717	-7.165768	-2.427828	0.056463
 973	4.8600e-01	1.3684	219.864370	0.001331	13.307854	4.508823	-0.104861
 974	4.8650e-01	1.3395	219.541722	0.000819	8.189449	2.774660	-0.064530
 975	4.8700e-01	1.2946	219.582053	-0.000102	-1.023681	-0.346833	0.008066
 976	4.8750e-01	1.2529	219.017420	0.001433	14.331535	4.855656	-0.112927
 977	4.8800e-01	1.2144	218.654441	0.000921	9.213130	3.121493	-0.072596
 978	4.8850e-01	1.1711	218.654441	-0.000000	-0.000000	-0.000000	0.000000
 979	4.8900e-01	1.1358	217.928483	0.001843	18.426259	6.242986	-0.145192
 980	4.8950e-01	1.0957	218.089807	-0.000409	-4.094724	-1.387330	0.032265
 981	4.9000e-01	1.0604	217.847821	0.000614	6.142086	2.080995	-0.048397
 982	4.9050e-01	1.0059	217.565504	0.000717	7.165768	2.427828	-0.056463
 983	4.9100e-01	0.9641	217.242856	0.000819	8.189449	2.774660	-0.064530
 984	4.9150e-01	0.9321	216.678222	0.001433	14.331535	4.855656	-0.112927
 985	4.9200e-01	0.8903	216.234582	0.001126	11.260492	3.815158	-0.088728
 986	4.9250e-01	0.8535	215.992596	0.000614	6.142086	2.080995	-0.048397
 987	4.9300e-01	0.8182	216.355575	-0.000921	-9.213130	-3.121493	0.072596
 988	4.9350e-01	0.7668	215.669948	0.001740	17.402578	5.896153	-0.137125
 989	4.9400e-01	0.7235	215.306969	0.000921	9.213130	3.121493	-0.072596
 990	4.9450e-01	0.6914	215.064983	0.000614	6.142086	2.080995	-0.048397
 991	4.9500e-01	0.6577	214.943990	0.000307	3.071043	1.040498	-0.024199
 992	4.9550e-01	0.6144	214.661673	0.000717	7.165768	2.427828	-0.056463
 993	4.9600e-01	0.5631	214.258363	0.001024	10.236811	3.468325	-0.080662
 994	4.9650e-01	0.5406	213.774391	0.001228	12.284173	4.161990	-0.096794
 995	4.9700e-01	0.4925	213.572736	0.000512	5.118405	1.734163	-0.040331
 996	4.9750e-01	0.4540	213.330751	0.000614	6.142086	2.080995	-0.048397
 997	4.9800e-01	0.4123	212.483800	0.002150	21.497303	7.283483	-0.169390
 998	4.9850e-01	0.3722	212.524131	-0.000102	-1.023681	-0.346833	0.008066
 999	4.9900e-01	0.3273	211.919166	0.001536	15.355216	5.202488	-0.120993
1000	4.9950e-01	0.2856	212.040159	-0.000307	-3.071043	-1.040498	0.024199
1001	5.0000e-01	0.2583	211.959497	0.000205	2.047362	0.693665	-0.016132
1002	5.0050e-01	0.2182	211.152877	0.002047	20.473621	6.936651	-0.161324
1003	5.0100e-01	0.1733	211.193208	-0.000102	-1.023681	-0.346833	0.008066
1004	5.0150e-01	0.1332	210.789898	0.001024	10.236811	3.468325	-0.080662
1005	5.0200e-01	0.0914	210.789898	-0.000000	-0.000000	-0.000000	0.000000
1006	5.0250e-01	0.0545	210.386589	0.001024	10.236811	3.468325	-0.080662
1007	5.0300e-01	0.0128	209.781624	0.001536	15.355216	5.202488	-0.120993
1008	5.0350e-01	-0.0209	209.539638	0.000614	6.142086	2.080995	-0.048397
1009	5.0400e-01	-0.0545	209.176659	0.000921	9.213130	3.121493	-0.072596
1010	5.0450e-01	-0.0963	208.813680	0.000921	9.213130	3.121493	-0.072596
1011	5.0500e-01	-0.1428	208.410370	0.001024	10.236811	3.468325	-0.080662
1012	5.0550e-01	-0.1749	208.410370	-0.000000	-0.000000	-0.000000	0.000000
1013	5.0600e-01	-0.2246	208.047391	0.000921	9.213130	3.121493	-0.072596
1014	5.0650e-01	-0.2535	207.805405	0.000614	6.142086	2.080995	-0.048397
1015	5.0700e-01	-0.2968	207.442427	0.000921	9.213130	3.121493	-0.072596
1016	5.0750e-01	-0.3401	207.160110	0.000717	7.165768	2.427828	-0.056463
1017	5.0800e-01	-0.3706	206.595476	0.001433	14.331535	4.855656	-0.112927
1018	5.0850e-01	-0.4219	206.837462	-0.000614	-6.142086	-2.080995	0.048397
1019	5.0900e-01	-0.4588	205.990511	0.002150	21.497303	7.283483	-0.169390
1020	5.0950e-01	-0.4989	206.111504	-0.000307	-3.071043	-1.040498	0.024199
1021	5.1000e-01	-0.5358	205.587201	0.001331	13.307854	4.508823	-0.104861
1022	5.1050e-01	-0.5759	205.143560	0.001126	11.260492	3.815158	-0.088728
1023	5.1100e-01	-0.6192	204.901574	0.000614	6.142086	2.080995	-0.048397
1024	5.1150e-01	-0.6561	204.296610	0.001536	15.355216	5.202488	-0.120993
1025	5.1200e-01	-0.7010	204.498265	-0.000512	-5.118405	-1.734163	0.040331
1026	5.1250e-01	-0.7428	203.731976	0.001945	19.449940	6.589818	-0.153258
1027	5.1300e-01	-0.7845	203.328666	0.001024	10.236811	3.468325	-0.080662
1028	5.1350e-01	-0.8166	203.530321	-0.000512	-5.118405	-1.734163	0.040331
1029	5.1400e-01	-0.8647	202.925356	0.001536	15.355216	5.202488	-0.120993
1030	5.1450e-01	-0.8936	202.764032	0.000409	4.094724	1.387330	-0.032265
1031	5.1500e-01	-0.9449	202.441384	0.000819	8.189449	2.774660	-0.064530
1032	5.1550e-01	-0.9834	202.159067	0.000717	7.165768	2.427828	-0.056463
1033	5.1600e-01	-1.0219	201.312117	0.002150	21.497303	7.283483	-0.169390
1034	5.1650e-01	-1.0556	201.271786	0.000102	1.023681	0.346833	-0.008066
1035	5.1700e-01	-1.0925	201.029800	0.000614	6.142086	2.080995	-0.048397
1036	5.1750e-01	-1.1454	200.828145	0.000512	5.118405	1.734163	-0.040331
1037	5.1800e-01	-1.1791	200.424835	0.001024	10.236811	3.468325	-0.080662
1038	5.1850e-01	-1.2240	200.303842	0.000307	3.071043	1.040498	-0.024199
1039	5.1900e-01	-1.2609	199.658546	0.001638	16.378897	5.549321	-0.129059
1040	5.1950e-01	-1.2978	199.577884	0.000205	2.047362	0.693665	-0.016132
1041	5.2000e-01	-1.3460	199.013251	0.001433	14.331535	4.855656	-0.112927
1042	5.2050e-01	-1.3780	198.730934	0.000717	7.165768	2.427828	-0.056463
1043	5.2100e-01	-1.4085	198.448617	0.000717	7.165768	2.427828	-0.056463
1044	5.2150e-01	-1.4647	198.287293	0.000409	4.094724	1.387330	-0.032265
1045	5.2200e-01	-1.4967	197.803321	0.001228	12.284173	4.161990	-0.096794
1046	5.2250e-01	-1.5385	197.480673	0.000819	8.189449	2.774660	-0.064530
1047	5.2300e-01	-1.5754	196.835377	0.001638	16.378897	5.549321	-0.129059
1048	5.2350e-01	-1.6058	196.472398	0.000921	9.213130	3.121493	-0.072596
1049	5.2400e-01	-1.6572	196.270743	0.000512	5.118405	1.734163	-0.040331
1050	5.2450e-01	-1.7037	196.190082	0.000205	2.047362	0.693665	-0.016132
1051	5.2500e-01	-1.7406	195.504455	0.001740	17.402578	5.896153	-0.137125
1052	5.2550e-01	-1.7759	195.181807	0.000819	8.189449	2.774660	-0.064530
1053	5.2600e-01	-1.8160	195.020483	0.000409	4.094724	1.387330	-0.032265
1054	5.2650e-01	-1.8593	194.939821	0.000205	2.047362	0.693665	-0.016132
1055	5.2700e-01	-1.9074	194.012208	0.002354	23.544665	7.977148	-0.185523
1056	5.2750e-01	-1.9427	193.770222	0.000614	6.142086	2.080995	-0.048397
1057	5.2800e-01	-1.9860	193.528236	0.000614	6.142086	2.080995	-0.048397
1058	5.2850e-01	-2.0165	193.286251	0.000614	6.142086	2.080995	-0.048397
1059	5.2900e-01	-2.0550	192.923272	0.000921	9.213130	3.121493	-0.072596
1060	5.2950e-01	-2.0951	192.681286	0.000614	6.142086	2.080995	-0.048397
1061	5.3000e-01	-2.1368	192.156983	0.001331	13.307854	4.508823	-0.104861
1062	5.3050e-01	-2.1769	191.753673	0.001024	10.236811	3.468325	-0.080662
1063	5.3100e-01	-2.2251	191.471356	0.000717	7.165768	2.427828	-0.056463
1064	5.3150e-01	-2.2572	190.947053	0.001331	13.307854	4.508823	-0.104861
1065	5.3200e-01	-2.2989	191.108377	-0.000409	-4.094724	-1.387330	0.032265
1066	5.3250e-01	-2.3438	190.745398	0.000921	9.213130	3.121493	-0.072596
1067	5.3300e-01	-2.3887	190.140434	0.001536	15.355216	5.202488	-0.120993
1068	5.3350e-01	-2.4224	189.414476	0.001843	18.426259	6.242986	-0.145192
1069	5.3400e-01	-2.4625	189.495138	-0.000205	-2.047362	-0.693665	0.016132
1070	5.3450e-01	-2.5042	189.172490	0.000819	8.189449	2.774660	-0.064530
1071	5.3500e-01	-2.5427	188.648187	0.001331	13.307854	4.508823	-0.104861
1072	5.3550e-01	-2.5812	188.728849	-0.000205	-2.047362	-0.693665	0.016132
1073	5.3600e-01	-2.6197	187.841567	0.002252	22.520984	7.630316	-0.177456
1074	5.3650e-01	-2.6598	187.801236	0.000102	1.023681	0.346833	-0.008066
1075	5.3700e-01	-2.7015	187.397927	0.001024	10.236811	3.468325	-0.080662
1076	5.3750e-01	-2.7384	186.752631	0.001638	16.378897	5.549321	-0.129059
1077	5.3800e-01	-2.7785	186.550976	0.000512	5.118405	1.734163	-0.040331
1078	5.3850e-01	-2.8218	186.308990	0.000614	6.142086	2.080995	-0.048397
1079	5.3900e-01	-2.8603	185.623363	0.001740	17.402578	5.896153	-0.137125
1080	5.3950e-01	-2.9005	185.704025	-0.000205	-2.047362	-0.693665	0.016132
1081	5.4000e-01	-2.9422	185.018398	0.001740	17.402578	5.896153	-0.137125
1082	5.4050e-01	-2.9855	185.139391	-0.000307	-3.071043	-1.040498	0.024199
1083	5.4100e-01	-3.0176	184.816743	0.000819	8.189449	2.774660	-0.064530
1084	5.4150e-01	-3.0641	184.131117	0.001740	17.402578	5.896153	-0.137125
1085	5.4200e-01	-3.1026	183.768138	0.000921	9.213130	3.121493	-0.072596
1086	5.4250e-01	-3.1523	183.727807	0.000102	1.023681	0.346833	-0.008066
1087	5.4300e-01	-3.1780	183.284166	0.001126	11.260492	3.815158	-0.088728
1088	5.4350e-01	-3.2213	183.042180	0.000614	6.142086	2.080995	-0.048397
1089	5.4400e-01	-3.2614	182.396884	0.001638	16.378897	5.549321	-0.129059
1090	5.4450e-01	-3.3111	181.953243	0.001126	11.260492	3.815158	-0.088728
1091	5.4500e-01	-3.3304	181.590265	0.000921	9.213130	3.121493	-0.072596
1092	5.4550e-01	-3.3721	181.267617	0.000819	8.189449	2.774660	-0.064530
1093	5.4600e-01	-3.4250	181.025631	0.000614	6.142086	2.080995	-0.048397
1094	5.4650e-01	-3.4603	180.622321	0.001024	10.236811	3.468325	-0.080662
1095	5.4700e-01	-3.5004	180.460997	0.000409	4.094724	1.387330	-0.032265
1096	5.4750e-01	-3.5405	180.299673	0.000409	4.094724	1.387330	-0.032265
1097	5.4800e-01	-3.5871	179.936694	0.000921	9.213130	3.121493	-0.072596
1098	5.4850e-01	-3.6272	179.614046	0.000819	8.189449	2.774660	-0.064530
1099	5.4900e-01	-3.6593	179.372060	0.000614	6.142086	2.080995	-0.048397
1100	5.4950e-01	-3.7042	178.605772	0.001945	19.449940	6.589818	-0.153258
1101	5.5000e-01	-3.7539	178.525110	0.000205	2.047362	0.693665	-0.016132
1102	5.5050e-01	-3.7732	178.323455	0.000512	5.118405	1.734163	-0.040331
1103	5.5100e-01	-3.8133	177.839483	0.001228	12.284173	4.161990	-0.096794
1104	5.5150e-01	-3.8486	177.315180	0.001331	13.307854	4.508823	-0.104861
1105	5.5200e-01	-3.9015	176.831208	0.001228	12.284173	4.161990	-0.096794
1106	5.5250e-01	-3.9416	176.790877	0.000102	1.023681	0.346833	-0.008066
1107	5.5300e-01	-3.9833	176.629553	0.000409	4.094724	1.387330	-0.032265
1108	5.5350e-01	-4.0250	176.226243	0.001024	10.236811	3.468325	-0.080662
1109	5.5400e-01	-4.0667	175.419624	0.002047	20.473621	6.936651	-0.161324
1110	5.5450e-01	-4.0956	175.459955	-0.000102	-1.023681	-0.346833	0.008066
1111	5.5500e-01	-4.1421	174.895321	0.001433	14.331535	4.855656	-0.112927
1112	5.5550e-01	-4.1790	174.733997	0.000409	4.094724	1.387330	-0.032265
1113	5.5600e-01	-4.2175	174.048370	0.001740	17.402578	5.896153	-0.137125
1114	5.5650e-01	-4.2592	173.887046	0.000409	4.094724	1.387330	-0.032265
1115	5.5700e-01	-4.2977	173.604729	0.000717	7.165768	2.427828	-0.056463
1116	5.5750e-01	-4.3330	173.483736	0.000307	3.071043	1.040498	-0.024199
1117	5.5800e-01	-4.3812	173.040096	0.001126	11.260492	3.815158	-0.088728
1118	5.5850e-01	-4.4197	172.878772	0.000409	4.094724	1.387330	-0.032265
1119	5.5900e-01	-4.4550	172.314138	0.001433	14.331535	4.855656	-0.112927
1120	5.5950e-01	-4.4999	172.072152	0.000614	6.142086	2.080995	-0.048397
1121	5.6000e-01	-4.5255	171.910828	0.000409	4.094724	1.387330	-0.032265
1122	5.6050e-01	-4.5801	171.386525	0.001331	13.307854	4.508823	-0.104861
1123	5.6100e-01	-4.6218	170.862222	0.001331	13.307854	4.508823	-0.104861
1124	5.6150e-01	-4.6571	170.579905	0.000717	7.165768	2.427828	-0.056463
1125	5.6200e-01	-4.7068	170.297588	0.000717	7.165768	2.427828	-0.056463
1126	5.6250e-01	-4.7453	170.176596	0.000307	3.071043	1.040498	-0.024199
1127	5.6300e-01	-4.7838	169.692624	0.001228	12.284173	4.161990	-0.096794
1128	5.6350e-01	-4.8271	169.611962	0.000205	2.047362	0.693665	-0.016132
1129	5.6400e-01	-4.8721	168.966666	0.001638	16.378897	5.549321	-0.129059
1130	5.6450e-01	-4.9073	168.603687	0.000921	9.213130	3.121493	-0.072596
1131	5.6500e-01	-4.9475	168.684349	-0.000205	-2.047362	-0.693665	0.016132
1132	5.6550e-01	-4.9827	168.240708	0.001126	11.260492	3.815158	-0.088728
1133	5.6600e-01	-5.0196	167.837398	0.001024	10.236811	3.468325	-0.080662
1134	5.6650e-01	-5.0598	167.797067	0.000102	1.023681	0.346833	-0.008066
1135	5.6700e-01	-5.1095	167.232434	0.001433	14.331535	4.855656	-0.112927
1136	5.6750e-01	-5.1335	166.546807	0.001740	17.402578	5.896153	-0.137125
1137	5.6800e-01	-5.1849	166.708131	-0.000409	-4.094724	-1.387330	0.032265
1138	5.6850e-01	-5.2266	166.506476	0.000512	5.118405	1.734163	-0.040331
1139	5.6900e-01	-5.2555	166.264490	0.000614	6.142086	2.080995	-0.048397
1140	5.6950e-01	-5.2972	165.941842	0.000819	8.189449	2.774660	-0.064530
1141	5.7000e-01	-5.3421	165.377208	0.001433	14.331535	4.855656	-0.112927
1142	5.7050e-01	-5.3822	165.256215	0.000307	3.071043	1.040498	-0.024199
1143	5.7100e-01	-5.4159	164.731912	0.001331	13.307854	4.508823	-0.104861
1144	5.7150e-01	-5.4592	164.610919	0.000307	3.071043	1.040498	-0.024199
1145	5.7200e-01	-5.5025	164.288272	0.000819	8.189449	2.774660	-0.064530
1146	5.7250e-01	-5.5410	164.046286	0.000614	6.142086	2.080995	-0.048397
1147	5.7300e-01	-5.5843	163.400990	0.001638	16.378897	5.549321	-0.129059
1148	5.7350e-01	-5.6212	162.917018	0.001228	12.284173	4.161990	-0.096794
1149	5.7400e-01	-5.6597	162.836356	0.000205	2.047362	0.693665	-0.016132
1150	5.7450e-01	-5.7127	162.997680	-0.000409	-4.094724	-1.387330	0.032265
1151	5.7500e-01	-5.7448	162.271722	0.001843	18.426259	6.242986	-0.145192
1152	5.7550e-01	-5.7881	162.231391	0.000102	1.023681	0.346833	-0.008066
1153	5.7600e-01	-5.8186	161.626426	0.001536	15.355216	5.202488	-0.120993
1154	5.7650e-01	-5.8554	161.545765	0.000205	2.047362	0.693665	-0.016132
1155	5.7700e-01	-5.9020	160.981131	0.001433	14.331535	4.855656	-0.112927
1156	5.7750e-01	-5.9373	160.779476	0.000512	5.118405	1.734163	-0.040331
1157	5.7800e-01	-5.9806	160.739145	0.000102	1.023681	0.346833	-0.008066
1158	5.7850e-01	-6.0191	160.255173	0.001228	12.284173	4.161990	-0.096794
1159	5.7900e-01	-6.0528	160.335835	-0.000205	-2.047362	-0.693665	0.016132
1160	5.7950e-01	-6.1057	159.730870	0.001536	15.355216	5.202488	-0.120993
1161	5.8000e-01	-6.1442	159.287229	0.001126	11.260492	3.815158	-0.088728
1162	5.8050e-01	-6.1859	159.004912	0.000717	7.165768	2.427828	-0.056463
1163	5.8100e-01	-6.2308	158.803257	0.000512	5.118405	1.734163	-0.040331
1164	5.8150e-01	-6.2693	158.238624	0.001433	14.331535	4.855656	-0.112927
1165	5.8200e-01	-6.3014	158.238624	-0.000000	-0.000000	-0.000000	0.000000
1166	5.8250e-01	-6.3367	157.633659	0.001536	15.355216	5.202488	-0.120993
1167	5.8300e-01	-6.3816	157.754652	-0.000307	-3.071043	-1.040498	0.024199
1168	5.8350e-01	-6.4169	156.907701	0.002150	21.497303	7.283483	-0.169390
1169	5.8400e-01	-6.4570	156.827039	0.000205	2.047362	0.693665	-0.016132
1170	5.8450e-01	-6.4987	156.020419	0.002047	20.473621	6.936651	-0.161324
1171	5.8500e-01	-6.5437	156.302736	-0.000717	-7.165768	-2.427828	0.056463
1172	5.8550e-01	-6.5790	155.980088	0.000819	8.189449	2.774660	-0.064530
1173	5.8600e-01	-6.6223	155.980088	-0.000000	-0.000000	-0.000000	0.000000
1174	5.8650e-01	-6.6544	155.294462	0.001740	17.402578	5.896153	-0.137125
1175	5.8700e-01	-6.6961	155.133138	0.000409	4.094724	1.387330	-0.032265
1176	5.8750e-01	-6.7378	155.052476	0.000205	2.047362	0.693665	-0.016132
1177	5.8800e-01	-6.7747	154.689497	0.000921	9.213130	3.121493	-0.072596
1178	5.8850e-01	-6.8132	154.286187	0.001024	10.236811	3.468325	-0.080662
1179	5.8900e-01	-6.8629	154.044201	0.000614	6.142086	2.080995	-0.048397
1180	5.8950e-01	-6.8902	153.640891	0.001024	10.236811	3.468325	-0.080662
1181	5.9000e-01	-6.9383	153.318243	0.000819	8.189449	2.774660	-0.064530
1182	5.9050e-01	-6.9832	153.318243	-0.000000	-0.000000	-0.000000	0.000000
1183	5.9100e-01	-7.0169	153.076257	0.000614	6.142086	2.080995	-0.048397
1184	5.9150e-01	-7.0522	152.511624	0.001433	14.331535	4.855656	-0.112927
1185	5.9200e-01	-7.0907	152.551955	-0.000102	-1.023681	-0.346833	0.008066
1186	5.9250e-01	-7.1436	151.987321	0.001433	14.331535	4.855656	-0.112927
1187	5.9300e-01	-7.1789	151.705004	0.000717	7.165768	2.427828	-0.056463
1188	5.9350e-01	-7.2126	151.382356	0.000819	8.189449	2.774660	-0.064530
1189	5.9400e-01	-7.2624	151.301694	0.000205	2.047362	0.693665	-0.016132
1190	5.9450e-01	-7.3009	151.019377	0.000717	7.165768	2.427828	-0.056463
1191	5.9500e-01	-7.3378	150.656398	0.000921	9.213130	3.121493	-0.072596
1192	5.9550e-01	-7.3779	150.333750	0.000819	8.189449	2.774660	-0.064530
1193	5.9600e-01	-7.4212	150.253088	0.000205	2.047362	0.693665	-0.016132
1194	5.9650e-01	-7.4613	149.728786	0.001331	13.307854	4.508823	-0.104861
1195	5.9700e-01	-7.4998	149.365807	0.000921	9.213130	3.121493	-0.072596
1196	5.9750e-01	-7.5319	148.881835	0.001228	12.284173	4.161990	-0.096794
1197	5.9800e-01	-7.5768	148.720511	0.000409	4.094724	1.387330	-0.032265
1198	5.9850e-01	-7.6185	148.276870	0.001126	11.260492	3.815158	-0.088728
1199	5.9900e-01	-7.6570	148.357532	-0.000205	-2.047362	-0.693665	0.016132
1200	5.9950e-01	-7.7067	147.954222	0.001024	10.236811	3.468325	-0.080662
1201	6.0000e-01	-7.7324	147.510581	0.001126	11.260492	3.815158	-0.088728
1202	6.0050e-01	-7.7757	147.107272	0.001024	10.236811	3.468325	-0.080662
1203	6.0100e-01	-7.8174	147.066941	0.000102	1.023681	0.346833	-0.008066
1204	6.0150e-01	-7.8575	146.744293	0.000819	8.189449	2.774660	-0.064530
1205	6.0200e-01	-7.8944	146.219990	0.001331	13.307854	4.508823	-0.104861
1206	6.0250e-01	-7.9393	146.139328	0.000205	2.047362	0.693665	-0.016132
1207	6.0300e-01	-7.9859	145.776349	0.000921	9.213130	3.121493	-0.072596
1208	6.0350e-01	-8.0164	145.413370	0.000921	9.213130	3.121493	-0.072596
1209	6.0400e-01	-8.0549	145.494032	-0.000205	-2.047362	-0.693665	0.016132
1210	6.0450e-01	-8.0982	144.848736	0.001638	16.378897	5.549321	-0.129059
1211	6.0500e-01	-8.1399	144.768074	0.000205	2.047362	0.693665	-0.016132
1212	6.0550e-01	-8.1704	144.203441	0.001433	14.331535	4.855656	-0.112927
1213	6.0600e-01	-8.2153	143.961455	0.000614	6.142086	2.080995	-0.048397
1214	6.0650e-01	-8.2554	143.800131	0.000409	4.094724	1.387330	-0.032265
1215	6.0700e-01	-8.2987	143.356490	0.001126	11.260492	3.815158	-0.088728
1216	6.0750e-01	-8.3420	143.074173	0.000717	7.165768	2.427828	-0.056463
1217	6.0800e-01	-8.3789	142.549870	0.001331	13.307854	4.508823	-0.104861
1218	6.0850e-01	-8.4238	142.428877	0.000307	3.071043	1.040498	-0.024199
1219	6.0900e-01	-8.4607	142.065898	0.000921	9.213130	3.121493	-0.072596
1220	6.0950e-01	-8.4944	141.743250	0.000819	8.189449	2.774660	-0.064530
1221	6.1000e-01	-8.5361	141.339941	0.001024	10.236811	3.468325	-0.080662
1222	6.1050e-01	-8.5746	141.057624	0.000717	7.165768	2.427828	-0.056463
1223	6.1100e-01	-8.6147	140.251004	0.002047	20.473621	6.936651	-0.161324
1224	6.1150e-01	-8.6500	140.130011	0.000307	3.071043	1.040498	-0.024199
1225	6.1200e-01	-8.6933	139.888025	0.000614	6.142086	2.080995	-0.048397
1226	6.1250e-01	-8.7334	139.363722	0.001331	13.307854	4.508823	-0.104861
1227	6.1300e-01	-8.7784	139.363722	-0.000000	-0.000000	-0.000000	0.000000
1228	6.1350e-01	-8.8185	139.162067	0.000512	5.118405	1.734163	-0.040331
1229	6.1400e-01	-8.8538	138.032800	0.002866	28.663070	9.711311	-0.225854
1230	6.1450e-01	-8.8907	138.113462	-0.000205	-2.047362	-0.693665	0.016132
1231	6.1500e-01	-8.9356	137.266511	0.002150	21.497303	7.283483	-0.169390
1232	6.1550e-01	-8.9789	136.863201	0.001024	10.236811	3.468325	-0.080662
1233	6.1600e-01	-9.0142	136.742208	0.000307	3.071043	1.040498	-0.024199
1234	6.1650e-01	-9.0575	136.701877	0.000102	1.023681	0.346833	-0.008066
1235	6.1700e-01	-9.0912	136.137243	0.001433	14.331535	4.855656	-0.112927
1236	6.1750e-01	-9.1377	135.854926	0.000717	7.165768	2.427828	-0.056463
1237	6.1800e-01	-9.1842	135.209631	0.001638	16.378897	5.549321	-0.129059
1238	6.1850e-01	-9.2259	134.846652	0.000921	9.213130	3.121493	-0.072596
1239	6.1900e-01	-9.2500	134.322349	0.001331	13.307854	4.508823	-0.104861
1240	6.1950e-01	-9.2981	133.757715	0.001433	14.331535	4.855656	-0.112927
1241	6.2000e-01	-9.3495	133.515729	0.000614	6.142086	2.080995	-0.048397
1242	6.2050e-01	-9.3799	133.354405	0.000409	4.094724	1.387330	-0.032265
1243	6.2100e-01	-9.4152	132.426793	0.002354	23.544665	7.977148	-0.185523
1244	6.2150e-01	-9.4521	132.063814	0.000921	9.213130	3.121493	-0.072596
1245	6.2200e-01	-9.5003	132.104145	-0.000102	-1.023681	-0.346833	0.008066
1246	6.2250e-01	-9.5388	131.458849	0.001638	16.378897	5.549321	-0.129059
1247	6.2300e-01	-9.5660	130.652229	0.002047	20.473621	6.936651	-0.161324
1248	6.2350e-01	-9.6110	130.490905	0.000409	4.094724	1.387330	-0.032265
1249	6.2400e-01	-9.6559	130.168257	0.000819	8.189449	2.774660	-0.064530
1250	6.2450e-01	-9.7024	129.442300	0.001843	18.426259	6.242986	-0.145192
1251	6.2500e-01	-9.7345	129.240645	0.000512	5.118405	1.734163	-0.040331
1252	6.2550e-01	-9.7730	128.837335	0.001024	10.236811	3.468325	-0.080662
1253	6.2600e-01	-9.8131	128.393694	0.001126	11.260492	3.815158	-0.088728
1254	6.2650e-01	-9.8580	127.990384	0.001024	10.236811	3.468325	-0.080662
1255	6.2700e-01	-9.8965	127.224095	0.001945	19.449940	6.589818	-0.153258
1256	6.2750e-01	-9.9318	126.699793	0.001331	13.307854	4.508823	-0.104861
1257	6.2800e-01	-9.9767	126.215821	0.001228	12.284173	4.161990	-0.096794
1258	6.2850e-01	-10.0088	125.893173	0.000819	8.189449	2.774660	-0.064530
1259	6.2900e-01	-10.0521	125.167215	0.001843	18.426259	6.242986	-0.145192
1260	6.2950e-01	-10.0874	125.005891	0.000409	4.094724	1.387330	-0.032265
1261	6.3000e-01	-10.1355	124.239602	0.001945	19.449940	6.589818	-0.153258
1262	6.3050e-01	-10.1756	124.158940	0.000205	2.047362	0.693665	-0.016132
1263	6.3100e-01	-10.2093	123.836293	0.000819	8.189449	2.774660	-0.064530
1264	6.3150e-01	-10.2559	122.949011	0.002252	22.520984	7.630316	-0.177456
1265	6.3200e-01	-10.3008	122.384377	0.001433	14.331535	4.855656	-0.112927
1266	6.3250e-01	-10.3345	121.819743	0.001433	14.331535	4.855656	-0.112927
1267	6.3300e-01	-10.3714	121.658419	0.000409	4.094724	1.387330	-0.032265
1268	6.3350e-01	-10.4211	120.609814	0.002662	26.615708	9.017646	-0.209721
1269	6.3400e-01	-10.4580	120.690476	-0.000205	-2.047362	-0.693665	0.016132
1270	6.3450e-01	-10.4885	119.722532	0.002457	24.568346	8.323981	-0.193589
1271	6.3500e-01	-10.5286	119.278891	0.001126	11.260492	3.815158	-0.088728
1272	6.3550e-01	-10.5703	118.673926	0.001536	15.355216	5.202488	-0.120993
1273	6.3600e-01	-10.6120	118.149624	0.001331	13.307854	4.508823	-0.104861
1274	6.3650e-01	-10.6537	117.947969	0.000512	5.118405	1.734163	-0.040331
1275	6.3700e-01	-10.6986	117.222011	0.001843	18.426259	6.242986	-0.145192
1276	6.3750e-01	-10.7500	116.697708	0.001331	13.307854	4.508823	-0.104861
1277	6.3800e-01	-10.7708	115.850757	0.002150	21.497303	7.283483	-0.169390
1278	6.3850e-01	-10.8173	115.487778	0.000921	9.213130	3.121493	-0.072596
1279	6.3900e-01	-10.8478	115.084469	0.001024	10.236811	3.468325	-0.080662
1280	6.3950e-01	-10.8895	113.995532	0.002764	27.639389	9.364478	-0.217787
1281	6.4000e-01	-10.9312	113.511560	0.001228	12.284173	4.161990	-0.096794
1282	6.4050e-01	-10.9713	112.946926	0.001433	14.331535	4.855656	-0.112927
1283	6.4100e-01	-11.0195	112.422624	0.001331	13.307854	4.508823	-0.104861
1284	6.4150e-01	-11.0564	111.938652	0.001228	12.284173	4.161990	-0.096794
1285	6.4200e-01	-11.0917	111.535342	0.001024	10.236811	3.468325	-0.080662
1286	6.4250e-01	-11.1302	110.970708	0.001433	14.331535	4.855656	-0.112927
1287	6.4300e-01	-11.1735	110.244750	0.001843	18.426259	6.242986	-0.145192
1288	6.4350e-01	-11.2072	110.002764	0.000614	6.142086	2.080995	-0.048397
1289	6.4400e-01	-11.2521	109.115483	0.002252	22.520984	7.630316	-0.177456
1290	6.4450e-01	-11.2970	108.550849	0.001433	14.331535	4.855656	-0.112927
1291	6.4500e-01	-11.3355	107.623236	0.002354	23.544665	7.977148	-0.185523
1292	6.4550e-01	-11.3692	107.260257	0.000921	9.213130	3.121493	-0.072596
1293	6.4600e-01	-11.4125	106.614962	0.001638	16.378897	5.549321	-0.129059
1294	6.4650e-01	-11.4542	105.768011	0.002150	21.497303	7.283483	-0.169390
1295	6.4700e-01	-11.4895	105.647018	0.000307	3.071043	1.040498	-0.024199
1296	6.4750e-01	-11.5376	104.759736	0.002252	22.520984	7.630316	-0.177456
1297	6.4800e-01	-11.5713	104.033778	0.001843	18.426259	6.242986	-0.145192
1298	6.4850e-01	-11.6130	103.590138	0.001126	11.260492	3.815158	-0.088728
1299	6.4900e-01	-11.6435	102.904511	0.001740	17.402578	5.896153	-0.137125
1300	6.4950e-01	-11.6933	101.976898	0.002354	23.544665	7.977148	-0.185523
1301	6.5000e-01	-11.7221	101.331602	0.001638	16.378897	5.549321	-0.129059
1302	6.5050e-01	-11.7719	100.403990	0.002354	23.544665	7.977148	-0.185523
1303	6.5100e-01	-11.8152	100.121673	0.000717	7.165768	2.427828	-0.056463
1304	6.5150e-01	-11.8424	99.597370	0.001331	13.307854	4.508823	-0.104861
1305	6.5200e-01	-11.8874	98.790750	0.002047	20.473621	6.936651	-0.161324
1306	6.5250e-01	-11.9178	97.863138	0.002354	23.544665	7.977148	-0.185523
1307	6.5300e-01	-11.9692	97.500159	0.000921	9.213130	3.121493	-0.072596
1308	6.5350e-01	-12.0061	96.935525	0.001433	14.331535	4.855656	-0.112927
1309	6.5400e-01	-12.0478	96.209567	0.001843	18.426259	6.242986	-0.145192
1310	6.5450e-01	-12.0863	94.918976	0.003276	32.757794	11.098641	-0.258118
1311	6.5500e-01	-12.1296	94.838314	0.000205	2.047362	0.693665	-0.016132
1312	6.5550e-01	-12.1809	93.628384	0.003071	30.710432	10.404976	-0.241986
1313	6.5600e-01	-12.2130	93.386398	0.000614	6.142086	2.080995	-0.048397
1314	6.5650e-01	-12.2579	92.257131	0.002866	28.663070	9.711311	-0.225854
1315	6.5700e-01	-12.2884	91.692497	0.001433	14.331535	4.855656	-0.112927
1316	6.5750e-01	-12.3366	91.248856	0.001126	11.260492	3.815158	-0.088728
1317	6.5800e-01	-12.3686	90.603560	0.001638	16.378897	5.549321	-0.129059
1318	6.5850e-01	-12.4055	89.675947	0.002354	23.544665	7.977148	-0.185523
1319	6.5900e-01	-12.4472	88.425687	0.003173	31.734113	10.751809	-0.250052
1320	6.5950e-01	-12.4825	88.022377	0.001024	10.236811	3.468325	-0.080662
1321	6.6000e-01	-12.5307	87.377081	0.001638	16.378897	5.549321	-0.129059
1322	6.6050e-01	-12.5692	86.489800	0.002252	22.520984	7.630316	-0.177456
1323	6.6100e-01	-12.6141	85.683180	0.002047	20.473621	6.936651	-0.161324
1324	6.6150e-01	-12.6462	84.715236	0.002457	24.568346	8.323981	-0.193589
1325	6.6200e-01	-12.6943	83.948947	0.001945	19.449940	6.589818	-0.153258
1326	6.6250e-01	-12.7296	83.222990	0.001843	18.426259	6.242986	-0.145192
1327	6.6300e-01	-12.7649	82.255046	0.002457	24.568346	8.323981	-0.193589
1328	6.6350e-01	-12.8050	81.730743	0.001331	13.307854	4.508823	-0.104861
1329	6.6400e-01	-12.8451	81.327433	0.001024	10.236811	3.468325	-0.080662
1330	6.6450e-01	-12.8884	79.996511	0.003378	33.781475	11.445474	-0.266185
1331	6.6500e-01	-12.9285	79.351215	0.001638	16.378897	5.549321	-0.129059
1332	6.6550e-01	-12.9654	78.584926	0.001945	19.449940	6.589818	-0.153258
1333	6.6600e-01	-13.0023	77.415328	0.002969	29.686751	10.058144	-0.233920
1334	6.6650e-01	-13.0392	76.568377	0.002150	21.497303	7.283483	-0.169390
1335	6.6700e-01	-13.0857	76.044074	0.001331	13.307854	4.508823	-0.104861
1336	6.6750e-01	-13.1355	74.995469	0.002662	26.615708	9.017646	-0.209721
1337	6.6800e-01	-13.1675	74.309842	0.001740	17.402578	5.896153	-0.137125
1338	6.6850e-01	-13.1964	73.462891	0.002150	21.497303	7.283483	-0.169390
1339	6.6900e-01	-13.2478	72.373954	0.002764	27.639389	9.364478	-0.217787
1340	6.6950e-01	-13.2830	71.365680	0.002559	25.592027	8.670813	-0.201655
1341	6.7000e-01	-13.3248	70.760715	0.001536	15.355216	5.202488	-0.120993
1342	6.7050e-01	-13.3681	69.792771	0.002457	24.568346	8.323981	-0.193589
1343	6.7100e-01	-13.4018	68.986152	0.002047	20.473621	6.936651	-0.161324
1344	6.7150e-01	-13.4451	67.937546	0.002662	26.615708	9.017646	-0.209721
1345	6.7200e-01	-13.4868	67.130926	0.002047	20.473621	6.936651	-0.161324
1346	6.7250e-01	-13.5237	66.687285	0.001126	11.260492	3.815158	-0.088728
1347	6.7300e-01	-13.5718	65.316032	0.003481	34.805156	11.792306	-0.274251
1348	6.7350e-01	-13.6103	64.469081	0.002150	21.497303	7.283483	-0.169390
1349	6.7400e-01	-13.6472	63.743123	0.001843	18.426259	6.242986	-0.145192
1350	6.7450e-01	-13.6937	62.412201	0.003378	33.781475	11.445474	-0.266185
1351	6.7500e-01	-13.7258	61.605581	0.002047	20.473621	6.936651	-0.161324
1352	6.7550e-01	-13.7547	60.476314	0.002866	28.663070	9.711311	-0.225854
1353	6.7600e-01	-13.8157	59.669694	0.002047	20.473621	6.936651	-0.161324
1354	6.7650e-01	-13.8429	58.459764	0.003071	30.710432	10.404976	-0.241986
1355	6.7700e-01	-13.8911	57.572483	0.002252	22.520984	7.630316	-0.177456
1356	6.7750e-01	-13.9263	56.281891	0.003276	32.757794	11.098641	-0.258118
1357	6.7800e-01	-13.9665	55.515602	0.001945	19.449940	6.589818	-0.153258
1358	6.7850e-01	-14.0082	54.547659	0.002457	24.568346	8.323981	-0.193589
1359	6.7900e-01	-14.0483	54.023356	0.001331	13.307854	4.508823	-0.104861
1360	6.7950e-01	-14.0868	52.692433	0.003378	33.781475	11.445474	-0.266185
1361	6.8000e-01	-14.1237	51.603497	0.002764	27.639389	9.364478	-0.217787
1362	6.8050e-01	-14.1638	50.675884	0.002354	23.544665	7.977148	-0.185523
1363	6.8100e-01	-14.2103	49.949926	0.001843	18.426259	6.242986	-0.145192
1364	6.8150e-01	-14.2392	48.498011	0.003685	36.852519	12.485971	-0.290383
1365	6.8200e-01	-14.2921	47.368743	0.002866	28.663070	9.711311	-0.225854
1366	6.8250e-01	-14.3290	46.521792	0.002150	21.497303	7.283483	-0.169390
1367	6.8300e-01	-14.3723	45.594180	0.002354	23.544665	7.977148	-0.185523
1368	6.8350e-01	-14.4092	44.545574	0.002662	26.615708	9.017646	-0.209721
1369	6.8400e-01	-14.4493	43.375975	0.002969	29.686751	10.058144	-0.233920
1370	6.8450e-01	-14.4814	42.287039	0.002764	27.639389	9.364478	-0.217787
1371	6.8500e-01	-14.5263	41.238433	0.002662	26.615708	9.017646	-0.209721
1372	6.8550e-01	-14.5568	40.230159	0.002559	25.592027	8.670813	-0.201655
1373	6.8600e-01	-14.5969	38.697581	0.003890	38.899881	13.179636	-0.306515
1374	6.8650e-01	-14.6466	38.132947	0.001433	14.331535	4.855656	-0.112927
1375	6.8700e-01	-14.6851	36.640701	0.003788	37.876200	12.832804	-0.298449
1376	6.8750e-01	-14.7236	35.390440	0.003173	31.734113	10.751809	-0.250052
1377	6.8800e-01	-14.7734	34.583821	0.002047	20.473621	6.936651	-0.161324
1378	6.8850e-01	-14.8103	33.252898	0.003378	33.781475	11.445474	-0.266185
1379	6.8900e-01	-14.8520	32.123630	0.002866	28.663070	9.711311	-0.225854
1380	6.8950e-01	-14.8841	30.631384	0.003788	37.876200	12.832804	-0.298449
1381	6.9000e-01	-14.9290	29.744102	0.002252	22.520984	7.630316	-0.177456
1382	6.9050e-01	-14.9579	28.735828	0.002559	25.592027	8.670813	-0.201655
1383	6.9100e-01	-14.9964	27.525898	0.003071	30.710432	10.404976	-0.241986
1384	6.9150e-01	-15.0413	26.356299	0.002969	29.686751	10.058144	-0.233920
1385	6.9200e-01	-15.0942	25.146370	0.003071	30.710432	10.404976	-0.241986
1386	6.9250e-01	-15.1215	23.896109	0.003173	31.734113	10.751809	-0.250052
1387	6.9300e-01	-15.1616	22.686180	0.003071	30.710432	10.404976	-0.241986
1388	6.9350e-01	-15.2081	21.435919	0.003173	31.734113	10.751809	-0.250052
1389	6.9400e-01	-15.2482	20.024335	0.003583	35.828838	12.139139	-0.282317
1390	6.9450e-01	-15.2851	18.975729	0.002662	26.615708	9.017646	-0.209721
1391	6.9500e-01	-15.3252	17.806130	0.002969	29.686751	10.058144	-0.233920
1392	6.9550e-01	-15.3637	16.273553	0.003890	38.899881	13.179636	-0.306515
1393	6.9600e-01	-15.4071	14.781306	0.003788	37.876200	12.832804	-0.298449
1394	6.9650e-01	-15.4472	13.934356	0.002150	21.497303	7.283483	-0.169390
1395	6.9700e-01	-15.4905	12.482440	0.003685	36.852519	12.485971	-0.290383
1396	6.9750e-01	-15.5306	11.191849	0.003276	32.757794	11.098641	-0.258118
1397	6.9800e-01	-15.5675	9.457616	0.004402	44.018286	14.913799	-0.346846
1398	6.9850e-01	-15.6108	8.650997	0.002047	20.473621	6.936651	-0.161324
1399	6.9900e-01	-15.6332	7.320074	0.003378	33.781475	11.445474	-0.266185
1400	6.9950e-01	-15.6862	6.231137	0.002764	27.639389	9.364478	-0.217787
1401	7.0000e-01	-15.7279	4.698560	0.003890	38.899881	13.179636	-0.306515
1402	7.0050e-01	-15.7664	3.004658	0.004299	42.994605	14.566967	-0.338780
1403	7.0100e-01	-15.8049	1.794729	0.003071	30.710432	10.404976	-0.241986
1404	7.0150e-01	-15.8450	0.746123	0.002662	26.615708	9.017646	-0.209721
1405	7.0200e-01	-15.8819	-0.867116	0.004095	40.947243	13.873301	-0.322648
1406	7.0250e-01	-15.9236	-2.319032	0.003685	36.852519	12.485971	-0.290383
1407	7.0300e-01	-15.9685	-3.448299	0.002866	28.663070	9.711311	-0.225854
1408	7.0350e-01	-16.0054	-5.626173	0.005528	55.278778	18.728957	-0.435575
1409	7.0400e-01	-16.0471	-6.553785	0.002354	23.544665	7.977148	-0.185523
1410	7.0450e-01	-16.0824	-7.602391	0.002662	26.615708	9.017646	-0.209721
1411	7.0500e-01	-16.1225	-9.255961	0.004197	41.970924	14.220134	-0.330714
1412	7.0550e-01	-16.1578	-10.506222	0.003173	31.734113	10.751809	-0.250052
1413	7.0600e-01	-16.2011	-12.240454	0.004402	44.018286	14.913799	-0.346846
1414	7.0650e-01	-16.2413	-13.894025	0.004197	41.970924	14.220134	-0.330714
1415	7.0700e-01	-16.2846	-14.942630	0.002662	26.615708	9.017646	-0.209721
1416	7.0750e-01	-16.3247	-16.394546	0.003685	36.852519	12.485971	-0.290383
1417	7.0800e-01	-16.3696	-17.685137	0.003276	32.757794	11.098641	-0.258118
1418	7.0850e-01	-16.4113	-19.742018	0.005221	52.207735	17.688459	-0.411376
1419	7.0900e-01	-16.4450	-20.911616	0.002969	29.686751	10.058144	-0.233920
1420	7.0950e-01	-16.4819	-22.645849	0.004402	44.018286	14.913799	-0.346846
1421	7.1000e-01	-16.5236	-24.097764	0.003685	36.852519	12.485971	-0.290383
1422	7.1050e-01	-16.5541	-25.670673	0.003992	39.923562	13.526469	-0.314582
1423	7.1100e-01	-16.5974	-26.880602	0.003071	30.710432	10.404976	-0.241986
1424	7.1150e-01	-16.6279	-28.574504	0.004299	42.994605	14.566967	-0.338780
1425	7.1200e-01	-16.6888	-30.066750	0.003788	37.876200	12.832804	-0.298449
1426	7.1250e-01	-16.7273	-31.962306	0.004811	48.113010	16.301129	-0.379111
1427	7.1300e-01	-16.7610	-33.172236	0.003071	30.710432	10.404976	-0.241986
1428	7.1350e-01	-16.8140	-34.664482	0.003788	37.876200	12.832804	-0.298449
1429	7.1400e-01	-16.8493	-36.802025	0.005426	54.255097	18.382124	-0.427508
1430	7.1450e-01	-16.8862	-38.173278	0.003481	34.805156	11.792306	-0.274251
1431	7.1500e-01	-16.9311	-39.544532	0.003481	34.805156	11.792306	-0.274251
1432	7.1550e-01	-16.9648	-41.359426	0.004607	46.065648	15.607464	-0.362979
1433	7.1600e-01	-16.9936	-43.174321	0.004607	46.065648	15.607464	-0.362979
1434	7.1650e-01	-17.0450	-44.948884	0.004504	45.041967	15.260632	-0.354913
1435	7.1700e-01	-17.0819	-46.078152	0.002866	28.663070	9.711311	-0.225854
1436	7.1750e-01	-17.1188	-48.094701	0.005118	51.184054	17.341627	-0.403310
1437	7.1800e-01	-17.1669	-49.627278	0.003890	38.899881	13.179636	-0.306515
1438	7.1850e-01	-17.1974	-51.442173	0.004607	46.065648	15.607464	-0.362979
1439	7.1900e-01	-17.2391	-52.611771	0.002969	29.686751	10.058144	-0.233920
1440	7.1950e-01	-17.2792	-54.749314	0.005426	54.255097	18.382124	-0.427508
1441	7.2000e-01	-17.3209	-56.523877	0.004504	45.041967	15.260632	-0.354913
1442	7.2050e-01	-17.3594	-58.298440	0.004504	45.041967	15.260632	-0.354913
1443	7.2100e-01	-17.3931	-60.314990	0.005118	51.184054	17.341627	-0.403310
1444	7.2150e-01	-17.4428	-61.645912	0.003378	33.781475	11.445474	-0.266185
1445	7.2200e-01	-17.4861	-63.702792	0.005221	52.207735	17.688459	-0.411376
1446	7.2250e-01	-17.5214	-65.356363	0.004197	41.970924	14.220134	-0.330714
1447	7.2300e-01	-17.5535	-67.009933	0.004197	41.970924	14.220134	-0.330714
1448	7.2350e-01	-17.5952	-68.623173	0.004095	40.947243	13.873301	-0.322648
1449	7.2400e-01	-17.6401	-70.680053	0.005221	52.207735	17.688459	-0.411376
1450	7.2450e-01	-17.6867	-72.777264	0.005323	53.231416	18.035292	-0.419442
1451	7.2500e-01	-17.7188	-74.430835	0.004197	41.970924	14.220134	-0.330714
1452	7.2550e-01	-17.7556	-76.366722	0.004914	49.136692	16.647962	-0.387177
1453	7.2600e-01	-17.7909	-78.302609	0.004914	49.136692	16.647962	-0.387177
1454	7.2650e-01	-17.8471	-79.754525	0.003685	36.852519	12.485971	-0.290383
1455	7.2700e-01	-17.8760	-81.892067	0.005426	54.255097	18.382124	-0.427508
1456	7.2750e-01	-17.9209	-83.827954	0.004914	49.136692	16.647962	-0.387177
1457	7.2800e-01	-17.9594	-85.400863	0.003992	39.923562	13.526469	-0.314582
1458	7.2850e-01	-17.9979	-87.901384	0.006347	63.468227	21.503617	-0.500104
1459	7.2900e-01	-18.0396	-89.353300	0.003685	36.852519	12.485971	-0.290383
1460	7.2950e-01	-18.0797	-91.410180	0.005221	52.207735	17.688459	-0.411376
1461	7.3000e-01	-18.1214	-93.628384	0.005630	56.302459	19.075790	-0.443641
1462	7.3050e-01	-18.1615	-95.644933	0.005118	51.184054	17.341627	-0.403310
1463	7.3100e-01	-18.1920	-97.177511	0.003890	38.899881	13.179636	-0.306515
1464	7.3150e-01	-18.2353	-99.113398	0.004914	49.136692	16.647962	-0.387177
1465	7.3200e-01	-18.2770	-101.492926	0.006040	60.397183	20.463120	-0.475906
1466	7.3250e-01	-18.3107	-103.428814	0.004914	49.136692	16.647962	-0.387177
1467	7.3300e-01	-18.3588	-105.445363	0.005118	51.184054	17.341627	-0.403310
1468	7.3350e-01	-18.3957	-107.260257	0.004607	46.065648	15.607464	-0.362979
1469	7.3400e-01	-18.4503	-109.518793	0.005733	57.326140	19.422622	-0.451707
1470	7.3450e-01	-18.4727	-111.495011	0.005016	50.160373	16.994794	-0.395244
1471	7.3500e-01	-18.5289	-113.511560	0.005118	51.184054	17.341627	-0.403310
1472	7.3550e-01	-18.5578	-115.729764	0.005630	56.302459	19.075790	-0.443641
1473	7.3600e-01	-18.5947	-117.705983	0.005016	50.160373	16.994794	-0.395244
1474	7.3650e-01	-18.6348	-119.561208	0.004709	47.089329	15.954297	-0.371045
1475	7.3700e-01	-18.6701	-121.940736	0.006040	60.397183	20.463120	-0.475906
1476	7.3750e-01	-18.7198	-123.836293	0.004811	48.113010	16.301129	-0.379111
1477	7.3800e-01	-18.7535	-126.175490	0.005937	59.373502	20.116287	-0.467839
1478	7.3850e-01	-18.7952	-128.716342	0.006449	64.491908	21.850450	-0.508170
1479	7.3900e-01	-18.8337	-130.692560	0.005016	50.160373	16.994794	-0.395244
1480	7.3950e-01	-18.8786	-132.709110	0.005118	51.184054	17.341627	-0.403310
1481	7.4000e-01	-18.9187	-134.927314	0.005630	56.302459	19.075790	-0.443641
1482	7.4050e-01	-18.9492	-137.145518	0.005630	56.302459	19.075790	-0.443641
1483	7.4100e-01	-18.9941	-139.484715	0.005937	59.373502	20.116287	-0.467839
1484	7.4150e-01	-19.0374	-141.460933	0.005016	50.160373	16.994794	-0.395244
1485	7.4200e-01	-19.0727	-143.840462	0.006040	60.397183	20.463120	-0.475906
1486	7.4250e-01	-19.1176	-146.058666	0.005630	56.302459	19.075790	-0.443641
1487	7.4300e-01	-19.1577	-148.034884	0.005016	50.160373	16.994794	-0.395244
1488	7.4350e-01	-19.1946	-150.938715	0.007371	73.705037	24.971943	-0.580766
1489	7.4400e-01	-19.2364	-153.237581	0.005835	58.349821	19.769455	-0.459773
1490	7.4450e-01	-19.2700	-155.092807	0.004709	47.089329	15.954297	-0.371045
1491	7.4500e-01	-19.3118	-157.633659	0.006449	64.491908	21.850450	-0.508170
1492	7.4550e-01	-19.3487	-159.609877	0.005016	50.160373	16.994794	-0.395244
1493	7.4600e-01	-19.3936	-162.352384	0.006961	69.610313	23.584612	-0.548501
1494	7.4650e-01	-19.4369	-164.328603	0.005016	50.160373	16.994794	-0.395244
1495	7.4700e-01	-19.4754	-166.990448	0.006756	67.562951	22.890947	-0.532369
1496	7.4750e-01	-19.5059	-169.248983	0.005733	57.326140	19.422622	-0.451707
1497	7.4800e-01	-19.5492	-171.991490	0.006961	69.610313	23.584612	-0.548501
1498	7.4850e-01	-19.5909	-173.887046	0.004811	48.113010	16.301129	-0.379111
1499	7.4900e-01	-19.6246	-176.871539	0.007575	75.752399	25.665608	-0.596899
1500	7.4950e-01	-19.6695	-178.767096	0.004811	48.113010	16.301129	-0.379111
1501	7.5000e-01	-19.7112	-180.944969	0.005528	55.278778	18.728957	-0.435575
1502	7.5050e-01	-19.7353	-183.727807	0.007063	70.633994	23.931445	-0.556568
1503	7.5100e-01	-19.7577	-186.389652	0.006756	67.562951	22.890947	-0.532369
1504	7.5150e-01	-19.7706	-188.809511	0.006142	61.420864	20.809952	-0.483972
1505	7.5200e-01	-19.7786	-191.471356	0.006756	67.562951	22.890947	-0.532369
1506	7.5250e-01	-19.7722	-193.810553	-0.005937	-59.373502	-20.116287	-0.467839
1507	7.5300e-01	-19.7706	-195.827103	-0.005118	-51.184054	-17.341627	-0.403310
1508	7.5350e-01	-19.7577	-198.448617	-0.006654	-66.539270	-22.544115	-0.524303
1509	7.5400e-01	-19.7561	-200.868476	-0.006142	-61.420864	-20.809952	-0.483972
1510	7.5450e-01	-19.7353	-203.288335	-0.006142	-61.420864	-20.809952	-0.483972
1511	7.5500e-01	-19.7192	-205.466208	-0.005528	-55.278778	-18.728957	-0.435575
1512	7.5550e-01	-19.6920	-207.523089	-0.005221	-52.207735	-17.688459	-0.411376
1513	7.5600e-01	-19.6743	-209.902617	-0.006040	-60.397183	-20.463120	-0.475906
1514	7.5650e-01	-19.6470	-212.241814	-0.005937	-59.373502	-20.116287	-0.467839
1515	7.5700e-01	-19.6198	-214.339025	-0.005323	-53.231416	-18.035292	-0.419442
1516	7.5750e-01	-19.5957	-216.799215	-0.006244	-62.444545	-21.156785	-0.492038
1517	7.5800e-01	-19.5588	-218.694772	-0.004811	-48.113010	-16.301129	-0.379111
1518	7.5850e-01	-19.5331	-220.388673	-0.004299	-42.994605	-14.566967	-0.338780
1519	7.5900e-01	-19.5075	-222.969856	-0.006552	-65.515589	-22.197282	-0.516237
1520	7.5950e-01	-19.4674	-225.188060	-0.005630	-56.302459	-19.075790	-0.443641
1521	7.6000e-01	-19.4337	-227.365934	-0.005528	-55.278778	-18.728957	-0.435575
1522	7.6050e-01	-19.4096	-228.817849	-0.003685	-36.852519	-12.485971	-0.290383
1523	7.6100e-01	-19.3663	-230.753737	-0.004914	-49.136692	-16.647962	-0.387177
1524	7.6150e-01	-19.3390	-232.810617	-0.005221	-52.207735	-17.688459	-0.411376
1525	7.6200e-01	-19.2909	-234.867497	-0.005221	-52.207735	-17.688459	-0.411376
1526	7.6250e-01	-19.2620	-236.480737	-0.004095	-40.947243	-13.873301	-0.322648
1527	7.6300e-01	-19.2235	-238.214969	-0.004402	-44.018286	-14.913799	-0.346846
1528	7.6350e-01	-19.1946	-239.828208	-0.004095	-40.947243	-13.873301	-0.322648
1529	7.6400e-01	-19.1481	-242.046413	-0.005630	-56.302459	-19.075790	-0.443641
1530	7.6450e-01	-19.1160	-243.780645	-0.004402	-44.018286	-14.913799	-0.346846
1531	7.6500e-01	-19.0711	-245.151899	-0.003481	-34.805156	-11.792306	-0.274251
1532	7.6550e-01	-19.0390	-246.765138	-0.004095	-40.947243	-13.873301	-0.322648
1533	7.6600e-01	-18.9989	-248.620363	-0.004709	-47.089329	-15.954297	-0.371045
1534	7.6650e-01	-18.9604	-250.515920	-0.004811	-48.113010	-16.301129	-0.379111
1535	7.6700e-01	-18.9219	-251.403201	-0.002252	-22.520984	-7.630316	-0.177456
1536	7.6750e-01	-18.8850	-253.056772	-0.004197	-41.970924	-14.220134	-0.330714
1537	7.6800e-01	-18.8417	-254.508687	-0.003685	-36.852519	-12.485971	-0.290383
1538	7.6850e-01	-18.8016	-256.041265	-0.003890	-38.899881	-13.179636	-0.306515
1539	7.6900e-01	-18.7647	-257.533511	-0.003788	-37.876200	-12.832804	-0.298449
1540	7.6950e-01	-18.7246	-259.066089	-0.003890	-38.899881	-13.179636	-0.306515
1541	7.7000e-01	-18.6909	-260.195356	-0.002866	-28.663070	-9.711311	-0.225854
1542	7.7050e-01	-18.6476	-262.131244	-0.004914	-49.136692	-16.647962	-0.387177
1543	7.7100e-01	-18.6091	-262.897532	-0.001945	-19.449940	-6.589818	-0.153258
1544	7.7150e-01	-18.5770	-264.309117	-0.003583	-35.828838	-12.139139	-0.282317
1545	7.7200e-01	-18.5305	-265.599708	-0.003276	-32.757794	-11.098641	-0.258118
1546	7.7250e-01	-18.4920	-267.011293	-0.003583	-35.828838	-12.139139	-0.282317
1547	7.7300e-01	-18.4487	-268.019568	-0.002559	-25.592027	-8.670813	-0.201655
1548	7.7350e-01	-18.4166	-269.068173	-0.002662	-26.615708	-9.017646	-0.209721
1549	7.7400e-01	-18.3797	-270.600751	-0.003890	-38.899881	-13.179636	-0.306515
1550	7.7450e-01	-18.3412	-271.851011	-0.003173	-31.734113	-10.751809	-0.250052
1551	7.7500e-01	-18.2963	-272.899617	-0.002662	-26.615708	-9.017646	-0.209721
1552	7.7550e-01	-18.2530	-274.149877	-0.003173	-31.734113	-10.751809	-0.250052
1553	7.7600e-01	-18.2225	-274.432194	-0.000717	-7.165768	-2.427828	-0.056463
1554	7.7650e-01	-18.1840	-276.206758	-0.004504	-45.041967	-15.260632	-0.354913
1555	7.7700e-01	-18.1407	-276.852054	-0.001638	-16.378897	-5.549321	-0.129059
1556	7.7750e-01	-18.0990	-278.424962	-0.003992	-39.923562	-13.526469	-0.314582
1557	7.7800e-01	-18.0605	-278.949265	-0.001331	-13.307854	-4.508823	-0.104861
1558	7.7850e-01	-18.0236	-280.118863	-0.002969	-29.686751	-10.058144	-0.233920
1559	7.7900e-01	-17.9770	-280.723828	-0.001536	-15.355216	-5.202488	-0.120993
1560	7.7950e-01	-17.9433	-282.054751	-0.003378	-33.781475	-11.445474	-0.266185
1561	7.8000e-01	-17.8968	-282.780708	-0.001843	-18.426259	-6.242986	-0.145192
1562	7.8050e-01	-17.8567	-283.788983	-0.002559	-25.592027	-8.670813	-0.201655
1563	7.8100e-01	-17.8182	-284.434279	-0.001638	-16.378897	-5.549321	-0.129059
1564	7.8150e-01	-17.7829	-285.281230	-0.002150	-21.497303	-7.283483	-0.169390
1565	7.8200e-01	-17.7428	-285.966856	-0.001740	-17.402578	-5.896153	-0.137125
1566	7.8250e-01	-17.6931	-286.410497	-0.001126	-11.260492	-3.815158	-0.088728
1567	7.8300e-01	-17.6626	-287.338110	-0.002354	-23.544665	-7.977148	-0.185523
1568	7.8350e-01	-17.6209	-288.346385	-0.002559	-25.592027	-8.670813	-0.201655
1569	7.8400e-01	-17.5840	-288.991680	-0.001638	-16.378897	-5.549321	-0.129059
1570	7.8450e-01	-17.5455	-289.556314	-0.001433	-14.331535	-4.855656	-0.112927
1571	7.8500e-01	-17.5086	-290.080617	-0.001331	-13.307854	-4.508823	-0.104861
1572	7.8550e-01	-17.4637	-291.250216	-0.002969	-29.686751	-10.058144	-0.233920
1573	7.8600e-01	-17.4364	-291.855180	-0.001536	-15.355216	-5.202488	-0.120993
1574	7.8650e-01	-17.3851	-292.339152	-0.001228	-12.284173	-4.161990	-0.096794
1575	7.8700e-01	-17.3402	-293.145772	-0.002047	-20.473621	-6.936651	-0.161324
1576	7.8750e-01	-17.3017	-293.952392	-0.002047	-20.473621	-6.936651	-0.161324
1577	7.8800e-01	-17.2712	-294.275040	-0.000819	-8.189449	-2.774660	-0.064530
1578	7.8850e-01	-17.2279	-294.960666	-0.001740	-17.402578	-5.896153	-0.137125
1579	7.8900e-01	-17.1942	-295.000997	-0.000102	-1.023681	-0.346833	-0.008066
1580	7.8950e-01	-17.1428	-295.484969	-0.001228	-12.284173	-4.161990	-0.096794
1581	7.9000e-01	-17.1043	-296.170596	-0.001740	-17.402578	-5.896153	-0.137125
1582	7.9050e-01	-17.0626	-296.896554	-0.001843	-18.426259	-6.242986	-0.145192
1583	7.9100e-01	-17.0257	-297.219201	-0.000819	-8.189449	-2.774660	-0.064530
1584	7.9150e-01	-16.9936	-297.743504	-0.001331	-13.307854	-4.508823	-0.104861
1585	7.9200e-01	-16.9423	-298.227476	-0.001228	-12.284173	-4.161990	-0.096794
1586	7.9250e-01	-16.9022	-298.590455	-0.000921	-9.213130	-3.121493	-0.072596
1587	7.9300e-01	-16.8653	-299.195420	-0.001536	-15.355216	-5.202488	-0.120993
1588	7.9350e-01	-16.8252	-299.235751	-0.000102	-1.023681	-0.346833	-0.008066
1589	7.9400e-01	-16.7819	-299.800385	-0.001433	-14.331535	-4.855656	-0.112927
1590	7.9450e-01	-16.7466	-299.840716	-0.000102	-1.023681	-0.346833	-0.008066
1591	7.9500e-01	-16.7113	-300.727997	-0.002252	-22.520984	-7.630316	-0.177456
1592	7.9550e-01	-16.6728	-300.687666	0.000102	1.023681	0.346833	0.008066
1593	7.9600e-01	-16.6215	-301.453955	-0.001945	-19.449940	-6.589818	-0.153258
1594	7.9650e-01	-16.5797	-301.413624	0.000102	1.023681	0.346833	0.008066
1595	7.9700e-01	-16.5428	-301.857265	-0.001126	-11.260492	-3.815158	-0.088728
1596	7.9750e-01	-16.5027	-302.139582	-0.000717	-7.165768	-2.427828	-0.056463
1597	7.9800e-01	-16.4674	-302.341237	-0.000512	-5.118405	-1.734163	-0.040331
1598	7.9850e-01	-16.4241	-302.502561	-0.000409	-4.094724	-1.387330	-0.032265
1599	7.9900e-01	-16.3856	-302.825209	-0.000819	-8.189449	-2.774660	-0.064530
1600	7.9950e-01	-16.3552	-303.147856	-0.000819	-8.189449	-2.774660	-0.064530
1601	8.0000e-01	-16.2974	-302.946202	0.000512	5.118405	1.734163	0.040331
1602	8.0050e-01	-16.2637	-303.510835	-0.001433	-14.331535	-4.855656	-0.112927
1603	8.0100e-01	-16.2284	-303.712490	-0.000512	-5.118405	-1.734163	-0.040331
1604	8.0150e-01	-16.1915	-303.873814	-0.000409	-4.094724	-1.387330	-0.032265
1605	8.0200e-01	-16.1514	-303.873814	0.000000	0.000000	0.000000	0.000000
1606	8.0250e-01	-16.1065	-304.277124	-0.001024	-10.236811	-3.468325	-0.080662
1607	8.0300e-01	-16.0712	-304.478779	-0.000512	-5.118405	-1.734163	-0.040331
1608	8.0350e-01	-16.0231	-304.559441	-0.000205	-2.047362	-0.693665	-0.016132
1609	8.0400e-01	-15.9862	-305.043413	-0.001228	-12.284173	-4.161990	-0.096794
1610	8.0450e-01	-15.9429	-304.841758	0.000512	5.118405	1.734163	0.040331
1611	8.0500e-01	-15.9028	-305.204737	-0.000921	-9.213130	-3.121493	-0.072596
1612	8.0550e-01	-15.8643	-305.043413	0.000409	4.094724	1.387330	0.032265
1613	8.0600e-01	-15.8306	-305.083744	-0.000102	-1.023681	-0.346833	-0.008066
1614	8.0650e-01	-15.7905	-305.527385	-0.001126	-11.260492	-3.815158	-0.088728
1615	8.0700e-01	-15.7488	-305.406392	0.000307	3.071043	1.040498	0.024199
1616	8.0750e-01	-15.7103	-305.245068	0.000409	4.094724	1.387330	0.032265
1617	8.0800e-01	-15.6734	-305.366061	-0.000307	-3.071043	-1.040498	-0.024199
1618	8.0850e-01	-15.6268	-305.204737	0.000409	4.094724	1.387330	0.032265
1619	8.0900e-01	-15.5803	-305.648378	-0.001126	-11.260492	-3.815158	-0.088728
1620	8.0950e-01	-15.5482	-305.527385	0.000307	3.071043	1.040498	0.024199
1621	8.1000e-01	-15.5033	-305.890363	-0.000921	-9.213130	-3.121493	-0.072596
1622	8.1050e-01	-15.4728	-305.648378	0.000614	6.142086	2.080995	0.048397
1623	8.1100e-01	-15.4279	-305.406392	0.000614	6.142086	2.080995	0.048397
1624	8.1150e-01	-15.3846	-305.930694	-0.001331	-13.307854	-4.508823	-0.104861
1625	8.1200e-01	-15.3493	-305.729040	0.000512	5.118405	1.734163	0.040331
1626	8.1250e-01	-15.3092	-305.769371	-0.000102	-1.023681	-0.346833	-0.008066
1627	8.1300e-01	-15.2675	-305.729040	0.000102	1.023681	0.346833	0.008066
1628	8.1350e-01	-15.2306	-305.769371	-0.000102	-1.023681	-0.346833	-0.008066
1629	8.1400e-01	-15.1905	-305.688709	0.000205	2.047362	0.693665	0.016132
1630	8.1450e-01	-15.1568	-305.729040	-0.000102	-1.023681	-0.346833	-0.008066
1631	8.1500e-01	-15.1071	-305.446723	0.000717	7.165768	2.427828	0.056463
1632	8.1550e-01	-15.0734	-305.769371	-0.000819	-8.189449	-2.774660	-0.064530
1633	8.1600e-01	-15.0317	-305.608047	0.000409	4.094724	1.387330	0.032265
1634	8.1650e-01	-14.9932	-305.406392	0.000512	5.118405	1.734163	0.040331
1635	8.1700e-01	-14.9547	-305.527385	-0.000307	-3.071043	-1.040498	-0.024199
1636	8.1750e-01	-14.9113	-305.446723	0.000205	2.047362	0.693665	0.016132
1637	8.1800e-01	-14.8680	-305.366061	0.000205	2.047362	0.693665	0.016132
1638	8.1850e-01	-14.8327	-305.366061	0.000000	0.000000	0.000000	0.000000
1639	8.1900e-01	-14.7942	-305.043413	0.000819	8.189449	2.774660	0.064530
1640	8.1950e-01	-14.7541	-305.809702	-0.001945	-19.449940	-6.589818	-0.153258
1641	8.2000e-01	-14.7044	-305.003082	0.002047	20.473621	6.936651	0.161324
1642	8.2050e-01	-14.6611	-304.882089	0.000307	3.071043	1.040498	0.024199
1643	8.2100e-01	-14.6306	-305.245068	-0.000921	-9.213130	-3.121493	-0.072596
1644	8.2150e-01	-14.5985	-305.366061	-0.000307	-3.071043	-1.040498	-0.024199
1645	8.2200e-01	-14.5600	-304.922420	0.001126	11.260492	3.815158	0.088728
1646	8.2250e-01	-14.5087	-304.559441	0.000921	9.213130	3.121493	0.072596
1647	8.2300e-01	-14.4718	-304.841758	-0.000717	-7.165768	-2.427828	-0.056463
1648	8.2350e-01	-14.4317	-304.438448	0.001024	10.236811	3.468325	0.080662
1649	8.2400e-01	-14.3884	-304.801427	-0.000921	-9.213130	-3.121493	-0.072596
1650	8.2450e-01	-14.3483	-304.599772	0.000512	5.118405	1.734163	0.040331
1651	8.2500e-01	-14.3130	-304.317455	0.000717	7.165768	2.427828	0.056463
1652	8.2550e-01	-14.2745	-304.317455	0.000000	0.000000	0.000000	0.000000
1653	8.2600e-01	-14.2360	-303.914145	0.001024	10.236811	3.468325	0.080662
1654	8.2650e-01	-14.1894	-303.793152	0.000307	3.071043	1.040498	0.024199
1655	8.2700e-01	-14.1413	-303.994807	-0.000512	-5.118405	-1.734163	-0.040331
1656	8.2750e-01	-14.1092	-303.833483	0.000409	4.094724	1.387330	0.032265
1657	8.2800e-01	-14.0707	-303.954476	-0.000307	-3.071043	-1.040498	-0.024199
1658	8.2850e-01	-14.0338	-303.752821	0.000512	5.118405	1.734163	0.040331
1659	8.2900e-01	-13.9873	-303.268849	0.001228	12.284173	4.161990	0.096794
1660	8.2950e-01	-13.9520	-303.389842	-0.000307	-3.071043	-1.040498	-0.024199
1661	8.3000e-01	-13.9151	-302.946202	0.001126	11.260492	3.815158	0.088728
1662	8.3050e-01	-13.8654	-302.986532	-0.000102	-1.023681	-0.346833	-0.008066
1663	8.3100e-01	-13.8365	-303.107525	-0.000307	-3.071043	-1.040498	-0.024199
1664	8.3150e-01	-13.7900	-302.704216	0.001024	10.236811	3.468325	0.080662
1665	8.3200e-01	-13.7499	-302.825209	-0.000307	-3.071043	-1.040498	-0.024199
1666	8.3250e-01	-13.7162	-302.542892	0.000717	7.165768	2.427828	0.056463
1667	8.3300e-01	-13.6745	-302.583223	-0.000102	-1.023681	-0.346833	-0.008066
1668	8.3350e-01	-13.6312	-302.260575	0.000819	8.189449	2.774660	0.064530
1669	8.3400e-01	-13.5975	-302.099251	0.000409	4.094724	1.387330	0.032265
1670	8.3450e-01	-13.5638	-301.897596	0.000512	5.118405	1.734163	0.040331
1671	8.3500e-01	-13.5108	-302.179913	-0.000717	-7.165768	-2.427828	-0.056463
1672	8.3550e-01	-13.4707	-301.937927	0.000614	6.142086	2.080995	0.048397
1673	8.3600e-01	-13.4338	-301.534617	0.001024	10.236811	3.468325	0.080662
1674	8.3650e-01	-13.3969	-301.453955	0.000205	2.047362	0.693665	0.016132
1675	8.3700e-01	-13.3440	-301.615279	-0.000409	-4.094724	-1.387330	-0.032265
1676	8.3750e-01	-13.3103	-301.252300	0.000921	9.213130	3.121493	0.072596
1677	8.3800e-01	-13.2750	-301.090976	0.000409	4.094724	1.387330	0.032265
1678	8.3850e-01	-13.2253	-300.848990	0.000614	6.142086	2.080995	0.048397
1679	8.3900e-01	-13.1900	-300.889321	-0.000102	-1.023681	-0.346833	-0.008066
1680	8.3950e-01	-13.1531	-300.727997	0.000409	4.094724	1.387330	0.032265
1681	8.4000e-01	-13.1162	-300.768328	-0.000102	-1.023681	-0.346833	-0.008066
1682	8.4050e-01	-13.0681	-300.566673	0.000512	5.118405	1.734163	0.040331
1683	8.4100e-01	-13.0312	-300.405349	0.000409	4.094724	1.387330	0.032265
1684	8.4150e-01	-12.9927	-299.921378	0.001228	12.284173	4.161990	0.096794
1685	8.4200e-01	-12.9558	-299.961709	-0.000102	-1.023681	-0.346833	-0.008066
1686	8.4250e-01	-12.9109	-299.558399	0.001024	10.236811	3.468325	0.080662
1687	8.4300e-01	-12.8724	-299.760054	-0.000512	-5.118405	-1.734163	-0.040331
1688	8.4350e-01	-12.8387	-299.719723	0.000102	1.023681	0.346833	0.008066
1689	8.4400e-01	-12.7986	-299.558399	0.000409	4.094724	1.387330	0.032265
1690	8.4450e-01	-12.7504	-299.074427	0.001228	12.284173	4.161990	0.096794
1691	8.4500e-01	-12.7087	-299.316413	-0.000614	-6.142086	-2.080995	-0.048397
1692	8.4550e-01	-12.6734	-299.114758	0.000512	5.118405	1.734163	0.040331
1693	8.4600e-01	-12.6365	-298.751779	0.000921	9.213130	3.121493	0.072596
1694	8.4650e-01	-12.5980	-298.832441	-0.000205	-2.047362	-0.693665	-0.016132
1695	8.4700e-01	-12.5611	-298.550124	0.000717	7.165768	2.427828	0.056463
1696	8.4750e-01	-12.5130	-298.388800	0.000409	4.094724	1.387330	0.032265
1697	8.4800e-01	-12.4713	-298.106483	0.000717	7.165768	2.427828	0.056463
1698	8.4850e-01	-12.4360	-298.227476	-0.000307	-3.071043	-1.040498	-0.024199
1699	8.4900e-01	-12.4007	-298.429131	-0.000512	-5.118405	-1.734163	-0.040331
1700	8.4950e-01	-12.3542	-298.025821	0.001024	10.236811	3.468325	0.080662
1701	8.5000e-01	-12.3093	-297.582180	0.001126	11.260492	3.815158	0.088728
1702	8.5050e-01	-12.2772	-297.662842	-0.000205	-2.047362	-0.693665	-0.016132
1703	8.5100e-01	-12.2339	-297.461187	0.000512	5.118405	1.734163	0.040331
1704	8.5150e-01	-12.1938	-297.259532	0.000512	5.118405	1.734163	0.040331
1705	8.5200e-01	-12.1489	-297.259532	0.000000	0.000000	0.000000	0.000000
1706	8.5250e-01	-12.1071	-296.977216	0.000717	7.165768	2.427828	0.056463
1707	8.5300e-01	-12.0783	-296.614237	0.000921	9.213130	3.121493	0.072596
1708	8.5350e-01	-12.0350	-296.694899	-0.000205	-2.047362	-0.693665	-0.016132
1709	8.5400e-01	-11.9981	-296.331920	0.000921	9.213130	3.121493	0.072596
1710	8.5450e-01	-11.9451	-296.331920	0.000000	0.000000	0.000000	0.000000
1711	8.5500e-01	-11.9146	-296.331920	0.000000	0.000000	0.000000	0.000000
1712	8.5550e-01	-11.8761	-295.807617	0.001331	13.307854	4.508823	0.104861
1713	8.5600e-01	-11.8344	-296.009272	-0.000512	-5.118405	-1.734163	-0.040331
1714	8.5650e-01	-11.7943	-295.847948	0.000409	4.094724	1.387330	0.032265
1715	8.5700e-01	-11.7558	-295.242983	0.001536	15.355216	5.202488	0.120993
1716	8.5750e-01	-11.7125	-295.202652	0.000102	1.023681	0.346833	0.008066
1717	8.5800e-01	-11.6692	-295.444638	-0.000614	-6.142086	-2.080995	-0.048397
1718	8.5850e-01	-11.6179	-294.920335	0.001331	13.307854	4.508823	0.104861
1719	8.5900e-01	-11.5874	-294.920335	0.000000	0.000000	0.000000	0.000000
1720	8.5950e-01	-11.5521	-294.436363	0.001228	12.284173	4.161990	0.096794
1721	8.6000e-01	-11.5200	-294.597687	-0.000409	-4.094724	-1.387330	-0.032265
1722	8.6050e-01	-11.4703	-294.759011	-0.000409	-4.094724	-1.387330	-0.032265
1723	8.6100e-01	-11.4398	-294.396032	0.000921	9.213130	3.121493	0.072596
1724	8.6150e-01	-11.3949	-294.073385	0.000819	8.189449	2.774660	0.064530
1725	8.6200e-01	-11.3564	-293.831399	0.000614	6.142086	2.080995	0.048397
1726	8.6250e-01	-11.3098	-293.912061	-0.000205	-2.047362	-0.693665	-0.016132
1727	8.6300e-01	-11.2762	-293.347427	0.001433	14.331535	4.855656	0.112927
1728	8.6350e-01	-11.2328	-293.468420	-0.000307	-3.071043	-1.040498	-0.024199
1729	8.6400e-01	-11.1959	-293.226434	0.000614	6.142086	2.080995	0.048397
1730	8.6450e-01	-11.1494	-293.105441	0.000307	3.071043	1.040498	0.024199
1731	8.6500e-01	-11.1093	-293.145772	-0.000102	-1.023681	-0.346833	-0.008066
1732	8.6550e-01	-11.0660	-292.782793	0.000921	9.213130	3.121493	0.072596
1733	8.6600e-01	-11.0387	-292.944117	-0.000409	-4.094724	-1.387330	-0.032265
1734	8.6650e-01	-11.0018	-292.298821	0.001638	16.378897	5.549321	0.129059
1735	8.6700e-01	-10.9505	-292.379483	-0.000205	-2.047362	-0.693665	-0.016132
1736	8.6750e-01	-10.9168	-292.379483	0.000000	0.000000	0.000000	0.000000
1737	8.6800e-01	-10.8767	-292.056835	0.000819	8.189449	2.774660	0.064530
1738	8.6850e-01	-10.8334	-291.814849	0.000614	6.142086	2.080995	0.048397
1739	8.6900e-01	-10.8013	-291.451870	0.000921	9.213130	3.121493	0.072596
1740	8.6950e-01	-10.7548	-291.653525	-0.000512	-5.118405	-1.734163	-0.040331
1741	8.7000e-01	-10.7163	-291.330878	0.000819	8.189449	2.774660	0.064530
1742	8.7050e-01	-10.6794	-291.088892	0.000614	6.142086	2.080995	0.048397
1743	8.7100e-01	-10.6345	-291.250216	-0.000409	-4.094724	-1.387330	-0.032265
1744	8.7150e-01	-10.5911	-291.088892	0.000409	4.094724	1.387330	0.032265
1745	8.7200e-01	-10.5607	-291.008230	0.000205	2.047362	0.693665	0.016132
1746	8.7250e-01	-10.5157	-290.403265	0.001536	15.355216	5.202488	0.120993
1747	8.7300e-01	-10.4692	-290.443596	-0.000102	-1.023681	-0.346833	-0.008066
1748	8.7350e-01	-10.4323	-289.919293	0.001331	13.307854	4.508823	0.104861
1749	8.7400e-01	-10.3906	-289.757969	0.000409	4.094724	1.387330	0.032265
1750	8.7450e-01	-10.3457	-289.798300	-0.000102	-1.023681	-0.346833	-0.008066
1751	8.7500e-01	-10.3136	-289.394990	0.001024	10.236811	3.468325	0.080662
1752	8.7550e-01	-10.2655	-289.435321	-0.000102	-1.023681	-0.346833	-0.008066
1753	8.7600e-01	-10.2382	-289.153004	0.000717	7.165768	2.427828	0.056463
1754	8.7650e-01	-10.1917	-289.032011	0.000307	3.071043	1.040498	0.024199
1755	8.7700e-01	-10.1548	-289.032011	0.000000	0.000000	0.000000	0.000000
1756	8.7750e-01	-10.1227	-288.548040	0.001228	12.284173	4.161990	0.096794
1757	8.7800e-01	-10.0746	-288.467378	0.000205	2.047362	0.693665	0.016132
1758	8.7850e-01	-10.0313	-288.265723	0.000512	5.118405	1.734163	0.040331
1759	8.7900e-01	-9.9992	-288.386716	-0.000307	-3.071043	-1.040498	-0.024199
1760	8.7950e-01	-9.9495	-287.983406	0.001024	10.236811	3.468325	0.080662
1761	8.8000e-01	-9.9126	-287.701089	0.000717	7.165768	2.427828	0.056463
1762	8.8050e-01	-9.8773	-287.701089	0.000000	0.000000	0.000000	0.000000
1763	8.8100e-01	-9.8356	-287.620427	0.000205	2.047362	0.693665	0.016132
1764	8.8150e-01	-9.7906	-287.338110	0.000717	7.165768	2.427828	0.056463
1765	8.8200e-01	-9.7489	-286.854138	0.001228	12.284173	4.161990	0.096794
1766	8.8250e-01	-9.7120	-286.773476	0.000205	2.047362	0.693665	0.016132
1767	8.8300e-01	-9.6751	-286.773476	0.000000	0.000000	0.000000	0.000000
1768	8.8350e-01	-9.6382	-286.612152	0.000409	4.094724	1.387330	0.032265
1769	8.8400e-01	-9.5901	-286.652483	-0.000102	-1.023681	-0.346833	-0.008066
1770	8.8450e-01	-9.5516	-286.410497	0.000614	6.142086	2.080995	0.048397
1771	8.8500e-01	-9.5179	-286.007187	0.001024	10.236811	3.468325	0.080662
1772	8.8550e-01	-9.4698	-285.442554	0.001433	14.331535	4.855656	0.112927
1773	8.8600e-01	-9.4297	-285.926525	-0.001228	-12.284173	-4.161990	-0.096794
1774	8.8650e-01	-9.3928	-285.442554	0.001228	12.284173	4.161990	0.096794
1775	8.8700e-01	-9.3527	-285.240899	0.000512	5.118405	1.734163	0.040331
1776	8.8750e-01	-9.3222	-285.442554	-0.000512	-5.118405	-1.734163	-0.040331
1777	8.8800e-01	-9.2725	-285.119906	0.000819	8.189449	2.774660	0.064530
1778	8.8850e-01	-9.2324	-284.877920	0.000614	6.142086	2.080995	0.048397
1779	8.8900e-01	-9.1923	-284.676265	0.000512	5.118405	1.734163	0.040331
1780	8.8950e-01	-9.1554	-283.990638	0.001740	17.402578	5.896153	0.137125
1781	8.9000e-01	-9.1088	-284.111631	-0.000307	-3.071043	-1.040498	-0.024199
1782	8.9050e-01	-9.0767	-284.071300	0.000102	1.023681	0.346833	0.008066
1783	8.9100e-01	-9.0190	-283.909976	0.000409	4.094724	1.387330	0.032265
1784	8.9150e-01	-8.9981	-284.071300	-0.000409	-4.094724	-1.387330	-0.032265
1785	8.9200e-01	-8.9645	-283.466335	0.001536	15.355216	5.202488	0.120993
1786	8.9250e-01	-8.9179	-283.305011	0.000409	4.094724	1.387330	0.032265
1787	8.9300e-01	-8.8746	-283.063025	0.000614	6.142086	2.080995	0.048397
1788	8.9350e-01	-8.8377	-283.063025	0.000000	0.000000	0.000000	0.000000
1789	8.9400e-01	-8.7928	-282.700047	0.000921	9.213130	3.121493	0.072596
1790	8.9450e-01	-8.7543	-282.216075	0.001228	12.284173	4.161990	0.096794
1791	8.9500e-01	-8.7062	-282.216075	0.000000	0.000000	0.000000	0.000000
1792	8.9550e-01	-8.6693	-282.175744	0.000102	1.023681	0.346833	0.008066
1793	8.9600e-01	-8.6292	-281.893427	0.000717	7.165768	2.427828	0.056463
1794	8.9650e-01	-8.5923	-282.095082	-0.000512	-5.118405	-1.734163	-0.040331
1795	8.9700e-01	-8.5490	-281.530448	0.001433	14.331535	4.855656	0.112927
1796	8.9750e-01	-8.5201	-281.409455	0.000307	3.071043	1.040498	0.024199
1797	8.9800e-01	-8.4736	-281.328793	0.000205	2.047362	0.693665	0.016132
1798	8.9850e-01	-8.4399	-281.086807	0.000614	6.142086	2.080995	0.048397
1799	8.9900e-01	-8.3933	-281.207800	-0.000307	-3.071043	-1.040498	-0.024199
1800	8.9950e-01	-8.3564	-280.885152	0.000819	8.189449	2.774660	0.064530
1801	9.0000e-01	-8.3067	-280.562504	0.000819	8.189449	2.774660	0.064530
1802	9.0050e-01	-8.2730	-280.239856	0.000819	8.189449	2.774660	0.064530
1803	9.0100e-01	-8.2329	-280.078532	0.000409	4.094724	1.387330	0.032265
1804	9.0150e-01	-8.1976	-280.038201	0.000102	1.023681	0.346833	0.008066
1805	9.0200e-01	-8.1575	-279.715554	0.000819	8.189449	2.774660	0.064530
1806	9.0250e-01	-8.1094	-279.433237	0.000717	7.165768	2.427828	0.056463
1807	9.0300e-01	-8.0709	-278.908934	0.001331	13.307854	4.508823	0.104861
1808	9.0350e-01	-8.0292	-279.070258	-0.000409	-4.094724	-1.387330	-0.032265
1809	9.0400e-01	-7.9891	-278.787941	0.000717	7.165768	2.427828	0.056463
1810	9.0450e-01	-7.9426	-278.465293	0.000819	8.189449	2.774660	0.064530
1811	9.0500e-01	-7.9121	-278.505624	-0.000102	-1.023681	-0.346833	-0.008066
1812	9.0550e-01	-7.8752	-278.263638	0.000614	6.142086	2.080995	0.048397
1813	9.0600e-01	-7.8287	-278.344300	-0.000205	-2.047362	-0.693665	-0.016132
1814	9.0650e-01	-7.7934	-277.981321	0.000921	9.213130	3.121493	0.072596
1815	9.0700e-01	-7.7565	-277.658673	0.000819	8.189449	2.774660	0.064530
1816	9.0750e-01	-7.7180	-277.618342	0.000102	1.023681	0.346833	0.008066
1817	9.0800e-01	-7.6827	-277.295694	0.000819	8.189449	2.774660	0.064530
1818	9.0850e-01	-7.6249	-277.295694	0.000000	0.000000	0.000000	0.000000
1819	9.0900e-01	-7.5912	-276.690730	0.001536	15.355216	5.202488	0.120993
1820	9.0950e-01	-7.5495	-276.610068	0.000205	2.047362	0.693665	0.016132
1821	9.1000e-01	-7.5094	-276.206758	0.001024	10.236811	3.468325	0.080662
1822	9.1050e-01	-7.4725	-276.287420	-0.000205	-2.047362	-0.693665	-0.016132
1823	9.1100e-01	-7.4276	-276.408413	-0.000307	-3.071043	-1.040498	-0.024199
1824	9.1150e-01	-7.3875	-276.287420	0.000307	3.071043	1.040498	0.024199
1825	9.1200e-01	-7.3474	-275.682455	0.001536	15.355216	5.202488	0.120993
1826	9.1250e-01	-7.3249	-275.440469	0.000614	6.142086	2.080995	0.048397
1827	9.1300e-01	-7.2736	-275.319476	0.000307	3.071043	1.040498	0.024199
1828	9.1350e-01	-7.2287	-275.117821	0.000512	5.118405	1.734163	0.040331
1829	9.1400e-01	-7.1870	-274.795173	0.000819	8.189449	2.774660	0.064530
1830	9.1450e-01	-7.1533	-274.190208	0.001536	15.355216	5.202488	0.120993
1831	9.1500e-01	-7.1148	-274.391863	-0.000512	-5.118405	-1.734163	-0.040331
1832	9.1550e-01	-7.0731	-274.633849	-0.000614	-6.142086	-2.080995	-0.048397
1833	9.1600e-01	-7.0346	-273.988554	0.001638	16.378897	5.549321	0.129059
1834	9.1650e-01	-6.9880	-273.867561	0.000307	3.071043	1.040498	0.024199
1835	9.1700e-01	-6.9527	-273.746568	0.000307	3.071043	1.040498	0.024199
1836	9.1750e-01	-6.9142	-273.222265	0.001331	13.307854	4.508823	0.104861
1837	9.1800e-01	-6.8725	-273.262596	-0.000102	-1.023681	-0.346833	-0.008066
1838	9.1850e-01	-6.8388	-273.383589	-0.000307	-3.071043	-1.040498	-0.024199
1839	9.1900e-01	-6.7907	-272.738293	0.001638	16.378897	5.549321	0.129059
1840	9.1950e-01	-6.7538	-272.697962	0.000102	1.023681	0.346833	0.008066
1841	9.2000e-01	-6.7201	-272.334983	0.000921	9.213130	3.121493	0.072596
1842	9.2050e-01	-6.6688	-272.133328	0.000512	5.118405	1.734163	0.040331
1843	9.2100e-01	-6.6319	-272.173659	-0.000102	-1.023681	-0.346833	-0.008066
1844	9.2150e-01	-6.5982	-271.568694	0.001536	15.355216	5.202488	0.120993
1845	9.2200e-01	-6.5581	-271.528363	0.000102	1.023681	0.346833	0.008066
1846	9.2250e-01	-6.5164	-271.528363	0.000000	0.000000	0.000000	0.000000
1847	9.2300e-01	-6.4731	-270.963730	0.001433	14.331535	4.855656	0.112927
1848	9.2350e-01	-6.4266	-271.286377	-0.000819	-8.189449	-2.774660	-0.064530
1849	9.2400e-01	-6.3929	-271.044392	0.000614	6.142086	2.080995	0.048397
1850	9.2450e-01	-6.3479	-270.439427	0.001536	15.355216	5.202488	0.120993
1851	9.2500e-01	-6.3143	-270.399096	0.000102	1.023681	0.346833	0.008066
1852	9.2550e-01	-6.2790	-269.955455	0.001126	11.260492	3.815158	0.088728
1853	9.2600e-01	-6.2324	-269.995786	-0.000102	-1.023681	-0.346833	-0.008066
1854	9.2650e-01	-6.1891	-269.713469	0.000717	7.165768	2.427828	0.056463
1855	9.2700e-01	-6.1522	-269.592476	0.000307	3.071043	1.040498	0.024199
1856	9.2750e-01	-6.1153	-269.431152	0.000409	4.094724	1.387330	0.032265
1857	9.2800e-01	-6.0784	-268.664863	0.001945	19.449940	6.589818	0.153258
1858	9.2850e-01	-6.0319	-268.906849	-0.000614	-6.142086	-2.080995	-0.048397
1859	9.2900e-01	-6.0014	-268.503539	0.001024	10.236811	3.468325	0.080662
1860	9.2950e-01	-5.9517	-268.503539	0.000000	0.000000	0.000000	0.000000
1861	9.3000e-01	-5.9148	-268.180892	0.000819	8.189449	2.774660	0.064530
1862	9.3050e-01	-5.8795	-267.858244	0.000819	8.189449	2.774660	0.064530
1863	9.3100e-01	-5.8346	-267.696920	0.000409	4.094724	1.387330	0.032265
1864	9.3150e-01	-5.7865	-267.575927	0.000307	3.071043	1.040498	0.024199
1865	9.3200e-01	-5.7544	-267.011293	0.001433	14.331535	4.855656	0.112927
1866	9.3250e-01	-5.7223	-267.132286	-0.000307	-3.071043	-1.040498	-0.024199
1867	9.3300e-01	-5.6758	-266.809638	0.000819	8.189449	2.774660	0.064530
1868	9.3350e-01	-5.6341	-266.486990	0.000819	8.189449	2.774660	0.064530
1869	9.3400e-01	-5.5891	-266.406328	0.000205	2.047362	0.693665	0.016132
1870	9.3450e-01	-5.5458	-266.124011	0.000717	7.165768	2.427828	0.056463
1871	9.3500e-01	-5.5137	-266.124011	0.000000	0.000000	0.000000	0.000000
1872	9.3550e-01	-5.4720	-265.720701	0.001024	10.236811	3.468325	0.080662
1873	9.3600e-01	-5.4351	-265.720701	0.000000	0.000000	0.000000	0.000000
1874	9.3650e-01	-5.3950	-265.640039	0.000205	2.047362	0.693665	0.016132
1875	9.3700e-01	-5.3533	-265.277061	0.000921	9.213130	3.121493	0.072596
1876	9.3750e-01	-5.3116	-264.712427	0.001433	14.331535	4.855656	0.112927
1877	9.3800e-01	-5.2763	-264.510772	0.000512	5.118405	1.734163	0.040331
1878	9.3850e-01	-5.2442	-264.430110	0.000205	2.047362	0.693665	0.016132
1879	9.3900e-01	-5.1929	-264.389779	0.000102	1.023681	0.346833	0.008066
1880	9.3950e-01	-5.1656	-264.107462	0.000717	7.165768	2.427828	0.056463
1881	9.4000e-01	-5.1095	-263.946138	0.000409	4.094724	1.387330	0.032265
1882	9.4050e-01	-5.0758	-263.542828	0.001024	10.236811	3.468325	0.080662
1883	9.4100e-01	-5.0325	-263.381504	0.000409	4.094724	1.387330	0.032265
1884	9.4150e-01	-4.9892	-263.058856	0.000819	8.189449	2.774660	0.064530
1885	9.4200e-01	-4.9571	-262.897532	0.000409	4.094724	1.387330	0.032265
1886	9.4250e-01	-4.9106	-262.574885	0.000819	8.189449	2.774660	0.064530
1887	9.4300e-01	-4.8688	-262.252237	0.000819	8.189449	2.774660	0.064530
1888	9.4350e-01	-4.8384	-262.050582	0.000512	5.118405	1.734163	0.040331
1889	9.4400e-01	-4.7934	-262.090913	-0.000102	-1.023681	-0.346833	-0.008066
1890	9.4450e-01	-4.7549	-261.566610	0.001331	13.307854	4.508823	0.104861
1891	9.4500e-01	-4.7180	-261.687603	-0.000307	-3.071043	-1.040498	-0.024199
1892	9.4550e-01	-4.6747	-261.284293	0.001024	10.236811	3.468325	0.080662
1893	9.4600e-01	-4.6314	-261.284293	0.000000	0.000000	0.000000	0.000000
1894	9.4650e-01	-4.5849	-260.518004	0.001945	19.449940	6.589818	0.153258
1895	9.4700e-01	-4.5496	-260.074363	0.001126	11.260492	3.815158	0.088728
1896	9.4750e-01	-4.5095	-260.114694	-0.000102	-1.023681	-0.346833	-0.008066
1897	9.4800e-01	-4.4774	-260.114694	0.000000	0.000000	0.000000	0.000000
1898	9.4850e-01	-4.4341	-259.953370	0.000409	4.094724	1.387330	0.032265
1899	9.4900e-01	-4.3908	-259.550061	0.001024	10.236811	3.468325	0.080662
1900	9.4950e-01	-4.3539	-259.509730	0.000102	1.023681	0.346833	0.008066
1901	9.5000e-01	-4.3202	-259.227413	0.000717	7.165768	2.427828	0.056463
1902	9.5050e-01	-4.2705	-258.945096	0.000717	7.165768	2.427828	0.056463
1903	9.5100e-01	-4.2223	-258.743441	0.000512	5.118405	1.734163	0.040331
1904	9.5150e-01	-4.1854	-257.936821	0.002047	20.473621	6.936651	0.161324
1905	9.5200e-01	-4.1485	-258.219138	-0.000717	-7.165768	-2.427828	-0.056463
1906	9.5250e-01	-4.1149	-257.493180	0.001843	18.426259	6.242986	0.145192
1907	9.5300e-01	-4.0812	-257.775497	-0.000717	-7.165768	-2.427828	-0.056463
1908	9.5350e-01	-4.0282	-257.210863	0.001433	14.331535	4.855656	0.112927
1909	9.5400e-01	-3.9849	-257.049539	0.000409	4.094724	1.387330	0.032265
1910	9.5450e-01	-3.9528	-257.291525	-0.000614	-6.142086	-2.080995	-0.048397
1911	9.5500e-01	-3.9127	-256.484906	0.002047	20.473621	6.936651	0.161324
1912	9.5550e-01	-3.8742	-256.444575	0.000102	1.023681	0.346833	0.008066
1913	9.5600e-01	-3.8341	-256.565568	-0.000307	-3.071043	-1.040498	-0.024199
1914	9.5650e-01	-3.7940	-255.879941	0.001740	17.402578	5.896153	0.137125
1915	9.5700e-01	-3.7587	-255.436300	0.001126	11.260492	3.815158	0.088728
1916	9.5750e-01	-3.7154	-255.315307	0.000307	3.071043	1.040498	0.024199
1917	9.5800e-01	-3.6753	-255.113652	0.000512	5.118405	1.734163	0.040331
1918	9.5850e-01	-3.6288	-254.629680	0.001228	12.284173	4.161990	0.096794
1919	9.5900e-01	-3.5887	-254.428025	0.000512	5.118405	1.734163	0.040331
1920	9.5950e-01	-3.5518	-254.307032	0.000307	3.071043	1.040498	0.024199
1921	9.6000e-01	-3.5052	-254.226370	0.000205	2.047362	0.693665	0.016132
1922	9.6050e-01	-3.4796	-253.984384	0.000614	6.142086	2.080995	0.048397
1923	9.6100e-01	-3.4250	-253.218096	0.001945	19.449940	6.589818	0.153258
1924	9.6150e-01	-3.3897	-253.540744	-0.000819	-8.189449	-2.774660	-0.064530
1925	9.6200e-01	-3.3561	-253.137434	0.001024	10.236811	3.468325	0.080662
1926	9.6250e-01	-3.3143	-252.976110	0.000409	4.094724	1.387330	0.032265
1927	9.6300e-01	-3.2774	-252.290483	0.001740	17.402578	5.896153	0.137125
1928	9.6350e-01	-3.2277	-252.492138	-0.000512	-5.118405	-1.734163	-0.040331
1929	9.6400e-01	-3.1940	-252.129159	0.000921	9.213130	3.121493	0.072596
1930	9.6450e-01	-3.1539	-252.290483	-0.000409	-4.094724	-1.387330	-0.032265
1931	9.6500e-01	-3.1106	-251.645187	0.001638	16.378897	5.549321	0.129059
1932	9.6550e-01	-3.0737	-251.403201	0.000614	6.142086	2.080995	0.048397
1933	9.6600e-01	-3.0288	-251.201546	0.000512	5.118405	1.734163	0.040331
1934	9.6650e-01	-2.9919	-250.717575	0.001228	12.284173	4.161990	0.096794
1935	9.6700e-01	-2.9470	-250.878899	-0.000409	-4.094724	-1.387330	-0.032265
1936	9.6750e-01	-2.9181	-250.475589	0.001024	10.236811	3.468325	0.080662
1937	9.6800e-01	-2.8732	-250.031948	0.001126	11.260492	3.815158	0.088728
1938	9.6850e-01	-2.8363	-250.072279	-0.000102	-1.023681	-0.346833	-0.008066
1939	9.6900e-01	-2.7978	-249.709300	0.000921	9.213130	3.121493	0.072596
1940	9.6950e-01	-2.7497	-249.346321	0.000921	9.213130	3.121493	0.072596
1941	9.7000e-01	-2.7079	-248.983342	0.000921	9.213130	3.121493	0.072596
1942	9.7050e-01	-2.6678	-248.781687	0.000512	5.118405	1.734163	0.040331
1943	9.7100e-01	-2.6245	-248.539701	0.000614	6.142086	2.080995	0.048397
1944	9.7150e-01	-2.5956	-248.459039	0.000205	2.047362	0.693665	0.016132
1945	9.7200e-01	-2.5555	-248.297715	0.000409	4.094724	1.387330	0.032265
1946	9.7250e-01	-2.5058	-247.491096	0.002047	20.473621	6.936651	0.161324
1947	9.7300e-01	-2.4657	-247.208779	0.000717	7.165768	2.427828	0.056463
1948	9.7350e-01	-2.4320	-247.007124	0.000512	5.118405	1.734163	0.040331
1949	9.7400e-01	-2.3919	-246.845800	0.000409	4.094724	1.387330	0.032265
1950	9.7450e-01	-2.3534	-246.442490	0.001024	10.236811	3.468325	0.080662
1951	9.7500e-01	-2.3117	-245.998849	0.001126	11.260492	3.815158	0.088728
1952	9.7550e-01	-2.2700	-245.958518	0.000102	1.023681	0.346833	0.008066
1953	9.7600e-01	-2.2411	-245.918187	0.000102	1.023681	0.346833	0.008066
1954	9.7650e-01	-2.1914	-245.756863	0.000409	4.094724	1.387330	0.032265
1955	9.7700e-01	-2.1577	-245.272891	0.001228	12.284173	4.161990	0.096794
1956	9.7750e-01	-2.1176	-245.272891	0.000000	0.000000	0.000000	0.000000
1957	9.7800e-01	-2.0759	-244.708258	0.001433	14.331535	4.855656	0.112927
1958	9.7850e-01	-2.0261	-244.345279	0.000921	9.213130	3.121493	0.072596
1959	9.7900e-01	-1.9925	-244.224286	0.000307	3.071043	1.040498	0.024199
1960	9.7950e-01	-1.9556	-243.498328	0.001843	18.426259	6.242986	0.145192
1961	9.8000e-01	-1.9122	-243.659652	-0.000409	-4.094724	-1.387330	-0.032265
1962	9.8050e-01	-1.8689	-243.216011	0.001126	11.260492	3.815158	0.088728
1963	9.8100e-01	-1.8240	-243.054687	0.000409	4.094724	1.387330	0.032265
1964	9.8150e-01	-1.7983	-242.651377	0.001024	10.236811	3.468325	0.080662
1965	9.8200e-01	-1.7582	-242.530384	0.000307	3.071043	1.040498	0.024199
1966	9.8250e-01	-1.7117	-242.006082	0.001331	13.307854	4.508823	0.104861
1967	9.8300e-01	-1.6764	-241.885089	0.000307	3.071043	1.040498	0.024199
1968	9.8350e-01	-1.6379	-241.562441	0.000819	8.189449	2.774660	0.064530
1969	9.8400e-01	-1.5946	-241.562441	0.000000	0.000000	0.000000	0.000000
1970	9.8450e-01	-1.5497	-240.755821	0.002047	20.473621	6.936651	0.161324
1971	9.8500e-01	-1.5224	-240.675159	0.000205	2.047362	0.693665	0.016132
1972	9.8550e-01	-1.4679	-240.513835	0.000409	4.094724	1.387330	0.032265
1973	9.8600e-01	-1.4278	-239.949201	0.001433	14.331535	4.855656	0.112927
1974	9.8650e-01	-1.3909	-240.029863	-0.000205	-2.047362	-0.693665	-0.016132
1975	9.8700e-01	-1.3636	-239.505560	0.001331	13.307854	4.508823	0.104861
1976	9.8750e-01	-1.3139	-239.586222	-0.000205	-2.047362	-0.693665	-0.016132
1977	9.8800e-01	-1.2577	-239.384568	0.000512	5.118405	1.734163	0.040331
1978	9.8850e-01	-1.2321	-238.819934	0.001433	14.331535	4.855656	0.112927
1979	9.8900e-01	-1.1807	-238.376293	0.001126	11.260492	3.815158	0.088728
1980	9.8950e-01	-1.1567	-238.255300	0.000307	3.071043	1.040498	0.024199
1981	9.9000e-01	-1.1053	-237.650335	0.001536	15.355216	5.202488	0.120993
1982	9.9050e-01	-1.0652	-237.690666	-0.000102	-1.023681	-0.346833	-0.008066
1983	9.9100e-01	-1.0283	-237.690666	0.000000	0.000000	0.000000	0.000000
1984	9.9150e-01	-0.9930	-236.803384	0.002252	22.520984	7.630316	0.177456
1985	9.9200e-01	-0.9465	-237.005039	-0.000512	-5.118405	-1.734163	-0.040331
1986	9.9250e-01	-0.9208	-236.279082	0.001843	18.426259	6.242986	0.145192
1987	9.9300e-01	-0.8791	-235.916103	0.000921	9.213130	3.121493	0.072596
1988	9.9350e-01	-0.8390	-235.916103	0.000000	0.000000	0.000000	0.000000
1989	9.9400e-01	-0.7925	-235.512793	0.001024	10.236811	3.468325	0.080662
1990	9.9450e-01	-0.7556	-235.391800	0.000307	3.071043	1.040498	0.024199
1991	9.9500e-01	-0.7075	-235.149814	0.000614	6.142086	2.080995	0.048397
1992	9.9550e-01	-0.6642	-234.706173	0.001126	11.260492	3.815158	0.088728
1993	9.9600e-01	-0.6369	-234.665842	0.000102	1.023681	0.346833	0.008066
1994	9.9650e-01	-0.5839	-234.181870	0.001228	12.284173	4.161990	0.096794
1995	9.9700e-01	-0.5583	-233.496244	0.001740	17.402578	5.896153	0.137125
1996	9.9750e-01	-0.5085	-233.697899	-0.000512	-5.118405	-1.734163	-0.040331
1997	9.9800e-01	-0.4765	-232.891279	0.002047	20.473621	6.936651	0.161324
1998	9.9850e-01	-0.4331	-233.173596	-0.000717	-7.165768	-2.427828	-0.056463
1999	9.9900e-01	-0.3995	-232.608962	0.001433	14.331535	4.855656	0.112927
2000	9.9950e-01	-0.3593	-232.165321	0.001126	11.260492	3.815158	0.088728
2001	1.0000e+00	-0.3128	-231.963666	0.001126	11.260492	3.815158	0.040331

Center data before PMax,+/-Pr and +/-Vc Calc.

PMax (uC/cm2):	3.05e+02
Pr (uC/cm2):	2.10e+02
-Pr (uC/cm2):	-2.32e+02
PLoss (uC/cm2):	-4.26e+02
-Vc:	-1.59e+01
C (Max-Eff) (nF):	1.55e+00
K (Eff):	5.24e+03
Vert. (+/-Pr) Shift (uC/cm2):	-1.11e+01
Offset (uC/cm2):	-1.94e+02

A (Loop Area - uC/cm2·Volts):	-1.19e+02



Hysteresis Version: 5.48.1 - Radiant Technologies, Inc., 1999 - 9/12/24

