»»»»»»»»»»»»»»»»»»»»»»»»»»»»»»»»»»»» Hysteresis ««««««««««««««««««««««««««««««««««««
»»»  Executed Version:	5.48.1
»»»  Vision Version:	5.48.4 (R)
»»»  Vision Compiled:	9/18/24
»»»  Driver Version:	5.47.0
»»»  Windows Version:	Windows 8 or 8.1
»»»  Processor Information:	x86 (AMD or Intel) - 32 Processors
»»»  Tester Name:	PMF21124-494 (100V)
»»»  Tester S/N:	PMF21124-494
»»»  Internal Amp Type:	100V RevK 270k
»»»  Internal Amp S/N:	iAB2-596/K     
»»»  Execution Count:	1
»»»»»»»»»»»»»»»»»»»»»»»»»»»»»»»»»»»»»»»»»»««««««««««««««««««««««««««««««««««««««««««

Stored:	6/10/2025 - 14:4:8
Configured:	06/10/25 02:01:08 PM
Executed:	06/10/25 02:03:28 PM

»»»»»»»»»»»»»»»»»»»»»»»»»»»»»»»»»»» Sample Info ««««««««««««««««««««««««««««««««««««
Sample Name:	
Lot Name:	
Wafer Name:	
Die Row/Column:	0/0
Capacitor Number:	0
Sample Area (cm2):	1.00e-04
Sample Thickness (microns):	3.00e-01

Amplifier:	Internal

»»»»»»»»»»»»»»»»»»»»»»»»»»»»»»»»»»» Tester Info «««««««««««««««««««««««««««««««««««
Tester Name:	PMF21124-494 (100V)
Tester Serial Number:	PMF21124-494
Return Signal Amp. Level:	0.019 [Index: 4]

»»»»»»»»»»»»»»»»»»»»»»»»»»»»»»»» Hysteresis Info ««««««««««««««««««««««««««««««««««
Task Name:	Hyst-1027
Volts:	20.00
Field:	666.67 (kV/cm)
DCBias:	0.00
DCField:	0.00 (kV/cm)
Hysteresis Period (ms):	2.00e+02
Preset:	Enabled
Preset Delay (ms):	1.00e+03
Profile:	Standard Bipolar

»»»»»»»»»»»»»»»»»»»»»»»»»»»»»»»»»»»»»» Data «««««««««««««««««««««««««««««««««««««««
Points:	2009

Valid Data

Point	Time (ms)	Drive Voltage	Measured Polarization (uC/cm2)	Capacitance (uF)	Normalized Capacitance (uF/cm2)	Dielectric Constant	Instantaneous Current (mA)
   1	0.0000e+00	-0.0337	720.069424	0.000000	0.000000	0.000000	0.000000
   2	9.9500e-02	-0.0064	720.069424	0.000000	0.000000	0.000000	0.000000
   3	1.9900e-01	0.0401	720.271079	0.000506	5.062866	1.715345	0.000203
   4	2.9850e-01	0.0658	720.392072	0.000304	3.037720	1.029207	0.000122
   5	3.9800e-01	0.1203	721.198692	0.002025	20.251464	6.861382	0.000811
   6	4.9750e-01	0.1588	720.997037	-0.000506	-5.062866	-1.715345	-0.000203
   7	5.9700e-01	0.1925	722.005312	0.002531	25.314331	8.576727	0.001013
   8	6.9650e-01	0.2471	721.924650	-0.000203	-2.025146	-0.686138	-0.000081
   9	7.9600e-01	0.2775	722.408622	0.001215	12.150879	4.116829	0.000486
  10	8.9550e-01	0.3208	722.569946	0.000405	4.050293	1.372276	0.000162
  11	9.9500e-01	0.3545	722.932924	0.000911	9.113159	3.087622	0.000365
  12	1.0945e+00	0.4107	723.376565	0.001114	11.138305	3.773760	0.000446
  13	1.1940e+00	0.4283	723.779875	0.001013	10.125732	3.430691	0.000405
  14	1.2935e+00	0.4813	724.102523	0.000810	8.100586	2.744553	0.000324
  15	1.3930e+00	0.5198	724.183185	0.000203	2.025146	0.686138	0.000081
  16	1.4925e+00	0.5583	724.425171	0.000608	6.075439	2.058415	0.000243
  17	1.5920e+00	0.5952	725.191460	0.001924	19.238891	6.518313	0.000770
  18	1.6915e+00	0.6449	725.554439	0.000911	9.113159	3.087622	0.000365
  19	1.7910e+00	0.6706	725.675432	0.000304	3.037720	1.029207	0.000122
  20	1.8905e+00	0.7251	725.836755	0.000405	4.050293	1.372276	0.000162
  21	1.9900e+00	0.7508	726.401389	0.001418	14.176025	4.802967	0.000567
  22	2.0895e+00	0.7989	726.764368	0.000911	9.113159	3.087622	0.000365
  23	2.1890e+00	0.8390	726.845030	0.000203	2.025146	0.686138	0.000081
  24	2.2885e+00	0.8759	727.167678	0.000810	8.100586	2.744553	0.000324
  25	2.3880e+00	0.9112	727.530657	0.000911	9.113159	3.087622	0.000365
  26	2.4875e+00	0.9577	728.014629	0.001215	12.150879	4.116829	0.000486
  27	2.5870e+00	0.9994	728.014629	0.000000	0.000000	0.000000	0.000000
  28	2.6865e+00	1.0379	728.458270	0.001114	11.138305	3.773760	0.000446
  29	2.7860e+00	1.0829	728.821248	0.000911	9.113159	3.087622	0.000365
  30	2.8855e+00	1.1149	729.305220	0.001215	12.150879	4.116829	0.000486
  31	2.9850e+00	1.1534	729.426213	0.000304	3.037720	1.029207	0.000122
  32	3.0845e+00	1.1984	729.506875	0.000203	2.025146	0.686138	0.000081
  33	3.1840e+00	1.2385	730.111840	0.001519	15.188598	5.146036	0.000608
  34	3.2835e+00	1.2657	730.474819	0.000911	9.113159	3.087622	0.000365
  35	3.3830e+00	1.3139	730.958791	0.001215	12.150879	4.116829	0.000486
  36	3.4825e+00	1.3572	731.644417	0.001721	17.213745	5.832175	0.000689
  37	3.5820e+00	1.3925	731.563755	-0.000203	-2.025146	-0.686138	-0.000081
  38	3.6815e+00	1.4342	731.805741	0.000608	6.075439	2.058415	0.000243
  39	3.7810e+00	1.4695	732.410706	0.001519	15.188598	5.146036	0.000608
  40	3.8805e+00	1.5080	732.814016	0.001013	10.125732	3.430691	0.000405
  41	3.9800e+00	1.5609	732.975340	0.000405	4.050293	1.372276	0.000162
  42	4.0795e+00	1.5898	733.217326	0.000608	6.075439	2.058415	0.000243
  43	4.1790e+00	1.6411	733.822291	0.001519	15.188598	5.146036	0.000608
  44	4.2785e+00	1.6764	734.023946	0.000506	5.062866	1.715345	0.000203
  45	4.3780e+00	1.7262	734.346594	0.000810	8.100586	2.744553	0.000324
  46	4.4775e+00	1.7550	734.870896	0.001316	13.163452	4.459898	0.000527
  47	4.5770e+00	1.8032	735.395199	0.001316	13.163452	4.459898	0.000527
  48	4.6765e+00	1.8401	735.556523	0.000405	4.050293	1.372276	0.000162
  49	4.7760e+00	1.8737	735.758178	0.000506	5.062866	1.715345	0.000203
  50	4.8755e+00	1.9026	736.080826	0.000810	8.100586	2.744553	0.000324
  51	4.9750e+00	1.9604	736.443805	0.000911	9.113159	3.087622	0.000365
  52	5.0745e+00	1.9860	736.887446	0.001114	11.138305	3.773760	0.000446
  53	5.1740e+00	2.0326	737.129432	0.000608	6.075439	2.058415	0.000243
  54	5.2735e+00	2.0759	737.734396	0.001519	15.188598	5.146036	0.000608
  55	5.3730e+00	2.1096	738.057044	0.000810	8.100586	2.744553	0.000324
  56	5.4725e+00	2.1497	737.895720	-0.000405	-4.050293	-1.372276	-0.000162
  57	5.5720e+00	2.1834	738.581347	0.001721	17.213745	5.832175	0.000689
  58	5.6715e+00	2.2475	739.145981	0.001418	14.176025	4.802967	0.000567
  59	5.7710e+00	2.2700	739.065319	-0.000203	-2.025146	-0.686138	-0.000081
  60	5.8705e+00	2.3053	739.468629	0.001013	10.125732	3.430691	0.000405
  61	5.9700e+00	2.3518	740.033263	0.001418	14.176025	4.802967	0.000567
  62	6.0695e+00	2.3951	740.597896	0.001418	14.176025	4.802967	0.000567
  63	6.1690e+00	2.4288	740.678558	0.000203	2.025146	0.686138	0.000081
  64	6.2685e+00	2.4834	741.001206	0.000810	8.100586	2.744553	0.000324
  65	6.3680e+00	2.5042	741.323854	0.000810	8.100586	2.744553	0.000324
  66	6.4675e+00	2.5571	741.444847	0.000304	3.037720	1.029207	0.000122
  67	6.5670e+00	2.5924	742.130474	0.001721	17.213745	5.832175	0.000689
  68	6.6665e+00	2.6197	742.493453	0.000911	9.113159	3.087622	0.000365
  69	6.7660e+00	2.6662	743.138748	0.001620	16.201172	5.489106	0.000649
  70	6.8655e+00	2.7047	743.017756	-0.000304	-3.037720	-1.029207	-0.000122
  71	6.9650e+00	2.7481	743.501727	0.001215	12.150879	4.116829	0.000486
  72	7.0645e+00	2.7882	743.864706	0.000911	9.113159	3.087622	0.000365
  73	7.1640e+00	2.8299	744.308347	0.001114	11.138305	3.773760	0.000446
  74	7.2635e+00	2.8684	744.630995	0.000810	8.100586	2.744553	0.000324
  75	7.3630e+00	2.9213	744.751988	0.000304	3.037720	1.029207	0.000122
  76	7.4625e+00	2.9438	745.477946	0.001823	18.226318	6.175244	0.000730
  77	7.5620e+00	2.9855	745.719932	0.000608	6.075439	2.058415	0.000243
  78	7.6615e+00	3.0368	746.042579	0.000810	8.100586	2.744553	0.000324
  79	7.7610e+00	3.0769	746.244234	0.000506	5.062866	1.715345	0.000203
  80	7.8605e+00	3.1042	747.010523	0.001924	19.238891	6.518313	0.000770
  81	7.9600e+00	3.1539	747.131516	0.000304	3.037720	1.029207	0.000122
  82	8.0595e+00	3.1844	747.131516	0.000000	0.000000	0.000000	0.000000
  83	8.1590e+00	3.2197	747.615488	0.001215	12.150879	4.116829	0.000486
  84	8.2585e+00	3.2742	748.099460	0.001215	12.150879	4.116829	0.000486
  85	8.3580e+00	3.3095	748.301115	0.000506	5.062866	1.715345	0.000203
  86	8.4575e+00	3.3496	748.583432	0.000709	7.088013	2.401484	0.000284
  87	8.5570e+00	3.3865	748.946410	0.000911	9.113159	3.087622	0.000365
  88	8.6565e+00	3.4298	749.511044	0.001418	14.176025	4.802967	0.000567
  89	8.7560e+00	3.4619	749.833692	0.000810	8.100586	2.744553	0.000324
  90	8.8555e+00	3.5020	750.317664	0.001215	12.150879	4.116829	0.000486
  91	8.9550e+00	3.5421	750.277333	-0.000101	-1.012573	-0.343069	-0.000041
  92	9.0545e+00	3.5903	750.801636	0.001316	13.163452	4.459898	0.000527
  93	9.1540e+00	3.6127	751.043622	0.000608	6.075439	2.058415	0.000243
  94	9.2535e+00	3.6737	751.446932	0.001013	10.125732	3.430691	0.000405
  95	9.3530e+00	3.7154	751.769579	0.000810	8.100586	2.744553	0.000324
  96	9.4525e+00	3.7491	752.011565	0.000608	6.075439	2.058415	0.000243
  97	9.5520e+00	3.7844	752.656861	0.001620	16.201172	5.489106	0.000649
  98	9.6515e+00	3.8197	752.656861	0.000000	0.000000	0.000000	0.000000
  99	9.7510e+00	3.8678	752.979509	0.000810	8.100586	2.744553	0.000324
 100	9.8505e+00	3.9079	753.302157	0.000810	8.100586	2.744553	0.000324
 101	9.9500e+00	3.9464	753.503812	0.000506	5.062866	1.715345	0.000203
 102	1.0050e+01	3.9785	753.987784	0.001215	12.150879	4.116829	0.000486
 103	1.0149e+01	4.0266	754.512087	0.001316	13.163452	4.459898	0.000527
 104	1.0248e+01	4.0683	754.673410	0.000405	4.050293	1.372276	0.000162
 105	1.0348e+01	4.1052	754.996058	0.000810	8.100586	2.744553	0.000324
 106	1.0447e+01	4.1550	755.439699	0.001114	11.138305	3.773760	0.000446
 107	1.0547e+01	4.1822	755.923671	0.001215	12.150879	4.116829	0.000486
 108	1.0646e+01	4.2336	756.084995	0.000405	4.050293	1.372276	0.000162
 109	1.0746e+01	4.2608	756.770622	0.001721	17.213745	5.832175	0.000689
 110	1.0845e+01	4.3058	756.649629	-0.000304	-3.037720	-1.029207	-0.000122
 111	1.0945e+01	4.3411	757.133601	0.001215	12.150879	4.116829	0.000486
 112	1.1044e+01	4.3844	757.617572	0.001215	12.150879	4.116829	0.000486
 113	1.1144e+01	4.4213	757.617572	0.000000	0.000000	0.000000	0.000000
 114	1.1243e+01	4.4614	757.819227	0.000506	5.062866	1.715345	0.000203
 115	1.1343e+01	4.5127	758.585516	0.001924	19.238891	6.518313	0.000770
 116	1.1443e+01	4.5480	758.545185	-0.000101	-1.012573	-0.343069	-0.000041
 117	1.1542e+01	4.5785	759.432467	0.002228	22.276611	7.547520	0.000892
 118	1.1642e+01	4.6250	759.150150	-0.000709	-7.088013	-2.401484	-0.000284
 119	1.1741e+01	4.6619	759.513129	0.000911	9.113159	3.087622	0.000365
 120	1.1841e+01	4.7036	760.198756	0.001721	17.213745	5.832175	0.000689
 121	1.1940e+01	4.7421	760.158425	-0.000101	-1.012573	-0.343069	-0.000041
 122	1.2040e+01	4.7790	760.642396	0.001215	12.150879	4.116829	0.000486
 123	1.2139e+01	4.8271	761.005375	0.000911	9.113159	3.087622	0.000365
 124	1.2239e+01	4.8656	761.247361	0.000608	6.075439	2.058415	0.000243
 125	1.2338e+01	4.8945	761.489347	0.000608	6.075439	2.058415	0.000243
 126	1.2438e+01	4.9394	762.134643	0.001620	16.201172	5.489106	0.000649
 127	1.2537e+01	4.9892	762.134643	0.000000	0.000000	0.000000	0.000000
 128	1.2636e+01	5.0261	762.457291	0.000810	8.100586	2.744553	0.000324
 129	1.2736e+01	5.0517	762.739608	0.000709	7.088013	2.401484	0.000284
 130	1.2835e+01	5.0966	763.263910	0.001316	13.163452	4.459898	0.000527
 131	1.2935e+01	5.1400	763.626889	0.000911	9.113159	3.087622	0.000365
 132	1.3034e+01	5.1785	763.707551	0.000203	2.025146	0.686138	0.000081
 133	1.3134e+01	5.2218	764.030199	0.000810	8.100586	2.744553	0.000324
 134	1.3233e+01	5.2555	764.635164	0.001519	15.188598	5.146036	0.000608
 135	1.3333e+01	5.3036	764.836819	0.000506	5.062866	1.715345	0.000203
 136	1.3432e+01	5.3405	765.280460	0.001114	11.138305	3.773760	0.000446
 137	1.3532e+01	5.3822	765.482115	0.000506	5.062866	1.715345	0.000203
 138	1.3632e+01	5.4303	766.006418	0.001316	13.163452	4.459898	0.000527
 139	1.3731e+01	5.4624	765.845094	-0.000405	-4.050293	-1.372276	-0.000162
 140	1.3831e+01	5.4993	766.651713	0.002025	20.251464	6.861382	0.000811
 141	1.3930e+01	5.5394	766.571051	-0.000203	-2.025146	-0.686138	-0.000081
 142	1.4030e+01	5.5747	766.772706	0.000506	5.062866	1.715345	0.000203
 143	1.4129e+01	5.6276	767.216347	0.001114	11.138305	3.773760	0.000446
 144	1.4229e+01	5.6597	767.901974	0.001721	17.213745	5.832175	0.000689
 145	1.4328e+01	5.6950	767.901974	0.000000	0.000000	0.000000	0.000000
 146	1.4428e+01	5.7351	768.143960	0.000608	6.075439	2.058415	0.000243
 147	1.4527e+01	5.7768	768.547270	0.001013	10.125732	3.430691	0.000405
 148	1.4627e+01	5.8169	769.111903	0.001418	14.176025	4.802967	0.000567
 149	1.4726e+01	5.8635	769.192565	0.000203	2.025146	0.686138	0.000081
 150	1.4825e+01	5.9020	769.071572	-0.000304	-3.037720	-1.029207	-0.000122
 151	1.4925e+01	5.9389	769.555544	0.001215	12.150879	4.116829	0.000486
 152	1.5024e+01	5.9758	769.999185	0.001114	11.138305	3.773760	0.000446
 153	1.5124e+01	6.0239	770.563819	0.001418	14.176025	4.802967	0.000567
 154	1.5223e+01	6.0592	770.604150	0.000101	1.012573	0.343069	0.000041
 155	1.5323e+01	6.1025	770.765474	0.000405	4.050293	1.372276	0.000162
 156	1.5422e+01	6.1362	771.168784	0.001013	10.125732	3.430691	0.000405
 157	1.5522e+01	6.1731	771.531763	0.000911	9.113159	3.087622	0.000365
 158	1.5621e+01	6.2116	772.056065	0.001316	13.163452	4.459898	0.000527
 159	1.5721e+01	6.2581	772.338382	0.000709	7.088013	2.401484	0.000284
 160	1.5820e+01	6.2886	772.378713	0.000101	1.012573	0.343069	0.000041
 161	1.5920e+01	6.3399	772.701361	0.000810	8.100586	2.744553	0.000324
 162	1.6020e+01	6.3816	772.983678	0.000709	7.088013	2.401484	0.000284
 163	1.6119e+01	6.4121	773.507981	0.001316	13.163452	4.459898	0.000527
 164	1.6218e+01	6.4570	773.588643	0.000203	2.025146	0.686138	0.000081
 165	1.6318e+01	6.4907	773.830629	0.000608	6.075439	2.058415	0.000243
 166	1.6418e+01	6.5340	774.395263	0.001418	14.176025	4.802967	0.000567
 167	1.6517e+01	6.5741	774.274270	-0.000304	-3.037720	-1.029207	-0.000122
 168	1.6616e+01	6.6126	775.121220	0.002126	21.264038	7.204451	0.000851
 169	1.6716e+01	6.6528	775.242213	0.000304	3.037720	1.029207	0.000122
 170	1.6816e+01	6.6913	775.645523	0.001013	10.125732	3.430691	0.000405
 171	1.6915e+01	6.7233	775.645523	0.000000	0.000000	0.000000	0.000000
 172	1.7015e+01	6.7795	775.927840	0.000709	7.088013	2.401484	0.000284
 173	1.7114e+01	6.8052	776.573136	0.001620	16.201172	5.489106	0.000649
 174	1.7213e+01	6.8324	776.734460	0.000405	4.050293	1.372276	0.000162
 175	1.7313e+01	6.8886	776.532805	-0.000506	-5.062866	-1.715345	-0.000203
 176	1.7413e+01	6.9383	776.976446	0.001114	11.138305	3.773760	0.000446
 177	1.7512e+01	6.9720	777.581411	0.001519	15.188598	5.146036	0.000608
 178	1.7611e+01	7.0025	777.621742	0.000101	1.012573	0.343069	0.000041
 179	1.7711e+01	7.0506	777.984720	0.000911	9.113159	3.087622	0.000365
 180	1.7811e+01	7.0939	778.509023	0.001316	13.163452	4.459898	0.000527
 181	1.7910e+01	7.1324	778.347699	-0.000405	-4.050293	-1.372276	-0.000162
 182	1.8009e+01	7.1725	778.589685	0.000608	6.075439	2.058415	0.000243
 183	1.8109e+01	7.2126	779.557629	0.002430	24.301757	8.233658	0.000973
 184	1.8209e+01	7.2479	779.517298	-0.000101	-1.012573	-0.343069	-0.000041
 185	1.8308e+01	7.2896	779.638291	0.000304	3.037720	1.029207	0.000122
 186	1.8407e+01	7.3233	780.202925	0.001418	14.176025	4.802967	0.000567
 187	1.8507e+01	7.3666	780.444911	0.000608	6.075439	2.058415	0.000243
 188	1.8607e+01	7.4116	780.444911	0.000000	0.000000	0.000000	0.000000
 189	1.8706e+01	7.4452	780.807889	0.000911	9.113159	3.087622	0.000365
 190	1.8805e+01	7.4854	781.130537	0.000810	8.100586	2.744553	0.000324
 191	1.8905e+01	7.5287	781.332192	0.000506	5.062866	1.715345	0.000203
 192	1.9005e+01	7.5672	781.493516	0.000405	4.050293	1.372276	0.000162
 193	1.9104e+01	7.6137	782.259805	0.001924	19.238891	6.518313	0.000770
 194	1.9203e+01	7.6490	782.421129	0.000405	4.050293	1.372276	0.000162
 195	1.9303e+01	7.6827	782.864770	0.001114	11.138305	3.773760	0.000446
 196	1.9402e+01	7.7276	782.663115	-0.000506	-5.062866	-1.715345	-0.000203
 197	1.9502e+01	7.7629	783.389073	0.001823	18.226318	6.175244	0.000730
 198	1.9602e+01	7.8110	783.550396	0.000405	4.050293	1.372276	0.000162
 199	1.9701e+01	7.8527	783.711720	0.000405	4.050293	1.372276	0.000162
 200	1.9800e+01	7.8976	783.953706	0.000608	6.075439	2.058415	0.000243
 201	1.9900e+01	7.9313	783.873044	-0.000203	-2.025146	-0.686138	-0.000081
 202	2.0000e+01	7.9698	784.639333	0.001924	19.238891	6.518313	0.000770
 203	2.0099e+01	8.0115	785.123305	0.001215	12.150879	4.116829	0.000486
 204	2.0198e+01	8.0468	785.123305	0.000000	0.000000	0.000000	0.000000
 205	2.0298e+01	8.0789	785.405622	0.000709	7.088013	2.401484	0.000284
 206	2.0398e+01	8.1319	785.728270	0.000810	8.100586	2.744553	0.000324
 207	2.0497e+01	8.1623	785.929925	0.000506	5.062866	1.715345	0.000203
 208	2.0596e+01	8.2008	786.212242	0.000709	7.088013	2.401484	0.000284
 209	2.0696e+01	8.2377	786.736544	0.001316	13.163452	4.459898	0.000527
 210	2.0796e+01	8.2907	786.776875	0.000101	1.012573	0.343069	0.000041
 211	2.0895e+01	8.3324	787.018861	0.000608	6.075439	2.058415	0.000243
 212	2.0994e+01	8.3693	787.583495	0.001418	14.176025	4.802967	0.000567
 213	2.1094e+01	8.4030	787.462502	-0.000304	-3.037720	-1.029207	-0.000122
 214	2.1194e+01	8.4415	787.785150	0.000810	8.100586	2.744553	0.000324
 215	2.1293e+01	8.4880	787.946474	0.000405	4.050293	1.372276	0.000162
 216	2.1392e+01	8.5297	788.551439	0.001519	15.188598	5.146036	0.000608
 217	2.1492e+01	8.5666	788.914418	0.000911	9.113159	3.087622	0.000365
 218	2.1591e+01	8.6003	788.833756	-0.000203	-2.025146	-0.686138	-0.000081
 219	2.1691e+01	8.6452	789.237065	0.001013	10.125732	3.430691	0.000405
 220	2.1791e+01	8.6885	789.479051	0.000608	6.075439	2.058415	0.000243
 221	2.1890e+01	8.7238	789.600044	0.000304	3.037720	1.029207	0.000122
 222	2.1989e+01	8.7687	790.043685	0.001114	11.138305	3.773760	0.000446
 223	2.2089e+01	8.8040	790.366333	0.000810	8.100586	2.744553	0.000324
 224	2.2189e+01	8.8522	790.971298	0.001519	15.188598	5.146036	0.000608
 225	2.2288e+01	8.8762	790.688981	-0.000709	-7.088013	-2.401484	-0.000284
 226	2.2387e+01	8.9227	790.890636	0.000506	5.062866	1.715345	0.000203
 227	2.2487e+01	8.9645	791.455270	0.001418	14.176025	4.802967	0.000567
 228	2.2587e+01	9.0110	791.616594	0.000405	4.050293	1.372276	0.000162
 229	2.2686e+01	9.0431	791.737587	0.000304	3.037720	1.029207	0.000122
 230	2.2785e+01	9.0864	792.019904	0.000709	7.088013	2.401484	0.000284
 231	2.2885e+01	9.1185	792.463544	0.001114	11.138305	3.773760	0.000446
 232	2.2985e+01	9.1682	792.463544	0.000000	0.000000	0.000000	0.000000
 233	2.3084e+01	9.1939	792.665199	0.000506	5.062866	1.715345	0.000203
 234	2.3183e+01	9.2436	793.310495	0.001620	16.201172	5.489106	0.000649
 235	2.3283e+01	9.2869	793.391157	0.000203	2.025146	0.686138	0.000081
 236	2.3383e+01	9.3270	793.471819	0.000203	2.025146	0.686138	0.000081
 237	2.3482e+01	9.3655	794.036453	0.001418	14.176025	4.802967	0.000567
 238	2.3581e+01	9.4040	794.076784	0.000101	1.012573	0.343069	0.000041
 239	2.3681e+01	9.4377	794.439763	0.000911	9.113159	3.087622	0.000365
 240	2.3780e+01	9.4778	794.399432	-0.000101	-1.012573	-0.343069	-0.000041
 241	2.3880e+01	9.5307	795.044727	0.001620	16.201172	5.489106	0.000649
 242	2.3980e+01	9.5564	795.448037	0.001013	10.125732	3.430691	0.000405
 243	2.4079e+01	9.6061	795.327044	-0.000304	-3.037720	-1.029207	-0.000122
 244	2.4178e+01	9.6366	795.770685	0.001114	11.138305	3.773760	0.000446
 245	2.4278e+01	9.6815	796.173995	0.001013	10.125732	3.430691	0.000405
 246	2.4378e+01	9.7281	796.133664	-0.000101	-1.012573	-0.343069	-0.000041
 247	2.4477e+01	9.7634	796.819291	0.001721	17.213745	5.832175	0.000689
 248	2.4576e+01	9.8003	796.899953	0.000203	2.025146	0.686138	0.000081
 249	2.4676e+01	9.8452	797.343594	0.001114	11.138305	3.773760	0.000446
 250	2.4776e+01	9.8805	797.625911	0.000709	7.088013	2.401484	0.000284
 251	2.4875e+01	9.9190	797.746904	0.000304	3.037720	1.029207	0.000122
 252	2.4974e+01	9.9607	797.867896	0.000304	3.037720	1.029207	0.000122
 253	2.5074e+01	10.0040	798.311537	0.001114	11.138305	3.773760	0.000446
 254	2.5174e+01	10.0409	798.513192	0.000506	5.062866	1.715345	0.000203
 255	2.5273e+01	10.0810	798.674516	0.000405	4.050293	1.372276	0.000162
 256	2.5372e+01	10.1259	798.956833	0.000709	7.088013	2.401484	0.000284
 257	2.5472e+01	10.1580	799.198819	0.000608	6.075439	2.058415	0.000243
 258	2.5572e+01	10.2061	799.400474	0.000506	5.062866	1.715345	0.000203
 259	2.5671e+01	10.2334	799.440805	0.000101	1.012573	0.343069	0.000041
 260	2.5770e+01	10.2879	799.924777	0.001215	12.150879	4.116829	0.000486
 261	2.5870e+01	10.3216	800.368418	0.001114	11.138305	3.773760	0.000446
 262	2.5970e+01	10.3714	800.650735	0.000709	7.088013	2.401484	0.000284
 263	2.6069e+01	10.3922	800.489411	-0.000405	-4.050293	-1.372276	-0.000162
 264	2.6169e+01	10.4452	801.054044	0.001418	14.176025	4.802967	0.000567
 265	2.6268e+01	10.4821	801.699340	0.001620	16.201172	5.489106	0.000649
 266	2.6367e+01	10.5174	801.215368	-0.001215	-12.150879	-4.116829	-0.000486
 267	2.6467e+01	10.5623	801.941326	0.001823	18.226318	6.175244	0.000730
 268	2.6567e+01	10.5879	801.860664	-0.000203	-2.025146	-0.686138	-0.000081
 269	2.6666e+01	10.6425	802.263974	0.001013	10.125732	3.430691	0.000405
 270	2.6765e+01	10.6826	802.304305	0.000101	1.012573	0.343069	0.000041
 271	2.6865e+01	10.7099	802.505960	0.000506	5.062866	1.715345	0.000203
 272	2.6965e+01	10.7580	802.989932	0.001215	12.150879	4.116829	0.000486
 273	2.7064e+01	10.7949	802.909270	-0.000203	-2.025146	-0.686138	-0.000081
 274	2.7163e+01	10.8398	803.473904	0.001418	14.176025	4.802967	0.000567
 275	2.7263e+01	10.8847	803.473904	0.000000	0.000000	0.000000	0.000000
 276	2.7363e+01	10.9184	803.635227	0.000405	4.050293	1.372276	0.000162
 277	2.7462e+01	10.9633	804.078868	0.001114	11.138305	3.773760	0.000446
 278	2.7561e+01	10.9874	804.562840	0.001215	12.150879	4.116829	0.000486
 279	2.7661e+01	11.0403	804.966150	0.001013	10.125732	3.430691	0.000405
 280	2.7761e+01	11.0869	804.482178	-0.001215	-12.150879	-4.116829	-0.000486
 281	2.7860e+01	11.1173	805.369460	0.002228	22.276611	7.547520	0.000892
 282	2.7959e+01	11.1655	805.772770	0.001013	10.125732	3.430691	0.000405
 283	2.8059e+01	11.1943	805.732439	-0.000101	-1.012573	-0.343069	-0.000041
 284	2.8159e+01	11.2328	806.216411	0.001215	12.150879	4.116829	0.000486
 285	2.8258e+01	11.2762	806.095418	-0.000304	-3.037720	-1.029207	-0.000122
 286	2.8358e+01	11.3259	806.256742	0.000405	4.050293	1.372276	0.000162
 287	2.8457e+01	11.3596	806.619720	0.000911	9.113159	3.087622	0.000365
 288	2.8556e+01	11.4013	806.821375	0.000506	5.062866	1.715345	0.000203
 289	2.8656e+01	11.4334	806.740713	-0.000203	-2.025146	-0.686138	-0.000081
 290	2.8756e+01	11.4735	807.507002	0.001924	19.238891	6.518313	0.000770
 291	2.8855e+01	11.5184	807.547333	0.000101	1.012573	0.343069	0.000041
 292	2.8954e+01	11.5569	807.910312	0.000911	9.113159	3.087622	0.000365
 293	2.9054e+01	11.5938	807.910312	0.000000	0.000000	0.000000	0.000000
 294	2.9154e+01	11.6371	808.353953	0.001114	11.138305	3.773760	0.000446
 295	2.9253e+01	11.6788	808.232960	-0.000304	-3.037720	-1.029207	-0.000122
 296	2.9352e+01	11.7205	808.878256	0.001620	16.201172	5.489106	0.000649
 297	2.9452e+01	11.7574	808.958918	0.000203	2.025146	0.686138	0.000081
 298	2.9552e+01	11.7959	809.321897	0.000911	9.113159	3.087622	0.000365
 299	2.9651e+01	11.8264	809.402558	0.000203	2.025146	0.686138	0.000081
 300	2.9750e+01	11.8745	809.483220	0.000203	2.025146	0.686138	0.000081
 301	2.9850e+01	11.9194	810.007523	0.001316	13.163452	4.459898	0.000527
 302	2.9950e+01	11.9515	809.805868	-0.000506	-5.062866	-1.715345	-0.000203
 303	3.0049e+01	11.9916	810.451164	0.001620	16.201172	5.489106	0.000649
 304	3.0148e+01	12.0382	810.612488	0.000405	4.050293	1.372276	0.000162
 305	3.0248e+01	12.0783	810.894805	0.000709	7.088013	2.401484	0.000284
 306	3.0348e+01	12.1184	811.298115	0.001013	10.125732	3.430691	0.000405
 307	3.0447e+01	12.1585	811.540101	0.000608	6.075439	2.058415	0.000243
 308	3.0547e+01	12.1954	811.620763	0.000203	2.025146	0.686138	0.000081
 309	3.0646e+01	12.2387	811.822418	0.000506	5.062866	1.715345	0.000203
 310	3.0745e+01	12.2708	812.024073	0.000506	5.062866	1.715345	0.000203
 311	3.0845e+01	12.3141	812.266059	0.000608	6.075439	2.058415	0.000243
 312	3.0945e+01	12.3542	812.508044	0.000608	6.075439	2.058415	0.000243
 313	3.1044e+01	12.3991	812.548375	0.000101	1.012573	0.343069	0.000041
 314	3.1143e+01	12.4376	813.072678	0.001316	13.163452	4.459898	0.000527
 315	3.1243e+01	12.4681	813.354995	0.000709	7.088013	2.401484	0.000284
 316	3.1343e+01	12.5130	813.798636	0.001114	11.138305	3.773760	0.000446
 317	3.1442e+01	12.5483	813.879298	0.000203	2.025146	0.686138	0.000081
 318	3.1541e+01	12.5932	813.919629	0.000101	1.012573	0.343069	0.000041
 319	3.1641e+01	12.6269	814.443932	0.001316	13.163452	4.459898	0.000527
 320	3.1741e+01	12.6766	814.524594	0.000203	2.025146	0.686138	0.000081
 321	3.1840e+01	12.7103	814.847242	0.000810	8.100586	2.744553	0.000324
 322	3.1939e+01	12.7569	814.766580	-0.000203	-2.025146	-0.686138	-0.000081
 323	3.2039e+01	12.7922	815.169889	0.001013	10.125732	3.430691	0.000405
 324	3.2139e+01	12.8371	815.573199	0.001013	10.125732	3.430691	0.000405
 325	3.2238e+01	12.8676	815.855516	0.000709	7.088013	2.401484	0.000284
 326	3.2337e+01	12.9093	816.057171	0.000506	5.062866	1.715345	0.000203
 327	3.2437e+01	12.9446	816.420150	0.000911	9.113159	3.087622	0.000365
 328	3.2536e+01	12.9831	816.541143	0.000304	3.037720	1.029207	0.000122
 329	3.2636e+01	13.0264	816.621805	0.000203	2.025146	0.686138	0.000081
 330	3.2736e+01	13.0665	816.984784	0.000911	9.113159	3.087622	0.000365
 331	3.2835e+01	13.1130	817.549418	0.001418	14.176025	4.802967	0.000567
 332	3.2934e+01	13.1451	817.065446	-0.001215	-12.150879	-4.116829	-0.000486
 333	3.3034e+01	13.1932	817.549418	0.001215	12.150879	4.116829	0.000486
 334	3.3133e+01	13.2221	817.670411	0.000304	3.037720	1.029207	0.000122
 335	3.3233e+01	13.2590	818.033390	0.000911	9.113159	3.087622	0.000365
 336	3.3333e+01	13.3023	818.396368	0.000911	9.113159	3.087622	0.000365
 337	3.3432e+01	13.3488	818.477030	0.000203	2.025146	0.686138	0.000081
 338	3.3532e+01	13.3841	818.477030	0.000000	0.000000	0.000000	0.000000
 339	3.3631e+01	13.4226	818.880340	0.001013	10.125732	3.430691	0.000405
 340	3.3730e+01	13.4595	819.243319	0.000911	9.113159	3.087622	0.000365
 341	3.3830e+01	13.5125	819.001333	-0.000608	-6.075439	-2.058415	-0.000243
 342	3.3929e+01	13.5397	819.525636	0.001316	13.163452	4.459898	0.000527
 343	3.4029e+01	13.5766	820.090270	0.001418	14.176025	4.802967	0.000567
 344	3.4129e+01	13.6247	820.049939	-0.000101	-1.012573	-0.343069	-0.000041
 345	3.4228e+01	13.6600	820.332256	0.000709	7.088013	2.401484	0.000284
 346	3.4328e+01	13.7034	820.735566	0.001013	10.125732	3.430691	0.000405
 347	3.4427e+01	13.7499	820.574242	-0.000405	-4.050293	-1.372276	-0.000162
 348	3.4526e+01	13.7900	821.058213	0.001215	12.150879	4.116829	0.000486
 349	3.4626e+01	13.8253	821.017882	-0.000101	-1.012573	-0.343069	-0.000041
 350	3.4725e+01	13.8542	821.461523	0.001114	11.138305	3.773760	0.000446
 351	3.4825e+01	13.8975	821.582516	0.000304	3.037720	1.029207	0.000122
 352	3.4925e+01	13.9504	821.864833	0.000709	7.088013	2.401484	0.000284
 353	3.5024e+01	13.9921	822.389136	0.001316	13.163452	4.459898	0.000527
 354	3.5123e+01	14.0242	822.147150	-0.000608	-6.075439	-2.058415	-0.000243
 355	3.5223e+01	14.0611	822.268143	0.000304	3.037720	1.029207	0.000122
 356	3.5322e+01	14.1092	822.994101	0.001823	18.226318	6.175244	0.000730
 357	3.5422e+01	14.1397	822.953770	-0.000101	-1.012573	-0.343069	-0.000041
 358	3.5522e+01	14.1846	823.115094	0.000405	4.050293	1.372276	0.000162
 359	3.5621e+01	14.2231	823.599066	0.001215	12.150879	4.116829	0.000486
 360	3.5721e+01	14.2616	823.881382	0.000709	7.088013	2.401484	0.000284
 361	3.5820e+01	14.3001	823.800721	-0.000203	-2.025146	-0.686138	-0.000081
 362	3.5919e+01	14.3450	824.446016	0.001620	16.201172	5.489106	0.000649
 363	3.6019e+01	14.3964	824.325023	-0.000304	-3.037720	-1.029207	-0.000122
 364	3.6118e+01	14.4285	824.567009	0.000608	6.075439	2.058415	0.000243
 365	3.6218e+01	14.4670	824.768664	0.000506	5.062866	1.715345	0.000203
 366	3.6318e+01	14.5087	825.050981	0.000709	7.088013	2.401484	0.000284
 367	3.6417e+01	14.5456	825.171974	0.000304	3.037720	1.029207	0.000122
 368	3.6517e+01	14.5809	825.736608	0.001418	14.176025	4.802967	0.000567
 369	3.6616e+01	14.6146	825.776939	0.000101	1.012573	0.343069	0.000041
 370	3.6715e+01	14.6643	825.857601	0.000203	2.025146	0.686138	0.000081
 371	3.6815e+01	14.7012	826.301242	0.001114	11.138305	3.773760	0.000446
 372	3.6914e+01	14.7445	826.664221	0.000911	9.113159	3.087622	0.000365
 373	3.7014e+01	14.7814	826.543228	-0.000304	-3.037720	-1.029207	-0.000122
 374	3.7114e+01	14.8359	826.704551	0.000405	4.050293	1.372276	0.000162
 375	3.7213e+01	14.8552	827.107861	0.001013	10.125732	3.430691	0.000405
 376	3.7313e+01	14.8985	827.269185	0.000405	4.050293	1.372276	0.000162
 377	3.7412e+01	14.9482	827.632164	0.000911	9.113159	3.087622	0.000365
 378	3.7511e+01	14.9867	827.712826	0.000203	2.025146	0.686138	0.000081
 379	3.7611e+01	15.0252	827.954812	0.000608	6.075439	2.058415	0.000243
 380	3.7711e+01	15.0621	828.358122	0.001013	10.125732	3.430691	0.000405
 381	3.7810e+01	15.1039	828.519446	0.000405	4.050293	1.372276	0.000162
 382	3.7910e+01	15.1536	828.398453	-0.000304	-3.037720	-1.029207	-0.000122
 383	3.8009e+01	15.1857	828.559777	0.000405	4.050293	1.372276	0.000162
 384	3.8108e+01	15.2178	828.882425	0.000810	8.100586	2.744553	0.000324
 385	3.8208e+01	15.2514	829.084080	0.000506	5.062866	1.715345	0.000203
 386	3.8307e+01	15.2964	829.326066	0.000608	6.075439	2.058415	0.000243
 387	3.8407e+01	15.3413	829.850368	0.001316	13.163452	4.459898	0.000527
 388	3.8507e+01	15.3846	829.769706	-0.000203	-2.025146	-0.686138	-0.000081
 389	3.8606e+01	15.4103	829.850368	0.000203	2.025146	0.686138	0.000081
 390	3.8706e+01	15.4600	830.535995	0.001721	17.213745	5.832175	0.000689
 391	3.8805e+01	15.5065	830.656988	0.000304	3.037720	1.029207	0.000122
 392	3.8904e+01	15.5450	830.858643	0.000506	5.062866	1.715345	0.000203
 393	3.9004e+01	15.5771	830.777981	-0.000203	-2.025146	-0.686138	-0.000081
 394	3.9103e+01	15.6204	831.503939	0.001823	18.226318	6.175244	0.000730
 395	3.9203e+01	15.6637	831.302284	-0.000506	-5.062866	-1.715345	-0.000203
 396	3.9303e+01	15.6958	831.866918	0.001418	14.176025	4.802967	0.000567
 397	3.9402e+01	15.7407	831.624932	-0.000608	-6.075439	-2.058415	-0.000243
 398	3.9502e+01	15.7808	832.068573	0.001114	11.138305	3.773760	0.000446
 399	3.9601e+01	15.8290	832.270228	0.000506	5.062866	1.715345	0.000203
 400	3.9700e+01	15.8578	832.512213	0.000608	6.075439	2.058415	0.000243
 401	3.9800e+01	15.8963	832.754199	0.000608	6.075439	2.058415	0.000243
 402	3.9900e+01	15.9348	832.955854	0.000506	5.062866	1.715345	0.000203
 403	3.9999e+01	15.9798	833.157509	0.000506	5.062866	1.715345	0.000203
 404	4.0099e+01	16.0102	833.359164	0.000506	5.062866	1.715345	0.000203
 405	4.0198e+01	16.0471	833.722143	0.000911	9.113159	3.087622	0.000365
 406	4.0297e+01	16.0985	833.601150	-0.000304	-3.037720	-1.029207	-0.000122
 407	4.0397e+01	16.1370	834.125453	0.001316	13.163452	4.459898	0.000527
 408	4.0496e+01	16.1771	834.407770	0.000709	7.088013	2.401484	0.000284
 409	4.0596e+01	16.2124	834.367439	-0.000101	-1.012573	-0.343069	-0.000041
 410	4.0696e+01	16.2557	834.972404	0.001519	15.188598	5.146036	0.000608
 411	4.0795e+01	16.2974	834.851411	-0.000304	-3.037720	-1.029207	-0.000122
 412	4.0895e+01	16.3375	835.174059	0.000810	8.100586	2.744553	0.000324
 413	4.0994e+01	16.3760	835.295052	0.000304	3.037720	1.029207	0.000122
 414	4.1093e+01	16.4161	835.779023	0.001215	12.150879	4.116829	0.000486
 415	4.1193e+01	16.4594	835.456375	-0.000810	-8.100586	-2.744553	-0.000324
 416	4.1292e+01	16.4867	835.698361	0.000608	6.075439	2.058415	0.000243
 417	4.1392e+01	16.5316	836.424319	0.001823	18.226318	6.175244	0.000730
 418	4.1492e+01	16.5781	836.424319	0.000000	0.000000	0.000000	0.000000
 419	4.1591e+01	16.6118	836.787298	0.000911	9.113159	3.087622	0.000365
 420	4.1691e+01	16.6535	836.908291	0.000304	3.037720	1.029207	0.000122
 421	4.1790e+01	16.6969	837.190608	0.000709	7.088013	2.401484	0.000284
 422	4.1889e+01	16.7354	837.392263	0.000506	5.062866	1.715345	0.000203
 423	4.1989e+01	16.7706	837.674580	0.000709	7.088013	2.401484	0.000284
 424	4.2089e+01	16.8252	837.956897	0.000709	7.088013	2.401484	0.000284
 425	4.2188e+01	16.8557	837.714911	-0.000608	-6.075439	-2.058415	-0.000243
 426	4.2288e+01	16.9022	838.319875	0.001519	15.188598	5.146036	0.000608
 427	4.2387e+01	16.9391	838.481199	0.000405	4.050293	1.372276	0.000162
 428	4.2486e+01	16.9776	838.844178	0.000911	9.113159	3.087622	0.000365
 429	4.2586e+01	17.0129	839.207157	0.000911	9.113159	3.087622	0.000365
 430	4.2685e+01	17.0530	839.247488	0.000101	1.012573	0.343069	0.000041
 431	4.2785e+01	17.0979	839.731460	0.001215	12.150879	4.116829	0.000486
 432	4.2885e+01	17.1332	839.570136	-0.000405	-4.050293	-1.372276	-0.000162
 433	4.2984e+01	17.1589	839.892784	0.000810	8.100586	2.744553	0.000324
 434	4.3084e+01	17.2118	840.134770	0.000608	6.075439	2.058415	0.000243
 435	4.3183e+01	17.2519	840.417087	0.000709	7.088013	2.401484	0.000284
 436	4.3282e+01	17.3000	840.497749	0.000203	2.025146	0.686138	0.000081
 437	4.3382e+01	17.3353	840.618742	0.000304	3.037720	1.029207	0.000122
 438	4.3481e+01	17.3770	840.659073	0.000101	1.012573	0.343069	0.000041
 439	4.3581e+01	17.4156	841.344699	0.001721	17.213745	5.832175	0.000689
 440	4.3681e+01	17.4557	841.425361	0.000203	2.025146	0.686138	0.000081
 441	4.3780e+01	17.5022	841.385030	-0.000101	-1.012573	-0.343069	-0.000041
 442	4.3880e+01	17.5262	841.828671	0.001114	11.138305	3.773760	0.000446
 443	4.3979e+01	17.5744	842.070657	0.000608	6.075439	2.058415	0.000243
 444	4.4078e+01	17.6209	841.909333	-0.000405	-4.050293	-1.372276	-0.000162
 445	4.4178e+01	17.6626	842.756284	0.002126	21.264038	7.204451	0.000851
 446	4.4278e+01	17.6931	842.877277	0.000304	3.037720	1.029207	0.000122
 447	4.4377e+01	17.7348	843.038601	0.000405	4.050293	1.372276	0.000162
 448	4.4477e+01	17.7717	843.401580	0.000911	9.113159	3.087622	0.000365
 449	4.4576e+01	17.8070	843.562904	0.000405	4.050293	1.372276	0.000162
 450	4.4675e+01	17.8487	843.603235	0.000101	1.012573	0.343069	0.000041
 451	4.4775e+01	17.8888	844.087206	0.001215	12.150879	4.116829	0.000486
 452	4.4874e+01	17.9353	844.167868	0.000203	2.025146	0.686138	0.000081
 453	4.4974e+01	17.9658	844.490516	0.000810	8.100586	2.744553	0.000324
 454	4.5074e+01	18.0059	844.732502	0.000608	6.075439	2.058415	0.000243
 455	4.5173e+01	18.0476	844.893826	0.000405	4.050293	1.372276	0.000162
 456	4.5273e+01	18.0957	844.974488	0.000203	2.025146	0.686138	0.000081
 457	4.5372e+01	18.1262	845.337467	0.000911	9.113159	3.087622	0.000365
 458	4.5471e+01	18.1647	845.781108	0.001114	11.138305	3.773760	0.000446
 459	4.5571e+01	18.2080	846.063425	0.000709	7.088013	2.401484	0.000284
 460	4.5670e+01	18.2481	845.982763	-0.000203	-2.025146	-0.686138	-0.000081
 461	4.5770e+01	18.2899	846.870045	0.002228	22.276611	7.547520	0.000892
 462	4.5870e+01	18.3268	846.426404	-0.001114	-11.138305	-3.773760	-0.000446
 463	4.5969e+01	18.3685	846.749052	0.000810	8.100586	2.744553	0.000324
 464	4.6069e+01	18.4022	847.071699	0.000810	8.100586	2.744553	0.000324
 465	4.6168e+01	18.4471	847.071699	0.000000	0.000000	0.000000	0.000000
 466	4.6267e+01	18.4888	847.394347	0.000810	8.100586	2.744553	0.000324
 467	4.6367e+01	18.5321	847.797657	0.001013	10.125732	3.430691	0.000405
 468	4.6467e+01	18.5626	847.999312	0.000506	5.062866	1.715345	0.000203
 469	4.6566e+01	18.6107	848.200967	0.000506	5.062866	1.715345	0.000203
 470	4.6666e+01	18.6572	848.483284	0.000709	7.088013	2.401484	0.000284
 471	4.6765e+01	18.6829	848.684939	0.000506	5.062866	1.715345	0.000203
 472	4.6864e+01	18.7230	849.047918	0.000911	9.113159	3.087622	0.000365
 473	4.6964e+01	18.7679	849.088249	0.000101	1.012573	0.343069	0.000041
 474	4.7063e+01	18.8096	849.773876	0.001721	17.213745	5.832175	0.000689
 475	4.7163e+01	18.8433	849.612552	-0.000405	-4.050293	-1.372276	-0.000162
 476	4.7263e+01	18.8914	850.056192	0.001114	11.138305	3.773760	0.000446
 477	4.7362e+01	18.9267	849.894868	-0.000405	-4.050293	-1.372276	-0.000162
 478	4.7462e+01	18.9668	850.257847	0.000911	9.113159	3.087622	0.000365
 479	4.7561e+01	19.0070	850.620826	0.000911	9.113159	3.087622	0.000365
 480	4.7660e+01	19.0503	850.741819	0.000304	3.037720	1.029207	0.000122
 481	4.7760e+01	19.0872	851.145129	0.001013	10.125732	3.430691	0.000405
 482	4.7859e+01	19.1289	850.903143	-0.000608	-6.075439	-2.058415	-0.000243
 483	4.7959e+01	19.1674	851.427446	0.001316	13.163452	4.459898	0.000527
 484	4.8059e+01	19.2123	851.750094	0.000810	8.100586	2.744553	0.000324
 485	4.8158e+01	19.2428	852.274397	0.001316	13.163452	4.459898	0.000527
 486	4.8258e+01	19.2941	852.355059	0.000203	2.025146	0.686138	0.000081
 487	4.8357e+01	19.3374	852.234066	-0.000304	-3.037720	-1.029207	-0.000122
 488	4.8456e+01	19.3615	852.758368	0.001316	13.163452	4.459898	0.000527
 489	4.8556e+01	19.4016	853.282671	0.001316	13.163452	4.459898	0.000527
 490	4.8656e+01	19.4449	853.000354	-0.000709	-7.088013	-2.401484	-0.000284
 491	4.8755e+01	19.4818	853.363333	0.000911	9.113159	3.087622	0.000365
 492	4.8855e+01	19.5315	853.726312	0.000911	9.113159	3.087622	0.000365
 493	4.8954e+01	19.5572	853.927967	0.000506	5.062866	1.715345	0.000203
 494	4.9053e+01	19.6021	854.129622	0.000506	5.062866	1.715345	0.000203
 495	4.9153e+01	19.6470	854.653925	0.001316	13.163452	4.459898	0.000527
 496	4.9252e+01	19.6855	854.976573	0.000810	8.100586	2.744553	0.000324
 497	4.9352e+01	19.7208	854.815249	-0.000405	-4.050293	-1.372276	-0.000162
 498	4.9452e+01	19.7545	855.057235	0.000608	6.075439	2.058415	0.000243
 499	4.9551e+01	19.8075	855.016904	-0.000101	-1.012573	-0.343069	-0.000041
 500	4.9651e+01	19.8460	855.460545	0.001114	11.138305	3.773760	0.000446
 501	4.9750e+01	19.8829	855.662199	0.000506	5.062866	1.715345	0.000203
 502	4.9849e+01	19.9214	855.944516	0.000709	7.088013	2.401484	0.000284
 503	4.9949e+01	19.9583	856.267164	0.000810	8.100586	2.744553	0.000324
 504	5.0048e+01	19.9230	856.226833	0.000101	1.012573	0.343069	-0.000041
 505	5.0148e+01	19.8861	856.388157	-0.000405	-4.050293	-1.372276	0.000162
 506	5.0248e+01	19.8444	856.105840	0.000709	7.088013	2.401484	-0.000284
 507	5.0347e+01	19.8026	856.347826	-0.000608	-6.075439	-2.058415	0.000243
 508	5.0447e+01	19.7641	856.226833	0.000304	3.037720	1.029207	-0.000122
 509	5.0546e+01	19.7208	856.226833	-0.000000	-0.000000	-0.000000	0.000000
 510	5.0645e+01	19.6887	855.742861	0.001215	12.150879	4.116829	-0.000486
 511	5.0745e+01	19.6502	855.823523	-0.000203	-2.025146	-0.686138	0.000081
 512	5.0844e+01	19.6085	856.025178	-0.000506	-5.062866	-1.715345	0.000203
 513	5.0944e+01	19.5620	855.500876	0.001316	13.163452	4.459898	-0.000527
 514	5.1044e+01	19.5235	855.581537	-0.000203	-2.025146	-0.686138	0.000081
 515	5.1143e+01	19.4802	855.420214	0.000405	4.050293	1.372276	-0.000162
 516	5.1242e+01	19.4449	855.460545	-0.000101	-1.012573	-0.343069	0.000041
 517	5.1342e+01	19.4048	855.379883	0.000203	2.025146	0.686138	-0.000081
 518	5.1441e+01	19.3695	855.299221	0.000203	2.025146	0.686138	-0.000081
 519	5.1541e+01	19.3278	855.016904	0.000709	7.088013	2.401484	-0.000284
 520	5.1641e+01	19.2845	854.976573	0.000101	1.012573	0.343069	-0.000041
 521	5.1740e+01	19.2572	855.500876	-0.001316	-13.163452	-4.459898	0.000527
 522	5.1840e+01	19.2155	854.976573	0.001316	13.163452	4.459898	-0.000527
 523	5.1939e+01	19.1561	854.694256	0.000709	7.088013	2.401484	-0.000284
 524	5.2038e+01	19.1225	854.694256	-0.000000	-0.000000	-0.000000	0.000000
 525	5.2138e+01	19.0743	854.613594	0.000203	2.025146	0.686138	-0.000081
 526	5.2237e+01	19.0503	854.290946	0.000810	8.100586	2.744553	-0.000324
 527	5.2337e+01	19.0134	854.371608	-0.000203	-2.025146	-0.686138	0.000081
 528	5.2437e+01	18.9636	854.411939	-0.000101	-1.012573	-0.343069	0.000041
 529	5.2536e+01	18.9219	854.129622	0.000709	7.088013	2.401484	-0.000284
 530	5.2636e+01	18.8866	853.847305	0.000709	7.088013	2.401484	-0.000284
 531	5.2735e+01	18.8465	853.766643	0.000203	2.025146	0.686138	-0.000081
 532	5.2834e+01	18.8128	853.766643	-0.000000	-0.000000	-0.000000	0.000000
 533	5.2934e+01	18.7711	853.202009	0.001418	14.176025	4.802967	-0.000567
 534	5.3033e+01	18.7198	853.524657	-0.000810	-8.100586	-2.744553	0.000324
 535	5.3133e+01	18.6861	853.403664	0.000304	3.037720	1.029207	-0.000122
 536	5.3233e+01	18.6508	853.363333	0.000101	1.012573	0.343069	-0.000041
 537	5.3332e+01	18.6091	853.081016	0.000709	7.088013	2.401484	-0.000284
 538	5.3431e+01	18.5658	853.161678	-0.000203	-2.025146	-0.686138	0.000081
 539	5.3531e+01	18.5273	853.040685	0.000304	3.037720	1.029207	-0.000122
 540	5.3630e+01	18.4904	852.758368	0.000709	7.088013	2.401484	-0.000284
 541	5.3730e+01	18.4551	852.839030	-0.000203	-2.025146	-0.686138	0.000081
 542	5.3830e+01	18.4118	852.435721	0.001013	10.125732	3.430691	-0.000405
 543	5.3929e+01	18.3653	852.435721	-0.000000	-0.000000	-0.000000	0.000000
 544	5.4029e+01	18.3300	852.193735	0.000608	6.075439	2.058415	-0.000243
 545	5.4128e+01	18.2915	852.113073	0.000203	2.025146	0.686138	-0.000081
 546	5.4227e+01	18.2514	851.992080	0.000304	3.037720	1.029207	-0.000122
 547	5.4327e+01	18.2032	851.790425	0.000506	5.062866	1.715345	-0.000203
 548	5.4426e+01	18.1695	851.669432	0.000304	3.037720	1.029207	-0.000122
 549	5.4526e+01	18.1278	851.588770	0.000203	2.025146	0.686138	-0.000081
 550	5.4626e+01	18.0909	851.508108	0.000203	2.025146	0.686138	-0.000081
 551	5.4725e+01	18.0412	851.427446	0.000203	2.025146	0.686138	-0.000081
 552	5.4825e+01	18.0123	851.064467	0.000911	9.113159	3.087622	-0.000365
 553	5.4924e+01	17.9626	850.822481	0.000608	6.075439	2.058415	-0.000243
 554	5.5023e+01	17.9353	850.943474	-0.000304	-3.037720	-1.029207	0.000122
 555	5.5123e+01	17.8904	850.862812	0.000203	2.025146	0.686138	-0.000081
 556	5.5222e+01	17.8503	850.298178	0.001418	14.176025	4.802967	-0.000567
 557	5.5322e+01	17.8150	850.620826	-0.000810	-8.100586	-2.744553	0.000324
 558	5.5422e+01	17.7717	850.177185	0.001114	11.138305	3.773760	-0.000446
 559	5.5521e+01	17.7380	850.459502	-0.000709	-7.088013	-2.401484	0.000284
 560	5.5620e+01	17.6899	849.894868	0.001418	14.176025	4.802967	-0.000567
 561	5.5720e+01	17.6530	850.136854	-0.000608	-6.075439	-2.058415	0.000243
 562	5.5819e+01	17.6241	849.935199	0.000506	5.062866	1.715345	-0.000203
 563	5.5919e+01	17.5696	849.531890	0.001013	10.125732	3.430691	-0.000405
 564	5.6019e+01	17.5278	849.652883	-0.000304	-3.037720	-1.029207	0.000122
 565	5.6118e+01	17.4910	849.289904	0.000911	9.113159	3.087622	-0.000365
 566	5.6218e+01	17.4524	848.886594	0.001013	10.125732	3.430691	-0.000405
 567	5.6317e+01	17.4123	849.451228	-0.001418	-14.176025	-4.802967	0.000567
 568	5.6416e+01	17.3754	848.967256	0.001215	12.150879	4.116829	-0.000486
 569	5.6516e+01	17.3289	848.846263	0.000304	3.037720	1.029207	-0.000122
 570	5.6615e+01	17.2968	848.765601	0.000203	2.025146	0.686138	-0.000081
 571	5.6715e+01	17.2503	848.241298	0.001316	13.163452	4.459898	-0.000527
 572	5.6815e+01	17.2182	848.120305	0.000304	3.037720	1.029207	-0.000122
 573	5.6914e+01	17.1701	848.321960	-0.000506	-5.062866	-1.715345	0.000203
 574	5.7014e+01	17.1364	847.958981	0.000911	9.113159	3.087622	-0.000365
 575	5.7113e+01	17.0947	848.120305	-0.000405	-4.050293	-1.372276	0.000162
 576	5.7212e+01	17.0578	847.596002	0.001316	13.163452	4.459898	-0.000527
 577	5.7312e+01	17.0129	847.434678	0.000405	4.050293	1.372276	-0.000162
 578	5.7411e+01	16.9728	847.757326	-0.000810	-8.100586	-2.744553	0.000324
 579	5.7511e+01	16.9295	846.950706	0.002025	20.251464	6.861382	-0.000811
 580	5.7611e+01	16.8958	847.112030	-0.000405	-4.050293	-1.372276	0.000162
 581	5.7710e+01	16.8589	846.991037	0.000304	3.037720	1.029207	-0.000122
 582	5.7809e+01	16.8108	846.910375	0.000203	2.025146	0.686138	-0.000081
 583	5.7909e+01	16.7594	846.950706	-0.000101	-1.012573	-0.343069	0.000041
 584	5.8008e+01	16.7338	846.628059	0.000810	8.100586	2.744553	-0.000324
 585	5.8108e+01	16.6904	846.708721	-0.000203	-2.025146	-0.686138	0.000081
 586	5.8208e+01	16.6551	846.063425	0.001620	16.201172	5.489106	-0.000649
 587	5.8307e+01	16.6166	845.902101	0.000405	4.050293	1.372276	-0.000162
 588	5.8407e+01	16.5781	845.660115	0.000608	6.075439	2.058415	-0.000243
 589	5.8506e+01	16.5300	845.619784	0.000101	1.012573	0.343069	-0.000041
 590	5.8605e+01	16.4915	845.297136	0.000810	8.100586	2.744553	-0.000324
 591	5.8705e+01	16.4594	845.337467	-0.000101	-1.012573	-0.343069	0.000041
 592	5.8804e+01	16.4225	845.498791	-0.000405	-4.050293	-1.372276	0.000162
 593	5.8904e+01	16.3712	845.095481	0.001013	10.125732	3.430691	-0.000405
 594	5.9004e+01	16.3311	844.974488	0.000304	3.037720	1.029207	-0.000122
 595	5.9103e+01	16.2942	844.530847	0.001114	11.138305	3.773760	-0.000446
 596	5.9203e+01	16.2557	844.450185	0.000203	2.025146	0.686138	-0.000081
 597	5.9302e+01	16.2140	844.571178	-0.000304	-3.037720	-1.029207	0.000122
 598	5.9401e+01	16.1739	844.248530	0.000810	8.100586	2.744553	-0.000324
 599	5.9501e+01	16.1418	844.530847	-0.000709	-7.088013	-2.401484	0.000284
 600	5.9600e+01	16.0905	844.087206	0.001114	11.138305	3.773760	-0.000446
 601	5.9700e+01	16.0712	843.683897	0.001013	10.125732	3.430691	-0.000405
 602	5.9800e+01	16.0151	843.845221	-0.000405	-4.050293	-1.372276	0.000162
 603	5.9899e+01	15.9701	843.441911	0.001013	10.125732	3.430691	-0.000405
 604	5.9998e+01	15.9445	843.199925	0.000608	6.075439	2.058415	-0.000243
 605	6.0098e+01	15.9028	843.240256	-0.000101	-1.012573	-0.343069	0.000041
 606	6.0197e+01	15.8562	843.078932	0.000405	4.050293	1.372276	-0.000162
 607	6.0297e+01	15.8193	842.796615	0.000709	7.088013	2.401484	-0.000284
 608	6.0397e+01	15.7712	842.836946	-0.000101	-1.012573	-0.343069	0.000041
 609	6.0496e+01	15.7407	842.594960	0.000608	6.075439	2.058415	-0.000243
 610	6.0596e+01	15.6942	842.473967	0.000304	3.037720	1.029207	-0.000122
 611	6.0695e+01	15.6621	842.191650	0.000709	7.088013	2.401484	-0.000284
 612	6.0794e+01	15.6172	842.110988	0.000203	2.025146	0.686138	-0.000081
 613	6.0894e+01	15.5787	841.667347	0.001114	11.138305	3.773760	-0.000446
 614	6.0993e+01	15.5370	841.869002	-0.000506	-5.062866	-1.715345	0.000203
 615	6.1093e+01	15.5001	841.667347	0.000506	5.062866	1.715345	-0.000203
 616	6.1193e+01	15.4616	841.344699	0.000810	8.100586	2.744553	-0.000324
 617	6.1292e+01	15.4183	841.102714	0.000608	6.075439	2.058415	-0.000243
 618	6.1392e+01	15.3782	841.022052	0.000203	2.025146	0.686138	-0.000081
 619	6.1491e+01	15.3445	841.344699	-0.000810	-8.100586	-2.744553	0.000324
 620	6.1590e+01	15.3044	840.538080	0.002025	20.251464	6.861382	-0.000811
 621	6.1690e+01	15.2514	840.376756	0.000405	4.050293	1.372276	-0.000162
 622	6.1789e+01	15.2258	840.699404	-0.000810	-8.100586	-2.744553	0.000324
 623	6.1889e+01	15.1776	839.973446	0.001823	18.226318	6.175244	-0.000730
 624	6.1989e+01	15.1424	840.134770	-0.000405	-4.050293	-1.372276	0.000162
 625	6.2088e+01	15.1087	840.013777	0.000304	3.037720	1.029207	-0.000122
 626	6.2188e+01	15.0541	839.973446	0.000101	1.012573	0.343069	-0.000041
 627	6.2287e+01	15.0220	839.771791	0.000506	5.062866	1.715345	-0.000203
 628	6.2386e+01	14.9803	839.529805	0.000608	6.075439	2.058415	-0.000243
 629	6.2486e+01	14.9354	839.126495	0.001013	10.125732	3.430691	-0.000405
 630	6.2586e+01	14.9049	839.005502	0.000304	3.037720	1.029207	-0.000122
 631	6.2685e+01	14.8680	839.045833	-0.000101	-1.012573	-0.343069	0.000041
 632	6.2785e+01	14.8327	839.086164	-0.000101	-1.012573	-0.343069	0.000041
 633	6.2884e+01	14.7750	838.924840	0.000405	4.050293	1.372276	-0.000162
 634	6.2983e+01	14.7429	838.642523	0.000709	7.088013	2.401484	-0.000284
 635	6.3083e+01	14.6980	838.440868	0.000506	5.062866	1.715345	-0.000203
 636	6.3182e+01	14.6611	838.118221	0.000810	8.100586	2.744553	-0.000324
 637	6.3282e+01	14.6226	838.037559	0.000203	2.025146	0.686138	-0.000081
 638	6.3382e+01	14.5921	837.714911	0.000810	8.100586	2.744553	-0.000324
 639	6.3481e+01	14.5376	837.351932	0.000911	9.113159	3.087622	-0.000365
 640	6.3581e+01	14.5087	837.392263	-0.000101	-1.012573	-0.343069	0.000041
 641	6.3680e+01	14.4638	837.351932	0.000101	1.012573	0.343069	-0.000041
 642	6.3779e+01	14.4333	836.827629	0.001316	13.163452	4.459898	-0.000527
 643	6.3879e+01	14.3836	836.787298	0.000101	1.012573	0.343069	-0.000041
 644	6.3978e+01	14.3418	836.948622	-0.000405	-4.050293	-1.372276	0.000162
 645	6.4078e+01	14.3082	836.585643	0.000911	9.113159	3.087622	-0.000365
 646	6.4177e+01	14.2697	836.343657	0.000608	6.075439	2.058415	-0.000243
 647	6.4277e+01	14.2199	836.021009	0.000810	8.100586	2.744553	-0.000324
 648	6.4376e+01	14.1862	835.859685	0.000405	4.050293	1.372276	-0.000162
 649	6.4476e+01	14.1461	835.416044	0.001114	11.138305	3.773760	-0.000446
 650	6.4576e+01	14.1124	835.617699	-0.000506	-5.062866	-1.715345	0.000203
 651	6.4675e+01	14.0659	835.577368	0.000101	1.012573	0.343069	-0.000041
 652	6.4775e+01	14.0146	835.214390	0.000911	9.113159	3.087622	-0.000365
 653	6.4874e+01	13.9841	835.295052	-0.000203	-2.025146	-0.686138	0.000081
 654	6.4974e+01	13.9472	834.730418	0.001418	14.176025	4.802967	-0.000567
 655	6.5073e+01	13.9039	834.811080	-0.000203	-2.025146	-0.686138	0.000081
 656	6.5172e+01	13.8622	834.690087	0.000304	3.037720	1.029207	-0.000122
 657	6.5272e+01	13.8237	834.286777	0.001013	10.125732	3.430691	-0.000405
 658	6.5371e+01	13.7868	834.206115	0.000203	2.025146	0.686138	-0.000081
 659	6.5471e+01	13.7467	834.165784	0.000101	1.012573	0.343069	-0.000041
 660	6.5570e+01	13.7066	833.923798	0.000608	6.075439	2.058415	-0.000243
 661	6.5670e+01	13.6633	833.641481	0.000709	7.088013	2.401484	-0.000284
 662	6.5769e+01	13.6264	833.802805	-0.000405	-4.050293	-1.372276	0.000162
 663	6.5869e+01	13.5895	833.359164	0.001114	11.138305	3.773760	-0.000446
 664	6.5969e+01	13.5445	833.318833	0.000101	1.012573	0.343069	-0.000041
 665	6.6068e+01	13.5044	833.117178	0.000506	5.062866	1.715345	-0.000203
 666	6.6168e+01	13.4659	832.633206	0.001215	12.150879	4.116829	-0.000486
 667	6.6267e+01	13.4210	832.310559	0.000810	8.100586	2.744553	-0.000324
 668	6.6367e+01	13.3825	832.431552	-0.000304	-3.037720	-1.029207	0.000122
 669	6.6466e+01	13.3472	832.149235	0.000709	7.088013	2.401484	-0.000284
 670	6.6566e+01	13.3119	831.947580	0.000506	5.062866	1.715345	-0.000203
 671	6.6665e+01	13.2670	831.947580	-0.000000	-0.000000	-0.000000	0.000000
 672	6.6764e+01	13.2237	831.544270	0.001013	10.125732	3.430691	-0.000405
 673	6.6864e+01	13.1772	831.181291	0.000911	9.113159	3.087622	-0.000365
 674	6.6963e+01	13.1547	831.302284	-0.000304	-3.037720	-1.029207	0.000122
 675	6.7063e+01	13.1130	831.100629	0.000506	5.062866	1.715345	-0.000203
 676	6.7162e+01	13.0713	831.019967	0.000203	2.025146	0.686138	-0.000081
 677	6.7262e+01	13.0264	830.656988	0.000911	9.113159	3.087622	-0.000365
 678	6.7362e+01	12.9943	830.737650	-0.000203	-2.025146	-0.686138	0.000081
 679	6.7461e+01	12.9478	830.253678	0.001215	12.150879	4.116829	-0.000486
 680	6.7561e+01	12.9141	830.294009	-0.000101	-1.012573	-0.343069	0.000041
 681	6.7660e+01	12.8692	830.213347	0.000203	2.025146	0.686138	-0.000081
 682	6.7760e+01	12.8290	829.850368	0.000911	9.113159	3.087622	-0.000365
 683	6.7859e+01	12.7841	829.527721	0.000810	8.100586	2.744553	-0.000324
 684	6.7959e+01	12.7488	829.769706	-0.000608	-6.075439	-2.058415	0.000243
 685	6.8058e+01	12.7184	829.447059	0.000810	8.100586	2.744553	-0.000324
 686	6.8157e+01	12.6734	828.922756	0.001316	13.163452	4.459898	-0.000527
 687	6.8257e+01	12.6430	828.721101	0.000506	5.062866	1.715345	-0.000203
 688	6.8356e+01	12.5804	829.124411	-0.001013	-10.125732	-3.430691	0.000405
 689	6.8456e+01	12.5515	828.479115	0.001620	16.201172	5.489106	-0.000649
 690	6.8555e+01	12.5210	828.358122	0.000304	3.037720	1.029207	-0.000122
 691	6.8655e+01	12.4713	828.156467	0.000506	5.062866	1.715345	-0.000203
 692	6.8754e+01	12.4312	827.833819	0.000810	8.100586	2.744553	-0.000324
 693	6.8854e+01	12.3895	827.914481	-0.000203	-2.025146	-0.686138	0.000081
 694	6.8954e+01	12.3494	827.591833	0.000810	8.100586	2.744553	-0.000324
 695	6.9053e+01	12.3125	827.672495	-0.000203	-2.025146	-0.686138	0.000081
 696	6.9153e+01	12.2708	827.228854	0.001114	11.138305	3.773760	-0.000446
 697	6.9252e+01	12.2291	827.027199	0.000506	5.062866	1.715345	-0.000203
 698	6.9352e+01	12.1954	826.906206	0.000304	3.037720	1.029207	-0.000122
 699	6.9451e+01	12.1601	826.664221	0.000608	6.075439	2.058415	-0.000243
 700	6.9550e+01	12.1136	826.220580	0.001114	11.138305	3.773760	-0.000446
 701	6.9650e+01	12.0799	825.938263	0.000709	7.088013	2.401484	-0.000284
 702	6.9749e+01	12.0366	826.220580	-0.000709	-7.088013	-2.401484	0.000284
 703	6.9849e+01	11.9932	825.938263	0.000709	7.088013	2.401484	-0.000284
 704	6.9948e+01	11.9580	826.180249	-0.000608	-6.075439	-2.058415	0.000243
 705	7.0048e+01	11.9130	825.575284	0.001519	15.188598	5.146036	-0.000608
 706	7.0147e+01	11.8842	825.817270	-0.000608	-6.075439	-2.058415	0.000243
 707	7.0247e+01	11.8344	825.333298	0.001215	12.150879	4.116829	-0.000486
 708	7.0347e+01	11.7975	825.010650	0.000810	8.100586	2.744553	-0.000324
 709	7.0446e+01	11.7542	824.808995	0.000506	5.062866	1.715345	-0.000203
 710	7.0546e+01	11.7302	824.808995	-0.000000	-0.000000	-0.000000	0.000000
 711	7.0645e+01	11.6836	824.284692	0.001316	13.163452	4.459898	-0.000527
 712	7.0745e+01	11.6291	824.405685	-0.000304	-3.037720	-1.029207	0.000122
 713	7.0844e+01	11.5906	823.841051	0.001418	14.176025	4.802967	-0.000567
 714	7.0944e+01	11.5473	823.720059	0.000304	3.037720	1.029207	-0.000122
 715	7.1043e+01	11.5136	823.437742	0.000709	7.088013	2.401484	-0.000284
 716	7.1142e+01	11.4687	823.397411	0.000101	1.012573	0.343069	-0.000041
 717	7.1242e+01	11.4366	822.994101	0.001013	10.125732	3.430691	-0.000405
 718	7.1341e+01	11.4061	822.994101	-0.000000	-0.000000	-0.000000	0.000000
 719	7.1441e+01	11.3564	822.752115	0.000608	6.075439	2.058415	-0.000243
 720	7.1540e+01	11.3147	822.429467	0.000810	8.100586	2.744553	-0.000324
 721	7.1640e+01	11.2762	822.268143	0.000405	4.050293	1.372276	-0.000162
 722	7.1740e+01	11.2409	822.469798	-0.000506	-5.062866	-1.715345	0.000203
 723	7.1839e+01	11.1975	821.905164	0.001418	14.176025	4.802967	-0.000567
 724	7.1939e+01	11.1606	821.582516	0.000810	8.100586	2.744553	-0.000324
 725	7.2038e+01	11.1157	821.461523	0.000304	3.037720	1.029207	-0.000122
 726	7.2138e+01	11.0676	821.300199	0.000405	4.050293	1.372276	-0.000162
 727	7.2237e+01	11.0371	821.138875	0.000405	4.050293	1.372276	-0.000162
 728	7.2337e+01	11.0115	821.058213	0.000203	2.025146	0.686138	-0.000081
 729	7.2436e+01	10.9537	820.654904	0.001013	10.125732	3.430691	-0.000405
 730	7.2535e+01	10.9168	820.574242	0.000203	2.025146	0.686138	-0.000081
 731	7.2635e+01	10.8895	820.332256	0.000608	6.075439	2.058415	-0.000243
 732	7.2734e+01	10.8414	820.170932	0.000405	4.050293	1.372276	-0.000162
 733	7.2834e+01	10.7885	819.928946	0.000608	6.075439	2.058415	-0.000243
 734	7.2933e+01	10.7500	819.283650	0.001620	16.201172	5.489106	-0.000649
 735	7.3033e+01	10.7147	819.606298	-0.000810	-8.100586	-2.744553	0.000324
 736	7.3132e+01	10.6714	819.283650	0.000810	8.100586	2.744553	-0.000324
 737	7.3232e+01	10.6425	819.001333	0.000709	7.088013	2.401484	-0.000284
 738	7.3332e+01	10.6024	819.001333	-0.000000	-0.000000	-0.000000	0.000000
 739	7.3431e+01	10.5542	818.880340	0.000304	3.037720	1.029207	-0.000122
 740	7.3531e+01	10.5157	818.396368	0.001215	12.150879	4.116829	-0.000486
 741	7.3630e+01	10.4772	818.073720	0.000810	8.100586	2.744553	-0.000324
 742	7.3730e+01	10.4420	818.033390	0.000101	1.012573	0.343069	-0.000041
 743	7.3829e+01	10.4034	818.033390	-0.000000	-0.000000	-0.000000	0.000000
 744	7.3928e+01	10.3601	817.710742	0.000810	8.100586	2.744553	-0.000324
 745	7.4028e+01	10.3168	817.509087	0.000506	5.062866	1.715345	-0.000203
 746	7.4127e+01	10.2831	817.146108	0.000911	9.113159	3.087622	-0.000365
 747	7.4227e+01	10.2334	817.226770	-0.000203	-2.025146	-0.686138	0.000081
 748	7.4326e+01	10.2029	816.581474	0.001620	16.201172	5.489106	-0.000649
 749	7.4426e+01	10.1564	816.379819	0.000506	5.062866	1.715345	-0.000203
 750	7.4525e+01	10.1131	816.258826	0.000304	3.037720	1.029207	-0.000122
 751	7.4625e+01	10.0842	815.815185	0.001114	11.138305	3.773760	-0.000446
 752	7.4725e+01	10.0393	815.855516	-0.000101	-1.012573	-0.343069	0.000041
 753	7.4824e+01	10.0040	815.895847	-0.000101	-1.012573	-0.343069	0.000041
 754	7.4924e+01	9.9623	815.492537	0.001013	10.125732	3.430691	-0.000405
 755	7.5023e+01	9.9190	815.492537	-0.000000	-0.000000	-0.000000	0.000000
 756	7.5123e+01	9.8901	815.169889	0.000810	8.100586	2.744553	-0.000324
 757	7.5222e+01	9.8468	814.726249	0.001114	11.138305	3.773760	-0.000446
 758	7.5322e+01	9.8051	814.726249	-0.000000	-0.000000	-0.000000	0.000000
 759	7.5421e+01	9.7634	814.605256	0.000304	3.037720	1.029207	-0.000122
 760	7.5520e+01	9.7249	814.363270	0.000608	6.075439	2.058415	-0.000243
 761	7.5620e+01	9.6751	813.717974	0.001620	16.201172	5.489106	-0.000649
 762	7.5719e+01	9.6446	813.758305	-0.000101	-1.012573	-0.343069	0.000041
 763	7.5819e+01	9.6029	813.838967	-0.000203	-2.025146	-0.686138	0.000081
 764	7.5918e+01	9.5660	813.354995	0.001215	12.150879	4.116829	-0.000486
 765	7.6018e+01	9.5227	812.911354	0.001114	11.138305	3.773760	-0.000446
 766	7.6118e+01	9.4874	812.830692	0.000203	2.025146	0.686138	-0.000081
 767	7.6217e+01	9.4409	812.508044	0.000810	8.100586	2.744553	-0.000324
 768	7.6317e+01	9.4120	812.467713	0.000101	1.012573	0.343069	-0.000041
 769	7.6416e+01	9.3655	812.387051	0.000203	2.025146	0.686138	-0.000081
 770	7.6516e+01	9.3222	812.104735	0.000709	7.088013	2.401484	-0.000284
 771	7.6615e+01	9.2837	811.903080	0.000506	5.062866	1.715345	-0.000203
 772	7.6715e+01	9.2452	811.580432	0.000810	8.100586	2.744553	-0.000324
 773	7.6814e+01	9.2083	811.378777	0.000506	5.062866	1.715345	-0.000203
 774	7.6913e+01	9.1698	810.975467	0.001013	10.125732	3.430691	-0.000405
 775	7.7013e+01	9.1185	810.693150	0.000709	7.088013	2.401484	-0.000284
 776	7.7112e+01	9.0816	810.652819	0.000101	1.012573	0.343069	-0.000041
 777	7.7212e+01	9.0415	810.531826	0.000304	3.037720	1.029207	-0.000122
 778	7.7311e+01	9.0094	810.370502	0.000405	4.050293	1.372276	-0.000162
 779	7.7411e+01	8.9693	809.725206	0.001620	16.201172	5.489106	-0.000649
 780	7.7510e+01	8.9243	809.684875	0.000101	1.012573	0.343069	-0.000041
 781	7.7610e+01	8.8891	809.765537	-0.000203	-2.025146	-0.686138	0.000081
 782	7.7710e+01	8.8554	809.241235	0.001316	13.163452	4.459898	-0.000527
 783	7.7809e+01	8.8024	809.160573	0.000203	2.025146	0.686138	-0.000081
 784	7.7909e+01	8.7655	809.039580	0.000304	3.037720	1.029207	-0.000122
 785	7.8008e+01	8.7238	808.555608	0.001215	12.150879	4.116829	-0.000486
 786	7.8108e+01	8.6805	808.353953	0.000506	5.062866	1.715345	-0.000203
 787	7.8207e+01	8.6548	808.273291	0.000203	2.025146	0.686138	-0.000081
 788	7.8306e+01	8.6083	807.950643	0.000810	8.100586	2.744553	-0.000324
 789	7.8406e+01	8.5682	807.950643	-0.000000	-0.000000	-0.000000	0.000000
 790	7.8505e+01	8.5297	807.910312	0.000101	1.012573	0.343069	-0.000041
 791	7.8605e+01	8.4928	807.668326	0.000608	6.075439	2.058415	-0.000243
 792	7.8704e+01	8.4399	807.224685	0.001114	11.138305	3.773760	-0.000446
 793	7.8804e+01	8.4014	807.305347	-0.000203	-2.025146	-0.686138	0.000081
 794	7.8903e+01	8.3661	806.660051	0.001620	16.201172	5.489106	-0.000649
 795	7.9003e+01	8.3324	806.660051	-0.000000	-0.000000	-0.000000	0.000000
 796	7.9103e+01	8.2843	806.418066	0.000608	6.075439	2.058415	-0.000243
 797	7.9202e+01	8.2409	805.893763	0.001316	13.163452	4.459898	-0.000527
 798	7.9302e+01	8.2057	805.530784	0.000911	9.113159	3.087622	-0.000365
 799	7.9401e+01	8.1704	805.329129	0.000506	5.062866	1.715345	-0.000203
 800	7.9501e+01	8.1303	805.369460	-0.000101	-1.012573	-0.343069	0.000041
 801	7.9600e+01	8.0805	804.925819	0.001114	11.138305	3.773760	-0.000446
 802	7.9700e+01	8.0452	804.683833	0.000608	6.075439	2.058415	-0.000243
 803	7.9799e+01	7.9987	804.683833	-0.000000	-0.000000	-0.000000	0.000000
 804	7.9898e+01	7.9730	804.482178	0.000506	5.062866	1.715345	-0.000203
 805	7.9998e+01	7.9393	804.240192	0.000608	6.075439	2.058415	-0.000243
 806	8.0097e+01	7.8848	804.240192	-0.000000	-0.000000	-0.000000	0.000000
 807	8.0197e+01	7.8495	803.836882	0.001013	10.125732	3.430691	-0.000405
 808	8.0296e+01	7.8094	803.554566	0.000709	7.088013	2.401484	-0.000284
 809	8.0396e+01	7.7693	802.989932	0.001418	14.176025	4.802967	-0.000567
 810	8.0496e+01	7.7276	803.030263	-0.000101	-1.012573	-0.343069	0.000041
 811	8.0595e+01	7.6907	802.586622	0.001114	11.138305	3.773760	-0.000446
 812	8.0695e+01	7.6410	802.546291	0.000101	1.012573	0.343069	-0.000041
 813	8.0794e+01	7.6073	802.344636	0.000506	5.062866	1.715345	-0.000203
 814	8.0894e+01	7.5656	802.263974	0.000203	2.025146	0.686138	-0.000081
 815	8.0993e+01	7.5287	801.900995	0.000911	9.113159	3.087622	-0.000365
 816	8.1093e+01	7.4918	801.417023	0.001215	12.150879	4.116829	-0.000486
 817	8.1192e+01	7.4501	801.296030	0.000304	3.037720	1.029207	-0.000122
 818	8.1291e+01	7.4116	801.457354	-0.000405	-4.050293	-1.372276	0.000162
 819	8.1391e+01	7.3714	800.933051	0.001316	13.163452	4.459898	-0.000527
 820	8.1490e+01	7.3265	800.771727	0.000405	4.050293	1.372276	-0.000162
 821	8.1590e+01	7.2880	800.529742	0.000608	6.075439	2.058415	-0.000243
 822	8.1689e+01	7.2431	800.005439	0.001316	13.163452	4.459898	-0.000527
 823	8.1789e+01	7.2126	800.005439	-0.000000	-0.000000	-0.000000	0.000000
 824	8.1888e+01	7.1677	799.642460	0.000911	9.113159	3.087622	-0.000365
 825	8.1988e+01	7.1308	799.481136	0.000405	4.050293	1.372276	-0.000162
 826	8.2088e+01	7.0939	799.118157	0.000911	9.113159	3.087622	-0.000365
 827	8.2187e+01	7.0522	798.714847	0.001013	10.125732	3.430691	-0.000405
 828	8.2287e+01	7.0185	798.835840	-0.000304	-3.037720	-1.029207	0.000122
 829	8.2386e+01	6.9784	798.472861	0.000911	9.113159	3.087622	-0.000365
 830	8.2486e+01	6.9335	797.948558	0.001316	13.163452	4.459898	-0.000527
 831	8.2585e+01	6.8902	797.787235	0.000405	4.050293	1.372276	-0.000162
 832	8.2684e+01	6.8501	797.585580	0.000506	5.062866	1.715345	-0.000203
 833	8.2784e+01	6.8100	797.262932	0.000810	8.100586	2.744553	-0.000324
 834	8.2883e+01	6.7650	797.303263	-0.000101	-1.012573	-0.343069	0.000041
 835	8.2983e+01	6.7330	796.980615	0.000810	8.100586	2.744553	-0.000324
 836	8.3082e+01	6.6993	796.617636	0.000911	9.113159	3.087622	-0.000365
 837	8.3182e+01	6.6511	796.617636	-0.000000	-0.000000	-0.000000	0.000000
 838	8.3281e+01	6.6159	796.254657	0.000911	9.113159	3.087622	-0.000365
 839	8.3381e+01	6.5790	796.053002	0.000506	5.062866	1.715345	-0.000203
 840	8.3481e+01	6.5340	796.012671	0.000101	1.012573	0.343069	-0.000041
 841	8.3580e+01	6.5004	795.448037	0.001418	14.176025	4.802967	-0.000567
 842	8.3680e+01	6.4522	794.843073	0.001519	15.188598	5.146036	-0.000608
 843	8.3779e+01	6.4137	795.004396	-0.000405	-4.050293	-1.372276	0.000162
 844	8.3879e+01	6.3736	794.560756	0.001114	11.138305	3.773760	-0.000446
 845	8.3978e+01	6.3335	794.641418	-0.000203	-2.025146	-0.686138	0.000081
 846	8.4078e+01	6.3062	794.480094	0.000405	4.050293	1.372276	-0.000162
 847	8.4177e+01	6.2581	793.955791	0.001316	13.163452	4.459898	-0.000527
 848	8.4276e+01	6.2180	793.592812	0.000911	9.113159	3.087622	-0.000365
 849	8.4376e+01	6.1747	793.471819	0.000304	3.037720	1.029207	-0.000122
 850	8.4475e+01	6.1330	793.310495	0.000405	4.050293	1.372276	-0.000162
 851	8.4575e+01	6.0977	793.108840	0.000506	5.062866	1.715345	-0.000203
 852	8.4674e+01	6.0656	792.423213	0.001721	17.213745	5.832175	-0.000689
 853	8.4774e+01	6.0175	792.786192	-0.000911	-9.113159	-3.087622	0.000365
 854	8.4874e+01	5.9822	792.302220	0.001215	12.150879	4.116829	-0.000486
 855	8.4973e+01	5.9308	792.302220	-0.000000	-0.000000	-0.000000	0.000000
 856	8.5073e+01	5.9036	791.737587	0.001418	14.176025	4.802967	-0.000567
 857	8.5172e+01	5.8587	791.495601	0.000608	6.075439	2.058415	-0.000243
 858	8.5272e+01	5.8250	791.132622	0.000911	9.113159	3.087622	-0.000365
 859	8.5371e+01	5.7752	791.051960	0.000203	2.025146	0.686138	-0.000081
 860	8.5471e+01	5.7319	790.688981	0.000911	9.113159	3.087622	-0.000365
 861	8.5570e+01	5.6966	790.648650	0.000101	1.012573	0.343069	-0.000041
 862	8.5669e+01	5.6629	789.922692	0.001823	18.226318	6.175244	-0.000730
 863	8.5769e+01	5.6148	790.003354	-0.000203	-2.025146	-0.686138	0.000081
 864	8.5868e+01	5.5779	789.680706	0.000810	8.100586	2.744553	-0.000324
 865	8.5968e+01	5.5330	789.559713	0.000304	3.037720	1.029207	-0.000122
 866	8.6067e+01	5.4993	789.196734	0.000911	9.113159	3.087622	-0.000365
 867	8.6167e+01	5.4608	788.874087	0.000810	8.100586	2.744553	-0.000324
 868	8.6266e+01	5.4191	788.672432	0.000506	5.062866	1.715345	-0.000203
 869	8.6366e+01	5.3790	788.309453	0.000911	9.113159	3.087622	-0.000365
 870	8.6466e+01	5.3373	788.228791	0.000203	2.025146	0.686138	-0.000081
 871	8.6565e+01	5.3020	788.107798	0.000304	3.037720	1.029207	-0.000122
 872	8.6665e+01	5.2603	787.583495	0.001316	13.163452	4.459898	-0.000527
 873	8.6764e+01	5.2266	787.180185	0.001013	10.125732	3.430691	-0.000405
 874	8.6864e+01	5.1720	787.260847	-0.000203	-2.025146	-0.686138	0.000081
 875	8.6963e+01	5.1432	786.817206	0.001114	11.138305	3.773760	-0.000446
 876	8.7063e+01	5.1063	786.494558	0.000810	8.100586	2.744553	-0.000324
 877	8.7162e+01	5.0581	786.252573	0.000608	6.075439	2.058415	-0.000243
 878	8.7261e+01	5.0245	786.131580	0.000304	3.037720	1.029207	-0.000122
 879	8.7361e+01	4.9763	785.647608	0.001215	12.150879	4.116829	-0.000486
 880	8.7460e+01	4.9442	785.526615	0.000304	3.037720	1.029207	-0.000122
 881	8.7560e+01	4.8977	785.284629	0.000608	6.075439	2.058415	-0.000243
 882	8.7659e+01	4.8688	785.163636	0.000304	3.037720	1.029207	-0.000122
 883	8.7759e+01	4.8175	785.203967	-0.000101	-1.012573	-0.343069	0.000041
 884	8.7859e+01	4.7951	784.357016	0.002126	21.264038	7.204451	-0.000851
 885	8.7958e+01	4.7421	783.953706	0.001013	10.125732	3.430691	-0.000405
 886	8.8058e+01	4.7004	783.752051	0.000506	5.062866	1.715345	-0.000203
 887	8.8157e+01	4.6651	783.469734	0.000709	7.088013	2.401484	-0.000284
 888	8.8257e+01	4.6202	783.389073	0.000203	2.025146	0.686138	-0.000081
 889	8.8356e+01	4.5753	782.985763	0.001013	10.125732	3.430691	-0.000405
 890	8.8456e+01	4.5416	782.703446	0.000709	7.088013	2.401484	-0.000284
 891	8.8555e+01	4.5047	782.864770	-0.000405	-4.050293	-1.372276	0.000162
 892	8.8654e+01	4.4534	782.179143	0.001721	17.213745	5.832175	-0.000689
 893	8.8754e+01	4.4261	781.977488	0.000506	5.062866	1.715345	-0.000203
 894	8.8853e+01	4.3860	781.251530	0.001823	18.226318	6.175244	-0.000730
 895	8.8953e+01	4.3491	781.251530	-0.000000	-0.000000	-0.000000	0.000000
 896	8.9052e+01	4.3058	781.453185	-0.000506	-5.062866	-1.715345	0.000203
 897	8.9152e+01	4.2673	780.444911	0.002531	25.314331	8.576727	-0.001013
 898	8.9251e+01	4.2223	780.606234	-0.000405	-4.050293	-1.372276	0.000162
 899	8.9351e+01	4.1806	780.202925	0.001013	10.125732	3.430691	-0.000405
 900	8.9451e+01	4.1421	779.880277	0.000810	8.100586	2.744553	-0.000324
 901	8.9550e+01	4.0988	779.396305	0.001215	12.150879	4.116829	-0.000486
 902	8.9650e+01	4.0603	779.436636	-0.000101	-1.012573	-0.343069	0.000041
 903	8.9749e+01	4.0266	779.194650	0.000608	6.075439	2.058415	-0.000243
 904	8.9849e+01	3.9881	779.275312	-0.000203	-2.025146	-0.686138	0.000081
 905	8.9948e+01	3.9416	778.468692	0.002025	20.251464	6.861382	-0.000811
 906	9.0047e+01	3.8983	778.267037	0.000506	5.062866	1.715345	-0.000203
 907	9.0147e+01	3.8566	778.146044	0.000304	3.037720	1.029207	-0.000122
 908	9.0246e+01	3.8197	777.662072	0.001215	12.150879	4.116829	-0.000486
 909	9.0346e+01	3.7876	777.379756	0.000709	7.088013	2.401484	-0.000284
 910	9.0445e+01	3.7459	776.976446	0.001013	10.125732	3.430691	-0.000405
 911	9.0545e+01	3.7090	776.976446	-0.000000	-0.000000	-0.000000	0.000000
 912	9.0644e+01	3.6641	776.532805	0.001114	11.138305	3.773760	-0.000446
 913	9.0744e+01	3.6256	776.169826	0.000911	9.113159	3.087622	-0.000365
 914	9.0844e+01	3.5855	776.089164	0.000203	2.025146	0.686138	-0.000081
 915	9.0943e+01	3.5550	775.524530	0.001418	14.176025	4.802967	-0.000567
 916	9.1043e+01	3.5133	775.363206	0.000405	4.050293	1.372276	-0.000162
 917	9.1142e+01	3.4651	775.121220	0.000608	6.075439	2.058415	-0.000243
 918	9.1242e+01	3.4298	774.959896	0.000405	4.050293	1.372276	-0.000162
 919	9.1341e+01	3.3946	774.475925	0.001215	12.150879	4.116829	-0.000486
 920	9.1441e+01	3.3496	773.951622	0.001316	13.163452	4.459898	-0.000527
 921	9.1540e+01	3.3047	773.790298	0.000405	4.050293	1.372276	-0.000162
 922	9.1639e+01	3.2694	773.628974	0.000405	4.050293	1.372276	-0.000162
 923	9.1739e+01	3.2293	773.185333	0.001114	11.138305	3.773760	-0.000446
 924	9.1838e+01	3.1860	772.862685	0.000810	8.100586	2.744553	-0.000324
 925	9.1938e+01	3.1459	772.741692	0.000304	3.037720	1.029207	-0.000122
 926	9.2037e+01	3.1170	772.822354	-0.000203	-2.025146	-0.686138	0.000081
 927	9.2137e+01	3.0705	772.015734	0.002025	20.251464	6.861382	-0.000811
 928	9.2237e+01	3.0416	771.733418	0.000709	7.088013	2.401484	-0.000284
 929	9.2336e+01	2.9935	771.491432	0.000608	6.075439	2.058415	-0.000243
 930	9.2436e+01	2.9486	771.451101	0.000101	1.012573	0.343069	-0.000041
 931	9.2535e+01	2.9165	771.047791	0.001013	10.125732	3.430691	-0.000405
 932	9.2635e+01	2.8780	770.805805	0.000608	6.075439	2.058415	-0.000243
 933	9.2734e+01	2.8283	770.442826	0.000911	9.113159	3.087622	-0.000365
 934	9.2834e+01	2.7882	770.079847	0.000911	9.113159	3.087622	-0.000365
 935	9.2933e+01	2.7448	769.918523	0.000405	4.050293	1.372276	-0.000162
 936	9.3032e+01	2.7047	769.273227	0.001620	16.201172	5.489106	-0.000649
 937	9.3132e+01	2.6694	768.829587	0.001114	11.138305	3.773760	-0.000446
 938	9.3231e+01	2.6325	768.869918	-0.000101	-1.012573	-0.343069	0.000041
 939	9.3331e+01	2.5844	768.627932	0.000608	6.075439	2.058415	-0.000243
 940	9.3430e+01	2.5443	768.143960	0.001215	12.150879	4.116829	-0.000486
 941	9.3530e+01	2.5090	768.224622	-0.000203	-2.025146	-0.686138	0.000081
 942	9.3629e+01	2.4769	767.458333	0.001924	19.238891	6.518313	-0.000770
 943	9.3729e+01	2.4320	767.297009	0.000405	4.050293	1.372276	-0.000162
 944	9.3829e+01	2.3903	767.337340	-0.000101	-1.012573	-0.343069	0.000041
 945	9.3928e+01	2.3518	766.450058	0.002228	22.276611	7.547520	-0.000892
 946	9.4028e+01	2.3021	766.046749	0.001013	10.125732	3.430691	-0.000405
 947	9.4127e+01	2.2668	765.925756	0.000304	3.037720	1.029207	-0.000122
 948	9.4227e+01	2.2219	765.482115	0.001114	11.138305	3.773760	-0.000446
 949	9.4326e+01	2.1882	765.320791	0.000405	4.050293	1.372276	-0.000162
 950	9.4425e+01	2.1465	765.441784	-0.000304	-3.037720	-1.029207	0.000122
 951	9.4525e+01	2.1048	764.836819	0.001519	15.188598	5.146036	-0.000608
 952	9.4624e+01	2.0646	764.352847	0.001215	12.150879	4.116829	-0.000486
 953	9.4724e+01	2.0310	763.949537	0.001013	10.125732	3.430691	-0.000405
 954	9.4823e+01	1.9925	763.586558	0.000911	9.113159	3.087622	-0.000365
 955	9.4923e+01	1.9427	763.183249	0.001013	10.125732	3.430691	-0.000405
 956	9.5022e+01	1.9138	763.223579	-0.000101	-1.012573	-0.343069	0.000041
 957	9.5122e+01	1.8802	762.537953	0.001721	17.213745	5.832175	-0.000689
 958	9.5222e+01	1.8288	762.336298	0.000506	5.062866	1.715345	-0.000203
 959	9.5321e+01	1.7951	762.215305	0.000304	3.037720	1.029207	-0.000122
 960	9.5421e+01	1.7518	761.932988	0.000709	7.088013	2.401484	-0.000284
 961	9.5520e+01	1.7133	761.691002	0.000608	6.075439	2.058415	-0.000243
 962	9.5620e+01	1.6716	761.126368	0.001418	14.176025	4.802967	-0.000567
 963	9.5719e+01	1.6411	760.763389	0.000911	9.113159	3.087622	-0.000365
 964	9.5819e+01	1.5994	760.561734	0.000506	5.062866	1.715345	-0.000203
 965	9.5918e+01	1.5449	760.521403	0.000101	1.012573	0.343069	-0.000041
 966	9.6017e+01	1.5096	759.835777	0.001721	17.213745	5.832175	-0.000689
 967	9.6117e+01	1.4663	759.714784	0.000304	3.037720	1.029207	-0.000122
 968	9.6216e+01	1.4326	759.190481	0.001316	13.163452	4.459898	-0.000527
 969	9.6316e+01	1.3957	758.827502	0.000911	9.113159	3.087622	-0.000365
 970	9.6415e+01	1.3604	758.424192	0.001013	10.125732	3.430691	-0.000405
 971	9.6515e+01	1.3155	758.222537	0.000506	5.062866	1.715345	-0.000203
 972	9.6615e+01	1.2722	757.940220	0.000709	7.088013	2.401484	-0.000284
 973	9.6714e+01	1.2385	757.496579	0.001114	11.138305	3.773760	-0.000446
 974	9.6814e+01	1.1968	757.133601	0.000911	9.113159	3.087622	-0.000365
 975	9.6913e+01	1.1631	757.173932	-0.000101	-1.012573	-0.343069	0.000041
 976	9.7013e+01	1.1133	756.649629	0.001316	13.163452	4.459898	-0.000527
 977	9.7112e+01	1.0780	756.568967	0.000203	2.025146	0.686138	-0.000081
 978	9.7212e+01	1.0379	756.165657	0.001013	10.125732	3.430691	-0.000405
 979	9.7311e+01	0.9898	755.681685	0.001215	12.150879	4.116829	-0.000486
 980	9.7410e+01	0.9513	755.480030	0.000506	5.062866	1.715345	-0.000203
 981	9.7510e+01	0.9176	754.915396	0.001418	14.176025	4.802967	-0.000567
 982	9.7609e+01	0.8743	754.391094	0.001316	13.163452	4.459898	-0.000527
 983	9.7709e+01	0.8310	754.189439	0.000506	5.062866	1.715345	-0.000203
 984	9.7808e+01	0.7941	753.987784	0.000506	5.062866	1.715345	-0.000203
 985	9.7908e+01	0.7508	753.665136	0.000810	8.100586	2.744553	-0.000324
 986	9.8007e+01	0.7155	753.261826	0.001013	10.125732	3.430691	-0.000405
 987	9.8107e+01	0.6690	753.060171	0.000506	5.062866	1.715345	-0.000203
 988	9.8207e+01	0.6401	752.656861	0.001013	10.125732	3.430691	-0.000405
 989	9.8306e+01	0.5968	752.051896	0.001519	15.188598	5.146036	-0.000608
 990	9.8406e+01	0.5647	752.051896	-0.000000	-0.000000	-0.000000	0.000000
 991	9.8505e+01	0.5118	751.729248	0.000810	8.100586	2.744553	-0.000324
 992	9.8605e+01	0.4781	751.083953	0.001620	16.201172	5.489106	-0.000649
 993	9.8704e+01	0.4331	750.962960	0.000304	3.037720	1.029207	-0.000122
 994	9.8803e+01	0.3978	750.478988	0.001215	12.150879	4.116829	-0.000486
 995	9.8903e+01	0.3626	750.156340	0.000810	8.100586	2.744553	-0.000324
 996	9.9002e+01	0.3144	749.874023	0.000709	7.088013	2.401484	-0.000284
 997	9.9102e+01	0.2759	749.390051	0.001215	12.150879	4.116829	-0.000486
 998	9.9201e+01	0.2406	749.148065	0.000608	6.075439	2.058415	-0.000243
 999	9.9301e+01	0.1909	748.260784	0.002228	22.276611	7.547520	-0.000892
1000	9.9400e+01	0.1556	748.462439	-0.000506	-5.062866	-1.715345	0.000203
1001	9.9500e+01	0.1139	748.462439	-0.000000	-0.000000	-0.000000	0.000000
1002	9.9600e+01	0.0754	747.575157	0.002228	22.276611	7.547520	-0.000892
1003	9.9699e+01	0.0385	747.292840	0.000709	7.088013	2.401484	-0.000284
1004	9.9799e+01	0.0016	747.131516	0.000405	4.050293	1.372276	-0.000162
1005	9.9898e+01	-0.0353	746.728206	0.001013	10.125732	3.430691	-0.000405
1006	9.9998e+01	-0.0738	746.203903	0.001316	13.163452	4.459898	-0.000527
1007	1.0010e+02	-0.1187	745.800594	0.001013	10.125732	3.430691	-0.000405
1008	1.0020e+02	-0.1524	745.881256	-0.000203	-2.025146	-0.686138	0.000081
1009	1.0030e+02	-0.1877	745.316622	0.001418	14.176025	4.802967	-0.000567
1010	1.0040e+02	-0.2326	745.437615	-0.000304	-3.037720	-1.029207	0.000122
1011	1.0050e+02	-0.2791	744.389009	0.002633	26.326904	8.919796	-0.001054
1012	1.0059e+02	-0.3064	744.348678	0.000101	1.012573	0.343069	-0.000041
1013	1.0069e+02	-0.3577	743.824375	0.001316	13.163452	4.459898	-0.000527
1014	1.0079e+02	-0.3850	743.622720	0.000506	5.062866	1.715345	-0.000203
1015	1.0089e+02	-0.4283	742.937094	0.001721	17.213745	5.832175	-0.000689
1016	1.0099e+02	-0.4684	742.775770	0.000405	4.050293	1.372276	-0.000162
1017	1.0109e+02	-0.5069	742.251467	0.001316	13.163452	4.459898	-0.000527
1018	1.0119e+02	-0.5454	742.009481	0.000608	6.075439	2.058415	-0.000243
1019	1.0129e+02	-0.5936	741.848157	0.000405	4.050293	1.372276	-0.000162
1020	1.0139e+02	-0.6240	740.880213	0.002430	24.301757	8.233658	-0.000973
1021	1.0149e+02	-0.6706	741.041537	-0.000405	-4.050293	-1.372276	0.000162
1022	1.0159e+02	-0.7235	740.275248	0.001924	19.238891	6.518313	-0.000770
1023	1.0169e+02	-0.7556	740.073594	0.000506	5.062866	1.715345	-0.000203
1024	1.0179e+02	-0.7925	739.952601	0.000304	3.037720	1.029207	-0.000122
1025	1.0189e+02	-0.8278	739.549291	0.001013	10.125732	3.430691	-0.000405
1026	1.0199e+02	-0.8663	738.984657	0.001418	14.176025	4.802967	-0.000567
1027	1.0209e+02	-0.9096	738.702340	0.000709	7.088013	2.401484	-0.000284
1028	1.0219e+02	-0.9497	738.178037	0.001316	13.163452	4.459898	-0.000527
1029	1.0229e+02	-0.9786	738.057044	0.000304	3.037720	1.029207	-0.000122
1030	1.0239e+02	-1.0299	737.573072	0.001215	12.150879	4.116829	-0.000486
1031	1.0248e+02	-1.0748	737.169763	0.001013	10.125732	3.430691	-0.000405
1032	1.0258e+02	-1.1069	737.008439	0.000405	4.050293	1.372276	-0.000162
1033	1.0268e+02	-1.1470	736.443805	0.001418	14.176025	4.802967	-0.000567
1034	1.0278e+02	-1.1887	736.363143	0.000203	2.025146	0.686138	-0.000081
1035	1.0288e+02	-1.2369	735.314537	0.002633	26.326904	8.919796	-0.001054
1036	1.0298e+02	-1.2689	735.233875	0.000203	2.025146	0.686138	-0.000081
1037	1.0308e+02	-1.3074	734.588579	0.001620	16.201172	5.489106	-0.000649
1038	1.0318e+02	-1.3411	734.507917	0.000203	2.025146	0.686138	-0.000081
1039	1.0328e+02	-1.3845	734.225601	0.000709	7.088013	2.401484	-0.000284
1040	1.0338e+02	-1.4230	733.499643	0.001823	18.226318	6.175244	-0.000730
1041	1.0348e+02	-1.4727	733.136664	0.000911	9.113159	3.087622	-0.000365
1042	1.0358e+02	-1.5048	733.217326	-0.000203	-2.025146	-0.686138	0.000081
1043	1.0368e+02	-1.5497	732.410706	0.002025	20.251464	6.861382	-0.000811
1044	1.0378e+02	-1.5850	732.370375	0.000101	1.012573	0.343069	-0.000041
1045	1.0388e+02	-1.6203	732.007396	0.000911	9.113159	3.087622	-0.000365
1046	1.0398e+02	-1.6684	731.442763	0.001418	14.176025	4.802967	-0.000567
1047	1.0408e+02	-1.7037	730.958791	0.001215	12.150879	4.116829	-0.000486
1048	1.0418e+02	-1.7502	730.595812	0.000911	9.113159	3.087622	-0.000365
1049	1.0428e+02	-1.7855	730.515150	0.000203	2.025146	0.686138	-0.000081
1050	1.0438e+02	-1.8240	729.869854	0.001620	16.201172	5.489106	-0.000649
1051	1.0447e+02	-1.8641	729.466544	0.001013	10.125732	3.430691	-0.000405
1052	1.0457e+02	-1.9010	728.942241	0.001316	13.163452	4.459898	-0.000527
1053	1.0467e+02	-1.9524	728.296946	0.001620	16.201172	5.489106	-0.000649
1054	1.0477e+02	-1.9892	728.054960	0.000608	6.075439	2.058415	-0.000243
1055	1.0487e+02	-2.0181	727.611319	0.001114	11.138305	3.773760	-0.000446
1056	1.0497e+02	-2.0791	727.329002	0.000709	7.088013	2.401484	-0.000284
1057	1.0507e+02	-2.1192	727.006354	0.000810	8.100586	2.744553	-0.000324
1058	1.0517e+02	-2.1433	726.562713	0.001114	11.138305	3.773760	-0.000446
1059	1.0527e+02	-2.1866	726.441720	0.000304	3.037720	1.029207	-0.000122
1060	1.0537e+02	-2.2203	725.715762	0.001823	18.226318	6.175244	-0.000730
1061	1.0547e+02	-2.2684	725.473777	0.000608	6.075439	2.058415	-0.000243
1062	1.0557e+02	-2.3021	724.989805	0.001215	12.150879	4.116829	-0.000486
1063	1.0567e+02	-2.3390	724.788150	0.000506	5.062866	1.715345	-0.000203
1064	1.0577e+02	-2.3839	724.465502	0.000810	8.100586	2.744553	-0.000324
1065	1.0587e+02	-2.4272	724.062192	0.001013	10.125732	3.430691	-0.000405
1066	1.0597e+02	-2.4689	723.336234	0.001823	18.226318	6.175244	-0.000730
1067	1.0607e+02	-2.5042	723.134579	0.000506	5.062866	1.715345	-0.000203
1068	1.0617e+02	-2.5379	722.852262	0.000709	7.088013	2.401484	-0.000284
1069	1.0627e+02	-2.5860	722.166636	0.001721	17.213745	5.832175	-0.000689
1070	1.0637e+02	-2.6277	722.085974	0.000203	2.025146	0.686138	-0.000081
1071	1.0647e+02	-2.6646	721.481009	0.001519	15.188598	5.146036	-0.000608
1072	1.0656e+02	-2.7095	721.077699	0.001013	10.125732	3.430691	-0.000405
1073	1.0666e+02	-2.7545	720.674389	0.001013	10.125732	3.430691	-0.000405
1074	1.0676e+02	-2.7833	720.351741	0.000810	8.100586	2.744553	-0.000324
1075	1.0686e+02	-2.8234	720.109755	0.000608	6.075439	2.058415	-0.000243
1076	1.0696e+02	-2.8716	719.746777	0.000911	9.113159	3.087622	-0.000365
1077	1.0706e+02	-2.8956	719.101481	0.001620	16.201172	5.489106	-0.000649
1078	1.0716e+02	-2.9486	718.819164	0.000709	7.088013	2.401484	-0.000284
1079	1.0726e+02	-2.9823	718.738502	0.000203	2.025146	0.686138	-0.000081
1080	1.0736e+02	-3.0288	718.173868	0.001418	14.176025	4.802967	-0.000567
1081	1.0746e+02	-3.0689	717.770558	0.001013	10.125732	3.430691	-0.000405
1082	1.0756e+02	-3.0994	717.568903	0.000506	5.062866	1.715345	-0.000203
1083	1.0766e+02	-3.1427	717.004270	0.001418	14.176025	4.802967	-0.000567
1084	1.0776e+02	-3.1844	716.278312	0.001823	18.226318	6.175244	-0.000730
1085	1.0786e+02	-3.2213	715.955664	0.000810	8.100586	2.744553	-0.000324
1086	1.0796e+02	-3.2694	715.633016	0.000810	8.100586	2.744553	-0.000324
1087	1.0806e+02	-3.3127	715.673347	-0.000101	-1.012573	-0.343069	0.000041
1088	1.0816e+02	-3.3384	715.310368	0.000911	9.113159	3.087622	-0.000365
1089	1.0826e+02	-3.3801	714.826396	0.001215	12.150879	4.116829	-0.000486
1090	1.0836e+02	-3.4250	714.302093	0.001316	13.163452	4.459898	-0.000527
1091	1.0845e+02	-3.4619	714.140770	0.000405	4.050293	1.372276	-0.000162
1092	1.0855e+02	-3.5004	713.293819	0.002126	21.264038	7.204451	-0.000851
1093	1.0865e+02	-3.5405	713.374481	-0.000203	-2.025146	-0.686138	0.000081
1094	1.0875e+02	-3.5742	712.930840	0.001114	11.138305	3.773760	-0.000446
1095	1.0885e+02	-3.6240	712.527530	0.001013	10.125732	3.430691	-0.000405
1096	1.0895e+02	-3.6609	712.527530	-0.000000	-0.000000	-0.000000	0.000000
1097	1.0905e+02	-3.7042	711.720910	0.002025	20.251464	6.861382	-0.000811
1098	1.0915e+02	-3.7347	711.317600	0.001013	10.125732	3.430691	-0.000405
1099	1.0925e+02	-3.7748	710.994953	0.000810	8.100586	2.744553	-0.000324
1100	1.0935e+02	-3.8181	710.470650	0.001316	13.163452	4.459898	-0.000527
1101	1.0945e+02	-3.8566	710.148002	0.000810	8.100586	2.744553	-0.000324
1102	1.0955e+02	-3.9047	709.825354	0.000810	8.100586	2.744553	-0.000324
1103	1.0965e+02	-3.9384	709.422044	0.001013	10.125732	3.430691	-0.000405
1104	1.0975e+02	-3.9801	708.938072	0.001215	12.150879	4.116829	-0.000486
1105	1.0985e+02	-4.0218	708.615424	0.000810	8.100586	2.744553	-0.000324
1106	1.0995e+02	-4.0603	708.050791	0.001418	14.176025	4.802967	-0.000567
1107	1.1005e+02	-4.0956	707.970129	0.000203	2.025146	0.686138	-0.000081
1108	1.1015e+02	-4.1341	708.050791	-0.000203	-2.025146	-0.686138	0.000081
1109	1.1025e+02	-4.1870	707.163509	0.002228	22.276611	7.547520	-0.000892
1110	1.1035e+02	-4.2159	706.558544	0.001519	15.188598	5.146036	-0.000608
1111	1.1044e+02	-4.2592	706.598875	-0.000101	-1.012573	-0.343069	0.000041
1112	1.1054e+02	-4.3009	706.155234	0.001114	11.138305	3.773760	-0.000446
1113	1.1064e+02	-4.3507	705.630931	0.001316	13.163452	4.459898	-0.000527
1114	1.1074e+02	-4.3780	705.227622	0.001013	10.125732	3.430691	-0.000405
1115	1.1084e+02	-4.4213	705.146960	0.000203	2.025146	0.686138	-0.000081
1116	1.1094e+02	-4.4598	705.187291	-0.000101	-1.012573	-0.343069	0.000041
1117	1.1104e+02	-4.4951	704.501664	0.001721	17.213745	5.832175	-0.000689
1118	1.1114e+02	-4.5464	703.896699	0.001519	15.188598	5.146036	-0.000608
1119	1.1124e+02	-4.5769	703.654713	0.000608	6.075439	2.058415	-0.000243
1120	1.1134e+02	-4.6186	703.574051	0.000203	2.025146	0.686138	-0.000081
1121	1.1144e+02	-4.6635	702.807762	0.001924	19.238891	6.518313	-0.000770
1122	1.1154e+02	-4.6908	702.606108	0.000506	5.062866	1.715345	-0.000203
1123	1.1164e+02	-4.7293	701.839819	0.001924	19.238891	6.518313	-0.000770
1124	1.1174e+02	-4.7806	702.081805	-0.000608	-6.075439	-2.058415	0.000243
1125	1.1184e+02	-4.8207	701.880150	0.000506	5.062866	1.715345	-0.000203
1126	1.1194e+02	-4.8528	701.315516	0.001418	14.176025	4.802967	-0.000567
1127	1.1204e+02	-4.8913	700.871875	0.001114	11.138305	3.773760	-0.000446
1128	1.1214e+02	-4.9346	700.589558	0.000709	7.088013	2.401484	-0.000284
1129	1.1224e+02	-4.9699	700.226579	0.000911	9.113159	3.087622	-0.000365
1130	1.1234e+02	-5.0261	700.145917	0.000203	2.025146	0.686138	-0.000081
1131	1.1244e+02	-5.0581	699.782938	0.000911	9.113159	3.087622	-0.000365
1132	1.1253e+02	-5.0983	698.976319	0.002025	20.251464	6.861382	-0.000811
1133	1.1263e+02	-5.1303	698.855326	0.000304	3.037720	1.029207	-0.000122
1134	1.1273e+02	-5.1833	698.452016	0.001013	10.125732	3.430691	-0.000405
1135	1.1283e+02	-5.2154	698.331023	0.000304	3.037720	1.029207	-0.000122
1136	1.1293e+02	-5.2587	698.089037	0.000608	6.075439	2.058415	-0.000243
1137	1.1303e+02	-5.2972	697.645396	0.001114	11.138305	3.773760	-0.000446
1138	1.1313e+02	-5.3261	697.242086	0.001013	10.125732	3.430691	-0.000405
1139	1.1323e+02	-5.3774	697.121093	0.000304	3.037720	1.029207	-0.000122
1140	1.1333e+02	-5.4095	696.717784	0.001013	10.125732	3.430691	-0.000405
1141	1.1343e+02	-5.4512	696.354805	0.000911	9.113159	3.087622	-0.000365
1142	1.1353e+02	-5.4881	695.830502	0.001316	13.163452	4.459898	-0.000527
1143	1.1363e+02	-5.5250	695.588516	0.000608	6.075439	2.058415	-0.000243
1144	1.1373e+02	-5.5699	695.427192	0.000405	4.050293	1.372276	-0.000162
1145	1.1383e+02	-5.6132	695.185206	0.000608	6.075439	2.058415	-0.000243
1146	1.1393e+02	-5.6565	694.781896	0.001013	10.125732	3.430691	-0.000405
1147	1.1403e+02	-5.6966	694.176931	0.001519	15.188598	5.146036	-0.000608
1148	1.1413e+02	-5.7255	693.894615	0.000709	7.088013	2.401484	-0.000284
1149	1.1423e+02	-5.7688	693.773622	0.000304	3.037720	1.029207	-0.000122
1150	1.1433e+02	-5.8186	693.410643	0.000911	9.113159	3.087622	-0.000365
1151	1.1442e+02	-5.8538	692.967002	0.001114	11.138305	3.773760	-0.000446
1152	1.1452e+02	-5.8827	692.805678	0.000405	4.050293	1.372276	-0.000162
1153	1.1462e+02	-5.9357	692.402368	0.001013	10.125732	3.430691	-0.000405
1154	1.1472e+02	-5.9726	692.241044	0.000405	4.050293	1.372276	-0.000162
1155	1.1482e+02	-6.0095	691.837734	0.001013	10.125732	3.430691	-0.000405
1156	1.1492e+02	-6.0480	691.434424	0.001013	10.125732	3.430691	-0.000405
1157	1.1502e+02	-6.0945	690.869791	0.001418	14.176025	4.802967	-0.000567
1158	1.1512e+02	-6.1298	691.071446	-0.000506	-5.062866	-1.715345	0.000203
1159	1.1522e+02	-6.1699	690.466481	0.001519	15.188598	5.146036	-0.000608
1160	1.1532e+02	-6.2148	690.224495	0.000608	6.075439	2.058415	-0.000243
1161	1.1542e+02	-6.2549	689.901847	0.000810	8.100586	2.744553	-0.000324
1162	1.1552e+02	-6.2966	689.458206	0.001114	11.138305	3.773760	-0.000446
1163	1.1562e+02	-6.3351	689.175889	0.000709	7.088013	2.401484	-0.000284
1164	1.1572e+02	-6.3736	688.812910	0.000911	9.113159	3.087622	-0.000365
1165	1.1582e+02	-6.4121	688.570924	0.000608	6.075439	2.058415	-0.000243
1166	1.1592e+02	-6.4522	688.086953	0.001215	12.150879	4.116829	-0.000486
1167	1.1602e+02	-6.4859	687.804636	0.000709	7.088013	2.401484	-0.000284
1168	1.1612e+02	-6.5244	687.764305	0.000101	1.012573	0.343069	-0.000041
1169	1.1622e+02	-6.5709	687.280333	0.001215	12.150879	4.116829	-0.000486
1170	1.1632e+02	-6.6126	687.280333	-0.000000	-0.000000	-0.000000	0.000000
1171	1.1642e+02	-6.6383	686.998016	0.000709	7.088013	2.401484	-0.000284
1172	1.1651e+02	-6.6913	686.272058	0.001823	18.226318	6.175244	-0.000730
1173	1.1661e+02	-6.7265	685.949410	0.000810	8.100586	2.744553	-0.000324
1174	1.1671e+02	-6.7699	685.384776	0.001418	14.176025	4.802967	-0.000567
1175	1.1681e+02	-6.8036	685.747755	-0.000911	-9.113159	-3.087622	0.000365
1176	1.1691e+02	-6.8533	684.981467	0.001924	19.238891	6.518313	-0.000770
1177	1.1701e+02	-6.8870	684.497495	0.001215	12.150879	4.116829	-0.000486
1178	1.1711e+02	-6.9191	684.658819	-0.000405	-4.050293	-1.372276	0.000162
1179	1.1721e+02	-6.9704	684.336171	0.000810	8.100586	2.744553	-0.000324
1180	1.1731e+02	-7.0025	684.053854	0.000709	7.088013	2.401484	-0.000284
1181	1.1741e+02	-7.0442	683.771537	0.000709	7.088013	2.401484	-0.000284
1182	1.1751e+02	-7.0843	683.126241	0.001620	16.201172	5.489106	-0.000649
1183	1.1761e+02	-7.1228	683.287565	-0.000405	-4.050293	-1.372276	0.000162
1184	1.1771e+02	-7.1613	682.803593	0.001215	12.150879	4.116829	-0.000486
1185	1.1781e+02	-7.2046	682.642269	0.000405	4.050293	1.372276	-0.000162
1186	1.1791e+02	-7.2431	682.238960	0.001013	10.125732	3.430691	-0.000405
1187	1.1801e+02	-7.2848	681.714657	0.001316	13.163452	4.459898	-0.000527
1188	1.1811e+02	-7.3249	681.553333	0.000405	4.050293	1.372276	-0.000162
1189	1.1821e+02	-7.3682	681.190354	0.000911	9.113159	3.087622	-0.000365
1190	1.1831e+02	-7.4019	681.069361	0.000304	3.037720	1.029207	-0.000122
1191	1.1841e+02	-7.4452	680.988699	0.000203	2.025146	0.686138	-0.000081
1192	1.1850e+02	-7.4805	680.343403	0.001620	16.201172	5.489106	-0.000649
1193	1.1860e+02	-7.5351	679.940093	0.001013	10.125732	3.430691	-0.000405
1194	1.1870e+02	-7.5591	679.899762	0.000101	1.012573	0.343069	-0.000041
1195	1.1880e+02	-7.6009	679.496453	0.001013	10.125732	3.430691	-0.000405
1196	1.1890e+02	-7.6329	679.254467	0.000608	6.075439	2.058415	-0.000243
1197	1.1900e+02	-7.6875	679.214136	0.000101	1.012573	0.343069	-0.000041
1198	1.1910e+02	-7.7244	678.689833	0.001316	13.163452	4.459898	-0.000527
1199	1.1920e+02	-7.7693	678.326854	0.000911	9.113159	3.087622	-0.000365
1200	1.1930e+02	-7.7918	677.883213	0.001114	11.138305	3.773760	-0.000446
1201	1.1940e+02	-7.8383	677.721889	0.000405	4.050293	1.372276	-0.000162
1202	1.1950e+02	-7.8832	677.439572	0.000709	7.088013	2.401484	-0.000284
1203	1.1960e+02	-7.9201	677.116924	0.000810	8.100586	2.744553	-0.000324
1204	1.1970e+02	-7.9570	676.955600	0.000405	4.050293	1.372276	-0.000162
1205	1.1980e+02	-7.9987	676.713614	0.000608	6.075439	2.058415	-0.000243
1206	1.1990e+02	-8.0420	675.987657	0.001823	18.226318	6.175244	-0.000730
1207	1.2000e+02	-8.0693	675.987657	-0.000000	-0.000000	-0.000000	0.000000
1208	1.2010e+02	-8.1238	675.463354	0.001316	13.163452	4.459898	-0.000527
1209	1.2020e+02	-8.1559	675.019713	0.001114	11.138305	3.773760	-0.000446
1210	1.2030e+02	-8.1960	674.898720	0.000304	3.037720	1.029207	-0.000122
1211	1.2039e+02	-8.2329	674.656734	0.000608	6.075439	2.058415	-0.000243
1212	1.2049e+02	-8.2746	674.535741	0.000304	3.037720	1.029207	-0.000122
1213	1.2059e+02	-8.3260	674.092100	0.001114	11.138305	3.773760	-0.000446
1214	1.2069e+02	-8.3725	673.850114	0.000608	6.075439	2.058415	-0.000243
1215	1.2079e+02	-8.3998	673.487136	0.000911	9.113159	3.087622	-0.000365
1216	1.2089e+02	-8.4383	673.325812	0.000405	4.050293	1.372276	-0.000162
1217	1.2099e+02	-8.4816	673.083826	0.000608	6.075439	2.058415	-0.000243
1218	1.2109e+02	-8.5185	672.438530	0.001620	16.201172	5.489106	-0.000649
1219	1.2119e+02	-8.5634	672.599854	-0.000405	-4.050293	-1.372276	0.000162
1220	1.2129e+02	-8.6099	671.954558	0.001620	16.201172	5.489106	-0.000649
1221	1.2139e+02	-8.6404	671.470586	0.001215	12.150879	4.116829	-0.000486
1222	1.2149e+02	-8.6757	671.188269	0.000709	7.088013	2.401484	-0.000284
1223	1.2159e+02	-8.7238	671.228600	-0.000101	-1.012573	-0.343069	0.000041
1224	1.2169e+02	-8.7511	670.583305	0.001620	16.201172	5.489106	-0.000649
1225	1.2179e+02	-8.7992	670.300988	0.000709	7.088013	2.401484	-0.000284
1226	1.2189e+02	-8.8313	669.736354	0.001418	14.176025	4.802967	-0.000567
1227	1.2199e+02	-8.8810	669.454037	0.000709	7.088013	2.401484	-0.000284
1228	1.2209e+02	-8.9179	668.970065	0.001215	12.150879	4.116829	-0.000486
1229	1.2219e+02	-8.9628	668.647417	0.000810	8.100586	2.744553	-0.000324
1230	1.2229e+02	-9.0030	668.324769	0.000810	8.100586	2.744553	-0.000324
1231	1.2239e+02	-9.0286	667.437488	0.002228	22.276611	7.547520	-0.000892
1232	1.2248e+02	-9.0816	667.800467	-0.000911	-9.113159	-3.087622	0.000365
1233	1.2258e+02	-9.1120	667.276164	0.001316	13.163452	4.459898	-0.000527
1234	1.2268e+02	-9.1505	666.792192	0.001215	12.150879	4.116829	-0.000486
1235	1.2278e+02	-9.1987	666.509875	0.000709	7.088013	2.401484	-0.000284
1236	1.2288e+02	-9.2388	666.227558	0.000709	7.088013	2.401484	-0.000284
1237	1.2298e+02	-9.2837	665.904910	0.000810	8.100586	2.744553	-0.000324
1238	1.2308e+02	-9.3126	665.299945	0.001519	15.188598	5.146036	-0.000608
1239	1.2318e+02	-9.3639	664.775643	0.001316	13.163452	4.459898	-0.000527
1240	1.2328e+02	-9.3992	664.493326	0.000709	7.088013	2.401484	-0.000284
1241	1.2338e+02	-9.4361	663.767368	0.001823	18.226318	6.175244	-0.000730
1242	1.2348e+02	-9.4810	663.525382	0.000608	6.075439	2.058415	-0.000243
1243	1.2358e+02	-9.5227	663.162403	0.000911	9.113159	3.087622	-0.000365
1244	1.2368e+02	-9.5548	662.476776	0.001721	17.213745	5.832175	-0.000689
1245	1.2378e+02	-9.5933	662.315452	0.000405	4.050293	1.372276	-0.000162
1246	1.2388e+02	-9.6286	661.992805	0.000810	8.100586	2.744553	-0.000324
1247	1.2398e+02	-9.6687	661.266847	0.001823	18.226318	6.175244	-0.000730
1248	1.2408e+02	-9.7120	660.621551	0.001620	16.201172	5.489106	-0.000649
1249	1.2418e+02	-9.7569	659.935924	0.001721	17.213745	5.832175	-0.000689
1250	1.2428e+02	-9.7954	660.097248	-0.000405	-4.050293	-1.372276	0.000162
1251	1.2438e+02	-9.8356	659.371290	0.001823	18.226318	6.175244	-0.000730
1252	1.2447e+02	-9.8660	658.927650	0.001114	11.138305	3.773760	-0.000446
1253	1.2457e+02	-9.9110	658.887319	0.000101	1.012573	0.343069	-0.000041
1254	1.2467e+02	-9.9591	658.242023	0.001620	16.201172	5.489106	-0.000649
1255	1.2477e+02	-10.0008	657.354741	0.002228	22.276611	7.547520	-0.000892
1256	1.2487e+02	-10.0313	656.991762	0.000911	9.113159	3.087622	-0.000365
1257	1.2497e+02	-10.0650	656.104481	0.002228	22.276611	7.547520	-0.000892
1258	1.2507e+02	-10.1179	655.580178	0.001316	13.163452	4.459898	-0.000527
1259	1.2517e+02	-10.1564	655.136537	0.001114	11.138305	3.773760	-0.000446
1260	1.2527e+02	-10.1901	654.813889	0.000810	8.100586	2.744553	-0.000324
1261	1.2537e+02	-10.2286	654.450910	0.000911	9.113159	3.087622	-0.000365
1262	1.2547e+02	-10.2655	653.765283	0.001721	17.213745	5.832175	-0.000689
1263	1.2557e+02	-10.3136	653.160319	0.001519	15.188598	5.146036	-0.000608
1264	1.2567e+02	-10.3585	652.878002	0.000709	7.088013	2.401484	-0.000284
1265	1.2577e+02	-10.3970	651.950389	0.002329	23.289184	7.890589	-0.000932
1266	1.2587e+02	-10.4387	651.426086	0.001316	13.163452	4.459898	-0.000527
1267	1.2597e+02	-10.4821	650.780790	0.001620	16.201172	5.489106	-0.000649
1268	1.2607e+02	-10.5206	650.377481	0.001013	10.125732	3.430691	-0.000405
1269	1.2617e+02	-10.5526	649.772516	0.001519	15.188598	5.146036	-0.000608
1270	1.2627e+02	-10.5863	648.804572	0.002430	24.301757	8.233658	-0.000973
1271	1.2636e+02	-10.6313	648.360931	0.001114	11.138305	3.773760	-0.000446
1272	1.2646e+02	-10.6762	647.473650	0.002228	22.276611	7.547520	-0.000892
1273	1.2656e+02	-10.7243	647.151002	0.000810	8.100586	2.744553	-0.000324
1274	1.2666e+02	-10.7548	646.626699	0.001316	13.163452	4.459898	-0.000527
1275	1.2676e+02	-10.7917	645.537762	0.002734	27.339477	9.262866	-0.001094
1276	1.2686e+02	-10.8270	645.336107	0.000506	5.062866	1.715345	-0.000203
1277	1.2696e+02	-10.8591	644.005185	0.003341	33.414916	11.321280	-0.001338
1278	1.2706e+02	-10.9056	643.359889	0.001620	16.201172	5.489106	-0.000649
1279	1.2716e+02	-10.9521	642.916248	0.001114	11.138305	3.773760	-0.000446
1280	1.2726e+02	-11.0002	642.311283	0.001519	15.188598	5.146036	-0.000608
1281	1.2736e+02	-11.0339	641.504664	0.002025	20.251464	6.861382	-0.000811
1282	1.2746e+02	-11.0692	640.940030	0.001418	14.176025	4.802967	-0.000567
1283	1.2756e+02	-11.1141	639.810762	0.002835	28.352050	9.605935	-0.001135
1284	1.2766e+02	-11.1510	638.802488	0.002531	25.314331	8.576727	-0.001013
1285	1.2776e+02	-11.1911	638.520171	0.000709	7.088013	2.401484	-0.000284
1286	1.2786e+02	-11.2232	637.310241	0.003038	30.377197	10.292073	-0.001216
1287	1.2796e+02	-11.2794	636.664945	0.001620	16.201172	5.489106	-0.000649
1288	1.2806e+02	-11.3147	636.059981	0.001519	15.188598	5.146036	-0.000608
1289	1.2816e+02	-11.3499	635.132368	0.002329	23.289184	7.890589	-0.000932
1290	1.2826e+02	-11.3852	634.406410	0.001823	18.226318	6.175244	-0.000730
1291	1.2835e+02	-11.4334	633.801445	0.001519	15.188598	5.146036	-0.000608
1292	1.2845e+02	-11.4655	632.591516	0.003038	30.377197	10.292073	-0.001216
1293	1.2855e+02	-11.5120	631.784896	0.002025	20.251464	6.861382	-0.000811
1294	1.2865e+02	-11.5521	631.058938	0.001823	18.226318	6.175244	-0.000730
1295	1.2875e+02	-11.5906	630.090995	0.002430	24.301757	8.233658	-0.000973
1296	1.2885e+02	-11.6307	629.082720	0.002531	25.314331	8.576727	-0.001013
1297	1.2895e+02	-11.6708	628.114776	0.002430	24.301757	8.233658	-0.000973
1298	1.2905e+02	-11.7029	627.469481	0.001620	16.201172	5.489106	-0.000649
1299	1.2915e+02	-11.7478	626.057896	0.003544	35.440063	12.007418	-0.001419
1300	1.2925e+02	-11.7815	625.331938	0.001823	18.226318	6.175244	-0.000730
1301	1.2935e+02	-11.8312	624.122009	0.003038	30.377197	10.292073	-0.001216
1302	1.2945e+02	-11.8649	623.315389	0.002025	20.251464	6.861382	-0.000811
1303	1.2955e+02	-11.9002	622.226452	0.002734	27.339477	9.262866	-0.001094
1304	1.2965e+02	-11.9451	621.298840	0.002329	23.289184	7.890589	-0.000932
1305	1.2975e+02	-11.9916	620.209903	0.002734	27.339477	9.262866	-0.001094
1306	1.2985e+02	-12.0205	618.959642	0.003139	31.389770	10.635142	-0.001257
1307	1.2995e+02	-12.0702	618.032030	0.002329	23.289184	7.890589	-0.000932
1308	1.3005e+02	-12.1023	616.943093	0.002734	27.339477	9.262866	-0.001094
1309	1.3015e+02	-12.1440	615.652502	0.003240	32.402343	10.978211	-0.001297
1310	1.3025e+02	-12.1938	614.644227	0.002531	25.314331	8.576727	-0.001013
1311	1.3034e+02	-12.2178	613.030988	0.004050	40.502929	13.722764	-0.001621
1312	1.3044e+02	-12.2708	612.143706	0.002228	22.276611	7.547520	-0.000892
1313	1.3054e+02	-12.3029	610.772452	0.003443	34.427490	11.664349	-0.001378
1314	1.3064e+02	-12.3446	610.046495	0.001823	18.226318	6.175244	-0.000730
1315	1.3074e+02	-12.3895	608.876896	0.002936	29.364624	9.949004	-0.001175
1316	1.3084e+02	-12.4296	607.102333	0.004455	44.553222	15.095040	-0.001783
1317	1.3094e+02	-12.4617	606.134389	0.002430	24.301757	8.233658	-0.000973
1318	1.3104e+02	-12.4986	604.521149	0.004050	40.502929	13.722764	-0.001621
1319	1.3114e+02	-12.5419	603.230558	0.003240	32.402343	10.978211	-0.001297
1320	1.3124e+02	-12.5868	601.939966	0.003240	32.402343	10.978211	-0.001297
1321	1.3134e+02	-12.6221	600.326727	0.004050	40.502929	13.722764	-0.001621
1322	1.3144e+02	-12.6622	599.076466	0.003139	31.389770	10.635142	-0.001257
1323	1.3154e+02	-12.7103	597.664882	0.003544	35.440063	12.007418	-0.001419
1324	1.3164e+02	-12.7424	596.575945	0.002734	27.339477	9.262866	-0.001094
1325	1.3174e+02	-12.7793	594.922375	0.004152	41.515502	14.065833	-0.001662
1326	1.3184e+02	-12.8290	593.188142	0.004354	43.540649	14.751971	-0.001743
1327	1.3194e+02	-12.8595	591.978213	0.003038	30.377197	10.292073	-0.001216
1328	1.3204e+02	-12.9044	590.082657	0.004759	47.590942	16.124247	-0.001905
1329	1.3214e+02	-12.9381	588.630741	0.003645	36.452636	12.350487	-0.001459
1330	1.3224e+02	-12.9831	587.017502	0.004050	40.502929	13.722764	-0.001621
1331	1.3234e+02	-13.0216	585.726910	0.003240	32.402343	10.978211	-0.001297
1332	1.3243e+02	-13.0569	583.791023	0.004860	48.603515	16.467317	-0.001946
1333	1.3253e+02	-13.1002	582.500431	0.003240	32.402343	10.978211	-0.001297
1334	1.3263e+02	-13.1371	580.564544	0.004860	48.603515	16.467317	-0.001946
1335	1.3273e+02	-13.1724	578.951304	0.004050	40.502929	13.722764	-0.001621
1336	1.3283e+02	-13.2157	577.418727	0.003848	38.477783	13.036626	-0.001540
1337	1.3293e+02	-13.2670	575.361847	0.005164	51.641234	17.496524	-0.002067
1338	1.3303e+02	-13.2959	573.385628	0.004962	49.616088	16.810386	-0.001986
1339	1.3313e+02	-13.3392	571.732058	0.004152	41.515502	14.065833	-0.001662
1340	1.3323e+02	-13.3809	569.554185	0.005468	54.678954	18.525731	-0.002189
1341	1.3333e+02	-13.4178	567.900614	0.004152	41.515502	14.065833	-0.001662
1342	1.3343e+02	-13.4611	566.166382	0.004354	43.540649	14.751971	-0.001743
1343	1.3353e+02	-13.4996	564.230494	0.004860	48.603515	16.467317	-0.001946
1344	1.3363e+02	-13.5301	562.294607	0.004860	48.603515	16.467317	-0.001946
1345	1.3373e+02	-13.5782	560.560375	0.004354	43.540649	14.751971	-0.001743
1346	1.3383e+02	-13.6135	558.382501	0.005468	54.678954	18.525731	-0.002189
1347	1.3393e+02	-13.6616	556.083635	0.005772	57.716674	19.554938	-0.002310
1348	1.3403e+02	-13.6937	553.946093	0.005367	53.666381	18.182662	-0.002148
1349	1.3413e+02	-13.7403	551.929544	0.005063	50.628661	17.153455	-0.002027
1350	1.3423e+02	-13.7804	549.590347	0.005873	58.729247	19.898008	-0.002351
1351	1.3432e+02	-13.8189	547.251149	0.005873	58.729247	19.898008	-0.002351
1352	1.3442e+02	-13.8622	545.194269	0.005164	51.641234	17.496524	-0.002067
1353	1.3452e+02	-13.8991	543.177720	0.005063	50.628661	17.153455	-0.002027
1354	1.3462e+02	-13.9392	540.919185	0.005670	56.704101	19.211869	-0.002270
1355	1.3472e+02	-13.9857	538.418663	0.006278	62.779540	21.270284	-0.002513
1356	1.3482e+02	-14.0178	536.200459	0.005569	55.691527	18.868800	-0.002229
1357	1.3492e+02	-14.0595	533.861262	0.005873	58.729247	19.898008	-0.002351
1358	1.3502e+02	-14.0948	531.320410	0.006379	63.792113	21.613353	-0.002554
1359	1.3512e+02	-14.1365	528.981213	0.005873	58.729247	19.898008	-0.002351
1360	1.3522e+02	-14.1798	526.238706	0.006885	68.854979	23.328699	-0.002756
1361	1.3532e+02	-14.2135	523.536530	0.006784	67.842406	22.985629	-0.002716
1362	1.3542e+02	-14.2520	521.237663	0.005772	57.716674	19.554938	-0.002310
1363	1.3552e+02	-14.2937	518.535487	0.006784	67.842406	22.985629	-0.002716
1364	1.3562e+02	-14.3402	515.752649	0.006987	69.867553	23.671768	-0.002797
1365	1.3572e+02	-14.3884	513.332790	0.006075	60.754393	20.584146	-0.002432
1366	1.3582e+02	-14.4060	510.388628	0.007392	73.917845	25.044044	-0.002959
1367	1.3592e+02	-14.4606	507.767114	0.006582	65.817260	22.299491	-0.002635
1368	1.3602e+02	-14.5023	505.105269	0.006683	66.829833	22.642560	-0.002675
1369	1.3612e+02	-14.5311	501.959452	0.007898	78.980712	26.759389	-0.003162
1370	1.3622e+02	-14.5729	499.176614	0.006987	69.867553	23.671768	-0.002797
1371	1.3631e+02	-14.6194	496.434107	0.006885	68.854979	23.328699	-0.002756
1372	1.3641e+02	-14.6579	493.086635	0.008404	84.043578	28.474735	-0.003364
1373	1.3651e+02	-14.6996	489.900487	0.007999	79.993285	27.102459	-0.003202
1374	1.3661e+02	-14.7365	487.440297	0.006177	61.766967	20.927215	-0.002473
1375	1.3671e+02	-14.7766	483.891170	0.008911	89.106444	30.190080	-0.003567
1376	1.3681e+02	-14.8103	480.705022	0.007999	79.993285	27.102459	-0.003202
1377	1.3691e+02	-14.8440	477.639867	0.007696	76.955565	26.073251	-0.003081
1378	1.3701e+02	-14.8985	474.816698	0.007088	70.880126	24.014837	-0.002837
1379	1.3711e+02	-14.9274	471.065917	0.009417	94.169310	31.905426	-0.003770
1380	1.3721e+02	-14.9739	467.758776	0.008303	83.031004	28.131666	-0.003324
1381	1.3731e+02	-15.0060	464.532297	0.008101	81.005858	27.445528	-0.003243
1382	1.3741e+02	-15.0541	460.902508	0.009113	91.131590	30.876219	-0.003648
1383	1.3751e+02	-15.0958	457.555036	0.008404	84.043578	28.474735	-0.003364
1384	1.3761e+02	-15.1375	454.126903	0.008607	86.068724	29.160873	-0.003445
1385	1.3771e+02	-15.1809	450.456783	0.009214	92.144163	31.219288	-0.003689
1386	1.3781e+02	-15.2145	446.706001	0.009417	94.169310	31.905426	-0.003770
1387	1.3791e+02	-15.2546	442.955219	0.009417	94.169310	31.905426	-0.003770
1388	1.3801e+02	-15.2964	439.164107	0.009518	95.181883	32.248495	-0.003810
1389	1.3811e+02	-15.3413	435.534318	0.009113	91.131590	30.876219	-0.003648
1390	1.3821e+02	-15.3734	431.944860	0.009012	90.119017	30.533150	-0.003607
1391	1.3831e+02	-15.4215	427.871431	0.010227	102.269896	34.649979	-0.004094
1392	1.3840e+02	-15.4536	423.959325	0.009822	98.219603	33.277702	-0.003932
1393	1.3850e+02	-15.4953	420.047219	0.009822	98.219603	33.277702	-0.003932
1394	1.3860e+02	-15.5370	415.973790	0.010227	102.269896	34.649979	-0.004094
1395	1.3870e+02	-15.5739	411.940691	0.010126	101.257322	34.306910	-0.004053
1396	1.3880e+02	-15.6156	407.423621	0.011341	113.408201	38.423739	-0.004540
1397	1.3890e+02	-15.6525	403.713170	0.009316	93.156737	31.562357	-0.003729
1398	1.3900e+02	-15.6990	398.873452	0.012151	121.508787	41.168291	-0.004864
1399	1.3910e+02	-15.7295	394.759691	0.010328	103.282469	34.993048	-0.004134
1400	1.3920e+02	-15.7680	390.484607	0.010733	107.332762	36.365324	-0.004297
1401	1.3930e+02	-15.8097	386.007867	0.011240	112.395628	38.080670	-0.004499
1402	1.3940e+02	-15.8514	381.490797	0.011341	113.408201	38.423739	-0.004540
1403	1.3950e+02	-15.8915	377.094719	0.011037	110.370482	37.394531	-0.004418
1404	1.3960e+02	-15.9348	372.174339	0.012353	123.533933	41.854430	-0.004945
1405	1.3970e+02	-15.9798	367.576607	0.011543	115.433348	39.109877	-0.004621
1406	1.3980e+02	-16.0199	362.898212	0.011746	117.458494	39.796015	-0.004702
1407	1.3990e+02	-16.0471	358.260149	0.011645	116.445921	39.452946	-0.004661
1408	1.4000e+02	-16.0889	353.420431	0.012151	121.508787	41.168291	-0.004864
1409	1.4010e+02	-16.1257	348.540381	0.012252	122.521360	41.511361	-0.004905
1410	1.4020e+02	-16.1739	343.499008	0.012657	126.571653	42.883637	-0.005067
1411	1.4029e+02	-16.2076	338.134987	0.013467	134.672239	45.628190	-0.005391
1412	1.4039e+02	-16.2429	333.254938	0.012252	122.521360	41.511361	-0.004905
1413	1.4049e+02	-16.2926	328.334557	0.012353	123.533933	41.854430	-0.004945
1414	1.4059e+02	-16.3295	322.284909	0.015189	151.885984	51.460364	-0.006080
1415	1.4069e+02	-16.3728	317.404860	0.012252	122.521360	41.511361	-0.004905
1416	1.4079e+02	-16.4065	311.879515	0.013872	138.722532	47.000466	-0.005553
1417	1.4089e+02	-16.4610	306.354170	0.013872	138.722532	47.000466	-0.005553
1418	1.4099e+02	-16.4867	301.272466	0.012758	127.584226	43.226706	-0.005107
1419	1.4109e+02	-16.5348	295.101825	0.015492	154.923703	52.489572	-0.006202
1420	1.4119e+02	-16.5701	289.979790	0.012860	128.596800	43.569775	-0.005148
1421	1.4129e+02	-16.6054	284.414113	0.013974	139.735105	47.343535	-0.005594
1422	1.4139e+02	-16.6455	278.445128	0.014986	149.860837	50.774226	-0.005999
1423	1.4149e+02	-16.6808	272.516473	0.014885	148.848264	50.431157	-0.005958
1424	1.4159e+02	-16.7370	266.587818	0.014885	148.848264	50.431157	-0.005958
1425	1.4169e+02	-16.7642	260.941480	0.014176	141.760251	48.029673	-0.005675
1426	1.4179e+02	-16.8092	254.649846	0.015796	157.961423	53.518779	-0.006323
1427	1.4189e+02	-16.8509	248.196888	0.016201	162.011716	54.891055	-0.006485
1428	1.4199e+02	-16.8894	241.743930	0.016201	162.011716	54.891055	-0.006485
1429	1.4209e+02	-16.9198	235.613620	0.015391	153.911130	52.146503	-0.006161
1430	1.4219e+02	-16.9792	229.442979	0.015492	154.923703	52.489572	-0.006202
1431	1.4228e+02	-17.0001	222.748036	0.016809	168.087155	56.949470	-0.006729
1432	1.4238e+02	-17.0402	216.496733	0.015695	156.948850	53.175710	-0.006283
1433	1.4248e+02	-17.0899	209.640465	0.017214	172.137448	58.321746	-0.006891
1434	1.4258e+02	-17.1284	202.864860	0.017011	170.112302	57.635608	-0.006810
1435	1.4268e+02	-17.1685	196.210247	0.016707	167.074582	56.606401	-0.006688
1436	1.4278e+02	-17.2054	189.515303	0.016809	168.087155	56.949470	-0.006729
1437	1.4288e+02	-17.2455	182.336388	0.018024	180.238034	61.066299	-0.007215
1438	1.4298e+02	-17.2824	175.439789	0.017315	173.150021	58.664815	-0.006931
1439	1.4308e+02	-17.3273	168.139881	0.018328	183.275754	62.095506	-0.007337
1440	1.4318e+02	-17.3658	160.960965	0.018024	180.238034	61.066299	-0.007215
1441	1.4328e+02	-17.4091	153.540064	0.018631	186.313473	63.124714	-0.007458
1442	1.4338e+02	-17.4428	146.361148	0.018024	180.238034	61.066299	-0.007215
1443	1.4348e+02	-17.4926	138.698261	0.019239	192.388913	65.183128	-0.007701
1444	1.4358e+02	-17.5262	131.358021	0.018429	184.288327	62.438575	-0.007377
1445	1.4368e+02	-17.5696	123.816127	0.018935	189.351193	64.153921	-0.007580
1446	1.4378e+02	-17.6000	115.628937	0.020555	205.552365	69.643026	-0.008228
1447	1.4388e+02	-17.6434	108.087043	0.018935	189.351193	64.153921	-0.007580
1448	1.4398e+02	-17.6738	100.061176	0.020150	201.502072	68.270750	-0.008066
1449	1.4408e+02	-17.7171	92.075641	0.020049	200.489499	67.927681	-0.008026
1450	1.4418e+02	-17.7589	84.090106	0.020049	200.489499	67.927681	-0.008026
1451	1.4428e+02	-17.8086	75.943247	0.020454	204.539791	69.299957	-0.008188
1452	1.4437e+02	-17.8423	67.796388	0.020454	204.539791	69.299957	-0.008188
1453	1.4447e+02	-17.8824	59.326880	0.021264	212.640377	72.044510	-0.008512
1454	1.4457e+02	-17.9193	51.180021	0.020454	204.539791	69.299957	-0.008188
1455	1.4467e+02	-17.9626	42.387866	0.022074	220.740963	74.789063	-0.008836
1456	1.4477e+02	-18.0075	33.716704	0.021770	217.703243	73.759856	-0.008715
1457	1.4487e+02	-18.0460	24.884218	0.022175	221.753536	75.132132	-0.008877
1458	1.4497e+02	-18.0797	16.011401	0.022277	222.766109	75.475201	-0.008917
1459	1.4507e+02	-18.1230	7.380570	0.021669	216.690670	73.416786	-0.008674
1460	1.4517e+02	-18.1567	-1.774563	0.022985	229.854122	77.876685	-0.009201
1461	1.4527e+02	-18.2129	-10.687711	0.022378	223.778683	75.818270	-0.008958
1462	1.4537e+02	-18.2369	-19.923507	0.023188	231.879269	78.562823	-0.009282
1463	1.4547e+02	-18.2883	-29.441620	0.023897	238.967281	80.964307	-0.009566
1464	1.4557e+02	-18.3203	-39.121056	0.024302	243.017574	82.336583	-0.009728
1465	1.4567e+02	-18.3588	-48.477845	0.023492	234.916988	79.592030	-0.009404
1466	1.4577e+02	-18.4086	-58.197613	0.024403	244.030147	82.679652	-0.009769
1467	1.4587e+02	-18.4391	-67.473740	0.023289	232.891842	78.905892	-0.009323
1468	1.4597e+02	-18.4808	-77.596817	0.025416	254.155879	86.110343	-0.010174
1469	1.4607e+02	-18.5177	-87.921550	0.025922	259.218746	87.825689	-0.010377
1470	1.4617e+02	-18.5642	-97.842972	0.024909	249.093013	84.394998	-0.009971
1471	1.4626e+02	-18.6011	-108.127374	0.025821	258.206172	87.482619	-0.010336
1472	1.4636e+02	-18.6396	-118.250451	0.025416	254.155879	86.110343	-0.010174
1473	1.4646e+02	-18.6877	-128.333198	0.025314	253.143306	85.767274	-0.010133
1474	1.4656e+02	-18.7182	-139.101571	0.027036	270.357051	91.599449	-0.010822
1475	1.4666e+02	-18.7567	-149.426303	0.025922	259.218746	87.825689	-0.010377
1476	1.4676e+02	-18.7872	-160.315669	0.027339	273.394771	92.628656	-0.010944
1477	1.4686e+02	-18.8337	-171.285698	0.027542	275.419917	93.314794	-0.011025
1478	1.4696e+02	-18.8866	-182.296057	0.027643	276.432490	93.657863	-0.011066
1479	1.4706e+02	-18.9219	-193.387078	0.027846	278.457637	94.344001	-0.011147
1480	1.4716e+02	-18.9604	-204.437768	0.027745	277.445064	94.000932	-0.011106
1481	1.4726e+02	-19.0021	-215.811106	0.028555	285.545649	96.745485	-0.011430
1482	1.4736e+02	-19.0358	-227.063451	0.028251	282.507930	95.716278	-0.011309
1483	1.4746e+02	-19.0727	-238.638444	0.029061	290.608516	98.460830	-0.011633
1484	1.4756e+02	-19.1176	-249.931120	0.028352	283.520503	96.059347	-0.011349
1485	1.4766e+02	-19.1577	-262.030416	0.030377	303.771967	102.920729	-0.012160
1486	1.4776e+02	-19.2043	-273.484416	0.028757	287.570796	97.431623	-0.011512
1487	1.4786e+02	-19.2348	-285.785367	0.030883	308.834834	104.636074	-0.012363
1488	1.4796e+02	-19.2797	-297.844332	0.030276	302.759394	102.577660	-0.012120
1489	1.4806e+02	-19.3182	-310.225944	0.031086	310.859980	105.322212	-0.012444
1490	1.4816e+02	-19.3535	-322.325240	0.030377	303.771967	102.920729	-0.012160
1491	1.4825e+02	-19.3888	-334.908508	0.031592	315.922846	107.037558	-0.012647
1492	1.4835e+02	-19.4305	-347.451445	0.031491	314.910273	106.694489	-0.012606
1493	1.4845e+02	-19.4866	-359.954050	0.031390	313.897700	106.351420	-0.012565
1494	1.4855e+02	-19.5123	-373.061621	0.032909	329.086298	111.497456	-0.013173
1495	1.4865e+02	-19.5540	-386.088529	0.032706	327.061152	110.811318	-0.013092
1496	1.4875e+02	-19.5877	-398.752459	0.031795	317.947993	107.723696	-0.012728
1497	1.4885e+02	-19.6342	-411.940691	0.033111	331.111445	112.183594	-0.013255
1498	1.4895e+02	-19.6791	-425.653226	0.034427	344.274896	116.643493	-0.013781
1499	1.4905e+02	-19.7160	-439.164107	0.033921	339.212030	114.928147	-0.013579
1500	1.4915e+02	-19.7577	-452.715318	0.034022	340.224604	115.271216	-0.013619
1501	1.4925e+02	-19.7962	-466.548846	0.034731	347.312616	117.672700	-0.013903
1502	1.4935e+02	-19.8347	-480.261382	0.034427	344.274896	116.643493	-0.013781
1503	1.4945e+02	-19.8636	-494.014248	0.034529	345.287470	116.986562	-0.013822
1504	1.4955e+02	-19.9101	-508.372079	0.036048	360.476068	122.132598	-0.014430
1505	1.4965e+02	-19.9534	-522.971896	0.036655	366.551507	124.191013	-0.014673
1506	1.4975e+02	-19.9968	-537.531382	0.036554	365.538934	123.847944	-0.014633
1507	1.4985e+02	-20.0321	-551.606896	0.035339	353.388056	119.731114	-0.014146
1508	1.4995e+02	-19.9968	-564.956452	-0.033516	-335.161737	-113.555871	-0.013417
1509	1.5005e+02	-19.9551	-577.257403	-0.030883	-308.834834	-104.636074	-0.012363
1510	1.5015e+02	-19.9214	-589.316368	-0.030276	-302.759394	-102.577660	-0.012120
1511	1.5025e+02	-19.8716	-600.568713	-0.028251	-282.507930	-95.716278	-0.011309
1512	1.5034e+02	-19.8412	-611.175762	-0.026631	-266.306758	-90.227172	-0.010660
1513	1.5044e+02	-19.7914	-621.782812	-0.026631	-266.306758	-90.227172	-0.010660
1514	1.5054e+02	-19.7465	-631.663903	-0.024808	-248.080440	-84.051928	-0.009931
1515	1.5064e+02	-19.7128	-641.101354	-0.023694	-236.942135	-80.278168	-0.009485
1516	1.5074e+02	-19.6727	-650.377481	-0.023289	-232.891842	-78.905892	-0.009323
1517	1.5084e+02	-19.6358	-659.088974	-0.021872	-218.715817	-74.102925	-0.008755
1518	1.5094e+02	-19.6005	-667.679474	-0.021568	-215.678097	-73.073717	-0.008634
1519	1.5104e+02	-19.5508	-675.423023	-0.019441	-194.414059	-65.869266	-0.007782
1520	1.5114e+02	-19.5251	-683.045579	-0.019138	-191.376340	-64.840059	-0.007661
1521	1.5124e+02	-19.4754	-690.829460	-0.019543	-195.426632	-66.212335	-0.007823
1522	1.5134e+02	-19.4321	-697.726058	-0.017315	-173.150021	-58.664815	-0.006931
1523	1.5144e+02	-19.3936	-704.300009	-0.016505	-165.049436	-55.920263	-0.006607
1524	1.5154e+02	-19.3599	-711.035284	-0.016910	-169.099729	-57.292539	-0.006769
1525	1.5164e+02	-19.3166	-717.367248	-0.015897	-158.973996	-53.861848	-0.006364
1526	1.5174e+02	-19.2716	-723.094248	-0.014379	-143.785398	-48.715812	-0.005756
1527	1.5184e+02	-19.2380	-728.821248	-0.014379	-143.785398	-48.715812	-0.005756
1528	1.5194e+02	-19.1979	-734.427255	-0.014075	-140.747678	-47.686604	-0.005634
1529	1.5204e+02	-19.1513	-739.750946	-0.013366	-133.659666	-45.285121	-0.005350
1530	1.5214e+02	-19.1064	-744.751988	-0.012556	-125.559080	-42.540568	-0.005026
1531	1.5224e+02	-19.0695	-750.116009	-0.013467	-134.672239	-45.628190	-0.005391
1532	1.5233e+02	-19.0390	-754.794403	-0.011746	-117.458494	-39.796015	-0.004702
1533	1.5243e+02	-18.9941	-759.432467	-0.011645	-116.445921	-39.452946	-0.004661
1534	1.5253e+02	-18.9604	-763.586558	-0.010430	-104.295042	-35.336117	-0.004175
1535	1.5263e+02	-18.9203	-767.861643	-0.010733	-107.332762	-36.365324	-0.004297
1536	1.5273e+02	-18.8786	-771.854411	-0.010024	-100.244749	-33.963840	-0.004013
1537	1.5283e+02	-18.8369	-775.242213	-0.008506	-85.056151	-28.817804	-0.003405
1538	1.5293e+02	-18.8016	-779.113988	-0.009721	-97.207030	-32.934633	-0.003891
1539	1.5303e+02	-18.7615	-782.703446	-0.009012	-90.119017	-30.533150	-0.003607
1540	1.5313e+02	-18.7166	-786.292904	-0.009012	-90.119017	-30.533150	-0.003607
1541	1.5323e+02	-18.6813	-789.801699	-0.008809	-88.093871	-29.847011	-0.003526
1542	1.5333e+02	-18.6460	-792.826523	-0.007594	-75.942992	-25.730182	-0.003040
1543	1.5343e+02	-18.6011	-795.488368	-0.006683	-66.829833	-22.642560	-0.002675
1544	1.5353e+02	-18.5546	-798.513192	-0.007594	-75.942992	-25.730182	-0.003040
1545	1.5363e+02	-18.5241	-801.376692	-0.007189	-71.892699	-24.357906	-0.002878
1546	1.5373e+02	-18.4759	-804.199861	-0.007088	-70.880126	-24.014837	-0.002837
1547	1.5383e+02	-18.4358	-806.740713	-0.006379	-63.792113	-21.613353	-0.002554
1548	1.5393e+02	-18.4118	-809.079911	-0.005873	-58.729247	-19.898008	-0.002351
1549	1.5403e+02	-18.3620	-811.136791	-0.005164	-51.641234	-17.496524	-0.002067
1550	1.5413e+02	-18.3219	-813.959960	-0.007088	-70.880126	-24.014837	-0.002837
1551	1.5422e+02	-18.2786	-815.694192	-0.004354	-43.540649	-14.751971	-0.001743
1552	1.5432e+02	-18.2514	-817.872066	-0.005468	-54.678954	-18.525731	-0.002189
1553	1.5442e+02	-18.2032	-819.888615	-0.005063	-50.628661	-17.153455	-0.002027
1554	1.5452e+02	-18.1631	-821.784171	-0.004759	-47.590942	-16.124247	-0.001905
1555	1.5462e+02	-18.1230	-823.720059	-0.004860	-48.603515	-16.467317	-0.001946
1556	1.5472e+02	-18.0877	-825.252636	-0.003848	-38.477783	-13.036626	-0.001540
1557	1.5482e+02	-18.0492	-826.986868	-0.004354	-43.540649	-14.751971	-0.001743
1558	1.5492e+02	-17.9915	-828.721101	-0.004354	-43.540649	-14.751971	-0.001743
1559	1.5502e+02	-17.9610	-830.011692	-0.003240	-32.402343	-10.978211	-0.001297
1560	1.5512e+02	-17.9241	-831.544270	-0.003848	-38.477783	-13.036626	-0.001540
1561	1.5522e+02	-17.8840	-832.915523	-0.003443	-34.427490	-11.664349	-0.001378
1562	1.5532e+02	-17.8407	-834.246446	-0.003341	-33.414916	-11.321280	-0.001338
1563	1.5542e+02	-17.8070	-835.779023	-0.003848	-38.477783	-13.036626	-0.001540
1564	1.5552e+02	-17.7637	-836.827629	-0.002633	-26.326904	-8.919796	-0.001054
1565	1.5562e+02	-17.7252	-837.876235	-0.002633	-26.326904	-8.919796	-0.001054
1566	1.5572e+02	-17.6835	-839.005502	-0.002835	-28.352050	-9.605935	-0.001135
1567	1.5582e+02	-17.6385	-840.013777	-0.002531	-25.314331	-8.576727	-0.001013
1568	1.5592e+02	-17.6081	-840.820397	-0.002025	-20.251464	-6.861382	-0.000811
1569	1.5602e+02	-17.5728	-841.304368	-0.001215	-12.150879	-4.116829	-0.000486
1570	1.5612e+02	-17.5295	-842.675622	-0.003443	-34.427490	-11.664349	-0.001378
1571	1.5622e+02	-17.4877	-844.006545	-0.003341	-33.414916	-11.321280	-0.001338
1572	1.5631e+02	-17.4380	-844.530847	-0.001316	-13.163452	-4.459898	-0.000527
1573	1.5641e+02	-17.4091	-845.297136	-0.001924	-19.238891	-6.518313	-0.000770
1574	1.5651e+02	-17.3578	-846.063425	-0.001924	-19.238891	-6.518313	-0.000770
1575	1.5661e+02	-17.3353	-846.910375	-0.002126	-21.264038	-7.204451	-0.000851
1576	1.5671e+02	-17.2824	-847.313685	-0.001013	-10.125732	-3.430691	-0.000405
1577	1.5681e+02	-17.2487	-848.160636	-0.002126	-21.264038	-7.204451	-0.000851
1578	1.5691e+02	-17.2086	-848.926925	-0.001924	-19.238891	-6.518313	-0.000770
1579	1.5701e+02	-17.1813	-849.249573	-0.000810	-8.100586	-2.744553	-0.000324
1580	1.5711e+02	-17.1300	-849.854537	-0.001519	-15.188598	-5.146036	-0.000608
1581	1.5721e+02	-17.0883	-850.136854	-0.000709	-7.088013	-2.401484	-0.000284
1582	1.5731e+02	-17.0498	-850.499833	-0.000911	-9.113159	-3.087622	-0.000365
1583	1.5741e+02	-17.0081	-851.427446	-0.002329	-23.289184	-7.890589	-0.000932
1584	1.5751e+02	-16.9583	-851.588770	-0.000405	-4.050293	-1.372276	-0.000162
1585	1.5761e+02	-16.9214	-852.153404	-0.001418	-14.176025	-4.802967	-0.000567
1586	1.5771e+02	-16.8765	-852.234066	-0.000203	-2.025146	-0.686138	-0.000081
1587	1.5781e+02	-16.8460	-852.758368	-0.001316	-13.163452	-4.459898	-0.000527
1588	1.5791e+02	-16.8092	-853.282671	-0.001316	-13.163452	-4.459898	-0.000527
1589	1.5801e+02	-16.7642	-853.121347	0.000405	4.050293	1.372276	0.000162
1590	1.5811e+02	-16.7321	-853.685981	-0.001418	-14.176025	-4.802967	-0.000567
1591	1.5821e+02	-16.6872	-854.129622	-0.001114	-11.138305	-3.773760	-0.000446
1592	1.5830e+02	-16.6487	-854.452270	-0.000810	-8.100586	-2.744553	-0.000324
1593	1.5840e+02	-16.6086	-854.089291	0.000911	9.113159	3.087622	0.000365
1594	1.5850e+02	-16.5637	-854.815249	-0.001823	-18.226318	-6.175244	-0.000730
1595	1.5860e+02	-16.5188	-855.420214	-0.001519	-15.188598	-5.146036	-0.000608
1596	1.5870e+02	-16.4899	-854.895911	0.001316	13.163452	4.459898	0.000527
1597	1.5880e+02	-16.4450	-855.057235	-0.000405	-4.050293	-1.372276	-0.000162
1598	1.5890e+02	-16.4049	-855.500876	-0.001114	-11.138305	-3.773760	-0.000446
1599	1.5900e+02	-16.3696	-855.218559	0.000709	7.088013	2.401484	0.000284
1600	1.5910e+02	-16.3263	-855.339552	-0.000304	-3.037720	-1.029207	-0.000122
1601	1.5920e+02	-16.2942	-855.621868	-0.000709	-7.088013	-2.401484	-0.000284
1602	1.5930e+02	-16.2509	-855.904185	-0.000709	-7.088013	-2.401484	-0.000284
1603	1.5940e+02	-16.2044	-856.186502	-0.000709	-7.088013	-2.401484	-0.000284
1604	1.5950e+02	-16.1787	-855.904185	0.000709	7.088013	2.401484	0.000284
1605	1.5960e+02	-16.1354	-856.186502	-0.000709	-7.088013	-2.401484	-0.000284
1606	1.5970e+02	-16.0937	-856.226833	-0.000101	-1.012573	-0.343069	-0.000041
1607	1.5980e+02	-16.0503	-856.226833	0.000000	0.000000	0.000000	0.000000
1608	1.5990e+02	-16.0086	-855.944516	0.000709	7.088013	2.401484	0.000284
1609	1.6000e+02	-15.9685	-856.347826	-0.001013	-10.125732	-3.430691	-0.000405
1610	1.6010e+02	-15.9236	-856.105840	0.000608	6.075439	2.058415	0.000243
1611	1.6019e+02	-15.8883	-856.226833	-0.000304	-3.037720	-1.029207	-0.000122
1612	1.6029e+02	-15.8418	-856.065509	0.000405	4.050293	1.372276	0.000162
1613	1.6039e+02	-15.8145	-856.307495	-0.000608	-6.075439	-2.058415	-0.000243
1614	1.6049e+02	-15.7728	-856.388157	-0.000203	-2.025146	-0.686138	-0.000081
1615	1.6059e+02	-15.7343	-856.146171	0.000608	6.075439	2.058415	0.000243
1616	1.6069e+02	-15.6990	-856.105840	0.000101	1.012573	0.343069	0.000041
1617	1.6079e+02	-15.6589	-856.388157	-0.000709	-7.088013	-2.401484	-0.000284
1618	1.6089e+02	-15.6172	-855.904185	0.001215	12.150879	4.116829	0.000486
1619	1.6099e+02	-15.5675	-856.186502	-0.000709	-7.088013	-2.401484	-0.000284
1620	1.6109e+02	-15.5258	-855.863854	0.000810	8.100586	2.744553	0.000324
1621	1.6119e+02	-15.4985	-855.702530	0.000405	4.050293	1.372276	0.000162
1622	1.6129e+02	-15.4600	-855.783192	-0.000203	-2.025146	-0.686138	-0.000081
1623	1.6139e+02	-15.4071	-855.500876	0.000709	7.088013	2.401484	0.000284
1624	1.6149e+02	-15.3766	-855.702530	-0.000506	-5.062866	-1.715345	-0.000203
1625	1.6159e+02	-15.3333	-855.500876	0.000506	5.062866	1.715345	0.000203
1626	1.6169e+02	-15.2899	-855.460545	0.000101	1.012573	0.343069	0.000041
1627	1.6179e+02	-15.2530	-855.420214	0.000101	1.012573	0.343069	0.000041
1628	1.6189e+02	-15.2065	-855.339552	0.000203	2.025146	0.686138	0.000081
1629	1.6199e+02	-15.1712	-855.258890	0.000203	2.025146	0.686138	0.000081
1630	1.6209e+02	-15.1391	-854.895911	0.000911	9.113159	3.087622	0.000365
1631	1.6219e+02	-15.0942	-854.492601	0.001013	10.125732	3.430691	0.000405
1632	1.6228e+02	-15.0493	-854.653925	-0.000405	-4.050293	-1.372276	-0.000162
1633	1.6238e+02	-15.0108	-854.452270	0.000506	5.062866	1.715345	0.000203
1634	1.6248e+02	-14.9739	-854.613594	-0.000405	-4.050293	-1.372276	-0.000162
1635	1.6258e+02	-14.9306	-854.411939	0.000506	5.062866	1.715345	0.000203
1636	1.6268e+02	-14.9017	-854.089291	0.000810	8.100586	2.744553	0.000324
1637	1.6278e+02	-14.8568	-854.290946	-0.000506	-5.062866	-1.715345	-0.000203
1638	1.6288e+02	-14.8119	-854.210284	0.000203	2.025146	0.686138	0.000081
1639	1.6298e+02	-14.7718	-854.169953	0.000101	1.012573	0.343069	0.000041
1640	1.6308e+02	-14.7365	-853.726312	0.001114	11.138305	3.773760	0.000446
1641	1.6318e+02	-14.6868	-853.645650	0.000203	2.025146	0.686138	0.000081
1642	1.6328e+02	-14.6547	-853.484326	0.000405	4.050293	1.372276	0.000162
1643	1.6338e+02	-14.6226	-853.564988	-0.000203	-2.025146	-0.686138	-0.000081
1644	1.6348e+02	-14.5648	-853.726312	-0.000405	-4.050293	-1.372276	-0.000162
1645	1.6358e+02	-14.5295	-853.202009	0.001316	13.163452	4.459898	0.000527
1646	1.6368e+02	-14.4942	-853.282671	-0.000203	-2.025146	-0.686138	-0.000081
1647	1.6378e+02	-14.4573	-852.556714	0.001823	18.226318	6.175244	0.000730
1648	1.6388e+02	-14.4156	-852.879361	-0.000810	-8.100586	-2.744553	-0.000324
1649	1.6398e+02	-14.3852	-852.556714	0.000810	8.100586	2.744553	0.000324
1650	1.6408e+02	-14.3418	-852.395390	0.000405	4.050293	1.372276	0.000162
1651	1.6418e+02	-14.3001	-852.314728	0.000203	2.025146	0.686138	0.000081
1652	1.6427e+02	-14.2584	-852.435721	-0.000304	-3.037720	-1.029207	-0.000122
1653	1.6437e+02	-14.2135	-852.193735	0.000608	6.075439	2.058415	0.000243
1654	1.6447e+02	-14.1718	-852.032411	0.000405	4.050293	1.372276	0.000162
1655	1.6457e+02	-14.1381	-852.153404	-0.000304	-3.037720	-1.029207	-0.000122
1656	1.6467e+02	-14.0964	-851.830756	0.000810	8.100586	2.744553	0.000324
1657	1.6477e+02	-14.0643	-851.306453	0.001316	13.163452	4.459898	0.000527
1658	1.6487e+02	-14.0178	-851.306453	0.000000	0.000000	0.000000	0.000000
1659	1.6497e+02	-13.9809	-851.104798	0.000506	5.062866	1.715345	0.000203
1660	1.6507e+02	-13.9456	-851.104798	0.000000	0.000000	0.000000	0.000000
1661	1.6517e+02	-13.8975	-851.024136	0.000203	2.025146	0.686138	0.000081
1662	1.6527e+02	-13.8558	-850.943474	0.000203	2.025146	0.686138	0.000081
1663	1.6537e+02	-13.8237	-850.983805	-0.000101	-1.012573	-0.343069	-0.000041
1664	1.6547e+02	-13.7739	-850.177185	0.002025	20.251464	6.861382	0.000811
1665	1.6557e+02	-13.7435	-850.298178	-0.000304	-3.037720	-1.029207	-0.000122
1666	1.6567e+02	-13.7082	-850.378840	-0.000203	-2.025146	-0.686138	-0.000081
1667	1.6577e+02	-13.6568	-850.257847	0.000304	3.037720	1.029207	0.000122
1668	1.6587e+02	-13.6167	-849.693214	0.001418	14.176025	4.802967	0.000567
1669	1.6597e+02	-13.5734	-849.491559	0.000506	5.062866	1.715345	0.000203
1670	1.6607e+02	-13.5445	-849.733545	-0.000608	-6.075439	-2.058415	-0.000243
1671	1.6616e+02	-13.5092	-849.370566	0.000911	9.113159	3.087622	0.000365
1672	1.6626e+02	-13.4579	-849.249573	0.000304	3.037720	1.029207	0.000122
1673	1.6636e+02	-13.4162	-849.007587	0.000608	6.075439	2.058415	0.000243
1674	1.6646e+02	-13.3873	-848.967256	0.000101	1.012573	0.343069	0.000041
1675	1.6656e+02	-13.3376	-848.442953	0.001316	13.163452	4.459898	0.000527
1676	1.6666e+02	-13.2975	-848.362291	0.000203	2.025146	0.686138	0.000081
1677	1.6676e+02	-13.2638	-848.563946	-0.000506	-5.062866	-1.715345	-0.000203
1678	1.6686e+02	-13.2125	-848.362291	0.000506	5.062866	1.715345	0.000203
1679	1.6696e+02	-13.1820	-848.079974	0.000709	7.088013	2.401484	0.000284
1680	1.6706e+02	-13.1322	-847.716995	0.000911	9.113159	3.087622	0.000365
1681	1.6716e+02	-13.1034	-847.797657	-0.000203	-2.025146	-0.686138	-0.000081
1682	1.6726e+02	-13.0601	-847.596002	0.000506	5.062866	1.715345	0.000203
1683	1.6736e+02	-13.0200	-847.555671	0.000101	1.012573	0.343069	0.000041
1684	1.6746e+02	-12.9831	-847.394347	0.000405	4.050293	1.372276	0.000162
1685	1.6756e+02	-12.9381	-847.112030	0.000709	7.088013	2.401484	0.000284
1686	1.6766e+02	-12.8996	-846.829714	0.000709	7.088013	2.401484	0.000284
1687	1.6776e+02	-12.8595	-847.031368	-0.000506	-5.062866	-1.715345	-0.000203
1688	1.6786e+02	-12.8226	-846.547397	0.001215	12.150879	4.116829	0.000486
1689	1.6796e+02	-12.7793	-846.668390	-0.000304	-3.037720	-1.029207	-0.000122
1690	1.6806e+02	-12.7440	-846.345742	0.000810	8.100586	2.744553	0.000324
1691	1.6816e+02	-12.7023	-845.902101	0.001114	11.138305	3.773760	0.000446
1692	1.6825e+02	-12.6654	-845.942432	-0.000101	-1.012573	-0.343069	-0.000041
1693	1.6835e+02	-12.6253	-845.660115	0.000709	7.088013	2.401484	0.000284
1694	1.6845e+02	-12.5868	-845.337467	0.000810	8.100586	2.744553	0.000324
1695	1.6855e+02	-12.5499	-845.418129	-0.000203	-2.025146	-0.686138	-0.000081
1696	1.6865e+02	-12.5034	-845.256805	0.000405	4.050293	1.372276	0.000162
1697	1.6875e+02	-12.4681	-844.974488	0.000709	7.088013	2.401484	0.000284
1698	1.6885e+02	-12.4168	-844.772833	0.000506	5.062866	1.715345	0.000203
1699	1.6895e+02	-12.3911	-844.813164	-0.000101	-1.012573	-0.343069	-0.000041
1700	1.6905e+02	-12.3317	-844.571178	0.000608	6.075439	2.058415	0.000243
1701	1.6915e+02	-12.3077	-844.490516	0.000203	2.025146	0.686138	0.000081
1702	1.6925e+02	-12.2644	-843.925883	0.001418	14.176025	4.802967	0.000567
1703	1.6935e+02	-12.2259	-843.885552	0.000101	1.012573	0.343069	0.000041
1704	1.6945e+02	-12.1841	-843.925883	-0.000101	-1.012573	-0.343069	-0.000041
1705	1.6955e+02	-12.1473	-843.764559	0.000405	4.050293	1.372276	0.000162
1706	1.6965e+02	-12.1104	-843.320918	0.001114	11.138305	3.773760	0.000446
1707	1.6975e+02	-12.0670	-842.917608	0.001013	10.125732	3.430691	0.000405
1708	1.6985e+02	-12.0253	-843.199925	-0.000709	-7.088013	-2.401484	-0.000284
1709	1.6995e+02	-11.9900	-843.159594	0.000101	1.012573	0.343069	0.000041
1710	1.7005e+02	-11.9499	-842.635291	0.001316	13.163452	4.459898	0.000527
1711	1.7015e+02	-11.9034	-842.352974	0.000709	7.088013	2.401484	0.000284
1712	1.7024e+02	-11.8617	-842.231981	0.000304	3.037720	1.029207	0.000122
1713	1.7034e+02	-11.8264	-842.312643	-0.000203	-2.025146	-0.686138	-0.000081
1714	1.7044e+02	-11.7863	-842.352974	-0.000101	-1.012573	-0.343069	-0.000041
1715	1.7054e+02	-11.7462	-842.151319	0.000506	5.062866	1.715345	0.000203
1716	1.7064e+02	-11.7013	-841.667347	0.001215	12.150879	4.116829	0.000486
1717	1.7074e+02	-11.6724	-841.143044	0.001316	13.163452	4.459898	0.000527
1718	1.7084e+02	-11.6323	-841.304368	-0.000405	-4.050293	-1.372276	-0.000162
1719	1.7094e+02	-11.5954	-841.344699	-0.000101	-1.012573	-0.343069	-0.000041
1720	1.7104e+02	-11.5489	-840.618742	0.001823	18.226318	6.175244	0.000730
1721	1.7114e+02	-11.5072	-840.618742	0.000000	0.000000	0.000000	0.000000
1722	1.7124e+02	-11.4574	-840.981721	-0.000911	-9.113159	-3.087622	-0.000365
1723	1.7134e+02	-11.4318	-840.054108	0.002329	23.289184	7.890589	0.000932
1724	1.7144e+02	-11.3901	-839.973446	0.000203	2.025146	0.686138	0.000081
1725	1.7154e+02	-11.3548	-840.215432	-0.000608	-6.075439	-2.058415	-0.000243
1726	1.7164e+02	-11.3050	-839.610467	0.001519	15.188598	5.146036	0.000608
1727	1.7174e+02	-11.2729	-839.731460	-0.000304	-3.037720	-1.029207	-0.000122
1728	1.7184e+02	-11.2264	-839.933115	-0.000506	-5.062866	-1.715345	-0.000203
1729	1.7194e+02	-11.1879	-838.884509	0.002633	26.326904	8.919796	0.001054
1730	1.7204e+02	-11.1510	-839.045833	-0.000405	-4.050293	-1.372276	-0.000162
1731	1.7213e+02	-11.1125	-838.561861	0.001215	12.150879	4.116829	0.000486
1732	1.7223e+02	-11.0724	-838.723185	-0.000405	-4.050293	-1.372276	-0.000162
1733	1.7233e+02	-11.0371	-838.440868	0.000709	7.088013	2.401484	0.000284
1734	1.7243e+02	-10.9890	-837.997228	0.001114	11.138305	3.773760	0.000446
1735	1.7253e+02	-10.9537	-837.916566	0.000203	2.025146	0.686138	0.000081
1736	1.7263e+02	-10.9104	-837.835904	0.000203	2.025146	0.686138	0.000081
1737	1.7273e+02	-10.8655	-837.593918	0.000608	6.075439	2.058415	0.000243
1738	1.7283e+02	-10.8286	-837.553587	0.000101	1.012573	0.343069	0.000041
1739	1.7293e+02	-10.7901	-837.674580	-0.000304	-3.037720	-1.029207	-0.000122
1740	1.7303e+02	-10.7628	-837.351932	0.000810	8.100586	2.744553	0.000324
1741	1.7313e+02	-10.7147	-836.666305	0.001721	17.213745	5.832175	0.000689
1742	1.7323e+02	-10.6794	-837.029284	-0.000911	-9.113159	-3.087622	-0.000365
1743	1.7333e+02	-10.6264	-836.625974	0.001013	10.125732	3.430691	0.000405
1744	1.7343e+02	-10.5879	-836.746967	-0.000304	-3.037720	-1.029207	-0.000122
1745	1.7353e+02	-10.5510	-836.142002	0.001519	15.188598	5.146036	0.000608
1746	1.7363e+02	-10.5141	-836.142002	0.000000	0.000000	0.000000	0.000000
1747	1.7373e+02	-10.4708	-835.658030	0.001215	12.150879	4.116829	0.000486
1748	1.7383e+02	-10.4291	-835.537037	0.000304	3.037720	1.029207	0.000122
1749	1.7393e+02	-10.3986	-835.698361	-0.000405	-4.050293	-1.372276	-0.000162
1750	1.7403e+02	-10.3521	-835.174059	0.001316	13.163452	4.459898	0.000527
1751	1.7413e+02	-10.3232	-835.214390	-0.000101	-1.012573	-0.343069	-0.000041
1752	1.7422e+02	-10.2671	-834.851411	0.000911	9.113159	3.087622	0.000365
1753	1.7432e+02	-10.2366	-834.851411	0.000000	0.000000	0.000000	0.000000
1754	1.7442e+02	-10.1885	-834.407770	0.001114	11.138305	3.773760	0.000446
1755	1.7452e+02	-10.1612	-834.528763	-0.000304	-3.037720	-1.029207	-0.000122
1756	1.7462e+02	-10.1211	-834.528763	0.000000	0.000000	0.000000	0.000000
1757	1.7472e+02	-10.0746	-833.762474	0.001924	19.238891	6.518313	0.000770
1758	1.7482e+02	-10.0313	-833.923798	-0.000405	-4.050293	-1.372276	-0.000162
1759	1.7492e+02	-10.0008	-833.197840	0.001823	18.226318	6.175244	0.000730
1760	1.7502e+02	-9.9543	-833.399495	-0.000506	-5.062866	-1.715345	-0.000203
1761	1.7512e+02	-9.9190	-833.036516	0.000911	9.113159	3.087622	0.000365
1762	1.7522e+02	-9.8708	-833.359164	-0.000810	-8.100586	-2.744553	-0.000324
1763	1.7532e+02	-9.8307	-832.915523	0.001114	11.138305	3.773760	0.000446
1764	1.7542e+02	-9.7858	-832.149235	0.001924	19.238891	6.518313	0.000770
1765	1.7552e+02	-9.7505	-832.391221	-0.000608	-6.075439	-2.058415	-0.000243
1766	1.7562e+02	-9.7120	-832.310559	0.000203	2.025146	0.686138	0.000081
1767	1.7572e+02	-9.6687	-832.391221	-0.000203	-2.025146	-0.686138	-0.000081
1768	1.7582e+02	-9.6366	-831.705594	0.001721	17.213745	5.832175	0.000689
1769	1.7592e+02	-9.5965	-831.665263	0.000101	1.012573	0.343069	0.000041
1770	1.7602e+02	-9.5709	-831.261953	0.001013	10.125732	3.430691	0.000405
1771	1.7612e+02	-9.5163	-830.898974	0.000911	9.113159	3.087622	0.000365
1772	1.7621e+02	-9.4730	-830.777981	0.000304	3.037720	1.029207	0.000122
1773	1.7631e+02	-9.4393	-830.777981	0.000000	0.000000	0.000000	0.000000
1774	1.7641e+02	-9.3944	-830.616657	0.000405	4.050293	1.372276	0.000162
1775	1.7651e+02	-9.3575	-830.294009	0.000810	8.100586	2.744553	0.000324
1776	1.7661e+02	-9.3190	-830.616657	-0.000810	-8.100586	-2.744553	-0.000324
1777	1.7671e+02	-9.2805	-829.689044	0.002329	23.289184	7.890589	0.000932
1778	1.7681e+02	-9.2275	-829.648713	0.000101	1.012573	0.343069	0.000041
1779	1.7691e+02	-9.1971	-829.568052	0.000203	2.025146	0.686138	0.000081
1780	1.7701e+02	-9.1505	-829.084080	0.001215	12.150879	4.116829	0.000486
1781	1.7711e+02	-9.1217	-828.761432	0.000810	8.100586	2.744553	0.000324
1782	1.7721e+02	-9.0655	-828.963087	-0.000506	-5.062866	-1.715345	-0.000203
1783	1.7731e+02	-9.0254	-828.801763	0.000405	4.050293	1.372276	0.000162
1784	1.7741e+02	-8.9965	-828.680770	0.000304	3.037720	1.029207	0.000122
1785	1.7751e+02	-8.9628	-827.995143	0.001721	17.213745	5.832175	0.000689
1786	1.7761e+02	-8.9083	-828.116136	-0.000304	-3.037720	-1.029207	-0.000122
1787	1.7771e+02	-8.8826	-828.116136	0.000000	0.000000	0.000000	0.000000
1788	1.7781e+02	-8.8361	-827.753157	0.000911	9.113159	3.087622	0.000365
1789	1.7791e+02	-8.7880	-827.672495	0.000203	2.025146	0.686138	0.000081
1790	1.7801e+02	-8.7591	-827.269185	0.001013	10.125732	3.430691	0.000405
1791	1.7810e+02	-8.7174	-826.785213	0.001215	12.150879	4.116829	0.000486
1792	1.7820e+02	-8.6821	-826.704551	0.000203	2.025146	0.686138	0.000081
1793	1.7830e+02	-8.6372	-826.260911	0.001114	11.138305	3.773760	0.000446
1794	1.7840e+02	-8.6003	-826.381904	-0.000304	-3.037720	-1.029207	-0.000122
1795	1.7850e+02	-8.5586	-826.301242	0.000203	2.025146	0.686138	0.000081
1796	1.7860e+02	-8.5153	-825.938263	0.000911	9.113159	3.087622	0.000365
1797	1.7870e+02	-8.4752	-825.413960	0.001316	13.163452	4.459898	0.000527
1798	1.7880e+02	-8.4479	-825.010650	0.001013	10.125732	3.430691	0.000405
1799	1.7890e+02	-8.4014	-824.929988	0.000203	2.025146	0.686138	0.000081
1800	1.7900e+02	-8.3629	-824.567009	0.000911	9.113159	3.087622	0.000365
1801	1.7910e+02	-8.3196	-824.526678	0.000101	1.012573	0.343069	0.000041
1802	1.7920e+02	-8.2746	-824.365354	0.000405	4.050293	1.372276	0.000162
1803	1.7930e+02	-8.2345	-824.526678	-0.000405	-4.050293	-1.372276	-0.000162
1804	1.7940e+02	-8.2040	-824.002375	0.001316	13.163452	4.459898	0.000527
1805	1.7950e+02	-8.1575	-823.679728	0.000810	8.100586	2.744553	0.000324
1806	1.7960e+02	-8.1222	-823.518404	0.000405	4.050293	1.372276	0.000162
1807	1.7970e+02	-8.0853	-823.074763	0.001114	11.138305	3.773760	0.000446
1808	1.7980e+02	-8.0436	-822.953770	0.000304	3.037720	1.029207	0.000122
1809	1.7990e+02	-8.0051	-822.752115	0.000506	5.062866	1.715345	0.000203
1810	1.8000e+02	-7.9570	-822.873108	-0.000304	-3.037720	-1.029207	-0.000122
1811	1.8009e+02	-7.9201	-822.308474	0.001418	14.176025	4.802967	0.000567
1812	1.8019e+02	-7.8800	-822.429467	-0.000304	-3.037720	-1.029207	-0.000122
1813	1.8029e+02	-7.8463	-822.389136	0.000101	1.012573	0.343069	0.000041
1814	1.8039e+02	-7.8014	-821.582516	0.002025	20.251464	6.861382	0.000811
1815	1.8049e+02	-7.7629	-821.945495	-0.000911	-9.113159	-3.087622	-0.000365
1816	1.8059e+02	-7.7196	-821.824502	0.000304	3.037720	1.029207	0.000122
1817	1.8069e+02	-7.6827	-821.380861	0.001114	11.138305	3.773760	0.000446
1818	1.8079e+02	-7.6458	-821.421192	-0.000101	-1.012573	-0.343069	-0.000041
1819	1.8089e+02	-7.6025	-821.017882	0.001013	10.125732	3.430691	0.000405
1820	1.8099e+02	-7.5607	-820.614573	0.001013	10.125732	3.430691	0.000405
1821	1.8109e+02	-7.5239	-820.493580	0.000304	3.037720	1.029207	0.000122
1822	1.8119e+02	-7.4789	-820.090270	0.001013	10.125732	3.430691	0.000405
1823	1.8129e+02	-7.4468	-819.928946	0.000405	4.050293	1.372276	0.000162
1824	1.8139e+02	-7.4003	-819.727291	0.000506	5.062866	1.715345	0.000203
1825	1.8149e+02	-7.3650	-819.162657	0.001418	14.176025	4.802967	0.000567
1826	1.8159e+02	-7.3297	-819.081995	0.000203	2.025146	0.686138	0.000081
1827	1.8169e+02	-7.2816	-819.081995	0.000000	0.000000	0.000000	0.000000
1828	1.8179e+02	-7.2415	-818.557692	0.001316	13.163452	4.459898	0.000527
1829	1.8189e+02	-7.2062	-818.315706	0.000608	6.075439	2.058415	0.000243
1830	1.8199e+02	-7.1645	-818.315706	0.000000	0.000000	0.000000	0.000000
1831	1.8209e+02	-7.1276	-817.912397	0.001013	10.125732	3.430691	0.000405
1832	1.8218e+02	-7.0811	-817.912397	0.000000	0.000000	0.000000	0.000000
1833	1.8228e+02	-7.0474	-817.307432	0.001519	15.188598	5.146036	0.000608
1834	1.8238e+02	-7.0089	-817.589749	-0.000709	-7.088013	-2.401484	-0.000284
1835	1.8248e+02	-6.9624	-816.823460	0.001924	19.238891	6.518313	0.000770
1836	1.8258e+02	-6.9223	-816.500812	0.000810	8.100586	2.744553	0.000324
1837	1.8268e+02	-6.8806	-816.460481	0.000101	1.012573	0.343069	0.000041
1838	1.8278e+02	-6.8437	-816.742798	-0.000709	-7.088013	-2.401484	-0.000284
1839	1.8288e+02	-6.7971	-815.936178	0.002025	20.251464	6.861382	0.000811
1840	1.8298e+02	-6.7586	-815.653861	0.000709	7.088013	2.401484	0.000284
1841	1.8308e+02	-6.7282	-815.734523	-0.000203	-2.025146	-0.686138	-0.000081
1842	1.8318e+02	-6.6897	-815.048897	0.001721	17.213745	5.832175	0.000689
1843	1.8328e+02	-6.6511	-814.968235	0.000203	2.025146	0.686138	0.000081
1844	1.8338e+02	-6.6078	-814.766580	0.000506	5.062866	1.715345	0.000203
1845	1.8348e+02	-6.5565	-814.242277	0.001316	13.163452	4.459898	0.000527
1846	1.8358e+02	-6.5228	-814.161615	0.000203	2.025146	0.686138	0.000081
1847	1.8368e+02	-6.4811	-814.121284	0.000101	1.012573	0.343069	0.000041
1848	1.8378e+02	-6.4490	-813.838967	0.000709	7.088013	2.401484	0.000284
1849	1.8388e+02	-6.4137	-813.596981	0.000608	6.075439	2.058415	0.000243
1850	1.8398e+02	-6.3865	-813.516319	0.000203	2.025146	0.686138	0.000081
1851	1.8407e+02	-6.3319	-813.475988	0.000101	1.012573	0.343069	0.000041
1852	1.8417e+02	-6.2982	-813.032347	0.001114	11.138305	3.773760	0.000446
1853	1.8427e+02	-6.2517	-812.669368	0.000911	9.113159	3.087622	0.000365
1854	1.8437e+02	-6.2052	-812.346720	0.000810	8.100586	2.744553	0.000324
1855	1.8447e+02	-6.1667	-811.741756	0.001519	15.188598	5.146036	0.000608
1856	1.8457e+02	-6.1234	-811.903080	-0.000405	-4.050293	-1.372276	-0.000162
1857	1.8467e+02	-6.0961	-811.620763	0.000709	7.088013	2.401484	0.000284
1858	1.8477e+02	-6.0544	-811.338446	0.000709	7.088013	2.401484	0.000284
1859	1.8487e+02	-6.0143	-811.136791	0.000506	5.062866	1.715345	0.000203
1860	1.8497e+02	-5.9629	-810.773812	0.000911	9.113159	3.087622	0.000365
1861	1.8507e+02	-5.9389	-810.733481	0.000101	1.012573	0.343069	0.000041
1862	1.8517e+02	-5.8956	-810.007523	0.001823	18.226318	6.175244	0.000730
1863	1.8527e+02	-5.8522	-810.088185	-0.000203	-2.025146	-0.686138	-0.000081
1864	1.8537e+02	-5.8186	-809.846199	0.000608	6.075439	2.058415	0.000243
1865	1.8547e+02	-5.7784	-809.644544	0.000506	5.062866	1.715345	0.000203
1866	1.8557e+02	-5.7383	-809.160573	0.001215	12.150879	4.116829	0.000486
1867	1.8567e+02	-5.6934	-809.039580	0.000304	3.037720	1.029207	0.000122
1868	1.8577e+02	-5.6501	-808.716932	0.000810	8.100586	2.744553	0.000324
1869	1.8587e+02	-5.6212	-808.757263	-0.000101	-1.012573	-0.343069	-0.000041
1870	1.8597e+02	-5.5779	-808.353953	0.001013	10.125732	3.430691	0.000405
1871	1.8606e+02	-5.5266	-808.192629	0.000405	4.050293	1.372276	0.000162
1872	1.8616e+02	-5.4929	-807.748988	0.001114	11.138305	3.773760	0.000446
1873	1.8626e+02	-5.4544	-807.668326	0.000203	2.025146	0.686138	0.000081
1874	1.8636e+02	-5.4207	-807.426340	0.000608	6.075439	2.058415	0.000243
1875	1.8646e+02	-5.3774	-806.861706	0.001418	14.176025	4.802967	0.000567
1876	1.8656e+02	-5.3357	-807.103692	-0.000608	-6.075439	-2.058415	-0.000243
1877	1.8666e+02	-5.2988	-806.700382	0.001013	10.125732	3.430691	0.000405
1878	1.8676e+02	-5.2587	-806.176080	0.001316	13.163452	4.459898	0.000527
1879	1.8686e+02	-5.2186	-806.014756	0.000405	4.050293	1.372276	0.000162
1880	1.8696e+02	-5.1720	-805.853432	0.000405	4.050293	1.372276	0.000162
1881	1.8706e+02	-5.1351	-805.732439	0.000304	3.037720	1.029207	0.000122
1882	1.8716e+02	-5.1031	-805.248467	0.001215	12.150879	4.116829	0.000486
1883	1.8726e+02	-5.0646	-805.127474	0.000304	3.037720	1.029207	0.000122
1884	1.8736e+02	-5.0229	-804.683833	0.001114	11.138305	3.773760	0.000446
1885	1.8746e+02	-4.9715	-803.917544	0.001924	19.238891	6.518313	0.000770
1886	1.8756e+02	-4.9362	-804.240192	-0.000810	-8.100586	-2.744553	-0.000324
1887	1.8766e+02	-4.8945	-803.796551	0.001114	11.138305	3.773760	0.000446
1888	1.8776e+02	-4.8528	-803.917544	-0.000304	-3.037720	-1.029207	-0.000122
1889	1.8786e+02	-4.8127	-803.514235	0.001013	10.125732	3.430691	0.000405
1890	1.8796e+02	-4.7662	-803.191587	0.000810	8.100586	2.744553	0.000324
1891	1.8806e+02	-4.7405	-803.191587	0.000000	0.000000	0.000000	0.000000
1892	1.8815e+02	-4.6972	-802.546291	0.001620	16.201172	5.489106	0.000649
1893	1.8825e+02	-4.6555	-801.820333	0.001823	18.226318	6.175244	0.000730
1894	1.8835e+02	-4.6154	-802.183312	-0.000911	-9.113159	-3.087622	-0.000365
1895	1.8845e+02	-4.5817	-801.497685	0.001721	17.213745	5.832175	0.000689
1896	1.8855e+02	-4.5320	-801.134706	0.000911	9.113159	3.087622	0.000365
1897	1.8865e+02	-4.4919	-800.892720	0.000608	6.075439	2.058415	0.000243
1898	1.8875e+02	-4.4534	-801.054044	-0.000405	-4.050293	-1.372276	-0.000162
1899	1.8885e+02	-4.4229	-800.731396	0.000810	8.100586	2.744553	0.000324
1900	1.8895e+02	-4.3828	-800.529742	0.000506	5.062866	1.715345	0.000203
1901	1.8905e+02	-4.3346	-800.086101	0.001114	11.138305	3.773760	0.000446
1902	1.8915e+02	-4.2945	-799.924777	0.000405	4.050293	1.372276	0.000162
1903	1.8925e+02	-4.2544	-799.440805	0.001215	12.150879	4.116829	0.000486
1904	1.8935e+02	-4.2159	-799.319812	0.000304	3.037720	1.029207	0.000122
1905	1.8945e+02	-4.1790	-799.198819	0.000304	3.037720	1.029207	0.000122
1906	1.8955e+02	-4.1405	-798.593854	0.001519	15.188598	5.146036	0.000608
1907	1.8965e+02	-4.0972	-798.916502	-0.000810	-8.100586	-2.744553	-0.000324
1908	1.8975e+02	-4.0507	-797.948558	0.002430	24.301757	8.233658	0.000973
1909	1.8985e+02	-4.0266	-797.948558	0.000000	0.000000	0.000000	0.000000
1910	1.8995e+02	-3.9801	-797.666242	0.000709	7.088013	2.401484	0.000284
1911	1.9004e+02	-3.9336	-797.424256	0.000608	6.075439	2.058415	0.000243
1912	1.9014e+02	-3.8999	-796.980615	0.001114	11.138305	3.773760	0.000446
1913	1.9024e+02	-3.8678	-796.698298	0.000709	7.088013	2.401484	0.000284
1914	1.9034e+02	-3.8165	-796.698298	0.000000	0.000000	0.000000	0.000000
1915	1.9044e+02	-3.7828	-796.214326	0.001215	12.150879	4.116829	0.000486
1916	1.9054e+02	-3.7411	-796.294988	-0.000203	-2.025146	-0.686138	-0.000081
1917	1.9064e+02	-3.7010	-795.609361	0.001721	17.213745	5.832175	0.000689
1918	1.9074e+02	-3.6560	-795.125389	0.001215	12.150879	4.116829	0.000486
1919	1.9084e+02	-3.6272	-795.165720	-0.000101	-1.012573	-0.343069	-0.000041
1920	1.9094e+02	-3.5806	-794.722080	0.001114	11.138305	3.773760	0.000446
1921	1.9104e+02	-3.5373	-794.318770	0.001013	10.125732	3.430691	0.000405
1922	1.9114e+02	-3.5004	-793.996122	0.000810	8.100586	2.744553	0.000324
1923	1.9124e+02	-3.4667	-793.592812	0.001013	10.125732	3.430691	0.000405
1924	1.9134e+02	-3.4250	-793.713805	-0.000304	-3.037720	-1.029207	-0.000122
1925	1.9144e+02	-3.3833	-793.229833	0.001215	12.150879	4.116829	0.000486
1926	1.9154e+02	-3.3400	-792.907185	0.000810	8.100586	2.744553	0.000324
1927	1.9164e+02	-3.3015	-792.463544	0.001114	11.138305	3.773760	0.000446
1928	1.9174e+02	-3.2502	-792.826523	-0.000911	-9.113159	-3.087622	-0.000365
1929	1.9184e+02	-3.2133	-791.616594	0.003038	30.377197	10.292073	0.001216
1930	1.9194e+02	-3.1892	-791.939242	-0.000810	-8.100586	-2.744553	-0.000324
1931	1.9203e+02	-3.1427	-791.535932	0.001013	10.125732	3.430691	0.000405
1932	1.9213e+02	-3.1106	-791.132622	0.001013	10.125732	3.430691	0.000405
1933	1.9223e+02	-3.0705	-791.253615	-0.000304	-3.037720	-1.029207	-0.000122
1934	1.9233e+02	-3.0304	-790.326002	0.002329	23.289184	7.890589	0.000932
1935	1.9243e+02	-2.9791	-790.406664	-0.000203	-2.025146	-0.686138	-0.000081
1936	1.9253e+02	-2.9422	-789.801699	0.001519	15.188598	5.146036	0.000608
1937	1.9263e+02	-2.9149	-789.358058	0.001114	11.138305	3.773760	0.000446
1938	1.9273e+02	-2.8652	-789.196734	0.000405	4.050293	1.372276	0.000162
1939	1.9283e+02	-2.8234	-789.196734	0.000000	0.000000	0.000000	0.000000
1940	1.9293e+02	-2.7898	-788.390115	0.002025	20.251464	6.861382	0.000811
1941	1.9303e+02	-2.7400	-788.228791	0.000405	4.050293	1.372276	0.000162
1942	1.9313e+02	-2.7112	-787.986805	0.000608	6.075439	2.058415	0.000243
1943	1.9323e+02	-2.6646	-787.623826	0.000911	9.113159	3.087622	0.000365
1944	1.9333e+02	-2.6197	-787.220516	0.001013	10.125732	3.430691	0.000405
1945	1.9343e+02	-2.5732	-786.978530	0.000608	6.075439	2.058415	0.000243
1946	1.9353e+02	-2.5459	-786.655882	0.000810	8.100586	2.744553	0.000324
1947	1.9363e+02	-2.5122	-786.212242	0.001114	11.138305	3.773760	0.000446
1948	1.9373e+02	-2.4609	-786.171911	0.000101	1.012573	0.343069	0.000041
1949	1.9383e+02	-2.4240	-785.929925	0.000608	6.075439	2.058415	0.000243
1950	1.9393e+02	-2.3855	-785.728270	0.000506	5.062866	1.715345	0.000203
1951	1.9403e+02	-2.3390	-784.800657	0.002329	23.289184	7.890589	0.000932
1952	1.9412e+02	-2.2989	-784.921650	-0.000304	-3.037720	-1.029207	-0.000122
1953	1.9422e+02	-2.2668	-784.800657	0.000304	3.037720	1.029207	0.000122
1954	1.9432e+02	-2.2283	-784.558671	0.000608	6.075439	2.058415	0.000243
1955	1.9442e+02	-2.1866	-783.308411	0.003139	31.389770	10.635142	0.001257
1956	1.9452e+02	-2.1513	-783.550396	-0.000608	-6.075439	-2.058415	-0.000243
1957	1.9462e+02	-2.0983	-783.106756	0.001114	11.138305	3.773760	0.000446
1958	1.9472e+02	-2.0679	-782.824439	0.000709	7.088013	2.401484	0.000284
1959	1.9482e+02	-2.0245	-782.622784	0.000506	5.062866	1.715345	0.000203
1960	1.9492e+02	-1.9796	-782.259805	0.000911	9.113159	3.087622	0.000365
1961	1.9502e+02	-1.9427	-781.816164	0.001114	11.138305	3.773760	0.000446
1962	1.9512e+02	-1.9074	-781.412854	0.001013	10.125732	3.430691	0.000405
1963	1.9522e+02	-1.8609	-781.332192	0.000203	2.025146	0.686138	0.000081
1964	1.9532e+02	-1.8320	-780.888551	0.001114	11.138305	3.773760	0.000446
1965	1.9542e+02	-1.7887	-780.444911	0.001114	11.138305	3.773760	0.000446
1966	1.9552e+02	-1.7438	-780.404580	0.000101	1.012573	0.343069	0.000041
1967	1.9562e+02	-1.7069	-779.597960	0.002025	20.251464	6.861382	0.000811
1968	1.9572e+02	-1.6668	-779.557629	0.000101	1.012573	0.343069	0.000041
1969	1.9582e+02	-1.6299	-779.073657	0.001215	12.150879	4.116829	0.000486
1970	1.9592e+02	-1.5850	-778.872002	0.000506	5.062866	1.715345	0.000203
1971	1.9601e+02	-1.5497	-778.267037	0.001519	15.188598	5.146036	0.000608
1972	1.9611e+02	-1.5112	-778.186375	0.000203	2.025146	0.686138	0.000081
1973	1.9621e+02	-1.4727	-777.621742	0.001418	14.176025	4.802967	0.000567
1974	1.9631e+02	-1.4262	-777.460418	0.000405	4.050293	1.372276	0.000162
1975	1.9641e+02	-1.3909	-776.653798	0.002025	20.251464	6.861382	0.000811
1976	1.9651e+02	-1.3411	-776.371481	0.000709	7.088013	2.401484	0.000284
1977	1.9661e+02	-1.3123	-776.532805	-0.000405	-4.050293	-1.372276	-0.000162
1978	1.9671e+02	-1.2722	-775.847178	0.001721	17.213745	5.832175	0.000689
1979	1.9681e+02	-1.2288	-775.282544	0.001418	14.176025	4.802967	0.000567
1980	1.9691e+02	-1.1855	-775.201882	0.000203	2.025146	0.686138	0.000081
1981	1.9701e+02	-1.1454	-774.798572	0.001013	10.125732	3.430691	0.000405
1982	1.9711e+02	-1.1069	-774.193608	0.001519	15.188598	5.146036	0.000608
1983	1.9721e+02	-1.0668	-773.991953	0.000506	5.062866	1.715345	0.000203
1984	1.9731e+02	-1.0395	-773.628974	0.000911	9.113159	3.087622	0.000365
1985	1.9741e+02	-1.0010	-773.346657	0.000709	7.088013	2.401484	0.000284
1986	1.9751e+02	-0.9497	-773.225664	0.000304	3.037720	1.029207	0.000122
1987	1.9761e+02	-0.9032	-772.378713	0.002126	21.264038	7.204451	0.000851
1988	1.9771e+02	-0.8631	-772.177058	0.000506	5.062866	1.715345	0.000203
1989	1.9781e+02	-0.8182	-771.773749	0.001013	10.125732	3.430691	0.000405
1990	1.9791e+02	-0.7861	-771.209115	0.001418	14.176025	4.802967	0.000567
1991	1.9800e+02	-0.7476	-771.128453	0.000203	2.025146	0.686138	0.000081
1992	1.9810e+02	-0.7155	-770.362164	0.001924	19.238891	6.518313	0.000770
1993	1.9820e+02	-0.6738	-770.483157	-0.000304	-3.037720	-1.029207	-0.000122
1994	1.9830e+02	-0.6417	-770.321833	0.000405	4.050293	1.372276	0.000162
1995	1.9840e+02	-0.5952	-769.636206	0.001721	17.213745	5.832175	0.000689
1996	1.9850e+02	-0.5551	-769.232896	0.001013	10.125732	3.430691	0.000405
1997	1.9860e+02	-0.5118	-768.668263	0.001418	14.176025	4.802967	0.000567
1998	1.9870e+02	-0.4652	-768.506939	0.000405	4.050293	1.372276	0.000162
1999	1.9880e+02	-0.4251	-768.385946	0.000304	3.037720	1.029207	0.000122
2000	1.9890e+02	-0.3850	-767.498664	0.002228	22.276611	7.547520	0.000892
2001	1.9900e+02	-0.3481	-767.176016	0.000810	8.100586	2.744553	0.000324
2002	1.9910e+02	-0.3128	-766.893699	0.000709	7.088013	2.401484	0.000284
2003	1.9920e+02	-0.2743	-766.571051	0.000810	8.100586	2.744553	0.000324
2004	1.9930e+02	-0.2422	-765.804763	0.001924	19.238891	6.518313	0.000770
2005	1.9940e+02	-0.1941	-765.966087	-0.000405	-4.050293	-1.372276	-0.000162
2006	1.9950e+02	-0.1556	-765.643439	0.000810	8.100586	2.744553	0.000324
2007	1.9960e+02	-0.1123	-764.836819	0.002025	20.251464	6.861382	0.000811
2008	1.9970e+02	-0.0690	-764.312516	0.001316	13.163452	4.459898	0.000527
2009	1.9980e+02	-0.0353	-764.110861	0.001316	13.163452	4.459898	0.000203

Center data before PMax,+/-Pr and +/-Vc Calc.

PMax (uC/cm2):	8.56e+02
Pr (uC/cm2):	7.47e+02
-Pr (uC/cm2):	-7.64e+02
PLoss (uC/cm2):	-1.48e+03
-Vc:	-1.82e+01
C (Max-Eff) (nF):	4.29e+00
K (Eff):	1.45e+04
Vert. (+/-Pr) Shift (uC/cm2):	-8.50e+00
Offset (uC/cm2):	-7.20e+02

A (Loop Area - uC/cm2·Volts):	-8.87e+00



Hysteresis Version: 5.48.1 - Radiant Technologies, Inc., 1999 - 9/12/24

