»»»»»»»»»»»»»»»»»»»»»»»»»»»»»»»»»»»» Hysteresis ««««««««««««««««««««««««««««««««««««
»»»  Executed Version:	5.48.1
»»»  Vision Version:	5.48.4 (R)
»»»  Vision Compiled:	9/18/24
»»»  Driver Version:	5.47.0
»»»  Windows Version:	Windows 8 or 8.1
»»»  Processor Information:	x86 (AMD or Intel) - 32 Processors
»»»  Tester Name:	PMF21124-494 (100V)
»»»  Tester S/N:	PMF21124-494
»»»  Internal Amp Type:	100V RevK 270k
»»»  Internal Amp S/N:	iAB2-596/K     
»»»  Execution Count:	1
»»»»»»»»»»»»»»»»»»»»»»»»»»»»»»»»»»»»»»»»»»««««««««««««««««««««««««««««««««««««««««««

Stored:	6/11/2025 - 10:59:34
Configured:	06/11/25 10:21:25 AM
Executed:	06/11/25 10:58:49 AM

»»»»»»»»»»»»»»»»»»»»»»»»»»»»»»»»»»» Sample Info ««««««««««««««««««««««««««««««««««««
Sample Name:	
Lot Name:	
Wafer Name:	
Die Row/Column:	0/0
Capacitor Number:	0
Sample Area (cm2):	1.00e-04
Sample Thickness (microns):	3.00e-01

Amplifier:	Internal

»»»»»»»»»»»»»»»»»»»»»»»»»»»»»»»»»»» Tester Info «««««««««««««««««««««««««««««««««««
Tester Name:	PMF21124-494 (100V)
Tester Serial Number:	PMF21124-494
Return Signal Amp. Level:	100.0 [Index: 0]

»»»»»»»»»»»»»»»»»»»»»»»»»»»»»»»» Hysteresis Info ««««««««««««««««««««««««««««««««««
Task Name:	Hyst-1175
Volts:	20.00
Field:	666.67 (kV/cm)
DCBias:	0.00
DCField:	0.00 (kV/cm)
Hysteresis Period (ms):	1.00e+00
Preset:	Enabled
Preset Delay (ms):	1.00e+03
Profile:	Standard Bipolar

»»»»»»»»»»»»»»»»»»»»»»»»»»»»»»»»»»»»»» Data «««««««««««««««««««««««««««««««««««««««
Points:	2001

Valid Data

Point	Time (ms)	Drive Voltage	Measured Polarization (uC/cm2)	Capacitance (uF)	Normalized Capacitance (uF/cm2)	Dielectric Constant	Instantaneous Current (mA)
   1	0.0000e+00	0.0289	-0.210937	-0.000000	-0.004865	-0.001648	0.000040
   2	5.0000e-04	0.0257	-0.210738	-0.000000	-0.004865	-0.001648	0.000040
   3	1.0000e-03	0.1348	-0.210482	0.000001	0.006284	0.002129	0.000051
   4	1.5000e-03	0.1829	-0.210168	0.000001	0.007703	0.002610	0.000063
   5	2.0000e-03	0.2037	-0.209904	0.000001	0.006487	0.002198	0.000053
   6	2.5000e-03	0.2150	-0.209640	0.000001	0.006487	0.002198	0.000053
   7	3.0000e-03	0.2888	-0.209317	0.000001	0.007906	0.002679	0.000064
   8	3.5000e-03	0.3160	-0.209524	-0.000001	-0.005068	-0.001717	-0.000041
   9	4.0000e-03	0.3577	-0.209615	-0.000000	-0.002230	-0.000755	-0.000018
  10	4.5000e-03	0.4235	-0.209747	-0.000000	-0.003243	-0.001099	-0.000026
  11	5.0000e-03	0.4476	-0.209623	0.000000	0.003041	0.001030	0.000025
  12	5.5000e-03	0.4781	-0.209590	0.000000	0.000811	0.000275	0.000007
  13	6.0000e-03	0.5374	-0.209499	0.000000	0.002230	0.000755	0.000018
  14	6.5000e-03	0.5631	-0.209573	-0.000000	-0.001824	-0.000618	-0.000015
  15	7.0000e-03	0.5952	-0.209615	-0.000000	-0.001014	-0.000343	-0.000008
  16	7.5000e-03	0.6385	-0.209276	0.000001	0.008311	0.002816	0.000068
  17	8.0000e-03	0.6722	-0.208689	0.000001	0.014393	0.004876	0.000117
  18	8.5000e-03	0.7363	-0.208070	0.000002	0.015203	0.005151	0.000124
  19	9.0000e-03	0.7781	-0.207648	0.000001	0.010338	0.003503	0.000084
  20	9.5000e-03	0.7877	-0.207590	0.000000	0.001419	0.000481	0.000012
  21	1.0000e-02	0.8502	-0.207309	0.000001	0.006892	0.002335	0.000056
  22	1.0500e-02	0.8791	-0.207128	0.000000	0.004460	0.001511	0.000036
  23	1.1000e-02	0.8968	-0.207004	0.000000	0.003041	0.001030	0.000025
  24	1.1500e-02	0.9561	-0.206805	0.000000	0.004865	0.001648	0.000040
  25	1.2000e-02	1.0026	-0.206359	0.000001	0.010946	0.003709	0.000089
  26	1.2500e-02	1.0347	-0.205880	0.000001	0.011757	0.003983	0.000096
  27	1.3000e-02	1.0796	-0.205781	0.000000	0.002433	0.000824	0.000020
  28	1.3500e-02	1.1214	-0.205673	0.000000	0.002635	0.000893	0.000021
  29	1.4000e-02	1.1406	-0.205517	0.000000	0.003852	0.001305	0.000031
  30	1.4500e-02	1.2240	-0.205260	0.000001	0.006284	0.002129	0.000051
  31	1.5000e-02	1.2401	-0.204847	0.000001	0.010136	0.003434	0.000083
  32	1.5500e-02	1.2978	-0.204542	0.000001	0.007500	0.002541	0.000061
  33	1.6000e-02	1.3331	-0.204508	0.000000	0.000811	0.000275	0.000007
  34	1.6500e-02	1.3684	-0.204343	0.000000	0.004054	0.001374	0.000033
  35	1.7000e-02	1.3796	-0.203889	0.000001	0.011149	0.003777	0.000091
  36	1.7500e-02	1.4390	-0.203261	0.000002	0.015406	0.005220	0.000126
  37	1.8000e-02	1.4951	-0.203079	0.000000	0.004460	0.001511	0.000036
  38	1.8500e-02	1.5256	-0.202996	0.000000	0.002027	0.000687	0.000017
  39	1.9000e-02	1.5545	-0.202749	0.000001	0.006081	0.002060	0.000050
  40	1.9500e-02	1.5834	-0.202286	0.000001	0.011352	0.003846	0.000093
  41	2.0000e-02	1.6524	-0.202005	0.000001	0.006892	0.002335	0.000056
  42	2.0500e-02	1.6540	-0.201955	0.000000	0.001216	0.000412	0.000010
  43	2.1000e-02	1.7246	-0.201889	0.000000	0.001622	0.000549	0.000013
  44	2.1500e-02	1.7422	-0.201509	0.000001	0.009325	0.003159	0.000076
  45	2.2000e-02	1.8112	-0.201236	0.000001	0.006689	0.002266	0.000055
  46	2.2500e-02	1.8561	-0.201245	-0.000000	-0.000203	-0.000069	-0.000002
  47	2.3000e-02	1.8898	-0.201088	0.000000	0.003852	0.001305	0.000031
  48	2.3500e-02	1.9427	-0.200799	0.000001	0.007095	0.002404	0.000058
  49	2.4000e-02	1.9556	-0.200509	0.000001	0.007095	0.002404	0.000058
  50	2.4500e-02	1.9925	-0.200344	0.000000	0.004054	0.001374	0.000033
  51	2.5000e-02	2.0342	-0.200171	0.000000	0.004257	0.001442	0.000035
  52	2.5500e-02	2.0646	-0.199807	0.000001	0.008919	0.003022	0.000073
  53	2.6000e-02	2.1128	-0.199634	0.000000	0.004257	0.001442	0.000035
  54	2.6500e-02	2.1577	-0.199253	0.000001	0.009325	0.003159	0.000076
  55	2.7000e-02	2.1946	-0.199146	0.000000	0.002635	0.000893	0.000021
  56	2.7500e-02	2.2427	-0.199006	0.000000	0.003446	0.001168	0.000028
  57	2.8000e-02	2.2764	-0.198650	0.000001	0.008717	0.002953	0.000071
  58	2.8500e-02	2.3518	-0.198402	0.000001	0.006081	0.002060	0.000050
  59	2.9000e-02	2.3662	-0.198320	0.000000	0.002027	0.000687	0.000017
  60	2.9500e-02	2.4080	-0.198105	0.000001	0.005270	0.001786	0.000043
  61	3.0000e-02	2.4400	-0.197807	0.000001	0.007298	0.002472	0.000059
  62	3.0500e-02	2.4801	-0.197560	0.000001	0.006081	0.002060	0.000050
  63	3.1000e-02	2.5026	-0.197378	0.000000	0.004460	0.001511	0.000036
  64	3.1500e-02	2.5507	-0.197237	0.000000	0.003446	0.001168	0.000028
  65	3.2000e-02	2.5876	-0.196907	0.000001	0.008108	0.002747	0.000066
  66	3.2500e-02	2.6197	-0.196502	0.000001	0.009933	0.003365	0.000081
  67	3.3000e-02	2.6614	-0.196370	0.000000	0.003243	0.001099	0.000026
  68	3.3500e-02	2.7047	-0.196287	0.000000	0.002027	0.000687	0.000017
  69	3.4000e-02	2.7705	-0.195973	0.000001	0.007703	0.002610	0.000063
  70	3.4500e-02	2.7978	-0.195651	0.000001	0.007906	0.002679	0.000064
  71	3.5000e-02	2.8315	-0.195535	0.000000	0.002838	0.000962	0.000023
  72	3.5500e-02	2.8555	-0.195345	0.000000	0.004662	0.001580	0.000038
  73	3.6000e-02	2.9101	-0.195023	0.000001	0.007906	0.002679	0.000064
  74	3.6500e-02	2.9678	-0.194759	0.000001	0.006487	0.002198	0.000053
  75	3.7000e-02	2.9951	-0.194412	0.000001	0.008514	0.002885	0.000069
  76	3.7500e-02	3.0721	-0.194263	0.000000	0.003649	0.001236	0.000030
  77	3.8000e-02	3.0753	-0.194040	0.000001	0.005473	0.001854	0.000045
  78	3.8500e-02	3.1138	-0.193635	0.000001	0.009933	0.003365	0.000081
  79	3.9000e-02	3.1700	-0.193296	0.000001	0.008311	0.002816	0.000068
  80	3.9500e-02	3.1876	-0.193056	0.000001	0.005879	0.001992	0.000048
  81	4.0000e-02	3.2293	-0.192817	0.000001	0.005879	0.001992	0.000048
  82	4.0500e-02	3.2678	-0.192428	0.000001	0.009527	0.003228	0.000078
  83	4.1000e-02	3.3111	-0.192412	0.000000	0.000405	0.000137	0.000003
  84	4.1500e-02	3.3673	-0.192280	0.000000	0.003243	0.001099	0.000026
  85	4.2000e-02	3.3913	-0.192329	-0.000000	-0.001216	-0.000412	-0.000010
  86	4.2500e-02	3.4379	-0.192139	0.000000	0.004662	0.001580	0.000038
  87	4.3000e-02	3.5181	-0.191685	0.000001	0.011149	0.003777	0.000091
  88	4.3500e-02	3.5277	-0.191230	0.000001	0.011149	0.003777	0.000091
  89	4.4000e-02	3.5518	-0.190991	0.000001	0.005879	0.001992	0.000048
  90	4.4500e-02	3.5630	-0.190536	0.000001	0.011149	0.003777	0.000091
  91	4.5000e-02	3.6480	-0.190107	0.000001	0.010541	0.003571	0.000086
  92	4.5500e-02	3.7010	-0.189619	0.000001	0.011960	0.004052	0.000097
  93	4.6000e-02	3.6897	-0.189264	-0.000001	-0.008717	-0.002953	0.000071
  94	4.6500e-02	3.7860	-0.189074	0.000000	0.004662	0.001580	0.000038
  95	4.7000e-02	3.7956	-0.188776	0.000001	0.007298	0.002472	0.000059
  96	4.7500e-02	3.8550	-0.188752	0.000000	0.000608	0.000206	0.000005
  97	4.8000e-02	3.8710	-0.188380	0.000001	0.009122	0.003091	0.000074
  98	4.8500e-02	3.9175	-0.188000	0.000001	0.009325	0.003159	0.000076
  99	4.9000e-02	3.9560	-0.187405	0.000001	0.014595	0.004945	0.000119
 100	4.9500e-02	4.0074	-0.187165	0.000001	0.005879	0.001992	0.000048
 101	5.0000e-02	4.0523	-0.187256	-0.000000	-0.002230	-0.000755	-0.000018
 102	5.0500e-02	4.0523	-0.187397	0.000000	0.003446	0.001168	-0.000028
 103	5.1000e-02	4.0972	-0.187454	-0.000000	-0.001419	-0.000481	-0.000012
 104	5.1500e-02	4.1518	-0.187496	-0.000000	-0.001014	-0.000343	-0.000008
 105	5.2000e-02	4.1935	-0.187182	0.000001	0.007703	0.002610	0.000063
 106	5.2500e-02	4.2528	-0.186934	0.000001	0.006081	0.002060	0.000050
 107	5.3000e-02	4.2913	-0.186579	0.000001	0.008717	0.002953	0.000071
 108	5.3500e-02	4.3234	-0.186322	0.000001	0.006284	0.002129	0.000051
 109	5.4000e-02	4.3635	-0.185876	0.000001	0.010946	0.003709	0.000089
 110	5.4500e-02	4.4100	-0.185116	0.000002	0.018649	0.006319	0.000152
 111	5.5000e-02	4.4517	-0.184397	0.000002	0.017636	0.005975	0.000144
 112	5.5500e-02	4.4774	-0.184075	0.000001	0.007906	0.002679	0.000064
 113	5.6000e-02	4.5592	-0.184042	0.000000	0.000811	0.000275	0.000007
 114	5.6500e-02	4.5448	-0.183959	-0.000000	-0.002027	-0.000687	0.000017
 115	5.7000e-02	4.6186	-0.183827	0.000000	0.003243	0.001099	0.000026
 116	5.7500e-02	4.6555	-0.183587	0.000001	0.005879	0.001992	0.000048
 117	5.8000e-02	4.6924	-0.182993	0.000001	0.014595	0.004945	0.000119
 118	5.8500e-02	4.7485	-0.182794	0.000000	0.004865	0.001648	0.000040
 119	5.9000e-02	4.7598	-0.182753	0.000000	0.001014	0.000343	0.000008
 120	5.9500e-02	4.7999	-0.182464	0.000001	0.007095	0.002404	0.000058
 121	6.0000e-02	4.8352	-0.182265	0.000000	0.004865	0.001648	0.000040
 122	6.0500e-02	4.8881	-0.181935	0.000001	0.008108	0.002747	0.000066
 123	6.1000e-02	4.9057	-0.181373	0.000001	0.013784	0.004670	0.000112
 124	6.1500e-02	4.9763	-0.181092	0.000001	0.006892	0.002335	0.000056
 125	6.2000e-02	4.9908	-0.180786	0.000001	0.007500	0.002541	0.000061
 126	6.2500e-02	5.0164	-0.180489	0.000001	0.007298	0.002472	0.000059
 127	6.3000e-02	5.0774	-0.180109	0.000001	0.009325	0.003159	0.000076
 128	6.3500e-02	5.1255	-0.179572	0.000001	0.013176	0.004464	0.000107
 129	6.4000e-02	5.1737	-0.179217	0.000001	0.008717	0.002953	0.000071
 130	6.4500e-02	5.1849	-0.179134	0.000000	0.002027	0.000687	0.000017
 131	6.5000e-02	5.2394	-0.178886	0.000001	0.006081	0.002060	0.000050
 132	6.5500e-02	5.2924	-0.178547	0.000001	0.008311	0.002816	0.000068
 133	6.6000e-02	5.3212	-0.178217	0.000001	0.008108	0.002747	0.000066
 134	6.6500e-02	5.3662	-0.178010	0.000001	0.005068	0.001717	0.000041
 135	6.7000e-02	5.3790	-0.177837	0.000000	0.004257	0.001442	0.000035
 136	6.7500e-02	5.4383	-0.177671	0.000000	0.004054	0.001374	0.000033
 137	6.8000e-02	5.4704	-0.177159	0.000001	0.012568	0.004258	0.000102
 138	6.8500e-02	5.5442	-0.176853	0.000001	0.007500	0.002541	0.000061
 139	6.9000e-02	5.5667	-0.176729	0.000000	0.003041	0.001030	0.000025
 140	6.9500e-02	5.5924	-0.176432	0.000001	0.007298	0.002472	0.000059
 141	7.0000e-02	5.6469	-0.175994	0.000001	0.010744	0.003640	0.000088
 142	7.0500e-02	5.6854	-0.175598	0.000001	0.009730	0.003297	0.000079
 143	7.1000e-02	5.6998	-0.175292	0.000001	0.007500	0.002541	0.000061
 144	7.1500e-02	5.7544	-0.174945	0.000001	0.008514	0.002885	0.000069
 145	7.2000e-02	5.8057	-0.174540	0.000001	0.009933	0.003365	0.000081
 146	7.2500e-02	5.8426	-0.174309	0.000001	0.005676	0.001923	0.000046
 147	7.3000e-02	5.9068	-0.174069	0.000001	0.005879	0.001992	0.000048
 148	7.3500e-02	5.9308	-0.173862	0.000001	0.005068	0.001717	0.000041
 149	7.4000e-02	5.9613	-0.173548	0.000001	0.007703	0.002610	0.000063
 150	7.4500e-02	5.9934	-0.173152	0.000001	0.009730	0.003297	0.000079
 151	7.5000e-02	6.0544	-0.173011	0.000000	0.003446	0.001168	0.000028
 152	7.5500e-02	6.0849	-0.172739	0.000001	0.006689	0.002266	0.000055
 153	7.6000e-02	6.1234	-0.172408	0.000001	0.008108	0.002747	0.000066
 154	7.6500e-02	6.1747	-0.172061	0.000001	0.008514	0.002885	0.000069
 155	7.7000e-02	6.2004	-0.171846	0.000001	0.005270	0.001786	0.000043
 156	7.7500e-02	6.2340	-0.171590	0.000001	0.006284	0.002129	0.000051
 157	7.8000e-02	6.3159	-0.171326	0.000001	0.006487	0.002198	0.000053
 158	7.8500e-02	6.3431	-0.171037	0.000001	0.007095	0.002404	0.000058
 159	7.9000e-02	6.3736	-0.170475	0.000001	0.013784	0.004670	0.000112
 160	7.9500e-02	6.4057	-0.170359	0.000000	0.002838	0.000962	0.000023
 161	8.0000e-02	6.4410	-0.169995	0.000001	0.008919	0.003022	0.000073
 162	8.0500e-02	6.4683	-0.169574	0.000001	0.010338	0.003503	0.000084
 163	8.1000e-02	6.4987	-0.169169	0.000001	0.009933	0.003365	0.000081
 164	8.1500e-02	6.5661	-0.168822	0.000001	0.008514	0.002885	0.000069
 165	8.2000e-02	6.6143	-0.168673	0.000000	0.003649	0.001236	0.000030
 166	8.2500e-02	6.6528	-0.168252	0.000001	0.010338	0.003503	0.000084
 167	8.3000e-02	6.7041	-0.167963	0.000001	0.007095	0.002404	0.000058
 168	8.3500e-02	6.7057	-0.167715	0.000001	0.006081	0.002060	0.000050
 169	8.4000e-02	6.7827	-0.167310	0.000001	0.009933	0.003365	0.000081
 170	8.4500e-02	6.7811	-0.167037	-0.000001	-0.006689	-0.002266	0.000055
 171	8.5000e-02	6.8661	-0.166839	0.000000	0.004865	0.001648	0.000040
 172	8.5500e-02	6.8902	-0.166550	0.000001	0.007095	0.002404	0.000058
 173	8.6000e-02	6.9271	-0.166310	0.000001	0.005879	0.001992	0.000048
 174	8.6500e-02	6.9527	-0.165831	0.000001	0.011757	0.003983	0.000096
 175	8.7000e-02	6.9800	-0.165120	0.000002	0.017433	0.005907	0.000142
 176	8.7500e-02	7.0394	-0.164765	0.000001	0.008717	0.002953	0.000071
 177	8.8000e-02	7.1051	-0.164327	0.000001	0.010744	0.003640	0.000088
 178	8.8500e-02	7.1212	-0.163774	0.000001	0.013582	0.004602	0.000111
 179	8.9000e-02	7.1709	-0.163427	0.000001	0.008514	0.002885	0.000069
 180	8.9500e-02	7.1870	-0.162931	0.000001	0.012163	0.004121	0.000099
 181	9.0000e-02	7.2303	-0.162592	0.000001	0.008311	0.002816	0.000068
 182	9.0500e-02	7.2784	-0.162303	0.000001	0.007095	0.002404	0.000058
 183	9.1000e-02	7.3201	-0.162039	0.000001	0.006487	0.002198	0.000053
 184	9.1500e-02	7.3458	-0.161906	0.000000	0.003243	0.001099	0.000026
 185	9.2000e-02	7.3971	-0.161568	0.000001	0.008311	0.002816	0.000068
 186	9.2500e-02	7.4404	-0.161146	0.000001	0.010338	0.003503	0.000084
 187	9.3000e-02	7.4805	-0.160576	0.000001	0.013987	0.004739	0.000114
 188	9.3500e-02	7.5367	-0.160122	0.000001	0.011149	0.003777	0.000091
 189	9.4000e-02	7.5543	-0.159626	0.000001	0.012163	0.004121	0.000099
 190	9.4500e-02	7.6057	-0.159254	0.000001	0.009122	0.003091	0.000074
 191	9.5000e-02	7.6458	-0.158882	0.000001	0.009122	0.003091	0.000074
 192	9.5500e-02	7.7132	-0.158453	0.000001	0.010541	0.003571	0.000086
 193	9.6000e-02	7.7019	-0.158436	-0.000000	-0.000405	-0.000137	0.000003
 194	9.6500e-02	7.7533	-0.158246	0.000000	0.004662	0.001580	0.000038
 195	9.7000e-02	7.8206	-0.158056	0.000000	0.004662	0.001580	0.000038
 196	9.7500e-02	7.8399	-0.157924	0.000000	0.003243	0.001099	0.000026
 197	9.8000e-02	7.8639	-0.157750	0.000000	0.004257	0.001442	0.000035
 198	9.8500e-02	7.9121	-0.157304	0.000001	0.010946	0.003709	0.000089
 199	9.9000e-02	7.9602	-0.156792	0.000001	0.012568	0.004258	0.000102
 200	9.9500e-02	8.0035	-0.156486	0.000001	0.007500	0.002541	0.000061
 201	1.0000e-01	8.0549	-0.155982	0.000001	0.012365	0.004190	0.000101
 202	1.0050e-01	8.0805	-0.155065	0.000002	0.022501	0.007624	0.000183
 203	1.0100e-01	8.1190	-0.154412	0.000002	0.016014	0.005426	0.000131
 204	1.0150e-01	8.1367	-0.154098	0.000001	0.007703	0.002610	0.000063
 205	1.0200e-01	8.2265	-0.154040	0.000000	0.001419	0.000481	0.000012
 206	1.0250e-01	8.2377	-0.153925	0.000000	0.002838	0.000962	0.000023
 207	1.0300e-01	8.2891	-0.153619	0.000001	0.007500	0.002541	0.000061
 208	1.0350e-01	8.3212	-0.153214	0.000001	0.009933	0.003365	0.000081
 209	1.0400e-01	8.3532	-0.152536	0.000002	0.016622	0.005632	0.000136
 210	1.0450e-01	8.4046	-0.152074	0.000001	0.011352	0.003846	0.000093
 211	1.0500e-01	8.4335	-0.151768	0.000001	0.007500	0.002541	0.000061
 212	1.0550e-01	8.4752	-0.151570	0.000000	0.004865	0.001648	0.000040
 213	1.0600e-01	8.5297	-0.151033	0.000001	0.013176	0.004464	0.000107
 214	1.0650e-01	8.5377	-0.150529	0.000001	0.012365	0.004190	0.000101
 215	1.0700e-01	8.5971	-0.149851	0.000002	0.016622	0.005632	0.000136
 216	1.0750e-01	8.6436	-0.149331	0.000001	0.012771	0.004327	0.000104
 217	1.0800e-01	8.6821	-0.148992	0.000001	0.008311	0.002816	0.000068
 218	1.0850e-01	8.7254	-0.148818	0.000000	0.004257	0.001442	0.000035
 219	1.0900e-01	8.7671	-0.148463	0.000001	0.008717	0.002953	0.000071
 220	1.0950e-01	8.8040	-0.147612	0.000002	0.020879	0.007074	0.000170
 221	1.1000e-01	8.8457	-0.147372	0.000001	0.005879	0.001992	0.000048
 222	1.1050e-01	8.8971	-0.147108	0.000001	0.006487	0.002198	0.000053
 223	1.1100e-01	8.9147	-0.146844	0.000001	0.006487	0.002198	0.000053
 224	1.1150e-01	8.9596	-0.146273	0.000001	0.013987	0.004739	0.000114
 225	1.1200e-01	8.9901	-0.145687	0.000001	0.014393	0.004876	0.000117
 226	1.1250e-01	9.0623	-0.145422	0.000001	0.006487	0.002198	0.000053
 227	1.1300e-01	9.0992	-0.145059	0.000001	0.008919	0.003022	0.000073
 228	1.1350e-01	9.1505	-0.144431	0.000002	0.015406	0.005220	0.000126
 229	1.1400e-01	9.1554	-0.143786	0.000002	0.015811	0.005357	0.000129
 230	1.1450e-01	9.2019	-0.143282	0.000001	0.012365	0.004190	0.000101
 231	1.1500e-01	9.2516	-0.142861	0.000001	0.010338	0.003503	0.000084
 232	1.1550e-01	9.2677	-0.142398	0.000001	0.011352	0.003846	0.000093
 233	1.1600e-01	9.3222	-0.141795	0.000001	0.014798	0.005014	0.000121
 234	1.1650e-01	9.3896	-0.141192	0.000001	0.014798	0.005014	0.000121
 235	1.1700e-01	9.3848	-0.140911	-0.000001	-0.006892	-0.002335	0.000056
 236	1.1750e-01	9.4586	-0.140539	0.000001	0.009122	0.003091	0.000074
 237	1.1800e-01	9.4730	-0.140101	0.000001	0.010744	0.003640	0.000088
 238	1.1850e-01	9.5372	-0.139655	0.000001	0.010946	0.003709	0.000089
 239	1.1900e-01	9.5532	-0.139275	0.000001	0.009325	0.003159	0.000076
 240	1.1950e-01	9.6238	-0.139019	0.000001	0.006284	0.002129	0.000051
 241	1.2000e-01	9.6527	-0.138498	0.000001	0.012771	0.004327	0.000104
 242	1.2050e-01	9.6815	-0.137928	0.000001	0.013987	0.004739	0.000114
 243	1.2100e-01	9.7200	-0.137689	0.000001	0.005879	0.001992	0.000048
 244	1.2150e-01	9.7329	-0.137143	0.000001	0.013379	0.004533	0.000109
 245	1.2200e-01	9.8003	-0.136581	0.000001	0.013784	0.004670	0.000112
 246	1.2250e-01	9.8468	-0.135871	0.000002	0.017433	0.005907	0.000142
 247	1.2300e-01	9.8901	-0.135441	0.000001	0.010541	0.003571	0.000086
 248	1.2350e-01	9.8997	-0.135078	0.000001	0.008919	0.003022	0.000073
 249	1.2400e-01	9.9478	-0.134540	0.000001	0.013176	0.004464	0.000107
 250	1.2450e-01	10.0136	-0.133946	0.000001	0.014595	0.004945	0.000119
 251	1.2500e-01	10.0489	-0.133582	0.000001	0.008919	0.003022	0.000073
 252	1.2550e-01	10.1388	-0.133020	0.000001	0.013784	0.004670	0.000112
 253	1.2600e-01	10.1404	-0.132516	0.000001	0.012365	0.004190	0.000101
 254	1.2650e-01	10.1468	-0.131963	0.000001	0.013582	0.004602	0.000111
 255	1.2700e-01	10.1933	-0.131467	0.000001	0.012163	0.004121	0.000099
 256	1.2750e-01	10.2318	-0.131128	0.000001	0.008311	0.002816	0.000068
 257	1.2800e-01	10.2751	-0.130756	0.000001	0.009122	0.003091	0.000074
 258	1.2850e-01	10.3168	-0.130310	0.000001	0.010946	0.003709	0.000089
 259	1.2900e-01	10.3553	-0.129922	0.000001	0.009527	0.003228	0.000078
 260	1.2950e-01	10.4034	-0.129525	0.000001	0.009730	0.003297	0.000079
 261	1.3000e-01	10.4403	-0.128707	0.000002	0.020068	0.006799	0.000164
 262	1.3050e-01	10.4981	-0.127906	0.000002	0.019663	0.006662	0.000160
 263	1.3100e-01	10.5398	-0.127220	0.000002	0.016825	0.005700	0.000137
 264	1.3150e-01	10.5575	-0.126567	0.000002	0.016014	0.005426	0.000131
 265	1.3200e-01	10.6072	-0.125972	0.000001	0.014595	0.004945	0.000119
 266	1.3250e-01	10.6296	-0.125278	0.000002	0.017028	0.005769	0.000139
 267	1.3300e-01	10.6714	-0.124617	0.000002	0.016217	0.005494	0.000132
 268	1.3350e-01	10.7355	-0.123931	0.000002	0.016825	0.005700	0.000137
 269	1.3400e-01	10.7612	-0.123502	0.000001	0.010541	0.003571	0.000086
 270	1.3450e-01	10.8109	-0.123146	0.000001	0.008717	0.002953	0.000071
 271	1.3500e-01	10.8831	-0.122808	0.000001	0.008311	0.002816	0.000068
 272	1.3550e-01	10.8847	-0.122370	0.000001	0.010744	0.003640	0.000088
 273	1.3600e-01	10.9136	-0.121651	0.000002	0.017636	0.005975	0.000144
 274	1.3650e-01	10.9890	-0.120965	0.000002	0.016825	0.005700	0.000137
 275	1.3700e-01	11.0243	-0.120254	0.000002	0.017433	0.005907	0.000142
 276	1.3750e-01	11.0451	-0.119734	0.000001	0.012771	0.004327	0.000104
 277	1.3800e-01	11.0965	-0.119263	0.000001	0.011555	0.003915	0.000094
 278	1.3850e-01	11.1270	-0.118742	0.000001	0.012771	0.004327	0.000104
 279	1.3900e-01	11.1478	-0.118090	0.000002	0.016014	0.005426	0.000131
 280	1.3950e-01	11.1719	-0.117396	0.000002	0.017028	0.005769	0.000139
 281	1.4000e-01	11.2152	-0.116536	0.000002	0.021082	0.007143	0.000172
 282	1.4050e-01	11.2649	-0.115685	0.000002	0.020879	0.007074	0.000170
 283	1.4100e-01	11.3403	-0.114942	0.000002	0.018244	0.006181	0.000149
 284	1.4150e-01	11.3532	-0.114280	0.000002	0.016217	0.005494	0.000132
 285	1.4200e-01	11.3965	-0.113991	0.000001	0.007095	0.002404	0.000058
 286	1.4250e-01	11.4687	-0.113636	0.000001	0.008717	0.002953	0.000071
 287	1.4300e-01	11.5264	-0.113264	0.000001	0.009122	0.003091	0.000074
 288	1.4350e-01	11.5569	-0.112909	0.000001	0.008717	0.002953	0.000071
 289	1.4400e-01	11.5761	-0.112306	0.000001	0.014798	0.005014	0.000121
 290	1.4450e-01	11.6162	-0.111686	0.000002	0.015203	0.005151	0.000124
 291	1.4500e-01	11.6435	-0.111108	0.000001	0.014190	0.004808	0.000116
 292	1.4550e-01	11.6868	-0.110529	0.000001	0.014190	0.004808	0.000116
 293	1.4600e-01	11.6916	-0.109753	0.000002	0.019055	0.006456	0.000155
 294	1.4650e-01	11.7654	-0.108728	0.000003	0.025136	0.008516	0.000205
 295	1.4700e-01	11.8072	-0.107786	0.000002	0.023109	0.007830	0.000188
 296	1.4750e-01	11.8457	-0.107274	0.000001	0.012568	0.004258	0.000102
 297	1.4800e-01	11.8826	-0.106960	0.000001	0.007703	0.002610	0.000063
 298	1.4850e-01	11.9435	-0.106472	0.000001	0.011960	0.004052	0.000097
 299	1.4900e-01	11.9531	-0.105877	0.000001	0.014595	0.004945	0.000119
 300	1.4950e-01	11.9852	-0.105183	0.000002	0.017028	0.005769	0.000139
 301	1.5000e-01	12.0398	-0.104208	0.000002	0.023920	0.008104	0.000195
 302	1.5050e-01	12.0670	-0.103299	0.000002	0.022298	0.007555	0.000182
 303	1.5100e-01	12.1344	-0.102614	0.000002	0.016825	0.005700	0.000137
 304	1.5150e-01	12.1697	-0.102110	0.000001	0.012365	0.004190	0.000101
 305	1.5200e-01	12.2002	-0.101589	0.000001	0.012771	0.004327	0.000104
 306	1.5250e-01	12.2259	-0.100755	0.000002	0.020474	0.006937	0.000167
 307	1.5300e-01	12.2836	-0.099713	0.000003	0.025542	0.008654	0.000208
 308	1.5350e-01	12.3237	-0.099086	0.000002	0.015406	0.005220	0.000126
 309	1.5400e-01	12.3783	-0.098565	0.000001	0.012771	0.004327	0.000104
 310	1.5450e-01	12.4280	-0.098144	0.000001	0.010338	0.003503	0.000084
 311	1.5500e-01	12.4633	-0.097251	0.000002	0.021893	0.007417	0.000178
 312	1.5550e-01	12.4841	-0.096392	0.000002	0.021082	0.007143	0.000172
 313	1.5600e-01	12.5114	-0.095615	0.000002	0.019055	0.006456	0.000155
 314	1.5650e-01	12.5595	-0.095219	0.000001	0.009730	0.003297	0.000079
 315	1.5700e-01	12.5916	-0.094491	0.000002	0.017839	0.006044	0.000145
 316	1.5750e-01	12.6301	-0.093550	0.000002	0.023109	0.007830	0.000188
 317	1.5800e-01	12.6831	-0.092756	0.000002	0.019460	0.006593	0.000159
 318	1.5850e-01	12.7280	-0.092120	0.000002	0.015609	0.005288	0.000127
 319	1.5900e-01	12.7504	-0.091310	0.000002	0.019866	0.006731	0.000162
 320	1.5950e-01	12.8258	-0.090269	0.000003	0.025542	0.008654	0.000208
 321	1.6000e-01	12.8403	-0.089294	0.000002	0.023920	0.008104	0.000195
 322	1.6050e-01	12.8820	-0.088683	0.000002	0.015001	0.005082	0.000122
 323	1.6100e-01	12.9349	-0.088047	0.000002	0.015609	0.005288	0.000127
 324	1.6150e-01	12.9413	-0.087229	0.000002	0.020068	0.006799	0.000164
 325	1.6200e-01	13.0167	-0.086278	0.000002	0.023312	0.007898	0.000190
 326	1.6250e-01	13.0392	-0.085667	0.000002	0.015001	0.005082	0.000122
 327	1.6300e-01	13.0649	-0.085056	0.000002	0.015001	0.005082	0.000122
 328	1.6350e-01	13.1226	-0.084444	0.000002	0.015001	0.005082	0.000122
 329	1.6400e-01	13.1627	-0.083543	0.000002	0.022096	0.007486	0.000180
 330	1.6450e-01	13.1964	-0.082833	0.000002	0.017433	0.005907	0.000142
 331	1.6500e-01	13.2221	-0.082131	0.000002	0.017230	0.005838	0.000140
 332	1.6550e-01	13.2798	-0.081304	0.000002	0.020271	0.006868	0.000165
 333	1.6600e-01	13.3119	-0.080280	0.000003	0.025136	0.008516	0.000205
 334	1.6650e-01	13.3809	-0.079420	0.000002	0.021082	0.007143	0.000172
 335	1.6700e-01	13.4002	-0.078635	0.000002	0.019258	0.006525	0.000157
 336	1.6750e-01	13.4354	-0.077834	0.000002	0.019663	0.006662	0.000160
 337	1.6800e-01	13.5028	-0.076760	0.000003	0.026352	0.008928	0.000215
 338	1.6850e-01	13.5429	-0.076008	0.000002	0.018447	0.006250	0.000150
 339	1.6900e-01	13.5574	-0.075306	0.000002	0.017230	0.005838	0.000140
 340	1.6950e-01	13.5975	-0.074545	0.000002	0.018649	0.006319	0.000152
 341	1.7000e-01	13.6488	-0.073694	0.000002	0.020879	0.007074	0.000170
 342	1.7050e-01	13.6665	-0.072802	0.000002	0.021893	0.007417	0.000178
 343	1.7100e-01	13.7162	-0.072108	0.000002	0.017028	0.005769	0.000139
 344	1.7150e-01	13.7515	-0.071389	0.000002	0.017636	0.005975	0.000144
 345	1.7200e-01	13.8108	-0.070753	0.000002	0.015609	0.005288	0.000127
 346	1.7250e-01	13.8397	-0.070059	0.000002	0.017028	0.005769	0.000139
 347	1.7300e-01	13.9167	-0.069307	0.000002	0.018447	0.006250	0.000150
 348	1.7350e-01	13.9440	-0.068299	0.000002	0.024731	0.008379	0.000202
 349	1.7400e-01	13.9665	-0.067250	0.000003	0.025744	0.008722	0.000210
 350	1.7450e-01	14.0001	-0.066051	0.000003	0.029393	0.009959	0.000240
 351	1.7500e-01	14.0418	-0.064977	0.000003	0.026352	0.008928	0.000215
 352	1.7550e-01	14.0820	-0.063961	0.000002	0.024934	0.008448	0.000203
 353	1.7600e-01	14.1156	-0.063052	0.000002	0.022298	0.007555	0.000182
 354	1.7650e-01	14.1782	-0.061986	0.000003	0.026150	0.008860	0.000213
 355	1.7700e-01	14.2344	-0.061053	0.000002	0.022906	0.007761	0.000187
 356	1.7750e-01	14.2568	-0.060268	0.000002	0.019258	0.006525	0.000157
 357	1.7800e-01	14.2889	-0.059631	0.000002	0.015609	0.005288	0.000127
 358	1.7850e-01	14.3386	-0.058822	0.000002	0.019866	0.006731	0.000162
 359	1.7900e-01	14.3884	-0.057962	0.000002	0.021082	0.007143	0.000172
 360	1.7950e-01	14.4188	-0.057020	0.000002	0.023109	0.007830	0.000188
 361	1.8000e-01	14.4413	-0.056112	0.000002	0.022298	0.007555	0.000182
 362	1.8050e-01	14.4573	-0.055037	0.000003	0.026352	0.008928	0.000215
 363	1.8100e-01	14.5199	-0.054087	0.000002	0.023312	0.007898	0.000190
 364	1.8150e-01	14.5552	-0.053203	0.000002	0.021690	0.007349	0.000177
 365	1.8200e-01	14.6130	-0.052426	0.000002	0.019055	0.006456	0.000155
 366	1.8250e-01	14.6434	-0.051336	0.000003	0.026758	0.009066	0.000218
 367	1.8300e-01	14.6691	-0.050146	0.000003	0.029190	0.009890	0.000238
 368	1.8350e-01	14.7092	-0.048997	0.000003	0.028177	0.009547	0.000230
 369	1.8400e-01	14.7605	-0.048072	0.000002	0.022704	0.007692	0.000185
 370	1.8450e-01	14.8023	-0.047105	0.000002	0.023717	0.008036	0.000193
 371	1.8500e-01	14.8520	-0.046205	0.000002	0.022096	0.007486	0.000180
 372	1.8550e-01	14.8777	-0.044982	0.000003	0.030001	0.010165	0.000245
 373	1.8600e-01	14.9418	-0.043478	0.000004	0.036893	0.012500	0.000301
 374	1.8650e-01	14.9306	-0.042214	-0.000003	-0.031015	-0.010508	0.000253
 375	1.8700e-01	15.0317	-0.041057	0.000003	0.028380	0.009615	0.000231
 376	1.8750e-01	15.0541	-0.040099	0.000002	0.023515	0.007967	0.000192
 377	1.8800e-01	15.0958	-0.039322	0.000002	0.019055	0.006456	0.000155
 378	1.8850e-01	15.1440	-0.038529	0.000002	0.019460	0.006593	0.000159
 379	1.8900e-01	15.1536	-0.037727	0.000002	0.019663	0.006662	0.000160
 380	1.8950e-01	15.2017	-0.036835	0.000002	0.021893	0.007417	0.000178
 381	1.9000e-01	15.2659	-0.035843	0.000002	0.024325	0.008242	0.000198
 382	1.9050e-01	15.2611	-0.034769	-0.000003	-0.026352	-0.008928	0.000215
 383	1.9100e-01	15.3156	-0.033728	0.000003	0.025542	0.008654	0.000208
 384	1.9150e-01	15.3669	-0.032770	0.000002	0.023515	0.007967	0.000192
 385	1.9200e-01	15.3926	-0.031315	0.000004	0.035677	0.012088	0.000291
 386	1.9250e-01	15.4520	-0.029679	0.000004	0.040137	0.013599	0.000327
 387	1.9300e-01	15.4504	-0.028349	-0.000003	-0.032637	-0.011058	0.000266
 388	1.9350e-01	15.5049	-0.027358	0.000002	0.024325	0.008242	0.000198
 389	1.9400e-01	15.5643	-0.026540	0.000002	0.020068	0.006799	0.000164
 390	1.9450e-01	15.6172	-0.025540	0.000002	0.024528	0.008310	0.000200
 391	1.9500e-01	15.6541	-0.024499	0.000003	0.025542	0.008654	0.000208
 392	1.9550e-01	15.6669	-0.023325	0.000003	0.028785	0.009753	0.000235
 393	1.9600e-01	15.7151	-0.021780	0.000004	0.037907	0.012843	0.000309
 394	1.9650e-01	15.7664	-0.020549	0.000003	0.030204	0.010233	0.000246
 395	1.9700e-01	15.8017	-0.019483	0.000003	0.026150	0.008860	0.000213
 396	1.9750e-01	15.8498	-0.018393	0.000003	0.026758	0.009066	0.000218
 397	1.9800e-01	15.8643	-0.017285	0.000003	0.027163	0.009203	0.000221
 398	1.9850e-01	15.9172	-0.015955	0.000003	0.032637	0.011058	0.000266
 399	1.9900e-01	15.9750	-0.014451	0.000004	0.036893	0.012500	0.000301
 400	1.9950e-01	15.9974	-0.013295	0.000003	0.028380	0.009615	0.000231
 401	2.0000e-01	16.0391	-0.012295	0.000002	0.024528	0.008310	0.000200
 402	2.0050e-01	16.0889	-0.011221	0.000003	0.026352	0.008928	0.000215
 403	2.0100e-01	16.1113	-0.009824	0.000003	0.034258	0.011607	0.000279
 404	2.0150e-01	16.1562	-0.008461	0.000003	0.033447	0.011332	0.000273
 405	2.0200e-01	16.1931	-0.007337	0.000003	0.027569	0.009341	0.000225
 406	2.0250e-01	16.2525	-0.006123	0.000003	0.029799	0.010096	0.000243
 407	2.0300e-01	16.2926	-0.004867	0.000003	0.030812	0.010439	0.000251
 408	2.0350e-01	16.3118	-0.003446	0.000003	0.034866	0.011813	0.000284
 409	2.0400e-01	16.3375	-0.002049	0.000003	0.034258	0.011607	0.000279
 410	2.0450e-01	16.3969	-0.000942	0.000003	0.027163	0.009203	0.000221
 411	2.0500e-01	16.4578	0.000372	0.000003	0.032231	0.010920	0.000263
 412	2.0550e-01	16.4642	0.001900	0.000004	0.037502	0.012706	0.000306
 413	2.0600e-01	16.5236	0.003363	0.000004	0.035880	0.012156	0.000292
 414	2.0650e-01	16.5765	0.004520	0.000003	0.028380	0.009615	0.000231
 415	2.0700e-01	16.5942	0.005709	0.000003	0.029190	0.009890	0.000238
 416	2.0750e-01	16.6423	0.007122	0.000003	0.034664	0.011744	0.000283
 417	2.0800e-01	16.6904	0.008593	0.000004	0.036083	0.012225	0.000294
 418	2.0850e-01	16.7177	0.009890	0.000003	0.031826	0.010783	0.000259
 419	2.0900e-01	16.7530	0.011088	0.000003	0.029393	0.009959	0.000240
 420	2.0950e-01	16.8011	0.012485	0.000003	0.034258	0.011607	0.000279
 421	2.1000e-01	16.8284	0.013947	0.000004	0.035880	0.012156	0.000292
 422	2.1050e-01	16.8942	0.015302	0.000003	0.033245	0.011264	0.000271
 423	2.1100e-01	16.9182	0.016558	0.000003	0.030812	0.010439	0.000251
 424	2.1150e-01	16.9632	0.018112	0.000004	0.038110	0.012912	0.000311
 425	2.1200e-01	17.0001	0.019665	0.000004	0.038110	0.012912	0.000311
 426	2.1250e-01	17.0353	0.021194	0.000004	0.037502	0.012706	0.000306
 427	2.1300e-01	17.0947	0.022499	0.000003	0.032028	0.010852	0.000261
 428	2.1350e-01	17.1204	0.023846	0.000003	0.033042	0.011195	0.000269
 429	2.1400e-01	17.1910	0.025457	0.000004	0.039529	0.013393	0.000322
 430	2.1450e-01	17.2070	0.026953	0.000004	0.036691	0.012431	0.000299
 431	2.1500e-01	17.2423	0.028333	0.000003	0.033853	0.011470	0.000276
 432	2.1550e-01	17.2776	0.029506	0.000003	0.028785	0.009753	0.000235
 433	2.1600e-01	17.3177	0.030869	0.000003	0.033447	0.011332	0.000273
 434	2.1650e-01	17.3738	0.032299	0.000004	0.035069	0.011882	0.000286
 435	2.1700e-01	17.4011	0.033662	0.000003	0.033447	0.011332	0.000273
 436	2.1750e-01	17.4541	0.035323	0.000004	0.040745	0.013805	0.000332
 437	2.1800e-01	17.5182	0.037058	0.000004	0.042569	0.014423	0.000347
 438	2.1850e-01	17.5086	0.038793	-0.000004	-0.042569	-0.014423	0.000347
 439	2.1900e-01	17.5728	0.040379	0.000004	0.038921	0.013187	0.000317
 440	2.1950e-01	17.6000	0.042024	0.000004	0.040340	0.013667	0.000329
 441	2.2000e-01	17.6353	0.043709	0.000004	0.041353	0.014011	0.000337
 442	2.2050e-01	17.7075	0.045411	0.000004	0.041759	0.014148	0.000340
 443	2.2100e-01	17.7220	0.046924	0.000004	0.037096	0.012569	0.000302
 444	2.2150e-01	17.7556	0.048353	0.000004	0.035069	0.011882	0.000286
 445	2.2200e-01	17.7845	0.049741	0.000003	0.034056	0.011538	0.000278
 446	2.2250e-01	17.8343	0.051220	0.000004	0.036285	0.012294	0.000296
 447	2.2300e-01	17.8824	0.053013	0.000004	0.043988	0.014904	0.000359
 448	2.2350e-01	17.9417	0.054649	0.000004	0.040137	0.013599	0.000327
 449	2.2400e-01	17.9867	0.056277	0.000004	0.039934	0.013530	0.000326
 450	2.2450e-01	17.9770	0.058053	-0.000004	-0.043583	-0.014766	0.000355
 451	2.2500e-01	18.0284	0.059689	0.000004	0.040137	0.013599	0.000327
 452	2.2550e-01	18.0909	0.060970	0.000003	0.031420	0.010645	0.000256
 453	2.2600e-01	18.1182	0.062821	0.000005	0.045407	0.015384	0.000370
 454	2.2650e-01	18.1375	0.064696	0.000005	0.046016	0.015590	0.000375
 455	2.2700e-01	18.2048	0.066539	0.000005	0.045205	0.015316	0.000369
 456	2.2750e-01	18.2401	0.068373	0.000005	0.045002	0.015247	0.000367
 457	2.2800e-01	18.2931	0.070034	0.000004	0.040745	0.013805	0.000332
 458	2.2850e-01	18.3556	0.071753	0.000004	0.042164	0.014286	0.000344
 459	2.2900e-01	18.3733	0.073637	0.000005	0.046218	0.015659	0.000377
 460	2.2950e-01	18.4102	0.075487	0.000005	0.045407	0.015384	0.000370
 461	2.3000e-01	18.4423	0.077223	0.000004	0.042569	0.014423	0.000347
 462	2.3050e-01	18.4920	0.079024	0.000004	0.044191	0.014972	0.000360
 463	2.3100e-01	18.5321	0.080751	0.000004	0.042367	0.014354	0.000345
 464	2.3150e-01	18.5866	0.082560	0.000004	0.044394	0.015041	0.000362
 465	2.3200e-01	18.6059	0.084981	0.000006	0.059394	0.020123	0.000484
 466	2.3250e-01	18.6508	0.087096	0.000005	0.051894	0.017582	0.000423
 467	2.3300e-01	18.6925	0.088956	0.000005	0.045610	0.015453	0.000372
 468	2.3350e-01	18.7503	0.091046	0.000005	0.051286	0.017376	0.000418
 469	2.3400e-01	18.7583	0.092393	0.000003	0.033042	0.011195	0.000269
 470	2.3450e-01	18.7759	0.093822	0.000004	0.035069	0.011882	0.000286
 471	2.3500e-01	18.8257	0.095590	0.000004	0.043380	0.014698	0.000354
 472	2.3550e-01	18.8850	0.097350	0.000004	0.043178	0.014629	0.000352
 473	2.3600e-01	18.9219	0.099044	0.000004	0.041556	0.014080	0.000339
 474	2.3650e-01	18.9749	0.100854	0.000004	0.044394	0.015041	0.000362
 475	2.3700e-01	18.9797	0.102771	0.000005	0.047029	0.015934	0.000383
 476	2.3750e-01	19.0294	0.104580	0.000004	0.044394	0.015041	0.000362
 477	2.3800e-01	19.1016	0.106985	0.000006	0.058989	0.019986	0.000481
 478	2.3850e-01	19.1112	0.109538	0.000006	0.062638	0.021222	0.000511
 479	2.3900e-01	19.1529	0.111793	0.000006	0.055340	0.018750	0.000451
 480	2.3950e-01	19.2203	0.113619	0.000004	0.044799	0.015178	0.000365
 481	2.4000e-01	19.2492	0.115388	0.000004	0.043380	0.014698	0.000354
 482	2.4050e-01	19.2668	0.117329	0.000005	0.047637	0.016140	0.000388
 483	2.4100e-01	19.3198	0.119255	0.000005	0.047232	0.016003	0.000385
 484	2.4150e-01	19.3599	0.121370	0.000005	0.051894	0.017582	0.000423
 485	2.4200e-01	19.3952	0.123849	0.000006	0.060813	0.020604	0.000496
 486	2.4250e-01	19.4208	0.126154	0.000006	0.056557	0.019162	0.000461
 487	2.4300e-01	19.4914	0.128187	0.000005	0.049867	0.016895	0.000407
 488	2.4350e-01	19.5059	0.130103	0.000005	0.047029	0.015934	0.000383
 489	2.4400e-01	19.5861	0.132029	0.000005	0.047232	0.016003	0.000385
 490	2.4450e-01	19.5813	0.134549	-0.000006	-0.061827	-0.020948	0.000504
 491	2.4500e-01	19.6486	0.137003	0.000006	0.060205	0.020398	0.000491
 492	2.4550e-01	19.6711	0.138887	0.000005	0.046218	0.015659	0.000377
 493	2.4600e-01	19.7192	0.140878	0.000005	0.048853	0.016552	0.000398
 494	2.4650e-01	19.7690	0.143010	0.000005	0.052300	0.017720	0.000426
 495	2.4700e-01	19.7882	0.145455	0.000006	0.060003	0.020329	0.000489
 496	2.4750e-01	19.8315	0.147876	0.000006	0.059394	0.020123	0.000484
 497	2.4800e-01	19.8845	0.149942	0.000005	0.050678	0.017170	0.000413
 498	2.4850e-01	19.9583	0.152074	0.000005	0.052300	0.017720	0.000426
 499	2.4900e-01	19.9727	0.154569	0.000006	0.061219	0.020742	0.000499
 500	2.4950e-01	19.9919	0.157040	0.000006	0.060611	0.020535	0.000494
 501	2.5000e-01	20.0690	0.159461	0.000006	0.059394	0.020123	0.000484
 502	2.5050e-01	19.9775	0.161691	-0.000005	-0.054732	-0.018544	0.000446
 503	2.5100e-01	19.9406	0.163881	-0.000005	-0.053719	-0.018200	0.000438
 504	2.5150e-01	19.9021	0.166228	-0.000006	-0.057570	-0.019505	0.000469
 505	2.5200e-01	19.8363	0.168434	-0.000005	-0.054124	-0.018338	0.000441
 506	2.5250e-01	19.8235	0.170285	-0.000005	-0.045407	-0.015384	0.000370
 507	2.5300e-01	19.7866	0.171987	-0.000004	-0.041759	-0.014148	0.000340
 508	2.5350e-01	19.7449	0.173813	-0.000004	-0.044799	-0.015178	0.000365
 509	2.5400e-01	19.6904	0.175631	-0.000004	-0.044597	-0.015110	0.000364
 510	2.5450e-01	19.6855	0.177192	-0.000004	-0.038312	-0.012981	0.000312
 511	2.5500e-01	19.6182	0.178630	-0.000004	-0.035272	-0.011950	0.000288
 512	2.5550e-01	19.5973	0.180233	-0.000004	-0.039326	-0.013324	0.000321
 513	2.5600e-01	19.5235	0.181877	-0.000004	-0.040340	-0.013667	0.000329
 514	2.5650e-01	19.4978	0.183183	-0.000003	-0.032028	-0.010852	0.000261
 515	2.5700e-01	19.4449	0.184282	-0.000003	-0.026961	-0.009135	0.000220
 516	2.5750e-01	19.4273	0.185587	-0.000003	-0.032028	-0.010852	0.000261
 517	2.5800e-01	19.4128	0.187016	-0.000004	-0.035069	-0.011882	0.000286
 518	2.5850e-01	19.3326	0.188215	-0.000003	-0.029393	-0.009959	0.000240
 519	2.5900e-01	19.2941	0.189132	-0.000002	-0.022501	-0.007624	0.000183
 520	2.5950e-01	19.2412	0.189875	-0.000002	-0.018244	-0.006181	0.000149
 521	2.6000e-01	19.2091	0.190826	-0.000002	-0.023312	-0.007898	0.000190
 522	2.6050e-01	19.1914	0.191759	-0.000002	-0.022906	-0.007761	0.000187
 523	2.6100e-01	19.1401	0.192610	-0.000002	-0.020879	-0.007074	0.000170
 524	2.6150e-01	19.1225	0.193461	-0.000002	-0.020879	-0.007074	0.000170
 525	2.6200e-01	19.0679	0.194560	-0.000003	-0.026961	-0.009135	0.000220
 526	2.6250e-01	19.0166	0.195535	-0.000002	-0.023920	-0.008104	0.000195
 527	2.6300e-01	18.9845	0.196304	-0.000002	-0.018852	-0.006387	0.000154
 528	2.6350e-01	18.9364	0.197064	-0.000002	-0.018649	-0.006319	0.000152
 529	2.6400e-01	18.9187	0.197890	-0.000002	-0.020271	-0.006868	0.000165
 530	2.6450e-01	18.8417	0.198708	-0.000002	-0.020068	-0.006799	0.000164
 531	2.6500e-01	18.8209	0.199427	-0.000002	-0.017636	-0.005975	0.000144
 532	2.6550e-01	18.7791	0.199757	-0.000001	-0.008108	-0.002747	0.000066
 533	2.6600e-01	18.7358	0.200096	-0.000001	-0.008311	-0.002816	0.000068
 534	2.6650e-01	18.7230	0.200567	-0.000001	-0.011555	-0.003915	0.000094
 535	2.6700e-01	18.6877	0.201253	-0.000002	-0.016825	-0.005700	0.000137
 536	2.6750e-01	18.5947	0.201749	-0.000001	-0.012163	-0.004121	0.000099
 537	2.6800e-01	18.5947	0.202319	-0.000001	-0.013987	-0.004739	0.000114
 538	2.6850e-01	18.5417	0.202732	-0.000001	-0.010136	-0.003434	0.000083
 539	2.6900e-01	18.5000	0.203062	-0.000001	-0.008108	-0.002747	0.000066
 540	2.6950e-01	18.4679	0.203286	-0.000001	-0.005473	-0.001854	0.000045
 541	2.7000e-01	18.4198	0.203732	-0.000001	-0.010946	-0.003709	0.000089
 542	2.7050e-01	18.3845	0.204310	-0.000001	-0.014190	-0.004808	0.000116
 543	2.7100e-01	18.3524	0.204765	-0.000001	-0.011149	-0.003777	0.000091
 544	2.7150e-01	18.2658	0.205145	-0.000001	-0.009325	-0.003159	0.000076
 545	2.7200e-01	18.2353	0.205318	-0.000000	-0.004257	-0.001442	0.000035
 546	2.7250e-01	18.2113	0.205740	-0.000001	-0.010338	-0.003503	0.000084
 547	2.7300e-01	18.1824	0.206169	-0.000001	-0.010541	-0.003571	0.000086
 548	2.7350e-01	18.1359	0.206558	-0.000001	-0.009527	-0.003228	0.000078
 549	2.7400e-01	18.0974	0.206715	-0.000000	-0.003852	-0.001305	0.000031
 550	2.7450e-01	18.0556	0.207020	-0.000001	-0.007500	-0.002541	0.000061
 551	2.7500e-01	18.0380	0.207161	-0.000000	-0.003446	-0.001168	0.000028
 552	2.7550e-01	17.9546	0.207516	-0.000001	-0.008717	-0.002953	0.000071
 553	2.7600e-01	17.9706	0.207723	0.000001	0.005068	0.001717	0.000041
 554	2.7650e-01	17.9241	0.207830	-0.000000	-0.002635	-0.000893	0.000021
 555	2.7700e-01	17.8840	0.208045	-0.000001	-0.005270	-0.001786	0.000043
 556	2.7750e-01	17.7765	0.208301	-0.000001	-0.006284	-0.002129	0.000051
 557	2.7800e-01	17.7749	0.208987	-0.000002	-0.016825	-0.005700	0.000137
 558	2.7850e-01	17.7540	0.209507	-0.000001	-0.012771	-0.004327	0.000104
 559	2.7900e-01	17.7171	0.209854	-0.000001	-0.008514	-0.002885	0.000069
 560	2.7950e-01	17.6786	0.210061	-0.000001	-0.005068	-0.001717	0.000041
 561	2.8000e-01	17.6385	0.209871	0.000000	0.004662	0.001580	-0.000038
 562	2.8050e-01	17.5776	0.209557	0.000001	0.007703	0.002610	-0.000063
 563	2.8100e-01	17.5295	0.209375	0.000000	0.004460	0.001511	-0.000036
 564	2.8150e-01	17.4749	0.209251	0.000000	0.003041	0.001030	-0.000025
 565	2.8200e-01	17.4717	0.209235	0.000000	0.000405	0.000137	-0.000003
 566	2.8250e-01	17.4204	0.209326	-0.000000	-0.002230	-0.000755	0.000018
 567	2.8300e-01	17.3642	0.209193	0.000000	0.003243	0.001099	-0.000026
 568	2.8350e-01	17.3546	0.209301	-0.000000	-0.002635	-0.000893	0.000021
 569	2.8400e-01	17.3145	0.209780	-0.000001	-0.011757	-0.003983	0.000096
 570	2.8450e-01	17.2599	0.210177	-0.000001	-0.009730	-0.003297	0.000079
 571	2.8500e-01	17.2086	0.210598	-0.000001	-0.010338	-0.003503	0.000084
 572	2.8550e-01	17.1332	0.210400	0.000000	0.004865	0.001648	-0.000040
 573	2.8600e-01	17.1268	0.210309	0.000000	0.002230	0.000755	-0.000018
 574	2.8650e-01	17.0883	0.210259	0.000000	0.001216	0.000412	-0.000010
 575	2.8700e-01	17.0706	0.210160	0.000000	0.002433	0.000824	-0.000020
 576	2.8750e-01	16.9985	0.210218	-0.000000	-0.001419	-0.000481	0.000012
 577	2.8800e-01	16.9519	0.210697	-0.000001	-0.011757	-0.003983	0.000096
 578	2.8850e-01	16.9311	0.210937	-0.000001	-0.005879	-0.001992	0.000048
 579	2.8900e-01	16.9166	0.210730	0.000001	0.005068	0.001717	-0.000041
 580	2.8950e-01	16.8364	0.210672	0.000000	0.001419	0.000481	-0.000012
 581	2.9000e-01	16.7899	0.210433	0.000001	0.005879	0.001992	-0.000048
 582	2.9050e-01	16.7851	0.210722	-0.000001	-0.007095	-0.002404	0.000058
 583	2.9100e-01	16.7674	0.210920	-0.000000	-0.004865	-0.001648	0.000040
 584	2.9150e-01	16.6808	0.210788	0.000000	0.003243	0.001099	-0.000026
 585	2.9200e-01	16.6567	0.210449	0.000001	0.008311	0.002816	-0.000068
 586	2.9250e-01	16.6182	0.210441	0.000000	0.000203	0.000069	-0.000002
 587	2.9300e-01	16.5669	0.210565	-0.000000	-0.003041	-0.001030	0.000025
 588	2.9350e-01	16.5220	0.210755	-0.000000	-0.004662	-0.001580	0.000038
 589	2.9400e-01	16.4979	0.210598	0.000000	0.003852	0.001305	-0.000031
 590	2.9450e-01	16.4418	0.210391	0.000001	0.005068	0.001717	-0.000041
 591	2.9500e-01	16.4081	0.210449	-0.000000	-0.001419	-0.000481	0.000012
 592	2.9550e-01	16.3616	0.210722	-0.000001	-0.006689	-0.002266	0.000055
 593	2.9600e-01	16.3038	0.210606	0.000000	0.002838	0.000962	-0.000023
 594	2.9650e-01	16.2814	0.210466	0.000000	0.003446	0.001168	-0.000028
 595	2.9700e-01	16.2557	0.210251	0.000001	0.005270	0.001786	-0.000043
 596	2.9750e-01	16.2509	0.210292	-0.000000	-0.001014	-0.000343	0.000008
 597	2.9800e-01	16.1931	0.210342	-0.000000	-0.001216	-0.000412	0.000010
 598	2.9850e-01	16.1290	0.210111	0.000001	0.005676	0.001923	-0.000046
 599	2.9900e-01	16.1049	0.209978	0.000000	0.003243	0.001099	-0.000026
 600	2.9950e-01	16.0760	0.210111	-0.000000	-0.003243	-0.001099	0.000026
 601	3.0000e-01	16.0215	0.210111	-0.000000	-0.000000	-0.000000	0.000000
 602	3.0050e-01	15.9701	0.209978	0.000000	0.003243	0.001099	-0.000026
 603	3.0100e-01	15.9381	0.209830	0.000000	0.003649	0.001236	-0.000030
 604	3.0150e-01	15.8963	0.209797	0.000000	0.000811	0.000275	-0.000007
 605	3.0200e-01	15.8514	0.209772	0.000000	0.000608	0.000206	-0.000005
 606	3.0250e-01	15.8177	0.209813	-0.000000	-0.001014	-0.000343	0.000008
 607	3.0300e-01	15.7488	0.209499	0.000001	0.007703	0.002610	-0.000063
 608	3.0350e-01	15.7215	0.209326	0.000000	0.004257	0.001442	-0.000035
 609	3.0400e-01	15.6878	0.209251	0.000000	0.001824	0.000618	-0.000015
 610	3.0450e-01	15.6525	0.209102	0.000000	0.003649	0.001236	-0.000030
 611	3.0500e-01	15.6381	0.209086	0.000000	0.000405	0.000137	-0.000003
 612	3.0550e-01	15.5867	0.209028	0.000000	0.001419	0.000481	-0.000012
 613	3.0600e-01	15.5466	0.209102	-0.000000	-0.001824	-0.000618	0.000015
 614	3.0650e-01	15.5049	0.209061	0.000000	0.001014	0.000343	-0.000008
 615	3.0700e-01	15.4680	0.209094	-0.000000	-0.000811	-0.000275	0.000007
 616	3.0750e-01	15.3990	0.208962	0.000000	0.003243	0.001099	-0.000026
 617	3.0800e-01	15.3669	0.208879	0.000000	0.002027	0.000687	-0.000017
 618	3.0850e-01	15.3317	0.208888	-0.000000	-0.000203	-0.000069	0.000002
 619	3.0900e-01	15.3172	0.208739	0.000000	0.003649	0.001236	-0.000030
 620	3.0950e-01	15.2530	0.208243	0.000001	0.012163	0.004121	-0.000099
 621	3.1000e-01	15.1889	0.208169	0.000000	0.001824	0.000618	-0.000015
 622	3.1050e-01	15.1793	0.208194	-0.000000	-0.000608	-0.000206	0.000005
 623	3.1100e-01	15.1440	0.208078	0.000000	0.002838	0.000962	-0.000023
 624	3.1150e-01	15.1039	0.208012	0.000000	0.001622	0.000549	-0.000013
 625	3.1200e-01	15.0509	0.208012	-0.000000	-0.000000	-0.000000	0.000000
 626	3.1250e-01	15.0172	0.207863	0.000000	0.003649	0.001236	-0.000030
 627	3.1300e-01	14.9739	0.207483	0.000001	0.009325	0.003159	-0.000076
 628	3.1350e-01	14.9049	0.207186	0.000001	0.007298	0.002472	-0.000059
 629	3.1400e-01	14.9162	0.207153	-0.000000	-0.000811	-0.000275	-0.000007
 630	3.1450e-01	14.8680	0.207194	-0.000000	-0.001014	-0.000343	0.000008
 631	3.1500e-01	14.8007	0.207227	-0.000000	-0.000811	-0.000275	0.000007
 632	3.1550e-01	14.7589	0.206946	0.000001	0.006892	0.002335	-0.000056
 633	3.1600e-01	14.7638	0.206756	-0.000000	-0.004662	-0.001580	-0.000038
 634	3.1650e-01	14.6819	0.206805	-0.000000	-0.001216	-0.000412	0.000010
 635	3.1700e-01	14.6274	0.206748	0.000000	0.001419	0.000481	-0.000012
 636	3.1750e-01	14.6242	0.206764	-0.000000	-0.000405	-0.000137	0.000003
 637	3.1800e-01	14.5825	0.206541	0.000001	0.005473	0.001854	-0.000045
 638	3.1850e-01	14.5327	0.206417	0.000000	0.003041	0.001030	-0.000025
 639	3.1900e-01	14.4814	0.206442	-0.000000	-0.000608	-0.000206	0.000005
 640	3.1950e-01	14.4445	0.206434	0.000000	0.000203	0.000069	-0.000002
 641	3.2000e-01	14.4028	0.206194	0.000001	0.005879	0.001992	-0.000048
 642	3.2050e-01	14.3739	0.205946	0.000001	0.006081	0.002060	-0.000050
 643	3.2100e-01	14.3258	0.205864	0.000000	0.002027	0.000687	-0.000017
 644	3.2150e-01	14.3001	0.205797	0.000000	0.001622	0.000549	-0.000013
 645	3.2200e-01	14.2279	0.205657	0.000000	0.003446	0.001168	-0.000028
 646	3.2250e-01	14.2215	0.205459	0.000000	0.004865	0.001648	-0.000040
 647	3.2300e-01	14.1590	0.205401	0.000000	0.001419	0.000481	-0.000012
 648	3.2350e-01	14.1590	0.205302	0.000000	0.002433	0.000824	-0.000020
 649	3.2400e-01	14.0996	0.205715	-0.000001	-0.010136	-0.003434	0.000083
 650	3.2450e-01	14.0531	0.206054	-0.000001	-0.008311	-0.002816	0.000068
 651	3.2500e-01	14.0242	0.206136	-0.000000	-0.002027	-0.000687	0.000017
 652	3.2550e-01	13.9761	0.206227	-0.000000	-0.002230	-0.000755	0.000018
 653	3.2600e-01	13.9456	0.205599	0.000002	0.015406	0.005220	-0.000126
 654	3.2650e-01	13.9007	0.204963	0.000002	0.015609	0.005288	-0.000127
 655	3.2700e-01	13.8429	0.204566	0.000001	0.009730	0.003297	-0.000079
 656	3.2750e-01	13.7948	0.204186	0.000001	0.009325	0.003159	-0.000076
 657	3.2800e-01	13.7595	0.203971	0.000001	0.005270	0.001786	-0.000043
 658	3.2850e-01	13.7210	0.203682	0.000001	0.007095	0.002404	-0.000058
 659	3.2900e-01	13.7130	0.203269	0.000001	0.010136	0.003434	-0.000083
 660	3.2950e-01	13.6392	0.203021	0.000001	0.006081	0.002060	-0.000050
 661	3.3000e-01	13.6103	0.203219	-0.000000	-0.004865	-0.001648	0.000040
 662	3.3050e-01	13.5879	0.203682	-0.000001	-0.011352	-0.003846	0.000093
 663	3.3100e-01	13.5526	0.203806	-0.000000	-0.003041	-0.001030	0.000025
 664	3.3150e-01	13.5076	0.203616	0.000000	0.004662	0.001580	-0.000038
 665	3.3200e-01	13.4419	0.203244	0.000001	0.009122	0.003091	-0.000074
 666	3.3250e-01	13.4098	0.203112	0.000000	0.003243	0.001099	-0.000026
 667	3.3300e-01	13.3665	0.202856	0.000001	0.006284	0.002129	-0.000051
 668	3.3350e-01	13.3344	0.202691	0.000000	0.004054	0.001374	-0.000033
 669	3.3400e-01	13.2606	0.203054	-0.000001	-0.008919	-0.003022	0.000073
 670	3.3450e-01	13.2750	0.203021	-0.000000	-0.000811	-0.000275	-0.000007
 671	3.3500e-01	13.2109	0.202707	0.000001	0.007703	0.002610	-0.000063
 672	3.3550e-01	13.1868	0.202294	0.000001	0.010136	0.003434	-0.000083
 673	3.3600e-01	13.1290	0.202054	0.000001	0.005879	0.001992	-0.000048
 674	3.3650e-01	13.0921	0.201931	0.000000	0.003041	0.001030	-0.000025
 675	3.3700e-01	13.0504	0.202170	-0.000001	-0.005879	-0.001992	0.000048
 676	3.3750e-01	13.0007	0.201774	0.000001	0.009730	0.003297	-0.000079
 677	3.3800e-01	12.9815	0.201402	0.000001	0.009122	0.003091	-0.000074
 678	3.3850e-01	12.9670	0.201303	0.000000	0.002433	0.000824	-0.000020
 679	3.3900e-01	12.9494	0.201270	0.000000	0.000811	0.000275	-0.000007
 680	3.3950e-01	12.8435	0.201344	-0.000000	-0.001824	-0.000618	0.000015
 681	3.4000e-01	12.7938	0.201137	0.000001	0.005068	0.001717	-0.000041
 682	3.4050e-01	12.7761	0.201013	0.000000	0.003041	0.001030	-0.000025
 683	3.4100e-01	12.7360	0.200757	0.000001	0.006284	0.002129	-0.000051
 684	3.4150e-01	12.7055	0.200823	-0.000000	-0.001622	-0.000549	0.000013
 685	3.4200e-01	12.6670	0.200840	-0.000000	-0.000405	-0.000137	0.000003
 686	3.4250e-01	12.6157	0.200509	0.000001	0.008108	0.002747	-0.000066
 687	3.4300e-01	12.5900	0.200261	0.000001	0.006081	0.002060	-0.000050
 688	3.4350e-01	12.5130	0.200295	-0.000000	-0.000811	-0.000275	0.000007
 689	3.4400e-01	12.4986	0.200253	0.000000	0.001014	0.000343	-0.000008
 690	3.4450e-01	12.4456	0.199956	0.000001	0.007298	0.002472	-0.000059
 691	3.4500e-01	12.4200	0.199741	0.000001	0.005270	0.001786	-0.000043
 692	3.4550e-01	12.3831	0.199468	0.000001	0.006689	0.002266	-0.000055
 693	3.4600e-01	12.3301	0.199518	-0.000000	-0.001216	-0.000412	0.000010
 694	3.4650e-01	12.2836	0.199344	0.000000	0.004257	0.001442	-0.000035
 695	3.4700e-01	12.2499	0.198972	0.000001	0.009122	0.003091	-0.000074
 696	3.4750e-01	12.2082	0.198708	0.000001	0.006487	0.002198	-0.000053
 697	3.4800e-01	12.1681	0.198460	0.000001	0.006081	0.002060	-0.000050
 698	3.4850e-01	12.1296	0.198419	0.000000	0.001014	0.000343	-0.000008
 699	3.4900e-01	12.1168	0.198270	0.000000	0.003649	0.001236	-0.000030
 700	3.4950e-01	12.0398	0.198262	0.000000	0.000203	0.000069	-0.000002
 701	3.5000e-01	11.9981	0.198328	-0.000000	-0.001622	-0.000549	0.000013
 702	3.5050e-01	12.0013	0.198320	-0.000000	-0.000203	-0.000069	-0.000002
 703	3.5100e-01	11.9130	0.198221	0.000000	0.002433	0.000824	-0.000020
 704	3.5150e-01	11.8842	0.198072	0.000000	0.003649	0.001236	-0.000030
 705	3.5200e-01	11.8665	0.197981	0.000000	0.002230	0.000755	-0.000018
 706	3.5250e-01	11.8312	0.197882	0.000000	0.002433	0.000824	-0.000020
 707	3.5300e-01	11.7670	0.197650	0.000001	0.005676	0.001923	-0.000046
 708	3.5350e-01	11.7366	0.197295	0.000001	0.008717	0.002953	-0.000071
 709	3.5400e-01	11.6981	0.197014	0.000001	0.006892	0.002335	-0.000056
 710	3.5450e-01	11.6756	0.197180	-0.000000	-0.004054	-0.001374	0.000033
 711	3.5500e-01	11.6179	0.197180	-0.000000	-0.000000	-0.000000	0.000000
 712	3.5550e-01	11.5810	0.197122	0.000000	0.001419	0.000481	-0.000012
 713	3.5600e-01	11.5425	0.196989	0.000000	0.003243	0.001099	-0.000026
 714	3.5650e-01	11.5200	0.196857	0.000000	0.003243	0.001099	-0.000026
 715	3.5700e-01	11.4350	0.196535	0.000001	0.007906	0.002679	-0.000064
 716	3.5750e-01	11.4286	0.196205	0.000001	0.008108	0.002747	-0.000066
 717	3.5800e-01	11.3692	0.196081	0.000000	0.003041	0.001030	-0.000025
 718	3.5850e-01	11.3516	0.196130	-0.000000	-0.001216	-0.000412	0.000010
 719	3.5900e-01	11.3179	0.196023	0.000000	0.002635	0.000893	-0.000021
 720	3.5950e-01	11.2489	0.195791	0.000001	0.005676	0.001923	-0.000046
 721	3.6000e-01	11.2072	0.195527	0.000001	0.006487	0.002198	-0.000053
 722	3.6050e-01	11.1590	0.195585	-0.000000	-0.001419	-0.000481	0.000012
 723	3.6100e-01	11.1286	0.195544	0.000000	0.001014	0.000343	-0.000008
 724	3.6150e-01	11.0885	0.195510	0.000000	0.000811	0.000275	-0.000007
 725	3.6200e-01	11.0355	0.195172	0.000001	0.008311	0.002816	-0.000068
 726	3.6250e-01	11.0243	0.194998	0.000000	0.004257	0.001442	-0.000035
 727	3.6300e-01	10.9842	0.194849	0.000000	0.003649	0.001236	-0.000030
 728	3.6350e-01	10.9361	0.194775	0.000000	0.001824	0.000618	-0.000015
 729	3.6400e-01	10.8526	0.194569	0.000001	0.005068	0.001717	-0.000041
 730	3.6450e-01	10.8703	0.194321	-0.000001	-0.006081	-0.002060	-0.000050
 731	3.6500e-01	10.8318	0.194172	0.000000	0.003649	0.001236	-0.000030
 732	3.6550e-01	10.7724	0.194048	0.000000	0.003041	0.001030	-0.000025
 733	3.6600e-01	10.7403	0.193726	0.000001	0.007906	0.002679	-0.000064
 734	3.6650e-01	10.6954	0.193519	0.000001	0.005068	0.001717	-0.000041
 735	3.6700e-01	10.6232	0.193387	0.000000	0.003243	0.001099	-0.000026
 736	3.6750e-01	10.6152	0.193337	0.000000	0.001216	0.000412	-0.000010
 737	3.6800e-01	10.5623	0.193230	0.000000	0.002635	0.000893	-0.000021
 738	3.6850e-01	10.5077	0.193263	-0.000000	-0.000811	-0.000275	0.000007
 739	3.6900e-01	10.5109	0.193123	-0.000000	-0.003446	-0.001168	-0.000028
 740	3.6950e-01	10.4548	0.193246	-0.000000	-0.003041	-0.001030	0.000025
 741	3.7000e-01	10.4307	0.193660	-0.000001	-0.010136	-0.003434	0.000083
 742	3.7050e-01	10.3826	0.193602	0.000000	0.001419	0.000481	-0.000012
 743	3.7100e-01	10.3200	0.193701	-0.000000	-0.002433	-0.000824	0.000020
 744	3.7150e-01	10.2655	0.193280	0.000001	0.010338	0.003503	-0.000084
 745	3.7200e-01	10.2446	0.192577	0.000002	0.017230	0.005838	-0.000140
 746	3.7250e-01	10.2302	0.191891	0.000002	0.016825	0.005700	-0.000137
 747	3.7300e-01	10.1805	0.191520	0.000001	0.009122	0.003091	-0.000074
 748	3.7350e-01	10.1420	0.191065	0.000001	0.011149	0.003777	-0.000091
 749	3.7400e-01	10.1035	0.190759	0.000001	0.007500	0.002541	-0.000061
 750	3.7450e-01	10.0666	0.190536	0.000001	0.005473	0.001854	-0.000045
 751	3.7500e-01	10.0281	0.190379	0.000000	0.003852	0.001305	-0.000031
 752	3.7550e-01	9.9767	0.190264	0.000000	0.002838	0.000962	-0.000023
 753	3.7600e-01	9.9061	0.190635	-0.000001	-0.009122	-0.003091	0.000074
 754	3.7650e-01	9.8981	0.190941	-0.000001	-0.007500	-0.002541	0.000061
 755	3.7700e-01	9.8580	0.191098	-0.000000	-0.003852	-0.001305	0.000031
 756	3.7750e-01	9.8339	0.190850	0.000001	0.006081	0.002060	-0.000050
 757	3.7800e-01	9.7858	0.190578	0.000001	0.006689	0.002266	-0.000055
 758	3.7850e-01	9.7072	0.190231	0.000001	0.008514	0.002885	-0.000069
 759	3.7900e-01	9.6864	0.189867	0.000001	0.008919	0.003022	-0.000073
 760	3.7950e-01	9.6463	0.189867	-0.000000	-0.000000	-0.000000	0.000000
 761	3.8000e-01	9.6158	0.190156	-0.000001	-0.007095	-0.002404	0.000058
 762	3.8050e-01	9.5805	0.189875	0.000001	0.006892	0.002335	-0.000056
 763	3.8100e-01	9.5420	0.189553	0.000001	0.007906	0.002679	-0.000064
 764	3.8150e-01	9.4906	0.189107	0.000001	0.010946	0.003709	-0.000089
 765	3.8200e-01	9.4457	0.188900	0.000001	0.005068	0.001717	-0.000041
 766	3.8250e-01	9.3992	0.189057	-0.000000	-0.003852	-0.001305	0.000031
 767	3.8300e-01	9.3302	0.189008	0.000000	0.001216	0.000412	-0.000010
 768	3.8350e-01	9.3286	0.188644	0.000001	0.008919	0.003022	-0.000073
 769	3.8400e-01	9.2949	0.188289	0.000001	0.008717	0.002953	-0.000071
 770	3.8450e-01	9.2468	0.188058	0.000001	0.005676	0.001923	-0.000046
 771	3.8500e-01	9.2163	0.188264	-0.000001	-0.005068	-0.001717	0.000041
 772	3.8550e-01	9.1682	0.188248	0.000000	0.000405	0.000137	-0.000003
 773	3.8600e-01	9.1265	0.187983	0.000001	0.006487	0.002198	-0.000053
 774	3.8650e-01	9.0912	0.187744	0.000001	0.005879	0.001992	-0.000048
 775	3.8700e-01	9.0495	0.187653	0.000000	0.002230	0.000755	-0.000018
 776	3.8750e-01	9.0206	0.187636	0.000000	0.000405	0.000137	-0.000003
 777	3.8800e-01	8.9901	0.187446	0.000000	0.004662	0.001580	-0.000038
 778	3.8850e-01	8.9324	0.187025	0.000001	0.010338	0.003503	-0.000084
 779	3.8900e-01	8.8971	0.186702	0.000001	0.007906	0.002679	-0.000064
 780	3.8950e-01	8.8634	0.186777	-0.000000	-0.001824	-0.000618	0.000015
 781	3.9000e-01	8.7848	0.186711	0.000000	0.001622	0.000549	-0.000013
 782	3.9050e-01	8.7703	0.186165	0.000001	0.013379	0.004533	-0.000109
 783	3.9100e-01	8.7286	0.185835	0.000001	0.008108	0.002747	-0.000066
 784	3.9150e-01	8.6693	0.185645	0.000000	0.004662	0.001580	-0.000038
 785	3.9200e-01	8.6372	0.185579	0.000000	0.001622	0.000549	-0.000013
 786	3.9250e-01	8.6099	0.185562	0.000000	0.000405	0.000137	-0.000003
 787	3.9300e-01	8.6067	0.185438	0.000000	0.003041	0.001030	-0.000025
 788	3.9350e-01	8.5121	0.185587	-0.000000	-0.003649	-0.001236	0.000030
 789	3.9400e-01	8.4848	0.185554	0.000000	0.000811	0.000275	-0.000007
 790	3.9450e-01	8.4318	0.185422	0.000000	0.003243	0.001099	-0.000026
 791	3.9500e-01	8.4094	0.185364	0.000000	0.001419	0.000481	-0.000012
 792	3.9550e-01	8.3677	0.185207	0.000000	0.003852	0.001305	-0.000031
 793	3.9600e-01	8.3292	0.185141	0.000000	0.001622	0.000549	-0.000013
 794	3.9650e-01	8.3019	0.184786	0.000001	0.008717	0.002953	-0.000071
 795	3.9700e-01	8.2425	0.184298	0.000001	0.011960	0.004052	-0.000097
 796	3.9750e-01	8.2217	0.183901	0.000001	0.009730	0.003297	-0.000079
 797	3.9800e-01	8.1704	0.183703	0.000000	0.004865	0.001648	-0.000040
 798	3.9850e-01	8.1399	0.183720	-0.000000	-0.000405	-0.000137	0.000003
 799	3.9900e-01	8.0773	0.183637	0.000000	0.002027	0.000687	-0.000017
 800	3.9950e-01	8.0693	0.183488	0.000000	0.003649	0.001236	-0.000030
 801	4.0000e-01	8.0019	0.183406	0.000000	0.002027	0.000687	-0.000017
 802	4.0050e-01	7.9618	0.183067	0.000001	0.008311	0.002816	-0.000068
 803	4.0100e-01	7.9281	0.182712	0.000001	0.008717	0.002953	-0.000071
 804	4.0150e-01	7.8864	0.182555	0.000000	0.003852	0.001305	-0.000031
 805	4.0200e-01	7.8463	0.182505	0.000000	0.001216	0.000412	-0.000010
 806	4.0250e-01	7.8126	0.182373	0.000000	0.003243	0.001099	-0.000026
 807	4.0300e-01	7.7757	0.182175	0.000000	0.004865	0.001648	-0.000040
 808	4.0350e-01	7.7581	0.181712	0.000001	0.011352	0.003846	-0.000093
 809	4.0400e-01	7.6923	0.181613	0.000000	0.002433	0.000824	-0.000020
 810	4.0450e-01	7.6378	0.181712	-0.000000	-0.002433	-0.000824	0.000020
 811	4.0500e-01	7.6185	0.181530	0.000000	0.004460	0.001511	-0.000036
 812	4.0550e-01	7.5527	0.181249	0.000001	0.006892	0.002335	-0.000056
 813	4.0600e-01	7.5303	0.181059	0.000000	0.004662	0.001580	-0.000038
 814	4.0650e-01	7.4966	0.180894	0.000000	0.004054	0.001374	-0.000033
 815	4.0700e-01	7.4725	0.180729	0.000000	0.004054	0.001374	-0.000033
 816	4.0750e-01	7.4196	0.180555	0.000000	0.004257	0.001442	-0.000035
 817	4.0800e-01	7.3570	0.180175	0.000001	0.009325	0.003159	-0.000076
 818	4.0850e-01	7.3281	0.180018	0.000000	0.003852	0.001305	-0.000031
 819	4.0900e-01	7.2864	0.179754	0.000001	0.006487	0.002198	-0.000053
 820	4.0950e-01	7.2431	0.179531	0.000001	0.005473	0.001854	-0.000045
 821	4.1000e-01	7.2110	0.179316	0.000001	0.005270	0.001786	-0.000043
 822	4.1050e-01	7.1725	0.179026	0.000001	0.007095	0.002404	-0.000058
 823	4.1100e-01	7.1436	0.178820	0.000001	0.005068	0.001717	-0.000041
 824	4.1150e-01	7.0763	0.178713	0.000000	0.002635	0.000893	-0.000021
 825	4.1200e-01	7.0185	0.178539	0.000000	0.004257	0.001442	-0.000035
 826	4.1250e-01	6.9752	0.178357	0.000000	0.004460	0.001511	-0.000036
 827	4.1300e-01	6.9736	0.178109	0.000001	0.006081	0.002060	-0.000050
 828	4.1350e-01	6.9319	0.178126	-0.000000	-0.000405	-0.000137	0.000003
 829	4.1400e-01	6.8966	0.177952	0.000000	0.004257	0.001442	-0.000035
 830	4.1450e-01	6.8533	0.177647	0.000001	0.007500	0.002541	-0.000061
 831	4.1500e-01	6.8148	0.177457	0.000000	0.004662	0.001580	-0.000038
 832	4.1550e-01	6.7683	0.177688	-0.000001	-0.005676	-0.001923	0.000046
 833	4.1600e-01	6.6897	0.177572	0.000000	0.002838	0.000962	-0.000023
 834	4.1650e-01	6.6913	0.177506	-0.000000	-0.001622	-0.000549	-0.000013
 835	4.1700e-01	6.6495	0.177399	0.000000	0.002635	0.000893	-0.000021
 836	4.1750e-01	6.6287	0.176663	0.000002	0.018041	0.006113	-0.000147
 837	4.1800e-01	6.5677	0.175911	0.000002	0.018447	0.006250	-0.000150
 838	4.1850e-01	6.5212	0.175399	0.000001	0.012568	0.004258	-0.000102
 839	4.1900e-01	6.4779	0.175011	0.000001	0.009527	0.003228	-0.000078
 840	4.1950e-01	6.4827	0.174606	-0.000001	-0.009933	-0.003365	-0.000081
 841	4.2000e-01	6.4201	0.174309	0.000001	0.007298	0.002472	-0.000059
 842	4.2050e-01	6.4057	0.174127	0.000000	0.004460	0.001511	-0.000036
 843	4.2100e-01	6.3159	0.173920	0.000001	0.005068	0.001717	-0.000041
 844	4.2150e-01	6.2918	0.174110	-0.000000	-0.004662	-0.001580	0.000038
 845	4.2200e-01	6.2677	0.174449	-0.000001	-0.008311	-0.002816	0.000068
 846	4.2250e-01	6.2100	0.174821	-0.000001	-0.009122	-0.003091	0.000074
 847	4.2300e-01	6.1699	0.174664	0.000000	0.003852	0.001305	-0.000031
 848	4.2350e-01	6.1346	0.174234	0.000001	0.010541	0.003571	-0.000086
 849	4.2400e-01	6.1137	0.173598	0.000002	0.015609	0.005288	-0.000127
 850	4.2450e-01	6.0399	0.173276	0.000001	0.007906	0.002679	-0.000064
 851	4.2500e-01	6.0191	0.172887	0.000001	0.009527	0.003228	-0.000078
 852	4.2550e-01	5.9854	0.172912	-0.000000	-0.000608	-0.000206	0.000005
 853	4.2600e-01	5.9212	0.172920	-0.000000	-0.000203	-0.000069	0.000002
 854	4.2650e-01	5.8843	0.172491	0.000001	0.010541	0.003571	-0.000086
 855	4.2700e-01	5.8474	0.172053	0.000001	0.010744	0.003640	-0.000088
 856	4.2750e-01	5.8234	0.171648	0.000001	0.009933	0.003365	-0.000081
 857	4.2800e-01	5.7929	0.171541	0.000000	0.002635	0.000893	-0.000021
 858	4.2850e-01	5.7351	0.171739	-0.000000	-0.004865	-0.001648	0.000040
 859	4.2900e-01	5.6822	0.171640	0.000000	0.002433	0.000824	-0.000020
 860	4.2950e-01	5.6678	0.171202	0.000001	0.010744	0.003640	-0.000088
 861	4.3000e-01	5.6517	0.170830	0.000001	0.009122	0.003091	-0.000074
 862	4.3050e-01	5.5506	0.170764	0.000000	0.001622	0.000549	-0.000013
 863	4.3100e-01	5.5282	0.170871	-0.000000	-0.002635	-0.000893	0.000021
 864	4.3150e-01	5.4688	0.170499	0.000001	0.009122	0.003091	-0.000074
 865	4.3200e-01	5.4704	0.169954	-0.000001	-0.013379	-0.004533	-0.000109
 866	4.3250e-01	5.4175	0.169599	0.000001	0.008717	0.002953	-0.000071
 867	4.3300e-01	5.3790	0.169409	0.000000	0.004662	0.001580	-0.000038
 868	4.3350e-01	5.3373	0.169310	0.000000	0.002433	0.000824	-0.000020
 869	4.3400e-01	5.2956	0.168847	0.000001	0.011352	0.003846	-0.000093
 870	4.3450e-01	5.2715	0.168318	0.000001	0.012974	0.004396	-0.000106
 871	4.3500e-01	5.2105	0.167897	0.000001	0.010338	0.003503	-0.000084
 872	4.3550e-01	5.1512	0.167707	0.000000	0.004662	0.001580	-0.000038
 873	4.3600e-01	5.1335	0.167294	0.000001	0.010136	0.003434	-0.000083
 874	4.3650e-01	5.0983	0.167211	0.000000	0.002027	0.000687	-0.000017
 875	4.3700e-01	5.0469	0.167236	-0.000000	-0.000608	-0.000206	0.000005
 876	4.3750e-01	5.0068	0.167194	0.000000	0.001014	0.000343	-0.000008
 877	4.3800e-01	4.9924	0.167112	0.000000	0.002027	0.000687	-0.000017
 878	4.3850e-01	4.9330	0.166889	0.000001	0.005473	0.001854	-0.000045
 879	4.3900e-01	4.8753	0.166666	0.000001	0.005473	0.001854	-0.000045
 880	4.3950e-01	4.8608	0.166633	0.000000	0.000811	0.000275	-0.000007
 881	4.4000e-01	4.8303	0.166467	0.000000	0.004054	0.001374	-0.000033
 882	4.4050e-01	4.7614	0.165988	0.000001	0.011757	0.003983	-0.000096
 883	4.4100e-01	4.7373	0.165319	0.000002	0.016420	0.005563	-0.000134
 884	4.4150e-01	4.6876	0.164997	0.000001	0.007906	0.002679	-0.000064
 885	4.4200e-01	4.6651	0.165013	-0.000000	-0.000405	-0.000137	0.000003
 886	4.4250e-01	4.6170	0.164691	0.000001	0.007906	0.002679	-0.000064
 887	4.4300e-01	4.5576	0.164484	0.000001	0.005068	0.001717	-0.000041
 888	4.4350e-01	4.5287	0.164402	0.000000	0.002027	0.000687	-0.000017
 889	4.4400e-01	4.5223	0.164104	0.000001	0.007298	0.002472	-0.000059
 890	4.4450e-01	4.4550	0.163757	0.000001	0.008514	0.002885	-0.000069
 891	4.4500e-01	4.4197	0.163435	0.000001	0.007906	0.002679	-0.000064
 892	4.4550e-01	4.3491	0.163319	0.000000	0.002838	0.000962	-0.000023
 893	4.4600e-01	4.3186	0.163237	0.000000	0.002027	0.000687	-0.000017
 894	4.4650e-01	4.3074	0.162956	0.000001	0.006892	0.002335	-0.000056
 895	4.4700e-01	4.2833	0.162724	0.000001	0.005676	0.001923	-0.000046
 896	4.4750e-01	4.1983	0.162336	0.000001	0.009527	0.003228	-0.000078
 897	4.4800e-01	4.1903	0.162146	0.000000	0.004662	0.001580	-0.000038
 898	4.4850e-01	4.1100	0.161915	0.000001	0.005676	0.001923	-0.000046
 899	4.4900e-01	4.1149	0.161683	-0.000001	-0.005676	-0.001923	-0.000046
 900	4.4950e-01	4.0330	0.161221	0.000001	0.011352	0.003846	-0.000093
 901	4.5000e-01	4.0074	0.160964	0.000001	0.006284	0.002129	-0.000051
 902	4.5050e-01	3.9464	0.160766	0.000000	0.004865	0.001648	-0.000040
 903	4.5100e-01	3.9560	0.160427	-0.000001	-0.008311	-0.002816	-0.000068
 904	4.5150e-01	3.8822	0.160171	0.000001	0.006284	0.002129	-0.000051
 905	4.5200e-01	3.8518	0.159898	0.000001	0.006689	0.002266	-0.000055
 906	4.5250e-01	3.8133	0.159791	0.000000	0.002635	0.000893	-0.000021
 907	4.5300e-01	3.8245	0.159502	-0.000001	-0.007095	-0.002404	-0.000058
 908	4.5350e-01	3.7443	0.159213	0.000001	0.007095	0.002404	-0.000058
 909	4.5400e-01	3.7122	0.158849	0.000001	0.008919	0.003022	-0.000073
 910	4.5450e-01	3.6368	0.158486	0.000001	0.008919	0.003022	-0.000073
 911	4.5500e-01	3.6079	0.158254	0.000001	0.005676	0.001923	-0.000046
 912	4.5550e-01	3.5774	0.157965	0.000001	0.007095	0.002404	-0.000058
 913	4.5600e-01	3.5646	0.157758	0.000001	0.005068	0.001717	-0.000041
 914	4.5650e-01	3.4796	0.157453	0.000001	0.007500	0.002541	-0.000061
 915	4.5700e-01	3.4379	0.157246	0.000001	0.005068	0.001717	-0.000041
 916	4.5750e-01	3.3962	0.156924	0.000001	0.007906	0.002679	-0.000064
 917	4.5800e-01	3.3577	0.156610	0.000001	0.007703	0.002610	-0.000063
 918	4.5850e-01	3.3143	0.156337	0.000001	0.006689	0.002266	-0.000055
 919	4.5900e-01	3.2983	0.156081	0.000001	0.006284	0.002129	-0.000051
 920	4.5950e-01	3.2486	0.155800	0.000001	0.006892	0.002335	-0.000056
 921	4.6000e-01	3.2037	0.155536	0.000001	0.006487	0.002198	-0.000053
 922	4.6050e-01	3.1635	0.155172	0.000001	0.008919	0.003022	-0.000073
 923	4.6100e-01	3.1234	0.154784	0.000001	0.009527	0.003228	-0.000078
 924	4.6150e-01	3.0705	0.154941	-0.000000	-0.003852	-0.001305	0.000031
 925	4.6200e-01	3.0769	0.154982	0.000000	0.001014	0.000343	0.000008
 926	4.6250e-01	3.0288	0.154759	0.000001	0.005473	0.001854	-0.000045
 927	4.6300e-01	2.9582	0.154305	0.000001	0.011149	0.003777	-0.000091
 928	4.6350e-01	2.9213	0.153668	0.000002	0.015609	0.005288	-0.000127
 929	4.6400e-01	2.8956	0.152867	0.000002	0.019663	0.006662	-0.000160
 930	4.6450e-01	2.8507	0.152223	0.000002	0.015811	0.005357	-0.000129
 931	4.6500e-01	2.7962	0.151760	0.000001	0.011352	0.003846	-0.000093
 932	4.6550e-01	2.7128	0.151330	0.000001	0.010541	0.003571	-0.000086
 933	4.6600e-01	2.7481	0.150950	-0.000001	-0.009325	-0.003159	-0.000076
 934	4.6650e-01	2.6967	0.150405	0.000001	0.013379	0.004533	-0.000109
 935	4.6700e-01	2.6694	0.150215	0.000000	0.004662	0.001580	-0.000038
 936	4.6750e-01	2.6101	0.150198	0.000000	0.000405	0.000137	-0.000003
 937	4.6800e-01	2.5571	0.150405	-0.000001	-0.005068	-0.001717	0.000041
 938	4.6850e-01	2.5315	0.150438	-0.000000	-0.000811	-0.000275	0.000007
 939	4.6900e-01	2.4898	0.149826	0.000002	0.015001	0.005082	-0.000122
 940	4.6950e-01	2.4481	0.149322	0.000001	0.012365	0.004190	-0.000101
 941	4.7000e-01	2.4015	0.148711	0.000002	0.015001	0.005082	-0.000122
 942	4.7050e-01	2.3823	0.148157	0.000001	0.013582	0.004602	-0.000111
 943	4.7100e-01	2.3261	0.148017	0.000000	0.003446	0.001168	-0.000028
 944	4.7150e-01	2.2989	0.148133	-0.000000	-0.002838	-0.000962	0.000023
 945	4.7200e-01	2.2219	0.148042	0.000000	0.002230	0.000755	-0.000018
 946	4.7250e-01	2.1930	0.147496	0.000001	0.013379	0.004533	-0.000109
 947	4.7300e-01	2.1850	0.147034	0.000001	0.011352	0.003846	-0.000093
 948	4.7350e-01	2.1368	0.146645	0.000001	0.009527	0.003228	-0.000078
 949	4.7400e-01	2.1064	0.146637	0.000000	0.000203	0.000069	-0.000002
 950	4.7450e-01	2.0679	0.146802	-0.000000	-0.004054	-0.001374	0.000033
 951	4.7500e-01	2.0181	0.146240	0.000001	0.013784	0.004670	-0.000112
 952	4.7550e-01	1.9588	0.145712	0.000001	0.012974	0.004396	-0.000106
 953	4.7600e-01	1.9315	0.145431	0.000001	0.006892	0.002335	-0.000056
 954	4.7650e-01	1.8834	0.145249	0.000000	0.004460	0.001511	-0.000036
 955	4.7700e-01	1.8850	0.145125	-0.000000	-0.003041	-0.001030	-0.000025
 956	4.7750e-01	1.8192	0.144538	0.000001	0.014393	0.004876	-0.000117
 957	4.7800e-01	1.7663	0.144018	0.000001	0.012771	0.004327	-0.000104
 958	4.7850e-01	1.7165	0.143481	0.000001	0.013176	0.004464	-0.000107
 959	4.7900e-01	1.7133	0.143233	0.000001	0.006081	0.002060	-0.000050
 960	4.7950e-01	1.6363	0.142836	0.000001	0.009730	0.003297	-0.000079
 961	4.8000e-01	1.6395	0.142241	-0.000001	-0.014595	-0.004945	-0.000119
 962	4.8050e-01	1.5754	0.142159	0.000000	0.002027	0.000687	-0.000017
 963	4.8100e-01	1.5369	0.142018	0.000000	0.003446	0.001168	-0.000028
 964	4.8150e-01	1.4615	0.142109	-0.000000	-0.002230	-0.000755	0.000018
 965	4.8200e-01	1.4310	0.141745	0.000001	0.008919	0.003022	-0.000073
 966	4.8250e-01	1.4214	0.141390	0.000001	0.008717	0.002953	-0.000071
 967	4.8300e-01	1.3909	0.141118	0.000001	0.006689	0.002266	-0.000055
 968	4.8350e-01	1.2962	0.140878	0.000001	0.005879	0.001992	-0.000048
 969	4.8400e-01	1.2882	0.140556	0.000001	0.007906	0.002679	-0.000064
 970	4.8450e-01	1.2770	0.139919	0.000002	0.015609	0.005288	-0.000127
 971	4.8500e-01	1.2160	0.139291	0.000002	0.015406	0.005220	-0.000126
 972	4.8550e-01	1.1695	0.138928	0.000001	0.008919	0.003022	-0.000073
 973	4.8600e-01	1.1358	0.138639	0.000001	0.007095	0.002404	-0.000058
 974	4.8650e-01	1.1310	0.138350	0.000001	0.007095	0.002404	-0.000058
 975	4.8700e-01	1.0732	0.138093	0.000001	0.006284	0.002129	-0.000051
 976	4.8750e-01	1.0059	0.137879	0.000001	0.005270	0.001786	-0.000043
 977	4.8800e-01	0.9609	0.137498	0.000001	0.009325	0.003159	-0.000076
 978	4.8850e-01	0.9224	0.137052	0.000001	0.010946	0.003709	-0.000089
 979	4.8900e-01	0.8920	0.136697	0.000001	0.008717	0.002953	-0.000071
 980	4.8950e-01	0.8438	0.136606	0.000000	0.002230	0.000755	-0.000018
 981	4.9000e-01	0.7989	0.136457	0.000000	0.003649	0.001236	-0.000030
 982	4.9050e-01	0.7941	0.136069	0.000001	0.009527	0.003228	-0.000078
 983	4.9100e-01	0.7235	0.135739	0.000001	0.008108	0.002747	-0.000066
 984	4.9150e-01	0.6978	0.135292	0.000001	0.010946	0.003709	-0.000089
 985	4.9200e-01	0.6513	0.135218	0.000000	0.001824	0.000618	-0.000015
 986	4.9250e-01	0.5936	0.134871	0.000001	0.008514	0.002885	-0.000069
 987	4.9300e-01	0.5503	0.134450	0.000001	0.010338	0.003503	-0.000084
 988	4.9350e-01	0.5342	0.134086	0.000001	0.008919	0.003022	-0.000073
 989	4.9400e-01	0.4620	0.133756	0.000001	0.008108	0.002747	-0.000066
 990	4.9450e-01	0.4540	0.133442	0.000001	0.007703	0.002610	-0.000063
 991	4.9500e-01	0.4171	0.133037	0.000001	0.009933	0.003365	-0.000081
 992	4.9550e-01	0.3626	0.132706	0.000001	0.008108	0.002747	-0.000066
 993	4.9600e-01	0.3321	0.132467	0.000001	0.005879	0.001992	-0.000048
 994	4.9650e-01	0.2936	0.132202	0.000001	0.006487	0.002198	-0.000053
 995	4.9700e-01	0.2679	0.131913	0.000001	0.007095	0.002404	-0.000058
 996	4.9750e-01	0.2134	0.131632	0.000001	0.006892	0.002335	-0.000056
 997	4.9800e-01	0.1845	0.131268	0.000001	0.008919	0.003022	-0.000073
 998	4.9850e-01	0.1492	0.131021	0.000001	0.006081	0.002060	-0.000050
 999	4.9900e-01	0.0834	0.130674	0.000001	0.008514	0.002885	-0.000069
1000	4.9950e-01	0.0401	0.130434	0.000001	0.005879	0.001992	-0.000048
1001	5.0000e-01	0.0497	0.130120	-0.000001	-0.007703	-0.002610	-0.000063
1002	5.0050e-01	-0.0337	0.129806	0.000001	0.007703	0.002610	-0.000063
1003	5.0100e-01	-0.0818	0.129401	0.000001	0.009933	0.003365	-0.000081
1004	5.0150e-01	-0.0946	0.128897	0.000001	0.012365	0.004190	-0.000101
1005	5.0200e-01	-0.1524	0.128674	0.000001	0.005473	0.001854	-0.000045
1006	5.0250e-01	-0.1957	0.128302	0.000001	0.009122	0.003091	-0.000074
1007	5.0300e-01	-0.2262	0.127947	0.000001	0.008717	0.002953	-0.000071
1008	5.0350e-01	-0.2390	0.127625	0.000001	0.007906	0.002679	-0.000064
1009	5.0400e-01	-0.3208	0.127335	0.000001	0.007095	0.002404	-0.000058
1010	5.0450e-01	-0.3241	0.126980	0.000001	0.008717	0.002953	-0.000071
1011	5.0500e-01	-0.3770	0.126741	0.000001	0.005879	0.001992	-0.000048
1012	5.0550e-01	-0.4219	0.126418	0.000001	0.007906	0.002679	-0.000064
1013	5.0600e-01	-0.4556	0.125972	0.000001	0.010946	0.003709	-0.000089
1014	5.0650e-01	-0.4797	0.125733	0.000001	0.005879	0.001992	-0.000048
1015	5.0700e-01	-0.5422	0.125460	0.000001	0.006689	0.002266	-0.000055
1016	5.0750e-01	-0.5920	0.125534	-0.000000	-0.001824	-0.000618	0.000015
1017	5.0800e-01	-0.6289	0.125427	0.000000	0.002635	0.000893	-0.000021
1018	5.0850e-01	-0.6609	0.125336	0.000000	0.002230	0.000755	-0.000018
1019	5.0900e-01	-0.7027	0.124650	0.000002	0.016825	0.005700	-0.000137
1020	5.0950e-01	-0.7396	0.123807	0.000002	0.020677	0.007005	-0.000169
1021	5.1000e-01	-0.7813	0.123212	0.000001	0.014595	0.004945	-0.000119
1022	5.1050e-01	-0.8182	0.122518	0.000002	0.017028	0.005769	-0.000139
1023	5.1100e-01	-0.8486	0.122097	0.000001	0.010338	0.003503	-0.000084
1024	5.1150e-01	-0.8871	0.121659	0.000001	0.010744	0.003640	-0.000088
1025	5.1200e-01	-0.9593	0.121271	0.000001	0.009527	0.003228	-0.000078
1026	5.1250e-01	-0.9561	0.120874	-0.000001	-0.009730	-0.003297	-0.000079
1027	5.1300e-01	-1.0171	0.120618	0.000001	0.006284	0.002129	-0.000051
1028	5.1350e-01	-1.0652	0.120775	-0.000000	-0.003852	-0.001305	0.000031
1029	5.1400e-01	-1.1021	0.120882	-0.000000	-0.002635	-0.000893	0.000021
1030	5.1450e-01	-1.1438	0.120767	0.000000	0.002838	0.000962	-0.000023
1031	5.1500e-01	-1.1695	0.120287	0.000001	0.011757	0.003983	-0.000096
1032	5.1550e-01	-1.2064	0.119610	0.000002	0.016622	0.005632	-0.000136
1033	5.1600e-01	-1.2561	0.119098	0.000001	0.012568	0.004258	-0.000102
1034	5.1650e-01	-1.3155	0.118701	0.000001	0.009730	0.003297	-0.000079
1035	5.1700e-01	-1.3652	0.118726	-0.000000	-0.000608	-0.000206	0.000005
1036	5.1750e-01	-1.3652	0.118742	-0.000000	-0.000405	-0.000137	0.000003
1037	5.1800e-01	-1.4214	0.118346	0.000001	0.009730	0.003297	-0.000079
1038	5.1850e-01	-1.4615	0.117743	0.000001	0.014798	0.005014	-0.000121
1039	5.1900e-01	-1.5192	0.117263	0.000001	0.011757	0.003983	-0.000096
1040	5.1950e-01	-1.5353	0.116991	0.000001	0.006689	0.002266	-0.000055
1041	5.2000e-01	-1.5786	0.116925	0.000000	0.001622	0.000549	-0.000013
1042	5.2050e-01	-1.6090	0.116792	0.000000	0.003243	0.001099	-0.000026
1043	5.2100e-01	-1.6411	0.116313	0.000001	0.011757	0.003983	-0.000096
1044	5.2150e-01	-1.6893	0.115784	0.000001	0.012974	0.004396	-0.000106
1045	5.2200e-01	-1.7197	0.115429	0.000001	0.008717	0.002953	-0.000071
1046	5.2250e-01	-1.7791	0.115198	0.000001	0.005676	0.001923	-0.000046
1047	5.2300e-01	-1.8288	0.114760	0.000001	0.010744	0.003640	-0.000088
1048	5.2350e-01	-1.8481	0.114099	0.000002	0.016217	0.005494	-0.000132
1049	5.2400e-01	-1.9379	0.113735	0.000001	0.008919	0.003022	-0.000073
1050	5.2450e-01	-1.9411	0.113826	-0.000000	-0.002230	-0.000755	0.000018
1051	5.2500e-01	-1.9812	0.113760	0.000000	0.001622	0.000549	-0.000013
1052	5.2550e-01	-2.0181	0.113454	0.000001	0.007500	0.002541	-0.000061
1053	5.2600e-01	-2.0759	0.112876	0.000001	0.014190	0.004808	-0.000116
1054	5.2650e-01	-2.0935	0.112653	0.000001	0.005473	0.001854	-0.000045
1055	5.2700e-01	-2.1545	0.112504	0.000000	0.003649	0.001236	-0.000030
1056	5.2750e-01	-2.2090	0.112306	0.000000	0.004865	0.001648	-0.000040
1057	5.2800e-01	-2.2507	0.111851	0.000001	0.011149	0.003777	-0.000091
1058	5.2850e-01	-2.2539	0.111215	0.000002	0.015609	0.005288	-0.000127
1059	5.2900e-01	-2.2828	0.110802	0.000001	0.010136	0.003434	-0.000083
1060	5.2950e-01	-2.3598	0.110496	0.000001	0.007500	0.002541	-0.000061
1061	5.3000e-01	-2.3695	0.110091	0.000001	0.009933	0.003365	-0.000081
1062	5.3050e-01	-2.4240	0.109629	0.000001	0.011352	0.003846	-0.000093
1063	5.3100e-01	-2.4593	0.109488	0.000000	0.003446	0.001168	-0.000028
1064	5.3150e-01	-2.5235	0.109265	0.000001	0.005473	0.001854	-0.000045
1065	5.3200e-01	-2.5491	0.108761	0.000001	0.012365	0.004190	-0.000101
1066	5.3250e-01	-2.5668	0.108133	0.000002	0.015406	0.005220	-0.000126
1067	5.3300e-01	-2.6085	0.107811	0.000001	0.007906	0.002679	-0.000064
1068	5.3350e-01	-2.6566	0.107712	0.000000	0.002433	0.000824	-0.000020
1069	5.3400e-01	-2.6678	0.107596	0.000000	0.002838	0.000962	-0.000023
1070	5.3450e-01	-2.7577	0.107100	0.000001	0.012163	0.004121	-0.000099
1071	5.3500e-01	-2.7930	0.106580	0.000001	0.012771	0.004327	-0.000104
1072	5.3550e-01	-2.8170	0.106489	0.000000	0.002230	0.000755	-0.000018
1073	5.3600e-01	-2.8828	0.106357	0.000000	0.003243	0.001099	-0.000026
1074	5.3650e-01	-2.8684	0.105968	-0.000001	-0.009527	-0.003228	-0.000078
1075	5.3700e-01	-2.9406	0.105679	0.000001	0.007095	0.002404	-0.000058
1076	5.3750e-01	-2.9919	0.105307	0.000001	0.009122	0.003091	-0.000074
1077	5.3800e-01	-3.0160	0.104960	0.000001	0.008514	0.002885	-0.000069
1078	5.3850e-01	-3.0785	0.104671	0.000001	0.007095	0.002404	-0.000058
1079	5.3900e-01	-3.1074	0.104307	0.000001	0.008919	0.003022	-0.000073
1080	5.3950e-01	-3.1523	0.104018	0.000001	0.007095	0.002404	-0.000058
1081	5.4000e-01	-3.1876	0.103613	0.000001	0.009933	0.003365	-0.000081
1082	5.4050e-01	-3.1988	0.103440	0.000000	0.004257	0.001442	-0.000035
1083	5.4100e-01	-3.2550	0.103159	0.000001	0.006892	0.002335	-0.000056
1084	5.4150e-01	-3.3192	0.102936	0.000001	0.005473	0.001854	-0.000045
1085	5.4200e-01	-3.3432	0.102655	0.000001	0.006892	0.002335	-0.000056
1086	5.4250e-01	-3.3881	0.102407	0.000001	0.006081	0.002060	-0.000050
1087	5.4300e-01	-3.4331	0.102052	0.000001	0.008717	0.002953	-0.000071
1088	5.4350e-01	-3.4780	0.101837	0.000001	0.005270	0.001786	-0.000043
1089	5.4400e-01	-3.5213	0.101473	0.000001	0.008919	0.003022	-0.000073
1090	5.4450e-01	-3.5373	0.101201	0.000001	0.006689	0.002266	-0.000055
1091	5.4500e-01	-3.5710	0.100953	0.000001	0.006081	0.002060	-0.000050
1092	5.4550e-01	-3.6127	0.100565	0.000001	0.009527	0.003228	-0.000078
1093	5.4600e-01	-3.6721	0.100358	0.000001	0.005068	0.001717	-0.000041
1094	5.4650e-01	-3.7266	0.099945	0.000001	0.010136	0.003434	-0.000083
1095	5.4700e-01	-3.7748	0.099647	0.000001	0.007298	0.002472	-0.000059
1096	5.4750e-01	-3.7828	0.099383	0.000001	0.006487	0.002198	-0.000053
1097	5.4800e-01	-3.8389	0.098978	0.000001	0.009933	0.003365	-0.000081
1098	5.4850e-01	-3.8678	0.098705	0.000001	0.006689	0.002266	-0.000055
1099	5.4900e-01	-3.8951	0.098433	0.000001	0.006689	0.002266	-0.000055
1100	5.4950e-01	-3.9625	0.098160	0.000001	0.006689	0.002266	-0.000055
1101	5.5000e-01	-3.9913	0.097995	0.000000	0.004054	0.001374	-0.000033
1102	5.5050e-01	-4.0138	0.097772	0.000001	0.005473	0.001854	-0.000045
1103	5.5100e-01	-4.0844	0.097507	0.000001	0.006487	0.002198	-0.000053
1104	5.5150e-01	-4.0940	0.097293	0.000001	0.005270	0.001786	-0.000043
1105	5.5200e-01	-4.1534	0.096904	0.000001	0.009527	0.003228	-0.000078
1106	5.5250e-01	-4.1566	0.096607	0.000001	0.007298	0.002472	-0.000059
1107	5.5300e-01	-4.2207	0.096557	0.000000	0.001216	0.000412	-0.000010
1108	5.5350e-01	-4.2737	0.096673	-0.000000	-0.002838	-0.000962	0.000023
1109	5.5400e-01	-4.3170	0.096557	0.000000	0.002838	0.000962	-0.000023
1110	5.5450e-01	-4.3346	0.096301	0.000001	0.006284	0.002129	-0.000051
1111	5.5500e-01	-4.3747	0.095508	0.000002	0.019460	0.006593	-0.000159
1112	5.5550e-01	-4.4277	0.094756	0.000002	0.018447	0.006250	-0.000150
1113	5.5600e-01	-4.4453	0.094211	0.000001	0.013379	0.004533	-0.000109
1114	5.5650e-01	-4.4967	0.093665	0.000001	0.013379	0.004533	-0.000109
1115	5.5700e-01	-4.5384	0.093203	0.000001	0.011352	0.003846	-0.000093
1116	5.5750e-01	-4.5769	0.092748	0.000001	0.011149	0.003777	-0.000091
1117	5.5800e-01	-4.6330	0.092368	0.000001	0.009325	0.003159	-0.000076
1118	5.5850e-01	-4.6539	0.091988	0.000001	0.009325	0.003159	-0.000076
1119	5.5900e-01	-4.6972	0.092021	-0.000000	-0.000811	-0.000275	0.000007
1120	5.5950e-01	-4.7582	0.092178	-0.000000	-0.003852	-0.001305	0.000031
1121	5.6000e-01	-4.7918	0.092277	-0.000000	-0.002433	-0.000824	0.000020
1122	5.6050e-01	-4.8448	0.091806	0.000001	0.011555	0.003915	-0.000094
1123	5.6100e-01	-4.8496	0.091302	0.000001	0.012365	0.004190	-0.000101
1124	5.6150e-01	-4.9057	0.090715	0.000001	0.014393	0.004876	-0.000117
1125	5.6200e-01	-4.9507	0.090302	0.000001	0.010136	0.003434	-0.000083
1126	5.6250e-01	-4.9844	0.090079	0.000001	0.005473	0.001854	-0.000045
1127	5.6300e-01	-5.0212	0.090038	0.000000	0.001014	0.000343	-0.000008
1128	5.6350e-01	-5.0758	0.090013	0.000000	0.000608	0.000206	-0.000005
1129	5.6400e-01	-5.0886	0.089567	0.000001	0.010946	0.003709	-0.000089
1130	5.6450e-01	-5.1159	0.089088	0.000001	0.011757	0.003983	-0.000096
1131	5.6500e-01	-5.1753	0.088716	0.000001	0.009122	0.003091	-0.000074
1132	5.6550e-01	-5.2298	0.088592	0.000000	0.003041	0.001030	-0.000025
1133	5.6600e-01	-5.2747	0.088476	0.000000	0.002838	0.000962	-0.000023
1134	5.6650e-01	-5.2747	0.088030	0.000001	0.010946	0.003709	-0.000089
1135	5.6700e-01	-5.3405	0.087410	0.000002	0.015203	0.005151	-0.000124
1136	5.6750e-01	-5.3726	0.086915	0.000001	0.012163	0.004121	-0.000099
1137	5.6800e-01	-5.4063	0.086857	0.000000	0.001419	0.000481	-0.000012
1138	5.6850e-01	-5.4255	0.086956	-0.000000	-0.002433	-0.000824	0.000020
1139	5.6900e-01	-5.5137	0.086650	0.000001	0.007500	0.002541	-0.000061
1140	5.6950e-01	-5.5506	0.086204	0.000001	0.010946	0.003709	-0.000089
1141	5.7000e-01	-5.5763	0.085857	0.000001	0.008514	0.002885	-0.000069
1142	5.7050e-01	-5.6164	0.085750	0.000000	0.002635	0.000893	-0.000021
1143	5.7100e-01	-5.6838	0.085642	0.000000	0.002635	0.000893	-0.000021
1144	5.7150e-01	-5.6918	0.085303	0.000001	0.008311	0.002816	-0.000068
1145	5.7200e-01	-5.7608	0.084667	0.000002	0.015609	0.005288	-0.000127
1146	5.7250e-01	-5.7768	0.084246	0.000001	0.010338	0.003503	-0.000084
1147	5.7300e-01	-5.8025	0.083981	0.000001	0.006487	0.002198	-0.000053
1148	5.7350e-01	-5.8522	0.083725	0.000001	0.006284	0.002129	-0.000051
1149	5.7400e-01	-5.8875	0.083271	0.000001	0.011149	0.003777	-0.000091
1150	5.7450e-01	-5.9838	0.083023	0.000001	0.006081	0.002060	-0.000050
1151	5.7500e-01	-5.9758	0.083023	0.000000	0.000000	0.000000	0.000000
1152	5.7550e-01	-6.0239	0.082560	0.000001	0.011352	0.003846	-0.000093
1153	5.7600e-01	-6.0752	0.081974	0.000001	0.014393	0.004876	-0.000117
1154	5.7650e-01	-6.0816	0.081560	0.000001	0.010136	0.003434	-0.000083
1155	5.7700e-01	-6.1394	0.081503	0.000000	0.001419	0.000481	-0.000012
1156	5.7750e-01	-6.2004	0.081461	0.000000	0.001014	0.000343	-0.000008
1157	5.7800e-01	-6.2084	0.080982	0.000001	0.011757	0.003983	-0.000096
1158	5.7850e-01	-6.2645	0.080577	0.000001	0.009933	0.003365	-0.000081
1159	5.7900e-01	-6.3207	0.080387	0.000000	0.004662	0.001580	-0.000038
1160	5.7950e-01	-6.3303	0.080263	0.000000	0.003041	0.001030	-0.000025
1161	5.8000e-01	-6.3832	0.079991	0.000001	0.006689	0.002266	-0.000055
1162	5.8050e-01	-6.4266	0.079743	0.000001	0.006081	0.002060	-0.000050
1163	5.8100e-01	-6.4137	0.079412	-0.000001	-0.008108	-0.002747	-0.000066
1164	5.8150e-01	-6.5084	0.079189	0.000001	0.005473	0.001854	-0.000045
1165	5.8200e-01	-6.5389	0.078826	0.000001	0.008919	0.003022	-0.000073
1166	5.8250e-01	-6.5790	0.078619	0.000001	0.005068	0.001717	-0.000041
1167	5.8300e-01	-6.6495	0.078181	0.000001	0.010744	0.003640	-0.000088
1168	5.8350e-01	-6.6560	0.077875	0.000001	0.007500	0.002541	-0.000061
1169	5.8400e-01	-6.7009	0.077528	0.000001	0.008514	0.002885	-0.000069
1170	5.8450e-01	-6.7185	0.077239	0.000001	0.007095	0.002404	-0.000058
1171	5.8500e-01	-6.8052	0.077156	0.000000	0.002027	0.000687	-0.000017
1172	5.8550e-01	-6.8084	0.077024	0.000000	0.003243	0.001099	-0.000026
1173	5.8600e-01	-6.8356	0.076793	0.000001	0.005676	0.001923	-0.000046
1174	5.8650e-01	-6.8966	0.076520	0.000001	0.006689	0.002266	-0.000055
1175	5.8700e-01	-6.9736	0.076264	0.000001	0.006284	0.002129	-0.000051
1176	5.8750e-01	-7.0105	0.076016	0.000001	0.006081	0.002060	-0.000050
1177	5.8800e-01	-6.9993	0.075735	-0.000001	-0.006892	-0.002335	-0.000056
1178	5.8850e-01	-7.0666	0.075545	0.000000	0.004662	0.001580	-0.000038
1179	5.8900e-01	-7.0859	0.075347	0.000000	0.004865	0.001648	-0.000040
1180	5.8950e-01	-7.1469	0.075074	0.000001	0.006689	0.002266	-0.000055
1181	5.9000e-01	-7.1886	0.074785	0.000001	0.007095	0.002404	-0.000058
1182	5.9050e-01	-7.2094	0.074413	0.000001	0.009122	0.003091	-0.000074
1183	5.9100e-01	-7.2608	0.074182	0.000001	0.005676	0.001923	-0.000046
1184	5.9150e-01	-7.3329	0.073827	0.000001	0.008717	0.002953	-0.000071
1185	5.9200e-01	-7.3554	0.073513	0.000001	0.007703	0.002610	-0.000063
1186	5.9250e-01	-7.4051	0.073273	0.000001	0.005879	0.001992	-0.000048
1187	5.9300e-01	-7.4100	0.073009	0.000001	0.006487	0.002198	-0.000053
1188	5.9350e-01	-7.4581	0.072769	0.000001	0.005879	0.001992	-0.000048
1189	5.9400e-01	-7.4950	0.072629	0.000000	0.003446	0.001168	-0.000028
1190	5.9450e-01	-7.5800	0.072472	0.000000	0.003852	0.001305	-0.000031
1191	5.9500e-01	-7.5768	0.072149	-0.000001	-0.007906	-0.002679	-0.000064
1192	5.9550e-01	-7.6185	0.072025	0.000000	0.003041	0.001030	-0.000025
1193	5.9600e-01	-7.6795	0.071744	0.000001	0.006892	0.002335	-0.000056
1194	5.9650e-01	-7.6843	0.071505	0.000001	0.005879	0.001992	-0.000048
1195	5.9700e-01	-7.7565	0.071224	0.000001	0.006892	0.002335	-0.000056
1196	5.9750e-01	-7.7950	0.070918	0.000001	0.007500	0.002541	-0.000061
1197	5.9800e-01	-7.8527	0.070687	0.000001	0.005676	0.001923	-0.000046
1198	5.9850e-01	-7.8768	0.070447	0.000001	0.005879	0.001992	-0.000048
1199	5.9900e-01	-7.9025	0.070513	-0.000000	-0.001622	-0.000549	0.000013
1200	5.9950e-01	-7.9073	0.070489	0.000000	0.000608	0.000206	-0.000005
1201	6.0000e-01	-7.9811	0.070497	-0.000000	-0.000203	-0.000069	0.000002
1202	6.0050e-01	-8.0292	0.070100	0.000001	0.009730	0.003297	-0.000079
1203	6.0100e-01	-8.0500	0.069282	0.000002	0.020068	0.006799	-0.000164
1204	6.0150e-01	-8.0982	0.068530	0.000002	0.018447	0.006250	-0.000150
1205	6.0200e-01	-8.1126	0.068200	0.000001	0.008108	0.002747	-0.000066
1206	6.0250e-01	-8.1784	0.067836	0.000001	0.008919	0.003022	-0.000073
1207	6.0300e-01	-8.1848	0.067357	0.000001	0.011757	0.003983	-0.000096
1208	6.0350e-01	-8.2650	0.067068	0.000001	0.007095	0.002404	-0.000058
1209	6.0400e-01	-8.2987	0.066663	0.000001	0.009933	0.003365	-0.000081
1210	6.0450e-01	-8.3420	0.066382	0.000001	0.006892	0.002335	-0.000056
1211	6.0500e-01	-8.4014	0.066489	-0.000000	-0.002635	-0.000893	0.000021
1212	6.0550e-01	-8.3950	0.066704	0.000001	0.005270	0.001786	0.000043
1213	6.0600e-01	-8.4832	0.066754	-0.000000	-0.001216	-0.000412	0.000010
1214	6.0650e-01	-8.4992	0.066365	0.000001	0.009527	0.003228	-0.000078
1215	6.0700e-01	-8.5490	0.065729	0.000002	0.015609	0.005288	-0.000127
1216	6.0750e-01	-8.5907	0.065275	0.000001	0.011149	0.003777	-0.000091
1217	6.0800e-01	-8.6244	0.064829	0.000001	0.010946	0.003709	-0.000089
1218	6.0850e-01	-8.6982	0.064729	0.000000	0.002433	0.000824	-0.000020
1219	6.0900e-01	-8.7158	0.064862	-0.000000	-0.003243	-0.001099	0.000026
1220	6.0950e-01	-8.7591	0.064663	0.000000	0.004865	0.001648	-0.000040
1221	6.1000e-01	-8.8072	0.064060	0.000001	0.014798	0.005014	-0.000121
1222	6.1050e-01	-8.8313	0.063589	0.000001	0.011555	0.003915	-0.000094
1223	6.1100e-01	-8.8778	0.063193	0.000001	0.009730	0.003297	-0.000079
1224	6.1150e-01	-8.9147	0.063284	-0.000000	-0.002230	-0.000755	0.000018
1225	6.1200e-01	-8.9420	0.063474	-0.000000	-0.004662	-0.001580	0.000038
1226	6.1250e-01	-8.9789	0.063308	0.000000	0.004054	0.001374	-0.000033
1227	6.1300e-01	-9.0318	0.062945	0.000001	0.008919	0.003022	-0.000073
1228	6.1350e-01	-9.0719	0.062680	0.000001	0.006487	0.002198	-0.000053
1229	6.1400e-01	-9.1120	0.062623	0.000000	0.001419	0.000481	-0.000012
1230	6.1450e-01	-9.1505	0.062689	-0.000000	-0.001622	-0.000549	0.000013
1231	6.1500e-01	-9.1650	0.062358	0.000001	0.008108	0.002747	-0.000066
1232	6.1550e-01	-9.2404	0.061920	0.000001	0.010744	0.003640	-0.000088
1233	6.1600e-01	-9.2821	0.061507	0.000001	0.010136	0.003434	-0.000083
1234	6.1650e-01	-9.3302	0.061391	0.000000	0.002838	0.000962	-0.000023
1235	6.1700e-01	-9.3479	0.061110	0.000001	0.006892	0.002335	-0.000056
1236	6.1750e-01	-9.3944	0.060830	0.000001	0.006892	0.002335	-0.000056
1237	6.1800e-01	-9.4473	0.060557	0.000001	0.006689	0.002266	-0.000055
1238	6.1850e-01	-9.4618	0.060532	0.000000	0.000608	0.000206	-0.000005
1239	6.1900e-01	-9.4666	0.060474	0.000000	0.001419	0.000481	-0.000012
1240	6.1950e-01	-9.5484	0.060020	0.000001	0.011149	0.003777	-0.000091
1241	6.2000e-01	-9.5885	0.059499	0.000001	0.012771	0.004327	-0.000104
1242	6.2050e-01	-9.5949	0.059458	0.000000	0.001014	0.000343	-0.000008
1243	6.2100e-01	-9.6511	0.059582	-0.000000	-0.003041	-0.001030	0.000025
1244	6.2150e-01	-9.7136	0.059375	0.000001	0.005068	0.001717	-0.000041
1245	6.2200e-01	-9.7393	0.058929	0.000001	0.010946	0.003709	-0.000089
1246	6.2250e-01	-9.7746	0.058615	0.000001	0.007703	0.002610	-0.000063
1247	6.2300e-01	-9.8099	0.058533	0.000000	0.002027	0.000687	-0.000017
1248	6.2350e-01	-9.8532	0.058384	0.000000	0.003649	0.001236	-0.000030
1249	6.2400e-01	-9.8885	0.058037	0.000001	0.008514	0.002885	-0.000069
1250	6.2450e-01	-9.9607	0.057896	0.000000	0.003446	0.001168	-0.000028
1251	6.2500e-01	-9.9767	0.057698	0.000000	0.004865	0.001648	-0.000040
1252	6.2550e-01	-10.0409	0.057467	0.000001	0.005676	0.001923	-0.000046
1253	6.2600e-01	-10.0730	0.057062	0.000001	0.009933	0.003365	-0.000081
1254	6.2650e-01	-10.0890	0.056715	0.000001	0.008514	0.002885	-0.000069
1255	6.2700e-01	-10.1596	0.056467	0.000001	0.006081	0.002060	-0.000050
1256	6.2750e-01	-10.1756	0.056178	0.000001	0.007095	0.002404	-0.000058
1257	6.2800e-01	-10.2158	0.055798	0.000001	0.009325	0.003159	-0.000076
1258	6.2850e-01	-10.2510	0.055558	0.000001	0.005879	0.001992	-0.000048
1259	6.2900e-01	-10.3072	0.055401	0.000000	0.003852	0.001305	-0.000031
1260	6.2950e-01	-10.3409	0.055343	0.000000	0.001419	0.000481	-0.000012
1261	6.3000e-01	-10.3762	0.055029	0.000001	0.007703	0.002610	-0.000063
1262	6.3050e-01	-10.4163	0.054756	0.000001	0.006689	0.002266	-0.000055
1263	6.3100e-01	-10.4756	0.054657	0.000000	0.002433	0.000824	-0.000020
1264	6.3150e-01	-10.5093	0.054624	0.000000	0.000811	0.000275	-0.000007
1265	6.3200e-01	-10.5526	0.054302	0.000001	0.007906	0.002679	-0.000064
1266	6.3250e-01	-10.5992	0.054195	0.000000	0.002635	0.000893	-0.000021
1267	6.3300e-01	-10.6168	0.054046	0.000000	0.003649	0.001236	-0.000030
1268	6.3350e-01	-10.6617	0.053806	0.000001	0.005879	0.001992	-0.000048
1269	6.3400e-01	-10.7195	0.053468	0.000001	0.008311	0.002816	-0.000068
1270	6.3450e-01	-10.7227	0.053195	0.000001	0.006689	0.002266	-0.000055
1271	6.3500e-01	-10.7820	0.052930	0.000001	0.006487	0.002198	-0.000053
1272	6.3550e-01	-10.8222	0.052716	0.000001	0.005270	0.001786	-0.000043
1273	6.3600e-01	-10.8783	0.052435	0.000001	0.006892	0.002335	-0.000056
1274	6.3650e-01	-10.9040	0.052154	0.000001	0.006892	0.002335	-0.000056
1275	6.3700e-01	-10.9425	0.051980	0.000000	0.004257	0.001442	-0.000035
1276	6.3750e-01	-10.9473	0.051823	0.000000	0.003852	0.001305	-0.000031
1277	6.3800e-01	-11.0131	0.051749	0.000000	0.001824	0.000618	-0.000015
1278	6.3850e-01	-11.0708	0.051534	0.000001	0.005270	0.001786	-0.000043
1279	6.3900e-01	-11.1077	0.051584	-0.000000	-0.001216	-0.000412	0.000010
1280	6.3950e-01	-11.1606	0.051270	0.000001	0.007703	0.002610	-0.000063
1281	6.4000e-01	-11.1847	0.051179	0.000000	0.002230	0.000755	-0.000018
1282	6.4050e-01	-11.2040	0.051055	0.000000	0.003041	0.001030	-0.000025
1283	6.4100e-01	-11.2216	0.050823	0.000001	0.005676	0.001923	-0.000046
1284	6.4150e-01	-11.3002	0.050534	0.000001	0.007095	0.002404	-0.000058
1285	6.4200e-01	-11.3548	0.050187	0.000001	0.008514	0.002885	-0.000069
1286	6.4250e-01	-11.3949	0.049791	0.000001	0.009730	0.003297	-0.000079
1287	6.4300e-01	-11.4189	0.049427	0.000001	0.008919	0.003022	-0.000073
1288	6.4350e-01	-11.4462	0.049105	0.000001	0.007906	0.002679	-0.000064
1289	6.4400e-01	-11.5072	0.048989	0.000000	0.002838	0.000962	-0.000023
1290	6.4450e-01	-11.5184	0.048700	0.000001	0.007095	0.002404	-0.000058
1291	6.4500e-01	-11.5537	0.048758	-0.000000	-0.001419	-0.000481	0.000012
1292	6.4550e-01	-11.6162	0.048799	-0.000000	-0.001014	-0.000343	0.000008
1293	6.4600e-01	-11.6548	0.048733	0.000000	0.001622	0.000549	-0.000013
1294	6.4650e-01	-11.7141	0.048295	0.000001	0.010744	0.003640	-0.000088
1295	6.4700e-01	-11.7558	0.047626	0.000002	0.016420	0.005563	-0.000134
1296	6.4750e-01	-11.7719	0.047047	0.000001	0.014190	0.004808	-0.000116
1297	6.4800e-01	-11.8184	0.046742	0.000001	0.007500	0.002541	-0.000061
1298	6.4850e-01	-11.8906	0.046320	0.000001	0.010338	0.003503	-0.000084
1299	6.4900e-01	-11.9114	0.045783	0.000001	0.013176	0.004464	-0.000107
1300	6.4950e-01	-11.9355	0.045461	0.000001	0.007906	0.002679	-0.000064
1301	6.5000e-01	-11.9708	0.045089	0.000001	0.009122	0.003091	-0.000074
1302	6.5050e-01	-12.0077	0.044767	0.000001	0.007906	0.002679	-0.000064
1303	6.5100e-01	-12.0622	0.045056	-0.000001	-0.007095	-0.002404	0.000058
1304	6.5150e-01	-12.1136	0.045188	-0.000000	-0.003243	-0.001099	0.000026
1305	6.5200e-01	-12.1505	0.045164	0.000000	0.000608	0.000206	-0.000005
1306	6.5250e-01	-12.1777	0.044635	0.000001	0.012974	0.004396	-0.000106
1307	6.5300e-01	-12.2259	0.044089	0.000001	0.013379	0.004533	-0.000109
1308	6.5350e-01	-12.2740	0.043668	0.000001	0.010338	0.003503	-0.000084
1309	6.5400e-01	-12.3301	0.043181	0.000001	0.011960	0.004052	-0.000097
1310	6.5450e-01	-12.3638	0.043040	0.000000	0.003446	0.001168	-0.000028
1311	6.5500e-01	-12.3895	0.043321	-0.000001	-0.006892	-0.002335	0.000056
1312	6.5550e-01	-12.4232	0.043255	0.000000	0.001622	0.000549	-0.000013
1313	6.5600e-01	-12.4617	0.043048	0.000001	0.005068	0.001717	-0.000041
1314	6.5650e-01	-12.5050	0.042643	0.000001	0.009933	0.003365	-0.000081
1315	6.5700e-01	-12.5467	0.042445	0.000000	0.004865	0.001648	-0.000040
1316	6.5750e-01	-12.6109	0.042569	-0.000000	-0.003041	-0.001030	0.000025
1317	6.5800e-01	-12.6301	0.042586	-0.000000	-0.000405	-0.000137	0.000003
1318	6.5850e-01	-12.6750	0.042106	0.000001	0.011757	0.003983	-0.000096
1319	6.5900e-01	-12.7071	0.041545	0.000001	0.013784	0.004670	-0.000112
1320	6.5950e-01	-12.7488	0.041156	0.000001	0.009527	0.003228	-0.000078
1321	6.6000e-01	-12.7777	0.040941	0.000001	0.005270	0.001786	-0.000043
1322	6.6050e-01	-12.8258	0.040611	0.000001	0.008108	0.002747	-0.000066
1323	6.6100e-01	-12.8724	0.040107	0.000001	0.012365	0.004190	-0.000101
1324	6.6150e-01	-12.9077	0.039867	0.000001	0.005879	0.001992	-0.000048
1325	6.6200e-01	-12.9638	0.039727	0.000000	0.003446	0.001168	-0.000028
1326	6.6250e-01	-12.9815	0.039834	-0.000000	-0.002635	-0.000893	0.000021
1327	6.6300e-01	-12.9831	0.039595	0.000001	0.005879	0.001992	-0.000048
1328	6.6350e-01	-13.0665	0.038909	0.000002	0.016825	0.005700	-0.000137
1329	6.6400e-01	-13.0873	0.038553	0.000001	0.008717	0.002953	-0.000071
1330	6.6450e-01	-13.1563	0.038562	-0.000000	-0.000203	-0.000069	0.000002
1331	6.6500e-01	-13.1563	0.038553	0.000000	0.000203	0.000069	-0.000002
1332	6.6550e-01	-13.2173	0.038082	0.000001	0.011555	0.003915	-0.000094
1333	6.6600e-01	-13.3055	0.037694	0.000001	0.009527	0.003228	-0.000078
1334	6.6650e-01	-13.3408	0.037430	0.000001	0.006487	0.002198	-0.000053
1335	6.6700e-01	-13.3536	0.037372	0.000000	0.001419	0.000481	-0.000012
1336	6.6750e-01	-13.3809	0.037124	0.000001	0.006081	0.002060	-0.000050
1337	6.6800e-01	-13.4435	0.036744	0.000001	0.009325	0.003159	-0.000076
1338	6.6850e-01	-13.4707	0.036413	0.000001	0.008108	0.002747	-0.000066
1339	6.6900e-01	-13.5173	0.036182	0.000001	0.005676	0.001923	-0.000046
1340	6.6950e-01	-13.5445	0.036033	0.000000	0.003649	0.001236	-0.000030
1341	6.7000e-01	-13.5782	0.035769	0.000001	0.006487	0.002198	-0.000053
1342	6.7050e-01	-13.6119	0.035422	0.000001	0.008514	0.002885	-0.000069
1343	6.7100e-01	-13.6600	0.035323	0.000000	0.002433	0.000824	-0.000020
1344	6.7150e-01	-13.6889	0.035034	0.000001	0.007095	0.002404	-0.000058
1345	6.7200e-01	-13.7258	0.034753	0.000001	0.006892	0.002335	-0.000056
1346	6.7250e-01	-13.8044	0.034463	0.000001	0.007095	0.002404	-0.000058
1347	6.7300e-01	-13.8429	0.034092	0.000001	0.009122	0.003091	-0.000074
1348	6.7350e-01	-13.8622	0.033877	0.000001	0.005270	0.001786	-0.000043
1349	6.7400e-01	-13.8894	0.033530	0.000001	0.008514	0.002885	-0.000069
1350	6.7450e-01	-13.9648	0.033323	0.000001	0.005068	0.001717	-0.000041
1351	6.7500e-01	-14.0130	0.033183	0.000000	0.003446	0.001168	-0.000028
1352	6.7550e-01	-14.0114	0.032869	-0.000001	-0.007703	-0.002610	-0.000063
1353	6.7600e-01	-14.0948	0.032555	0.000001	0.007703	0.002610	-0.000063
1354	6.7650e-01	-14.1253	0.032142	0.000001	0.010136	0.003434	-0.000083
1355	6.7700e-01	-14.1541	0.032001	0.000000	0.003446	0.001168	-0.000028
1356	6.7750e-01	-14.1782	0.031762	0.000001	0.005879	0.001992	-0.000048
1357	6.7800e-01	-14.2263	0.031340	0.000001	0.010338	0.003503	-0.000084
1358	6.7850e-01	-14.2600	0.031026	0.000001	0.007703	0.002610	-0.000063
1359	6.7900e-01	-14.3274	0.030687	0.000001	0.008311	0.002816	-0.000068
1360	6.7950e-01	-14.3836	0.030456	0.000001	0.005676	0.001923	-0.000046
1361	6.8000e-01	-14.4140	0.030101	0.000001	0.008717	0.002953	-0.000071
1362	6.8050e-01	-14.4204	0.029762	0.000001	0.008311	0.002816	-0.000068
1363	6.8100e-01	-14.4590	0.029564	0.000000	0.004865	0.001648	-0.000040
1364	6.8150e-01	-14.4975	0.029374	0.000000	0.004662	0.001580	-0.000038
1365	6.8200e-01	-14.5424	0.029101	0.000001	0.006689	0.002266	-0.000055
1366	6.8250e-01	-14.5841	0.028787	0.000001	0.007703	0.002610	-0.000063
1367	6.8300e-01	-14.6162	0.028663	0.000000	0.003041	0.001030	-0.000025
1368	6.8350e-01	-14.6611	0.028614	0.000000	0.001216	0.000412	-0.000010
1369	6.8400e-01	-14.7012	0.028457	0.000000	0.003852	0.001305	-0.000031
1370	6.8450e-01	-14.6996	0.028126	-0.000001	-0.008108	-0.002747	-0.000066
1371	6.8500e-01	-14.7926	0.027845	0.000001	0.006892	0.002335	-0.000056
1372	6.8550e-01	-14.8263	0.027614	0.000001	0.005676	0.001923	-0.000046
1373	6.8600e-01	-14.8777	0.027325	0.000001	0.007095	0.002404	-0.000058
1374	6.8650e-01	-14.8744	0.026961	-0.000001	-0.008919	-0.003022	-0.000073
1375	6.8700e-01	-14.9418	0.026787	0.000000	0.004257	0.001442	-0.000035
1376	6.8750e-01	-14.9883	0.026473	0.000001	0.007703	0.002610	-0.000063
1377	6.8800e-01	-15.0301	0.026151	0.000001	0.007906	0.002679	-0.000064
1378	6.8850e-01	-15.0573	0.025755	0.000001	0.009730	0.003297	-0.000079
1379	6.8900e-01	-15.0990	0.025432	0.000001	0.007906	0.002679	-0.000064
1380	6.8950e-01	-15.1664	0.025267	0.000000	0.004054	0.001374	-0.000033
1381	6.9000e-01	-15.2001	0.024986	0.000001	0.006892	0.002335	-0.000056
1382	6.9050e-01	-15.2274	0.025044	-0.000000	-0.001419	-0.000481	0.000012
1383	6.9100e-01	-15.2883	0.025135	-0.000000	-0.002230	-0.000755	0.000018
1384	6.9150e-01	-15.2787	0.025135	0.000000	0.000000	0.000000	0.000000
1385	6.9200e-01	-15.3445	0.025242	-0.000000	-0.002635	-0.000893	0.000021
1386	6.9250e-01	-15.3686	0.024623	0.000002	0.015203	0.005151	-0.000124
1387	6.9300e-01	-15.4167	0.023879	0.000002	0.018244	0.006181	-0.000149
1388	6.9350e-01	-15.4183	0.023325	0.000001	0.013582	0.004602	-0.000111
1389	6.9400e-01	-15.4921	0.022764	0.000001	0.013784	0.004670	-0.000112
1390	6.9450e-01	-15.5370	0.022193	0.000001	0.013987	0.004739	-0.000114
1391	6.9500e-01	-15.5931	0.021681	0.000001	0.012568	0.004258	-0.000102
1392	6.9550e-01	-15.6268	0.021260	0.000001	0.010338	0.003503	-0.000084
1393	6.9600e-01	-15.6429	0.020723	0.000001	0.013176	0.004464	-0.000107
1394	6.9650e-01	-15.7151	0.020533	0.000000	0.004662	0.001580	-0.000038
1395	6.9700e-01	-15.7552	0.020665	-0.000000	-0.003243	-0.001099	0.000026
1396	6.9750e-01	-15.7857	0.020690	-0.000000	-0.000608	-0.000206	0.000005
1397	6.9800e-01	-15.8290	0.020491	0.000000	0.004865	0.001648	-0.000040
1398	6.9850e-01	-15.8707	0.019863	0.000002	0.015406	0.005220	-0.000126
1399	6.9900e-01	-15.8883	0.019384	0.000001	0.011757	0.003983	-0.000096
1400	6.9950e-01	-15.9541	0.019268	0.000000	0.002838	0.000962	-0.000023
1401	7.0000e-01	-15.9766	0.019054	0.000001	0.005270	0.001786	-0.000043
1402	7.0050e-01	-16.0199	0.019227	-0.000000	-0.004257	-0.001442	0.000035
1403	7.0100e-01	-16.0423	0.019450	-0.000001	-0.005473	-0.001854	0.000045
1404	7.0150e-01	-16.1129	0.019012	0.000001	0.010744	0.003640	-0.000088
1405	7.0200e-01	-16.1290	0.018566	0.000001	0.010946	0.003709	-0.000089
1406	7.0250e-01	-16.1739	0.018103	0.000001	0.011352	0.003846	-0.000093
1407	7.0300e-01	-16.2413	0.017740	0.000001	0.008919	0.003022	-0.000073
1408	7.0350e-01	-16.2653	0.017657	0.000000	0.002027	0.000687	-0.000017
1409	7.0400e-01	-16.2894	0.017211	0.000001	0.010946	0.003709	-0.000089
1410	7.0450e-01	-16.3552	0.016600	0.000002	0.015001	0.005082	-0.000122
1411	7.0500e-01	-16.3712	0.016153	0.000001	0.010946	0.003709	-0.000089
1412	7.0550e-01	-16.4065	0.015963	0.000000	0.004662	0.001580	-0.000038
1413	7.0600e-01	-16.5043	0.016120	-0.000000	-0.003852	-0.001305	0.000031
1414	7.0650e-01	-16.4883	0.015897	-0.000001	-0.005473	-0.001854	-0.000045
1415	7.0700e-01	-16.5461	0.015344	0.000001	0.013582	0.004602	-0.000111
1416	7.0750e-01	-16.5958	0.014955	0.000001	0.009527	0.003228	-0.000078
1417	7.0800e-01	-16.6343	0.014964	-0.000000	-0.000203	-0.000069	0.000002
1418	7.0850e-01	-16.6503	0.014898	0.000000	0.001622	0.000549	-0.000013
1419	7.0900e-01	-16.7177	0.014683	0.000001	0.005270	0.001786	-0.000043
1420	7.0950e-01	-16.7402	0.014187	0.000001	0.012163	0.004121	-0.000099
1421	7.1000e-01	-16.7899	0.013898	0.000001	0.007095	0.002404	-0.000058
1422	7.1050e-01	-16.8268	0.013766	0.000000	0.003243	0.001099	-0.000026
1423	7.1100e-01	-16.8252	0.013559	-0.000001	-0.005068	-0.001717	-0.000041
1424	7.1150e-01	-16.9038	0.013195	0.000001	0.008919	0.003022	-0.000073
1425	7.1200e-01	-16.9936	0.012749	0.000001	0.010946	0.003709	-0.000089
1426	7.1250e-01	-17.0321	0.012477	0.000001	0.006689	0.002266	-0.000055
1427	7.1300e-01	-17.0386	0.012427	0.000000	0.001216	0.000412	-0.000010
1428	7.1350e-01	-17.0642	0.012039	0.000001	0.009527	0.003228	-0.000078
1429	7.1400e-01	-17.0963	0.011783	0.000001	0.006284	0.002129	-0.000051
1430	7.1450e-01	-17.1252	0.011642	0.000000	0.003446	0.001168	-0.000028
1431	7.1500e-01	-17.1878	0.011452	0.000000	0.004662	0.001580	-0.000038
1432	7.1550e-01	-17.2198	0.011171	0.000001	0.006892	0.002335	-0.000056
1433	7.1600e-01	-17.2648	0.010923	0.000001	0.006081	0.002060	-0.000050
1434	7.1650e-01	-17.3049	0.010634	0.000001	0.007095	0.002404	-0.000058
1435	7.1700e-01	-17.3482	0.010394	0.000001	0.005879	0.001992	-0.000048
1436	7.1750e-01	-17.3963	0.010188	0.000001	0.005068	0.001717	-0.000041
1437	7.1800e-01	-17.4348	0.009758	0.000001	0.010541	0.003571	-0.000086
1438	7.1850e-01	-17.4877	0.009535	0.000001	0.005473	0.001854	-0.000045
1439	7.1900e-01	-17.5327	0.009180	0.000001	0.008717	0.002953	-0.000071
1440	7.1950e-01	-17.5519	0.008907	0.000001	0.006689	0.002266	-0.000055
1441	7.2000e-01	-17.6225	0.008511	0.000001	0.009730	0.003297	-0.000079
1442	7.2050e-01	-17.6321	0.008395	0.000000	0.002838	0.000962	-0.000023
1443	7.2100e-01	-17.6658	0.008155	0.000001	0.005879	0.001992	-0.000048
1444	7.2150e-01	-17.6722	0.007949	0.000001	0.005068	0.001717	-0.000041
1445	7.2200e-01	-17.7428	0.007602	0.000001	0.008514	0.002885	-0.000069
1446	7.2250e-01	-17.7717	0.007279	0.000001	0.007906	0.002679	-0.000064
1447	7.2300e-01	-17.8278	0.006974	0.000001	0.007500	0.002541	-0.000061
1448	7.2350e-01	-17.8407	0.006767	0.000001	0.005068	0.001717	-0.000041
1449	7.2400e-01	-17.9000	0.006304	0.000001	0.011352	0.003846	-0.000093
1450	7.2450e-01	-17.9048	0.006015	0.000001	0.007095	0.002404	-0.000058
1451	7.2500e-01	-17.9899	0.005784	0.000001	0.005676	0.001923	-0.000046
1452	7.2550e-01	-18.0075	0.005437	0.000001	0.008514	0.002885	-0.000069
1453	7.2600e-01	-18.0605	0.005048	0.000001	0.009527	0.003228	-0.000078
1454	7.2650e-01	-18.1102	0.004734	0.000001	0.007703	0.002610	-0.000063
1455	7.2700e-01	-18.1294	0.004569	0.000000	0.004054	0.001374	-0.000033
1456	7.2750e-01	-18.1535	0.004239	0.000001	0.008108	0.002747	-0.000066
1457	7.2800e-01	-18.2337	0.003925	0.000001	0.007703	0.002610	-0.000063
1458	7.2850e-01	-18.3043	0.003603	0.000001	0.007906	0.002679	-0.000064
1459	7.2900e-01	-18.2963	0.003388	-0.000001	-0.005270	-0.001786	-0.000043
1460	7.2950e-01	-18.3332	0.003107	0.000001	0.006892	0.002335	-0.000056
1461	7.3000e-01	-18.3620	0.002768	0.000001	0.008311	0.002816	-0.000068
1462	7.3050e-01	-18.4182	0.002330	0.000001	0.010744	0.003640	-0.000088
1463	7.3100e-01	-18.4583	0.002123	0.000001	0.005068	0.001717	-0.000041
1464	7.3150e-01	-18.4824	0.001834	0.000001	0.007095	0.002404	-0.000058
1465	7.3200e-01	-18.5193	0.001479	0.000001	0.008717	0.002953	-0.000071
1466	7.3250e-01	-18.5770	0.001008	0.000001	0.011555	0.003915	-0.000094
1467	7.3300e-01	-18.6107	0.000777	0.000001	0.005676	0.001923	-0.000046
1468	7.3350e-01	-18.6460	0.000471	0.000001	0.007500	0.002541	-0.000061
1469	7.3400e-01	-18.7102	0.000289	0.000000	0.004460	0.001511	-0.000036
1470	7.3450e-01	-18.7535	-0.000124	0.000001	0.010136	0.003434	-0.000083
1471	7.3500e-01	-18.8032	-0.000347	0.000001	0.005473	0.001854	-0.000045
1472	7.3550e-01	-18.8080	-0.000587	0.000001	0.005879	0.001992	-0.000048
1473	7.3600e-01	-18.8674	-0.000851	0.000001	0.006487	0.002198	-0.000053
1474	7.3650e-01	-18.9219	-0.000777	-0.000000	-0.001824	-0.000618	0.000015
1475	7.3700e-01	-18.9652	-0.000628	-0.000000	-0.003649	-0.001236	0.000030
1476	7.3750e-01	-18.9813	-0.000744	0.000000	0.002838	0.000962	-0.000023
1477	7.3800e-01	-19.0519	-0.001140	0.000001	0.009730	0.003297	-0.000079
1478	7.3850e-01	-19.0663	-0.001851	0.000002	0.017433	0.005907	-0.000142
1479	7.3900e-01	-19.0968	-0.002702	0.000002	0.020879	0.007074	-0.000170
1480	7.3950e-01	-19.1449	-0.003272	0.000001	0.013987	0.004739	-0.000114
1481	7.4000e-01	-19.1850	-0.003735	0.000001	0.011352	0.003846	-0.000093
1482	7.4050e-01	-19.2251	-0.004131	0.000001	0.009730	0.003297	-0.000079
1483	7.4100e-01	-19.2636	-0.004809	0.000002	0.016622	0.005632	-0.000136
1484	7.4150e-01	-19.2684	-0.005313	0.000001	0.012365	0.004190	-0.000101
1485	7.4200e-01	-19.3326	-0.005726	0.000001	0.010136	0.003434	-0.000083
1486	7.4250e-01	-19.3936	-0.005825	0.000000	0.002433	0.000824	-0.000020
1487	7.4300e-01	-19.4369	-0.005478	-0.000001	-0.008514	-0.002885	0.000069
1488	7.4350e-01	-19.4609	-0.005123	-0.000001	-0.008717	-0.002953	0.000071
1489	7.4400e-01	-19.5155	-0.005329	0.000001	0.005068	0.001717	-0.000041
1490	7.4450e-01	-19.5668	-0.005825	0.000001	0.012163	0.004121	-0.000099
1491	7.4500e-01	-19.5941	-0.006329	0.000001	0.012365	0.004190	-0.000101
1492	7.4550e-01	-19.6679	-0.006709	0.000001	0.009325	0.003159	-0.000076
1493	7.4600e-01	-19.6647	-0.006941	-0.000001	-0.005676	-0.001923	-0.000046
1494	7.4650e-01	-19.6952	-0.006891	-0.000000	-0.001216	-0.000412	0.000010
1495	7.4700e-01	-19.7192	-0.007271	0.000001	0.009325	0.003159	-0.000076
1496	7.4750e-01	-19.7834	-0.007932	0.000002	0.016217	0.005494	-0.000132
1497	7.4800e-01	-19.8155	-0.008725	0.000002	0.019460	0.006593	-0.000159
1498	7.4850e-01	-19.8861	-0.009172	0.000001	0.010946	0.003709	-0.000089
1499	7.4900e-01	-19.9069	-0.009205	0.000000	0.000811	0.000275	-0.000007
1500	7.4950e-01	-19.9246	-0.009180	-0.000000	-0.000608	-0.000206	0.000005
1501	7.5000e-01	-20.0096	-0.009642	0.000001	0.011352	0.003846	-0.000093
1502	7.5050e-01	-19.9326	-0.010147	-0.000001	-0.012365	-0.004190	-0.000101
1503	7.5100e-01	-19.8732	-0.010634	-0.000001	-0.011960	-0.004052	-0.000097
1504	7.5150e-01	-19.8235	-0.010651	-0.000000	-0.000405	-0.000137	-0.000003
1505	7.5200e-01	-19.8075	-0.010427	0.000001	0.005473	0.001854	0.000045
1506	7.5250e-01	-19.7658	-0.010543	-0.000000	-0.002838	-0.000962	-0.000023
1507	7.5300e-01	-19.7192	-0.010766	-0.000001	-0.005473	-0.001854	-0.000045
1508	7.5350e-01	-19.6743	-0.010857	-0.000000	-0.002230	-0.000755	-0.000018
1509	7.5400e-01	-19.6486	-0.010882	-0.000000	-0.000608	-0.000206	-0.000005
1510	7.5450e-01	-19.6053	-0.010609	0.000001	0.006689	0.002266	0.000055
1511	7.5500e-01	-19.5668	-0.010832	-0.000001	-0.005473	-0.001854	-0.000045
1512	7.5550e-01	-19.5187	-0.010956	-0.000000	-0.003041	-0.001030	-0.000025
1513	7.5600e-01	-19.4706	-0.010940	0.000000	0.000405	0.000137	0.000003
1514	7.5650e-01	-19.4353	-0.010882	0.000000	0.001419	0.000481	0.000012
1515	7.5700e-01	-19.4000	-0.010874	0.000000	0.000203	0.000069	0.000002
1516	7.5750e-01	-19.3438	-0.010898	-0.000000	-0.000608	-0.000206	-0.000005
1517	7.5800e-01	-19.3262	-0.010832	0.000000	0.001622	0.000549	0.000013
1518	7.5850e-01	-19.2941	-0.010725	0.000000	0.002635	0.000893	0.000021
1519	7.5900e-01	-19.2412	-0.010642	0.000000	0.002027	0.000687	0.000017
1520	7.5950e-01	-19.1834	-0.010626	0.000000	0.000405	0.000137	0.000003
1521	7.6000e-01	-19.1433	-0.010444	0.000000	0.004460	0.001511	0.000036
1522	7.6050e-01	-19.1096	-0.010262	0.000000	0.004460	0.001511	0.000036
1523	7.6100e-01	-19.1080	-0.010147	0.000000	0.002838	0.000962	0.000023
1524	7.6150e-01	-19.0198	-0.010180	-0.000000	-0.000811	-0.000275	-0.000007
1525	7.6200e-01	-18.9877	-0.010163	0.000000	0.000405	0.000137	0.000003
1526	7.6250e-01	-18.9781	-0.010023	0.000000	0.003446	0.001168	0.000028
1527	7.6300e-01	-18.9283	-0.009907	0.000000	0.002838	0.000962	0.000023
1528	7.6350e-01	-18.8898	-0.010039	-0.000000	-0.003243	-0.001099	-0.000026
1529	7.6400e-01	-18.8465	-0.010023	0.000000	0.000405	0.000137	0.000003
1530	7.6450e-01	-18.7888	-0.009932	0.000000	0.002230	0.000755	0.000018
1531	7.6500e-01	-18.7711	-0.009956	-0.000000	-0.000608	-0.000206	-0.000005
1532	7.6550e-01	-18.6973	-0.009915	0.000000	0.001014	0.000343	0.000008
1533	7.6600e-01	-18.6572	-0.009915	0.000000	0.000000	0.000000	0.000000
1534	7.6650e-01	-18.6284	-0.009874	0.000000	0.001014	0.000343	0.000008
1535	7.6700e-01	-18.6011	-0.009758	0.000000	0.002838	0.000962	0.000023
1536	7.6750e-01	-18.5626	-0.009676	0.000000	0.002027	0.000687	0.000017
1537	7.6800e-01	-18.5209	-0.009659	0.000000	0.000405	0.000137	0.000003
1538	7.6850e-01	-18.4856	-0.009502	0.000000	0.003852	0.001305	0.000031
1539	7.6900e-01	-18.4214	-0.009411	0.000000	0.002230	0.000755	0.000018
1540	7.6950e-01	-18.4038	-0.009345	0.000000	0.001622	0.000549	0.000013
1541	7.7000e-01	-18.3813	-0.009345	0.000000	0.000000	0.000000	0.000000
1542	7.7050e-01	-18.2899	-0.009345	0.000000	0.000000	0.000000	0.000000
1543	7.7100e-01	-18.2899	-0.009155	-0.000000	-0.004662	-0.001580	0.000038
1544	7.7150e-01	-18.2481	-0.009163	-0.000000	-0.000203	-0.000069	-0.000002
1545	7.7200e-01	-18.2064	-0.009246	-0.000000	-0.002027	-0.000687	-0.000017
1546	7.7250e-01	-18.1695	-0.009155	0.000000	0.002230	0.000755	0.000018
1547	7.7300e-01	-18.1118	-0.009039	0.000000	0.002838	0.000962	0.000023
1548	7.7350e-01	-18.0909	-0.008990	0.000000	0.001216	0.000412	0.000010
1549	7.7400e-01	-18.0460	-0.008965	0.000000	0.000608	0.000206	0.000005
1550	7.7450e-01	-17.9786	-0.008849	0.000000	0.002838	0.000962	0.000023
1551	7.7500e-01	-17.9161	-0.008750	0.000000	0.002433	0.000824	0.000020
1552	7.7550e-01	-17.9113	-0.008601	0.000000	0.003649	0.001236	0.000030
1553	7.7600e-01	-17.8663	-0.008469	0.000000	0.003243	0.001099	0.000026
1554	7.7650e-01	-17.8278	-0.008436	0.000000	0.000811	0.000275	0.000007
1555	7.7700e-01	-17.8198	-0.008354	0.000000	0.002027	0.000687	0.000017
1556	7.7750e-01	-17.7540	-0.008188	0.000000	0.004054	0.001374	0.000033
1557	7.7800e-01	-17.6931	-0.008172	0.000000	0.000405	0.000137	0.000003
1558	7.7850e-01	-17.6658	-0.008106	0.000000	0.001622	0.000549	0.000013
1559	7.7900e-01	-17.6273	-0.008040	0.000000	0.001622	0.000549	0.000013
1560	7.7950e-01	-17.6016	-0.007940	0.000000	0.002433	0.000824	0.000020
1561	7.8000e-01	-17.5904	-0.007858	0.000000	0.002027	0.000687	0.000017
1562	7.8050e-01	-17.5246	-0.007825	0.000000	0.000811	0.000275	0.000007
1563	7.8100e-01	-17.4669	-0.007593	0.000001	0.005676	0.001923	0.000046
1564	7.8150e-01	-17.3963	-0.007469	0.000000	0.003041	0.001030	0.000025
1565	7.8200e-01	-17.4091	-0.007255	-0.000001	-0.005270	-0.001786	0.000043
1566	7.8250e-01	-17.3883	-0.006693	0.000001	0.013784	0.004670	0.000112
1567	7.8300e-01	-17.3337	-0.006387	0.000001	0.007500	0.002541	0.000061
1568	7.8350e-01	-17.2760	-0.006007	0.000001	0.009325	0.003159	0.000076
1569	7.8400e-01	-17.2423	-0.006081	-0.000000	-0.001824	-0.000618	-0.000015
1570	7.8450e-01	-17.1990	-0.006519	-0.000001	-0.010744	-0.003640	-0.000088
1571	7.8500e-01	-17.1829	-0.006965	-0.000001	-0.010946	-0.003709	-0.000089
1572	7.8550e-01	-17.0963	-0.007205	-0.000001	-0.005879	-0.001992	-0.000048
1573	7.8600e-01	-17.0899	-0.007345	-0.000000	-0.003446	-0.001168	-0.000028
1574	7.8650e-01	-17.0353	-0.007370	-0.000000	-0.000608	-0.000206	-0.000005
1575	7.8700e-01	-16.9744	-0.007114	0.000001	0.006284	0.002129	0.000051
1576	7.8750e-01	-16.9616	-0.006990	0.000000	0.003041	0.001030	0.000025
1577	7.8800e-01	-16.8974	-0.006742	0.000001	0.006081	0.002060	0.000050
1578	7.8850e-01	-16.8862	-0.006098	0.000002	0.015811	0.005357	0.000129
1579	7.8900e-01	-16.8460	-0.005536	0.000001	0.013784	0.004670	0.000112
1580	7.8950e-01	-16.7755	-0.005007	0.000001	0.012974	0.004396	0.000106
1581	7.9000e-01	-16.7482	-0.005189	-0.000000	-0.004460	-0.001511	-0.000036
1582	7.9050e-01	-16.7354	-0.005288	-0.000000	-0.002433	-0.000824	-0.000020
1583	7.9100e-01	-16.7193	-0.005577	-0.000001	-0.007095	-0.002404	-0.000058
1584	7.9150e-01	-16.6375	-0.005825	-0.000001	-0.006081	-0.002060	-0.000050
1585	7.9200e-01	-16.5926	-0.005676	0.000000	0.003649	0.001236	0.000030
1586	7.9250e-01	-16.5814	-0.005073	0.000001	0.014798	0.005014	0.000121
1587	7.9300e-01	-16.5236	-0.004842	0.000001	0.005676	0.001923	0.000046
1588	7.9350e-01	-16.4498	-0.004966	-0.000000	-0.003041	-0.001030	-0.000025
1589	7.9400e-01	-16.4402	-0.004974	-0.000000	-0.000203	-0.000069	-0.000002
1590	7.9450e-01	-16.4001	-0.005098	-0.000000	-0.003041	-0.001030	-0.000025
1591	7.9500e-01	-16.3487	-0.004900	0.000000	0.004865	0.001648	0.000040
1592	7.9550e-01	-16.2926	-0.004586	0.000001	0.007703	0.002610	0.000063
1593	7.9600e-01	-16.2765	-0.004429	0.000000	0.003852	0.001305	0.000031
1594	7.9650e-01	-16.2653	-0.004404	0.000000	0.000608	0.000206	0.000005
1595	7.9700e-01	-16.1819	-0.004429	-0.000000	-0.000608	-0.000206	-0.000005
1596	7.9750e-01	-16.1642	-0.004156	0.000001	0.006689	0.002266	0.000055
1597	7.9800e-01	-16.1161	-0.003933	0.000001	0.005473	0.001854	0.000045
1598	7.9850e-01	-16.0712	-0.003925	0.000000	0.000203	0.000069	0.000002
1599	7.9900e-01	-16.0215	-0.003974	-0.000000	-0.001216	-0.000412	-0.000010
1600	7.9950e-01	-16.0102	-0.003826	0.000000	0.003649	0.001236	0.000030
1601	8.0000e-01	-15.9782	-0.003652	0.000000	0.004257	0.001442	0.000035
1602	8.0050e-01	-15.9188	-0.003470	0.000000	0.004460	0.001511	0.000036
1603	8.0100e-01	-15.8867	-0.003611	-0.000000	-0.003446	-0.001168	-0.000028
1604	8.0150e-01	-15.8450	-0.003553	0.000000	0.001419	0.000481	0.000012
1605	8.0200e-01	-15.7937	-0.003330	0.000001	0.005473	0.001854	0.000045
1606	8.0250e-01	-15.7391	-0.003280	0.000000	0.001216	0.000412	0.000010
1607	8.0300e-01	-15.7167	-0.003206	0.000000	0.001824	0.000618	0.000015
1608	8.0350e-01	-15.6798	-0.003115	0.000000	0.002230	0.000755	0.000018
1609	8.0400e-01	-15.6605	-0.002884	0.000001	0.005676	0.001923	0.000046
1610	8.0450e-01	-15.6332	-0.002611	0.000001	0.006689	0.002266	0.000055
1611	8.0500e-01	-15.5643	-0.002446	0.000000	0.004054	0.001374	0.000033
1612	8.0550e-01	-15.5177	-0.002479	-0.000000	-0.000811	-0.000275	-0.000007
1613	8.0600e-01	-15.4648	-0.002239	0.000001	0.005879	0.001992	0.000048
1614	8.0650e-01	-15.4215	-0.001958	0.000001	0.006892	0.002335	0.000056
1615	8.0700e-01	-15.3669	-0.001834	0.000000	0.003041	0.001030	0.000025
1616	8.0750e-01	-15.3653	-0.001826	0.000000	0.000203	0.000069	0.000002
1617	8.0800e-01	-15.3108	-0.001785	0.000000	0.001014	0.000343	0.000008
1618	8.0850e-01	-15.2739	-0.001570	0.000001	0.005270	0.001786	0.000043
1619	8.0900e-01	-15.2546	-0.001388	0.000000	0.004460	0.001511	0.000036
1620	8.0950e-01	-15.2194	-0.001396	-0.000000	-0.000203	-0.000069	-0.000002
1621	8.1000e-01	-15.1488	-0.001248	0.000000	0.003649	0.001236	0.000030
1622	8.1050e-01	-15.1311	-0.000950	0.000001	0.007298	0.002472	0.000059
1623	8.1100e-01	-15.0461	-0.000694	0.000001	0.006284	0.002129	0.000051
1624	8.1150e-01	-15.0188	-0.000669	0.000000	0.000608	0.000206	0.000005
1625	8.1200e-01	-14.9514	-0.000504	0.000000	0.004054	0.001374	0.000033
1626	8.1250e-01	-14.9290	-0.000273	0.000001	0.005676	0.001923	0.000046
1627	8.1300e-01	-14.9129	-0.000025	0.000001	0.006081	0.002060	0.000050
1628	8.1350e-01	-14.8600	-0.000008	0.000000	0.000405	0.000137	0.000003
1629	8.1400e-01	-14.8392	0.000116	0.000000	0.003041	0.001030	0.000025
1630	8.1450e-01	-14.8007	0.000289	0.000000	0.004257	0.001442	0.000035
1631	8.1500e-01	-14.7541	0.000487	0.000000	0.004865	0.001648	0.000040
1632	8.1550e-01	-14.7028	0.000487	0.000000	0.000000	0.000000	0.000000
1633	8.1600e-01	-14.6916	0.000570	0.000000	0.002027	0.000687	0.000017
1634	8.1650e-01	-14.6178	0.000785	0.000001	0.005270	0.001786	0.000043
1635	8.1700e-01	-14.5841	0.000967	0.000000	0.004460	0.001511	0.000036
1636	8.1750e-01	-14.5504	0.000975	0.000000	0.000203	0.000069	0.000002
1637	8.1800e-01	-14.5183	0.001182	0.000001	0.005068	0.001717	0.000041
1638	8.1850e-01	-14.4942	0.001330	0.000000	0.003649	0.001236	0.000030
1639	8.1900e-01	-14.4477	0.001496	0.000000	0.004054	0.001374	0.000033
1640	8.1950e-01	-14.3691	0.001719	0.000001	0.005473	0.001854	0.000045
1641	8.2000e-01	-14.3771	0.001843	-0.000000	-0.003041	-0.001030	0.000025
1642	8.2050e-01	-14.3418	0.001950	0.000000	0.002635	0.000893	0.000021
1643	8.2100e-01	-14.2905	0.002198	0.000001	0.006081	0.002060	0.000050
1644	8.2150e-01	-14.2087	0.002256	0.000000	0.001419	0.000481	0.000012
1645	8.2200e-01	-14.1606	0.002272	0.000000	0.000405	0.000137	0.000003
1646	8.2250e-01	-14.1461	0.002363	0.000000	0.002230	0.000755	0.000018
1647	8.2300e-01	-14.1156	0.002586	0.000001	0.005473	0.001854	0.000045
1648	8.2350e-01	-14.0755	0.002875	0.000001	0.007095	0.002404	0.000058
1649	8.2400e-01	-14.0386	0.002958	0.000000	0.002027	0.000687	0.000017
1650	8.2450e-01	-14.0082	0.003173	0.000001	0.005270	0.001786	0.000043
1651	8.2500e-01	-13.9600	0.003429	0.000001	0.006284	0.002129	0.000051
1652	8.2550e-01	-13.9135	0.003528	0.000000	0.002433	0.000824	0.000020
1653	8.2600e-01	-13.8718	0.003743	0.000001	0.005270	0.001786	0.000043
1654	8.2650e-01	-13.8237	0.003751	0.000000	0.000203	0.000069	0.000002
1655	8.2700e-01	-13.7788	0.004016	0.000001	0.006487	0.002198	0.000053
1656	8.2750e-01	-13.7531	0.004197	0.000000	0.004460	0.001511	0.000036
1657	8.2800e-01	-13.7114	0.004495	0.000001	0.007298	0.002472	0.000059
1658	8.2850e-01	-13.6745	0.005007	0.000001	0.012568	0.004258	0.000102
1659	8.2900e-01	-13.6536	0.005511	0.000001	0.012365	0.004190	0.000101
1660	8.2950e-01	-13.5830	0.005726	0.000001	0.005270	0.001786	0.000043
1661	8.3000e-01	-13.5510	0.005643	-0.000000	-0.002027	-0.000687	-0.000017
1662	8.3050e-01	-13.4948	0.005470	-0.000000	-0.004257	-0.001442	-0.000035
1663	8.3100e-01	-13.4691	0.005280	-0.000000	-0.004662	-0.001580	-0.000038
1664	8.3150e-01	-13.4451	0.005396	0.000000	0.002838	0.000962	0.000023
1665	8.3200e-01	-13.3809	0.005371	-0.000000	-0.000608	-0.000206	-0.000005
1666	8.3250e-01	-13.3312	0.005437	0.000000	0.001622	0.000549	0.000013
1667	8.3300e-01	-13.3215	0.005652	0.000001	0.005270	0.001786	0.000043
1668	8.3350e-01	-13.2943	0.005800	0.000000	0.003649	0.001236	0.000030
1669	8.3400e-01	-13.2205	0.006073	0.000001	0.006689	0.002266	0.000055
1670	8.3450e-01	-13.1740	0.006643	0.000001	0.013987	0.004739	0.000114
1671	8.3500e-01	-13.1563	0.007205	0.000001	0.013784	0.004670	0.000112
1672	8.3550e-01	-13.1114	0.007602	0.000001	0.009730	0.003297	0.000079
1673	8.3600e-01	-13.0665	0.007453	-0.000000	-0.003649	-0.001236	-0.000030
1674	8.3650e-01	-13.0536	0.007461	0.000000	0.000203	0.000069	0.000002
1675	8.3700e-01	-12.9734	0.007461	0.000000	0.000000	0.000000	0.000000
1676	8.3750e-01	-12.9413	0.007577	0.000000	0.002838	0.000962	0.000023
1677	8.3800e-01	-12.8980	0.007866	0.000001	0.007095	0.002404	0.000058
1678	8.3850e-01	-12.8788	0.008320	0.000001	0.011149	0.003777	0.000091
1679	8.3900e-01	-12.8547	0.008246	-0.000000	-0.001824	-0.000618	-0.000015
1680	8.3950e-01	-12.7745	0.008395	0.000000	0.003649	0.001236	0.000030
1681	8.4000e-01	-12.6991	0.008395	0.000000	0.000000	0.000000	0.000000
1682	8.4050e-01	-12.6943	0.008436	0.000000	0.001014	0.000343	0.000008
1683	8.4100e-01	-12.6911	0.008990	0.000001	0.013582	0.004602	0.000111
1684	8.4150e-01	-12.6430	0.009295	0.000001	0.007500	0.002541	0.000061
1685	8.4200e-01	-12.5884	0.009378	0.000000	0.002027	0.000687	0.000017
1686	8.4250e-01	-12.5258	0.009444	0.000000	0.001622	0.000549	0.000013
1687	8.4300e-01	-12.5339	0.009725	-0.000001	-0.006892	-0.002335	0.000056
1688	8.4350e-01	-12.4954	0.009973	0.000001	0.006081	0.002060	0.000050
1689	8.4400e-01	-12.4248	0.010014	0.000000	0.001014	0.000343	0.000008
1690	8.4450e-01	-12.3879	0.010064	0.000000	0.001216	0.000412	0.000010
1691	8.4500e-01	-12.3718	0.010147	0.000000	0.002027	0.000687	0.000017
1692	8.4550e-01	-12.3221	0.010444	0.000001	0.007298	0.002472	0.000059
1693	8.4600e-01	-12.2692	0.010601	0.000000	0.003852	0.001305	0.000031
1694	8.4650e-01	-12.2403	0.010700	0.000000	0.002433	0.000824	0.000020
1695	8.4700e-01	-12.2114	0.010758	0.000000	0.001419	0.000481	0.000012
1696	8.4750e-01	-12.1617	0.010981	0.000001	0.005473	0.001854	0.000045
1697	8.4800e-01	-12.1296	0.011270	0.000001	0.007095	0.002404	0.000058
1698	8.4850e-01	-12.0654	0.011444	0.000000	0.004257	0.001442	0.000035
1699	8.4900e-01	-12.0285	0.011526	0.000000	0.002027	0.000687	0.000017
1700	8.4950e-01	-11.9692	0.011692	0.000000	0.004054	0.001374	0.000033
1701	8.5000e-01	-11.9660	0.012039	0.000001	0.008514	0.002885	0.000069
1702	8.5050e-01	-11.9387	0.012303	0.000001	0.006487	0.002198	0.000053
1703	8.5100e-01	-11.8713	0.012526	0.000001	0.005473	0.001854	0.000045
1704	8.5150e-01	-11.8505	0.012592	0.000000	0.001622	0.000549	0.000013
1705	8.5200e-01	-11.8007	0.012890	0.000001	0.007298	0.002472	0.000059
1706	8.5250e-01	-11.7863	0.013162	0.000001	0.006689	0.002266	0.000055
1707	8.5300e-01	-11.7318	0.013278	0.000000	0.002838	0.000962	0.000023
1708	8.5350e-01	-11.6708	0.013278	0.000000	0.000000	0.000000	0.000000
1709	8.5400e-01	-11.6515	0.013410	0.000000	0.003243	0.001099	0.000026
1710	8.5450e-01	-11.6098	0.013815	0.000001	0.009933	0.003365	0.000081
1711	8.5500e-01	-11.5505	0.013790	-0.000000	-0.000608	-0.000206	-0.000005
1712	8.5550e-01	-11.5184	0.014022	0.000001	0.005676	0.001923	0.000046
1713	8.5600e-01	-11.4943	0.014245	0.000001	0.005473	0.001854	0.000045
1714	8.5650e-01	-11.4318	0.014567	0.000001	0.007906	0.002679	0.000064
1715	8.5700e-01	-11.4302	0.014749	0.000000	0.004460	0.001511	0.000036
1716	8.5750e-01	-11.3532	0.014914	0.000000	0.004054	0.001374	0.000033
1717	8.5800e-01	-11.3066	0.015162	0.000001	0.006081	0.002060	0.000050
1718	8.5850e-01	-11.2970	0.015476	0.000001	0.007703	0.002610	0.000063
1719	8.5900e-01	-11.2441	0.015699	0.000001	0.005473	0.001854	0.000045
1720	8.5950e-01	-11.1783	0.015815	0.000000	0.002838	0.000962	0.000023
1721	8.6000e-01	-11.1767	0.015963	0.000000	0.003649	0.001236	0.000030
1722	8.6050e-01	-11.1077	0.016063	0.000000	0.002433	0.000824	0.000020
1723	8.6100e-01	-11.0548	0.016261	0.000000	0.004865	0.001648	0.000040
1724	8.6150e-01	-11.0419	0.016385	0.000000	0.003041	0.001030	0.000025
1725	8.6200e-01	-10.9922	0.016492	0.000000	0.002635	0.000893	0.000021
1726	8.6250e-01	-10.9938	0.016856	-0.000001	-0.008919	-0.003022	0.000073
1727	8.6300e-01	-10.9168	0.016971	0.000000	0.002838	0.000962	0.000023
1728	8.6350e-01	-10.8847	0.017104	0.000000	0.003243	0.001099	0.000026
1729	8.6400e-01	-10.8366	0.017211	0.000000	0.002635	0.000893	0.000021
1730	8.6450e-01	-10.7933	0.017542	0.000001	0.008108	0.002747	0.000066
1731	8.6500e-01	-10.7468	0.017732	0.000000	0.004662	0.001580	0.000038
1732	8.6550e-01	-10.7371	0.017880	0.000000	0.003649	0.001236	0.000030
1733	8.6600e-01	-10.6730	0.018145	0.000001	0.006487	0.002198	0.000053
1734	8.6650e-01	-10.6152	0.018236	0.000000	0.002230	0.000755	0.000018
1735	8.6700e-01	-10.6088	0.018541	0.000001	0.007500	0.002541	0.000061
1736	8.6750e-01	-10.5607	0.018756	0.000001	0.005270	0.001786	0.000043
1737	8.6800e-01	-10.5029	0.018888	0.000000	0.003243	0.001099	0.000026
1738	8.6850e-01	-10.4500	0.018988	0.000000	0.002433	0.000824	0.000020
1739	8.6900e-01	-10.4420	0.019095	0.000000	0.002635	0.000893	0.000021
1740	8.6950e-01	-10.4051	0.019335	0.000001	0.005879	0.001992	0.000048
1741	8.7000e-01	-10.3826	0.019425	0.000000	0.002230	0.000755	0.000018
1742	8.7050e-01	-10.3489	0.019624	0.000000	0.004865	0.001648	0.000040
1743	8.7100e-01	-10.2655	0.019748	0.000000	0.003041	0.001030	0.000025
1744	8.7150e-01	-10.2045	0.019996	0.000001	0.006081	0.002060	0.000050
1745	8.7200e-01	-10.1917	0.020210	0.000001	0.005270	0.001786	0.000043
1746	8.7250e-01	-10.1564	0.020202	-0.000000	-0.000203	-0.000069	-0.000002
1747	8.7300e-01	-10.1179	0.020293	0.000000	0.002230	0.000755	0.000018
1748	8.7350e-01	-10.0954	0.020607	0.000001	0.007703	0.002610	0.000063
1749	8.7400e-01	-10.0425	0.020855	0.000001	0.006081	0.002060	0.000050
1750	8.7450e-01	-9.9703	0.021508	0.000002	0.016014	0.005426	0.000131
1751	8.7500e-01	-9.9495	0.022235	0.000002	0.017839	0.006044	0.000145
1752	8.7550e-01	-9.9286	0.022673	0.000001	0.010744	0.003640	0.000088
1753	8.7600e-01	-9.8660	0.022607	-0.000000	-0.001622	-0.000549	-0.000013
1754	8.7650e-01	-9.8067	0.022350	-0.000001	-0.006284	-0.002129	-0.000051
1755	8.7700e-01	-9.7794	0.022144	-0.000001	-0.005068	-0.001717	-0.000041
1756	8.7750e-01	-9.7377	0.022218	0.000000	0.001824	0.000618	0.000015
1757	8.7800e-01	-9.7136	0.022367	0.000000	0.003649	0.001236	0.000030
1758	8.7850e-01	-9.6607	0.022094	-0.000001	-0.006689	-0.002266	-0.000055
1759	8.7900e-01	-9.6559	0.022185	0.000000	0.002230	0.000755	0.000018
1760	8.7950e-01	-9.6174	0.022218	0.000000	0.000811	0.000275	0.000007
1761	8.8000e-01	-9.5773	0.022532	0.000001	0.007703	0.002610	0.000063
1762	8.8050e-01	-9.5179	0.023317	0.000002	0.019258	0.006525	0.000157
1763	8.8100e-01	-9.4906	0.024069	0.000002	0.018447	0.006250	0.000150
1764	8.8150e-01	-9.4505	0.024532	0.000001	0.011352	0.003846	0.000093
1765	8.8200e-01	-9.4056	0.024424	-0.000000	-0.002635	-0.000893	-0.000021
1766	8.8250e-01	-9.3414	0.024152	-0.000001	-0.006689	-0.002266	-0.000055
1767	8.8300e-01	-9.3126	0.024185	0.000000	0.000811	0.000275	0.000007
1768	8.8350e-01	-9.2580	0.024441	0.000001	0.006284	0.002129	0.000051
1769	8.8400e-01	-9.2324	0.025003	0.000001	0.013784	0.004670	0.000112
1770	8.8450e-01	-9.2067	0.025548	0.000001	0.013379	0.004533	0.000109
1771	8.8500e-01	-9.1409	0.025556	0.000000	0.000203	0.000069	0.000002
1772	8.8550e-01	-9.1120	0.025457	-0.000000	-0.002433	-0.000824	-0.000020
1773	8.8600e-01	-9.0816	0.025432	-0.000000	-0.000608	-0.000206	-0.000005
1774	8.8650e-01	-9.0399	0.025771	0.000001	0.008311	0.002816	0.000068
1775	8.8700e-01	-8.9789	0.026350	0.000001	0.014190	0.004808	0.000116
1776	8.8750e-01	-8.9661	0.026515	0.000000	0.004054	0.001374	0.000033
1777	8.8800e-01	-8.9131	0.026473	-0.000000	-0.001014	-0.000343	-0.000008
1778	8.8850e-01	-8.8842	0.026606	0.000000	0.003243	0.001099	0.000026
1779	8.8900e-01	-8.8361	0.026862	0.000001	0.006284	0.002129	0.000051
1780	8.8950e-01	-8.7800	0.027234	0.000001	0.009122	0.003091	0.000074
1781	8.9000e-01	-8.7559	0.027415	0.000000	0.004460	0.001511	0.000036
1782	8.9050e-01	-8.7174	0.027506	0.000000	0.002230	0.000755	0.000018
1783	8.9100e-01	-8.6629	0.027589	0.000000	0.002027	0.000687	0.000017
1784	8.9150e-01	-8.6372	0.027911	0.000001	0.007906	0.002679	0.000064
1785	8.9200e-01	-8.5554	0.028250	0.000001	0.008311	0.002816	0.000068
1786	8.9250e-01	-8.5281	0.028448	0.000000	0.004865	0.001648	0.000040
1787	8.9300e-01	-8.5121	0.028580	0.000000	0.003243	0.001099	0.000026
1788	8.9350e-01	-8.4720	0.028713	0.000000	0.003243	0.001099	0.000026
1789	8.9400e-01	-8.4254	0.029109	0.000001	0.009730	0.003297	0.000079
1790	8.9450e-01	-8.3950	0.029332	0.000001	0.005473	0.001854	0.000045
1791	8.9500e-01	-8.3532	0.029308	-0.000000	-0.000608	-0.000206	-0.000005
1792	8.9550e-01	-8.3051	0.029630	0.000001	0.007906	0.002679	0.000064
1793	8.9600e-01	-8.2361	0.030084	0.000001	0.011149	0.003777	0.000091
1794	8.9650e-01	-8.2249	0.030233	0.000000	0.003649	0.001236	0.000030
1795	8.9700e-01	-8.2040	0.030332	0.000000	0.002433	0.000824	0.000020
1796	8.9750e-01	-8.1559	0.030423	0.000000	0.002230	0.000755	0.000018
1797	8.9800e-01	-8.0982	0.030844	0.000001	0.010338	0.003503	0.000084
1798	8.9850e-01	-8.0757	0.031084	0.000001	0.005879	0.001992	0.000048
1799	8.9900e-01	-8.0436	0.031258	0.000000	0.004257	0.001442	0.000035
1800	8.9950e-01	-7.9923	0.031398	0.000000	0.003446	0.001168	0.000028
1801	9.0000e-01	-7.9827	0.031621	0.000001	0.005473	0.001854	0.000045
1802	9.0050e-01	-7.9008	0.032125	0.000001	0.012365	0.004190	0.000101
1803	9.0100e-01	-7.8479	0.032216	0.000000	0.002230	0.000755	0.000018
1804	9.0150e-01	-7.8271	0.032497	0.000001	0.006892	0.002335	0.000056
1805	9.0200e-01	-7.7918	0.032811	0.000001	0.007703	0.002610	0.000063
1806	9.0250e-01	-7.7484	0.033067	0.000001	0.006284	0.002129	0.000051
1807	9.0300e-01	-7.6891	0.033298	0.000001	0.005676	0.001923	0.000046
1808	9.0350e-01	-7.6490	0.033522	0.000001	0.005473	0.001854	0.000045
1809	9.0400e-01	-7.6297	0.033712	0.000000	0.004662	0.001580	0.000038
1810	9.0450e-01	-7.6041	0.033992	0.000001	0.006892	0.002335	0.000056
1811	9.0500e-01	-7.5078	0.034232	0.000001	0.005879	0.001992	0.000048
1812	9.0550e-01	-7.5383	0.034249	-0.000000	-0.000405	-0.000137	0.000003
1813	9.0600e-01	-7.4661	0.034381	0.000000	0.003243	0.001099	0.000026
1814	9.0650e-01	-7.4132	0.034554	0.000000	0.004257	0.001442	0.000035
1815	9.0700e-01	-7.3939	0.034810	0.000001	0.006284	0.002129	0.000051
1816	9.0750e-01	-7.3233	0.034910	0.000000	0.002433	0.000824	0.000020
1817	9.0800e-01	-7.3249	0.035265	-0.000001	-0.008717	-0.002953	0.000071
1818	9.0850e-01	-7.2752	0.035628	0.000001	0.008919	0.003022	0.000073
1819	9.0900e-01	-7.2014	0.035992	0.000001	0.008919	0.003022	0.000073
1820	9.0950e-01	-7.1838	0.036190	0.000000	0.004865	0.001648	0.000040
1821	9.1000e-01	-7.1501	0.036554	0.000001	0.008919	0.003022	0.000073
1822	9.1050e-01	-7.1035	0.036794	0.000001	0.005879	0.001992	0.000048
1823	9.1100e-01	-7.0747	0.037008	0.000001	0.005270	0.001786	0.000043
1824	9.1150e-01	-7.0249	0.037248	0.000001	0.005879	0.001992	0.000048
1825	9.1200e-01	-7.0009	0.037364	0.000000	0.002838	0.000962	0.000023
1826	9.1250e-01	-6.9736	0.037678	0.000001	0.007703	0.002610	0.000063
1827	9.1300e-01	-6.9223	0.037884	0.000001	0.005068	0.001717	0.000041
1828	9.1350e-01	-6.8517	0.038058	0.000000	0.004257	0.001442	0.000035
1829	9.1400e-01	-6.8292	0.038215	0.000000	0.003852	0.001305	0.000031
1830	9.1450e-01	-6.7971	0.038487	0.000001	0.006689	0.002266	0.000055
1831	9.1500e-01	-6.7538	0.038710	0.000001	0.005473	0.001854	0.000045
1832	9.1550e-01	-6.7169	0.038892	0.000000	0.004460	0.001511	0.000036
1833	9.1600e-01	-6.6704	0.039033	0.000000	0.003446	0.001168	0.000028
1834	9.1650e-01	-6.6688	0.039157	0.000000	0.003041	0.001030	0.000025
1835	9.1700e-01	-6.6175	0.039330	0.000000	0.004257	0.001442	0.000035
1836	9.1750e-01	-6.5693	0.039578	0.000001	0.006081	0.002060	0.000050
1837	9.1800e-01	-6.4939	0.040016	0.000001	0.010744	0.003640	0.000088
1838	9.1850e-01	-6.4618	0.040404	0.000001	0.009527	0.003228	0.000078
1839	9.1900e-01	-6.4602	0.040809	0.000001	0.009933	0.003365	0.000081
1840	9.1950e-01	-6.4041	0.041057	0.000001	0.006081	0.002060	0.000050
1841	9.2000e-01	-6.3319	0.041297	0.000001	0.005879	0.001992	0.000048
1842	9.2050e-01	-6.2838	0.042106	0.000002	0.019866	0.006731	0.000162
1843	9.2100e-01	-6.2629	0.042511	0.000001	0.009933	0.003365	0.000081
1844	9.2150e-01	-6.2389	0.043032	0.000001	0.012771	0.004327	0.000104
1845	9.2200e-01	-6.1923	0.042817	-0.000001	-0.005270	-0.001786	-0.000043
1846	9.2250e-01	-6.1314	0.042313	-0.000001	-0.012365	-0.004190	-0.000101
1847	9.2300e-01	-6.1234	0.041949	-0.000001	-0.008919	-0.003022	-0.000073
1848	9.2350e-01	-6.0528	0.041941	-0.000000	-0.000203	-0.000069	-0.000002
1849	9.2400e-01	-6.0367	0.042131	0.000000	0.004662	0.001580	0.000038
1850	9.2450e-01	-5.9822	0.042222	0.000000	0.002230	0.000755	0.000018
1851	9.2500e-01	-5.9164	0.042437	0.000001	0.005270	0.001786	0.000043
1852	9.2550e-01	-5.9469	0.042668	-0.000001	-0.005676	-0.001923	0.000046
1853	9.2600e-01	-5.8522	0.043090	0.000001	0.010338	0.003503	0.000084
1854	9.2650e-01	-5.8330	0.043701	0.000002	0.015001	0.005082	0.000122
1855	9.2700e-01	-5.7656	0.044511	0.000002	0.019866	0.006731	0.000162
1856	9.2750e-01	-5.7448	0.045106	0.000001	0.014595	0.004945	0.000119
1857	9.2800e-01	-5.7335	0.045106	0.000000	0.000000	0.000000	0.000000
1858	9.2850e-01	-5.6822	0.045081	-0.000000	-0.000608	-0.000206	-0.000005
1859	9.2900e-01	-5.6549	0.044990	-0.000000	-0.002230	-0.000755	-0.000018
1860	9.2950e-01	-5.6228	0.045097	0.000000	0.002635	0.000893	0.000021
1861	9.3000e-01	-5.5715	0.045767	0.000002	0.016420	0.005563	0.000134
1862	9.3050e-01	-5.5202	0.046262	0.000001	0.012163	0.004121	0.000099
1863	9.3100e-01	-5.4688	0.046461	0.000000	0.004865	0.001648	0.000040
1864	9.3150e-01	-5.4335	0.046320	-0.000000	-0.003446	-0.001168	-0.000028
1865	9.3200e-01	-5.3822	0.046436	0.000000	0.002838	0.000962	0.000023
1866	9.3250e-01	-5.3694	0.046725	0.000001	0.007095	0.002404	0.000058
1867	9.3300e-01	-5.3020	0.047320	0.000001	0.014595	0.004945	0.000119
1868	9.3350e-01	-5.2699	0.047527	0.000001	0.005068	0.001717	0.000041
1869	9.3400e-01	-5.2378	0.047543	0.000000	0.000405	0.000137	0.000003
1870	9.3450e-01	-5.1849	0.047593	0.000000	0.001216	0.000412	0.000010
1871	9.3500e-01	-5.1480	0.047989	0.000001	0.009730	0.003297	0.000079
1872	9.3550e-01	-5.1095	0.048477	0.000001	0.011960	0.004052	0.000097
1873	9.3600e-01	-5.0870	0.048642	0.000000	0.004054	0.001374	0.000033
1874	9.3650e-01	-5.0357	0.048650	0.000000	0.000203	0.000069	0.000002
1875	9.3700e-01	-5.0036	0.048882	0.000001	0.005676	0.001923	0.000046
1876	9.3750e-01	-4.9827	0.049378	0.000001	0.012163	0.004121	0.000099
1877	9.3800e-01	-4.9073	0.049650	0.000001	0.006689	0.002266	0.000055
1878	9.3850e-01	-4.8817	0.049725	0.000000	0.001824	0.000618	0.000015
1879	9.3900e-01	-4.8143	0.049865	0.000000	0.003446	0.001168	0.000028
1880	9.3950e-01	-4.7951	0.050055	0.000000	0.004662	0.001580	0.000038
1881	9.4000e-01	-4.7662	0.050402	0.000001	0.008514	0.002885	0.000069
1882	9.4050e-01	-4.7277	0.050609	0.000001	0.005068	0.001717	0.000041
1883	9.4100e-01	-4.6539	0.050642	0.000000	0.000811	0.000275	0.000007
1884	9.4150e-01	-4.6106	0.050807	0.000000	0.004054	0.001374	0.000033
1885	9.4200e-01	-4.5961	0.051047	0.000001	0.005879	0.001992	0.000048
1886	9.4250e-01	-4.5576	0.051394	0.000001	0.008514	0.002885	0.000069
1887	9.4300e-01	-4.5320	0.051344	-0.000000	-0.001216	-0.000412	-0.000010
1888	9.4350e-01	-4.4774	0.051559	0.000001	0.005270	0.001786	0.000043
1889	9.4400e-01	-4.4405	0.051881	0.000001	0.007906	0.002679	0.000064
1890	9.4450e-01	-4.4020	0.052154	0.000001	0.006689	0.002266	0.000055
1891	9.4500e-01	-4.3523	0.052509	0.000001	0.008717	0.002953	0.000071
1892	9.4550e-01	-4.3250	0.052658	0.000000	0.003649	0.001236	0.000030
1893	9.4600e-01	-4.2801	0.053054	0.000001	0.009730	0.003297	0.000079
1894	9.4650e-01	-4.2272	0.053294	0.000001	0.005879	0.001992	0.000048
1895	9.4700e-01	-4.1582	0.053641	0.000001	0.008514	0.002885	0.000069
1896	9.4750e-01	-4.1710	0.053624	0.000000	0.000405	0.000137	-0.000003
1897	9.4800e-01	-4.1213	0.054046	0.000001	0.010338	0.003503	0.000084
1898	9.4850e-01	-4.0748	0.054319	0.000001	0.006689	0.002266	0.000055
1899	9.4900e-01	-4.0475	0.054517	0.000000	0.004865	0.001648	0.000040
1900	9.4950e-01	-3.9913	0.054575	0.000000	0.001419	0.000481	0.000012
1901	9.5000e-01	-3.9528	0.054798	0.000001	0.005473	0.001854	0.000045
1902	9.5050e-01	-3.9031	0.055079	0.000001	0.006892	0.002335	0.000056
1903	9.5100e-01	-3.8919	0.055327	0.000001	0.006081	0.002060	0.000050
1904	9.5150e-01	-3.8341	0.055500	0.000000	0.004257	0.001442	0.000035
1905	9.5200e-01	-3.8277	0.055665	0.000000	0.004054	0.001374	0.000033
1906	9.5250e-01	-3.7619	0.056037	0.000001	0.009122	0.003091	0.000074
1907	9.5300e-01	-3.7170	0.056450	0.000001	0.010136	0.003434	0.000083
1908	9.5350e-01	-3.6994	0.056665	0.000001	0.005270	0.001786	0.000043
1909	9.5400e-01	-3.6224	0.057012	0.000001	0.008514	0.002885	0.000069
1910	9.5450e-01	-3.6304	0.057541	-0.000001	-0.012974	-0.004396	0.000106
1911	9.5500e-01	-3.5534	0.057797	0.000001	0.006284	0.002129	0.000051
1912	9.5550e-01	-3.4988	0.057929	0.000000	0.003243	0.001099	0.000026
1913	9.5600e-01	-3.4700	0.058012	0.000000	0.002027	0.000687	0.000017
1914	9.5650e-01	-3.4234	0.058301	0.000001	0.007095	0.002404	0.000058
1915	9.5700e-01	-3.3801	0.058590	0.000001	0.007095	0.002404	0.000058
1916	9.5750e-01	-3.3528	0.058747	0.000000	0.003852	0.001305	0.000031
1917	9.5800e-01	-3.3240	0.058929	0.000000	0.004460	0.001511	0.000036
1918	9.5850e-01	-3.2726	0.059070	0.000000	0.003446	0.001168	0.000028
1919	9.5900e-01	-3.2117	0.059127	0.000000	0.001419	0.000481	0.000012
1920	9.5950e-01	-3.2213	0.059433	-0.000001	-0.007500	-0.002541	0.000061
1921	9.6000e-01	-3.2053	0.059499	0.000000	0.001622	0.000549	0.000013
1922	9.6050e-01	-3.1090	0.059747	0.000001	0.006081	0.002060	0.000050
1923	9.6100e-01	-3.0673	0.059929	0.000000	0.004460	0.001511	0.000036
1924	9.6150e-01	-3.0529	0.060094	0.000000	0.004054	0.001374	0.000033
1925	9.6200e-01	-2.9903	0.060590	0.000001	0.012163	0.004121	0.000099
1926	9.6250e-01	-2.9550	0.061028	0.000001	0.010744	0.003640	0.000088
1927	9.6300e-01	-2.9261	0.061457	0.000001	0.010541	0.003571	0.000086
1928	9.6350e-01	-2.8716	0.061738	0.000001	0.006892	0.002335	0.000056
1929	9.6400e-01	-2.8363	0.061912	0.000000	0.004257	0.001442	0.000035
1930	9.6450e-01	-2.8058	0.062052	0.000000	0.003446	0.001168	0.000028
1931	9.6500e-01	-2.7689	0.062416	0.000001	0.008919	0.003022	0.000073
1932	9.6550e-01	-2.6903	0.062680	0.000001	0.006487	0.002198	0.000053
1933	9.6600e-01	-2.6614	0.062895	0.000001	0.005270	0.001786	0.000043
1934	9.6650e-01	-2.6342	0.063250	0.000001	0.008717	0.002953	0.000071
1935	9.6700e-01	-2.6037	0.063697	0.000001	0.010946	0.003709	0.000089
1936	9.6750e-01	-2.5812	0.064052	0.000001	0.008717	0.002953	0.000071
1937	9.6800e-01	-2.5202	0.064259	0.000001	0.005068	0.001717	0.000041
1938	9.6850e-01	-2.4561	0.064035	-0.000001	-0.005473	-0.001854	-0.000045
1939	9.6900e-01	-2.4368	0.064102	0.000000	0.001622	0.000549	0.000013
1940	9.6950e-01	-2.4015	0.064168	0.000000	0.001622	0.000549	0.000013
1941	9.7000e-01	-2.3582	0.064135	-0.000000	-0.000811	-0.000275	-0.000007
1942	9.7050e-01	-2.3326	0.064292	0.000000	0.003852	0.001305	0.000031
1943	9.7100e-01	-2.2652	0.064597	0.000001	0.007500	0.002541	0.000061
1944	9.7150e-01	-2.2475	0.064878	0.000001	0.006892	0.002335	0.000056
1945	9.7200e-01	-2.1882	0.065184	0.000001	0.007500	0.002541	0.000061
1946	9.7250e-01	-2.1545	0.065886	0.000002	0.017230	0.005838	0.000140
1947	9.7300e-01	-2.1176	0.066399	0.000001	0.012568	0.004258	0.000102
1948	9.7350e-01	-2.0791	0.066927	0.000001	0.012974	0.004396	0.000106
1949	9.7400e-01	-2.0149	0.066903	-0.000000	-0.000608	-0.000206	-0.000005
1950	9.7450e-01	-1.9925	0.066894	-0.000000	-0.000203	-0.000069	-0.000002
1951	9.7500e-01	-1.9507	0.066812	-0.000000	-0.002027	-0.000687	-0.000017
1952	9.7550e-01	-1.9026	0.066927	0.000000	0.002838	0.000962	0.000023
1953	9.7600e-01	-1.8946	0.067514	0.000001	0.014393	0.004876	0.000117
1954	9.7650e-01	-1.8304	0.068134	0.000002	0.015203	0.005151	0.000124
1955	9.7700e-01	-1.7871	0.068506	0.000001	0.009122	0.003091	0.000074
1956	9.7750e-01	-1.7229	0.068481	-0.000000	-0.000608	-0.000206	-0.000005
1957	9.7800e-01	-1.7101	0.068580	0.000000	0.002433	0.000824	0.000020
1958	9.7850e-01	-1.6764	0.068952	0.000001	0.009122	0.003091	0.000074
1959	9.7900e-01	-1.6267	0.069547	0.000001	0.014595	0.004945	0.000119
1960	9.7950e-01	-1.6058	0.069935	0.000001	0.009527	0.003228	0.000078
1961	9.8000e-01	-1.5513	0.070075	0.000000	0.003446	0.001168	0.000028
1962	9.8050e-01	-1.5080	0.070216	0.000000	0.003446	0.001168	0.000028
1963	9.8100e-01	-1.4984	0.070538	0.000001	0.007906	0.002679	0.000064
1964	9.8150e-01	-1.4197	0.070968	0.000001	0.010541	0.003571	0.000086
1965	9.8200e-01	-1.3460	0.071207	0.000001	0.005879	0.001992	0.000048
1966	9.8250e-01	-1.3508	0.071282	-0.000000	-0.001824	-0.000618	0.000015
1967	9.8300e-01	-1.3010	0.071364	0.000000	0.002027	0.000687	0.000017
1968	9.8350e-01	-1.2914	0.071720	0.000001	0.008717	0.002953	0.000071
1969	9.8400e-01	-1.2465	0.072158	0.000001	0.010744	0.003640	0.000088
1970	9.8450e-01	-1.2048	0.072232	0.000000	0.001824	0.000618	0.000015
1971	9.8500e-01	-1.1342	0.072430	0.000000	0.004865	0.001648	0.000040
1972	9.8550e-01	-1.0909	0.072686	0.000001	0.006284	0.002129	0.000051
1973	9.8600e-01	-1.0796	0.073133	0.000001	0.010946	0.003709	0.000089
1974	9.8650e-01	-1.0251	0.073430	0.000001	0.007298	0.002472	0.000059
1975	9.8700e-01	-0.9786	0.073513	0.000000	0.002027	0.000687	0.000017
1976	9.8750e-01	-0.9818	0.073694	-0.000000	-0.004460	-0.001511	0.000036
1977	9.8800e-01	-0.9208	0.074000	0.000001	0.007500	0.002541	0.000061
1978	9.8850e-01	-0.8903	0.074281	0.000001	0.006892	0.002335	0.000056
1979	9.8900e-01	-0.8422	0.074512	0.000001	0.005676	0.001923	0.000046
1980	9.8950e-01	-0.7861	0.074711	0.000000	0.004865	0.001648	0.000040
1981	9.9000e-01	-0.7588	0.075000	0.000001	0.007095	0.002404	0.000058
1982	9.9050e-01	-0.7139	0.075504	0.000001	0.012365	0.004190	0.000101
1983	9.9100e-01	-0.6513	0.075587	0.000000	0.002027	0.000687	0.000017
1984	9.9150e-01	-0.6240	0.075917	0.000001	0.008108	0.002747	0.000066
1985	9.9200e-01	-0.5952	0.076157	0.000001	0.005879	0.001992	0.000048
1986	9.9250e-01	-0.5599	0.076520	0.000001	0.008919	0.003022	0.000073
1987	9.9300e-01	-0.5150	0.076710	0.000000	0.004662	0.001580	0.000038
1988	9.9350e-01	-0.4909	0.076892	0.000000	0.004460	0.001511	0.000036
1989	9.9400e-01	-0.4476	0.077090	0.000000	0.004865	0.001648	0.000040
1990	9.9450e-01	-0.4123	0.077470	0.000001	0.009325	0.003159	0.000076
1991	9.9500e-01	-0.3401	0.077743	0.000001	0.006689	0.002266	0.000055
1992	9.9550e-01	-0.3257	0.078049	0.000001	0.007500	0.002541	0.000061
1993	9.9600e-01	-0.2663	0.078222	0.000000	0.004257	0.001442	0.000035
1994	9.9650e-01	-0.1909	0.078561	0.000001	0.008311	0.002816	0.000068
1995	9.9700e-01	-0.1909	0.079073	-0.000001	-0.012568	-0.004258	0.000102
1996	9.9750e-01	-0.1412	0.079255	0.000000	0.004460	0.001511	0.000036
1997	9.9800e-01	-0.1123	0.079610	0.000001	0.008717	0.002953	0.000071
1998	9.9850e-01	-0.0674	0.079858	0.000001	0.006081	0.002060	0.000050
1999	9.9900e-01	-0.0112	0.080338	0.000001	0.011757	0.003983	0.000096
2000	9.9950e-01	0.0241	0.080619	0.000001	0.006892	0.002335	0.000056
2001	1.0000e+00	0.0979	0.080850	0.000001	0.006892	0.002335	0.000046

Center data before PMax,+/-Pr and +/-Vc Calc.

PMax (uC/cm2):	1.59e-01
Pr (uC/cm2):	1.30e-01
-Pr (uC/cm2):	8.08e-02
PLoss (uC/cm2):	2.92e-01
Vc:	1.64e+01
-Vc:	-1.87e+01
C (Max-Eff) (nF):	7.95e-04
K (Eff):	2.69e+00
Vert. (+/-Pr) Shift (uC/cm2):	1.05e-01
Horiz. Shift (+/-Vc):	-1.15e+00
Offset (uC/cm2):	2.11e-01

A (Loop Area - uC/cm2·Volts):	1.41e-02



Hysteresis Version: 5.48.1 - Radiant Technologies, Inc., 1999 - 9/12/24

