»»»»»»»»»»»»»»»»»»»»»»»»»»»»»»»»»»»» Hysteresis ««««««««««««««««««««««««««««««««««««
»»»  Executed Version:	5.48.1
»»»  Vision Version:	5.48.4 (R)
»»»  Vision Compiled:	9/18/24
»»»  Driver Version:	5.47.0
»»»  Windows Version:	Windows 8 or 8.1
»»»  Processor Information:	x86 (AMD or Intel) - 32 Processors
»»»  Tester Name:	PMF21124-494 (100V)
»»»  Tester S/N:	PMF21124-494
»»»  Internal Amp Type:	100V RevK 270k
»»»  Internal Amp S/N:	iAB2-596/K     
»»»  Execution Count:	1
»»»»»»»»»»»»»»»»»»»»»»»»»»»»»»»»»»»»»»»»»»««««««««««««««««««««««««««««««««««««««««««

Stored:	6/11/2025 - 11:5:12
Configured:	06/11/25 10:21:25 AM
Executed:	06/11/25 11:04:50 AM

»»»»»»»»»»»»»»»»»»»»»»»»»»»»»»»»»»» Sample Info ««««««««««««««««««««««««««««««««««««
Sample Name:	
Lot Name:	
Wafer Name:	
Die Row/Column:	0/0
Capacitor Number:	0
Sample Area (cm2):	1.00e-04
Sample Thickness (microns):	3.00e-01

Amplifier:	Internal

»»»»»»»»»»»»»»»»»»»»»»»»»»»»»»»»»»» Tester Info «««««««««««««««««««««««««««««««««««
Tester Name:	PMF21124-494 (100V)
Tester Serial Number:	PMF21124-494
Return Signal Amp. Level:	100.0 [Index: 0]

»»»»»»»»»»»»»»»»»»»»»»»»»»»»»»»» Hysteresis Info ««««««««««««««««««««««««««««««««««
Task Name:	Hyst-1175
Volts:	20.00
Field:	666.67 (kV/cm)
DCBias:	0.00
DCField:	0.00 (kV/cm)
Hysteresis Period (ms):	1.00e+00
Preset:	Enabled
Preset Delay (ms):	1.00e+03
Profile:	Standard Bipolar

»»»»»»»»»»»»»»»»»»»»»»»»»»»»»»»»»»»»»» Data «««««««««««««««««««««««««««««««««««««««
Points:	2001

Valid Data

Point	Time (ms)	Drive Voltage	Measured Polarization (uC/cm2)	Capacitance (uF)	Normalized Capacitance (uF/cm2)	Dielectric Constant	Instantaneous Current (mA)
   1	0.0000e+00	0.0337	-0.263466	-0.000000	-0.004845	-0.001641	0.000040
   2	5.0000e-04	0.0305	-0.263268	-0.000000	-0.004845	-0.001641	0.000040
   3	1.0000e-03	0.1348	-0.263070	0.000000	0.004845	0.001641	0.000040
   4	1.5000e-03	0.1813	-0.262971	0.000000	0.002422	0.000821	0.000020
   5	2.0000e-03	0.2021	-0.262665	0.000001	0.007469	0.002530	0.000061
   6	2.5000e-03	0.2294	-0.262376	0.000001	0.007065	0.002394	0.000058
   7	3.0000e-03	0.2856	-0.262169	0.000001	0.005046	0.001710	0.000041
   8	3.5000e-03	0.3160	-0.262095	0.000000	0.001817	0.000616	0.000015
   9	4.0000e-03	0.3642	-0.262054	0.000000	0.001009	0.000342	0.000008
  10	4.5000e-03	0.3995	-0.261930	0.000000	0.003028	0.001026	0.000025
  11	5.0000e-03	0.4652	-0.261467	0.000001	0.011304	0.003830	0.000093
  12	5.5000e-03	0.4925	-0.261169	0.000001	0.007267	0.002462	0.000059
  13	6.0000e-03	0.5198	-0.261252	-0.000000	-0.002019	-0.000684	-0.000017
  14	6.5000e-03	0.5823	-0.261178	0.000000	0.001817	0.000616	0.000015
  15	7.0000e-03	0.5936	-0.260789	0.000001	0.009487	0.003214	0.000078
  16	7.5000e-03	0.6273	-0.260517	0.000001	0.006661	0.002257	0.000055
  17	8.0000e-03	0.6770	-0.260351	0.000000	0.004037	0.001368	0.000033
  18	8.5000e-03	0.7027	-0.260087	0.000001	0.006459	0.002188	0.000053
  19	9.0000e-03	0.7267	-0.259831	0.000001	0.006258	0.002120	0.000051
  20	9.5000e-03	0.7941	-0.259624	0.000001	0.005046	0.001710	0.000041
  21	1.0000e-02	0.8454	-0.259401	0.000001	0.005450	0.001847	0.000045
  22	1.0500e-02	0.8663	-0.259162	0.000001	0.005854	0.001983	0.000048
  23	1.1000e-02	0.9449	-0.258749	0.000001	0.010093	0.003420	0.000083
  24	1.1500e-02	0.9674	-0.258558	0.000000	0.004643	0.001573	0.000038
  25	1.2000e-02	0.9866	-0.258501	0.000000	0.001413	0.000479	0.000012
  26	1.2500e-02	1.0476	-0.258294	0.000001	0.005046	0.001710	0.000041
  27	1.3000e-02	1.0700	-0.258013	0.000001	0.006863	0.002325	0.000056
  28	1.3500e-02	1.1101	-0.257757	0.000001	0.006258	0.002120	0.000051
  29	1.4000e-02	1.1855	-0.257740	0.000000	0.000404	0.000137	0.000003
  30	1.4500e-02	1.1727	-0.257460	-0.000001	-0.006863	-0.002325	0.000056
  31	1.5000e-02	1.2433	-0.257170	0.000001	0.007065	0.002394	0.000058
  32	1.5500e-02	1.3026	-0.256980	0.000000	0.004643	0.001573	0.000038
  33	1.6000e-02	1.3155	-0.256749	0.000001	0.005652	0.001915	0.000046
  34	1.6500e-02	1.3668	-0.256691	0.000000	0.001413	0.000479	0.000012
  35	1.7000e-02	1.3973	-0.256352	0.000001	0.008276	0.002804	0.000068
  36	1.7500e-02	1.4534	-0.255972	0.000001	0.009285	0.003146	0.000076
  37	1.8000e-02	1.4775	-0.255757	0.000001	0.005248	0.001778	0.000043
  38	1.8500e-02	1.5449	-0.255724	0.000000	0.000807	0.000274	0.000007
  39	1.9000e-02	1.5561	-0.255460	0.000001	0.006459	0.002188	0.000053
  40	1.9500e-02	1.6074	-0.255229	0.000001	0.005652	0.001915	0.000046
  41	2.0000e-02	1.6074	-0.255121	-0.000000	-0.002624	-0.000889	0.000021
  42	2.0500e-02	1.6844	-0.254989	0.000000	0.003230	0.001094	0.000026
  43	2.1000e-02	1.7085	-0.254733	0.000001	0.006258	0.002120	0.000051
  44	2.1500e-02	1.7566	-0.254551	0.000000	0.004441	0.001505	0.000036
  45	2.2000e-02	1.8016	-0.254361	0.000000	0.004643	0.001573	0.000038
  46	2.2500e-02	1.8497	-0.254336	0.000000	0.000606	0.000205	0.000005
  47	2.3000e-02	1.8914	-0.254097	0.000001	0.005854	0.001983	0.000048
  48	2.3500e-02	1.9379	-0.253890	0.000001	0.005046	0.001710	0.000041
  49	2.4000e-02	1.9828	-0.253998	-0.000000	-0.002624	-0.000889	-0.000021
  50	2.4500e-02	1.9941	-0.254196	-0.000000	-0.004845	-0.001641	-0.000040
  51	2.5000e-02	2.0278	-0.254154	0.000000	0.001009	0.000342	0.000008
  52	2.5500e-02	2.0695	-0.253733	0.000001	0.010295	0.003488	0.000084
  53	2.6000e-02	2.1144	-0.253097	0.000002	0.015543	0.005266	0.000127
  54	2.6500e-02	2.1818	-0.252436	0.000002	0.016148	0.005471	0.000132
  55	2.7000e-02	2.1882	-0.251990	0.000001	0.010900	0.003693	0.000089
  56	2.7500e-02	2.2347	-0.251610	0.000001	0.009285	0.003146	0.000076
  57	2.8000e-02	2.2668	-0.251155	0.000001	0.011102	0.003761	0.000091
  58	2.8500e-02	2.2924	-0.250767	0.000001	0.009487	0.003214	0.000078
  59	2.9000e-02	2.3566	-0.250569	0.000000	0.004845	0.001641	0.000040
  60	2.9500e-02	2.4031	-0.250469	0.000000	0.002422	0.000821	0.000020
  61	3.0000e-02	2.4529	-0.250602	-0.000000	-0.003230	-0.001094	-0.000026
  62	3.0500e-02	2.4481	-0.250874	0.000001	0.006661	0.002257	-0.000055
  63	3.1000e-02	2.5122	-0.250874	0.000000	0.000000	0.000000	0.000000
  64	3.1500e-02	2.5892	-0.250445	0.000001	0.010496	0.003556	0.000086
  65	3.2000e-02	2.6181	-0.249850	0.000001	0.014534	0.004924	0.000119
  66	3.2500e-02	2.6518	-0.249362	0.000001	0.011909	0.004035	0.000097
  67	3.3000e-02	2.6887	-0.248908	0.000001	0.011102	0.003761	0.000091
  68	3.3500e-02	2.7432	-0.248933	-0.000000	-0.000606	-0.000205	-0.000005
  69	3.4000e-02	2.7513	-0.248949	-0.000000	-0.000404	-0.000137	-0.000003
  70	3.4500e-02	2.7849	-0.248726	0.000001	0.005450	0.001847	0.000045
  71	3.5000e-02	2.8427	-0.248354	0.000001	0.009084	0.003078	0.000074
  72	3.5500e-02	2.8732	-0.247933	0.000001	0.010295	0.003488	0.000084
  73	3.6000e-02	2.9325	-0.247569	0.000001	0.008882	0.003009	0.000073
  74	3.6500e-02	2.9694	-0.247693	-0.000000	-0.003028	-0.001026	-0.000025
  75	3.7000e-02	2.9999	-0.247685	0.000000	0.000202	0.000068	0.000002
  76	3.7500e-02	3.0609	-0.247288	0.000001	0.009689	0.003283	0.000079
  77	3.8000e-02	3.0946	-0.246925	0.000001	0.008882	0.003009	0.000073
  78	3.8500e-02	3.1122	-0.246445	0.000001	0.011708	0.003967	0.000096
  79	3.9000e-02	3.1491	-0.246346	0.000000	0.002422	0.000821	0.000020
  80	3.9500e-02	3.2085	-0.246214	0.000000	0.003230	0.001094	0.000026
  81	4.0000e-02	3.2357	-0.245727	0.000001	0.011909	0.004035	0.000097
  82	4.0500e-02	3.2774	-0.245470	0.000001	0.006258	0.002120	0.000051
  83	4.1000e-02	3.3095	-0.245421	0.000000	0.001211	0.000410	0.000010
  84	4.1500e-02	3.3865	-0.245388	0.000000	0.000807	0.000274	0.000007
  85	4.2000e-02	3.3817	-0.245123	-0.000001	-0.006459	-0.002188	0.000053
  86	4.2500e-02	3.4539	-0.244818	0.000001	0.007469	0.002530	0.000061
  87	4.3000e-02	3.4748	-0.244603	0.000001	0.005248	0.001778	0.000043
  88	4.3500e-02	3.5293	-0.244595	0.000000	0.000202	0.000068	0.000002
  89	4.4000e-02	3.5662	-0.244512	0.000000	0.002019	0.000684	0.000017
  90	4.4500e-02	3.6079	-0.244033	0.000001	0.011708	0.003967	0.000096
  91	4.5000e-02	3.6512	-0.243380	0.000002	0.015947	0.005403	0.000131
  92	4.5500e-02	3.6962	-0.243223	0.000000	0.003835	0.001299	0.000031
  93	4.6000e-02	3.7250	-0.243074	0.000000	0.003633	0.001231	0.000030
  94	4.6500e-02	3.7555	-0.242893	0.000000	0.004441	0.001505	0.000036
  95	4.7000e-02	3.7860	-0.242455	0.000001	0.010698	0.003625	0.000088
  96	4.7500e-02	3.8389	-0.242322	0.000000	0.003230	0.001094	0.000026
  97	4.8000e-02	3.8903	-0.242149	0.000000	0.004239	0.001436	0.000035
  98	4.8500e-02	3.8935	-0.241686	0.000001	0.011304	0.003830	0.000093
  99	4.9000e-02	3.9496	-0.241281	0.000001	0.009891	0.003351	0.000081
 100	4.9500e-02	4.0106	-0.241124	0.000000	0.003835	0.001299	0.000031
 101	5.0000e-02	4.0651	-0.241066	0.000000	0.001413	0.000479	0.000012
 102	5.0500e-02	4.1116	-0.240843	0.000001	0.005450	0.001847	0.000045
 103	5.1000e-02	4.1421	-0.240381	0.000001	0.011304	0.003830	0.000093
 104	5.1500e-02	4.1710	-0.240091	0.000001	0.007065	0.002394	0.000058
 105	5.2000e-02	4.2095	-0.240042	0.000000	0.001211	0.000410	0.000010
 106	5.2500e-02	4.2416	-0.239819	0.000001	0.005450	0.001847	0.000045
 107	5.3000e-02	4.2400	-0.239381	-0.000001	-0.010698	-0.003625	0.000088
 108	5.3500e-02	4.3298	-0.238968	0.000001	0.010093	0.003420	0.000083
 109	5.4000e-02	4.3908	-0.238761	0.000001	0.005046	0.001710	0.000041
 110	5.4500e-02	4.4084	-0.238604	0.000000	0.003835	0.001299	0.000031
 111	5.5000e-02	4.4421	-0.238332	0.000001	0.006661	0.002257	0.000055
 112	5.5500e-02	4.4854	-0.237976	0.000001	0.008680	0.002941	0.000071
 113	5.6000e-02	4.5207	-0.237596	0.000001	0.009285	0.003146	0.000076
 114	5.6500e-02	4.5416	-0.237365	0.000001	0.005652	0.001915	0.000046
 115	5.7000e-02	4.6058	-0.237067	0.000001	0.007267	0.002462	0.000059
 116	5.7500e-02	4.6667	-0.236737	0.000001	0.008074	0.002736	0.000066
 117	5.8000e-02	4.6924	-0.236481	0.000001	0.006258	0.002120	0.000051
 118	5.8500e-02	4.7229	-0.236225	0.000001	0.006258	0.002120	0.000051
 119	5.9000e-02	4.7549	-0.236150	0.000000	0.001817	0.000616	0.000015
 120	5.9500e-02	4.8015	-0.235688	0.000001	0.011304	0.003830	0.000093
 121	6.0000e-02	4.8368	-0.235357	0.000001	0.008074	0.002736	0.000066
 122	6.0500e-02	4.8608	-0.235159	0.000000	0.004845	0.001641	0.000040
 123	6.1000e-02	4.8945	-0.234779	0.000001	0.009285	0.003146	0.000076
 124	6.1500e-02	4.9410	-0.234489	0.000001	0.007065	0.002394	0.000058
 125	6.2000e-02	4.9988	-0.234200	0.000001	0.007065	0.002394	0.000058
 126	6.2500e-02	5.0421	-0.233837	0.000001	0.008882	0.003009	0.000073
 127	6.3000e-02	5.0854	-0.233556	0.000001	0.006863	0.002325	0.000056
 128	6.3500e-02	5.1191	-0.233258	0.000001	0.007267	0.002462	0.000059
 129	6.4000e-02	5.1560	-0.232903	0.000001	0.008680	0.002941	0.000071
 130	6.4500e-02	5.1881	-0.232572	0.000001	0.008074	0.002736	0.000066
 131	6.5000e-02	5.2490	-0.232416	0.000000	0.003835	0.001299	0.000031
 132	6.5500e-02	5.2779	-0.232126	0.000001	0.007065	0.002394	0.000058
 133	6.6000e-02	5.3100	-0.231771	0.000001	0.008680	0.002941	0.000071
 134	6.6500e-02	5.3662	-0.231490	0.000001	0.006863	0.002325	0.000056
 135	6.7000e-02	5.3822	-0.231217	0.000001	0.006661	0.002257	0.000055
 136	6.7500e-02	5.4512	-0.230970	0.000001	0.006056	0.002052	0.000050
 137	6.8000e-02	5.4849	-0.231143	-0.000000	-0.004239	-0.001436	-0.000035
 138	6.8500e-02	5.5330	-0.231069	0.000000	0.001817	0.000616	0.000015
 139	6.9000e-02	5.5506	-0.230970	0.000000	0.002422	0.000821	0.000020
 140	6.9500e-02	5.6212	-0.230746	0.000001	0.005450	0.001847	0.000045
 141	7.0000e-02	5.6373	-0.229887	0.000002	0.020993	0.007113	0.000172
 142	7.0500e-02	5.6982	-0.229053	0.000002	0.020387	0.006907	0.000167
 143	7.1000e-02	5.7030	-0.228458	0.000001	0.014534	0.004924	0.000119
 144	7.1500e-02	5.7592	-0.228028	0.000001	0.010496	0.003556	0.000086
 145	7.2000e-02	5.7977	-0.227557	0.000001	0.011506	0.003898	0.000094
 146	7.2500e-02	5.8282	-0.227152	0.000001	0.009891	0.003351	0.000081
 147	7.3000e-02	5.8651	-0.226665	0.000001	0.011909	0.004035	0.000097
 148	7.3500e-02	5.9276	-0.226351	0.000001	0.007671	0.002599	0.000063
 149	7.4000e-02	5.9934	-0.226623	-0.000001	-0.006661	-0.002257	-0.000055
 150	7.4500e-02	6.0030	-0.226714	-0.000000	-0.002220	-0.000752	-0.000018
 151	7.5000e-02	6.0560	-0.226648	0.000000	0.001615	0.000547	0.000013
 152	7.5500e-02	6.0720	-0.226202	0.000001	0.010900	0.003693	0.000089
 153	7.6000e-02	6.0929	-0.225574	0.000002	0.015341	0.005198	0.000126
 154	7.6500e-02	6.1603	-0.225029	0.000001	0.013322	0.004514	0.000109
 155	7.7000e-02	6.2453	-0.224516	0.000001	0.012515	0.004240	0.000102
 156	7.7500e-02	6.2469	-0.224368	0.000000	0.003633	0.001231	0.000030
 157	7.8000e-02	6.2661	-0.224318	0.000000	0.001211	0.000410	0.000010
 158	7.8500e-02	6.3544	-0.224045	0.000001	0.006661	0.002257	0.000055
 159	7.9000e-02	6.3784	-0.223484	0.000001	0.013726	0.004651	0.000112
 160	7.9500e-02	6.4041	-0.222897	0.000001	0.014332	0.004856	0.000117
 161	8.0000e-02	6.4378	-0.222599	0.000001	0.007267	0.002462	0.000059
 162	8.0500e-02	6.4843	-0.222492	0.000000	0.002624	0.000889	0.000021
 163	8.1000e-02	6.4715	-0.222492	-0.000000	-0.000000	-0.000000	0.000000
 164	8.1500e-02	6.5725	-0.221823	0.000002	0.016350	0.005540	0.000134
 165	8.2000e-02	6.6383	-0.221162	0.000002	0.016148	0.005471	0.000132
 166	8.2500e-02	6.6431	-0.220625	0.000001	0.013121	0.004445	0.000107
 167	8.3000e-02	6.6656	-0.220369	0.000001	0.006258	0.002120	0.000051
 168	8.3500e-02	6.6913	-0.220360	0.000000	0.000202	0.000068	0.000002
 169	8.4000e-02	6.7618	-0.220022	0.000001	0.008276	0.002804	0.000068
 170	8.4500e-02	6.7971	-0.219575	0.000001	0.010900	0.003693	0.000089
 171	8.5000e-02	6.8372	-0.219294	0.000001	0.006863	0.002325	0.000056
 172	8.5500e-02	6.9014	-0.219154	0.000000	0.003432	0.001163	0.000028
 173	8.6000e-02	6.9175	-0.218873	0.000001	0.006863	0.002325	0.000056
 174	8.6500e-02	6.9431	-0.218336	0.000001	0.013121	0.004445	0.000107
 175	8.7000e-02	7.0330	-0.217915	0.000001	0.010295	0.003488	0.000084
 176	8.7500e-02	7.0763	-0.217642	0.000001	0.006661	0.002257	0.000055
 177	8.8000e-02	7.0779	-0.217171	0.000001	0.011506	0.003898	0.000094
 178	8.8500e-02	7.1084	-0.216535	0.000002	0.015543	0.005266	0.000127
 179	8.9000e-02	7.1854	-0.215989	0.000001	0.013322	0.004514	0.000109
 180	8.9500e-02	7.2094	-0.215783	0.000001	0.005046	0.001710	0.000041
 181	9.0000e-02	7.2303	-0.215708	0.000000	0.001817	0.000616	0.000015
 182	9.0500e-02	7.2592	-0.215378	0.000001	0.008074	0.002736	0.000066
 183	9.1000e-02	7.3426	-0.214791	0.000001	0.014332	0.004856	0.000117
 184	9.1500e-02	7.3570	-0.214378	0.000001	0.010093	0.003420	0.000083
 185	9.2000e-02	7.4260	-0.214015	0.000001	0.008882	0.003009	0.000073
 186	9.2500e-02	7.4116	-0.213601	-0.000001	-0.010093	-0.003420	0.000083
 187	9.3000e-02	7.4982	-0.213147	0.000001	0.011102	0.003761	0.000091
 188	9.3500e-02	7.5271	-0.212800	0.000001	0.008478	0.002872	0.000069
 189	9.4000e-02	7.5591	-0.212478	0.000001	0.007872	0.002667	0.000064
 190	9.4500e-02	7.6105	-0.211924	0.000001	0.013524	0.004582	0.000111
 191	9.5000e-02	7.6394	-0.211453	0.000001	0.011506	0.003898	0.000094
 192	9.5500e-02	7.6891	-0.211181	0.000001	0.006661	0.002257	0.000055
 193	9.6000e-02	7.7388	-0.210999	0.000000	0.004441	0.001505	0.000036
 194	9.6500e-02	7.7372	-0.210660	-0.000001	-0.008276	-0.002804	0.000068
 195	9.7000e-02	7.8094	-0.210156	0.000001	0.012313	0.004172	0.000101
 196	9.7500e-02	7.8222	-0.209635	0.000001	0.012717	0.004309	0.000104
 197	9.8000e-02	7.8864	-0.209412	0.000001	0.005450	0.001847	0.000045
 198	9.8500e-02	7.9153	-0.209156	0.000001	0.006258	0.002120	0.000051
 199	9.9000e-02	7.9442	-0.208627	0.000001	0.012919	0.004377	0.000106
 200	9.9500e-02	7.9987	-0.208041	0.000001	0.014332	0.004856	0.000117
 201	1.0000e-01	8.0340	-0.207743	0.000001	0.007267	0.002462	0.000059
 202	1.0050e-01	8.0532	-0.207396	0.000001	0.008478	0.002872	0.000069
 203	1.0100e-01	8.1174	-0.206884	0.000001	0.012515	0.004240	0.000102
 204	1.0150e-01	8.1527	-0.206273	0.000001	0.014937	0.005061	0.000122
 205	1.0200e-01	8.2201	-0.205934	0.000001	0.008276	0.002804	0.000068
 206	1.0250e-01	8.2490	-0.205603	0.000001	0.008074	0.002736	0.000066
 207	1.0300e-01	8.2746	-0.205108	0.000001	0.012111	0.004103	0.000099
 208	1.0350e-01	8.3212	-0.204587	0.000001	0.012717	0.004309	0.000104
 209	1.0400e-01	8.3789	-0.204157	0.000001	0.010496	0.003556	0.000086
 210	1.0450e-01	8.4110	-0.203843	0.000001	0.007671	0.002599	0.000063
 211	1.0500e-01	8.4399	-0.203463	0.000001	0.009285	0.003146	0.000076
 212	1.0550e-01	8.4768	-0.202868	0.000001	0.014534	0.004924	0.000119
 213	1.0600e-01	8.5361	-0.202257	0.000001	0.014937	0.005061	0.000122
 214	1.0650e-01	8.5682	-0.202034	0.000001	0.005450	0.001847	0.000045
 215	1.0700e-01	8.5907	-0.201555	0.000001	0.011708	0.003967	0.000096
 216	1.0750e-01	8.6596	-0.200951	0.000001	0.014735	0.004993	0.000121
 217	1.0800e-01	8.6725	-0.200456	0.000001	0.012111	0.004103	0.000099
 218	1.0850e-01	8.7206	-0.200043	0.000001	0.010093	0.003420	0.000083
 219	1.0900e-01	8.7976	-0.199547	0.000001	0.012111	0.004103	0.000099
 220	1.0950e-01	8.8393	-0.199059	0.000001	0.011909	0.004035	0.000097
 221	1.1000e-01	8.8730	-0.198580	0.000001	0.011708	0.003967	0.000096
 222	1.1050e-01	8.8730	-0.198076	-0.000001	-0.012313	-0.004172	0.000101
 223	1.1100e-01	8.9163	-0.197679	0.000001	0.009689	0.003283	0.000079
 224	1.1150e-01	8.9484	-0.197374	0.000001	0.007469	0.002530	0.000061
 225	1.1200e-01	9.0158	-0.197258	0.000000	0.002826	0.000957	0.000023
 226	1.1250e-01	9.0415	-0.197018	0.000001	0.005854	0.001983	0.000048
 227	1.1300e-01	9.0607	-0.196861	0.000000	0.003835	0.001299	0.000031
 228	1.1350e-01	9.1361	-0.195895	0.000002	0.023617	0.008002	0.000193
 229	1.1400e-01	9.1602	-0.194978	0.000002	0.022406	0.007591	0.000183
 230	1.1450e-01	9.2035	-0.194052	0.000002	0.022608	0.007660	0.000185
 231	1.1500e-01	9.2259	-0.193424	0.000002	0.015341	0.005198	0.000126
 232	1.1550e-01	9.2741	-0.192763	0.000002	0.016148	0.005471	0.000132
 233	1.1600e-01	9.3382	-0.192069	0.000002	0.016956	0.005745	0.000139
 234	1.1650e-01	9.3655	-0.191441	0.000002	0.015341	0.005198	0.000126
 235	1.1700e-01	9.3864	-0.190863	0.000001	0.014130	0.004787	0.000116
 236	1.1750e-01	9.4666	-0.190673	0.000000	0.004643	0.001573	0.000038
 237	1.1800e-01	9.4874	-0.190631	0.000000	0.001009	0.000342	0.000008
 238	1.1850e-01	9.5324	-0.190400	0.000001	0.005652	0.001915	0.000046
 239	1.1900e-01	9.5612	-0.190053	0.000001	0.008478	0.002872	0.000069
 240	1.1950e-01	9.6174	-0.189185	0.000002	0.021195	0.007181	0.000174
 241	1.2000e-01	9.6463	-0.188516	0.000002	0.016350	0.005540	0.000134
 242	1.2050e-01	9.7072	-0.187880	0.000002	0.015543	0.005266	0.000127
 243	1.2100e-01	9.7281	-0.187252	0.000002	0.015341	0.005198	0.000126
 244	1.2150e-01	9.7618	-0.187128	0.000000	0.003028	0.001026	0.000025
 245	1.2200e-01	9.7987	-0.186731	0.000001	0.009689	0.003283	0.000079
 246	1.2250e-01	9.8356	-0.186037	0.000002	0.016956	0.005745	0.000139
 247	1.2300e-01	9.8837	-0.185302	0.000002	0.017965	0.006087	0.000147
 248	1.2350e-01	9.9495	-0.184616	0.000002	0.016754	0.005676	0.000137
 249	1.2400e-01	9.9783	-0.184261	0.000001	0.008680	0.002941	0.000071
 250	1.2450e-01	9.9687	-0.183856	-0.000001	-0.009891	-0.003351	0.000081
 251	1.2500e-01	10.0457	-0.183203	0.000002	0.015947	0.005403	0.000131
 252	1.2550e-01	10.0698	-0.182294	0.000002	0.022204	0.007523	0.000182
 253	1.2600e-01	10.1147	-0.181542	0.000002	0.018369	0.006224	0.000150
 254	1.2650e-01	10.1596	-0.181113	0.000001	0.010496	0.003556	0.000086
 255	1.2700e-01	10.2109	-0.180972	0.000000	0.003432	0.001163	0.000028
 256	1.2750e-01	10.2623	-0.180468	0.000001	0.012313	0.004172	0.000101
 257	1.2800e-01	10.2639	-0.179626	0.000002	0.020589	0.006976	0.000169
 258	1.2850e-01	10.3281	-0.179130	0.000001	0.012111	0.004103	0.000099
 259	1.2900e-01	10.3601	-0.178708	0.000001	0.010295	0.003488	0.000084
 260	1.2950e-01	10.3826	-0.178254	0.000001	0.011102	0.003761	0.000091
 261	1.3000e-01	10.4339	-0.177486	0.000002	0.018773	0.006360	0.000154
 262	1.3050e-01	10.4724	-0.176544	0.000002	0.023012	0.007797	0.000188
 263	1.3100e-01	10.5206	-0.175816	0.000002	0.017763	0.006018	0.000145
 264	1.3150e-01	10.5671	-0.175106	0.000002	0.017360	0.005882	0.000142
 265	1.3200e-01	10.6072	-0.174470	0.000002	0.015543	0.005266	0.000127
 266	1.3250e-01	10.6553	-0.173800	0.000002	0.016350	0.005540	0.000134
 267	1.3300e-01	10.6874	-0.173139	0.000002	0.016148	0.005471	0.000132
 268	1.3350e-01	10.7227	-0.172817	0.000001	0.007872	0.002667	0.000064
 269	1.3400e-01	10.7612	-0.172189	0.000002	0.015341	0.005198	0.000126
 270	1.3450e-01	10.8222	-0.171264	0.000002	0.022608	0.007660	0.000185
 271	1.3500e-01	10.8366	-0.170512	0.000002	0.018369	0.006224	0.000150
 272	1.3550e-01	10.8959	-0.170024	0.000001	0.011909	0.004035	0.000097
 273	1.3600e-01	10.9184	-0.169496	0.000001	0.012919	0.004377	0.000106
 274	1.3650e-01	10.9601	-0.168760	0.000002	0.017965	0.006087	0.000147
 275	1.3700e-01	10.9970	-0.168008	0.000002	0.018369	0.006224	0.000150
 276	1.3750e-01	11.0371	-0.167306	0.000002	0.017158	0.005813	0.000140
 277	1.3800e-01	11.1141	-0.166637	0.000002	0.016350	0.005540	0.000134
 278	1.3850e-01	11.1270	-0.166067	0.000001	0.013928	0.004719	0.000114
 279	1.3900e-01	11.1574	-0.165133	0.000002	0.022810	0.007728	0.000187
 280	1.3950e-01	11.1815	-0.164521	0.000001	0.014937	0.005061	0.000122
 281	1.4000e-01	11.2617	-0.163893	0.000002	0.015341	0.005198	0.000126
 282	1.4050e-01	11.2890	-0.163232	0.000002	0.016148	0.005471	0.000132
 283	1.4100e-01	11.3114	-0.162555	0.000002	0.016552	0.005608	0.000136
 284	1.4150e-01	11.3532	-0.161993	0.000001	0.013726	0.004651	0.000112
 285	1.4200e-01	11.3949	-0.161332	0.000002	0.016148	0.005471	0.000132
 286	1.4250e-01	11.4430	-0.160745	0.000001	0.014332	0.004856	0.000117
 287	1.4300e-01	11.4879	-0.159977	0.000002	0.018773	0.006360	0.000154
 288	1.4350e-01	11.5248	-0.159374	0.000001	0.014735	0.004993	0.000121
 289	1.4400e-01	11.5537	-0.158754	0.000002	0.015139	0.005129	0.000124
 290	1.4450e-01	11.5922	-0.157920	0.000002	0.020387	0.006907	0.000167
 291	1.4500e-01	11.6195	-0.157110	0.000002	0.019782	0.006702	0.000162
 292	1.4550e-01	11.7205	-0.156408	0.000002	0.017158	0.005813	0.000140
 293	1.4600e-01	11.7430	-0.155780	0.000002	0.015341	0.005198	0.000126
 294	1.4650e-01	11.7494	-0.155003	0.000002	0.018974	0.006429	0.000155
 295	1.4700e-01	11.7815	-0.154408	0.000001	0.014534	0.004924	0.000119
 296	1.4750e-01	11.8585	-0.153532	0.000002	0.021397	0.007249	0.000175
 297	1.4800e-01	11.9002	-0.152879	0.000002	0.015947	0.005403	0.000131
 298	1.4850e-01	11.9547	-0.152251	0.000002	0.015341	0.005198	0.000126
 299	1.4900e-01	11.9515	-0.151458	-0.000002	-0.019378	-0.006565	0.000159
 300	1.4950e-01	12.0125	-0.150731	0.000002	0.017763	0.006018	0.000145
 301	1.5000e-01	11.9932	-0.150037	-0.000002	-0.016956	-0.005745	0.000139
 302	1.5050e-01	12.0927	-0.149417	0.000002	0.015139	0.005129	0.000124
 303	1.5100e-01	12.1055	-0.148508	0.000002	0.022204	0.007523	0.000182
 304	1.5150e-01	12.1793	-0.147649	0.000002	0.020993	0.007113	0.000172
 305	1.5200e-01	12.2066	-0.147013	0.000002	0.015543	0.005266	0.000127
 306	1.5250e-01	12.2644	-0.146154	0.000002	0.020993	0.007113	0.000172
 307	1.5300e-01	12.2997	-0.145402	0.000002	0.018369	0.006224	0.000150
 308	1.5350e-01	12.3077	-0.144394	0.000002	0.024626	0.008344	0.000202
 309	1.5400e-01	12.3702	-0.143543	0.000002	0.020791	0.007044	0.000170
 310	1.5450e-01	12.3863	-0.142799	0.000002	0.018167	0.006155	0.000149
 311	1.5500e-01	12.4360	-0.142014	0.000002	0.019176	0.006497	0.000157
 312	1.5550e-01	12.4825	-0.141568	0.000001	0.010900	0.003693	0.000089
 313	1.5600e-01	12.5258	-0.141056	0.000001	0.012515	0.004240	0.000102
 314	1.5650e-01	12.5852	-0.140428	0.000002	0.015341	0.005198	0.000126
 315	1.5700e-01	12.5932	-0.139395	0.000003	0.025232	0.008549	0.000207
 316	1.5750e-01	12.6574	-0.138031	0.000003	0.033306	0.011284	0.000273
 317	1.5800e-01	12.6750	-0.136809	0.000003	0.029875	0.010122	0.000245
 318	1.5850e-01	12.7360	-0.135759	0.000003	0.025636	0.008686	0.000210
 319	1.5900e-01	12.7617	-0.134710	0.000003	0.025636	0.008686	0.000210
 320	1.5950e-01	12.8002	-0.133545	0.000003	0.028462	0.009643	0.000233
 321	1.6000e-01	12.8483	-0.132479	0.000003	0.026039	0.008822	0.000213
 322	1.6050e-01	12.8772	-0.131520	0.000002	0.023415	0.007933	0.000192
 323	1.6100e-01	12.9237	-0.130612	0.000002	0.022204	0.007523	0.000182
 324	1.6150e-01	12.9494	-0.130174	0.000001	0.010698	0.003625	0.000088
 325	1.6200e-01	12.9959	-0.129595	0.000001	0.014130	0.004787	0.000116
 326	1.6250e-01	13.0697	-0.128959	0.000002	0.015543	0.005266	0.000127
 327	1.6300e-01	13.1066	-0.127786	0.000003	0.028664	0.009711	0.000235
 328	1.6350e-01	13.1274	-0.126612	0.000003	0.028664	0.009711	0.000235
 329	1.6400e-01	13.1595	-0.125530	0.000003	0.026443	0.008959	0.000216
 330	1.6450e-01	13.2093	-0.124629	0.000002	0.022002	0.007455	0.000180
 331	1.6500e-01	13.2317	-0.123960	0.000002	0.016350	0.005540	0.000134
 332	1.6550e-01	13.2911	-0.123316	0.000002	0.015745	0.005334	0.000129
 333	1.6600e-01	13.3199	-0.122291	0.000003	0.025030	0.008480	0.000205
 334	1.6650e-01	13.3424	-0.121134	0.000003	0.028260	0.009575	0.000231
 335	1.6700e-01	13.4050	-0.119961	0.000003	0.028664	0.009711	0.000235
 336	1.6750e-01	13.4306	-0.119044	0.000002	0.022406	0.007591	0.000183
 337	1.6800e-01	13.4675	-0.118143	0.000002	0.022002	0.007455	0.000180
 338	1.6850e-01	13.5269	-0.117292	0.000002	0.020791	0.007044	0.000170
 339	1.6900e-01	13.5590	-0.116061	0.000003	0.030077	0.010190	0.000246
 340	1.6950e-01	13.5814	-0.114863	0.000003	0.029269	0.009917	0.000240
 341	1.7000e-01	13.6312	-0.114119	0.000002	0.018167	0.006155	0.000149
 342	1.7050e-01	13.6488	-0.113591	0.000001	0.012919	0.004377	0.000106
 343	1.7100e-01	13.7066	-0.112706	0.000002	0.021599	0.007318	0.000177
 344	1.7150e-01	13.7675	-0.111682	0.000003	0.025030	0.008480	0.000205
 345	1.7200e-01	13.7916	-0.110525	0.000003	0.028260	0.009575	0.000231
 346	1.7250e-01	13.8526	-0.109724	0.000002	0.019580	0.006634	0.000160
 347	1.7300e-01	13.8846	-0.108930	0.000002	0.019378	0.006565	0.000159
 348	1.7350e-01	13.9247	-0.107691	0.000003	0.030278	0.010259	0.000248
 349	1.7400e-01	13.9729	-0.106336	0.000003	0.033104	0.011216	0.000271
 350	1.7450e-01	13.9921	-0.105154	0.000003	0.028865	0.009780	0.000236
 351	1.7500e-01	14.0418	-0.104055	0.000003	0.026847	0.009096	0.000220
 352	1.7550e-01	14.0707	-0.103138	0.000002	0.022406	0.007591	0.000183
 353	1.7600e-01	14.1172	-0.101973	0.000003	0.028462	0.009643	0.000233
 354	1.7650e-01	14.1606	-0.100982	0.000002	0.024223	0.008207	0.000198
 355	1.7700e-01	14.2055	-0.100098	0.000002	0.021599	0.007318	0.000177
 356	1.7750e-01	14.2279	-0.099065	0.000003	0.025232	0.008549	0.000207
 357	1.7800e-01	14.2745	-0.097726	0.000003	0.032701	0.011079	0.000268
 358	1.7850e-01	14.3354	-0.096495	0.000003	0.030077	0.010190	0.000246
 359	1.7900e-01	14.3868	-0.095545	0.000002	0.023213	0.007865	0.000190
 360	1.7950e-01	14.3836	-0.094653	-0.000002	-0.021800	-0.007386	0.000178
 361	1.8000e-01	14.4172	-0.093496	0.000003	0.028260	0.009575	0.000231
 362	1.8050e-01	14.4830	-0.092133	0.000003	0.033306	0.011284	0.000273
 363	1.8100e-01	14.5055	-0.090844	0.000003	0.031489	0.010669	0.000258
 364	1.8150e-01	14.5552	-0.089959	0.000002	0.021599	0.007318	0.000177
 365	1.8200e-01	14.5905	-0.088695	0.000003	0.030884	0.010464	0.000253
 366	1.8250e-01	14.6322	-0.087340	0.000003	0.033104	0.011216	0.000271
 367	1.8300e-01	14.7012	-0.086084	0.000003	0.030682	0.010395	0.000251
 368	1.8350e-01	14.7188	-0.084969	0.000003	0.027251	0.009233	0.000223
 369	1.8400e-01	14.7814	-0.083746	0.000003	0.029875	0.010122	0.000245
 370	1.8450e-01	14.7798	-0.082622	-0.000003	-0.027452	-0.009301	0.000225
 371	1.8500e-01	14.8424	-0.081441	0.000003	0.028865	0.009780	0.000236
 372	1.8550e-01	14.8905	-0.080201	0.000003	0.030278	0.010259	0.000248
 373	1.8600e-01	14.9129	-0.079044	0.000003	0.028260	0.009575	0.000231
 374	1.8650e-01	14.9418	-0.077871	0.000003	0.028664	0.009711	0.000235
 375	1.8700e-01	14.9835	-0.076516	0.000003	0.033104	0.011216	0.000271
 376	1.8750e-01	15.0317	-0.075326	0.000003	0.029067	0.009848	0.000238
 377	1.8800e-01	15.1199	-0.073971	0.000003	0.033104	0.011216	0.000271
 378	1.8850e-01	15.1279	-0.072765	0.000003	0.029471	0.009985	0.000241
 379	1.8900e-01	15.1712	-0.071451	0.000003	0.032095	0.010874	0.000263
 380	1.8950e-01	15.2161	-0.070162	0.000003	0.031489	0.010669	0.000258
 381	1.9000e-01	15.2226	-0.068708	0.000004	0.035527	0.012037	0.000291
 382	1.9050e-01	15.2466	-0.067386	0.000003	0.032297	0.010942	0.000264
 383	1.9100e-01	15.3108	-0.065890	0.000004	0.036536	0.012379	0.000299
 384	1.9150e-01	15.3429	-0.064535	0.000003	0.033104	0.011216	0.000271
 385	1.9200e-01	15.4119	-0.063188	0.000003	0.032902	0.011148	0.000269
 386	1.9250e-01	15.4568	-0.061759	0.000003	0.034921	0.011832	0.000286
 387	1.9300e-01	15.4808	-0.060544	0.000003	0.029673	0.010053	0.000243
 388	1.9350e-01	15.5322	-0.059198	0.000003	0.032902	0.011148	0.000269
 389	1.9400e-01	15.5659	-0.057917	0.000003	0.031288	0.010601	0.000256
 390	1.9450e-01	15.5915	-0.056504	0.000003	0.034517	0.011695	0.000283
 391	1.9500e-01	15.6188	-0.055289	0.000003	0.029673	0.010053	0.000243
 392	1.9550e-01	15.6734	-0.053835	0.000004	0.035527	0.012037	0.000291
 393	1.9600e-01	15.7119	-0.052579	0.000003	0.030682	0.010395	0.000251
 394	1.9650e-01	15.7407	-0.051001	0.000004	0.038554	0.013063	0.000316
 395	1.9700e-01	15.8017	-0.049514	0.000004	0.036334	0.012310	0.000297
 396	1.9750e-01	15.8450	-0.048051	0.000004	0.035728	0.012105	0.000292
 397	1.9800e-01	15.8466	-0.046564	0.000004	0.036334	0.012310	0.000297
 398	1.9850e-01	15.9252	-0.045011	0.000004	0.037949	0.012857	0.000311
 399	1.9900e-01	15.9284	-0.043821	0.000003	0.029067	0.009848	0.000238
 400	1.9950e-01	16.0054	-0.042672	0.000003	0.028058	0.009506	0.000230
 401	2.0000e-01	16.0391	-0.041202	0.000004	0.035930	0.012174	0.000294
 402	2.0050e-01	16.0664	-0.039772	0.000003	0.034921	0.011832	0.000286
 403	2.0100e-01	16.0937	-0.037839	0.000005	0.047234	0.016003	0.000387
 404	2.0150e-01	16.1610	-0.035922	0.000005	0.046831	0.015867	0.000383
 405	2.0200e-01	16.1835	-0.034071	0.000005	0.045216	0.015319	0.000370
 406	2.0250e-01	16.2525	-0.032435	0.000004	0.039967	0.013541	0.000327
 407	2.0300e-01	16.2798	-0.030700	0.000004	0.042390	0.014362	0.000347
 408	2.0350e-01	16.3295	-0.029056	0.000004	0.040169	0.013610	0.000329
 409	2.0400e-01	16.3535	-0.027370	0.000004	0.041179	0.013952	0.000337
 410	2.0450e-01	16.4049	-0.025569	0.000004	0.044005	0.014909	0.000360
 411	2.0500e-01	16.4386	-0.024197	0.000003	0.033508	0.011353	0.000274
 412	2.0550e-01	16.4658	-0.022983	0.000003	0.029673	0.010053	0.000243
 413	2.0600e-01	16.5461	-0.021718	0.000003	0.030884	0.010464	0.000253
 414	2.0650e-01	16.5942	-0.020016	0.000004	0.041582	0.014088	0.000340
 415	2.0700e-01	16.6182	-0.017909	0.000005	0.051473	0.017440	0.000421
 416	2.0750e-01	16.6535	-0.016017	0.000005	0.046225	0.015661	0.000378
 417	2.0800e-01	16.6969	-0.014232	0.000004	0.043601	0.014772	0.000357
 418	2.0850e-01	16.7418	-0.012629	0.000004	0.039160	0.013268	0.000321
 419	2.0900e-01	16.7370	-0.011241	-0.000003	-0.033912	-0.011490	0.000278
 420	2.0950e-01	16.8108	-0.009638	0.000004	0.039160	0.013268	0.000321
 421	2.1000e-01	16.8477	-0.007639	0.000005	0.048849	0.016551	0.000400
 422	2.1050e-01	16.8797	-0.005730	0.000005	0.046629	0.015798	0.000382
 423	2.1100e-01	16.9134	-0.003888	0.000005	0.045014	0.015251	0.000369
 424	2.1150e-01	16.9503	-0.002219	0.000004	0.040775	0.013815	0.000334
 425	2.1200e-01	17.0017	-0.000616	0.000004	0.039160	0.013268	0.000321
 426	2.1250e-01	17.0434	0.001384	0.000005	0.048849	0.016551	0.000400
 427	2.1300e-01	17.0722	0.003268	0.000005	0.046023	0.015593	0.000377
 428	2.1350e-01	17.1027	0.005135	0.000005	0.045619	0.015456	0.000373
 429	2.1400e-01	17.1765	0.006713	0.000004	0.038554	0.013063	0.000316
 430	2.1450e-01	17.1926	0.008250	0.000004	0.037545	0.012721	0.000307
 431	2.1500e-01	17.2311	0.010225	0.000005	0.048244	0.016345	0.000395
 432	2.1550e-01	17.3129	0.012192	0.000005	0.048042	0.016277	0.000393
 433	2.1600e-01	17.3353	0.014191	0.000005	0.048849	0.016551	0.000400
 434	2.1650e-01	17.3754	0.015885	0.000004	0.041380	0.014020	0.000339
 435	2.1700e-01	17.3883	0.017727	0.000005	0.045014	0.015251	0.000369
 436	2.1750e-01	17.4220	0.020082	0.000006	0.057529	0.019491	0.000471
 437	2.1800e-01	17.5038	0.022322	0.000005	0.054703	0.018534	0.000448
 438	2.1850e-01	17.5134	0.024280	0.000005	0.047840	0.016209	0.000392
 439	2.1900e-01	17.5663	0.025965	0.000004	0.041179	0.013952	0.000337
 440	2.1950e-01	17.6161	0.027948	0.000005	0.048445	0.016414	0.000397
 441	2.2000e-01	17.6289	0.030031	0.000005	0.050868	0.017234	0.000416
 442	2.2050e-01	17.6754	0.032030	0.000005	0.048849	0.016551	0.000400
 443	2.2100e-01	17.7284	0.033988	0.000005	0.047840	0.016209	0.000392
 444	2.2150e-01	17.7861	0.036062	0.000005	0.050666	0.017166	0.000415
 445	2.2200e-01	17.7925	0.038334	0.000006	0.055510	0.018807	0.000454
 446	2.2250e-01	17.8808	0.040276	0.000005	0.047436	0.016072	0.000388
 447	2.2300e-01	17.9016	0.042218	0.000005	0.047436	0.016072	0.000388
 448	2.2350e-01	17.9321	0.044424	0.000005	0.053895	0.018260	0.000441
 449	2.2400e-01	17.9851	0.046795	0.000006	0.057933	0.019628	0.000474
 450	2.2450e-01	17.9915	0.049018	0.000005	0.054299	0.018397	0.000445
 451	2.2500e-01	18.0268	0.050960	0.000005	0.047436	0.016072	0.000388
 452	2.2550e-01	18.0893	0.053025	0.000005	0.050464	0.017098	0.000413
 453	2.2600e-01	18.1278	0.055496	0.000006	0.060355	0.020449	0.000494
 454	2.2650e-01	18.1840	0.057950	0.000006	0.059951	0.020312	0.000491
 455	2.2700e-01	18.1984	0.060090	0.000005	0.052281	0.017713	0.000428
 456	2.2750e-01	18.2626	0.062197	0.000005	0.051473	0.017440	0.000421
 457	2.2800e-01	18.2947	0.064643	0.000006	0.059749	0.020244	0.000489
 458	2.2850e-01	18.3284	0.067072	0.000006	0.059346	0.020107	0.000486
 459	2.2900e-01	18.4086	0.069237	0.000005	0.052886	0.017918	0.000433
 460	2.2950e-01	18.4086	0.071468	-0.000005	-0.054501	-0.018465	0.000446
 461	2.3000e-01	18.4535	0.073550	0.000005	0.050868	0.017234	0.000416
 462	2.3050e-01	18.5048	0.076153	0.000006	0.063585	0.021543	0.000521
 463	2.3100e-01	18.5369	0.078491	0.000006	0.057125	0.019355	0.000468
 464	2.3150e-01	18.5433	0.080788	0.000006	0.056116	0.019013	0.000459
 465	2.3200e-01	18.5915	0.083077	0.000006	0.055914	0.018944	0.000458
 466	2.3250e-01	18.6348	0.085564	0.000006	0.060759	0.020586	0.000497
 467	2.3300e-01	18.6749	0.088158	0.000006	0.063383	0.021475	0.000519
 468	2.3350e-01	18.7086	0.090579	0.000006	0.059144	0.020038	0.000484
 469	2.3400e-01	18.7519	0.092967	0.000006	0.058336	0.019765	0.000478
 470	2.3450e-01	18.8016	0.095578	0.000006	0.063786	0.021611	0.000522
 471	2.3500e-01	18.8369	0.098404	0.000007	0.069035	0.023390	0.000565
 472	2.3550e-01	18.8722	0.100982	0.000006	0.062979	0.021338	0.000516
 473	2.3600e-01	18.9267	0.103328	0.000006	0.057327	0.019423	0.000469
 474	2.3650e-01	18.9668	0.106072	0.000007	0.067016	0.022706	0.000549
 475	2.3700e-01	18.9797	0.108583	0.000006	0.061364	0.020791	0.000502
 476	2.3750e-01	19.0551	0.111062	0.000006	0.060557	0.020517	0.000496
 477	2.3800e-01	19.0872	0.113558	0.000006	0.060960	0.020654	0.000499
 478	2.3850e-01	19.1385	0.116169	0.000006	0.063786	0.021611	0.000522
 479	2.3900e-01	19.1706	0.118862	0.000007	0.065805	0.022295	0.000539
 480	2.3950e-01	19.1882	0.121539	0.000007	0.065401	0.022159	0.000535
 481	2.4000e-01	19.2700	0.124043	0.000006	0.061162	0.020722	0.000501
 482	2.4050e-01	19.2861	0.126736	0.000007	0.065805	0.022295	0.000539
 483	2.4100e-01	19.3037	0.129587	0.000007	0.069640	0.023595	0.000570
 484	2.4150e-01	19.3759	0.132454	0.000007	0.070044	0.023732	0.000573
 485	2.4200e-01	19.4016	0.135123	0.000007	0.065199	0.022090	0.000534
 486	2.4250e-01	19.4144	0.137883	0.000007	0.067420	0.022842	0.000552
 487	2.4300e-01	19.4642	0.140403	0.000006	0.061566	0.020859	0.000504
 488	2.4350e-01	19.5428	0.143096	0.000007	0.065805	0.022295	0.000539
 489	2.4400e-01	19.5748	0.145757	0.000006	0.064998	0.022022	0.000532
 490	2.4450e-01	19.5909	0.148831	0.000008	0.075090	0.025441	0.000615
 491	2.4500e-01	19.6278	0.152169	0.000008	0.081550	0.027630	0.000668
 492	2.4550e-01	19.6952	0.155532	0.000008	0.082155	0.027835	0.000673
 493	2.4600e-01	19.7128	0.158498	0.000007	0.072466	0.024552	0.000593
 494	2.4650e-01	19.7577	0.161522	0.000007	0.073879	0.025031	0.000605
 495	2.4700e-01	19.7946	0.164554	0.000007	0.074081	0.025099	0.000606
 496	2.4750e-01	19.8476	0.167670	0.000008	0.076100	0.025783	0.000623
 497	2.4800e-01	19.8893	0.170743	0.000008	0.075090	0.025441	0.000615
 498	2.4850e-01	19.9390	0.173726	0.000007	0.072870	0.024689	0.000597
 499	2.4900e-01	19.9438	0.176378	0.000006	0.064796	0.021953	0.000530
 500	2.4950e-01	19.9936	0.179080	0.000007	0.066007	0.022364	0.000540
 501	2.5000e-01	20.0497	0.182055	0.000007	0.072668	0.024621	0.000595
 502	2.5050e-01	19.9919	0.185542	-0.000009	-0.085183	-0.028861	0.000697
 503	2.5100e-01	19.9583	0.188847	-0.000008	-0.080742	-0.027356	0.000661
 504	2.5150e-01	19.8845	0.192044	-0.000008	-0.078118	-0.026467	0.000640
 505	2.5200e-01	19.8412	0.195052	-0.000007	-0.073475	-0.024894	0.000602
 506	2.5250e-01	19.8091	0.197539	-0.000006	-0.060759	-0.020586	0.000497
 507	2.5300e-01	19.7754	0.199762	-0.000005	-0.054299	-0.018397	0.000445
 508	2.5350e-01	19.7192	0.202472	-0.000007	-0.066209	-0.022432	0.000542
 509	2.5400e-01	19.7016	0.205000	-0.000006	-0.061768	-0.020928	0.000506
 510	2.5450e-01	19.6486	0.207595	-0.000006	-0.063383	-0.021475	0.000519
 511	2.5500e-01	19.6005	0.210057	-0.000006	-0.060153	-0.020380	0.000492
 512	2.5550e-01	19.5636	0.211800	-0.000004	-0.042592	-0.014430	0.000349
 513	2.5600e-01	19.5315	0.213734	-0.000005	-0.047234	-0.016003	0.000387
 514	2.5650e-01	19.4898	0.215725	-0.000005	-0.048647	-0.016482	0.000398
 515	2.5700e-01	19.4561	0.217675	-0.000005	-0.047638	-0.016140	0.000390
 516	2.5750e-01	19.4224	0.219567	-0.000005	-0.046225	-0.015661	0.000378
 517	2.5800e-01	19.3888	0.221087	-0.000004	-0.037141	-0.012584	0.000304
 518	2.5850e-01	19.3326	0.222608	-0.000004	-0.037141	-0.012584	0.000304
 519	2.5900e-01	19.3134	0.224450	-0.000005	-0.045014	-0.015251	0.000369
 520	2.5950e-01	19.2813	0.226161	-0.000004	-0.041784	-0.014157	0.000342
 521	2.6000e-01	19.2107	0.227474	-0.000003	-0.032095	-0.010874	0.000263
 522	2.6050e-01	19.1754	0.228970	-0.000004	-0.036536	-0.012379	0.000299
 523	2.6100e-01	19.1481	0.230598	-0.000004	-0.039766	-0.013473	0.000326
 524	2.6150e-01	19.0936	0.232242	-0.000004	-0.040169	-0.013610	0.000329
 525	2.6200e-01	19.0775	0.233234	-0.000002	-0.024223	-0.008207	0.000198
 526	2.6250e-01	19.0390	0.234200	-0.000002	-0.023617	-0.008002	0.000193
 527	2.6300e-01	18.9668	0.235241	-0.000003	-0.025434	-0.008617	0.000208
 528	2.6350e-01	18.9283	0.236555	-0.000003	-0.032095	-0.010874	0.000263
 529	2.6400e-01	18.8995	0.237861	-0.000003	-0.031893	-0.010806	0.000261
 530	2.6450e-01	18.8513	0.239001	-0.000003	-0.027856	-0.009438	0.000228
 531	2.6500e-01	18.8273	0.239844	-0.000002	-0.020589	-0.006976	0.000169
 532	2.6550e-01	18.7840	0.240835	-0.000002	-0.024223	-0.008207	0.000198
 533	2.6600e-01	18.7551	0.241959	-0.000003	-0.027452	-0.009301	0.000225
 534	2.6650e-01	18.6957	0.242859	-0.000002	-0.022002	-0.007455	0.000180
 535	2.6700e-01	18.6604	0.243810	-0.000002	-0.023213	-0.007865	0.000190
 536	2.6750e-01	18.5947	0.244702	-0.000002	-0.021800	-0.007386	0.000178
 537	2.6800e-01	18.5626	0.245685	-0.000002	-0.024021	-0.008138	0.000197
 538	2.6850e-01	18.5096	0.246255	-0.000001	-0.013928	-0.004719	0.000114
 539	2.6900e-01	18.5016	0.246842	-0.000001	-0.014332	-0.004856	0.000117
 540	2.6950e-01	18.4904	0.247751	-0.000002	-0.022204	-0.007523	0.000182
 541	2.7000e-01	18.4166	0.248734	-0.000002	-0.024021	-0.008138	0.000197
 542	2.7050e-01	18.3637	0.249354	-0.000002	-0.015139	-0.005129	0.000124
 543	2.7100e-01	18.3187	0.249858	-0.000001	-0.012313	-0.004172	0.000101
 544	2.7150e-01	18.2770	0.250453	-0.000001	-0.014534	-0.004924	0.000119
 545	2.7200e-01	18.2465	0.251304	-0.000002	-0.020791	-0.007044	0.000170
 546	2.7250e-01	18.2241	0.251849	-0.000001	-0.013322	-0.004514	0.000109
 547	2.7300e-01	18.1551	0.252188	-0.000001	-0.008276	-0.002804	0.000068
 548	2.7350e-01	18.1455	0.252568	-0.000001	-0.009285	-0.003146	0.000076
 549	2.7400e-01	18.1102	0.253287	-0.000002	-0.017561	-0.005950	0.000144
 550	2.7450e-01	18.0588	0.253890	-0.000001	-0.014735	-0.004993	0.000121
 551	2.7500e-01	17.9979	0.254146	-0.000001	-0.006258	-0.002120	0.000051
 552	2.7550e-01	17.9706	0.254502	-0.000001	-0.008680	-0.002941	0.000071
 553	2.7600e-01	17.9177	0.255080	-0.000001	-0.014130	-0.004787	0.000116
 554	2.7650e-01	17.8936	0.255650	-0.000001	-0.013928	-0.004719	0.000114
 555	2.7700e-01	17.8760	0.255997	-0.000001	-0.008478	-0.002872	0.000069
 556	2.7750e-01	17.8166	0.256253	-0.000001	-0.006258	-0.002120	0.000051
 557	2.7800e-01	17.7845	0.256782	-0.000001	-0.012919	-0.004377	0.000106
 558	2.7850e-01	17.7476	0.257327	-0.000001	-0.013322	-0.004514	0.000109
 559	2.7900e-01	17.6835	0.257674	-0.000001	-0.008478	-0.002872	0.000069
 560	2.7950e-01	17.6401	0.257964	-0.000001	-0.007065	-0.002394	0.000058
 561	2.8000e-01	17.6129	0.258401	-0.000001	-0.010698	-0.003625	0.000088
 562	2.8050e-01	17.5776	0.258765	-0.000001	-0.008882	-0.003009	0.000073
 563	2.8100e-01	17.5519	0.259079	-0.000001	-0.007671	-0.002599	0.000063
 564	2.8150e-01	17.4910	0.259170	-0.000000	-0.002220	-0.000752	0.000018
 565	2.8200e-01	17.4845	0.259360	-0.000000	-0.004643	-0.001573	0.000038
 566	2.8250e-01	17.4075	0.259831	-0.000001	-0.011506	-0.003898	0.000094
 567	2.8300e-01	17.3787	0.260013	-0.000000	-0.004441	-0.001505	0.000036
 568	2.8350e-01	17.3353	0.260112	-0.000000	-0.002422	-0.000821	0.000020
 569	2.8400e-01	17.2792	0.260376	-0.000001	-0.006459	-0.002188	0.000053
 570	2.8450e-01	17.2327	0.260608	-0.000001	-0.005652	-0.001915	0.000046
 571	2.8500e-01	17.1990	0.260789	-0.000000	-0.004441	-0.001505	0.000036
 572	2.8550e-01	17.1781	0.260955	-0.000000	-0.004037	-0.001368	0.000033
 573	2.8600e-01	17.1476	0.261054	-0.000000	-0.002422	-0.000821	0.000020
 574	2.8650e-01	17.0899	0.261219	-0.000000	-0.004037	-0.001368	0.000033
 575	2.8700e-01	17.0642	0.261095	0.000000	0.003028	0.001026	-0.000025
 576	2.8750e-01	17.0289	0.261087	0.000000	0.000202	0.000068	-0.000002
 577	2.8800e-01	17.0081	0.261120	-0.000000	-0.000807	-0.000274	0.000007
 578	2.8850e-01	16.9632	0.261550	-0.000001	-0.010496	-0.003556	0.000086
 579	2.8900e-01	16.8910	0.262128	-0.000001	-0.014130	-0.004787	0.000116
 580	2.8950e-01	16.8573	0.262591	-0.000001	-0.011304	-0.003830	0.000093
 581	2.9000e-01	16.8043	0.262599	-0.000000	-0.000202	-0.000068	0.000002
 582	2.9050e-01	16.7931	0.262723	-0.000000	-0.003028	-0.001026	0.000025
 583	2.9100e-01	16.7289	0.262971	-0.000001	-0.006056	-0.002052	0.000050
 584	2.9150e-01	16.6904	0.263103	-0.000000	-0.003230	-0.001094	0.000026
 585	2.9200e-01	16.6551	0.263202	-0.000000	-0.002422	-0.000821	0.000020
 586	2.9250e-01	16.5958	0.262946	0.000001	0.006258	0.002120	-0.000051
 587	2.9300e-01	16.5830	0.262648	0.000001	0.007267	0.002462	-0.000059
 588	2.9350e-01	16.5461	0.262425	0.000001	0.005450	0.001847	-0.000045
 589	2.9400e-01	16.4739	0.262442	-0.000000	-0.000404	-0.000137	0.000003
 590	2.9450e-01	16.4674	0.262789	-0.000001	-0.008478	-0.002872	0.000069
 591	2.9500e-01	16.4113	0.263103	-0.000001	-0.007671	-0.002599	0.000063
 592	2.9550e-01	16.3487	0.263417	-0.000001	-0.007671	-0.002599	0.000063
 593	2.9600e-01	16.3150	0.263409	0.000000	0.000202	0.000068	-0.000002
 594	2.9650e-01	16.2733	0.262913	0.000001	0.012111	0.004103	-0.000099
 595	2.9700e-01	16.2509	0.262855	0.000000	0.001413	0.000479	-0.000012
 596	2.9750e-01	16.2413	0.263128	-0.000001	-0.006661	-0.002257	0.000055
 597	2.9800e-01	16.1739	0.263334	-0.000001	-0.005046	-0.001710	0.000041
 598	2.9850e-01	16.1851	0.263466	0.000000	0.003230	0.001094	0.000026
 599	2.9900e-01	16.1097	0.263301	0.000000	0.004037	0.001368	-0.000033
 600	2.9950e-01	16.0487	0.262756	0.000001	0.013322	0.004514	-0.000109
 601	3.0000e-01	16.0391	0.262665	0.000000	0.002220	0.000752	-0.000018
 602	3.0050e-01	15.9766	0.262929	-0.000001	-0.006459	-0.002188	0.000053
 603	3.0100e-01	15.9172	0.262954	-0.000000	-0.000606	-0.000205	0.000005
 604	3.0150e-01	15.9092	0.262764	0.000000	0.004643	0.001573	-0.000038
 605	3.0200e-01	15.8530	0.262516	0.000001	0.006056	0.002052	-0.000050
 606	3.0250e-01	15.7985	0.262566	-0.000000	-0.001211	-0.000410	0.000010
 607	3.0300e-01	15.7680	0.262789	-0.000001	-0.005450	-0.001847	0.000045
 608	3.0350e-01	15.7215	0.262946	-0.000000	-0.003835	-0.001299	0.000031
 609	3.0400e-01	15.6974	0.262946	-0.000000	-0.000000	-0.000000	0.000000
 610	3.0450e-01	15.6461	0.262979	-0.000000	-0.000807	-0.000274	0.000007
 611	3.0500e-01	15.6124	0.263012	-0.000000	-0.000807	-0.000274	0.000007
 612	3.0550e-01	15.5915	0.263004	0.000000	0.000202	0.000068	-0.000002
 613	3.0600e-01	15.5659	0.262739	0.000001	0.006459	0.002188	-0.000053
 614	3.0650e-01	15.5145	0.262277	0.000001	0.011304	0.003830	-0.000093
 615	3.0700e-01	15.4584	0.262301	-0.000000	-0.000606	-0.000205	0.000005
 616	3.0750e-01	15.4119	0.262458	-0.000000	-0.003835	-0.001299	0.000031
 617	3.0800e-01	15.3509	0.262351	0.000000	0.002624	0.000889	-0.000021
 618	3.0850e-01	15.3413	0.262103	0.000001	0.006056	0.002052	-0.000050
 619	3.0900e-01	15.2771	0.261830	0.000001	0.006661	0.002257	-0.000055
 620	3.0950e-01	15.2546	0.261930	-0.000000	-0.002422	-0.000821	0.000020
 621	3.1000e-01	15.1937	0.261946	-0.000000	-0.000404	-0.000137	0.000003
 622	3.1050e-01	15.1648	0.261963	-0.000000	-0.000404	-0.000137	0.000003
 623	3.1100e-01	15.1359	0.261740	0.000001	0.005450	0.001847	-0.000045
 624	3.1150e-01	15.1022	0.261715	0.000000	0.000606	0.000205	-0.000005
 625	3.1200e-01	15.0397	0.261624	0.000000	0.002220	0.000752	-0.000018
 626	3.1250e-01	15.0140	0.261467	0.000000	0.003835	0.001299	-0.000031
 627	3.1300e-01	14.9787	0.261335	0.000000	0.003230	0.001094	-0.000026
 628	3.1350e-01	14.9531	0.261277	0.000000	0.001413	0.000479	-0.000012
 629	3.1400e-01	14.9033	0.261145	0.000000	0.003230	0.001094	-0.000026
 630	3.1450e-01	14.8472	0.260839	0.000001	0.007469	0.002530	-0.000061
 631	3.1500e-01	14.8199	0.260765	0.000000	0.001817	0.000616	-0.000015
 632	3.1550e-01	14.7878	0.260649	0.000000	0.002826	0.000957	-0.000023
 633	3.1600e-01	14.7349	0.260542	0.000000	0.002624	0.000889	-0.000021
 634	3.1650e-01	14.6980	0.260302	0.000001	0.005854	0.001983	-0.000048
 635	3.1700e-01	14.6482	0.260087	0.000001	0.005248	0.001778	-0.000043
 636	3.1750e-01	14.6097	0.260120	-0.000000	-0.000807	-0.000274	0.000007
 637	3.1800e-01	14.5777	0.259988	0.000000	0.003230	0.001094	-0.000026
 638	3.1850e-01	14.5568	0.259881	0.000000	0.002624	0.000889	-0.000021
 639	3.1900e-01	14.4718	0.259682	0.000000	0.004845	0.001641	-0.000040
 640	3.1950e-01	14.4333	0.259600	0.000000	0.002019	0.000684	-0.000017
 641	3.2000e-01	14.4221	0.259500	0.000000	0.002422	0.000821	-0.000020
 642	3.2050e-01	14.3627	0.259319	0.000000	0.004441	0.001505	-0.000036
 643	3.2100e-01	14.3467	0.259211	0.000000	0.002624	0.000889	-0.000021
 644	3.2150e-01	14.2793	0.259021	0.000000	0.004643	0.001573	-0.000038
 645	3.2200e-01	14.2648	0.258996	0.000000	0.000606	0.000205	-0.000005
 646	3.2250e-01	14.2167	0.258806	0.000000	0.004643	0.001573	-0.000038
 647	3.2300e-01	14.1846	0.258625	0.000000	0.004441	0.001505	-0.000036
 648	3.2350e-01	14.1429	0.258385	0.000001	0.005854	0.001983	-0.000048
 649	3.2400e-01	14.0948	0.258327	0.000000	0.001413	0.000479	-0.000012
 650	3.2450e-01	14.0386	0.258211	0.000000	0.002826	0.000957	-0.000023
 651	3.2500e-01	14.0130	0.258021	0.000000	0.004643	0.001573	-0.000038
 652	3.2550e-01	13.9681	0.258005	0.000000	0.000404	0.000137	-0.000003
 653	3.2600e-01	13.9488	0.257897	0.000000	0.002624	0.000889	-0.000021
 654	3.2650e-01	13.8590	0.257972	-0.000000	-0.001817	-0.000616	0.000015
 655	3.2700e-01	13.8477	0.257749	0.000001	0.005450	0.001847	-0.000045
 656	3.2750e-01	13.8140	0.257600	0.000000	0.003633	0.001231	-0.000030
 657	3.2800e-01	13.7900	0.257517	0.000000	0.002019	0.000684	-0.000017
 658	3.2850e-01	13.7354	0.257319	0.000000	0.004845	0.001641	-0.000040
 659	3.2900e-01	13.7258	0.257203	0.000000	0.002826	0.000957	-0.000023
 660	3.2950e-01	13.6729	0.256947	0.000001	0.006258	0.002120	-0.000051
 661	3.3000e-01	13.6280	0.256906	0.000000	0.001009	0.000342	-0.000008
 662	3.3050e-01	13.5895	0.256303	0.000001	0.014735	0.004993	-0.000121
 663	3.3100e-01	13.5317	0.255865	0.000001	0.010698	0.003625	-0.000088
 664	3.3150e-01	13.5044	0.255584	0.000001	0.006863	0.002325	-0.000056
 665	3.3200e-01	13.4643	0.255460	0.000000	0.003028	0.001026	-0.000025
 666	3.3250e-01	13.4066	0.255724	-0.000001	-0.006459	-0.002188	0.000053
 667	3.3300e-01	13.3536	0.256195	-0.000001	-0.011506	-0.003898	0.000094
 668	3.3350e-01	13.3713	0.256228	0.000000	0.000807	0.000274	0.000007
 669	3.3400e-01	13.2830	0.256311	-0.000000	-0.002019	-0.000684	0.000017
 670	3.3450e-01	13.2750	0.256394	-0.000000	-0.002019	-0.000684	0.000017
 671	3.3500e-01	13.2093	0.256228	0.000000	0.004037	0.001368	-0.000033
 672	3.3550e-01	13.1499	0.256162	0.000000	0.001615	0.000547	-0.000013
 673	3.3600e-01	13.1210	0.256055	0.000000	0.002624	0.000889	-0.000021
 674	3.3650e-01	13.1178	0.255443	0.000001	0.014937	0.005061	-0.000122
 675	3.3700e-01	13.0552	0.254865	0.000001	0.014130	0.004787	-0.000116
 676	3.3750e-01	13.0440	0.254221	0.000002	0.015745	0.005334	-0.000129
 677	3.3800e-01	12.9750	0.254278	-0.000000	-0.001413	-0.000479	0.000012
 678	3.3850e-01	12.9157	0.254402	-0.000000	-0.003028	-0.001026	0.000025
 679	3.3900e-01	12.9141	0.254485	-0.000000	-0.002019	-0.000684	0.000017
 680	3.3950e-01	12.8563	0.254535	-0.000000	-0.001211	-0.000410	0.000010
 681	3.4000e-01	12.8114	0.254204	0.000001	0.008074	0.002736	-0.000066
 682	3.4050e-01	12.7954	0.253816	0.000001	0.009487	0.003214	-0.000078
 683	3.4100e-01	12.7472	0.253675	0.000000	0.003432	0.001163	-0.000028
 684	3.4150e-01	12.7087	0.253931	-0.000001	-0.006258	-0.002120	0.000051
 685	3.4200e-01	12.6622	0.254064	-0.000000	-0.003230	-0.001094	0.000026
 686	3.4250e-01	12.6012	0.253841	0.000001	0.005450	0.001847	-0.000045
 687	3.4300e-01	12.5900	0.253163	0.000002	0.016552	0.005608	-0.000136
 688	3.4350e-01	12.5371	0.252585	0.000001	0.014130	0.004787	-0.000116
 689	3.4400e-01	12.5226	0.252518	0.000000	0.001615	0.000547	-0.000013
 690	3.4450e-01	12.4344	0.252485	0.000000	0.000807	0.000274	-0.000007
 691	3.4500e-01	12.4232	0.252345	0.000000	0.003432	0.001163	-0.000028
 692	3.4550e-01	12.3686	0.251924	0.000001	0.010295	0.003488	-0.000084
 693	3.4600e-01	12.3269	0.251601	0.000001	0.007872	0.002667	-0.000064
 694	3.4650e-01	12.2900	0.251791	-0.000000	-0.004643	-0.001573	0.000038
 695	3.4700e-01	12.2628	0.252163	-0.000001	-0.009084	-0.003078	0.000074
 696	3.4750e-01	12.2291	0.252114	0.000000	0.001211	0.000410	-0.000010
 697	3.4800e-01	12.1777	0.251891	0.000001	0.005450	0.001847	-0.000045
 698	3.4850e-01	12.1473	0.251527	0.000001	0.008882	0.003009	-0.000073
 699	3.4900e-01	12.0959	0.251469	0.000000	0.001413	0.000479	-0.000012
 700	3.4950e-01	12.0558	0.251469	-0.000000	-0.000000	-0.000000	0.000000
 701	3.5000e-01	12.0237	0.251048	0.000001	0.010295	0.003488	-0.000084
 702	3.5050e-01	11.9676	0.250767	0.000001	0.006863	0.002325	-0.000056
 703	3.5100e-01	11.9644	0.250973	-0.000001	-0.005046	-0.001710	0.000041
 704	3.5150e-01	11.9114	0.250800	0.000000	0.004239	0.001436	-0.000035
 705	3.5200e-01	11.8585	0.250428	0.000001	0.009084	0.003078	-0.000074
 706	3.5250e-01	11.8152	0.249965	0.000001	0.011304	0.003830	-0.000093
 707	3.5300e-01	11.7895	0.249932	0.000000	0.000807	0.000274	-0.000007
 708	3.5350e-01	11.7350	0.250023	-0.000000	-0.002220	-0.000752	0.000018
 709	3.5400e-01	11.6916	0.249825	0.000000	0.004845	0.001641	-0.000040
 710	3.5450e-01	11.6515	0.249337	0.000001	0.011909	0.004035	-0.000097
 711	3.5500e-01	11.6098	0.249156	0.000000	0.004441	0.001505	-0.000036
 712	3.5550e-01	11.6146	0.249197	0.000000	0.001009	0.000342	0.000008
 713	3.5600e-01	11.5344	0.249230	-0.000000	-0.000807	-0.000274	0.000007
 714	3.5650e-01	11.4879	0.248875	0.000001	0.008680	0.002941	-0.000071
 715	3.5700e-01	11.4414	0.248627	0.000001	0.006056	0.002052	-0.000050
 716	3.5750e-01	11.4013	0.248552	0.000000	0.001817	0.000616	-0.000015
 717	3.5800e-01	11.4061	0.248420	-0.000000	-0.003230	-0.001094	-0.000026
 718	3.5850e-01	11.3355	0.248148	0.000001	0.006661	0.002257	-0.000055
 719	3.5900e-01	11.3002	0.247966	0.000000	0.004441	0.001505	-0.000036
 720	3.5950e-01	11.2457	0.247644	0.000001	0.007872	0.002667	-0.000064
 721	3.6000e-01	11.2072	0.247619	0.000000	0.000606	0.000205	-0.000005
 722	3.6050e-01	11.1526	0.247487	0.000000	0.003230	0.001094	-0.000026
 723	3.6100e-01	11.1623	0.247313	-0.000000	-0.004239	-0.001436	-0.000035
 724	3.6150e-01	11.0869	0.247164	0.000000	0.003633	0.001231	-0.000030
 725	3.6200e-01	11.0419	0.247073	0.000000	0.002220	0.000752	-0.000018
 726	3.6250e-01	11.0050	0.246916	0.000000	0.003835	0.001299	-0.000031
 727	3.6300e-01	10.9569	0.246834	0.000000	0.002019	0.000684	-0.000017
 728	3.6350e-01	10.9296	0.246660	0.000000	0.004239	0.001436	-0.000035
 729	3.6400e-01	10.8815	0.246355	0.000001	0.007469	0.002530	-0.000061
 730	3.6450e-01	10.8783	0.246280	0.000000	0.001817	0.000616	-0.000015
 731	3.6500e-01	10.8029	0.245908	0.000001	0.009084	0.003078	-0.000074
 732	3.6550e-01	10.7724	0.245867	0.000000	0.001009	0.000342	-0.000008
 733	3.6600e-01	10.7484	0.245677	0.000000	0.004643	0.001573	-0.000038
 734	3.6650e-01	10.7227	0.245380	0.000001	0.007267	0.002462	-0.000059
 735	3.6700e-01	10.6617	0.245156	0.000001	0.005450	0.001847	-0.000045
 736	3.6750e-01	10.6104	0.244785	0.000001	0.009084	0.003078	-0.000074
 737	3.6800e-01	10.5831	0.244702	0.000000	0.002019	0.000684	-0.000017
 738	3.6850e-01	10.5109	0.244504	0.000000	0.004845	0.001641	-0.000040
 739	3.6900e-01	10.5077	0.244338	0.000000	0.004037	0.001368	-0.000033
 740	3.6950e-01	10.4548	0.244181	0.000000	0.003835	0.001299	-0.000031
 741	3.7000e-01	10.3954	0.243950	0.000001	0.005652	0.001915	-0.000046
 742	3.7050e-01	10.3297	0.243950	-0.000000	-0.000000	-0.000000	0.000000
 743	3.7100e-01	10.3200	0.243834	0.000000	0.002826	0.000957	-0.000023
 744	3.7150e-01	10.2976	0.243562	0.000001	0.006661	0.002257	-0.000055
 745	3.7200e-01	10.2366	0.243438	0.000000	0.003028	0.001026	-0.000025
 746	3.7250e-01	10.2238	0.243182	0.000001	0.006258	0.002120	-0.000051
 747	3.7300e-01	10.1676	0.242934	0.000001	0.006056	0.002052	-0.000050
 748	3.7350e-01	10.1548	0.242760	0.000000	0.004239	0.001436	-0.000035
 749	3.7400e-01	10.1051	0.242512	0.000001	0.006056	0.002052	-0.000050
 750	3.7450e-01	10.0329	0.241951	0.000001	0.013726	0.004651	-0.000112
 751	3.7500e-01	10.0088	0.241496	0.000001	0.011102	0.003761	-0.000091
 752	3.7550e-01	9.9735	0.241000	0.000001	0.012111	0.004103	-0.000099
 753	3.7600e-01	9.9270	0.241000	-0.000000	-0.000000	-0.000000	0.000000
 754	3.7650e-01	9.8901	0.241306	-0.000001	-0.007469	-0.002530	0.000061
 755	3.7700e-01	9.8179	0.241694	-0.000001	-0.009487	-0.003214	0.000078
 756	3.7750e-01	9.8243	0.241810	0.000000	0.002826	0.000957	0.000023
 757	3.7800e-01	9.7842	0.241678	0.000000	0.003230	0.001094	-0.000026
 758	3.7850e-01	9.7441	0.241703	-0.000000	-0.000606	-0.000205	0.000005
 759	3.7900e-01	9.6976	0.241670	0.000000	0.000807	0.000274	-0.000007
 760	3.7950e-01	9.6511	0.241670	-0.000000	-0.000000	-0.000000	0.000000
 761	3.8000e-01	9.6254	0.241389	0.000001	0.006863	0.002325	-0.000056
 762	3.8050e-01	9.5596	0.240744	0.000002	0.015745	0.005334	-0.000129
 763	3.8100e-01	9.5356	0.239951	0.000002	0.019378	0.006565	-0.000159
 764	3.8150e-01	9.4955	0.239670	0.000001	0.006863	0.002325	-0.000056
 765	3.8200e-01	9.4473	0.239678	-0.000000	-0.000202	-0.000068	0.000002
 766	3.8250e-01	9.3912	0.239662	0.000000	0.000404	0.000137	-0.000003
 767	3.8300e-01	9.3655	0.239505	0.000000	0.003835	0.001299	-0.000031
 768	3.8350e-01	9.3206	0.239629	-0.000000	-0.003028	-0.001026	0.000025
 769	3.8400e-01	9.2901	0.239282	0.000001	0.008478	0.002872	-0.000069
 770	3.8450e-01	9.2580	0.239001	0.000001	0.006863	0.002325	-0.000056
 771	3.8500e-01	9.1955	0.239067	-0.000000	-0.001615	-0.000547	0.000013
 772	3.8550e-01	9.1473	0.239158	-0.000000	-0.002220	-0.000752	0.000018
 773	3.8600e-01	9.1345	0.238984	0.000000	0.004239	0.001436	-0.000035
 774	3.8650e-01	9.0928	0.238637	0.000001	0.008478	0.002872	-0.000069
 775	3.8700e-01	9.0591	0.238009	0.000002	0.015341	0.005198	-0.000126
 776	3.8750e-01	9.0094	0.237522	0.000001	0.011909	0.004035	-0.000097
 777	3.8800e-01	8.9516	0.237447	0.000000	0.001817	0.000616	-0.000015
 778	3.8850e-01	8.9324	0.237456	-0.000000	-0.000202	-0.000068	0.000002
 779	3.8900e-01	8.9147	0.237158	0.000001	0.007267	0.002462	-0.000059
 780	3.8950e-01	8.8682	0.236762	0.000001	0.009689	0.003283	-0.000079
 781	3.9000e-01	8.8040	0.236729	0.000000	0.000807	0.000274	-0.000007
 782	3.9050e-01	8.7703	0.237010	-0.000001	-0.006863	-0.002325	0.000056
 783	3.9100e-01	8.7463	0.236976	0.000000	0.000807	0.000274	-0.000007
 784	3.9150e-01	8.6982	0.236588	0.000001	0.009487	0.003214	-0.000078
 785	3.9200e-01	8.6596	0.236068	0.000001	0.012717	0.004309	-0.000104
 786	3.9250e-01	8.6019	0.236026	0.000000	0.001009	0.000342	-0.000008
 787	3.9300e-01	8.5634	0.235894	0.000000	0.003230	0.001094	-0.000026
 788	3.9350e-01	8.5602	0.235935	-0.000000	-0.001009	-0.000342	0.000008
 789	3.9400e-01	8.4880	0.235704	0.000001	0.005652	0.001915	-0.000046
 790	3.9450e-01	8.4495	0.235473	0.000001	0.005652	0.001915	-0.000046
 791	3.9500e-01	8.3917	0.235307	0.000000	0.004037	0.001368	-0.000033
 792	3.9550e-01	8.3532	0.235126	0.000000	0.004441	0.001505	-0.000036
 793	3.9600e-01	8.3468	0.234820	0.000001	0.007469	0.002530	-0.000061
 794	3.9650e-01	8.2875	0.234564	0.000001	0.006258	0.002120	-0.000051
 795	3.9700e-01	8.2522	0.234638	-0.000000	-0.001817	-0.000616	0.000015
 796	3.9750e-01	8.2137	0.234506	0.000000	0.003230	0.001094	-0.000026
 797	3.9800e-01	8.1880	0.234192	0.000001	0.007671	0.002599	-0.000063
 798	3.9850e-01	8.1319	0.233903	0.000001	0.007065	0.002394	-0.000058
 799	3.9900e-01	8.0966	0.233985	-0.000000	-0.002019	-0.000684	0.000017
 800	3.9950e-01	8.0581	0.234018	-0.000000	-0.000807	-0.000274	0.000007
 801	4.0000e-01	8.0083	0.233754	0.000001	0.006459	0.002188	-0.000053
 802	4.0050e-01	7.9762	0.233514	0.000001	0.005854	0.001983	-0.000048
 803	4.0100e-01	7.9105	0.233374	0.000000	0.003432	0.001163	-0.000028
 804	4.0150e-01	7.8688	0.233514	-0.000000	-0.003432	-0.001163	0.000028
 805	4.0200e-01	7.8383	0.233242	0.000001	0.006661	0.002257	-0.000055
 806	4.0250e-01	7.7998	0.232936	0.000001	0.007469	0.002530	-0.000061
 807	4.0300e-01	7.7837	0.232729	0.000001	0.005046	0.001710	-0.000041
 808	4.0350e-01	7.7581	0.232680	0.000000	0.001211	0.000410	-0.000010
 809	4.0400e-01	7.7083	0.232523	0.000000	0.003835	0.001299	-0.000031
 810	4.0450e-01	7.6570	0.232168	0.000001	0.008680	0.002941	-0.000071
 811	4.0500e-01	7.6025	0.231911	0.000001	0.006258	0.002120	-0.000051
 812	4.0550e-01	7.5543	0.231854	0.000000	0.001413	0.000479	-0.000012
 813	4.0600e-01	7.5431	0.231771	0.000000	0.002019	0.000684	-0.000017
 814	4.0650e-01	7.4821	0.231482	0.000001	0.007065	0.002394	-0.000058
 815	4.0700e-01	7.4501	0.231201	0.000001	0.006863	0.002325	-0.000056
 816	4.0750e-01	7.4148	0.231127	0.000000	0.001817	0.000616	-0.000015
 817	4.0800e-01	7.3586	0.231168	-0.000000	-0.001009	-0.000342	0.000008
 818	4.0850e-01	7.3169	0.230912	0.000001	0.006258	0.002120	-0.000051
 819	4.0900e-01	7.2880	0.230548	0.000001	0.008882	0.003009	-0.000073
 820	4.0950e-01	7.2752	0.230449	0.000000	0.002422	0.000821	-0.000020
 821	4.1000e-01	7.2110	0.230391	0.000000	0.001413	0.000479	-0.000012
 822	4.1050e-01	7.1918	0.230094	0.000001	0.007267	0.002462	-0.000059
 823	4.1100e-01	7.1228	0.229755	0.000001	0.008276	0.002804	-0.000068
 824	4.1150e-01	7.0618	0.229540	0.000001	0.005248	0.001778	-0.000043
 825	4.1200e-01	7.0554	0.229391	0.000000	0.003633	0.001231	-0.000030
 826	4.1250e-01	7.0314	0.229177	0.000001	0.005248	0.001778	-0.000043
 827	4.1300e-01	6.9816	0.228887	0.000001	0.007065	0.002394	-0.000058
 828	4.1350e-01	6.9094	0.228598	0.000001	0.007065	0.002394	-0.000058
 829	4.1400e-01	6.9191	0.228549	-0.000000	-0.001211	-0.000410	-0.000010
 830	4.1450e-01	6.8485	0.228540	0.000000	0.000202	0.000068	-0.000002
 831	4.1500e-01	6.8180	0.228350	0.000000	0.004643	0.001573	-0.000038
 832	4.1550e-01	6.8036	0.228144	0.000001	0.005046	0.001710	-0.000041
 833	4.1600e-01	6.7298	0.227987	0.000000	0.003835	0.001299	-0.000031
 834	4.1650e-01	6.6864	0.227945	0.000000	0.001009	0.000342	-0.000008
 835	4.1700e-01	6.6271	0.227681	0.000001	0.006459	0.002188	-0.000053
 836	4.1750e-01	6.5918	0.227400	0.000001	0.006863	0.002325	-0.000056
 837	4.1800e-01	6.5661	0.227070	0.000001	0.008074	0.002736	-0.000066
 838	4.1850e-01	6.5405	0.226516	0.000001	0.013524	0.004582	-0.000111
 839	4.1900e-01	6.4875	0.226004	0.000001	0.012515	0.004240	-0.000102
 840	4.1950e-01	6.4667	0.225409	0.000001	0.014534	0.004924	-0.000119
 841	4.2000e-01	6.4121	0.225566	-0.000000	-0.003835	-0.001299	0.000031
 842	4.2050e-01	6.3945	0.225781	-0.000001	-0.005248	-0.001778	0.000043
 843	4.2100e-01	6.3496	0.225979	-0.000000	-0.004845	-0.001641	0.000040
 844	4.2150e-01	6.3046	0.226004	-0.000000	-0.000606	-0.000205	0.000005
 845	4.2200e-01	6.2565	0.225938	0.000000	0.001615	0.000547	-0.000013
 846	4.2250e-01	6.2340	0.225971	-0.000000	-0.000807	-0.000274	0.000007
 847	4.2300e-01	6.1779	0.226037	-0.000000	-0.001615	-0.000547	0.000013
 848	4.2350e-01	6.1635	0.225921	0.000000	0.002826	0.000957	-0.000023
 849	4.2400e-01	6.1009	0.225607	0.000001	0.007671	0.002599	-0.000063
 850	4.2450e-01	6.0656	0.225070	0.000001	0.013121	0.004445	-0.000107
 851	4.2500e-01	6.0207	0.224343	0.000002	0.017763	0.006018	-0.000145
 852	4.2550e-01	5.9886	0.223888	0.000001	0.011102	0.003761	-0.000091
 853	4.2600e-01	5.9196	0.223963	-0.000000	-0.001817	-0.000616	0.000015
 854	4.2650e-01	5.8747	0.223996	-0.000000	-0.000807	-0.000274	0.000007
 855	4.2700e-01	5.8410	0.224252	-0.000001	-0.006258	-0.002120	0.000051
 856	4.2750e-01	5.8186	0.224252	-0.000000	-0.000000	-0.000000	0.000000
 857	4.2800e-01	5.7528	0.224029	0.000001	0.005450	0.001847	-0.000045
 858	4.2850e-01	5.7544	0.223674	-0.000001	-0.008680	-0.002941	-0.000071
 859	4.2900e-01	5.6758	0.223137	0.000001	0.013121	0.004445	-0.000107
 860	4.2950e-01	5.6405	0.223104	0.000000	0.000807	0.000274	-0.000007
 861	4.3000e-01	5.6052	0.223054	0.000000	0.001211	0.000410	-0.000010
 862	4.3050e-01	5.5811	0.222641	0.000001	0.010093	0.003420	-0.000083
 863	4.3100e-01	5.5458	0.222095	0.000001	0.013322	0.004514	-0.000109
 864	4.3150e-01	5.4929	0.221823	0.000001	0.006661	0.002257	-0.000055
 865	4.3200e-01	5.4752	0.221748	0.000000	0.001817	0.000616	-0.000015
 866	4.3250e-01	5.4031	0.221691	0.000000	0.001413	0.000479	-0.000012
 867	4.3300e-01	5.3646	0.221558	0.000000	0.003230	0.001094	-0.000026
 868	4.3350e-01	5.3100	0.221525	0.000000	0.000807	0.000274	-0.000007
 869	4.3400e-01	5.2843	0.221410	0.000000	0.002826	0.000957	-0.000023
 870	4.3450e-01	5.2587	0.221327	0.000000	0.002019	0.000684	-0.000017
 871	4.3500e-01	5.2025	0.221253	0.000000	0.001817	0.000616	-0.000015
 872	4.3550e-01	5.1512	0.220650	0.000001	0.014735	0.004993	-0.000121
 873	4.3600e-01	5.0870	0.220220	0.000001	0.010496	0.003556	-0.000086
 874	4.3650e-01	5.1015	0.220022	-0.000000	-0.004845	-0.001641	-0.000040
 875	4.3700e-01	5.0533	0.220377	-0.000001	-0.008680	-0.002941	0.000071
 876	4.3750e-01	5.0212	0.220071	0.000001	0.007469	0.002530	-0.000061
 877	4.3800e-01	5.0020	0.219534	0.000001	0.013121	0.004445	-0.000107
 878	4.3850e-01	4.9426	0.219253	0.000001	0.006863	0.002325	-0.000056
 879	4.3900e-01	4.8672	0.219187	0.000000	0.001615	0.000547	-0.000013
 880	4.3950e-01	4.8801	0.219038	-0.000000	-0.003633	-0.001231	-0.000030
 881	4.4000e-01	4.8207	0.218881	0.000000	0.003835	0.001299	-0.000031
 882	4.4050e-01	4.7854	0.218460	0.000001	0.010295	0.003488	-0.000084
 883	4.4100e-01	4.7325	0.218237	0.000001	0.005450	0.001847	-0.000045
 884	4.4150e-01	4.6860	0.217890	0.000001	0.008478	0.002872	-0.000069
 885	4.4200e-01	4.6603	0.217642	0.000001	0.006056	0.002052	-0.000050
 886	4.4250e-01	4.6186	0.217460	0.000000	0.004441	0.001505	-0.000036
 887	4.4300e-01	4.5865	0.217254	0.000001	0.005046	0.001710	-0.000041
 888	4.4350e-01	4.5432	0.217039	0.000001	0.005248	0.001778	-0.000043
 889	4.4400e-01	4.4999	0.216857	0.000000	0.004441	0.001505	-0.000036
 890	4.4450e-01	4.4758	0.216634	0.000001	0.005450	0.001847	-0.000045
 891	4.4500e-01	4.4036	0.216576	0.000000	0.001413	0.000479	-0.000012
 892	4.4550e-01	4.3812	0.216386	0.000000	0.004643	0.001573	-0.000038
 893	4.4600e-01	4.3282	0.216072	0.000001	0.007671	0.002599	-0.000063
 894	4.4650e-01	4.2913	0.215865	0.000001	0.005046	0.001710	-0.000041
 895	4.4700e-01	4.2416	0.215527	0.000001	0.008276	0.002804	-0.000068
 896	4.4750e-01	4.1951	0.215419	0.000000	0.002624	0.000889	-0.000021
 897	4.4800e-01	4.1694	0.215064	0.000001	0.008680	0.002941	-0.000071
 898	4.4850e-01	4.1213	0.214841	0.000001	0.005450	0.001847	-0.000045
 899	4.4900e-01	4.1116	0.214659	0.000000	0.004441	0.001505	-0.000036
 900	4.4950e-01	4.0748	0.214519	0.000000	0.003432	0.001163	-0.000028
 901	4.5000e-01	3.9897	0.214296	0.000001	0.005450	0.001847	-0.000045
 902	4.5050e-01	3.9641	0.214048	0.000001	0.006056	0.002052	-0.000050
 903	4.5100e-01	3.9368	0.213866	0.000000	0.004441	0.001505	-0.000036
 904	4.5150e-01	3.8871	0.213899	-0.000000	-0.000807	-0.000274	0.000007
 905	4.5200e-01	3.8566	0.213701	0.000000	0.004845	0.001641	-0.000040
 906	4.5250e-01	3.8453	0.213403	0.000001	0.007267	0.002462	-0.000059
 907	4.5300e-01	3.7635	0.213246	0.000000	0.003835	0.001299	-0.000031
 908	4.5350e-01	3.7571	0.213007	0.000001	0.005854	0.001983	-0.000048
 909	4.5400e-01	3.6881	0.212866	0.000000	0.003432	0.001163	-0.000028
 910	4.5450e-01	3.6641	0.212577	0.000001	0.007065	0.002394	-0.000058
 911	4.5500e-01	3.6288	0.212222	0.000001	0.008680	0.002941	-0.000071
 912	4.5550e-01	3.5967	0.211999	0.000001	0.005450	0.001847	-0.000045
 913	4.5600e-01	3.5678	0.211610	0.000001	0.009487	0.003214	-0.000078
 914	4.5650e-01	3.5052	0.211470	0.000000	0.003432	0.001163	-0.000028
 915	4.5700e-01	3.4315	0.211222	0.000001	0.006056	0.002052	-0.000050
 916	4.5750e-01	3.4459	0.210949	-0.000001	-0.006661	-0.002257	-0.000055
 917	4.5800e-01	3.3865	0.210842	0.000000	0.002624	0.000889	-0.000021
 918	4.5850e-01	3.3384	0.210528	0.000001	0.007671	0.002599	-0.000063
 919	4.5900e-01	3.2903	0.210396	0.000000	0.003230	0.001094	-0.000026
 920	4.5950e-01	3.2502	0.210222	0.000000	0.004239	0.001436	-0.000035
 921	4.6000e-01	3.2229	0.210032	0.000000	0.004643	0.001573	-0.000038
 922	4.6050e-01	3.1668	0.209908	0.000000	0.003028	0.001026	-0.000025
 923	4.6100e-01	3.1459	0.209578	0.000001	0.008074	0.002736	-0.000066
 924	4.6150e-01	3.0962	0.209412	0.000000	0.004037	0.001368	-0.000033
 925	4.6200e-01	3.0320	0.209181	0.000001	0.005652	0.001915	-0.000046
 926	4.6250e-01	3.0111	0.208388	0.000002	0.019378	0.006565	-0.000159
 927	4.6300e-01	2.9646	0.207851	0.000001	0.013121	0.004445	-0.000107
 928	4.6350e-01	2.9261	0.207223	0.000002	0.015341	0.005198	-0.000126
 929	4.6400e-01	2.8988	0.207231	-0.000000	-0.000202	-0.000068	0.000002
 930	4.6450e-01	2.8443	0.207322	-0.000000	-0.002220	-0.000752	0.000018
 931	4.6500e-01	2.7962	0.207380	-0.000000	-0.001413	-0.000479	0.000012
 932	4.6550e-01	2.7833	0.207305	0.000000	0.001817	0.000616	-0.000015
 933	4.6600e-01	2.7304	0.207347	-0.000000	-0.001009	-0.000342	0.000008
 934	4.6650e-01	2.7031	0.207347	-0.000000	-0.000000	-0.000000	0.000000
 935	4.6700e-01	2.6598	0.207124	0.000001	0.005450	0.001847	-0.000045
 936	4.6750e-01	2.5780	0.207099	0.000000	0.000606	0.000205	-0.000005
 937	4.6800e-01	2.5780	0.206793	0.000001	0.007469	0.002530	-0.000061
 938	4.6850e-01	2.5299	0.206074	0.000002	0.017561	0.005950	-0.000144
 939	4.6900e-01	2.4994	0.205339	0.000002	0.017965	0.006087	-0.000147
 940	4.6950e-01	2.4769	0.205116	0.000001	0.005450	0.001847	-0.000045
 941	4.7000e-01	2.3903	0.205364	-0.000001	-0.006056	-0.002052	0.000050
 942	4.7050e-01	2.3807	0.205669	-0.000001	-0.007469	-0.002530	0.000061
 943	4.7100e-01	2.3101	0.205802	-0.000000	-0.003230	-0.001094	0.000026
 944	4.7150e-01	2.3021	0.205967	-0.000000	-0.004037	-0.001368	0.000033
 945	4.7200e-01	2.2539	0.205025	0.000002	0.023012	0.007797	-0.000188
 946	4.7250e-01	2.2122	0.204273	0.000002	0.018369	0.006224	-0.000150
 947	4.7300e-01	2.2058	0.204050	0.000001	0.005450	0.001847	-0.000045
 948	4.7350e-01	2.1400	0.203835	0.000001	0.005248	0.001778	-0.000043
 949	4.7400e-01	2.0727	0.203769	0.000000	0.001615	0.000547	-0.000013
 950	4.7450e-01	2.0278	0.203422	0.000001	0.008478	0.002872	-0.000069
 951	4.7500e-01	2.0181	0.202860	0.000001	0.013726	0.004651	-0.000112
 952	4.7550e-01	1.9556	0.202612	0.000001	0.006056	0.002052	-0.000050
 953	4.7600e-01	1.9267	0.202777	-0.000000	-0.004037	-0.001368	0.000033
 954	4.7650e-01	1.8770	0.203149	-0.000001	-0.009084	-0.003078	0.000074
 955	4.7700e-01	1.8721	0.203108	0.000000	0.001009	0.000342	-0.000008
 956	4.7750e-01	1.7823	0.202604	0.000001	0.012313	0.004172	-0.000101
 957	4.7800e-01	1.7759	0.202298	0.000001	0.007469	0.002530	-0.000061
 958	4.7850e-01	1.7326	0.202092	0.000001	0.005046	0.001710	-0.000041
 959	4.7900e-01	1.7005	0.201769	0.000001	0.007872	0.002667	-0.000064
 960	4.7950e-01	1.6347	0.201290	0.000001	0.011708	0.003967	-0.000096
 961	4.8000e-01	1.6074	0.201150	0.000000	0.003432	0.001163	-0.000028
 962	4.8050e-01	1.5738	0.201051	0.000000	0.002422	0.000821	-0.000020
 963	4.8100e-01	1.5272	0.200935	0.000000	0.002826	0.000957	-0.000023
 964	4.8150e-01	1.4967	0.200480	0.000001	0.011102	0.003761	-0.000091
 965	4.8200e-01	1.4550	0.200059	0.000001	0.010295	0.003488	-0.000084
 966	4.8250e-01	1.4230	0.199993	0.000000	0.001615	0.000547	-0.000013
 967	4.8300e-01	1.3668	0.199985	0.000000	0.000202	0.000068	-0.000002
 968	4.8350e-01	1.3299	0.199877	0.000000	0.002624	0.000889	-0.000021
 969	4.8400e-01	1.3171	0.199472	0.000001	0.009891	0.003351	-0.000081
 970	4.8450e-01	1.2337	0.199109	0.000001	0.008882	0.003009	-0.000073
 971	4.8500e-01	1.2144	0.199101	0.000000	0.000202	0.000068	-0.000002
 972	4.8550e-01	1.1807	0.198935	0.000000	0.004037	0.001368	-0.000033
 973	4.8600e-01	1.1198	0.198572	0.000001	0.008882	0.003009	-0.000073
 974	4.8650e-01	1.0893	0.198266	0.000001	0.007469	0.002530	-0.000061
 975	4.8700e-01	1.0476	0.197993	0.000001	0.006661	0.002257	-0.000055
 976	4.8750e-01	0.9802	0.197845	0.000000	0.003633	0.001231	-0.000030
 977	4.8800e-01	0.9914	0.197655	-0.000000	-0.004643	-0.001573	-0.000038
 978	4.8850e-01	0.9545	0.197283	0.000001	0.009084	0.003078	-0.000074
 979	4.8900e-01	0.8936	0.196994	0.000001	0.007065	0.002394	-0.000058
 980	4.8950e-01	0.8262	0.196977	0.000000	0.000404	0.000137	-0.000003
 981	4.9000e-01	0.8262	0.196771	0.000001	0.005046	0.001710	-0.000041
 982	4.9050e-01	0.7492	0.196423	0.000001	0.008478	0.002872	-0.000069
 983	4.9100e-01	0.7331	0.196109	0.000001	0.007671	0.002599	-0.000063
 984	4.9150e-01	0.6818	0.196126	-0.000000	-0.000404	-0.000137	0.000003
 985	4.9200e-01	0.6417	0.195862	0.000001	0.006459	0.002188	-0.000053
 986	4.9250e-01	0.6096	0.195605	0.000001	0.006258	0.002120	-0.000051
 987	4.9300e-01	0.5535	0.195316	0.000001	0.007065	0.002394	-0.000058
 988	4.9350e-01	0.5486	0.195093	0.000001	0.005450	0.001847	-0.000045
 989	4.9400e-01	0.5134	0.194920	0.000000	0.004239	0.001436	-0.000035
 990	4.9450e-01	0.4524	0.194672	0.000001	0.006056	0.002052	-0.000050
 991	4.9500e-01	0.4412	0.194283	0.000001	0.009487	0.003214	-0.000078
 992	4.9550e-01	0.3738	0.194052	0.000001	0.005652	0.001915	-0.000046
 993	4.9600e-01	0.3048	0.194110	-0.000000	-0.001413	-0.000479	0.000012
 994	4.9650e-01	0.2839	0.193879	0.000001	0.005652	0.001915	-0.000046
 995	4.9700e-01	0.2230	0.193614	0.000001	0.006459	0.002188	-0.000053
 996	4.9750e-01	0.2262	0.193457	-0.000000	-0.003835	-0.001299	-0.000031
 997	4.9800e-01	0.1797	0.193308	0.000000	0.003633	0.001231	-0.000030
 998	4.9850e-01	0.1171	0.193267	0.000000	0.001009	0.000342	-0.000008
 999	4.9900e-01	0.1027	0.192953	0.000001	0.007671	0.002599	-0.000063
1000	4.9950e-01	0.0401	0.192614	0.000001	0.008276	0.002804	-0.000068
1001	5.0000e-01	0.0578	0.192590	-0.000000	-0.000606	-0.000205	-0.000005
1002	5.0050e-01	-0.0561	0.192391	0.000000	0.004845	0.001641	-0.000040
1003	5.0100e-01	-0.0658	0.192127	0.000001	0.006459	0.002188	-0.000053
1004	5.0150e-01	-0.1075	0.191862	0.000001	0.006459	0.002188	-0.000053
1005	5.0200e-01	-0.1508	0.191722	0.000000	0.003432	0.001163	-0.000028
1006	5.0250e-01	-0.1941	0.191425	0.000001	0.007267	0.002462	-0.000059
1007	5.0300e-01	-0.1957	0.191177	0.000001	0.006056	0.002052	-0.000050
1008	5.0350e-01	-0.2695	0.190879	0.000001	0.007267	0.002462	-0.000059
1009	5.0400e-01	-0.3241	0.190821	0.000000	0.001413	0.000479	-0.000012
1010	5.0450e-01	-0.3369	0.190788	0.000000	0.000807	0.000274	-0.000007
1011	5.0500e-01	-0.3850	0.190532	0.000001	0.006258	0.002120	-0.000051
1012	5.0550e-01	-0.4091	0.190218	0.000001	0.007671	0.002599	-0.000063
1013	5.0600e-01	-0.4476	0.189970	0.000001	0.006056	0.002052	-0.000050
1014	5.0650e-01	-0.4813	0.189351	0.000002	0.015139	0.005129	-0.000124
1015	5.0700e-01	-0.5727	0.188913	0.000001	0.010698	0.003625	-0.000088
1016	5.0750e-01	-0.5519	0.188400	-0.000001	-0.012515	-0.004240	-0.000102
1017	5.0800e-01	-0.6192	0.188417	-0.000000	-0.000404	-0.000137	0.000003
1018	5.0850e-01	-0.6690	0.188714	-0.000001	-0.007267	-0.002462	0.000059
1019	5.0900e-01	-0.6754	0.188747	-0.000000	-0.000807	-0.000274	0.000007
1020	5.0950e-01	-0.7444	0.188632	0.000000	0.002826	0.000957	-0.000023
1021	5.1000e-01	-0.7764	0.188640	-0.000000	-0.000202	-0.000068	0.000002
1022	5.1050e-01	-0.8037	0.188524	0.000000	0.002826	0.000957	-0.000023
1023	5.1100e-01	-0.8791	0.188524	-0.000000	-0.000000	-0.000000	0.000000
1024	5.1150e-01	-0.9176	0.188318	0.000001	0.005046	0.001710	-0.000041
1025	5.1200e-01	-0.9272	0.187996	0.000001	0.007872	0.002667	-0.000064
1026	5.1250e-01	-0.9802	0.187227	0.000002	0.018773	0.006360	-0.000154
1027	5.1300e-01	-1.0363	0.186880	0.000001	0.008478	0.002872	-0.000069
1028	5.1350e-01	-1.1021	0.186822	0.000000	0.001413	0.000479	-0.000012
1029	5.1400e-01	-1.1005	0.187095	0.000001	0.006661	0.002257	0.000055
1030	5.1450e-01	-1.1518	0.187260	-0.000000	-0.004037	-0.001368	0.000033
1031	5.1500e-01	-1.1952	0.187062	0.000000	0.004845	0.001641	-0.000040
1032	5.1550e-01	-1.2433	0.186632	0.000001	0.010496	0.003556	-0.000086
1033	5.1600e-01	-1.2978	0.185806	0.000002	0.020186	0.006839	-0.000165
1034	5.1650e-01	-1.3123	0.185137	0.000002	0.016350	0.005540	-0.000134
1035	5.1700e-01	-1.3299	0.184955	0.000000	0.004441	0.001505	-0.000036
1036	5.1750e-01	-1.3812	0.184781	0.000000	0.004239	0.001436	-0.000035
1037	5.1800e-01	-1.4358	0.184666	0.000000	0.002826	0.000957	-0.000023
1038	5.1850e-01	-1.4647	0.184294	0.000001	0.009084	0.003078	-0.000074
1039	5.1900e-01	-1.5208	0.183897	0.000001	0.009689	0.003283	-0.000079
1040	5.1950e-01	-1.5705	0.184112	-0.000001	-0.005248	-0.001778	0.000043
1041	5.2000e-01	-1.5561	0.184286	0.000000	0.004239	0.001436	0.000035
1042	5.2050e-01	-1.6187	0.184459	-0.000000	-0.004239	-0.001436	0.000035
1043	5.2100e-01	-1.6700	0.184005	0.000001	0.011102	0.003761	-0.000091
1044	5.2150e-01	-1.7005	0.183526	0.000001	0.011708	0.003967	-0.000096
1045	5.2200e-01	-1.7550	0.183278	0.000001	0.006056	0.002052	-0.000050
1046	5.2250e-01	-1.7967	0.183220	0.000000	0.001413	0.000479	-0.000012
1047	5.2300e-01	-1.7999	0.183187	0.000000	0.000807	0.000274	-0.000007
1048	5.2350e-01	-1.8465	0.182906	0.000001	0.006863	0.002325	-0.000056
1049	5.2400e-01	-1.9026	0.182476	0.000001	0.010496	0.003556	-0.000086
1050	5.2450e-01	-1.9106	0.182220	0.000001	0.006258	0.002120	-0.000051
1051	5.2500e-01	-1.9892	0.181997	0.000001	0.005450	0.001847	-0.000045
1052	5.2550e-01	-2.0117	0.181666	0.000001	0.008074	0.002736	-0.000066
1053	5.2600e-01	-2.0743	0.181402	0.000001	0.006459	0.002188	-0.000053
1054	5.2650e-01	-2.0935	0.181328	0.000000	0.001817	0.000616	-0.000015
1055	5.2700e-01	-2.1529	0.181105	0.000001	0.005450	0.001847	-0.000045
1056	5.2750e-01	-2.1930	0.180931	0.000000	0.004239	0.001436	-0.000035
1057	5.2800e-01	-2.2331	0.180634	0.000001	0.007267	0.002462	-0.000059
1058	5.2850e-01	-2.2363	0.180501	0.000000	0.003230	0.001094	-0.000026
1059	5.2900e-01	-2.3245	0.180567	-0.000000	-0.001615	-0.000547	0.000013
1060	5.2950e-01	-2.3470	0.180270	0.000001	0.007267	0.002462	-0.000059
1061	5.3000e-01	-2.3807	0.179840	0.000001	0.010496	0.003556	-0.000086
1062	5.3050e-01	-2.4224	0.179559	0.000001	0.006863	0.002325	-0.000056
1063	5.3100e-01	-2.4368	0.179493	0.000000	0.001615	0.000547	-0.000013
1064	5.3150e-01	-2.5058	0.179204	0.000001	0.007065	0.002394	-0.000058
1065	5.3200e-01	-2.5379	0.178849	0.000001	0.008680	0.002941	-0.000071
1066	5.3250e-01	-2.5956	0.178370	0.000001	0.011708	0.003967	-0.000096
1067	5.3300e-01	-2.6245	0.178196	0.000000	0.004239	0.001436	-0.000035
1068	5.3350e-01	-2.6791	0.178113	0.000000	0.002019	0.000684	-0.000017
1069	5.3400e-01	-2.7095	0.177841	0.000001	0.006661	0.002257	-0.000055
1070	5.3450e-01	-2.7400	0.177378	0.000001	0.011304	0.003830	-0.000093
1071	5.3500e-01	-2.7833	0.177337	0.000000	0.001009	0.000342	-0.000008
1072	5.3550e-01	-2.8555	0.177188	0.000000	0.003633	0.001231	-0.000030
1073	5.3600e-01	-2.8684	0.176965	0.000001	0.005450	0.001847	-0.000045
1074	5.3650e-01	-2.8940	0.176601	0.000001	0.008882	0.003009	-0.000073
1075	5.3700e-01	-2.9422	0.176444	0.000000	0.003835	0.001299	-0.000031
1076	5.3750e-01	-2.9871	0.176337	0.000000	0.002624	0.000889	-0.000021
1077	5.3800e-01	-3.0352	0.175965	0.000001	0.009084	0.003078	-0.000074
1078	5.3850e-01	-3.0625	0.175668	0.000001	0.007267	0.002462	-0.000059
1079	5.3900e-01	-3.0994	0.175362	0.000001	0.007469	0.002530	-0.000061
1080	5.3950e-01	-3.1315	0.175172	0.000000	0.004643	0.001573	-0.000038
1081	5.4000e-01	-3.1828	0.174924	0.000001	0.006056	0.002052	-0.000050
1082	5.4050e-01	-3.1892	0.174486	0.000001	0.010698	0.003625	-0.000088
1083	5.4100e-01	-3.2406	0.174172	0.000001	0.007671	0.002599	-0.000063
1084	5.4150e-01	-3.3143	0.174032	0.000000	0.003432	0.001163	-0.000028
1085	5.4200e-01	-3.3593	0.174040	-0.000000	-0.000202	-0.000068	0.000002
1086	5.4250e-01	-3.4010	0.173693	0.000001	0.008478	0.002872	-0.000069
1087	5.4300e-01	-3.4282	0.173495	0.000000	0.004845	0.001641	-0.000040
1088	5.4350e-01	-3.4475	0.173362	0.000000	0.003230	0.001094	-0.000026
1089	5.4400e-01	-3.4988	0.173123	0.000001	0.005854	0.001983	-0.000048
1090	5.4450e-01	-3.5277	0.172858	0.000001	0.006459	0.002188	-0.000053
1091	5.4500e-01	-3.5919	0.172412	0.000001	0.010900	0.003693	-0.000089
1092	5.4550e-01	-3.6127	0.172239	0.000000	0.004239	0.001436	-0.000035
1093	5.4600e-01	-3.6769	0.172040	0.000000	0.004845	0.001641	-0.000040
1094	5.4650e-01	-3.6945	0.171718	0.000001	0.007872	0.002667	-0.000064
1095	5.4700e-01	-3.7491	0.171346	0.000001	0.009084	0.003078	-0.000074
1096	5.4750e-01	-3.7796	0.171090	0.000001	0.006258	0.002120	-0.000051
1097	5.4800e-01	-3.7876	0.170917	0.000000	0.004239	0.001436	-0.000035
1098	5.4850e-01	-3.8742	0.170776	0.000000	0.003432	0.001163	-0.000028
1099	5.4900e-01	-3.8758	0.170396	0.000001	0.009285	0.003146	-0.000076
1100	5.4950e-01	-3.9801	0.170280	0.000000	0.002826	0.000957	-0.000023
1101	5.5000e-01	-3.9528	0.169843	-0.000001	-0.010698	-0.003625	-0.000088
1102	5.5050e-01	-4.0427	0.169231	0.000001	0.014937	0.005061	-0.000122
1103	5.5100e-01	-4.0731	0.168785	0.000001	0.010900	0.003693	-0.000089
1104	5.5150e-01	-4.1165	0.168248	0.000001	0.013121	0.004445	-0.000107
1105	5.5200e-01	-4.1405	0.168339	-0.000000	-0.002220	-0.000752	0.000018
1106	5.5250e-01	-4.1710	0.168628	-0.000001	-0.007065	-0.002394	0.000058
1107	5.5300e-01	-4.2207	0.168636	-0.000000	-0.000202	-0.000068	0.000002
1108	5.5350e-01	-4.2576	0.168504	0.000000	0.003230	0.001094	-0.000026
1109	5.5400e-01	-4.2977	0.168446	0.000000	0.001413	0.000479	-0.000012
1110	5.5450e-01	-4.3411	0.168355	0.000000	0.002220	0.000752	-0.000018
1111	5.5500e-01	-4.4004	0.168281	0.000000	0.001817	0.000616	-0.000015
1112	5.5550e-01	-4.3908	0.167942	-0.000001	-0.008276	-0.002804	-0.000068
1113	5.5600e-01	-4.4886	0.167719	0.000001	0.005450	0.001847	-0.000045
1114	5.5650e-01	-4.5304	0.167339	0.000001	0.009285	0.003146	-0.000076
1115	5.5700e-01	-4.5576	0.166893	0.000001	0.010900	0.003693	-0.000089
1116	5.5750e-01	-4.5801	0.166752	0.000000	0.003432	0.001163	-0.000028
1117	5.5800e-01	-4.6378	0.166827	-0.000000	-0.001817	-0.000616	0.000015
1118	5.5850e-01	-4.6651	0.166579	0.000001	0.006056	0.002052	-0.000050
1119	5.5900e-01	-4.7197	0.166331	0.000001	0.006056	0.002052	-0.000050
1120	5.5950e-01	-4.7485	0.165934	0.000001	0.009689	0.003283	-0.000079
1121	5.6000e-01	-4.7710	0.165290	0.000002	0.015745	0.005334	-0.000129
1122	5.6050e-01	-4.8191	0.164488	0.000002	0.019580	0.006634	-0.000160
1123	5.6100e-01	-4.8881	0.164216	0.000001	0.006661	0.002257	-0.000055
1124	5.6150e-01	-4.8993	0.164199	0.000000	0.000404	0.000137	-0.000003
1125	5.6200e-01	-4.9410	0.164174	0.000000	0.000606	0.000205	-0.000005
1126	5.6250e-01	-4.9747	0.164100	0.000000	0.001817	0.000616	-0.000015
1127	5.6300e-01	-5.0245	0.163819	0.000001	0.006863	0.002325	-0.000056
1128	5.6350e-01	-5.0742	0.163712	0.000000	0.002624	0.000889	-0.000021
1129	5.6400e-01	-5.1143	0.163662	0.000000	0.001211	0.000410	-0.000010
1130	5.6450e-01	-5.1319	0.163480	0.000000	0.004441	0.001505	-0.000036
1131	5.6500e-01	-5.1849	0.162885	0.000001	0.014534	0.004924	-0.000119
1132	5.6550e-01	-5.2378	0.162514	0.000001	0.009084	0.003078	-0.000074
1133	5.6600e-01	-5.2426	0.162580	-0.000000	-0.001615	-0.000547	0.000013
1134	5.6650e-01	-5.2908	0.162704	-0.000000	-0.003028	-0.001026	0.000025
1135	5.6700e-01	-5.3485	0.162538	0.000000	0.004037	0.001368	-0.000033
1136	5.6750e-01	-5.3774	0.161960	0.000001	0.014130	0.004787	-0.000116
1137	5.6800e-01	-5.4111	0.161489	0.000001	0.011506	0.003898	-0.000094
1138	5.6850e-01	-5.4608	0.161291	0.000000	0.004845	0.001641	-0.000040
1139	5.6900e-01	-5.5105	0.161332	-0.000000	-0.001009	-0.000342	0.000008
1140	5.6950e-01	-5.5202	0.160935	0.000001	0.009689	0.003283	-0.000079
1141	5.7000e-01	-5.5843	0.160341	0.000001	0.014534	0.004924	-0.000119
1142	5.7050e-01	-5.6084	0.160043	0.000001	0.007267	0.002462	-0.000059
1143	5.7100e-01	-5.6629	0.159911	0.000000	0.003230	0.001094	-0.000026
1144	5.7150e-01	-5.7063	0.159812	0.000000	0.002422	0.000821	-0.000020
1145	5.7200e-01	-5.7560	0.159423	0.000001	0.009487	0.003214	-0.000078
1146	5.7250e-01	-5.8041	0.159250	0.000000	0.004239	0.001436	-0.000035
1147	5.7300e-01	-5.8378	0.159076	0.000000	0.004239	0.001436	-0.000035
1148	5.7350e-01	-5.8907	0.158969	0.000000	0.002624	0.000889	-0.000021
1149	5.7400e-01	-5.9341	0.158638	0.000001	0.008074	0.002736	-0.000066
1150	5.7450e-01	-5.9533	0.158242	0.000001	0.009689	0.003283	-0.000079
1151	5.7500e-01	-5.9661	0.158027	0.000001	0.005248	0.001778	-0.000043
1152	5.7550e-01	-6.0335	0.157730	0.000001	0.007267	0.002462	-0.000059
1153	5.7600e-01	-6.0672	0.157424	0.000001	0.007469	0.002530	-0.000061
1154	5.7650e-01	-6.1153	0.156969	0.000001	0.011102	0.003761	-0.000091
1155	5.7700e-01	-6.1538	0.156573	0.000001	0.009689	0.003283	-0.000079
1156	5.7750e-01	-6.1843	0.156259	0.000001	0.007671	0.002599	-0.000063
1157	5.7800e-01	-6.2421	0.155978	0.000001	0.006863	0.002325	-0.000056
1158	5.7850e-01	-6.2517	0.155581	0.000001	0.009689	0.003283	-0.000079
1159	5.7900e-01	-6.2966	0.155284	0.000001	0.007267	0.002462	-0.000059
1160	5.7950e-01	-6.3463	0.155102	0.000000	0.004441	0.001505	-0.000036
1161	5.8000e-01	-6.3945	0.154879	0.000001	0.005450	0.001847	-0.000045
1162	5.8050e-01	-6.4153	0.154425	0.000001	0.011102	0.003761	-0.000091
1163	5.8100e-01	-6.4266	0.154243	0.000000	0.004441	0.001505	-0.000036
1164	5.8150e-01	-6.5164	0.153954	0.000001	0.007065	0.002394	-0.000058
1165	5.8200e-01	-6.5613	0.153788	0.000000	0.004037	0.001368	-0.000033
1166	5.8250e-01	-6.5790	0.153458	0.000001	0.008074	0.002736	-0.000066
1167	5.8300e-01	-6.6303	0.153012	0.000001	0.010900	0.003693	-0.000089
1168	5.8350e-01	-6.6560	0.152789	0.000001	0.005450	0.001847	-0.000045
1169	5.8400e-01	-6.6880	0.152524	0.000001	0.006459	0.002188	-0.000053
1170	5.8450e-01	-6.7442	0.152103	0.000001	0.010295	0.003488	-0.000084
1171	5.8500e-01	-6.7699	0.151690	0.000001	0.010093	0.003420	-0.000083
1172	5.8550e-01	-6.8292	0.151392	0.000001	0.007267	0.002462	-0.000059
1173	5.8600e-01	-6.8709	0.151144	0.000001	0.006056	0.002052	-0.000050
1174	5.8650e-01	-6.8966	0.150929	0.000001	0.005248	0.001778	-0.000043
1175	5.8700e-01	-6.9624	0.150549	0.000001	0.009285	0.003146	-0.000076
1176	5.8750e-01	-6.9816	0.150178	0.000001	0.009084	0.003078	-0.000074
1177	5.8800e-01	-6.9993	0.149946	0.000001	0.005652	0.001915	-0.000046
1178	5.8850e-01	-7.0907	0.149624	0.000001	0.007872	0.002667	-0.000064
1179	5.8900e-01	-7.1276	0.149269	0.000001	0.008680	0.002941	-0.000071
1180	5.8950e-01	-7.1469	0.148897	0.000001	0.009084	0.003078	-0.000074
1181	5.9000e-01	-7.1725	0.148632	0.000001	0.006459	0.002188	-0.000053
1182	5.9050e-01	-7.2335	0.148401	0.000001	0.005652	0.001915	-0.000046
1183	5.9100e-01	-7.2479	0.148013	0.000001	0.009487	0.003214	-0.000078
1184	5.9150e-01	-7.2928	0.147773	0.000001	0.005854	0.001983	-0.000048
1185	5.9200e-01	-7.3362	0.147385	0.000001	0.009487	0.003214	-0.000078
1186	5.9250e-01	-7.3987	0.147145	0.000001	0.005854	0.001983	-0.000048
1187	5.9300e-01	-7.4148	0.146707	0.000001	0.010698	0.003625	-0.000088
1188	5.9350e-01	-7.4003	0.146319	-0.000001	-0.009487	-0.003214	-0.000078
1189	5.9400e-01	-7.5190	0.145674	0.000002	0.015745	0.005334	-0.000129
1190	5.9450e-01	-7.5640	0.145046	0.000002	0.015341	0.005198	-0.000126
1191	5.9500e-01	-7.5704	0.144526	0.000001	0.012717	0.004309	-0.000104
1192	5.9550e-01	-7.6426	0.144195	0.000001	0.008074	0.002736	-0.000066
1193	5.9600e-01	-7.6955	0.144212	-0.000000	-0.000404	-0.000137	0.000003
1194	5.9650e-01	-7.7115	0.144476	-0.000001	-0.006459	-0.002188	0.000053
1195	5.9700e-01	-7.7468	0.144509	-0.000000	-0.000807	-0.000274	0.000007
1196	5.9750e-01	-7.7966	0.144344	0.000000	0.004037	0.001368	-0.000033
1197	5.9800e-01	-7.8158	0.144245	0.000000	0.002422	0.000821	-0.000020
1198	5.9850e-01	-7.8575	0.144055	0.000000	0.004643	0.001573	-0.000038
1199	5.9900e-01	-7.9008	0.143898	0.000000	0.003835	0.001299	-0.000031
1200	5.9950e-01	-7.9426	0.143914	-0.000000	-0.000404	-0.000137	0.000003
1201	6.0000e-01	-7.9682	0.143650	0.000001	0.006459	0.002188	-0.000053
1202	6.0050e-01	-8.0500	0.143163	0.000001	0.011909	0.004035	-0.000097
1203	6.0100e-01	-8.0500	0.142485	0.000002	0.016552	0.005608	-0.000136
1204	6.0150e-01	-8.0901	0.141907	0.000001	0.014130	0.004787	-0.000116
1205	6.0200e-01	-8.0998	0.141692	0.000001	0.005248	0.001778	-0.000043
1206	6.0250e-01	-8.1832	0.141444	0.000001	0.006056	0.002052	-0.000050
1207	6.0300e-01	-8.2425	0.141469	-0.000000	-0.000606	-0.000205	0.000005
1208	6.0350e-01	-8.2265	0.140841	-0.000002	-0.015341	-0.005198	-0.000126
1209	6.0400e-01	-8.3099	0.140089	0.000002	0.018369	0.006224	-0.000150
1210	6.0450e-01	-8.3677	0.139535	0.000001	0.013524	0.004582	-0.000111
1211	6.0500e-01	-8.3821	0.139411	0.000000	0.003028	0.001026	-0.000025
1212	6.0550e-01	-8.4190	0.139527	-0.000000	-0.002826	-0.000957	0.000023
1213	6.0600e-01	-8.4495	0.139519	0.000000	0.000202	0.000068	-0.000002
1214	6.0650e-01	-8.5089	0.139246	0.000001	0.006661	0.002257	-0.000055
1215	6.0700e-01	-8.5249	0.138577	0.000002	0.016350	0.005540	-0.000134
1216	6.0750e-01	-8.6099	0.138188	0.000001	0.009487	0.003214	-0.000078
1217	6.0800e-01	-8.6292	0.137949	0.000001	0.005854	0.001983	-0.000048
1218	6.0850e-01	-8.6709	0.137643	0.000001	0.007469	0.002530	-0.000061
1219	6.0900e-01	-8.7222	0.137428	0.000001	0.005248	0.001778	-0.000043
1220	6.0950e-01	-8.7543	0.137123	0.000001	0.007469	0.002530	-0.000061
1221	6.1000e-01	-8.8153	0.136949	0.000000	0.004239	0.001436	-0.000035
1222	6.1050e-01	-8.8393	0.136652	0.000001	0.007267	0.002462	-0.000059
1223	6.1100e-01	-8.8778	0.136288	0.000001	0.008882	0.003009	-0.000073
1224	6.1150e-01	-8.9163	0.135842	0.000001	0.010900	0.003693	-0.000089
1225	6.1200e-01	-8.9564	0.135495	0.000001	0.008478	0.002872	-0.000069
1226	6.1250e-01	-9.0030	0.135437	0.000000	0.001413	0.000479	-0.000012
1227	6.1300e-01	-9.0334	0.135073	0.000001	0.008882	0.003009	-0.000073
1228	6.1350e-01	-9.0334	0.134569	0.000001	0.012313	0.004172	-0.000101
1229	6.1400e-01	-9.0864	0.133958	0.000001	0.014937	0.005061	-0.000122
1230	6.1450e-01	-9.1265	0.133884	0.000000	0.001817	0.000616	-0.000015
1231	6.1500e-01	-9.1746	0.133735	0.000000	0.003633	0.001231	-0.000030
1232	6.1550e-01	-9.2292	0.133313	0.000001	0.010295	0.003488	-0.000084
1233	6.1600e-01	-9.2981	0.132628	0.000002	0.016754	0.005676	-0.000137
1234	6.1650e-01	-9.3334	0.132421	0.000001	0.005046	0.001710	-0.000041
1235	6.1700e-01	-9.3527	0.132454	-0.000000	-0.000807	-0.000274	0.000007
1236	6.1750e-01	-9.4072	0.132165	0.000001	0.007065	0.002394	-0.000058
1237	6.1800e-01	-9.4409	0.131636	0.000001	0.012919	0.004377	-0.000106
1238	6.1850e-01	-9.4810	0.131388	0.000001	0.006056	0.002052	-0.000050
1239	6.1900e-01	-9.4922	0.131380	0.000000	0.000202	0.000068	-0.000002
1240	6.1950e-01	-9.5676	0.130983	0.000001	0.009689	0.003283	-0.000079
1241	6.2000e-01	-9.5997	0.130620	0.000001	0.008882	0.003009	-0.000073
1242	6.2050e-01	-9.6607	0.130124	0.000001	0.012111	0.004103	-0.000099
1243	6.2100e-01	-9.6591	0.129851	-0.000001	-0.006661	-0.002257	-0.000055
1244	6.2150e-01	-9.7200	0.129727	0.000000	0.003028	0.001026	-0.000025
1245	6.2200e-01	-9.7553	0.129166	0.000001	0.013726	0.004651	-0.000112
1246	6.2250e-01	-9.7553	0.128604	0.000001	0.013726	0.004651	-0.000112
1247	6.2300e-01	-9.8115	0.128372	0.000001	0.005652	0.001915	-0.000046
1248	6.2350e-01	-9.8500	0.128199	0.000000	0.004239	0.001436	-0.000035
1249	6.2400e-01	-9.9061	0.127877	0.000001	0.007872	0.002667	-0.000064
1250	6.2450e-01	-9.9446	0.127464	0.000001	0.010093	0.003420	-0.000083
1251	6.2500e-01	-10.0072	0.127232	0.000001	0.005652	0.001915	-0.000046
1252	6.2550e-01	-10.0377	0.127183	0.000000	0.001211	0.000410	-0.000010
1253	6.2600e-01	-10.0521	0.126877	0.000001	0.007469	0.002530	-0.000061
1254	6.2650e-01	-10.1083	0.126555	0.000001	0.007872	0.002667	-0.000064
1255	6.2700e-01	-10.1339	0.126249	0.000001	0.007469	0.002530	-0.000061
1256	6.2750e-01	-10.1692	0.126133	0.000000	0.002826	0.000957	-0.000023
1257	6.2800e-01	-10.2206	0.125786	0.000001	0.008478	0.002872	-0.000069
1258	6.2850e-01	-10.2462	0.125307	0.000001	0.011708	0.003967	-0.000096
1259	6.2900e-01	-10.3216	0.124943	0.000001	0.008882	0.003009	-0.000073
1260	6.2950e-01	-10.3377	0.124621	0.000001	0.007872	0.002667	-0.000064
1261	6.3000e-01	-10.3778	0.124340	0.000001	0.006863	0.002325	-0.000056
1262	6.3050e-01	-10.3906	0.123902	0.000001	0.010698	0.003625	-0.000088
1263	6.3100e-01	-10.4853	0.123324	0.000001	0.014130	0.004787	-0.000116
1264	6.3150e-01	-10.5045	0.123150	0.000000	0.004239	0.001436	-0.000035
1265	6.3200e-01	-10.5013	0.122960	-0.000000	-0.004643	-0.001573	-0.000038
1266	6.3250e-01	-10.6040	0.122564	0.000001	0.009689	0.003283	-0.000079
1267	6.3300e-01	-10.6168	0.122118	0.000001	0.010900	0.003693	-0.000089
1268	6.3350e-01	-10.6810	0.121977	0.000000	0.003432	0.001163	-0.000028
1269	6.3400e-01	-10.7018	0.121630	0.000001	0.008478	0.002872	-0.000069
1270	6.3450e-01	-10.7227	0.121283	0.000001	0.008478	0.002872	-0.000069
1271	6.3500e-01	-10.8045	0.120845	0.000001	0.010698	0.003625	-0.000088
1272	6.3550e-01	-10.8302	0.120498	0.000001	0.008478	0.002872	-0.000069
1273	6.3600e-01	-10.8639	0.120366	0.000000	0.003230	0.001094	-0.000026
1274	6.3650e-01	-10.8815	0.120052	0.000001	0.007671	0.002599	-0.000063
1275	6.3700e-01	-10.9665	0.119515	0.000001	0.013121	0.004445	-0.000107
1276	6.3750e-01	-11.0066	0.119209	0.000001	0.007469	0.002530	-0.000061
1277	6.3800e-01	-11.0339	0.118490	0.000002	0.017561	0.005950	-0.000144
1278	6.3850e-01	-11.0836	0.117928	0.000001	0.013726	0.004651	-0.000112
1279	6.3900e-01	-11.1221	0.117325	0.000001	0.014735	0.004993	-0.000121
1280	6.3950e-01	-11.1606	0.116879	0.000001	0.010900	0.003693	-0.000089
1281	6.4000e-01	-11.1815	0.117119	-0.000001	-0.005854	-0.001983	0.000048
1282	6.4050e-01	-11.2200	0.117218	-0.000000	-0.002422	-0.000821	0.000020
1283	6.4100e-01	-11.2842	0.117300	-0.000000	-0.002019	-0.000684	0.000017
1284	6.4150e-01	-11.3050	0.117193	0.000000	0.002624	0.000889	-0.000021
1285	6.4200e-01	-11.3419	0.117218	-0.000000	-0.000606	-0.000205	0.000005
1286	6.4250e-01	-11.3628	0.116970	0.000001	0.006056	0.002052	-0.000050
1287	6.4300e-01	-11.4318	0.116813	0.000000	0.003835	0.001299	-0.000031
1288	6.4350e-01	-11.4334	0.116375	0.000001	0.010698	0.003625	-0.000088
1289	6.4400e-01	-11.5296	0.115838	0.000001	0.013121	0.004445	-0.000107
1290	6.4450e-01	-11.5473	0.115293	0.000001	0.013322	0.004514	-0.000109
1291	6.4500e-01	-11.6002	0.114913	0.000001	0.009285	0.003146	-0.000076
1292	6.4550e-01	-11.6259	0.114937	-0.000000	-0.000606	-0.000205	0.000005
1293	6.4600e-01	-11.6676	0.115070	-0.000000	-0.003230	-0.001094	0.000026
1294	6.4650e-01	-11.7061	0.114888	0.000000	0.004441	0.001505	-0.000036
1295	6.4700e-01	-11.7703	0.114533	0.000001	0.008680	0.002941	-0.000071
1296	6.4750e-01	-11.7991	0.113863	0.000002	0.016350	0.005540	-0.000134
1297	6.4800e-01	-11.8360	0.113128	0.000002	0.017965	0.006087	-0.000147
1298	6.4850e-01	-11.8489	0.112624	0.000001	0.012313	0.004172	-0.000101
1299	6.4900e-01	-11.9194	0.112434	0.000000	0.004643	0.001573	-0.000038
1300	6.4950e-01	-11.9660	0.112186	0.000001	0.006056	0.002052	-0.000050
1301	6.5000e-01	-11.9836	0.111880	0.000001	0.007469	0.002530	-0.000061
1302	6.5050e-01	-12.0221	0.111417	0.000001	0.011304	0.003830	-0.000093
1303	6.5100e-01	-12.0943	0.111070	0.000001	0.008478	0.002872	-0.000069
1304	6.5150e-01	-12.1248	0.111178	-0.000000	-0.002624	-0.000889	0.000021
1305	6.5200e-01	-12.1697	0.111294	-0.000000	-0.002826	-0.000957	0.000023
1306	6.5250e-01	-12.1729	0.110930	0.000001	0.008882	0.003009	-0.000073
1307	6.5300e-01	-12.2275	0.110319	0.000001	0.014937	0.005061	-0.000122
1308	6.5350e-01	-12.2916	0.109715	0.000001	0.014735	0.004993	-0.000121
1309	6.5400e-01	-12.3221	0.109451	0.000001	0.006459	0.002188	-0.000053
1310	6.5450e-01	-12.3622	0.109658	-0.000001	-0.005046	-0.001710	0.000041
1311	6.5500e-01	-12.4071	0.109534	0.000000	0.003028	0.001026	-0.000025
1312	6.5550e-01	-12.4344	0.109071	0.000001	0.011304	0.003830	-0.000093
1313	6.5600e-01	-12.4713	0.108501	0.000001	0.013928	0.004719	-0.000114
1314	6.5650e-01	-12.4938	0.108302	0.000000	0.004845	0.001641	-0.000040
1315	6.5700e-01	-12.5499	0.108030	0.000001	0.006661	0.002257	-0.000055
1316	6.5750e-01	-12.6125	0.107807	0.000001	0.005450	0.001847	-0.000045
1317	6.5800e-01	-12.6173	0.107344	0.000001	0.011304	0.003830	-0.000093
1318	6.5850e-01	-12.6414	0.106939	0.000001	0.009891	0.003351	-0.000081
1319	6.5900e-01	-12.7007	0.106576	0.000001	0.008882	0.003009	-0.000073
1320	6.5950e-01	-12.7488	0.106162	0.000001	0.010093	0.003420	-0.000083
1321	6.6000e-01	-12.7745	0.105848	0.000001	0.007671	0.002599	-0.000063
1322	6.6050e-01	-12.8339	0.105551	0.000001	0.007267	0.002462	-0.000059
1323	6.6100e-01	-12.8387	0.105311	0.000001	0.005854	0.001983	-0.000048
1324	6.6150e-01	-12.8692	0.104997	0.000001	0.007671	0.002599	-0.000063
1325	6.6200e-01	-12.9510	0.104716	0.000001	0.006863	0.002325	-0.000056
1326	6.6250e-01	-12.9975	0.104584	0.000000	0.003230	0.001094	-0.000026
1327	6.6300e-01	-13.0087	0.104361	0.000001	0.005450	0.001847	-0.000045
1328	6.6350e-01	-13.0312	0.103948	0.000001	0.010093	0.003420	-0.000083
1329	6.6400e-01	-13.1162	0.103477	0.000001	0.011506	0.003898	-0.000094
1330	6.6450e-01	-13.1403	0.103196	0.000001	0.006863	0.002325	-0.000056
1331	6.6500e-01	-13.1868	0.102899	0.000001	0.007267	0.002462	-0.000059
1332	6.6550e-01	-13.2429	0.102659	0.000001	0.005854	0.001983	-0.000048
1333	6.6600e-01	-13.2654	0.102254	0.000001	0.009891	0.003351	-0.000081
1334	6.6650e-01	-13.3071	0.101775	0.000001	0.011708	0.003967	-0.000096
1335	6.6700e-01	-13.3520	0.101601	0.000000	0.004239	0.001436	-0.000035
1336	6.6750e-01	-13.3986	0.101263	0.000001	0.008276	0.002804	-0.000068
1337	6.6800e-01	-13.3969	0.100866	-0.000001	-0.009689	-0.003283	-0.000079
1338	6.6850e-01	-13.4836	0.100536	0.000001	0.008074	0.002736	-0.000066
1339	6.6900e-01	-13.5092	0.100337	0.000000	0.004845	0.001641	-0.000040
1340	6.6950e-01	-13.5445	0.100139	0.000000	0.004845	0.001641	-0.000040
1341	6.7000e-01	-13.5702	0.099899	0.000001	0.005854	0.001983	-0.000048
1342	6.7050e-01	-13.5862	0.099519	0.000001	0.009285	0.003146	-0.000076
1343	6.7100e-01	-13.6681	0.099346	0.000000	0.004239	0.001436	-0.000035
1344	6.7150e-01	-13.7419	0.099189	0.000000	0.003835	0.001299	-0.000031
1345	6.7200e-01	-13.7114	0.098718	-0.000001	-0.011506	-0.003898	-0.000094
1346	6.7250e-01	-13.7852	0.098363	0.000001	0.008680	0.002941	-0.000071
1347	6.7300e-01	-13.8445	0.098015	0.000001	0.008478	0.002872	-0.000069
1348	6.7350e-01	-13.8959	0.097726	0.000001	0.007065	0.002394	-0.000058
1349	6.7400e-01	-13.8814	0.097462	-0.000001	-0.006459	-0.002188	-0.000053
1350	6.7450e-01	-13.9536	0.097024	0.000001	0.010698	0.003625	-0.000088
1351	6.7500e-01	-14.0050	0.096586	0.000001	0.010698	0.003625	-0.000088
1352	6.7550e-01	-14.0322	0.096454	0.000000	0.003230	0.001094	-0.000026
1353	6.7600e-01	-14.0836	0.096032	0.000001	0.010295	0.003488	-0.000084
1354	6.7650e-01	-14.1108	0.095677	0.000001	0.008680	0.002941	-0.000071
1355	6.7700e-01	-14.1221	0.095495	0.000000	0.004441	0.001505	-0.000036
1356	6.7750e-01	-14.1878	0.095297	0.000000	0.004845	0.001641	-0.000040
1357	6.7800e-01	-14.2568	0.095041	0.000001	0.006258	0.002120	-0.000051
1358	6.7850e-01	-14.2392	0.094752	-0.000001	-0.007065	-0.002394	-0.000058
1359	6.7900e-01	-14.3114	0.094413	0.000001	0.008276	0.002804	-0.000068
1360	6.7950e-01	-14.3563	0.094231	0.000000	0.004441	0.001505	-0.000036
1361	6.8000e-01	-14.3884	0.094008	0.000001	0.005450	0.001847	-0.000045
1362	6.8050e-01	-14.3996	0.093446	0.000001	0.013726	0.004651	-0.000112
1363	6.8100e-01	-14.4734	0.093107	0.000001	0.008276	0.002804	-0.000068
1364	6.8150e-01	-14.4975	0.092620	0.000001	0.011909	0.004035	-0.000097
1365	6.8200e-01	-14.5472	0.092083	0.000001	0.013121	0.004445	-0.000107
1366	6.8250e-01	-14.5969	0.091372	0.000002	0.017360	0.005882	-0.000142
1367	6.8300e-01	-14.5969	0.090835	0.000001	0.013121	0.004445	-0.000107
1368	6.8350e-01	-14.6643	0.090406	0.000001	0.010496	0.003556	-0.000086
1369	6.8400e-01	-14.7060	0.090546	-0.000000	-0.003432	-0.001163	0.000028
1370	6.8450e-01	-14.7509	0.090769	-0.000001	-0.005450	-0.001847	0.000045
1371	6.8500e-01	-14.7990	0.090653	0.000000	0.002826	0.000957	-0.000023
1372	6.8550e-01	-14.7878	0.090571	-0.000000	-0.002019	-0.000684	-0.000017
1373	6.8600e-01	-14.8648	0.090579	-0.000000	-0.000202	-0.000068	0.000002
1374	6.8650e-01	-14.8873	0.090381	0.000000	0.004845	0.001641	-0.000040
1375	6.8700e-01	-14.9595	0.090199	0.000000	0.004441	0.001505	-0.000036
1376	6.8750e-01	-14.9627	0.090034	0.000000	0.004037	0.001368	-0.000033
1377	6.8800e-01	-15.0509	0.089406	0.000002	0.015341	0.005198	-0.000126
1378	6.8850e-01	-15.0766	0.088588	0.000002	0.019984	0.006771	-0.000164
1379	6.8900e-01	-15.1103	0.087861	0.000002	0.017763	0.006018	-0.000145
1380	6.8950e-01	-15.1456	0.087712	0.000000	0.003633	0.001231	-0.000030
1381	6.9000e-01	-15.1584	0.087844	-0.000000	-0.003230	-0.001094	0.000026
1382	6.9050e-01	-15.2386	0.088166	-0.000001	-0.007872	-0.002667	0.000064
1383	6.9100e-01	-15.2258	0.088233	0.000000	0.001615	0.000547	0.000013
1384	6.9150e-01	-15.2739	0.087877	0.000001	0.008680	0.002941	-0.000071
1385	6.9200e-01	-15.3589	0.087001	0.000002	0.021397	0.007249	-0.000175
1386	6.9250e-01	-15.3846	0.086440	0.000001	0.013726	0.004651	-0.000112
1387	6.9300e-01	-15.4199	0.086250	0.000000	0.004643	0.001573	-0.000038
1388	6.9350e-01	-15.4407	0.086059	0.000000	0.004643	0.001573	-0.000038
1389	6.9400e-01	-15.5161	0.085960	0.000000	0.002422	0.000821	-0.000020
1390	6.9450e-01	-15.5514	0.085283	0.000002	0.016552	0.005608	-0.000136
1391	6.9500e-01	-15.5835	0.084820	0.000001	0.011304	0.003830	-0.000093
1392	6.9550e-01	-15.6236	0.084572	0.000001	0.006056	0.002052	-0.000050
1393	6.9600e-01	-15.6557	0.084605	-0.000000	-0.000807	-0.000274	0.000007
1394	6.9650e-01	-15.6862	0.084878	-0.000001	-0.006661	-0.002257	0.000055
1395	6.9700e-01	-15.7792	0.084564	0.000001	0.007671	0.002599	-0.000063
1396	6.9750e-01	-15.7937	0.083895	0.000002	0.016350	0.005540	-0.000134
1397	6.9800e-01	-15.8081	0.083639	0.000001	0.006258	0.002120	-0.000051
1398	6.9850e-01	-15.8482	0.083333	0.000001	0.007469	0.002530	-0.000061
1399	6.9900e-01	-15.8899	0.082986	0.000001	0.008478	0.002872	-0.000069
1400	6.9950e-01	-15.9204	0.082498	0.000001	0.011909	0.004035	-0.000097
1401	7.0000e-01	-16.0086	0.082482	0.000000	0.000404	0.000137	-0.000003
1402	7.0050e-01	-15.9862	0.082358	-0.000000	-0.003028	-0.001026	-0.000025
1403	7.0100e-01	-16.0568	0.082126	0.000001	0.005652	0.001915	-0.000046
1404	7.0150e-01	-16.0969	0.081589	0.000001	0.013121	0.004445	-0.000107
1405	7.0200e-01	-16.1354	0.081077	0.000001	0.012515	0.004240	-0.000102
1406	7.0250e-01	-16.1594	0.081061	0.000000	0.000404	0.000137	-0.000003
1407	7.0300e-01	-16.2348	0.081069	-0.000000	-0.000202	-0.000068	0.000002
1408	7.0350e-01	-16.2653	0.080441	0.000002	0.015341	0.005198	-0.000126
1409	7.0400e-01	-16.3070	0.079986	0.000001	0.011102	0.003761	-0.000091
1410	7.0450e-01	-16.3471	0.079664	0.000001	0.007872	0.002667	-0.000064
1411	7.0500e-01	-16.3840	0.079689	-0.000000	-0.000606	-0.000205	0.000005
1412	7.0550e-01	-16.4081	0.079441	0.000001	0.006056	0.002052	-0.000050
1413	7.0600e-01	-16.4787	0.078954	0.000001	0.011909	0.004035	-0.000097
1414	7.0650e-01	-16.4899	0.078631	0.000001	0.007872	0.002667	-0.000064
1415	7.0700e-01	-16.5445	0.078367	0.000001	0.006459	0.002188	-0.000053
1416	7.0750e-01	-16.5830	0.078169	0.000000	0.004845	0.001641	-0.000040
1417	7.0800e-01	-16.6391	0.077863	0.000001	0.007469	0.002530	-0.000061
1418	7.0850e-01	-16.6503	0.077433	0.000001	0.010496	0.003556	-0.000086
1419	7.0900e-01	-16.7129	0.077202	0.000001	0.005652	0.001915	-0.000046
1420	7.0950e-01	-16.7418	0.077111	0.000000	0.002220	0.000752	-0.000018
1421	7.1000e-01	-16.7771	0.076624	0.000001	0.011909	0.004035	-0.000097
1422	7.1050e-01	-16.8300	0.076260	0.000001	0.008882	0.003009	-0.000073
1423	7.1100e-01	-16.8172	0.075830	-0.000001	-0.010496	-0.003556	-0.000086
1424	7.1150e-01	-16.9054	0.075657	0.000000	0.004239	0.001436	-0.000035
1425	7.1200e-01	-16.9263	0.075318	0.000001	0.008276	0.002804	-0.000068
1426	7.1250e-01	-16.9503	0.074979	0.000001	0.008276	0.002804	-0.000068
1427	7.1300e-01	-17.0209	0.074657	0.000001	0.007872	0.002667	-0.000064
1428	7.1350e-01	-17.0658	0.074409	0.000001	0.006056	0.002052	-0.000050
1429	7.1400e-01	-17.1027	0.074170	0.000001	0.005854	0.001983	-0.000048
1430	7.1450e-01	-17.1653	0.073889	0.000001	0.006863	0.002325	-0.000056
1431	7.1500e-01	-17.1733	0.073426	0.000001	0.011304	0.003830	-0.000093
1432	7.1550e-01	-17.2519	0.073261	0.000000	0.004037	0.001368	-0.000033
1433	7.1600e-01	-17.2840	0.073054	0.000001	0.005046	0.001710	-0.000041
1434	7.1650e-01	-17.3209	0.072790	0.000001	0.006459	0.002188	-0.000053
1435	7.1700e-01	-17.3498	0.072418	0.000001	0.009084	0.003078	-0.000074
1436	7.1750e-01	-17.3578	0.072228	0.000000	0.004643	0.001573	-0.000038
1437	7.1800e-01	-17.4316	0.072005	0.000001	0.005450	0.001847	-0.000045
1438	7.1850e-01	-17.4252	0.071625	-0.000001	-0.009285	-0.003146	-0.000076
1439	7.1900e-01	-17.4589	0.071162	0.000001	0.011304	0.003830	-0.000093
1440	7.1950e-01	-17.5487	0.070881	0.000001	0.006863	0.002325	-0.000056
1441	7.2000e-01	-17.6161	0.070724	0.000000	0.003835	0.001299	-0.000031
1442	7.2050e-01	-17.6369	0.070352	0.000001	0.009084	0.003078	-0.000074
1443	7.2100e-01	-17.6835	0.070046	0.000001	0.007469	0.002530	-0.000061
1444	7.2150e-01	-17.7059	0.069823	0.000001	0.005450	0.001847	-0.000045
1445	7.2200e-01	-17.7573	0.069650	0.000000	0.004239	0.001436	-0.000035
1446	7.2250e-01	-17.8086	0.069419	0.000001	0.005652	0.001915	-0.000046
1447	7.2300e-01	-17.8455	0.069146	0.000001	0.006661	0.002257	-0.000055
1448	7.2350e-01	-17.8663	0.068915	0.000001	0.005652	0.001915	-0.000046
1449	7.2400e-01	-17.8872	0.068708	0.000001	0.005046	0.001710	-0.000041
1450	7.2450e-01	-17.9482	0.068394	0.000001	0.007671	0.002599	-0.000063
1451	7.2500e-01	-17.9722	0.067956	0.000001	0.010698	0.003625	-0.000088
1452	7.2550e-01	-18.0588	0.067725	0.000001	0.005652	0.001915	-0.000046
1453	7.2600e-01	-18.0829	0.067188	0.000001	0.013121	0.004445	-0.000107
1454	7.2650e-01	-18.0893	0.066543	0.000002	0.015745	0.005334	-0.000129
1455	7.2700e-01	-18.1503	0.065899	0.000002	0.015745	0.005334	-0.000129
1456	7.2750e-01	-18.1936	0.065535	0.000001	0.008882	0.003009	-0.000073
1457	7.2800e-01	-18.2048	0.065651	-0.000000	-0.002826	-0.000957	0.000023
1458	7.2850e-01	-18.2706	0.065849	-0.000000	-0.004845	-0.001641	0.000040
1459	7.2900e-01	-18.2995	0.065750	0.000000	0.002422	0.000821	-0.000020
1460	7.2950e-01	-18.3428	0.065651	0.000000	0.002422	0.000821	-0.000020
1461	7.3000e-01	-18.3989	0.065593	0.000000	0.001413	0.000479	-0.000012
1462	7.3050e-01	-18.4423	0.065494	0.000000	0.002422	0.000821	-0.000020
1463	7.3100e-01	-18.5305	0.065411	0.000000	0.002019	0.000684	-0.000017
1464	7.3150e-01	-18.5177	0.065238	-0.000000	-0.004239	-0.001436	-0.000035
1465	7.3200e-01	-18.5337	0.064461	0.000002	0.018974	0.006429	-0.000155
1466	7.3250e-01	-18.5931	0.063701	0.000002	0.018571	0.006292	-0.000152
1467	7.3300e-01	-18.6203	0.063073	0.000002	0.015341	0.005198	-0.000126
1468	7.3350e-01	-18.6652	0.062924	0.000000	0.003633	0.001231	-0.000030
1469	7.3400e-01	-18.6845	0.062751	0.000000	0.004239	0.001436	-0.000035
1470	7.3450e-01	-18.7326	0.062676	0.000000	0.001817	0.000616	-0.000015
1471	7.3500e-01	-18.8064	0.062825	-0.000000	-0.003633	-0.001231	0.000030
1472	7.3550e-01	-18.8353	0.062635	0.000000	0.004643	0.001573	-0.000038
1473	7.3600e-01	-18.8449	0.062197	0.000001	0.010698	0.003625	-0.000088
1474	7.3650e-01	-18.8818	0.062032	0.000000	0.004037	0.001368	-0.000033
1475	7.3700e-01	-18.9444	0.061817	0.000001	0.005248	0.001778	-0.000043
1476	7.3750e-01	-18.9652	0.061536	0.000001	0.006863	0.002325	-0.000056
1477	7.3800e-01	-19.0406	0.061214	0.000001	0.007872	0.002667	-0.000064
1478	7.3850e-01	-19.0807	0.060635	0.000001	0.014130	0.004787	-0.000116
1479	7.3900e-01	-19.1000	0.060247	0.000001	0.009487	0.003214	-0.000078
1480	7.3950e-01	-19.1305	0.059999	0.000001	0.006056	0.002052	-0.000050
1481	7.4000e-01	-19.1818	0.059817	0.000000	0.004441	0.001505	-0.000036
1482	7.4050e-01	-19.2396	0.059553	0.000001	0.006459	0.002188	-0.000053
1483	7.4100e-01	-19.2524	0.059074	0.000001	0.011708	0.003967	-0.000096
1484	7.4150e-01	-19.3198	0.059032	0.000000	0.001009	0.000342	-0.000008
1485	7.4200e-01	-19.2941	0.059140	0.000000	0.002624	0.000889	0.000021
1486	7.4250e-01	-19.4112	0.059032	0.000000	0.002624	0.000889	-0.000021
1487	7.4300e-01	-19.4433	0.058537	0.000001	0.012111	0.004103	-0.000099
1488	7.4350e-01	-19.4898	0.057991	0.000001	0.013322	0.004514	-0.000109
1489	7.4400e-01	-19.4978	0.057710	0.000001	0.006863	0.002325	-0.000056
1490	7.4450e-01	-19.5347	0.057653	0.000000	0.001413	0.000479	-0.000012
1491	7.4500e-01	-19.5813	0.057710	-0.000000	-0.001413	-0.000479	0.000012
1492	7.4550e-01	-19.6021	0.057462	0.000001	0.006056	0.002052	-0.000050
1493	7.4600e-01	-19.6567	0.057025	0.000001	0.010698	0.003625	-0.000088
1494	7.4650e-01	-19.6936	0.056826	0.000000	0.004845	0.001641	-0.000040
1495	7.4700e-01	-19.7690	0.056727	0.000000	0.002422	0.000821	-0.000020
1496	7.4750e-01	-19.7722	0.056331	0.000001	0.009689	0.003283	-0.000079
1497	7.4800e-01	-19.8171	0.056264	0.000000	0.001615	0.000547	-0.000013
1498	7.4850e-01	-19.8540	0.056008	0.000001	0.006258	0.002120	-0.000051
1499	7.4900e-01	-19.9021	0.055835	0.000000	0.004239	0.001436	-0.000035
1500	7.4950e-01	-19.9775	0.055322	0.000001	0.012515	0.004240	-0.000102
1501	7.5000e-01	-20.0000	0.055017	0.000001	0.007469	0.002530	-0.000061
1502	7.5050e-01	-19.9149	0.054959	-0.000000	-0.001413	-0.000479	-0.000012
1503	7.5100e-01	-19.8973	0.054810	-0.000000	-0.003633	-0.001231	-0.000030
1504	7.5150e-01	-19.8043	0.054496	-0.000001	-0.007671	-0.002599	-0.000063
1505	7.5200e-01	-19.7609	0.054290	-0.000001	-0.005046	-0.001710	-0.000041
1506	7.5250e-01	-19.7738	0.054207	0.000000	0.002019	0.000684	-0.000017
1507	7.5300e-01	-19.7144	0.054405	0.000000	0.004845	0.001641	0.000040
1508	7.5350e-01	-19.6647	0.054430	0.000000	0.000606	0.000205	0.000005
1509	7.5400e-01	-19.6326	0.054356	-0.000000	-0.001817	-0.000616	-0.000015
1510	7.5450e-01	-19.6005	0.054314	-0.000000	-0.001009	-0.000342	-0.000008
1511	7.5500e-01	-19.5524	0.054571	0.000001	0.006258	0.002120	0.000051
1512	7.5550e-01	-19.5107	0.054752	0.000000	0.004441	0.001505	0.000036
1513	7.5600e-01	-19.4738	0.054562	-0.000000	-0.004643	-0.001573	-0.000038
1514	7.5650e-01	-19.4353	0.054538	-0.000000	-0.000606	-0.000205	-0.000005
1515	7.5700e-01	-19.4048	0.054744	0.000001	0.005046	0.001710	0.000041
1516	7.5750e-01	-19.3711	0.054901	0.000000	0.003835	0.001299	0.000031
1517	7.5800e-01	-19.3198	0.054818	-0.000000	-0.002019	-0.000684	-0.000017
1518	7.5850e-01	-19.2861	0.054794	-0.000000	-0.000606	-0.000205	-0.000005
1519	7.5900e-01	-19.2588	0.054967	0.000000	0.004239	0.001436	0.000035
1520	7.5950e-01	-19.2139	0.055281	0.000001	0.007671	0.002599	0.000063
1521	7.6000e-01	-19.1353	0.055190	-0.000000	-0.002220	-0.000752	-0.000018
1522	7.6050e-01	-19.1257	0.055149	-0.000000	-0.001009	-0.000342	-0.000008
1523	7.6100e-01	-19.0727	0.055397	0.000001	0.006056	0.002052	0.000050
1524	7.6150e-01	-19.0583	0.055612	0.000001	0.005248	0.001778	0.000043
1525	7.6200e-01	-18.9957	0.055785	0.000000	0.004239	0.001436	0.000035
1526	7.6250e-01	-18.9781	0.055661	-0.000000	-0.003028	-0.001026	-0.000025
1527	7.6300e-01	-18.9107	0.055826	0.000000	0.004037	0.001368	0.000033
1528	7.6350e-01	-18.8722	0.056050	0.000001	0.005450	0.001847	0.000045
1529	7.6400e-01	-18.8545	0.056231	0.000000	0.004441	0.001505	0.000036
1530	7.6450e-01	-18.7824	0.056182	-0.000000	-0.001211	-0.000410	-0.000010
1531	7.6500e-01	-18.7390	0.056322	0.000000	0.003432	0.001163	0.000028
1532	7.6550e-01	-18.7326	0.056529	0.000001	0.005046	0.001710	0.000041
1533	7.6600e-01	-18.6829	0.056801	0.000001	0.006661	0.002257	0.000055
1534	7.6650e-01	-18.6300	0.056901	0.000000	0.002422	0.000821	0.000020
1535	7.6700e-01	-18.5882	0.056975	0.000000	0.001817	0.000616	0.000015
1536	7.6750e-01	-18.5369	0.057165	0.000000	0.004643	0.001573	0.000038
1537	7.6800e-01	-18.5193	0.057405	0.000001	0.005854	0.001983	0.000048
1538	7.6850e-01	-18.4792	0.057496	0.000000	0.002220	0.000752	0.000018
1539	7.6900e-01	-18.4391	0.057537	0.000000	0.001009	0.000342	0.000008
1540	7.6950e-01	-18.4118	0.057694	0.000000	0.003835	0.001299	0.000031
1541	7.7000e-01	-18.3316	0.057396	-0.000001	-0.007267	-0.002462	-0.000059
1542	7.7050e-01	-18.3252	0.057289	-0.000000	-0.002624	-0.000889	-0.000021
1543	7.7100e-01	-18.2626	0.057074	-0.000001	-0.005248	-0.001778	-0.000043
1544	7.7150e-01	-18.2417	0.057256	0.000000	0.004441	0.001505	0.000036
1545	7.7200e-01	-18.2257	0.057900	0.000002	0.015745	0.005334	0.000129
1546	7.7250e-01	-18.1359	0.058437	0.000001	0.013121	0.004445	0.000107
1547	7.7300e-01	-18.1278	0.058818	0.000001	0.009285	0.003146	0.000076
1548	7.7350e-01	-18.0957	0.059165	0.000001	0.008478	0.002872	0.000069
1549	7.7400e-01	-18.0605	0.059503	0.000001	0.008276	0.002804	0.000068
1550	7.7450e-01	-18.0075	0.059983	0.000001	0.011708	0.003967	0.000096
1551	7.7500e-01	-17.9562	0.060115	0.000000	0.003230	0.001094	0.000026
1552	7.7550e-01	-17.9241	0.060338	0.000001	0.005450	0.001847	0.000045
1553	7.7600e-01	-17.8936	0.060181	-0.000000	-0.003835	-0.001299	-0.000031
1554	7.7650e-01	-17.8310	0.059974	-0.000001	-0.005046	-0.001710	-0.000041
1555	7.7700e-01	-17.7909	0.059603	-0.000001	-0.009084	-0.003078	-0.000074
1556	7.7750e-01	-17.7637	0.059892	0.000001	0.007065	0.002394	0.000058
1557	7.7800e-01	-17.7171	0.060346	0.000001	0.011102	0.003761	0.000091
1558	7.7850e-01	-17.6883	0.060619	0.000001	0.006661	0.002257	0.000055
1559	7.7900e-01	-17.6385	0.060867	0.000001	0.006056	0.002052	0.000050
1560	7.7950e-01	-17.5808	0.060784	-0.000000	-0.002019	-0.000684	-0.000017
1561	7.8000e-01	-17.5503	0.060677	-0.000000	-0.002624	-0.000889	-0.000021
1562	7.8050e-01	-17.5295	0.061189	0.000001	0.012515	0.004240	0.000102
1563	7.8100e-01	-17.4765	0.061809	0.000002	0.015139	0.005129	0.000124
1564	7.8150e-01	-17.4091	0.062552	0.000002	0.018167	0.006155	0.000149
1565	7.8200e-01	-17.3979	0.062726	0.000000	0.004239	0.001436	0.000035
1566	7.8250e-01	-17.3690	0.062387	-0.000001	-0.008276	-0.002804	-0.000068
1567	7.8300e-01	-17.2984	0.062147	-0.000001	-0.005854	-0.001983	-0.000048
1568	7.8350e-01	-17.2840	0.062453	0.000001	0.007469	0.002530	0.000061
1569	7.8400e-01	-17.2086	0.062651	0.000000	0.004845	0.001641	0.000040
1570	7.8450e-01	-17.1829	0.062850	0.000000	0.004845	0.001641	0.000040
1571	7.8500e-01	-17.1316	0.062577	-0.000001	-0.006661	-0.002257	-0.000055
1572	7.8550e-01	-17.1027	0.062627	0.000000	0.001211	0.000410	0.000010
1573	7.8600e-01	-17.0674	0.062998	0.000001	0.009084	0.003078	0.000074
1574	7.8650e-01	-17.0434	0.063527	0.000001	0.012919	0.004377	0.000106
1575	7.8700e-01	-17.0017	0.063816	0.000001	0.007065	0.002394	0.000058
1576	7.8750e-01	-16.9407	0.064023	0.000001	0.005046	0.001710	0.000041
1577	7.8800e-01	-16.9247	0.064180	0.000000	0.003835	0.001299	0.000031
1578	7.8850e-01	-16.8846	0.064420	0.000001	0.005854	0.001983	0.000048
1579	7.8900e-01	-16.8252	0.064643	0.000001	0.005450	0.001847	0.000045
1580	7.8950e-01	-16.8075	0.064651	0.000000	0.000202	0.000068	0.000002
1581	7.9000e-01	-16.7546	0.064998	0.000001	0.008478	0.002872	0.000069
1582	7.9050e-01	-16.7065	0.065626	0.000002	0.015341	0.005198	0.000126
1583	7.9100e-01	-16.6648	0.065874	0.000001	0.006056	0.002052	0.000050
1584	7.9150e-01	-16.6247	0.066039	0.000000	0.004037	0.001368	0.000033
1585	7.9200e-01	-16.5765	0.066006	-0.000000	-0.000807	-0.000274	-0.000007
1586	7.9250e-01	-16.5525	0.066196	0.000000	0.004643	0.001573	0.000038
1587	7.9300e-01	-16.5140	0.066791	0.000001	0.014534	0.004924	0.000119
1588	7.9350e-01	-16.4803	0.066948	0.000000	0.003835	0.001299	0.000031
1589	7.9400e-01	-16.4097	0.066700	-0.000001	-0.006056	-0.002052	-0.000050
1590	7.9450e-01	-16.3969	0.066799	0.000000	0.002422	0.000821	0.000020
1591	7.9500e-01	-16.3552	0.067163	0.000001	0.008882	0.003009	0.000073
1592	7.9550e-01	-16.3199	0.067502	0.000001	0.008276	0.002804	0.000068
1593	7.9600e-01	-16.3086	0.067452	-0.000000	-0.001211	-0.000410	-0.000010
1594	7.9650e-01	-16.2300	0.067659	0.000001	0.005046	0.001710	0.000041
1595	7.9700e-01	-16.2188	0.067956	0.000001	0.007267	0.002462	0.000059
1596	7.9750e-01	-16.1642	0.068212	0.000001	0.006258	0.002120	0.000051
1597	7.9800e-01	-16.0953	0.068518	0.000001	0.007469	0.002530	0.000061
1598	7.9850e-01	-16.0776	0.068724	0.000001	0.005046	0.001710	0.000041
1599	7.9900e-01	-16.0471	0.068873	0.000000	0.003633	0.001231	0.000030
1600	7.9950e-01	-15.9701	0.069162	0.000001	0.007065	0.002394	0.000058
1601	8.0000e-01	-15.9413	0.069410	0.000001	0.006056	0.002052	0.000050
1602	8.0050e-01	-15.9140	0.069460	0.000000	0.001211	0.000410	0.000010
1603	8.0100e-01	-15.8755	0.069617	0.000000	0.003835	0.001299	0.000031
1604	8.0150e-01	-15.8402	0.069749	0.000000	0.003230	0.001094	0.000026
1605	8.0200e-01	-15.8161	0.069964	0.000001	0.005248	0.001778	0.000043
1606	8.0250e-01	-15.7295	0.070038	0.000000	0.001817	0.000616	0.000015
1607	8.0300e-01	-15.7054	0.070146	0.000000	0.002624	0.000889	0.000021
1608	8.0350e-01	-15.6846	0.070418	0.000001	0.006661	0.002257	0.000055
1609	8.0400e-01	-15.6445	0.070517	0.000000	0.002422	0.000821	0.000020
1610	8.0450e-01	-15.6220	0.070741	0.000001	0.005450	0.001847	0.000045
1611	8.0500e-01	-15.5691	0.070939	0.000000	0.004845	0.001641	0.000040
1612	8.0550e-01	-15.5017	0.071162	0.000001	0.005450	0.001847	0.000045
1613	8.0600e-01	-15.5017	0.071335	-0.000000	-0.004239	-0.001436	0.000035
1614	8.0650e-01	-15.4456	0.071658	0.000001	0.007872	0.002667	0.000064
1615	8.0700e-01	-15.3878	0.071963	0.000001	0.007469	0.002530	0.000061
1616	8.0750e-01	-15.3541	0.072162	0.000000	0.004845	0.001641	0.000040
1617	8.0800e-01	-15.3204	0.072410	0.000001	0.006056	0.002052	0.000050
1618	8.0850e-01	-15.2595	0.072724	0.000001	0.007671	0.002599	0.000063
1619	8.0900e-01	-15.2338	0.072757	0.000000	0.000807	0.000274	0.000007
1620	8.0950e-01	-15.1969	0.072996	0.000001	0.005854	0.001983	0.000048
1621	8.1000e-01	-15.1600	0.073104	0.000000	0.002624	0.000889	0.000021
1622	8.1050e-01	-15.1183	0.073385	0.000001	0.006863	0.002325	0.000056
1623	8.1100e-01	-15.0621	0.073484	0.000000	0.002422	0.000821	0.000020
1624	8.1150e-01	-14.9964	0.073632	0.000000	0.003633	0.001231	0.000030
1625	8.1200e-01	-14.9819	0.074004	0.000001	0.009084	0.003078	0.000074
1626	8.1250e-01	-14.9627	0.074203	0.000000	0.004845	0.001641	0.000040
1627	8.1300e-01	-14.9129	0.074417	0.000001	0.005248	0.001778	0.000043
1628	8.1350e-01	-14.8825	0.074657	0.000001	0.005854	0.001983	0.000048
1629	8.1400e-01	-14.8472	0.074442	-0.000001	-0.005248	-0.001778	-0.000043
1630	8.1450e-01	-14.7910	0.074285	-0.000000	-0.003835	-0.001299	-0.000031
1631	8.1500e-01	-14.7445	0.074318	0.000000	0.000807	0.000274	0.000007
1632	8.1550e-01	-14.7092	0.074690	0.000001	0.009084	0.003078	0.000074
1633	8.1600e-01	-14.6386	0.075252	0.000001	0.013726	0.004651	0.000112
1634	8.1650e-01	-14.6306	0.075806	0.000001	0.013524	0.004582	0.000111
1635	8.1700e-01	-14.6081	0.076351	0.000001	0.013322	0.004514	0.000109
1636	8.1750e-01	-14.5488	0.076706	0.000001	0.008680	0.002941	0.000071
1637	8.1800e-01	-14.5087	0.077070	0.000001	0.008882	0.003009	0.000073
1638	8.1850e-01	-14.4782	0.077400	0.000001	0.008074	0.002736	0.000066
1639	8.1900e-01	-14.4429	0.077805	0.000001	0.009891	0.003351	0.000081
1640	8.1950e-01	-14.3771	0.077913	0.000000	0.002624	0.000889	0.000021
1641	8.2000e-01	-14.3819	0.077747	0.000000	0.004037	0.001368	-0.000033
1642	8.2050e-01	-14.3146	0.077499	-0.000001	-0.006056	-0.002052	-0.000050
1643	8.2100e-01	-14.2745	0.077483	-0.000000	-0.000404	-0.000137	-0.000003
1644	8.2150e-01	-14.2328	0.077954	0.000001	0.011506	0.003898	0.000094
1645	8.2200e-01	-14.1959	0.078251	0.000001	0.007267	0.002462	0.000059
1646	8.2250e-01	-14.1558	0.078714	0.000001	0.011304	0.003830	0.000093
1647	8.2300e-01	-14.0868	0.079127	0.000001	0.010093	0.003420	0.000083
1648	8.2350e-01	-14.0804	0.079061	-0.000000	-0.001615	-0.000547	-0.000013
1649	8.2400e-01	-14.0499	0.078904	-0.000000	-0.003835	-0.001299	-0.000031
1650	8.2450e-01	-14.0033	0.079127	0.000001	0.005450	0.001847	0.000045
1651	8.2500e-01	-13.9552	0.079730	0.000001	0.014735	0.004993	0.000121
1652	8.2550e-01	-13.8991	0.080367	0.000002	0.015543	0.005266	0.000127
1653	8.2600e-01	-13.8590	0.081036	0.000002	0.016350	0.005540	0.000134
1654	8.2650e-01	-13.8060	0.081003	-0.000000	-0.000807	-0.000274	-0.000007
1655	8.2700e-01	-13.7627	0.081201	0.000000	0.004845	0.001641	0.000040
1656	8.2750e-01	-13.7595	0.081383	0.000000	0.004441	0.001505	0.000036
1657	8.2800e-01	-13.7146	0.081606	0.000001	0.005450	0.001847	0.000045
1658	8.2850e-01	-13.6809	0.081788	0.000000	0.004441	0.001505	0.000036
1659	8.2900e-01	-13.6504	0.081639	-0.000000	-0.003633	-0.001231	-0.000030
1660	8.2950e-01	-13.6071	0.081573	-0.000000	-0.001615	-0.000547	-0.000013
1661	8.3000e-01	-13.5477	0.081829	0.000001	0.006258	0.002120	0.000051
1662	8.3050e-01	-13.5044	0.082077	0.000001	0.006056	0.002052	0.000050
1663	8.3100e-01	-13.4707	0.082135	0.000000	0.001413	0.000479	0.000012
1664	8.3150e-01	-13.4322	0.082449	0.000001	0.007671	0.002599	0.000063
1665	8.3200e-01	-13.3873	0.082986	0.000001	0.013121	0.004445	0.000107
1666	8.3250e-01	-13.3328	0.083581	0.000001	0.014534	0.004924	0.000119
1667	8.3300e-01	-13.3087	0.083779	0.000000	0.004845	0.001641	0.000040
1668	8.3350e-01	-13.2847	0.083746	-0.000000	-0.000807	-0.000274	-0.000007
1669	8.3400e-01	-13.2478	0.083746	0.000000	0.000000	0.000000	0.000000
1670	8.3450e-01	-13.2109	0.084118	0.000001	0.009084	0.003078	0.000074
1671	8.3500e-01	-13.1868	0.084564	0.000001	0.010900	0.003693	0.000089
1672	8.3550e-01	-13.1242	0.084969	0.000001	0.009891	0.003351	0.000081
1673	8.3600e-01	-13.0873	0.085167	0.000000	0.004845	0.001641	0.000040
1674	8.3650e-01	-13.0039	0.085489	0.000001	0.007872	0.002667	0.000064
1675	8.3700e-01	-12.9847	0.085803	0.000001	0.007671	0.002599	0.000063
1676	8.3750e-01	-12.9430	0.085745	-0.000000	-0.001413	-0.000479	-0.000012
1677	8.3800e-01	-12.9205	0.086026	0.000001	0.006863	0.002325	0.000056
1678	8.3850e-01	-12.8724	0.086464	0.000001	0.010698	0.003625	0.000088
1679	8.3900e-01	-12.8756	0.086597	-0.000000	-0.003230	-0.001094	0.000026
1680	8.3950e-01	-12.7472	0.086704	0.000000	0.002624	0.000889	0.000021
1681	8.4000e-01	-12.7312	0.086687	-0.000000	-0.000404	-0.000137	-0.000003
1682	8.4050e-01	-12.7135	0.087043	0.000001	0.008680	0.002941	0.000071
1683	8.4100e-01	-12.6750	0.087514	0.000001	0.011506	0.003898	0.000094
1684	8.4150e-01	-12.6205	0.087819	0.000001	0.007469	0.002530	0.000061
1685	8.4200e-01	-12.5868	0.087704	-0.000000	-0.002826	-0.000957	-0.000023
1686	8.4250e-01	-12.5676	0.088100	0.000001	0.009689	0.003283	0.000079
1687	8.4300e-01	-12.5146	0.088489	0.000001	0.009487	0.003214	0.000078
1688	8.4350e-01	-12.4601	0.088902	0.000001	0.010093	0.003420	0.000083
1689	8.4400e-01	-12.4601	0.088885	0.000000	0.000404	0.000137	-0.000003
1690	8.4450e-01	-12.3863	0.089084	0.000000	0.004845	0.001641	0.000040
1691	8.4500e-01	-12.3831	0.089422	0.000001	0.008276	0.002804	0.000068
1692	8.4550e-01	-12.3253	0.089695	0.000001	0.006661	0.002257	0.000055
1693	8.4600e-01	-12.2531	0.089778	0.000000	0.002019	0.000684	0.000017
1694	8.4650e-01	-12.2275	0.089687	-0.000000	-0.002220	-0.000752	-0.000018
1695	8.4700e-01	-12.1521	0.089959	0.000001	0.006661	0.002257	0.000055
1696	8.4750e-01	-12.1569	0.090340	-0.000001	-0.009285	-0.003146	0.000076
1697	8.4800e-01	-12.1104	0.090414	0.000000	0.001817	0.000616	0.000015
1698	8.4850e-01	-12.0943	0.090505	0.000000	0.002220	0.000752	0.000018
1699	8.4900e-01	-12.0237	0.090885	0.000001	0.009285	0.003146	0.000076
1700	8.4950e-01	-11.9788	0.091149	0.000001	0.006459	0.002188	0.000053
1701	8.5000e-01	-11.9612	0.091447	0.000001	0.007267	0.002462	0.000059
1702	8.5050e-01	-11.9162	0.091587	0.000000	0.003432	0.001163	0.000028
1703	8.5100e-01	-11.8697	0.091769	0.000000	0.004441	0.001505	0.000036
1704	8.5150e-01	-11.8585	0.092215	0.000001	0.010900	0.003693	0.000089
1705	8.5200e-01	-11.8039	0.092529	0.000001	0.007671	0.002599	0.000063
1706	8.5250e-01	-11.7574	0.092694	0.000000	0.004037	0.001368	0.000033
1707	8.5300e-01	-11.7366	0.092843	0.000000	0.003633	0.001231	0.000030
1708	8.5350e-01	-11.6852	0.093141	0.000001	0.007267	0.002462	0.000059
1709	8.5400e-01	-11.6451	0.093347	0.000001	0.005046	0.001710	0.000041
1710	8.5450e-01	-11.5890	0.093314	-0.000000	-0.000807	-0.000274	-0.000007
1711	8.5500e-01	-11.5537	0.093430	0.000000	0.002826	0.000957	0.000023
1712	8.5550e-01	-11.4991	0.093678	0.000001	0.006056	0.002052	0.000050
1713	8.5600e-01	-11.4879	0.094074	0.000001	0.009689	0.003283	0.000079
1714	8.5650e-01	-11.4173	0.094107	0.000000	0.000807	0.000274	0.000007
1715	8.5700e-01	-11.3820	0.094206	0.000000	0.002422	0.000821	0.000020
1716	8.5750e-01	-11.3371	0.094553	0.000001	0.008478	0.002872	0.000069
1717	8.5800e-01	-11.3114	0.094446	-0.000000	-0.002624	-0.000889	-0.000021
1718	8.5850e-01	-11.2681	0.094339	-0.000000	-0.002624	-0.000889	-0.000021
1719	8.5900e-01	-11.2344	0.094273	-0.000000	-0.001615	-0.000547	-0.000013
1720	8.5950e-01	-11.2040	0.094628	0.000001	0.008680	0.002941	0.000071
1721	8.6000e-01	-11.1318	0.095396	0.000002	0.018773	0.006360	0.000154
1722	8.6050e-01	-11.1510	0.096115	-0.000002	-0.017561	-0.005950	0.000144
1723	8.6100e-01	-11.0580	0.096437	0.000001	0.007872	0.002667	0.000064
1724	8.6150e-01	-11.0323	0.096693	0.000001	0.006258	0.002120	0.000051
1725	8.6200e-01	-10.9569	0.097107	0.000001	0.010093	0.003420	0.000083
1726	8.6250e-01	-10.9730	0.097346	-0.000001	-0.005854	-0.001983	0.000048
1727	8.6300e-01	-10.9168	0.097635	0.000001	0.007065	0.002394	0.000058
1728	8.6350e-01	-10.8992	0.097916	0.000001	0.006863	0.002325	0.000056
1729	8.6400e-01	-10.8286	0.097668	-0.000001	-0.006056	-0.002052	-0.000050
1730	8.6450e-01	-10.8029	0.097462	-0.000001	-0.005046	-0.001710	-0.000041
1731	8.6500e-01	-10.7099	0.097412	-0.000000	-0.001211	-0.000410	-0.000010
1732	8.6550e-01	-10.7227	0.097834	-0.000001	-0.010295	-0.003488	0.000084
1733	8.6600e-01	-10.6698	0.098272	0.000001	0.010698	0.003625	0.000088
1734	8.6650e-01	-10.6168	0.098966	0.000002	0.016956	0.005745	0.000139
1735	8.6700e-01	-10.5960	0.099329	0.000001	0.008882	0.003009	0.000073
1736	8.6750e-01	-10.5382	0.099238	-0.000000	-0.002220	-0.000752	-0.000018
1737	8.6800e-01	-10.5318	0.099164	-0.000000	-0.001817	-0.000616	-0.000015
1738	8.6850e-01	-10.4805	0.099503	0.000001	0.008276	0.002804	0.000068
1739	8.6900e-01	-10.4323	0.099982	0.000001	0.011708	0.003967	0.000096
1740	8.6950e-01	-10.4436	0.100313	-0.000001	-0.008074	-0.002736	0.000066
1741	8.7000e-01	-10.3698	0.100618	0.000001	0.007469	0.002530	0.000061
1742	8.7050e-01	-10.3184	0.100841	0.000001	0.005450	0.001847	0.000045
1743	8.7100e-01	-10.2912	0.101221	0.000001	0.009285	0.003146	0.000076
1744	8.7150e-01	-10.2446	0.101965	0.000002	0.018167	0.006155	0.000149
1745	8.7200e-01	-10.2013	0.102486	0.000001	0.012717	0.004309	0.000104
1746	8.7250e-01	-10.1484	0.102510	0.000000	0.000606	0.000205	0.000005
1747	8.7300e-01	-10.1147	0.102271	-0.000001	-0.005854	-0.001983	-0.000048
1748	8.7350e-01	-10.0858	0.102411	0.000000	0.003432	0.001163	0.000028
1749	8.7400e-01	-10.0329	0.102692	0.000001	0.006863	0.002325	0.000056
1750	8.7450e-01	-10.0008	0.103064	0.000001	0.009084	0.003078	0.000074
1751	8.7500e-01	-9.9302	0.103023	-0.000000	-0.001009	-0.000342	-0.000008
1752	8.7550e-01	-9.8981	0.103014	-0.000000	-0.000202	-0.000068	-0.000002
1753	8.7600e-01	-9.8564	0.103237	0.000001	0.005450	0.001847	0.000045
1754	8.7650e-01	-9.8291	0.103898	0.000002	0.016148	0.005471	0.000132
1755	8.7700e-01	-9.7698	0.104444	0.000001	0.013322	0.004514	0.000109
1756	8.7750e-01	-9.7585	0.104659	0.000001	0.005248	0.001778	0.000043
1757	8.7800e-01	-9.6912	0.104849	0.000000	0.004643	0.001573	0.000038
1758	8.7850e-01	-9.6479	0.105006	0.000000	0.003835	0.001299	0.000031
1759	8.7900e-01	-9.6446	0.105072	0.000000	0.001615	0.000547	0.000013
1760	8.7950e-01	-9.6463	0.105221	-0.000000	-0.003633	-0.001231	0.000030
1761	8.8000e-01	-9.5243	0.105369	0.000000	0.003633	0.001231	0.000030
1762	8.8050e-01	-9.5083	0.105981	0.000001	0.014937	0.005061	0.000122
1763	8.8100e-01	-9.4521	0.106410	0.000001	0.010496	0.003556	0.000086
1764	8.8150e-01	-9.4136	0.106361	-0.000000	-0.001211	-0.000410	-0.000010
1765	8.8200e-01	-9.3799	0.106410	0.000000	0.001211	0.000410	0.000010
1766	8.8250e-01	-9.3591	0.106501	0.000000	0.002220	0.000752	0.000018
1767	8.8300e-01	-9.2981	0.106873	0.000001	0.009084	0.003078	0.000074
1768	8.8350e-01	-9.2709	0.107261	0.000001	0.009487	0.003214	0.000078
1769	8.8400e-01	-9.2372	0.107394	0.000000	0.003230	0.001094	0.000026
1770	8.8450e-01	-9.1714	0.107212	-0.000000	-0.004441	-0.001505	-0.000036
1771	8.8500e-01	-9.1281	0.107501	0.000001	0.007065	0.002394	0.000058
1772	8.8550e-01	-9.1120	0.107716	0.000001	0.005248	0.001778	0.000043
1773	8.8600e-01	-9.0735	0.107922	0.000001	0.005046	0.001710	0.000041
1774	8.8650e-01	-9.0527	0.108162	0.000001	0.005854	0.001983	0.000048
1775	8.8700e-01	-9.0014	0.108517	0.000001	0.008680	0.002941	0.000071
1776	8.8750e-01	-8.9500	0.108625	0.000000	0.002624	0.000889	0.000021
1777	8.8800e-01	-8.9115	0.108988	0.000001	0.008882	0.003009	0.000073
1778	8.8850e-01	-8.8650	0.109195	0.000001	0.005046	0.001710	0.000041
1779	8.8900e-01	-8.8201	0.109484	0.000001	0.007065	0.002394	0.000058
1780	8.8950e-01	-8.8201	0.109715	-0.000001	-0.005652	-0.001915	0.000046
1781	8.9000e-01	-8.7752	0.109922	0.000001	0.005046	0.001710	0.000041
1782	8.9050e-01	-8.7062	0.110071	0.000000	0.003633	0.001231	0.000030
1783	8.9100e-01	-8.6757	0.110178	0.000000	0.002624	0.000889	0.000021
1784	8.9150e-01	-8.6292	0.110385	0.000001	0.005046	0.001710	0.000041
1785	8.9200e-01	-8.6083	0.110624	0.000001	0.005854	0.001983	0.000048
1786	8.9250e-01	-8.5602	0.110864	0.000001	0.005854	0.001983	0.000048
1787	8.9300e-01	-8.4848	0.111112	0.000001	0.006056	0.002052	0.000050
1788	8.9350e-01	-8.4687	0.111376	0.000001	0.006459	0.002188	0.000053
1789	8.9400e-01	-8.4286	0.111550	0.000000	0.004239	0.001436	0.000035
1790	8.9450e-01	-8.3998	0.111905	0.000001	0.008680	0.002941	0.000071
1791	8.9500e-01	-8.3757	0.112169	0.000001	0.006459	0.002188	0.000053
1792	8.9550e-01	-8.3212	0.112533	0.000001	0.008882	0.003009	0.000073
1793	8.9600e-01	-8.2746	0.112847	0.000001	0.007671	0.002599	0.000063
1794	8.9650e-01	-8.2442	0.113037	0.000000	0.004643	0.001573	0.000038
1795	8.9700e-01	-8.2121	0.113202	0.000000	0.004037	0.001368	0.000033
1796	8.9750e-01	-8.1479	0.113467	0.000001	0.006459	0.002188	0.000053
1797	8.9800e-01	-8.1286	0.113632	0.000000	0.004037	0.001368	0.000033
1798	8.9850e-01	-8.0837	0.113640	0.000000	0.000202	0.000068	0.000002
1799	8.9900e-01	-8.0484	0.113847	0.000001	0.005046	0.001710	0.000041
1800	8.9950e-01	-7.9746	0.113962	0.000000	0.002826	0.000957	0.000023
1801	9.0000e-01	-7.9634	0.114037	0.000000	0.001817	0.000616	0.000015
1802	9.0050e-01	-7.8784	0.114276	0.000001	0.005854	0.001983	0.000048
1803	9.0100e-01	-7.8639	0.114574	0.000001	0.007267	0.002462	0.000059
1804	9.0150e-01	-7.8287	0.114582	0.000000	0.000202	0.000068	0.000002
1805	9.0200e-01	-7.7934	0.114533	-0.000000	-0.001211	-0.000410	-0.000010
1806	9.0250e-01	-7.7741	0.114533	0.000000	0.000000	0.000000	0.000000
1807	9.0300e-01	-7.7372	0.114599	0.000000	0.001615	0.000547	0.000013
1808	9.0350e-01	-7.6650	0.115070	0.000001	0.011506	0.003898	0.000094
1809	9.0400e-01	-7.6458	0.115747	0.000002	0.016552	0.005608	0.000136
1810	9.0450e-01	-7.5960	0.116342	0.000001	0.014534	0.004924	0.000119
1811	9.0500e-01	-7.5640	0.116780	0.000001	0.010698	0.003625	0.000088
1812	9.0550e-01	-7.4966	0.117135	0.000001	0.008680	0.002941	0.000071
1813	9.0600e-01	-7.4886	0.117441	0.000001	0.007469	0.002530	0.000061
1814	9.0650e-01	-7.4420	0.117656	0.000001	0.005248	0.001778	0.000043
1815	9.0700e-01	-7.3907	0.117854	0.000000	0.004845	0.001641	0.000040
1816	9.0750e-01	-7.3811	0.117961	0.000000	0.002624	0.000889	0.000021
1817	9.0800e-01	-7.3378	0.117705	-0.000001	-0.006258	-0.002120	-0.000051
1818	9.0850e-01	-7.2800	0.117416	-0.000001	-0.007065	-0.002394	-0.000058
1819	9.0900e-01	-7.2255	0.117499	0.000000	0.002019	0.000684	0.000017
1820	9.0950e-01	-7.2014	0.117995	0.000001	0.012111	0.004103	0.000099
1821	9.1000e-01	-7.1581	0.118499	0.000001	0.012313	0.004172	0.000101
1822	9.1050e-01	-7.1196	0.119019	0.000001	0.012717	0.004309	0.000104
1823	9.1100e-01	-7.1084	0.119292	0.000001	0.006661	0.002257	0.000055
1824	9.1150e-01	-7.0201	0.119184	-0.000000	-0.002624	-0.000889	-0.000021
1825	9.1200e-01	-6.9961	0.119151	-0.000000	-0.000807	-0.000274	-0.000007
1826	9.1250e-01	-6.9399	0.119531	0.000001	0.009285	0.003146	0.000076
1827	9.1300e-01	-6.9223	0.119953	0.000001	0.010295	0.003488	0.000084
1828	9.1350e-01	-6.8677	0.120407	0.000001	0.011102	0.003761	0.000091
1829	9.1400e-01	-6.8404	0.120572	0.000000	0.004037	0.001368	0.000033
1830	9.1450e-01	-6.7955	0.120325	-0.000001	-0.006056	-0.002052	-0.000050
1831	9.1500e-01	-6.7763	0.120440	0.000000	0.002826	0.000957	0.000023
1832	9.1550e-01	-6.7394	0.121143	0.000002	0.017158	0.005813	0.000140
1833	9.1600e-01	-6.6848	0.121721	0.000001	0.014130	0.004787	0.000116
1834	9.1650e-01	-6.6110	0.122159	0.000001	0.010698	0.003625	0.000088
1835	9.1700e-01	-6.5886	0.122308	0.000000	0.003633	0.001231	0.000030
1836	9.1750e-01	-6.5517	0.122275	-0.000000	-0.000807	-0.000274	-0.000007
1837	9.1800e-01	-6.4715	0.122506	0.000001	0.005652	0.001915	0.000046
1838	9.1850e-01	-6.4458	0.122663	0.000000	0.003835	0.001299	0.000031
1839	9.1900e-01	-6.4506	0.122688	-0.000000	-0.000606	-0.000205	0.000005
1840	9.1950e-01	-6.4346	0.122514	-0.000000	-0.004239	-0.001436	-0.000035
1841	9.2000e-01	-6.3736	0.122671	0.000000	0.003835	0.001299	0.000031
1842	9.2050e-01	-6.3175	0.122944	0.000001	0.006661	0.002257	0.000055
1843	9.2100e-01	-6.2854	0.123117	0.000000	0.004239	0.001436	0.000035
1844	9.2150e-01	-6.2389	0.123167	0.000000	0.001211	0.000410	0.000010
1845	9.2200e-01	-6.2196	0.123597	0.000001	0.010496	0.003556	0.000086
1846	9.2250e-01	-6.1298	0.124167	0.000001	0.013928	0.004719	0.000114
1847	9.2300e-01	-6.1025	0.124530	0.000001	0.008882	0.003009	0.000073
1848	9.2350e-01	-6.0688	0.124448	-0.000000	-0.002019	-0.000684	-0.000017
1849	9.2400e-01	-6.0046	0.124456	0.000000	0.000202	0.000068	0.000002
1850	9.2450e-01	-5.9870	0.124753	0.000001	0.007267	0.002462	0.000059
1851	9.2500e-01	-5.9196	0.124943	0.000000	0.004643	0.001573	0.000038
1852	9.2550e-01	-5.9148	0.125158	0.000001	0.005248	0.001778	0.000043
1853	9.2600e-01	-5.8651	0.125480	0.000001	0.007872	0.002667	0.000064
1854	9.2650e-01	-5.8587	0.125687	0.000001	0.005046	0.001710	0.000041
1855	9.2700e-01	-5.7865	0.125918	0.000001	0.005652	0.001915	0.000046
1856	9.2750e-01	-5.7656	0.126001	0.000000	0.002019	0.000684	0.000017
1857	9.2800e-01	-5.7207	0.126018	0.000000	0.000404	0.000137	0.000003
1858	9.2850e-01	-5.6549	0.126398	0.000001	0.009285	0.003146	0.000076
1859	9.2900e-01	-5.6517	0.126703	0.000001	0.007469	0.002530	0.000061
1860	9.2950e-01	-5.5924	0.126712	0.000000	0.000202	0.000068	0.000002
1861	9.3000e-01	-5.5843	0.126612	-0.000000	-0.002422	-0.000821	-0.000020
1862	9.3050e-01	-5.5073	0.126885	0.000001	0.006661	0.002257	0.000055
1863	9.3100e-01	-5.4817	0.127389	0.000001	0.012313	0.004172	0.000101
1864	9.3150e-01	-5.4223	0.127521	0.000000	0.003230	0.001094	0.000026
1865	9.3200e-01	-5.4143	0.127629	0.000000	0.002624	0.000889	0.000021
1866	9.3250e-01	-5.3437	0.127678	0.000000	0.001211	0.000410	0.000010
1867	9.3300e-01	-5.2940	0.128042	0.000001	0.008882	0.003009	0.000073
1868	9.3350e-01	-5.2474	0.128389	0.000001	0.008478	0.002872	0.000069
1869	9.3400e-01	-5.2025	0.128339	-0.000000	-0.001211	-0.000410	-0.000010
1870	9.3450e-01	-5.2089	0.128480	-0.000000	-0.003432	-0.001163	0.000028
1871	9.3500e-01	-5.1656	0.128827	0.000001	0.008478	0.002872	0.000069
1872	9.3550e-01	-5.1143	0.129149	0.000001	0.007872	0.002667	0.000064
1873	9.3600e-01	-5.0886	0.129405	0.000001	0.006258	0.002120	0.000051
1874	9.3650e-01	-5.0630	0.129397	-0.000000	-0.000202	-0.000068	-0.000002
1875	9.3700e-01	-5.0196	0.129513	0.000000	0.002826	0.000957	0.000023
1876	9.3750e-01	-4.9779	0.129926	0.000001	0.010093	0.003420	0.000083
1877	9.3800e-01	-4.8993	0.130132	0.000001	0.005046	0.001710	0.000041
1878	9.3850e-01	-4.8849	0.130306	0.000000	0.004239	0.001436	0.000035
1879	9.3900e-01	-4.7951	0.130471	0.000000	0.004037	0.001368	0.000033
1880	9.3950e-01	-4.7854	0.130959	0.000001	0.011909	0.004035	0.000097
1881	9.4000e-01	-4.7405	0.131248	0.000001	0.007065	0.002394	0.000058
1882	9.4050e-01	-4.6956	0.131446	0.000000	0.004845	0.001641	0.000040
1883	9.4100e-01	-4.6828	0.131620	0.000000	0.004239	0.001436	0.000035
1884	9.4150e-01	-4.6218	0.131967	0.000001	0.008478	0.002872	0.000069
1885	9.4200e-01	-4.6202	0.132305	0.000001	0.008276	0.002804	0.000068
1886	9.4250e-01	-4.5673	0.132421	0.000000	0.002826	0.000957	0.000023
1887	9.4300e-01	-4.5031	0.132545	0.000000	0.003028	0.001026	0.000025
1888	9.4350e-01	-4.4550	0.132702	0.000000	0.003835	0.001299	0.000031
1889	9.4400e-01	-4.4534	0.133016	0.000001	0.007671	0.002599	0.000063
1890	9.4450e-01	-4.3603	0.133049	0.000000	0.000807	0.000274	0.000007
1891	9.4500e-01	-4.3394	0.133297	0.000001	0.006056	0.002052	0.000050
1892	9.4550e-01	-4.3266	0.133239	-0.000000	-0.001413	-0.000479	-0.000012
1893	9.4600e-01	-4.2641	0.133280	0.000000	0.001009	0.000342	0.000008
1894	9.4650e-01	-4.2496	0.133272	-0.000000	-0.000202	-0.000068	-0.000002
1895	9.4700e-01	-4.1983	0.133190	-0.000000	-0.002019	-0.000684	-0.000017
1896	9.4750e-01	-4.1357	0.133793	0.000001	0.014735	0.004993	0.000121
1897	9.4800e-01	-4.0924	0.134578	0.000002	0.019176	0.006497	0.000157
1898	9.4850e-01	-4.0651	0.135272	0.000002	0.016956	0.005745	0.000139
1899	9.4900e-01	-4.0395	0.135726	0.000001	0.011102	0.003761	0.000091
1900	9.4950e-01	-3.9897	0.136214	0.000001	0.011909	0.004035	0.000097
1901	9.5000e-01	-3.9448	0.136354	0.000000	0.003432	0.001163	0.000028
1902	9.5050e-01	-3.9288	0.136734	0.000001	0.009285	0.003146	0.000076
1903	9.5100e-01	-3.8855	0.137023	0.000001	0.007065	0.002394	0.000058
1904	9.5150e-01	-3.8133	0.136982	-0.000000	-0.001009	-0.000342	-0.000008
1905	9.5200e-01	-3.8084	0.136577	-0.000001	-0.009891	-0.003351	-0.000081
1906	9.5250e-01	-3.7443	0.136313	-0.000001	-0.006459	-0.002188	-0.000053
1907	9.5300e-01	-3.7298	0.136412	0.000000	0.002422	0.000821	0.000020
1908	9.5350e-01	-3.6272	0.136966	0.000001	0.013524	0.004582	0.000111
1909	9.5400e-01	-3.6224	0.137420	0.000001	0.011102	0.003761	0.000091
1910	9.5450e-01	-3.5887	0.137899	0.000001	0.011708	0.003967	0.000096
1911	9.5500e-01	-3.5309	0.138263	0.000001	0.008882	0.003009	0.000073
1912	9.5550e-01	-3.5085	0.138246	-0.000000	-0.000404	-0.000137	-0.000003
1913	9.5600e-01	-3.4587	0.138205	-0.000000	-0.001009	-0.000342	-0.000008
1914	9.5650e-01	-3.4298	0.138635	0.000001	0.010496	0.003556	0.000086
1915	9.5700e-01	-3.3785	0.139130	0.000001	0.012111	0.004103	0.000099
1916	9.5750e-01	-3.3609	0.139585	0.000001	0.011102	0.003761	0.000091
1917	9.5800e-01	-3.2999	0.139734	0.000000	0.003633	0.001231	0.000030
1918	9.5850e-01	-3.2742	0.139734	0.000000	0.000000	0.000000	0.000000
1919	9.5900e-01	-3.2502	0.139758	0.000000	0.000606	0.000205	0.000005
1920	9.5950e-01	-3.1876	0.140246	0.000001	0.011909	0.004035	0.000097
1921	9.6000e-01	-3.1684	0.140452	0.000001	0.005046	0.001710	0.000041
1922	9.6050e-01	-3.1154	0.140626	0.000000	0.004239	0.001436	0.000035
1923	9.6100e-01	-3.0817	0.140882	0.000001	0.006258	0.002120	0.000051
1924	9.6150e-01	-3.0432	0.141378	0.000001	0.012111	0.004103	0.000099
1925	9.6200e-01	-2.9823	0.141956	0.000001	0.014130	0.004787	0.000116
1926	9.6250e-01	-2.9325	0.142303	0.000001	0.008478	0.002872	0.000069
1927	9.6300e-01	-2.8988	0.142146	-0.000000	-0.003835	-0.001299	-0.000031
1928	9.6350e-01	-2.8844	0.142022	-0.000000	-0.003028	-0.001026	-0.000025
1929	9.6400e-01	-2.8379	0.142245	0.000001	0.005450	0.001847	0.000045
1930	9.6450e-01	-2.7914	0.142543	0.000001	0.007267	0.002462	0.000059
1931	9.6500e-01	-2.7464	0.142584	0.000000	0.001009	0.000342	0.000008
1932	9.6550e-01	-2.6903	0.142502	-0.000000	-0.002019	-0.000684	-0.000017
1933	9.6600e-01	-2.6662	0.142543	0.000000	0.001009	0.000342	0.000008
1934	9.6650e-01	-2.6358	0.143006	0.000001	0.011304	0.003830	0.000093
1935	9.6700e-01	-2.6213	0.143460	0.000001	0.011102	0.003761	0.000091
1936	9.6750e-01	-2.5764	0.143840	0.000001	0.009285	0.003146	0.000076
1937	9.6800e-01	-2.5106	0.144113	0.000001	0.006661	0.002257	0.000055
1938	9.6850e-01	-2.4769	0.144369	0.000001	0.006258	0.002120	0.000051
1939	9.6900e-01	-2.4240	0.144402	0.000000	0.000807	0.000274	0.000007
1940	9.6950e-01	-2.3630	0.144460	0.000000	0.001413	0.000479	0.000012
1941	9.7000e-01	-2.3261	0.144542	0.000000	0.002019	0.000684	0.000017
1942	9.7050e-01	-2.2973	0.145005	0.000001	0.011304	0.003830	0.000093
1943	9.7100e-01	-2.2764	0.145534	0.000001	0.012919	0.004377	0.000106
1944	9.7150e-01	-2.2187	0.145790	0.000001	0.006258	0.002120	0.000051
1945	9.7200e-01	-2.1882	0.145873	0.000000	0.002019	0.000684	0.000017
1946	9.7250e-01	-2.1561	0.145931	0.000000	0.001413	0.000479	0.000012
1947	9.7300e-01	-2.1112	0.146311	0.000001	0.009285	0.003146	0.000076
1948	9.7350e-01	-2.0566	0.146649	0.000001	0.008276	0.002804	0.000068
1949	9.7400e-01	-2.0486	0.146914	0.000001	0.006459	0.002188	0.000053
1950	9.7450e-01	-1.9989	0.147062	0.000000	0.003633	0.001231	0.000030
1951	9.7500e-01	-1.9491	0.147286	0.000001	0.005450	0.001847	0.000045
1952	9.7550e-01	-1.9042	0.147550	0.000001	0.006459	0.002188	0.000053
1953	9.7600e-01	-1.8753	0.147814	0.000001	0.006459	0.002188	0.000053
1954	9.7650e-01	-1.8368	0.147980	0.000000	0.004037	0.001368	0.000033
1955	9.7700e-01	-1.7871	0.148194	0.000001	0.005248	0.001778	0.000043
1956	9.7750e-01	-1.7598	0.148368	0.000000	0.004239	0.001436	0.000035
1957	9.7800e-01	-1.7101	0.148608	0.000001	0.005854	0.001983	0.000048
1958	9.7850e-01	-1.6652	0.148748	0.000000	0.003432	0.001163	0.000028
1959	9.7900e-01	-1.6267	0.149079	0.000001	0.008074	0.002736	0.000066
1960	9.7950e-01	-1.5738	0.149227	0.000000	0.003633	0.001231	0.000030
1961	9.8000e-01	-1.5641	0.149492	0.000001	0.006459	0.002188	0.000053
1962	9.8050e-01	-1.5048	0.149690	0.000000	0.004845	0.001641	0.000040
1963	9.8100e-01	-1.4759	0.149963	0.000001	0.006661	0.002257	0.000055
1964	9.8150e-01	-1.4262	0.150120	0.000000	0.003835	0.001299	0.000031
1965	9.8200e-01	-1.3957	0.150169	0.000000	0.001211	0.000410	0.000010
1966	9.8250e-01	-1.3139	0.150293	0.000000	0.003028	0.001026	0.000025
1967	9.8300e-01	-1.3107	0.150582	0.000001	0.007065	0.002394	0.000058
1968	9.8350e-01	-1.2738	0.150921	0.000001	0.008276	0.002804	0.000068
1969	9.8400e-01	-1.2256	0.151078	0.000000	0.003835	0.001299	0.000031
1970	9.8450e-01	-1.2032	0.151309	0.000001	0.005652	0.001915	0.000046
1971	9.8500e-01	-1.1518	0.151632	0.000001	0.007872	0.002667	0.000064
1972	9.8550e-01	-1.1165	0.151987	0.000001	0.008680	0.002941	0.000071
1973	9.8600e-01	-1.0331	0.152161	0.000000	0.004239	0.001436	0.000035
1974	9.8650e-01	-1.0331	0.152318	-0.000000	-0.003835	-0.001299	0.000031
1975	9.8700e-01	-0.9994	0.152549	0.000001	0.005652	0.001915	0.000046
1976	9.8750e-01	-0.9449	0.152789	0.000001	0.005854	0.001983	0.000048
1977	9.8800e-01	-0.9289	0.152995	0.000001	0.005046	0.001710	0.000041
1978	9.8850e-01	-0.8679	0.153226	0.000001	0.005652	0.001915	0.000046
1979	9.8900e-01	-0.8390	0.153450	0.000001	0.005450	0.001847	0.000045
1980	9.8950e-01	-0.7957	0.153425	-0.000000	-0.000606	-0.000205	-0.000005
1981	9.9000e-01	-0.7251	0.153301	-0.000000	-0.003028	-0.001026	-0.000025
1982	9.9050e-01	-0.7219	0.153284	-0.000000	-0.000404	-0.000137	-0.000003
1983	9.9100e-01	-0.6850	0.153491	0.000001	0.005046	0.001710	0.000041
1984	9.9150e-01	-0.6497	0.154268	0.000002	0.018974	0.006429	0.000155
1985	9.9200e-01	-0.5663	0.154978	0.000002	0.017360	0.005882	0.000142
1986	9.9250e-01	-0.5647	0.155656	0.000002	0.016552	0.005608	0.000136
1987	9.9300e-01	-0.5021	0.156094	0.000001	0.010698	0.003625	0.000088
1988	9.9350e-01	-0.4732	0.156647	0.000001	0.013524	0.004582	0.000111
1989	9.9400e-01	-0.4331	0.156804	0.000000	0.003835	0.001299	0.000031
1990	9.9450e-01	-0.4011	0.157283	0.000001	0.011708	0.003967	0.000096
1991	9.9500e-01	-0.3497	0.157407	0.000000	0.003028	0.001026	0.000025
1992	9.9550e-01	-0.2872	0.157424	0.000000	0.000404	0.000137	0.000003
1993	9.9600e-01	-0.2839	0.157201	-0.000001	-0.005450	-0.001847	-0.000045
1994	9.9650e-01	-0.2342	0.156845	-0.000001	-0.008680	-0.002941	-0.000071
1995	9.9700e-01	-0.1989	0.157069	0.000001	0.005450	0.001847	0.000045
1996	9.9750e-01	-0.1460	0.157721	0.000002	0.015947	0.005403	0.000131
1997	9.9800e-01	-0.1107	0.158151	0.000001	0.010496	0.003556	0.000086
1998	9.9850e-01	-0.0658	0.158481	0.000001	0.008074	0.002736	0.000066
1999	9.9900e-01	-0.0385	0.158738	0.000001	0.006258	0.002120	0.000051
2000	9.9950e-01	0.0225	0.158663	-0.000000	-0.001817	-0.000616	-0.000015
2001	1.0000e+00	0.0433	0.158779	-0.000000	-0.001817	-0.000616	0.000023

Center data before PMax,+/-Pr and +/-Vc Calc.

PMax (uC/cm2):	1.82e-01
Pr (uC/cm2):	1.92e-01
-Pr (uC/cm2):	1.59e-01
PLoss (uC/cm2):	4.22e-01
Vc:	1.70e+01
C (Max-Eff) (nF):	9.08e-04
K (Eff):	3.08e+00
Vert. (+/-Pr) Shift (uC/cm2):	1.76e-01
Offset (uC/cm2):	2.63e-01

A (Loop Area - uC/cm2·Volts):	-4.76e-03



Hysteresis Version: 5.48.1 - Radiant Technologies, Inc., 1999 - 9/12/24

