»»»»»»»»»»»»»»»»»»»»»»»»»»»»»»»»»»»» Hysteresis ««««««««««««««««««««««««««««««««««««
»»»  Executed Version:	5.48.1
»»»  Vision Version:	5.48.4 (R)
»»»  Vision Compiled:	9/18/24
»»»  Driver Version:	5.47.0
»»»  Windows Version:	Windows 8 or 8.1
»»»  Processor Information:	x86 (AMD or Intel) - 32 Processors
»»»  Tester Name:	PMF21124-494 (100V)
»»»  Tester S/N:	PMF21124-494
»»»  Internal Amp Type:	100V RevK 270k
»»»  Internal Amp S/N:	iAB2-596/K     
»»»  Execution Count:	1
»»»»»»»»»»»»»»»»»»»»»»»»»»»»»»»»»»»»»»»»»»««««««««««««««««««««««««««««««««««««««««««

Stored:	6/11/2025 - 10:39:25
Configured:	06/11/25 10:21:25 AM
Executed:	06/11/25 10:39:04 AM

»»»»»»»»»»»»»»»»»»»»»»»»»»»»»»»»»»» Sample Info ««««««««««««««««««««««««««««««««««««
Sample Name:	
Lot Name:	
Wafer Name:	
Die Row/Column:	0/0
Capacitor Number:	0
Sample Area (cm2):	1.00e-04
Sample Thickness (microns):	3.00e-01

Amplifier:	Internal

»»»»»»»»»»»»»»»»»»»»»»»»»»»»»»»»»»» Tester Info «««««««««««««««««««««««««««««««««««
Tester Name:	PMF21124-494 (100V)
Tester Serial Number:	PMF21124-494
Return Signal Amp. Level:	100.0 [Index: 0]

»»»»»»»»»»»»»»»»»»»»»»»»»»»»»»»» Hysteresis Info ««««««««««««««««««««««««««««««««««
Task Name:	Hyst-1175
Volts:	20.00
Field:	666.67 (kV/cm)
DCBias:	0.00
DCField:	0.00 (kV/cm)
Hysteresis Period (ms):	1.00e+00
Preset:	Enabled
Preset Delay (ms):	1.00e+03
Profile:	Standard Bipolar

»»»»»»»»»»»»»»»»»»»»»»»»»»»»»»»»»»»»»» Data «««««««««««««««««««««««««««««««««««««««
Points:	2001

Valid Data

Point	Time (ms)	Drive Voltage	Measured Polarization (uC/cm2)	Capacitance (uF)	Normalized Capacitance (uF/cm2)	Dielectric Constant	Instantaneous Current (mA)
   1	0.0000e+00	0.0032	0.017984	-0.000000	-0.003807	-0.001290	-0.000031
   2	5.0000e-04	0.0321	0.017827	-0.000000	-0.003807	-0.001290	-0.000031
   3	1.0000e-03	0.0914	0.017703	-0.000000	-0.003005	-0.001018	-0.000025
   4	1.5000e-03	0.1476	0.017951	0.000001	0.006010	0.002036	0.000050
   5	2.0000e-03	0.2166	0.018355	0.000001	0.009817	0.003326	0.000081
   6	2.5000e-03	0.2326	0.018702	0.000001	0.008415	0.002851	0.000069
   7	3.0000e-03	0.2888	0.018917	0.000001	0.005209	0.001765	0.000043
   8	3.5000e-03	0.3257	0.018769	-0.000000	-0.003606	-0.001222	-0.000030
   9	4.0000e-03	0.3513	0.018504	-0.000001	-0.006411	-0.002172	-0.000053
  10	4.5000e-03	0.4139	0.018075	-0.000001	-0.010418	-0.003530	-0.000086
  11	5.0000e-03	0.4299	0.018025	-0.000000	-0.001202	-0.000407	-0.000010
  12	5.5000e-03	0.4540	0.017893	-0.000000	-0.003206	-0.001086	-0.000026
  13	6.0000e-03	0.5150	0.018000	0.000000	0.002605	0.000882	0.000021
  14	6.5000e-03	0.5134	0.018008	-0.000000	-0.000200	-0.000068	0.000002
  15	7.0000e-03	0.6064	0.018075	0.000000	0.001603	0.000543	0.000013
  16	7.5000e-03	0.6481	0.018182	0.000000	0.002605	0.000882	0.000021
  17	8.0000e-03	0.6401	0.018868	-0.000002	-0.016629	-0.005634	0.000137
  18	8.5000e-03	0.7091	0.019397	0.000001	0.012822	0.004344	0.000106
  19	9.0000e-03	0.7604	0.019801	0.000001	0.009817	0.003326	0.000081
  20	9.5000e-03	0.8117	0.019529	-0.000001	-0.006612	-0.002240	-0.000055
  21	1.0000e-02	0.8358	0.019363	-0.000000	-0.004007	-0.001358	-0.000033
  22	1.0500e-02	0.8310	0.019355	0.000000	0.000200	0.000068	-0.000002
  23	1.1000e-02	0.9208	0.019306	-0.000000	-0.001202	-0.000407	-0.000010
  24	1.1500e-02	0.9754	0.019636	0.000001	0.008014	0.002715	0.000066
  25	1.2000e-02	1.0010	0.020157	0.000001	0.012622	0.004276	0.000104
  26	1.2500e-02	1.0203	0.020372	0.000001	0.005209	0.001765	0.000043
  27	1.3000e-02	1.0540	0.020413	0.000000	0.001002	0.000339	0.000008
  28	1.3500e-02	1.0893	0.020248	-0.000000	-0.004007	-0.001358	-0.000033
  29	1.4000e-02	1.1438	0.020132	-0.000000	-0.002805	-0.000950	-0.000023
  30	1.4500e-02	1.1984	0.020611	0.000001	0.011620	0.003937	0.000096
  31	1.5000e-02	1.2529	0.020900	0.000001	0.007012	0.002376	0.000058
  32	1.5500e-02	1.2754	0.020826	-0.000000	-0.001803	-0.000611	-0.000015
  33	1.6000e-02	1.3026	0.020710	-0.000000	-0.002805	-0.000950	-0.000023
  34	1.6500e-02	1.3299	0.020909	0.000000	0.004808	0.001629	0.000040
  35	1.7000e-02	1.4165	0.021223	0.000001	0.007613	0.002579	0.000063
  36	1.7500e-02	1.4149	0.021561	-0.000001	-0.008214	-0.002783	0.000068
  37	1.8000e-02	1.4775	0.021454	-0.000000	-0.002605	-0.000882	-0.000021
  38	1.8500e-02	1.5016	0.021380	-0.000000	-0.001803	-0.000611	-0.000015
  39	1.9000e-02	1.5625	0.021528	0.000000	0.003606	0.001222	0.000030
  40	1.9500e-02	1.5738	0.021950	0.000001	0.010218	0.003462	0.000084
  41	2.0000e-02	1.6219	0.022115	0.000000	0.004007	0.001358	0.000033
  42	2.0500e-02	1.6459	0.022098	-0.000000	-0.000401	-0.000136	-0.000003
  43	2.1000e-02	1.6941	0.022165	0.000000	0.001603	0.000543	0.000013
  44	2.1500e-02	1.7470	0.022437	0.000001	0.006612	0.002240	0.000055
  45	2.2000e-02	1.7839	0.022693	0.000001	0.006211	0.002104	0.000051
  46	2.2500e-02	1.8609	0.022445	-0.000001	-0.006010	-0.002036	-0.000050
  47	2.3000e-02	1.8641	0.022512	0.000000	0.001603	0.000543	0.000013
  48	2.3500e-02	1.9155	0.022569	0.000000	0.001402	0.000475	0.000012
  49	2.4000e-02	1.9588	0.022652	0.000000	0.002003	0.000679	0.000017
  50	2.4500e-02	1.9860	0.022388	-0.000001	-0.006411	-0.002172	-0.000053
  51	2.5000e-02	2.0213	0.022239	-0.000000	-0.003606	-0.001222	-0.000030
  52	2.5500e-02	2.0663	0.022553	0.000001	0.007613	0.002579	0.000063
  53	2.6000e-02	2.0887	0.023214	0.000002	0.016028	0.005430	0.000132
  54	2.6500e-02	2.1609	0.023693	0.000001	0.011620	0.003937	0.000096
  55	2.7000e-02	2.1850	0.023726	0.000000	0.000801	0.000272	0.000007
  56	2.7500e-02	2.2507	0.024098	0.000001	0.009016	0.003055	0.000074
  57	2.8000e-02	2.2523	0.024470	0.000001	0.009016	0.003055	0.000074
  58	2.8500e-02	2.3165	0.024627	0.000000	0.003807	0.001290	0.000031
  59	2.9000e-02	2.3245	0.024627	0.000000	0.000000	0.000000	0.000000
  60	2.9500e-02	2.3903	0.024552	-0.000000	-0.001803	-0.000611	-0.000015
  61	3.0000e-02	2.4481	0.024437	-0.000000	-0.002805	-0.000950	-0.000023
  62	3.0500e-02	2.4753	0.024338	-0.000000	-0.002404	-0.000815	-0.000020
  63	3.1000e-02	2.4962	0.024172	-0.000000	-0.004007	-0.001358	-0.000033
  64	3.1500e-02	2.5379	0.024305	0.000000	0.003206	0.001086	0.000026
  65	3.2000e-02	2.6021	0.024734	0.000001	0.010418	0.003530	0.000086
  66	3.2500e-02	2.6293	0.024999	0.000001	0.006411	0.002172	0.000053
  67	3.3000e-02	2.6775	0.025180	0.000000	0.004408	0.001493	0.000036
  68	3.3500e-02	2.7192	0.024924	-0.000001	-0.006211	-0.002104	-0.000051
  69	3.4000e-02	2.7561	0.024800	-0.000000	-0.003005	-0.001018	-0.000025
  70	3.4500e-02	2.7849	0.025263	0.000001	0.011220	0.003801	0.000093
  71	3.5000e-02	2.8251	0.025470	0.000001	0.005009	0.001697	0.000041
  72	3.5500e-02	2.8587	0.025684	0.000001	0.005209	0.001765	0.000043
  73	3.6000e-02	2.9181	0.025866	0.000000	0.004408	0.001493	0.000036
  74	3.6500e-02	2.9582	0.025866	0.000000	0.000000	0.000000	0.000000
  75	3.7000e-02	3.0015	0.025965	0.000000	0.002404	0.000815	0.000020
  76	3.7500e-02	3.0192	0.026221	0.000001	0.006211	0.002104	0.000051
  77	3.8000e-02	3.0464	0.026263	0.000000	0.001002	0.000339	0.000008
  78	3.8500e-02	3.1331	0.026362	0.000000	0.002404	0.000815	0.000020
  79	3.9000e-02	3.1523	0.026279	-0.000000	-0.002003	-0.000679	-0.000017
  80	3.9500e-02	3.1972	0.026296	0.000000	0.000401	0.000136	0.000003
  81	4.0000e-02	3.2454	0.026478	0.000000	0.004408	0.001493	0.000036
  82	4.0500e-02	3.2807	0.026701	0.000001	0.005409	0.001833	0.000045
  83	4.1000e-02	3.3192	0.026701	0.000000	0.000000	0.000000	0.000000
  84	4.1500e-02	3.3962	0.026659	-0.000000	-0.001002	-0.000339	-0.000008
  85	4.2000e-02	3.4026	0.026759	0.000000	0.002404	0.000815	0.000020
  86	4.2500e-02	3.3946	0.027188	-0.000001	-0.010418	-0.003530	0.000086
  87	4.3000e-02	3.4748	0.027263	0.000000	0.001803	0.000611	0.000015
  88	4.3500e-02	3.5181	0.027230	-0.000000	-0.000801	-0.000272	-0.000007
  89	4.4000e-02	3.5534	0.027378	0.000000	0.003606	0.001222	0.000030
  90	4.4500e-02	3.5774	0.027742	0.000001	0.008815	0.002987	0.000073
  91	4.5000e-02	3.6432	0.027816	0.000000	0.001803	0.000611	0.000015
  92	4.5500e-02	3.7138	0.027676	-0.000000	-0.003406	-0.001154	-0.000028
  93	4.6000e-02	3.7202	0.027601	-0.000000	-0.001803	-0.000611	-0.000015
  94	4.6500e-02	3.7555	0.027907	0.000001	0.007413	0.002512	0.000061
  95	4.7000e-02	3.8004	0.027998	0.000000	0.002204	0.000747	0.000018
  96	4.7500e-02	3.8421	0.028031	0.000000	0.000801	0.000272	0.000007
  97	4.8000e-02	3.8774	0.027998	-0.000000	-0.000801	-0.000272	-0.000007
  98	4.8500e-02	3.9079	0.028543	0.000001	0.013223	0.004480	0.000109
  99	4.9000e-02	3.9544	0.028932	0.000001	0.009416	0.003190	0.000078
 100	4.9500e-02	3.9833	0.029221	0.000001	0.007012	0.002376	0.000058
 101	5.0000e-02	4.0314	0.029518	0.000001	0.007213	0.002444	0.000059
 102	5.0500e-02	4.0780	0.029270	-0.000001	-0.006010	-0.002036	-0.000050
 103	5.1000e-02	4.1052	0.029006	-0.000001	-0.006411	-0.002172	-0.000053
 104	5.1500e-02	4.1453	0.028692	-0.000001	-0.007613	-0.002579	-0.000063
 105	5.2000e-02	4.2063	0.028659	-0.000000	-0.000801	-0.000272	-0.000007
 106	5.2500e-02	4.2255	0.028634	-0.000000	-0.000601	-0.000204	-0.000005
 107	5.3000e-02	4.2913	0.028659	0.000000	0.000601	0.000204	0.000005
 108	5.3500e-02	4.3122	0.028684	0.000000	0.000601	0.000204	0.000005
 109	5.4000e-02	4.3186	0.028659	-0.000000	-0.000601	-0.000204	-0.000005
 110	5.4500e-02	4.3972	0.029039	0.000001	0.009216	0.003122	0.000076
 111	5.5000e-02	4.4309	0.029700	0.000002	0.016028	0.005430	0.000132
 112	5.5500e-02	4.4774	0.030353	0.000002	0.015828	0.005363	0.000131
 113	5.6000e-02	4.5223	0.030287	-0.000000	-0.001603	-0.000543	-0.000013
 114	5.6500e-02	4.5400	0.030254	-0.000000	-0.000801	-0.000272	-0.000007
 115	5.7000e-02	4.6025	0.030171	-0.000000	-0.002003	-0.000679	-0.000017
 116	5.7500e-02	4.6266	0.030204	0.000000	0.000801	0.000272	0.000007
 117	5.8000e-02	4.6715	0.030204	0.000000	0.000000	0.000000	0.000000
 118	5.8500e-02	4.7469	0.030782	0.000001	0.014024	0.004752	0.000116
 119	5.9000e-02	4.7469	0.031253	-0.000001	-0.011420	-0.003869	0.000094
 120	5.9500e-02	4.8127	0.031163	-0.000000	-0.002204	-0.000747	-0.000018
 121	6.0000e-02	4.8496	0.030972	-0.000000	-0.004608	-0.001561	-0.000038
 122	6.0500e-02	4.9025	0.030873	-0.000000	-0.002404	-0.000815	-0.000020
 123	6.1000e-02	4.9266	0.031121	0.000001	0.006010	0.002036	0.000050
 124	6.1500e-02	4.9587	0.031633	0.000001	0.012422	0.004209	0.000102
 125	6.2000e-02	4.9972	0.031782	0.000000	0.003606	0.001222	0.000030
 126	6.2500e-02	5.0453	0.031584	-0.000000	-0.004808	-0.001629	-0.000040
 127	6.3000e-02	5.1079	0.031584	0.000000	0.000000	0.000000	0.000000
 128	6.3500e-02	5.0934	0.031890	-0.000001	-0.007413	-0.002512	0.000061
 129	6.4000e-02	5.1400	0.032270	0.000001	0.009216	0.003122	0.000076
 130	6.4500e-02	5.1704	0.032261	-0.000000	-0.000200	-0.000068	-0.000002
 131	6.5000e-02	5.2410	0.032179	-0.000000	-0.002003	-0.000679	-0.000017
 132	6.5500e-02	5.2651	0.032286	0.000000	0.002605	0.000882	0.000021
 133	6.6000e-02	5.2972	0.032642	0.000001	0.008615	0.002919	0.000071
 134	6.6500e-02	5.3581	0.032889	0.000001	0.006010	0.002036	0.000050
 135	6.7000e-02	5.3918	0.032873	-0.000000	-0.000401	-0.000136	-0.000003
 136	6.7500e-02	5.4351	0.032840	-0.000000	-0.000801	-0.000272	-0.000007
 137	6.8000e-02	5.4929	0.032799	-0.000000	-0.001002	-0.000339	-0.000008
 138	6.8500e-02	5.5298	0.032765	-0.000000	-0.000801	-0.000272	-0.000007
 139	6.9000e-02	5.5651	0.032642	-0.000000	-0.003005	-0.001018	-0.000025
 140	6.9500e-02	5.6132	0.032385	-0.000001	-0.006211	-0.002104	-0.000051
 141	7.0000e-02	5.6501	0.032889	0.000001	0.012221	0.004141	0.000101
 142	7.0500e-02	5.6886	0.033385	0.000001	0.012021	0.004073	0.000099
 143	7.1000e-02	5.7319	0.033840	0.000001	0.011019	0.003733	0.000091
 144	7.1500e-02	5.7672	0.033914	0.000000	0.001803	0.000611	0.000015
 145	7.2000e-02	5.8169	0.034079	0.000000	0.004007	0.001358	0.000033
 146	7.2500e-02	5.8378	0.034476	0.000001	0.009617	0.003258	0.000079
 147	7.3000e-02	5.9148	0.034707	0.000001	0.005610	0.001901	0.000046
 148	7.3500e-02	5.9148	0.034732	-0.000000	-0.000601	-0.000204	0.000005
 149	7.4000e-02	5.9661	0.034641	-0.000000	-0.002204	-0.000747	-0.000018
 150	7.4500e-02	5.9886	0.034616	-0.000000	-0.000601	-0.000204	-0.000005
 151	7.5000e-02	6.0415	0.034492	-0.000000	-0.003005	-0.001018	-0.000025
 152	7.5500e-02	6.1121	0.034327	-0.000000	-0.004007	-0.001358	-0.000033
 153	7.6000e-02	6.1330	0.034443	0.000000	0.002805	0.000950	0.000023
 154	7.6500e-02	6.1490	0.034757	0.000001	0.007613	0.002579	0.000063
 155	7.7000e-02	6.1506	0.035170	0.000001	0.010017	0.003394	0.000083
 156	7.7500e-02	6.2517	0.035211	0.000000	0.001002	0.000339	0.000008
 157	7.8000e-02	6.3062	0.034922	-0.000001	-0.007012	-0.002376	-0.000058
 158	7.8500e-02	6.3239	0.035013	0.000000	0.002204	0.000747	0.000018
 159	7.9000e-02	6.3816	0.035286	0.000001	0.006612	0.002240	0.000055
 160	7.9500e-02	6.4137	0.035616	0.000001	0.008014	0.002715	0.000066
 161	8.0000e-02	6.4362	0.035707	0.000000	0.002204	0.000747	0.000018
 162	8.0500e-02	6.4859	0.035872	0.000000	0.004007	0.001358	0.000033
 163	8.1000e-02	6.4602	0.035765	0.000000	0.002605	0.000882	-0.000021
 164	8.1500e-02	6.5437	0.036013	0.000001	0.006010	0.002036	0.000050
 165	8.2000e-02	6.5693	0.036194	0.000000	0.004408	0.001493	0.000036
 166	8.2500e-02	6.6528	0.036351	0.000000	0.003807	0.001290	0.000031
 167	8.3000e-02	6.6415	0.036418	-0.000000	-0.001603	-0.000543	0.000013
 168	8.3500e-02	6.7073	0.036385	-0.000000	-0.000801	-0.000272	-0.000007
 169	8.4000e-02	6.7426	0.036558	0.000000	0.004207	0.001425	0.000035
 170	8.4500e-02	6.7923	0.036591	0.000000	0.000801	0.000272	0.000007
 171	8.5000e-02	6.8308	0.036880	0.000001	0.007012	0.002376	0.000058
 172	8.5500e-02	6.8661	0.037054	0.000000	0.004207	0.001425	0.000035
 173	8.6000e-02	6.9126	0.036979	-0.000000	-0.001803	-0.000611	-0.000015
 174	8.6500e-02	6.9543	0.037136	0.000000	0.003807	0.001290	0.000031
 175	8.7000e-02	6.9816	0.037475	0.000001	0.008214	0.002783	0.000068
 176	8.7500e-02	7.0281	0.037830	0.000001	0.008615	0.002919	0.000071
 177	8.8000e-02	7.0650	0.037814	-0.000000	-0.000401	-0.000136	-0.000003
 178	8.8500e-02	7.1164	0.038004	0.000000	0.004608	0.001561	0.000038
 179	8.9000e-02	7.1533	0.038211	0.000001	0.005009	0.001697	0.000041
 180	8.9500e-02	7.2094	0.038343	0.000000	0.003206	0.001086	0.000026
 181	9.0000e-02	7.2608	0.038301	-0.000000	-0.001002	-0.000339	-0.000008
 182	9.0500e-02	7.2880	0.038293	-0.000000	-0.000200	-0.000068	-0.000002
 183	9.1000e-02	7.3153	0.038417	0.000000	0.003005	0.001018	0.000025
 184	9.1500e-02	7.3394	0.038500	0.000000	0.002003	0.000679	0.000017
 185	9.2000e-02	7.4180	0.038541	0.000000	0.001002	0.000339	0.000008
 186	9.2500e-02	7.4260	0.038682	0.000000	0.003406	0.001154	0.000028
 187	9.3000e-02	7.4629	0.038863	0.000000	0.004408	0.001493	0.000036
 188	9.3500e-02	7.5415	0.039144	0.000001	0.006812	0.002308	0.000056
 189	9.4000e-02	7.5335	0.039227	-0.000000	-0.002003	-0.000679	0.000017
 190	9.4500e-02	7.6169	0.039227	0.000000	0.000000	0.000000	0.000000
 191	9.5000e-02	7.6329	0.039764	0.000001	0.013023	0.004412	0.000107
 192	9.5500e-02	7.6843	0.040235	0.000001	0.011420	0.003869	0.000094
 193	9.6000e-02	7.7132	0.040698	0.000001	0.011220	0.003801	0.000093
 194	9.6500e-02	7.7517	0.040995	0.000001	0.007213	0.002444	0.000059
 195	9.7000e-02	7.7886	0.040962	-0.000000	-0.000801	-0.000272	-0.000007
 196	9.7500e-02	7.8238	0.040508	-0.000001	-0.011019	-0.003733	-0.000091
 197	9.8000e-02	7.8720	0.040194	-0.000001	-0.007613	-0.002579	-0.000063
 198	9.8500e-02	7.9265	0.039954	-0.000001	-0.005810	-0.001969	-0.000048
 199	9.9000e-02	7.9490	0.039847	-0.000000	-0.002605	-0.000882	-0.000021
 200	9.9500e-02	8.0035	0.039871	0.000000	0.000601	0.000204	0.000005
 201	1.0000e-01	8.0581	0.039871	0.000000	0.000000	0.000000	0.000000
 202	1.0050e-01	8.0484	0.039863	0.000000	0.000200	0.000068	-0.000002
 203	1.0100e-01	8.1190	0.040111	0.000001	0.006010	0.002036	0.000050
 204	1.0150e-01	8.1527	0.040731	0.000002	0.015026	0.005091	0.000124
 205	1.0200e-01	8.2105	0.041317	0.000001	0.014225	0.004819	0.000117
 206	1.0250e-01	8.2409	0.041714	0.000001	0.009617	0.003258	0.000079
 207	1.0300e-01	8.2666	0.041606	-0.000000	-0.002605	-0.000882	-0.000021
 208	1.0350e-01	8.3244	0.041606	0.000000	0.000000	0.000000	0.000000
 209	1.0400e-01	8.3372	0.041516	-0.000000	-0.002204	-0.000747	-0.000018
 210	1.0450e-01	8.4367	0.041590	0.000000	0.001803	0.000611	0.000015
 211	1.0500e-01	8.4527	0.042061	0.000001	0.011420	0.003869	0.000094
 212	1.0550e-01	8.4928	0.042648	0.000001	0.014225	0.004819	0.000117
 213	1.0600e-01	8.5040	0.042664	0.000000	0.000401	0.000136	0.000003
 214	1.0650e-01	8.5634	0.042573	-0.000000	-0.002204	-0.000747	-0.000018
 215	1.0700e-01	8.5971	0.042441	-0.000000	-0.003206	-0.001086	-0.000026
 216	1.0750e-01	8.6276	0.042524	0.000000	0.002003	0.000679	0.000017
 217	1.0800e-01	8.6677	0.042986	0.000001	0.011220	0.003801	0.000093
 218	1.0850e-01	8.7302	0.043267	0.000001	0.006812	0.002308	0.000056
 219	1.0900e-01	8.7527	0.043267	0.000000	0.000000	0.000000	0.000000
 220	1.0950e-01	8.8056	0.043185	-0.000000	-0.002003	-0.000679	-0.000017
 221	1.1000e-01	8.8361	0.043408	0.000001	0.005409	0.001833	0.000045
 222	1.1050e-01	8.8842	0.044003	0.000001	0.014425	0.004887	0.000119
 223	1.1100e-01	8.8939	0.044317	0.000001	0.007613	0.002579	0.000063
 224	1.1150e-01	8.9484	0.044135	-0.000000	-0.004408	-0.001493	-0.000036
 225	1.1200e-01	8.9901	0.044275	0.000000	0.003406	0.001154	0.000028
 226	1.1250e-01	9.0479	0.044556	0.000001	0.006812	0.002308	0.000056
 227	1.1300e-01	9.0639	0.044565	0.000000	0.000200	0.000068	0.000002
 228	1.1350e-01	9.1329	0.044424	-0.000000	-0.003406	-0.001154	-0.000028
 229	1.1400e-01	9.1554	0.044127	-0.000001	-0.007213	-0.002444	-0.000059
 230	1.1450e-01	9.2035	0.044424	0.000001	0.007213	0.002444	0.000059
 231	1.1500e-01	9.2324	0.045035	0.000001	0.014826	0.005023	0.000122
 232	1.1550e-01	9.2933	0.045440	0.000001	0.009817	0.003326	0.000081
 233	1.1600e-01	9.3142	0.045424	-0.000000	-0.000401	-0.000136	-0.000003
 234	1.1650e-01	9.3495	0.045630	0.000001	0.005009	0.001697	0.000041
 235	1.1700e-01	9.3960	0.045887	0.000001	0.006211	0.002104	0.000051
 236	1.1750e-01	9.4377	0.046234	0.000001	0.008415	0.002851	0.000069
 237	1.1800e-01	9.5099	0.046308	0.000000	0.001803	0.000611	0.000015
 238	1.1850e-01	9.5195	0.046407	0.000000	0.002404	0.000815	0.000020
 239	1.1900e-01	9.5388	0.046275	-0.000000	-0.003206	-0.001086	-0.000026
 240	1.1950e-01	9.6270	0.046316	0.000000	0.001002	0.000339	0.000008
 241	1.2000e-01	9.6190	0.046159	0.000000	0.003807	0.001290	-0.000031
 242	1.2050e-01	9.6543	0.046341	0.000000	0.004408	0.001493	0.000036
 243	1.2100e-01	9.7168	0.046688	0.000001	0.008415	0.002851	0.000069
 244	1.2150e-01	9.7425	0.047167	0.000001	0.011620	0.003937	0.000096
 245	1.2200e-01	9.8115	0.047390	0.000001	0.005409	0.001833	0.000045
 246	1.2250e-01	9.8436	0.047275	-0.000000	-0.002805	-0.000950	-0.000023
 247	1.2300e-01	9.8869	0.047291	0.000000	0.000401	0.000136	0.000003
 248	1.2350e-01	9.9254	0.047704	0.000001	0.010017	0.003394	0.000083
 249	1.2400e-01	9.9559	0.047944	0.000001	0.005810	0.001969	0.000048
 250	1.2450e-01	9.9799	0.048250	0.000001	0.007413	0.002512	0.000061
 251	1.2500e-01	10.0216	0.048440	0.000000	0.004608	0.001561	0.000038
 252	1.2550e-01	10.0746	0.048564	0.000000	0.003005	0.001018	0.000025
 253	1.2600e-01	10.1243	0.048803	0.000001	0.005810	0.001969	0.000048
 254	1.2650e-01	10.1724	0.049035	0.000001	0.005610	0.001901	0.000046
 255	1.2700e-01	10.1933	0.049274	0.000001	0.005810	0.001969	0.000048
 256	1.2750e-01	10.2158	0.049530	0.000001	0.006211	0.002104	0.000051
 257	1.2800e-01	10.2751	0.049563	0.000000	0.000801	0.000272	0.000007
 258	1.2850e-01	10.3200	0.049745	0.000000	0.004408	0.001493	0.000036
 259	1.2900e-01	10.3377	0.049894	0.000000	0.003606	0.001222	0.000030
 260	1.2950e-01	10.4002	0.050282	0.000001	0.009416	0.003190	0.000078
 261	1.3000e-01	10.4387	0.050448	0.000000	0.004007	0.001358	0.000033
 262	1.3050e-01	10.4997	0.050514	0.000000	0.001603	0.000543	0.000013
 263	1.3100e-01	10.5270	0.050662	0.000000	0.003606	0.001222	0.000030
 264	1.3150e-01	10.5414	0.051026	0.000001	0.008815	0.002987	0.000073
 265	1.3200e-01	10.5911	0.051398	0.000001	0.009016	0.003055	0.000074
 266	1.3250e-01	10.6329	0.051447	0.000000	0.001202	0.000407	0.000010
 267	1.3300e-01	10.6633	0.051505	0.000000	0.001402	0.000475	0.000012
 268	1.3350e-01	10.7403	0.051860	0.000001	0.008615	0.002919	0.000071
 269	1.3400e-01	10.7339	0.052026	-0.000000	-0.004007	-0.001358	0.000033
 270	1.3450e-01	10.8061	0.052183	0.000000	0.003807	0.001290	0.000031
 271	1.3500e-01	10.8334	0.052108	-0.000000	-0.001803	-0.000611	-0.000015
 272	1.3550e-01	10.8959	0.052298	0.000000	0.004608	0.001561	0.000038
 273	1.3600e-01	10.9457	0.052621	0.000001	0.007814	0.002647	0.000064
 274	1.3650e-01	10.9601	0.052736	0.000000	0.002805	0.000950	0.000023
 275	1.3700e-01	10.9794	0.052802	0.000000	0.001603	0.000543	0.000013
 276	1.3750e-01	11.0323	0.053001	0.000000	0.004808	0.001629	0.000040
 277	1.3800e-01	11.0724	0.053331	0.000001	0.008014	0.002715	0.000066
 278	1.3850e-01	11.1029	0.053563	0.000001	0.005610	0.001901	0.000046
 279	1.3900e-01	11.1687	0.053645	0.000000	0.002003	0.000679	0.000017
 280	1.3950e-01	11.1959	0.053885	0.000001	0.005810	0.001969	0.000048
 281	1.4000e-01	11.2473	0.054215	0.000001	0.008014	0.002715	0.000066
 282	1.4050e-01	11.2697	0.054628	0.000001	0.010017	0.003394	0.000083
 283	1.4100e-01	11.3050	0.054818	0.000000	0.004608	0.001561	0.000038
 284	1.4150e-01	11.3275	0.055132	0.000001	0.007613	0.002579	0.000063
 285	1.4200e-01	11.4077	0.055678	0.000001	0.013223	0.004480	0.000109
 286	1.4250e-01	11.4366	0.056124	0.000001	0.010819	0.003666	0.000089
 287	1.4300e-01	11.4783	0.056479	0.000001	0.008615	0.002919	0.000071
 288	1.4350e-01	11.5312	0.056653	0.000000	0.004207	0.001425	0.000035
 289	1.4400e-01	11.5601	0.056397	-0.000001	-0.006211	-0.002104	-0.000051
 290	1.4450e-01	11.5874	0.056050	-0.000001	-0.008415	-0.002851	-0.000069
 291	1.4500e-01	11.6580	0.056116	0.000000	0.001603	0.000543	0.000013
 292	1.4550e-01	11.6596	0.056149	0.000000	0.000801	0.000272	0.000007
 293	1.4600e-01	11.7173	0.056066	-0.000000	-0.002003	-0.000679	-0.000017
 294	1.4650e-01	11.7446	0.056174	0.000000	0.002605	0.000882	0.000021
 295	1.4700e-01	11.7751	0.056339	0.000000	0.004007	0.001358	0.000033
 296	1.4750e-01	11.8874	0.056554	0.000001	0.005209	0.001765	0.000043
 297	1.4800e-01	11.8713	0.057248	-0.000002	-0.016829	-0.005702	0.000139
 298	1.4850e-01	11.9130	0.058057	0.000002	0.019634	0.006652	0.000162
 299	1.4900e-01	11.9692	0.058553	0.000001	0.012021	0.004073	0.000099
 300	1.4950e-01	11.9804	0.058685	0.000000	0.003206	0.001086	0.000026
 301	1.5000e-01	12.0382	0.058628	-0.000000	-0.001402	-0.000475	-0.000012
 302	1.5050e-01	12.0959	0.058628	0.000000	0.000000	0.000000	0.000000
 303	1.5100e-01	12.1120	0.058677	0.000000	0.001202	0.000407	0.000010
 304	1.5150e-01	12.1665	0.058933	0.000001	0.006211	0.002104	0.000051
 305	1.5200e-01	12.1986	0.059569	0.000002	0.015427	0.005227	0.000127
 306	1.5250e-01	12.2403	0.060007	0.000001	0.010619	0.003598	0.000088
 307	1.5300e-01	12.3013	0.060057	0.000000	0.001202	0.000407	0.000010
 308	1.5350e-01	12.3189	0.060073	0.000000	0.000401	0.000136	0.000003
 309	1.5400e-01	12.3638	0.060090	0.000000	0.000401	0.000136	0.000003
 310	1.5450e-01	12.4200	0.060561	0.000001	0.011420	0.003869	0.000094
 311	1.5500e-01	12.4328	0.061197	0.000002	0.015427	0.005227	0.000127
 312	1.5550e-01	12.5002	0.061371	0.000000	0.004207	0.001425	0.000035
 313	1.5600e-01	12.4841	0.061420	-0.000000	-0.001202	-0.000407	0.000010
 314	1.5650e-01	12.5579	0.061652	0.000001	0.005610	0.001901	0.000046
 315	1.5700e-01	12.5884	0.061974	0.000001	0.007814	0.002647	0.000064
 316	1.5750e-01	12.6398	0.062197	0.000001	0.005409	0.001833	0.000045
 317	1.5800e-01	12.6783	0.062263	0.000000	0.001603	0.000543	0.000013
 318	1.5850e-01	12.7280	0.062172	-0.000000	-0.002204	-0.000747	-0.000018
 319	1.5900e-01	12.7713	0.062387	0.000001	0.005209	0.001765	0.000043
 320	1.5950e-01	12.8146	0.063147	0.000002	0.018432	0.006245	0.000152
 321	1.6000e-01	12.8371	0.063701	0.000001	0.013423	0.004548	0.000111
 322	1.6050e-01	12.8948	0.063965	0.000001	0.006411	0.002172	0.000053
 323	1.6100e-01	12.9012	0.064296	0.000001	0.008014	0.002715	0.000066
 324	1.6150e-01	12.9141	0.064692	0.000001	0.009617	0.003258	0.000079
 325	1.6200e-01	12.9927	0.065147	0.000001	0.011019	0.003733	0.000091
 326	1.6250e-01	13.0585	0.065560	0.000001	0.010017	0.003394	0.000083
 327	1.6300e-01	13.0777	0.065642	0.000000	0.002003	0.000679	0.000017
 328	1.6350e-01	13.1066	0.065766	0.000000	0.003005	0.001018	0.000025
 329	1.6400e-01	13.1868	0.065775	0.000000	0.000200	0.000068	0.000002
 330	1.6450e-01	13.1916	0.065965	0.000000	0.004608	0.001561	0.000038
 331	1.6500e-01	13.2269	0.066155	0.000000	0.004608	0.001561	0.000038
 332	1.6550e-01	13.2734	0.066675	0.000001	0.012622	0.004276	0.000104
 333	1.6600e-01	13.3039	0.067072	0.000001	0.009617	0.003258	0.000079
 334	1.6650e-01	13.3248	0.067460	0.000001	0.009416	0.003190	0.000078
 335	1.6700e-01	13.3841	0.067460	0.000000	0.000000	0.000000	0.000000
 336	1.6750e-01	13.4338	0.067584	0.000000	0.003005	0.001018	0.000025
 337	1.6800e-01	13.4531	0.067882	0.000001	0.007213	0.002444	0.000059
 338	1.6850e-01	13.5125	0.068452	0.000001	0.013824	0.004684	0.000114
 339	1.6900e-01	13.5445	0.068774	0.000001	0.007814	0.002647	0.000064
 340	1.6950e-01	13.5798	0.069047	0.000001	0.006612	0.002240	0.000055
 341	1.7000e-01	13.6296	0.069311	0.000001	0.006411	0.002172	0.000053
 342	1.7050e-01	13.6408	0.069691	0.000001	0.009216	0.003122	0.000076
 343	1.7100e-01	13.7114	0.070104	0.000001	0.010017	0.003394	0.000083
 344	1.7150e-01	13.7483	0.070294	0.000000	0.004608	0.001561	0.000038
 345	1.7200e-01	13.7755	0.070914	0.000002	0.015026	0.005091	0.000124
 346	1.7250e-01	13.8189	0.071005	0.000000	0.002204	0.000747	0.000018
 347	1.7300e-01	13.8750	0.071426	0.000001	0.010218	0.003462	0.000084
 348	1.7350e-01	13.9296	0.071633	0.000001	0.005009	0.001697	0.000041
 349	1.7400e-01	13.9841	0.072013	0.000001	0.009216	0.003122	0.000076
 350	1.7450e-01	13.9953	0.072434	0.000001	0.010218	0.003462	0.000084
 351	1.7500e-01	14.0178	0.072707	0.000001	0.006612	0.002240	0.000055
 352	1.7550e-01	14.0643	0.072823	0.000000	0.002805	0.000950	0.000023
 353	1.7600e-01	14.0868	0.073302	0.000001	0.011620	0.003937	0.000096
 354	1.7650e-01	14.1830	0.073880	0.000001	0.014024	0.004752	0.000116
 355	1.7700e-01	14.1638	0.074087	-0.000001	-0.005009	-0.001697	0.000041
 356	1.7750e-01	14.2793	0.074335	0.000001	0.006010	0.002036	0.000050
 357	1.7800e-01	14.2937	0.074665	0.000001	0.008014	0.002715	0.000066
 358	1.7850e-01	14.2761	0.075087	-0.000001	-0.010218	-0.003462	0.000084
 359	1.7900e-01	14.3691	0.075335	0.000001	0.006010	0.002036	0.000050
 360	1.7950e-01	14.4076	0.075558	0.000001	0.005409	0.001833	0.000045
 361	1.8000e-01	14.4333	0.075839	0.000001	0.006812	0.002308	0.000056
 362	1.8050e-01	14.4750	0.076252	0.000001	0.010017	0.003394	0.000083
 363	1.8100e-01	14.4926	0.076599	0.000001	0.008415	0.002851	0.000069
 364	1.8150e-01	14.5295	0.076731	0.000000	0.003206	0.001086	0.000026
 365	1.8200e-01	14.5729	0.076954	0.000001	0.005409	0.001833	0.000045
 366	1.8250e-01	14.6178	0.077392	0.000001	0.010619	0.003598	0.000088
 367	1.8300e-01	14.6611	0.077599	0.000001	0.005009	0.001697	0.000041
 368	1.8350e-01	14.7028	0.077855	0.000001	0.006211	0.002104	0.000051
 369	1.8400e-01	14.7670	0.077995	0.000000	0.003406	0.001154	0.000028
 370	1.8450e-01	14.7942	0.078466	0.000001	0.011420	0.003869	0.000094
 371	1.8500e-01	14.8568	0.078821	0.000001	0.008615	0.002919	0.000071
 372	1.8550e-01	14.8263	0.079160	-0.000001	-0.008214	-0.002783	0.000068
 373	1.8600e-01	14.8793	0.079482	0.000001	0.007814	0.002647	0.000064
 374	1.8650e-01	14.9498	0.079970	0.000001	0.011821	0.004005	0.000097
 375	1.8700e-01	14.9659	0.080408	0.000001	0.010619	0.003598	0.000088
 376	1.8750e-01	15.0573	0.080722	0.000001	0.007613	0.002579	0.000063
 377	1.8800e-01	15.0958	0.081052	0.000001	0.008014	0.002715	0.000066
 378	1.8850e-01	15.0990	0.081804	0.000002	0.018232	0.006177	0.000150
 379	1.8900e-01	15.1536	0.082507	0.000002	0.017030	0.005770	0.000140
 380	1.8950e-01	15.1985	0.082994	0.000001	0.011821	0.004005	0.000097
 381	1.9000e-01	15.2274	0.083622	0.000002	0.015227	0.005159	0.000126
 382	1.9050e-01	15.2691	0.083391	-0.000001	-0.005610	-0.001901	-0.000046
 383	1.9100e-01	15.3349	0.083300	-0.000000	-0.002204	-0.000747	-0.000018
 384	1.9150e-01	15.3573	0.083366	0.000000	0.001603	0.000543	0.000013
 385	1.9200e-01	15.3974	0.083515	0.000000	0.003606	0.001222	0.000030
 386	1.9250e-01	15.4375	0.083605	0.000000	0.002204	0.000747	0.000018
 387	1.9300e-01	15.4728	0.083969	0.000001	0.008815	0.002987	0.000073
 388	1.9350e-01	15.5097	0.084233	0.000001	0.006411	0.002172	0.000053
 389	1.9400e-01	15.5210	0.084564	0.000001	0.008014	0.002715	0.000066
 390	1.9450e-01	15.5851	0.085027	0.000001	0.011220	0.003801	0.000093
 391	1.9500e-01	15.6252	0.086101	0.000003	0.026045	0.008824	0.000215
 392	1.9550e-01	15.7295	0.086944	0.000002	0.020436	0.006924	0.000169
 393	1.9600e-01	15.7103	0.087423	-0.000001	-0.011620	-0.003937	0.000096
 394	1.9650e-01	15.7600	0.087415	-0.000000	-0.000200	-0.000068	-0.000002
 395	1.9700e-01	15.8065	0.087505	0.000000	0.002204	0.000747	0.000018
 396	1.9750e-01	15.8482	0.087753	0.000001	0.006010	0.002036	0.000050
 397	1.9800e-01	15.8739	0.088117	0.000001	0.008815	0.002987	0.000073
 398	1.9850e-01	15.9092	0.088836	0.000002	0.017430	0.005906	0.000144
 399	1.9900e-01	15.9461	0.089488	0.000002	0.015828	0.005363	0.000131
 400	1.9950e-01	15.9862	0.089662	0.000000	0.004207	0.001425	0.000035
 401	2.0000e-01	16.0359	0.089802	0.000000	0.003406	0.001154	0.000028
 402	2.0050e-01	16.0696	0.090009	0.000001	0.005009	0.001697	0.000041
 403	2.0100e-01	16.1145	0.090455	0.000001	0.010819	0.003666	0.000089
 404	2.0150e-01	16.1578	0.091315	0.000002	0.020836	0.007060	0.000172
 405	2.0200e-01	16.1610	0.091372	0.000000	0.001402	0.000475	0.000012
 406	2.0250e-01	16.2380	0.091323	-0.000000	-0.001202	-0.000407	-0.000010
 407	2.0300e-01	16.2685	0.091480	0.000000	0.003807	0.001290	0.000031
 408	2.0350e-01	16.3006	0.092058	0.000001	0.014024	0.004752	0.000116
 409	2.0400e-01	16.3407	0.092851	0.000002	0.019234	0.006517	0.000159
 410	2.0450e-01	16.4049	0.093380	0.000001	0.012822	0.004344	0.000106
 411	2.0500e-01	16.4177	0.093793	0.000001	0.010017	0.003394	0.000083
 412	2.0550e-01	16.4562	0.094033	0.000001	0.005810	0.001969	0.000048
 413	2.0600e-01	16.4835	0.094636	0.000001	0.014626	0.004955	0.000121
 414	2.0650e-01	16.5749	0.095322	0.000002	0.016629	0.005634	0.000137
 415	2.0700e-01	16.6182	0.095743	0.000001	0.010218	0.003462	0.000084
 416	2.0750e-01	16.6503	0.096032	0.000001	0.007012	0.002376	0.000058
 417	2.0800e-01	16.6712	0.096198	0.000000	0.004007	0.001358	0.000033
 418	2.0850e-01	16.6904	0.096578	0.000001	0.009216	0.003122	0.000076
 419	2.0900e-01	16.7642	0.096702	0.000000	0.003005	0.001018	0.000025
 420	2.0950e-01	16.7771	0.096999	0.000001	0.007213	0.002444	0.000059
 421	2.1000e-01	16.8300	0.097478	0.000001	0.011620	0.003937	0.000096
 422	2.1050e-01	16.8926	0.098032	0.000001	0.013423	0.004548	0.000111
 423	2.1100e-01	16.9134	0.098561	0.000001	0.012822	0.004344	0.000106
 424	2.1150e-01	16.9375	0.098800	0.000001	0.005810	0.001969	0.000048
 425	2.1200e-01	16.9583	0.098792	-0.000000	-0.000200	-0.000068	-0.000002
 426	2.1250e-01	17.0353	0.099247	0.000001	0.011019	0.003733	0.000091
 427	2.1300e-01	17.0738	0.099883	0.000002	0.015427	0.005227	0.000127
 428	2.1350e-01	17.1268	0.100420	0.000001	0.013023	0.004412	0.000107
 429	2.1400e-01	17.1316	0.100850	0.000001	0.010418	0.003530	0.000086
 430	2.1450e-01	17.2006	0.101172	0.000001	0.007814	0.002647	0.000064
 431	2.1500e-01	17.2407	0.101585	0.000001	0.010017	0.003394	0.000083
 432	2.1550e-01	17.2856	0.102139	0.000001	0.013423	0.004548	0.000111
 433	2.1600e-01	17.3321	0.102543	0.000001	0.009817	0.003326	0.000081
 434	2.1650e-01	17.3658	0.103039	0.000001	0.012021	0.004073	0.000099
 435	2.1700e-01	17.3706	0.103502	0.000001	0.011220	0.003801	0.000093
 436	2.1750e-01	17.4412	0.103750	0.000001	0.006010	0.002036	0.000050
 437	2.1800e-01	17.4557	0.104014	0.000001	0.006411	0.002172	0.000053
 438	2.1850e-01	17.5118	0.104502	0.000001	0.011821	0.004005	0.000097
 439	2.1900e-01	17.5631	0.105064	0.000001	0.013624	0.004616	0.000112
 440	2.1950e-01	17.6000	0.105262	0.000000	0.004808	0.001629	0.000040
 441	2.2000e-01	17.6257	0.105568	0.000001	0.007413	0.002512	0.000061
 442	2.2050e-01	17.6498	0.106005	0.000001	0.010619	0.003598	0.000088
 443	2.2100e-01	17.7332	0.106658	0.000002	0.015828	0.005363	0.000131
 444	2.2150e-01	17.7621	0.106989	0.000001	0.008014	0.002715	0.000066
 445	2.2200e-01	17.7829	0.107336	0.000001	0.008415	0.002851	0.000069
 446	2.2250e-01	17.8455	0.107881	0.000001	0.013223	0.004480	0.000109
 447	2.2300e-01	17.8551	0.108542	0.000002	0.016028	0.005430	0.000132
 448	2.2350e-01	17.9305	0.108897	0.000001	0.008615	0.002919	0.000071
 449	2.2400e-01	17.9626	0.109418	0.000001	0.012622	0.004276	0.000104
 450	2.2450e-01	18.0139	0.109790	0.000001	0.009016	0.003055	0.000074
 451	2.2500e-01	18.0540	0.110352	0.000001	0.013624	0.004616	0.000112
 452	2.2550e-01	18.0428	0.110938	-0.000001	-0.014225	-0.004819	0.000117
 453	2.2600e-01	18.1150	0.111194	0.000001	0.006211	0.002104	0.000051
 454	2.2650e-01	18.1342	0.111484	0.000001	0.007012	0.002376	0.000058
 455	2.2700e-01	18.1968	0.111971	0.000001	0.011821	0.004005	0.000097
 456	2.2750e-01	18.2048	0.112583	0.000001	0.014826	0.005023	0.000122
 457	2.2800e-01	18.2658	0.112748	0.000000	0.004007	0.001358	0.000033
 458	2.2850e-01	18.3059	0.113153	0.000001	0.009817	0.003326	0.000081
 459	2.2900e-01	18.3380	0.113541	0.000001	0.009416	0.003190	0.000078
 460	2.2950e-01	18.3845	0.114202	0.000002	0.016028	0.005430	0.000132
 461	2.3000e-01	18.4342	0.114706	0.000001	0.012221	0.004141	0.000101
 462	2.3050e-01	18.4759	0.115003	0.000001	0.007213	0.002444	0.000059
 463	2.3100e-01	18.5209	0.115623	0.000002	0.015026	0.005091	0.000124
 464	2.3150e-01	18.5513	0.116301	0.000002	0.016429	0.005566	0.000136
 465	2.3200e-01	18.6107	0.116780	0.000001	0.011620	0.003937	0.000096
 466	2.3250e-01	18.6284	0.117135	0.000001	0.008615	0.002919	0.000071
 467	2.3300e-01	18.6733	0.117524	0.000001	0.009416	0.003190	0.000078
 468	2.3350e-01	18.7390	0.117995	0.000001	0.011420	0.003869	0.000094
 469	2.3400e-01	18.7888	0.118466	0.000001	0.011420	0.003869	0.000094
 470	2.3450e-01	18.7856	0.118829	-0.000001	-0.008815	-0.002987	0.000073
 471	2.3500e-01	18.8658	0.119474	0.000002	0.015627	0.005295	0.000129
 472	2.3550e-01	18.8610	0.120209	-0.000002	-0.017831	-0.006041	0.000147
 473	2.3600e-01	18.8979	0.120961	0.000002	0.018232	0.006177	0.000150
 474	2.3650e-01	18.9620	0.121531	0.000001	0.013824	0.004684	0.000114
 475	2.3700e-01	19.0021	0.121638	0.000000	0.002605	0.000882	0.000021
 476	2.3750e-01	19.0567	0.121655	0.000000	0.000401	0.000136	0.000003
 477	2.3800e-01	19.0904	0.121729	0.000000	0.001803	0.000611	0.000015
 478	2.3850e-01	19.1160	0.121952	0.000001	0.005409	0.001833	0.000045
 479	2.3900e-01	19.1658	0.122208	0.000001	0.006211	0.002104	0.000051
 480	2.3950e-01	19.1882	0.122564	0.000001	0.008615	0.002919	0.000071
 481	2.4000e-01	19.2091	0.123084	0.000001	0.012622	0.004276	0.000104
 482	2.4050e-01	19.2733	0.123431	0.000001	0.008415	0.002851	0.000069
 483	2.4100e-01	19.3102	0.124043	0.000001	0.014826	0.005023	0.000122
 484	2.4150e-01	19.3374	0.124960	0.000002	0.022239	0.007535	0.000183
 485	2.4200e-01	19.3775	0.125951	0.000002	0.024042	0.008146	0.000198
 486	2.4250e-01	19.4064	0.126637	0.000002	0.016629	0.005634	0.000137
 487	2.4300e-01	19.4706	0.126728	0.000000	0.002204	0.000747	0.000018
 488	2.4350e-01	19.5171	0.126951	0.000001	0.005409	0.001833	0.000045
 489	2.4400e-01	19.5347	0.127298	0.000001	0.008415	0.002851	0.000069
 490	2.4450e-01	19.5813	0.127728	0.000001	0.010418	0.003530	0.000086
 491	2.4500e-01	19.6294	0.128472	0.000002	0.018031	0.006109	0.000149
 492	2.4550e-01	19.6775	0.129339	0.000002	0.021037	0.007127	0.000174
 493	2.4600e-01	19.7080	0.129802	0.000001	0.011220	0.003801	0.000093
 494	2.4650e-01	19.7481	0.129802	0.000000	0.000000	0.000000	0.000000
 495	2.4700e-01	19.7882	0.129860	0.000000	0.001402	0.000475	0.000012
 496	2.4750e-01	19.8588	0.130306	0.000001	0.010819	0.003666	0.000089
 497	2.4800e-01	19.8941	0.131000	0.000002	0.016829	0.005702	0.000139
 498	2.4850e-01	19.9166	0.131958	0.000002	0.023241	0.007874	0.000192
 499	2.4900e-01	19.9422	0.132529	0.000001	0.013824	0.004684	0.000114
 500	2.4950e-01	19.9791	0.132999	0.000001	0.011420	0.003869	0.000094
 501	2.5000e-01	20.0465	0.133570	0.000001	0.013824	0.004684	0.000114
 502	2.5050e-01	19.9839	0.134421	-0.000002	-0.020636	-0.006992	0.000170
 503	2.5100e-01	19.9358	0.135016	-0.000001	-0.014425	-0.004887	0.000119
 504	2.5150e-01	19.8797	0.135363	-0.000001	-0.008415	-0.002851	0.000069
 505	2.5200e-01	19.8492	0.135660	-0.000001	-0.007213	-0.002444	0.000059
 506	2.5250e-01	19.8251	0.136214	-0.000001	-0.013423	-0.004548	0.000111
 507	2.5300e-01	19.7946	0.136445	-0.000001	-0.005610	-0.001901	0.000046
 508	2.5350e-01	19.7208	0.136395	0.000000	0.001202	0.000407	-0.000010
 509	2.5400e-01	19.6791	0.136619	-0.000001	-0.005409	-0.001833	0.000045
 510	2.5450e-01	19.6342	0.136957	-0.000001	-0.008214	-0.002783	0.000068
 511	2.5500e-01	19.6037	0.137569	-0.000001	-0.014826	-0.005023	0.000122
 512	2.5550e-01	19.5684	0.138048	-0.000001	-0.011620	-0.003937	0.000096
 513	2.5600e-01	19.5396	0.138205	-0.000000	-0.003807	-0.001290	0.000031
 514	2.5650e-01	19.4978	0.138221	-0.000000	-0.000401	-0.000136	0.000003
 515	2.5700e-01	19.4674	0.138552	-0.000001	-0.008014	-0.002715	0.000066
 516	2.5750e-01	19.4224	0.139097	-0.000001	-0.013223	-0.004480	0.000109
 517	2.5800e-01	19.4064	0.139387	-0.000001	-0.007012	-0.002376	0.000058
 518	2.5850e-01	19.3230	0.139684	-0.000001	-0.007213	-0.002444	0.000059
 519	2.5900e-01	19.2941	0.140006	-0.000001	-0.007814	-0.002647	0.000064
 520	2.5950e-01	19.2588	0.140337	-0.000001	-0.008014	-0.002715	0.000066
 521	2.6000e-01	19.2027	0.140609	-0.000001	-0.006612	-0.002240	0.000055
 522	2.6050e-01	19.1658	0.140874	-0.000001	-0.006411	-0.002172	0.000053
 523	2.6100e-01	19.1000	0.141287	-0.000001	-0.010017	-0.003394	0.000083
 524	2.6150e-01	19.0631	0.141733	-0.000001	-0.010819	-0.003666	0.000089
 525	2.6200e-01	19.0679	0.141832	0.000000	0.002404	0.000815	0.000020
 526	2.6250e-01	18.9909	0.141931	-0.000000	-0.002404	-0.000815	0.000020
 527	2.6300e-01	18.9668	0.142295	-0.000001	-0.008815	-0.002987	0.000073
 528	2.6350e-01	18.9235	0.142634	-0.000001	-0.008214	-0.002783	0.000068
 529	2.6400e-01	18.8995	0.142807	-0.000000	-0.004207	-0.001425	0.000035
 530	2.6450e-01	18.8497	0.142816	-0.000000	-0.000200	-0.000068	0.000002
 531	2.6500e-01	18.7952	0.143138	-0.000001	-0.007814	-0.002647	0.000064
 532	2.6550e-01	18.8016	0.143716	0.000001	0.014024	0.004752	0.000116
 533	2.6600e-01	18.7503	0.143981	-0.000001	-0.006411	-0.002172	0.000053
 534	2.6650e-01	18.6877	0.144071	-0.000000	-0.002204	-0.000747	0.000018
 535	2.6700e-01	18.6524	0.144460	-0.000001	-0.009416	-0.003190	0.000078
 536	2.6750e-01	18.6187	0.144790	-0.000001	-0.008014	-0.002715	0.000066
 537	2.6800e-01	18.5754	0.145146	-0.000001	-0.008615	-0.002919	0.000071
 538	2.6850e-01	18.5530	0.145402	-0.000001	-0.006211	-0.002104	0.000051
 539	2.6900e-01	18.4840	0.145608	-0.000001	-0.005009	-0.001697	0.000041
 540	2.6950e-01	18.4727	0.146005	-0.000001	-0.009617	-0.003258	0.000079
 541	2.7000e-01	18.3925	0.146335	-0.000001	-0.008014	-0.002715	0.000066
 542	2.7050e-01	18.3733	0.146468	-0.000000	-0.003206	-0.001086	0.000026
 543	2.7100e-01	18.3043	0.146435	0.000000	0.000801	0.000272	-0.000007
 544	2.7150e-01	18.2690	0.146749	-0.000001	-0.007613	-0.002579	0.000063
 545	2.7200e-01	18.2369	0.147038	-0.000001	-0.007012	-0.002376	0.000058
 546	2.7250e-01	18.2177	0.147137	-0.000000	-0.002404	-0.000815	0.000020
 547	2.7300e-01	18.1824	0.147343	-0.000001	-0.005009	-0.001697	0.000041
 548	2.7350e-01	18.1150	0.147583	-0.000001	-0.005810	-0.001969	0.000048
 549	2.7400e-01	18.0813	0.148104	-0.000001	-0.012622	-0.004276	0.000104
 550	2.7450e-01	18.0476	0.148492	-0.000001	-0.009416	-0.003190	0.000078
 551	2.7500e-01	18.0171	0.148641	-0.000000	-0.003606	-0.001222	0.000030
 552	2.7550e-01	17.9738	0.149004	-0.000001	-0.008815	-0.002987	0.000073
 553	2.7600e-01	17.9466	0.149376	-0.000001	-0.009016	-0.003055	0.000074
 554	2.7650e-01	17.8631	0.149682	-0.000001	-0.007413	-0.002512	0.000061
 555	2.7700e-01	17.8840	0.149855	0.000000	0.004207	0.001425	0.000035
 556	2.7750e-01	17.7990	0.150111	-0.000001	-0.006211	-0.002104	0.000051
 557	2.7800e-01	17.7605	0.150384	-0.000001	-0.006612	-0.002240	0.000055
 558	2.7850e-01	17.7348	0.150715	-0.000001	-0.008014	-0.002715	0.000066
 559	2.7900e-01	17.7075	0.150789	-0.000000	-0.001803	-0.000611	0.000015
 560	2.7950e-01	17.6947	0.151020	-0.000001	-0.005610	-0.001901	0.000046
 561	2.8000e-01	17.6177	0.151219	-0.000000	-0.004808	-0.001629	0.000040
 562	2.8050e-01	17.5744	0.151648	-0.000001	-0.010418	-0.003530	0.000086
 563	2.8100e-01	17.5631	0.151665	-0.000000	-0.000401	-0.000136	0.000003
 564	2.8150e-01	17.5118	0.151962	-0.000001	-0.007213	-0.002444	0.000059
 565	2.8200e-01	17.4332	0.152392	-0.000001	-0.010418	-0.003530	0.000086
 566	2.8250e-01	17.4220	0.153012	-0.000002	-0.015026	-0.005091	0.000124
 567	2.8300e-01	17.3674	0.153507	-0.000001	-0.012021	-0.004073	0.000099
 568	2.8350e-01	17.3273	0.153433	0.000000	0.001803	0.000611	-0.000015
 569	2.8400e-01	17.3017	0.153102	0.000001	0.008014	0.002715	-0.000066
 570	2.8450e-01	17.2680	0.152921	0.000000	0.004408	0.001493	-0.000036
 571	2.8500e-01	17.1974	0.152838	0.000000	0.002003	0.000679	-0.000017
 572	2.8550e-01	17.1974	0.152855	-0.000000	-0.000401	-0.000136	0.000003
 573	2.8600e-01	17.1380	0.152879	-0.000000	-0.000601	-0.000204	0.000005
 574	2.8650e-01	17.0706	0.152896	-0.000000	-0.000401	-0.000136	0.000003
 575	2.8700e-01	17.0129	0.152970	-0.000000	-0.001803	-0.000611	0.000015
 576	2.8750e-01	17.0017	0.153243	-0.000001	-0.006612	-0.002240	0.000055
 577	2.8800e-01	16.9648	0.153896	-0.000002	-0.015828	-0.005363	0.000131
 578	2.8850e-01	16.9567	0.154532	-0.000002	-0.015427	-0.005227	0.000127
 579	2.8900e-01	16.8701	0.155044	-0.000001	-0.012422	-0.004209	0.000102
 580	2.8950e-01	16.8380	0.154912	0.000000	0.003206	0.001086	-0.000026
 581	2.9000e-01	16.8156	0.154887	0.000000	0.000601	0.000204	-0.000005
 582	2.9050e-01	16.7867	0.154904	-0.000000	-0.000401	-0.000136	0.000003
 583	2.9100e-01	16.7674	0.154689	0.000001	0.005209	0.001765	-0.000043
 584	2.9150e-01	16.7033	0.155135	-0.000001	-0.010819	-0.003666	0.000089
 585	2.9200e-01	16.6182	0.155697	-0.000001	-0.013624	-0.004616	0.000112
 586	2.9250e-01	16.6182	0.155829	-0.000000	-0.003206	-0.001086	0.000026
 587	2.9300e-01	16.5733	0.155722	0.000000	0.002605	0.000882	-0.000021
 588	2.9350e-01	16.5220	0.156011	-0.000001	-0.007012	-0.002376	0.000058
 589	2.9400e-01	16.4674	0.156168	-0.000000	-0.003807	-0.001290	0.000031
 590	2.9450e-01	16.4514	0.156779	-0.000001	-0.014826	-0.005023	0.000122
 591	2.9500e-01	16.4081	0.157259	-0.000001	-0.011620	-0.003937	0.000096
 592	2.9550e-01	16.3680	0.157424	-0.000000	-0.004007	-0.001358	0.000033
 593	2.9600e-01	16.3102	0.157374	0.000000	0.001202	0.000407	-0.000010
 594	2.9650e-01	16.2798	0.157548	-0.000000	-0.004207	-0.001425	0.000035
 595	2.9700e-01	16.2429	0.157986	-0.000001	-0.010619	-0.003598	0.000088
 596	2.9750e-01	16.2076	0.158085	-0.000000	-0.002404	-0.000815	0.000020
 597	2.9800e-01	16.1787	0.157895	0.000000	0.004608	0.001561	-0.000038
 598	2.9850e-01	16.1578	0.157680	0.000001	0.005209	0.001765	-0.000043
 599	2.9900e-01	16.0792	0.157936	-0.000001	-0.006211	-0.002104	0.000051
 600	2.9950e-01	16.0455	0.158382	-0.000001	-0.010819	-0.003666	0.000089
 601	3.0000e-01	16.0327	0.158663	-0.000001	-0.006812	-0.002308	0.000056
 602	3.0050e-01	15.9814	0.158820	-0.000000	-0.003807	-0.001290	0.000031
 603	3.0100e-01	15.9364	0.158688	0.000000	0.003206	0.001086	-0.000026
 604	3.0150e-01	15.8562	0.158647	0.000000	0.001002	0.000339	-0.000008
 605	3.0200e-01	15.8418	0.159019	-0.000001	-0.009016	-0.003055	0.000074
 606	3.0250e-01	15.7921	0.159176	-0.000000	-0.003807	-0.001290	0.000031
 607	3.0300e-01	15.7664	0.159266	-0.000000	-0.002204	-0.000747	0.000018
 608	3.0350e-01	15.7359	0.159374	-0.000000	-0.002605	-0.000882	0.000021
 609	3.0400e-01	15.6557	0.159663	-0.000001	-0.007012	-0.002376	0.000058
 610	3.0450e-01	15.6188	0.159597	0.000000	0.001603	0.000543	-0.000013
 611	3.0500e-01	15.6429	0.159762	0.000000	0.004007	0.001358	0.000033
 612	3.0550e-01	15.5787	0.160076	-0.000001	-0.007613	-0.002579	0.000063
 613	3.0600e-01	15.5402	0.160382	-0.000001	-0.007413	-0.002512	0.000061
 614	3.0650e-01	15.4857	0.160407	-0.000000	-0.000601	-0.000204	0.000005
 615	3.0700e-01	15.4488	0.160316	0.000000	0.002204	0.000747	-0.000018
 616	3.0750e-01	15.4311	0.160588	-0.000001	-0.006612	-0.002240	0.000055
 617	3.0800e-01	15.3525	0.161002	-0.000001	-0.010017	-0.003394	0.000083
 618	3.0850e-01	15.3172	0.161010	-0.000000	-0.000200	-0.000068	0.000002
 619	3.0900e-01	15.2787	0.160754	0.000001	0.006211	0.002104	-0.000051
 620	3.0950e-01	15.2611	0.161035	-0.000001	-0.006812	-0.002308	0.000056
 621	3.1000e-01	15.1841	0.161258	-0.000001	-0.005409	-0.001833	0.000045
 622	3.1050e-01	15.1391	0.161324	-0.000000	-0.001603	-0.000543	0.000013
 623	3.1100e-01	15.1343	0.161332	-0.000000	-0.000200	-0.000068	0.000002
 624	3.1150e-01	15.0702	0.161349	-0.000000	-0.000401	-0.000136	0.000003
 625	3.1200e-01	15.0333	0.161762	-0.000001	-0.010017	-0.003394	0.000083
 626	3.1250e-01	15.0124	0.161910	-0.000000	-0.003606	-0.001222	0.000030
 627	3.1300e-01	14.9627	0.161952	-0.000000	-0.001002	-0.000339	0.000008
 628	3.1350e-01	14.9242	0.161960	-0.000000	-0.000200	-0.000068	0.000002
 629	3.1400e-01	14.8889	0.162208	-0.000001	-0.006010	-0.002036	0.000050
 630	3.1450e-01	14.8408	0.162365	-0.000000	-0.003807	-0.001290	0.000031
 631	3.1500e-01	14.7958	0.162274	0.000000	0.002204	0.000747	-0.000018
 632	3.1550e-01	14.7766	0.162315	-0.000000	-0.001002	-0.000339	0.000008
 633	3.1600e-01	14.7413	0.162348	-0.000000	-0.000801	-0.000272	0.000007
 634	3.1650e-01	14.7012	0.162563	-0.000001	-0.005209	-0.001765	0.000043
 635	3.1700e-01	14.6531	0.162621	-0.000000	-0.001402	-0.000475	0.000012
 636	3.1750e-01	14.6114	0.162464	0.000000	0.003807	0.001290	-0.000031
 637	3.1800e-01	14.5600	0.162538	-0.000000	-0.001803	-0.000611	0.000015
 638	3.1850e-01	14.5568	0.162795	-0.000001	-0.006211	-0.002104	0.000051
 639	3.1900e-01	14.4798	0.162885	-0.000000	-0.002204	-0.000747	0.000018
 640	3.1950e-01	14.4301	0.162877	0.000000	0.000200	0.000068	-0.000002
 641	3.2000e-01	14.4204	0.162852	0.000000	0.000601	0.000204	-0.000005
 642	3.2050e-01	14.3787	0.163166	-0.000001	-0.007613	-0.002579	0.000063
 643	3.2100e-01	14.3306	0.163323	-0.000000	-0.003807	-0.001290	0.000031
 644	3.2150e-01	14.2745	0.163224	0.000000	0.002404	0.000815	-0.000020
 645	3.2200e-01	14.2392	0.163323	-0.000000	-0.002404	-0.000815	0.000020
 646	3.2250e-01	14.2007	0.163505	-0.000000	-0.004408	-0.001493	0.000036
 647	3.2300e-01	14.1750	0.163712	-0.000001	-0.005009	-0.001697	0.000041
 648	3.2350e-01	14.1221	0.163687	0.000000	0.000601	0.000204	-0.000005
 649	3.2400e-01	14.0659	0.163679	0.000000	0.000200	0.000068	-0.000002
 650	3.2450e-01	14.0306	0.163844	-0.000000	-0.004007	-0.001358	0.000033
 651	3.2500e-01	14.0290	0.163902	-0.000000	-0.001402	-0.000475	0.000012
 652	3.2550e-01	13.9697	0.163910	-0.000000	-0.000200	-0.000068	0.000002
 653	3.2600e-01	13.9279	0.163827	0.000000	0.002003	0.000679	-0.000017
 654	3.2650e-01	13.8927	0.164067	-0.000001	-0.005810	-0.001969	0.000048
 655	3.2700e-01	13.8830	0.164290	-0.000001	-0.005409	-0.001833	0.000045
 656	3.2750e-01	13.8060	0.164356	-0.000000	-0.001603	-0.000543	0.000013
 657	3.2800e-01	13.7611	0.164505	-0.000000	-0.003606	-0.001222	0.000030
 658	3.2850e-01	13.7370	0.164885	-0.000001	-0.009216	-0.003122	0.000076
 659	3.2900e-01	13.6665	0.165257	-0.000001	-0.009016	-0.003055	0.000074
 660	3.2950e-01	13.6633	0.165563	-0.000001	-0.007413	-0.002512	0.000061
 661	3.3000e-01	13.6023	0.165298	0.000001	0.006411	0.002172	-0.000053
 662	3.3050e-01	13.6103	0.164802	-0.000001	-0.012021	-0.004073	-0.000099
 663	3.3100e-01	13.5413	0.164389	0.000001	0.010017	0.003394	-0.000083
 664	3.3150e-01	13.4499	0.164241	0.000000	0.003606	0.001222	-0.000030
 665	3.3200e-01	13.4531	0.164075	-0.000000	-0.004007	-0.001358	-0.000033
 666	3.3250e-01	13.4146	0.163984	0.000000	0.002204	0.000747	-0.000018
 667	3.3300e-01	13.3360	0.163935	0.000000	0.001202	0.000407	-0.000010
 668	3.3350e-01	13.3055	0.163935	-0.000000	-0.000000	-0.000000	0.000000
 669	3.3400e-01	13.2670	0.164150	-0.000001	-0.005209	-0.001765	0.000043
 670	3.3450e-01	13.2718	0.164678	0.000001	0.012822	0.004344	0.000106
 671	3.3500e-01	13.2109	0.165174	-0.000001	-0.012021	-0.004073	0.000099
 672	3.3550e-01	13.1724	0.165579	-0.000001	-0.009817	-0.003326	0.000081
 673	3.3600e-01	13.1339	0.165001	0.000001	0.014024	0.004752	-0.000116
 674	3.3650e-01	13.0986	0.164678	0.000001	0.007814	0.002647	-0.000064
 675	3.3700e-01	13.0312	0.164331	0.000001	0.008415	0.002851	-0.000069
 676	3.3750e-01	13.0023	0.164150	0.000000	0.004408	0.001493	-0.000036
 677	3.3800e-01	12.9574	0.164720	-0.000001	-0.013824	-0.004684	0.000114
 678	3.3850e-01	12.9381	0.165389	-0.000002	-0.016228	-0.005498	0.000134
 679	3.3900e-01	12.9205	0.165571	-0.000000	-0.004408	-0.001493	0.000036
 680	3.3950e-01	12.8451	0.165389	0.000000	0.004408	0.001493	-0.000036
 681	3.4000e-01	12.8066	0.165422	-0.000000	-0.000801	-0.000272	0.000007
 682	3.4050e-01	12.7970	0.165505	-0.000000	-0.002003	-0.000679	0.000017
 683	3.4100e-01	12.7232	0.165885	-0.000001	-0.009216	-0.003122	0.000076
 684	3.4150e-01	12.6911	0.166182	-0.000001	-0.007213	-0.002444	0.000059
 685	3.4200e-01	12.6606	0.165992	0.000000	0.004608	0.001561	-0.000038
 686	3.4250e-01	12.6317	0.165645	0.000001	0.008415	0.002851	-0.000069
 687	3.4300e-01	12.5627	0.165472	0.000000	0.004207	0.001425	-0.000035
 688	3.4350e-01	12.5226	0.165769	-0.000001	-0.007213	-0.002444	0.000059
 689	3.4400e-01	12.4841	0.166157	-0.000001	-0.009416	-0.003190	0.000078
 690	3.4450e-01	12.4472	0.166083	0.000000	0.001803	0.000611	-0.000015
 691	3.4500e-01	12.4071	0.165951	0.000000	0.003206	0.001086	-0.000026
 692	3.4550e-01	12.3558	0.165943	0.000000	0.000200	0.000068	-0.000002
 693	3.4600e-01	12.3109	0.166017	-0.000000	-0.001803	-0.000611	0.000015
 694	3.4650e-01	12.2836	0.165976	0.000000	0.001002	0.000339	-0.000008
 695	3.4700e-01	12.2820	0.165901	0.000000	0.001803	0.000611	-0.000015
 696	3.4750e-01	12.2210	0.166083	-0.000000	-0.004408	-0.001493	0.000036
 697	3.4800e-01	12.1858	0.166356	-0.000001	-0.006612	-0.002240	0.000055
 698	3.4850e-01	12.1328	0.166381	-0.000000	-0.000601	-0.000204	0.000005
 699	3.4900e-01	12.1104	0.166034	0.000001	0.008415	0.002851	-0.000069
 700	3.4950e-01	12.0446	0.166083	-0.000000	-0.001202	-0.000407	0.000010
 701	3.5000e-01	12.0189	0.166455	-0.000001	-0.009016	-0.003055	0.000074
 702	3.5050e-01	11.9772	0.166802	-0.000001	-0.008415	-0.002851	0.000069
 703	3.5100e-01	11.9162	0.166628	0.000000	0.004207	0.001425	-0.000035
 704	3.5150e-01	11.8874	0.166389	0.000001	0.005810	0.001969	-0.000048
 705	3.5200e-01	11.8617	0.166546	-0.000000	-0.003807	-0.001290	0.000031
 706	3.5250e-01	11.8248	0.166802	-0.000001	-0.006211	-0.002104	0.000051
 707	3.5300e-01	11.7638	0.166852	-0.000000	-0.001202	-0.000407	0.000010
 708	3.5350e-01	11.7109	0.166389	0.000001	0.011220	0.003801	-0.000093
 709	3.5400e-01	11.6997	0.166281	0.000000	0.002605	0.000882	-0.000021
 710	3.5450e-01	11.6708	0.166513	-0.000001	-0.005610	-0.001901	0.000046
 711	3.5500e-01	11.6162	0.166571	-0.000000	-0.001402	-0.000475	0.000012
 712	3.5550e-01	11.5826	0.166397	0.000000	0.004207	0.001425	-0.000035
 713	3.5600e-01	11.5264	0.166331	0.000000	0.001603	0.000543	-0.000013
 714	3.5650e-01	11.4703	0.166455	-0.000000	-0.003005	-0.001018	0.000025
 715	3.5700e-01	11.4494	0.166595	-0.000000	-0.003406	-0.001154	0.000028
 716	3.5750e-01	11.3884	0.166587	0.000000	0.000200	0.000068	-0.000002
 717	3.5800e-01	11.3901	0.166323	-0.000001	-0.006411	-0.002172	-0.000053
 718	3.5850e-01	11.3516	0.166513	-0.000000	-0.004608	-0.001561	0.000038
 719	3.5900e-01	11.2874	0.166686	-0.000000	-0.004207	-0.001425	0.000035
 720	3.5950e-01	11.2585	0.166538	0.000000	0.003606	0.001222	-0.000030
 721	3.6000e-01	11.2088	0.166405	0.000000	0.003206	0.001086	-0.000026
 722	3.6050e-01	11.1655	0.166463	-0.000000	-0.001402	-0.000475	0.000012
 723	3.6100e-01	11.1077	0.166513	-0.000000	-0.001202	-0.000407	0.000010
 724	3.6150e-01	11.0740	0.166480	0.000000	0.000801	0.000272	-0.000007
 725	3.6200e-01	11.0516	0.166339	0.000000	0.003406	0.001154	-0.000028
 726	3.6250e-01	11.0066	0.166273	0.000000	0.001603	0.000543	-0.000013
 727	3.6300e-01	11.0002	0.166364	-0.000000	-0.002204	-0.000747	0.000018
 728	3.6350e-01	10.9457	0.166422	-0.000000	-0.001402	-0.000475	0.000012
 729	3.6400e-01	10.8671	0.166240	0.000000	0.004408	0.001493	-0.000036
 730	3.6450e-01	10.8206	0.166232	0.000000	0.000200	0.000068	-0.000002
 731	3.6500e-01	10.8045	0.166323	-0.000000	-0.002204	-0.000747	0.000018
 732	3.6550e-01	10.7580	0.166372	-0.000000	-0.001202	-0.000407	0.000010
 733	3.6600e-01	10.7291	0.166405	-0.000000	-0.000801	-0.000272	0.000007
 734	3.6650e-01	10.6938	0.166438	-0.000000	-0.000801	-0.000272	0.000007
 735	3.6700e-01	10.6505	0.166471	-0.000000	-0.000801	-0.000272	0.000007
 736	3.6750e-01	10.6280	0.166546	-0.000000	-0.001803	-0.000611	0.000015
 737	3.6800e-01	10.5655	0.166504	0.000000	0.001002	0.000339	-0.000008
 738	3.6850e-01	10.5270	0.166438	0.000000	0.001603	0.000543	-0.000013
 739	3.6900e-01	10.4772	0.166546	-0.000000	-0.002605	-0.000882	0.000021
 740	3.6950e-01	10.4580	0.166554	-0.000000	-0.000200	-0.000068	0.000002
 741	3.7000e-01	10.4243	0.166422	0.000000	0.003206	0.001086	-0.000026
 742	3.7050e-01	10.3633	0.166314	0.000000	0.002605	0.000882	-0.000021
 743	3.7100e-01	10.3393	0.166438	-0.000000	-0.003005	-0.001018	0.000025
 744	3.7150e-01	10.3024	0.166306	0.000000	0.003206	0.001086	-0.000026
 745	3.7200e-01	10.2462	0.166513	-0.000001	-0.005009	-0.001697	0.000041
 746	3.7250e-01	10.1901	0.166298	0.000001	0.005209	0.001765	-0.000043
 747	3.7300e-01	10.1997	0.166339	0.000000	0.001002	0.000339	0.000008
 748	3.7350e-01	10.1452	0.166422	-0.000000	-0.002003	-0.000679	0.000017
 749	3.7400e-01	10.1002	0.166488	-0.000000	-0.001603	-0.000543	0.000013
 750	3.7450e-01	10.0682	0.166488	-0.000000	-0.000000	-0.000000	0.000000
 751	3.7500e-01	10.0249	0.166810	-0.000001	-0.007814	-0.002647	0.000064
 752	3.7550e-01	9.9912	0.166975	-0.000000	-0.004007	-0.001358	0.000033
 753	3.7600e-01	9.9302	0.167372	-0.000001	-0.009617	-0.003258	0.000079
 754	3.7650e-01	9.8741	0.167190	0.000000	0.004408	0.001493	-0.000036
 755	3.7700e-01	9.8420	0.166653	0.000001	0.013023	0.004412	-0.000107
 756	3.7750e-01	9.8227	0.166149	0.000001	0.012221	0.004141	-0.000101
 757	3.7800e-01	9.7473	0.165992	0.000000	0.003807	0.001290	-0.000031
 758	3.7850e-01	9.7233	0.165703	0.000001	0.007012	0.002376	-0.000058
 759	3.7900e-01	9.7168	0.165546	0.000000	0.003807	0.001290	-0.000031
 760	3.7950e-01	9.6703	0.165414	0.000000	0.003206	0.001086	-0.000026
 761	3.8000e-01	9.6110	0.165249	0.000000	0.004007	0.001358	-0.000033
 762	3.8050e-01	9.5869	0.165133	0.000000	0.002805	0.000950	-0.000023
 763	3.8100e-01	9.5644	0.165447	-0.000001	-0.007613	-0.002579	0.000063
 764	3.8150e-01	9.4874	0.165629	-0.000000	-0.004408	-0.001493	0.000036
 765	3.8200e-01	9.4393	0.165794	-0.000000	-0.004007	-0.001358	0.000033
 766	3.8250e-01	9.4072	0.165736	0.000000	0.001402	0.000475	-0.000012
 767	3.8300e-01	9.3671	0.165653	0.000000	0.002003	0.000679	-0.000017
 768	3.8350e-01	9.3062	0.165695	-0.000000	-0.001002	-0.000339	0.000008
 769	3.8400e-01	9.2805	0.165563	0.000000	0.003206	0.001086	-0.000026
 770	3.8450e-01	9.2388	0.165686	-0.000000	-0.003005	-0.001018	0.000025
 771	3.8500e-01	9.2067	0.166215	-0.000001	-0.012822	-0.004344	0.000106
 772	3.8550e-01	9.1634	0.166314	-0.000000	-0.002404	-0.000815	0.000020
 773	3.8600e-01	9.1425	0.166174	0.000000	0.003406	0.001154	-0.000028
 774	3.8650e-01	9.0864	0.165910	0.000001	0.006411	0.002172	-0.000053
 775	3.8700e-01	9.0751	0.165472	0.000001	0.010619	0.003598	-0.000088
 776	3.8750e-01	9.0174	0.165323	0.000000	0.003606	0.001222	-0.000030
 777	3.8800e-01	8.9741	0.165422	-0.000000	-0.002404	-0.000815	0.000020
 778	3.8850e-01	8.9372	0.165389	0.000000	0.000801	0.000272	-0.000007
 779	3.8900e-01	8.8826	0.165414	-0.000000	-0.000601	-0.000204	0.000005
 780	3.8950e-01	8.8425	0.165149	0.000001	0.006411	0.002172	-0.000053
 781	3.9000e-01	8.7976	0.165455	-0.000001	-0.007413	-0.002512	0.000061
 782	3.9050e-01	8.7463	0.165397	0.000000	0.001402	0.000475	-0.000012
 783	3.9100e-01	8.7158	0.165009	0.000001	0.009416	0.003190	-0.000078
 784	3.9150e-01	8.6965	0.164761	0.000001	0.006010	0.002036	-0.000050
 785	3.9200e-01	8.6260	0.164968	-0.000001	-0.005009	-0.001697	0.000041
 786	3.9250e-01	8.6292	0.165191	0.000001	0.005409	0.001833	0.000045
 787	3.9300e-01	8.5650	0.165265	-0.000000	-0.001803	-0.000611	0.000015
 788	3.9350e-01	8.5089	0.164868	0.000001	0.009617	0.003258	-0.000079
 789	3.9400e-01	8.4912	0.164769	0.000000	0.002404	0.000815	-0.000020
 790	3.9450e-01	8.4367	0.165050	-0.000001	-0.006812	-0.002308	0.000056
 791	3.9500e-01	8.4447	0.165265	0.000001	0.005209	0.001765	0.000043
 792	3.9550e-01	8.3661	0.165199	0.000000	0.001603	0.000543	-0.000013
 793	3.9600e-01	8.3115	0.164959	0.000001	0.005810	0.001969	-0.000048
 794	3.9650e-01	8.2923	0.164761	0.000000	0.004808	0.001629	-0.000040
 795	3.9700e-01	8.2249	0.164968	-0.000001	-0.005009	-0.001697	0.000041
 796	3.9750e-01	8.1704	0.165025	-0.000000	-0.001402	-0.000475	0.000012
 797	3.9800e-01	8.1479	0.164612	0.000001	0.010017	0.003394	-0.000083
 798	3.9850e-01	8.1158	0.164414	0.000000	0.004808	0.001629	-0.000040
 799	3.9900e-01	8.0934	0.164439	-0.000000	-0.000601	-0.000204	0.000005
 800	3.9950e-01	8.0436	0.164439	-0.000000	-0.000000	-0.000000	0.000000
 801	4.0000e-01	8.0131	0.164216	0.000001	0.005409	0.001833	-0.000045
 802	4.0050e-01	7.9859	0.163927	0.000001	0.007012	0.002376	-0.000058
 803	4.0100e-01	7.9490	0.164084	-0.000000	-0.003807	-0.001290	0.000031
 804	4.0150e-01	7.8816	0.164249	-0.000000	-0.004007	-0.001358	0.000033
 805	4.0200e-01	7.8607	0.164009	0.000001	0.005810	0.001969	-0.000048
 806	4.0250e-01	7.8206	0.163778	0.000001	0.005610	0.001901	-0.000046
 807	4.0300e-01	7.7500	0.163794	-0.000000	-0.000401	-0.000136	0.000003
 808	4.0350e-01	7.7035	0.163935	-0.000000	-0.003406	-0.001154	0.000028
 809	4.0400e-01	7.7019	0.163761	0.000000	0.004207	0.001425	-0.000035
 810	4.0450e-01	7.6394	0.163596	0.000000	0.004007	0.001358	-0.000033
 811	4.0500e-01	7.5896	0.163464	0.000000	0.003206	0.001086	-0.000026
 812	4.0550e-01	7.5575	0.163505	-0.000000	-0.001002	-0.000339	0.000008
 813	4.0600e-01	7.5447	0.163381	0.000000	0.003005	0.001018	-0.000025
 814	4.0650e-01	7.5303	0.163257	0.000000	0.003005	0.001018	-0.000025
 815	4.0700e-01	7.4661	0.162976	0.000001	0.006812	0.002308	-0.000056
 816	4.0750e-01	7.3987	0.162943	0.000000	0.000801	0.000272	-0.000007
 817	4.0800e-01	7.3682	0.163009	-0.000000	-0.001603	-0.000543	0.000013
 818	4.0850e-01	7.3362	0.162811	0.000000	0.004808	0.001629	-0.000040
 819	4.0900e-01	7.2993	0.162836	-0.000000	-0.000601	-0.000204	0.000005
 820	4.0950e-01	7.2495	0.162745	0.000000	0.002204	0.000747	-0.000018
 821	4.1000e-01	7.1757	0.162844	-0.000000	-0.002404	-0.000815	0.000020
 822	4.1050e-01	7.1629	0.162679	0.000000	0.004007	0.001358	-0.000033
 823	4.1100e-01	7.1533	0.162770	-0.000000	-0.002204	-0.000747	0.000018
 824	4.1150e-01	7.0731	0.162803	-0.000000	-0.000801	-0.000272	0.000007
 825	4.1200e-01	7.0362	0.162654	0.000000	0.003606	0.001222	-0.000030
 826	4.1250e-01	7.0041	0.162563	0.000000	0.002204	0.000747	-0.000018
 827	4.1300e-01	6.9592	0.162489	0.000000	0.001803	0.000611	-0.000015
 828	4.1350e-01	6.9191	0.162439	0.000000	0.001202	0.000407	-0.000010
 829	4.1400e-01	6.8870	0.162332	0.000000	0.002605	0.000882	-0.000021
 830	4.1450e-01	6.8517	0.162332	-0.000000	-0.000000	-0.000000	0.000000
 831	4.1500e-01	6.8003	0.162150	0.000000	0.004408	0.001493	-0.000036
 832	4.1550e-01	6.7506	0.162134	0.000000	0.000401	0.000136	-0.000003
 833	4.1600e-01	6.7458	0.162076	0.000000	0.001402	0.000475	-0.000012
 834	4.1650e-01	6.6864	0.161985	0.000000	0.002204	0.000747	-0.000018
 835	4.1700e-01	6.6704	0.162001	-0.000000	-0.000401	-0.000136	0.000003
 836	4.1750e-01	6.6223	0.161985	0.000000	0.000401	0.000136	-0.000003
 837	4.1800e-01	6.5549	0.162018	-0.000000	-0.000801	-0.000272	0.000007
 838	4.1850e-01	6.5276	0.162010	0.000000	0.000200	0.000068	-0.000002
 839	4.1900e-01	6.4907	0.161935	0.000000	0.001803	0.000611	-0.000015
 840	4.1950e-01	6.5004	0.161720	-0.000001	-0.005209	-0.001765	-0.000043
 841	4.2000e-01	6.4282	0.161704	0.000000	0.000401	0.000136	-0.000003
 842	4.2050e-01	6.3576	0.161663	0.000000	0.001002	0.000339	-0.000008
 843	4.2100e-01	6.3576	0.161646	0.000000	0.000401	0.000136	-0.000003
 844	4.2150e-01	6.2870	0.161902	-0.000001	-0.006211	-0.002104	0.000051
 845	4.2200e-01	6.2709	0.162059	-0.000000	-0.003807	-0.001290	0.000031
 846	4.2250e-01	6.1955	0.162332	-0.000001	-0.006612	-0.002240	0.000055
 847	4.2300e-01	6.1667	0.162241	0.000000	0.002204	0.000747	-0.000018
 848	4.2350e-01	6.1218	0.161671	0.000001	0.013824	0.004684	-0.000114
 849	4.2400e-01	6.0833	0.161117	0.000001	0.013423	0.004548	-0.000111
 850	4.2450e-01	6.0383	0.160894	0.000001	0.005409	0.001833	-0.000045
 851	4.2500e-01	5.9854	0.160754	0.000000	0.003406	0.001154	-0.000028
 852	4.2550e-01	5.9918	0.160341	-0.000001	-0.010017	-0.003394	-0.000083
 853	4.2600e-01	5.9084	0.160093	0.000001	0.006010	0.002036	-0.000050
 854	4.2650e-01	5.9116	0.159696	-0.000001	-0.009617	-0.003258	-0.000079
 855	4.2700e-01	5.8635	0.159456	0.000001	0.005810	0.001969	-0.000048
 856	4.2750e-01	5.8250	0.159944	-0.000001	-0.011821	-0.004005	0.000097
 857	4.2800e-01	5.7624	0.160489	-0.000001	-0.013223	-0.004480	0.000109
 858	4.2850e-01	5.7239	0.161076	-0.000001	-0.014225	-0.004819	0.000117
 859	4.2900e-01	5.7063	0.161002	0.000000	0.001803	0.000611	-0.000015
 860	4.2950e-01	5.6742	0.160655	0.000001	0.008415	0.002851	-0.000069
 861	4.3000e-01	5.6180	0.160473	0.000000	0.004408	0.001493	-0.000036
 862	4.3050e-01	5.5474	0.160341	0.000000	0.003206	0.001086	-0.000026
 863	4.3100e-01	5.5089	0.160382	-0.000000	-0.001002	-0.000339	0.000008
 864	4.3150e-01	5.4961	0.160605	-0.000001	-0.005409	-0.001833	0.000045
 865	4.3200e-01	5.4432	0.160349	0.000001	0.006211	0.002104	-0.000051
 866	4.3250e-01	5.4063	0.159870	0.000001	0.011620	0.003937	-0.000096
 867	4.3300e-01	5.3485	0.159729	0.000000	0.003406	0.001154	-0.000028
 868	4.3350e-01	5.3581	0.159746	0.000000	0.000401	0.000136	0.000003
 869	4.3400e-01	5.2827	0.159994	-0.000001	-0.006010	-0.002036	0.000050
 870	4.3450e-01	5.2876	0.160159	0.000000	0.004007	0.001358	0.000033
 871	4.3500e-01	5.2282	0.159969	0.000000	0.004608	0.001561	-0.000038
 872	4.3550e-01	5.1688	0.159456	0.000001	0.012422	0.004209	-0.000102
 873	4.3600e-01	5.0999	0.159209	0.000001	0.006010	0.002036	-0.000050
 874	4.3650e-01	5.1191	0.159423	0.000001	0.005209	0.001765	0.000043
 875	4.3700e-01	5.0485	0.159713	-0.000001	-0.007012	-0.002376	0.000058
 876	4.3750e-01	4.9892	0.159523	0.000000	0.004608	0.001561	-0.000038
 877	4.3800e-01	4.9442	0.159167	0.000001	0.008615	0.002919	-0.000071
 878	4.3850e-01	4.8833	0.158936	0.000001	0.005610	0.001901	-0.000046
 879	4.3900e-01	4.8993	0.159200	0.000001	0.006411	0.002172	0.000053
 880	4.3950e-01	4.8721	0.159308	-0.000000	-0.002605	-0.000882	0.000021
 881	4.4000e-01	4.8047	0.159151	0.000000	0.003807	0.001290	-0.000031
 882	4.4050e-01	4.7678	0.158952	0.000000	0.004808	0.001629	-0.000040
 883	4.4100e-01	4.7437	0.158944	0.000000	0.000200	0.000068	-0.000002
 884	4.4150e-01	4.6956	0.159151	-0.000001	-0.005009	-0.001697	0.000041
 885	4.4200e-01	4.6683	0.159233	-0.000000	-0.002003	-0.000679	0.000017
 886	4.4250e-01	4.6202	0.159060	0.000000	0.004207	0.001425	-0.000035
 887	4.4300e-01	4.5929	0.158820	0.000001	0.005810	0.001969	-0.000048
 888	4.4350e-01	4.5336	0.158895	-0.000000	-0.001803	-0.000611	0.000015
 889	4.4400e-01	4.5191	0.158994	-0.000000	-0.002404	-0.000815	0.000020
 890	4.4450e-01	4.4469	0.158853	0.000000	0.003406	0.001154	-0.000028
 891	4.4500e-01	4.4068	0.158746	0.000000	0.002605	0.000882	-0.000021
 892	4.4550e-01	4.3427	0.158647	0.000000	0.002404	0.000815	-0.000020
 893	4.4600e-01	4.3362	0.158705	-0.000000	-0.001402	-0.000475	0.000012
 894	4.4650e-01	4.2929	0.158688	0.000000	0.000401	0.000136	-0.000003
 895	4.4700e-01	4.2320	0.158638	0.000000	0.001202	0.000407	-0.000010
 896	4.4750e-01	4.2304	0.158556	0.000000	0.002003	0.000679	-0.000017
 897	4.4800e-01	4.1903	0.158448	0.000000	0.002605	0.000882	-0.000021
 898	4.4850e-01	4.0924	0.158374	0.000000	0.001803	0.000611	-0.000015
 899	4.4900e-01	4.0860	0.158258	0.000000	0.002805	0.000950	-0.000023
 900	4.4950e-01	4.0587	0.158151	0.000000	0.002605	0.000882	-0.000021
 901	4.5000e-01	3.9913	0.158002	0.000000	0.003606	0.001222	-0.000030
 902	4.5050e-01	3.9560	0.157928	0.000000	0.001803	0.000611	-0.000015
 903	4.5100e-01	3.9272	0.157804	0.000000	0.003005	0.001018	-0.000025
 904	4.5150e-01	3.8855	0.157730	0.000000	0.001803	0.000611	-0.000015
 905	4.5200e-01	3.8293	0.157663	0.000000	0.001603	0.000543	-0.000013
 906	4.5250e-01	3.8245	0.157556	0.000000	0.002605	0.000882	-0.000021
 907	4.5300e-01	3.7587	0.157490	0.000000	0.001603	0.000543	-0.000013
 908	4.5350e-01	3.7234	0.157440	0.000000	0.001202	0.000407	-0.000010
 909	4.5400e-01	3.7010	0.157383	0.000000	0.001402	0.000475	-0.000012
 910	4.5450e-01	3.6609	0.157366	0.000000	0.000401	0.000136	-0.000003
 911	4.5500e-01	3.6063	0.157234	0.000000	0.003206	0.001086	-0.000026
 912	4.5550e-01	3.5357	0.157292	-0.000000	-0.001402	-0.000475	0.000012
 913	4.5600e-01	3.5421	0.157275	-0.000000	-0.000401	-0.000136	-0.000003
 914	4.5650e-01	3.5101	0.157126	0.000000	0.003606	0.001222	-0.000030
 915	4.5700e-01	3.4475	0.157044	0.000000	0.002003	0.000679	-0.000017
 916	4.5750e-01	3.3994	0.156945	0.000000	0.002404	0.000815	-0.000020
 917	4.5800e-01	3.3609	0.156936	0.000000	0.000200	0.000068	-0.000002
 918	4.5850e-01	3.3320	0.156961	-0.000000	-0.000601	-0.000204	0.000005
 919	4.5900e-01	3.2646	0.156895	0.000000	0.001603	0.000543	-0.000013
 920	4.5950e-01	3.2582	0.156895	-0.000000	-0.000000	-0.000000	0.000000
 921	4.6000e-01	3.2534	0.156862	0.000000	0.000801	0.000272	-0.000007
 922	4.6050e-01	3.1732	0.156788	0.000000	0.001803	0.000611	-0.000015
 923	4.6100e-01	3.1138	0.156722	0.000000	0.001603	0.000543	-0.000013
 924	4.6150e-01	3.0833	0.156722	-0.000000	-0.000000	-0.000000	0.000000
 925	4.6200e-01	3.0577	0.156688	0.000000	0.000801	0.000272	-0.000007
 926	4.6250e-01	3.0208	0.156647	0.000000	0.001002	0.000339	-0.000008
 927	4.6300e-01	2.9807	0.156606	0.000000	0.001002	0.000339	-0.000008
 928	4.6350e-01	2.9374	0.156622	-0.000000	-0.000401	-0.000136	0.000003
 929	4.6400e-01	2.8668	0.156399	0.000001	0.005409	0.001833	-0.000045
 930	4.6450e-01	2.8491	0.156540	-0.000000	-0.003406	-0.001154	0.000028
 931	4.6500e-01	2.8042	0.156432	0.000000	0.002605	0.000882	-0.000021
 932	4.6550e-01	2.7625	0.156308	0.000000	0.003005	0.001018	-0.000025
 933	4.6600e-01	2.6967	0.156143	0.000000	0.004007	0.001358	-0.000033
 934	4.6650e-01	2.6759	0.156069	0.000000	0.001803	0.000611	-0.000015
 935	4.6700e-01	2.6438	0.155994	0.000000	0.001803	0.000611	-0.000015
 936	4.6750e-01	2.6085	0.156085	-0.000000	-0.002204	-0.000747	0.000018
 937	4.6800e-01	2.5588	0.156201	-0.000000	-0.002805	-0.000950	0.000023
 938	4.6850e-01	2.5347	0.156482	-0.000001	-0.006812	-0.002308	0.000056
 939	4.6900e-01	2.4641	0.156788	-0.000001	-0.007413	-0.002512	0.000061
 940	4.6950e-01	2.4416	0.156920	-0.000000	-0.003206	-0.001086	0.000026
 941	4.7000e-01	2.4160	0.156556	0.000001	0.008815	0.002987	-0.000073
 942	4.7050e-01	2.3887	0.155631	0.000002	0.022439	0.007603	-0.000185
 943	4.7100e-01	2.3133	0.155110	0.000001	0.012622	0.004276	-0.000104
 944	4.7150e-01	2.2716	0.154887	0.000001	0.005409	0.001833	-0.000045
 945	4.7200e-01	2.2539	0.154623	0.000001	0.006411	0.002172	-0.000053
 946	4.7250e-01	2.1689	0.154755	-0.000000	-0.003206	-0.001086	0.000026
 947	4.7300e-01	2.1497	0.154805	-0.000000	-0.001202	-0.000407	0.000010
 948	4.7350e-01	2.1368	0.154656	0.000000	0.003606	0.001222	-0.000030
 949	4.7400e-01	2.0775	0.154838	-0.000000	-0.004408	-0.001493	0.000036
 950	4.7450e-01	2.0486	0.155342	-0.000001	-0.012221	-0.004141	0.000101
 951	4.7500e-01	1.9876	0.155813	-0.000001	-0.011420	-0.003869	0.000094
 952	4.7550e-01	1.9556	0.155887	-0.000000	-0.001803	-0.000611	0.000015
 953	4.7600e-01	1.9058	0.155383	0.000001	0.012221	0.004141	-0.000101
 954	4.7650e-01	1.8705	0.154879	0.000001	0.012221	0.004141	-0.000101
 955	4.7700e-01	1.8449	0.154466	0.000001	0.010017	0.003394	-0.000083
 956	4.7750e-01	1.8080	0.154268	0.000000	0.004808	0.001629	-0.000040
 957	4.7800e-01	1.7582	0.154821	-0.000001	-0.013423	-0.004548	0.000111
 958	4.7850e-01	1.7165	0.155152	-0.000001	-0.008014	-0.002715	0.000066
 959	4.7900e-01	1.6668	0.155028	0.000000	0.003005	0.001018	-0.000025
 960	4.7950e-01	1.6540	0.154862	0.000000	0.004007	0.001358	-0.000033
 961	4.8000e-01	1.6267	0.154367	0.000001	0.012021	0.004073	-0.000099
 962	4.8050e-01	1.5609	0.154218	0.000000	0.003606	0.001222	-0.000030
 963	4.8100e-01	1.5369	0.154615	-0.000001	-0.009617	-0.003258	0.000079
 964	4.8150e-01	1.4984	0.154507	0.000000	0.002605	0.000882	-0.000021
 965	4.8200e-01	1.4438	0.154292	0.000001	0.005209	0.001765	-0.000043
 966	4.8250e-01	1.4406	0.153978	0.000001	0.007613	0.002579	-0.000063
 967	4.8300e-01	1.3684	0.153805	0.000000	0.004207	0.001425	-0.000035
 968	4.8350e-01	1.3203	0.153970	-0.000000	-0.004007	-0.001358	0.000033
 969	4.8400e-01	1.2946	0.153937	0.000000	0.000801	0.000272	-0.000007
 970	4.8450e-01	1.2577	0.153763	0.000000	0.004207	0.001425	-0.000035
 971	4.8500e-01	1.1919	0.153697	0.000000	0.001603	0.000543	-0.000013
 972	4.8550e-01	1.1759	0.153763	-0.000000	-0.001603	-0.000543	0.000013
 973	4.8600e-01	1.1342	0.153846	-0.000000	-0.002003	-0.000679	0.000017
 974	4.8650e-01	1.0861	0.153755	0.000000	0.002204	0.000747	-0.000018
 975	4.8700e-01	1.0508	0.153681	0.000000	0.001803	0.000611	-0.000015
 976	4.8750e-01	1.0460	0.153631	0.000000	0.001202	0.000407	-0.000010
 977	4.8800e-01	0.9754	0.153689	-0.000000	-0.001402	-0.000475	0.000012
 978	4.8850e-01	0.9289	0.153483	0.000001	0.005009	0.001697	-0.000041
 979	4.8900e-01	0.8535	0.153359	0.000000	0.003005	0.001018	-0.000025
 980	4.8950e-01	0.8470	0.153309	0.000000	0.001202	0.000407	-0.000010
 981	4.9000e-01	0.7877	0.153284	0.000000	0.000601	0.000204	-0.000005
 982	4.9050e-01	0.7829	0.153210	0.000000	0.001803	0.000611	-0.000015
 983	4.9100e-01	0.7235	0.153094	0.000000	0.002805	0.000950	-0.000023
 984	4.9150e-01	0.6914	0.152888	0.000001	0.005009	0.001697	-0.000041
 985	4.9200e-01	0.6321	0.152970	-0.000000	-0.002003	-0.000679	0.000017
 986	4.9250e-01	0.6112	0.152912	0.000000	0.001402	0.000475	-0.000012
 987	4.9300e-01	0.5663	0.152772	0.000000	0.003406	0.001154	-0.000028
 988	4.9350e-01	0.5246	0.152855	-0.000000	-0.002003	-0.000679	0.000017
 989	4.9400e-01	0.5085	0.152838	0.000000	0.000401	0.000136	-0.000003
 990	4.9450e-01	0.4604	0.152855	-0.000000	-0.000401	-0.000136	0.000003
 991	4.9500e-01	0.4043	0.152747	0.000000	0.002605	0.000882	-0.000021
 992	4.9550e-01	0.3513	0.152598	0.000000	0.003606	0.001222	-0.000030
 993	4.9600e-01	0.3160	0.152640	-0.000000	-0.001002	-0.000339	0.000008
 994	4.9650e-01	0.2920	0.152508	0.000000	0.003206	0.001086	-0.000026
 995	4.9700e-01	0.2390	0.152450	0.000000	0.001402	0.000475	-0.000012
 996	4.9750e-01	0.1909	0.152194	0.000001	0.006211	0.002104	-0.000051
 997	4.9800e-01	0.2118	0.152161	-0.000000	-0.000801	-0.000272	-0.000007
 998	4.9850e-01	0.1380	0.152037	0.000000	0.003005	0.001018	-0.000025
 999	4.9900e-01	0.0658	0.151995	0.000000	0.001002	0.000339	-0.000008
1000	4.9950e-01	0.0257	0.151871	0.000000	0.003005	0.001018	-0.000025
1001	5.0000e-01	0.0578	0.151855	-0.000000	-0.000401	-0.000136	-0.000003
1002	5.0050e-01	-0.0257	0.151747	0.000000	0.002605	0.000882	-0.000021
1003	5.0100e-01	-0.0754	0.151673	0.000000	0.001803	0.000611	-0.000015
1004	5.0150e-01	-0.1107	0.151533	0.000000	0.003406	0.001154	-0.000028
1005	5.0200e-01	-0.1299	0.151500	0.000000	0.000801	0.000272	-0.000007
1006	5.0250e-01	-0.1733	0.151425	0.000000	0.001803	0.000611	-0.000015
1007	5.0300e-01	-0.2487	0.151359	0.000000	0.001603	0.000543	-0.000013
1008	5.0350e-01	-0.2615	0.151235	0.000000	0.003005	0.001018	-0.000025
1009	5.0400e-01	-0.3112	0.151202	0.000000	0.000801	0.000272	-0.000007
1010	5.0450e-01	-0.3545	0.151186	0.000000	0.000401	0.000136	-0.000003
1011	5.0500e-01	-0.3738	0.151020	0.000000	0.004007	0.001358	-0.000033
1012	5.0550e-01	-0.4235	0.151012	0.000000	0.000200	0.000068	-0.000002
1013	5.0600e-01	-0.4925	0.150847	0.000000	0.004007	0.001358	-0.000033
1014	5.0650e-01	-0.5037	0.150673	0.000000	0.004207	0.001425	-0.000035
1015	5.0700e-01	-0.5535	0.150698	-0.000000	-0.000601	-0.000204	0.000005
1016	5.0750e-01	-0.6112	0.150566	0.000000	0.003206	0.001086	-0.000026
1017	5.0800e-01	-0.6208	0.150442	0.000000	0.003005	0.001018	-0.000025
1018	5.0850e-01	-0.6609	0.150392	0.000000	0.001202	0.000407	-0.000010
1019	5.0900e-01	-0.7043	0.150235	0.000000	0.003807	0.001290	-0.000031
1020	5.0950e-01	-0.7251	0.150161	0.000000	0.001803	0.000611	-0.000015
1021	5.1000e-01	-0.7829	0.149971	0.000000	0.004608	0.001561	-0.000038
1022	5.1050e-01	-0.8101	0.149872	0.000000	0.002404	0.000815	-0.000020
1023	5.1100e-01	-0.8583	0.149830	0.000000	0.001002	0.000339	-0.000008
1024	5.1150e-01	-0.9449	0.149781	0.000000	0.001202	0.000407	-0.000010
1025	5.1200e-01	-0.9417	0.149558	-0.000001	-0.005409	-0.001833	-0.000045
1026	5.1250e-01	-0.9994	0.149516	0.000000	0.001002	0.000339	-0.000008
1027	5.1300e-01	-1.0363	0.149409	0.000000	0.002605	0.000882	-0.000021
1028	5.1350e-01	-1.0877	0.149335	0.000000	0.001803	0.000611	-0.000015
1029	5.1400e-01	-1.0957	0.149252	0.000000	0.002003	0.000679	-0.000017
1030	5.1450e-01	-1.1486	0.149260	-0.000000	-0.000200	-0.000068	0.000002
1031	5.1500e-01	-1.1919	0.149450	-0.000000	-0.004608	-0.001561	0.000038
1032	5.1550e-01	-1.2016	0.149442	0.000000	0.000200	0.000068	-0.000002
1033	5.1600e-01	-1.2561	0.149640	-0.000000	-0.004808	-0.001629	0.000040
1034	5.1650e-01	-1.3074	0.149070	0.000001	0.013824	0.004684	-0.000114
1035	5.1700e-01	-1.3492	0.148616	0.000001	0.011019	0.003733	-0.000091
1036	5.1750e-01	-1.3925	0.148418	0.000000	0.004808	0.001629	-0.000040
1037	5.1800e-01	-1.4294	0.148186	0.000001	0.005610	0.001901	-0.000046
1038	5.1850e-01	-1.4663	0.147947	0.000001	0.005810	0.001969	-0.000048
1039	5.1900e-01	-1.5256	0.147765	0.000000	0.004408	0.001493	-0.000036
1040	5.1950e-01	-1.5577	0.147657	0.000000	0.002605	0.000882	-0.000021
1041	5.2000e-01	-1.6026	0.147302	0.000001	0.008615	0.002919	-0.000071
1042	5.2050e-01	-1.6058	0.147294	0.000000	0.000200	0.000068	-0.000002
1043	5.2100e-01	-1.6492	0.147591	-0.000001	-0.007213	-0.002444	0.000059
1044	5.2150e-01	-1.6973	0.147732	-0.000000	-0.003406	-0.001154	0.000028
1045	5.2200e-01	-1.7679	0.147748	-0.000000	-0.000401	-0.000136	0.000003
1046	5.2250e-01	-1.7647	0.147410	-0.000001	-0.008214	-0.002783	-0.000068
1047	5.2300e-01	-1.8352	0.147310	0.000000	0.002404	0.000815	-0.000020
1048	5.2350e-01	-1.8561	0.147129	0.000000	0.004408	0.001493	-0.000036
1049	5.2400e-01	-1.9171	0.146848	0.000001	0.006812	0.002308	-0.000056
1050	5.2450e-01	-1.9122	0.146889	0.000000	0.001002	0.000339	0.000008
1051	5.2500e-01	-1.9909	0.147013	-0.000000	-0.003005	-0.001018	0.000025
1052	5.2550e-01	-2.0005	0.146608	0.000001	0.009817	0.003326	-0.000081
1053	5.2600e-01	-2.0855	0.146319	0.000001	0.007012	0.002376	-0.000058
1054	5.2650e-01	-2.0935	0.146096	0.000001	0.005409	0.001833	-0.000045
1055	5.2700e-01	-2.1657	0.145931	0.000000	0.004007	0.001358	-0.000033
1056	5.2750e-01	-2.2170	0.145914	0.000000	0.000401	0.000136	-0.000003
1057	5.2800e-01	-2.2299	0.145658	0.000001	0.006211	0.002104	-0.000051
1058	5.2850e-01	-2.2780	0.145236	0.000001	0.010218	0.003462	-0.000084
1059	5.2900e-01	-2.3069	0.145187	0.000000	0.001202	0.000407	-0.000010
1060	5.2950e-01	-2.3662	0.145022	0.000000	0.004007	0.001358	-0.000033
1061	5.3000e-01	-2.4112	0.144980	0.000000	0.001002	0.000339	-0.000008
1062	5.3050e-01	-2.4384	0.144898	0.000000	0.002003	0.000679	-0.000017
1063	5.3100e-01	-2.4641	0.144584	0.000001	0.007613	0.002579	-0.000063
1064	5.3150e-01	-2.4850	0.144270	0.000001	0.007613	0.002579	-0.000063
1065	5.3200e-01	-2.5427	0.144212	0.000000	0.001402	0.000475	-0.000012
1066	5.3250e-01	-2.5700	0.144195	0.000000	0.000401	0.000136	-0.000003
1067	5.3300e-01	-2.6197	0.143947	0.000001	0.006010	0.002036	-0.000050
1068	5.3350e-01	-2.6791	0.143667	0.000001	0.006812	0.002308	-0.000056
1069	5.3400e-01	-2.7368	0.143452	0.000001	0.005209	0.001765	-0.000043
1070	5.3450e-01	-2.7432	0.143386	0.000000	0.001603	0.000543	-0.000013
1071	5.3500e-01	-2.7994	0.143212	0.000000	0.004207	0.001425	-0.000035
1072	5.3550e-01	-2.8475	0.142857	0.000001	0.008615	0.002919	-0.000071
1073	5.3600e-01	-2.8636	0.142791	0.000000	0.001603	0.000543	-0.000013
1074	5.3650e-01	-2.9165	0.142807	-0.000000	-0.000401	-0.000136	0.000003
1075	5.3700e-01	-2.9454	0.142592	0.000001	0.005209	0.001765	-0.000043
1076	5.3750e-01	-2.9759	0.142411	0.000000	0.004408	0.001493	-0.000036
1077	5.3800e-01	-3.0288	0.142287	0.000000	0.003005	0.001018	-0.000025
1078	5.3850e-01	-3.0657	0.142270	0.000000	0.000401	0.000136	-0.000003
1079	5.3900e-01	-3.1154	0.142047	0.000001	0.005409	0.001833	-0.000045
1080	5.3950e-01	-3.1475	0.141915	0.000000	0.003206	0.001086	-0.000026
1081	5.4000e-01	-3.1844	0.141708	0.000001	0.005009	0.001697	-0.000041
1082	5.4050e-01	-3.2085	0.141560	0.000000	0.003606	0.001222	-0.000030
1083	5.4100e-01	-3.2935	0.141485	0.000000	0.001803	0.000611	-0.000015
1084	5.4150e-01	-3.3400	0.141345	0.000000	0.003406	0.001154	-0.000028
1085	5.4200e-01	-3.3657	0.140998	0.000001	0.008415	0.002851	-0.000069
1086	5.4250e-01	-3.3930	0.140832	0.000000	0.004007	0.001358	-0.000033
1087	5.4300e-01	-3.4186	0.140634	0.000000	0.004808	0.001629	-0.000040
1088	5.4350e-01	-3.4603	0.140386	0.000001	0.006010	0.002036	-0.000050
1089	5.4400e-01	-3.4940	0.140295	0.000000	0.002204	0.000747	-0.000018
1090	5.4450e-01	-3.5598	0.140262	0.000000	0.000801	0.000272	-0.000007
1091	5.4500e-01	-3.5790	0.140221	0.000000	0.001002	0.000339	-0.000008
1092	5.4550e-01	-3.6528	0.140097	0.000000	0.003005	0.001018	-0.000025
1093	5.4600e-01	-3.6929	0.139882	0.000001	0.005209	0.001765	-0.000043
1094	5.4650e-01	-3.6945	0.139601	0.000001	0.006812	0.002308	-0.000056
1095	5.4700e-01	-3.7427	0.139519	0.000000	0.002003	0.000679	-0.000017
1096	5.4750e-01	-3.7972	0.139337	0.000000	0.004408	0.001493	-0.000036
1097	5.4800e-01	-3.8357	0.139106	0.000001	0.005610	0.001901	-0.000046
1098	5.4850e-01	-3.8678	0.138874	0.000001	0.005610	0.001901	-0.000046
1099	5.4900e-01	-3.9256	0.138618	0.000001	0.006211	0.002104	-0.000051
1100	5.4950e-01	-3.9560	0.138387	0.000001	0.005610	0.001901	-0.000046
1101	5.5000e-01	-3.9945	0.138238	0.000000	0.003606	0.001222	-0.000030
1102	5.5050e-01	-4.0523	0.137998	0.000001	0.005810	0.001969	-0.000048
1103	5.5100e-01	-4.0796	0.137817	0.000000	0.004408	0.001493	-0.000036
1104	5.5150e-01	-4.0988	0.137726	0.000000	0.002204	0.000747	-0.000018
1105	5.5200e-01	-4.1518	0.137618	0.000000	0.002605	0.000882	-0.000021
1106	5.5250e-01	-4.1790	0.137403	0.000001	0.005209	0.001765	-0.000043
1107	5.5300e-01	-4.2480	0.137263	0.000000	0.003406	0.001154	-0.000028
1108	5.5350e-01	-4.2576	0.137139	0.000000	0.003005	0.001018	-0.000025
1109	5.5400e-01	-4.3042	0.136899	0.000001	0.005810	0.001969	-0.000048
1110	5.5450e-01	-4.3378	0.136619	0.000001	0.006812	0.002308	-0.000056
1111	5.5500e-01	-4.4148	0.136379	0.000001	0.005810	0.001969	-0.000048
1112	5.5550e-01	-4.4277	0.136164	0.000001	0.005209	0.001765	-0.000043
1113	5.5600e-01	-4.4983	0.135908	0.000001	0.006211	0.002104	-0.000051
1114	5.5650e-01	-4.4967	0.135644	-0.000001	-0.006411	-0.002172	-0.000053
1115	5.5700e-01	-4.5753	0.135346	0.000001	0.007213	0.002444	-0.000059
1116	5.5750e-01	-4.5801	0.135230	0.000000	0.002805	0.000950	-0.000023
1117	5.5800e-01	-4.6282	0.134900	0.000001	0.008014	0.002715	-0.000066
1118	5.5850e-01	-4.6828	0.134693	0.000001	0.005009	0.001697	-0.000041
1119	5.5900e-01	-4.7197	0.134545	0.000000	0.003606	0.001222	-0.000030
1120	5.5950e-01	-4.7566	0.134297	0.000001	0.006010	0.002036	-0.000050
1121	5.6000e-01	-4.7822	0.133983	0.000001	0.007613	0.002579	-0.000063
1122	5.6050e-01	-4.8432	0.133487	0.000001	0.012021	0.004073	-0.000099
1123	5.6100e-01	-4.8640	0.133305	0.000000	0.004408	0.001493	-0.000036
1124	5.6150e-01	-4.9090	0.133487	-0.000000	-0.004408	-0.001493	0.000036
1125	5.6200e-01	-4.9539	0.133826	-0.000001	-0.008214	-0.002783	0.000068
1126	5.6250e-01	-4.9876	0.134098	-0.000001	-0.006612	-0.002240	0.000055
1127	5.6300e-01	-5.0517	0.133917	0.000000	0.004408	0.001493	-0.000036
1128	5.6350e-01	-5.0822	0.133322	0.000001	0.014425	0.004887	-0.000119
1129	5.6400e-01	-5.0983	0.132628	0.000002	0.016829	0.005702	-0.000139
1130	5.6450e-01	-5.1913	0.132107	0.000001	0.012622	0.004276	-0.000104
1131	5.6500e-01	-5.1833	0.131735	-0.000001	-0.009016	-0.003055	-0.000074
1132	5.6550e-01	-5.2410	0.131297	0.000001	0.010619	0.003598	-0.000088
1133	5.6600e-01	-5.2218	0.130727	-0.000001	-0.013824	-0.004684	-0.000114
1134	5.6650e-01	-5.3084	0.130215	0.000001	0.012422	0.004209	-0.000102
1135	5.6700e-01	-5.3517	0.129546	0.000002	0.016228	0.005498	-0.000134
1136	5.6750e-01	-5.4143	0.129934	-0.000001	-0.009416	-0.003190	0.000078
1137	5.6800e-01	-5.4303	0.130372	-0.000001	-0.010619	-0.003598	0.000088
1138	5.6850e-01	-5.4704	0.130612	-0.000001	-0.005810	-0.001969	0.000048
1139	5.6900e-01	-5.4849	0.130372	0.000001	0.005810	0.001969	-0.000048
1140	5.6950e-01	-5.5410	0.129909	0.000001	0.011220	0.003801	-0.000093
1141	5.7000e-01	-5.6020	0.129248	0.000002	0.016028	0.005430	-0.000132
1142	5.7050e-01	-5.6357	0.128719	0.000001	0.012822	0.004344	-0.000106
1143	5.7100e-01	-5.6950	0.128554	0.000000	0.004007	0.001358	-0.000033
1144	5.7150e-01	-5.7047	0.128876	-0.000001	-0.007814	-0.002647	0.000064
1145	5.7200e-01	-5.7367	0.128736	0.000000	0.003406	0.001154	-0.000028
1146	5.7250e-01	-5.7913	0.128116	0.000002	0.015026	0.005091	-0.000124
1147	5.7300e-01	-5.8490	0.127414	0.000002	0.017030	0.005770	-0.000140
1148	5.7350e-01	-5.8956	0.127174	0.000001	0.005810	0.001969	-0.000048
1149	5.7400e-01	-5.9180	0.127232	-0.000000	-0.001402	-0.000475	0.000012
1150	5.7450e-01	-5.9437	0.127373	-0.000000	-0.003406	-0.001154	0.000028
1151	5.7500e-01	-5.9902	0.126976	0.000001	0.009617	0.003258	-0.000079
1152	5.7550e-01	-6.0576	0.126455	0.000001	0.012622	0.004276	-0.000104
1153	5.7600e-01	-6.0672	0.126175	0.000001	0.006812	0.002308	-0.000056
1154	5.7650e-01	-6.1073	0.126100	0.000000	0.001803	0.000611	-0.000015
1155	5.7700e-01	-6.1426	0.126158	-0.000000	-0.001402	-0.000475	0.000012
1156	5.7750e-01	-6.1907	0.125654	0.000001	0.012221	0.004141	-0.000101
1157	5.7800e-01	-6.2324	0.125175	0.000001	0.011620	0.003937	-0.000096
1158	5.7850e-01	-6.2966	0.124993	0.000000	0.004408	0.001493	-0.000036
1159	5.7900e-01	-6.3014	0.124960	0.000000	0.000801	0.000272	-0.000007
1160	5.7950e-01	-6.3768	0.124753	0.000001	0.005009	0.001697	-0.000041
1161	5.8000e-01	-6.3929	0.124142	0.000001	0.014826	0.005023	-0.000122
1162	5.8050e-01	-6.4602	0.123795	0.000001	0.008415	0.002851	-0.000069
1163	5.8100e-01	-6.4362	0.123762	-0.000000	-0.000801	-0.000272	-0.000007
1164	5.8150e-01	-6.5020	0.123597	0.000000	0.004007	0.001358	-0.000033
1165	5.8200e-01	-6.5372	0.123183	0.000001	0.010017	0.003394	-0.000083
1166	5.8250e-01	-6.5950	0.122746	0.000001	0.010619	0.003598	-0.000088
1167	5.8300e-01	-6.6271	0.122721	0.000000	0.000601	0.000204	-0.000005
1168	5.8350e-01	-6.6752	0.122522	0.000000	0.004808	0.001629	-0.000040
1169	5.8400e-01	-6.7057	0.122027	0.000001	0.012021	0.004073	-0.000099
1170	5.8450e-01	-6.7570	0.121721	0.000001	0.007413	0.002512	-0.000061
1171	5.8500e-01	-6.7971	0.121448	0.000001	0.006612	0.002240	-0.000055
1172	5.8550e-01	-6.8388	0.121324	0.000000	0.003005	0.001018	-0.000025
1173	5.8600e-01	-6.8806	0.120977	0.000001	0.008415	0.002851	-0.000069
1174	5.8650e-01	-6.9046	0.120556	0.000001	0.010218	0.003462	-0.000084
1175	5.8700e-01	-6.9351	0.120283	0.000001	0.006612	0.002240	-0.000055
1176	5.8750e-01	-6.9961	0.120176	0.000000	0.002605	0.000882	-0.000021
1177	5.8800e-01	-7.0153	0.119936	0.000001	0.005810	0.001969	-0.000048
1178	5.8850e-01	-7.0506	0.119573	0.000001	0.008815	0.002987	-0.000073
1179	5.8900e-01	-7.1019	0.119259	0.000001	0.007613	0.002579	-0.000063
1180	5.8950e-01	-7.1661	0.119060	0.000000	0.004808	0.001629	-0.000040
1181	5.9000e-01	-7.2062	0.118961	0.000000	0.002404	0.000815	-0.000020
1182	5.9050e-01	-7.2255	0.118532	0.000001	0.010418	0.003530	-0.000086
1183	5.9100e-01	-7.2624	0.118193	0.000001	0.008214	0.002783	-0.000068
1184	5.9150e-01	-7.3346	0.117937	0.000001	0.006211	0.002104	-0.000051
1185	5.9200e-01	-7.3714	0.117747	0.000000	0.004608	0.001561	-0.000038
1186	5.9250e-01	-7.3939	0.117317	0.000001	0.010418	0.003530	-0.000086
1187	5.9300e-01	-7.4116	0.116920	0.000001	0.009617	0.003258	-0.000079
1188	5.9350e-01	-7.4693	0.116689	0.000001	0.005610	0.001901	-0.000046
1189	5.9400e-01	-7.4934	0.116441	0.000001	0.006010	0.002036	-0.000050
1190	5.9450e-01	-7.5463	0.115995	0.000001	0.010819	0.003666	-0.000089
1191	5.9500e-01	-7.5993	0.115590	0.000001	0.009817	0.003326	-0.000081
1192	5.9550e-01	-7.6554	0.115375	0.000001	0.005209	0.001765	-0.000043
1193	5.9600e-01	-7.6795	0.115144	0.000001	0.005610	0.001901	-0.000046
1194	5.9650e-01	-7.7003	0.114772	0.000001	0.009016	0.003055	-0.000074
1195	5.9700e-01	-7.7452	0.114508	0.000001	0.006411	0.002172	-0.000053
1196	5.9750e-01	-7.7725	0.114260	0.000001	0.006010	0.002036	-0.000050
1197	5.9800e-01	-7.7869	0.114144	0.000000	0.002805	0.000950	-0.000023
1198	5.9850e-01	-7.8752	0.113838	0.000001	0.007413	0.002512	-0.000061
1199	5.9900e-01	-7.9522	0.113458	0.000001	0.009216	0.003122	-0.000076
1200	5.9950e-01	-7.9458	0.113087	-0.000001	-0.009016	-0.003055	-0.000074
1201	6.0000e-01	-8.0051	0.112830	0.000001	0.006211	0.002104	-0.000051
1202	6.0050e-01	-8.0500	0.112715	0.000000	0.002805	0.000950	-0.000023
1203	6.0100e-01	-8.0500	0.112302	0.000001	0.010017	0.003394	-0.000083
1204	6.0150e-01	-8.0869	0.111864	0.000001	0.010619	0.003598	-0.000088
1205	6.0200e-01	-8.1704	0.111583	0.000001	0.006812	0.002308	-0.000056
1206	6.0250e-01	-8.1784	0.111376	0.000001	0.005009	0.001697	-0.000041
1207	6.0300e-01	-8.2409	0.111087	0.000001	0.007012	0.002376	-0.000058
1208	6.0350e-01	-8.2875	0.110723	0.000001	0.008815	0.002987	-0.000073
1209	6.0400e-01	-8.2987	0.110500	0.000001	0.005409	0.001833	-0.000045
1210	6.0450e-01	-8.3645	0.110079	0.000001	0.010218	0.003462	-0.000084
1211	6.0500e-01	-8.4158	0.109757	0.000001	0.007814	0.002647	-0.000064
1212	6.0550e-01	-8.4351	0.109228	0.000001	0.012822	0.004344	-0.000106
1213	6.0600e-01	-8.4575	0.108914	0.000001	0.007613	0.002579	-0.000063
1214	6.0650e-01	-8.4960	0.108782	0.000000	0.003206	0.001086	-0.000026
1215	6.0700e-01	-8.5457	0.108724	0.000000	0.001402	0.000475	-0.000012
1216	6.0750e-01	-8.6147	0.108608	0.000000	0.002805	0.000950	-0.000023
1217	6.0800e-01	-8.6468	0.108674	-0.000000	-0.001603	-0.000543	0.000013
1218	6.0850e-01	-8.6645	0.108856	-0.000000	-0.004408	-0.001493	0.000036
1219	6.0900e-01	-8.6982	0.108922	-0.000000	-0.001603	-0.000543	0.000013
1220	6.0950e-01	-8.7816	0.108848	0.000000	0.001803	0.000611	-0.000015
1221	6.1000e-01	-8.7848	0.108071	0.000002	0.018833	0.006381	-0.000155
1222	6.1050e-01	-8.8249	0.107278	0.000002	0.019234	0.006517	-0.000159
1223	6.1100e-01	-8.8907	0.106402	0.000002	0.021237	0.007195	-0.000175
1224	6.1150e-01	-8.8987	0.105700	0.000002	0.017030	0.005770	-0.000140
1225	6.1200e-01	-8.9500	0.105097	0.000001	0.014626	0.004955	-0.000121
1226	6.1250e-01	-9.0078	0.104973	0.000000	0.003005	0.001018	-0.000025
1227	6.1300e-01	-9.0222	0.104593	0.000001	0.009216	0.003122	-0.000076
1228	6.1350e-01	-9.0511	0.104196	0.000001	0.009617	0.003258	-0.000079
1229	6.1400e-01	-9.1185	0.104122	0.000000	0.001803	0.000611	-0.000015
1230	6.1450e-01	-9.1425	0.104212	-0.000000	-0.002204	-0.000747	0.000018
1231	6.1500e-01	-9.1923	0.104204	0.000000	0.000200	0.000068	-0.000002
1232	6.1550e-01	-9.2548	0.103915	0.000001	0.007012	0.002376	-0.000058
1233	6.1600e-01	-9.2741	0.103271	0.000002	0.015627	0.005295	-0.000129
1234	6.1650e-01	-9.3254	0.102816	0.000001	0.011019	0.003733	-0.000091
1235	6.1700e-01	-9.3607	0.102287	0.000001	0.012822	0.004344	-0.000106
1236	6.1750e-01	-9.3896	0.101758	0.000001	0.012822	0.004344	-0.000106
1237	6.1800e-01	-9.4377	0.101734	0.000000	0.000601	0.000204	-0.000005
1238	6.1850e-01	-9.4650	0.101882	-0.000000	-0.003606	-0.001222	0.000030
1239	6.1900e-01	-9.5291	0.101519	0.000001	0.008815	0.002987	-0.000073
1240	6.1950e-01	-9.5725	0.101031	0.000001	0.011821	0.004005	-0.000097
1241	6.2000e-01	-9.5997	0.100403	0.000002	0.015227	0.005159	-0.000126
1242	6.2050e-01	-9.6479	0.100230	0.000000	0.004207	0.001425	-0.000035
1243	6.2100e-01	-9.6655	0.100230	-0.000000	-0.000000	-0.000000	0.000000
1244	6.2150e-01	-9.6928	0.099957	0.000001	0.006612	0.002240	-0.000055
1245	6.2200e-01	-9.7377	0.099453	0.000001	0.012221	0.004141	-0.000101
1246	6.2250e-01	-9.7858	0.098751	0.000002	0.017030	0.005770	-0.000140
1247	6.2300e-01	-9.8436	0.098511	0.000001	0.005810	0.001969	-0.000048
1248	6.2350e-01	-9.8853	0.098379	0.000000	0.003206	0.001086	-0.000026
1249	6.2400e-01	-9.8981	0.098098	0.000001	0.006812	0.002308	-0.000056
1250	6.2450e-01	-9.9623	0.097321	0.000002	0.018833	0.006381	-0.000155
1251	6.2500e-01	-10.0040	0.096917	0.000001	0.009817	0.003326	-0.000081
1252	6.2550e-01	-10.0473	0.096760	0.000000	0.003807	0.001290	-0.000031
1253	6.2600e-01	-10.0730	0.096751	0.000000	0.000200	0.000068	-0.000002
1254	6.2650e-01	-10.1083	0.096140	0.000001	0.014826	0.005023	-0.000122
1255	6.2700e-01	-10.1853	0.095561	0.000001	0.014024	0.004752	-0.000116
1256	6.2750e-01	-10.1997	0.095355	0.000001	0.005009	0.001697	-0.000041
1257	6.2800e-01	-10.2174	0.095206	0.000000	0.003606	0.001222	-0.000030
1258	6.2850e-01	-10.2462	0.094826	0.000001	0.009216	0.003122	-0.000076
1259	6.2900e-01	-10.3120	0.094124	0.000002	0.017030	0.005770	-0.000140
1260	6.2950e-01	-10.3890	0.093793	0.000001	0.008014	0.002715	-0.000066
1261	6.3000e-01	-10.3938	0.093488	0.000001	0.007413	0.002512	-0.000061
1262	6.3050e-01	-10.4772	0.093165	0.000001	0.007814	0.002647	-0.000064
1263	6.3100e-01	-10.4660	0.092463	-0.000002	-0.017030	-0.005770	-0.000140
1264	6.3150e-01	-10.4965	0.092025	0.000001	0.010619	0.003598	-0.000088
1265	6.3200e-01	-10.5510	0.091695	0.000001	0.008014	0.002715	-0.000066
1266	6.3250e-01	-10.5847	0.091521	0.000000	0.004207	0.001425	-0.000035
1267	6.3300e-01	-10.6280	0.090926	0.000001	0.014425	0.004887	-0.000119
1268	6.3350e-01	-10.6826	0.090455	0.000001	0.011420	0.003869	-0.000094
1269	6.3400e-01	-10.6954	0.090282	0.000000	0.004207	0.001425	-0.000035
1270	6.3450e-01	-10.7692	0.090042	0.000001	0.005810	0.001969	-0.000048
1271	6.3500e-01	-10.7853	0.089588	0.000001	0.011019	0.003733	-0.000091
1272	6.3550e-01	-10.8350	0.089191	0.000001	0.009617	0.003258	-0.000079
1273	6.3600e-01	-10.8911	0.088910	0.000001	0.006812	0.002308	-0.000056
1274	6.3650e-01	-10.9200	0.088670	0.000001	0.005810	0.001969	-0.000048
1275	6.3700e-01	-10.9762	0.088257	0.000001	0.010017	0.003394	-0.000083
1276	6.3750e-01	-10.9922	0.087687	0.000001	0.013824	0.004684	-0.000114
1277	6.3800e-01	-11.0098	0.087373	0.000001	0.007613	0.002579	-0.000063
1278	6.3850e-01	-11.0612	0.087191	0.000000	0.004408	0.001493	-0.000036
1279	6.3900e-01	-11.1205	0.086679	0.000001	0.012422	0.004209	-0.000102
1280	6.3950e-01	-11.1366	0.086192	0.000001	0.011821	0.004005	-0.000097
1281	6.4000e-01	-11.2168	0.085721	0.000001	0.011420	0.003869	-0.000094
1282	6.4050e-01	-11.2377	0.085514	0.000001	0.005009	0.001697	-0.000041
1283	6.4100e-01	-11.2762	0.085043	0.000001	0.011420	0.003869	-0.000094
1284	6.4150e-01	-11.2938	0.084440	0.000001	0.014626	0.004955	-0.000121
1285	6.4200e-01	-11.3451	0.084035	0.000001	0.009817	0.003326	-0.000081
1286	6.4250e-01	-11.3917	0.083639	0.000001	0.009617	0.003258	-0.000079
1287	6.4300e-01	-11.4302	0.083325	0.000001	0.007613	0.002579	-0.000063
1288	6.4350e-01	-11.5007	0.082705	0.000002	0.015026	0.005091	-0.000124
1289	6.4400e-01	-11.5184	0.082168	0.000001	0.013023	0.004412	-0.000107
1290	6.4450e-01	-11.5489	0.081713	0.000001	0.011019	0.003733	-0.000091
1291	6.4500e-01	-11.5761	0.081185	0.000001	0.012822	0.004344	-0.000106
1292	6.4550e-01	-11.6419	0.080672	0.000001	0.012422	0.004209	-0.000102
1293	6.4600e-01	-11.6644	0.080028	0.000002	0.015627	0.005295	-0.000129
1294	6.4650e-01	-11.7285	0.079631	0.000001	0.009617	0.003258	-0.000079
1295	6.4700e-01	-11.7494	0.079350	0.000001	0.006812	0.002308	-0.000056
1296	6.4750e-01	-11.7895	0.078681	0.000002	0.016228	0.005498	-0.000134
1297	6.4800e-01	-11.8200	0.078119	0.000001	0.013624	0.004616	-0.000112
1298	6.4850e-01	-11.8906	0.077764	0.000001	0.008615	0.002919	-0.000071
1299	6.4900e-01	-11.9275	0.077466	0.000001	0.007213	0.002444	-0.000059
1300	6.4950e-01	-11.9531	0.076822	0.000002	0.015627	0.005295	-0.000129
1301	6.5000e-01	-11.9932	0.075979	0.000002	0.020436	0.006924	-0.000169
1302	6.5050e-01	-12.0334	0.075318	0.000002	0.016028	0.005430	-0.000132
1303	6.5100e-01	-12.0847	0.074913	0.000001	0.009817	0.003326	-0.000081
1304	6.5150e-01	-12.0927	0.074773	0.000000	0.003406	0.001154	-0.000028
1305	6.5200e-01	-12.1585	0.074368	0.000001	0.009817	0.003326	-0.000081
1306	6.5250e-01	-12.2082	0.073922	0.000001	0.010819	0.003666	-0.000089
1307	6.5300e-01	-12.2275	0.073484	0.000001	0.010619	0.003598	-0.000088
1308	6.5350e-01	-12.2676	0.073161	0.000001	0.007814	0.002647	-0.000064
1309	6.5400e-01	-12.2964	0.072707	0.000001	0.011019	0.003733	-0.000091
1310	6.5450e-01	-12.3574	0.072467	0.000001	0.005810	0.001969	-0.000048
1311	6.5500e-01	-12.3767	0.072343	0.000000	0.003005	0.001018	-0.000025
1312	6.5550e-01	-12.4408	0.071996	0.000001	0.008415	0.002851	-0.000069
1313	6.5600e-01	-12.4922	0.071435	0.000001	0.013624	0.004616	-0.000112
1314	6.5650e-01	-12.5275	0.070567	0.000002	0.021037	0.007127	-0.000174
1315	6.5700e-01	-12.5900	0.069699	0.000002	0.021037	0.007127	-0.000174
1316	6.5750e-01	-12.5724	0.068832	-0.000002	-0.021037	-0.007127	-0.000174
1317	6.5800e-01	-12.6125	0.068303	0.000001	0.012822	0.004344	-0.000106
1318	6.5850e-01	-12.6831	0.067675	0.000002	0.015227	0.005159	-0.000126
1319	6.5900e-01	-12.6975	0.066907	0.000002	0.018632	0.006313	-0.000154
1320	6.5950e-01	-12.7681	0.065998	0.000002	0.022038	0.007467	-0.000182
1321	6.6000e-01	-12.7889	0.065254	0.000002	0.018031	0.006109	-0.000149
1322	6.6050e-01	-12.8162	0.064791	0.000001	0.011220	0.003801	-0.000093
1323	6.6100e-01	-12.9012	0.064824	-0.000000	-0.000801	-0.000272	0.000007
1324	6.6150e-01	-12.8788	0.064858	0.000000	0.000801	0.000272	0.000007
1325	6.6200e-01	-12.9638	0.064477	0.000001	0.009216	0.003122	-0.000076
1326	6.6250e-01	-13.0183	0.063536	0.000002	0.022840	0.007738	-0.000188
1327	6.6300e-01	-13.0392	0.062808	0.000002	0.017631	0.005973	-0.000145
1328	6.6350e-01	-13.0713	0.062106	0.000002	0.017030	0.005770	-0.000140
1329	6.6400e-01	-13.1178	0.061536	0.000001	0.013824	0.004684	-0.000114
1330	6.6450e-01	-13.1675	0.061148	0.000001	0.009416	0.003190	-0.000078
1331	6.6500e-01	-13.2109	0.060825	0.000001	0.007814	0.002647	-0.000064
1332	6.6550e-01	-13.2478	0.060371	0.000001	0.011019	0.003733	-0.000091
1333	6.6600e-01	-13.2943	0.059776	0.000001	0.014425	0.004887	-0.000119
1334	6.6650e-01	-13.3215	0.058999	0.000002	0.018833	0.006381	-0.000155
1335	6.6700e-01	-13.3681	0.058347	0.000002	0.015828	0.005363	-0.000131
1336	6.6750e-01	-13.3905	0.058049	0.000001	0.007213	0.002444	-0.000059
1337	6.6800e-01	-13.4322	0.057719	0.000001	0.008014	0.002715	-0.000066
1338	6.6850e-01	-13.4836	0.057016	0.000002	0.017030	0.005770	-0.000140
1339	6.6900e-01	-13.4932	0.056033	0.000002	0.023842	0.008078	-0.000197
1340	6.6950e-01	-13.5574	0.055380	0.000002	0.015828	0.005363	-0.000131
1341	6.7000e-01	-13.6424	0.054975	0.000001	0.009817	0.003326	-0.000081
1342	6.7050e-01	-13.6408	0.054628	-0.000001	-0.008415	-0.002851	-0.000069
1343	6.7100e-01	-13.6520	0.053843	0.000002	0.019033	0.006449	-0.000157
1344	6.7150e-01	-13.7210	0.052943	0.000002	0.021838	0.007399	-0.000180
1345	6.7200e-01	-13.7916	0.052422	0.000001	0.012622	0.004276	-0.000104
1346	6.7250e-01	-13.7900	0.052166	-0.000001	-0.006211	-0.002104	-0.000051
1347	6.7300e-01	-13.8493	0.051579	0.000001	0.014225	0.004819	-0.000117
1348	6.7350e-01	-13.8991	0.050728	0.000002	0.020636	0.006992	-0.000170
1349	6.7400e-01	-13.8975	0.050051	-0.000002	-0.016429	-0.005566	-0.000136
1350	6.7450e-01	-13.9681	0.049613	0.000001	0.010619	0.003598	-0.000088
1351	6.7500e-01	-14.0130	0.049084	0.000001	0.012822	0.004344	-0.000106
1352	6.7550e-01	-14.0210	0.048357	0.000002	0.017631	0.005973	-0.000145
1353	6.7600e-01	-14.0627	0.047498	0.000002	0.020836	0.007060	-0.000172
1354	6.7650e-01	-14.1076	0.047002	0.000001	0.012021	0.004073	-0.000099
1355	6.7700e-01	-14.1429	0.046415	0.000001	0.014225	0.004819	-0.000117
1356	6.7750e-01	-14.2071	0.045663	0.000002	0.018232	0.006177	-0.000150
1357	6.7800e-01	-14.2360	0.044854	0.000002	0.019634	0.006652	-0.000162
1358	6.7850e-01	-14.3001	0.044217	0.000002	0.015427	0.005227	-0.000127
1359	6.7900e-01	-14.3290	0.043780	0.000001	0.010619	0.003598	-0.000088
1360	6.7950e-01	-14.3499	0.043185	0.000001	0.014425	0.004887	-0.000119
1361	6.8000e-01	-14.3932	0.042193	0.000002	0.024042	0.008146	-0.000198
1362	6.8050e-01	-14.4429	0.041573	0.000002	0.015026	0.005091	-0.000124
1363	6.8100e-01	-14.4750	0.041226	0.000001	0.008415	0.002851	-0.000069
1364	6.8150e-01	-14.5263	0.040516	0.000002	0.017230	0.005838	-0.000142
1365	6.8200e-01	-14.5568	0.039690	0.000002	0.020035	0.006788	-0.000165
1366	6.8250e-01	-14.5857	0.038996	0.000002	0.016829	0.005702	-0.000139
1367	6.8300e-01	-14.6194	0.038533	0.000001	0.011220	0.003801	-0.000093
1368	6.8350e-01	-14.6466	0.037954	0.000001	0.014024	0.004752	-0.000116
1369	6.8400e-01	-14.7445	0.037161	0.000002	0.019234	0.006517	-0.000159
1370	6.8450e-01	-14.7541	0.036451	0.000002	0.017230	0.005838	-0.000142
1371	6.8500e-01	-14.7926	0.035872	0.000001	0.014024	0.004752	-0.000116
1372	6.8550e-01	-14.8359	0.035269	0.000001	0.014626	0.004955	-0.000121
1373	6.8600e-01	-14.8680	0.034509	0.000002	0.018432	0.006245	-0.000152
1374	6.8650e-01	-14.9370	0.033633	0.000002	0.021237	0.007195	-0.000175
1375	6.8700e-01	-14.9466	0.033022	0.000001	0.014826	0.005023	-0.000122
1376	6.8750e-01	-15.0108	0.032402	0.000002	0.015026	0.005091	-0.000124
1377	6.8800e-01	-15.0301	0.031700	0.000002	0.017030	0.005770	-0.000140
1378	6.8850e-01	-15.0878	0.030882	0.000002	0.019835	0.006720	-0.000164
1379	6.8900e-01	-15.1183	0.030138	0.000002	0.018031	0.006109	-0.000149
1380	6.8950e-01	-15.1600	0.029427	0.000002	0.017230	0.005838	-0.000142
1381	6.9000e-01	-15.1873	0.028742	0.000002	0.016629	0.005634	-0.000137
1382	6.9050e-01	-15.2386	0.027824	0.000002	0.022239	0.007535	-0.000183
1383	6.9100e-01	-15.2563	0.027097	0.000002	0.017631	0.005973	-0.000145
1384	6.9150e-01	-15.3204	0.026461	0.000002	0.015427	0.005227	-0.000127
1385	6.9200e-01	-15.3557	0.025726	0.000002	0.017831	0.006041	-0.000147
1386	6.9250e-01	-15.3798	0.024966	0.000002	0.018432	0.006245	-0.000152
1387	6.9300e-01	-15.4199	0.024057	0.000002	0.022038	0.007467	-0.000182
1388	6.9350e-01	-15.4808	0.023346	0.000002	0.017230	0.005838	-0.000142
1389	6.9400e-01	-15.5113	0.022569	0.000002	0.018833	0.006381	-0.000155
1390	6.9450e-01	-15.5482	0.021512	0.000003	0.025645	0.008689	-0.000212
1391	6.9500e-01	-15.5947	0.020562	0.000002	0.023040	0.007806	-0.000190
1392	6.9550e-01	-15.6413	0.019810	0.000002	0.018232	0.006177	-0.000150
1393	6.9600e-01	-15.6541	0.019099	0.000002	0.017230	0.005838	-0.000142
1394	6.9650e-01	-15.6990	0.018512	0.000001	0.014225	0.004819	-0.000117
1395	6.9700e-01	-15.7600	0.017992	0.000001	0.012622	0.004276	-0.000104
1396	6.9750e-01	-15.8033	0.017364	0.000002	0.015227	0.005159	-0.000126
1397	6.9800e-01	-15.8530	0.016645	0.000002	0.017430	0.005906	-0.000144
1398	6.9850e-01	-15.8546	0.015877	0.000002	0.018632	0.006313	-0.000154
1399	6.9900e-01	-15.8963	0.015199	0.000002	0.016429	0.005566	-0.000136
1400	6.9950e-01	-15.9589	0.014489	0.000002	0.017230	0.005838	-0.000142
1401	7.0000e-01	-15.9974	0.013786	0.000002	0.017030	0.005770	-0.000140
1402	7.0050e-01	-16.0311	0.012786	0.000002	0.024242	0.008214	-0.000200
1403	7.0100e-01	-16.0856	0.011778	0.000002	0.024443	0.008281	-0.000202
1404	7.0150e-01	-16.0905	0.011159	0.000002	0.015026	0.005091	-0.000124
1405	7.0200e-01	-16.1338	0.010853	0.000001	0.007413	0.002512	-0.000061
1406	7.0250e-01	-16.1883	0.010465	0.000001	0.009416	0.003190	-0.000078
1407	7.0300e-01	-16.2316	0.009787	0.000002	0.016429	0.005566	-0.000136
1408	7.0350e-01	-16.2974	0.008440	0.000003	0.032657	0.011064	-0.000269
1409	7.0400e-01	-16.3375	0.007044	0.000003	0.033859	0.011472	-0.000279
1410	7.0450e-01	-16.3519	0.005648	0.000003	0.033859	0.011472	-0.000279
1411	7.0500e-01	-16.3760	0.004606	0.000003	0.025244	0.008553	-0.000208
1412	7.0550e-01	-16.4386	0.003615	0.000002	0.024042	0.008146	-0.000198
1413	7.0600e-01	-16.4530	0.002599	0.000002	0.024643	0.008349	-0.000203
1414	7.0650e-01	-16.5316	0.001549	0.000003	0.025444	0.008621	-0.000210
1415	7.0700e-01	-16.5172	0.000516	-0.000003	-0.025044	-0.008485	-0.000207
1416	7.0750e-01	-16.6118	-0.000145	0.000002	0.016028	0.005430	-0.000132
1417	7.0800e-01	-16.6263	-0.000541	0.000001	0.009617	0.003258	-0.000079
1418	7.0850e-01	-16.6632	-0.000872	0.000001	0.008014	0.002715	-0.000066
1419	7.0900e-01	-16.7001	-0.001748	0.000002	0.021237	0.007195	-0.000175
1420	7.0950e-01	-16.7354	-0.002946	0.000003	0.029051	0.009843	-0.000240
1421	7.1000e-01	-16.7899	-0.004102	0.000003	0.028049	0.009503	-0.000231
1422	7.1050e-01	-16.8428	-0.005036	0.000002	0.022639	0.007670	-0.000187
1423	7.1100e-01	-16.8525	-0.005813	0.000002	0.018833	0.006381	-0.000155
1424	7.1150e-01	-16.8990	-0.006358	0.000001	0.013223	0.004480	-0.000109
1425	7.1200e-01	-16.9391	-0.007217	0.000002	0.020836	0.007060	-0.000172
1426	7.1250e-01	-16.9952	-0.008349	0.000003	0.027448	0.009300	-0.000226
1427	7.1300e-01	-17.0546	-0.009432	0.000003	0.026246	0.008892	-0.000216
1428	7.1350e-01	-17.0706	-0.010572	0.000003	0.027648	0.009367	-0.000228
1429	7.1400e-01	-17.1252	-0.011539	0.000002	0.023441	0.007942	-0.000193
1430	7.1450e-01	-17.1605	-0.012175	0.000002	0.015427	0.005227	-0.000127
1431	7.1500e-01	-17.1878	-0.013200	0.000002	0.024843	0.008417	-0.000205
1432	7.1550e-01	-17.2295	-0.014249	0.000003	0.025444	0.008621	-0.000210
1433	7.1600e-01	-17.2888	-0.015331	0.000003	0.026246	0.008892	-0.000216
1434	7.1650e-01	-17.3305	-0.016356	0.000002	0.024843	0.008417	-0.000205
1435	7.1700e-01	-17.3770	-0.017050	0.000002	0.016829	0.005702	-0.000139
1436	7.1750e-01	-17.3947	-0.017893	0.000002	0.020436	0.006924	-0.000169
1437	7.1800e-01	-17.4220	-0.019050	0.000003	0.028049	0.009503	-0.000231
1438	7.1850e-01	-17.4861	-0.020181	0.000003	0.027448	0.009300	-0.000226
1439	7.1900e-01	-17.5070	-0.020975	0.000002	0.019234	0.006517	-0.000159
1440	7.1950e-01	-17.5680	-0.021826	0.000002	0.020636	0.006992	-0.000170
1441	7.2000e-01	-17.6065	-0.023007	0.000003	0.028650	0.009707	-0.000236
1442	7.2050e-01	-17.6129	-0.024131	0.000003	0.027248	0.009232	-0.000225
1443	7.2100e-01	-17.6802	-0.025073	0.000002	0.022840	0.007738	-0.000188
1444	7.2150e-01	-17.6835	-0.025866	0.000002	0.019234	0.006517	-0.000159
1445	7.2200e-01	-17.7589	-0.026998	0.000003	0.027448	0.009300	-0.000226
1446	7.2250e-01	-17.7990	-0.028312	0.000003	0.031856	0.010793	-0.000263
1447	7.2300e-01	-17.8343	-0.029270	0.000002	0.023241	0.007874	-0.000192
1448	7.2350e-01	-17.8856	-0.030039	0.000002	0.018632	0.006313	-0.000154
1449	7.2400e-01	-17.8872	-0.030997	0.000002	0.023241	0.007874	-0.000192
1450	7.2450e-01	-17.9626	-0.032162	0.000003	0.028249	0.009571	-0.000233
1451	7.2500e-01	-17.9915	-0.033121	0.000002	0.023241	0.007874	-0.000192
1452	7.2550e-01	-18.0524	-0.033988	0.000002	0.021037	0.007127	-0.000174
1453	7.2600e-01	-18.0701	-0.034872	0.000002	0.021437	0.007263	-0.000177
1454	7.2650e-01	-18.1150	-0.036029	0.000003	0.028049	0.009503	-0.000231
1455	7.2700e-01	-18.1198	-0.037136	0.000003	0.026847	0.009096	-0.000221
1456	7.2750e-01	-18.1888	-0.038103	0.000002	0.023441	0.007942	-0.000193
1457	7.2800e-01	-18.2225	-0.038921	0.000002	0.019835	0.006720	-0.000164
1458	7.2850e-01	-18.2530	-0.040177	0.000003	0.030453	0.010318	-0.000251
1459	7.2900e-01	-18.3027	-0.041293	0.000003	0.027047	0.009164	-0.000223
1460	7.2950e-01	-18.3428	-0.042424	0.000003	0.027448	0.009300	-0.000226
1461	7.3000e-01	-18.3797	-0.043399	0.000002	0.023641	0.008010	-0.000195
1462	7.3050e-01	-18.4567	-0.044424	0.000002	0.024843	0.008417	-0.000205
1463	7.3100e-01	-18.4695	-0.045713	0.000003	0.031255	0.010589	-0.000258
1464	7.3150e-01	-18.5209	-0.046721	0.000002	0.024443	0.008281	-0.000202
1465	7.3200e-01	-18.5353	-0.047713	0.000002	0.024042	0.008146	-0.000198
1466	7.3250e-01	-18.6139	-0.048762	0.000003	0.025444	0.008621	-0.000210
1467	7.3300e-01	-18.6139	-0.049902	0.000003	0.027648	0.009367	-0.000228
1468	7.3350e-01	-18.6508	-0.051142	0.000003	0.030052	0.010182	-0.000248
1469	7.3400e-01	-18.7070	-0.052017	0.000002	0.021237	0.007195	-0.000175
1470	7.3450e-01	-18.7503	-0.053067	0.000003	0.025444	0.008621	-0.000210
1471	7.3500e-01	-18.7599	-0.054381	0.000003	0.031856	0.010793	-0.000263
1472	7.3550e-01	-18.8273	-0.055628	0.000003	0.030253	0.010250	-0.000250
1473	7.3600e-01	-18.8850	-0.056653	0.000002	0.024843	0.008417	-0.000205
1474	7.3650e-01	-18.9332	-0.057653	0.000002	0.024242	0.008214	-0.000200
1475	7.3700e-01	-18.9508	-0.059032	0.000003	0.033458	0.011336	-0.000276
1476	7.3750e-01	-18.9909	-0.060321	0.000003	0.031255	0.010589	-0.000258
1477	7.3800e-01	-19.0471	-0.061354	0.000003	0.025044	0.008485	-0.000207
1478	7.3850e-01	-19.0487	-0.062519	0.000003	0.028249	0.009571	-0.000233
1479	7.3900e-01	-19.0840	-0.064097	0.000004	0.038267	0.012965	-0.000316
1480	7.3950e-01	-19.1048	-0.065502	0.000003	0.034059	0.011540	-0.000281
1481	7.4000e-01	-19.1417	-0.066684	0.000003	0.028650	0.009707	-0.000236
1482	7.4050e-01	-19.2428	-0.067973	0.000003	0.031255	0.010589	-0.000258
1483	7.4100e-01	-19.2765	-0.068981	0.000002	0.024443	0.008281	-0.000202
1484	7.4150e-01	-19.3166	-0.070129	0.000003	0.027849	0.009435	-0.000230
1485	7.4200e-01	-19.3053	-0.071162	-0.000003	-0.025044	-0.008485	-0.000207
1486	7.4250e-01	-19.3679	-0.072261	0.000003	0.026646	0.009028	-0.000220
1487	7.4300e-01	-19.4385	-0.073451	0.000003	0.028850	0.009775	-0.000238
1488	7.4350e-01	-19.4754	-0.074657	0.000003	0.029251	0.009911	-0.000241
1489	7.4400e-01	-19.5027	-0.076004	0.000003	0.032657	0.011064	-0.000269
1490	7.4450e-01	-19.5123	-0.077210	0.000003	0.029251	0.009911	-0.000241
1491	7.4500e-01	-19.5861	-0.078540	0.000003	0.032256	0.010929	-0.000266
1492	7.4550e-01	-19.6182	-0.080210	0.000004	0.040471	0.013712	-0.000334
1493	7.4600e-01	-19.6502	-0.081614	0.000003	0.034059	0.011540	-0.000281
1494	7.4650e-01	-19.7433	-0.083077	0.000004	0.035462	0.012015	-0.000292
1495	7.4700e-01	-19.7577	-0.084118	0.000003	0.025244	0.008553	-0.000208
1496	7.4750e-01	-19.7850	-0.085415	0.000003	0.031455	0.010657	-0.000259
1497	7.4800e-01	-19.8363	-0.086456	0.000003	0.025244	0.008553	-0.000208
1498	7.4850e-01	-19.8604	-0.087381	0.000002	0.022439	0.007603	-0.000185
1499	7.4900e-01	-19.9358	-0.088522	0.000003	0.027648	0.009367	-0.000228
1500	7.4950e-01	-19.9470	-0.089860	0.000003	0.032457	0.010997	-0.000268
1501	7.5000e-01	-19.9903	-0.091562	0.000004	0.041272	0.013983	-0.000340
1502	7.5050e-01	-19.9182	-0.093190	-0.000004	-0.039469	-0.013372	-0.000326
1503	7.5100e-01	-19.8989	-0.094818	-0.000004	-0.039469	-0.013372	-0.000326
1504	7.5150e-01	-19.8235	-0.096313	-0.000004	-0.036263	-0.012286	-0.000299
1505	7.5200e-01	-19.7802	-0.097999	-0.000004	-0.040871	-0.013848	-0.000337
1506	7.5250e-01	-19.7593	-0.099404	-0.000003	-0.034059	-0.011540	-0.000281
1507	7.5300e-01	-19.6952	-0.100478	-0.000003	-0.026045	-0.008824	-0.000215
1508	7.5350e-01	-19.6984	-0.101535	0.000003	0.025645	0.008689	-0.000212
1509	7.5400e-01	-19.6502	-0.102692	-0.000003	-0.028049	-0.009503	-0.000231
1510	7.5450e-01	-19.5813	-0.103097	-0.000001	-0.009817	-0.003326	-0.000081
1511	7.5500e-01	-19.5572	-0.103618	-0.000001	-0.012622	-0.004276	-0.000104
1512	7.5550e-01	-19.5187	-0.104312	-0.000002	-0.016829	-0.005702	-0.000139
1513	7.5600e-01	-19.4561	-0.105609	-0.000003	-0.031455	-0.010657	-0.000259
1514	7.5650e-01	-19.4337	-0.106774	-0.000003	-0.028249	-0.009571	-0.000233
1515	7.5700e-01	-19.3904	-0.108030	-0.000003	-0.030453	-0.010318	-0.000251
1516	7.5750e-01	-19.3390	-0.109013	-0.000002	-0.023842	-0.008078	-0.000197
1517	7.5800e-01	-19.3102	-0.109509	-0.000001	-0.012021	-0.004073	-0.000099
1518	7.5850e-01	-19.3262	-0.110021	0.000001	0.012422	0.004209	-0.000102
1519	7.5900e-01	-19.2251	-0.111046	-0.000002	-0.024843	-0.008417	-0.000205
1520	7.5950e-01	-19.1898	-0.112252	-0.000003	-0.029251	-0.009911	-0.000241
1521	7.6000e-01	-19.1770	-0.113078	-0.000002	-0.020035	-0.006788	-0.000165
1522	7.6050e-01	-19.1209	-0.113871	-0.000002	-0.019234	-0.006517	-0.000159
1523	7.6100e-01	-19.0936	-0.114433	-0.000001	-0.013624	-0.004616	-0.000112
1524	7.6150e-01	-19.0390	-0.115070	-0.000002	-0.015427	-0.005227	-0.000127
1525	7.6200e-01	-18.9957	-0.115945	-0.000002	-0.021237	-0.007195	-0.000175
1526	7.6250e-01	-18.9524	-0.116772	-0.000002	-0.020035	-0.006788	-0.000165
1527	7.6300e-01	-18.8802	-0.117573	-0.000002	-0.019434	-0.006584	-0.000160
1528	7.6350e-01	-18.8802	-0.118110	0.000001	0.013023	0.004412	-0.000107
1529	7.6400e-01	-18.8465	-0.118705	-0.000001	-0.014425	-0.004887	-0.000119
1530	7.6450e-01	-18.8112	-0.119548	-0.000002	-0.020436	-0.006924	-0.000169
1531	7.6500e-01	-18.7503	-0.120572	-0.000002	-0.024843	-0.008417	-0.000205
1532	7.6550e-01	-18.6877	-0.121052	-0.000001	-0.011620	-0.003937	-0.000096
1533	7.6600e-01	-18.6813	-0.121523	-0.000001	-0.011420	-0.003869	-0.000094
1534	7.6650e-01	-18.6556	-0.122275	-0.000002	-0.018232	-0.006177	-0.000150
1535	7.6700e-01	-18.6187	-0.123076	-0.000002	-0.019434	-0.006584	-0.000160
1536	7.6750e-01	-18.5530	-0.123803	-0.000002	-0.017631	-0.005973	-0.000145
1537	7.6800e-01	-18.5161	-0.124192	-0.000001	-0.009416	-0.003190	-0.000078
1538	7.6850e-01	-18.5000	-0.124613	-0.000001	-0.010218	-0.003462	-0.000084
1539	7.6900e-01	-18.4439	-0.125315	-0.000002	-0.017030	-0.005770	-0.000140
1540	7.6950e-01	-18.4374	-0.125951	-0.000002	-0.015427	-0.005227	-0.000127
1541	7.7000e-01	-18.3588	-0.126373	-0.000001	-0.010218	-0.003462	-0.000084
1542	7.7050e-01	-18.3364	-0.126670	-0.000001	-0.007213	-0.002444	-0.000059
1543	7.7100e-01	-18.3091	-0.127340	-0.000002	-0.016228	-0.005498	-0.000134
1544	7.7150e-01	-18.2193	-0.127844	-0.000001	-0.012221	-0.004141	-0.000101
1545	7.7200e-01	-18.2064	-0.128488	-0.000002	-0.015627	-0.005295	-0.000129
1546	7.7250e-01	-18.1840	-0.128893	-0.000001	-0.009817	-0.003326	-0.000081
1547	7.7300e-01	-18.0861	-0.129521	-0.000002	-0.015227	-0.005159	-0.000126
1548	7.7350e-01	-18.1118	-0.130132	0.000001	0.014826	0.005023	-0.000122
1549	7.7400e-01	-18.0588	-0.130595	-0.000001	-0.011220	-0.003801	-0.000093
1550	7.7450e-01	-18.0043	-0.130901	-0.000001	-0.007413	-0.002512	-0.000061
1551	7.7500e-01	-17.9433	-0.131297	-0.000001	-0.009617	-0.003258	-0.000079
1552	7.7550e-01	-17.9241	-0.132008	-0.000002	-0.017230	-0.005838	-0.000142
1553	7.7600e-01	-17.8679	-0.132438	-0.000001	-0.010418	-0.003530	-0.000086
1554	7.7650e-01	-17.8375	-0.132785	-0.000001	-0.008415	-0.002851	-0.000069
1555	7.7700e-01	-17.7942	-0.133066	-0.000001	-0.006812	-0.002308	-0.000056
1556	7.7750e-01	-17.7669	-0.133611	-0.000001	-0.013223	-0.004480	-0.000109
1557	7.7800e-01	-17.7043	-0.133966	-0.000001	-0.008615	-0.002919	-0.000071
1558	7.7850e-01	-17.6658	-0.134338	-0.000001	-0.009016	-0.003055	-0.000074
1559	7.7900e-01	-17.6257	-0.134652	-0.000001	-0.007613	-0.002579	-0.000063
1560	7.7950e-01	-17.6000	-0.135189	-0.000001	-0.013023	-0.004412	-0.000107
1561	7.8000e-01	-17.5776	-0.135751	-0.000001	-0.013624	-0.004616	-0.000112
1562	7.8050e-01	-17.5150	-0.135974	-0.000001	-0.005409	-0.001833	-0.000045
1563	7.8100e-01	-17.4765	-0.136387	-0.000001	-0.010017	-0.003394	-0.000083
1564	7.8150e-01	-17.4492	-0.137089	-0.000002	-0.017030	-0.005770	-0.000140
1565	7.8200e-01	-17.4011	-0.137610	-0.000001	-0.012622	-0.004276	-0.000104
1566	7.8250e-01	-17.3305	-0.137974	-0.000001	-0.008815	-0.002987	-0.000073
1567	7.8300e-01	-17.3321	-0.138271	0.000001	0.007213	0.002444	-0.000059
1568	7.8350e-01	-17.2631	-0.138519	-0.000001	-0.006010	-0.002036	-0.000050
1569	7.8400e-01	-17.2455	-0.139180	-0.000002	-0.016028	-0.005430	-0.000132
1570	7.8450e-01	-17.1894	-0.139750	-0.000001	-0.013824	-0.004684	-0.000114
1571	7.8500e-01	-17.1541	-0.140072	-0.000001	-0.007814	-0.002647	-0.000064
1572	7.8550e-01	-17.1557	-0.140320	0.000001	0.006010	0.002036	-0.000050
1573	7.8600e-01	-17.0931	-0.140428	-0.000000	-0.002605	-0.000882	-0.000021
1574	7.8650e-01	-17.0450	-0.140469	-0.000000	-0.001002	-0.000339	-0.000008
1575	7.8700e-01	-16.9920	-0.140717	-0.000001	-0.006010	-0.002036	-0.000050
1576	7.8750e-01	-16.9824	-0.140973	-0.000001	-0.006211	-0.002104	-0.000051
1577	7.8800e-01	-16.9134	-0.141403	-0.000001	-0.010418	-0.003530	-0.000086
1578	7.8850e-01	-16.8846	-0.141717	-0.000001	-0.007613	-0.002579	-0.000063
1579	7.8900e-01	-16.8172	-0.141989	-0.000001	-0.006612	-0.002240	-0.000055
1580	7.8950e-01	-16.8685	-0.142295	0.000001	0.007413	0.002512	-0.000061
1581	7.9000e-01	-16.7819	-0.143022	-0.000002	-0.017631	-0.005973	-0.000145
1582	7.9050e-01	-16.7610	-0.143584	-0.000001	-0.013624	-0.004616	-0.000112
1583	7.9100e-01	-16.6872	-0.144096	-0.000001	-0.012422	-0.004209	-0.000102
1584	7.9150e-01	-16.6215	-0.144286	-0.000000	-0.004608	-0.001561	-0.000038
1585	7.9200e-01	-16.6134	-0.144476	-0.000000	-0.004608	-0.001561	-0.000038
1586	7.9250e-01	-16.5637	-0.144567	-0.000000	-0.002204	-0.000747	-0.000018
1587	7.9300e-01	-16.5108	-0.144774	-0.000001	-0.005009	-0.001697	-0.000041
1588	7.9350e-01	-16.4691	-0.145046	-0.000001	-0.006612	-0.002240	-0.000055
1589	7.9400e-01	-16.4514	-0.145550	-0.000001	-0.012221	-0.004141	-0.000101
1590	7.9450e-01	-16.4065	-0.145914	-0.000001	-0.008815	-0.002987	-0.000073
1591	7.9500e-01	-16.3439	-0.145600	0.000001	0.007613	0.002579	0.000063
1592	7.9550e-01	-16.2958	-0.145336	0.000001	0.006411	0.002172	0.000053
1593	7.9600e-01	-16.2717	-0.145526	-0.000000	-0.004608	-0.001561	-0.000038
1594	7.9650e-01	-16.2798	-0.145988	0.000001	0.011220	0.003801	-0.000093
1595	7.9700e-01	-16.1899	-0.146947	-0.000002	-0.023241	-0.007874	-0.000192
1596	7.9750e-01	-16.1899	-0.147517	0.000001	0.013824	0.004684	-0.000114
1597	7.9800e-01	-16.1354	-0.147971	-0.000001	-0.011019	-0.003733	-0.000091
1598	7.9850e-01	-16.0792	-0.148310	-0.000001	-0.008214	-0.002783	-0.000068
1599	7.9900e-01	-16.0343	-0.148930	-0.000002	-0.015026	-0.005091	-0.000124
1600	7.9950e-01	-16.0038	-0.149310	-0.000001	-0.009216	-0.003122	-0.000076
1601	8.0000e-01	-15.9701	-0.149525	-0.000001	-0.005209	-0.001765	-0.000043
1602	8.0050e-01	-15.9252	-0.149583	-0.000000	-0.001402	-0.000475	-0.000012
1603	8.0100e-01	-15.8707	-0.149260	0.000001	0.007814	0.002647	0.000064
1604	8.0150e-01	-15.8225	-0.149120	0.000000	0.003406	0.001154	0.000028
1605	8.0200e-01	-15.7953	-0.148938	0.000000	0.004408	0.001493	0.000036
1606	8.0250e-01	-15.7664	-0.149186	-0.000001	-0.006010	-0.002036	-0.000050
1607	8.0300e-01	-15.7327	-0.149616	-0.000001	-0.010418	-0.003530	-0.000086
1608	8.0350e-01	-15.7006	-0.150054	-0.000001	-0.010619	-0.003598	-0.000088
1609	8.0400e-01	-15.6332	-0.150442	-0.000001	-0.009416	-0.003190	-0.000078
1610	8.0450e-01	-15.5931	-0.150533	-0.000000	-0.002204	-0.000747	-0.000018
1611	8.0500e-01	-15.5578	-0.150293	0.000001	0.005810	0.001969	0.000048
1612	8.0550e-01	-15.5033	-0.150500	-0.000001	-0.005009	-0.001697	-0.000041
1613	8.0600e-01	-15.5049	-0.150905	0.000001	0.009817	0.003326	-0.000081
1614	8.0650e-01	-15.4279	-0.151276	-0.000001	-0.009016	-0.003055	-0.000074
1615	8.0700e-01	-15.4087	-0.151673	-0.000001	-0.009617	-0.003258	-0.000079
1616	8.0750e-01	-15.3766	-0.151574	0.000000	0.002404	0.000815	0.000020
1617	8.0800e-01	-15.3300	-0.151533	0.000000	0.001002	0.000339	0.000008
1618	8.0850e-01	-15.2932	-0.151888	-0.000001	-0.008615	-0.002919	-0.000071
1619	8.0900e-01	-15.2627	-0.152235	-0.000001	-0.008415	-0.002851	-0.000069
1620	8.0950e-01	-15.2129	-0.152541	-0.000001	-0.007413	-0.002512	-0.000061
1621	8.1000e-01	-15.1391	-0.152557	-0.000000	-0.000401	-0.000136	-0.000003
1622	8.1050e-01	-15.1279	-0.152665	-0.000000	-0.002605	-0.000882	-0.000021
1623	8.1100e-01	-15.1022	-0.152888	-0.000001	-0.005409	-0.001833	-0.000045
1624	8.1150e-01	-15.0429	-0.153102	-0.000001	-0.005209	-0.001765	-0.000043
1625	8.1200e-01	-15.0236	-0.153483	-0.000001	-0.009216	-0.003122	-0.000076
1626	8.1250e-01	-14.9547	-0.153507	-0.000000	-0.000601	-0.000204	-0.000005
1627	8.1300e-01	-14.9466	-0.153598	-0.000000	-0.002204	-0.000747	-0.000018
1628	8.1350e-01	-14.8793	-0.153904	-0.000001	-0.007413	-0.002512	-0.000061
1629	8.1400e-01	-14.8504	-0.154094	-0.000000	-0.004608	-0.001561	-0.000038
1630	8.1450e-01	-14.7750	-0.154160	-0.000000	-0.001603	-0.000543	-0.000013
1631	8.1500e-01	-14.7910	-0.154201	0.000000	0.001002	0.000339	-0.000008
1632	8.1550e-01	-14.7188	-0.154491	-0.000001	-0.007012	-0.002376	-0.000058
1633	8.1600e-01	-14.6900	-0.154912	-0.000001	-0.010218	-0.003462	-0.000084
1634	8.1650e-01	-14.5937	-0.155011	-0.000000	-0.002404	-0.000815	-0.000020
1635	8.1700e-01	-14.5873	-0.155209	-0.000000	-0.004808	-0.001629	-0.000040
1636	8.1750e-01	-14.5488	-0.155383	-0.000000	-0.004207	-0.001425	-0.000035
1637	8.1800e-01	-14.5424	-0.155689	-0.000001	-0.007413	-0.002512	-0.000061
1638	8.1850e-01	-14.4718	-0.155829	-0.000000	-0.003406	-0.001154	-0.000028
1639	8.1900e-01	-14.4638	-0.155920	-0.000000	-0.002204	-0.000747	-0.000018
1640	8.1950e-01	-14.3755	-0.156094	-0.000000	-0.004207	-0.001425	-0.000035
1641	8.2000e-01	-14.3932	-0.156341	0.000001	0.006010	0.002036	-0.000050
1642	8.2050e-01	-14.3467	-0.156507	-0.000000	-0.004007	-0.001358	-0.000033
1643	8.2100e-01	-14.2953	-0.156540	-0.000000	-0.000801	-0.000272	-0.000007
1644	8.2150e-01	-14.2456	-0.156589	-0.000000	-0.001202	-0.000407	-0.000010
1645	8.2200e-01	-14.1654	-0.156713	-0.000000	-0.003005	-0.001018	-0.000025
1646	8.2250e-01	-14.1702	-0.156994	0.000001	0.006812	0.002308	-0.000056
1647	8.2300e-01	-14.1189	-0.156969	0.000000	0.000601	0.000204	0.000005
1648	8.2350e-01	-14.0611	-0.157102	-0.000000	-0.003206	-0.001086	-0.000026
1649	8.2400e-01	-14.0418	-0.157267	-0.000000	-0.004007	-0.001358	-0.000033
1650	8.2450e-01	-13.9841	-0.157630	-0.000001	-0.008815	-0.002987	-0.000073
1651	8.2500e-01	-13.9215	-0.157771	-0.000000	-0.003406	-0.001154	-0.000028
1652	8.2550e-01	-13.9665	-0.157796	0.000000	0.000601	0.000204	-0.000005
1653	8.2600e-01	-13.8766	-0.157977	-0.000000	-0.004408	-0.001493	-0.000036
1654	8.2650e-01	-13.8285	-0.158209	-0.000001	-0.005610	-0.001901	-0.000046
1655	8.2700e-01	-13.7755	-0.158358	-0.000000	-0.003606	-0.001222	-0.000030
1656	8.2750e-01	-13.7852	-0.158316	-0.000000	-0.001002	-0.000339	0.000008
1657	8.2800e-01	-13.7306	-0.158424	-0.000000	-0.002605	-0.000882	-0.000021
1658	8.2850e-01	-13.6841	-0.158729	-0.000001	-0.007413	-0.002512	-0.000061
1659	8.2900e-01	-13.6729	-0.158870	-0.000000	-0.003406	-0.001154	-0.000028
1660	8.2950e-01	-13.6087	-0.159101	-0.000001	-0.005610	-0.001901	-0.000046
1661	8.3000e-01	-13.5558	-0.159498	-0.000001	-0.009617	-0.003258	-0.000079
1662	8.3050e-01	-13.4996	-0.159390	0.000000	0.002605	0.000882	0.000021
1663	8.3100e-01	-13.4900	-0.159275	0.000000	0.002805	0.000950	0.000023
1664	8.3150e-01	-13.4226	-0.159118	0.000000	0.003807	0.001290	0.000031
1665	8.3200e-01	-13.3986	-0.159242	-0.000000	-0.003005	-0.001018	-0.000025
1666	8.3250e-01	-13.3601	-0.159382	-0.000000	-0.003406	-0.001154	-0.000028
1667	8.3300e-01	-13.3392	-0.159572	-0.000000	-0.004608	-0.001561	-0.000038
1668	8.3350e-01	-13.2863	-0.159688	-0.000000	-0.002805	-0.000950	-0.000023
1669	8.3400e-01	-13.2365	-0.159737	-0.000000	-0.001202	-0.000407	-0.000010
1670	8.3450e-01	-13.2044	-0.159994	-0.000001	-0.006211	-0.002104	-0.000051
1671	8.3500e-01	-13.1772	-0.160407	-0.000001	-0.010017	-0.003394	-0.000083
1672	8.3550e-01	-13.1579	-0.160671	-0.000001	-0.006411	-0.002172	-0.000053
1673	8.3600e-01	-13.0970	-0.160696	-0.000000	-0.000601	-0.000204	-0.000005
1674	8.3650e-01	-13.0280	-0.160704	-0.000000	-0.000200	-0.000068	-0.000002
1675	8.3700e-01	-13.0039	-0.160638	0.000000	0.001603	0.000543	0.000013
1676	8.3750e-01	-12.9702	-0.160630	0.000000	0.000200	0.000068	0.000002
1677	8.3800e-01	-12.9381	-0.160688	-0.000000	-0.001402	-0.000475	-0.000012
1678	8.3850e-01	-12.8692	-0.160960	-0.000001	-0.006612	-0.002240	-0.000055
1679	8.3900e-01	-12.8531	-0.161159	-0.000000	-0.004808	-0.001629	-0.000040
1680	8.3950e-01	-12.8034	-0.161183	-0.000000	-0.000601	-0.000204	-0.000005
1681	8.4000e-01	-12.7424	-0.161266	-0.000000	-0.002003	-0.000679	-0.000017
1682	8.4050e-01	-12.7280	-0.161291	-0.000000	-0.000601	-0.000204	-0.000005
1683	8.4100e-01	-12.7119	-0.161497	-0.000001	-0.005009	-0.001697	-0.000041
1684	8.4150e-01	-12.6365	-0.161481	0.000000	0.000401	0.000136	0.000003
1685	8.4200e-01	-12.5980	-0.161167	0.000001	0.007613	0.002579	0.000063
1686	8.4250e-01	-12.5291	-0.160985	0.000000	0.004408	0.001493	0.000036
1687	8.4300e-01	-12.5403	-0.161010	0.000000	0.000601	0.000204	-0.000005
1688	8.4350e-01	-12.4649	-0.161464	-0.000001	-0.011019	-0.003733	-0.000091
1689	8.4400e-01	-12.4216	-0.162167	-0.000002	-0.017030	-0.005770	-0.000140
1690	8.4450e-01	-12.4007	-0.162373	-0.000001	-0.005009	-0.001697	-0.000041
1691	8.4500e-01	-12.3863	-0.162464	-0.000000	-0.002204	-0.000747	-0.000018
1692	8.4550e-01	-12.3045	-0.162737	-0.000001	-0.006612	-0.002240	-0.000055
1693	8.4600e-01	-12.2676	-0.162927	-0.000000	-0.004608	-0.001561	-0.000038
1694	8.4650e-01	-12.2355	-0.163183	-0.000001	-0.006211	-0.002104	-0.000051
1695	8.4700e-01	-12.2114	-0.163216	-0.000000	-0.000801	-0.000272	-0.000007
1696	8.4750e-01	-12.1729	-0.162952	0.000001	0.006411	0.002172	0.000053
1697	8.4800e-01	-12.1360	-0.162547	0.000001	0.009817	0.003326	0.000081
1698	8.4850e-01	-12.0879	-0.162481	0.000000	0.001603	0.000543	0.000013
1699	8.4900e-01	-12.0013	-0.162530	-0.000000	-0.001202	-0.000407	-0.000010
1700	8.4950e-01	-11.9884	-0.162852	-0.000001	-0.007814	-0.002647	-0.000064
1701	8.5000e-01	-11.9820	-0.163158	-0.000001	-0.007413	-0.002512	-0.000061
1702	8.5050e-01	-11.9114	-0.163513	-0.000001	-0.008615	-0.002919	-0.000071
1703	8.5100e-01	-11.8874	-0.163621	-0.000000	-0.002605	-0.000882	-0.000021
1704	8.5150e-01	-11.8457	-0.163216	0.000001	0.009817	0.003326	0.000081
1705	8.5200e-01	-11.8296	-0.162943	0.000001	0.006612	0.002240	0.000055
1706	8.5250e-01	-11.7574	-0.163183	-0.000001	-0.005810	-0.001969	-0.000048
1707	8.5300e-01	-11.7318	-0.163472	-0.000001	-0.007012	-0.002376	-0.000058
1708	8.5350e-01	-11.6820	-0.163546	-0.000000	-0.001803	-0.000611	-0.000015
1709	8.5400e-01	-11.6082	-0.163546	0.000000	0.000000	0.000000	0.000000
1710	8.5450e-01	-11.5794	-0.163398	0.000000	0.003606	0.001222	0.000030
1711	8.5500e-01	-11.5553	-0.163613	-0.000001	-0.005209	-0.001765	-0.000043
1712	8.5550e-01	-11.5088	-0.163852	-0.000001	-0.005810	-0.001969	-0.000048
1713	8.5600e-01	-11.4831	-0.163943	-0.000000	-0.002204	-0.000747	-0.000018
1714	8.5650e-01	-11.4767	-0.164059	-0.000000	-0.002805	-0.000950	-0.000023
1715	8.5700e-01	-11.3804	-0.163927	0.000000	0.003206	0.001086	0.000026
1716	8.5750e-01	-11.3564	-0.164125	-0.000000	-0.004808	-0.001629	-0.000040
1717	8.5800e-01	-11.3259	-0.164348	-0.000001	-0.005409	-0.001833	-0.000045
1718	8.5850e-01	-11.2601	-0.164439	-0.000000	-0.002204	-0.000747	-0.000018
1719	8.5900e-01	-11.2344	-0.164257	0.000000	0.004408	0.001493	0.000036
1720	8.5950e-01	-11.2120	-0.164199	0.000000	0.001402	0.000475	0.000012
1721	8.6000e-01	-11.1703	-0.164315	-0.000000	-0.002805	-0.000950	-0.000023
1722	8.6050e-01	-11.1254	-0.164563	-0.000001	-0.006010	-0.002036	-0.000050
1723	8.6100e-01	-11.0516	-0.164505	0.000000	0.001402	0.000475	0.000012
1724	8.6150e-01	-11.0195	-0.164414	0.000000	0.002204	0.000747	0.000018
1725	8.6200e-01	-10.9874	-0.164414	0.000000	0.000000	0.000000	0.000000
1726	8.6250e-01	-10.9681	-0.164662	-0.000001	-0.006010	-0.002036	-0.000050
1727	8.6300e-01	-10.9168	-0.164844	-0.000000	-0.004408	-0.001493	-0.000036
1728	8.6350e-01	-10.8639	-0.164728	0.000000	0.002805	0.000950	0.000023
1729	8.6400e-01	-10.8542	-0.164893	-0.000000	-0.004007	-0.001358	-0.000033
1730	8.6450e-01	-10.7869	-0.164976	-0.000000	-0.002003	-0.000679	-0.000017
1731	8.6500e-01	-10.7660	-0.165092	-0.000000	-0.002805	-0.000950	-0.000023
1732	8.6550e-01	-10.7275	-0.164959	0.000000	0.003206	0.001086	0.000026
1733	8.6600e-01	-10.6698	-0.165100	-0.000000	-0.003406	-0.001154	-0.000028
1734	8.6650e-01	-10.6377	-0.165100	0.000000	0.000000	0.000000	0.000000
1735	8.6700e-01	-10.5799	-0.165240	-0.000000	-0.003406	-0.001154	-0.000028
1736	8.6750e-01	-10.5607	-0.165174	0.000000	0.001603	0.000543	0.000013
1737	8.6800e-01	-10.4997	-0.164984	0.000000	0.004608	0.001561	0.000038
1738	8.6850e-01	-10.4869	-0.165133	-0.000000	-0.003606	-0.001222	-0.000030
1739	8.6900e-01	-10.4403	-0.165323	-0.000000	-0.004608	-0.001561	-0.000038
1740	8.6950e-01	-10.3938	-0.165389	-0.000000	-0.001603	-0.000543	-0.000013
1741	8.7000e-01	-10.3601	-0.165381	0.000000	0.000200	0.000068	0.000002
1742	8.7050e-01	-10.3457	-0.165554	-0.000000	-0.004207	-0.001425	-0.000035
1743	8.7100e-01	-10.2527	-0.165744	-0.000000	-0.004608	-0.001561	-0.000038
1744	8.7150e-01	-10.2318	-0.165744	0.000000	0.000000	0.000000	0.000000
1745	8.7200e-01	-10.1981	-0.165769	-0.000000	-0.000601	-0.000204	-0.000005
1746	8.7250e-01	-10.1628	-0.165802	-0.000000	-0.000801	-0.000272	-0.000007
1747	8.7300e-01	-10.1436	-0.165893	-0.000000	-0.002204	-0.000747	-0.000018
1748	8.7350e-01	-10.0650	-0.166116	-0.000001	-0.005409	-0.001833	-0.000045
1749	8.7400e-01	-10.0505	-0.166438	-0.000001	-0.007814	-0.002647	-0.000064
1750	8.7450e-01	-10.0152	-0.166447	-0.000000	-0.000200	-0.000068	-0.000002
1751	8.7500e-01	-9.9703	-0.166405	0.000000	0.001002	0.000339	0.000008
1752	8.7550e-01	-9.8965	-0.166100	0.000001	0.007413	0.002512	0.000061
1753	8.7600e-01	-9.8660	-0.165877	0.000001	0.005409	0.001833	0.000045
1754	8.7650e-01	-9.8676	-0.165843	-0.000000	-0.000801	-0.000272	0.000007
1755	8.7700e-01	-9.8035	-0.165868	-0.000000	-0.000601	-0.000204	-0.000005
1756	8.7750e-01	-9.7521	-0.165926	-0.000000	-0.001402	-0.000475	-0.000012
1757	8.7800e-01	-9.7698	-0.165819	-0.000000	-0.002605	-0.000882	0.000021
1758	8.7850e-01	-9.6896	-0.165794	0.000000	0.000601	0.000204	0.000005
1759	8.7900e-01	-9.6495	-0.165992	-0.000000	-0.004808	-0.001629	-0.000040
1760	8.7950e-01	-9.5933	-0.166224	-0.000001	-0.005610	-0.001901	-0.000046
1761	8.8000e-01	-9.5564	-0.166471	-0.000001	-0.006010	-0.002036	-0.000050
1762	8.8050e-01	-9.4922	-0.166587	-0.000000	-0.002805	-0.000950	-0.000023
1763	8.8100e-01	-9.4842	-0.166604	-0.000000	-0.000401	-0.000136	-0.000003
1764	8.8150e-01	-9.4281	-0.166381	0.000001	0.005409	0.001833	0.000045
1765	8.8200e-01	-9.3912	-0.166248	0.000000	0.003206	0.001086	0.000026
1766	8.8250e-01	-9.3751	-0.166166	0.000000	0.002003	0.000679	0.000017
1767	8.8300e-01	-9.3559	-0.166372	-0.000001	-0.005009	-0.001697	-0.000041
1768	8.8350e-01	-9.2901	-0.166620	-0.000001	-0.006010	-0.002036	-0.000050
1769	8.8400e-01	-9.2340	-0.166612	0.000000	0.000200	0.000068	0.000002
1770	8.8450e-01	-9.1826	-0.166513	0.000000	0.002404	0.000815	0.000020
1771	8.8500e-01	-9.1297	-0.166438	0.000000	0.001803	0.000611	0.000015
1772	8.8550e-01	-9.1024	-0.166571	-0.000000	-0.003206	-0.001086	-0.000026
1773	8.8600e-01	-9.0559	-0.166695	-0.000000	-0.003005	-0.001018	-0.000025
1774	8.8650e-01	-9.0479	-0.166777	-0.000000	-0.002003	-0.000679	-0.000017
1775	8.8700e-01	-8.9837	-0.166711	0.000000	0.001603	0.000543	0.000013
1776	8.8750e-01	-8.9372	-0.166637	0.000000	0.001803	0.000611	0.000015
1777	8.8800e-01	-8.9276	-0.166447	0.000000	0.004608	0.001561	0.000038
1778	8.8850e-01	-8.8794	-0.166273	0.000000	0.004207	0.001425	0.000035
1779	8.8900e-01	-8.8137	-0.165959	0.000001	0.007613	0.002579	0.000063
1780	8.8950e-01	-8.7944	-0.165711	0.000001	0.006010	0.002036	0.000050
1781	8.9000e-01	-8.7671	-0.165967	-0.000001	-0.006211	-0.002104	-0.000051
1782	8.9050e-01	-8.6965	-0.166529	-0.000001	-0.013624	-0.004616	-0.000112
1783	8.9100e-01	-8.6596	-0.166852	-0.000001	-0.007814	-0.002647	-0.000064
1784	8.9150e-01	-8.6131	-0.166926	-0.000000	-0.001803	-0.000611	-0.000015
1785	8.9200e-01	-8.6099	-0.166885	0.000000	0.001002	0.000339	0.000008
1786	8.9250e-01	-8.5329	-0.167066	-0.000000	-0.004408	-0.001493	-0.000036
1787	8.9300e-01	-8.5201	-0.167306	-0.000001	-0.005810	-0.001969	-0.000048
1788	8.9350e-01	-8.4896	-0.167372	-0.000000	-0.001603	-0.000543	-0.000013
1789	8.9400e-01	-8.4591	-0.167116	0.000001	0.006211	0.002104	0.000051
1790	8.9450e-01	-8.3885	-0.166711	0.000001	0.009817	0.003326	0.000081
1791	8.9500e-01	-8.3516	-0.166331	0.000001	0.009216	0.003122	0.000076
1792	8.9550e-01	-8.3115	-0.166199	0.000000	0.003206	0.001086	0.000026
1793	8.9600e-01	-8.2682	-0.166290	-0.000000	-0.002204	-0.000747	-0.000018
1794	8.9650e-01	-8.2393	-0.166347	-0.000000	-0.001402	-0.000475	-0.000012
1795	8.9700e-01	-8.1960	-0.166661	-0.000001	-0.007613	-0.002579	-0.000063
1796	8.9750e-01	-8.1303	-0.166744	-0.000000	-0.002003	-0.000679	-0.000017
1797	8.9800e-01	-8.0966	-0.166372	0.000001	0.009016	0.003055	0.000074
1798	8.9850e-01	-8.0773	-0.166017	0.000001	0.008615	0.002919	0.000071
1799	8.9900e-01	-8.0452	-0.166224	-0.000001	-0.005009	-0.001697	-0.000041
1800	8.9950e-01	-8.0260	-0.166389	-0.000000	-0.004007	-0.001358	-0.000033
1801	9.0000e-01	-7.9650	-0.166595	-0.000001	-0.005009	-0.001697	-0.000041
1802	9.0050e-01	-7.9025	-0.166554	0.000000	0.001002	0.000339	0.000008
1803	9.0100e-01	-7.8816	-0.166215	0.000001	0.008214	0.002783	0.000068
1804	9.0150e-01	-7.8254	-0.166273	-0.000000	-0.001402	-0.000475	-0.000012
1805	9.0200e-01	-7.7693	-0.166504	-0.000001	-0.005610	-0.001901	-0.000046
1806	9.0250e-01	-7.7773	-0.166587	0.000000	0.002003	0.000679	-0.000017
1807	9.0300e-01	-7.6859	-0.166455	0.000000	0.003206	0.001086	0.000026
1808	9.0350e-01	-7.6843	-0.166298	0.000000	0.003807	0.001290	0.000031
1809	9.0400e-01	-7.6121	-0.166248	0.000000	0.001202	0.000407	0.000010
1810	9.0450e-01	-7.5976	-0.166356	-0.000000	-0.002605	-0.000882	-0.000021
1811	9.0500e-01	-7.5094	-0.166323	0.000000	0.000801	0.000272	0.000007
1812	9.0550e-01	-7.4966	-0.166232	0.000000	0.002204	0.000747	0.000018
1813	9.0600e-01	-7.4886	-0.166083	0.000000	0.003606	0.001222	0.000030
1814	9.0650e-01	-7.4356	-0.166100	-0.000000	-0.000401	-0.000136	-0.000003
1815	9.0700e-01	-7.4260	-0.166174	-0.000000	-0.001803	-0.000611	-0.000015
1816	9.0750e-01	-7.3458	-0.166091	0.000000	0.002003	0.000679	0.000017
1817	9.0800e-01	-7.3137	-0.166009	0.000000	0.002003	0.000679	0.000017
1818	9.0850e-01	-7.2816	-0.166067	-0.000000	-0.001402	-0.000475	-0.000012
1819	9.0900e-01	-7.2287	-0.166166	-0.000000	-0.002404	-0.000815	-0.000020
1820	9.0950e-01	-7.1886	-0.166157	0.000000	0.000200	0.000068	0.000002
1821	9.1000e-01	-7.1677	-0.166034	0.000000	0.003005	0.001018	0.000025
1822	9.1050e-01	-7.1308	-0.166042	-0.000000	-0.000200	-0.000068	-0.000002
1823	9.1100e-01	-7.0795	-0.166058	-0.000000	-0.000401	-0.000136	-0.000003
1824	9.1150e-01	-7.0362	-0.166108	-0.000000	-0.001202	-0.000407	-0.000010
1825	9.1200e-01	-6.9752	-0.165926	0.000000	0.004408	0.001493	0.000036
1826	9.1250e-01	-6.9736	-0.165753	0.000000	0.004207	0.001425	0.000035
1827	9.1300e-01	-6.9239	-0.165819	-0.000000	-0.001603	-0.000543	-0.000013
1828	9.1350e-01	-6.8485	-0.165794	0.000000	0.000601	0.000204	0.000005
1829	9.1400e-01	-6.8292	-0.165843	-0.000000	-0.001202	-0.000407	-0.000010
1830	9.1450e-01	-6.7939	-0.165819	0.000000	0.000601	0.000204	0.000005
1831	9.1500e-01	-6.7378	-0.165744	0.000000	0.001803	0.000611	0.000015
1832	9.1550e-01	-6.7362	-0.165827	-0.000000	-0.002003	-0.000679	-0.000017
1833	9.1600e-01	-6.6736	-0.165976	-0.000000	-0.003606	-0.001222	-0.000030
1834	9.1650e-01	-6.6271	-0.165835	0.000000	0.003406	0.001154	0.000028
1835	9.1700e-01	-6.5774	-0.165901	-0.000000	-0.001603	-0.000543	-0.000013
1836	9.1750e-01	-6.5565	-0.166034	-0.000000	-0.003206	-0.001086	-0.000026
1837	9.1800e-01	-6.5324	-0.166224	-0.000000	-0.004608	-0.001561	-0.000038
1838	9.1850e-01	-6.4795	-0.166290	-0.000000	-0.001603	-0.000543	-0.000013
1839	9.1900e-01	-6.4715	-0.166281	0.000000	0.000200	0.000068	0.000002
1840	9.1950e-01	-6.4394	-0.166389	-0.000000	-0.002605	-0.000882	-0.000021
1841	9.2000e-01	-6.3704	-0.166133	0.000001	0.006211	0.002104	0.000051
1842	9.2050e-01	-6.3159	-0.165786	0.000001	0.008415	0.002851	0.000069
1843	9.2100e-01	-6.2774	-0.165571	0.000001	0.005209	0.001765	0.000043
1844	9.2150e-01	-6.2709	-0.165472	0.000000	0.002404	0.000815	0.000020
1845	9.2200e-01	-6.2052	-0.165364	0.000000	0.002605	0.000882	0.000021
1846	9.2250e-01	-6.1153	-0.165290	0.000000	0.001803	0.000611	0.000015
1847	9.2300e-01	-6.0945	-0.165158	0.000000	0.003206	0.001086	0.000026
1848	9.2350e-01	-6.0656	-0.165191	-0.000000	-0.000801	-0.000272	-0.000007
1849	9.2400e-01	-6.0447	-0.165166	0.000000	0.000601	0.000204	0.000005
1850	9.2450e-01	-6.0111	-0.165397	-0.000001	-0.005610	-0.001901	-0.000046
1851	9.2500e-01	-5.9645	-0.165496	-0.000000	-0.002404	-0.000815	-0.000020
1852	9.2550e-01	-5.9341	-0.165397	0.000000	0.002404	0.000815	0.000020
1853	9.2600e-01	-5.8763	-0.165240	0.000000	0.003807	0.001290	0.000031
1854	9.2650e-01	-5.8426	-0.165108	0.000000	0.003206	0.001086	0.000026
1855	9.2700e-01	-5.8089	-0.164802	0.000001	0.007413	0.002512	0.000061
1856	9.2750e-01	-5.7464	-0.164720	0.000000	0.002003	0.000679	0.000017
1857	9.2800e-01	-5.7255	-0.164802	-0.000000	-0.002003	-0.000679	-0.000017
1858	9.2850e-01	-5.6854	-0.164852	-0.000000	-0.001202	-0.000407	-0.000010
1859	9.2900e-01	-5.6212	-0.164621	0.000001	0.005610	0.001901	0.000046
1860	9.2950e-01	-5.5811	-0.164447	0.000000	0.004207	0.001425	0.000035
1861	9.3000e-01	-5.5522	-0.164315	0.000000	0.003206	0.001086	0.000026
1862	9.3050e-01	-5.4961	-0.164472	-0.000000	-0.003807	-0.001290	-0.000031
1863	9.3100e-01	-5.4769	-0.164563	-0.000000	-0.002204	-0.000747	-0.000018
1864	9.3150e-01	-5.4031	-0.164554	0.000000	0.000200	0.000068	0.000002
1865	9.3200e-01	-5.4159	-0.164464	-0.000000	-0.002204	-0.000747	0.000018
1866	9.3250e-01	-5.3646	-0.164274	0.000000	0.004608	0.001561	0.000038
1867	9.3300e-01	-5.3084	-0.164265	0.000000	0.000200	0.000068	0.000002
1868	9.3350e-01	-5.2811	-0.164232	0.000000	0.000801	0.000272	0.000007
1869	9.3400e-01	-5.2378	-0.164166	0.000000	0.001603	0.000543	0.000013
1870	9.3450e-01	-5.2186	-0.163679	0.000001	0.011821	0.004005	0.000097
1871	9.3500e-01	-5.1480	-0.163373	0.000001	0.007413	0.002512	0.000061
1872	9.3550e-01	-5.1255	-0.163109	0.000001	0.006411	0.002172	0.000053
1873	9.3600e-01	-5.0983	-0.162786	0.000001	0.007814	0.002647	0.000064
1874	9.3650e-01	-5.0357	-0.162952	-0.000000	-0.004007	-0.001358	-0.000033
1875	9.3700e-01	-4.9844	-0.163257	-0.000001	-0.007413	-0.002512	-0.000061
1876	9.3750e-01	-4.9635	-0.163629	-0.000001	-0.009016	-0.003055	-0.000074
1877	9.3800e-01	-4.9523	-0.163736	-0.000000	-0.002605	-0.000882	-0.000021
1878	9.3850e-01	-4.8576	-0.163761	-0.000000	-0.000601	-0.000204	-0.000005
1879	9.3900e-01	-4.8432	-0.163885	-0.000000	-0.003005	-0.001018	-0.000025
1880	9.3950e-01	-4.8175	-0.163935	-0.000000	-0.001202	-0.000407	-0.000010
1881	9.4000e-01	-4.7742	-0.164075	-0.000000	-0.003406	-0.001154	-0.000028
1882	9.4050e-01	-4.7036	-0.163902	0.000000	0.004207	0.001425	0.000035
1883	9.4100e-01	-4.6860	-0.163356	0.000001	0.013223	0.004480	0.000109
1884	9.4150e-01	-4.6683	-0.162836	0.000001	0.012622	0.004276	0.000104
1885	9.4200e-01	-4.6122	-0.162530	0.000001	0.007413	0.002512	0.000061
1886	9.4250e-01	-4.5801	-0.162795	-0.000001	-0.006411	-0.002172	-0.000053
1887	9.4300e-01	-4.4999	-0.162935	-0.000000	-0.003406	-0.001154	-0.000028
1888	9.4350e-01	-4.4758	-0.162918	0.000000	0.000401	0.000136	0.000003
1889	9.4400e-01	-4.4373	-0.163051	-0.000000	-0.003206	-0.001086	-0.000026
1890	9.4450e-01	-4.3828	-0.162728	0.000001	0.007814	0.002647	0.000064
1891	9.4500e-01	-4.3346	-0.162266	0.000001	0.011220	0.003801	0.000093
1892	9.4550e-01	-4.3378	-0.162315	0.000000	0.001202	0.000407	-0.000010
1893	9.4600e-01	-4.3009	-0.162580	-0.000001	-0.006411	-0.002172	-0.000053
1894	9.4650e-01	-4.2336	-0.162662	-0.000000	-0.002003	-0.000679	-0.000017
1895	9.4700e-01	-4.2111	-0.162646	0.000000	0.000401	0.000136	0.000003
1896	9.4750e-01	-4.1758	-0.162257	0.000001	0.009416	0.003190	0.000078
1897	9.4800e-01	-4.1213	-0.162282	-0.000000	-0.000601	-0.000204	-0.000005
1898	9.4850e-01	-4.0699	-0.162357	-0.000000	-0.001803	-0.000611	-0.000015
1899	9.4900e-01	-4.0491	-0.162464	-0.000000	-0.002605	-0.000882	-0.000021
1900	9.4950e-01	-3.9833	-0.162365	0.000000	0.002404	0.000815	0.000020
1901	9.5000e-01	-3.9512	-0.162034	0.000001	0.008014	0.002715	0.000066
1902	9.5050e-01	-3.9240	-0.162125	-0.000000	-0.002204	-0.000747	-0.000018
1903	9.5100e-01	-3.9079	-0.162059	0.000000	0.001603	0.000543	0.000013
1904	9.5150e-01	-3.8646	-0.162142	-0.000000	-0.002003	-0.000679	-0.000017
1905	9.5200e-01	-3.7876	-0.162067	0.000000	0.001803	0.000611	0.000015
1906	9.5250e-01	-3.7170	-0.161877	0.000000	0.004608	0.001561	0.000038
1907	9.5300e-01	-3.7523	-0.161927	0.000000	0.001202	0.000407	-0.000010
1908	9.5350e-01	-3.6801	-0.161993	-0.000000	-0.001603	-0.000543	-0.000013
1909	9.5400e-01	-3.6320	-0.162018	-0.000000	-0.000601	-0.000204	-0.000005
1910	9.5450e-01	-3.5855	-0.161737	0.000001	0.006812	0.002308	0.000056
1911	9.5500e-01	-3.5983	-0.161596	-0.000000	-0.003406	-0.001154	0.000028
1912	9.5550e-01	-3.5101	-0.161621	-0.000000	-0.000601	-0.000204	-0.000005
1913	9.5600e-01	-3.4716	-0.161530	0.000000	0.002204	0.000747	0.000018
1914	9.5650e-01	-3.4347	-0.161406	0.000000	0.003005	0.001018	0.000025
1915	9.5700e-01	-3.3994	-0.161373	0.000000	0.000801	0.000272	0.000007
1916	9.5750e-01	-3.3673	-0.161274	0.000000	0.002404	0.000815	0.000020
1917	9.5800e-01	-3.2983	-0.161431	-0.000000	-0.003807	-0.001290	-0.000031
1918	9.5850e-01	-3.2887	-0.161150	0.000001	0.006812	0.002308	0.000056
1919	9.5900e-01	-3.2229	-0.161059	0.000000	0.002204	0.000747	0.000018
1920	9.5950e-01	-3.2004	-0.161109	-0.000000	-0.001202	-0.000407	-0.000010
1921	9.6000e-01	-3.1812	-0.161225	-0.000000	-0.002805	-0.000950	-0.000023
1922	9.6050e-01	-3.0930	-0.161167	0.000000	0.001402	0.000475	0.000012
1923	9.6100e-01	-3.0737	-0.161233	-0.000000	-0.001603	-0.000543	-0.000013
1924	9.6150e-01	-3.0208	-0.161125	0.000000	0.002605	0.000882	0.000021
1925	9.6200e-01	-3.0192	-0.161117	0.000000	0.000200	0.000068	0.000002
1926	9.6250e-01	-2.9710	-0.161216	-0.000000	-0.002404	-0.000815	-0.000020
1927	9.6300e-01	-2.9325	-0.161175	0.000000	0.001002	0.000339	0.000008
1928	9.6350e-01	-2.8924	-0.161266	-0.000000	-0.002204	-0.000747	-0.000018
1929	9.6400e-01	-2.8395	-0.161266	0.000000	0.000000	0.000000	0.000000
1930	9.6450e-01	-2.7978	-0.161125	0.000000	0.003406	0.001154	0.000028
1931	9.6500e-01	-2.7400	-0.160704	0.000001	0.010218	0.003462	0.000084
1932	9.6550e-01	-2.7304	-0.160365	0.000001	0.008214	0.002783	0.000068
1933	9.6600e-01	-2.6935	-0.160283	0.000000	0.002003	0.000679	0.000017
1934	9.6650e-01	-2.6646	-0.160225	0.000000	0.001402	0.000475	0.000012
1935	9.6700e-01	-2.5860	-0.160068	0.000000	0.003807	0.001290	0.000031
1936	9.6750e-01	-2.5363	-0.159861	0.000001	0.005009	0.001697	0.000041
1937	9.6800e-01	-2.5122	-0.159927	-0.000000	-0.001603	-0.000543	-0.000013
1938	9.6850e-01	-2.4641	-0.159853	0.000000	0.001803	0.000611	0.000015
1939	9.6900e-01	-2.4047	-0.160002	-0.000000	-0.003606	-0.001222	-0.000030
1940	9.6950e-01	-2.4240	-0.160200	0.000000	0.004808	0.001629	-0.000040
1941	9.7000e-01	-2.3678	-0.160274	-0.000000	-0.001803	-0.000611	-0.000015
1942	9.7050e-01	-2.3181	-0.159994	0.000001	0.006812	0.002308	0.000056
1943	9.7100e-01	-2.2908	-0.159886	0.000000	0.002605	0.000882	0.000021
1944	9.7150e-01	-2.2074	-0.159630	0.000001	0.006211	0.002104	0.000051
1945	9.7200e-01	-2.2138	-0.159390	-0.000001	-0.005810	-0.001969	0.000048
1946	9.7250e-01	-2.1577	-0.159589	-0.000000	-0.004808	-0.001629	-0.000040
1947	9.7300e-01	-2.0775	-0.159605	-0.000000	-0.000401	-0.000136	-0.000003
1948	9.7350e-01	-2.0919	-0.159382	-0.000001	-0.005409	-0.001833	0.000045
1949	9.7400e-01	-2.0374	-0.159134	0.000001	0.006010	0.002036	0.000050
1950	9.7450e-01	-2.0037	-0.159126	0.000000	0.000200	0.000068	0.000002
1951	9.7500e-01	-1.9540	-0.159002	0.000000	0.003005	0.001018	0.000025
1952	9.7550e-01	-1.9187	-0.159109	-0.000000	-0.002605	-0.000882	-0.000021
1953	9.7600e-01	-1.8689	-0.159167	-0.000000	-0.001402	-0.000475	-0.000012
1954	9.7650e-01	-1.8256	-0.159093	0.000000	0.001803	0.000611	0.000015
1955	9.7700e-01	-1.7534	-0.159060	0.000000	0.000801	0.000272	0.000007
1956	9.7750e-01	-1.7679	-0.158994	-0.000000	-0.001603	-0.000543	0.000013
1957	9.7800e-01	-1.7374	-0.158985	0.000000	0.000200	0.000068	0.000002
1958	9.7850e-01	-1.6909	-0.159060	-0.000000	-0.001803	-0.000611	-0.000015
1959	9.7900e-01	-1.6459	-0.158837	0.000001	0.005409	0.001833	0.000045
1960	9.7950e-01	-1.6106	-0.158680	0.000000	0.003807	0.001290	0.000031
1961	9.8000e-01	-1.5561	-0.158647	0.000000	0.000801	0.000272	0.000007
1962	9.8050e-01	-1.5272	-0.158721	-0.000000	-0.001803	-0.000611	-0.000015
1963	9.8100e-01	-1.4887	-0.158242	0.000001	0.011620	0.003937	0.000096
1964	9.8150e-01	-1.4294	-0.157721	0.000001	0.012622	0.004276	0.000104
1965	9.8200e-01	-1.4037	-0.157473	0.000001	0.006010	0.002036	0.000050
1966	9.8250e-01	-1.3861	-0.157226	0.000001	0.006010	0.002036	0.000050
1967	9.8300e-01	-1.3443	-0.157391	-0.000000	-0.004007	-0.001358	-0.000033
1968	9.8350e-01	-1.2946	-0.157655	-0.000001	-0.006411	-0.002172	-0.000053
1969	9.8400e-01	-1.2385	-0.157969	-0.000001	-0.007613	-0.002579	-0.000063
1970	9.8450e-01	-1.1679	-0.158159	-0.000000	-0.004608	-0.001561	-0.000038
1971	9.8500e-01	-1.1470	-0.158291	-0.000000	-0.003206	-0.001086	-0.000026
1972	9.8550e-01	-1.1021	-0.158341	-0.000000	-0.001202	-0.000407	-0.000010
1973	9.8600e-01	-1.0829	-0.158250	0.000000	0.002204	0.000747	0.000018
1974	9.8650e-01	-1.0219	-0.158300	-0.000000	-0.001202	-0.000407	-0.000010
1975	9.8700e-01	-0.9770	-0.158300	0.000000	0.000000	0.000000	0.000000
1976	9.8750e-01	-0.9545	-0.157746	0.000001	0.013423	0.004548	0.000111
1977	9.8800e-01	-0.9128	-0.157316	0.000001	0.010418	0.003530	0.000086
1978	9.8850e-01	-0.8903	-0.156994	0.000001	0.007814	0.002647	0.000064
1979	9.8900e-01	-0.8326	-0.157217	-0.000001	-0.005409	-0.001833	-0.000045
1980	9.8950e-01	-0.8037	-0.157374	-0.000000	-0.003807	-0.001290	-0.000031
1981	9.9000e-01	-0.7379	-0.157234	0.000000	0.003406	0.001154	0.000028
1982	9.9050e-01	-0.6978	-0.157316	-0.000000	-0.002003	-0.000679	-0.000017
1983	9.9100e-01	-0.7107	-0.157135	-0.000000	-0.004408	-0.001493	0.000036
1984	9.9150e-01	-0.6465	-0.156664	0.000001	0.011420	0.003869	0.000094
1985	9.9200e-01	-0.6000	-0.156548	0.000000	0.002805	0.000950	0.000023
1986	9.9250e-01	-0.5631	-0.156672	-0.000000	-0.003005	-0.001018	-0.000025
1987	9.9300e-01	-0.5551	-0.156796	-0.000000	-0.003005	-0.001018	-0.000025
1988	9.9350e-01	-0.5053	-0.156722	0.000000	0.001803	0.000611	0.000015
1989	9.9400e-01	-0.4299	-0.156374	0.000001	0.008415	0.002851	0.000069
1990	9.9450e-01	-0.3850	-0.156077	0.000001	0.007213	0.002444	0.000059
1991	9.9500e-01	-0.3497	-0.156151	-0.000000	-0.001803	-0.000611	-0.000015
1992	9.9550e-01	-0.3337	-0.156160	-0.000000	-0.000200	-0.000068	-0.000002
1993	9.9600e-01	-0.2904	-0.155904	0.000001	0.006211	0.002104	0.000051
1994	9.9650e-01	-0.2214	-0.155705	0.000000	0.004808	0.001629	0.000040
1995	9.9700e-01	-0.1909	-0.155532	0.000000	0.004207	0.001425	0.000035
1996	9.9750e-01	-0.1893	-0.155664	-0.000000	-0.003206	-0.001086	-0.000026
1997	9.9800e-01	-0.1556	-0.155680	-0.000000	-0.000401	-0.000136	-0.000003
1998	9.9850e-01	-0.0882	-0.155672	0.000000	0.000200	0.000068	0.000002
1999	9.9900e-01	-0.0465	-0.155433	0.000001	0.005810	0.001969	0.000048
2000	9.9950e-01	0.0048	-0.155408	0.000000	0.000601	0.000204	0.000005
2001	1.0000e+00	0.0545	-0.155366	0.000000	0.000601	0.000204	0.000008

Center data before PMax,+/-Pr and +/-Vc Calc.

PMax (uC/cm2):	1.34e-01
Pr (uC/cm2):	1.52e-01
-Pr (uC/cm2):	-1.55e-01
PLoss (uC/cm2):	-1.73e-01
-Vc:	-1.66e+01
C (Max-Eff) (nF):	6.66e-04
K (Eff):	2.26e+00
Vert. (+/-Pr) Shift (uC/cm2):	-1.79e-03
Offset (uC/cm2):	-1.85e-02

A (Loop Area - uC/cm2·Volts):	7.24e-03



Hysteresis Version: 5.48.1 - Radiant Technologies, Inc., 1999 - 9/12/24

