»»»»»»»»»»»»»»»»»»»»»»»»»»»»»»»»»»»» Hysteresis ««««««««««««««««««««««««««««««««««««
»»»  Executed Version:	5.48.1
»»»  Vision Version:	5.48.4 (R)
»»»  Vision Compiled:	9/18/24
»»»  Driver Version:	5.47.0
»»»  Windows Version:	Windows 8 or 8.1
»»»  Processor Information:	x86 (AMD or Intel) - 32 Processors
»»»  Tester Name:	PMF21124-494 (100V)
»»»  Tester S/N:	PMF21124-494
»»»  Internal Amp Type:	100V RevK 270k
»»»  Internal Amp S/N:	iAB2-596/K     
»»»  Execution Count:	1
»»»»»»»»»»»»»»»»»»»»»»»»»»»»»»»»»»»»»»»»»»««««««««««««««««««««««««««««««««««««««««««

Stored:	6/11/2025 - 10:53:21
Configured:	06/11/25 10:21:25 AM
Executed:	06/11/25 10:52:49 AM

»»»»»»»»»»»»»»»»»»»»»»»»»»»»»»»»»»» Sample Info ««««««««««««««««««««««««««««««««««««
Sample Name:	
Lot Name:	
Wafer Name:	
Die Row/Column:	0/0
Capacitor Number:	0
Sample Area (cm2):	1.00e-04
Sample Thickness (microns):	3.00e-01

Amplifier:	Internal

»»»»»»»»»»»»»»»»»»»»»»»»»»»»»»»»»»» Tester Info «««««««««««««««««««««««««««««««««««
Tester Name:	PMF21124-494 (100V)
Tester Serial Number:	PMF21124-494
Return Signal Amp. Level:	100.0 [Index: 0]

»»»»»»»»»»»»»»»»»»»»»»»»»»»»»»»» Hysteresis Info ««««««««««««««««««««««««««««««««««
Task Name:	Hyst-1175
Volts:	20.00
Field:	666.67 (kV/cm)
DCBias:	0.00
DCField:	0.00 (kV/cm)
Hysteresis Period (ms):	1.00e+00
Preset:	Enabled
Preset Delay (ms):	1.00e+03
Profile:	Standard Bipolar

»»»»»»»»»»»»»»»»»»»»»»»»»»»»»»»»»»»»»» Data «««««««««««««««««««««««««««««««««««««««
Points:	2001

Valid Data

Point	Time (ms)	Drive Voltage	Measured Polarization (uC/cm2)	Capacitance (uF)	Normalized Capacitance (uF/cm2)	Dielectric Constant	Instantaneous Current (mA)
   1	0.0000e+00	0.0417	-0.197956	0.000000	0.003636	0.001232	-0.000030
   2	5.0000e-04	-0.0048	-0.198105	0.000000	0.003636	0.001232	-0.000030
   3	1.0000e-03	0.1011	-0.197981	0.000000	0.003030	0.001026	0.000025
   4	1.5000e-03	0.1235	-0.197857	0.000000	0.003030	0.001026	0.000025
   5	2.0000e-03	0.2214	-0.197816	0.000000	0.001010	0.000342	0.000008
   6	2.5000e-03	0.2342	-0.197907	-0.000000	-0.002222	-0.000753	-0.000018
   7	3.0000e-03	0.2487	-0.197799	0.000000	0.002626	0.000890	0.000021
   8	3.5000e-03	0.3289	-0.197634	0.000000	0.004040	0.001369	0.000033
   9	4.0000e-03	0.3481	-0.197336	0.000001	0.007271	0.002464	0.000059
  10	4.5000e-03	0.3962	-0.197394	-0.000000	-0.001414	-0.000479	-0.000012
  11	5.0000e-03	0.4364	-0.197295	0.000000	0.002424	0.000821	0.000020
  12	5.5000e-03	0.4652	-0.197113	0.000000	0.004443	0.001505	0.000036
  13	6.0000e-03	0.5246	-0.196923	0.000000	0.004645	0.001574	0.000038
  14	6.5000e-03	0.5711	-0.196766	0.000000	0.003838	0.001300	0.000031
  15	7.0000e-03	0.5936	-0.196667	0.000000	0.002424	0.000821	0.000020
  16	7.5000e-03	0.6385	-0.196428	0.000001	0.005857	0.001985	0.000048
  17	8.0000e-03	0.6866	-0.196056	0.000001	0.009089	0.003079	0.000074
  18	8.5000e-03	0.7267	-0.195882	0.000000	0.004241	0.001437	0.000035
  19	9.0000e-03	0.7652	-0.195891	-0.000000	-0.000202	-0.000068	-0.000002
  20	9.5000e-03	0.8005	-0.195651	0.000001	0.005857	0.001985	0.000048
  21	1.0000e-02	0.8374	-0.195353	0.000001	0.007271	0.002464	0.000059
  22	1.0500e-02	0.8775	-0.195139	0.000001	0.005251	0.001779	0.000043
  23	1.1000e-02	0.9337	-0.195089	0.000000	0.001212	0.000411	0.000010
  24	1.1500e-02	0.9641	-0.194940	0.000000	0.003636	0.001232	0.000030
  25	1.2000e-02	0.9978	-0.194692	0.000001	0.006059	0.002053	0.000050
  26	1.2500e-02	1.0604	-0.194478	0.000001	0.005251	0.001779	0.000043
  27	1.3000e-02	1.0588	-0.194403	-0.000000	-0.001818	-0.000616	0.000015
  28	1.3500e-02	1.1021	-0.194213	0.000000	0.004645	0.001574	0.000038
  29	1.4000e-02	1.1534	-0.193916	0.000001	0.007271	0.002464	0.000059
  30	1.4500e-02	1.2144	-0.193527	0.000001	0.009493	0.003216	0.000078
  31	1.5000e-02	1.2545	-0.193403	0.000000	0.003030	0.001026	0.000025
  32	1.5500e-02	1.2754	-0.193313	0.000000	0.002222	0.000753	0.000018
  33	1.6000e-02	1.3347	-0.192941	0.000001	0.009089	0.003079	0.000074
  34	1.6500e-02	1.3315	-0.192569	-0.000001	-0.009089	-0.003079	0.000074
  35	1.7000e-02	1.3877	-0.192428	0.000000	0.003434	0.001163	0.000028
  36	1.7500e-02	1.4358	-0.192288	0.000000	0.003434	0.001163	0.000028
  37	1.8000e-02	1.4839	-0.191974	0.000001	0.007675	0.002600	0.000063
  38	1.8500e-02	1.5304	-0.191652	0.000001	0.007877	0.002669	0.000064
  39	1.9000e-02	1.5802	-0.191387	0.000001	0.006463	0.002190	0.000053
  40	1.9500e-02	1.5978	-0.191173	0.000001	0.005251	0.001779	0.000043
  41	2.0000e-02	1.6475	-0.191065	0.000000	0.002626	0.000890	0.000021
  42	2.0500e-02	1.6475	-0.191131	0.000000	0.001616	0.000547	-0.000013
  43	2.1000e-02	1.7262	-0.190966	0.000000	0.004040	0.001369	0.000033
  44	2.1500e-02	1.7743	-0.191049	-0.000000	-0.002020	-0.000684	-0.000017
  45	2.2000e-02	1.7887	-0.190900	0.000000	0.003636	0.001232	0.000030
  46	2.2500e-02	1.8240	-0.190693	0.000001	0.005049	0.001711	0.000041
  47	2.3000e-02	1.9090	-0.190041	0.000002	0.015956	0.005406	0.000131
  48	2.3500e-02	1.9395	-0.189611	0.000001	0.010503	0.003558	0.000086
  49	2.4000e-02	1.9957	-0.189371	0.000001	0.005857	0.001985	0.000048
  50	2.4500e-02	1.9876	-0.188942	-0.000001	-0.010503	-0.003558	0.000086
  51	2.5000e-02	2.0935	-0.188553	0.000001	0.009493	0.003216	0.000078
  52	2.5500e-02	2.0983	-0.188281	0.000001	0.006665	0.002258	0.000055
  53	2.6000e-02	2.1192	-0.187983	0.000001	0.007271	0.002464	0.000059
  54	2.6500e-02	2.1465	-0.187727	0.000001	0.006261	0.002121	0.000051
  55	2.7000e-02	2.1994	-0.187661	0.000000	0.001616	0.000547	0.000013
  56	2.7500e-02	2.2652	-0.187653	0.000000	0.000202	0.000068	0.000002
  57	2.8000e-02	2.2844	-0.187636	0.000000	0.000404	0.000137	0.000003
  58	2.8500e-02	2.3310	-0.187157	0.000001	0.011715	0.003969	0.000096
  59	2.9000e-02	2.3839	-0.186785	0.000001	0.009089	0.003079	0.000074
  60	2.9500e-02	2.4256	-0.186612	0.000000	0.004241	0.001437	0.000035
  61	3.0000e-02	2.4753	-0.186372	0.000001	0.005857	0.001985	0.000048
  62	3.0500e-02	2.4817	-0.185967	0.000001	0.009897	0.003353	0.000081
  63	3.1000e-02	2.5443	-0.185893	0.000000	0.001818	0.000616	0.000015
  64	3.1500e-02	2.5507	-0.185347	0.000001	0.013330	0.004516	0.000109
  65	3.2000e-02	2.5860	-0.184976	0.000001	0.009089	0.003079	0.000074
  66	3.2500e-02	2.6165	-0.184951	0.000000	0.000606	0.000205	0.000005
  67	3.3000e-02	2.6438	-0.185133	-0.000000	-0.004443	-0.001505	-0.000036
  68	3.3500e-02	2.7448	-0.185273	-0.000000	-0.003434	-0.001163	-0.000028
  69	3.4000e-02	2.7481	-0.185248	0.000000	0.000606	0.000205	0.000005
  70	3.4500e-02	2.8154	-0.185133	0.000000	0.002828	0.000958	0.000023
  71	3.5000e-02	2.8234	-0.184819	0.000001	0.007675	0.002600	0.000063
  72	3.5500e-02	2.8876	-0.184695	0.000000	0.003030	0.001026	0.000025
  73	3.6000e-02	2.9085	-0.184653	0.000000	0.001010	0.000342	0.000008
  74	3.6500e-02	2.9630	-0.184389	0.000001	0.006463	0.002190	0.000053
  75	3.7000e-02	2.9935	-0.183711	0.000002	0.016562	0.005611	0.000136
  76	3.7500e-02	3.0561	-0.183034	0.000002	0.016562	0.005611	0.000136
  77	3.8000e-02	3.0994	-0.182877	0.000000	0.003838	0.001300	0.000031
  78	3.8500e-02	3.1122	-0.183059	-0.000000	-0.004443	-0.001505	-0.000036
  79	3.9000e-02	3.1331	-0.182918	0.000000	0.003434	0.001163	0.000028
  80	3.9500e-02	3.2037	-0.182885	0.000000	0.000808	0.000274	0.000007
  81	4.0000e-02	3.2309	-0.182563	0.000001	0.007877	0.002669	0.000064
  82	4.0500e-02	3.2774	-0.182208	0.000001	0.008685	0.002943	0.000071
  83	4.1000e-02	3.3127	-0.181951	0.000001	0.006261	0.002121	0.000051
  84	4.1500e-02	3.3705	-0.181687	0.000001	0.006463	0.002190	0.000053
  85	4.2000e-02	3.3881	-0.181547	0.000000	0.003434	0.001163	0.000028
  86	4.2500e-02	3.4411	-0.181390	0.000000	0.003838	0.001300	0.000031
  87	4.3000e-02	3.4796	-0.181200	0.000000	0.004645	0.001574	0.000038
  88	4.3500e-02	3.5405	-0.180522	0.000002	0.016562	0.005611	0.000136
  89	4.4000e-02	3.5582	-0.180365	0.000000	0.003838	0.001300	0.000031
  90	4.4500e-02	3.6159	-0.180349	0.000000	0.000404	0.000137	0.000003
  91	4.5000e-02	3.6191	-0.180274	0.000000	0.001818	0.000616	0.000015
  92	4.5500e-02	3.6817	-0.179927	0.000001	0.008483	0.002874	0.000069
  93	4.6000e-02	3.7427	-0.179448	0.000001	0.011715	0.003969	0.000096
  94	4.6500e-02	3.7716	-0.179299	0.000000	0.003636	0.001232	0.000030
  95	4.7000e-02	3.7844	-0.179299	0.000000	0.000000	0.000000	0.000000
  96	4.7500e-02	3.8261	-0.179183	0.000000	0.002828	0.000958	0.000023
  97	4.8000e-02	3.8903	-0.178845	0.000001	0.008281	0.002806	0.000068
  98	4.8500e-02	3.9336	-0.178572	0.000001	0.006665	0.002258	0.000055
  99	4.9000e-02	3.9448	-0.178357	0.000001	0.005251	0.001779	0.000043
 100	4.9500e-02	3.9994	-0.178208	0.000000	0.003636	0.001232	0.000030
 101	5.0000e-02	4.0587	-0.177820	0.000001	0.009493	0.003216	0.000078
 102	5.0500e-02	4.0587	-0.177374	-0.000001	-0.010907	-0.003695	0.000089
 103	5.1000e-02	4.1116	-0.177242	0.000000	0.003232	0.001095	0.000026
 104	5.1500e-02	4.2047	-0.177143	0.000000	0.002424	0.000821	0.000020
 105	5.2000e-02	4.1983	-0.176886	-0.000001	-0.006261	-0.002121	0.000051
 106	5.2500e-02	4.2272	-0.176531	0.000001	0.008685	0.002943	0.000071
 107	5.3000e-02	4.2785	-0.176217	0.000001	0.007675	0.002600	0.000063
 108	5.3500e-02	4.3314	-0.176093	0.000000	0.003030	0.001026	0.000025
 109	5.4000e-02	4.3459	-0.175895	0.000000	0.004847	0.001642	0.000040
 110	5.4500e-02	4.3603	-0.175556	0.000001	0.008281	0.002806	0.000068
 111	5.5000e-02	4.4197	-0.175184	0.000001	0.009089	0.003079	0.000074
 112	5.5500e-02	4.4919	-0.175052	0.000000	0.003232	0.001095	0.000026
 113	5.6000e-02	4.5416	-0.175019	0.000000	0.000808	0.000274	0.000007
 114	5.6500e-02	4.5721	-0.174474	0.000001	0.013330	0.004516	0.000109
 115	5.7000e-02	4.5801	-0.174366	0.000000	0.002626	0.000890	0.000021
 116	5.7500e-02	4.6667	-0.174069	0.000001	0.007271	0.002464	0.000059
 117	5.8000e-02	4.6972	-0.173937	0.000000	0.003232	0.001095	0.000026
 118	5.8500e-02	4.7549	-0.173524	0.000001	0.010099	0.003422	0.000083
 119	5.9000e-02	4.7662	-0.173251	0.000001	0.006665	0.002258	0.000055
 120	5.9500e-02	4.8624	-0.172953	0.000001	0.007271	0.002464	0.000059
 121	6.0000e-02	4.8352	-0.172796	-0.000000	-0.003838	-0.001300	0.000031
 122	6.0500e-02	4.8865	-0.172425	0.000001	0.009089	0.003079	0.000074
 123	6.1000e-02	4.9122	-0.172177	0.000001	0.006059	0.002053	0.000050
 124	6.1500e-02	4.9555	-0.171813	0.000001	0.008887	0.003011	0.000073
 125	6.2000e-02	4.9956	-0.171722	0.000000	0.002222	0.000753	0.000018
 126	6.2500e-02	5.0549	-0.171260	0.000001	0.011311	0.003832	0.000093
 127	6.3000e-02	5.0934	-0.170995	0.000001	0.006463	0.002190	0.000053
 128	6.3500e-02	5.1079	-0.170706	0.000001	0.007069	0.002395	0.000058
 129	6.4000e-02	5.1801	-0.170516	0.000000	0.004645	0.001574	0.000038
 130	6.4500e-02	5.1881	-0.170202	0.000001	0.007675	0.002600	0.000063
 131	6.5000e-02	5.2747	-0.169987	0.000001	0.005251	0.001779	0.000043
 132	6.5500e-02	5.2956	-0.169772	0.000001	0.005251	0.001779	0.000043
 133	6.6000e-02	5.2956	-0.169624	-0.000000	-0.003636	-0.001232	0.000030
 134	6.6500e-02	5.3710	-0.169392	0.000001	0.005655	0.001916	0.000046
 135	6.7000e-02	5.3886	-0.169087	0.000001	0.007473	0.002532	0.000061
 136	6.7500e-02	5.4512	-0.169004	0.000000	0.002020	0.000684	0.000017
 137	6.8000e-02	5.4383	-0.168963	-0.000000	-0.001010	-0.000342	0.000008
 138	6.8500e-02	5.5089	-0.168814	0.000000	0.003636	0.001232	0.000030
 139	6.9000e-02	5.5506	-0.168384	0.000001	0.010503	0.003558	0.000086
 140	6.9500e-02	5.6084	-0.167930	0.000001	0.011109	0.003764	0.000091
 141	7.0000e-02	5.6421	-0.167294	0.000002	0.015552	0.005269	0.000127
 142	7.0500e-02	5.6613	-0.167037	0.000001	0.006261	0.002121	0.000051
 143	7.1000e-02	5.7159	-0.166525	0.000001	0.012522	0.004243	0.000102
 144	7.1500e-02	5.7560	-0.166195	0.000001	0.008079	0.002737	0.000066
 145	7.2000e-02	5.7897	-0.165757	0.000001	0.010705	0.003627	0.000088
 146	7.2500e-02	5.8330	-0.165558	0.000000	0.004847	0.001642	0.000040
 147	7.3000e-02	5.8795	-0.165244	0.000001	0.007675	0.002600	0.000063
 148	7.3500e-02	5.9549	-0.165269	-0.000000	-0.000606	-0.000205	-0.000005
 149	7.4000e-02	6.0030	-0.165236	0.000000	0.000808	0.000274	0.000007
 150	7.4500e-02	6.0367	-0.165120	0.000000	0.002828	0.000958	0.000023
 151	7.5000e-02	6.0496	-0.164484	0.000002	0.015552	0.005269	0.000127
 152	7.5500e-02	6.0464	-0.163790	-0.000002	-0.016966	-0.005748	0.000139
 153	7.6000e-02	6.1121	-0.163253	0.000001	0.013128	0.004448	0.000107
 154	7.6500e-02	6.1474	-0.162675	0.000001	0.014138	0.004790	0.000116
 155	7.7000e-02	6.1939	-0.162700	-0.000000	-0.000606	-0.000205	-0.000005
 156	7.7500e-02	6.2244	-0.163005	-0.000001	-0.007473	-0.002532	-0.000061
 157	7.8000e-02	6.2581	-0.162980	0.000000	0.000606	0.000205	0.000005
 158	7.8500e-02	6.3399	-0.162691	0.000001	0.007069	0.002395	0.000058
 159	7.9000e-02	6.3704	-0.162303	0.000001	0.009493	0.003216	0.000078
 160	7.9500e-02	6.3865	-0.162162	0.000000	0.003434	0.001163	0.000028
 161	8.0000e-02	6.4474	-0.162063	0.000000	0.002424	0.000821	0.000020
 162	8.0500e-02	6.4683	-0.161906	0.000000	0.003838	0.001300	0.000031
 163	8.1000e-02	6.4490	-0.161270	-0.000002	-0.015552	-0.005269	0.000127
 164	8.1500e-02	6.5645	-0.160593	0.000002	0.016562	0.005611	0.000136
 165	8.2000e-02	6.6078	-0.159923	0.000002	0.016360	0.005543	0.000134
 166	8.2500e-02	6.6463	-0.159609	0.000001	0.007675	0.002600	0.000063
 167	8.3000e-02	6.6913	-0.159667	-0.000000	-0.001414	-0.000479	-0.000012
 168	8.3500e-02	6.7217	-0.159436	0.000001	0.005655	0.001916	0.000046
 169	8.4000e-02	6.7683	-0.159254	0.000000	0.004443	0.001505	0.000036
 170	8.4500e-02	6.8100	-0.159122	0.000000	0.003232	0.001095	0.000026
 171	8.5000e-02	6.8356	-0.158684	0.000001	0.010705	0.003627	0.000088
 172	8.5500e-02	6.8998	-0.158006	0.000002	0.016562	0.005611	0.000136
 173	8.6000e-02	6.9191	-0.157750	0.000001	0.006261	0.002121	0.000051
 174	8.6500e-02	6.9576	-0.157568	0.000000	0.004443	0.001505	0.000036
 175	8.7000e-02	7.0346	-0.157494	0.000000	0.001818	0.000616	0.000015
 176	8.7500e-02	7.0442	-0.157147	0.000001	0.008483	0.002874	0.000069
 177	8.8000e-02	7.0795	-0.156519	0.000002	0.015350	0.005201	0.000126
 178	8.8500e-02	7.1003	-0.156040	0.000001	0.011715	0.003969	0.000096
 179	8.9000e-02	7.1420	-0.155883	0.000000	0.003838	0.001300	0.000031
 180	8.9500e-02	7.2142	-0.155775	0.000000	0.002626	0.000890	0.000021
 181	9.0000e-02	7.2592	-0.155445	0.000001	0.008079	0.002737	0.000066
 182	9.0500e-02	7.2624	-0.154842	0.000001	0.014744	0.004995	0.000121
 183	9.1000e-02	7.3233	-0.154610	0.000001	0.005655	0.001916	0.000046
 184	9.1500e-02	7.3698	-0.154503	0.000000	0.002626	0.000890	0.000021
 185	9.2000e-02	7.4100	-0.154346	0.000000	0.003838	0.001300	0.000031
 186	9.2500e-02	7.4308	-0.153759	0.000001	0.014340	0.004859	0.000117
 187	9.3000e-02	7.4741	-0.153396	0.000001	0.008887	0.003011	0.000073
 188	9.3500e-02	7.5222	-0.153148	0.000001	0.006059	0.002053	0.000050
 189	9.4000e-02	7.5495	-0.152991	0.000000	0.003838	0.001300	0.000031
 190	9.4500e-02	7.6025	-0.152570	0.000001	0.010301	0.003490	0.000084
 191	9.5000e-02	7.6297	-0.152165	0.000001	0.009897	0.003353	0.000081
 192	9.5500e-02	7.6730	-0.151834	0.000001	0.008079	0.002737	0.000066
 193	9.6000e-02	7.6779	-0.151528	0.000001	0.007473	0.002532	0.000061
 194	9.6500e-02	7.7533	-0.151132	0.000001	0.009695	0.003285	0.000079
 195	9.7000e-02	7.8110	-0.150669	0.000001	0.011311	0.003832	0.000093
 196	9.7500e-02	7.8447	-0.150347	0.000001	0.007877	0.002669	0.000064
 197	9.8000e-02	7.8591	-0.150082	0.000001	0.006463	0.002190	0.000053
 198	9.8500e-02	7.9281	-0.149678	0.000001	0.009897	0.003353	0.000081
 199	9.9000e-02	7.9345	-0.149165	0.000001	0.012522	0.004243	0.000102
 200	9.9500e-02	8.0356	-0.148744	0.000001	0.010301	0.003490	0.000084
 201	1.0000e-01	8.0404	-0.148579	0.000000	0.004040	0.001369	0.000033
 202	1.0050e-01	8.0741	-0.148298	0.000001	0.006867	0.002327	0.000056
 203	1.0100e-01	8.1190	-0.147868	0.000001	0.010503	0.003558	0.000086
 204	1.0150e-01	8.1431	-0.147397	0.000001	0.011513	0.003901	0.000094
 205	1.0200e-01	8.2057	-0.147091	0.000001	0.007473	0.002532	0.000061
 206	1.0250e-01	8.2377	-0.146662	0.000001	0.010503	0.003558	0.000086
 207	1.0300e-01	8.2650	-0.146191	0.000001	0.011513	0.003901	0.000094
 208	1.0350e-01	8.3404	-0.145778	0.000001	0.010099	0.003422	0.000083
 209	1.0400e-01	8.4046	-0.145389	0.000001	0.009493	0.003216	0.000078
 210	1.0450e-01	8.4222	-0.144935	0.000001	0.011109	0.003764	0.000091
 211	1.0500e-01	8.4511	-0.144654	0.000001	0.006867	0.002327	0.000056
 212	1.0550e-01	8.4944	-0.144117	0.000001	0.013128	0.004448	0.000107
 213	1.0600e-01	8.5249	-0.143712	0.000001	0.009897	0.003353	0.000081
 214	1.0650e-01	8.5570	-0.143307	0.000001	0.009897	0.003353	0.000081
 215	1.0700e-01	8.6051	-0.142935	0.000001	0.009089	0.003079	0.000074
 216	1.0750e-01	8.6436	-0.142373	0.000001	0.013734	0.004653	0.000112
 217	1.0800e-01	8.6564	-0.141869	0.000001	0.012320	0.004174	0.000101
 218	1.0850e-01	8.7334	-0.141622	0.000001	0.006059	0.002053	0.000050
 219	1.0900e-01	8.8040	-0.141068	0.000001	0.013532	0.004585	0.000111
 220	1.0950e-01	8.8153	-0.140663	0.000001	0.009897	0.003353	0.000081
 221	1.1000e-01	8.8265	-0.140043	0.000002	0.015148	0.005132	0.000124
 222	1.1050e-01	8.8842	-0.139729	0.000001	0.007675	0.002600	0.000063
 223	1.1100e-01	8.9340	-0.139333	0.000001	0.009695	0.003285	0.000079
 224	1.1150e-01	8.9645	-0.138746	0.000001	0.014340	0.004859	0.000117
 225	1.1200e-01	9.0014	-0.138242	0.000001	0.012320	0.004174	0.000101
 226	1.1250e-01	9.0399	-0.137953	0.000001	0.007069	0.002395	0.000058
 227	1.1300e-01	9.0784	-0.137482	0.000001	0.011513	0.003901	0.000094
 228	1.1350e-01	9.1104	-0.137036	0.000001	0.010907	0.003695	0.000089
 229	1.1400e-01	9.1858	-0.136755	0.000001	0.006867	0.002327	0.000056
 230	1.1450e-01	9.1955	-0.136474	0.000001	0.006867	0.002327	0.000056
 231	1.1500e-01	9.2452	-0.136102	0.000001	0.009089	0.003079	0.000074
 232	1.1550e-01	9.2933	-0.135507	0.000001	0.014542	0.004927	0.000119
 233	1.1600e-01	9.3029	-0.134747	0.000002	0.018582	0.006296	0.000152
 234	1.1650e-01	9.3350	-0.134070	0.000002	0.016562	0.005611	0.000136
 235	1.1700e-01	9.4168	-0.133549	0.000001	0.012724	0.004311	0.000104
 236	1.1750e-01	9.4313	-0.133103	0.000001	0.010907	0.003695	0.000089
 237	1.1800e-01	9.4987	-0.132450	0.000002	0.015956	0.005406	0.000131
 238	1.1850e-01	9.5067	-0.131938	0.000001	0.012522	0.004243	0.000102
 239	1.1900e-01	9.5564	-0.131434	0.000001	0.012320	0.004174	0.000101
 240	1.1950e-01	9.6110	-0.130988	0.000001	0.010907	0.003695	0.000089
 241	1.2000e-01	9.6398	-0.130368	0.000002	0.015148	0.005132	0.000124
 242	1.2050e-01	9.6767	-0.129823	0.000001	0.013330	0.004516	0.000109
 243	1.2100e-01	9.7120	-0.129310	0.000001	0.012522	0.004243	0.000102
 244	1.2150e-01	9.7329	-0.128649	0.000002	0.016158	0.005474	0.000132
 245	1.2200e-01	9.7938	-0.128385	0.000001	0.006463	0.002190	0.000053
 246	1.2250e-01	9.8339	-0.128211	0.000000	0.004241	0.001437	0.000035
 247	1.2300e-01	9.8628	-0.127897	0.000001	0.007675	0.002600	0.000063
 248	1.2350e-01	9.8981	-0.127699	0.000000	0.004847	0.001642	0.000040
 249	1.2400e-01	9.9462	-0.127476	0.000001	0.005453	0.001848	0.000045
 250	1.2450e-01	10.0184	-0.126988	0.000001	0.011917	0.004037	0.000097
 251	1.2500e-01	10.0425	-0.126460	0.000001	0.012926	0.004380	0.000106
 252	1.2550e-01	10.0842	-0.125865	0.000001	0.014542	0.004927	0.000119
 253	1.2600e-01	10.1339	-0.125063	0.000002	0.019592	0.006638	0.000160
 254	1.2650e-01	10.1484	-0.124410	0.000002	0.015956	0.005406	0.000131
 255	1.2700e-01	10.1949	-0.123551	0.000002	0.021005	0.007117	0.000172
 256	1.2750e-01	10.2382	-0.123006	0.000001	0.013330	0.004516	0.000109
 257	1.2800e-01	10.3168	-0.122783	0.000001	0.005453	0.001848	0.000045
 258	1.2850e-01	10.3297	-0.122312	0.000001	0.011513	0.003901	0.000094
 259	1.2900e-01	10.3730	-0.122006	0.000001	0.007473	0.002532	0.000061
 260	1.2950e-01	10.4083	-0.121494	0.000001	0.012522	0.004243	0.000102
 261	1.3000e-01	10.4211	-0.120494	0.000002	0.024439	0.008280	0.000200
 262	1.3050e-01	10.4949	-0.119775	0.000002	0.017572	0.005954	0.000144
 263	1.3100e-01	10.5157	-0.119552	0.000001	0.005453	0.001848	0.000045
 264	1.3150e-01	10.5286	-0.119197	0.000001	0.008685	0.002943	0.000071
 265	1.3200e-01	10.5992	-0.118792	0.000001	0.009897	0.003353	0.000081
 266	1.3250e-01	10.6425	-0.117784	0.000002	0.024641	0.008349	0.000202
 267	1.3300e-01	10.6746	-0.117065	0.000002	0.017572	0.005954	0.000144
 268	1.3350e-01	10.7307	-0.116693	0.000001	0.009089	0.003079	0.000074
 269	1.3400e-01	10.7660	-0.116354	0.000001	0.008281	0.002806	0.000068
 270	1.3450e-01	10.8206	-0.115842	0.000001	0.012522	0.004243	0.000102
 271	1.3500e-01	10.8366	-0.115189	0.000002	0.015956	0.005406	0.000131
 272	1.3550e-01	10.8687	-0.114603	0.000001	0.014340	0.004859	0.000117
 273	1.3600e-01	10.9296	-0.114132	0.000001	0.011513	0.003901	0.000094
 274	1.3650e-01	10.9649	-0.113661	0.000001	0.011513	0.003901	0.000094
 275	1.3700e-01	10.9986	-0.113058	0.000001	0.014744	0.004995	0.000121
 276	1.3750e-01	11.0548	-0.112421	0.000002	0.015552	0.005269	0.000127
 277	1.3800e-01	11.0869	-0.111942	0.000001	0.011715	0.003969	0.000096
 278	1.3850e-01	11.1430	-0.111372	0.000001	0.013936	0.004722	0.000114
 279	1.3900e-01	11.1494	-0.110711	0.000002	0.016158	0.005474	0.000132
 280	1.3950e-01	11.1911	-0.110124	0.000001	0.014340	0.004859	0.000117
 281	1.4000e-01	11.2537	-0.109397	0.000002	0.017774	0.006022	0.000145
 282	1.4050e-01	11.2729	-0.108844	0.000001	0.013532	0.004585	0.000111
 283	1.4100e-01	11.2954	-0.108414	0.000001	0.010503	0.003558	0.000086
 284	1.4150e-01	11.3211	-0.107728	0.000002	0.016764	0.005680	0.000137
 285	1.4200e-01	11.4109	-0.107059	0.000002	0.016360	0.005543	0.000134
 286	1.4250e-01	11.4735	-0.106505	0.000001	0.013532	0.004585	0.000111
 287	1.4300e-01	11.4815	-0.106092	0.000001	0.010099	0.003422	0.000083
 288	1.4350e-01	11.5216	-0.105423	0.000002	0.016360	0.005543	0.000134
 289	1.4400e-01	11.5729	-0.104712	0.000002	0.017370	0.005885	0.000142
 290	1.4450e-01	11.5681	-0.104159	-0.000001	-0.013532	-0.004585	0.000111
 291	1.4500e-01	11.6371	-0.103688	0.000001	0.011513	0.003901	0.000094
 292	1.4550e-01	11.6692	-0.103002	0.000002	0.016764	0.005680	0.000137
 293	1.4600e-01	11.7141	-0.102308	0.000002	0.016966	0.005748	0.000139
 294	1.4650e-01	11.7478	-0.101754	0.000001	0.013532	0.004585	0.000111
 295	1.4700e-01	11.8104	-0.101275	0.000001	0.011715	0.003969	0.000096
 296	1.4750e-01	11.8585	-0.100722	0.000001	0.013532	0.004585	0.000111
 297	1.4800e-01	11.8826	-0.099937	0.000002	0.019188	0.006501	0.000157
 298	1.4850e-01	11.9162	-0.099342	0.000001	0.014542	0.004927	0.000119
 299	1.4900e-01	11.9708	-0.098821	0.000001	0.012724	0.004311	0.000104
 300	1.4950e-01	12.0205	-0.098185	0.000002	0.015552	0.005269	0.000127
 301	1.5000e-01	12.0430	-0.097474	0.000002	0.017370	0.005885	0.000142
 302	1.5050e-01	12.0799	-0.096888	0.000001	0.014340	0.004859	0.000117
 303	1.5100e-01	12.1087	-0.096326	0.000001	0.013734	0.004653	0.000112
 304	1.5150e-01	12.1537	-0.095747	0.000001	0.014138	0.004790	0.000116
 305	1.5200e-01	12.1954	-0.095037	0.000002	0.017370	0.005885	0.000142
 306	1.5250e-01	12.2371	-0.094318	0.000002	0.017572	0.005954	0.000144
 307	1.5300e-01	12.2724	-0.093781	0.000001	0.013128	0.004448	0.000107
 308	1.5350e-01	12.3253	-0.093145	0.000002	0.015552	0.005269	0.000127
 309	1.5400e-01	12.3847	-0.092401	0.000002	0.018178	0.006159	0.000149
 310	1.5450e-01	12.4103	-0.091707	0.000002	0.016966	0.005748	0.000139
 311	1.5500e-01	12.4601	-0.090955	0.000002	0.018380	0.006227	0.000150
 312	1.5550e-01	12.5018	-0.090220	0.000002	0.017976	0.006090	0.000147
 313	1.5600e-01	12.5226	-0.089501	0.000002	0.017572	0.005954	0.000144
 314	1.5650e-01	12.5692	-0.088757	0.000002	0.018178	0.006159	0.000149
 315	1.5700e-01	12.5980	-0.087956	0.000002	0.019592	0.006638	0.000160
 316	1.5750e-01	12.6638	-0.087353	0.000001	0.014744	0.004995	0.000121
 317	1.5800e-01	12.6783	-0.086617	0.000002	0.017976	0.006090	0.000147
 318	1.5850e-01	12.7103	-0.085882	0.000002	0.017976	0.006090	0.000147
 319	1.5900e-01	12.7520	-0.085188	0.000002	0.016966	0.005748	0.000139
 320	1.5950e-01	12.7986	-0.084667	0.000001	0.012724	0.004311	0.000104
 321	1.6000e-01	12.8419	-0.083940	0.000002	0.017774	0.006022	0.000145
 322	1.6050e-01	12.9028	-0.083510	0.000001	0.010503	0.003558	0.000086
 323	1.6100e-01	12.9205	-0.082858	0.000002	0.015956	0.005406	0.000131
 324	1.6150e-01	12.9093	-0.082296	-0.000001	-0.013734	-0.004653	0.000112
 325	1.6200e-01	12.9847	-0.081403	0.000002	0.021813	0.007391	0.000178
 326	1.6250e-01	13.0488	-0.080354	0.000003	0.025651	0.008691	0.000210
 327	1.6300e-01	13.1018	-0.079445	0.000002	0.022217	0.007527	0.000182
 328	1.6350e-01	13.1371	-0.078479	0.000002	0.023631	0.008006	0.000193
 329	1.6400e-01	13.1724	-0.077702	0.000002	0.018986	0.006433	0.000155
 330	1.6450e-01	13.1868	-0.076743	0.000002	0.023429	0.007938	0.000192
 331	1.6500e-01	13.2269	-0.075504	0.000003	0.030296	0.010265	0.000248
 332	1.6550e-01	13.2750	-0.074355	0.000003	0.028075	0.009512	0.000230
 333	1.6600e-01	13.3039	-0.073389	0.000002	0.023631	0.008006	0.000193
 334	1.6650e-01	13.3360	-0.073306	0.000000	0.002020	0.000684	0.000017
 335	1.6700e-01	13.3937	-0.073199	0.000000	0.002626	0.000890	0.000021
 336	1.6750e-01	13.4499	-0.072810	0.000001	0.009493	0.003216	0.000078
 337	1.6800e-01	13.4948	-0.072009	0.000002	0.019592	0.006638	0.000160
 338	1.6850e-01	13.5012	-0.071240	0.000002	0.018784	0.006364	0.000154
 339	1.6900e-01	13.5494	-0.070621	0.000002	0.015148	0.005132	0.000124
 340	1.6950e-01	13.6007	-0.069918	0.000002	0.017168	0.005817	0.000140
 341	1.7000e-01	13.6392	-0.069406	0.000001	0.012522	0.004243	0.000102
 342	1.7050e-01	13.6873	-0.068605	0.000002	0.019592	0.006638	0.000160
 343	1.7100e-01	13.6969	-0.067233	0.000003	0.033528	0.011360	0.000274
 344	1.7150e-01	13.7804	-0.065944	0.000003	0.031508	0.010675	0.000258
 345	1.7200e-01	13.8044	-0.064944	0.000002	0.024439	0.008280	0.000200
 346	1.7250e-01	13.8542	-0.064424	0.000001	0.012724	0.004311	0.000104
 347	1.7300e-01	13.8574	-0.064060	0.000001	0.008887	0.003011	0.000073
 348	1.7350e-01	13.9312	-0.063341	0.000002	0.017572	0.005954	0.000144
 349	1.7400e-01	13.9247	-0.062556	-0.000002	-0.019188	-0.006501	0.000157
 350	1.7450e-01	13.9745	-0.061210	0.000003	0.032922	0.011154	0.000269
 351	1.7500e-01	14.0354	-0.060169	0.000003	0.025449	0.008622	0.000208
 352	1.7550e-01	14.0563	-0.059532	0.000002	0.015552	0.005269	0.000127
 353	1.7600e-01	14.1221	-0.058888	0.000002	0.015754	0.005338	0.000129
 354	1.7650e-01	14.1782	-0.058177	0.000002	0.017370	0.005885	0.000142
 355	1.7700e-01	14.2087	-0.057252	0.000002	0.022621	0.007664	0.000185
 356	1.7750e-01	14.2552	-0.055979	0.000003	0.031104	0.010538	0.000254
 357	1.7800e-01	14.2953	-0.055178	0.000002	0.019592	0.006638	0.000160
 358	1.7850e-01	14.3098	-0.054550	0.000002	0.015350	0.005201	0.000126
 359	1.7900e-01	14.3691	-0.053616	0.000002	0.022823	0.007733	0.000187
 360	1.7950e-01	14.3627	-0.052873	-0.000002	-0.018178	-0.006159	0.000149
 361	1.8000e-01	14.4429	-0.051666	0.000003	0.029488	0.009991	0.000241
 362	1.8050e-01	14.4814	-0.050733	0.000002	0.022823	0.007733	0.000187
 363	1.8100e-01	14.5279	-0.050187	0.000001	0.013330	0.004516	0.000109
 364	1.8150e-01	14.5632	-0.049320	0.000002	0.021207	0.007185	0.000174
 365	1.8200e-01	14.5937	-0.048295	0.000003	0.025045	0.008485	0.000205
 366	1.8250e-01	14.6482	-0.047262	0.000003	0.025247	0.008554	0.000207
 367	1.8300e-01	14.6563	-0.046378	0.000002	0.021611	0.007322	0.000177
 368	1.8350e-01	14.7156	-0.045560	0.000002	0.019996	0.006775	0.000164
 369	1.8400e-01	14.7509	-0.044684	0.000002	0.021409	0.007254	0.000175
 370	1.8450e-01	14.7750	-0.043610	0.000003	0.026257	0.008896	0.000215
 371	1.8500e-01	14.8648	-0.042652	0.000002	0.023429	0.007938	0.000192
 372	1.8550e-01	14.8488	-0.041660	-0.000002	-0.024237	-0.008212	0.000198
 373	1.8600e-01	14.9242	-0.040892	0.000002	0.018784	0.006364	0.000154
 374	1.8650e-01	14.9579	-0.039851	0.000003	0.025449	0.008622	0.000208
 375	1.8700e-01	14.9948	-0.038760	0.000003	0.026661	0.009033	0.000218
 376	1.8750e-01	15.0301	-0.037959	0.000002	0.019592	0.006638	0.000160
 377	1.8800e-01	15.0926	-0.037025	0.000002	0.022823	0.007733	0.000187
 378	1.8850e-01	15.1343	-0.035959	0.000003	0.026055	0.008828	0.000213
 379	1.8900e-01	15.1488	-0.034943	0.000002	0.024843	0.008417	0.000203
 380	1.8950e-01	15.1969	-0.033968	0.000002	0.023833	0.008075	0.000195
 381	1.9000e-01	15.2482	-0.033026	0.000002	0.023025	0.007801	0.000188
 382	1.9050e-01	15.2851	-0.032051	0.000002	0.023833	0.008075	0.000195
 383	1.9100e-01	15.3060	-0.030861	0.000003	0.029084	0.009854	0.000238
 384	1.9150e-01	15.3653	-0.029911	0.000002	0.023227	0.007870	0.000190
 385	1.9200e-01	15.3894	-0.029018	0.000002	0.021813	0.007391	0.000178
 386	1.9250e-01	15.4279	-0.027911	0.000003	0.027065	0.009170	0.000221
 387	1.9300e-01	15.4600	-0.026688	0.000003	0.029892	0.010128	0.000245
 388	1.9350e-01	15.5097	-0.025614	0.000003	0.026257	0.008896	0.000215
 389	1.9400e-01	15.5851	-0.024639	0.000002	0.023833	0.008075	0.000195
 390	1.9450e-01	15.6108	-0.023515	0.000003	0.027469	0.009307	0.000225
 391	1.9500e-01	15.6381	-0.022425	0.000003	0.026661	0.009033	0.000218
 392	1.9550e-01	15.7215	-0.021276	0.000003	0.028075	0.009512	0.000230
 393	1.9600e-01	15.7183	-0.020334	-0.000002	-0.023025	-0.007801	0.000188
 394	1.9650e-01	15.7648	-0.019351	0.000002	0.024035	0.008143	0.000197
 395	1.9700e-01	15.8242	-0.018219	0.000003	0.027671	0.009375	0.000226
 396	1.9750e-01	15.8530	-0.017046	0.000003	0.028680	0.009717	0.000235
 397	1.9800e-01	15.9028	-0.016087	0.000002	0.023429	0.007938	0.000192
 398	1.9850e-01	15.9573	-0.014988	0.000003	0.026863	0.009101	0.000220
 399	1.9900e-01	15.9621	-0.013889	0.000003	0.026863	0.009101	0.000220
 400	1.9950e-01	15.9894	-0.012741	0.000003	0.028075	0.009512	0.000230
 401	2.0000e-01	16.0455	-0.011708	0.000003	0.025247	0.008554	0.000207
 402	2.0050e-01	16.0632	-0.010543	0.000003	0.028479	0.009649	0.000233
 403	2.0100e-01	16.1594	-0.009502	0.000003	0.025449	0.008622	0.000208
 404	2.0150e-01	16.1578	-0.008287	-0.000003	-0.029690	-0.010059	0.000243
 405	2.0200e-01	16.2108	-0.007106	0.000003	0.028882	0.009786	0.000236
 406	2.0250e-01	16.2396	-0.005883	0.000003	0.029892	0.010128	0.000245
 407	2.0300e-01	16.2525	-0.004635	0.000003	0.030498	0.010333	0.000250
 408	2.0350e-01	16.3086	-0.003578	0.000003	0.025853	0.008759	0.000212
 409	2.0400e-01	16.3487	-0.002223	0.000003	0.033124	0.011223	0.000271
 410	2.0450e-01	16.3856	-0.001149	0.000003	0.026257	0.008896	0.000215
 411	2.0500e-01	16.4209	0.000083	0.000003	0.030094	0.010196	0.000246
 412	2.0550e-01	16.4867	0.001198	0.000003	0.027267	0.009238	0.000223
 413	2.0600e-01	16.5124	0.002471	0.000003	0.031104	0.010538	0.000254
 414	2.0650e-01	16.5557	0.003446	0.000002	0.023833	0.008075	0.000195
 415	2.0700e-01	16.5958	0.004536	0.000003	0.026661	0.009033	0.000218
 416	2.0750e-01	16.6616	0.005627	0.000003	0.026661	0.009033	0.000218
 417	2.0800e-01	16.6856	0.006808	0.000003	0.028882	0.009786	0.000236
 418	2.0850e-01	16.7177	0.008230	0.000003	0.034740	0.011770	0.000284
 419	2.0900e-01	16.7546	0.009775	0.000004	0.037769	0.012797	0.000309
 420	2.0950e-01	16.7819	0.011535	0.000004	0.043021	0.014576	0.000352
 421	2.1000e-01	16.8557	0.013195	0.000004	0.040597	0.013755	0.000332
 422	2.1050e-01	16.8749	0.014732	0.000004	0.037567	0.012728	0.000307
 423	2.1100e-01	16.9279	0.015939	0.000003	0.029488	0.009991	0.000241
 424	2.1150e-01	16.9920	0.016781	0.000002	0.020601	0.006980	0.000169
 425	2.1200e-01	17.0049	0.017740	0.000002	0.023429	0.007938	0.000192
 426	2.1250e-01	17.0241	0.018855	0.000003	0.027267	0.009238	0.000223
 427	2.1300e-01	17.0819	0.019764	0.000002	0.022217	0.007527	0.000182
 428	2.1350e-01	17.1011	0.020814	0.000003	0.025651	0.008691	0.000210
 429	2.1400e-01	17.1717	0.021756	0.000002	0.023025	0.007801	0.000188
 430	2.1450e-01	17.2134	0.023218	0.000004	0.035750	0.012112	0.000292
 431	2.1500e-01	17.2359	0.024647	0.000003	0.034942	0.011839	0.000286
 432	2.1550e-01	17.2984	0.026647	0.000005	0.048878	0.016560	0.000400
 433	2.1600e-01	17.3193	0.028630	0.000005	0.048474	0.016423	0.000397
 434	2.1650e-01	17.3787	0.030142	0.000004	0.036961	0.012523	0.000302
 435	2.1700e-01	17.3819	0.031175	0.000003	0.025247	0.008554	0.000207
 436	2.1750e-01	17.4396	0.032233	0.000003	0.025853	0.008759	0.000212
 437	2.1800e-01	17.4781	0.033596	0.000003	0.033326	0.011291	0.000273
 438	2.1850e-01	17.5455	0.034976	0.000003	0.033730	0.011428	0.000276
 439	2.1900e-01	17.5680	0.036620	0.000004	0.040193	0.013618	0.000329
 440	2.1950e-01	17.5936	0.038372	0.000004	0.042819	0.014507	0.000350
 441	2.2000e-01	17.6594	0.039768	0.000003	0.034134	0.011565	0.000279
 442	2.2050e-01	17.6867	0.041115	0.000003	0.032922	0.011154	0.000269
 443	2.2100e-01	17.7204	0.042536	0.000003	0.034740	0.011770	0.000284
 444	2.2150e-01	17.7621	0.044156	0.000004	0.039587	0.013412	0.000324
 445	2.2200e-01	17.8086	0.045825	0.000004	0.040799	0.013823	0.000334
 446	2.2250e-01	17.8294	0.047477	0.000004	0.040395	0.013686	0.000331
 447	2.2300e-01	17.8888	0.048873	0.000003	0.034134	0.011565	0.000279
 448	2.2350e-01	17.9337	0.050295	0.000003	0.034740	0.011770	0.000284
 449	2.2400e-01	17.9530	0.051675	0.000003	0.033730	0.011428	0.000276
 450	2.2450e-01	18.0203	0.053319	0.000004	0.040193	0.013618	0.000329
 451	2.2500e-01	18.0556	0.054963	0.000004	0.040193	0.013618	0.000329
 452	2.2550e-01	18.0990	0.056500	0.000004	0.037567	0.012728	0.000307
 453	2.2600e-01	18.1166	0.057946	0.000004	0.035346	0.011975	0.000289
 454	2.2650e-01	18.1744	0.059466	0.000004	0.037163	0.012591	0.000304
 455	2.2700e-01	18.1888	0.061234	0.000004	0.043223	0.014644	0.000354
 456	2.2750e-01	18.2321	0.062928	0.000004	0.041405	0.014028	0.000339
 457	2.2800e-01	18.2610	0.064473	0.000004	0.037769	0.012797	0.000309
 458	2.2850e-01	18.3235	0.065961	0.000004	0.036356	0.012318	0.000297
 459	2.2900e-01	18.3701	0.067745	0.000004	0.043627	0.014781	0.000357
 460	2.2950e-01	18.4102	0.069613	0.000005	0.045646	0.015465	0.000373
 461	2.3000e-01	18.4391	0.071183	0.000004	0.038375	0.013002	0.000314
 462	2.3050e-01	18.4727	0.072901	0.000004	0.042011	0.014234	0.000344
 463	2.3100e-01	18.4936	0.074554	0.000004	0.040395	0.013686	0.000331
 464	2.3150e-01	18.5802	0.076388	0.000004	0.044839	0.015192	0.000367
 465	2.3200e-01	18.6123	0.078115	0.000004	0.042213	0.014302	0.000345
 466	2.3250e-01	18.6669	0.079817	0.000004	0.041607	0.014097	0.000340
 467	2.3300e-01	18.6845	0.081478	0.000004	0.040597	0.013755	0.000332
 468	2.3350e-01	18.7182	0.083370	0.000005	0.046252	0.015671	0.000378
 469	2.3400e-01	18.7904	0.085179	0.000004	0.044233	0.014986	0.000362
 470	2.3450e-01	18.8337	0.086849	0.000004	0.040799	0.013823	0.000334
 471	2.3500e-01	18.8433	0.088691	0.000005	0.045040	0.015260	0.000369
 472	2.3550e-01	18.8690	0.090575	0.000005	0.046050	0.015602	0.000377
 473	2.3600e-01	18.9187	0.092484	0.000005	0.046656	0.015808	0.000382
 474	2.3650e-01	18.9701	0.094252	0.000004	0.043223	0.014644	0.000354
 475	2.3700e-01	19.0070	0.095995	0.000004	0.042617	0.014439	0.000349
 476	2.3750e-01	19.0150	0.097945	0.000005	0.047666	0.016150	0.000390
 477	2.3800e-01	19.0711	0.099970	0.000005	0.049484	0.016766	0.000405
 478	2.3850e-01	19.1176	0.101754	0.000004	0.043627	0.014781	0.000357
 479	2.3900e-01	19.1513	0.103605	0.000005	0.045242	0.015329	0.000370
 480	2.3950e-01	19.1914	0.105720	0.000005	0.051706	0.017518	0.000423
 481	2.4000e-01	19.2428	0.107803	0.000005	0.050898	0.017245	0.000416
 482	2.4050e-01	19.2620	0.109703	0.000005	0.046454	0.015739	0.000380
 483	2.4100e-01	19.3294	0.111430	0.000004	0.042213	0.014302	0.000345
 484	2.4150e-01	19.3695	0.113520	0.000005	0.051100	0.017313	0.000418
 485	2.4200e-01	19.3952	0.115660	0.000005	0.052312	0.017724	0.000428
 486	2.4250e-01	19.3888	0.117536	-0.000005	-0.045848	-0.015534	0.000375
 487	2.4300e-01	19.4626	0.119494	0.000005	0.047868	0.016218	0.000392
 488	2.4350e-01	19.5139	0.121461	0.000005	0.048070	0.016287	0.000393
 489	2.4400e-01	19.5396	0.123502	0.000005	0.049888	0.016902	0.000408
 490	2.4450e-01	19.5797	0.125683	0.000005	0.053321	0.018066	0.000436
 491	2.4500e-01	19.6374	0.127674	0.000005	0.048676	0.016492	0.000398
 492	2.4550e-01	19.6406	0.129781	0.000005	0.051504	0.017450	0.000421
 493	2.4600e-01	19.7112	0.131806	0.000005	0.049484	0.016766	0.000405
 494	2.4650e-01	19.7898	0.133987	0.000005	0.053321	0.018066	0.000436
 495	2.4700e-01	19.8043	0.136119	0.000005	0.052110	0.017655	0.000426
 496	2.4750e-01	19.8412	0.138283	0.000005	0.052918	0.017929	0.000433
 497	2.4800e-01	19.8652	0.140556	0.000006	0.055543	0.018819	0.000454
 498	2.4850e-01	19.9149	0.142745	0.000005	0.053523	0.018134	0.000438
 499	2.4900e-01	19.9567	0.144902	0.000005	0.052716	0.017861	0.000431
 500	2.4950e-01	20.0000	0.147133	0.000005	0.054533	0.018476	0.000446
 501	2.5000e-01	20.0160	0.149207	0.000005	0.050696	0.017176	0.000415
 502	2.5050e-01	19.9839	0.151454	-0.000005	-0.054937	-0.018613	0.000449
 503	2.5100e-01	19.9262	0.153553	-0.000005	-0.051302	-0.017381	0.000420
 504	2.5150e-01	19.9053	0.155519	-0.000005	-0.048070	-0.016287	0.000393
 505	2.5200e-01	19.8636	0.157436	-0.000005	-0.046858	-0.015876	0.000383
 506	2.5250e-01	19.8171	0.159304	-0.000005	-0.045646	-0.015465	0.000373
 507	2.5300e-01	19.7674	0.160923	-0.000004	-0.039587	-0.013412	0.000324
 508	2.5350e-01	19.7240	0.162344	-0.000003	-0.034740	-0.011770	0.000284
 509	2.5400e-01	19.7048	0.164220	-0.000005	-0.045848	-0.015534	0.000375
 510	2.5450e-01	19.6615	0.165963	-0.000004	-0.042617	-0.014439	0.000349
 511	2.5500e-01	19.6326	0.167946	-0.000005	-0.048474	-0.016423	0.000397
 512	2.5550e-01	19.6053	0.169863	-0.000005	-0.046858	-0.015876	0.000383
 513	2.5600e-01	19.5412	0.170937	-0.000003	-0.026257	-0.008896	0.000215
 514	2.5650e-01	19.4882	0.171813	-0.000002	-0.021409	-0.007254	0.000175
 515	2.5700e-01	19.4449	0.172763	-0.000002	-0.023227	-0.007870	0.000190
 516	2.5750e-01	19.3920	0.173962	-0.000003	-0.029286	-0.009923	0.000240
 517	2.5800e-01	19.4064	0.175011	0.000003	0.025651	0.008691	0.000210
 518	2.5850e-01	19.3374	0.175961	-0.000002	-0.023227	-0.007870	0.000190
 519	2.5900e-01	19.2941	0.176763	-0.000002	-0.019592	-0.006638	0.000160
 520	2.5950e-01	19.2396	0.177531	-0.000002	-0.018784	-0.006364	0.000154
 521	2.6000e-01	19.1930	0.178622	-0.000003	-0.026661	-0.009033	0.000218
 522	2.6050e-01	19.1770	0.179968	-0.000003	-0.032922	-0.011154	0.000269
 523	2.6100e-01	19.1016	0.181357	-0.000003	-0.033932	-0.011496	0.000278
 524	2.6150e-01	19.1128	0.182447	0.000003	0.026661	0.009033	0.000218
 525	2.6200e-01	19.0663	0.183117	-0.000002	-0.016360	-0.005543	0.000134
 526	2.6250e-01	19.0262	0.183670	-0.000001	-0.013532	-0.004585	0.000111
 527	2.6300e-01	18.9813	0.184158	-0.000001	-0.011917	-0.004037	0.000097
 528	2.6350e-01	18.9251	0.184719	-0.000001	-0.013734	-0.004653	0.000112
 529	2.6400e-01	18.9027	0.185967	-0.000003	-0.030498	-0.010333	0.000250
 530	2.6450e-01	18.8594	0.186967	-0.000002	-0.024439	-0.008280	0.000200
 531	2.6500e-01	18.7968	0.187595	-0.000002	-0.015350	-0.005201	0.000126
 532	2.6550e-01	18.7791	0.187901	-0.000001	-0.007473	-0.002532	0.000061
 533	2.6600e-01	18.7182	0.188297	-0.000001	-0.009695	-0.003285	0.000079
 534	2.6650e-01	18.7150	0.188975	-0.000002	-0.016562	-0.005611	0.000136
 535	2.6700e-01	18.6685	0.189834	-0.000002	-0.021005	-0.007117	0.000172
 536	2.6750e-01	18.6348	0.190503	-0.000002	-0.016360	-0.005543	0.000134
 537	2.6800e-01	18.5690	0.190685	-0.000000	-0.004443	-0.001505	0.000036
 538	2.6850e-01	18.5353	0.190801	-0.000000	-0.002828	-0.000958	0.000023
 539	2.6900e-01	18.5064	0.191338	-0.000001	-0.013128	-0.004448	0.000107
 540	2.6950e-01	18.4759	0.192131	-0.000002	-0.019390	-0.006569	0.000159
 541	2.7000e-01	18.4134	0.192619	-0.000001	-0.011917	-0.004037	0.000097
 542	2.7050e-01	18.3588	0.192693	-0.000000	-0.001818	-0.000616	0.000015
 543	2.7100e-01	18.3524	0.192966	-0.000001	-0.006665	-0.002258	0.000055
 544	2.7150e-01	18.2963	0.193437	-0.000001	-0.011513	-0.003901	0.000094
 545	2.7200e-01	18.2578	0.194040	-0.000001	-0.014744	-0.004995	0.000121
 546	2.7250e-01	18.2385	0.194147	-0.000000	-0.002626	-0.000890	0.000021
 547	2.7300e-01	18.1760	0.194263	-0.000000	-0.002828	-0.000958	0.000023
 548	2.7350e-01	18.1423	0.194643	-0.000001	-0.009291	-0.003148	0.000076
 549	2.7400e-01	18.0685	0.195130	-0.000001	-0.011917	-0.004037	0.000097
 550	2.7450e-01	18.0765	0.195469	0.000001	0.008281	0.002806	0.000068
 551	2.7500e-01	18.0268	0.195436	0.000000	0.000808	0.000274	-0.000007
 552	2.7550e-01	17.9658	0.195824	-0.000001	-0.009493	-0.003216	0.000078
 553	2.7600e-01	17.9209	0.196188	-0.000001	-0.008887	-0.003011	0.000073
 554	2.7650e-01	17.9129	0.196271	-0.000000	-0.002020	-0.000684	0.000017
 555	2.7700e-01	17.8551	0.196386	-0.000000	-0.002828	-0.000958	0.000023
 556	2.7750e-01	17.8150	0.196386	-0.000000	-0.000000	-0.000000	0.000000
 557	2.7800e-01	17.7861	0.196733	-0.000001	-0.008483	-0.002874	0.000069
 558	2.7850e-01	17.7589	0.196989	-0.000001	-0.006261	-0.002121	0.000051
 559	2.7900e-01	17.6786	0.196899	0.000000	0.002222	0.000753	-0.000018
 560	2.7950e-01	17.6658	0.197006	-0.000000	-0.002626	-0.000890	0.000021
 561	2.8000e-01	17.6065	0.197287	-0.000001	-0.006867	-0.002327	0.000056
 562	2.8050e-01	17.5696	0.197510	-0.000001	-0.005453	-0.001848	0.000045
 563	2.8100e-01	17.5375	0.197493	0.000000	0.000404	0.000137	-0.000003
 564	2.8150e-01	17.4942	0.197394	0.000000	0.002424	0.000821	-0.000020
 565	2.8200e-01	17.4492	0.197444	-0.000000	-0.001212	-0.000411	0.000010
 566	2.8250e-01	17.4300	0.197758	-0.000001	-0.007675	-0.002600	0.000063
 567	2.8300e-01	17.3578	0.197799	-0.000000	-0.001010	-0.000342	0.000008
 568	2.8350e-01	17.3369	0.197874	-0.000000	-0.001818	-0.000616	0.000015
 569	2.8400e-01	17.3129	0.197923	-0.000000	-0.001212	-0.000411	0.000010
 570	2.8450e-01	17.2664	0.198055	-0.000000	-0.003232	-0.001095	0.000026
 571	2.8500e-01	17.2327	0.197898	0.000000	0.003838	0.001300	-0.000031
 572	2.8550e-01	17.1878	0.198006	-0.000000	-0.002626	-0.000890	0.000021
 573	2.8600e-01	17.1380	0.197948	0.000000	0.001414	0.000479	-0.000012
 574	2.8650e-01	17.0883	0.198047	-0.000000	-0.002424	-0.000821	0.000020
 575	2.8700e-01	17.0706	0.198105	-0.000000	-0.001414	-0.000479	0.000012
 576	2.8750e-01	17.0257	0.198006	0.000000	0.002424	0.000821	-0.000020
 577	2.8800e-01	16.9696	0.197915	0.000000	0.002222	0.000753	-0.000018
 578	2.8850e-01	16.9231	0.198039	-0.000000	-0.003030	-0.001026	0.000025
 579	2.8900e-01	16.9070	0.198064	-0.000000	-0.000606	-0.000205	0.000005
 580	2.8950e-01	16.8573	0.197923	0.000000	0.003434	0.001163	-0.000028
 581	2.9000e-01	16.8188	0.197923	-0.000000	-0.000000	-0.000000	0.000000
 582	2.9050e-01	16.7915	0.197998	-0.000000	-0.001818	-0.000616	0.000015
 583	2.9100e-01	16.7386	0.198022	-0.000000	-0.000606	-0.000205	0.000005
 584	2.9150e-01	16.7305	0.198006	0.000000	0.000404	0.000137	-0.000003
 585	2.9200e-01	16.6247	0.197981	0.000000	0.000606	0.000205	-0.000005
 586	2.9250e-01	16.6134	0.197973	0.000000	0.000202	0.000068	-0.000002
 587	2.9300e-01	16.5637	0.197964	0.000000	0.000202	0.000068	-0.000002
 588	2.9350e-01	16.5509	0.197964	-0.000000	-0.000000	-0.000000	0.000000
 589	2.9400e-01	16.5140	0.197849	0.000000	0.002828	0.000958	-0.000023
 590	2.9450e-01	16.4338	0.197766	0.000000	0.002020	0.000684	-0.000017
 591	2.9500e-01	16.4225	0.197659	0.000000	0.002626	0.000890	-0.000021
 592	2.9550e-01	16.3760	0.197684	-0.000000	-0.000606	-0.000205	0.000005
 593	2.9600e-01	16.3632	0.197568	0.000000	0.002828	0.000958	-0.000023
 594	2.9650e-01	16.3102	0.197353	0.000001	0.005251	0.001779	-0.000043
 595	2.9700e-01	16.2380	0.197444	-0.000000	-0.002222	-0.000753	0.000018
 596	2.9750e-01	16.2060	0.197370	0.000000	0.001818	0.000616	-0.000015
 597	2.9800e-01	16.1883	0.197163	0.000001	0.005049	0.001711	-0.000041
 598	2.9850e-01	16.1402	0.197113	0.000000	0.001212	0.000411	-0.000010
 599	2.9900e-01	16.1145	0.197336	-0.000001	-0.005453	-0.001848	0.000045
 600	2.9950e-01	16.0359	0.197411	-0.000000	-0.001818	-0.000616	0.000015
 601	3.0000e-01	16.0215	0.197444	-0.000000	-0.000808	-0.000274	0.000007
 602	3.0050e-01	15.9910	0.196907	0.000001	0.013128	0.004448	-0.000107
 603	3.0100e-01	15.9685	0.196279	0.000002	0.015350	0.005201	-0.000126
 604	3.0150e-01	15.8835	0.196130	0.000000	0.003636	0.001232	-0.000030
 605	3.0200e-01	15.8386	0.196006	0.000000	0.003030	0.001026	-0.000025
 606	3.0250e-01	15.8193	0.195874	0.000000	0.003232	0.001095	-0.000026
 607	3.0300e-01	15.7552	0.195659	0.000001	0.005251	0.001779	-0.000043
 608	3.0350e-01	15.7407	0.195510	0.000000	0.003636	0.001232	-0.000030
 609	3.0400e-01	15.7070	0.195353	0.000000	0.003838	0.001300	-0.000031
 610	3.0450e-01	15.6573	0.195312	0.000000	0.001010	0.000342	-0.000008
 611	3.0500e-01	15.5980	0.195618	-0.000001	-0.007473	-0.002532	0.000061
 612	3.0550e-01	15.5643	0.195891	-0.000001	-0.006665	-0.002258	0.000055
 613	3.0600e-01	15.5707	0.195750	-0.000000	-0.003434	-0.001163	-0.000028
 614	3.0650e-01	15.4841	0.195155	0.000001	0.014542	0.004927	-0.000119
 615	3.0700e-01	15.4423	0.194849	0.000001	0.007473	0.002532	-0.000061
 616	3.0750e-01	15.4263	0.194552	0.000001	0.007271	0.002464	-0.000059
 617	3.0800e-01	15.3766	0.194461	0.000000	0.002222	0.000753	-0.000018
 618	3.0850e-01	15.3140	0.194692	-0.000001	-0.005655	-0.001916	0.000046
 619	3.0900e-01	15.3108	0.194916	-0.000001	-0.005453	-0.001848	0.000045
 620	3.0950e-01	15.2514	0.194511	0.000001	0.009897	0.003353	-0.000081
 621	3.1000e-01	15.2033	0.194081	0.000001	0.010503	0.003558	-0.000086
 622	3.1050e-01	15.2065	0.193908	-0.000000	-0.004241	-0.001437	-0.000035
 623	3.1100e-01	15.1215	0.193742	0.000000	0.004040	0.001369	-0.000033
 624	3.1150e-01	15.0990	0.193998	-0.000001	-0.006261	-0.002121	0.000051
 625	3.1200e-01	15.0477	0.193742	0.000001	0.006261	0.002121	-0.000051
 626	3.1250e-01	15.0188	0.193362	0.000001	0.009291	0.003148	-0.000076
 627	3.1300e-01	14.9867	0.193081	0.000001	0.006867	0.002327	-0.000056
 628	3.1350e-01	14.9113	0.192974	0.000000	0.002626	0.000890	-0.000021
 629	3.1400e-01	14.8953	0.193255	-0.000001	-0.006867	-0.002327	0.000056
 630	3.1450e-01	14.8568	0.193073	0.000000	0.004443	0.001505	-0.000036
 631	3.1500e-01	14.8167	0.192577	0.000001	0.012119	0.004106	-0.000099
 632	3.1550e-01	14.7798	0.192387	0.000000	0.004645	0.001574	-0.000038
 633	3.1600e-01	14.7445	0.192561	-0.000000	-0.004241	-0.001437	0.000035
 634	3.1650e-01	14.6948	0.192635	-0.000000	-0.001818	-0.000616	0.000015
 635	3.1700e-01	14.6258	0.192362	0.000001	0.006665	0.002258	-0.000055
 636	3.1750e-01	14.6001	0.192081	0.000001	0.006867	0.002327	-0.000056
 637	3.1800e-01	14.5632	0.191958	0.000000	0.003030	0.001026	-0.000025
 638	3.1850e-01	14.5392	0.192131	-0.000000	-0.004241	-0.001437	0.000035
 639	3.1900e-01	14.4894	0.191974	0.000000	0.003838	0.001300	-0.000031
 640	3.1950e-01	14.4573	0.191536	0.000001	0.010705	0.003627	-0.000088
 641	3.2000e-01	14.4221	0.191272	0.000001	0.006463	0.002190	-0.000053
 642	3.2050e-01	14.3771	0.191412	-0.000000	-0.003434	-0.001163	0.000028
 643	3.2100e-01	14.3274	0.191330	0.000000	0.002020	0.000684	-0.000017
 644	3.2150e-01	14.2905	0.191040	0.000001	0.007069	0.002395	-0.000058
 645	3.2200e-01	14.2664	0.190751	0.000001	0.007069	0.002395	-0.000058
 646	3.2250e-01	14.1959	0.190718	0.000000	0.000808	0.000274	-0.000007
 647	3.2300e-01	14.1862	0.190669	0.000000	0.001212	0.000411	-0.000010
 648	3.2350e-01	14.1413	0.190338	0.000001	0.008079	0.002737	-0.000066
 649	3.2400e-01	14.0771	0.190024	0.000001	0.007675	0.002600	-0.000063
 650	3.2450e-01	14.0402	0.189950	0.000000	0.001818	0.000616	-0.000015
 651	3.2500e-01	14.0322	0.189933	0.000000	0.000404	0.000137	-0.000003
 652	3.2550e-01	13.9889	0.189627	0.000001	0.007473	0.002532	-0.000061
 653	3.2600e-01	13.9296	0.189289	0.000001	0.008281	0.002806	-0.000068
 654	3.2650e-01	13.8943	0.189231	0.000000	0.001414	0.000479	-0.000012
 655	3.2700e-01	13.8542	0.189289	-0.000000	-0.001414	-0.000479	0.000012
 656	3.2750e-01	13.7996	0.189099	0.000000	0.004645	0.001574	-0.000038
 657	3.2800e-01	13.7403	0.188752	0.000001	0.008483	0.002874	-0.000069
 658	3.2850e-01	13.7531	0.188520	-0.000001	-0.005655	-0.001916	-0.000046
 659	3.2900e-01	13.7050	0.188595	-0.000000	-0.001818	-0.000616	0.000015
 660	3.2950e-01	13.6360	0.188363	0.000001	0.005655	0.001916	-0.000046
 661	3.3000e-01	13.5895	0.188033	0.000001	0.008079	0.002737	-0.000066
 662	3.3050e-01	13.5590	0.187793	0.000001	0.005857	0.001985	-0.000048
 663	3.3100e-01	13.5189	0.187901	-0.000000	-0.002626	-0.000890	0.000021
 664	3.3150e-01	13.5044	0.187677	0.000001	0.005453	0.001848	-0.000045
 665	3.3200e-01	13.4547	0.187529	0.000000	0.003636	0.001232	-0.000030
 666	3.3250e-01	13.4082	0.187281	0.000001	0.006059	0.002053	-0.000050
 667	3.3300e-01	13.3552	0.187190	0.000000	0.002222	0.000753	-0.000018
 668	3.3350e-01	13.3183	0.187165	0.000000	0.000606	0.000205	-0.000005
 669	3.3400e-01	13.3183	0.186884	0.000001	0.006867	0.002327	-0.000056
 670	3.3450e-01	13.2702	0.186686	0.000000	0.004847	0.001642	-0.000040
 671	3.3500e-01	13.2109	0.186521	0.000000	0.004040	0.001369	-0.000033
 672	3.3550e-01	13.1708	0.186438	0.000000	0.002020	0.000684	-0.000017
 673	3.3600e-01	13.1419	0.186422	0.000000	0.000404	0.000137	-0.000003
 674	3.3650e-01	13.1403	0.186124	0.000001	0.007271	0.002464	-0.000059
 675	3.3700e-01	13.0713	0.185967	0.000000	0.003838	0.001300	-0.000031
 676	3.3750e-01	12.9959	0.185884	0.000000	0.002020	0.000684	-0.000017
 677	3.3800e-01	12.9766	0.185678	0.000001	0.005049	0.001711	-0.000041
 678	3.3850e-01	12.9349	0.185488	0.000000	0.004645	0.001574	-0.000038
 679	3.3900e-01	12.9269	0.185372	0.000000	0.002828	0.000958	-0.000023
 680	3.3950e-01	12.8339	0.185306	0.000000	0.001616	0.000547	-0.000013
 681	3.4000e-01	12.8034	0.185265	0.000000	0.001010	0.000342	-0.000008
 682	3.4050e-01	12.7601	0.184992	0.000001	0.006665	0.002258	-0.000055
 683	3.4100e-01	12.7216	0.184810	0.000000	0.004443	0.001505	-0.000036
 684	3.4150e-01	12.7103	0.184744	0.000000	0.001616	0.000547	-0.000013
 685	3.4200e-01	12.6783	0.184562	0.000000	0.004443	0.001505	-0.000036
 686	3.4250e-01	12.6253	0.184364	0.000000	0.004847	0.001642	-0.000040
 687	3.4300e-01	12.5435	0.184389	-0.000000	-0.000606	-0.000205	0.000005
 688	3.4350e-01	12.5291	0.184529	-0.000000	-0.003434	-0.001163	0.000028
 689	3.4400e-01	12.4681	0.184620	-0.000000	-0.002222	-0.000753	0.000018
 690	3.4450e-01	12.4440	0.184777	-0.000000	-0.003838	-0.001300	0.000031
 691	3.4500e-01	12.4184	0.184505	0.000001	0.006665	0.002258	-0.000055
 692	3.4550e-01	12.4007	0.183885	0.000002	0.015148	0.005132	-0.000124
 693	3.4600e-01	12.3301	0.183158	0.000002	0.017774	0.006022	-0.000145
 694	3.4650e-01	12.2788	0.182447	0.000002	0.017370	0.005885	-0.000142
 695	3.4700e-01	12.2563	0.182051	0.000001	0.009695	0.003285	-0.000079
 696	3.4750e-01	12.2259	0.181778	0.000001	0.006665	0.002258	-0.000055
 697	3.4800e-01	12.1777	0.181695	0.000000	0.002020	0.000684	-0.000017
 698	3.4850e-01	12.1264	0.181704	-0.000000	-0.000202	-0.000068	0.000002
 699	3.4900e-01	12.1104	0.181745	-0.000000	-0.001010	-0.000342	0.000008
 700	3.4950e-01	12.0558	0.181993	-0.000001	-0.006059	-0.002053	0.000050
 701	3.5000e-01	12.0173	0.182455	-0.000001	-0.011311	-0.003832	0.000093
 702	3.5050e-01	11.9836	0.182646	-0.000000	-0.004645	-0.001574	0.000038
 703	3.5100e-01	11.9307	0.182299	0.000001	0.008483	0.002874	-0.000069
 704	3.5150e-01	11.8729	0.181927	0.000001	0.009089	0.003079	-0.000074
 705	3.5200e-01	11.8376	0.181398	0.000001	0.012926	0.004380	-0.000106
 706	3.5250e-01	11.7879	0.181018	0.000001	0.009291	0.003148	-0.000076
 707	3.5300e-01	11.7590	0.180894	0.000000	0.003030	0.001026	-0.000025
 708	3.5350e-01	11.7125	0.181274	-0.000001	-0.009291	-0.003148	0.000076
 709	3.5400e-01	11.6868	0.181167	0.000000	0.002626	0.000890	-0.000021
 710	3.5450e-01	11.6628	0.180828	0.000001	0.008281	0.002806	-0.000068
 711	3.5500e-01	11.6146	0.180605	0.000001	0.005453	0.001848	-0.000045
 712	3.5550e-01	11.5794	0.180233	0.000001	0.009089	0.003079	-0.000074
 713	3.5600e-01	11.5120	0.180192	0.000000	0.001010	0.000342	-0.000008
 714	3.5650e-01	11.4735	0.180282	-0.000000	-0.002222	-0.000753	0.000018
 715	3.5700e-01	11.4558	0.179935	0.000001	0.008483	0.002874	-0.000069
 716	3.5750e-01	11.4318	0.179754	0.000000	0.004443	0.001505	-0.000036
 717	3.5800e-01	11.3612	0.179489	0.000001	0.006463	0.002190	-0.000053
 718	3.5850e-01	11.3291	0.179580	-0.000000	-0.002222	-0.000753	0.000018
 719	3.5900e-01	11.3163	0.179514	0.000000	0.001616	0.000547	-0.000013
 720	3.5950e-01	11.2649	0.179250	0.000001	0.006463	0.002190	-0.000053
 721	3.6000e-01	11.2072	0.179035	0.000001	0.005251	0.001779	-0.000043
 722	3.6050e-01	11.1639	0.178845	0.000000	0.004645	0.001574	-0.000038
 723	3.6100e-01	11.1398	0.178927	-0.000000	-0.002020	-0.000684	0.000017
 724	3.6150e-01	11.0997	0.178613	0.000001	0.007675	0.002600	-0.000063
 725	3.6200e-01	11.0580	0.178473	0.000000	0.003434	0.001163	-0.000028
 726	3.6250e-01	11.0243	0.178159	0.000001	0.007675	0.002600	-0.000063
 727	3.6300e-01	10.9633	0.178192	-0.000000	-0.000808	-0.000274	0.000007
 728	3.6350e-01	10.9200	0.178060	0.000000	0.003232	0.001095	-0.000026
 729	3.6400e-01	10.9136	0.177729	0.000001	0.008079	0.002737	-0.000066
 730	3.6450e-01	10.8366	0.177440	0.000001	0.007069	0.002395	-0.000058
 731	3.6500e-01	10.8109	0.177465	-0.000000	-0.000606	-0.000205	0.000005
 732	3.6550e-01	10.7660	0.177432	0.000000	0.000808	0.000274	-0.000007
 733	3.6600e-01	10.7243	0.177110	0.000001	0.007877	0.002669	-0.000064
 734	3.6650e-01	10.7147	0.176920	0.000000	0.004645	0.001574	-0.000038
 735	3.6700e-01	10.6505	0.176977	-0.000000	-0.001414	-0.000479	0.000012
 736	3.6750e-01	10.5944	0.177002	-0.000000	-0.000606	-0.000205	0.000005
 737	3.6800e-01	10.5799	0.176746	0.000001	0.006261	0.002121	-0.000051
 738	3.6850e-01	10.5318	0.176597	0.000000	0.003636	0.001232	-0.000030
 739	3.6900e-01	10.4869	0.176515	0.000000	0.002020	0.000684	-0.000017
 740	3.6950e-01	10.4548	0.176548	-0.000000	-0.000808	-0.000274	0.000007
 741	3.7000e-01	10.4179	0.176259	0.000001	0.007069	0.002395	-0.000058
 742	3.7050e-01	10.3601	0.175969	0.000001	0.007069	0.002395	-0.000058
 743	3.7100e-01	10.3473	0.175796	0.000000	0.004241	0.001437	-0.000035
 744	3.7150e-01	10.3056	0.175779	0.000000	0.000404	0.000137	-0.000003
 745	3.7200e-01	10.2575	0.175556	0.000001	0.005453	0.001848	-0.000045
 746	3.7250e-01	10.2013	0.175176	0.000001	0.009291	0.003148	-0.000076
 747	3.7300e-01	10.1740	0.174953	0.000001	0.005453	0.001848	-0.000045
 748	3.7350e-01	10.1452	0.174953	-0.000000	-0.000000	-0.000000	0.000000
 749	3.7400e-01	10.1083	0.174895	0.000000	0.001414	0.000479	-0.000012
 750	3.7450e-01	10.0521	0.174705	0.000000	0.004645	0.001574	-0.000038
 751	3.7500e-01	10.0281	0.174548	0.000000	0.003838	0.001300	-0.000031
 752	3.7550e-01	9.9863	0.174424	0.000000	0.003030	0.001026	-0.000025
 753	3.7600e-01	9.9398	0.174449	-0.000000	-0.000606	-0.000205	0.000005
 754	3.7650e-01	9.8885	0.174251	0.000000	0.004847	0.001642	-0.000040
 755	3.7700e-01	9.8372	0.174011	0.000001	0.005857	0.001985	-0.000048
 756	3.7750e-01	9.8211	0.173970	0.000000	0.001010	0.000342	-0.000008
 757	3.7800e-01	9.7826	0.173879	0.000000	0.002222	0.000753	-0.000018
 758	3.7850e-01	9.7345	0.173631	0.000001	0.006059	0.002053	-0.000050
 759	3.7900e-01	9.6944	0.173391	0.000001	0.005857	0.001985	-0.000048
 760	3.7950e-01	9.6639	0.173367	0.000000	0.000606	0.000205	-0.000005
 761	3.8000e-01	9.6094	0.173267	0.000000	0.002424	0.000821	-0.000020
 762	3.8050e-01	9.5997	0.173144	0.000000	0.003030	0.001026	-0.000025
 763	3.8100e-01	9.5596	0.172813	0.000001	0.008079	0.002737	-0.000066
 764	3.8150e-01	9.4746	0.172606	0.000001	0.005049	0.001711	-0.000041
 765	3.8200e-01	9.4377	0.172557	0.000000	0.001212	0.000411	-0.000010
 766	3.8250e-01	9.4008	0.172400	0.000000	0.003838	0.001300	-0.000031
 767	3.8300e-01	9.3463	0.172276	0.000000	0.003030	0.001026	-0.000025
 768	3.8350e-01	9.3286	0.172061	0.000001	0.005251	0.001779	-0.000043
 769	3.8400e-01	9.2901	0.172036	0.000000	0.000606	0.000205	-0.000005
 770	3.8450e-01	9.2564	0.171871	0.000000	0.004040	0.001369	-0.000033
 771	3.8500e-01	9.2259	0.171714	0.000000	0.003838	0.001300	-0.000031
 772	3.8550e-01	9.1714	0.171483	0.000001	0.005655	0.001916	-0.000046
 773	3.8600e-01	9.1169	0.171359	0.000000	0.003030	0.001026	-0.000025
 774	3.8650e-01	9.0848	0.171375	-0.000000	-0.000404	-0.000137	0.000003
 775	3.8700e-01	9.0399	0.171061	0.000001	0.007675	0.002600	-0.000063
 776	3.8750e-01	9.0046	0.170896	0.000000	0.004040	0.001369	-0.000033
 777	3.8800e-01	8.9869	0.171194	-0.000001	-0.007271	-0.002464	0.000059
 778	3.8850e-01	8.9131	0.171326	-0.000000	-0.003232	-0.001095	0.000026
 779	3.8900e-01	8.8907	0.171441	-0.000000	-0.002828	-0.000958	0.000023
 780	3.8950e-01	8.8506	0.171400	0.000000	0.001010	0.000342	-0.000008
 781	3.9000e-01	8.8056	0.170599	0.000002	0.019592	0.006638	-0.000160
 782	3.9050e-01	8.7719	0.170004	0.000001	0.014542	0.004927	-0.000119
 783	3.9100e-01	8.7415	0.169574	0.000001	0.010503	0.003558	-0.000086
 784	3.9150e-01	8.6885	0.169285	0.000001	0.007069	0.002395	-0.000058
 785	3.9200e-01	8.6661	0.168888	0.000001	0.009695	0.003285	-0.000079
 786	3.9250e-01	8.5826	0.168426	0.000001	0.011311	0.003832	-0.000093
 787	3.9300e-01	8.5810	0.168178	0.000001	0.006059	0.002053	-0.000050
 788	3.9350e-01	8.5490	0.167913	0.000001	0.006463	0.002190	-0.000053
 789	3.9400e-01	8.5024	0.168145	-0.000001	-0.005655	-0.001916	0.000046
 790	3.9450e-01	8.4655	0.168723	-0.000001	-0.014138	-0.004790	0.000116
 791	3.9500e-01	8.4062	0.169210	-0.000001	-0.011917	-0.004037	0.000097
 792	3.9550e-01	8.3998	0.169037	0.000000	0.004241	0.001437	-0.000035
 793	3.9600e-01	8.3308	0.168806	0.000001	0.005655	0.001916	-0.000046
 794	3.9650e-01	8.2682	0.168475	0.000001	0.008079	0.002737	-0.000066
 795	3.9700e-01	8.2650	0.168260	0.000001	0.005251	0.001779	-0.000043
 796	3.9750e-01	8.2233	0.168169	0.000000	0.002222	0.000753	-0.000018
 797	3.9800e-01	8.1479	0.168401	-0.000001	-0.005655	-0.001916	0.000046
 798	3.9850e-01	8.1206	0.168244	0.000000	0.003838	0.001300	-0.000031
 799	3.9900e-01	8.0918	0.167649	0.000001	0.014542	0.004927	-0.000119
 800	3.9950e-01	8.0918	0.167203	0.000001	0.010907	0.003695	-0.000089
 801	4.0000e-01	8.0147	0.166938	0.000001	0.006463	0.002190	-0.000053
 802	4.0050e-01	7.9778	0.167128	-0.000000	-0.004645	-0.001574	0.000038
 803	4.0100e-01	7.9410	0.167401	-0.000001	-0.006665	-0.002258	0.000055
 804	4.0150e-01	7.9057	0.167343	0.000000	0.001414	0.000479	-0.000012
 805	4.0200e-01	7.8463	0.166963	0.000001	0.009291	0.003148	-0.000076
 806	4.0250e-01	7.8046	0.166525	0.000001	0.010705	0.003627	-0.000088
 807	4.0300e-01	7.7581	0.166376	0.000000	0.003636	0.001232	-0.000030
 808	4.0350e-01	7.7565	0.166674	-0.000001	-0.007271	-0.002464	0.000059
 809	4.0400e-01	7.6682	0.166376	0.000001	0.007271	0.002464	-0.000059
 810	4.0450e-01	7.6410	0.166153	0.000001	0.005453	0.001848	-0.000045
 811	4.0500e-01	7.6009	0.165806	0.000001	0.008483	0.002874	-0.000069
 812	4.0550e-01	7.5688	0.165732	0.000000	0.001818	0.000616	-0.000015
 813	4.0600e-01	7.5383	0.165658	0.000000	0.001818	0.000616	-0.000015
 814	4.0650e-01	7.4854	0.165459	0.000000	0.004847	0.001642	-0.000040
 815	4.0700e-01	7.4468	0.165112	0.000001	0.008483	0.002874	-0.000069
 816	4.0750e-01	7.4180	0.164856	0.000001	0.006261	0.002121	-0.000051
 817	4.0800e-01	7.3714	0.164765	0.000000	0.002222	0.000753	-0.000018
 818	4.0850e-01	7.3249	0.164641	0.000000	0.003030	0.001026	-0.000025
 819	4.0900e-01	7.3185	0.164443	0.000000	0.004847	0.001642	-0.000040
 820	4.0950e-01	7.2864	0.164294	0.000000	0.003636	0.001232	-0.000030
 821	4.1000e-01	7.2158	0.164195	0.000000	0.002424	0.000821	-0.000020
 822	4.1050e-01	7.1886	0.164162	0.000000	0.000808	0.000274	-0.000007
 823	4.1100e-01	7.1308	0.163848	0.000001	0.007675	0.002600	-0.000063
 824	4.1150e-01	7.1212	0.163815	0.000000	0.000808	0.000274	-0.000007
 825	4.1200e-01	7.0378	0.163774	0.000000	0.001010	0.000342	-0.000008
 826	4.1250e-01	7.0265	0.163691	0.000000	0.002020	0.000684	-0.000017
 827	4.1300e-01	6.9800	0.163402	0.000001	0.007069	0.002395	-0.000058
 828	4.1350e-01	6.8998	0.163369	0.000000	0.000808	0.000274	-0.000007
 829	4.1400e-01	6.8902	0.163286	0.000000	0.002020	0.000684	-0.000017
 830	4.1450e-01	6.8725	0.163088	0.000000	0.004847	0.001642	-0.000040
 831	4.1500e-01	6.7811	0.162890	0.000000	0.004847	0.001642	-0.000040
 832	4.1550e-01	6.7875	0.162708	-0.000000	-0.004443	-0.001505	-0.000036
 833	4.1600e-01	6.7298	0.162749	-0.000000	-0.001010	-0.000342	0.000008
 834	4.1650e-01	6.6913	0.162509	0.000001	0.005857	0.001985	-0.000048
 835	4.1700e-01	6.6255	0.162336	0.000000	0.004241	0.001437	-0.000035
 836	4.1750e-01	6.6239	0.162204	0.000000	0.003232	0.001095	-0.000026
 837	4.1800e-01	6.5741	0.162162	0.000000	0.001010	0.000342	-0.000008
 838	4.1850e-01	6.5244	0.162055	0.000000	0.002626	0.000890	-0.000021
 839	4.1900e-01	6.5116	0.162072	-0.000000	-0.000404	-0.000137	0.000003
 840	4.1950e-01	6.4987	0.161774	0.000001	0.007271	0.002464	-0.000059
 841	4.2000e-01	6.4041	0.161708	0.000000	0.001616	0.000547	-0.000013
 842	4.2050e-01	6.3576	0.161700	0.000000	0.000202	0.000068	-0.000002
 843	4.2100e-01	6.3111	0.161625	0.000000	0.001818	0.000616	-0.000015
 844	4.2150e-01	6.2693	0.161303	0.000001	0.007877	0.002669	-0.000064
 845	4.2200e-01	6.2677	0.161204	0.000000	0.002424	0.000821	-0.000020
 846	4.2250e-01	6.2068	0.161006	0.000000	0.004847	0.001642	-0.000040
 847	4.2300e-01	6.1731	0.160890	0.000000	0.002828	0.000958	-0.000023
 848	4.2350e-01	6.1362	0.160824	0.000000	0.001616	0.000547	-0.000013
 849	4.2400e-01	6.0881	0.160584	0.000001	0.005857	0.001985	-0.000048
 850	4.2450e-01	6.0592	0.160535	0.000000	0.001212	0.000411	-0.000010
 851	4.2500e-01	6.0014	0.160295	0.000001	0.005857	0.001985	-0.000048
 852	4.2550e-01	5.9806	0.160097	0.000000	0.004847	0.001642	-0.000040
 853	4.2600e-01	5.9549	0.159932	0.000000	0.004040	0.001369	-0.000033
 854	4.2650e-01	5.9084	0.159766	0.000000	0.004040	0.001369	-0.000033
 855	4.2700e-01	5.8474	0.159626	0.000000	0.003434	0.001163	-0.000028
 856	4.2750e-01	5.8362	0.159510	0.000000	0.002828	0.000958	-0.000023
 857	4.2800e-01	5.7656	0.159246	0.000001	0.006463	0.002190	-0.000053
 858	4.2850e-01	5.6982	0.159221	0.000000	0.000606	0.000205	-0.000005
 859	4.2900e-01	5.6822	0.159122	0.000000	0.002424	0.000821	-0.000020
 860	4.2950e-01	5.6325	0.158907	0.000001	0.005251	0.001779	-0.000043
 861	4.3000e-01	5.6228	0.158866	0.000000	0.001010	0.000342	-0.000008
 862	4.3050e-01	5.5763	0.158733	0.000000	0.003232	0.001095	-0.000026
 863	4.3100e-01	5.5378	0.158552	0.000000	0.004443	0.001505	-0.000036
 864	4.3150e-01	5.4929	0.158378	0.000000	0.004241	0.001437	-0.000035
 865	4.3200e-01	5.4528	0.158172	0.000001	0.005049	0.001711	-0.000041
 866	4.3250e-01	5.4416	0.158296	-0.000000	-0.003030	-0.001026	0.000025
 867	4.3300e-01	5.3613	0.158296	-0.000000	-0.000000	-0.000000	0.000000
 868	4.3350e-01	5.3501	0.158510	-0.000001	-0.005251	-0.001779	0.000043
 869	4.3400e-01	5.3020	0.158469	0.000000	0.001010	0.000342	-0.000008
 870	4.3450e-01	5.2442	0.157998	0.000001	0.011513	0.003901	-0.000094
 871	4.3500e-01	5.2266	0.157453	0.000001	0.013330	0.004516	-0.000109
 872	4.3550e-01	5.1688	0.156940	0.000001	0.012522	0.004243	-0.000102
 873	4.3600e-01	5.1223	0.156626	0.000001	0.007675	0.002600	-0.000063
 874	4.3650e-01	5.0678	0.156362	0.000001	0.006463	0.002190	-0.000053
 875	4.3700e-01	5.0116	0.156023	0.000001	0.008281	0.002806	-0.000068
 876	4.3750e-01	5.0261	0.155775	-0.000001	-0.006059	-0.002053	-0.000050
 877	4.3800e-01	4.9715	0.155404	0.000001	0.009089	0.003079	-0.000074
 878	4.3850e-01	4.9122	0.155635	-0.000001	-0.005655	-0.001916	0.000046
 879	4.3900e-01	4.9106	0.155610	0.000000	0.000606	0.000205	-0.000005
 880	4.3950e-01	4.8512	0.155726	-0.000000	-0.002828	-0.000958	0.000023
 881	4.4000e-01	4.7983	0.155618	0.000000	0.002626	0.000890	-0.000021
 882	4.4050e-01	4.7886	0.155263	0.000001	0.008685	0.002943	-0.000071
 883	4.4100e-01	4.7598	0.155024	0.000001	0.005857	0.001985	-0.000048
 884	4.4150e-01	4.6795	0.154957	0.000000	0.001616	0.000547	-0.000013
 885	4.4200e-01	4.6587	0.154817	0.000000	0.003434	0.001163	-0.000028
 886	4.4250e-01	4.6154	0.155073	-0.000001	-0.006261	-0.002121	0.000051
 887	4.4300e-01	4.5737	0.155338	-0.000001	-0.006463	-0.002190	0.000053
 888	4.4350e-01	4.5400	0.155015	0.000001	0.007877	0.002669	-0.000064
 889	4.4400e-01	4.4774	0.154710	0.000001	0.007473	0.002532	-0.000061
 890	4.4450e-01	4.4485	0.154329	0.000001	0.009291	0.003148	-0.000076
 891	4.4500e-01	4.4181	0.154115	0.000001	0.005251	0.001779	-0.000043
 892	4.4550e-01	4.3908	0.154082	0.000000	0.000808	0.000274	-0.000007
 893	4.4600e-01	4.3074	0.153751	0.000001	0.008079	0.002737	-0.000066
 894	4.4650e-01	4.2881	0.153586	0.000000	0.004040	0.001369	-0.000033
 895	4.4700e-01	4.2464	0.153388	0.000000	0.004847	0.001642	-0.000040
 896	4.4750e-01	4.1951	0.153396	-0.000000	-0.000202	-0.000068	0.000002
 897	4.4800e-01	4.1967	0.153578	0.000000	0.004443	0.001505	0.000036
 898	4.4850e-01	4.1469	0.153272	0.000001	0.007473	0.002532	-0.000061
 899	4.4900e-01	4.0699	0.152710	0.000001	0.013734	0.004653	-0.000112
 900	4.4950e-01	4.0571	0.152462	0.000001	0.006059	0.002053	-0.000050
 901	4.5000e-01	3.9833	0.152462	-0.000000	-0.000000	-0.000000	0.000000
 902	4.5050e-01	4.0058	0.152545	0.000000	0.002020	0.000684	0.000017
 903	4.5100e-01	3.9127	0.152165	0.000001	0.009291	0.003148	-0.000076
 904	4.5150e-01	3.8871	0.151694	0.000001	0.011513	0.003901	-0.000094
 905	4.5200e-01	3.8486	0.151562	0.000000	0.003232	0.001095	-0.000026
 906	4.5250e-01	3.8181	0.151644	-0.000000	-0.002020	-0.000684	0.000017
 907	4.5300e-01	3.8004	0.151586	0.000000	0.001414	0.000479	-0.000012
 908	4.5350e-01	3.7298	0.151272	0.000001	0.007675	0.002600	-0.000063
 909	4.5400e-01	3.6994	0.150958	0.000001	0.007675	0.002600	-0.000063
 910	4.5450e-01	3.6496	0.150843	0.000000	0.002828	0.000958	-0.000023
 911	4.5500e-01	3.6352	0.150884	-0.000000	-0.001010	-0.000342	0.000008
 912	4.5550e-01	3.5823	0.150644	0.000001	0.005857	0.001985	-0.000048
 913	4.5600e-01	3.5277	0.150355	0.000001	0.007069	0.002395	-0.000058
 914	4.5650e-01	3.5085	0.150206	0.000000	0.003636	0.001232	-0.000030
 915	4.5700e-01	3.4443	0.149950	0.000001	0.006261	0.002121	-0.000051
 916	4.5750e-01	3.4202	0.149835	0.000000	0.002828	0.000958	-0.000023
 917	4.5800e-01	3.3609	0.149455	0.000001	0.009291	0.003148	-0.000076
 918	4.5850e-01	3.3143	0.149298	0.000000	0.003838	0.001300	-0.000031
 919	4.5900e-01	3.2807	0.149165	0.000000	0.003232	0.001095	-0.000026
 920	4.5950e-01	3.2646	0.148951	0.000001	0.005251	0.001779	-0.000043
 921	4.6000e-01	3.2213	0.148810	0.000000	0.003434	0.001163	-0.000028
 922	4.6050e-01	3.1619	0.148554	0.000001	0.006261	0.002121	-0.000051
 923	4.6100e-01	3.1250	0.148504	0.000000	0.001212	0.000411	-0.000010
 924	4.6150e-01	3.1042	0.148298	0.000001	0.005049	0.001711	-0.000041
 925	4.6200e-01	3.0320	0.148083	0.000001	0.005251	0.001779	-0.000043
 926	4.6250e-01	3.0127	0.147976	0.000000	0.002626	0.000890	-0.000021
 927	4.6300e-01	2.9406	0.147852	0.000000	0.003030	0.001026	-0.000025
 928	4.6350e-01	2.9149	0.147810	0.000000	0.001010	0.000342	-0.000008
 929	4.6400e-01	2.9021	0.147529	0.000001	0.006867	0.002327	-0.000056
 930	4.6450e-01	2.8251	0.147405	0.000000	0.003030	0.001026	-0.000025
 931	4.6500e-01	2.8106	0.147232	0.000000	0.004241	0.001437	-0.000035
 932	4.6550e-01	2.7753	0.147133	0.000000	0.002424	0.000821	-0.000020
 933	4.6600e-01	2.7288	0.146951	0.000000	0.004443	0.001505	-0.000036
 934	4.6650e-01	2.6919	0.146521	0.000001	0.010503	0.003558	-0.000086
 935	4.6700e-01	2.6935	0.146422	-0.000000	-0.002424	-0.000821	-0.000020
 936	4.6750e-01	2.6406	0.146265	0.000000	0.003838	0.001300	-0.000031
 937	4.6800e-01	2.5588	0.145968	0.000001	0.007271	0.002464	-0.000059
 938	4.6850e-01	2.5299	0.145794	0.000000	0.004241	0.001437	-0.000035
 939	4.6900e-01	2.4962	0.145712	0.000000	0.002020	0.000684	-0.000017
 940	4.6950e-01	2.4449	0.145612	0.000000	0.002424	0.000821	-0.000020
 941	4.7000e-01	2.4384	0.145389	0.000001	0.005453	0.001848	-0.000045
 942	4.7050e-01	2.3967	0.145125	0.000001	0.006463	0.002190	-0.000053
 943	4.7100e-01	2.3310	0.144968	0.000000	0.003838	0.001300	-0.000031
 944	4.7150e-01	2.2876	0.144786	0.000000	0.004443	0.001505	-0.000036
 945	4.7200e-01	2.2363	0.144613	0.000000	0.004241	0.001437	-0.000035
 946	4.7250e-01	2.2074	0.144456	0.000000	0.003838	0.001300	-0.000031
 947	4.7300e-01	2.1529	0.144158	0.000001	0.007271	0.002464	-0.000059
 948	4.7350e-01	2.1208	0.144034	0.000000	0.003030	0.001026	-0.000025
 949	4.7400e-01	2.0807	0.143869	0.000000	0.004040	0.001369	-0.000033
 950	4.7450e-01	2.0310	0.143596	0.000001	0.006665	0.002258	-0.000055
 951	4.7500e-01	2.0101	0.143373	0.000001	0.005453	0.001848	-0.000045
 952	4.7550e-01	1.9684	0.143092	0.000001	0.006867	0.002327	-0.000056
 953	4.7600e-01	1.9491	0.142861	0.000001	0.005655	0.001916	-0.000046
 954	4.7650e-01	1.8914	0.142745	0.000000	0.002828	0.000958	-0.000023
 955	4.7700e-01	1.8352	0.142654	0.000000	0.002222	0.000753	-0.000018
 956	4.7750e-01	1.8096	0.142729	-0.000000	-0.001818	-0.000616	0.000015
 957	4.7800e-01	1.7631	0.142811	-0.000000	-0.002020	-0.000684	0.000017
 958	4.7850e-01	1.7614	0.142886	-0.000000	-0.001818	-0.000616	0.000015
 959	4.7900e-01	1.6973	0.142522	0.000001	0.008887	0.003011	-0.000073
 960	4.7950e-01	1.6363	0.141845	0.000002	0.016562	0.005611	-0.000136
 961	4.8000e-01	1.6395	0.141225	-0.000002	-0.015148	-0.005132	-0.000124
 962	4.8050e-01	1.6155	0.140771	0.000001	0.011109	0.003764	-0.000091
 963	4.8100e-01	1.5160	0.140506	0.000001	0.006463	0.002190	-0.000053
 964	4.8150e-01	1.5144	0.140076	0.000001	0.010503	0.003558	-0.000086
 965	4.8200e-01	1.4663	0.139705	0.000001	0.009089	0.003079	-0.000074
 966	4.8250e-01	1.3508	0.139407	0.000001	0.007271	0.002464	-0.000059
 967	4.8300e-01	1.3508	0.139225	0.000000	0.004443	0.001505	-0.000036
 968	4.8350e-01	1.3203	0.139374	-0.000000	-0.003636	-0.001232	0.000030
 969	4.8400e-01	1.2882	0.139605	-0.000001	-0.005655	-0.001916	0.000046
 970	4.8450e-01	1.2609	0.139680	-0.000000	-0.001818	-0.000616	0.000015
 971	4.8500e-01	1.1823	0.139134	0.000001	0.013330	0.004516	-0.000109
 972	4.8550e-01	1.1534	0.138424	0.000002	0.017370	0.005885	-0.000142
 973	4.8600e-01	1.1037	0.137945	0.000001	0.011715	0.003969	-0.000096
 974	4.8650e-01	1.0909	0.137565	0.000001	0.009291	0.003148	-0.000076
 975	4.8700e-01	1.0155	0.137697	-0.000000	-0.003232	-0.001095	0.000026
 976	4.8750e-01	1.0203	0.138003	0.000001	0.007473	0.002532	0.000061
 977	4.8800e-01	0.9674	0.137870	0.000000	0.003232	0.001095	-0.000026
 978	4.8850e-01	0.9240	0.137532	0.000001	0.008281	0.002806	-0.000068
 979	4.8900e-01	0.8871	0.137176	0.000001	0.008685	0.002943	-0.000071
 980	4.8950e-01	0.8502	0.137011	0.000000	0.004040	0.001369	-0.000033
 981	4.9000e-01	0.8133	0.137003	0.000000	0.000202	0.000068	-0.000002
 982	4.9050e-01	0.7636	0.136937	0.000000	0.001616	0.000547	-0.000013
 983	4.9100e-01	0.7492	0.136573	0.000001	0.008887	0.003011	-0.000073
 984	4.9150e-01	0.7043	0.135912	0.000002	0.016158	0.005474	-0.000132
 985	4.9200e-01	0.6417	0.135392	0.000001	0.012724	0.004311	-0.000104
 986	4.9250e-01	0.6000	0.135235	0.000000	0.003838	0.001300	-0.000031
 987	4.9300e-01	0.5711	0.135350	-0.000000	-0.002828	-0.000958	0.000023
 988	4.9350e-01	0.5085	0.134995	0.000001	0.008685	0.002943	-0.000071
 989	4.9400e-01	0.4957	0.134722	0.000001	0.006665	0.002258	-0.000055
 990	4.9450e-01	0.4203	0.134532	0.000000	0.004645	0.001574	-0.000038
 991	4.9500e-01	0.3962	0.134408	0.000000	0.003030	0.001026	-0.000025
 992	4.9550e-01	0.3866	0.134036	0.000001	0.009089	0.003079	-0.000074
 993	4.9600e-01	0.3385	0.133772	0.000001	0.006463	0.002190	-0.000053
 994	4.9650e-01	0.2519	0.133466	0.000001	0.007473	0.002532	-0.000061
 995	4.9700e-01	0.2551	0.133491	0.000000	0.000606	0.000205	0.000005
 996	4.9750e-01	0.2310	0.133417	0.000000	0.001818	0.000616	-0.000015
 997	4.9800e-01	0.1572	0.132904	0.000001	0.012522	0.004243	-0.000102
 998	4.9850e-01	0.1267	0.132549	0.000001	0.008685	0.002943	-0.000071
 999	4.9900e-01	0.0882	0.132500	0.000000	0.001212	0.000411	-0.000010
1000	4.9950e-01	0.0401	0.132318	0.000000	0.004443	0.001505	-0.000036
1001	5.0000e-01	0.0289	0.132012	0.000001	0.007473	0.002532	-0.000061
1002	5.0050e-01	-0.0433	0.131632	0.000001	0.009291	0.003148	-0.000076
1003	5.0100e-01	-0.0802	0.131409	0.000001	0.005453	0.001848	-0.000045
1004	5.0150e-01	-0.1043	0.131351	0.000000	0.001414	0.000479	-0.000012
1005	5.0200e-01	-0.1476	0.131252	0.000000	0.002424	0.000821	-0.000020
1006	5.0250e-01	-0.1508	0.130798	0.000001	0.011109	0.003764	-0.000091
1007	5.0300e-01	-0.1925	0.130459	0.000001	0.008281	0.002806	-0.000068
1008	5.0350e-01	-0.2471	0.130475	-0.000000	-0.000404	-0.000137	0.000003
1009	5.0400e-01	-0.3208	0.130327	0.000000	0.003636	0.001232	-0.000030
1010	5.0450e-01	-0.3577	0.129872	0.000001	0.011109	0.003764	-0.000091
1011	5.0500e-01	-0.3882	0.129525	0.000001	0.008483	0.002874	-0.000069
1012	5.0550e-01	-0.4636	0.129343	0.000000	0.004443	0.001505	-0.000036
1013	5.0600e-01	-0.4684	0.129269	0.000000	0.001818	0.000616	-0.000015
1014	5.0650e-01	-0.5021	0.128980	0.000001	0.007069	0.002395	-0.000058
1015	5.0700e-01	-0.5454	0.128525	0.000001	0.011109	0.003764	-0.000091
1016	5.0750e-01	-0.5727	0.128368	0.000000	0.003838	0.001300	-0.000031
1017	5.0800e-01	-0.6128	0.128187	0.000000	0.004443	0.001505	-0.000036
1018	5.0850e-01	-0.6625	0.128005	0.000000	0.004443	0.001505	-0.000036
1019	5.0900e-01	-0.7043	0.127525	0.000001	0.011715	0.003969	-0.000096
1020	5.0950e-01	-0.7652	0.127269	0.000001	0.006261	0.002121	-0.000051
1021	5.1000e-01	-0.7877	0.127129	0.000000	0.003434	0.001163	-0.000028
1022	5.1050e-01	-0.8214	0.126831	0.000001	0.007271	0.002464	-0.000059
1023	5.1100e-01	-0.8502	0.126493	0.000001	0.008281	0.002806	-0.000068
1024	5.1150e-01	-0.8984	0.126220	0.000001	0.006665	0.002258	-0.000055
1025	5.1200e-01	-0.9641	0.126055	0.000000	0.004040	0.001369	-0.000033
1026	5.1250e-01	-1.0187	0.125774	0.000001	0.006867	0.002327	-0.000056
1027	5.1300e-01	-1.0267	0.125452	0.000001	0.007877	0.002669	-0.000064
1028	5.1350e-01	-1.0588	0.125055	0.000001	0.009695	0.003285	-0.000079
1029	5.1400e-01	-1.1294	0.124931	0.000000	0.003030	0.001026	-0.000025
1030	5.1450e-01	-1.1534	0.124774	0.000000	0.003838	0.001300	-0.000031
1031	5.1500e-01	-1.1727	0.124468	0.000001	0.007473	0.002532	-0.000061
1032	5.1550e-01	-1.2385	0.124146	0.000001	0.007877	0.002669	-0.000064
1033	5.1600e-01	-1.2465	0.123964	0.000000	0.004443	0.001505	-0.000036
1034	5.1650e-01	-1.3026	0.123741	0.000001	0.005453	0.001848	-0.000045
1035	5.1700e-01	-1.3556	0.123526	0.000001	0.005251	0.001779	-0.000043
1036	5.1750e-01	-1.3828	0.123113	0.000001	0.010099	0.003422	-0.000083
1037	5.1800e-01	-1.4262	0.122874	0.000001	0.005857	0.001985	-0.000048
1038	5.1850e-01	-1.4663	0.122725	0.000000	0.003636	0.001232	-0.000030
1039	5.1900e-01	-1.5080	0.122403	0.000001	0.007877	0.002669	-0.000064
1040	5.1950e-01	-1.5385	0.121998	0.000001	0.009897	0.003353	-0.000081
1041	5.2000e-01	-1.6106	0.121709	0.000001	0.007069	0.002395	-0.000058
1042	5.2050e-01	-1.6267	0.121527	0.000000	0.004443	0.001505	-0.000036
1043	5.2100e-01	-1.6684	0.121345	0.000000	0.004443	0.001505	-0.000036
1044	5.2150e-01	-1.7021	0.121064	0.000001	0.006867	0.002327	-0.000056
1045	5.2200e-01	-1.7422	0.121039	0.000000	0.000606	0.000205	-0.000005
1046	5.2250e-01	-1.7935	0.121196	-0.000000	-0.003838	-0.001300	0.000031
1047	5.2300e-01	-1.7999	0.121138	0.000000	0.001414	0.000479	-0.000012
1048	5.2350e-01	-1.8705	0.121155	-0.000000	-0.000404	-0.000137	0.000003
1049	5.2400e-01	-1.9363	0.120593	0.000001	0.013734	0.004653	-0.000112
1050	5.2450e-01	-1.9507	0.119808	0.000002	0.019188	0.006501	-0.000157
1051	5.2500e-01	-1.9909	0.119279	0.000001	0.012926	0.004380	-0.000106
1052	5.2550e-01	-2.0310	0.118833	0.000001	0.010907	0.003695	-0.000089
1053	5.2600e-01	-2.0470	0.118437	0.000001	0.009695	0.003285	-0.000079
1054	5.2650e-01	-2.1128	0.118057	0.000001	0.009291	0.003148	-0.000076
1055	5.2700e-01	-2.1224	0.117652	0.000001	0.009897	0.003353	-0.000081
1056	5.2750e-01	-2.1946	0.117346	0.000001	0.007473	0.002532	-0.000061
1057	5.2800e-01	-2.2556	0.117313	0.000000	0.000808	0.000274	-0.000007
1058	5.2850e-01	-2.2700	0.117470	-0.000000	-0.003838	-0.001300	0.000031
1059	5.2900e-01	-2.2876	0.117668	-0.000000	-0.004847	-0.001642	0.000040
1060	5.2950e-01	-2.3470	0.117511	0.000000	0.003838	0.001300	-0.000031
1061	5.3000e-01	-2.3582	0.117048	0.000001	0.011311	0.003832	-0.000093
1062	5.3050e-01	-2.4336	0.116544	0.000001	0.012320	0.004174	-0.000101
1063	5.3100e-01	-2.4834	0.116098	0.000001	0.010907	0.003695	-0.000089
1064	5.3150e-01	-2.4946	0.115809	0.000001	0.007069	0.002395	-0.000058
1065	5.3200e-01	-2.5555	0.115660	0.000000	0.003636	0.001232	-0.000030
1066	5.3250e-01	-2.6053	0.115636	0.000000	0.000606	0.000205	-0.000005
1067	5.3300e-01	-2.6422	0.115132	0.000001	0.012320	0.004174	-0.000101
1068	5.3350e-01	-2.6598	0.114908	0.000001	0.005453	0.001848	-0.000045
1069	5.3400e-01	-2.7256	0.114727	0.000000	0.004443	0.001505	-0.000036
1070	5.3450e-01	-2.7400	0.114743	-0.000000	-0.000404	-0.000137	0.000003
1071	5.3500e-01	-2.7882	0.114950	-0.000001	-0.005049	-0.001711	0.000041
1072	5.3550e-01	-2.8090	0.114760	0.000000	0.004645	0.001574	-0.000038
1073	5.3600e-01	-2.8860	0.114437	0.000001	0.007877	0.002669	-0.000064
1074	5.3650e-01	-2.9085	0.114041	0.000001	0.009695	0.003285	-0.000079
1075	5.3700e-01	-2.9422	0.113950	0.000000	0.002222	0.000753	-0.000018
1076	5.3750e-01	-3.0144	0.113760	0.000000	0.004645	0.001574	-0.000038
1077	5.3800e-01	-3.0288	0.113372	0.000001	0.009493	0.003216	-0.000078
1078	5.3850e-01	-3.0561	0.112620	0.000002	0.018380	0.006227	-0.000150
1079	5.3900e-01	-3.0962	0.112339	0.000001	0.006867	0.002327	-0.000056
1080	5.3950e-01	-3.1202	0.112471	-0.000000	-0.003232	-0.001095	0.000026
1081	5.4000e-01	-3.1844	0.112512	-0.000000	-0.001010	-0.000342	0.000008
1082	5.4050e-01	-3.2101	0.112198	0.000001	0.007675	0.002600	-0.000063
1083	5.4100e-01	-3.2774	0.111719	0.000001	0.011715	0.003969	-0.000096
1084	5.4150e-01	-3.3192	0.111331	0.000001	0.009493	0.003216	-0.000078
1085	5.4200e-01	-3.3577	0.111281	0.000000	0.001212	0.000411	-0.000010
1086	5.4250e-01	-3.3946	0.111083	0.000000	0.004847	0.001642	-0.000040
1087	5.4300e-01	-3.4154	0.110810	0.000001	0.006665	0.002258	-0.000055
1088	5.4350e-01	-3.4700	0.110628	0.000000	0.004443	0.001505	-0.000036
1089	5.4400e-01	-3.4876	0.110529	0.000000	0.002424	0.000821	-0.000020
1090	5.4450e-01	-3.5534	0.110141	0.000001	0.009493	0.003216	-0.000078
1091	5.4500e-01	-3.5758	0.109769	0.000001	0.009089	0.003079	-0.000074
1092	5.4550e-01	-3.6240	0.109571	0.000000	0.004847	0.001642	-0.000040
1093	5.4600e-01	-3.6657	0.109397	0.000000	0.004241	0.001437	-0.000035
1094	5.4650e-01	-3.6994	0.109067	0.000001	0.008079	0.002737	-0.000066
1095	5.4700e-01	-3.7571	0.108621	0.000001	0.010907	0.003695	-0.000089
1096	5.4750e-01	-3.7716	0.108373	0.000001	0.006059	0.002053	-0.000050
1097	5.4800e-01	-3.8470	0.108290	0.000000	0.002020	0.000684	-0.000017
1098	5.4850e-01	-3.8662	0.108100	0.000000	0.004645	0.001574	-0.000038
1099	5.4900e-01	-3.9095	0.107836	0.000001	0.006463	0.002190	-0.000053
1100	5.4950e-01	-3.9512	0.107497	0.000001	0.008281	0.002806	-0.000068
1101	5.5000e-01	-4.0154	0.107290	0.000001	0.005049	0.001711	-0.000041
1102	5.5050e-01	-4.0218	0.107249	0.000000	0.001010	0.000342	-0.000008
1103	5.5100e-01	-4.0731	0.106985	0.000001	0.006463	0.002190	-0.000053
1104	5.5150e-01	-4.1566	0.106563	0.000001	0.010301	0.003490	-0.000084
1105	5.5200e-01	-4.1421	0.106348	-0.000001	-0.005251	-0.001779	-0.000043
1106	5.5250e-01	-4.1903	0.106233	0.000000	0.002828	0.000958	-0.000023
1107	5.5300e-01	-4.2448	0.105902	0.000001	0.008079	0.002737	-0.000066
1108	5.5350e-01	-4.2785	0.105473	0.000001	0.010503	0.003558	-0.000086
1109	5.5400e-01	-4.2785	0.105192	0.000001	0.006867	0.002327	-0.000056
1110	5.5450e-01	-4.3523	0.105117	0.000000	0.001818	0.000616	-0.000015
1111	5.5500e-01	-4.4020	0.104803	0.000001	0.007675	0.002600	-0.000063
1112	5.5550e-01	-4.4116	0.104506	0.000001	0.007271	0.002464	-0.000059
1113	5.5600e-01	-4.4806	0.104060	0.000001	0.010907	0.003695	-0.000089
1114	5.5650e-01	-4.5159	0.103927	0.000000	0.003232	0.001095	-0.000026
1115	5.5700e-01	-4.5640	0.103746	0.000000	0.004443	0.001505	-0.000036
1116	5.5750e-01	-4.5929	0.103481	0.000001	0.006463	0.002190	-0.000053
1117	5.5800e-01	-4.6378	0.103266	0.000001	0.005251	0.001779	-0.000043
1118	5.5850e-01	-4.6619	0.103052	0.000001	0.005251	0.001779	-0.000043
1119	5.5900e-01	-4.7116	0.102952	0.000000	0.002424	0.000821	-0.000020
1120	5.5950e-01	-4.7485	0.102713	0.000001	0.005857	0.001985	-0.000048
1121	5.6000e-01	-4.7694	0.102234	0.000001	0.011715	0.003969	-0.000096
1122	5.6050e-01	-4.8207	0.102118	0.000000	0.002828	0.000958	-0.000023
1123	5.6100e-01	-4.8721	0.101994	0.000000	0.003030	0.001026	-0.000025
1124	5.6150e-01	-4.9202	0.101738	0.000001	0.006261	0.002121	-0.000051
1125	5.6200e-01	-4.9458	0.101424	0.000001	0.007675	0.002600	-0.000063
1126	5.6250e-01	-5.0148	0.101217	0.000001	0.005049	0.001711	-0.000041
1127	5.6300e-01	-5.0501	0.101159	0.000000	0.001414	0.000479	-0.000012
1128	5.6350e-01	-5.0598	0.100821	0.000001	0.008281	0.002806	-0.000068
1129	5.6400e-01	-5.1384	0.100350	0.000001	0.011513	0.003901	-0.000094
1130	5.6450e-01	-5.1624	0.100052	0.000001	0.007271	0.002464	-0.000059
1131	5.6500e-01	-5.1769	0.099937	0.000000	0.002828	0.000958	-0.000023
1132	5.6550e-01	-5.2442	0.099581	0.000001	0.008685	0.002943	-0.000071
1133	5.6600e-01	-5.2635	0.099218	0.000001	0.008887	0.003011	-0.000073
1134	5.6650e-01	-5.3020	0.099086	0.000000	0.003232	0.001095	-0.000026
1135	5.6700e-01	-5.3325	0.099119	-0.000000	-0.000808	-0.000274	0.000007
1136	5.6750e-01	-5.3726	0.099251	-0.000000	-0.003232	-0.001095	0.000026
1137	5.6800e-01	-5.4335	0.099110	0.000000	0.003434	0.001163	-0.000028
1138	5.6850e-01	-5.4752	0.098821	0.000001	0.007069	0.002395	-0.000058
1139	5.6900e-01	-5.4897	0.098102	0.000002	0.017572	0.005954	-0.000144
1140	5.6950e-01	-5.5298	0.097507	0.000001	0.014542	0.004927	-0.000119
1141	5.7000e-01	-5.6052	0.097012	0.000001	0.012119	0.004106	-0.000099
1142	5.7050e-01	-5.6357	0.096326	0.000002	0.016764	0.005680	-0.000137
1143	5.7100e-01	-5.6629	0.095987	0.000001	0.008281	0.002806	-0.000068
1144	5.7150e-01	-5.7159	0.095524	0.000001	0.011311	0.003832	-0.000093
1145	5.7200e-01	-5.7849	0.095227	0.000001	0.007271	0.002464	-0.000059
1146	5.7250e-01	-5.7881	0.094921	0.000001	0.007473	0.002532	-0.000061
1147	5.7300e-01	-5.7977	0.095037	-0.000000	-0.002828	-0.000958	0.000023
1148	5.7350e-01	-5.8426	0.095227	-0.000000	-0.004645	-0.001574	0.000038
1149	5.7400e-01	-5.9068	0.095359	-0.000000	-0.003232	-0.001095	0.000026
1150	5.7450e-01	-5.9437	0.094913	0.000001	0.010907	0.003695	-0.000089
1151	5.7500e-01	-5.9982	0.094450	0.000001	0.011311	0.003832	-0.000093
1152	5.7550e-01	-6.0062	0.093946	0.000001	0.012320	0.004174	-0.000101
1153	5.7600e-01	-6.0191	0.093715	0.000001	0.005655	0.001916	-0.000046
1154	5.7650e-01	-6.0913	0.093591	0.000000	0.003030	0.001026	-0.000025
1155	5.7700e-01	-6.1426	0.093814	-0.000001	-0.005453	-0.001848	0.000045
1156	5.7750e-01	-6.2052	0.093541	0.000001	0.006665	0.002258	-0.000055
1157	5.7800e-01	-6.2340	0.092831	0.000002	0.017370	0.005885	-0.000142
1158	5.7850e-01	-6.2806	0.092310	0.000001	0.012724	0.004311	-0.000104
1159	5.7900e-01	-6.2918	0.091905	0.000001	0.009897	0.003353	-0.000081
1160	5.7950e-01	-6.3367	0.091971	-0.000000	-0.001616	-0.000547	0.000013
1161	5.8000e-01	-6.3865	0.092170	-0.000000	-0.004847	-0.001642	0.000040
1162	5.8050e-01	-6.4041	0.091914	0.000001	0.006261	0.002121	-0.000051
1163	5.8100e-01	-6.4602	0.091550	0.000001	0.008887	0.003011	-0.000073
1164	5.8150e-01	-6.5116	0.091261	0.000001	0.007069	0.002395	-0.000058
1165	5.8200e-01	-6.5437	0.091236	0.000000	0.000606	0.000205	-0.000005
1166	5.8250e-01	-6.6014	0.091178	0.000000	0.001414	0.000479	-0.000012
1167	5.8300e-01	-6.6223	0.090823	0.000001	0.008685	0.002943	-0.000071
1168	5.8350e-01	-6.6608	0.090393	0.000001	0.010503	0.003558	-0.000086
1169	5.8400e-01	-6.7025	0.090013	0.000001	0.009291	0.003148	-0.000076
1170	5.8450e-01	-6.7041	0.089650	0.000001	0.008887	0.003011	-0.000073
1171	5.8500e-01	-6.7650	0.089352	0.000001	0.007271	0.002464	-0.000059
1172	5.8550e-01	-6.8244	0.088964	0.000001	0.009493	0.003216	-0.000078
1173	5.8600e-01	-6.8773	0.088666	0.000001	0.007271	0.002464	-0.000059
1174	5.8650e-01	-6.8773	0.088741	-0.000000	-0.001818	-0.000616	0.000015
1175	5.8700e-01	-6.9592	0.088534	0.000001	0.005049	0.001711	-0.000041
1176	5.8750e-01	-6.9961	0.088129	0.000001	0.009897	0.003353	-0.000081
1177	5.8800e-01	-7.0153	0.087576	0.000001	0.013532	0.004585	-0.000111
1178	5.8850e-01	-7.0426	0.087394	0.000000	0.004443	0.001505	-0.000036
1179	5.8900e-01	-7.1164	0.087460	-0.000000	-0.001616	-0.000547	0.000013
1180	5.8950e-01	-7.1469	0.087237	0.000001	0.005453	0.001848	-0.000045
1181	5.9000e-01	-7.1613	0.086716	0.000001	0.012724	0.004311	-0.000104
1182	5.9050e-01	-7.2207	0.086328	0.000001	0.009493	0.003216	-0.000078
1183	5.9100e-01	-7.2608	0.086113	0.000001	0.005251	0.001779	-0.000043
1184	5.9150e-01	-7.3153	0.085923	0.000000	0.004645	0.001574	-0.000038
1185	5.9200e-01	-7.3586	0.085576	0.000001	0.008483	0.002874	-0.000069
1186	5.9250e-01	-7.3875	0.085262	0.000001	0.007675	0.002600	-0.000063
1187	5.9300e-01	-7.4148	0.084981	0.000001	0.006867	0.002327	-0.000056
1188	5.9350e-01	-7.4645	0.084659	0.000001	0.007877	0.002669	-0.000064
1189	5.9400e-01	-7.5271	0.084320	0.000001	0.008281	0.002806	-0.000068
1190	5.9450e-01	-7.5591	0.084031	0.000001	0.007069	0.002395	-0.000058
1191	5.9500e-01	-7.5912	0.083973	0.000000	0.001414	0.000479	-0.000012
1192	5.9550e-01	-7.6458	0.083552	0.000001	0.010301	0.003490	-0.000084
1193	5.9600e-01	-7.6506	0.083106	0.000001	0.010907	0.003695	-0.000089
1194	5.9650e-01	-7.7019	0.082932	0.000000	0.004241	0.001437	-0.000035
1195	5.9700e-01	-7.7164	0.082692	0.000001	0.005857	0.001985	-0.000048
1196	5.9750e-01	-7.7725	0.082420	0.000001	0.006665	0.002258	-0.000055
1197	5.9800e-01	-7.7934	0.081982	0.000001	0.010705	0.003627	-0.000088
1198	5.9850e-01	-7.8367	0.081660	0.000001	0.007877	0.002669	-0.000064
1199	5.9900e-01	-7.8880	0.081560	0.000000	0.002424	0.000821	-0.000020
1200	5.9950e-01	-7.9522	0.081222	0.000001	0.008281	0.002806	-0.000068
1201	6.0000e-01	-7.9843	0.080916	0.000001	0.007473	0.002532	-0.000061
1202	6.0050e-01	-8.0244	0.080536	0.000001	0.009291	0.003148	-0.000076
1203	6.0100e-01	-8.0581	0.080362	0.000000	0.004241	0.001437	-0.000035
1204	6.0150e-01	-8.0966	0.079933	0.000001	0.010503	0.003558	-0.000086
1205	6.0200e-01	-8.1543	0.079586	0.000001	0.008483	0.002874	-0.000069
1206	6.0250e-01	-8.1992	0.079305	0.000001	0.006867	0.002327	-0.000056
1207	6.0300e-01	-8.2329	0.078966	0.000001	0.008281	0.002806	-0.000068
1208	6.0350e-01	-8.2730	0.078801	0.000000	0.004040	0.001369	-0.000033
1209	6.0400e-01	-8.3019	0.078363	0.000001	0.010705	0.003627	-0.000088
1210	6.0450e-01	-8.3115	0.077999	0.000001	0.008887	0.003011	-0.000073
1211	6.0500e-01	-8.3821	0.077776	0.000001	0.005453	0.001848	-0.000045
1212	6.0550e-01	-8.3982	0.077570	0.000001	0.005049	0.001711	-0.000041
1213	6.0600e-01	-8.4816	0.077231	0.000001	0.008281	0.002806	-0.000068
1214	6.0650e-01	-8.5089	0.076785	0.000001	0.010907	0.003695	-0.000089
1215	6.0700e-01	-8.5393	0.076570	0.000001	0.005251	0.001779	-0.000043
1216	6.0750e-01	-8.5474	0.076388	0.000000	0.004443	0.001505	-0.000036
1217	6.0800e-01	-8.6468	0.076058	0.000001	0.008079	0.002737	-0.000066
1218	6.0850e-01	-8.6725	0.075628	0.000001	0.010503	0.003558	-0.000086
1219	6.0900e-01	-8.7479	0.075223	0.000001	0.009897	0.003353	-0.000081
1220	6.0950e-01	-8.7784	0.075074	0.000000	0.003636	0.001232	-0.000030
1221	6.1000e-01	-8.7960	0.074917	0.000000	0.003838	0.001300	-0.000031
1222	6.1050e-01	-8.8329	0.075016	-0.000000	-0.002424	-0.000821	0.000020
1223	6.1100e-01	-8.8457	0.075016	-0.000000	-0.000000	-0.000000	0.000000
1224	6.1150e-01	-8.8778	0.074810	0.000001	0.005049	0.001711	-0.000041
1225	6.1200e-01	-8.9773	0.074050	0.000002	0.018582	0.006296	-0.000152
1226	6.1250e-01	-8.9885	0.073207	0.000002	0.020601	0.006980	-0.000169
1227	6.1300e-01	-9.0238	0.072604	0.000001	0.014744	0.004995	-0.000121
1228	6.1350e-01	-9.0431	0.072116	0.000001	0.011917	0.004037	-0.000097
1229	6.1400e-01	-9.0687	0.071654	0.000001	0.011311	0.003832	-0.000093
1230	6.1450e-01	-9.1730	0.071216	0.000001	0.010705	0.003627	-0.000088
1231	6.1500e-01	-9.2051	0.070794	0.000001	0.010301	0.003490	-0.000084
1232	6.1550e-01	-9.2404	0.070472	0.000001	0.007877	0.002669	-0.000064
1233	6.1600e-01	-9.2580	0.070546	-0.000000	-0.001818	-0.000616	0.000015
1234	6.1650e-01	-9.3062	0.070703	-0.000000	-0.003838	-0.001300	0.000031
1235	6.1700e-01	-9.3366	0.070703	-0.000000	-0.000000	-0.000000	0.000000
1236	6.1750e-01	-9.3767	0.070348	0.000001	0.008685	0.002943	-0.000071
1237	6.1800e-01	-9.3880	0.069885	0.000001	0.011311	0.003832	-0.000093
1238	6.1850e-01	-9.4730	0.069208	0.000002	0.016562	0.005611	-0.000136
1239	6.1900e-01	-9.5115	0.068919	0.000001	0.007069	0.002395	-0.000058
1240	6.1950e-01	-9.5340	0.068539	0.000001	0.009291	0.003148	-0.000076
1241	6.2000e-01	-9.5692	0.068737	-0.000000	-0.004847	-0.001642	0.000040
1242	6.2050e-01	-9.6110	0.068605	0.000000	0.003232	0.001095	-0.000026
1243	6.2100e-01	-9.6687	0.067960	0.000002	0.015754	0.005338	-0.000129
1244	6.2150e-01	-9.7233	0.067382	0.000001	0.014138	0.004790	-0.000116
1245	6.2200e-01	-9.7537	0.067018	0.000001	0.008887	0.003011	-0.000073
1246	6.2250e-01	-9.7602	0.066977	0.000000	0.001010	0.000342	-0.000008
1247	6.2300e-01	-9.8179	0.066828	0.000000	0.003636	0.001232	-0.000030
1248	6.2350e-01	-9.8676	0.066489	0.000001	0.008281	0.002806	-0.000068
1249	6.2400e-01	-9.9270	0.065820	0.000002	0.016360	0.005543	-0.000134
1250	6.2450e-01	-9.9623	0.065291	0.000001	0.012926	0.004380	-0.000106
1251	6.2500e-01	-9.9607	0.064928	-0.000001	-0.008887	-0.003011	-0.000073
1252	6.2550e-01	-10.0345	0.064886	0.000000	0.001010	0.000342	-0.000008
1253	6.2600e-01	-10.0634	0.064589	0.000001	0.007271	0.002464	-0.000059
1254	6.2650e-01	-10.1115	0.064333	0.000001	0.006261	0.002121	-0.000051
1255	6.2700e-01	-10.1580	0.064093	0.000001	0.005857	0.001985	-0.000048
1256	6.2750e-01	-10.1917	0.063994	0.000000	0.002424	0.000821	-0.000020
1257	6.2800e-01	-10.2125	0.063878	0.000000	0.002828	0.000958	-0.000023
1258	6.2850e-01	-10.2350	0.063490	0.000001	0.009493	0.003216	-0.000078
1259	6.2900e-01	-10.3184	0.063143	0.000001	0.008483	0.002874	-0.000069
1260	6.2950e-01	-10.3537	0.062837	0.000001	0.007473	0.002532	-0.000061
1261	6.3000e-01	-10.4083	0.062680	0.000000	0.003838	0.001300	-0.000031
1262	6.3050e-01	-10.4452	0.062118	0.000001	0.013734	0.004653	-0.000112
1263	6.3100e-01	-10.4612	0.061499	0.000002	0.015148	0.005132	-0.000124
1264	6.3150e-01	-10.5077	0.061251	0.000001	0.006059	0.002053	-0.000050
1265	6.3200e-01	-10.5270	0.061143	0.000000	0.002626	0.000890	-0.000021
1266	6.3250e-01	-10.5911	0.060937	0.000001	0.005049	0.001711	-0.000041
1267	6.3300e-01	-10.5976	0.060648	0.000001	0.007069	0.002395	-0.000058
1268	6.3350e-01	-10.6505	0.060416	0.000001	0.005655	0.001916	-0.000046
1269	6.3400e-01	-10.7002	0.060218	0.000000	0.004847	0.001642	-0.000040
1270	6.3450e-01	-10.7564	0.059805	0.000001	0.010099	0.003422	-0.000083
1271	6.3500e-01	-10.7965	0.059417	0.000001	0.009493	0.003216	-0.000078
1272	6.3550e-01	-10.8366	0.059037	0.000001	0.009291	0.003148	-0.000076
1273	6.3600e-01	-10.8655	0.058995	0.000000	0.001010	0.000342	-0.000008
1274	6.3650e-01	-10.9393	0.058557	0.000001	0.010705	0.003627	-0.000088
1275	6.3700e-01	-10.9345	0.058070	-0.000001	-0.011917	-0.004037	-0.000097
1276	6.3750e-01	-10.9858	0.057764	0.000001	0.007473	0.002532	-0.000061
1277	6.3800e-01	-11.0307	0.057483	0.000001	0.006867	0.002327	-0.000056
1278	6.3850e-01	-11.1045	0.057384	0.000000	0.002424	0.000821	-0.000020
1279	6.3900e-01	-11.1221	0.056963	0.000001	0.010301	0.003490	-0.000084
1280	6.3950e-01	-11.1623	0.056426	0.000001	0.013128	0.004448	-0.000107
1281	6.4000e-01	-11.2072	0.056145	0.000001	0.006867	0.002327	-0.000056
1282	6.4050e-01	-11.2328	0.056087	0.000000	0.001414	0.000479	-0.000012
1283	6.4100e-01	-11.2762	0.055748	0.000001	0.008281	0.002806	-0.000068
1284	6.4150e-01	-11.2986	0.055302	0.000001	0.010907	0.003695	-0.000089
1285	6.4200e-01	-11.3628	0.054913	0.000001	0.009493	0.003216	-0.000078
1286	6.4250e-01	-11.3836	0.054756	0.000000	0.003838	0.001300	-0.000031
1287	6.4300e-01	-11.4446	0.054608	0.000000	0.003636	0.001232	-0.000030
1288	6.4350e-01	-11.4590	0.054186	0.000001	0.010301	0.003490	-0.000084
1289	6.4400e-01	-11.4831	0.053682	0.000001	0.012320	0.004174	-0.000101
1290	6.4450e-01	-11.5569	0.053311	0.000001	0.009089	0.003079	-0.000074
1291	6.4500e-01	-11.6114	0.053253	0.000000	0.001414	0.000479	-0.000012
1292	6.4550e-01	-11.6371	0.052765	0.000001	0.011917	0.004037	-0.000097
1293	6.4600e-01	-11.6644	0.052253	0.000001	0.012522	0.004243	-0.000102
1294	6.4650e-01	-11.6916	0.051988	0.000001	0.006463	0.002190	-0.000053
1295	6.4700e-01	-11.7382	0.051675	0.000001	0.007675	0.002600	-0.000063
1296	6.4750e-01	-11.7959	0.051361	0.000001	0.007675	0.002600	-0.000063
1297	6.4800e-01	-11.8553	0.050939	0.000001	0.010301	0.003490	-0.000084
1298	6.4850e-01	-11.8553	0.050633	0.000001	0.007473	0.002532	-0.000061
1299	6.4900e-01	-11.9002	0.050410	0.000001	0.005453	0.001848	-0.000045
1300	6.4950e-01	-11.9563	0.050129	0.000001	0.006867	0.002327	-0.000056
1301	6.5000e-01	-12.0045	0.049824	0.000001	0.007473	0.002532	-0.000061
1302	6.5050e-01	-12.0125	0.049369	0.000001	0.011109	0.003764	-0.000091
1303	6.5100e-01	-12.0462	0.049204	0.000000	0.004040	0.001369	-0.000033
1304	6.5150e-01	-12.0959	0.048964	0.000001	0.005857	0.001985	-0.000048
1305	6.5200e-01	-12.1344	0.048650	0.000001	0.007675	0.002600	-0.000063
1306	6.5250e-01	-12.2291	0.048295	0.000001	0.008685	0.002943	-0.000071
1307	6.5300e-01	-12.2483	0.048122	0.000000	0.004241	0.001437	-0.000035
1308	6.5350e-01	-12.2836	0.048146	-0.000000	-0.000606	-0.000205	0.000005
1309	6.5400e-01	-12.2916	0.048204	-0.000000	-0.001414	-0.000479	0.000012
1310	6.5450e-01	-12.3767	0.048014	0.000000	0.004645	0.001574	-0.000038
1311	6.5500e-01	-12.3927	0.047477	0.000001	0.013128	0.004448	-0.000107
1312	6.5550e-01	-12.4456	0.046692	0.000002	0.019188	0.006501	-0.000157
1313	6.5600e-01	-12.4793	0.045866	0.000002	0.020198	0.006843	-0.000165
1314	6.5650e-01	-12.5323	0.045461	0.000001	0.009897	0.003353	-0.000081
1315	6.5700e-01	-12.5499	0.044891	0.000001	0.013936	0.004722	-0.000114
1316	6.5750e-01	-12.5724	0.044486	0.000001	0.009897	0.003353	-0.000081
1317	6.5800e-01	-12.6381	0.043982	0.000001	0.012320	0.004174	-0.000101
1318	6.5850e-01	-12.6590	0.043602	0.000001	0.009291	0.003148	-0.000076
1319	6.5900e-01	-12.7119	0.043486	0.000000	0.002828	0.000958	-0.000023
1320	6.5950e-01	-12.7456	0.043701	-0.000001	-0.005251	-0.001779	0.000043
1321	6.6000e-01	-12.7938	0.043842	-0.000000	-0.003434	-0.001163	0.000028
1322	6.6050e-01	-12.8018	0.043668	0.000000	0.004241	0.001437	-0.000035
1323	6.6100e-01	-12.8836	0.043065	0.000001	0.014744	0.004995	-0.000121
1324	6.6150e-01	-12.8659	0.042577	-0.000001	-0.011917	-0.004037	-0.000097
1325	6.6200e-01	-12.9285	0.041999	0.000001	0.014138	0.004790	-0.000116
1326	6.6250e-01	-13.0296	0.041768	0.000001	0.005655	0.001916	-0.000046
1327	6.6300e-01	-13.0376	0.041627	0.000000	0.003434	0.001163	-0.000028
1328	6.6350e-01	-13.0697	0.041702	-0.000000	-0.001818	-0.000616	0.000015
1329	6.6400e-01	-13.0809	0.041297	0.000001	0.009897	0.003353	-0.000081
1330	6.6450e-01	-13.1258	0.040710	0.000001	0.014340	0.004859	-0.000117
1331	6.6500e-01	-13.1547	0.040140	0.000001	0.013936	0.004722	-0.000114
1332	6.6550e-01	-13.2285	0.039942	0.000000	0.004847	0.001642	-0.000040
1333	6.6600e-01	-13.2574	0.039909	0.000000	0.000808	0.000274	-0.000007
1334	6.6650e-01	-13.3007	0.039752	0.000000	0.003838	0.001300	-0.000031
1335	6.6700e-01	-13.3296	0.039231	0.000001	0.012724	0.004311	-0.000104
1336	6.6750e-01	-13.3873	0.038735	0.000001	0.012119	0.004106	-0.000099
1337	6.6800e-01	-13.4403	0.038421	0.000001	0.007675	0.002600	-0.000063
1338	6.6850e-01	-13.4820	0.038463	-0.000000	-0.001010	-0.000342	0.000008
1339	6.6900e-01	-13.5092	0.038132	0.000001	0.008079	0.002737	-0.000066
1340	6.6950e-01	-13.5542	0.037711	0.000001	0.010301	0.003490	-0.000084
1341	6.7000e-01	-13.6007	0.037372	0.000001	0.008281	0.002806	-0.000068
1342	6.7050e-01	-13.6296	0.036934	0.000001	0.010705	0.003627	-0.000088
1343	6.7100e-01	-13.6697	0.036703	0.000001	0.005655	0.001916	-0.000046
1344	6.7150e-01	-13.7483	0.036099	0.000001	0.014744	0.004995	-0.000121
1345	6.7200e-01	-13.7274	0.035538	-0.000001	-0.013734	-0.004653	-0.000112
1346	6.7250e-01	-13.7675	0.035513	0.000000	0.000606	0.000205	-0.000005
1347	6.7300e-01	-13.8301	0.035579	-0.000000	-0.001616	-0.000547	0.000013
1348	6.7350e-01	-13.8702	0.035513	0.000000	0.001616	0.000547	-0.000013
1349	6.7400e-01	-13.9103	0.035017	0.000001	0.012119	0.004106	-0.000099
1350	6.7450e-01	-13.9231	0.034653	0.000001	0.008887	0.003011	-0.000073
1351	6.7500e-01	-14.0001	0.034637	0.000000	0.000404	0.000137	-0.000003
1352	6.7550e-01	-14.0210	0.034505	0.000000	0.003232	0.001095	-0.000026
1353	6.7600e-01	-14.0659	0.034149	0.000001	0.008685	0.002943	-0.000071
1354	6.7650e-01	-14.1060	0.033637	0.000001	0.012522	0.004243	-0.000102
1355	6.7700e-01	-14.1285	0.033282	0.000001	0.008685	0.002943	-0.000071
1356	6.7750e-01	-14.1734	0.032910	0.000001	0.009089	0.003079	-0.000074
1357	6.7800e-01	-14.2328	0.032604	0.000001	0.007473	0.002532	-0.000061
1358	6.7850e-01	-14.2713	0.032216	0.000001	0.009493	0.003216	-0.000078
1359	6.7900e-01	-14.2889	0.031919	0.000001	0.007271	0.002464	-0.000059
1360	6.7950e-01	-14.3563	0.031844	0.000000	0.001818	0.000616	-0.000015
1361	6.8000e-01	-14.4028	0.031662	0.000000	0.004443	0.001505	-0.000036
1362	6.8050e-01	-14.4204	0.030993	0.000002	0.016360	0.005543	-0.000134
1363	6.8100e-01	-14.4942	0.030514	0.000001	0.011715	0.003969	-0.000096
1364	6.8150e-01	-14.5263	0.030423	0.000000	0.002222	0.000753	-0.000018
1365	6.8200e-01	-14.5616	0.030324	0.000000	0.002424	0.000821	-0.000020
1366	6.8250e-01	-14.5520	0.029787	-0.000001	-0.013128	-0.004448	-0.000107
1367	6.8300e-01	-14.6595	0.029522	0.000001	0.006463	0.002190	-0.000053
1368	6.8350e-01	-14.6803	0.029250	0.000001	0.006665	0.002258	-0.000055
1369	6.8400e-01	-14.7060	0.029002	0.000001	0.006059	0.002053	-0.000050
1370	6.8450e-01	-14.7285	0.028704	0.000001	0.007271	0.002464	-0.000059
1371	6.8500e-01	-14.7798	0.028390	0.000001	0.007675	0.002600	-0.000063
1372	6.8550e-01	-14.8247	0.028209	0.000000	0.004443	0.001505	-0.000036
1373	6.8600e-01	-14.8472	0.027820	0.000001	0.009493	0.003216	-0.000078
1374	6.8650e-01	-14.8905	0.027564	0.000001	0.006261	0.002121	-0.000051
1375	6.8700e-01	-14.9643	0.027341	0.000001	0.005453	0.001848	-0.000045
1376	6.8750e-01	-14.9595	0.027316	-0.000000	-0.000606	-0.000205	-0.000005
1377	6.8800e-01	-15.0236	0.026895	0.000001	0.010301	0.003490	-0.000084
1378	6.8850e-01	-15.0686	0.026440	0.000001	0.011109	0.003764	-0.000091
1379	6.8900e-01	-15.0637	0.026193	-0.000001	-0.006059	-0.002053	-0.000050
1380	6.8950e-01	-15.1231	0.025961	0.000001	0.005655	0.001916	-0.000046
1381	6.9000e-01	-15.1793	0.025763	0.000000	0.004847	0.001642	-0.000040
1382	6.9050e-01	-15.2402	0.025416	0.000001	0.008483	0.002874	-0.000069
1383	6.9100e-01	-15.2546	0.025094	0.000001	0.007877	0.002669	-0.000064
1384	6.9150e-01	-15.3188	0.025011	0.000000	0.002020	0.000684	-0.000017
1385	6.9200e-01	-15.3156	0.024755	-0.000001	-0.006261	-0.002121	-0.000051
1386	6.9250e-01	-15.3846	0.024457	0.000001	0.007271	0.002464	-0.000059
1387	6.9300e-01	-15.4135	0.024193	0.000001	0.006463	0.002190	-0.000053
1388	6.9350e-01	-15.4584	0.023887	0.000001	0.007473	0.002532	-0.000061
1389	6.9400e-01	-15.5306	0.023788	0.000000	0.002424	0.000821	-0.000020
1390	6.9450e-01	-15.5370	0.023499	0.000001	0.007069	0.002395	-0.000058
1391	6.9500e-01	-15.5819	0.023152	0.000001	0.008483	0.002874	-0.000069
1392	6.9550e-01	-15.6124	0.022929	0.000001	0.005453	0.001848	-0.000045
1393	6.9600e-01	-15.6958	0.022706	0.000001	0.005453	0.001848	-0.000045
1394	6.9650e-01	-15.6910	0.022640	-0.000000	-0.001616	-0.000547	-0.000013
1395	6.9700e-01	-15.7103	0.022714	-0.000000	-0.001818	-0.000616	0.000015
1396	6.9750e-01	-15.7552	0.022929	-0.000001	-0.005251	-0.001779	0.000043
1397	6.9800e-01	-15.8001	0.022706	0.000001	0.005453	0.001848	-0.000045
1398	6.9850e-01	-15.8498	0.022028	0.000002	0.016562	0.005611	-0.000136
1399	6.9900e-01	-15.9124	0.021177	0.000002	0.020803	0.007048	-0.000170
1400	6.9950e-01	-15.9364	0.020574	0.000001	0.014744	0.004995	-0.000121
1401	7.0000e-01	-15.9846	0.020219	0.000001	0.008685	0.002943	-0.000071
1402	7.0050e-01	-16.0503	0.019789	0.000001	0.010503	0.003558	-0.000086
1403	7.0100e-01	-16.0616	0.019376	0.000001	0.010099	0.003422	-0.000083
1404	7.0150e-01	-16.1225	0.019078	0.000001	0.007271	0.002464	-0.000059
1405	7.0200e-01	-16.0921	0.018764	-0.000001	-0.007675	-0.002600	-0.000063
1406	7.0250e-01	-16.1899	0.018971	-0.000001	-0.005049	-0.001711	0.000041
1407	7.0300e-01	-16.1883	0.019194	0.000001	0.005453	0.001848	0.000045
1408	7.0350e-01	-16.2765	0.019326	-0.000000	-0.003232	-0.001095	0.000026
1409	7.0400e-01	-16.3150	0.018996	0.000001	0.008079	0.002737	-0.000066
1410	7.0450e-01	-16.3584	0.018467	0.000001	0.012926	0.004380	-0.000106
1411	7.0500e-01	-16.3937	0.018004	0.000001	0.011311	0.003832	-0.000093
1412	7.0550e-01	-16.4257	0.017542	0.000001	0.011311	0.003832	-0.000093
1413	7.0600e-01	-16.4707	0.017467	0.000000	0.001818	0.000616	-0.000015
1414	7.0650e-01	-16.5108	0.017657	-0.000000	-0.004645	-0.001574	0.000038
1415	7.0700e-01	-16.5525	0.017434	0.000001	0.005453	0.001848	-0.000045
1416	7.0750e-01	-16.5589	0.016947	0.000001	0.011917	0.004037	-0.000097
1417	7.0800e-01	-16.6423	0.016476	0.000001	0.011513	0.003901	-0.000094
1418	7.0850e-01	-16.7001	0.016203	0.000001	0.006665	0.002258	-0.000055
1419	7.0900e-01	-16.7321	0.016253	-0.000000	-0.001212	-0.000411	0.000010
1420	7.0950e-01	-16.7514	0.016153	0.000000	0.002424	0.000821	-0.000020
1421	7.1000e-01	-16.7771	0.015765	0.000001	0.009493	0.003216	-0.000078
1422	7.1050e-01	-16.8412	0.015335	0.000001	0.010503	0.003558	-0.000086
1423	7.1100e-01	-16.8653	0.014914	0.000001	0.010301	0.003490	-0.000084
1424	7.1150e-01	-16.9279	0.014881	0.000000	0.000808	0.000274	-0.000007
1425	7.1200e-01	-16.9327	0.014864	0.000000	0.000404	0.000137	-0.000003
1426	7.1250e-01	-16.9535	0.014493	0.000001	0.009089	0.003079	-0.000074
1427	7.1300e-01	-17.0177	0.014030	0.000001	0.011311	0.003832	-0.000093
1428	7.1350e-01	-17.0594	0.013683	0.000001	0.008483	0.002874	-0.000069
1429	7.1400e-01	-17.1091	0.013675	0.000000	0.000202	0.000068	-0.000002
1430	7.1450e-01	-17.1348	0.013319	0.000001	0.008685	0.002943	-0.000071
1431	7.1500e-01	-17.1813	0.012964	0.000001	0.008685	0.002943	-0.000071
1432	7.1550e-01	-17.2455	0.012625	0.000001	0.008281	0.002806	-0.000068
1433	7.1600e-01	-17.2648	0.012477	0.000000	0.003636	0.001232	-0.000030
1434	7.1650e-01	-17.3177	0.012353	0.000000	0.003030	0.001026	-0.000025
1435	7.1700e-01	-17.3594	0.011725	0.000002	0.015350	0.005201	-0.000126
1436	7.1750e-01	-17.3819	0.011204	0.000001	0.012724	0.004311	-0.000104
1437	7.1800e-01	-17.4364	0.010849	0.000001	0.008685	0.002943	-0.000071
1438	7.1850e-01	-17.4813	0.010791	0.000000	0.001414	0.000479	-0.000012
1439	7.1900e-01	-17.5118	0.010659	0.000000	0.003232	0.001095	-0.000026
1440	7.1950e-01	-17.5535	0.010477	0.000000	0.004443	0.001505	-0.000036
1441	7.2000e-01	-17.5840	0.010345	0.000000	0.003232	0.001095	-0.000026
1442	7.2050e-01	-17.6161	0.010320	0.000000	0.000606	0.000205	-0.000005
1443	7.2100e-01	-17.6931	0.010147	0.000000	0.004241	0.001437	-0.000035
1444	7.2150e-01	-17.7204	0.009849	0.000001	0.007271	0.002464	-0.000059
1445	7.2200e-01	-17.7380	0.009452	0.000001	0.009695	0.003285	-0.000079
1446	7.2250e-01	-17.7829	0.009353	0.000000	0.002424	0.000821	-0.000020
1447	7.2300e-01	-17.8262	0.009031	0.000001	0.007877	0.002669	-0.000064
1448	7.2350e-01	-17.8712	0.008329	0.000002	0.017168	0.005817	-0.000140
1449	7.2400e-01	-17.9145	0.007916	0.000001	0.010099	0.003422	-0.000083
1450	7.2450e-01	-17.9514	0.007618	0.000001	0.007271	0.002464	-0.000059
1451	7.2500e-01	-17.9834	0.007461	0.000000	0.003838	0.001300	-0.000031
1452	7.2550e-01	-18.0300	0.007296	0.000000	0.004040	0.001369	-0.000033
1453	7.2600e-01	-18.0845	0.007023	0.000001	0.006665	0.002258	-0.000055
1454	7.2650e-01	-18.1214	0.006908	0.000000	0.002828	0.000958	-0.000023
1455	7.2700e-01	-18.1599	0.006561	0.000001	0.008483	0.002874	-0.000069
1456	7.2750e-01	-18.1936	0.006156	0.000001	0.009897	0.003353	-0.000081
1457	7.2800e-01	-18.1888	0.005982	-0.000000	-0.004241	-0.001437	-0.000035
1458	7.2850e-01	-18.2449	0.005850	0.000000	0.003232	0.001095	-0.000026
1459	7.2900e-01	-18.2947	0.005668	0.000000	0.004443	0.001505	-0.000036
1460	7.2950e-01	-18.3348	0.005453	0.000001	0.005251	0.001779	-0.000043
1461	7.3000e-01	-18.4230	0.004999	0.000001	0.011109	0.003764	-0.000091
1462	7.3050e-01	-18.4182	0.004726	-0.000001	-0.006665	-0.002258	-0.000055
1463	7.3100e-01	-18.4647	0.004660	0.000000	0.001616	0.000547	-0.000013
1464	7.3150e-01	-18.5177	0.004321	0.000001	0.008281	0.002806	-0.000068
1465	7.3200e-01	-18.5337	0.003966	0.000001	0.008685	0.002943	-0.000071
1466	7.3250e-01	-18.5898	0.003669	0.000001	0.007271	0.002464	-0.000059
1467	7.3300e-01	-18.6492	0.003487	0.000000	0.004443	0.001505	-0.000036
1468	7.3350e-01	-18.6813	0.003305	0.000000	0.004443	0.001505	-0.000036
1469	7.3400e-01	-18.6941	0.003032	0.000001	0.006665	0.002258	-0.000055
1470	7.3450e-01	-18.7647	0.002702	0.000001	0.008079	0.002737	-0.000066
1471	7.3500e-01	-18.8096	0.002363	0.000001	0.008281	0.002806	-0.000068
1472	7.3550e-01	-18.8225	0.002173	0.000000	0.004645	0.001574	-0.000038
1473	7.3600e-01	-18.8626	0.001925	0.000001	0.006059	0.002053	-0.000050
1474	7.3650e-01	-18.8866	0.001743	0.000000	0.004443	0.001505	-0.000036
1475	7.3700e-01	-18.9460	0.001380	0.000001	0.008887	0.003011	-0.000073
1476	7.3750e-01	-18.9749	0.001248	0.000000	0.003232	0.001095	-0.000026
1477	7.3800e-01	-19.0374	0.001016	0.000001	0.005655	0.001916	-0.000046
1478	7.3850e-01	-19.0727	0.000669	0.000001	0.008483	0.002874	-0.000069
1479	7.3900e-01	-19.1064	0.000388	0.000001	0.006867	0.002327	-0.000056
1480	7.3950e-01	-19.1626	0.000124	0.000001	0.006463	0.002190	-0.000053
1481	7.4000e-01	-19.1946	0.000240	-0.000000	-0.002828	-0.000958	0.000023
1482	7.4050e-01	-19.2123	0.000124	0.000000	0.002828	0.000958	-0.000023
1483	7.4100e-01	-19.2765	0.000140	-0.000000	-0.000404	-0.000137	0.000003
1484	7.4150e-01	-19.3342	-0.000347	0.000001	0.011917	0.004037	-0.000097
1485	7.4200e-01	-19.2781	-0.000950	-0.000001	-0.014744	-0.004995	-0.000121
1486	7.4250e-01	-19.3968	-0.001644	0.000002	0.016966	0.005748	-0.000139
1487	7.4300e-01	-19.4321	-0.002115	0.000001	0.011513	0.003901	-0.000094
1488	7.4350e-01	-19.4786	-0.002545	0.000001	0.010503	0.003558	-0.000086
1489	7.4400e-01	-19.5107	-0.002884	0.000001	0.008281	0.002806	-0.000068
1490	7.4450e-01	-19.5315	-0.003239	0.000001	0.008685	0.002943	-0.000071
1491	7.4500e-01	-19.6021	-0.003669	0.000001	0.010503	0.003558	-0.000086
1492	7.4550e-01	-19.6278	-0.003900	0.000001	0.005655	0.001916	-0.000046
1493	7.4600e-01	-19.6823	-0.003669	-0.000001	-0.005655	-0.001916	0.000046
1494	7.4650e-01	-19.6952	-0.003330	-0.000001	-0.008281	-0.002806	0.000068
1495	7.4700e-01	-19.7433	-0.003412	0.000000	0.002020	0.000684	-0.000017
1496	7.4750e-01	-19.8010	-0.003966	0.000001	0.013532	0.004585	-0.000111
1497	7.4800e-01	-19.8107	-0.004544	0.000001	0.014138	0.004790	-0.000116
1498	7.4850e-01	-19.8363	-0.005024	0.000001	0.011715	0.003969	-0.000096
1499	7.4900e-01	-19.8941	-0.005462	0.000001	0.010705	0.003627	-0.000088
1500	7.4950e-01	-19.9454	-0.005552	0.000000	0.002222	0.000753	-0.000018
1501	7.5000e-01	-20.0000	-0.005371	-0.000000	-0.004443	-0.001505	0.000036
1502	7.5050e-01	-19.9278	-0.005668	-0.000001	-0.007271	-0.002464	-0.000059
1503	7.5100e-01	-19.9101	-0.006040	-0.000001	-0.009089	-0.003079	-0.000074
1504	7.5150e-01	-19.8203	-0.006519	-0.000001	-0.011715	-0.003969	-0.000096
1505	7.5200e-01	-19.7882	-0.006643	-0.000000	-0.003030	-0.001026	-0.000025
1506	7.5250e-01	-19.7577	-0.006437	0.000001	0.005049	0.001711	0.000041
1507	7.5300e-01	-19.7273	-0.006230	0.000001	0.005049	0.001711	0.000041
1508	7.5350e-01	-19.6839	-0.006354	-0.000000	-0.003030	-0.001026	-0.000025
1509	7.5400e-01	-19.6053	-0.006585	-0.000001	-0.005655	-0.001916	-0.000046
1510	7.5450e-01	-19.5652	-0.006651	-0.000000	-0.001616	-0.000547	-0.000013
1511	7.5500e-01	-19.5765	-0.006354	-0.000001	-0.007271	-0.002464	0.000059
1512	7.5550e-01	-19.5187	-0.006329	0.000000	0.000606	0.000205	0.000005
1513	7.5600e-01	-19.4706	-0.006536	-0.000001	-0.005049	-0.001711	-0.000041
1514	7.5650e-01	-19.4626	-0.006684	-0.000000	-0.003636	-0.001232	-0.000030
1515	7.5700e-01	-19.4112	-0.006445	0.000001	0.005857	0.001985	0.000048
1516	7.5750e-01	-19.3615	-0.006337	0.000000	0.002626	0.000890	0.000021
1517	7.5800e-01	-19.2877	-0.006511	-0.000000	-0.004241	-0.001437	-0.000035
1518	7.5850e-01	-19.3118	-0.006660	0.000000	0.003636	0.001232	-0.000030
1519	7.5900e-01	-19.2219	-0.006627	0.000000	0.000808	0.000274	0.000007
1520	7.5950e-01	-19.1979	-0.006321	0.000001	0.007473	0.002532	0.000061
1521	7.6000e-01	-19.1802	-0.006172	0.000000	0.003636	0.001232	0.000030
1522	7.6050e-01	-19.1321	-0.006214	-0.000000	-0.001010	-0.000342	-0.000008
1523	7.6100e-01	-19.0856	-0.006255	-0.000000	-0.001010	-0.000342	-0.000008
1524	7.6150e-01	-19.0551	-0.006048	0.000001	0.005049	0.001711	0.000041
1525	7.6200e-01	-19.0118	-0.005966	0.000000	0.002020	0.000684	0.000017
1526	7.6250e-01	-18.9556	-0.005900	0.000000	0.001616	0.000547	0.000013
1527	7.6300e-01	-18.8963	-0.006040	-0.000000	-0.003434	-0.001163	-0.000028
1528	7.6350e-01	-18.8690	-0.005941	0.000000	0.002424	0.000821	0.000020
1529	7.6400e-01	-18.8545	-0.005949	-0.000000	-0.000202	-0.000068	-0.000002
1530	7.6450e-01	-18.8096	-0.006156	-0.000001	-0.005049	-0.001711	-0.000041
1531	7.6500e-01	-18.7503	-0.006321	-0.000000	-0.004040	-0.001369	-0.000033
1532	7.6550e-01	-18.7054	-0.006156	0.000000	0.004040	0.001369	0.000033
1533	7.6600e-01	-18.6749	-0.005800	0.000001	0.008685	0.002943	0.000071
1534	7.6650e-01	-18.6396	-0.005627	0.000000	0.004241	0.001437	0.000035
1535	7.6700e-01	-18.6219	-0.005586	0.000000	0.001010	0.000342	0.000008
1536	7.6750e-01	-18.5818	-0.005420	0.000000	0.004040	0.001369	0.000033
1537	7.6800e-01	-18.5353	-0.005263	0.000000	0.003838	0.001300	0.000031
1538	7.6850e-01	-18.4792	-0.004949	0.000001	0.007675	0.002600	0.000063
1539	7.6900e-01	-18.4182	-0.004875	0.000000	0.001818	0.000616	0.000015
1540	7.6950e-01	-18.3685	-0.005073	-0.000000	-0.004847	-0.001642	-0.000040
1541	7.7000e-01	-18.3444	-0.005007	0.000000	0.001616	0.000547	0.000013
1542	7.7050e-01	-18.3011	-0.005098	-0.000000	-0.002222	-0.000753	-0.000018
1543	7.7100e-01	-18.2818	-0.005139	-0.000000	-0.001010	-0.000342	-0.000008
1544	7.7150e-01	-18.2241	-0.004958	0.000000	0.004443	0.001505	0.000036
1545	7.7200e-01	-18.1856	-0.004627	0.000001	0.008079	0.002737	0.000066
1546	7.7250e-01	-18.1663	-0.004470	0.000000	0.003838	0.001300	0.000031
1547	7.7300e-01	-18.1182	-0.004487	-0.000000	-0.000404	-0.000137	-0.000003
1548	7.7350e-01	-18.0460	-0.004635	-0.000000	-0.003636	-0.001232	-0.000030
1549	7.7400e-01	-18.0524	-0.004586	-0.000000	-0.001212	-0.000411	0.000010
1550	7.7450e-01	-18.0123	-0.004379	0.000001	0.005049	0.001711	0.000041
1551	7.7500e-01	-17.9385	-0.004387	-0.000000	-0.000202	-0.000068	-0.000002
1552	7.7550e-01	-17.9321	-0.004181	0.000001	0.005049	0.001711	0.000041
1553	7.7600e-01	-17.8840	-0.004016	0.000000	0.004040	0.001369	0.000033
1554	7.7650e-01	-17.8423	-0.003999	0.000000	0.000404	0.000137	0.000003
1555	7.7700e-01	-17.7717	-0.003892	0.000000	0.002626	0.000890	0.000021
1556	7.7750e-01	-17.7300	-0.003718	0.000000	0.004241	0.001437	0.000035
1557	7.7800e-01	-17.7171	-0.003553	0.000000	0.004040	0.001369	0.000033
1558	7.7850e-01	-17.6995	-0.003388	0.000000	0.004040	0.001369	0.000033
1559	7.7900e-01	-17.6225	-0.003346	0.000000	0.001010	0.000342	0.000008
1560	7.7950e-01	-17.6097	-0.003239	0.000000	0.002626	0.000890	0.000021
1561	7.8000e-01	-17.5423	-0.003090	0.000000	0.003636	0.001232	0.000030
1562	7.8050e-01	-17.5022	-0.002917	0.000000	0.004241	0.001437	0.000035
1563	7.8100e-01	-17.4829	-0.002917	0.000000	0.000000	0.000000	0.000000
1564	7.8150e-01	-17.4444	-0.003123	-0.000001	-0.005049	-0.001711	-0.000041
1565	7.8200e-01	-17.4043	-0.002983	0.000000	0.003434	0.001163	0.000028
1566	7.8250e-01	-17.3738	-0.002818	0.000000	0.004040	0.001369	0.000033
1567	7.8300e-01	-17.3305	-0.002545	0.000001	0.006665	0.002258	0.000055
1568	7.8350e-01	-17.3081	-0.002214	0.000001	0.008079	0.002737	0.000066
1569	7.8400e-01	-17.2696	-0.001843	0.000001	0.009089	0.003079	0.000074
1570	7.8450e-01	-17.1974	-0.001487	0.000001	0.008685	0.002943	0.000071
1571	7.8500e-01	-17.1557	-0.001727	-0.000001	-0.005857	-0.001985	-0.000048
1572	7.8550e-01	-17.1460	-0.002074	-0.000001	-0.008483	-0.002874	-0.000069
1573	7.8600e-01	-17.0626	-0.002322	-0.000001	-0.006059	-0.002053	-0.000050
1574	7.8650e-01	-17.0498	-0.002429	-0.000000	-0.002626	-0.000890	-0.000021
1575	7.8700e-01	-17.0081	-0.002446	-0.000000	-0.000404	-0.000137	-0.000003
1576	7.8750e-01	-16.9503	-0.002561	-0.000000	-0.002828	-0.000958	-0.000023
1577	7.8800e-01	-16.9214	-0.002512	0.000000	0.001212	0.000411	0.000010
1578	7.8850e-01	-16.8685	-0.002504	0.000000	0.000202	0.000068	0.000002
1579	7.8900e-01	-16.7883	-0.002057	0.000001	0.010907	0.003695	0.000089
1580	7.8950e-01	-16.7787	-0.001512	0.000001	0.013330	0.004516	0.000109
1581	7.9000e-01	-16.7305	-0.001091	0.000001	0.010301	0.003490	0.000084
1582	7.9050e-01	-16.7145	-0.000876	0.000001	0.005251	0.001779	0.000043
1583	7.9100e-01	-16.6551	-0.000901	-0.000000	-0.000606	-0.000205	-0.000005
1584	7.9150e-01	-16.6327	-0.001091	-0.000000	-0.004645	-0.001574	-0.000038
1585	7.9200e-01	-16.6231	-0.001182	-0.000000	-0.002222	-0.000753	-0.000018
1586	7.9250e-01	-16.5428	-0.001008	0.000000	0.004241	0.001437	0.000035
1587	7.9300e-01	-16.5396	-0.000578	0.000001	0.010503	0.003558	0.000086
1588	7.9350e-01	-16.4642	-0.000165	0.000001	0.010099	0.003422	0.000083
1589	7.9400e-01	-16.4482	-0.000256	-0.000000	-0.002222	-0.000753	-0.000018
1590	7.9450e-01	-16.4193	-0.000413	-0.000000	-0.003838	-0.001300	-0.000031
1591	7.9500e-01	-16.3311	-0.000347	0.000000	0.001616	0.000547	0.000013
1592	7.9550e-01	-16.3086	-0.000083	0.000001	0.006463	0.002190	0.000053
1593	7.9600e-01	-16.2749	0.000281	0.000001	0.008887	0.003011	0.000073
1594	7.9650e-01	-16.2461	0.000281	0.000000	0.000000	0.000000	0.000000
1595	7.9700e-01	-16.2252	0.000231	-0.000000	-0.001212	-0.000411	-0.000010
1596	7.9750e-01	-16.1771	0.000165	-0.000000	-0.001616	-0.000547	-0.000013
1597	7.9800e-01	-16.1257	0.000421	0.000001	0.006261	0.002121	0.000051
1598	7.9850e-01	-16.0856	0.000818	0.000001	0.009695	0.003285	0.000079
1599	7.9900e-01	-16.0279	0.000917	0.000000	0.002424	0.000821	0.000020
1600	7.9950e-01	-15.9926	0.000992	0.000000	0.001818	0.000616	0.000015
1601	8.0000e-01	-15.9557	0.000983	-0.000000	-0.000202	-0.000068	-0.000002
1602	8.0050e-01	-15.9076	0.001223	0.000001	0.005857	0.001985	0.000048
1603	8.0100e-01	-15.8787	0.001462	0.000001	0.005857	0.001985	0.000048
1604	8.0150e-01	-15.8225	0.001363	-0.000000	-0.002424	-0.000821	-0.000020
1605	8.0200e-01	-15.8001	0.001330	-0.000000	-0.000808	-0.000274	-0.000007
1606	8.0250e-01	-15.7632	0.001545	0.000001	0.005251	0.001779	0.000043
1607	8.0300e-01	-15.7167	0.002000	0.000001	0.011109	0.003764	0.000091
1608	8.0350e-01	-15.6894	0.001975	-0.000000	-0.000606	-0.000205	-0.000005
1609	8.0400e-01	-15.6637	0.002024	0.000000	0.001212	0.000411	0.000010
1610	8.0450e-01	-15.5931	0.002090	0.000000	0.001616	0.000547	0.000013
1611	8.0500e-01	-15.5418	0.002380	0.000001	0.007069	0.002395	0.000058
1612	8.0550e-01	-15.5129	0.002685	0.000001	0.007473	0.002532	0.000061
1613	8.0600e-01	-15.4857	0.002611	-0.000000	-0.001818	-0.000616	-0.000015
1614	8.0650e-01	-15.4103	0.002776	0.000000	0.004040	0.001369	0.000033
1615	8.0700e-01	-15.3734	0.002925	0.000000	0.003636	0.001232	0.000030
1616	8.0750e-01	-15.3509	0.003165	0.000001	0.005857	0.001985	0.000048
1617	8.0800e-01	-15.3349	0.003239	0.000000	0.001818	0.000616	0.000015
1618	8.0850e-01	-15.2691	0.003247	0.000000	0.000202	0.000068	0.000002
1619	8.0900e-01	-15.2161	0.003429	0.000000	0.004443	0.001505	0.000036
1620	8.0950e-01	-15.1985	0.003718	0.000001	0.007069	0.002395	0.000058
1621	8.1000e-01	-15.1199	0.003603	-0.000000	-0.002828	-0.000958	-0.000023
1622	8.1050e-01	-15.1343	0.003553	0.000000	0.001212	0.000411	-0.000010
1623	8.1100e-01	-15.0381	0.003578	0.000000	0.000606	0.000205	0.000005
1624	8.1150e-01	-15.0108	0.003751	0.000000	0.004241	0.001437	0.000035
1625	8.1200e-01	-15.0140	0.003950	-0.000000	-0.004847	-0.001642	0.000040
1626	8.1250e-01	-14.9162	0.004272	0.000001	0.007877	0.002669	0.000064
1627	8.1300e-01	-14.9049	0.004619	0.000001	0.008483	0.002874	0.000069
1628	8.1350e-01	-14.8728	0.004933	0.000001	0.007675	0.002600	0.000063
1629	8.1400e-01	-14.8199	0.005189	0.000001	0.006261	0.002121	0.000051
1630	8.1450e-01	-14.8007	0.005305	0.000000	0.002828	0.000958	0.000023
1631	8.1500e-01	-14.7670	0.005511	0.000001	0.005049	0.001711	0.000041
1632	8.1550e-01	-14.7397	0.005743	0.000001	0.005655	0.001916	0.000046
1633	8.1600e-01	-14.6835	0.005809	0.000000	0.001616	0.000547	0.000013
1634	8.1650e-01	-14.6226	0.005610	-0.000000	-0.004847	-0.001642	-0.000040
1635	8.1700e-01	-14.5857	0.005495	-0.000000	-0.002828	-0.000958	-0.000023
1636	8.1750e-01	-14.5488	0.005784	0.000001	0.007069	0.002395	0.000058
1637	8.1800e-01	-14.5199	0.005982	0.000000	0.004847	0.001642	0.000040
1638	8.1850e-01	-14.4798	0.006156	0.000000	0.004241	0.001437	0.000035
1639	8.1900e-01	-14.4253	0.006271	0.000000	0.002828	0.000958	0.000023
1640	8.1950e-01	-14.3932	0.006420	0.000000	0.003636	0.001232	0.000030
1641	8.2000e-01	-14.3563	0.006362	-0.000000	-0.001414	-0.000479	-0.000012
1642	8.2050e-01	-14.3370	0.006395	0.000000	0.000808	0.000274	0.000007
1643	8.2100e-01	-14.2809	0.006610	0.000001	0.005251	0.001779	0.000043
1644	8.2150e-01	-14.2247	0.006875	0.000001	0.006463	0.002190	0.000053
1645	8.2200e-01	-14.1830	0.007205	0.000001	0.008079	0.002737	0.000066
1646	8.2250e-01	-14.1413	0.007494	0.000001	0.007069	0.002395	0.000058
1647	8.2300e-01	-14.0932	0.007337	-0.000000	-0.003838	-0.001300	-0.000031
1648	8.2350e-01	-14.0771	0.007527	0.000000	0.004645	0.001574	0.000038
1649	8.2400e-01	-14.0194	0.007858	0.000001	0.008079	0.002737	0.000066
1650	8.2450e-01	-13.9665	0.008106	0.000001	0.006059	0.002053	0.000050
1651	8.2500e-01	-13.9809	0.008155	-0.000000	-0.001212	-0.000411	0.000010
1652	8.2550e-01	-13.9199	0.008205	0.000000	0.001212	0.000411	0.000010
1653	8.2600e-01	-13.8381	0.008395	0.000000	0.004645	0.001574	0.000038
1654	8.2650e-01	-13.7996	0.008957	0.000001	0.013734	0.004653	0.000112
1655	8.2700e-01	-13.7788	0.009552	0.000001	0.014542	0.004927	0.000119
1656	8.2750e-01	-13.7691	0.009725	0.000000	0.004241	0.001437	0.000035
1657	8.2800e-01	-13.7242	0.009981	0.000001	0.006261	0.002121	0.000051
1658	8.2850e-01	-13.6552	0.009733	-0.000001	-0.006059	-0.002053	-0.000050
1659	8.2900e-01	-13.6151	0.009461	-0.000001	-0.006665	-0.002258	-0.000055
1660	8.2950e-01	-13.5991	0.009337	-0.000000	-0.003030	-0.001026	-0.000025
1661	8.3000e-01	-13.5718	0.009320	-0.000000	-0.000404	-0.000137	-0.000003
1662	8.3050e-01	-13.5445	0.009378	0.000000	0.001414	0.000479	0.000012
1663	8.3100e-01	-13.4579	0.009312	-0.000000	-0.001616	-0.000547	-0.000013
1664	8.3150e-01	-13.4354	0.009403	0.000000	0.002222	0.000753	0.000018
1665	8.3200e-01	-13.3729	0.009519	0.000000	0.002828	0.000958	0.000023
1666	8.3250e-01	-13.3215	0.010023	0.000001	0.012320	0.004174	0.000101
1667	8.3300e-01	-13.3071	0.010667	0.000002	0.015754	0.005338	0.000129
1668	8.3350e-01	-13.2750	0.011155	0.000001	0.011917	0.004037	0.000097
1669	8.3400e-01	-13.2349	0.011212	0.000000	0.001414	0.000479	0.000012
1670	8.3450e-01	-13.1772	0.011080	-0.000000	-0.003232	-0.001095	-0.000026
1671	8.3500e-01	-13.1403	0.011039	-0.000000	-0.001010	-0.000342	-0.000008
1672	8.3550e-01	-13.1162	0.010915	-0.000000	-0.003030	-0.001026	-0.000025
1673	8.3600e-01	-13.1018	0.011188	0.000001	0.006665	0.002258	0.000055
1674	8.3650e-01	-13.0440	0.011650	0.000001	0.011311	0.003832	0.000093
1675	8.3700e-01	-12.9895	0.011898	0.000001	0.006059	0.002053	0.000050
1676	8.3750e-01	-12.9558	0.011964	0.000000	0.001616	0.000547	0.000013
1677	8.3800e-01	-12.9237	0.011849	-0.000000	-0.002828	-0.000958	-0.000023
1678	8.3850e-01	-12.8724	0.011931	0.000000	0.002020	0.000684	0.000017
1679	8.3900e-01	-12.8708	0.012220	0.000001	0.007069	0.002395	0.000058
1680	8.3950e-01	-12.8226	0.012733	0.000001	0.012522	0.004243	0.000102
1681	8.4000e-01	-12.7472	0.012642	-0.000000	-0.002222	-0.000753	-0.000018
1682	8.4050e-01	-12.7103	0.012601	-0.000000	-0.001010	-0.000342	-0.000008
1683	8.4100e-01	-12.6959	0.012700	0.000000	0.002424	0.000821	0.000020
1684	8.4150e-01	-12.6494	0.013138	0.000001	0.010705	0.003627	0.000088
1685	8.4200e-01	-12.5964	0.013402	0.000001	0.006463	0.002190	0.000053
1686	8.4250e-01	-12.5820	0.013361	-0.000000	-0.001010	-0.000342	-0.000008
1687	8.4300e-01	-12.5291	0.013419	0.000000	0.001414	0.000479	0.000012
1688	8.4350e-01	-12.4793	0.013633	0.000001	0.005251	0.001779	0.000043
1689	8.4400e-01	-12.4216	0.014046	0.000001	0.010099	0.003422	0.000083
1690	8.4450e-01	-12.4168	0.014096	0.000000	0.001212	0.000411	0.000010
1691	8.4500e-01	-12.3654	0.014071	-0.000000	-0.000606	-0.000205	-0.000005
1692	8.4550e-01	-12.2836	0.014179	0.000000	0.002626	0.000890	0.000021
1693	8.4600e-01	-12.2612	0.014402	0.000001	0.005453	0.001848	0.000045
1694	8.4650e-01	-12.2772	0.014650	-0.000001	-0.006059	-0.002053	0.000050
1695	8.4700e-01	-12.1970	0.014774	0.000000	0.003030	0.001026	0.000025
1696	8.4750e-01	-12.1248	0.014749	-0.000000	-0.000606	-0.000205	-0.000005
1697	8.4800e-01	-12.1360	0.015046	-0.000001	-0.007271	-0.002464	0.000059
1698	8.4850e-01	-12.0863	0.015253	0.000001	0.005049	0.001711	0.000041
1699	8.4900e-01	-12.0462	0.015319	0.000000	0.001616	0.000547	0.000013
1700	8.4950e-01	-11.9724	0.015352	0.000000	0.000808	0.000274	0.000007
1701	8.5000e-01	-11.9836	0.015476	-0.000000	-0.003030	-0.001026	0.000025
1702	8.5050e-01	-11.9146	0.015782	0.000001	0.007473	0.002532	0.000061
1703	8.5100e-01	-11.8665	0.015906	0.000000	0.003030	0.001026	0.000025
1704	8.5150e-01	-11.8457	0.015988	0.000000	0.002020	0.000684	0.000017
1705	8.5200e-01	-11.7622	0.016096	0.000000	0.002626	0.000890	0.000021
1706	8.5250e-01	-11.7494	0.016352	0.000001	0.006261	0.002121	0.000051
1707	8.5300e-01	-11.7173	0.016500	0.000000	0.003636	0.001232	0.000030
1708	8.5350e-01	-11.6900	0.016616	0.000000	0.002828	0.000958	0.000023
1709	8.5400e-01	-11.6082	0.016674	0.000000	0.001414	0.000479	0.000012
1710	8.5450e-01	-11.6323	0.017029	-0.000001	-0.008685	-0.002943	0.000071
1711	8.5500e-01	-11.5906	0.017095	0.000000	0.001616	0.000547	0.000013
1712	8.5550e-01	-11.5072	0.017352	0.000001	0.006261	0.002121	0.000051
1713	8.5600e-01	-11.4558	0.017335	-0.000000	-0.000404	-0.000137	-0.000003
1714	8.5650e-01	-11.4606	0.017467	-0.000000	-0.003232	-0.001095	0.000026
1715	8.5700e-01	-11.4109	0.017558	0.000000	0.002222	0.000753	0.000018
1716	8.5750e-01	-11.3564	0.017632	0.000000	0.001818	0.000616	0.000015
1717	8.5800e-01	-11.3211	0.017632	0.000000	0.000000	0.000000	0.000000
1718	8.5850e-01	-11.2842	0.017988	0.000001	0.008685	0.002943	0.000071
1719	8.5900e-01	-11.2569	0.018417	0.000001	0.010503	0.003558	0.000086
1720	8.5950e-01	-11.1863	0.018731	0.000001	0.007675	0.002600	0.000063
1721	8.6000e-01	-11.1783	0.018855	0.000000	0.003030	0.001026	0.000025
1722	8.6050e-01	-11.1254	0.019029	0.000000	0.004241	0.001437	0.000035
1723	8.6100e-01	-11.0724	0.019335	0.000001	0.007473	0.002532	0.000061
1724	8.6150e-01	-11.0147	0.019533	0.000000	0.004847	0.001642	0.000040
1725	8.6200e-01	-10.9922	0.019624	0.000000	0.002222	0.000753	0.000018
1726	8.6250e-01	-10.9938	0.019723	-0.000000	-0.002424	-0.000821	0.000020
1727	8.6300e-01	-10.9088	0.019698	-0.000000	-0.000606	-0.000205	-0.000005
1728	8.6350e-01	-10.8783	0.019657	-0.000000	-0.001010	-0.000342	-0.000008
1729	8.6400e-01	-10.8334	0.019888	0.000001	0.005655	0.001916	0.000046
1730	8.6450e-01	-10.7949	0.020070	0.000000	0.004443	0.001505	0.000036
1731	8.6500e-01	-10.7676	0.020533	0.000001	0.011311	0.003832	0.000093
1732	8.6550e-01	-10.6986	0.020830	0.000001	0.007271	0.002464	0.000059
1733	8.6600e-01	-10.6714	0.020979	0.000000	0.003636	0.001232	0.000030
1734	8.6650e-01	-10.6120	0.020855	-0.000000	-0.003030	-0.001026	-0.000025
1735	8.6700e-01	-10.5976	0.020904	0.000000	0.001212	0.000411	0.000010
1736	8.6750e-01	-10.5831	0.021334	0.000001	0.010503	0.003558	0.000086
1737	8.6800e-01	-10.5029	0.021442	0.000000	0.002626	0.000890	0.000021
1738	8.6850e-01	-10.4788	0.021747	0.000001	0.007473	0.002532	0.000061
1739	8.6900e-01	-10.4484	0.021855	0.000000	0.002626	0.000890	0.000021
1740	8.6950e-01	-10.3890	0.021896	0.000000	0.001010	0.000342	0.000008
1741	8.7000e-01	-10.3489	0.022450	0.000001	0.013532	0.004585	0.000111
1742	8.7050e-01	-10.3409	0.022912	0.000001	0.011311	0.003832	0.000093
1743	8.7100e-01	-10.2510	0.023193	0.000001	0.006867	0.002327	0.000056
1744	8.7150e-01	-10.2382	0.023094	-0.000000	-0.002424	-0.000821	-0.000020
1745	8.7200e-01	-10.1837	0.022780	-0.000001	-0.007675	-0.002600	-0.000063
1746	8.7250e-01	-10.1981	0.022491	0.000001	0.007069	0.002395	-0.000058
1747	8.7300e-01	-10.1388	0.022574	0.000000	0.002020	0.000684	0.000017
1748	8.7350e-01	-10.0714	0.022483	-0.000000	-0.002222	-0.000753	-0.000018
1749	8.7400e-01	-10.0345	0.022450	-0.000000	-0.000808	-0.000274	-0.000007
1750	8.7450e-01	-9.9928	0.022334	-0.000000	-0.002828	-0.000958	-0.000023
1751	8.7500e-01	-9.9462	0.022425	0.000000	0.002222	0.000753	0.000018
1752	8.7550e-01	-9.9190	0.022731	0.000001	0.007473	0.002532	0.000061
1753	8.7600e-01	-9.8724	0.023276	0.000001	0.013330	0.004516	0.000109
1754	8.7650e-01	-9.7826	0.023606	0.000001	0.008079	0.002737	0.000066
1755	8.7700e-01	-9.8019	0.024152	-0.000001	-0.013330	-0.004516	0.000109
1756	8.7750e-01	-9.7537	0.024053	-0.000000	-0.002424	-0.000821	-0.000020
1757	8.7800e-01	-9.6944	0.024044	-0.000000	-0.000202	-0.000068	-0.000002
1758	8.7850e-01	-9.6655	0.023904	-0.000000	-0.003434	-0.001163	-0.000028
1759	8.7900e-01	-9.6414	0.023854	-0.000000	-0.001212	-0.000411	-0.000010
1760	8.7950e-01	-9.6061	0.024168	0.000001	0.007675	0.002600	0.000063
1761	8.8000e-01	-9.5516	0.024829	0.000002	0.016158	0.005474	0.000132
1762	8.8050e-01	-9.5420	0.024722	-0.000000	-0.002626	-0.000890	-0.000021
1763	8.8100e-01	-9.5003	0.024598	-0.000000	-0.003030	-0.001026	-0.000025
1764	8.8150e-01	-9.4024	0.024722	0.000000	0.003030	0.001026	0.000025
1765	8.8200e-01	-9.3960	0.024714	-0.000000	-0.000202	-0.000068	-0.000002
1766	8.8250e-01	-9.3511	0.025069	0.000001	0.008685	0.002943	0.000071
1767	8.8300e-01	-9.3158	0.025275	0.000001	0.005049	0.001711	0.000041
1768	8.8350e-01	-9.2741	0.025284	0.000000	0.000202	0.000068	0.000002
1769	8.8400e-01	-9.2340	0.025325	0.000000	0.001010	0.000342	0.000008
1770	8.8450e-01	-9.1570	0.025465	0.000000	0.003434	0.001163	0.000028
1771	8.8500e-01	-9.1650	0.025697	-0.000001	-0.005655	-0.001916	0.000046
1772	8.8550e-01	-9.1040	0.026003	0.000001	0.007473	0.002532	0.000061
1773	8.8600e-01	-9.0591	0.025879	-0.000000	-0.003030	-0.001026	-0.000025
1774	8.8650e-01	-9.0206	0.025920	0.000000	0.001010	0.000342	0.000008
1775	8.8700e-01	-8.9981	0.026003	0.000000	0.002020	0.000684	0.000017
1776	8.8750e-01	-8.9693	0.026366	0.000001	0.008887	0.003011	0.000073
1777	8.8800e-01	-8.9420	0.026630	0.000001	0.006463	0.002190	0.000053
1778	8.8850e-01	-8.8714	0.026647	0.000000	0.000404	0.000137	0.000003
1779	8.8900e-01	-8.8169	0.026606	-0.000000	-0.001010	-0.000342	-0.000008
1780	8.8950e-01	-8.8137	0.026812	0.000001	0.005049	0.001711	0.000041
1781	8.9000e-01	-8.7479	0.027143	0.000001	0.008079	0.002737	0.000066
1782	8.9050e-01	-8.7383	0.027101	-0.000000	-0.001010	-0.000342	-0.000008
1783	8.9100e-01	-8.6789	0.027101	0.000000	0.000000	0.000000	0.000000
1784	8.9150e-01	-8.6420	0.027258	0.000000	0.003838	0.001300	0.000031
1785	8.9200e-01	-8.5826	0.027630	0.000001	0.009089	0.003079	0.000074
1786	8.9250e-01	-8.5522	0.027639	0.000000	0.000202	0.000068	0.000002
1787	8.9300e-01	-8.5089	0.027572	-0.000000	-0.001616	-0.000547	-0.000013
1788	8.9350e-01	-8.4687	0.027787	0.000001	0.005251	0.001779	0.000043
1789	8.9400e-01	-8.4527	0.027994	0.000001	0.005049	0.001711	0.000041
1790	8.9450e-01	-8.3741	0.028242	0.000001	0.006059	0.002053	0.000050
1791	8.9500e-01	-8.3500	0.028242	0.000000	0.000000	0.000000	0.000000
1792	8.9550e-01	-8.3179	0.028366	0.000000	0.003030	0.001026	0.000025
1793	8.9600e-01	-8.2698	0.028737	0.000001	0.009089	0.003079	0.000074
1794	8.9650e-01	-8.2265	0.028837	0.000000	0.002424	0.000821	0.000020
1795	8.9700e-01	-8.1752	0.028795	-0.000000	-0.001010	-0.000342	-0.000008
1796	8.9750e-01	-8.1623	0.028861	0.000000	0.001616	0.000547	0.000013
1797	8.9800e-01	-8.1206	0.029151	0.000001	0.007069	0.002395	0.000058
1798	8.9850e-01	-8.0885	0.029233	0.000000	0.002020	0.000684	0.000017
1799	8.9900e-01	-8.0468	0.029241	0.000000	0.000202	0.000068	0.000002
1800	8.9950e-01	-7.9955	0.029316	0.000000	0.001818	0.000616	0.000015
1801	9.0000e-01	-7.9297	0.029506	0.000000	0.004645	0.001574	0.000038
1802	9.0050e-01	-7.9185	0.029679	0.000000	0.004241	0.001437	0.000035
1803	9.0100e-01	-7.8816	0.029795	0.000000	0.002828	0.000958	0.000023
1804	9.0150e-01	-7.8752	0.029869	0.000000	0.001818	0.000616	0.000015
1805	9.0200e-01	-7.8062	0.030084	0.000001	0.005251	0.001779	0.000043
1806	9.0250e-01	-7.7741	0.030200	0.000000	0.002828	0.000958	0.000023
1807	9.0300e-01	-7.7180	0.030200	0.000000	0.000000	0.000000	0.000000
1808	9.0350e-01	-7.6730	0.030101	-0.000000	-0.002424	-0.000821	-0.000020
1809	9.0400e-01	-7.6233	0.030175	0.000000	0.001818	0.000616	0.000015
1810	9.0450e-01	-7.5993	0.030663	0.000001	0.011917	0.004037	0.000097
1811	9.0500e-01	-7.5624	0.031109	0.000001	0.010907	0.003695	0.000089
1812	9.0550e-01	-7.4805	0.031307	0.000000	0.004847	0.001642	0.000040
1813	9.0600e-01	-7.4629	0.031406	0.000000	0.002424	0.000821	0.000020
1814	9.0650e-01	-7.4468	0.031629	0.000001	0.005453	0.001848	0.000045
1815	9.0700e-01	-7.4228	0.031786	0.000000	0.003838	0.001300	0.000031
1816	9.0750e-01	-7.3907	0.031935	0.000000	0.003636	0.001232	0.000030
1817	9.0800e-01	-7.3041	0.031877	-0.000000	-0.001414	-0.000479	-0.000012
1818	9.0850e-01	-7.2575	0.032018	0.000000	0.003434	0.001163	0.000028
1819	9.0900e-01	-7.2319	0.031960	-0.000000	-0.001414	-0.000479	-0.000012
1820	9.0950e-01	-7.2142	0.031795	-0.000000	-0.004040	-0.001369	-0.000033
1821	9.1000e-01	-7.1581	0.031910	0.000000	0.002828	0.000958	0.000023
1822	9.1050e-01	-7.1100	0.032257	0.000001	0.008483	0.002874	0.000069
1823	9.1100e-01	-7.0747	0.032456	0.000000	0.004847	0.001642	0.000040
1824	9.1150e-01	-7.0731	0.032728	0.000001	0.006665	0.002258	0.000055
1825	9.1200e-01	-6.9832	0.032737	0.000000	0.000202	0.000068	0.000002
1826	9.1250e-01	-6.9511	0.032811	0.000000	0.001818	0.000616	0.000015
1827	9.1300e-01	-6.8982	0.032885	0.000000	0.001818	0.000616	0.000015
1828	9.1350e-01	-6.8870	0.033555	0.000002	0.016360	0.005543	0.000134
1829	9.1400e-01	-6.8533	0.034116	0.000001	0.013734	0.004653	0.000112
1830	9.1450e-01	-6.8019	0.034620	0.000001	0.012320	0.004174	0.000101
1831	9.1500e-01	-6.7458	0.034546	-0.000000	-0.001818	-0.000616	-0.000015
1832	9.1550e-01	-6.7105	0.033992	-0.000001	-0.013532	-0.004585	-0.000111
1833	9.1600e-01	-6.6880	0.033761	-0.000001	-0.005655	-0.001916	-0.000046
1834	9.1650e-01	-6.6319	0.033736	-0.000000	-0.000606	-0.000205	-0.000005
1835	9.1700e-01	-6.5677	0.033621	-0.000000	-0.002828	-0.000958	-0.000023
1836	9.1750e-01	-6.5533	0.033571	-0.000000	-0.001212	-0.000411	-0.000010
1837	9.1800e-01	-6.5212	0.033530	-0.000000	-0.001010	-0.000342	-0.000008
1838	9.1850e-01	-6.4618	0.033555	0.000000	0.000606	0.000205	0.000005
1839	9.1900e-01	-6.4586	0.033926	0.000001	0.009089	0.003079	0.000074
1840	9.1950e-01	-6.4394	0.034546	0.000002	0.015148	0.005132	0.000124
1841	9.2000e-01	-6.3062	0.034984	0.000001	0.010705	0.003627	0.000088
1842	9.2050e-01	-6.3239	0.035381	-0.000001	-0.009695	-0.003285	0.000079
1843	9.2100e-01	-6.2918	0.035348	-0.000000	-0.000808	-0.000274	-0.000007
1844	9.2150e-01	-6.2340	0.035298	-0.000000	-0.001212	-0.000411	-0.000010
1845	9.2200e-01	-6.1875	0.035199	-0.000000	-0.002424	-0.000821	-0.000020
1846	9.2250e-01	-6.1506	0.035215	0.000000	0.000404	0.000137	0.000003
1847	9.2300e-01	-6.1105	0.035595	0.000001	0.009291	0.003148	0.000076
1848	9.2350e-01	-6.1057	0.036232	0.000002	0.015552	0.005269	0.000127
1849	9.2400e-01	-6.0255	0.036190	-0.000000	-0.001010	-0.000342	-0.000008
1850	9.2450e-01	-6.0030	0.035967	-0.000001	-0.005453	-0.001848	-0.000045
1851	9.2500e-01	-5.9581	0.035876	-0.000000	-0.002222	-0.000753	-0.000018
1852	9.2550e-01	-5.9325	0.036132	0.000001	0.006261	0.002121	0.000051
1853	9.2600e-01	-5.8522	0.036579	0.000001	0.010907	0.003695	0.000089
1854	9.2650e-01	-5.8153	0.036794	0.000001	0.005251	0.001779	0.000043
1855	9.2700e-01	-5.7945	0.036794	0.000000	0.000000	0.000000	0.000000
1856	9.2750e-01	-5.7736	0.036694	-0.000000	-0.002424	-0.000821	-0.000020
1857	9.2800e-01	-5.7047	0.036917	0.000001	0.005453	0.001848	0.000045
1858	9.2850e-01	-5.6774	0.037281	0.000001	0.008887	0.003011	0.000073
1859	9.2900e-01	-5.6260	0.037479	0.000000	0.004847	0.001642	0.000040
1860	9.2950e-01	-5.5763	0.037529	0.000000	0.001212	0.000411	0.000010
1861	9.3000e-01	-5.5490	0.037578	0.000000	0.001212	0.000411	0.000010
1862	9.3050e-01	-5.5121	0.037843	0.000001	0.006463	0.002190	0.000053
1863	9.3100e-01	-5.4672	0.038306	0.000001	0.011311	0.003832	0.000093
1864	9.3150e-01	-5.4143	0.038347	0.000000	0.001010	0.000342	0.000008
1865	9.3200e-01	-5.3742	0.038504	0.000000	0.003838	0.001300	0.000031
1866	9.3250e-01	-5.3533	0.038595	0.000000	0.002222	0.000753	0.000018
1867	9.3300e-01	-5.3068	0.038859	0.000001	0.006463	0.002190	0.000053
1868	9.3350e-01	-5.2779	0.039033	0.000000	0.004241	0.001437	0.000035
1869	9.3400e-01	-5.2250	0.039033	0.000000	0.000000	0.000000	0.000000
1870	9.3450e-01	-5.2138	0.039099	0.000000	0.001616	0.000547	0.000013
1871	9.3500e-01	-5.1624	0.039289	0.000000	0.004645	0.001574	0.000038
1872	9.3550e-01	-5.0854	0.039520	0.000001	0.005655	0.001916	0.000046
1873	9.3600e-01	-5.0822	0.039586	0.000000	0.001616	0.000547	0.000013
1874	9.3650e-01	-5.0261	0.039636	0.000000	0.001212	0.000411	0.000010
1875	9.3700e-01	-5.0036	0.039867	0.000001	0.005655	0.001916	0.000046
1876	9.3750e-01	-4.9378	0.040115	0.000001	0.006059	0.002053	0.000050
1877	9.3800e-01	-4.8865	0.040181	0.000000	0.001616	0.000547	0.000013
1878	9.3850e-01	-4.8640	0.040289	0.000000	0.002626	0.000890	0.000021
1879	9.3900e-01	-4.8528	0.040561	0.000001	0.006665	0.002258	0.000055
1880	9.3950e-01	-4.7951	0.040768	0.000001	0.005049	0.001711	0.000041
1881	9.4000e-01	-4.7549	0.040950	0.000000	0.004443	0.001505	0.000036
1882	9.4050e-01	-4.7325	0.040933	-0.000000	-0.000404	-0.000137	-0.000003
1883	9.4100e-01	-4.6892	0.041148	0.000001	0.005251	0.001779	0.000043
1884	9.4150e-01	-4.6603	0.041421	0.000001	0.006665	0.002258	0.000055
1885	9.4200e-01	-4.5929	0.041503	0.000000	0.002020	0.000684	0.000017
1886	9.4250e-01	-4.5496	0.041685	0.000000	0.004443	0.001505	0.000036
1887	9.4300e-01	-4.5111	0.041710	0.000000	0.000606	0.000205	0.000005
1888	9.4350e-01	-4.4710	0.041883	0.000000	0.004241	0.001437	0.000035
1889	9.4400e-01	-4.4726	0.042065	-0.000000	-0.004443	-0.001505	0.000036
1890	9.4450e-01	-4.4148	0.042206	0.000000	0.003434	0.001163	0.000028
1891	9.4500e-01	-4.3523	0.042354	0.000000	0.003636	0.001232	0.000030
1892	9.4550e-01	-4.3122	0.042561	0.000001	0.005049	0.001711	0.000041
1893	9.4600e-01	-4.2496	0.042784	0.000001	0.005453	0.001848	0.000045
1894	9.4650e-01	-4.2239	0.042924	0.000000	0.003434	0.001163	0.000028
1895	9.4700e-01	-4.2079	0.043164	0.000001	0.005857	0.001985	0.000048
1896	9.4750e-01	-4.1614	0.043371	0.000001	0.005049	0.001711	0.000041
1897	9.4800e-01	-4.1133	0.043618	0.000001	0.006059	0.002053	0.000050
1898	9.4850e-01	-4.0699	0.043742	0.000000	0.003030	0.001026	0.000025
1899	9.4900e-01	-4.0491	0.043759	0.000000	0.000404	0.000137	0.000003
1900	9.4950e-01	-4.0090	0.043808	0.000000	0.001212	0.000411	0.000010
1901	9.5000e-01	-3.9592	0.044073	0.000001	0.006463	0.002190	0.000053
1902	9.5050e-01	-3.9223	0.044362	0.000001	0.007069	0.002395	0.000058
1903	9.5100e-01	-3.8838	0.044618	0.000001	0.006261	0.002121	0.000051
1904	9.5150e-01	-3.8181	0.044957	0.000001	0.008281	0.002806	0.000068
1905	9.5200e-01	-3.7780	0.045064	0.000000	0.002626	0.000890	0.000021
1906	9.5250e-01	-3.7812	0.045296	-0.000001	-0.005655	-0.001916	0.000046
1907	9.5300e-01	-3.7282	0.045593	0.000001	0.007271	0.002464	0.000059
1908	9.5350e-01	-3.6560	0.045742	0.000000	0.003636	0.001232	0.000030
1909	9.5400e-01	-3.6095	0.045990	0.000001	0.006059	0.002053	0.000050
1910	9.5450e-01	-3.5983	0.046122	0.000000	0.003232	0.001095	0.000026
1911	9.5500e-01	-3.5373	0.046039	-0.000000	-0.002020	-0.000684	-0.000017
1912	9.5550e-01	-3.4828	0.046006	-0.000000	-0.000808	-0.000274	-0.000007
1913	9.5600e-01	-3.4700	0.046155	0.000000	0.003636	0.001232	0.000030
1914	9.5650e-01	-3.4555	0.046585	0.000001	0.010503	0.003558	0.000086
1915	9.5700e-01	-3.4090	0.047304	0.000002	0.017572	0.005954	0.000144
1916	9.5750e-01	-3.2999	0.047816	0.000001	0.012522	0.004243	0.000102
1917	9.5800e-01	-3.3176	0.048179	-0.000001	-0.008887	-0.003011	0.000073
1918	9.5850e-01	-3.2791	0.048014	-0.000000	-0.004040	-0.001369	-0.000033
1919	9.5900e-01	-3.1972	0.047535	-0.000001	-0.011715	-0.003969	-0.000096
1920	9.5950e-01	-3.1860	0.047370	-0.000000	-0.004040	-0.001369	-0.000033
1921	9.6000e-01	-3.1234	0.047295	-0.000000	-0.001818	-0.000616	-0.000015
1922	9.6050e-01	-3.1202	0.047411	0.000000	0.002828	0.000958	0.000023
1923	9.6100e-01	-3.0881	0.047320	-0.000000	-0.002222	-0.000753	-0.000018
1924	9.6150e-01	-3.0368	0.047370	0.000000	0.001212	0.000411	0.000010
1925	9.6200e-01	-2.9710	0.047394	0.000000	0.000606	0.000205	0.000005
1926	9.6250e-01	-2.9630	0.047684	0.000001	0.007069	0.002395	0.000058
1927	9.6300e-01	-2.9245	0.048518	0.000002	0.020399	0.006912	0.000167
1928	9.6350e-01	-2.8844	0.049080	0.000001	0.013734	0.004653	0.000112
1929	9.6400e-01	-2.8234	0.049444	0.000001	0.008887	0.003011	0.000073
1930	9.6450e-01	-2.7994	0.049328	-0.000000	-0.002828	-0.000958	-0.000023
1931	9.6500e-01	-2.7898	0.049328	0.000000	0.000000	0.000000	0.000000
1932	9.6550e-01	-2.7160	0.049336	0.000000	0.000202	0.000068	0.000002
1933	9.6600e-01	-2.6791	0.049295	-0.000000	-0.001010	-0.000342	-0.000008
1934	9.6650e-01	-2.6165	0.049667	0.000001	0.009089	0.003079	0.000074
1935	9.6700e-01	-2.5973	0.050171	0.000001	0.012320	0.004174	0.000101
1936	9.6750e-01	-2.5539	0.050460	0.000001	0.007069	0.002395	0.000058
1937	9.6800e-01	-2.5154	0.050352	-0.000000	-0.002626	-0.000890	-0.000021
1938	9.6850e-01	-2.4609	0.050295	-0.000000	-0.001414	-0.000479	-0.000012
1939	9.6900e-01	-2.4368	0.050493	0.000000	0.004847	0.001642	0.000040
1940	9.6950e-01	-2.3839	0.051113	0.000002	0.015148	0.005132	0.000124
1941	9.7000e-01	-2.3743	0.051352	0.000001	0.005857	0.001985	0.000048
1942	9.7050e-01	-2.3149	0.051311	-0.000000	-0.001010	-0.000342	-0.000008
1943	9.7100e-01	-2.2652	0.051369	0.000000	0.001414	0.000479	0.000012
1944	9.7150e-01	-2.2154	0.051608	0.000001	0.005857	0.001985	0.000048
1945	9.7200e-01	-2.1561	0.052220	0.000001	0.014946	0.005064	0.000122
1946	9.7250e-01	-2.1465	0.052509	0.000001	0.007069	0.002395	0.000058
1947	9.7300e-01	-2.1176	0.052311	-0.000000	-0.004847	-0.001642	-0.000040
1948	9.7350e-01	-2.0775	0.052484	0.000000	0.004241	0.001437	0.000035
1949	9.7400e-01	-2.0310	0.052806	0.000001	0.007877	0.002669	0.000064
1950	9.7450e-01	-1.9764	0.053112	0.000001	0.007473	0.002532	0.000061
1951	9.7500e-01	-1.9716	0.053277	0.000000	0.004040	0.001369	0.000033
1952	9.7550e-01	-1.9315	0.053525	0.000001	0.006059	0.002053	0.000050
1953	9.7600e-01	-1.8834	0.053691	0.000000	0.004040	0.001369	0.000033
1954	9.7650e-01	-1.8208	0.053872	0.000000	0.004443	0.001505	0.000036
1955	9.7700e-01	-1.7679	0.054104	0.000001	0.005655	0.001916	0.000046
1956	9.7750e-01	-1.7438	0.054129	0.000000	0.000606	0.000205	0.000005
1957	9.7800e-01	-1.7021	0.054211	0.000000	0.002020	0.000684	0.000017
1958	9.7850e-01	-1.6427	0.054649	0.000001	0.010705	0.003627	0.000088
1959	9.7900e-01	-1.6219	0.054781	0.000000	0.003232	0.001095	0.000026
1960	9.7950e-01	-1.6155	0.054814	0.000000	0.000808	0.000274	0.000007
1961	9.8000e-01	-1.5754	0.055004	0.000000	0.004645	0.001574	0.000038
1962	9.8050e-01	-1.5288	0.055269	0.000001	0.006463	0.002190	0.000053
1963	9.8100e-01	-1.4871	0.055484	0.000001	0.005251	0.001779	0.000043
1964	9.8150e-01	-1.4214	0.055641	0.000000	0.003838	0.001300	0.000031
1965	9.8200e-01	-1.3700	0.055632	-0.000000	-0.000202	-0.000068	-0.000002
1966	9.8250e-01	-1.3572	0.055938	0.000001	0.007473	0.002532	0.000061
1967	9.8300e-01	-1.3395	0.056326	0.000001	0.009493	0.003216	0.000078
1968	9.8350e-01	-1.2545	0.056549	0.000001	0.005453	0.001848	0.000045
1969	9.8400e-01	-1.2417	0.056591	0.000000	0.001010	0.000342	0.000008
1970	9.8450e-01	-1.1903	0.056938	0.000001	0.008483	0.002874	0.000069
1971	9.8500e-01	-1.1887	0.057268	0.000001	0.008079	0.002737	0.000066
1972	9.8550e-01	-1.1214	0.057425	0.000000	0.003838	0.001300	0.000031
1973	9.8600e-01	-1.0764	0.057566	0.000000	0.003434	0.001163	0.000028
1974	9.8650e-01	-1.0139	0.057847	0.000001	0.006867	0.002327	0.000056
1975	9.8700e-01	-1.0123	0.058169	0.000001	0.007877	0.002669	0.000064
1976	9.8750e-01	-0.9641	0.058318	0.000000	0.003636	0.001232	0.000030
1977	9.8800e-01	-0.9208	0.058524	0.000001	0.005049	0.001711	0.000041
1978	9.8850e-01	-0.8743	0.058632	0.000000	0.002626	0.000890	0.000021
1979	9.8900e-01	-0.8583	0.058830	0.000000	0.004847	0.001642	0.000040
1980	9.8950e-01	-0.7909	0.059194	0.000001	0.008887	0.003011	0.000073
1981	9.9000e-01	-0.7508	0.059326	0.000000	0.003232	0.001095	0.000026
1982	9.9050e-01	-0.7010	0.059598	0.000001	0.006665	0.002258	0.000055
1983	9.9100e-01	-0.6706	0.059904	0.000001	0.007473	0.002532	0.000061
1984	9.9150e-01	-0.6337	0.060193	0.000001	0.007069	0.002395	0.000058
1985	9.9200e-01	-0.6080	0.060359	0.000000	0.004040	0.001369	0.000033
1986	9.9250e-01	-0.5567	0.060656	0.000001	0.007271	0.002464	0.000059
1987	9.9300e-01	-0.4829	0.060739	0.000000	0.002020	0.000684	0.000017
1988	9.9350e-01	-0.4684	0.061011	0.000001	0.006665	0.002258	0.000055
1989	9.9400e-01	-0.4315	0.061201	0.000000	0.004645	0.001574	0.000038
1990	9.9450e-01	-0.4123	0.061234	0.000000	0.000808	0.000274	0.000007
1991	9.9500e-01	-0.3529	0.061325	0.000000	0.002222	0.000753	0.000018
1992	9.9550e-01	-0.3417	0.061540	0.000001	0.005251	0.001779	0.000043
1993	9.9600e-01	-0.2727	0.061606	0.000000	0.001616	0.000547	0.000013
1994	9.9650e-01	-0.2118	0.061945	0.000001	0.008281	0.002806	0.000068
1995	9.9700e-01	-0.1813	0.062342	0.000001	0.009695	0.003285	0.000079
1996	9.9750e-01	-0.1524	0.062813	0.000001	0.011513	0.003901	0.000094
1997	9.9800e-01	-0.1251	0.063044	0.000001	0.005655	0.001916	0.000046
1998	9.9850e-01	-0.0706	0.063217	0.000000	0.004241	0.001437	0.000035
1999	9.9900e-01	-0.0433	0.063515	0.000001	0.007271	0.002464	0.000059
2000	9.9950e-01	0.0337	0.063730	0.000001	0.005251	0.001779	0.000043
2001	1.0000e+00	0.0449	0.064011	0.000001	0.005251	0.001779	0.000056

Center data before PMax,+/-Pr and +/-Vc Calc.

PMax (uC/cm2):	1.49e-01
Pr (uC/cm2):	1.32e-01
-Pr (uC/cm2):	6.40e-02
PLoss (uC/cm2):	2.62e-01
Vc:	1.64e+01
-Vc:	-1.93e+01
C (Max-Eff) (nF):	7.45e-04
K (Eff):	2.53e+00
Vert. (+/-Pr) Shift (uC/cm2):	9.79e-02
Horiz. Shift (+/-Vc):	-1.44e+00
Offset (uC/cm2):	1.96e-01

A (Loop Area - uC/cm2·Volts):	6.79e-03



Hysteresis Version: 5.48.1 - Radiant Technologies, Inc., 1999 - 9/12/24

