»»»»»»»»»»»»»»»»»»»»»»»»»»»»»»»»»»»» Hysteresis ««««««««««««««««««««««««««««««««««««
»»»  Executed Version:	5.48.1
»»»  Vision Version:	5.48.4 (R)
»»»  Vision Compiled:	9/18/24
»»»  Driver Version:	5.47.0
»»»  Windows Version:	Windows 8 or 8.1
»»»  Processor Information:	x86 (AMD or Intel) - 32 Processors
»»»  Tester Name:	PMF21124-494 (100V)
»»»  Tester S/N:	PMF21124-494
»»»  Internal Amp Type:	100V RevK 270k
»»»  Internal Amp S/N:	iAB2-596/K     
»»»  Execution Count:	1
»»»»»»»»»»»»»»»»»»»»»»»»»»»»»»»»»»»»»»»»»»««««««««««««««««««««««««««««««««««««««««««

Stored:	6/11/2025 - 14:31:17
Configured:	06/11/25 01:55:56 PM
Executed:	06/11/25 02:30:41 PM

»»»»»»»»»»»»»»»»»»»»»»»»»»»»»»»»»»» Sample Info ««««««««««««««««««««««««««««««««««««
Sample Name:	
Lot Name:	
Wafer Name:	
Die Row/Column:	0/0
Capacitor Number:	0
Sample Area (cm2):	1.00e-04
Sample Thickness (microns):	3.00e-01

Amplifier:	Internal

»»»»»»»»»»»»»»»»»»»»»»»»»»»»»»»»»»» Tester Info «««««««««««««««««««««««««««««««««««
Tester Name:	PMF21124-494 (100V)
Tester Serial Number:	PMF21124-494
Return Signal Amp. Level:	19.0 [Index: 1]

»»»»»»»»»»»»»»»»»»»»»»»»»»»»»»»» Hysteresis Info ««««««««««««««««««««««««««««««««««
Task Name:	Hyst-1287
Volts:	20.00
Field:	666.67 (kV/cm)
DCBias:	0.00
DCField:	0.00 (kV/cm)
Hysteresis Period (ms):	2.00e+02
Preset:	Enabled
Preset Delay (ms):	1.00e+03
Profile:	Standard Bipolar

»»»»»»»»»»»»»»»»»»»»»»»»»»»»»»»»»»»»»» Data «««««««««««««««««««««««««««««««««««««««
Points:	2009

Valid Data

Point	Time (ms)	Drive Voltage	Measured Polarization (uC/cm2)	Capacitance (uF)	Normalized Capacitance (uF/cm2)	Dielectric Constant	Instantaneous Current (mA)
   1	0.0000e+00	-0.0128	-0.214343	0.000007	0.074327	0.025183	0.000003
   2	9.9500e-02	0.0321	-0.211326	0.000007	0.074327	0.025183	0.000003
   3	1.9900e-01	0.1075	-0.207156	0.000010	0.102747	0.034812	0.000004
   4	2.9850e-01	0.1620	-0.200679	0.000016	0.159585	0.054069	0.000007
   5	3.9800e-01	0.2069	-0.193758	0.000017	0.170516	0.057772	0.000007
   6	4.9750e-01	0.2294	-0.185640	0.000020	0.200028	0.067771	0.000008
   7	5.9700e-01	0.2519	-0.177344	0.000020	0.204400	0.069253	0.000008
   8	6.9650e-01	0.3273	-0.168959	0.000021	0.206586	0.069993	0.000008
   9	7.9600e-01	0.3321	-0.159509	0.000023	0.232820	0.078881	0.000009
  10	8.9550e-01	0.3834	-0.150371	0.000023	0.225168	0.076289	0.000009
  11	9.9500e-01	0.4043	-0.141986	0.000021	0.206586	0.069993	0.000008
  12	1.0945e+00	0.4732	-0.131605	0.000026	0.255774	0.086658	0.000010
  13	1.1940e+00	0.4845	-0.122067	0.000024	0.235006	0.079622	0.000010
  14	1.2935e+00	0.5486	-0.111819	0.000025	0.252495	0.085547	0.000010
  15	1.3930e+00	0.5823	-0.101704	0.000025	0.249215	0.084436	0.000010
  16	1.4925e+00	0.6144	-0.090080	0.000029	0.286379	0.097028	0.000012
  17	1.5920e+00	0.6497	-0.078856	0.000028	0.276542	0.093695	0.000011
  18	1.6915e+00	0.7010	-0.069363	0.000023	0.233913	0.079252	0.000010
  19	1.7910e+00	0.7283	-0.059691	0.000024	0.238285	0.080733	0.000010
  20	1.8905e+00	0.7877	-0.048423	0.000028	0.277635	0.094065	0.000011
  21	1.9900e+00	0.8133	-0.037155	0.000028	0.277635	0.094065	0.000011
  22	2.0895e+00	0.8583	-0.026773	0.000026	0.255774	0.086658	0.000010
  23	2.1890e+00	0.8968	-0.016880	0.000024	0.243750	0.082585	0.000010
  24	2.2885e+00	0.9481	-0.005745	0.000027	0.274356	0.092954	0.000011
  25	2.3880e+00	0.9818	0.005213	0.000027	0.269983	0.091473	0.000011
  26	2.4875e+00	0.9978	0.016037	0.000027	0.266704	0.090362	0.000011
  27	2.5870e+00	1.0331	0.026463	0.000026	0.256867	0.087029	0.000010
  28	2.6865e+00	1.0957	0.036888	0.000026	0.256867	0.087029	0.000010
  29	2.7860e+00	1.1615	0.047225	0.000025	0.254681	0.086288	0.000010
  30	2.8855e+00	1.1968	0.058360	0.000027	0.274356	0.092954	0.000011
  31	2.9850e+00	1.2417	0.068520	0.000025	0.250309	0.084807	0.000010
  32	3.0845e+00	1.2802	0.078324	0.000024	0.241564	0.081844	0.000010
  33	3.1840e+00	1.3042	0.088483	0.000025	0.250309	0.084807	0.000010
  34	3.2835e+00	1.3058	0.098953	0.000026	0.257960	0.087399	0.000011
  35	3.3830e+00	1.3604	0.108891	0.000024	0.244843	0.082955	0.000010
  36	3.4825e+00	1.3941	0.119715	0.000027	0.266704	0.090362	0.000011
  37	3.5820e+00	1.4582	0.130673	0.000027	0.269983	0.091473	0.000011
  38	3.6815e+00	1.4823	0.141542	0.000027	0.267797	0.090732	0.000011
  39	3.7810e+00	1.5449	0.152278	0.000026	0.264518	0.089621	0.000011
  40	3.8805e+00	1.5882	0.162526	0.000025	0.252495	0.085547	0.000010
  41	3.9800e+00	1.6187	0.172907	0.000026	0.255774	0.086658	0.000010
  42	4.0795e+00	1.6443	0.182357	0.000023	0.232820	0.078881	0.000009
  43	4.1790e+00	1.6989	0.192205	0.000024	0.242657	0.082214	0.000010
  44	4.2785e+00	1.7342	0.202365	0.000025	0.250309	0.084807	0.000010
  45	4.3780e+00	1.7518	0.212923	0.000026	0.260146	0.088140	0.000011
  46	4.4775e+00	1.8112	0.222461	0.000024	0.235006	0.079622	0.000010
  47	4.5770e+00	1.8545	0.232665	0.000025	0.251402	0.085177	0.000010
  48	4.6765e+00	1.8978	0.243445	0.000027	0.265611	0.089992	0.000011
  49	4.7760e+00	1.9187	0.254181	0.000026	0.264518	0.089621	0.000011
  50	4.8755e+00	1.9876	0.263631	0.000023	0.232820	0.078881	0.000009
  51	4.9750e+00	2.0021	0.273169	0.000024	0.235006	0.079622	0.000010
  52	5.0745e+00	2.0502	0.283284	0.000025	0.249215	0.084436	0.000010
  53	5.1740e+00	2.1128	0.292201	0.000022	0.219703	0.074437	0.000009
  54	5.2735e+00	2.1384	0.300231	0.000020	0.197842	0.067031	0.000008
  55	5.3730e+00	2.1721	0.309503	0.000023	0.228448	0.077400	0.000009
  56	5.4725e+00	2.2379	0.317976	0.000021	0.208773	0.070734	0.000009
  57	5.5720e+00	2.2892	0.326982	0.000022	0.221889	0.075178	0.000009
  58	5.6715e+00	2.2908	0.334391	0.000018	0.182539	0.061846	0.000007
  59	5.7710e+00	2.3374	0.342820	0.000021	0.207680	0.070364	0.000008
  60	5.8705e+00	2.3743	0.350451	0.000019	0.188005	0.063698	0.000008
  61	5.9700e+00	2.3983	0.358037	0.000019	0.186912	0.063327	0.000008
  62	6.0695e+00	2.4368	0.365845	0.000019	0.192377	0.065179	0.000008
  63	6.1690e+00	2.4914	0.374274	0.000021	0.207680	0.070364	0.000008
  64	6.2685e+00	2.5379	0.381904	0.000019	0.188005	0.063698	0.000008
  65	6.3680e+00	2.5443	0.389313	0.000018	0.182539	0.061846	0.000007
  66	6.4675e+00	2.6133	0.396145	0.000017	0.168330	0.057032	0.000007
  67	6.5670e+00	2.6374	0.403199	0.000017	0.173795	0.058883	0.000007
  68	6.6665e+00	2.6967	0.410608	0.000018	0.182539	0.061846	0.000007
  69	6.7660e+00	2.7240	0.417307	0.000017	0.165051	0.055921	0.000007
  70	6.8655e+00	2.7689	0.424005	0.000017	0.165051	0.055921	0.000007
  71	6.9650e+00	2.8090	0.431769	0.000019	0.191284	0.064809	0.000008
  72	7.0645e+00	2.8603	0.439577	0.000019	0.192377	0.065179	0.000008
  73	7.1640e+00	2.8780	0.446099	0.000016	0.160678	0.054439	0.000007
  74	7.2635e+00	2.9229	0.452354	0.000015	0.154120	0.052217	0.000006
  75	7.3630e+00	2.9742	0.459496	0.000018	0.175981	0.059624	0.000007
  76	7.4625e+00	3.0095	0.466950	0.000018	0.183632	0.062216	0.000007
  77	7.5620e+00	3.0160	0.473648	0.000017	0.165051	0.055921	0.000007
  78	7.6615e+00	3.0881	0.481057	0.000018	0.182539	0.061846	0.000007
  79	7.7610e+00	3.1090	0.487978	0.000017	0.170516	0.057772	0.000007
  80	7.8605e+00	3.1812	0.494766	0.000017	0.167237	0.056661	0.000007
  81	7.9600e+00	3.1956	0.501154	0.000016	0.157399	0.053328	0.000006
  82	8.0595e+00	3.2486	0.508518	0.000018	0.181446	0.061476	0.000007
  83	8.1590e+00	3.2919	0.514995	0.000016	0.159585	0.054069	0.000007
  84	8.2585e+00	3.3320	0.521694	0.000017	0.165051	0.055921	0.000007
  85	8.3580e+00	3.3512	0.528526	0.000017	0.168330	0.057032	0.000007
  86	8.4575e+00	3.4090	0.535225	0.000017	0.165051	0.055921	0.000007
  87	8.5570e+00	3.4523	0.541436	0.000015	0.153027	0.051847	0.000006
  88	8.6565e+00	3.4844	0.547558	0.000015	0.150841	0.051106	0.000006
  89	8.7560e+00	3.4988	0.554124	0.000016	0.161771	0.054810	0.000007
  90	8.8555e+00	3.5823	0.559758	0.000014	0.138817	0.047033	0.000006
  91	8.9550e+00	3.5935	0.565526	0.000014	0.142097	0.048144	0.000006
  92	9.0545e+00	3.6384	0.571603	0.000015	0.149748	0.050736	0.000006
  93	9.1540e+00	3.6528	0.577903	0.000016	0.155213	0.052588	0.000006
  94	9.2535e+00	3.7266	0.583227	0.000013	0.131166	0.044440	0.000005
  95	9.3530e+00	3.7716	0.588639	0.000013	0.133352	0.045181	0.000005
  96	9.4525e+00	3.8004	0.592987	0.000011	0.107119	0.036293	0.000004
  97	9.5520e+00	3.8550	0.598355	0.000013	0.132259	0.044811	0.000005
  98	9.6515e+00	3.8822	0.603545	0.000013	0.127887	0.043329	0.000005
  99	9.7510e+00	3.9063	0.608292	0.000012	0.116956	0.039626	0.000005
 100	9.8505e+00	3.9705	0.611531	0.000008	0.079793	0.027034	0.000003
 101	9.9500e+00	4.0379	0.615656	0.000010	0.101654	0.034441	0.000004
 102	1.0050e+01	4.0362	0.620980	-0.000013	-0.131166	-0.044440	0.000005
 103	1.0149e+01	4.0924	0.625816	0.000012	0.119142	0.040367	0.000005
 104	1.0248e+01	4.1309	0.630385	0.000011	0.112584	0.038145	0.000005
 105	1.0348e+01	4.1518	0.635487	0.000013	0.125701	0.042589	0.000005
 106	1.0447e+01	4.1951	0.640899	0.000013	0.133352	0.045181	0.000005
 107	1.0547e+01	4.2592	0.644981	0.000010	0.100561	0.034071	0.000004
 108	1.0646e+01	4.2641	0.648885	0.000010	0.096188	0.032590	0.000004
 109	1.0746e+01	4.3330	0.653765	0.000012	0.120236	0.040737	0.000005
 110	1.0845e+01	4.3667	0.658822	0.000012	0.124608	0.042218	0.000005
 111	1.0945e+01	4.4165	0.663614	0.000012	0.118049	0.039996	0.000005
 112	1.1044e+01	4.4213	0.668316	0.000012	0.115863	0.039256	0.000005
 113	1.1144e+01	4.4678	0.673285	0.000012	0.122422	0.041478	0.000005
 114	1.1243e+01	4.5416	0.677810	0.000011	0.111491	0.037774	0.000005
 115	1.1343e+01	4.5592	0.683355	0.000014	0.136631	0.046292	0.000006
 116	1.1443e+01	4.5849	0.688590	0.000013	0.128980	0.043700	0.000005
 117	1.1542e+01	4.6186	0.692982	0.000011	0.108212	0.036663	0.000004
 118	1.1642e+01	4.6972	0.697995	0.000012	0.123515	0.041848	0.000005
 119	1.1741e+01	4.7020	0.702210	0.000010	0.103840	0.035182	0.000004
 120	1.1841e+01	4.7485	0.707046	0.000012	0.119142	0.040367	0.000005
 121	1.1940e+01	4.7838	0.711792	0.000012	0.116956	0.039626	0.000005
 122	1.2040e+01	4.8624	0.715874	0.000010	0.100561	0.034071	0.000004
 123	1.2139e+01	4.8785	0.720222	0.000011	0.107119	0.036293	0.000004
 124	1.2239e+01	4.9073	0.725235	0.000012	0.123515	0.041848	0.000005
 125	1.2338e+01	4.9571	0.730470	0.000013	0.128980	0.043700	0.000005
 126	1.2438e+01	5.0132	0.735438	0.000012	0.122422	0.041478	0.000005
 127	1.2537e+01	5.0614	0.740052	0.000011	0.113677	0.038515	0.000005
 128	1.2636e+01	5.0726	0.745243	0.000013	0.127887	0.043329	0.000005
 129	1.2736e+01	5.1464	0.749191	0.000010	0.097281	0.032960	0.000004
 130	1.2835e+01	5.1624	0.753894	0.000012	0.115863	0.039256	0.000005
 131	1.2935e+01	5.1769	0.759084	0.000013	0.127887	0.043329	0.000005
 132	1.3034e+01	5.2507	0.763476	0.000011	0.108212	0.036663	0.000004
 133	1.3134e+01	5.2763	0.767646	0.000010	0.102747	0.034812	0.000004
 134	1.3233e+01	5.3244	0.772526	0.000012	0.120236	0.040737	0.000005
 135	1.3333e+01	5.3533	0.777983	0.000013	0.134445	0.045551	0.000005
 136	1.3432e+01	5.4031	0.783662	0.000014	0.139910	0.047403	0.000006
 137	1.3532e+01	5.4223	0.789251	0.000014	0.137724	0.046662	0.000006
 138	1.3632e+01	5.4560	0.795107	0.000014	0.144283	0.048884	0.000006
 139	1.3731e+01	5.5378	0.802072	0.000017	0.171609	0.058143	0.000007
 140	1.3831e+01	5.5522	0.807884	0.000014	0.143190	0.048514	0.000006
 141	1.3930e+01	5.5827	0.813962	0.000015	0.149748	0.050736	0.000006
 142	1.4030e+01	5.6469	0.820883	0.000017	0.170516	0.057772	0.000007
 143	1.4129e+01	5.6998	0.828247	0.000018	0.181446	0.061476	0.000007
 144	1.4229e+01	5.7319	0.834103	0.000014	0.144283	0.048884	0.000006
 145	1.4328e+01	5.7576	0.841246	0.000018	0.175981	0.059624	0.000007
 146	1.4428e+01	5.7865	0.848388	0.000018	0.175981	0.059624	0.000007
 147	1.4527e+01	5.8121	0.855531	0.000018	0.175981	0.059624	0.000007
 148	1.4627e+01	5.8731	0.862629	0.000017	0.174888	0.059254	0.000007
 149	1.4726e+01	5.9052	0.870481	0.000019	0.193470	0.065549	0.000008
 150	1.4825e+01	5.9661	0.877979	0.000018	0.184725	0.062587	0.000008
 151	1.4925e+01	5.9950	0.885476	0.000018	0.184725	0.062587	0.000008
 152	1.5024e+01	6.0447	0.893639	0.000020	0.201121	0.068142	0.000008
 153	1.5124e+01	6.0945	0.900826	0.000018	0.177074	0.059994	0.000007
 154	1.5223e+01	6.1619	0.908501	0.000019	0.189098	0.064068	0.000008
 155	1.5323e+01	6.1667	0.916220	0.000019	0.190191	0.064438	0.000008
 156	1.5422e+01	6.1795	0.923451	0.000018	0.178167	0.060365	0.000007
 157	1.5522e+01	6.2228	0.930860	0.000018	0.182539	0.061846	0.000007
 158	1.5621e+01	6.2790	0.938535	0.000019	0.189098	0.064068	0.000008
 159	1.5721e+01	6.3094	0.945899	0.000018	0.181446	0.061476	0.000007
 160	1.5820e+01	6.3528	0.953397	0.000018	0.184725	0.062587	0.000008
 161	1.5920e+01	6.4201	0.960539	0.000018	0.175981	0.059624	0.000007
 162	1.6020e+01	6.4618	0.967682	0.000018	0.175981	0.059624	0.000007
 163	1.6119e+01	6.4747	0.975579	0.000019	0.194563	0.065920	0.000008
 164	1.6218e+01	6.5421	0.982366	0.000017	0.167237	0.056661	0.000007
 165	1.6318e+01	6.5581	0.990219	0.000019	0.193470	0.065549	0.000008
 166	1.6418e+01	6.6094	0.998071	0.000019	0.193470	0.065549	0.000008
 167	1.6517e+01	6.6094	1.005214	-0.000018	-0.175981	-0.059624	0.000007
 168	1.6616e+01	6.6736	1.012888	0.000019	0.189098	0.064068	0.000008
 169	1.6716e+01	6.7041	1.020342	0.000018	0.183632	0.062216	0.000007
 170	1.6816e+01	6.7522	1.028061	0.000019	0.190191	0.064438	0.000008
 171	1.6915e+01	6.7875	1.035824	0.000019	0.191284	0.064809	0.000008
 172	1.7015e+01	6.8356	1.043854	0.000020	0.197842	0.067031	0.000008
 173	1.7114e+01	6.8661	1.051485	0.000019	0.188005	0.063698	0.000008
 174	1.7213e+01	6.9191	1.059204	0.000019	0.190191	0.064438	0.000008
 175	1.7313e+01	6.9688	1.066835	0.000019	0.188005	0.063698	0.000008
 176	1.7413e+01	7.0009	1.074953	0.000020	0.200028	0.067771	0.000008
 177	1.7512e+01	7.0314	1.083471	0.000021	0.209866	0.071104	0.000009
 178	1.7611e+01	7.0474	1.092344	0.000022	0.218610	0.074067	0.000009
 179	1.7711e+01	7.1100	1.100285	0.000020	0.195656	0.066290	0.000008
 180	1.7811e+01	7.1645	1.108891	0.000021	0.212052	0.071845	0.000009
 181	1.7910e+01	7.1870	1.118474	0.000024	0.236099	0.079992	0.000010
 182	1.8009e+01	7.2126	1.127923	0.000023	0.232820	0.078881	0.000009
 183	1.8109e+01	7.2592	1.137240	0.000023	0.229541	0.077770	0.000009
 184	1.8209e+01	7.3233	1.145891	0.000021	0.213145	0.072215	0.000009
 185	1.8308e+01	7.3410	1.154808	0.000022	0.219703	0.074437	0.000009
 186	1.8407e+01	7.3634	1.164612	0.000024	0.241564	0.081844	0.000010
 187	1.8507e+01	7.4308	1.174239	0.000024	0.237192	0.080363	0.000010
 188	1.8607e+01	7.4966	1.183112	0.000022	0.218610	0.074067	0.000009
 189	1.8706e+01	7.5062	1.191496	0.000021	0.206586	0.069993	0.000008
 190	1.8805e+01	7.5271	1.200635	0.000023	0.225168	0.076289	0.000009
 191	1.8905e+01	7.5928	1.210040	0.000023	0.231727	0.078511	0.000009
 192	1.9005e+01	7.6265	1.219534	0.000023	0.233913	0.079252	0.000010
 193	1.9104e+01	7.6730	1.229339	0.000024	0.241564	0.081844	0.000010
 194	1.9203e+01	7.7051	1.238344	0.000022	0.221889	0.075178	0.000009
 195	1.9303e+01	7.7372	1.246729	0.000021	0.206586	0.069993	0.000008
 196	1.9402e+01	7.7757	1.255380	0.000021	0.213145	0.072215	0.000009
 197	1.9502e+01	7.8351	1.264741	0.000023	0.230634	0.078141	0.000009
 198	1.9602e+01	7.8848	1.273835	0.000022	0.224075	0.075919	0.000009
 199	1.9701e+01	7.8976	1.282531	0.000021	0.214238	0.072586	0.000009
 200	1.9800e+01	7.9185	1.290605	0.000020	0.198935	0.067401	0.000008
 201	1.9900e+01	7.9762	1.299034	0.000021	0.207680	0.070364	0.000008
 202	2.0000e+01	8.0324	1.308528	0.000023	0.233913	0.079252	0.000010
 203	2.0099e+01	8.0549	1.317578	0.000022	0.222982	0.075548	0.000009
 204	2.0198e+01	8.1254	1.325963	0.000021	0.206586	0.069993	0.000008
 205	2.0298e+01	8.1495	1.334347	0.000021	0.206586	0.069993	0.000008
 206	2.0398e+01	8.1848	1.344152	0.000024	0.241564	0.081844	0.000010
 207	2.0497e+01	8.2153	1.353468	0.000023	0.229541	0.077770	0.000009
 208	2.0596e+01	8.2714	1.361276	0.000019	0.192377	0.065179	0.000008
 209	2.0696e+01	8.2762	1.368197	0.000017	0.170516	0.057772	0.000007
 210	2.0796e+01	8.3452	1.377070	0.000022	0.218610	0.074067	0.000009
 211	2.0895e+01	8.4078	1.385854	0.000022	0.216424	0.073326	0.000009
 212	2.0994e+01	8.4254	1.393351	0.000018	0.184725	0.062587	0.000008
 213	2.1094e+01	8.4703	1.401780	0.000021	0.207680	0.070364	0.000008
 214	2.1194e+01	8.5121	1.409987	0.000020	0.202214	0.068512	0.000008
 215	2.1293e+01	8.5297	1.418727	0.000022	0.215331	0.072956	0.000009
 216	2.1392e+01	8.6099	1.426491	0.000019	0.191284	0.064809	0.000008
 217	2.1492e+01	8.6115	1.434432	0.000020	0.195656	0.066290	0.000008
 218	2.1591e+01	8.6677	1.443216	0.000022	0.216424	0.073326	0.000009
 219	2.1691e+01	8.6998	1.450758	0.000019	0.185819	0.062957	0.000008
 220	2.1791e+01	8.7527	1.458388	0.000019	0.188005	0.063698	0.000008
 221	2.1890e+01	8.7960	1.465486	0.000017	0.174888	0.059254	0.000007
 222	2.1989e+01	8.8522	1.472318	0.000017	0.168330	0.057032	0.000007
 223	2.2089e+01	8.8730	1.478219	0.000015	0.145376	0.049255	0.000006
 224	2.2189e+01	8.8810	1.484962	0.000017	0.166144	0.056291	0.000007
 225	2.2288e+01	8.9356	1.491705	0.000017	0.166144	0.056291	0.000007
 226	2.2387e+01	8.9837	1.497961	0.000015	0.154120	0.052217	0.000006
 227	2.2487e+01	9.0062	1.503506	0.000014	0.136631	0.046292	0.000006
 228	2.2587e+01	9.0784	1.509939	0.000016	0.158492	0.053699	0.000006
 229	2.2686e+01	9.1153	1.516017	0.000015	0.149748	0.050736	0.000006
 230	2.2785e+01	9.1361	1.520941	0.000012	0.121329	0.041107	0.000005
 231	2.2885e+01	9.1906	1.527019	0.000015	0.149748	0.050736	0.000006
 232	2.2985e+01	9.2500	1.533008	0.000015	0.147562	0.049995	0.000006
 233	2.3084e+01	9.2709	1.538775	0.000014	0.142097	0.048144	0.000006
 234	2.3183e+01	9.3254	1.543389	0.000011	0.113677	0.038515	0.000005
 235	2.3283e+01	9.3479	1.548313	0.000012	0.121329	0.041107	0.000005
 236	2.3383e+01	9.3623	1.554081	0.000014	0.142097	0.048144	0.000006
 237	2.3482e+01	9.4249	1.559271	0.000013	0.127887	0.043329	0.000005
 238	2.3581e+01	9.4650	1.564683	0.000013	0.133352	0.045181	0.000005
 239	2.3681e+01	9.5179	1.569697	0.000012	0.123515	0.041848	0.000005
 240	2.3780e+01	9.5436	1.574089	0.000011	0.108212	0.036663	0.000004
 241	2.3880e+01	9.5917	1.579368	0.000013	0.130073	0.044070	0.000005
 242	2.3980e+01	9.6174	1.584558	0.000013	0.127887	0.043329	0.000005
 243	2.4079e+01	9.7024	1.589660	0.000013	0.125701	0.042589	0.000005
 244	2.4178e+01	9.6960	1.594540	-0.000012	-0.120236	-0.040737	0.000005
 245	2.4278e+01	9.7233	1.599775	0.000013	0.128980	0.043700	0.000005
 246	2.4378e+01	9.7922	1.604522	0.000012	0.116956	0.039626	0.000005
 247	2.4477e+01	9.8452	1.609225	0.000012	0.115863	0.039256	0.000005
 248	2.4576e+01	9.8516	1.614193	0.000012	0.122422	0.041478	0.000005
 249	2.4676e+01	9.8869	1.619118	0.000012	0.121329	0.041107	0.000005
 250	2.4776e+01	9.9366	1.623953	0.000012	0.119142	0.040367	0.000005
 251	2.4875e+01	9.9783	1.628922	0.000012	0.122422	0.041478	0.000005
 252	2.4974e+01	10.0168	1.633447	0.000011	0.111491	0.037774	0.000005
 253	2.5074e+01	10.0457	1.637795	0.000011	0.107119	0.036293	0.000004
 254	2.5174e+01	10.1227	1.643074	0.000013	0.130073	0.044070	0.000005
 255	2.5273e+01	10.1323	1.647111	0.000010	0.099468	0.033701	0.000004
 256	2.5372e+01	10.1756	1.651547	0.000011	0.109305	0.037034	0.000004
 257	2.5472e+01	10.1869	1.655451	0.000010	0.096188	0.032590	0.000004
 258	2.5572e+01	10.2478	1.659666	0.000010	0.103840	0.035182	0.000004
 259	2.5671e+01	10.2976	1.663703	0.000010	0.099468	0.033701	0.000004
 260	2.5770e+01	10.3120	1.667208	0.000009	0.086351	0.029257	0.000004
 261	2.5870e+01	10.3762	1.671112	0.000010	0.096188	0.032590	0.000004
 262	2.5970e+01	10.4452	1.676302	0.000013	0.127887	0.043329	0.000005
 263	2.6069e+01	10.4580	1.680206	0.000010	0.096188	0.032590	0.000004
 264	2.6169e+01	10.4901	1.682779	0.000006	0.063397	0.021479	0.000003
 265	2.6268e+01	10.5366	1.685619	0.000007	0.069955	0.023701	0.000003
 266	2.6367e+01	10.5719	1.687659	0.000005	0.050280	0.017035	0.000002
 267	2.6467e+01	10.6072	1.690366	0.000007	0.066676	0.022590	0.000003
 268	2.6567e+01	10.6248	1.693737	0.000008	0.083072	0.028145	0.000003
 269	2.6666e+01	10.6649	1.696443	0.000007	0.066676	0.022590	0.000003
 270	2.6765e+01	10.7387	1.699061	0.000006	0.064490	0.021850	0.000003
 271	2.6865e+01	10.7628	1.701989	0.000007	0.072141	0.024442	0.000003
 272	2.6965e+01	10.7981	1.704873	0.000007	0.071048	0.024072	0.000003
 273	2.7064e+01	10.8767	1.708022	0.000008	0.077607	0.026294	0.000003
 274	2.7163e+01	10.8735	1.711128	-0.000008	-0.076514	-0.025923	0.000003
 275	2.7263e+01	10.9280	1.714278	0.000008	0.077607	0.026294	0.000003
 276	2.7363e+01	10.9762	1.716407	0.000005	0.052466	0.017776	0.000002
 277	2.7462e+01	10.9954	1.719025	0.000006	0.064490	0.021850	0.000003
 278	2.7561e+01	11.1029	1.721819	0.000007	0.068862	0.023331	0.000003
 279	2.7661e+01	11.1173	1.725280	0.000009	0.085258	0.028886	0.000003
 280	2.7761e+01	11.1430	1.729051	0.000009	0.092909	0.031479	0.000004
 281	2.7860e+01	11.1879	1.731979	0.000007	0.072141	0.024442	0.000003
 282	2.7959e+01	11.1863	1.734729	-0.000007	-0.067769	-0.022961	0.000003
 283	2.8059e+01	11.2232	1.738278	0.000009	0.087444	0.029627	0.000004
 284	2.8159e+01	11.2906	1.741961	0.000009	0.090723	0.030738	0.000004
 285	2.8258e+01	11.3291	1.745643	0.000009	0.090723	0.030738	0.000004
 286	2.8358e+01	11.3708	1.748881	0.000008	0.079793	0.027034	0.000003
 287	2.8457e+01	11.4125	1.750656	0.000004	0.043722	0.014813	0.000002
 288	2.8556e+01	11.4510	1.753273	0.000006	0.064490	0.021850	0.000003
 289	2.8656e+01	11.4895	1.756734	0.000009	0.085258	0.028886	0.000003
 290	2.8756e+01	11.5328	1.759617	0.000007	0.071048	0.024072	0.000003
 291	2.8855e+01	11.5745	1.762235	0.000006	0.064490	0.021850	0.000003
 292	2.8954e+01	11.6114	1.765251	0.000007	0.074327	0.025183	0.000003
 293	2.9054e+01	11.6483	1.768934	0.000009	0.090723	0.030738	0.000004
 294	2.9154e+01	11.6900	1.772882	0.000010	0.097281	0.032960	0.000004
 295	2.9253e+01	11.7237	1.776076	0.000008	0.078700	0.026664	0.000003
 296	2.9352e+01	11.7719	1.779004	0.000007	0.072141	0.024442	0.000003
 297	2.9452e+01	11.8376	1.782331	0.000008	0.081979	0.027775	0.000003
 298	2.9552e+01	11.8585	1.784905	0.000006	0.063397	0.021479	0.000003
 299	2.9651e+01	11.8777	1.788099	0.000008	0.078700	0.026664	0.000003
 300	2.9750e+01	11.9243	1.791958	0.000010	0.095095	0.032219	0.000004
 301	2.9850e+01	11.9628	1.795064	0.000008	0.076514	0.025923	0.000003
 302	2.9950e+01	12.0317	1.798214	0.000008	0.077607	0.026294	0.000003
 303	3.0049e+01	12.0350	1.801807	0.000009	0.088537	0.029997	0.000004
 304	3.0148e+01	12.0911	1.806066	0.000010	0.104933	0.035552	0.000004
 305	3.0248e+01	12.1168	1.810680	0.000011	0.113677	0.038515	0.000005
 306	3.0348e+01	12.1841	1.814850	0.000010	0.102747	0.034812	0.000004
 307	3.0447e+01	12.2226	1.820041	0.000013	0.127887	0.043329	0.000005
 308	3.0547e+01	12.2467	1.825985	0.000015	0.146469	0.049625	0.000006
 309	3.0646e+01	12.2868	1.830865	0.000012	0.120236	0.040737	0.000005
 310	3.0745e+01	12.3269	1.835390	0.000011	0.111491	0.037774	0.000005
 311	3.0845e+01	12.3654	1.840226	0.000012	0.119142	0.040367	0.000005
 312	3.0945e+01	12.4136	1.845905	0.000014	0.139910	0.047403	0.000006
 313	3.1044e+01	12.4553	1.851761	0.000014	0.144283	0.048884	0.000006
 314	3.1143e+01	12.5034	1.856907	0.000013	0.126794	0.042959	0.000005
 315	3.1243e+01	12.5419	1.862851	0.000015	0.146469	0.049625	0.000006
 316	3.1343e+01	12.5772	1.869506	0.000016	0.163958	0.055550	0.000007
 317	3.1442e+01	12.6012	1.875673	0.000015	0.151934	0.051477	0.000006
 318	3.1541e+01	12.6446	1.881484	0.000014	0.143190	0.048514	0.000006
 319	3.1641e+01	12.6847	1.887651	0.000015	0.151934	0.051477	0.000006
 320	3.1741e+01	12.7264	1.894172	0.000016	0.160678	0.054439	0.000007
 321	3.1840e+01	12.7681	1.899806	0.000014	0.138817	0.047033	0.000006
 322	3.1939e+01	12.8210	1.906594	0.000017	0.167237	0.056661	0.000007
 323	3.2039e+01	12.8499	1.912716	0.000015	0.150841	0.051106	0.000006
 324	3.2139e+01	12.8820	1.918528	0.000014	0.143190	0.048514	0.000006
 325	3.2238e+01	12.9462	1.925049	0.000016	0.160678	0.054439	0.000007
 326	3.2337e+01	12.9815	1.930462	0.000013	0.133352	0.045181	0.000005
 327	3.2437e+01	13.0039	1.936628	0.000015	0.151934	0.051477	0.000006
 328	3.2536e+01	13.0424	1.942706	0.000015	0.149748	0.050736	0.000006
 329	3.2636e+01	13.0601	1.949272	0.000016	0.161771	0.054810	0.000007
 330	3.2736e+01	13.1371	1.954906	0.000014	0.138817	0.047033	0.000006
 331	3.2835e+01	13.1740	1.961028	0.000015	0.150841	0.051106	0.000006
 332	3.2934e+01	13.2301	1.967550	0.000016	0.160678	0.054439	0.000007
 333	3.3034e+01	13.2173	1.973894	-0.000016	-0.156306	-0.052958	0.000006
 334	3.3133e+01	13.2750	1.979705	0.000014	0.143190	0.048514	0.000006
 335	3.3233e+01	13.3135	1.986094	0.000016	0.157399	0.053328	0.000006
 336	3.3333e+01	13.3953	1.992526	0.000016	0.158492	0.053699	0.000006
 337	3.3432e+01	13.4002	1.999137	0.000016	0.162864	0.055180	0.000007
 338	3.3532e+01	13.4354	2.005347	0.000015	0.153027	0.051847	0.000006
 339	3.3631e+01	13.4804	2.011647	0.000016	0.155213	0.052588	0.000006
 340	3.3730e+01	13.5365	2.018346	0.000017	0.165051	0.055921	0.000007
 341	3.3830e+01	13.5574	2.025489	0.000018	0.175981	0.059624	0.000007
 342	3.3929e+01	13.6151	2.031921	0.000016	0.158492	0.053699	0.000006
 343	3.4029e+01	13.6568	2.038043	0.000015	0.150841	0.051106	0.000006
 344	3.4129e+01	13.6665	2.045009	0.000017	0.171609	0.058143	0.000007
 345	3.4228e+01	13.7082	2.052550	0.000019	0.185819	0.062957	0.000008
 346	3.4328e+01	13.7563	2.060137	0.000019	0.186912	0.063327	0.000008
 347	3.4427e+01	13.7980	2.066924	0.000017	0.167237	0.056661	0.000007
 348	3.4526e+01	13.8622	2.074022	0.000017	0.174888	0.059254	0.000007
 349	3.4626e+01	13.8702	2.082318	0.000020	0.204400	0.069253	0.000008
 350	3.4725e+01	13.9296	2.090437	0.000020	0.200028	0.067771	0.000008
 351	3.4825e+01	13.9969	2.098689	0.000020	0.203307	0.068882	0.000008
 352	3.4925e+01	13.9937	2.107295	-0.000021	-0.212052	-0.071845	0.000009
 353	3.5024e+01	14.0451	2.115946	0.000021	0.213145	0.072215	0.000009
 354	3.5123e+01	14.0563	2.123798	0.000019	0.193470	0.065549	0.000008
 355	3.5223e+01	14.1092	2.131562	0.000019	0.191284	0.064809	0.000008
 356	3.5322e+01	14.1525	2.139459	0.000019	0.194563	0.065920	0.000008
 357	3.5422e+01	14.1959	2.147755	0.000020	0.204400	0.069253	0.000008
 358	3.5522e+01	14.2215	2.155341	0.000019	0.186912	0.063327	0.000008
 359	3.5621e+01	14.2921	2.162838	0.000018	0.184725	0.062587	0.000008
 360	3.5721e+01	14.3434	2.171267	0.000021	0.207680	0.070364	0.000008
 361	3.5820e+01	14.3659	2.179342	0.000020	0.198935	0.067401	0.000008
 362	3.5919e+01	14.3996	2.187726	0.000021	0.206586	0.069993	0.000008
 363	3.6019e+01	14.4445	2.195401	0.000019	0.189098	0.064068	0.000008
 364	3.6118e+01	14.4509	2.203254	0.000019	0.193470	0.065549	0.000008
 365	3.6218e+01	14.5087	2.211417	0.000020	0.201121	0.068142	0.000008
 366	3.6318e+01	14.5696	2.218870	0.000018	0.183632	0.062216	0.000007
 367	3.6417e+01	14.6114	2.226278	0.000018	0.182539	0.061846	0.000007
 368	3.6517e+01	14.6386	2.233998	0.000019	0.190191	0.064438	0.000008
 369	3.6616e+01	14.6739	2.240963	0.000017	0.171609	0.058143	0.000007
 370	3.6715e+01	14.7269	2.248771	0.000019	0.192377	0.065179	0.000008
 371	3.6815e+01	14.7670	2.257111	0.000021	0.205493	0.069623	0.000008
 372	3.6914e+01	14.8039	2.265940	0.000022	0.217517	0.073697	0.000009
 373	3.7014e+01	14.8456	2.273215	0.000018	0.179260	0.060735	0.000007
 374	3.7114e+01	14.8793	2.280890	0.000019	0.189098	0.064068	0.000008
 375	3.7213e+01	14.9194	2.288654	0.000019	0.191284	0.064809	0.000008
 376	3.7313e+01	14.9643	2.295574	0.000017	0.170516	0.057772	0.000007
 377	3.7412e+01	14.9819	2.302362	0.000017	0.167237	0.056661	0.000007
 378	3.7511e+01	15.0477	2.309682	0.000018	0.180353	0.061105	0.000007
 379	3.7611e+01	15.0670	2.316913	0.000018	0.178167	0.060365	0.000007
 380	3.7711e+01	15.1183	2.323878	0.000017	0.171609	0.058143	0.000007
 381	3.7810e+01	15.1680	2.331598	0.000019	0.190191	0.064438	0.000008
 382	3.7910e+01	15.1969	2.339273	0.000019	0.189098	0.064068	0.000008
 383	3.8009e+01	15.2242	2.346060	0.000017	0.167237	0.056661	0.000007
 384	3.8108e+01	15.2915	2.353292	0.000018	0.178167	0.060365	0.000007
 385	3.8208e+01	15.2883	2.360079	-0.000017	-0.167237	-0.056661	0.000007
 386	3.8307e+01	15.3637	2.367355	0.000018	0.179260	0.060735	0.000007
 387	3.8407e+01	15.4038	2.374187	0.000017	0.168330	0.057032	0.000007
 388	3.8507e+01	15.4423	2.380309	0.000015	0.150841	0.051106	0.000006
 389	3.8606e+01	15.4857	2.385455	0.000013	0.126794	0.042959	0.000005
 390	3.8706e+01	15.4937	2.391267	0.000014	0.143190	0.048514	0.000006
 391	3.8805e+01	15.5739	2.397123	0.000014	0.144283	0.048884	0.000006
 392	3.8904e+01	15.6172	2.401958	0.000012	0.119142	0.040367	0.000005
 393	3.9004e+01	15.6429	2.407637	0.000014	0.139910	0.047403	0.000006
 394	3.9103e+01	15.6830	2.413049	0.000013	0.133352	0.045181	0.000005
 395	3.9203e+01	15.7327	2.417752	0.000012	0.115863	0.039256	0.000005
 396	3.9303e+01	15.7359	2.422721	0.000012	0.122422	0.041478	0.000005
 397	3.9402e+01	15.7873	2.428133	0.000013	0.133352	0.045181	0.000005
 398	3.9502e+01	15.8290	2.433013	0.000012	0.120236	0.040737	0.000005
 399	3.9601e+01	15.8915	2.437494	0.000011	0.110398	0.037404	0.000005
 400	3.9700e+01	15.8931	2.441797	0.000011	0.106026	0.035923	0.000004
 401	3.9800e+01	15.9653	2.447076	0.000013	0.130073	0.044070	0.000005
 402	3.9900e+01	15.9717	2.451158	0.000010	0.100561	0.034071	0.000004
 403	3.9999e+01	16.0167	2.454308	0.000008	0.077607	0.026294	0.000003
 404	4.0099e+01	16.0696	2.458611	0.000011	0.106026	0.035923	0.000004
 405	4.0198e+01	16.0840	2.463713	0.000013	0.125701	0.042589	0.000005
 406	4.0297e+01	16.1546	2.467794	0.000010	0.100561	0.034071	0.000004
 407	4.0397e+01	16.1995	2.471742	0.000010	0.097281	0.032960	0.000004
 408	4.0496e+01	16.2284	2.475425	0.000009	0.090723	0.030738	0.000004
 409	4.0596e+01	16.2862	2.479639	0.000010	0.103840	0.035182	0.000004
 410	4.0696e+01	16.3167	2.484697	0.000012	0.124608	0.042218	0.000005
 411	4.0795e+01	16.3648	2.488024	0.000008	0.081979	0.027775	0.000003
 412	4.0895e+01	16.4209	2.492017	0.000010	0.098375	0.033330	0.000004
 413	4.0994e+01	16.4145	2.496453	-0.000011	-0.109305	-0.037034	0.000004
 414	4.1093e+01	16.4739	2.501156	0.000012	0.115863	0.039256	0.000005
 415	4.1193e+01	16.5188	2.505015	0.000010	0.095095	0.032219	0.000004
 416	4.1292e+01	16.5621	2.508076	0.000008	0.075420	0.025553	0.000003
 417	4.1392e+01	16.5797	2.512779	0.000012	0.115863	0.039256	0.000005
 418	4.1492e+01	16.6295	2.516638	0.000010	0.095095	0.032219	0.000004
 419	4.1591e+01	16.6760	2.520631	0.000010	0.098375	0.033330	0.000004
 420	4.1691e+01	16.7129	2.524580	0.000010	0.097281	0.032960	0.000004
 421	4.1790e+01	16.7434	2.528306	0.000009	0.091816	0.031108	0.000004
 422	4.1889e+01	16.8124	2.532299	0.000010	0.098375	0.033330	0.000004
 423	4.1989e+01	16.8204	2.535715	0.000008	0.084165	0.028516	0.000003
 424	4.2089e+01	16.8846	2.538510	0.000007	0.068862	0.023331	0.000003
 425	4.2188e+01	16.8926	2.541970	0.000009	0.085258	0.028886	0.000003
 426	4.2288e+01	16.9535	2.545519	0.000009	0.087444	0.029627	0.000004
 427	4.2387e+01	16.9664	2.549068	0.000009	0.087444	0.029627	0.000004
 428	4.2486e+01	17.0466	2.552129	0.000008	0.075420	0.025553	0.000003
 429	4.2586e+01	17.0626	2.554436	0.000006	0.056839	0.019257	0.000002
 430	4.2685e+01	17.1107	2.557675	0.000008	0.079793	0.027034	0.000003
 431	4.2785e+01	17.1701	2.560958	0.000008	0.080886	0.027405	0.000003
 432	4.2885e+01	17.1749	2.563353	0.000006	0.059025	0.019998	0.000002
 433	4.2984e+01	17.2166	2.565261	0.000005	0.047001	0.015924	0.000002
 434	4.3084e+01	17.2776	2.567878	0.000006	0.064490	0.021850	0.000003
 435	4.3183e+01	17.3193	2.569697	0.000004	0.044815	0.015184	0.000002
 436	4.3282e+01	17.3594	2.570940	0.000003	0.030605	0.010369	0.000001
 437	4.3382e+01	17.3979	2.573113	0.000005	0.053559	0.018146	0.000002
 438	4.3481e+01	17.4236	2.575287	0.000005	0.053559	0.018146	0.000002
 439	4.3581e+01	17.4717	2.577727	0.000006	0.060118	0.020368	0.000002
 440	4.3681e+01	17.4974	2.579413	0.000004	0.041536	0.014073	0.000002
 441	4.3780e+01	17.5391	2.582030	0.000006	0.064490	0.021850	0.000003
 442	4.3880e+01	17.6145	2.584781	0.000007	0.067769	0.022961	0.000003
 443	4.3979e+01	17.6353	2.586023	0.000003	0.030605	0.010369	0.000001
 444	4.4078e+01	17.6658	2.588020	0.000005	0.049187	0.016665	0.000002
 445	4.4178e+01	17.7171	2.590548	0.000006	0.062304	0.021109	0.000003
 446	4.4278e+01	17.7396	2.592456	0.000005	0.047001	0.015924	0.000002
 447	4.4377e+01	17.7508	2.594763	0.000006	0.056839	0.019257	0.000002
 448	4.4477e+01	17.8359	2.596848	0.000005	0.051373	0.017406	0.000002
 449	4.4576e+01	17.8776	2.599465	0.000006	0.064490	0.021850	0.000003
 450	4.4675e+01	17.9337	2.601861	0.000006	0.059025	0.019998	0.000002
 451	4.4775e+01	17.9305	2.604478	-0.000006	-0.064490	-0.021850	0.000003
 452	4.4874e+01	17.9851	2.607229	0.000007	0.067769	0.022961	0.000003
 453	4.4974e+01	18.0268	2.609225	0.000005	0.049187	0.016665	0.000002
 454	4.5074e+01	18.0813	2.611488	0.000006	0.055746	0.018887	0.000002
 455	4.5173e+01	18.1134	2.613750	0.000006	0.055746	0.018887	0.000002
 456	4.5273e+01	18.1439	2.616457	0.000007	0.066676	0.022590	0.000003
 457	4.5372e+01	18.1920	2.618276	0.000004	0.044815	0.015184	0.000002
 458	4.5471e+01	18.2145	2.620671	0.000006	0.059025	0.019998	0.000002
 459	4.5571e+01	18.2433	2.623289	0.000006	0.064490	0.021850	0.000003
 460	4.5670e+01	18.3219	2.626483	0.000008	0.078700	0.026664	0.000003
 461	4.5770e+01	18.3316	2.628701	0.000005	0.054653	0.018517	0.000002
 462	4.5870e+01	18.4070	2.631629	0.000007	0.072141	0.024442	0.000003
 463	4.5969e+01	18.4086	2.634291	0.000007	0.065583	0.022220	0.000003
 464	4.6069e+01	18.4792	2.636953	0.000007	0.065583	0.022220	0.000003
 465	4.6168e+01	18.5177	2.639304	0.000006	0.057932	0.019628	0.000002
 466	4.6267e+01	18.5369	2.641921	0.000006	0.064490	0.021850	0.000003
 467	4.6367e+01	18.5931	2.644716	0.000007	0.068862	0.023331	0.000003
 468	4.6467e+01	18.6284	2.647777	0.000008	0.075420	0.025553	0.000003
 469	4.6566e+01	18.6508	2.650084	0.000006	0.056839	0.019257	0.000002
 470	4.6666e+01	18.7182	2.653323	0.000008	0.079793	0.027034	0.000003
 471	4.6765e+01	18.7455	2.656739	0.000008	0.084165	0.028516	0.000003
 472	4.6864e+01	18.7840	2.660598	0.000010	0.095095	0.032219	0.000004
 473	4.6964e+01	18.8257	2.664414	0.000009	0.094002	0.031849	0.000004
 474	4.7063e+01	18.8481	2.668451	0.000010	0.099468	0.033701	0.000004
 475	4.7163e+01	18.8882	2.673065	0.000011	0.113677	0.038515	0.000005
 476	4.7263e+01	18.9524	2.677279	0.000010	0.103840	0.035182	0.000004
 477	4.7362e+01	18.9877	2.681228	0.000010	0.097281	0.032960	0.000004
 478	4.7462e+01	19.0053	2.686285	0.000012	0.124608	0.042218	0.000005
 479	4.7561e+01	19.0775	2.691076	0.000012	0.118049	0.039996	0.000005
 480	4.7660e+01	19.1192	2.696755	0.000014	0.139910	0.047403	0.000006
 481	4.7760e+01	19.1369	2.701324	0.000011	0.112584	0.038145	0.000005
 482	4.7859e+01	19.1786	2.706515	0.000013	0.127887	0.043329	0.000005
 483	4.7959e+01	19.2139	2.711661	0.000013	0.126794	0.042959	0.000005
 484	4.8059e+01	19.2620	2.717783	0.000015	0.150841	0.051106	0.000006
 485	4.8158e+01	19.2877	2.723373	0.000014	0.137724	0.046662	0.000006
 486	4.8258e+01	19.3599	2.729540	0.000015	0.151934	0.051477	0.000006
 487	4.8357e+01	19.3711	2.734908	0.000013	0.132259	0.044811	0.000005
 488	4.8456e+01	19.4353	2.741030	0.000015	0.150841	0.051106	0.000006
 489	4.8556e+01	19.4497	2.747196	0.000015	0.151934	0.051477	0.000006
 490	4.8656e+01	19.4898	2.752609	0.000013	0.133352	0.045181	0.000005
 491	4.8755e+01	19.5588	2.758110	0.000014	0.135538	0.045922	0.000006
 492	4.8855e+01	19.5572	2.763433	-0.000013	-0.131166	-0.044440	0.000005
 493	4.8954e+01	19.5925	2.769777	0.000016	0.156306	0.052958	0.000006
 494	4.9053e+01	19.6679	2.775589	0.000014	0.143190	0.048514	0.000006
 495	4.9153e+01	19.6920	2.780513	0.000012	0.121329	0.041107	0.000005
 496	4.9252e+01	19.7513	2.785881	0.000013	0.132259	0.044811	0.000005
 497	4.9352e+01	19.7978	2.792181	0.000016	0.155213	0.052588	0.000006
 498	4.9452e+01	19.8363	2.797638	0.000013	0.134445	0.045551	0.000005
 499	4.9551e+01	19.8379	2.804115	0.000016	0.159585	0.054069	0.000007
 500	4.9651e+01	19.9069	2.809527	0.000013	0.133352	0.045181	0.000005
 501	4.9750e+01	19.9342	2.815339	0.000014	0.143190	0.048514	0.000006
 502	4.9849e+01	19.9486	2.821150	0.000014	0.143190	0.048514	0.000006
 503	4.9949e+01	20.0160	2.827583	0.000016	0.158492	0.053699	0.000006
 504	5.0048e+01	19.9807	2.830955	-0.000008	-0.083072	-0.028145	0.000003
 505	5.0148e+01	19.9470	2.832862	-0.000005	-0.047001	-0.015924	0.000002
 506	5.0248e+01	19.8957	2.833705	-0.000002	-0.020768	-0.007036	0.000001
 507	5.0347e+01	19.8588	2.833350	0.000001	0.008744	0.002963	-0.000000
 508	5.0447e+01	19.8026	2.833173	0.000000	0.004372	0.001481	-0.000000
 509	5.0546e+01	19.7962	2.832996	0.000000	0.004372	0.001481	-0.000000
 510	5.0645e+01	19.7208	2.832552	0.000001	0.010931	0.003703	-0.000000
 511	5.0745e+01	19.7240	2.831620	-0.000002	-0.022954	-0.007777	-0.000001
 512	5.0844e+01	19.6583	2.830156	0.000004	0.036071	0.012221	-0.000001
 513	5.0944e+01	19.6326	2.829624	0.000001	0.013117	0.004444	-0.000001
 514	5.1044e+01	19.5620	2.829136	0.000001	0.012024	0.004074	-0.000000
 515	5.1143e+01	19.5492	2.829446	-0.000001	-0.007651	-0.002592	0.000000
 516	5.1242e+01	19.4994	2.828958	0.000001	0.012024	0.004074	-0.000000
 517	5.1342e+01	19.4561	2.828958	-0.000000	-0.000000	-0.000000	0.000000
 518	5.1441e+01	19.4160	2.829624	-0.000002	-0.016396	-0.005555	0.000001
 519	5.1541e+01	19.3631	2.830689	-0.000003	-0.026233	-0.008888	0.000001
 520	5.1641e+01	19.3294	2.830511	0.000000	0.004372	0.001481	-0.000000
 521	5.1740e+01	19.2973	2.830201	0.000001	0.007651	0.002592	-0.000000
 522	5.1840e+01	19.2652	2.830600	-0.000001	-0.009837	-0.003333	0.000000
 523	5.1939e+01	19.2059	2.829801	0.000002	0.019675	0.006666	-0.000001
 524	5.2038e+01	19.2059	2.829668	0.000000	0.003279	0.001111	-0.000000
 525	5.2138e+01	19.1658	2.829047	0.000002	0.015303	0.005185	-0.000001
 526	5.2237e+01	19.1016	2.828825	0.000001	0.005465	0.001852	-0.000000
 527	5.2337e+01	19.0503	2.829313	-0.000001	-0.012024	-0.004074	0.000000
 528	5.2437e+01	19.0519	2.829047	-0.000001	-0.006558	-0.002222	-0.000000
 529	5.2536e+01	19.0070	2.829003	0.000000	0.001093	0.000370	-0.000000
 530	5.2636e+01	18.9412	2.828470	0.000001	0.013117	0.004444	-0.000001
 531	5.2735e+01	18.9123	2.827672	0.000002	0.019675	0.006666	-0.000001
 532	5.2834e+01	18.8578	2.827982	-0.000001	-0.007651	-0.002592	0.000000
 533	5.2934e+01	18.8273	2.827361	0.000002	0.015303	0.005185	-0.000001
 534	5.3033e+01	18.7952	2.826341	0.000003	0.025140	0.008518	-0.000001
 535	5.3133e+01	18.7615	2.825365	0.000002	0.024047	0.008147	-0.000001
 536	5.3233e+01	18.7086	2.825232	0.000000	0.003279	0.001111	-0.000000
 537	5.3332e+01	18.6604	2.824478	0.000002	0.018582	0.006296	-0.000001
 538	5.3431e+01	18.6380	2.823590	0.000002	0.021861	0.007407	-0.000001
 539	5.3531e+01	18.5706	2.823191	0.000001	0.009837	0.003333	-0.000000
 540	5.3630e+01	18.5530	2.822481	0.000002	0.017489	0.005925	-0.000001
 541	5.3730e+01	18.5112	2.821727	0.000002	0.018582	0.006296	-0.000001
 542	5.3830e+01	18.4519	2.821860	-0.000000	-0.003279	-0.001111	0.000000
 543	5.3929e+01	18.4230	2.821195	0.000002	0.016396	0.005555	-0.000001
 544	5.4029e+01	18.3941	2.818799	0.000006	0.059025	0.019998	-0.000002
 545	5.4128e+01	18.3524	2.817202	0.000004	0.039350	0.013332	-0.000002
 546	5.4227e+01	18.3348	2.816004	0.000003	0.029512	0.009999	-0.000001
 547	5.4327e+01	18.2433	2.814540	0.000004	0.036071	0.012221	-0.000001
 548	5.4426e+01	18.2449	2.813476	-0.000003	-0.026233	-0.008888	-0.000001
 549	5.4526e+01	18.1856	2.812766	0.000002	0.017489	0.005925	-0.000001
 550	5.4626e+01	18.1583	2.811657	0.000003	0.027326	0.009258	-0.000001
 551	5.4725e+01	18.1198	2.810326	0.000003	0.032792	0.011110	-0.000001
 552	5.4825e+01	18.0669	2.808596	0.000004	0.042629	0.014443	-0.000002
 553	5.4924e+01	18.0043	2.807043	0.000004	0.038257	0.012962	-0.000002
 554	5.5023e+01	17.9834	2.805623	0.000003	0.034978	0.011851	-0.000001
 555	5.5123e+01	17.9562	2.803760	0.000005	0.045908	0.015554	-0.000002
 556	5.5222e+01	17.8968	2.800788	0.000007	0.073234	0.024812	-0.000003
 557	5.5322e+01	17.8760	2.797948	0.000007	0.069955	0.023701	-0.000003
 558	5.5422e+01	17.8246	2.795553	0.000006	0.059025	0.019998	-0.000002
 559	5.5521e+01	17.7749	2.792580	0.000007	0.073234	0.024812	-0.000003
 560	5.5620e+01	17.7300	2.789209	0.000008	0.083072	0.028145	-0.000003
 561	5.5720e+01	17.7059	2.786059	0.000008	0.077607	0.026294	-0.000003
 562	5.5819e+01	17.6450	2.782820	0.000008	0.079793	0.027034	-0.000003
 563	5.5919e+01	17.6289	2.779626	0.000008	0.078700	0.026664	-0.000003
 564	5.6019e+01	17.5824	2.775545	0.000010	0.100561	0.034071	-0.000004
 565	5.6118e+01	17.5519	2.771996	0.000009	0.087444	0.029627	-0.000004
 566	5.6218e+01	17.4958	2.768136	0.000010	0.095095	0.032219	-0.000004
 567	5.6317e+01	17.4781	2.763788	0.000011	0.107119	0.036293	-0.000004
 568	5.6416e+01	17.4172	2.759174	0.000011	0.113677	0.038515	-0.000005
 569	5.6516e+01	17.3321	2.754561	0.000011	0.113677	0.038515	-0.000005
 570	5.6615e+01	17.3466	2.751189	-0.000008	-0.083072	-0.028145	-0.000003
 571	5.6715e+01	17.3049	2.746398	0.000012	0.118049	0.039996	-0.000005
 572	5.6815e+01	17.2920	2.741429	0.000012	0.122422	0.041478	-0.000005
 573	5.6914e+01	17.2198	2.737436	0.000010	0.098375	0.033330	-0.000004
 574	5.7014e+01	17.2086	2.733355	0.000010	0.100561	0.034071	-0.000004
 575	5.7113e+01	17.1412	2.728475	0.000012	0.120236	0.040737	-0.000005
 576	5.7212e+01	17.0915	2.723684	0.000012	0.118049	0.039996	-0.000005
 577	5.7312e+01	17.0418	2.719513	0.000010	0.102747	0.034812	-0.000004
 578	5.7411e+01	17.0418	2.715343	0.000010	0.102747	0.034812	-0.000004
 579	5.7511e+01	16.9648	2.711528	0.000009	0.094002	0.031849	-0.000004
 580	5.7611e+01	16.9551	2.706470	0.000012	0.124608	0.042218	-0.000005
 581	5.7710e+01	16.9471	2.701901	0.000011	0.112584	0.038145	-0.000005
 582	5.7809e+01	16.8669	2.696755	0.000013	0.126794	0.042959	-0.000005
 583	5.7909e+01	16.8460	2.692540	0.000010	0.103840	0.035182	-0.000004
 584	5.8008e+01	16.8428	2.687350	0.000013	0.127887	0.043329	-0.000005
 585	5.8108e+01	16.7530	2.682558	0.000012	0.118049	0.039996	-0.000005
 586	5.8208e+01	16.6969	2.677945	0.000011	0.113677	0.038515	-0.000005
 587	5.8307e+01	16.7001	2.673774	-0.000010	-0.102747	-0.034812	-0.000004
 588	5.8407e+01	16.6070	2.668673	0.000013	0.125701	0.042589	-0.000005
 589	5.8506e+01	16.6150	2.662772	-0.000015	-0.145376	-0.049255	-0.000006
 590	5.8605e+01	16.5493	2.657537	0.000013	0.128980	0.043700	-0.000005
 591	5.8705e+01	16.4915	2.653234	0.000011	0.106026	0.035923	-0.000004
 592	5.8804e+01	16.4514	2.648265	0.000012	0.122422	0.041478	-0.000005
 593	5.8904e+01	16.4273	2.642764	0.000014	0.135538	0.045922	-0.000006
 594	5.9004e+01	16.4049	2.636775	0.000015	0.147562	0.049995	-0.000006
 595	5.9103e+01	16.3632	2.631230	0.000014	0.136631	0.046292	-0.000006
 596	5.9203e+01	16.3167	2.625640	0.000014	0.137724	0.046662	-0.000006
 597	5.9302e+01	16.2862	2.620228	0.000013	0.133352	0.045181	-0.000005
 598	5.9401e+01	16.2429	2.614283	0.000015	0.146469	0.049625	-0.000006
 599	5.9501e+01	16.1851	2.607451	0.000017	0.168330	0.057032	-0.000007
 600	5.9600e+01	16.1803	2.600708	0.000017	0.166144	0.056291	-0.000007
 601	5.9700e+01	16.1257	2.594053	0.000016	0.163958	0.055550	-0.000007
 602	5.9800e+01	16.0760	2.587177	0.000017	0.169423	0.057402	-0.000007
 603	5.9899e+01	16.0391	2.580034	0.000018	0.175981	0.059624	-0.000007
 604	5.9998e+01	15.9926	2.573291	0.000017	0.166144	0.056291	-0.000007
 605	6.0098e+01	15.9525	2.566947	0.000016	0.156306	0.052958	-0.000006
 606	6.0197e+01	15.9172	2.559937	0.000017	0.172702	0.058513	-0.000007
 607	6.0297e+01	15.8835	2.553638	0.000016	0.155213	0.052588	-0.000006
 608	6.0397e+01	15.8274	2.547294	0.000016	0.156306	0.052958	-0.000006
 609	6.0496e+01	15.7905	2.540417	0.000017	0.169423	0.057402	-0.000007
 610	6.0596e+01	15.7455	2.533009	0.000018	0.182539	0.061846	-0.000007
 611	6.0695e+01	15.6990	2.526487	0.000016	0.160678	0.054439	-0.000007
 612	6.0794e+01	15.6750	2.520542	0.000015	0.146469	0.049625	-0.000006
 613	6.0894e+01	15.6284	2.513888	0.000016	0.163958	0.055550	-0.000007
 614	6.0993e+01	15.5835	2.507012	0.000017	0.169423	0.057402	-0.000007
 615	6.1093e+01	15.5691	2.500756	0.000015	0.154120	0.052217	-0.000006
 616	6.1193e+01	15.5386	2.494590	0.000015	0.151934	0.051477	-0.000006
 617	6.1292e+01	15.4937	2.487891	0.000017	0.165051	0.055921	-0.000007
 618	6.1392e+01	15.4279	2.481857	0.000015	0.148655	0.050366	-0.000006
 619	6.1491e+01	15.4071	2.476445	0.000013	0.133352	0.045181	-0.000005
 620	6.1590e+01	15.3750	2.469613	0.000017	0.168330	0.057032	-0.000007
 621	6.1690e+01	15.2980	2.463003	0.000016	0.162864	0.055180	-0.000007
 622	6.1789e+01	15.2787	2.456304	0.000017	0.165051	0.055921	-0.000007
 623	6.1889e+01	15.2161	2.449472	0.000017	0.168330	0.057032	-0.000007
 624	6.1989e+01	15.1841	2.442729	0.000017	0.166144	0.056291	-0.000007
 625	6.2088e+01	15.1424	2.435852	0.000017	0.169423	0.057402	-0.000007
 626	6.2188e+01	15.1231	2.429819	0.000015	0.148655	0.050366	-0.000006
 627	6.2287e+01	15.0990	2.423209	0.000016	0.162864	0.055180	-0.000007
 628	6.2386e+01	15.0397	2.417131	0.000015	0.149748	0.050736	-0.000006
 629	6.2486e+01	14.9867	2.411186	0.000015	0.146469	0.049625	-0.000006
 630	6.2586e+01	14.9595	2.404753	0.000016	0.158492	0.053699	-0.000006
 631	6.2685e+01	14.9258	2.398764	0.000015	0.147562	0.049995	-0.000006
 632	6.2785e+01	14.8616	2.392598	0.000015	0.151934	0.051477	-0.000006
 633	6.2884e+01	14.8440	2.385810	0.000017	0.167237	0.056661	-0.000007
 634	6.2983e+01	14.7846	2.378756	0.000017	0.173795	0.058883	-0.000007
 635	6.3083e+01	14.7573	2.373033	0.000014	0.141003	0.047773	-0.000006
 636	6.3182e+01	14.7092	2.366601	0.000016	0.158492	0.053699	-0.000006
 637	6.3282e+01	14.6723	2.359946	0.000016	0.163958	0.055550	-0.000007
 638	6.3382e+01	14.6130	2.353957	0.000015	0.147562	0.049995	-0.000006
 639	6.3481e+01	14.5873	2.348101	0.000014	0.144283	0.048884	-0.000006
 640	6.3581e+01	14.5632	2.344153	0.000010	0.097281	0.032960	-0.000004
 641	6.3680e+01	14.5199	2.339140	0.000012	0.123515	0.041848	-0.000005
 642	6.3779e+01	14.5071	2.334215	0.000012	0.121329	0.041107	-0.000005
 643	6.3879e+01	14.4237	2.329246	0.000012	0.122422	0.041478	-0.000005
 644	6.3978e+01	14.4108	2.324633	0.000011	0.113677	0.038515	-0.000005
 645	6.4078e+01	14.3450	2.320684	0.000010	0.097281	0.032960	-0.000004
 646	6.4177e+01	14.3162	2.315804	0.000012	0.120236	0.040737	-0.000005
 647	6.4277e+01	14.2697	2.311945	0.000010	0.095095	0.032219	-0.000004
 648	6.4376e+01	14.2729	2.308129	-0.000009	-0.094002	-0.031849	-0.000004
 649	6.4476e+01	14.2183	2.304181	0.000010	0.097281	0.032960	-0.000004
 650	6.4576e+01	14.1349	2.299789	0.000011	0.108212	0.036663	-0.000004
 651	6.4675e+01	14.1349	2.296861	0.000007	0.072141	0.024442	-0.000003
 652	6.4775e+01	14.0916	2.293401	0.000009	0.085258	0.028886	-0.000003
 653	6.4874e+01	14.0402	2.289319	0.000010	0.100561	0.034071	-0.000004
 654	6.4974e+01	14.0050	2.285859	0.000009	0.085258	0.028886	-0.000003
 655	6.5073e+01	13.9697	2.283862	0.000005	0.049187	0.016665	-0.000002
 656	6.5172e+01	13.9087	2.281201	0.000007	0.065583	0.022220	-0.000003
 657	6.5272e+01	13.8782	2.276986	0.000010	0.103840	0.035182	-0.000004
 658	6.5371e+01	13.8461	2.272727	0.000010	0.104933	0.035552	-0.000004
 659	6.5471e+01	13.8205	2.269311	0.000008	0.084165	0.028516	-0.000003
 660	6.5570e+01	13.7675	2.266428	0.000007	0.071048	0.024072	-0.000003
 661	6.5670e+01	13.7162	2.262923	0.000009	0.086351	0.029257	-0.000004
 662	6.5769e+01	13.6873	2.258398	0.000011	0.111491	0.037774	-0.000005
 663	6.5869e+01	13.6280	2.254849	0.000009	0.087444	0.029627	-0.000004
 664	6.5969e+01	13.6151	2.251876	0.000007	0.073234	0.024812	-0.000003
 665	6.6068e+01	13.5413	2.248372	0.000009	0.086351	0.029257	-0.000004
 666	6.6168e+01	13.5076	2.245089	0.000008	0.080886	0.027405	-0.000003
 667	6.6267e+01	13.4675	2.242161	0.000007	0.072141	0.024442	-0.000003
 668	6.6367e+01	13.4387	2.238922	0.000008	0.079793	0.027034	-0.000003
 669	6.6466e+01	13.3921	2.235506	0.000008	0.084165	0.028516	-0.000003
 670	6.6566e+01	13.3584	2.231868	0.000009	0.089630	0.030368	-0.000004
 671	6.6665e+01	13.3039	2.228807	0.000008	0.075420	0.025553	-0.000003
 672	6.6764e+01	13.3071	2.226145	-0.000007	-0.065583	-0.022220	-0.000003
 673	6.6864e+01	13.2317	2.223173	0.000007	0.073234	0.024812	-0.000003
 674	6.6963e+01	13.1964	2.219402	0.000009	0.092909	0.031479	-0.000004
 675	6.7063e+01	13.1290	2.216652	0.000007	0.067769	0.022961	-0.000003
 676	6.7162e+01	13.1258	2.213857	0.000007	0.068862	0.023331	-0.000003
 677	6.7262e+01	13.0745	2.210751	0.000008	0.076514	0.025923	-0.000003
 678	6.7362e+01	13.0504	2.207690	0.000008	0.075420	0.025553	-0.000003
 679	6.7461e+01	12.9911	2.204673	0.000007	0.074327	0.025183	-0.000003
 680	6.7561e+01	12.9750	2.202233	0.000006	0.060118	0.020368	-0.000002
 681	6.7660e+01	12.9173	2.199438	0.000007	0.068862	0.023331	-0.000003
 682	6.7760e+01	12.8916	2.197442	0.000005	0.049187	0.016665	-0.000002
 683	6.7859e+01	12.8387	2.195668	0.000004	0.043722	0.014813	-0.000002
 684	6.7959e+01	12.8066	2.194026	0.000004	0.040443	0.013702	-0.000002
 685	6.8058e+01	12.7617	2.192828	0.000003	0.029512	0.009999	-0.000001
 686	6.8157e+01	12.7537	2.191897	0.000002	0.022954	0.007777	-0.000001
 687	6.8257e+01	12.6895	2.190122	0.000004	0.043722	0.014813	-0.000002
 688	6.8356e+01	12.6686	2.188614	0.000004	0.037164	0.012591	-0.000002
 689	6.8456e+01	12.6189	2.188081	0.000001	0.013117	0.004444	-0.000001
 690	6.8555e+01	12.5900	2.186129	0.000005	0.048094	0.016295	-0.000002
 691	6.8655e+01	12.5162	2.183601	0.000006	0.062304	0.021109	-0.000003
 692	6.8754e+01	12.4745	2.182092	0.000004	0.037164	0.012591	-0.000002
 693	6.8854e+01	12.4472	2.180673	0.000003	0.034978	0.011851	-0.000001
 694	6.8954e+01	12.4344	2.179164	0.000004	0.037164	0.012591	-0.000002
 695	6.9053e+01	12.3815	2.177345	0.000004	0.044815	0.015184	-0.000002
 696	6.9153e+01	12.3237	2.175970	0.000003	0.033885	0.011480	-0.000001
 697	6.9252e+01	12.2788	2.174550	0.000003	0.034978	0.011851	-0.000001
 698	6.9352e+01	12.2740	2.172110	0.000006	0.060118	0.020368	-0.000002
 699	6.9451e+01	12.2114	2.170336	0.000004	0.043722	0.014813	-0.000002
 700	6.9550e+01	12.1793	2.168650	0.000004	0.041536	0.014073	-0.000002
 701	6.9650e+01	12.1216	2.166787	0.000005	0.045908	0.015554	-0.000002
 702	6.9749e+01	12.0767	2.164613	0.000005	0.053559	0.018146	-0.000002
 703	6.9849e+01	12.0767	2.162040	0.000006	0.063397	0.021479	-0.000003
 704	6.9948e+01	11.9948	2.160265	0.000004	0.043722	0.014813	-0.000002
 705	7.0048e+01	11.9836	2.157692	0.000006	0.063397	0.021479	-0.000003
 706	7.0147e+01	11.9146	2.156139	0.000004	0.038257	0.012962	-0.000002
 707	7.0247e+01	11.8906	2.155208	0.000002	0.022954	0.007777	-0.000001
 708	7.0347e+01	11.8633	2.153211	0.000005	0.049187	0.016665	-0.000002
 709	7.0446e+01	11.8248	2.151437	0.000004	0.043722	0.014813	-0.000002
 710	7.0546e+01	11.7574	2.148953	0.000006	0.061211	0.020739	-0.000002
 711	7.0645e+01	11.7430	2.145891	0.000008	0.075420	0.025553	-0.000003
 712	7.0745e+01	11.6868	2.143806	0.000005	0.051373	0.017406	-0.000002
 713	7.0844e+01	11.6483	2.141278	0.000006	0.062304	0.021109	-0.000003
 714	7.0944e+01	11.6146	2.137906	0.000008	0.083072	0.028145	-0.000003
 715	7.1043e+01	11.5665	2.135954	0.000005	0.048094	0.016295	-0.000002
 716	7.1142e+01	11.5200	2.134446	0.000004	0.037164	0.012591	-0.000002
 717	7.1242e+01	11.5120	2.131518	0.000007	0.072141	0.024442	-0.000003
 718	7.1341e+01	11.4510	2.128989	0.000006	0.062304	0.021109	-0.000003
 719	7.1441e+01	11.4013	2.127658	0.000003	0.032792	0.011110	-0.000001
 720	7.1540e+01	11.3788	2.125529	0.000005	0.052466	0.017776	-0.000002
 721	7.1640e+01	11.3371	2.121846	0.000009	0.090723	0.030738	-0.000004
 722	7.1740e+01	11.3066	2.118386	0.000009	0.085258	0.028886	-0.000003
 723	7.1839e+01	11.2617	2.115281	0.000008	0.076514	0.025923	-0.000003
 724	7.1939e+01	11.2216	2.111465	0.000009	0.094002	0.031849	-0.000004
 725	7.2038e+01	11.1783	2.106851	0.000011	0.113677	0.038515	-0.000005
 726	7.2138e+01	11.1398	2.102105	0.000012	0.116956	0.039626	-0.000005
 727	7.2237e+01	11.1318	2.098467	0.000009	0.089630	0.030368	-0.000004
 728	7.2337e+01	11.0548	2.094430	0.000010	0.099468	0.033701	-0.000004
 729	7.2436e+01	11.0403	2.089417	0.000012	0.123515	0.041848	-0.000005
 730	7.2535e+01	10.9826	2.084403	0.000012	0.123515	0.041848	-0.000005
 731	7.2635e+01	10.9585	2.079346	0.000012	0.124608	0.042218	-0.000005
 732	7.2734e+01	10.9136	2.074998	0.000011	0.107119	0.036293	-0.000004
 733	7.2834e+01	10.8607	2.069941	0.000012	0.124608	0.042218	-0.000005
 734	7.2933e+01	10.8141	2.064395	0.000014	0.136631	0.046292	-0.000006
 735	7.3033e+01	10.7564	2.058761	0.000014	0.138817	0.047033	-0.000006
 736	7.3132e+01	10.7259	2.053659	0.000013	0.125701	0.042589	-0.000005
 737	7.3232e+01	10.7066	2.048779	0.000012	0.120236	0.040737	-0.000005
 738	7.3332e+01	10.6681	2.042702	0.000015	0.149748	0.050736	-0.000006
 739	7.3431e+01	10.6152	2.036846	0.000014	0.144283	0.048884	-0.000006
 740	7.3531e+01	10.5847	2.031611	0.000013	0.128980	0.043700	-0.000005
 741	7.3630e+01	10.5623	2.026243	0.000013	0.132259	0.044811	-0.000005
 742	7.3730e+01	10.4997	2.020342	0.000015	0.145376	0.049255	-0.000006
 743	7.3829e+01	10.4468	2.015019	0.000013	0.131166	0.044440	-0.000005
 744	7.3928e+01	10.4099	2.009606	0.000013	0.133352	0.045181	-0.000005
 745	7.4028e+01	10.3553	2.003750	0.000014	0.144283	0.048884	-0.000006
 746	7.4127e+01	10.3297	1.998427	0.000013	0.131166	0.044440	-0.000005
 747	7.4227e+01	10.2992	1.992881	0.000014	0.136631	0.046292	-0.000006
 748	7.4326e+01	10.2559	1.987025	0.000014	0.144283	0.048884	-0.000006
 749	7.4426e+01	10.2270	1.980992	0.000015	0.148655	0.050366	-0.000006
 750	7.4525e+01	10.1756	1.975358	0.000014	0.138817	0.047033	-0.000006
 751	7.4625e+01	10.1371	1.969280	0.000015	0.149748	0.050736	-0.000006
 752	7.4725e+01	10.0890	1.964001	0.000013	0.130073	0.044070	-0.000005
 753	7.4824e+01	10.0297	1.957346	0.000016	0.163958	0.055550	-0.000007
 754	7.4924e+01	10.0008	1.950869	0.000016	0.159585	0.054069	-0.000007
 755	7.5023e+01	9.9912	1.944791	0.000015	0.149748	0.050736	-0.000006
 756	7.5123e+01	9.9591	1.939068	0.000014	0.141003	0.047773	-0.000006
 757	7.5222e+01	9.8933	1.932680	0.000016	0.157399	0.053328	-0.000006
 758	7.5322e+01	9.8516	1.926957	0.000014	0.141003	0.047773	-0.000006
 759	7.5421e+01	9.8179	1.920214	0.000017	0.166144	0.056291	-0.000007
 760	7.5520e+01	9.7634	1.913470	0.000017	0.166144	0.056291	-0.000007
 761	7.5620e+01	9.7521	1.907171	0.000016	0.155213	0.052588	-0.000006
 762	7.5719e+01	9.7168	1.901137	0.000015	0.148655	0.050366	-0.000006
 763	7.5819e+01	9.6639	1.893950	0.000018	0.177074	0.059994	-0.000007
 764	7.5918e+01	9.6174	1.886275	0.000019	0.189098	0.064068	-0.000008
 765	7.6018e+01	9.5853	1.879000	0.000018	0.179260	0.060735	-0.000007
 766	7.6118e+01	9.5291	1.871946	0.000017	0.173795	0.058883	-0.000007
 767	7.6217e+01	9.5035	1.864670	0.000018	0.179260	0.060735	-0.000007
 768	7.6317e+01	9.4570	1.857217	0.000018	0.183632	0.062216	-0.000007
 769	7.6416e+01	9.4265	1.849232	0.000020	0.196749	0.066660	-0.000008
 770	7.6516e+01	9.3639	1.840670	0.000021	0.210959	0.071475	-0.000009
 771	7.6615e+01	9.3382	1.832640	0.000020	0.197842	0.067031	-0.000008
 772	7.6715e+01	9.2949	1.824566	0.000020	0.198935	0.067401	-0.000008
 773	7.6814e+01	9.2612	1.817556	0.000017	0.172702	0.058513	-0.000007
 774	7.6913e+01	9.2067	1.809615	0.000020	0.195656	0.066290	-0.000008
 775	7.7013e+01	9.1634	1.801674	0.000020	0.195656	0.066290	-0.000008
 776	7.7112e+01	9.1377	1.793955	0.000019	0.190191	0.064438	-0.000008
 777	7.7212e+01	9.1169	1.786901	0.000017	0.173795	0.058883	-0.000007
 778	7.7311e+01	9.0655	1.778561	0.000021	0.205493	0.069623	-0.000008
 779	7.7411e+01	9.0158	1.770043	0.000021	0.209866	0.071104	-0.000009
 780	7.7510e+01	8.9773	1.761924	0.000020	0.200028	0.067771	-0.000008
 781	7.7610e+01	8.9211	1.753983	0.000020	0.195656	0.066290	-0.000008
 782	7.7710e+01	8.8810	1.746929	0.000017	0.173795	0.058883	-0.000007
 783	7.7809e+01	8.8586	1.738190	0.000022	0.215331	0.072956	-0.000009
 784	7.7909e+01	8.8121	1.730692	0.000018	0.184725	0.062587	-0.000008
 785	7.8008e+01	8.7703	1.724171	0.000016	0.160678	0.054439	-0.000007
 786	7.8108e+01	8.7463	1.716540	0.000019	0.188005	0.063698	-0.000008
 787	7.8207e+01	8.7126	1.708865	0.000019	0.189098	0.064068	-0.000008
 788	7.8306e+01	8.6468	1.701590	0.000018	0.179260	0.060735	-0.000007
 789	7.8406e+01	8.6468	1.693560	0.000020	0.197842	0.067031	-0.000008
 790	7.8505e+01	8.5859	1.684998	0.000021	0.210959	0.071475	-0.000009
 791	7.8605e+01	8.5490	1.677278	0.000019	0.190191	0.064438	-0.000008
 792	7.8704e+01	8.5072	1.669470	0.000019	0.192377	0.065179	-0.000008
 793	7.8804e+01	8.4800	1.661219	0.000020	0.203307	0.068882	-0.000008
 794	7.8903e+01	8.3821	1.653455	0.000019	0.191284	0.064809	-0.000008
 795	7.9003e+01	8.3950	1.645736	-0.000019	-0.190191	-0.064438	-0.000008
 796	7.9103e+01	8.3436	1.638194	0.000019	0.185819	0.062957	-0.000008
 797	7.9202e+01	8.2955	1.631273	0.000017	0.170516	0.057772	-0.000007
 798	7.9302e+01	8.2634	1.623953	0.000018	0.180353	0.061105	-0.000007
 799	7.9401e+01	8.2057	1.616411	0.000019	0.185819	0.062957	-0.000008
 800	7.9501e+01	8.1736	1.608825	0.000019	0.186912	0.063327	-0.000008
 801	7.9600e+01	8.1367	1.600618	0.000020	0.202214	0.068512	-0.000008
 802	7.9700e+01	8.0982	1.592987	0.000019	0.188005	0.063698	-0.000008
 803	7.9799e+01	8.0661	1.585889	0.000017	0.174888	0.059254	-0.000007
 804	7.9898e+01	8.0340	1.579013	0.000017	0.169423	0.057402	-0.000007
 805	7.9998e+01	7.9795	1.571205	0.000019	0.192377	0.065179	-0.000008
 806	8.0097e+01	7.9554	1.563752	0.000018	0.183632	0.062216	-0.000007
 807	8.0197e+01	7.9153	1.557896	0.000014	0.144283	0.048884	-0.000006
 808	8.0296e+01	7.8688	1.551419	0.000016	0.159585	0.054069	-0.000007
 809	8.0396e+01	7.8623	1.545297	0.000015	0.150841	0.051106	-0.000006
 810	8.0496e+01	7.7693	1.539174	0.000015	0.150841	0.051106	-0.000006
 811	8.0595e+01	7.7517	1.533496	0.000014	0.139910	0.047403	-0.000006
 812	8.0695e+01	7.6987	1.528172	0.000013	0.131166	0.044440	-0.000005
 813	8.0794e+01	7.6682	1.522316	0.000014	0.144283	0.048884	-0.000006
 814	8.0894e+01	7.6297	1.516460	0.000014	0.144283	0.048884	-0.000006
 815	8.0993e+01	7.5864	1.511447	0.000012	0.123515	0.041848	-0.000005
 816	8.1093e+01	7.5383	1.506168	0.000013	0.130073	0.044070	-0.000005
 817	8.1192e+01	7.5030	1.500445	0.000014	0.141003	0.047773	-0.000006
 818	8.1291e+01	7.4693	1.495387	0.000012	0.124608	0.042218	-0.000005
 819	8.1391e+01	7.4468	1.490862	0.000011	0.111491	0.037774	-0.000005
 820	8.1490e+01	7.4116	1.486870	0.000010	0.098375	0.033330	-0.000004
 821	8.1590e+01	7.3394	1.482256	0.000011	0.113677	0.038515	-0.000005
 822	8.1689e+01	7.2928	1.477420	0.000012	0.119142	0.040367	-0.000005
 823	8.1789e+01	7.2640	1.472673	0.000012	0.116956	0.039626	-0.000005
 824	8.1888e+01	7.2319	1.468059	0.000011	0.113677	0.038515	-0.000005
 825	8.1988e+01	7.2030	1.462603	0.000013	0.134445	0.045551	-0.000005
 826	8.2088e+01	7.1453	1.457989	0.000011	0.113677	0.038515	-0.000005
 827	8.2187e+01	7.1228	1.453109	0.000012	0.120236	0.040737	-0.000005
 828	8.2287e+01	7.0923	1.448717	0.000011	0.108212	0.036663	-0.000004
 829	8.2386e+01	7.0618	1.443349	0.000013	0.132259	0.044811	-0.000005
 830	8.2486e+01	6.9720	1.438380	0.000012	0.122422	0.041478	-0.000005
 831	8.2585e+01	6.9303	1.433367	0.000012	0.123515	0.041848	-0.000005
 832	8.2684e+01	6.9335	1.428487	-0.000012	-0.120236	-0.040737	-0.000005
 833	8.2784e+01	6.8870	1.423962	0.000011	0.111491	0.037774	-0.000005
 834	8.2883e+01	6.8212	1.419082	0.000012	0.120236	0.040737	-0.000005
 835	8.2983e+01	6.7939	1.414646	0.000011	0.109305	0.037034	-0.000004
 836	8.3082e+01	6.7715	1.410076	0.000011	0.112584	0.038145	-0.000005
 837	8.3182e+01	6.7201	1.405418	0.000011	0.114770	0.038885	-0.000005
 838	8.3281e+01	6.6720	1.400183	0.000013	0.128980	0.043700	-0.000005
 839	8.3381e+01	6.6078	1.396102	0.000010	0.100561	0.034071	-0.000004
 840	8.3481e+01	6.5854	1.392109	0.000010	0.098375	0.033330	-0.000004
 841	8.3580e+01	6.5677	1.387584	0.000011	0.111491	0.037774	-0.000005
 842	8.3680e+01	6.5052	1.382659	0.000012	0.121329	0.041107	-0.000005
 843	8.3779e+01	6.4683	1.378267	0.000011	0.108212	0.036663	-0.000004
 844	8.3879e+01	6.4298	1.373787	0.000011	0.110398	0.037404	-0.000005
 845	8.3978e+01	6.3993	1.370016	0.000009	0.092909	0.031479	-0.000004
 846	8.4078e+01	6.3624	1.365801	0.000010	0.103840	0.035182	-0.000004
 847	8.4177e+01	6.3030	1.360788	0.000012	0.123515	0.041848	-0.000005
 848	8.4276e+01	6.2613	1.357239	0.000009	0.087444	0.029627	-0.000004
 849	8.4376e+01	6.2357	1.353557	0.000009	0.090723	0.030738	-0.000004
 850	8.4475e+01	6.1972	1.350008	0.000009	0.087444	0.029627	-0.000004
 851	8.4575e+01	6.1586	1.346636	0.000008	0.083072	0.028145	-0.000003
 852	8.4674e+01	6.1105	1.343531	0.000008	0.076514	0.025923	-0.000003
 853	8.4774e+01	6.0897	1.341179	0.000006	0.057932	0.019628	-0.000002
 854	8.4874e+01	6.0383	1.338518	0.000007	0.065583	0.022220	-0.000003
 855	8.4973e+01	5.9870	1.335723	0.000007	0.068862	0.023331	-0.000003
 856	8.5073e+01	5.9405	1.332484	0.000008	0.079793	0.027034	-0.000003
 857	8.5172e+01	5.9533	1.329157	-0.000008	-0.081979	-0.027775	-0.000003
 858	8.5272e+01	5.8747	1.325963	0.000008	0.078700	0.026664	-0.000003
 859	8.5371e+01	5.8330	1.323079	0.000007	0.071048	0.024072	-0.000003
 860	8.5471e+01	5.7913	1.319441	0.000009	0.089630	0.030368	-0.000004
 861	8.5570e+01	5.7480	1.316602	0.000007	0.069955	0.023701	-0.000003
 862	8.5669e+01	5.7030	1.313718	0.000007	0.071048	0.024072	-0.000003
 863	8.5769e+01	5.6517	1.309903	0.000009	0.094002	0.031849	-0.000004
 864	8.5868e+01	5.6341	1.306088	0.000009	0.094002	0.031849	-0.000004
 865	8.5968e+01	5.5875	1.304003	0.000005	0.051373	0.017406	-0.000002
 866	8.6067e+01	5.5571	1.301341	0.000007	0.065583	0.022220	-0.000003
 867	8.6167e+01	5.5089	1.297570	0.000009	0.092909	0.031479	-0.000004
 868	8.6266e+01	5.4929	1.293932	0.000009	0.089630	0.030368	-0.000004
 869	8.6366e+01	5.4656	1.289895	0.000010	0.099468	0.033701	-0.000004
 870	8.6466e+01	5.3838	1.286346	0.000009	0.087444	0.029627	-0.000004
 871	8.6565e+01	5.3533	1.282486	0.000010	0.095095	0.032219	-0.000004
 872	8.6665e+01	5.3212	1.278538	0.000010	0.097281	0.032960	-0.000004
 873	8.6764e+01	5.2908	1.275166	0.000008	0.083072	0.028145	-0.000003
 874	8.6864e+01	5.2442	1.272105	0.000008	0.075420	0.025553	-0.000003
 875	8.6963e+01	5.1817	1.268689	0.000008	0.084165	0.028516	-0.000003
 876	8.7063e+01	5.1592	1.264519	0.000010	0.102747	0.034812	-0.000004
 877	8.7162e+01	5.1031	1.261414	0.000008	0.076514	0.025923	-0.000003
 878	8.7261e+01	5.0565	1.257510	0.000010	0.096188	0.032590	-0.000004
 879	8.7361e+01	5.0485	1.253073	0.000011	0.109305	0.037034	-0.000004
 880	8.7460e+01	5.0052	1.248681	0.000011	0.108212	0.036663	-0.000004
 881	8.7560e+01	4.9539	1.244289	0.000011	0.108212	0.036663	-0.000004
 882	8.7659e+01	4.9025	1.240119	0.000010	0.102747	0.034812	-0.000004
 883	8.7759e+01	4.8865	1.236348	0.000009	0.092909	0.031479	-0.000004
 884	8.7859e+01	4.8592	1.232666	0.000009	0.090723	0.030738	-0.000004
 885	8.7958e+01	4.7983	1.228451	0.000010	0.103840	0.035182	-0.000004
 886	8.8058e+01	4.7662	1.224459	0.000010	0.098375	0.033330	-0.000004
 887	8.8157e+01	4.7084	1.219889	0.000011	0.112584	0.038145	-0.000005
 888	8.8257e+01	4.6860	1.216118	0.000009	0.092909	0.031479	-0.000004
 889	8.8356e+01	4.6459	1.211061	0.000012	0.124608	0.042218	-0.000005
 890	8.8456e+01	4.6009	1.206092	0.000012	0.122422	0.041478	-0.000005
 891	8.8555e+01	4.5480	1.200946	0.000013	0.126794	0.042959	-0.000005
 892	8.8654e+01	4.5255	1.194735	0.000015	0.153027	0.051847	-0.000006
 893	8.8754e+01	4.4870	1.188923	0.000014	0.143190	0.048514	-0.000006
 894	8.8853e+01	4.4517	1.183555	0.000013	0.132259	0.044811	-0.000005
 895	8.8953e+01	4.4100	1.177699	0.000014	0.144283	0.048884	-0.000006
 896	8.9052e+01	4.3106	1.171000	0.000017	0.165051	0.055921	-0.000007
 897	8.9152e+01	4.3138	1.164168	-0.000017	-0.168330	-0.057032	-0.000007
 898	8.9251e+01	4.2657	1.157558	0.000016	0.162864	0.055180	-0.000007
 899	8.9351e+01	4.2143	1.151525	0.000015	0.148655	0.050366	-0.000006
 900	8.9451e+01	4.1935	1.144915	0.000016	0.162864	0.055180	-0.000007
 901	8.9550e+01	4.1566	1.137373	0.000019	0.185819	0.062957	-0.000008
 902	8.9650e+01	4.1357	1.130097	0.000018	0.179260	0.060735	-0.000007
 903	8.9749e+01	4.0764	1.123043	0.000017	0.173795	0.058883	-0.000007
 904	8.9849e+01	4.0330	1.116078	0.000017	0.171609	0.058143	-0.000007
 905	8.9948e+01	3.9785	1.108492	0.000019	0.186912	0.063327	-0.000008
 906	9.0047e+01	3.9753	1.101483	0.000017	0.172702	0.058513	-0.000007
 907	9.0147e+01	3.9352	1.093763	0.000019	0.190191	0.064438	-0.000008
 908	9.0246e+01	3.8838	1.086177	0.000019	0.186912	0.063327	-0.000008
 909	9.0346e+01	3.8566	1.079345	0.000017	0.168330	0.057032	-0.000007
 910	9.0445e+01	3.8213	1.071537	0.000019	0.192377	0.065179	-0.000008
 911	9.0545e+01	3.7716	1.063419	0.000020	0.200028	0.067771	-0.000008
 912	9.0644e+01	3.7330	1.055788	0.000019	0.188005	0.063698	-0.000008
 913	9.0744e+01	3.6769	1.048646	0.000018	0.175981	0.059624	-0.000007
 914	9.0844e+01	3.6240	1.041326	0.000018	0.180353	0.061105	-0.000007
 915	9.0943e+01	3.6095	1.032852	0.000021	0.208773	0.070734	-0.000009
 916	9.1043e+01	3.5758	1.024822	0.000020	0.197842	0.067031	-0.000008
 917	9.1142e+01	3.5277	1.017724	0.000017	0.174888	0.059254	-0.000007
 918	9.1242e+01	3.4491	1.010448	0.000018	0.179260	0.060735	-0.000007
 919	9.1341e+01	3.4523	1.001576	-0.000022	-0.218610	-0.074067	-0.000009
 920	9.1441e+01	3.4122	0.993546	0.000020	0.197842	0.067031	-0.000008
 921	9.1540e+01	3.3577	0.986403	0.000018	0.175981	0.059624	-0.000007
 922	9.1639e+01	3.3464	0.977974	0.000021	0.207680	0.070364	-0.000008
 923	9.1739e+01	3.2919	0.970211	0.000019	0.191284	0.064809	-0.000008
 924	9.1838e+01	3.2309	0.961427	0.000022	0.216424	0.073326	-0.000009
 925	9.1938e+01	3.2101	0.953663	0.000019	0.191284	0.064809	-0.000008
 926	9.2037e+01	3.1587	0.945190	0.000021	0.208773	0.070734	-0.000009
 927	9.2137e+01	3.0978	0.936583	0.000021	0.212052	0.071845	-0.000009
 928	9.2237e+01	3.1154	0.928731	-0.000019	-0.193470	-0.065549	-0.000008
 929	9.2336e+01	3.0480	0.919370	0.000023	0.230634	0.078141	-0.000009
 930	9.2436e+01	2.9791	0.910231	0.000023	0.225168	0.076289	-0.000009
 931	9.2535e+01	3.0111	0.902112	-0.000020	-0.200028	-0.067771	-0.000008
 932	9.2635e+01	2.9357	0.892885	0.000023	0.227354	0.077030	-0.000009
 933	9.2734e+01	2.8972	0.883702	0.000023	0.226261	0.076659	-0.000009
 934	9.2834e+01	2.8202	0.873542	0.000025	0.250309	0.084807	-0.000010
 935	9.2933e+01	2.8170	0.863694	0.000024	0.242657	0.082214	-0.000010
 936	9.3032e+01	2.7657	0.854688	0.000022	0.221889	0.075178	-0.000009
 937	9.3132e+01	2.7208	0.843996	0.000026	0.263425	0.089251	-0.000011
 938	9.3231e+01	2.7079	0.833704	0.000025	0.253588	0.085918	-0.000010
 939	9.3331e+01	2.6293	0.823633	0.000025	0.248122	0.084066	-0.000010
 940	9.3430e+01	2.6245	0.813518	0.000025	0.249215	0.084436	-0.000010
 941	9.3530e+01	2.5427	0.803448	0.000025	0.248122	0.084066	-0.000010
 942	9.3629e+01	2.5090	0.794043	0.000023	0.231727	0.078511	-0.000009
 943	9.3729e+01	2.4625	0.783972	0.000025	0.248122	0.084066	-0.000010
 944	9.3829e+01	2.4176	0.773857	0.000025	0.249215	0.084436	-0.000010
 945	9.3928e+01	2.4176	0.763520	0.000025	0.254681	0.086288	-0.000010
 946	9.4028e+01	2.3518	0.753095	0.000026	0.256867	0.087029	-0.000010
 947	9.4127e+01	2.3149	0.743113	0.000025	0.245936	0.083325	-0.000010
 948	9.4227e+01	2.2989	0.732643	0.000026	0.257960	0.087399	-0.000011
 949	9.4326e+01	2.2347	0.723194	0.000023	0.232820	0.078881	-0.000009
 950	9.4425e+01	2.2074	0.712857	0.000025	0.254681	0.086288	-0.000010
 951	9.4525e+01	2.1785	0.702166	0.000026	0.263425	0.089251	-0.000011
 952	9.4624e+01	2.1256	0.692672	0.000023	0.233913	0.079252	-0.000010
 953	9.4724e+01	2.0903	0.683755	0.000022	0.219703	0.074437	-0.000009
 954	9.4823e+01	2.0342	0.673595	0.000025	0.250309	0.084807	-0.000010
 955	9.4923e+01	2.0149	0.664102	0.000023	0.233913	0.079252	-0.000010
 956	9.5022e+01	1.9459	0.654120	0.000025	0.245936	0.083325	-0.000010
 957	9.5122e+01	1.9299	0.643916	0.000025	0.251402	0.085177	-0.000010
 958	9.5222e+01	1.8978	0.633446	0.000026	0.257960	0.087399	-0.000011
 959	9.5321e+01	1.8513	0.623376	0.000025	0.248122	0.084066	-0.000010
 960	9.5421e+01	1.7887	0.613039	0.000025	0.254681	0.086288	-0.000010
 961	9.5520e+01	1.7791	0.602924	0.000025	0.249215	0.084436	-0.000010
 962	9.5620e+01	1.7406	0.593253	0.000024	0.238285	0.080733	-0.000010
 963	9.5719e+01	1.6620	0.584025	0.000023	0.227354	0.077030	-0.000009
 964	9.5819e+01	1.6796	0.574354	-0.000024	-0.238285	-0.080733	-0.000010
 965	9.5918e+01	1.5930	0.564505	0.000024	0.242657	0.082214	-0.000010
 966	9.6017e+01	1.5673	0.553858	0.000026	0.262332	0.088881	-0.000011
 967	9.6117e+01	1.5288	0.543920	0.000024	0.244843	0.082955	-0.000010
 968	9.6216e+01	1.4951	0.534205	0.000024	0.239378	0.081103	-0.000010
 969	9.6316e+01	1.4534	0.523779	0.000026	0.256867	0.087029	-0.000010
 970	9.6415e+01	1.3973	0.513531	0.000025	0.252495	0.085547	-0.000010
 971	9.6515e+01	1.3620	0.504215	0.000023	0.229541	0.077770	-0.000009
 972	9.6615e+01	1.3476	0.493923	0.000025	0.253588	0.085918	-0.000010
 973	9.6714e+01	1.2738	0.484251	0.000024	0.238285	0.080733	-0.000010
 974	9.6814e+01	1.2353	0.475689	0.000021	0.210959	0.071475	-0.000009
 975	9.6913e+01	1.2256	0.467615	0.000020	0.198935	0.067401	-0.000008
 976	9.7013e+01	1.1727	0.458032	0.000024	0.236099	0.079992	-0.000010
 977	9.7112e+01	1.1470	0.449559	0.000021	0.208773	0.070734	-0.000009
 978	9.7212e+01	1.1085	0.441485	0.000020	0.198935	0.067401	-0.000008
 979	9.7311e+01	1.0668	0.433322	0.000020	0.201121	0.068142	-0.000008
 980	9.7410e+01	1.0155	0.424848	0.000021	0.208773	0.070734	-0.000009
 981	9.7510e+01	0.9706	0.417218	0.000019	0.188005	0.063698	-0.000008
 982	9.7609e+01	0.9305	0.408922	0.000020	0.204400	0.069253	-0.000008
 983	9.7709e+01	0.8679	0.401069	0.000019	0.193470	0.065549	-0.000008
 984	9.7808e+01	0.8583	0.393040	0.000020	0.197842	0.067031	-0.000008
 985	9.7908e+01	0.8166	0.386163	0.000017	0.169423	0.057402	-0.000007
 986	9.8007e+01	0.7556	0.378932	0.000018	0.178167	0.060365	-0.000007
 987	9.8107e+01	0.7652	0.370680	-0.000020	-0.203307	-0.068882	-0.000008
 988	9.8207e+01	0.6866	0.363538	0.000018	0.175981	0.059624	-0.000007
 989	9.8306e+01	0.6513	0.356573	0.000017	0.171609	0.058143	-0.000007
 990	9.8406e+01	0.6144	0.350140	0.000016	0.158492	0.053699	-0.000006
 991	9.8505e+01	0.5631	0.342332	0.000019	0.192377	0.065179	-0.000008
 992	9.8605e+01	0.5390	0.334968	0.000018	0.181446	0.061476	-0.000007
 993	9.8704e+01	0.4636	0.327958	0.000017	0.172702	0.058513	-0.000007
 994	9.8803e+01	0.4524	0.320993	0.000017	0.171609	0.058143	-0.000007
 995	9.8903e+01	0.3930	0.313407	0.000019	0.186912	0.063327	-0.000008
 996	9.9002e+01	0.3626	0.305333	0.000020	0.198935	0.067401	-0.000008
 997	9.9102e+01	0.3305	0.298279	0.000017	0.173795	0.058883	-0.000007
 998	9.9201e+01	0.3064	0.290648	0.000019	0.188005	0.063698	-0.000008
 999	9.9301e+01	0.2406	0.283461	0.000018	0.177074	0.059994	-0.000007
1000	9.9400e+01	0.2102	0.276097	0.000018	0.181446	0.061476	-0.000007
1001	9.9500e+01	0.1941	0.269265	0.000017	0.168330	0.057032	-0.000007
1002	9.9600e+01	0.1267	0.262123	0.000018	0.175981	0.059624	-0.000007
1003	9.9699e+01	0.1011	0.254181	0.000020	0.195656	0.066290	-0.000008
1004	9.9799e+01	0.0738	0.247039	0.000018	0.175981	0.059624	-0.000007
1005	9.9898e+01	0.0160	0.240651	0.000016	0.157399	0.053328	-0.000006
1006	9.9998e+01	-0.0401	0.233863	0.000017	0.167237	0.056661	-0.000007
1007	1.0010e+02	-0.0770	0.227253	0.000016	0.162864	0.055180	-0.000007
1008	1.0020e+02	-0.0995	0.219977	0.000018	0.179260	0.060735	-0.000007
1009	1.0030e+02	-0.1332	0.212835	0.000018	0.175981	0.059624	-0.000007
1010	1.0040e+02	-0.1588	0.206357	0.000016	0.159585	0.054069	-0.000007
1011	1.0050e+02	-0.1941	0.199836	0.000016	0.160678	0.054439	-0.000007
1012	1.0059e+02	-0.2214	0.192205	0.000019	0.188005	0.063698	-0.000008
1013	1.0069e+02	-0.2711	0.185684	0.000016	0.160678	0.054439	-0.000007
1014	1.0079e+02	-0.3401	0.179163	0.000016	0.160678	0.054439	-0.000007
1015	1.0089e+02	-0.3529	0.172419	0.000017	0.166144	0.056291	-0.000007
1016	1.0099e+02	-0.4299	0.167007	0.000013	0.133352	0.045181	-0.000005
1017	1.0109e+02	-0.4636	0.161062	0.000015	0.146469	0.049625	-0.000006
1018	1.0119e+02	-0.4909	0.154363	0.000017	0.165051	0.055921	-0.000007
1019	1.0129e+02	-0.5326	0.149084	0.000013	0.130073	0.044070	-0.000005
1020	1.0139e+02	-0.5711	0.143982	0.000013	0.125701	0.042589	-0.000005
1021	1.0149e+02	-0.5807	0.138747	0.000013	0.128980	0.043700	-0.000005
1022	1.0159e+02	-0.6722	0.134178	0.000011	0.112584	0.038145	-0.000005
1023	1.0169e+02	-0.6866	0.129741	0.000011	0.109305	0.037034	-0.000004
1024	1.0179e+02	-0.7604	0.123841	0.000015	0.145376	0.049255	-0.000006
1025	1.0189e+02	-0.7877	0.118163	0.000014	0.139910	0.047403	-0.000006
1026	1.0199e+02	-0.8021	0.112484	0.000014	0.139910	0.047403	-0.000006
1027	1.0209e+02	-0.8727	0.106628	0.000014	0.144283	0.048884	-0.000006
1028	1.0219e+02	-0.8887	0.101349	0.000013	0.130073	0.044070	-0.000005
1029	1.0229e+02	-0.9417	0.096069	0.000013	0.130073	0.044070	-0.000005
1030	1.0239e+02	-0.9914	0.089947	0.000015	0.150841	0.051106	-0.000006
1031	1.0248e+02	-1.0347	0.084402	0.000014	0.136631	0.046292	-0.000006
1032	1.0258e+02	-1.0572	0.079611	0.000012	0.118049	0.039996	-0.000005
1033	1.0268e+02	-1.0909	0.074109	0.000014	0.135538	0.045922	-0.000006
1034	1.0278e+02	-1.1583	0.068608	0.000014	0.135538	0.045922	-0.000006
1035	1.0288e+02	-1.1791	0.062397	0.000015	0.153027	0.051847	-0.000006
1036	1.0298e+02	-1.2000	0.056541	0.000014	0.144283	0.048884	-0.000006
1037	1.0308e+02	-1.2449	0.050641	0.000015	0.145376	0.049255	-0.000006
1038	1.0318e+02	-1.2994	0.044341	0.000016	0.155213	0.052588	-0.000006
1039	1.0328e+02	-1.3363	0.038619	0.000014	0.141003	0.047773	-0.000006
1040	1.0338e+02	-1.3732	0.033739	0.000012	0.120236	0.040737	-0.000005
1041	1.0348e+02	-1.3828	0.028149	0.000014	0.137724	0.046662	-0.000006
1042	1.0358e+02	-1.4454	0.022115	0.000015	0.148655	0.050366	-0.000006
1043	1.0368e+02	-1.4903	0.016614	0.000014	0.135538	0.045922	-0.000006
1044	1.0378e+02	-1.5272	0.011291	0.000013	0.131166	0.044440	-0.000005
1045	1.0388e+02	-1.5497	0.005390	0.000015	0.145376	0.049255	-0.000006
1046	1.0398e+02	-1.6331	-0.000821	0.000015	0.153027	0.051847	-0.000006
1047	1.0408e+02	-1.6363	-0.006322	0.000014	0.135538	0.045922	-0.000006
1048	1.0418e+02	-1.7117	-0.012621	0.000016	0.155213	0.052588	-0.000006
1049	1.0428e+02	-1.7262	-0.019276	0.000016	0.163958	0.055550	-0.000007
1050	1.0438e+02	-1.7582	-0.024777	0.000014	0.135538	0.045922	-0.000006
1051	1.0447e+02	-1.8064	-0.030411	0.000014	0.138817	0.047033	-0.000006
1052	1.0457e+02	-1.8770	-0.036800	0.000016	0.157399	0.053328	-0.000006
1053	1.0467e+02	-1.9026	-0.042212	0.000013	0.133352	0.045181	-0.000005
1054	1.0477e+02	-1.9427	-0.048778	0.000016	0.161771	0.054810	-0.000007
1055	1.0487e+02	-1.9892	-0.054501	0.000014	0.141003	0.047773	-0.000006
1056	1.0497e+02	-1.9989	-0.060667	0.000015	0.151934	0.051477	-0.000006
1057	1.0507e+02	-2.0438	-0.067677	0.000017	0.172702	0.058513	-0.000007
1058	1.0517e+02	-2.0598	-0.074731	0.000017	0.173795	0.058883	-0.000007
1059	1.0527e+02	-2.1384	-0.081829	0.000017	0.174888	0.059254	-0.000007
1060	1.0537e+02	-2.1818	-0.088971	0.000018	0.175981	0.059624	-0.000007
1061	1.0547e+02	-2.2058	-0.096646	0.000019	0.189098	0.064068	-0.000008
1062	1.0557e+02	-2.2411	-0.104587	0.000020	0.195656	0.066290	-0.000008
1063	1.0567e+02	-2.2844	-0.112040	0.000018	0.183632	0.062216	-0.000007
1064	1.0577e+02	-2.3021	-0.119493	0.000018	0.183632	0.062216	-0.000007
1065	1.0587e+02	-2.3646	-0.127701	0.000020	0.202214	0.068512	-0.000008
1066	1.0597e+02	-2.4031	-0.136263	0.000021	0.210959	0.071475	-0.000009
1067	1.0607e+02	-2.4529	-0.144204	0.000020	0.195656	0.066290	-0.000008
1068	1.0617e+02	-2.4769	-0.152323	0.000020	0.200028	0.067771	-0.000008
1069	1.0627e+02	-2.5347	-0.160219	0.000019	0.194563	0.065920	-0.000008
1070	1.0637e+02	-2.5523	-0.168648	0.000021	0.207680	0.070364	-0.000008
1071	1.0647e+02	-2.5908	-0.177299	0.000021	0.213145	0.072215	-0.000009
1072	1.0656e+02	-2.6293	-0.185462	0.000020	0.201121	0.068142	-0.000008
1073	1.0666e+02	-2.6871	-0.194069	0.000021	0.212052	0.071845	-0.000009
1074	1.0676e+02	-2.7288	-0.202897	0.000022	0.217517	0.073697	-0.000009
1075	1.0686e+02	-2.7769	-0.211947	0.000022	0.222982	0.075548	-0.000009
1076	1.0696e+02	-2.8283	-0.221441	0.000023	0.233913	0.079252	-0.000010
1077	1.0706e+02	-2.8427	-0.229693	0.000020	0.203307	0.068882	-0.000008
1078	1.0716e+02	-2.8860	-0.238388	0.000021	0.214238	0.072586	-0.000009
1079	1.0726e+02	-2.9197	-0.246551	0.000020	0.201121	0.068142	-0.000008
1080	1.0736e+02	-2.9454	-0.256222	0.000024	0.238285	0.080733	-0.000010
1081	1.0746e+02	-3.0127	-0.264163	0.000020	0.195656	0.066290	-0.000008
1082	1.0756e+02	-3.0480	-0.272237	0.000020	0.198935	0.067401	-0.000008
1083	1.0766e+02	-3.1234	-0.280445	0.000020	0.202214	0.068512	-0.000008
1084	1.0776e+02	-3.0994	-0.289805	-0.000023	-0.230634	-0.078141	-0.000009
1085	1.0786e+02	-3.1700	-0.298323	0.000021	0.209866	0.071104	-0.000009
1086	1.0796e+02	-3.1988	-0.306264	0.000020	0.195656	0.066290	-0.000008
1087	1.0806e+02	-3.2293	-0.315137	0.000022	0.218610	0.074067	-0.000009
1088	1.0816e+02	-3.2951	-0.323832	0.000021	0.214238	0.072586	-0.000009
1089	1.0826e+02	-3.3111	-0.332661	0.000022	0.217517	0.073697	-0.000009
1090	1.0836e+02	-3.3833	-0.341445	0.000022	0.216424	0.073326	-0.000009
1091	1.0845e+02	-3.3897	-0.349696	0.000020	0.203307	0.068882	-0.000008
1092	1.0855e+02	-3.4443	-0.358170	0.000021	0.208773	0.070734	-0.000009
1093	1.0865e+02	-3.4988	-0.367397	0.000023	0.227354	0.077030	-0.000009
1094	1.0875e+02	-3.5309	-0.375693	0.000020	0.204400	0.069253	-0.000008
1095	1.0885e+02	-3.5582	-0.385542	0.000024	0.242657	0.082214	-0.000010
1096	1.0895e+02	-3.6095	-0.394548	0.000022	0.221889	0.075178	-0.000009
1097	1.0905e+02	-3.6400	-0.404264	0.000024	0.239378	0.081103	-0.000010
1098	1.0915e+02	-3.6913	-0.413624	0.000023	0.230634	0.078141	-0.000009
1099	1.0925e+02	-3.6978	-0.422541	0.000022	0.219703	0.074437	-0.000009
1100	1.0935e+02	-3.7619	-0.431680	0.000023	0.225168	0.076289	-0.000009
1101	1.0945e+02	-3.8020	-0.441884	0.000025	0.251402	0.085177	-0.000010
1102	1.0955e+02	-3.8341	-0.452753	0.000027	0.267797	0.090732	-0.000011
1103	1.0965e+02	-3.8903	-0.461892	0.000023	0.225168	0.076289	-0.000009
1104	1.0975e+02	-3.9223	-0.472539	0.000026	0.262332	0.088881	-0.000011
1105	1.0985e+02	-3.9913	-0.483275	0.000026	0.264518	0.089621	-0.000011
1106	1.0995e+02	-3.9977	-0.493257	0.000025	0.245936	0.083325	-0.000010
1107	1.1005e+02	-4.0699	-0.503239	0.000025	0.245936	0.083325	-0.000010
1108	1.1015e+02	-4.0860	-0.513620	0.000026	0.255774	0.086658	-0.000010
1109	1.1025e+02	-4.1357	-0.523336	0.000024	0.239378	0.081103	-0.000010
1110	1.1035e+02	-4.1630	-0.533495	0.000025	0.250309	0.084807	-0.000010
1111	1.1044e+02	-4.2127	-0.543255	0.000024	0.240471	0.081474	-0.000010
1112	1.1054e+02	-4.2320	-0.553503	0.000025	0.252495	0.085547	-0.000010
1113	1.1064e+02	-4.3138	-0.563574	0.000025	0.248122	0.084066	-0.000010
1114	1.1074e+02	-4.2929	-0.573733	-0.000025	-0.250309	-0.084807	-0.000010
1115	1.1084e+02	-4.3459	-0.583448	0.000024	0.239378	0.081103	-0.000010
1116	1.1094e+02	-4.3972	-0.592499	0.000022	0.222982	0.075548	-0.000009
1117	1.1104e+02	-4.4694	-0.602170	0.000024	0.238285	0.080733	-0.000010
1118	1.1114e+02	-4.5159	-0.611531	0.000023	0.230634	0.078141	-0.000009
1119	1.1124e+02	-4.5304	-0.621291	0.000024	0.240471	0.081474	-0.000010
1120	1.1134e+02	-4.5223	-0.630740	-0.000023	-0.232820	-0.078881	-0.000009
1121	1.1144e+02	-4.5993	-0.639835	0.000022	0.224075	0.075919	-0.000009
1122	1.1154e+02	-4.6330	-0.648840	0.000022	0.221889	0.075178	-0.000009
1123	1.1164e+02	-4.6844	-0.658556	0.000024	0.239378	0.081103	-0.000010
1124	1.1174e+02	-4.7325	-0.668627	0.000025	0.248122	0.084066	-0.000010
1125	1.1184e+02	-4.7421	-0.679052	0.000026	0.256867	0.087029	-0.000010
1126	1.1194e+02	-4.8015	-0.688546	0.000023	0.233913	0.079252	-0.000010
1127	1.1204e+02	-4.8336	-0.697995	0.000023	0.232820	0.078881	-0.000009
1128	1.1214e+02	-4.8897	-0.706912	0.000022	0.219703	0.074437	-0.000009
1129	1.1224e+02	-4.9491	-0.716806	0.000024	0.243750	0.082585	-0.000010
1130	1.1234e+02	-4.9844	-0.725501	0.000021	0.214238	0.072586	-0.000009
1131	1.1244e+02	-5.0261	-0.734817	0.000023	0.229541	0.077770	-0.000009
1132	1.1253e+02	-5.0469	-0.743379	0.000021	0.210959	0.071475	-0.000009
1133	1.1263e+02	-5.0758	-0.752208	0.000022	0.217517	0.073697	-0.000009
1134	1.1273e+02	-5.1015	-0.761835	0.000024	0.237192	0.080363	-0.000010
1135	1.1283e+02	-5.1560	-0.771284	0.000023	0.232820	0.078881	-0.000009
1136	1.1293e+02	-5.1977	-0.780423	0.000023	0.225168	0.076289	-0.000009
1137	1.1303e+02	-5.2651	-0.789739	0.000023	0.229541	0.077770	-0.000009
1138	1.1313e+02	-5.2667	-0.798656	0.000022	0.219703	0.074437	-0.000009
1139	1.1323e+02	-5.3421	-0.807440	0.000022	0.216424	0.073326	-0.000009
1140	1.1333e+02	-5.3405	-0.815248	-0.000019	-0.192377	-0.065179	-0.000008
1141	1.1343e+02	-5.3710	-0.824299	0.000022	0.222982	0.075548	-0.000009
1142	1.1353e+02	-5.4271	-0.832462	0.000020	0.201121	0.068142	-0.000008
1143	1.1363e+02	-5.4817	-0.839604	0.000018	0.175981	0.059624	-0.000007
1144	1.1373e+02	-5.5154	-0.846702	0.000017	0.174888	0.059254	-0.000007
1145	1.1383e+02	-5.5763	-0.854865	0.000020	0.201121	0.068142	-0.000008
1146	1.1393e+02	-5.5924	-0.861742	0.000017	0.169423	0.057402	-0.000007
1147	1.1403e+02	-5.6405	-0.868529	0.000017	0.167237	0.056661	-0.000007
1148	1.1413e+02	-5.6854	-0.875450	0.000017	0.170516	0.057772	-0.000007
1149	1.1423e+02	-5.7063	-0.881838	0.000016	0.157399	0.053328	-0.000006
1150	1.1433e+02	-5.7415	-0.888271	0.000016	0.158492	0.053699	-0.000006
1151	1.1442e+02	-5.7977	-0.895192	0.000017	0.170516	0.057772	-0.000007
1152	1.1452e+02	-5.8266	-0.901447	0.000015	0.154120	0.052217	-0.000006
1153	1.1462e+02	-5.8587	-0.907303	0.000014	0.144283	0.048884	-0.000006
1154	1.1472e+02	-5.8923	-0.912183	0.000012	0.120236	0.040737	-0.000005
1155	1.1482e+02	-5.9389	-0.918749	0.000016	0.161771	0.054810	-0.000007
1156	1.1492e+02	-6.0062	-0.924827	0.000015	0.149748	0.050736	-0.000006
1157	1.1502e+02	-6.0271	-0.929840	0.000012	0.123515	0.041848	-0.000005
1158	1.1512e+02	-6.1089	-0.935607	0.000014	0.142097	0.048144	-0.000006
1159	1.1522e+02	-6.0961	-0.941286	-0.000014	-0.139910	-0.047403	-0.000006
1160	1.1532e+02	-6.1522	-0.948073	0.000017	0.167237	0.056661	-0.000007
1161	1.1542e+02	-6.1875	-0.952687	0.000011	0.113677	0.038515	-0.000005
1162	1.1552e+02	-6.2437	-0.958144	0.000013	0.134445	0.045551	-0.000005
1163	1.1562e+02	-6.2950	-0.964222	0.000015	0.149748	0.050736	-0.000006
1164	1.1572e+02	-6.3111	-0.969678	0.000013	0.134445	0.045551	-0.000005
1165	1.1582e+02	-6.3271	-0.975889	0.000015	0.153027	0.051847	-0.000006
1166	1.1592e+02	-6.3913	-0.981080	0.000013	0.127887	0.043329	-0.000005
1167	1.1602e+02	-6.4137	-0.986803	0.000014	0.141003	0.047773	-0.000006
1168	1.1612e+02	-6.4859	-0.991550	0.000012	0.116956	0.039626	-0.000005
1169	1.1622e+02	-6.5148	-0.996829	0.000013	0.130073	0.044070	-0.000005
1170	1.1632e+02	-6.5709	-1.002862	0.000015	0.148655	0.050366	-0.000006
1171	1.1642e+02	-6.6046	-1.007831	0.000012	0.122422	0.041478	-0.000005
1172	1.1651e+02	-6.6511	-1.012356	0.000011	0.111491	0.037774	-0.000005
1173	1.1661e+02	-6.6656	-1.018079	0.000014	0.141003	0.047773	-0.000006
1174	1.1671e+02	-6.6864	-1.023580	0.000014	0.135538	0.045922	-0.000006
1175	1.1681e+02	-6.7634	-1.027972	0.000011	0.108212	0.036663	-0.000004
1176	1.1691e+02	-6.7891	-1.033207	0.000013	0.128980	0.043700	-0.000005
1177	1.1701e+02	-6.8244	-1.038087	0.000012	0.120236	0.040737	-0.000005
1178	1.1711e+02	-6.8629	-1.043721	0.000014	0.138817	0.047033	-0.000006
1179	1.1721e+02	-6.9046	-1.048291	0.000011	0.112584	0.038145	-0.000005
1180	1.1731e+02	-6.9415	-1.052904	0.000011	0.113677	0.038515	-0.000005
1181	1.1741e+02	-6.9784	-1.057829	0.000012	0.121329	0.041107	-0.000005
1182	1.1751e+02	-7.0121	-1.062576	0.000012	0.116956	0.039626	-0.000005
1183	1.1761e+02	-7.0618	-1.066835	0.000010	0.104933	0.035552	-0.000004
1184	1.1771e+02	-7.1244	-1.070694	0.000010	0.095095	0.032219	-0.000004
1185	1.1781e+02	-7.1244	-1.074243	0.000009	0.087444	0.029627	-0.000004
1186	1.1791e+02	-7.1517	-1.077704	0.000009	0.085258	0.028886	-0.000003
1187	1.1801e+02	-7.2640	-1.080410	0.000007	0.066676	0.022590	-0.000003
1188	1.1811e+02	-7.2896	-1.083915	0.000009	0.086351	0.029257	-0.000004
1189	1.1821e+02	-7.3185	-1.087286	0.000008	0.083072	0.028145	-0.000003
1190	1.1831e+02	-7.3217	-1.090480	0.000008	0.078700	0.026664	-0.000003
1191	1.1841e+02	-7.4003	-1.093630	0.000008	0.077607	0.026294	-0.000003
1192	1.1850e+02	-7.4308	-1.097268	0.000009	0.089630	0.030368	-0.000004
1193	1.1860e+02	-7.4356	-1.100640	0.000008	0.083072	0.028145	-0.000003
1194	1.1870e+02	-7.5110	-1.104011	0.000008	0.083072	0.028145	-0.000003
1195	1.1880e+02	-7.5287	-1.107294	0.000008	0.080886	0.027405	-0.000003
1196	1.1890e+02	-7.5704	-1.109823	0.000006	0.062304	0.021109	-0.000003
1197	1.1900e+02	-7.6474	-1.113594	0.000009	0.092909	0.031479	-0.000004
1198	1.1910e+02	-7.6634	-1.117099	0.000009	0.086351	0.029257	-0.000004
1199	1.1920e+02	-7.7148	-1.119982	0.000007	0.071048	0.024072	-0.000003
1200	1.1930e+02	-7.7292	-1.123531	0.000009	0.087444	0.029627	-0.000004
1201	1.1940e+02	-7.8062	-1.126459	0.000007	0.072141	0.024442	-0.000003
1202	1.1950e+02	-7.8271	-1.129831	0.000008	0.083072	0.028145	-0.000003
1203	1.1960e+02	-7.8607	-1.133912	0.000010	0.100561	0.034071	-0.000004
1204	1.1970e+02	-7.8944	-1.137328	0.000008	0.084165	0.028516	-0.000003
1205	1.1980e+02	-7.9426	-1.140434	0.000008	0.076514	0.025923	-0.000003
1206	1.1990e+02	-7.9698	-1.144604	0.000010	0.102747	0.034812	-0.000004
1207	1.2000e+02	-8.0436	-1.147310	0.000007	0.066676	0.022590	-0.000003
1208	1.2010e+02	-8.0581	-1.150504	0.000008	0.078700	0.026664	-0.000003
1209	1.2020e+02	-8.0966	-1.153255	0.000007	0.067769	0.022961	-0.000003
1210	1.2030e+02	-8.1720	-1.156449	0.000008	0.078700	0.026664	-0.000003
1211	1.2039e+02	-8.2057	-1.159599	0.000008	0.077607	0.026294	-0.000003
1212	1.2049e+02	-8.2073	-1.163503	0.000010	0.096188	0.032590	-0.000004
1213	1.2059e+02	-8.2843	-1.166963	0.000009	0.085258	0.028886	-0.000003
1214	1.2069e+02	-8.2907	-1.171089	0.000010	0.101654	0.034441	-0.000004
1215	1.2079e+02	-8.3500	-1.174638	0.000009	0.087444	0.029627	-0.000004
1216	1.2089e+02	-8.3885	-1.178365	0.000009	0.091816	0.031108	-0.000004
1217	1.2099e+02	-8.4479	-1.182047	0.000009	0.090723	0.030738	-0.000004
1218	1.2109e+02	-8.4607	-1.186040	0.000010	0.098375	0.033330	-0.000004
1219	1.2119e+02	-8.4848	-1.189012	0.000007	0.073234	0.024812	-0.000003
1220	1.2129e+02	-8.5281	-1.192872	0.000010	0.095095	0.032219	-0.000004
1221	1.2139e+02	-8.5634	-1.196909	0.000010	0.099468	0.033701	-0.000004
1222	1.2149e+02	-8.6051	-1.200902	0.000010	0.098375	0.033330	-0.000004
1223	1.2159e+02	-8.6773	-1.204628	0.000009	0.091816	0.031108	-0.000004
1224	1.2169e+02	-8.7030	-1.208887	0.000010	0.104933	0.035552	-0.000004
1225	1.2179e+02	-8.7350	-1.213279	0.000011	0.108212	0.036663	-0.000004
1226	1.2189e+02	-8.7768	-1.218514	0.000013	0.128980	0.043700	-0.000005
1227	1.2199e+02	-8.8008	-1.223616	0.000013	0.125701	0.042589	-0.000005
1228	1.2209e+02	-8.8538	-1.228451	0.000012	0.119142	0.040367	-0.000005
1229	1.2219e+02	-8.8987	-1.234707	0.000015	0.154120	0.052217	-0.000006
1230	1.2229e+02	-8.9404	-1.239498	0.000012	0.118049	0.039996	-0.000005
1231	1.2239e+02	-8.9580	-1.244378	0.000012	0.120236	0.040737	-0.000005
1232	1.2248e+02	-9.0286	-1.250544	0.000015	0.151934	0.051477	-0.000006
1233	1.2258e+02	-9.0591	-1.256578	0.000015	0.148655	0.050366	-0.000006
1234	1.2268e+02	-9.1104	-1.261768	0.000013	0.127887	0.043329	-0.000005
1235	1.2278e+02	-9.1345	-1.267624	0.000014	0.144283	0.048884	-0.000006
1236	1.2288e+02	-9.1730	-1.274057	0.000016	0.158492	0.053699	-0.000006
1237	1.2298e+02	-9.2340	-1.280179	0.000015	0.150841	0.051106	-0.000006
1238	1.2308e+02	-9.2709	-1.286390	0.000015	0.153027	0.051847	-0.000006
1239	1.2318e+02	-9.2917	-1.293178	0.000017	0.167237	0.056661	-0.000007
1240	1.2328e+02	-9.3447	-1.299699	0.000016	0.160678	0.054439	-0.000007
1241	1.2338e+02	-9.3719	-1.305644	0.000015	0.146469	0.049625	-0.000006
1242	1.2348e+02	-9.4088	-1.311899	0.000015	0.154120	0.052217	-0.000006
1243	1.2358e+02	-9.4457	-1.318465	0.000016	0.161771	0.054810	-0.000007
1244	1.2368e+02	-9.5131	-1.324809	0.000016	0.156306	0.052958	-0.000006
1245	1.2378e+02	-9.5372	-1.331730	0.000017	0.170516	0.057772	-0.000007
1246	1.2388e+02	-9.5773	-1.338251	0.000016	0.160678	0.054439	-0.000007
1247	1.2398e+02	-9.6414	-1.344285	0.000015	0.148655	0.050366	-0.000006
1248	1.2408e+02	-9.6575	-1.350762	0.000016	0.159585	0.054069	-0.000007
1249	1.2418e+02	-9.7104	-1.357594	0.000017	0.168330	0.057032	-0.000007
1250	1.2428e+02	-9.7409	-1.364071	0.000016	0.159585	0.054069	-0.000007
1251	1.2438e+02	-9.7569	-1.370193	0.000015	0.150841	0.051106	-0.000006
1252	1.2447e+02	-9.8003	-1.376670	0.000016	0.159585	0.054069	-0.000007
1253	1.2457e+02	-9.8436	-1.383547	0.000017	0.169423	0.057402	-0.000007
1254	1.2467e+02	-9.8949	-1.390246	0.000017	0.165051	0.055921	-0.000007
1255	1.2477e+02	-9.9430	-1.397166	0.000017	0.170516	0.057772	-0.000007
1256	1.2487e+02	-9.9719	-1.403377	0.000015	0.153027	0.051847	-0.000006
1257	1.2497e+02	-10.0120	-1.409677	0.000016	0.155213	0.052588	-0.000006
1258	1.2507e+02	-10.0585	-1.416420	0.000017	0.166144	0.056291	-0.000007
1259	1.2517e+02	-10.1259	-1.423651	0.000018	0.178167	0.060365	-0.000007
1260	1.2527e+02	-10.1371	-1.430084	0.000016	0.158492	0.053699	-0.000006
1261	1.2537e+02	-10.1580	-1.436916	0.000017	0.168330	0.057032	-0.000007
1262	1.2547e+02	-10.2077	-1.444502	0.000019	0.186912	0.063327	-0.000008
1263	1.2557e+02	-10.2591	-1.451778	0.000018	0.179260	0.060735	-0.000007
1264	1.2567e+02	-10.3072	-1.459187	0.000018	0.182539	0.061846	-0.000007
1265	1.2577e+02	-10.3313	-1.466329	0.000018	0.175981	0.059624	-0.000007
1266	1.2587e+02	-10.3874	-1.473694	0.000018	0.181446	0.061476	-0.000007
1267	1.2597e+02	-10.3906	-1.481590	0.000019	0.194563	0.065920	-0.000008
1268	1.2607e+02	-10.4387	-1.489088	0.000018	0.184725	0.062587	-0.000008
1269	1.2617e+02	-10.5174	-1.496585	0.000018	0.184725	0.062587	-0.000008
1270	1.2627e+02	-10.5639	-1.505547	0.000022	0.220796	0.074808	-0.000009
1271	1.2636e+02	-10.5687	-1.513621	0.000020	0.198935	0.067401	-0.000008
1272	1.2646e+02	-10.6152	-1.522050	0.000021	0.207680	0.070364	-0.000008
1273	1.2656e+02	-10.6698	-1.530523	0.000021	0.208773	0.070734	-0.000009
1274	1.2666e+02	-10.7034	-1.539130	0.000021	0.212052	0.071845	-0.000009
1275	1.2676e+02	-10.7371	-1.547249	0.000020	0.200028	0.067771	-0.000008
1276	1.2686e+02	-10.7869	-1.555500	0.000020	0.203307	0.068882	-0.000008
1277	1.2696e+02	-10.8157	-1.563086	0.000019	0.186912	0.063327	-0.000008
1278	1.2706e+02	-10.8783	-1.571205	0.000020	0.200028	0.067771	-0.000008
1279	1.2716e+02	-10.8542	-1.579900	-0.000021	-0.214238	-0.072586	-0.000009
1280	1.2726e+02	-10.9409	-1.588285	0.000021	0.206586	0.069993	-0.000008
1281	1.2736e+02	-10.9842	-1.596093	0.000019	0.192377	0.065179	-0.000008
1282	1.2746e+02	-10.9906	-1.604478	0.000021	0.206586	0.069993	-0.000008
1283	1.2756e+02	-11.0291	-1.612818	0.000021	0.205493	0.069623	-0.000008
1284	1.2766e+02	-11.1189	-1.620803	0.000020	0.196749	0.066660	-0.000008
1285	1.2776e+02	-11.1558	-1.629011	0.000020	0.202214	0.068512	-0.000008
1286	1.2786e+02	-11.1623	-1.636907	0.000019	0.194563	0.065920	-0.000008
1287	1.2796e+02	-11.1687	-1.644582	0.000019	0.189098	0.064068	-0.000008
1288	1.2806e+02	-11.2521	-1.651547	0.000017	0.171609	0.058143	-0.000007
1289	1.2816e+02	-11.3018	-1.658956	0.000018	0.182539	0.061846	-0.000007
1290	1.2826e+02	-11.3532	-1.667252	0.000020	0.204400	0.069253	-0.000008
1291	1.2835e+02	-11.3917	-1.675326	0.000020	0.198935	0.067401	-0.000008
1292	1.2845e+02	-11.4366	-1.682957	0.000019	0.188005	0.063698	-0.000008
1293	1.2855e+02	-11.4382	-1.691741	0.000022	0.216424	0.073326	-0.000009
1294	1.2865e+02	-11.4847	-1.699815	0.000020	0.198935	0.067401	-0.000008
1295	1.2875e+02	-11.5136	-1.706691	0.000017	0.169423	0.057402	-0.000007
1296	1.2885e+02	-11.5922	-1.714633	0.000020	0.195656	0.066290	-0.000008
1297	1.2895e+02	-11.6130	-1.722840	0.000020	0.202214	0.068512	-0.000008
1298	1.2905e+02	-11.6644	-1.731091	0.000020	0.203307	0.068882	-0.000008
1299	1.2915e+02	-11.6548	-1.737258	-0.000015	-0.151934	-0.051477	-0.000006
1300	1.2925e+02	-11.7430	-1.744977	0.000019	0.190191	0.064438	-0.000008
1301	1.2935e+02	-11.7542	-1.753273	0.000020	0.204400	0.069253	-0.000008
1302	1.2945e+02	-11.7847	-1.760238	0.000017	0.171609	0.058143	-0.000007
1303	1.2955e+02	-11.8553	-1.768623	0.000021	0.206586	0.069993	-0.000008
1304	1.2965e+02	-11.9018	-1.776564	0.000020	0.195656	0.066290	-0.000008
1305	1.2975e+02	-11.9403	-1.783529	0.000017	0.171609	0.058143	-0.000007
1306	1.2985e+02	-11.9660	-1.790494	0.000017	0.171609	0.058143	-0.000007
1307	1.2995e+02	-12.0013	-1.798169	0.000019	0.189098	0.064068	-0.000008
1308	1.3005e+02	-12.0430	-1.804735	0.000016	0.161771	0.054810	-0.000007
1309	1.3015e+02	-12.0959	-1.811257	0.000016	0.160678	0.054439	-0.000007
1310	1.3025e+02	-12.1296	-1.817556	0.000016	0.155213	0.052588	-0.000006
1311	1.3034e+02	-12.1569	-1.823102	0.000014	0.136631	0.046292	-0.000006
1312	1.3044e+02	-12.2243	-1.829002	0.000015	0.145376	0.049255	-0.000006
1313	1.3054e+02	-12.2515	-1.834769	0.000014	0.142097	0.048144	-0.000006
1314	1.3064e+02	-12.2676	-1.840448	0.000014	0.139910	0.047403	-0.000006
1315	1.3074e+02	-12.3654	-1.845993	0.000014	0.136631	0.046292	-0.000006
1316	1.3084e+02	-12.3734	-1.851051	0.000012	0.124608	0.042218	-0.000005
1317	1.3094e+02	-12.4007	-1.856729	0.000014	0.139910	0.047403	-0.000006
1318	1.3104e+02	-12.4569	-1.862319	0.000014	0.137724	0.046662	-0.000006
1319	1.3114e+02	-12.4906	-1.867377	0.000012	0.124608	0.042218	-0.000005
1320	1.3124e+02	-12.5323	-1.872257	0.000012	0.120236	0.040737	-0.000005
1321	1.3134e+02	-12.5788	-1.876826	0.000011	0.112584	0.038145	-0.000005
1322	1.3144e+02	-12.5948	-1.880952	0.000010	0.101654	0.034441	-0.000004
1323	1.3154e+02	-12.6590	-1.884678	0.000009	0.091816	0.031108	-0.000004
1324	1.3164e+02	-12.6799	-1.889736	0.000012	0.124608	0.042218	-0.000005
1325	1.3174e+02	-12.7328	-1.894350	0.000011	0.113677	0.038515	-0.000005
1326	1.3184e+02	-12.7697	-1.897987	0.000009	0.089630	0.030368	-0.000004
1327	1.3194e+02	-12.8082	-1.901758	0.000009	0.092909	0.031479	-0.000004
1328	1.3204e+02	-12.8451	-1.906106	0.000011	0.107119	0.036293	-0.000004
1329	1.3214e+02	-12.8515	-1.911030	0.000012	0.121329	0.041107	-0.000005
1330	1.3224e+02	-12.9093	-1.915156	0.000010	0.101654	0.034441	-0.000004
1331	1.3234e+02	-12.9638	-1.919681	0.000011	0.111491	0.037774	-0.000005
1332	1.3243e+02	-12.9943	-1.924251	0.000011	0.112584	0.038145	-0.000005
1333	1.3253e+02	-13.0472	-1.928643	0.000011	0.108212	0.036663	-0.000004
1334	1.3263e+02	-13.0857	-1.933611	0.000012	0.122422	0.041478	-0.000005
1335	1.3273e+02	-13.1178	-1.936806	0.000008	0.078700	0.026664	-0.000003
1336	1.3283e+02	-13.1467	-1.941508	0.000012	0.115863	0.039256	-0.000005
1337	1.3293e+02	-13.2076	-1.946255	0.000012	0.116956	0.039626	-0.000005
1338	1.3303e+02	-13.2333	-1.949849	0.000009	0.088537	0.029997	-0.000004
1339	1.3313e+02	-13.3007	-1.953176	0.000008	0.081979	0.027775	-0.000003
1340	1.3323e+02	-13.3167	-1.957080	0.000010	0.096188	0.032590	-0.000004
1341	1.3333e+02	-13.3633	-1.961694	0.000011	0.113677	0.038515	-0.000005
1342	1.3343e+02	-13.4210	-1.965154	0.000009	0.085258	0.028886	-0.000003
1343	1.3353e+02	-13.4515	-1.969014	0.000010	0.095095	0.032219	-0.000004
1344	1.3363e+02	-13.4756	-1.973139	0.000010	0.101654	0.034441	-0.000004
1345	1.3373e+02	-13.5060	-1.976955	0.000009	0.094002	0.031849	-0.000004
1346	1.3383e+02	-13.5686	-1.980637	0.000009	0.090723	0.030738	-0.000004
1347	1.3393e+02	-13.5814	-1.984009	0.000008	0.083072	0.028145	-0.000003
1348	1.3403e+02	-13.6376	-1.987735	0.000009	0.091816	0.031108	-0.000004
1349	1.3413e+02	-13.6761	-1.991728	0.000010	0.098375	0.033330	-0.000004
1350	1.3423e+02	-13.7130	-1.994656	0.000007	0.072141	0.024442	-0.000003
1351	1.3432e+02	-13.7515	-1.997673	0.000007	0.074327	0.025183	-0.000003
1352	1.3442e+02	-13.8253	-2.001044	0.000008	0.083072	0.028145	-0.000003
1353	1.3452e+02	-13.8333	-2.003662	0.000006	0.064490	0.021850	-0.000003
1354	1.3462e+02	-13.8670	-2.005569	0.000005	0.047001	0.015924	-0.000002
1355	1.3472e+02	-13.9087	-2.007610	0.000005	0.050280	0.017035	-0.000002
1356	1.3482e+02	-13.9761	-2.009961	0.000006	0.057932	0.019628	-0.000002
1357	1.3492e+02	-13.9953	-2.011869	0.000005	0.047001	0.015924	-0.000002
1358	1.3502e+02	-14.0001	-2.013510	0.000004	0.040443	0.013702	-0.000002
1359	1.3512e+02	-14.1285	-2.015418	0.000005	0.047001	0.015924	-0.000002
1360	1.3522e+02	-14.1221	-2.018257	-0.000007	-0.069955	-0.023701	-0.000003
1361	1.3532e+02	-14.1525	-2.021052	0.000007	0.068862	0.023331	-0.000003
1362	1.3542e+02	-14.2071	-2.023004	0.000005	0.048094	0.016295	-0.000002
1363	1.3552e+02	-14.2472	-2.025001	0.000005	0.049187	0.016665	-0.000002
1364	1.3562e+02	-14.2921	-2.026864	0.000005	0.045908	0.015554	-0.000002
1365	1.3572e+02	-14.3146	-2.028993	0.000005	0.052466	0.017776	-0.000002
1366	1.3582e+02	-14.3274	-2.031211	0.000005	0.054653	0.018517	-0.000002
1367	1.3592e+02	-14.3900	-2.033518	0.000006	0.056839	0.019257	-0.000002
1368	1.3602e+02	-14.4108	-2.035825	0.000006	0.056839	0.019257	-0.000002
1369	1.3612e+02	-14.4702	-2.037955	0.000005	0.052466	0.017776	-0.000002
1370	1.3622e+02	-14.5023	-2.040173	0.000005	0.054653	0.018517	-0.000002
1371	1.3631e+02	-14.5327	-2.043367	0.000008	0.078700	0.026664	-0.000003
1372	1.3641e+02	-14.6017	-2.045541	0.000005	0.053559	0.018146	-0.000002
1373	1.3651e+02	-14.6322	-2.047848	0.000006	0.056839	0.019257	-0.000002
1374	1.3661e+02	-14.6755	-2.050865	0.000007	0.074327	0.025183	-0.000003
1375	1.3671e+02	-14.7461	-2.053216	0.000006	0.057932	0.019628	-0.000002
1376	1.3681e+02	-14.7541	-2.054857	0.000004	0.040443	0.013702	-0.000002
1377	1.3691e+02	-14.7990	-2.056543	0.000004	0.041536	0.014073	-0.000002
1378	1.3701e+02	-14.8247	-2.059604	0.000008	0.075420	0.025553	-0.000003
1379	1.3711e+02	-14.8889	-2.061512	0.000005	0.047001	0.015924	-0.000002
1380	1.3721e+02	-14.9097	-2.064218	0.000007	0.066676	0.022590	-0.000003
1381	1.3731e+02	-14.9322	-2.067678	0.000009	0.085258	0.028886	-0.000003
1382	1.3741e+02	-15.0092	-2.070739	0.000008	0.075420	0.025553	-0.000003
1383	1.3751e+02	-15.0108	-2.073889	0.000008	0.077607	0.026294	-0.000003
1384	1.3761e+02	-15.0878	-2.076107	0.000005	0.054653	0.018517	-0.000002
1385	1.3771e+02	-15.1071	-2.079257	0.000008	0.077607	0.026294	-0.000003
1386	1.3781e+02	-15.1472	-2.081653	0.000006	0.059025	0.019998	-0.000002
1387	1.3791e+02	-15.2194	-2.084670	0.000007	0.074327	0.025183	-0.000003
1388	1.3801e+02	-15.2402	-2.087908	0.000008	0.079793	0.027034	-0.000003
1389	1.3811e+02	-15.2595	-2.089949	0.000005	0.050280	0.017035	-0.000002
1390	1.3821e+02	-15.3044	-2.093099	0.000008	0.077607	0.026294	-0.000003
1391	1.3831e+02	-15.3814	-2.096204	0.000008	0.076514	0.025923	-0.000003
1392	1.3840e+02	-15.4054	-2.099354	0.000008	0.077607	0.026294	-0.000003
1393	1.3850e+02	-15.4359	-2.103702	0.000011	0.107119	0.036293	-0.000004
1394	1.3860e+02	-15.4857	-2.107872	0.000010	0.102747	0.034812	-0.000004
1395	1.3870e+02	-15.5161	-2.111865	0.000010	0.098375	0.033330	-0.000004
1396	1.3880e+02	-15.5659	-2.116345	0.000011	0.110398	0.037404	-0.000005
1397	1.3890e+02	-15.6028	-2.121137	0.000012	0.118049	0.039996	-0.000005
1398	1.3900e+02	-15.6461	-2.125484	0.000011	0.107119	0.036293	-0.000004
1399	1.3910e+02	-15.6990	-2.130275	0.000012	0.118049	0.039996	-0.000005
1400	1.3920e+02	-15.7231	-2.135422	0.000013	0.126794	0.042959	-0.000005
1401	1.3930e+02	-15.7664	-2.140878	0.000013	0.134445	0.045551	-0.000005
1402	1.3940e+02	-15.8065	-2.145581	0.000012	0.115863	0.039256	-0.000005
1403	1.3950e+02	-15.8306	-2.150062	0.000011	0.110398	0.037404	-0.000005
1404	1.3960e+02	-15.8643	-2.155918	0.000014	0.144283	0.048884	-0.000006
1405	1.3970e+02	-15.9268	-2.161818	0.000015	0.145376	0.049255	-0.000006
1406	1.3980e+02	-15.9413	-2.166875	0.000012	0.124608	0.042218	-0.000005
1407	1.3990e+02	-15.9942	-2.172377	0.000014	0.135538	0.045922	-0.000006
1408	1.4000e+02	-16.0006	-2.178410	0.000015	0.148655	0.050366	-0.000006
1409	1.4010e+02	-16.0552	-2.184488	0.000015	0.149748	0.050736	-0.000006
1410	1.4020e+02	-16.1322	-2.189190	0.000012	0.115863	0.039256	-0.000005
1411	1.4029e+02	-16.1578	-2.195224	0.000015	0.148655	0.050366	-0.000006
1412	1.4039e+02	-16.1819	-2.201878	0.000016	0.163958	0.055550	-0.000007
1413	1.4049e+02	-16.2284	-2.208311	0.000016	0.158492	0.053699	-0.000006
1414	1.4059e+02	-16.2782	-2.213590	0.000013	0.130073	0.044070	-0.000005
1415	1.4069e+02	-16.3022	-2.218737	0.000013	0.126794	0.042959	-0.000005
1416	1.4079e+02	-16.3359	-2.225391	0.000016	0.163958	0.055550	-0.000007
1417	1.4089e+02	-16.4113	-2.231247	0.000014	0.144283	0.048884	-0.000006
1418	1.4099e+02	-16.4145	-2.236837	0.000014	0.137724	0.046662	-0.000006
1419	1.4109e+02	-16.4803	-2.242471	0.000014	0.138817	0.047033	-0.000006
1420	1.4119e+02	-16.4947	-2.248860	0.000016	0.157399	0.053328	-0.000006
1421	1.4129e+02	-16.5621	-2.255070	0.000015	0.153027	0.051847	-0.000006
1422	1.4139e+02	-16.5781	-2.260394	0.000013	0.131166	0.044440	-0.000005
1423	1.4149e+02	-16.6600	-2.266028	0.000014	0.138817	0.047033	-0.000006
1424	1.4159e+02	-16.6696	-2.272638	0.000016	0.162864	0.055180	-0.000007
1425	1.4169e+02	-16.7177	-2.277918	0.000013	0.130073	0.044070	-0.000005
1426	1.4179e+02	-16.7514	-2.284306	0.000016	0.157399	0.053328	-0.000006
1427	1.4189e+02	-16.7947	-2.290739	0.000016	0.158492	0.053699	-0.000006
1428	1.4199e+02	-16.7995	-2.297438	0.000017	0.165051	0.055921	-0.000007
1429	1.4209e+02	-16.8846	-2.303915	0.000016	0.159585	0.054069	-0.000007
1430	1.4219e+02	-16.9006	-2.310836	0.000017	0.170516	0.057772	-0.000007
1431	1.4228e+02	-16.9599	-2.317668	0.000017	0.168330	0.057032	-0.000007
1432	1.4238e+02	-16.9872	-2.323568	0.000015	0.145376	0.049255	-0.000006
1433	1.4248e+02	-17.0097	-2.331509	0.000020	0.195656	0.066290	-0.000008
1434	1.4258e+02	-17.0706	-2.338164	0.000016	0.163958	0.055550	-0.000007
1435	1.4268e+02	-17.1075	-2.345040	0.000017	0.169423	0.057402	-0.000007
1436	1.4278e+02	-17.1460	-2.352449	0.000018	0.182539	0.061846	-0.000007
1437	1.4288e+02	-17.2102	-2.360301	0.000019	0.193470	0.065549	-0.000008
1438	1.4298e+02	-17.2439	-2.368331	0.000020	0.197842	0.067031	-0.000008
1439	1.4308e+02	-17.2712	-2.376316	0.000020	0.196749	0.066660	-0.000008
1440	1.4318e+02	-17.3193	-2.383769	0.000018	0.183632	0.062216	-0.000007
1441	1.4328e+02	-17.3225	-2.392775	0.000022	0.221889	0.075178	-0.000009
1442	1.4338e+02	-17.3851	-2.400982	0.000020	0.202214	0.068512	-0.000008
1443	1.4348e+02	-17.3931	-2.408524	0.000019	0.185819	0.062957	-0.000008
1444	1.4358e+02	-17.4685	-2.416155	0.000019	0.188005	0.063698	-0.000008
1445	1.4368e+02	-17.5295	-2.423652	0.000018	0.184725	0.062587	-0.000008
1446	1.4378e+02	-17.5343	-2.431150	0.000018	0.184725	0.062587	-0.000008
1447	1.4388e+02	-17.5968	-2.438692	0.000019	0.185819	0.062957	-0.000008
1448	1.4398e+02	-17.6097	-2.447786	0.000022	0.224075	0.075919	-0.000009
1449	1.4408e+02	-17.6642	-2.455638	0.000019	0.193470	0.065549	-0.000008
1450	1.4418e+02	-17.6947	-2.462515	0.000017	0.169423	0.057402	-0.000007
1451	1.4428e+02	-17.7444	-2.470988	0.000021	0.208773	0.070734	-0.000009
1452	1.4437e+02	-17.7877	-2.479329	0.000021	0.205493	0.069623	-0.000008
1453	1.4447e+02	-17.8230	-2.486516	0.000018	0.177074	0.059994	-0.000007
1454	1.4457e+02	-17.8760	-2.493658	0.000018	0.175981	0.059624	-0.000007
1455	1.4467e+02	-17.9193	-2.501865	0.000020	0.202214	0.068512	-0.000008
1456	1.4477e+02	-17.9530	-2.509407	0.000019	0.185819	0.062957	-0.000008
1457	1.4487e+02	-18.0043	-2.516683	0.000018	0.179260	0.060735	-0.000007
1458	1.4497e+02	-17.9915	-2.524092	-0.000018	-0.182539	-0.061846	-0.000007
1459	1.4507e+02	-18.0701	-2.531944	0.000019	0.193470	0.065549	-0.000008
1460	1.4517e+02	-18.1310	-2.539841	0.000019	0.194563	0.065920	-0.000008
1461	1.4527e+02	-18.1679	-2.548580	0.000022	0.215331	0.072956	-0.000009
1462	1.4537e+02	-18.1952	-2.556743	0.000020	0.201121	0.068142	-0.000008
1463	1.4547e+02	-18.2465	-2.563620	0.000017	0.169423	0.057402	-0.000007
1464	1.4557e+02	-18.2498	-2.571960	0.000021	0.205493	0.069623	-0.000008
1465	1.4567e+02	-18.2754	-2.579857	0.000019	0.194563	0.065920	-0.000008
1466	1.4577e+02	-18.3620	-2.587487	0.000019	0.188005	0.063698	-0.000008
1467	1.4587e+02	-18.3909	-2.594408	0.000017	0.170516	0.057772	-0.000007
1468	1.4597e+02	-18.4182	-2.601550	0.000018	0.175981	0.059624	-0.000007
1469	1.4607e+02	-18.4599	-2.609225	0.000019	0.189098	0.064068	-0.000008
1470	1.4617e+02	-18.4984	-2.617566	0.000021	0.205493	0.069623	-0.000008
1471	1.4626e+02	-18.5465	-2.624886	0.000018	0.180353	0.061105	-0.000007
1472	1.4636e+02	-18.5594	-2.632738	0.000019	0.193470	0.065549	-0.000008
1473	1.4646e+02	-18.6155	-2.641123	0.000021	0.206586	0.069993	-0.000008
1474	1.4656e+02	-18.6652	-2.648310	0.000018	0.177074	0.059994	-0.000007
1475	1.4666e+02	-18.7679	-2.655009	0.000017	0.165051	0.055921	-0.000007
1476	1.4676e+02	-18.7455	-2.662506	-0.000018	-0.184725	-0.062587	-0.000008
1477	1.4686e+02	-18.7695	-2.668584	0.000015	0.149748	0.050736	-0.000006
1478	1.4696e+02	-18.8273	-2.674351	0.000014	0.142097	0.048144	-0.000006
1479	1.4706e+02	-18.8449	-2.681228	0.000017	0.169423	0.057402	-0.000007
1480	1.4716e+02	-18.9027	-2.687882	0.000016	0.163958	0.055550	-0.000007
1481	1.4726e+02	-18.9460	-2.694049	0.000015	0.151934	0.051477	-0.000006
1482	1.4736e+02	-18.9829	-2.699905	0.000014	0.144283	0.048884	-0.000006
1483	1.4746e+02	-19.0214	-2.705583	0.000014	0.139910	0.047403	-0.000006
1484	1.4756e+02	-19.0856	-2.711084	0.000014	0.135538	0.045922	-0.000006
1485	1.4766e+02	-19.0952	-2.716763	0.000014	0.139910	0.047403	-0.000006
1486	1.4776e+02	-19.1209	-2.722264	0.000014	0.135538	0.045922	-0.000006
1487	1.4786e+02	-19.1786	-2.727188	0.000012	0.121329	0.041107	-0.000005
1488	1.4796e+02	-19.2219	-2.732334	0.000013	0.126794	0.042959	-0.000005
1489	1.4806e+02	-19.2829	-2.738013	0.000014	0.139910	0.047403	-0.000006
1490	1.4816e+02	-19.3037	-2.742804	0.000012	0.118049	0.039996	-0.000005
1491	1.4825e+02	-19.3567	-2.747862	0.000012	0.124608	0.042218	-0.000005
1492	1.4835e+02	-19.3904	-2.752387	0.000011	0.111491	0.037774	-0.000005
1493	1.4845e+02	-19.4273	-2.757045	0.000011	0.114770	0.038885	-0.000005
1494	1.4855e+02	-19.4593	-2.762502	0.000013	0.134445	0.045551	-0.000005
1495	1.4865e+02	-19.5123	-2.767559	0.000012	0.124608	0.042218	-0.000005
1496	1.4875e+02	-19.5540	-2.771996	0.000011	0.109305	0.037034	-0.000004
1497	1.4885e+02	-19.5700	-2.777275	0.000013	0.130073	0.044070	-0.000005
1498	1.4895e+02	-19.5845	-2.782865	0.000014	0.137724	0.046662	-0.000006
1499	1.4905e+02	-19.6567	-2.788543	0.000014	0.139910	0.047403	-0.000006
1500	1.4915e+02	-19.7016	-2.793334	0.000012	0.118049	0.039996	-0.000005
1501	1.4925e+02	-19.7369	-2.798525	0.000013	0.127887	0.043329	-0.000005
1502	1.4935e+02	-19.7770	-2.804381	0.000014	0.144283	0.048884	-0.000006
1503	1.4945e+02	-19.7866	-2.808950	0.000011	0.112584	0.038145	-0.000005
1504	1.4955e+02	-19.8588	-2.814762	0.000014	0.143190	0.048514	-0.000006
1505	1.4965e+02	-19.8604	-2.820041	0.000013	0.130073	0.044070	-0.000005
1506	1.4975e+02	-19.9374	-2.824389	0.000011	0.107119	0.036293	-0.000004
1507	1.4985e+02	-19.9791	-2.829313	0.000012	0.121329	0.041107	-0.000005
1508	1.4995e+02	-19.9486	-2.832552	-0.000008	-0.079793	-0.027034	-0.000003
1509	1.5005e+02	-19.8700	-2.833705	-0.000003	-0.028419	-0.009629	-0.000001
1510	1.5015e+02	-19.8572	-2.833439	0.000001	0.006558	0.002222	0.000000
1511	1.5025e+02	-19.8315	-2.832641	0.000002	0.019675	0.006666	0.000001
1512	1.5034e+02	-19.7786	-2.830866	0.000004	0.043722	0.014813	0.000002
1513	1.5044e+02	-19.7080	-2.829846	0.000003	0.025140	0.008518	0.000001
1514	1.5054e+02	-19.7321	-2.827849	-0.000005	-0.049187	-0.016665	0.000002
1515	1.5064e+02	-19.6567	-2.825587	0.000006	0.055746	0.018887	0.000002
1516	1.5074e+02	-19.6134	-2.822437	0.000008	0.077607	0.026294	0.000003
1517	1.5084e+02	-19.5636	-2.819553	0.000007	0.071048	0.024072	0.000003
1518	1.5094e+02	-19.5428	-2.815916	0.000009	0.089630	0.030368	0.000004
1519	1.5104e+02	-19.4978	-2.812766	0.000008	0.077607	0.026294	0.000003
1520	1.5114e+02	-19.4642	-2.808462	0.000011	0.106026	0.035923	0.000004
1521	1.5124e+02	-19.4064	-2.803982	0.000011	0.110398	0.037404	0.000005
1522	1.5134e+02	-19.3647	-2.800255	0.000009	0.091816	0.031108	0.000004
1523	1.5144e+02	-19.3278	-2.794887	0.000013	0.132259	0.044811	0.000005
1524	1.5154e+02	-19.3069	-2.790495	0.000011	0.108212	0.036663	0.000004
1525	1.5164e+02	-19.2412	-2.785837	0.000011	0.114770	0.038885	0.000005
1526	1.5174e+02	-19.2123	-2.780913	0.000012	0.121329	0.041107	0.000005
1527	1.5184e+02	-19.1754	-2.776787	0.000010	0.101654	0.034441	0.000004
1528	1.5194e+02	-19.1305	-2.772217	0.000011	0.112584	0.038145	0.000005
1529	1.5204e+02	-19.0984	-2.766716	0.000014	0.135538	0.045922	0.000006
1530	1.5214e+02	-19.0503	-2.762324	0.000011	0.108212	0.036663	0.000004
1531	1.5224e+02	-19.0118	-2.757134	0.000013	0.127887	0.043329	0.000005
1532	1.5233e+02	-18.9893	-2.752431	0.000012	0.115863	0.039256	0.000005
1533	1.5243e+02	-18.9460	-2.747196	0.000013	0.128980	0.043700	0.000005
1534	1.5253e+02	-18.9283	-2.741385	0.000014	0.143190	0.048514	0.000006
1535	1.5263e+02	-18.8642	-2.736327	0.000012	0.124608	0.042218	0.000005
1536	1.5273e+02	-18.8096	-2.732157	0.000010	0.102747	0.034812	0.000004
1537	1.5283e+02	-18.7775	-2.725813	0.000016	0.156306	0.052958	0.000006
1538	1.5293e+02	-18.7278	-2.720534	0.000013	0.130073	0.044070	0.000005
1539	1.5303e+02	-18.7294	-2.717029	-0.000009	-0.086351	-0.029257	0.000004
1540	1.5313e+02	-18.6717	-2.712726	0.000011	0.106026	0.035923	0.000004
1541	1.5323e+02	-18.6267	-2.707313	0.000013	0.133352	0.045181	0.000005
1542	1.5333e+02	-18.5834	-2.701413	0.000015	0.145376	0.049255	0.000006
1543	1.5343e+02	-18.5433	-2.696577	0.000012	0.119142	0.040367	0.000005
1544	1.5353e+02	-18.5016	-2.690899	0.000014	0.139910	0.047403	0.000006
1545	1.5363e+02	-18.4519	-2.685176	0.000014	0.141003	0.047773	0.000006
1546	1.5373e+02	-18.4358	-2.680118	0.000012	0.124608	0.042218	0.000005
1547	1.5383e+02	-18.3909	-2.675771	0.000011	0.107119	0.036293	0.000004
1548	1.5393e+02	-18.3300	-2.670891	0.000012	0.120236	0.040737	0.000005
1549	1.5403e+02	-18.3139	-2.666588	0.000011	0.106026	0.035923	0.000004
1550	1.5413e+02	-18.2610	-2.661353	0.000013	0.128980	0.043700	0.000005
1551	1.5422e+02	-18.2369	-2.656961	0.000011	0.108212	0.036663	0.000004
1552	1.5432e+02	-18.2000	-2.652125	0.000012	0.119142	0.040367	0.000005
1553	1.5442e+02	-18.1423	-2.647068	0.000012	0.124608	0.042218	0.000005
1554	1.5452e+02	-18.1118	-2.641655	0.000013	0.133352	0.045181	0.000005
1555	1.5462e+02	-18.0540	-2.636820	0.000012	0.119142	0.040367	0.000005
1556	1.5472e+02	-18.0492	-2.632028	0.000012	0.118049	0.039996	0.000005
1557	1.5482e+02	-17.9738	-2.626705	0.000013	0.131166	0.044440	0.000005
1558	1.5492e+02	-17.9401	-2.621692	0.000012	0.123515	0.041848	0.000005
1559	1.5502e+02	-17.9097	-2.616945	0.000012	0.116956	0.039626	0.000005
1560	1.5512e+02	-17.8583	-2.612553	0.000011	0.108212	0.036663	0.000004
1561	1.5522e+02	-17.8359	-2.609225	0.000008	0.081979	0.027775	0.000003
1562	1.5532e+02	-17.7893	-2.605321	0.000010	0.096188	0.032590	0.000004
1563	1.5542e+02	-17.7188	-2.601196	0.000010	0.101654	0.034441	0.000004
1564	1.5552e+02	-17.7204	-2.598312	-0.000007	-0.071048	-0.024072	0.000003
1565	1.5562e+02	-17.6658	-2.595428	0.000007	0.071048	0.024072	0.000003
1566	1.5572e+02	-17.6241	-2.591036	0.000011	0.108212	0.036663	0.000004
1567	1.5582e+02	-17.6081	-2.588064	0.000007	0.073234	0.024812	0.000003
1568	1.5592e+02	-17.5359	-2.585491	0.000006	0.063397	0.021479	0.000003
1569	1.5602e+02	-17.5134	-2.582962	0.000006	0.062304	0.021109	0.000003
1570	1.5612e+02	-17.4685	-2.579990	0.000007	0.073234	0.024812	0.000003
1571	1.5622e+02	-17.4348	-2.576929	0.000008	0.075420	0.025553	0.000003
1572	1.5631e+02	-17.3979	-2.574222	0.000007	0.066676	0.022590	0.000003
1573	1.5641e+02	-17.3498	-2.571294	0.000007	0.072141	0.024442	0.000003
1574	1.5651e+02	-17.3113	-2.569697	0.000004	0.039350	0.013332	0.000002
1575	1.5661e+02	-17.2920	-2.567257	0.000006	0.060118	0.020368	0.000002
1576	1.5671e+02	-17.2487	-2.564950	0.000006	0.056839	0.019257	0.000002
1577	1.5681e+02	-17.1958	-2.562377	0.000006	0.063397	0.021479	0.000003
1578	1.5691e+02	-17.1525	-2.560603	0.000004	0.043722	0.014813	0.000002
1579	1.5701e+02	-17.0995	-2.557586	0.000007	0.074327	0.025183	0.000003
1580	1.5711e+02	-17.0546	-2.555590	0.000005	0.049187	0.016665	0.000002
1581	1.5721e+02	-17.0145	-2.552484	0.000008	0.076514	0.025923	0.000003
1582	1.5731e+02	-17.0033	-2.550887	0.000004	0.039350	0.013332	0.000002
1583	1.5741e+02	-16.9583	-2.548447	0.000006	0.060118	0.020368	0.000002
1584	1.5751e+02	-16.8942	-2.545608	0.000007	0.069955	0.023701	0.000003
1585	1.5761e+02	-16.8525	-2.542857	0.000007	0.067769	0.022961	0.000003
1586	1.5771e+02	-16.8428	-2.540861	0.000005	0.049187	0.016665	0.000002
1587	1.5781e+02	-16.7883	-2.538465	0.000006	0.059025	0.019998	0.000002
1588	1.5791e+02	-16.7434	-2.536380	0.000005	0.051373	0.017406	0.000002
1589	1.5801e+02	-16.6985	-2.533275	0.000008	0.076514	0.025923	0.000003
1590	1.5811e+02	-16.6616	-2.531323	0.000005	0.048094	0.016295	0.000002
1591	1.5821e+02	-16.6263	-2.529149	0.000005	0.053559	0.018146	0.000002
1592	1.5830e+02	-16.5990	-2.526709	0.000006	0.060118	0.020368	0.000002
1593	1.5840e+02	-16.5573	-2.524979	0.000004	0.042629	0.014443	0.000002
1594	1.5850e+02	-16.5396	-2.523293	0.000004	0.041536	0.014073	0.000002
1595	1.5860e+02	-16.5027	-2.520631	0.000007	0.065583	0.022220	0.000003
1596	1.5870e+02	-16.4289	-2.518768	0.000005	0.045908	0.015554	0.000002
1597	1.5880e+02	-16.3808	-2.517437	0.000003	0.032792	0.011110	0.000001
1598	1.5890e+02	-16.3439	-2.515352	0.000005	0.051373	0.017406	0.000002
1599	1.5900e+02	-16.3118	-2.513400	0.000005	0.048094	0.016295	0.000002
1600	1.5910e+02	-16.2749	-2.512291	0.000003	0.027326	0.009258	0.000001
1601	1.5920e+02	-16.2300	-2.510916	0.000003	0.033885	0.011480	0.000001
1602	1.5930e+02	-16.1819	-2.508964	0.000005	0.048094	0.016295	0.000002
1603	1.5940e+02	-16.1562	-2.507854	0.000003	0.027326	0.009258	0.000001
1604	1.5950e+02	-16.1033	-2.507411	0.000001	0.010931	0.003703	0.000000
1605	1.5960e+02	-16.0600	-2.506701	0.000002	0.017489	0.005925	0.000001
1606	1.5970e+02	-16.0295	-2.506124	0.000001	0.014210	0.004814	0.000001
1607	1.5980e+02	-15.9862	-2.505015	0.000003	0.027326	0.009258	0.000001
1608	1.5990e+02	-15.9252	-2.505148	-0.000000	-0.003279	-0.001111	-0.000000
1609	1.6000e+02	-15.9172	-2.504217	0.000002	0.022954	0.007777	0.000001
1610	1.6010e+02	-15.8225	-2.503196	0.000003	0.025140	0.008518	0.000001
1611	1.6019e+02	-15.8578	-2.502575	-0.000002	-0.015303	-0.005185	0.000001
1612	1.6029e+02	-15.7632	-2.501821	0.000002	0.018582	0.006296	0.000001
1613	1.6039e+02	-15.7488	-2.501111	0.000002	0.017489	0.005925	0.000001
1614	1.6049e+02	-15.7231	-2.500313	0.000002	0.019675	0.006666	0.000001
1615	1.6059e+02	-15.6990	-2.500357	-0.000000	-0.001093	-0.000370	-0.000000
1616	1.6069e+02	-15.6429	-2.499425	0.000002	0.022954	0.007777	0.000001
1617	1.6079e+02	-15.6060	-2.498937	0.000001	0.012024	0.004074	0.000000
1618	1.6089e+02	-15.5578	-2.497518	0.000003	0.034978	0.011851	0.000001
1619	1.6099e+02	-15.5097	-2.496897	0.000002	0.015303	0.005185	0.000001
1620	1.6109e+02	-15.4760	-2.495388	0.000004	0.037164	0.012591	0.000002
1621	1.6119e+02	-15.4151	-2.494545	0.000002	0.020768	0.007036	0.000001
1622	1.6129e+02	-15.3910	-2.493836	0.000002	0.017489	0.005925	0.000001
1623	1.6139e+02	-15.3573	-2.492860	0.000002	0.024047	0.008147	0.000001
1624	1.6149e+02	-15.3429	-2.490597	0.000006	0.055746	0.018887	0.000002
1625	1.6159e+02	-15.2691	-2.489887	0.000002	0.017489	0.005925	0.000001
1626	1.6169e+02	-15.2482	-2.489621	0.000001	0.006558	0.002222	0.000000
1627	1.6179e+02	-15.1648	-2.488068	0.000004	0.038257	0.012962	0.000002
1628	1.6189e+02	-15.1632	-2.487092	0.000002	0.024047	0.008147	0.000001
1629	1.6199e+02	-15.1119	-2.486560	0.000001	0.013117	0.004444	0.000001
1630	1.6209e+02	-15.0670	-2.485717	0.000002	0.020768	0.007036	0.000001
1631	1.6219e+02	-15.0060	-2.483765	0.000005	0.048094	0.016295	0.000002
1632	1.6228e+02	-14.9851	-2.482301	0.000004	0.036071	0.012221	0.000001
1633	1.6238e+02	-14.9498	-2.480172	0.000005	0.052466	0.017776	0.000002
1634	1.6248e+02	-14.8873	-2.478131	0.000005	0.050280	0.017035	0.000002
1635	1.6258e+02	-14.8536	-2.476800	0.000003	0.032792	0.011110	0.000001
1636	1.6268e+02	-14.8359	-2.476179	0.000002	0.015303	0.005185	0.000001
1637	1.6278e+02	-14.8215	-2.474670	0.000004	0.037164	0.012591	0.000002
1638	1.6288e+02	-14.7798	-2.474094	0.000001	0.014210	0.004814	0.000001
1639	1.6298e+02	-14.7333	-2.472319	0.000004	0.043722	0.014813	0.000002
1640	1.6308e+02	-14.6579	-2.470766	0.000004	0.038257	0.012962	0.000002
1641	1.6318e+02	-14.6386	-2.469169	0.000004	0.039350	0.013332	0.000002
1642	1.6328e+02	-14.6081	-2.467617	0.000004	0.038257	0.012962	0.000002
1643	1.6338e+02	-14.5536	-2.465975	0.000004	0.040443	0.013702	0.000002
1644	1.6348e+02	-14.5039	-2.463535	0.000006	0.060118	0.020368	0.000002
1645	1.6358e+02	-14.4894	-2.460474	0.000008	0.075420	0.025553	0.000003
1646	1.6368e+02	-14.4365	-2.457236	0.000008	0.079793	0.027034	0.000003
1647	1.6378e+02	-14.4044	-2.453997	0.000008	0.079793	0.027034	0.000003
1648	1.6388e+02	-14.3547	-2.450980	0.000007	0.074327	0.025183	0.000003
1649	1.6398e+02	-14.3242	-2.447254	0.000009	0.091816	0.031108	0.000004
1650	1.6408e+02	-14.2729	-2.443749	0.000009	0.086351	0.029257	0.000004
1651	1.6418e+02	-14.2183	-2.440067	0.000009	0.090723	0.030738	0.000004
1652	1.6427e+02	-14.1766	-2.436340	0.000009	0.091816	0.031108	0.000004
1653	1.6437e+02	-14.1622	-2.432525	0.000009	0.094002	0.031849	0.000004
1654	1.6447e+02	-14.1253	-2.428710	0.000009	0.094002	0.031849	0.000004
1655	1.6457e+02	-14.0884	-2.423963	0.000012	0.116956	0.039626	0.000005
1656	1.6467e+02	-14.0082	-2.419482	0.000011	0.110398	0.037404	0.000005
1657	1.6477e+02	-13.9745	-2.415134	0.000011	0.107119	0.036293	0.000004
1658	1.6487e+02	-13.9600	-2.410609	0.000011	0.111491	0.037774	0.000005
1659	1.6497e+02	-13.9039	-2.405241	0.000013	0.132259	0.044811	0.000005
1660	1.6507e+02	-13.8526	-2.401249	0.000010	0.098375	0.033330	0.000004
1661	1.6517e+02	-13.8461	-2.396812	0.000011	0.109305	0.037034	0.000004
1662	1.6527e+02	-13.8044	-2.391089	0.000014	0.141003	0.047773	0.000006
1663	1.6537e+02	-13.7611	-2.385988	0.000013	0.125701	0.042589	0.000005
1664	1.6547e+02	-13.6953	-2.382172	0.000009	0.094002	0.031849	0.000004
1665	1.6557e+02	-13.6472	-2.377958	0.000010	0.103840	0.035182	0.000004
1666	1.6567e+02	-13.6424	-2.372767	0.000013	0.127887	0.043329	0.000005
1667	1.6577e+02	-13.5895	-2.368242	0.000011	0.111491	0.037774	0.000005
1668	1.6587e+02	-13.5317	-2.363495	0.000012	0.116956	0.039626	0.000005
1669	1.6597e+02	-13.5317	-2.358615	-0.000012	-0.120236	-0.040737	0.000005
1670	1.6607e+02	-13.4547	-2.354356	0.000010	0.104933	0.035552	0.000004
1671	1.6616e+02	-13.4611	-2.349033	-0.000013	-0.131166	-0.044440	0.000005
1672	1.6626e+02	-13.3761	-2.343487	0.000014	0.136631	0.046292	0.000006
1673	1.6636e+02	-13.3536	-2.339228	0.000010	0.104933	0.035552	0.000004
1674	1.6646e+02	-13.3103	-2.334792	0.000011	0.109305	0.037034	0.000004
1675	1.6656e+02	-13.2606	-2.329291	0.000014	0.135538	0.045922	0.000006
1676	1.6666e+02	-13.2526	-2.324988	0.000011	0.106026	0.035923	0.000004
1677	1.6676e+02	-13.2205	-2.319531	0.000013	0.134445	0.045551	0.000005
1678	1.6686e+02	-13.1788	-2.314385	0.000013	0.126794	0.042959	0.000005
1679	1.6696e+02	-13.1258	-2.309682	0.000012	0.115863	0.039256	0.000005
1680	1.6706e+02	-13.0809	-2.304181	0.000014	0.135538	0.045922	0.000006
1681	1.6716e+02	-13.0344	-2.298236	0.000015	0.146469	0.049625	0.000006
1682	1.6726e+02	-13.0087	-2.292336	0.000015	0.145376	0.049255	0.000006
1683	1.6736e+02	-12.9494	-2.287988	0.000011	0.107119	0.036293	0.000004
1684	1.6746e+02	-12.9189	-2.282310	0.000014	0.139910	0.047403	0.000006
1685	1.6756e+02	-12.8932	-2.276099	0.000015	0.153027	0.051847	0.000006
1686	1.6766e+02	-12.8451	-2.270376	0.000014	0.141003	0.047773	0.000006
1687	1.6776e+02	-12.7938	-2.264254	0.000015	0.150841	0.051106	0.000006
1688	1.6786e+02	-12.7601	-2.257954	0.000016	0.155213	0.052588	0.000006
1689	1.6796e+02	-12.7328	-2.251699	0.000015	0.154120	0.052217	0.000006
1690	1.6806e+02	-12.6879	-2.244290	0.000018	0.182539	0.061846	0.000007
1691	1.6816e+02	-12.6301	-2.236793	0.000018	0.184725	0.062587	0.000008
1692	1.6825e+02	-12.5852	-2.229295	0.000018	0.184725	0.062587	0.000008
1693	1.6835e+02	-12.5788	-2.222685	0.000016	0.162864	0.055180	0.000007
1694	1.6845e+02	-12.5194	-2.216341	0.000016	0.156306	0.052958	0.000006
1695	1.6855e+02	-12.4841	-2.209332	0.000017	0.172702	0.058513	0.000007
1696	1.6865e+02	-12.4617	-2.202056	0.000018	0.179260	0.060735	0.000007
1697	1.6875e+02	-12.3927	-2.195712	0.000016	0.156306	0.052958	0.000006
1698	1.6885e+02	-12.3574	-2.189102	0.000016	0.162864	0.055180	0.000007
1699	1.6895e+02	-12.3285	-2.181516	0.000019	0.186912	0.063327	0.000008
1700	1.6905e+02	-12.2852	-2.174240	0.000018	0.179260	0.060735	0.000007
1701	1.6915e+02	-12.2419	-2.167630	0.000016	0.162864	0.055180	0.000007
1702	1.6925e+02	-12.2114	-2.160265	0.000018	0.181446	0.061476	0.000007
1703	1.6935e+02	-12.1585	-2.153167	0.000017	0.174888	0.059254	0.000007
1704	1.6945e+02	-12.1360	-2.146557	0.000016	0.162864	0.055180	0.000007
1705	1.6955e+02	-12.0606	-2.139503	0.000017	0.173795	0.058883	0.000007
1706	1.6965e+02	-12.0622	-2.132893	-0.000016	-0.162864	-0.055180	0.000007
1707	1.6975e+02	-12.0221	-2.126859	0.000015	0.148655	0.050366	0.000006
1708	1.6985e+02	-11.9724	-2.120560	0.000016	0.155213	0.052588	0.000006
1709	1.6995e+02	-11.9243	-2.113018	0.000019	0.185819	0.062957	0.000008
1710	1.7005e+02	-11.8729	-2.107118	0.000015	0.145376	0.049255	0.000006
1711	1.7015e+02	-11.8537	-2.100064	0.000017	0.173795	0.058883	0.000007
1712	1.7024e+02	-11.8007	-2.092389	0.000019	0.189098	0.064068	0.000008
1713	1.7034e+02	-11.7815	-2.085513	0.000017	0.169423	0.057402	0.000007
1714	1.7044e+02	-11.7350	-2.078148	0.000018	0.181446	0.061476	0.000007
1715	1.7054e+02	-11.6933	-2.072425	0.000014	0.141003	0.047773	0.000006
1716	1.7064e+02	-11.6211	-2.066702	0.000014	0.141003	0.047773	0.000006
1717	1.7074e+02	-11.5777	-2.060491	0.000015	0.153027	0.051847	0.000006
1718	1.7084e+02	-11.5681	-2.054103	0.000016	0.157399	0.053328	0.000006
1719	1.7094e+02	-11.5200	-2.048025	0.000015	0.149748	0.050736	0.000006
1720	1.7104e+02	-11.5104	-2.041947	0.000015	0.149748	0.050736	0.000006
1721	1.7114e+02	-11.4494	-2.035249	0.000017	0.165051	0.055921	0.000007
1722	1.7124e+02	-11.4189	-2.028461	0.000017	0.167237	0.056661	0.000007
1723	1.7134e+02	-11.3756	-2.022028	0.000016	0.158492	0.053699	0.000006
1724	1.7144e+02	-11.3307	-2.015684	0.000016	0.156306	0.052958	0.000006
1725	1.7154e+02	-11.3195	-2.009251	0.000016	0.158492	0.053699	0.000006
1726	1.7164e+02	-11.2393	-2.003307	0.000015	0.146469	0.049625	0.000006
1727	1.7174e+02	-11.2104	-1.997318	0.000015	0.147562	0.049995	0.000006
1728	1.7184e+02	-11.1831	-1.992216	0.000013	0.125701	0.042589	0.000005
1729	1.7194e+02	-11.1414	-1.987513	0.000012	0.115863	0.039256	0.000005
1730	1.7204e+02	-11.1061	-1.982811	0.000012	0.115863	0.039256	0.000005
1731	1.7213e+02	-11.0596	-1.977531	0.000013	0.130073	0.044070	0.000005
1732	1.7223e+02	-11.0179	-1.972918	0.000011	0.113677	0.038515	0.000005
1733	1.7233e+02	-10.9810	-1.968747	0.000010	0.102747	0.034812	0.000004
1734	1.7243e+02	-10.9184	-1.964045	0.000012	0.115863	0.039256	0.000005
1735	1.7253e+02	-10.8751	-1.959254	0.000012	0.118049	0.039996	0.000005
1736	1.7263e+02	-10.8446	-1.954507	0.000012	0.116956	0.039626	0.000005
1737	1.7273e+02	-10.7981	-1.950558	0.000010	0.097281	0.032960	0.000004
1738	1.7283e+02	-10.7804	-1.946211	0.000011	0.107119	0.036293	0.000004
1739	1.7293e+02	-10.7227	-1.941819	0.000011	0.108212	0.036663	0.000004
1740	1.7303e+02	-10.6778	-1.938625	0.000008	0.078700	0.026664	0.000003
1741	1.7313e+02	-10.6778	-1.935563	-0.000008	-0.075420	-0.025553	0.000003
1742	1.7323e+02	-10.6136	-1.931659	0.000010	0.096188	0.032590	0.000004
1743	1.7333e+02	-10.5542	-1.927977	0.000009	0.090723	0.030738	0.000004
1744	1.7343e+02	-10.5494	-1.923807	0.000010	0.102747	0.034812	0.000004
1745	1.7353e+02	-10.4933	-1.920347	0.000009	0.085258	0.028886	0.000003
1746	1.7363e+02	-10.4548	-1.917330	0.000007	0.074327	0.025183	0.000003
1747	1.7373e+02	-10.4179	-1.913559	0.000009	0.092909	0.031479	0.000004
1748	1.7383e+02	-10.3569	-1.910010	0.000009	0.087444	0.029627	0.000004
1749	1.7393e+02	-10.3569	-1.906328	-0.000009	-0.090723	-0.030738	0.000004
1750	1.7403e+02	-10.2879	-1.902601	0.000009	0.091816	0.031108	0.000004
1751	1.7413e+02	-10.2607	-1.898209	0.000011	0.108212	0.036663	0.000004
1752	1.7422e+02	-10.2206	-1.894971	0.000008	0.079793	0.027034	0.000003
1753	1.7432e+02	-10.1740	-1.891865	0.000008	0.076514	0.025923	0.000003
1754	1.7442e+02	-10.1500	-1.888227	0.000009	0.089630	0.030368	0.000004
1755	1.7452e+02	-10.0874	-1.884279	0.000010	0.097281	0.032960	0.000004
1756	1.7462e+02	-10.0698	-1.880774	0.000009	0.086351	0.029257	0.000004
1757	1.7472e+02	-9.9992	-1.877137	0.000009	0.089630	0.030368	0.000004
1758	1.7482e+02	-9.9783	-1.874120	0.000007	0.074327	0.025183	0.000003
1759	1.7492e+02	-9.9093	-1.871059	0.000008	0.075420	0.025553	0.000003
1760	1.7502e+02	-9.8997	-1.867865	0.000008	0.078700	0.026664	0.000003
1761	1.7512e+02	-9.8404	-1.864404	0.000009	0.085258	0.028886	0.000003
1762	1.7522e+02	-9.8067	-1.860855	0.000009	0.087444	0.029627	0.000004
1763	1.7532e+02	-9.7602	-1.857572	0.000008	0.080886	0.027405	0.000003
1764	1.7542e+02	-9.7152	-1.854910	0.000007	0.065583	0.022220	0.000003
1765	1.7552e+02	-9.6655	-1.851716	0.000008	0.078700	0.026664	0.000003
1766	1.7562e+02	-9.6623	-1.848877	0.000007	0.069955	0.023701	0.000003
1767	1.7572e+02	-9.6142	-1.845594	0.000008	0.080886	0.027405	0.000003
1768	1.7582e+02	-9.5580	-1.843243	0.000006	0.057932	0.019628	0.000002
1769	1.7592e+02	-9.5388	-1.839871	0.000008	0.083072	0.028145	0.000003
1770	1.7602e+02	-9.4730	-1.837697	0.000005	0.053559	0.018146	0.000002
1771	1.7612e+02	-9.4618	-1.835701	0.000005	0.049187	0.016665	0.000002
1772	1.7621e+02	-9.4088	-1.834104	0.000004	0.039350	0.013332	0.000002
1773	1.7631e+02	-9.3816	-1.832418	0.000004	0.041536	0.014073	0.000002
1774	1.7641e+02	-9.3559	-1.831043	0.000003	0.033885	0.011480	0.000001
1775	1.7651e+02	-9.3126	-1.829534	0.000004	0.037164	0.012591	0.000002
1776	1.7661e+02	-9.2709	-1.827671	0.000005	0.045908	0.015554	0.000002
1777	1.7671e+02	-9.2067	-1.825808	0.000005	0.045908	0.015554	0.000002
1778	1.7681e+02	-9.1377	-1.824122	0.000004	0.041536	0.014073	0.000002
1779	1.7691e+02	-9.1698	-1.821859	-0.000006	-0.055746	-0.018887	0.000002
1780	1.7701e+02	-9.1072	-1.819597	0.000006	0.055746	0.018887	0.000002
1781	1.7711e+02	-9.0751	-1.818532	0.000003	0.026233	0.008888	0.000001
1782	1.7721e+02	-8.9997	-1.816137	0.000006	0.059025	0.019998	0.000002
1783	1.7731e+02	-8.9741	-1.814451	0.000004	0.041536	0.014073	0.000002
1784	1.7741e+02	-8.9564	-1.812011	0.000006	0.060118	0.020368	0.000002
1785	1.7751e+02	-8.9051	-1.810547	0.000004	0.036071	0.012221	0.000001
1786	1.7761e+02	-8.8810	-1.808861	0.000004	0.041536	0.014073	0.000002
1787	1.7771e+02	-8.7960	-1.806510	0.000006	0.057932	0.019628	0.000002
1788	1.7781e+02	-8.7655	-1.803892	0.000006	0.064490	0.021850	0.000003
1789	1.7791e+02	-8.7431	-1.802118	0.000004	0.043722	0.014813	0.000002
1790	1.7801e+02	-8.6933	-1.798923	0.000008	0.078700	0.026664	0.000003
1791	1.7810e+02	-8.6853	-1.795774	0.000008	0.077607	0.026294	0.000003
1792	1.7820e+02	-8.6420	-1.792934	0.000007	0.069955	0.023701	0.000003
1793	1.7830e+02	-8.5746	-1.790627	0.000006	0.056839	0.019257	0.000002
1794	1.7840e+02	-8.5265	-1.789119	0.000004	0.037164	0.012591	0.000002
1795	1.7850e+02	-8.5153	-1.787433	0.000004	0.041536	0.014073	0.000002
1796	1.7860e+02	-8.4784	-1.784860	0.000006	0.063397	0.021479	0.000003
1797	1.7870e+02	-8.4094	-1.782420	0.000006	0.060118	0.020368	0.000002
1798	1.7880e+02	-8.4142	-1.780601	-0.000004	-0.044815	-0.015184	0.000002
1799	1.7890e+02	-8.3500	-1.778294	0.000006	0.056839	0.019257	0.000002
1800	1.7900e+02	-8.2939	-1.775056	0.000008	0.079793	0.027034	0.000003
1801	1.7910e+02	-8.2730	-1.772172	0.000007	0.071048	0.024072	0.000003
1802	1.7920e+02	-8.2393	-1.769555	0.000006	0.064490	0.021850	0.000003
1803	1.7930e+02	-8.1768	-1.767026	0.000006	0.062304	0.021109	0.000003
1804	1.7940e+02	-8.1367	-1.764630	0.000006	0.059025	0.019998	0.000002
1805	1.7950e+02	-8.0869	-1.762102	0.000006	0.062304	0.021109	0.000003
1806	1.7960e+02	-8.0661	-1.759218	0.000007	0.071048	0.024072	0.000003
1807	1.7970e+02	-8.0019	-1.756822	0.000006	0.059025	0.019998	0.000002
1808	1.7980e+02	-7.9762	-1.754471	0.000006	0.057932	0.019628	0.000002
1809	1.7990e+02	-7.9361	-1.751454	0.000007	0.074327	0.025183	0.000003
1810	1.8000e+02	-7.8864	-1.747994	0.000009	0.085258	0.028886	0.000003
1811	1.8009e+02	-7.8463	-1.744401	0.000009	0.088537	0.029997	0.000004
1812	1.8019e+02	-7.8190	-1.740807	0.000009	0.088537	0.029997	0.000004
1813	1.8029e+02	-7.7773	-1.736593	0.000010	0.103840	0.035182	0.000004
1814	1.8039e+02	-7.7388	-1.731757	0.000012	0.119142	0.040367	0.000005
1815	1.8049e+02	-7.7196	-1.727365	0.000011	0.108212	0.036663	0.000004
1816	1.8059e+02	-7.6410	-1.722795	0.000011	0.112584	0.038145	0.000005
1817	1.8069e+02	-7.6217	-1.718359	0.000011	0.109305	0.037034	0.000004
1818	1.8079e+02	-7.5864	-1.712858	0.000014	0.135538	0.045922	0.000006
1819	1.8089e+02	-7.5543	-1.707401	0.000013	0.134445	0.045551	0.000005
1820	1.8099e+02	-7.4821	-1.702344	0.000012	0.124608	0.042218	0.000005
1821	1.8109e+02	-7.4533	-1.698174	0.000010	0.102747	0.034812	0.000004
1822	1.8119e+02	-7.4709	-1.691918	-0.000015	-0.154120	-0.052217	0.000006
1823	1.8129e+02	-7.3618	-1.686329	0.000014	0.137724	0.046662	0.000006
1824	1.8139e+02	-7.3297	-1.680739	0.000014	0.137724	0.046662	0.000006
1825	1.8149e+02	-7.3121	-1.675016	0.000014	0.141003	0.047773	0.000006
1826	1.8159e+02	-7.2640	-1.669071	0.000015	0.146469	0.049625	0.000006
1827	1.8169e+02	-7.2142	-1.663171	0.000015	0.145376	0.049255	0.000006
1828	1.8179e+02	-7.1838	-1.657359	0.000014	0.143190	0.048514	0.000006
1829	1.8189e+02	-7.1453	-1.651592	0.000014	0.142097	0.048144	0.000006
1830	1.8199e+02	-7.1308	-1.644937	0.000016	0.163958	0.055550	0.000007
1831	1.8209e+02	-7.0586	-1.639436	0.000014	0.135538	0.045922	0.000006
1832	1.8218e+02	-7.0153	-1.633669	0.000014	0.142097	0.048144	0.000006
1833	1.8228e+02	-7.0105	-1.627635	0.000015	0.148655	0.050366	0.000006
1834	1.8238e+02	-6.9592	-1.621779	0.000014	0.144283	0.048884	0.000006
1835	1.8248e+02	-6.9223	-1.615702	0.000015	0.149748	0.050736	0.000006
1836	1.8258e+02	-6.8773	-1.609846	0.000014	0.144283	0.048884	0.000006
1837	1.8268e+02	-6.7955	-1.603812	0.000015	0.148655	0.050366	0.000006
1838	1.8278e+02	-6.7634	-1.597867	0.000015	0.146469	0.049625	0.000006
1839	1.8288e+02	-6.7522	-1.590947	0.000017	0.170516	0.057772	0.000007
1840	1.8298e+02	-6.6945	-1.585490	0.000013	0.134445	0.045551	0.000005
1841	1.8308e+02	-6.6752	-1.578924	0.000016	0.161771	0.054810	0.000007
1842	1.8318e+02	-6.6287	-1.572137	0.000017	0.167237	0.056661	0.000007
1843	1.8328e+02	-6.5758	-1.565793	0.000016	0.156306	0.052958	0.000006
1844	1.8338e+02	-6.5613	-1.559848	0.000015	0.146469	0.049625	0.000006
1845	1.8348e+02	-6.4891	-1.553326	0.000016	0.160678	0.054439	0.000007
1846	1.8358e+02	-6.4554	-1.545962	0.000018	0.181446	0.061476	0.000007
1847	1.8368e+02	-6.4490	-1.538420	0.000019	0.185819	0.062957	0.000008
1848	1.8378e+02	-6.3945	-1.533407	0.000012	0.123515	0.041848	0.000005
1849	1.8388e+02	-6.3367	-1.526575	0.000017	0.168330	0.057032	0.000007
1850	1.8398e+02	-6.3463	-1.519699	-0.000017	-0.169423	-0.057402	0.000007
1851	1.8407e+02	-6.2613	-1.512290	0.000018	0.182539	0.061846	0.000007
1852	1.8417e+02	-6.2260	-1.505414	0.000017	0.169423	0.057402	0.000007
1853	1.8427e+02	-6.1811	-1.498315	0.000017	0.174888	0.059254	0.000007
1854	1.8437e+02	-6.1346	-1.490330	0.000020	0.196749	0.066660	0.000008
1855	1.8447e+02	-6.1169	-1.483187	0.000018	0.175981	0.059624	0.000007
1856	1.8457e+02	-6.0704	-1.474847	0.000021	0.205493	0.069623	0.000008
1857	1.8467e+02	-6.0271	-1.466241	0.000021	0.212052	0.071845	0.000009
1858	1.8477e+02	-6.0127	-1.457102	0.000023	0.225168	0.076289	0.000009
1859	1.8487e+02	-5.9357	-1.449294	0.000019	0.192377	0.065179	0.000008
1860	1.8497e+02	-5.9116	-1.440510	0.000022	0.216424	0.073326	0.000009
1861	1.8507e+02	-5.8731	-1.431459	0.000022	0.222982	0.075548	0.000009
1862	1.8517e+02	-5.8234	-1.423385	0.000020	0.198935	0.067401	0.000008
1863	1.8527e+02	-5.7849	-1.415222	0.000020	0.201121	0.068142	0.000008
1864	1.8537e+02	-5.7608	-1.407991	0.000018	0.178167	0.060365	0.000007
1865	1.8547e+02	-5.7223	-1.399429	0.000021	0.210959	0.071475	0.000009
1866	1.8557e+02	-5.6597	-1.390068	0.000023	0.230634	0.078141	0.000009
1867	1.8567e+02	-5.6549	-1.381506	0.000021	0.210959	0.071475	0.000009
1868	1.8577e+02	-5.6132	-1.373565	0.000020	0.195656	0.066290	0.000008
1869	1.8587e+02	-5.5522	-1.364781	0.000022	0.216424	0.073326	0.000009
1870	1.8597e+02	-5.4945	-1.356130	0.000021	0.213145	0.072215	0.000009
1871	1.8606e+02	-5.4752	-1.348056	0.000020	0.198935	0.067401	0.000008
1872	1.8616e+02	-5.4351	-1.339006	0.000022	0.222982	0.075548	0.000009
1873	1.8626e+02	-5.3710	-1.330887	0.000020	0.200028	0.067771	0.000008
1874	1.8636e+02	-5.3581	-1.322680	0.000020	0.202214	0.068512	0.000008
1875	1.8646e+02	-5.3196	-1.314517	0.000020	0.201121	0.068142	0.000008
1876	1.8656e+02	-5.2619	-1.306176	0.000021	0.205493	0.069623	0.000008
1877	1.8666e+02	-5.2298	-1.297836	0.000021	0.205493	0.069623	0.000008
1878	1.8676e+02	-5.1801	-1.289806	0.000020	0.197842	0.067031	0.000008
1879	1.8686e+02	-5.1769	-1.280756	0.000022	0.222982	0.075548	0.000009
1880	1.8696e+02	-5.1079	-1.271795	0.000022	0.220796	0.074808	0.000009
1881	1.8706e+02	-5.0902	-1.263232	0.000021	0.210959	0.071475	0.000009
1882	1.8716e+02	-5.0405	-1.254670	0.000021	0.210959	0.071475	0.000009
1883	1.8726e+02	-4.9924	-1.248016	0.000016	0.163958	0.055550	0.000007
1884	1.8736e+02	-4.9523	-1.239942	0.000020	0.198935	0.067401	0.000008
1885	1.8746e+02	-4.9122	-1.231734	0.000020	0.202214	0.068512	0.000008
1886	1.8756e+02	-4.8672	-1.223261	0.000021	0.208773	0.070734	0.000009
1887	1.8766e+02	-4.8336	-1.215763	0.000018	0.184725	0.062587	0.000008
1888	1.8776e+02	-4.7934	-1.208576	0.000018	0.177074	0.059994	0.000007
1889	1.8786e+02	-4.7533	-1.200236	0.000021	0.205493	0.069623	0.000008
1890	1.8796e+02	-4.7068	-1.191008	0.000023	0.227354	0.077030	0.000009
1891	1.8806e+02	-4.6860	-1.183067	0.000020	0.195656	0.066290	0.000008
1892	1.8815e+02	-4.6410	-1.175437	0.000019	0.188005	0.063698	0.000008
1893	1.8825e+02	-4.5753	-1.166919	0.000021	0.209866	0.071104	0.000009
1894	1.8835e+02	-4.5849	-1.158978	-0.000020	-0.195656	-0.066290	0.000008
1895	1.8845e+02	-4.5159	-1.152013	0.000017	0.171609	0.058143	0.000007
1896	1.8855e+02	-4.4822	-1.145624	0.000016	0.157399	0.053328	0.000006
1897	1.8865e+02	-4.4293	-1.138349	0.000018	0.179260	0.060735	0.000007
1898	1.8875e+02	-4.4052	-1.131783	0.000016	0.161771	0.054810	0.000007
1899	1.8885e+02	-4.3635	-1.125750	0.000015	0.148655	0.050366	0.000006
1900	1.8895e+02	-4.2993	-1.118740	0.000017	0.172702	0.058513	0.000007
1901	1.8905e+02	-4.3009	-1.112662	-0.000015	-0.149748	-0.050736	0.000006
1902	1.8915e+02	-4.2512	-1.106363	0.000016	0.155213	0.052588	0.000006
1903	1.8925e+02	-4.1790	-1.100684	0.000014	0.139910	0.047403	0.000006
1904	1.8935e+02	-4.1566	-1.094251	0.000016	0.158492	0.053699	0.000006
1905	1.8945e+02	-4.1229	-1.086976	0.000018	0.179260	0.060735	0.000007
1906	1.8955e+02	-4.0828	-1.081785	0.000013	0.127887	0.043329	0.000005
1907	1.8965e+02	-4.0090	-1.076595	0.000013	0.127887	0.043329	0.000005
1908	1.8975e+02	-4.0122	-1.070916	-0.000014	-0.139910	-0.047403	0.000006
1909	1.8985e+02	-3.9464	-1.064750	0.000015	0.151934	0.051477	0.000006
1910	1.8995e+02	-3.9159	-1.059027	0.000014	0.141003	0.047773	0.000006
1911	1.9004e+02	-3.8710	-1.053880	0.000013	0.126794	0.042959	0.000005
1912	1.9014e+02	-3.8550	-1.048557	0.000013	0.131166	0.044440	0.000005
1913	1.9024e+02	-3.8052	-1.042390	0.000015	0.151934	0.051477	0.000006
1914	1.9034e+02	-3.7764	-1.037022	0.000013	0.132259	0.044811	0.000005
1915	1.9044e+02	-3.7074	-1.031965	0.000012	0.124608	0.042218	0.000005
1916	1.9054e+02	-3.6625	-1.025887	0.000015	0.149748	0.050736	0.000006
1917	1.9064e+02	-3.6496	-1.020652	0.000013	0.128980	0.043700	0.000005
1918	1.9074e+02	-3.5999	-1.014707	0.000015	0.146469	0.049625	0.000006
1919	1.9084e+02	-3.5438	-1.008851	0.000014	0.144283	0.048884	0.000006
1920	1.9094e+02	-3.5117	-1.003173	0.000014	0.139910	0.047403	0.000006
1921	1.9104e+02	-3.4876	-0.997716	0.000013	0.134445	0.045551	0.000005
1922	1.9114e+02	-3.4347	-0.992659	0.000012	0.124608	0.042218	0.000005
1923	1.9124e+02	-3.4026	-0.987512	0.000013	0.126794	0.042959	0.000005
1924	1.9134e+02	-3.3769	-0.981612	0.000015	0.145376	0.049255	0.000006
1925	1.9144e+02	-3.3384	-0.975889	0.000014	0.141003	0.047773	0.000006
1926	1.9154e+02	-3.2774	-0.970344	0.000014	0.136631	0.046292	0.000006
1927	1.9164e+02	-3.2566	-0.964665	0.000014	0.139910	0.047403	0.000006
1928	1.9174e+02	-3.2037	-0.959652	0.000012	0.123515	0.041848	0.000005
1929	1.9184e+02	-3.1700	-0.954417	0.000013	0.128980	0.043700	0.000005
1930	1.9194e+02	-3.1250	-0.948606	0.000014	0.143190	0.048514	0.000006
1931	1.9203e+02	-3.0625	-0.943681	0.000012	0.121329	0.041107	0.000005
1932	1.9213e+02	-3.0545	-0.938091	0.000014	0.137724	0.046662	0.000006
1933	1.9223e+02	-3.0015	-0.932812	0.000013	0.130073	0.044070	0.000005
1934	1.9233e+02	-2.9502	-0.927710	0.000013	0.125701	0.042589	0.000005
1935	1.9243e+02	-2.9277	-0.922875	0.000012	0.119142	0.040367	0.000005
1936	1.9253e+02	-2.8764	-0.917684	0.000013	0.127887	0.043329	0.000005
1937	1.9263e+02	-2.8427	-0.912982	0.000012	0.115863	0.039256	0.000005
1938	1.9273e+02	-2.8090	-0.907614	0.000013	0.132259	0.044811	0.000005
1939	1.9283e+02	-2.7577	-0.903088	0.000011	0.111491	0.037774	0.000005
1940	1.9293e+02	-2.6919	-0.898963	0.000010	0.101654	0.034441	0.000004
1941	1.9303e+02	-2.6694	-0.895192	0.000009	0.092909	0.031479	0.000004
1942	1.9313e+02	-2.6390	-0.892219	0.000007	0.073234	0.024812	0.000003
1943	1.9323e+02	-2.6229	-0.887960	0.000010	0.104933	0.035552	0.000004
1944	1.9333e+02	-2.5940	-0.883968	0.000010	0.098375	0.033330	0.000004
1945	1.9343e+02	-2.5395	-0.879931	0.000010	0.099468	0.033701	0.000004
1946	1.9353e+02	-2.4850	-0.875760	0.000010	0.102747	0.034812	0.000004
1947	1.9363e+02	-2.4497	-0.871457	0.000011	0.106026	0.035923	0.000004
1948	1.9373e+02	-2.4031	-0.866267	0.000013	0.127887	0.043329	0.000005
1949	1.9383e+02	-2.3711	-0.862584	0.000009	0.090723	0.030738	0.000004
1950	1.9393e+02	-2.3197	-0.858104	0.000011	0.110398	0.037404	0.000005
1951	1.9403e+02	-2.2892	-0.853800	0.000011	0.106026	0.035923	0.000004
1952	1.9412e+02	-2.2700	-0.849364	0.000011	0.109305	0.037034	0.000004
1953	1.9422e+02	-2.2187	-0.844307	0.000012	0.124608	0.042218	0.000005
1954	1.9432e+02	-2.1866	-0.839648	0.000011	0.114770	0.038885	0.000005
1955	1.9442e+02	-2.1144	-0.835700	0.000010	0.097281	0.032960	0.000004
1956	1.9452e+02	-2.0935	-0.830510	0.000013	0.127887	0.043329	0.000005
1957	1.9462e+02	-2.0438	-0.825275	0.000013	0.128980	0.043700	0.000005
1958	1.9472e+02	-1.9828	-0.819685	0.000014	0.137724	0.046662	0.000006
1959	1.9482e+02	-1.9588	-0.815382	0.000011	0.106026	0.035923	0.000004
1960	1.9492e+02	-1.9283	-0.810324	0.000012	0.124608	0.042218	0.000005
1961	1.9502e+02	-1.8737	-0.805222	0.000013	0.125701	0.042589	0.000005
1962	1.9512e+02	-1.8032	-0.801407	0.000009	0.094002	0.031849	0.000004
1963	1.9522e+02	-1.8112	-0.796660	-0.000012	-0.116956	-0.039626	0.000005
1964	1.9532e+02	-1.7807	-0.791514	0.000013	0.126794	0.042959	0.000005
1965	1.9542e+02	-1.7422	-0.786190	0.000013	0.131166	0.044440	0.000005
1966	1.9552e+02	-1.7005	-0.781310	0.000012	0.120236	0.040737	0.000005
1967	1.9562e+02	-1.6411	-0.775987	0.000013	0.131166	0.044440	0.000005
1968	1.9572e+02	-1.6026	-0.771018	0.000012	0.122422	0.041478	0.000005
1969	1.9582e+02	-1.5754	-0.765339	0.000014	0.139910	0.047403	0.000006
1970	1.9592e+02	-1.5449	-0.759572	0.000014	0.142097	0.048144	0.000006
1971	1.9601e+02	-1.5000	-0.754160	0.000013	0.133352	0.045181	0.000005
1972	1.9611e+02	-1.4486	-0.749280	0.000012	0.120236	0.040737	0.000005
1973	1.9621e+02	-1.4005	-0.744355	0.000012	0.121329	0.041107	0.000005
1974	1.9631e+02	-1.3877	-0.738455	0.000015	0.145376	0.049255	0.000006
1975	1.9641e+02	-1.3443	-0.732910	0.000014	0.136631	0.046292	0.000006
1976	1.9651e+02	-1.2994	-0.727719	0.000013	0.127887	0.043329	0.000005
1977	1.9661e+02	-1.2738	-0.721774	0.000015	0.146469	0.049625	0.000006
1978	1.9671e+02	-1.2016	-0.715164	0.000016	0.162864	0.055180	0.000007
1979	1.9681e+02	-1.1727	-0.708909	0.000015	0.154120	0.052217	0.000006
1980	1.9691e+02	-1.1486	-0.702210	0.000017	0.165051	0.055921	0.000007
1981	1.9701e+02	-1.0748	-0.694979	0.000018	0.178167	0.060365	0.000007
1982	1.9711e+02	-1.0379	-0.687171	0.000019	0.192377	0.065179	0.000008
1983	1.9721e+02	-0.9898	-0.680383	0.000017	0.167237	0.056661	0.000007
1984	1.9731e+02	-0.9914	-0.672619	-0.000019	-0.191284	-0.064809	0.000008
1985	1.9741e+02	-0.9481	-0.665255	0.000018	0.181446	0.061476	0.000007
1986	1.9751e+02	-0.8775	-0.656959	0.000020	0.204400	0.069253	0.000008
1987	1.9761e+02	-0.8647	-0.648486	0.000021	0.208773	0.070734	0.000009
1988	1.9771e+02	-0.8230	-0.640367	0.000020	0.200028	0.067771	0.000008
1989	1.9781e+02	-0.7444	-0.631805	0.000021	0.210959	0.071475	0.000009
1990	1.9791e+02	-0.7107	-0.624041	0.000019	0.191284	0.064809	0.000008
1991	1.9800e+02	-0.6978	-0.615168	0.000022	0.218610	0.074067	0.000009
1992	1.9810e+02	-0.6658	-0.605941	0.000023	0.227354	0.077030	0.000009
1993	1.9820e+02	-0.6144	-0.597246	0.000021	0.214238	0.072586	0.000009
1994	1.9830e+02	-0.5711	-0.588240	0.000022	0.221889	0.075178	0.000009
1995	1.9840e+02	-0.5053	-0.579056	0.000023	0.226261	0.076659	0.000009
1996	1.9850e+02	-0.5069	-0.569829	-0.000023	-0.227354	-0.077030	0.000009
1997	1.9860e+02	-0.4380	-0.560867	0.000022	0.220796	0.074808	0.000009
1998	1.9870e+02	-0.3962	-0.552261	0.000021	0.212052	0.071845	0.000009
1999	1.9880e+02	-0.3834	-0.542811	0.000023	0.232820	0.078881	0.000009
2000	1.9890e+02	-0.3305	-0.533672	0.000023	0.225168	0.076289	0.000009
2001	1.9900e+02	-0.3112	-0.524888	0.000022	0.216424	0.073326	0.000009
2002	1.9910e+02	-0.2166	-0.515705	0.000023	0.226261	0.076659	0.000009
2003	1.9920e+02	-0.2342	-0.506344	-0.000023	-0.230634	-0.078141	0.000009
2004	1.9930e+02	-0.2134	-0.497782	0.000021	0.210959	0.071475	0.000009
2005	1.9940e+02	-0.1524	-0.488422	0.000023	0.230634	0.078141	0.000009
2006	1.9950e+02	-0.0946	-0.478662	0.000024	0.240471	0.081474	0.000010
2007	1.9960e+02	-0.0834	-0.468902	0.000024	0.240471	0.081474	0.000010
2008	1.9970e+02	-0.0353	-0.460650	0.000020	0.203307	0.068882	0.000008
2009	1.9980e+02	0.0193	-0.450890	0.000020	0.203307	0.068882	0.000010

Center data before PMax,+/-Pr and +/-Vc Calc.

PMax (uC/cm2):	2.83e+00
Pr (uC/cm2):	2.39e-01
-Pr (uC/cm2):	-4.51e-01
PLoss (uC/cm2):	-2.37e-01
Vc:	9.66e-01
-Vc:	-1.62e+00
C (Max-Eff) (nF):	1.41e-02
K (Eff):	4.79e+01
Vert. (+/-Pr) Shift (uC/cm2):	-1.06e-01
Horiz. Shift (+/-Vc):	-3.28e-01
Offset (uC/cm2):	2.22e-01

A (Loop Area - uC/cm2·Volts):	6.34e-03



Hysteresis Version: 5.48.1 - Radiant Technologies, Inc., 1999 - 9/12/24

