»»»»»»»»»»»»»»»»»»»»»»»»»»»»»»»»»»»» Hysteresis ««««««««««««««««««««««««««««««««««««
»»»  Executed Version:	5.48.1
»»»  Vision Version:	5.48.4 (R)
»»»  Vision Compiled:	9/18/24
»»»  Driver Version:	5.47.0
»»»  Windows Version:	Windows 8 or 8.1
»»»  Processor Information:	x86 (AMD or Intel) - 32 Processors
»»»  Tester Name:	PMF21124-494 (100V)
»»»  Tester S/N:	PMF21124-494
»»»  Internal Amp Type:	100V RevK 270k
»»»  Internal Amp S/N:	iAB2-596/K     
»»»  Execution Count:	1
»»»»»»»»»»»»»»»»»»»»»»»»»»»»»»»»»»»»»»»»»»««««««««««««««««««««««««««««««««««««««««««

Stored:	6/11/2025 - 14:28:22
Configured:	06/11/25 01:55:56 PM
Executed:	06/11/25 02:27:33 PM

»»»»»»»»»»»»»»»»»»»»»»»»»»»»»»»»»»» Sample Info ««««««««««««««««««««««««««««««««««««
Sample Name:	
Lot Name:	
Wafer Name:	
Die Row/Column:	0/0
Capacitor Number:	0
Sample Area (cm2):	1.00e-04
Sample Thickness (microns):	3.00e-01

Amplifier:	Internal

»»»»»»»»»»»»»»»»»»»»»»»»»»»»»»»»»»» Tester Info «««««««««««««««««««««««««««««««««««
Tester Name:	PMF21124-494 (100V)
Tester Serial Number:	PMF21124-494
Return Signal Amp. Level:	16.67 [Index: 1]

»»»»»»»»»»»»»»»»»»»»»»»»»»»»»»»» Hysteresis Info ««««««««««««««««««««««««««««««««««
Task Name:	Hyst-1287
Volts:	20.00
Field:	666.67 (kV/cm)
DCBias:	0.00
DCField:	0.00 (kV/cm)
Hysteresis Period (ms):	1.00e+00
Preset:	Enabled
Preset Delay (ms):	1.00e+03
Profile:	Standard Bipolar

»»»»»»»»»»»»»»»»»»»»»»»»»»»»»»»»»»»»»» Data «««««««««««««««««««««««««««««««««««««««
Points:	2001

Valid Data

Point	Time (ms)	Drive Voltage	Measured Polarization (uC/cm2)	Capacitance (uF)	Normalized Capacitance (uF/cm2)	Dielectric Constant	Instantaneous Current (mA)
   1	0.0000e+00	0.0305	-0.108108	0.000011	0.106628	0.036127	0.000870
   2	5.0000e-04	0.0465	-0.103760	0.000011	0.106628	0.036127	0.000870
   3	1.0000e-03	0.1075	-0.098597	0.000013	0.126621	0.042900	0.001033
   4	1.5000e-03	0.1813	-0.090083	0.000021	0.208813	0.070748	0.001703
   5	2.0000e-03	0.2374	-0.084331	0.000014	0.141060	0.047792	0.001150
   6	2.5000e-03	0.2551	-0.076586	0.000019	0.189931	0.064350	0.001549
   7	3.0000e-03	0.2567	-0.067845	0.000021	0.214367	0.072630	0.001748
   8	3.5000e-03	0.3192	-0.060236	0.000019	0.186599	0.063222	0.001522
   9	4.0000e-03	0.3946	-0.052175	0.000020	0.197706	0.066985	0.001612
  10	4.5000e-03	0.3882	-0.045109	-0.000017	-0.173271	-0.058706	0.001413
  11	5.0000e-03	0.4476	-0.037138	0.000020	0.195485	0.066232	0.001594
  12	5.5000e-03	0.5037	-0.027899	0.000023	0.226585	0.076769	0.001848
  13	6.0000e-03	0.5085	-0.019158	0.000021	0.214367	0.072630	0.001748
  14	6.5000e-03	0.5759	-0.011051	0.000020	0.198817	0.067361	0.001621
  15	7.0000e-03	0.5904	-0.002174	0.000022	0.217699	0.073758	0.001775
  16	7.5000e-03	0.6353	0.004484	0.000016	0.163274	0.055319	0.001332
  17	8.0000e-03	0.6545	0.013814	0.000023	0.228806	0.077522	0.001866
  18	8.5000e-03	0.7203	0.021558	0.000019	0.189931	0.064350	0.001549
  19	9.0000e-03	0.7781	0.029892	0.000020	0.204371	0.069243	0.001667
  20	9.5000e-03	0.8021	0.037093	0.000018	0.176603	0.059835	0.001440
  21	1.0000e-02	0.8535	0.045834	0.000021	0.214367	0.072630	0.001748
  22	1.0500e-02	0.8887	0.054620	0.000022	0.215478	0.073006	0.001757
  23	1.1000e-02	0.9337	0.062501	0.000019	0.193264	0.065479	0.001576
  24	1.1500e-02	0.9577	0.069883	0.000018	0.181046	0.061340	0.001476
  25	1.2000e-02	1.0075	0.078715	0.000022	0.216588	0.073382	0.001766
  26	1.2500e-02	1.0604	0.085961	0.000018	0.177714	0.060211	0.001449
  27	1.3000e-02	1.0764	0.095019	0.000022	0.222142	0.075264	0.001812
  28	1.3500e-02	1.1278	0.101858	0.000017	0.167717	0.056824	0.001368
  29	1.4000e-02	1.1663	0.112999	0.000027	0.273235	0.092574	0.002228
  30	1.4500e-02	1.1855	0.119974	0.000017	0.171049	0.057953	0.001395
  31	1.5000e-02	1.2513	0.130300	0.000025	0.253242	0.085801	0.002065
  32	1.5500e-02	1.2898	0.134965	0.000011	0.114403	0.038761	0.000933
  33	1.6000e-02	1.3267	0.142302	0.000018	0.179935	0.060964	0.001467
  34	1.6500e-02	1.3652	0.149549	0.000018	0.177714	0.060211	0.001449
  35	1.7000e-02	1.4165	0.159377	0.000024	0.241024	0.081661	0.001966
  36	1.7500e-02	1.4310	0.168661	0.000023	0.227696	0.077145	0.001857
  37	1.8000e-02	1.4839	0.175863	0.000018	0.176603	0.059835	0.001440
  38	1.8500e-02	1.5208	0.183335	0.000018	0.183267	0.062093	0.001495
  39	1.9000e-02	1.5577	0.191171	0.000019	0.192153	0.065103	0.001567
  40	1.9500e-02	1.6171	0.200365	0.000023	0.225474	0.076393	0.001839
  41	2.0000e-02	1.6556	0.208653	0.000020	0.203260	0.068866	0.001658
  42	2.0500e-02	1.6700	0.216080	0.000018	0.182156	0.061716	0.001486
  43	2.1000e-02	1.7005	0.223372	0.000018	0.178824	0.060587	0.001458
  44	2.1500e-02	1.7807	0.230709	0.000018	0.179935	0.060964	0.001467
  45	2.2000e-02	1.8160	0.237729	0.000017	0.172160	0.058329	0.001404
  46	2.2500e-02	1.8272	0.244885	0.000018	0.175492	0.059458	0.001431
  47	2.3000e-02	1.8786	0.254260	0.000023	0.229917	0.077898	0.001875
  48	2.3500e-02	1.9331	0.262322	0.000020	0.197706	0.066985	0.001612
  49	2.4000e-02	1.9700	0.270157	0.000019	0.192153	0.065103	0.001567
  50	2.4500e-02	2.0149	0.277494	0.000018	0.179935	0.060964	0.001467
  51	2.5000e-02	2.0566	0.285465	0.000020	0.195485	0.066232	0.001594
  52	2.5500e-02	2.1015	0.292304	0.000017	0.167717	0.056824	0.001368
  53	2.6000e-02	2.0967	0.300320	-0.000020	-0.196596	-0.066608	0.001603
  54	2.6500e-02	2.1593	0.307703	0.000018	0.181046	0.061340	0.001476
  55	2.7000e-02	2.1994	0.316353	0.000021	0.212146	0.071877	0.001730
  56	2.7500e-02	2.2636	0.322105	0.000014	0.141060	0.047792	0.001150
  57	2.8000e-02	2.2684	0.330212	0.000020	0.198817	0.067361	0.001621
  58	2.8500e-02	2.3069	0.338546	0.000020	0.204371	0.069243	0.001667
  59	2.9000e-02	2.3775	0.347649	0.000022	0.223253	0.075640	0.001821
  60	2.9500e-02	2.4047	0.353944	0.000015	0.154389	0.052308	0.001259
  61	3.0000e-02	2.4513	0.359515	0.000014	0.136617	0.046287	0.001114
  62	3.0500e-02	2.4882	0.368075	0.000021	0.209924	0.071124	0.001712
  63	3.1000e-02	2.5267	0.376182	0.000020	0.198817	0.067361	0.001621
  64	3.1500e-02	2.5860	0.382749	0.000016	0.161053	0.054566	0.001313
  65	3.2000e-02	2.6085	0.390312	0.000019	0.185489	0.062845	0.001513
  66	3.2500e-02	2.6518	0.398465	0.000020	0.199928	0.067737	0.001630
  67	3.3000e-02	2.6967	0.405439	0.000017	0.171049	0.057953	0.001395
  68	3.3500e-02	2.7256	0.414543	0.000022	0.223253	0.075640	0.001821
  69	3.4000e-02	2.7448	0.419117	0.000011	0.112182	0.038008	0.000915
  70	3.4500e-02	2.8170	0.428130	0.000022	0.221031	0.074887	0.001803
  71	3.5000e-02	2.8555	0.434516	0.000016	0.156610	0.053061	0.001277
  72	3.5500e-02	2.8780	0.440630	0.000015	0.149946	0.050803	0.001223
  73	3.6000e-02	2.9293	0.447424	0.000017	0.166606	0.056448	0.001359
  74	3.6500e-02	2.9614	0.454897	0.000018	0.183267	0.062093	0.001495
  75	3.7000e-02	2.9967	0.462369	0.000018	0.183267	0.062093	0.001495
  76	3.7500e-02	3.0513	0.470567	0.000020	0.201038	0.068114	0.001640
  77	3.8000e-02	3.1234	0.477089	0.000016	0.159942	0.054190	0.001304
  78	3.8500e-02	3.1218	0.485105	-0.000020	-0.196596	-0.066608	0.001603
  79	3.9000e-02	3.1347	0.491446	0.000016	0.155499	0.052685	0.001268
  80	3.9500e-02	3.2309	0.498149	0.000016	0.164385	0.055695	0.001341
  81	4.0000e-02	3.2518	0.506346	0.000020	0.201038	0.068114	0.001640
  82	4.0500e-02	3.2662	0.514046	0.000019	0.188821	0.063974	0.001540
  83	4.1000e-02	3.3577	0.520024	0.000015	0.146614	0.049674	0.001196
  84	4.1500e-02	3.3801	0.526546	0.000016	0.159942	0.054190	0.001304
  85	4.2000e-02	3.4026	0.533204	0.000016	0.163274	0.055319	0.001332
  86	4.2500e-02	3.4315	0.539907	0.000016	0.164385	0.055695	0.001341
  87	4.3000e-02	3.4684	0.545432	0.000014	0.135507	0.045911	0.001105
  88	4.3500e-02	3.5341	0.554490	0.000022	0.222142	0.075264	0.001812
  89	4.4000e-02	3.5774	0.562371	0.000019	0.193264	0.065479	0.001576
  90	4.4500e-02	3.5967	0.568394	0.000015	0.147724	0.050050	0.001205
  91	4.5000e-02	3.6191	0.574644	0.000015	0.153278	0.051932	0.001250
  92	4.5500e-02	3.6689	0.583793	0.000022	0.224363	0.076016	0.001830
  93	4.6000e-02	3.7090	0.589137	0.000013	0.131064	0.044406	0.001069
  94	4.6500e-02	3.7683	0.596610	0.000018	0.183267	0.062093	0.001495
  95	4.7000e-02	3.8133	0.602860	0.000015	0.153278	0.051932	0.001250
  96	4.7500e-02	3.8325	0.609654	0.000017	0.166606	0.056448	0.001359
  97	4.8000e-02	3.9127	0.615768	0.000015	0.149946	0.050803	0.001223
  98	4.8500e-02	3.9191	0.621520	0.000014	0.141060	0.047792	0.001150
  99	4.9000e-02	3.9881	0.627815	0.000015	0.154389	0.052308	0.001259
 100	4.9500e-02	3.9785	0.635832	-0.000020	-0.196596	-0.066608	0.001603
 101	5.0000e-02	4.0234	0.643440	0.000019	0.186599	0.063222	0.001522
 102	5.0500e-02	4.0892	0.650370	0.000017	0.169939	0.057577	0.001386
 103	5.1000e-02	4.1181	0.655714	0.000013	0.131064	0.044406	0.001069
 104	5.1500e-02	4.1822	0.662281	0.000016	0.161053	0.054566	0.001313
 105	5.2000e-02	4.2272	0.669799	0.000018	0.184378	0.062469	0.001504
 106	5.2500e-02	4.2544	0.676865	0.000017	0.173271	0.058706	0.001413
 107	5.3000e-02	4.2929	0.682028	0.000013	0.126621	0.042900	0.001033
 108	5.3500e-02	4.3330	0.689863	0.000019	0.192153	0.065103	0.001567
 109	5.4000e-02	4.3459	0.695570	0.000014	0.139949	0.047416	0.001141
 110	5.4500e-02	4.3988	0.704175	0.000021	0.211035	0.071501	0.001721
 111	5.5000e-02	4.4341	0.708794	0.000011	0.113292	0.038385	0.000924
 112	5.5500e-02	4.4646	0.716358	0.000019	0.185489	0.062845	0.001513
 113	5.6000e-02	4.5239	0.721974	0.000014	0.137728	0.046664	0.001123
 114	5.6500e-02	4.5608	0.729628	0.000019	0.187710	0.063598	0.001531
 115	5.7000e-02	4.6154	0.737463	0.000019	0.192153	0.065103	0.001567
 116	5.7500e-02	4.6555	0.742400	0.000012	0.121067	0.041019	0.000987
 117	5.8000e-02	4.6763	0.748695	0.000015	0.154389	0.052308	0.001259
 118	5.8500e-02	4.7020	0.755715	0.000017	0.172160	0.058329	0.001404
 119	5.9000e-02	4.7774	0.761150	0.000013	0.133285	0.045158	0.001087
 120	5.9500e-02	4.7694	0.767853	-0.000016	-0.164385	-0.055695	0.001341
 121	6.0000e-02	4.8127	0.773741	0.000014	0.144392	0.048921	0.001178
 122	6.0500e-02	4.8881	0.780444	0.000016	0.164385	0.055695	0.001341
 123	6.1000e-02	4.9250	0.787690	0.000018	0.177714	0.060211	0.001449
 124	6.1500e-02	4.9779	0.793351	0.000014	0.138839	0.047040	0.001132
 125	6.2000e-02	4.9876	0.798424	0.000012	0.124399	0.042148	0.001015
 126	6.2500e-02	5.0501	0.806848	0.000021	0.206592	0.069995	0.001685
 127	6.3000e-02	5.1111	0.814230	0.000018	0.181046	0.061340	0.001476
 128	6.3500e-02	5.1079	0.820028	-0.000014	-0.142171	-0.048169	0.001159
 129	6.4000e-02	5.1688	0.825372	0.000013	0.131064	0.044406	0.001069
 130	6.4500e-02	5.1993	0.831939	0.000016	0.161053	0.054566	0.001313
 131	6.5000e-02	5.2346	0.837781	0.000014	0.143282	0.048545	0.001168
 132	6.5500e-02	5.3052	0.843805	0.000015	0.147724	0.050050	0.001205
 133	6.6000e-02	5.3196	0.849647	0.000014	0.143282	0.048545	0.001168
 134	6.6500e-02	5.3950	0.858434	0.000022	0.215478	0.073006	0.001757
 135	6.7000e-02	5.4095	0.864367	0.000015	0.145503	0.049298	0.001187
 136	6.7500e-02	5.4448	0.869077	0.000012	0.115514	0.039137	0.000942
 137	6.8000e-02	5.4977	0.875010	0.000015	0.145503	0.049298	0.001187
 138	6.8500e-02	5.5009	0.881622	0.000016	0.162164	0.054943	0.001322
 139	6.9000e-02	5.5667	0.888416	0.000017	0.166606	0.056448	0.001359
 140	6.9500e-02	5.6020	0.895300	0.000017	0.168828	0.057200	0.001377
 141	7.0000e-02	5.6597	0.901505	0.000015	0.152167	0.051556	0.001241
 142	7.0500e-02	5.7159	0.905400	0.000010	0.095521	0.032363	0.000779
 143	7.1000e-02	5.7111	0.912737	-0.000018	-0.179935	-0.060964	0.001467
 144	7.1500e-02	5.7512	0.919440	0.000016	0.164385	0.055695	0.001341
 145	7.2000e-02	5.8250	0.924694	0.000013	0.128842	0.043653	0.001051
 146	7.2500e-02	5.8571	0.931034	0.000016	0.155499	0.052685	0.001268
 147	7.3000e-02	5.9116	0.937284	0.000015	0.153278	0.051932	0.001250
 148	7.3500e-02	5.9180	0.943172	0.000014	0.144392	0.048921	0.001178
 149	7.4000e-02	5.9710	0.950056	0.000017	0.168828	0.057200	0.001377
 150	7.4500e-02	5.9565	0.955536	-0.000013	-0.134396	-0.045535	0.001096
 151	7.5000e-02	6.0431	0.959839	0.000011	0.105517	0.035750	0.000861
 152	7.5500e-02	6.0720	0.967765	0.000019	0.194374	0.065856	0.001585
 153	7.6000e-02	6.1250	0.975283	0.000018	0.184378	0.062469	0.001504
 154	7.6500e-02	6.1683	0.980899	0.000014	0.137728	0.046664	0.001123
 155	7.7000e-02	6.2196	0.985156	0.000010	0.104407	0.035374	0.000851
 156	7.7500e-02	6.2357	0.992040	0.000017	0.168828	0.057200	0.001377
 157	7.8000e-02	6.2677	0.998245	0.000015	0.152167	0.051556	0.001241
 158	7.8500e-02	6.3030	1.005537	0.000018	0.178824	0.060587	0.001458
 159	7.9000e-02	6.3736	1.010474	0.000012	0.121067	0.041019	0.000987
 160	7.9500e-02	6.3945	1.017946	0.000018	0.183267	0.062093	0.001495
 161	8.0000e-02	6.4250	1.022566	0.000011	0.113292	0.038385	0.000924
 162	8.0500e-02	6.4987	1.028182	0.000014	0.137728	0.046664	0.001123
 163	8.1000e-02	6.5116	1.035474	0.000018	0.178824	0.060587	0.001458
 164	8.1500e-02	6.5517	1.039550	0.000010	0.099964	0.033869	0.000815
 165	8.2000e-02	6.5774	1.045574	0.000015	0.147724	0.050050	0.001205
 166	8.2500e-02	6.6592	1.050963	0.000013	0.132174	0.044782	0.001078
 167	8.3000e-02	6.6832	1.057440	0.000016	0.158832	0.053814	0.001295
 168	8.3500e-02	6.7137	1.063871	0.000016	0.157721	0.053437	0.001286
 169	8.4000e-02	6.7538	1.069623	0.000014	0.141060	0.047792	0.001150
 170	8.4500e-02	6.8100	1.076779	0.000018	0.175492	0.059458	0.001431
 171	8.5000e-02	6.8308	1.081987	0.000013	0.127732	0.043277	0.001042
 172	8.5500e-02	6.8838	1.088147	0.000015	0.151057	0.051179	0.001232
 173	8.6000e-02	6.9094	1.093627	0.000013	0.134396	0.045535	0.001096
 174	8.6500e-02	6.9768	1.100058	0.000016	0.157721	0.053437	0.001286
 175	8.7000e-02	6.9977	1.105991	0.000015	0.145503	0.049298	0.001187
 176	8.7500e-02	7.0458	1.111788	0.000014	0.142171	0.048169	0.001159
 177	8.8000e-02	7.1019	1.116091	0.000011	0.105517	0.035750	0.000861
 178	8.8500e-02	7.1212	1.121118	0.000012	0.123289	0.041771	0.001005
 179	8.9000e-02	7.1549	1.128500	0.000018	0.181046	0.061340	0.001476
 180	8.9500e-02	7.1870	1.135294	0.000017	0.166606	0.056448	0.001359
 181	9.0000e-02	7.2399	1.141272	0.000015	0.146614	0.049674	0.001196
 182	9.0500e-02	7.2832	1.147613	0.000016	0.155499	0.052685	0.001268
 183	9.1000e-02	7.3313	1.151191	0.000009	0.087746	0.029729	0.000716
 184	9.1500e-02	7.3474	1.157894	0.000016	0.164385	0.055695	0.001341
 185	9.2000e-02	7.3987	1.163691	0.000014	0.142171	0.048169	0.001159
 186	9.2500e-02	7.4388	1.168401	0.000012	0.115514	0.039137	0.000942
 187	9.3000e-02	7.4757	1.174425	0.000015	0.147724	0.050050	0.001205
 188	9.3500e-02	7.5206	1.181173	0.000017	0.165496	0.056071	0.001350
 189	9.4000e-02	7.5752	1.187197	0.000015	0.147724	0.050050	0.001205
 190	9.4500e-02	7.6137	1.191862	0.000011	0.114403	0.038761	0.000933
 191	9.5000e-02	7.6522	1.195983	0.000010	0.101075	0.034245	0.000824
 192	9.5500e-02	7.7228	1.202550	0.000016	0.161053	0.054566	0.001313
 193	9.6000e-02	7.7468	1.208483	0.000015	0.145503	0.049298	0.001187
 194	9.6500e-02	7.7773	1.214507	0.000015	0.147724	0.050050	0.001205
 195	9.7000e-02	7.8158	1.219262	0.000012	0.116625	0.039513	0.000951
 196	9.7500e-02	7.8447	1.225965	0.000016	0.164385	0.055695	0.001341
 197	9.8000e-02	7.8944	1.231762	0.000014	0.142171	0.048169	0.001159
 198	9.8500e-02	7.9426	1.237650	0.000014	0.144392	0.048921	0.001178
 199	9.9000e-02	7.9570	1.243538	0.000014	0.144392	0.048921	0.001178
 200	9.9500e-02	8.0003	1.250060	0.000016	0.159942	0.054190	0.001304
 201	1.0000e-01	8.0500	1.255676	0.000014	0.137728	0.046664	0.001123
 202	1.0050e-01	8.0901	1.261110	0.000013	0.133285	0.045158	0.001087
 203	1.0100e-01	8.0901	1.265685	-0.000011	-0.112182	-0.038008	0.000915
 204	1.0150e-01	8.1736	1.270938	0.000013	0.128842	0.043653	0.001051
 205	1.0200e-01	8.2121	1.277098	0.000015	0.151057	0.051179	0.001232
 206	1.0250e-01	8.2313	1.282759	0.000014	0.138839	0.047040	0.001132
 207	1.0300e-01	8.2634	1.287651	0.000012	0.119957	0.040642	0.000978
 208	1.0350e-01	8.3099	1.293176	0.000014	0.135507	0.045911	0.001105
 209	1.0400e-01	8.3677	1.298656	0.000013	0.134396	0.045535	0.001096
 210	1.0450e-01	8.3885	1.305314	0.000016	0.163274	0.055319	0.001332
 211	1.0500e-01	8.4254	1.311972	0.000016	0.163274	0.055319	0.001332
 212	1.0550e-01	8.4896	1.316908	0.000012	0.121067	0.041019	0.000987
 213	1.0600e-01	8.5249	1.323204	0.000015	0.154389	0.052308	0.001259
 214	1.0650e-01	8.5506	1.328774	0.000014	0.136617	0.046287	0.001114
 215	1.0700e-01	8.5810	1.332579	0.000009	0.093300	0.031611	0.000761
 216	1.0750e-01	8.6372	1.338783	0.000015	0.152167	0.051556	0.001241
 217	1.0800e-01	8.7062	1.344988	0.000015	0.152167	0.051556	0.001241
 218	1.0850e-01	8.7110	1.349246	0.000010	0.104407	0.035374	0.000851
 219	1.0900e-01	8.7511	1.355994	0.000017	0.165496	0.056071	0.001350
 220	1.0950e-01	8.7992	1.362153	0.000015	0.151057	0.051179	0.001232
 221	1.1000e-01	8.8169	1.365188	0.000007	0.074418	0.025213	0.000607
 222	1.1050e-01	8.8810	1.372434	0.000018	0.177714	0.060211	0.001449
 223	1.1100e-01	8.9163	1.376148	0.000009	0.091078	0.030858	0.000743
 224	1.1150e-01	8.9420	1.383168	0.000017	0.172160	0.058329	0.001404
 225	1.1200e-01	9.0334	1.388331	0.000013	0.126621	0.042900	0.001033
 226	1.1250e-01	9.0158	1.393177	-0.000012	-0.118846	-0.040266	0.000969
 227	1.1300e-01	9.0832	1.399246	0.000015	0.148835	0.050427	0.001214
 228	1.1350e-01	9.1425	1.404681	0.000013	0.133285	0.045158	0.001087
 229	1.1400e-01	9.1730	1.409663	0.000012	0.122178	0.041395	0.000996
 230	1.1450e-01	9.1906	1.416275	0.000016	0.162164	0.054943	0.001322
 231	1.1500e-01	9.2372	1.421257	0.000012	0.122178	0.041395	0.000996
 232	1.1550e-01	9.3126	1.428141	0.000017	0.168828	0.057200	0.001377
 233	1.1600e-01	9.3110	1.431674	-0.000009	-0.086635	-0.029353	0.000707
 234	1.1650e-01	9.3591	1.437879	0.000015	0.152167	0.051556	0.001241
 235	1.1700e-01	9.3960	1.445080	0.000018	0.176603	0.059835	0.001440
 236	1.1750e-01	9.4682	1.447979	0.000007	0.071085	0.024084	0.000580
 237	1.1800e-01	9.5099	1.453866	0.000014	0.144392	0.048921	0.001178
 238	1.1850e-01	9.5420	1.458078	0.000010	0.103296	0.034998	0.000842
 239	1.1900e-01	9.5644	1.465189	0.000017	0.174381	0.059082	0.001422
 240	1.1950e-01	9.6158	1.469673	0.000011	0.109960	0.037256	0.000897
 241	1.2000e-01	9.6398	1.476376	0.000016	0.164385	0.055695	0.001341
 242	1.2050e-01	9.6623	1.479954	0.000009	0.087746	0.029729	0.000716
 243	1.2100e-01	9.7281	1.486928	0.000017	0.171049	0.057953	0.001395
 244	1.2150e-01	9.7585	1.491276	0.000011	0.106628	0.036127	0.000870
 245	1.2200e-01	9.8452	1.496530	0.000013	0.128842	0.043653	0.001051
 246	1.2250e-01	9.8644	1.501784	0.000013	0.128842	0.043653	0.001051
 247	1.2300e-01	9.8901	1.505860	0.000010	0.099964	0.033869	0.000815
 248	1.2350e-01	9.9350	1.511747	0.000014	0.144392	0.048921	0.001178
 249	1.2400e-01	9.9703	1.516956	0.000013	0.127732	0.043277	0.001042
 250	1.2450e-01	9.9928	1.524746	0.000019	0.191042	0.064727	0.001558
 251	1.2500e-01	10.0601	1.528188	0.000008	0.084414	0.028600	0.000688
 252	1.2550e-01	10.1099	1.533532	0.000013	0.131064	0.044406	0.001069
 253	1.2600e-01	10.1179	1.537835	0.000011	0.105517	0.035750	0.000861
 254	1.2650e-01	10.1532	1.543360	0.000014	0.135507	0.045911	0.001105
 255	1.2700e-01	10.2158	1.549429	0.000015	0.148835	0.050427	0.001214
 256	1.2750e-01	10.2543	1.555996	0.000016	0.161053	0.054566	0.001313
 257	1.2800e-01	10.2960	1.558804	0.000007	0.068864	0.023332	0.000562
 258	1.2850e-01	10.3216	1.564194	0.000013	0.132174	0.044782	0.001078
 259	1.2900e-01	10.3826	1.569991	0.000014	0.142171	0.048169	0.001159
 260	1.2950e-01	10.3778	1.576014	-0.000015	-0.147724	-0.050050	0.001205
 261	1.3000e-01	10.4708	1.581630	0.000014	0.137728	0.046664	0.001123
 262	1.3050e-01	10.4917	1.586929	0.000013	0.129953	0.044029	0.001060
 263	1.3100e-01	10.5382	1.591549	0.000011	0.113292	0.038385	0.000924
 264	1.3150e-01	10.5687	1.596757	0.000013	0.127732	0.043277	0.001042
 265	1.3200e-01	10.6008	1.603415	0.000016	0.163274	0.055319	0.001332
 266	1.3250e-01	10.6184	1.606857	0.000008	0.084414	0.028600	0.000688
 267	1.3300e-01	10.6810	1.613243	0.000016	0.156610	0.053061	0.001277
 268	1.3350e-01	10.7243	1.618406	0.000013	0.126621	0.042900	0.001033
 269	1.3400e-01	10.7788	1.622935	0.000011	0.111071	0.037632	0.000906
 270	1.3450e-01	10.7853	1.627555	0.000011	0.113292	0.038385	0.000924
 271	1.3500e-01	10.8526	1.632763	0.000013	0.127732	0.043277	0.001042
 272	1.3550e-01	10.8911	1.639557	0.000017	0.166606	0.056448	0.001359
 273	1.3600e-01	10.9409	1.644267	0.000012	0.115514	0.039137	0.000942
 274	1.3650e-01	10.9810	1.649838	0.000014	0.136617	0.046287	0.001114
 275	1.3700e-01	11.0179	1.655046	0.000013	0.127732	0.043277	0.001042
 276	1.3750e-01	11.0484	1.660390	0.000013	0.131064	0.044406	0.001069
 277	1.3800e-01	11.0997	1.664059	0.000009	0.089967	0.030482	0.000734
 278	1.3850e-01	11.1205	1.669766	0.000014	0.139949	0.047416	0.001141
 279	1.3900e-01	11.1703	1.675427	0.000014	0.138839	0.047040	0.001132
 280	1.3950e-01	11.2088	1.680816	0.000013	0.132174	0.044782	0.001078
 281	1.4000e-01	11.2136	1.685391	0.000011	0.112182	0.038008	0.000915
 282	1.4050e-01	11.2713	1.690418	0.000012	0.123289	0.041771	0.001005
 283	1.4100e-01	11.3259	1.694041	0.000009	0.088857	0.030105	0.000725
 284	1.4150e-01	11.3499	1.701831	0.000019	0.191042	0.064727	0.001558
 285	1.4200e-01	11.4077	1.704911	0.000008	0.075528	0.025590	0.000616
 286	1.4250e-01	11.4542	1.711025	0.000015	0.149946	0.050803	0.001223
 287	1.4300e-01	11.4687	1.715056	0.000010	0.098853	0.033492	0.000806
 288	1.4350e-01	11.5312	1.721080	0.000015	0.147724	0.050050	0.001205
 289	1.4400e-01	11.5842	1.726243	0.000013	0.126621	0.042900	0.001033
 290	1.4450e-01	11.6195	1.730364	0.000010	0.101075	0.034245	0.000824
 291	1.4500e-01	11.6981	1.733761	0.000008	0.083303	0.028224	0.000679
 292	1.4550e-01	11.6868	1.738969	-0.000013	-0.127732	-0.043277	0.001042
 293	1.4600e-01	11.7382	1.745491	0.000016	0.159942	0.054190	0.001304
 294	1.4650e-01	11.7799	1.750881	0.000013	0.132174	0.044782	0.001078
 295	1.4700e-01	11.8072	1.755772	0.000012	0.119957	0.040642	0.000978
 296	1.4750e-01	11.8617	1.759033	0.000008	0.079971	0.027095	0.000652
 297	1.4800e-01	11.8697	1.766053	0.000017	0.172160	0.058329	0.001404
 298	1.4850e-01	11.9243	1.770446	0.000011	0.107739	0.036503	0.000879
 299	1.4900e-01	11.9724	1.775745	0.000013	0.129953	0.044029	0.001060
 300	1.4950e-01	11.9981	1.779821	0.000010	0.099964	0.033869	0.000815
 301	1.5000e-01	12.0670	1.784803	0.000012	0.122178	0.041395	0.000996
 302	1.5050e-01	12.1007	1.789423	0.000011	0.113292	0.038385	0.000924
 303	1.5100e-01	12.1440	1.794223	0.000012	0.117735	0.039890	0.000960
 304	1.5150e-01	12.1473	1.799749	0.000014	0.135507	0.045911	0.001105
 305	1.5200e-01	12.2002	1.805184	0.000013	0.133285	0.045158	0.001087
 306	1.5250e-01	12.2595	1.811072	0.000014	0.144392	0.048921	0.001178
 307	1.5300e-01	12.3093	1.816008	0.000012	0.121067	0.041019	0.000987
 308	1.5350e-01	12.3269	1.820220	0.000010	0.103296	0.034998	0.000842
 309	1.5400e-01	12.3686	1.824432	0.000010	0.103296	0.034998	0.000842
 310	1.5450e-01	12.4312	1.830365	0.000015	0.145503	0.049298	0.001187
 311	1.5500e-01	12.4280	1.834894	-0.000011	-0.111071	-0.037632	0.000906
 312	1.5550e-01	12.4970	1.839423	0.000011	0.111071	0.037632	0.000906
 313	1.5600e-01	12.5226	1.845628	0.000015	0.152167	0.051556	0.001241
 314	1.5650e-01	12.5371	1.849523	0.000010	0.095521	0.032363	0.000779
 315	1.5700e-01	12.5884	1.854233	0.000012	0.115514	0.039137	0.000942
 316	1.5750e-01	12.6478	1.859487	0.000013	0.128842	0.043653	0.001051
 317	1.5800e-01	12.6478	1.864424	-0.000012	-0.121067	-0.041019	0.000987
 318	1.5850e-01	12.7424	1.868862	0.000011	0.108850	0.036879	0.000888
 319	1.5900e-01	12.7617	1.874297	0.000013	0.133285	0.045158	0.001087
 320	1.5950e-01	12.8307	1.879052	0.000012	0.116625	0.039513	0.000951
 321	1.6000e-01	12.8098	1.882811	-0.000009	-0.092189	-0.031234	0.000752
 322	1.6050e-01	12.9028	1.888835	0.000015	0.147724	0.050050	0.001205
 323	1.6100e-01	12.9349	1.892549	0.000009	0.091078	0.030858	0.000743
 324	1.6150e-01	12.9734	1.899750	0.000018	0.176603	0.059835	0.001440
 325	1.6200e-01	13.0087	1.903011	0.000008	0.079971	0.027095	0.000652
 326	1.6250e-01	13.0552	1.906317	0.000008	0.081082	0.027471	0.000661
 327	1.6300e-01	13.0809	1.911480	0.000013	0.126621	0.042900	0.001033
 328	1.6350e-01	13.1483	1.916960	0.000013	0.134396	0.045535	0.001096
 329	1.6400e-01	13.1611	1.922169	0.000013	0.127732	0.043277	0.001042
 330	1.6450e-01	13.1868	1.926562	0.000011	0.107739	0.036503	0.000879
 331	1.6500e-01	13.2205	1.930140	0.000009	0.087746	0.029729	0.000716
 332	1.6550e-01	13.2879	1.936481	0.000016	0.155499	0.052685	0.001268
 333	1.6600e-01	13.3151	1.940919	0.000011	0.108850	0.036879	0.000888
 334	1.6650e-01	13.3584	1.945629	0.000012	0.115514	0.039137	0.000942
 335	1.6700e-01	13.4114	1.950973	0.000013	0.131064	0.044406	0.001069
 336	1.6750e-01	13.4483	1.955457	0.000011	0.109960	0.037256	0.000897
 337	1.6800e-01	13.4675	1.961254	0.000014	0.142171	0.048169	0.001159
 338	1.6850e-01	13.5108	1.964470	0.000008	0.078860	0.026719	0.000643
 339	1.6900e-01	13.5477	1.969950	0.000013	0.134396	0.045535	0.001096
 340	1.6950e-01	13.6039	1.974253	0.000011	0.105517	0.035750	0.000861
 341	1.7000e-01	13.6360	1.978465	0.000010	0.103296	0.034998	0.000842
 342	1.7050e-01	13.6921	1.984171	0.000014	0.139949	0.047416	0.001141
 343	1.7100e-01	13.7130	1.989289	0.000013	0.125510	0.042524	0.001024
 344	1.7150e-01	13.7772	1.992958	0.000009	0.089967	0.030482	0.000734
 345	1.7200e-01	13.7964	1.998030	0.000012	0.124399	0.042148	0.001015
 346	1.7250e-01	13.8349	2.003329	0.000013	0.129953	0.044029	0.001060
 347	1.7300e-01	13.9007	2.006454	0.000008	0.076639	0.025966	0.000625
 348	1.7350e-01	13.9279	2.012115	0.000014	0.138839	0.047040	0.001132
 349	1.7400e-01	13.9889	2.014652	0.000006	0.062200	0.021074	0.000507
 350	1.7450e-01	13.9985	2.021581	0.000017	0.169939	0.057577	0.001386
 351	1.7500e-01	14.0547	2.026337	0.000012	0.116625	0.039513	0.000951
 352	1.7550e-01	14.1012	2.030005	0.000009	0.089967	0.030482	0.000734
 353	1.7600e-01	14.1237	2.036663	0.000016	0.163274	0.055319	0.001332
 354	1.7650e-01	14.1606	2.039607	0.000007	0.072196	0.024461	0.000589
 355	1.7700e-01	14.1878	2.044634	0.000012	0.123289	0.041771	0.001005
 356	1.7750e-01	14.2408	2.050386	0.000014	0.141060	0.047792	0.001150
 357	1.7800e-01	14.2616	2.053556	0.000008	0.077750	0.026342	0.000634
 358	1.7850e-01	14.3322	2.058538	0.000012	0.122178	0.041395	0.000996
 359	1.7900e-01	14.3483	2.064290	0.000014	0.141060	0.047792	0.001150
 360	1.7950e-01	14.4028	2.067415	0.000008	0.076639	0.025966	0.000625
 361	1.8000e-01	14.4365	2.072623	0.000013	0.127732	0.043277	0.001042
 362	1.8050e-01	14.4942	2.076292	0.000009	0.089967	0.030482	0.000734
 363	1.8100e-01	14.4942	2.080730	-0.000011	-0.108850	-0.036879	0.000888
 364	1.8150e-01	14.5456	2.086799	0.000015	0.148835	0.050427	0.001214
 365	1.8200e-01	14.6033	2.090649	0.000009	0.094410	0.031987	0.000770
 366	1.8250e-01	14.6499	2.096310	0.000014	0.138839	0.047040	0.001132
 367	1.8300e-01	14.6691	2.100251	0.000010	0.096632	0.032740	0.000788
 368	1.8350e-01	14.7188	2.103828	0.000009	0.087746	0.029729	0.000716
 369	1.8400e-01	14.7509	2.107769	0.000010	0.096632	0.032740	0.000788
 370	1.8450e-01	14.8007	2.113294	0.000014	0.135507	0.045911	0.001105
 371	1.8500e-01	14.8600	2.119454	0.000015	0.151057	0.051179	0.001232
 372	1.8550e-01	14.8584	2.125070	-0.000014	-0.137728	-0.046664	0.001123
 373	1.8600e-01	14.9258	2.127742	0.000007	0.065532	0.022203	0.000534
 374	1.8650e-01	14.9611	2.131003	0.000008	0.079971	0.027095	0.000652
 375	1.8700e-01	14.9980	2.134762	0.000009	0.092189	0.031234	0.000752
 376	1.8750e-01	15.0493	2.139744	0.000012	0.122178	0.041395	0.000996
 377	1.8800e-01	15.0734	2.144816	0.000012	0.124399	0.042148	0.001015
 378	1.8850e-01	15.1055	2.150206	0.000013	0.132174	0.044782	0.001078
 379	1.8900e-01	15.1391	2.153512	0.000008	0.081082	0.027471	0.000661
 380	1.8950e-01	15.2145	2.157588	0.000010	0.099964	0.033869	0.000815
 381	1.9000e-01	15.2595	2.163114	0.000014	0.135507	0.045911	0.001105
 382	1.9050e-01	15.2819	2.167914	0.000012	0.117735	0.039890	0.000960
 383	1.9100e-01	15.2915	2.172942	0.000012	0.123289	0.041771	0.001005
 384	1.9150e-01	15.3669	2.176248	0.000008	0.081082	0.027471	0.000661
 385	1.9200e-01	15.3750	2.180596	0.000011	0.106628	0.036127	0.000870
 386	1.9250e-01	15.4712	2.186257	0.000014	0.138839	0.047040	0.001132
 387	1.9300e-01	15.4760	2.189608	0.000008	0.082193	0.027848	0.000670
 388	1.9350e-01	15.5274	2.193413	0.000009	0.093300	0.031611	0.000761
 389	1.9400e-01	15.5466	2.199074	0.000014	0.138839	0.047040	0.001132
 390	1.9450e-01	15.6044	2.203920	0.000012	0.118846	0.040266	0.000969
 391	1.9500e-01	15.6445	2.207634	0.000009	0.091078	0.030858	0.000743
 392	1.9550e-01	15.6830	2.213884	0.000015	0.153278	0.051932	0.001250
 393	1.9600e-01	15.7327	2.215877	0.000005	0.048871	0.016558	0.000399
 394	1.9650e-01	15.7616	2.221991	0.000015	0.149946	0.050803	0.001223
 395	1.9700e-01	15.8097	2.225524	0.000009	0.086635	0.029353	0.000707
 396	1.9750e-01	15.8530	2.229283	0.000009	0.092189	0.031234	0.000752
 397	1.9800e-01	15.8739	2.233404	0.000010	0.101075	0.034245	0.000824
 398	1.9850e-01	15.9284	2.238114	0.000012	0.115514	0.039137	0.000942
 399	1.9900e-01	15.9878	2.242100	0.000010	0.097742	0.033116	0.000797
 400	1.9950e-01	15.9990	2.247761	0.000014	0.138839	0.047040	0.001132
 401	2.0000e-01	16.0215	2.251928	0.000010	0.102185	0.034621	0.000833
 402	2.0050e-01	16.0985	2.256729	0.000012	0.117735	0.039890	0.000960
 403	2.0100e-01	16.1257	2.261213	0.000011	0.109960	0.037256	0.000897
 404	2.0150e-01	16.1578	2.265062	0.000009	0.094410	0.031987	0.000770
 405	2.0200e-01	16.1771	2.271086	0.000015	0.147724	0.050050	0.001205
 406	2.0250e-01	16.2268	2.273984	0.000007	0.071085	0.024084	0.000580
 407	2.0300e-01	16.2733	2.278196	0.000010	0.103296	0.034998	0.000842
 408	2.0350e-01	16.3231	2.283495	0.000013	0.129953	0.044029	0.001060
 409	2.0400e-01	16.3616	2.288523	0.000012	0.123289	0.041771	0.001005
 410	2.0450e-01	16.3937	2.292644	0.000010	0.101075	0.034245	0.000824
 411	2.0500e-01	16.4530	2.295226	0.000006	0.063310	0.021450	0.000516
 412	2.0550e-01	16.4947	2.299891	0.000011	0.114403	0.038761	0.000933
 413	2.0600e-01	16.5220	2.304782	0.000012	0.119957	0.040642	0.000978
 414	2.0650e-01	16.5477	2.310217	0.000013	0.133285	0.045158	0.001087
 415	2.0700e-01	16.6054	2.312300	0.000005	0.051093	0.017311	0.000417
 416	2.0750e-01	16.6263	2.317191	0.000012	0.119957	0.040642	0.000978
 417	2.0800e-01	16.6648	2.321856	0.000011	0.114403	0.038761	0.000933
 418	2.0850e-01	16.7193	2.326974	0.000013	0.125510	0.042524	0.001024
 419	2.0900e-01	16.7674	2.330416	0.000008	0.084414	0.028600	0.000688
 420	2.0950e-01	16.7963	2.335217	0.000012	0.117735	0.039890	0.000960
 421	2.1000e-01	16.8749	2.339067	0.000009	0.094410	0.031987	0.000770
 422	2.1050e-01	16.8829	2.344320	0.000013	0.128842	0.043653	0.001051
 423	2.1100e-01	16.9182	2.348125	0.000009	0.093300	0.031611	0.000761
 424	2.1150e-01	16.9776	2.352382	0.000010	0.104407	0.035374	0.000851
 425	2.1200e-01	17.0241	2.356232	0.000009	0.094410	0.031987	0.000770
 426	2.1250e-01	17.0482	2.361802	0.000014	0.136617	0.046287	0.001114
 427	2.1300e-01	17.0867	2.366014	0.000010	0.103296	0.034998	0.000842
 428	2.1350e-01	17.1188	2.369230	0.000008	0.078860	0.026719	0.000643
 429	2.1400e-01	17.1428	2.373352	0.000010	0.101075	0.034245	0.000824
 430	2.1450e-01	17.1878	2.377065	0.000009	0.091078	0.030858	0.000743
 431	2.1500e-01	17.2423	2.383451	0.000016	0.156610	0.053061	0.001277
 432	2.1550e-01	17.3081	2.385988	0.000006	0.062200	0.021074	0.000507
 433	2.1600e-01	17.3033	2.390471	-0.000011	-0.109960	-0.037256	0.000897
 434	2.1650e-01	17.3690	2.394321	0.000009	0.094410	0.031987	0.000770
 435	2.1700e-01	17.3754	2.399348	0.000012	0.123289	0.041771	0.001005
 436	2.1750e-01	17.4268	2.403515	0.000010	0.102185	0.034621	0.000833
 437	2.1800e-01	17.4990	2.407274	0.000009	0.092189	0.031234	0.000752
 438	2.1850e-01	17.5166	2.412075	0.000012	0.117735	0.039890	0.000960
 439	2.1900e-01	17.5680	2.417374	0.000013	0.129953	0.044029	0.001060
 440	2.1950e-01	17.5792	2.421540	0.000010	0.102185	0.034621	0.000833
 441	2.2000e-01	17.6466	2.425209	0.000009	0.089967	0.030482	0.000734
 442	2.2050e-01	17.6658	2.428878	0.000009	0.089967	0.030482	0.000734
 443	2.2100e-01	17.7316	2.432274	0.000008	0.083303	0.028224	0.000679
 444	2.2150e-01	17.7685	2.436532	0.000010	0.104407	0.035374	0.000851
 445	2.2200e-01	17.8054	2.441559	0.000012	0.123289	0.041771	0.001005
 446	2.2250e-01	17.8327	2.446722	0.000013	0.126621	0.042900	0.001033
 447	2.2300e-01	17.8808	2.450843	0.000010	0.101075	0.034245	0.000824
 448	2.2350e-01	17.9321	2.453923	0.000008	0.075528	0.025590	0.000616
 449	2.2400e-01	17.9802	2.460128	0.000015	0.152167	0.051556	0.001241
 450	2.2450e-01	18.0284	2.464340	0.000010	0.103296	0.034998	0.000842
 451	2.2500e-01	18.0348	2.468778	0.000011	0.108850	0.036879	0.000888
 452	2.2550e-01	18.0765	2.471269	0.000006	0.061089	0.020698	0.000498
 453	2.2600e-01	18.1070	2.476206	0.000012	0.121067	0.041019	0.000987
 454	2.2650e-01	18.1519	2.480056	0.000009	0.094410	0.031987	0.000770
 455	2.2700e-01	18.2273	2.483498	0.000008	0.084414	0.028600	0.000688
 456	2.2750e-01	18.2465	2.489385	0.000014	0.144392	0.048921	0.001178
 457	2.2800e-01	18.2931	2.493824	0.000011	0.108850	0.036879	0.000888
 458	2.2850e-01	18.3380	2.498489	0.000011	0.114403	0.038761	0.000933
 459	2.2900e-01	18.3685	2.502701	0.000010	0.103296	0.034998	0.000842
 460	2.2950e-01	18.4310	2.504784	0.000005	0.051093	0.017311	0.000417
 461	2.3000e-01	18.4503	2.508045	0.000008	0.079971	0.027095	0.000652
 462	2.3050e-01	18.4840	2.511985	0.000010	0.096632	0.032740	0.000788
 463	2.3100e-01	18.5305	2.517783	0.000014	0.142171	0.048169	0.001159
 464	2.3150e-01	18.5546	2.522946	0.000013	0.126621	0.042900	0.001033
 465	2.3200e-01	18.6139	2.526433	0.000009	0.085525	0.028977	0.000697
 466	2.3250e-01	18.6572	2.531098	0.000011	0.114403	0.038761	0.000933
 467	2.3300e-01	18.6893	2.532955	0.000005	0.045539	0.015429	0.000371
 468	2.3350e-01	18.7294	2.539386	0.000016	0.157721	0.053437	0.001286
 469	2.3400e-01	18.7920	2.544776	0.000013	0.132174	0.044782	0.001078
 470	2.3450e-01	18.8128	2.548852	0.000010	0.099964	0.033869	0.000815
 471	2.3500e-01	18.8385	2.553064	0.000010	0.103296	0.034998	0.000842
 472	2.3550e-01	18.8706	2.555056	0.000005	0.048871	0.016558	0.000399
 473	2.3600e-01	18.9364	2.559903	0.000012	0.118846	0.040266	0.000969
 474	2.3650e-01	18.9588	2.563571	0.000009	0.089967	0.030482	0.000734
 475	2.3700e-01	19.0134	2.569866	0.000015	0.154389	0.052308	0.001259
 476	2.3750e-01	19.0647	2.573761	0.000010	0.095521	0.032363	0.000779
 477	2.3800e-01	19.1273	2.576569	0.000007	0.068864	0.023332	0.000562
 478	2.3850e-01	19.1497	2.581461	0.000012	0.119957	0.040642	0.000978
 479	2.3900e-01	19.1995	2.585220	0.000009	0.092189	0.031234	0.000752
 480	2.3950e-01	19.2203	2.588753	0.000009	0.086635	0.029353	0.000707
 481	2.4000e-01	19.2364	2.594278	0.000014	0.135507	0.045911	0.001105
 482	2.4050e-01	19.3021	2.597856	0.000009	0.087746	0.029729	0.000716
 483	2.4100e-01	19.3198	2.601434	0.000009	0.087746	0.029729	0.000716
 484	2.4150e-01	19.3727	2.605601	0.000010	0.102185	0.034621	0.000833
 485	2.4200e-01	19.4208	2.611126	0.000014	0.135507	0.045911	0.001105
 486	2.4250e-01	19.4176	2.615836	-0.000012	-0.115514	-0.039137	0.000942
 487	2.4300e-01	19.4898	2.619641	0.000009	0.093300	0.031611	0.000761
 488	2.4350e-01	19.5540	2.623173	0.000009	0.086635	0.029353	0.000707
 489	2.4400e-01	19.5524	2.626253	-0.000008	-0.075528	-0.025590	0.000616
 490	2.4450e-01	19.5893	2.630646	0.000011	0.107739	0.036503	0.000879
 491	2.4500e-01	19.6326	2.636126	0.000013	0.134396	0.045535	0.001096
 492	2.4550e-01	19.6759	2.639840	0.000009	0.091078	0.030858	0.000743
 493	2.4600e-01	19.7449	2.643146	0.000008	0.081082	0.027471	0.000661
 494	2.4650e-01	19.7609	2.646905	0.000009	0.092189	0.031234	0.000752
 495	2.4700e-01	19.8395	2.651525	0.000011	0.113292	0.038385	0.000924
 496	2.4750e-01	19.8347	2.657866	-0.000016	-0.155499	-0.052685	0.001268
 497	2.4800e-01	19.8845	2.660855	0.000007	0.073307	0.024837	0.000598
 498	2.4850e-01	19.9518	2.666290	0.000013	0.133285	0.045158	0.001087
 499	2.4900e-01	19.9727	2.669460	0.000008	0.077750	0.026342	0.000634
 500	2.4950e-01	20.0016	2.672721	0.000008	0.079971	0.027095	0.000652
 501	2.5000e-01	20.0401	2.677522	0.000012	0.117735	0.039890	0.000960
 502	2.5050e-01	19.9743	2.676933	0.000001	0.014439	0.004892	-0.000118
 503	2.5100e-01	19.9551	2.676888	0.000000	0.001111	0.000376	-0.000009
 504	2.5150e-01	19.9214	2.674351	0.000006	0.062200	0.021074	-0.000507
 505	2.5200e-01	19.8572	2.672223	0.000005	0.052203	0.017687	-0.000426
 506	2.5250e-01	19.8219	2.668056	0.000010	0.102185	0.034621	-0.000833
 507	2.5300e-01	19.7978	2.666743	0.000003	0.032211	0.010913	-0.000263
 508	2.5350e-01	19.7305	2.663119	0.000009	0.088857	0.030105	-0.000725
 509	2.5400e-01	19.7128	2.659587	0.000009	0.086635	0.029353	-0.000707
 510	2.5450e-01	19.6583	2.656960	0.000006	0.064421	0.021826	-0.000525
 511	2.5500e-01	19.6470	2.654152	0.000007	0.068864	0.023332	-0.000562
 512	2.5550e-01	19.5781	2.652340	0.000004	0.044428	0.015053	-0.000362
 513	2.5600e-01	19.5235	2.647766	0.000011	0.112182	0.038008	-0.000915
 514	2.5650e-01	19.4786	2.645456	0.000006	0.056646	0.019192	-0.000462
 515	2.5700e-01	19.4770	2.642784	0.000007	0.065532	0.022203	-0.000534
 516	2.5750e-01	19.4289	2.639795	0.000007	0.073307	0.024837	-0.000598
 517	2.5800e-01	19.4144	2.635402	0.000011	0.107739	0.036503	-0.000879
 518	2.5850e-01	19.3438	2.631914	0.000009	0.085525	0.028977	-0.000697
 519	2.5900e-01	19.2989	2.629786	0.000005	0.052203	0.017687	-0.000426
 520	2.5950e-01	19.2652	2.628472	0.000003	0.032211	0.010913	-0.000263
 521	2.6000e-01	19.2155	2.623173	0.000013	0.129953	0.044029	-0.001060
 522	2.6050e-01	19.1786	2.622132	0.000003	0.025546	0.008655	-0.000208
 523	2.6100e-01	19.1337	2.617421	0.000012	0.115514	0.039137	-0.000942
 524	2.6150e-01	19.1080	2.615157	0.000006	0.055535	0.018816	-0.000453
 525	2.6200e-01	19.0888	2.612213	0.000007	0.072196	0.024461	-0.000589
 526	2.6250e-01	19.0086	2.608499	0.000009	0.091078	0.030858	-0.000743
 527	2.6300e-01	18.9861	2.604740	0.000009	0.092189	0.031234	-0.000752
 528	2.6350e-01	18.9364	2.600437	0.000011	0.105517	0.035750	-0.000861
 529	2.6400e-01	18.8979	2.598445	0.000005	0.048871	0.016558	-0.000399
 530	2.6450e-01	18.8610	2.594731	0.000009	0.091078	0.030858	-0.000743
 531	2.6500e-01	18.8096	2.590609	0.000010	0.101075	0.034245	-0.000824
 532	2.6550e-01	18.7711	2.587484	0.000008	0.076639	0.025966	-0.000625
 533	2.6600e-01	18.7695	2.583771	0.000009	0.091078	0.030858	-0.000743
 534	2.6650e-01	18.7182	2.580374	0.000008	0.083303	0.028224	-0.000679
 535	2.6700e-01	18.6556	2.576751	0.000009	0.088857	0.030105	-0.000725
 536	2.6750e-01	18.6300	2.574441	0.000006	0.056646	0.019192	-0.000462
 537	2.6800e-01	18.5866	2.572539	0.000005	0.046650	0.015805	-0.000380
 538	2.6850e-01	18.5594	2.568825	0.000009	0.091078	0.030858	-0.000743
 539	2.6900e-01	18.5096	2.565971	0.000007	0.069975	0.023708	-0.000571
 540	2.6950e-01	18.4888	2.561442	0.000011	0.111071	0.037632	-0.000906
 541	2.7000e-01	18.4070	2.558136	0.000008	0.081082	0.027471	-0.000661
 542	2.7050e-01	18.3765	2.555238	0.000007	0.071085	0.024084	-0.000580
 543	2.7100e-01	18.3428	2.552656	0.000006	0.063310	0.021450	-0.000516
 544	2.7150e-01	18.2915	2.548263	0.000011	0.107739	0.036503	-0.000879
 545	2.7200e-01	18.2481	2.542828	0.000013	0.133285	0.045158	-0.001087
 546	2.7250e-01	18.2465	2.539884	0.000007	0.072196	0.024461	-0.000589
 547	2.7300e-01	18.1695	2.535899	0.000010	0.097742	0.033116	-0.000797
 548	2.7350e-01	18.1455	2.531596	0.000011	0.105517	0.035750	-0.000861
 549	2.7400e-01	18.1086	2.530237	0.000003	0.033321	0.011290	-0.000272
 550	2.7450e-01	18.0588	2.527293	0.000007	0.072196	0.024461	-0.000589
 551	2.7500e-01	18.0155	2.522221	0.000012	0.124399	0.042148	-0.001015
 552	2.7550e-01	17.9931	2.519413	0.000007	0.068864	0.023332	-0.000562
 553	2.7600e-01	17.9433	2.517013	0.000006	0.058868	0.019945	-0.000480
 554	2.7650e-01	17.9097	2.512936	0.000010	0.099964	0.033869	-0.000815
 555	2.7700e-01	17.8423	2.510898	0.000005	0.049982	0.016934	-0.000408
 556	2.7750e-01	17.8038	2.505192	0.000014	0.139949	0.047416	-0.001141
 557	2.7800e-01	17.7733	2.502021	0.000008	0.077750	0.026342	-0.000634
 558	2.7850e-01	17.7605	2.498896	0.000008	0.076639	0.025966	-0.000625
 559	2.7900e-01	17.6835	2.494458	0.000011	0.108850	0.036879	-0.000888
 560	2.7950e-01	17.6385	2.491061	0.000008	0.083303	0.028224	-0.000679
 561	2.8000e-01	17.6081	2.490337	0.000002	0.017771	0.006021	-0.000145
 562	2.8050e-01	17.5696	2.484947	0.000013	0.132174	0.044782	-0.001078
 563	2.8100e-01	17.5696	2.481324	0.000009	0.088857	0.030105	-0.000725
 564	2.8150e-01	17.5006	2.476749	0.000011	0.112182	0.038008	-0.000915
 565	2.8200e-01	17.4589	2.474349	0.000006	0.058868	0.019945	-0.000480
 566	2.8250e-01	17.4252	2.469729	0.000011	0.113292	0.038385	-0.000924
 567	2.8300e-01	17.3899	2.467782	0.000005	0.047761	0.016182	-0.000389
 568	2.8350e-01	17.3369	2.462891	0.000012	0.119957	0.040642	-0.000978
 569	2.8400e-01	17.2984	2.458814	0.000010	0.099964	0.033869	-0.000815
 570	2.8450e-01	17.2567	2.455237	0.000009	0.087746	0.029729	-0.000716
 571	2.8500e-01	17.2118	2.452927	0.000006	0.056646	0.019192	-0.000462
 572	2.8550e-01	17.1990	2.448579	0.000011	0.106628	0.036127	-0.000870
 573	2.8600e-01	17.1332	2.445182	0.000008	0.083303	0.028224	-0.000679
 574	2.8650e-01	17.0787	2.440427	0.000012	0.116625	0.039513	-0.000951
 575	2.8700e-01	17.0578	2.438796	0.000004	0.039986	0.013547	-0.000326
 576	2.8750e-01	17.0161	2.435580	0.000008	0.078860	0.026719	-0.000643
 577	2.8800e-01	17.0113	2.430553	0.000012	0.123289	0.041771	-0.001005
 578	2.8850e-01	16.9471	2.426251	0.000011	0.105517	0.035750	-0.000861
 579	2.8900e-01	16.8781	2.422854	0.000008	0.083303	0.028224	-0.000679
 580	2.8950e-01	16.8605	2.420182	0.000007	0.065532	0.022203	-0.000534
 581	2.9000e-01	16.8124	2.416287	0.000010	0.095521	0.032363	-0.000779
 582	2.9050e-01	16.7723	2.411441	0.000012	0.118846	0.040266	-0.000969
 583	2.9100e-01	16.7578	2.407365	0.000010	0.099964	0.033869	-0.000815
 584	2.9150e-01	16.6872	2.404375	0.000007	0.073307	0.024837	-0.000598
 585	2.9200e-01	16.6375	2.400571	0.000009	0.093300	0.031611	-0.000761
 586	2.9250e-01	16.6166	2.396178	0.000011	0.107739	0.036503	-0.000879
 587	2.9300e-01	16.5685	2.393506	0.000007	0.065532	0.022203	-0.000534
 588	2.9350e-01	16.5621	2.390698	0.000007	0.068864	0.023332	-0.000562
 589	2.9400e-01	16.4835	2.386622	0.000010	0.099964	0.033869	-0.000815
 590	2.9450e-01	16.4370	2.381685	0.000012	0.121067	0.041019	-0.000987
 591	2.9500e-01	16.4209	2.378152	0.000009	0.086635	0.029353	-0.000707
 592	2.9550e-01	16.4081	2.375525	0.000006	0.064421	0.021826	-0.000525
 593	2.9600e-01	16.3648	2.370770	0.000012	0.116625	0.039513	-0.000951
 594	2.9650e-01	16.2942	2.367418	0.000008	0.082193	0.027848	-0.000670
 595	2.9700e-01	16.2525	2.363750	0.000009	0.089967	0.030482	-0.000734
 596	2.9750e-01	16.2011	2.360081	0.000009	0.089967	0.030482	-0.000734
 597	2.9800e-01	16.1578	2.357500	0.000006	0.063310	0.021450	-0.000516
 598	2.9850e-01	16.1370	2.351793	0.000014	0.139949	0.047416	-0.001141
 599	2.9900e-01	16.0969	2.347264	0.000011	0.111071	0.037632	-0.000906
 600	2.9950e-01	16.0455	2.344592	0.000007	0.065532	0.022203	-0.000534
 601	3.0000e-01	16.0311	2.341059	0.000009	0.086635	0.029353	-0.000707
 602	3.0050e-01	15.9669	2.337210	0.000009	0.094410	0.031987	-0.000770
 603	3.0100e-01	15.9669	2.332183	0.000012	0.123289	0.041771	-0.001005
 604	3.0150e-01	15.9124	2.329148	0.000007	0.074418	0.025213	-0.000607
 605	3.0200e-01	15.8530	2.325887	0.000008	0.079971	0.027095	-0.000652
 606	3.0250e-01	15.8161	2.321947	0.000010	0.096632	0.032740	-0.000788
 607	3.0300e-01	15.7824	2.318097	0.000009	0.094410	0.031987	-0.000770
 608	3.0350e-01	15.7247	2.314565	0.000009	0.086635	0.029353	-0.000707
 609	3.0400e-01	15.7119	2.310126	0.000011	0.108850	0.036879	-0.000888
 610	3.0450e-01	15.6653	2.307409	0.000007	0.066643	0.022579	-0.000543
 611	3.0500e-01	15.6316	2.302336	0.000012	0.124399	0.042148	-0.001015
 612	3.0550e-01	15.5675	2.297671	0.000011	0.114403	0.038761	-0.000933
 613	3.0600e-01	15.5242	2.295543	0.000005	0.052203	0.017687	-0.000426
 614	3.0650e-01	15.5097	2.290787	0.000012	0.116625	0.039513	-0.000951
 615	3.0700e-01	15.4552	2.286937	0.000009	0.094410	0.031987	-0.000770
 616	3.0750e-01	15.4199	2.281956	0.000012	0.122178	0.041395	-0.000996
 617	3.0800e-01	15.3862	2.278287	0.000009	0.089967	0.030482	-0.000734
 618	3.0850e-01	15.3573	2.274936	0.000008	0.082193	0.027848	-0.000670
 619	3.0900e-01	15.2787	2.271312	0.000009	0.088857	0.030105	-0.000725
 620	3.0950e-01	15.2595	2.266783	0.000011	0.111071	0.037632	-0.000906
 621	3.1000e-01	15.2145	2.263296	0.000009	0.085525	0.028977	-0.000697
 622	3.1050e-01	15.2001	2.258812	0.000011	0.109960	0.037256	-0.000897
 623	3.1100e-01	15.1263	2.255778	0.000007	0.074418	0.025213	-0.000607
 624	3.1150e-01	15.1071	2.250524	0.000013	0.128842	0.043653	-0.001051
 625	3.1200e-01	15.0750	2.246403	0.000010	0.101075	0.034245	-0.000824
 626	3.1250e-01	15.0204	2.242643	0.000009	0.092189	0.031234	-0.000752
 627	3.1300e-01	14.9723	2.238296	0.000011	0.106628	0.036127	-0.000870
 628	3.1350e-01	14.9306	2.234491	0.000009	0.093300	0.031611	-0.000761
 629	3.1400e-01	14.9146	2.232317	0.000005	0.053314	0.018063	-0.000435
 630	3.1450e-01	14.8424	2.228603	0.000009	0.091078	0.030858	-0.000743
 631	3.1500e-01	14.8055	2.224120	0.000011	0.109960	0.037256	-0.000897
 632	3.1550e-01	14.7878	2.219727	0.000011	0.107739	0.036503	-0.000879
 633	3.1600e-01	14.7445	2.215786	0.000010	0.096632	0.032740	-0.000788
 634	3.1650e-01	14.6916	2.211529	0.000010	0.104407	0.035374	-0.000851
 635	3.1700e-01	14.6466	2.206774	0.000012	0.116625	0.039513	-0.000951
 636	3.1750e-01	14.6402	2.203286	0.000009	0.085525	0.028977	-0.000697
 637	3.1800e-01	14.5745	2.198667	0.000011	0.113292	0.038385	-0.000924
 638	3.1850e-01	14.5552	2.194590	0.000010	0.099964	0.033869	-0.000815
 639	3.1900e-01	14.4734	2.190741	0.000009	0.094410	0.031987	-0.000770
 640	3.1950e-01	14.4750	2.187117	-0.000009	-0.088857	-0.030105	-0.000725
 641	3.2000e-01	14.4092	2.183313	0.000009	0.093300	0.031611	-0.000761
 642	3.2050e-01	14.3836	2.178422	0.000012	0.119957	0.040642	-0.000978
 643	3.2100e-01	14.3515	2.174799	0.000009	0.088857	0.030105	-0.000725
 644	3.2150e-01	14.2985	2.170813	0.000010	0.097742	0.033116	-0.000797
 645	3.2200e-01	14.2568	2.166420	0.000011	0.107739	0.036503	-0.000879
 646	3.2250e-01	14.2055	2.163476	0.000007	0.072196	0.024461	-0.000589
 647	3.2300e-01	14.1718	2.159354	0.000010	0.101075	0.034245	-0.000824
 648	3.2350e-01	14.1413	2.154418	0.000012	0.121067	0.041019	-0.000987
 649	3.2400e-01	14.0723	2.151112	0.000008	0.081082	0.027471	-0.000661
 650	3.2450e-01	14.0467	2.144680	0.000016	0.157721	0.053437	-0.001286
 651	3.2500e-01	14.0274	2.142054	0.000006	0.064421	0.021826	-0.000525
 652	3.2550e-01	13.9921	2.137434	0.000011	0.113292	0.038385	-0.000924
 653	3.2600e-01	13.9520	2.134399	0.000007	0.074418	0.025213	-0.000607
 654	3.2650e-01	13.9231	2.129916	0.000011	0.109960	0.037256	-0.000897
 655	3.2700e-01	13.8606	2.125794	0.000010	0.101075	0.034245	-0.000824
 656	3.2750e-01	13.8189	2.120722	0.000012	0.124399	0.042148	-0.001015
 657	3.2800e-01	13.7852	2.116600	0.000010	0.101075	0.034245	-0.000824
 658	3.2850e-01	13.7274	2.112434	0.000010	0.102185	0.034621	-0.000833
 659	3.2900e-01	13.6777	2.109897	0.000006	0.062200	0.021074	-0.000507
 660	3.2950e-01	13.6616	2.104281	0.000014	0.137728	0.046664	-0.001123
 661	3.3000e-01	13.6183	2.098982	0.000013	0.129953	0.044029	-0.001060
 662	3.3050e-01	13.5814	2.096808	0.000005	0.053314	0.018063	-0.000435
 663	3.3100e-01	13.5526	2.092234	0.000011	0.112182	0.038008	-0.000915
 664	3.3150e-01	13.5076	2.089154	0.000008	0.075528	0.025590	-0.000616
 665	3.3200e-01	13.4467	2.084037	0.000013	0.125510	0.042524	-0.001024
 666	3.3250e-01	13.4146	2.079553	0.000011	0.109960	0.037256	-0.000897
 667	3.3300e-01	13.3745	2.074480	0.000012	0.124399	0.042148	-0.001015
 668	3.3350e-01	13.3280	2.072397	0.000005	0.051093	0.017311	-0.000417
 669	3.3400e-01	13.2895	2.066011	0.000016	0.156610	0.053061	-0.001277
 670	3.3450e-01	13.2622	2.061663	0.000011	0.106628	0.036127	-0.000870
 671	3.3500e-01	13.2253	2.058402	0.000008	0.079971	0.027095	-0.000652
 672	3.3550e-01	13.1611	2.054507	0.000010	0.095521	0.032363	-0.000779
 673	3.3600e-01	13.1451	2.049888	0.000011	0.113292	0.038385	-0.000924
 674	3.3650e-01	13.1018	2.045721	0.000010	0.102185	0.034621	-0.000833
 675	3.3700e-01	13.0424	2.041871	0.000009	0.094410	0.031987	-0.000770
 676	3.3750e-01	13.0071	2.036482	0.000013	0.132174	0.044782	-0.001078
 677	3.3800e-01	12.9798	2.032089	0.000011	0.107739	0.036503	-0.000879
 678	3.3850e-01	12.9526	2.028828	0.000008	0.079971	0.027095	-0.000652
 679	3.3900e-01	12.9028	2.023393	0.000013	0.133285	0.045158	-0.001087
 680	3.3950e-01	12.8467	2.020177	0.000008	0.078860	0.026719	-0.000643
 681	3.4000e-01	12.8355	2.013837	0.000016	0.155499	0.052685	-0.001268
 682	3.4050e-01	12.7889	2.012297	0.000004	0.037764	0.012795	-0.000308
 683	3.4100e-01	12.7569	2.006681	0.000014	0.137728	0.046664	-0.001123
 684	3.4150e-01	12.6943	2.002967	0.000009	0.091078	0.030858	-0.000743
 685	3.4200e-01	12.6670	1.998302	0.000011	0.114403	0.038761	-0.000933
 686	3.4250e-01	12.6125	1.993546	0.000012	0.116625	0.039513	-0.000951
 687	3.4300e-01	12.5627	1.990104	0.000008	0.084414	0.028600	-0.000688
 688	3.4350e-01	12.5275	1.986436	0.000009	0.089967	0.030482	-0.000734
 689	3.4400e-01	12.4825	1.981363	0.000012	0.124399	0.042148	-0.001015
 690	3.4450e-01	12.4633	1.977378	0.000010	0.097742	0.033116	-0.000797
 691	3.4500e-01	12.4039	1.973120	0.000010	0.104407	0.035374	-0.000851
 692	3.4550e-01	12.3734	1.968184	0.000012	0.121067	0.041019	-0.000987
 693	3.4600e-01	12.2964	1.964923	0.000008	0.079971	0.027095	-0.000652
 694	3.4650e-01	12.3269	1.960983	-0.000010	-0.096632	-0.032740	-0.000788
 695	3.4700e-01	12.2724	1.955820	0.000013	0.126621	0.042900	-0.001033
 696	3.4750e-01	12.2355	1.952060	0.000009	0.092189	0.031234	-0.000752
 697	3.4800e-01	12.1793	1.946807	0.000013	0.128842	0.043653	-0.001051
 698	3.4850e-01	12.1681	1.941644	0.000013	0.126621	0.042900	-0.001033
 699	3.4900e-01	12.1184	1.937432	0.000010	0.103296	0.034998	-0.000842
 700	3.4950e-01	12.0590	1.933310	0.000010	0.101075	0.034245	-0.000824
 701	3.5000e-01	12.0093	1.929913	0.000008	0.083303	0.028224	-0.000679
 702	3.5050e-01	11.9868	1.924026	0.000014	0.144392	0.048921	-0.001178
 703	3.5100e-01	11.9339	1.920720	0.000008	0.081082	0.027471	-0.000661
 704	3.5150e-01	11.8954	1.916145	0.000011	0.112182	0.038008	-0.000915
 705	3.5200e-01	11.8745	1.910937	0.000013	0.127732	0.043277	-0.001042
 706	3.5250e-01	11.8248	1.907676	0.000008	0.079971	0.027095	-0.000652
 707	3.5300e-01	11.7638	1.903509	0.000010	0.102185	0.034621	-0.000833
 708	3.5350e-01	11.7125	1.898573	0.000012	0.121067	0.041019	-0.000987
 709	3.5400e-01	11.7093	1.894904	0.000009	0.089967	0.030482	-0.000734
 710	3.5450e-01	11.6403	1.889786	0.000013	0.125510	0.042524	-0.001024
 711	3.5500e-01	11.6211	1.885891	0.000010	0.095521	0.032363	-0.000779
 712	3.5550e-01	11.5826	1.880638	0.000013	0.128842	0.043653	-0.001051
 713	3.5600e-01	11.5521	1.877014	0.000009	0.088857	0.030105	-0.000725
 714	3.5650e-01	11.5184	1.872032	0.000012	0.122178	0.041395	-0.000996
 715	3.5700e-01	11.4430	1.867639	0.000011	0.107739	0.036503	-0.000879
 716	3.5750e-01	11.4109	1.861842	0.000014	0.142171	0.048169	-0.001159
 717	3.5800e-01	11.3644	1.857358	0.000011	0.109960	0.037256	-0.000897
 718	3.5850e-01	11.3532	1.851425	0.000015	0.145503	0.049298	-0.001187
 719	3.5900e-01	11.2986	1.847213	0.000010	0.103296	0.034998	-0.000842
 720	3.5950e-01	11.2409	1.842095	0.000013	0.125510	0.042524	-0.001024
 721	3.6000e-01	11.2200	1.838699	0.000008	0.083303	0.028224	-0.000679
 722	3.6050e-01	11.1863	1.834170	0.000011	0.111071	0.037632	-0.000906
 723	3.6100e-01	11.1238	1.829641	0.000011	0.111071	0.037632	-0.000906
 724	3.6150e-01	11.0804	1.827693	0.000005	0.047761	0.016182	-0.000389
 725	3.6200e-01	11.0660	1.822892	0.000012	0.117735	0.039890	-0.000960
 726	3.6250e-01	11.0227	1.817956	0.000012	0.121067	0.041019	-0.000987
 727	3.6300e-01	10.9697	1.812883	0.000012	0.124399	0.042148	-0.001015
 728	3.6350e-01	10.9248	1.808399	0.000011	0.109960	0.037256	-0.000897
 729	3.6400e-01	10.8895	1.802195	0.000015	0.152167	0.051556	-0.001241
 730	3.6450e-01	10.8286	1.797847	0.000011	0.106628	0.036127	-0.000870
 731	3.6500e-01	10.8206	1.795220	0.000006	0.064421	0.021826	-0.000525
 732	3.6550e-01	10.7708	1.788789	0.000016	0.157721	0.053437	-0.001286
 733	3.6600e-01	10.7163	1.783671	0.000013	0.125510	0.042524	-0.001024
 734	3.6650e-01	10.6938	1.780953	0.000007	0.066643	0.022579	-0.000543
 735	3.6700e-01	10.6569	1.776198	0.000012	0.116625	0.039513	-0.000951
 736	3.6750e-01	10.6296	1.771261	0.000012	0.121067	0.041019	-0.000987
 737	3.6800e-01	10.5879	1.766189	0.000012	0.124399	0.042148	-0.001015
 738	3.6850e-01	10.5639	1.761252	0.000012	0.121067	0.041019	-0.000987
 739	3.6900e-01	10.5061	1.756451	0.000012	0.117735	0.039890	-0.000960
 740	3.6950e-01	10.4452	1.752013	0.000011	0.108850	0.036879	-0.000888
 741	3.7000e-01	10.4291	1.747756	0.000010	0.104407	0.035374	-0.000851
 742	3.7050e-01	10.3890	1.743453	0.000011	0.105517	0.035750	-0.000861
 743	3.7100e-01	10.3024	1.737203	0.000015	0.153278	0.051932	-0.001250
 744	3.7150e-01	10.2895	1.731768	0.000013	0.133285	0.045158	-0.001087
 745	3.7200e-01	10.2462	1.728054	0.000009	0.091078	0.030858	-0.000743
 746	3.7250e-01	10.2029	1.724476	0.000009	0.087746	0.029729	-0.000716
 747	3.7300e-01	10.2045	1.719902	-0.000011	-0.112182	-0.038008	-0.000915
 748	3.7350e-01	10.1147	1.714512	0.000013	0.132174	0.044782	-0.001078
 749	3.7400e-01	10.1115	1.709621	0.000012	0.119957	0.040642	-0.000978
 750	3.7450e-01	10.0377	1.703507	0.000015	0.149946	0.050803	-0.001223
 751	3.7500e-01	10.0152	1.701106	0.000006	0.058868	0.019945	-0.000480
 752	3.7550e-01	9.9607	1.696215	0.000012	0.119957	0.040642	-0.000978
 753	3.7600e-01	9.9334	1.689603	0.000016	0.162164	0.054943	-0.001322
 754	3.7650e-01	9.8901	1.685708	0.000010	0.095521	0.032363	-0.000779
 755	3.7700e-01	9.8500	1.681586	0.000010	0.101075	0.034245	-0.000824
 756	3.7750e-01	9.7970	1.675880	0.000014	0.139949	0.047416	-0.001141
 757	3.7800e-01	9.7602	1.671034	0.000012	0.118846	0.040266	-0.000969
 758	3.7850e-01	9.7377	1.665871	0.000013	0.126621	0.042900	-0.001033
 759	3.7900e-01	9.7040	1.660843	0.000012	0.123289	0.041771	-0.001005
 760	3.7950e-01	9.6623	1.655997	0.000012	0.118846	0.040266	-0.000969
 761	3.8000e-01	9.6045	1.651785	0.000010	0.103296	0.034998	-0.000842
 762	3.8050e-01	9.5644	1.646169	0.000014	0.137728	0.046664	-0.001123
 763	3.8100e-01	9.5564	1.641278	0.000012	0.119957	0.040642	-0.000978
 764	3.8150e-01	9.4826	1.637156	0.000010	0.101075	0.034245	-0.000824
 765	3.8200e-01	9.4553	1.631359	0.000014	0.142171	0.048169	-0.001159
 766	3.8250e-01	9.4185	1.626106	0.000013	0.128842	0.043653	-0.001051
 767	3.8300e-01	9.3783	1.620807	0.000013	0.129953	0.044029	-0.001060
 768	3.8350e-01	9.3350	1.617908	0.000007	0.071085	0.024084	-0.000580
 769	3.8400e-01	9.3046	1.613107	0.000012	0.117735	0.039890	-0.000960
 770	3.8450e-01	9.2452	1.607129	0.000015	0.146614	0.049674	-0.001196
 771	3.8500e-01	9.1939	1.603098	0.000010	0.098853	0.033492	-0.000806
 772	3.8550e-01	9.1682	1.598614	0.000011	0.109960	0.037256	-0.000897
 773	3.8600e-01	9.1185	1.593361	0.000013	0.128842	0.043653	-0.001051
 774	3.8650e-01	9.1040	1.586612	0.000017	0.165496	0.056071	-0.001350
 775	3.8700e-01	9.0751	1.581404	0.000013	0.127732	0.043277	-0.001042
 776	3.8750e-01	9.0286	1.576920	0.000011	0.109960	0.037256	-0.000897
 777	3.8800e-01	8.9805	1.571621	0.000013	0.129953	0.044029	-0.001060
 778	3.8850e-01	8.9163	1.567455	0.000010	0.102185	0.034621	-0.000833
 779	3.8900e-01	8.8746	1.562518	0.000012	0.121067	0.041019	-0.000987
 780	3.8950e-01	8.8361	1.556947	0.000014	0.136617	0.046287	-0.001114
 781	3.9000e-01	8.8249	1.553641	0.000008	0.081082	0.027471	-0.000661
 782	3.9050e-01	8.7527	1.549293	0.000011	0.106628	0.036127	-0.000870
 783	3.9100e-01	8.7415	1.543496	0.000014	0.142171	0.048169	-0.001159
 784	3.9150e-01	8.6869	1.538559	0.000012	0.121067	0.041019	-0.000987
 785	3.9200e-01	8.6436	1.532762	0.000014	0.142171	0.048169	-0.001159
 786	3.9250e-01	8.6356	1.527871	0.000012	0.119957	0.040642	-0.000978
 787	3.9300e-01	8.5682	1.521847	0.000015	0.147724	0.050050	-0.001205
 788	3.9350e-01	8.5137	1.516231	0.000014	0.137728	0.046664	-0.001123
 789	3.9400e-01	8.4976	1.512200	0.000010	0.098853	0.033492	-0.000806
 790	3.9450e-01	8.4591	1.507128	0.000012	0.124399	0.042148	-0.001015
 791	3.9500e-01	8.4094	1.502463	0.000011	0.114403	0.038761	-0.000933
 792	3.9550e-01	8.3629	1.498206	0.000010	0.104407	0.035374	-0.000851
 793	3.9600e-01	8.3292	1.492408	0.000014	0.142171	0.048169	-0.001159
 794	3.9650e-01	8.2794	1.487336	0.000012	0.124399	0.042148	-0.001015
 795	3.9700e-01	8.2570	1.482263	0.000012	0.124399	0.042148	-0.001015
 796	3.9750e-01	8.2008	1.476964	0.000013	0.129953	0.044029	-0.001060
 797	3.9800e-01	8.1736	1.472888	0.000010	0.099964	0.033869	-0.000815
 798	3.9850e-01	8.1527	1.468269	0.000011	0.113292	0.038385	-0.000924
 799	3.9900e-01	8.0966	1.463513	0.000012	0.116625	0.039513	-0.000951
 800	3.9950e-01	8.0725	1.456040	0.000018	0.183267	0.062093	-0.001495
 801	4.0000e-01	7.9987	1.450968	0.000012	0.124399	0.042148	-0.001015
 802	4.0050e-01	7.9698	1.444808	0.000015	0.151057	0.051179	-0.001232
 803	4.0100e-01	7.9169	1.440642	0.000010	0.102185	0.034621	-0.000833
 804	4.0150e-01	7.8960	1.436158	0.000011	0.109960	0.037256	-0.000897
 805	4.0200e-01	7.8415	1.429636	0.000016	0.159942	0.054190	-0.001304
 806	4.0250e-01	7.8335	1.424065	0.000014	0.136617	0.046287	-0.001114
 807	4.0300e-01	7.7869	1.419400	0.000011	0.114403	0.038761	-0.000933
 808	4.0350e-01	7.7196	1.413513	0.000014	0.144392	0.048921	-0.001178
 809	4.0400e-01	7.6971	1.409663	0.000009	0.094410	0.031987	-0.000770
 810	4.0450e-01	7.6666	1.405451	0.000010	0.103296	0.034998	-0.000842
 811	4.0500e-01	7.6201	1.399020	0.000016	0.157721	0.053437	-0.001286
 812	4.0550e-01	7.5784	1.393721	0.000013	0.129953	0.044029	-0.001060
 813	4.0600e-01	7.5271	1.386882	0.000017	0.167717	0.056824	-0.001368
 814	4.0650e-01	7.4629	1.382217	0.000011	0.114403	0.038761	-0.000933
 815	4.0700e-01	7.4533	1.378503	0.000009	0.091078	0.030858	-0.000743
 816	4.0750e-01	7.4164	1.374699	0.000009	0.093300	0.031611	-0.000761
 817	4.0800e-01	7.3634	1.368811	0.000014	0.144392	0.048921	-0.001178
 818	4.0850e-01	7.3506	1.361248	0.000019	0.185489	0.062845	-0.001513
 819	4.0900e-01	7.2993	1.357353	0.000010	0.095521	0.032363	-0.000779
 820	4.0950e-01	7.2463	1.351102	0.000015	0.153278	0.051932	-0.001250
 821	4.1000e-01	7.2030	1.344898	0.000015	0.152167	0.051556	-0.001241
 822	4.1050e-01	7.1741	1.341410	0.000009	0.085525	0.028977	-0.000697
 823	4.1100e-01	7.1629	1.334889	0.000016	0.159942	0.054190	-0.001304
 824	4.1150e-01	7.0907	1.328231	0.000016	0.163274	0.055319	-0.001332
 825	4.1200e-01	7.0602	1.322977	0.000013	0.128842	0.043653	-0.001051
 826	4.1250e-01	7.0121	1.319671	0.000008	0.081082	0.027471	-0.000661
 827	4.1300e-01	6.9816	1.314870	0.000012	0.117735	0.039890	-0.000960
 828	4.1350e-01	6.8982	1.308439	0.000016	0.157721	0.053437	-0.001286
 829	4.1400e-01	6.8693	1.302823	0.000014	0.137728	0.046664	-0.001123
 830	4.1450e-01	6.8340	1.297343	0.000013	0.134396	0.045535	-0.001096
 831	4.1500e-01	6.8308	1.290912	0.000016	0.157721	0.053437	-0.001286
 832	4.1550e-01	6.7634	1.284843	0.000015	0.148835	0.050427	-0.001214
 833	4.1600e-01	6.7538	1.281718	0.000008	0.076639	0.025966	-0.000625
 834	4.1650e-01	6.6816	1.274652	0.000017	0.173271	0.058706	-0.001413
 835	4.1700e-01	6.6576	1.271301	0.000008	0.082193	0.027848	-0.000670
 836	4.1750e-01	6.6399	1.265504	0.000014	0.142171	0.048169	-0.001159
 837	4.1800e-01	6.5693	1.258302	0.000018	0.176603	0.059835	-0.001440
 838	4.1850e-01	6.5244	1.253955	0.000011	0.106628	0.036127	-0.000870
 839	4.1900e-01	6.4875	1.249380	0.000011	0.112182	0.038008	-0.000915
 840	4.1950e-01	6.4667	1.240911	0.000021	0.207703	0.070372	-0.001694
 841	4.2000e-01	6.4394	1.237197	0.000009	0.091078	0.030858	-0.000743
 842	4.2050e-01	6.3592	1.231672	0.000014	0.135507	0.045911	-0.001105
 843	4.2100e-01	6.3303	1.227686	0.000010	0.097742	0.033116	-0.000797
 844	4.2150e-01	6.2902	1.221436	0.000015	0.153278	0.051932	-0.001250
 845	4.2200e-01	6.2292	1.215730	0.000014	0.139949	0.047416	-0.001141
 846	4.2250e-01	6.2373	1.209978	-0.000014	-0.141060	-0.047792	-0.001150
 847	4.2300e-01	6.1410	1.203728	0.000015	0.153278	0.051932	-0.001250
 848	4.2350e-01	6.1442	1.198112	-0.000014	-0.137728	-0.046664	-0.001123
 849	4.2400e-01	6.0961	1.194352	0.000009	0.092189	0.031234	-0.000752
 850	4.2450e-01	6.0768	1.187332	0.000017	0.172160	0.058329	-0.001404
 851	4.2500e-01	5.9726	1.180901	0.000016	0.157721	0.053437	-0.001286
 852	4.2550e-01	5.9774	1.175919	-0.000012	-0.122178	-0.041395	-0.000996
 853	4.2600e-01	5.9276	1.170666	0.000013	0.128842	0.043653	-0.001051
 854	4.2650e-01	5.8988	1.164416	0.000015	0.153278	0.051932	-0.001250
 855	4.2700e-01	5.8442	1.159026	0.000013	0.132174	0.044782	-0.001078
 856	4.2750e-01	5.8057	1.153682	0.000013	0.131064	0.044406	-0.001069
 857	4.2800e-01	5.7784	1.148292	0.000013	0.132174	0.044782	-0.001078
 858	4.2850e-01	5.7383	1.142178	0.000015	0.149946	0.050803	-0.001223
 859	4.2900e-01	5.7095	1.135294	0.000017	0.168828	0.057200	-0.001377
 860	4.2950e-01	5.6453	1.130040	0.000013	0.128842	0.043653	-0.001051
 861	4.3000e-01	5.6341	1.125919	0.000010	0.101075	0.034245	-0.000824
 862	4.3050e-01	5.5811	1.118355	0.000019	0.185489	0.062845	-0.001513
 863	4.3100e-01	5.5154	1.113237	0.000013	0.125510	0.042524	-0.001024
 864	4.3150e-01	5.4929	1.106897	0.000016	0.155499	0.052685	-0.001268
 865	4.3200e-01	5.4351	1.101779	0.000013	0.125510	0.042524	-0.001024
 866	4.3250e-01	5.4015	1.096118	0.000014	0.138839	0.047040	-0.001132
 867	4.3300e-01	5.3405	1.090320	0.000014	0.142171	0.048169	-0.001159
 868	4.3350e-01	5.3389	1.085656	0.000011	0.114403	0.038761	-0.000933
 869	4.3400e-01	5.2859	1.078409	0.000018	0.177714	0.060211	-0.001449
 870	4.3450e-01	5.2811	1.072657	0.000014	0.141060	0.047792	-0.001150
 871	4.3500e-01	5.2458	1.067811	0.000012	0.118846	0.040266	-0.000969
 872	4.3550e-01	5.1544	1.061878	0.000015	0.145503	0.049298	-0.001187
 873	4.3600e-01	5.1287	1.055130	0.000017	0.165496	0.056071	-0.001350
 874	4.3650e-01	5.0710	1.050329	0.000012	0.117735	0.039890	-0.000960
 875	4.3700e-01	5.0517	1.044305	0.000015	0.147724	0.050050	-0.001205
 876	4.3750e-01	5.0373	1.037150	0.000018	0.175492	0.059458	-0.001431
 877	4.3800e-01	4.9635	1.033119	0.000010	0.098853	0.033492	-0.000806
 878	4.3850e-01	4.9025	1.025691	0.000018	0.182156	0.061716	-0.001486
 879	4.3900e-01	4.9073	1.020030	-0.000014	-0.138839	-0.047040	-0.001132
 880	4.3950e-01	4.8319	1.012466	0.000019	0.185489	0.062845	-0.001513
 881	4.4000e-01	4.8079	1.008164	0.000011	0.105517	0.035750	-0.000861
 882	4.4050e-01	4.7710	0.999876	0.000020	0.203260	0.068866	-0.001658
 883	4.4100e-01	4.7309	0.996479	0.000008	0.083303	0.028224	-0.000679
 884	4.4150e-01	4.6860	0.990319	0.000015	0.151057	0.051179	-0.001232
 885	4.4200e-01	4.6282	0.984522	0.000014	0.142171	0.048169	-0.001159
 886	4.4250e-01	4.5817	0.978000	0.000016	0.159942	0.054190	-0.001304
 887	4.4300e-01	4.5705	0.972203	0.000014	0.142171	0.048169	-0.001159
 888	4.4350e-01	4.5239	0.965410	0.000017	0.166606	0.056448	-0.001359
 889	4.4400e-01	4.4983	0.959205	0.000015	0.152167	0.051556	-0.001241
 890	4.4450e-01	4.4469	0.953498	0.000014	0.139949	0.047416	-0.001141
 891	4.4500e-01	4.4084	0.946297	0.000018	0.176603	0.059835	-0.001440
 892	4.4550e-01	4.3651	0.941451	0.000012	0.118846	0.040266	-0.000969
 893	4.4600e-01	4.3282	0.935382	0.000015	0.148835	0.050427	-0.001214
 894	4.4650e-01	4.2961	0.930355	0.000012	0.123289	0.041771	-0.001005
 895	4.4700e-01	4.2528	0.922610	0.000019	0.189931	0.064350	-0.001549
 896	4.4750e-01	4.1983	0.917855	0.000012	0.116625	0.039513	-0.000951
 897	4.4800e-01	4.1485	0.909974	0.000019	0.193264	0.065479	-0.001576
 898	4.4850e-01	4.1550	0.903543	-0.000016	-0.157721	-0.053437	-0.001286
 899	4.4900e-01	4.0956	0.898516	0.000012	0.123289	0.041771	-0.001005
 900	4.4950e-01	4.0539	0.892311	0.000015	0.152167	0.051556	-0.001241
 901	4.5000e-01	4.0234	0.885246	0.000017	0.173271	0.058706	-0.001413
 902	4.5050e-01	3.9512	0.879041	0.000015	0.152167	0.051556	-0.001241
 903	4.5100e-01	3.9175	0.873198	0.000014	0.143282	0.048545	-0.001168
 904	4.5150e-01	3.8887	0.866088	0.000017	0.174381	0.059082	-0.001422
 905	4.5200e-01	3.8550	0.859385	0.000016	0.164385	0.055695	-0.001341
 906	4.5250e-01	3.8149	0.853271	0.000015	0.149946	0.050803	-0.001223
 907	4.5300e-01	3.7651	0.849149	0.000010	0.101075	0.034245	-0.000824
 908	4.5350e-01	3.7347	0.841676	0.000018	0.183267	0.062093	-0.001495
 909	4.5400e-01	3.6929	0.835834	0.000014	0.143282	0.048545	-0.001168
 910	4.5450e-01	3.6593	0.829493	0.000016	0.155499	0.052685	-0.001268
 911	4.5500e-01	3.5999	0.822201	0.000018	0.178824	0.060587	-0.001458
 912	4.5550e-01	3.5550	0.814774	0.000018	0.182156	0.061716	-0.001486
 913	4.5600e-01	3.5133	0.810154	0.000011	0.113292	0.038385	-0.000924
 914	4.5650e-01	3.5036	0.802183	0.000020	0.195485	0.066232	-0.001594
 915	4.5700e-01	3.4507	0.796567	0.000014	0.137728	0.046664	-0.001123
 916	4.5750e-01	3.4042	0.789819	0.000017	0.165496	0.056071	-0.001350
 917	4.5800e-01	3.3962	0.782391	0.000018	0.182156	0.061716	-0.001486
 918	4.5850e-01	3.3192	0.775507	0.000017	0.168828	0.057200	-0.001377
 919	4.5900e-01	3.3063	0.770389	0.000013	0.125510	0.042524	-0.001024
 920	4.5950e-01	3.2774	0.762509	0.000019	0.193264	0.065479	-0.001576
 921	4.6000e-01	3.1988	0.755126	0.000018	0.181046	0.061340	-0.001476
 922	4.6050e-01	3.1619	0.751186	0.000010	0.096632	0.032740	-0.000788
 923	4.6100e-01	3.1427	0.744393	0.000017	0.166606	0.056448	-0.001359
 924	4.6150e-01	3.0898	0.735969	0.000021	0.206592	0.069995	-0.001685
 925	4.6200e-01	3.0464	0.729583	0.000016	0.156610	0.053061	-0.001277
 926	4.6250e-01	2.9935	0.723514	0.000015	0.148835	0.050427	-0.001214
 927	4.6300e-01	2.9983	0.717943	-0.000014	-0.136617	-0.046287	-0.001114
 928	4.6350e-01	2.9406	0.709610	0.000020	0.204371	0.069243	-0.001667
 929	4.6400e-01	2.9053	0.702363	0.000018	0.177714	0.060211	-0.001449
 930	4.6450e-01	2.8218	0.695796	0.000016	0.161053	0.054566	-0.001313
 931	4.6500e-01	2.8331	0.690406	-0.000013	-0.132174	-0.044782	-0.001078
 932	4.6550e-01	2.7481	0.683205	0.000018	0.176603	0.059835	-0.001440
 933	4.6600e-01	2.7304	0.676004	0.000018	0.176603	0.059835	-0.001440
 934	4.6650e-01	2.6951	0.668803	0.000018	0.176603	0.059835	-0.001440
 935	4.6700e-01	2.6470	0.661964	0.000017	0.167717	0.056824	-0.001368
 936	4.6750e-01	2.6117	0.655488	0.000016	0.158832	0.053814	-0.001295
 937	4.6800e-01	2.5700	0.648920	0.000016	0.161053	0.054566	-0.001313
 938	4.6850e-01	2.5170	0.641719	0.000018	0.176603	0.059835	-0.001440
 939	4.6900e-01	2.4834	0.633975	0.000019	0.189931	0.064350	-0.001549
 940	4.6950e-01	2.4609	0.625868	0.000020	0.198817	0.067361	-0.001621
 941	4.7000e-01	2.4465	0.619074	0.000017	0.166606	0.056448	-0.001359
 942	4.7050e-01	2.4192	0.612054	0.000017	0.172160	0.058329	-0.001404
 943	4.7100e-01	2.3534	0.604491	0.000019	0.185489	0.062845	-0.001513
 944	4.7150e-01	2.2828	0.597833	0.000016	0.163274	0.055319	-0.001332
 945	4.7200e-01	2.2539	0.590949	0.000017	0.168828	0.057200	-0.001377
 946	4.7250e-01	2.1898	0.585152	0.000014	0.142171	0.048169	-0.001159
 947	4.7300e-01	2.1866	0.574735	0.000026	0.255463	0.086553	-0.002083
 948	4.7350e-01	2.1064	0.569300	0.000013	0.133285	0.045158	-0.001087
 949	4.7400e-01	2.1015	0.562461	0.000017	0.167717	0.056824	-0.001368
 950	4.7450e-01	2.0518	0.555260	0.000018	0.176603	0.059835	-0.001440
 951	4.7500e-01	2.0101	0.546836	0.000021	0.206592	0.069995	-0.001685
 952	4.7550e-01	1.9588	0.538820	0.000020	0.196596	0.066608	-0.001603
 953	4.7600e-01	1.9074	0.531845	0.000017	0.171049	0.057953	-0.001395
 954	4.7650e-01	1.8625	0.524191	0.000019	0.187710	0.063598	-0.001531
 955	4.7700e-01	1.8577	0.516673	0.000018	0.184378	0.062469	-0.001504
 956	4.7750e-01	1.8128	0.508203	0.000021	0.207703	0.070372	-0.001694
 957	4.7800e-01	1.7550	0.501817	0.000016	0.156610	0.053061	-0.001277
 958	4.7850e-01	1.7470	0.495658	0.000015	0.151057	0.051179	-0.001232
 959	4.7900e-01	1.7262	0.487053	0.000021	0.211035	0.071501	-0.001721
 960	4.7950e-01	1.6363	0.479534	0.000018	0.184378	0.062469	-0.001504
 961	4.8000e-01	1.6058	0.470703	0.000022	0.216588	0.073382	-0.001766
 962	4.8050e-01	1.5529	0.463909	0.000017	0.166606	0.056448	-0.001359
 963	4.8100e-01	1.5272	0.456618	0.000018	0.178824	0.060587	-0.001458
 964	4.8150e-01	1.5032	0.449552	0.000017	0.173271	0.058706	-0.001413
 965	4.8200e-01	1.5000	0.439951	0.000024	0.235470	0.079780	-0.001920
 966	4.8250e-01	1.4246	0.431527	0.000021	0.206592	0.069995	-0.001685
 967	4.8300e-01	1.3556	0.425050	0.000016	0.158832	0.053814	-0.001295
 968	4.8350e-01	1.3219	0.417804	0.000018	0.177714	0.060211	-0.001449
 969	4.8400e-01	1.3219	0.408836	0.000022	0.219921	0.074511	-0.001793
 970	4.8450e-01	1.2272	0.401092	0.000019	0.189931	0.064350	-0.001549
 971	4.8500e-01	1.1919	0.394072	0.000017	0.172160	0.058329	-0.001404
 972	4.8550e-01	1.1743	0.385376	0.000021	0.213256	0.072253	-0.001739
 973	4.8600e-01	1.1342	0.377586	0.000019	0.191042	0.064727	-0.001558
 974	4.8650e-01	1.1037	0.369705	0.000019	0.193264	0.065479	-0.001576
 975	4.8700e-01	1.0508	0.359968	0.000024	0.238803	0.080909	-0.001947
 976	4.8750e-01	0.9898	0.351091	0.000022	0.217699	0.073758	-0.001775
 977	4.8800e-01	1.0123	0.343845	-0.000018	-0.177714	-0.060211	-0.001449
 978	4.8850e-01	0.9337	0.334379	0.000023	0.232138	0.078651	-0.001893
 979	4.8900e-01	0.8903	0.327178	0.000018	0.176603	0.059835	-0.001440
 980	4.8950e-01	0.8262	0.318482	0.000021	0.213256	0.072253	-0.001739
 981	4.9000e-01	0.7877	0.310964	0.000018	0.184378	0.062469	-0.001504
 982	4.9050e-01	0.7476	0.302359	0.000021	0.211035	0.071501	-0.001721
 983	4.9100e-01	0.7492	0.294523	-0.000019	-0.192153	-0.065103	-0.001567
 984	4.9150e-01	0.7010	0.284333	0.000025	0.249910	0.084672	-0.002038
 985	4.9200e-01	0.6625	0.276271	0.000020	0.197706	0.066985	-0.001612
 986	4.9250e-01	0.6144	0.267349	0.000022	0.218810	0.074135	-0.001784
 987	4.9300e-01	0.5743	0.259378	0.000020	0.195485	0.066232	-0.001594
 988	4.9350e-01	0.5198	0.251497	0.000019	0.193264	0.065479	-0.001576
 989	4.9400e-01	0.5005	0.242711	0.000022	0.215478	0.073006	-0.001757
 990	4.9450e-01	0.4460	0.233110	0.000024	0.235470	0.079780	-0.001920
 991	4.9500e-01	0.4139	0.225320	0.000019	0.191042	0.064727	-0.001558
 992	4.9550e-01	0.3770	0.216850	0.000021	0.207703	0.070372	-0.001694
 993	4.9600e-01	0.3176	0.206569	0.000025	0.252131	0.085424	-0.002056
 994	4.9650e-01	0.2872	0.199368	0.000018	0.176603	0.059835	-0.001440
 995	4.9700e-01	0.2631	0.189631	0.000024	0.238803	0.080909	-0.001947
 996	4.9750e-01	0.2102	0.178399	0.000028	0.275456	0.093327	-0.002246
 997	4.9800e-01	0.1540	0.169250	0.000022	0.224363	0.076016	-0.001830
 998	4.9850e-01	0.1299	0.163227	0.000015	0.147724	0.050050	-0.001205
 999	4.9900e-01	0.0866	0.155572	0.000019	0.187710	0.063598	-0.001531
1000	4.9950e-01	0.0626	0.146877	0.000021	0.213256	0.072253	-0.001739
1001	5.0000e-01	0.0529	0.133924	0.000032	0.317663	0.107627	-0.002591
1002	5.0050e-01	-0.0273	0.127855	0.000015	0.148835	0.050427	-0.001214
1003	5.0100e-01	-0.0513	0.116487	0.000028	0.278788	0.094456	-0.002274
1004	5.0150e-01	-0.1235	0.107882	0.000021	0.211035	0.071501	-0.001721
1005	5.0200e-01	-0.1700	0.100454	0.000018	0.182156	0.061716	-0.001486
1006	5.0250e-01	-0.1733	0.092936	0.000018	0.184378	0.062469	-0.001504
1007	5.0300e-01	-0.1829	0.080934	0.000029	0.294338	0.099724	-0.002400
1008	5.0350e-01	-0.2503	0.071876	0.000022	0.222142	0.075264	-0.001812
1009	5.0400e-01	-0.3064	0.063724	0.000020	0.199928	0.067737	-0.001630
1010	5.0450e-01	-0.3465	0.052673	0.000027	0.271013	0.091822	-0.002210
1011	5.0500e-01	-0.3946	0.043343	0.000023	0.228806	0.077522	-0.001866
1012	5.0550e-01	-0.4219	0.035825	0.000018	0.184378	0.062469	-0.001504
1013	5.0600e-01	-0.4476	0.025136	0.000026	0.262128	0.088811	-0.002138
1014	5.0650e-01	-0.5101	0.016078	0.000022	0.222142	0.075264	-0.001812
1015	5.0700e-01	-0.5406	0.005752	0.000025	0.253242	0.085801	-0.002065
1016	5.0750e-01	-0.5968	-0.003034	0.000022	0.215478	0.073006	-0.001757
1017	5.0800e-01	-0.6385	-0.011187	0.000020	0.199928	0.067737	-0.001630
1018	5.0850e-01	-0.6545	-0.021241	0.000025	0.246578	0.083543	-0.002011
1019	5.0900e-01	-0.7075	-0.031069	0.000024	0.241024	0.081661	-0.001966
1020	5.0950e-01	-0.7396	-0.039493	0.000021	0.206592	0.069995	-0.001685
1021	5.1000e-01	-0.7636	-0.049185	0.000024	0.237692	0.080532	-0.001938
1022	5.1050e-01	-0.8198	-0.059602	0.000026	0.255463	0.086553	-0.002083
1023	5.1100e-01	-0.8839	-0.067754	0.000020	0.199928	0.067737	-0.001630
1024	5.1150e-01	-0.9048	-0.076903	0.000022	0.224363	0.076016	-0.001830
1025	5.1200e-01	-0.9513	-0.085916	0.000022	0.221031	0.074887	-0.001803
1026	5.1250e-01	-0.9882	-0.096287	0.000025	0.254353	0.086177	-0.002074
1027	5.1300e-01	-1.0091	-0.107157	0.000027	0.266570	0.090316	-0.002174
1028	5.1350e-01	-1.0909	-0.114721	0.000019	0.185489	0.062845	-0.001513
1029	5.1400e-01	-1.0716	-0.124775	-0.000025	-0.246578	-0.083543	-0.002011
1030	5.1450e-01	-1.1326	-0.133697	0.000022	0.218810	0.074135	-0.001784
1031	5.1500e-01	-1.1759	-0.141532	0.000019	0.192153	0.065103	-0.001567
1032	5.1550e-01	-1.2224	-0.152266	0.000026	0.263238	0.089188	-0.002147
1033	5.1600e-01	-1.2625	-0.160917	0.000021	0.212146	0.071877	-0.001730
1034	5.1650e-01	-1.2882	-0.170790	0.000024	0.242135	0.082037	-0.001975
1035	5.1700e-01	-1.3492	-0.180120	0.000023	0.228806	0.077522	-0.001866
1036	5.1750e-01	-1.3925	-0.188544	0.000021	0.206592	0.069995	-0.001685
1037	5.1800e-01	-1.4422	-0.196968	0.000021	0.206592	0.069995	-0.001685
1038	5.1850e-01	-1.4759	-0.208245	0.000028	0.276567	0.093703	-0.002255
1039	5.1900e-01	-1.5160	-0.216941	0.000021	0.213256	0.072253	-0.001739
1040	5.1950e-01	-1.5609	-0.224187	0.000018	0.177714	0.060211	-0.001449
1041	5.2000e-01	-1.5802	-0.234015	0.000024	0.241024	0.081661	-0.001966
1042	5.2050e-01	-1.6155	-0.243345	0.000023	0.228806	0.077522	-0.001866
1043	5.2100e-01	-1.6492	-0.254215	0.000027	0.266570	0.090316	-0.002174
1044	5.2150e-01	-1.6909	-0.261960	0.000019	0.189931	0.064350	-0.001549
1045	5.2200e-01	-1.7374	-0.269568	0.000019	0.186599	0.063222	-0.001522
1046	5.2250e-01	-1.7518	-0.280438	0.000027	0.266570	0.090316	-0.002174
1047	5.2300e-01	-1.8481	-0.287594	0.000018	0.175492	0.059458	-0.001431
1048	5.2350e-01	-1.8529	-0.297603	0.000025	0.245467	0.083166	-0.002002
1049	5.2400e-01	-1.9074	-0.305257	0.000019	0.187710	0.063598	-0.001531
1050	5.2450e-01	-1.9443	-0.313274	0.000020	0.196596	0.066608	-0.001603
1051	5.2500e-01	-1.9892	-0.322603	0.000023	0.228806	0.077522	-0.001866
1052	5.2550e-01	-2.0326	-0.331390	0.000022	0.215478	0.073006	-0.001757
1053	5.2600e-01	-2.0390	-0.340176	0.000022	0.215478	0.073006	-0.001757
1054	5.2650e-01	-2.0951	-0.348057	0.000019	0.193264	0.065479	-0.001576
1055	5.2700e-01	-2.1417	-0.356254	0.000020	0.201038	0.068114	-0.001640
1056	5.2750e-01	-2.1625	-0.365539	0.000023	0.227696	0.077145	-0.001857
1057	5.2800e-01	-2.2122	-0.374098	0.000021	0.209924	0.071124	-0.001712
1058	5.2850e-01	-2.2475	-0.382885	0.000022	0.215478	0.073006	-0.001757
1059	5.2900e-01	-2.3133	-0.391264	0.000021	0.205481	0.069619	-0.001676
1060	5.2950e-01	-2.3390	-0.400140	0.000022	0.217699	0.073758	-0.001775
1061	5.3000e-01	-2.3823	-0.408519	0.000021	0.205481	0.069619	-0.001676
1062	5.3050e-01	-2.4272	-0.416128	0.000019	0.186599	0.063222	-0.001522
1063	5.3100e-01	-2.4737	-0.423057	0.000017	0.169939	0.057577	-0.001386
1064	5.3150e-01	-2.5010	-0.432614	0.000023	0.234360	0.079403	-0.001911
1065	5.3200e-01	-2.4962	-0.438592	-0.000015	-0.146614	-0.049674	-0.001196
1066	5.3250e-01	-2.5780	-0.447514	0.000022	0.218810	0.074135	-0.001784
1067	5.3300e-01	-2.6197	-0.454081	0.000016	0.161053	0.054566	-0.001313
1068	5.3350e-01	-2.6550	-0.463456	0.000023	0.229917	0.077898	-0.001875
1069	5.3400e-01	-2.6775	-0.472469	0.000022	0.221031	0.074887	-0.001803
1070	5.3450e-01	-2.7224	-0.479716	0.000018	0.177714	0.060211	-0.001449
1071	5.3500e-01	-2.7898	-0.487687	0.000020	0.195485	0.066232	-0.001594
1072	5.3550e-01	-2.8154	-0.495205	0.000018	0.184378	0.062469	-0.001504
1073	5.3600e-01	-2.8748	-0.501681	0.000016	0.158832	0.053814	-0.001295
1074	5.3650e-01	-2.8988	-0.512642	0.000027	0.268792	0.091069	-0.002192
1075	5.3700e-01	-2.9357	-0.519662	0.000017	0.172160	0.058329	-0.001404
1076	5.3750e-01	-2.9951	-0.525957	0.000015	0.154389	0.052308	-0.001259
1077	5.3800e-01	-3.0160	-0.533430	0.000018	0.183267	0.062093	-0.001495
1078	5.3850e-01	-3.0496	-0.540858	0.000018	0.182156	0.061716	-0.001486
1079	5.3900e-01	-3.1010	-0.548376	0.000018	0.184378	0.062469	-0.001504
1080	5.3950e-01	-3.1571	-0.556619	0.000020	0.202149	0.068490	-0.001649
1081	5.4000e-01	-3.1988	-0.563503	0.000017	0.168828	0.057200	-0.001377
1082	5.4050e-01	-3.2117	-0.569662	0.000015	0.151057	0.051179	-0.001232
1083	5.4100e-01	-3.2694	-0.576411	0.000017	0.165496	0.056071	-0.001350
1084	5.4150e-01	-3.3320	-0.584110	0.000019	0.188821	0.063974	-0.001540
1085	5.4200e-01	-3.3512	-0.591945	0.000019	0.192153	0.065103	-0.001567
1086	5.4250e-01	-3.4026	-0.600007	0.000020	0.197706	0.066985	-0.001612
1087	5.4300e-01	-3.4282	-0.606574	0.000016	0.161053	0.054566	-0.001313
1088	5.4350e-01	-3.4539	-0.614183	0.000019	0.186599	0.063222	-0.001522
1089	5.4400e-01	-3.5085	-0.619889	0.000014	0.139949	0.047416	-0.001141
1090	5.4450e-01	-3.5534	-0.628177	0.000020	0.203260	0.068866	-0.001658
1091	5.4500e-01	-3.5774	-0.634020	0.000014	0.143282	0.048545	-0.001168
1092	5.4550e-01	-3.6384	-0.641674	0.000019	0.187710	0.063598	-0.001531
1093	5.4600e-01	-3.6705	-0.648694	0.000017	0.172160	0.058329	-0.001404
1094	5.4650e-01	-3.6833	-0.654989	0.000015	0.154389	0.052308	-0.001259
1095	5.4700e-01	-3.7298	-0.662009	0.000017	0.172160	0.058329	-0.001404
1096	5.4750e-01	-3.8036	-0.669709	0.000019	0.188821	0.063974	-0.001540
1097	5.4800e-01	-3.8149	-0.676004	0.000015	0.154389	0.052308	-0.001259
1098	5.4850e-01	-3.8421	-0.683069	0.000017	0.173271	0.058706	-0.001413
1099	5.4900e-01	-3.9047	-0.689591	0.000016	0.159942	0.054190	-0.001304
1100	5.4950e-01	-3.9256	-0.696657	0.000017	0.173271	0.058706	-0.001413
1101	5.5000e-01	-3.9705	-0.703903	0.000018	0.177714	0.060211	-0.001449
1102	5.5050e-01	-3.9994	-0.712327	0.000021	0.206592	0.069995	-0.001685
1103	5.5100e-01	-4.0603	-0.717807	0.000013	0.134396	0.045535	-0.001096
1104	5.5150e-01	-4.1229	-0.723695	0.000014	0.144392	0.048921	-0.001178
1105	5.5200e-01	-4.1405	-0.730896	0.000018	0.176603	0.059835	-0.001440
1106	5.5250e-01	-4.1582	-0.737690	0.000017	0.166606	0.056448	-0.001359
1107	5.5300e-01	-4.2175	-0.744755	0.000017	0.173271	0.058706	-0.001413
1108	5.5350e-01	-4.2657	-0.750824	0.000015	0.148835	0.050427	-0.001214
1109	5.5400e-01	-4.2993	-0.757300	0.000016	0.158832	0.053814	-0.001295
1110	5.5450e-01	-4.3314	-0.763279	0.000015	0.146614	0.049674	-0.001196
1111	5.5500e-01	-4.3780	-0.769619	0.000016	0.155499	0.052685	-0.001268
1112	5.5550e-01	-4.4245	-0.777047	0.000018	0.182156	0.061716	-0.001486
1113	5.5600e-01	-4.4453	-0.783071	0.000015	0.147724	0.050050	-0.001205
1114	5.5650e-01	-4.4838	-0.789411	0.000016	0.155499	0.052685	-0.001268
1115	5.5700e-01	-4.5191	-0.795299	0.000014	0.144392	0.048921	-0.001178
1116	5.5750e-01	-4.5961	-0.802681	0.000018	0.181046	0.061340	-0.001476
1117	5.5800e-01	-4.6058	-0.808705	0.000015	0.147724	0.050050	-0.001205
1118	5.5850e-01	-4.6731	-0.815272	0.000016	0.161053	0.054566	-0.001313
1119	5.5900e-01	-4.7084	-0.820662	0.000013	0.132174	0.044782	-0.001078
1120	5.5950e-01	-4.7309	-0.826776	0.000015	0.149946	0.050803	-0.001223
1121	5.6000e-01	-4.7646	-0.834158	0.000018	0.181046	0.061340	-0.001476
1122	5.6050e-01	-4.7870	-0.841223	0.000017	0.173271	0.058706	-0.001413
1123	5.6100e-01	-4.8881	-0.847247	0.000015	0.147724	0.050050	-0.001205
1124	5.6150e-01	-4.9218	-0.851233	0.000010	0.097742	0.033116	-0.000797
1125	5.6200e-01	-4.9555	-0.858026	0.000017	0.166606	0.056448	-0.001359
1126	5.6250e-01	-4.9795	-0.864457	0.000016	0.157721	0.053437	-0.001286
1127	5.6300e-01	-5.0325	-0.869847	0.000013	0.132174	0.044782	-0.001078
1128	5.6350e-01	-5.0533	-0.877139	0.000018	0.178824	0.060587	-0.001458
1129	5.6400e-01	-5.1079	-0.882166	0.000012	0.123289	0.041771	-0.001005
1130	5.6450e-01	-5.1528	-0.888054	0.000014	0.144392	0.048921	-0.001178
1131	5.6500e-01	-5.1656	-0.895753	0.000019	0.188821	0.063974	-0.001540
1132	5.6550e-01	-5.2057	-0.901686	0.000015	0.145503	0.049298	-0.001187
1133	5.6600e-01	-5.2523	-0.907030	0.000013	0.131064	0.044406	-0.001069
1134	5.6650e-01	-5.3020	-0.913280	0.000015	0.153278	0.051932	-0.001250
1135	5.6700e-01	-5.3613	-0.920165	0.000017	0.168828	0.057200	-0.001377
1136	5.6750e-01	-5.3678	-0.925237	0.000012	0.124399	0.042148	-0.001015
1137	5.6800e-01	-5.4159	-0.930400	0.000013	0.126621	0.042900	-0.001033
1138	5.6850e-01	-5.4785	-0.937465	0.000017	0.173271	0.058706	-0.001413
1139	5.6900e-01	-5.5073	-0.942402	0.000012	0.121067	0.041019	-0.000987
1140	5.6950e-01	-5.5410	-0.948743	0.000016	0.155499	0.052685	-0.001268
1141	5.7000e-01	-5.5683	-0.954404	0.000014	0.138839	0.047040	-0.001132
1142	5.7050e-01	-5.6132	-0.960790	0.000016	0.156610	0.053061	-0.001277
1143	5.7100e-01	-5.6469	-0.968489	0.000019	0.188821	0.063974	-0.001540
1144	5.7150e-01	-5.7111	-0.974015	0.000014	0.135507	0.045911	-0.001105
1145	5.7200e-01	-5.7464	-0.979268	0.000013	0.128842	0.043653	-0.001051
1146	5.7250e-01	-5.7977	-0.985292	0.000015	0.147724	0.050050	-0.001205
1147	5.7300e-01	-5.8153	-0.991542	0.000015	0.153278	0.051932	-0.001250
1148	5.7350e-01	-5.8940	-0.996117	0.000011	0.112182	0.038008	-0.000915
1149	5.7400e-01	-5.9212	-1.002774	0.000016	0.163274	0.055319	-0.001332
1150	5.7450e-01	-5.9694	-1.007666	0.000012	0.119957	0.040642	-0.000978
1151	5.7500e-01	-5.9758	-1.012919	0.000013	0.128842	0.043653	-0.001051
1152	5.7550e-01	-6.0095	-1.019486	0.000016	0.161053	0.054566	-0.001313
1153	5.7600e-01	-6.0592	-1.024287	0.000012	0.117735	0.039890	-0.000960
1154	5.7650e-01	-6.1073	-1.030537	0.000015	0.153278	0.051932	-0.001250
1155	5.7700e-01	-6.1426	-1.038146	0.000019	0.186599	0.063222	-0.001522
1156	5.7750e-01	-6.1811	-1.043037	0.000012	0.119957	0.040642	-0.000978
1157	5.7800e-01	-6.2533	-1.048336	0.000013	0.129953	0.044029	-0.001060
1158	5.7850e-01	-6.2661	-1.052095	0.000009	0.092189	0.031234	-0.000752
1159	5.7900e-01	-6.2661	-1.060791	0.000021	0.213256	0.072253	-0.001739
1160	5.7950e-01	-6.3287	-1.065094	0.000011	0.105517	0.035750	-0.000861
1161	5.8000e-01	-6.3881	-1.071299	0.000015	0.152167	0.051556	-0.001241
1162	5.8050e-01	-6.4105	-1.075873	0.000011	0.112182	0.038008	-0.000915
1163	5.8100e-01	-6.4185	-1.083255	0.000018	0.181046	0.061340	-0.001476
1164	5.8150e-01	-6.5308	-1.085837	0.000006	0.063310	0.021450	-0.000516
1165	5.8200e-01	-6.5437	-1.092494	0.000016	0.163274	0.055319	-0.001332
1166	5.8250e-01	-6.5774	-1.098473	0.000015	0.146614	0.049674	-0.001196
1167	5.8300e-01	-6.6191	-1.104179	0.000014	0.139949	0.047416	-0.001141
1168	5.8350e-01	-6.6672	-1.108120	0.000010	0.096632	0.032740	-0.000788
1169	5.8400e-01	-6.7073	-1.115411	0.000018	0.178824	0.060587	-0.001458
1170	5.8450e-01	-6.7394	-1.120665	0.000013	0.128842	0.043653	-0.001051
1171	5.8500e-01	-6.7538	-1.125375	0.000012	0.115514	0.039137	-0.000942
1172	5.8550e-01	-6.8036	-1.131806	0.000016	0.157721	0.053437	-0.001286
1173	5.8600e-01	-6.8565	-1.136924	0.000013	0.125510	0.042524	-0.001024
1174	5.8650e-01	-6.8998	-1.141861	0.000012	0.121067	0.041019	-0.000987
1175	5.8700e-01	-6.9560	-1.148564	0.000016	0.164385	0.055695	-0.001341
1176	5.8750e-01	-6.9543	-1.153501	-0.000012	-0.121067	-0.041019	-0.000987
1177	5.8800e-01	-7.0009	-1.159705	0.000015	0.152167	0.051556	-0.001241
1178	5.8850e-01	-7.0650	-1.165004	0.000013	0.129953	0.044029	-0.001060
1179	5.8900e-01	-7.1260	-1.170847	0.000014	0.143282	0.048545	-0.001168
1180	5.8950e-01	-7.1388	-1.175512	0.000011	0.114403	0.038761	-0.000933
1181	5.9000e-01	-7.1870	-1.181535	0.000015	0.147724	0.050050	-0.001205
1182	5.9050e-01	-7.2223	-1.186200	0.000011	0.114403	0.038761	-0.000933
1183	5.9100e-01	-7.2592	-1.191454	0.000013	0.128842	0.043653	-0.001051
1184	5.9150e-01	-7.2944	-1.197025	0.000014	0.136617	0.046287	-0.001114
1185	5.9200e-01	-7.3378	-1.201463	0.000011	0.108850	0.036879	-0.000888
1186	5.9250e-01	-7.3859	-1.208392	0.000017	0.169939	0.057577	-0.001386
1187	5.9300e-01	-7.4228	-1.213103	0.000012	0.115514	0.039137	-0.000942
1188	5.9350e-01	-7.4388	-1.216816	0.000009	0.091078	0.030858	-0.000743
1189	5.9400e-01	-7.4661	-1.223655	0.000017	0.167717	0.056824	-0.001368
1190	5.9450e-01	-7.5479	-1.228094	0.000011	0.108850	0.036879	-0.000888
1191	5.9500e-01	-7.5543	-1.233755	0.000014	0.138839	0.047040	-0.001132
1192	5.9550e-01	-7.5896	-1.241817	0.000020	0.197706	0.066985	-0.001612
1193	5.9600e-01	-7.6538	-1.245983	0.000010	0.102185	0.034621	-0.000833
1194	5.9650e-01	-7.7228	-1.250331	0.000011	0.106628	0.036127	-0.000870
1195	5.9700e-01	-7.7372	-1.256264	0.000015	0.145503	0.049298	-0.001187
1196	5.9750e-01	-7.7869	-1.261065	0.000012	0.117735	0.039890	-0.000960
1197	5.9800e-01	-7.7982	-1.266183	0.000013	0.125510	0.042524	-0.001024
1198	5.9850e-01	-7.8656	-1.273565	0.000018	0.181046	0.061340	-0.001476
1199	5.9900e-01	-7.8928	-1.277868	0.000011	0.105517	0.035750	-0.000861
1200	5.9950e-01	-7.9458	-1.282171	0.000011	0.105517	0.035750	-0.000861
1201	6.0000e-01	-7.9698	-1.288375	0.000015	0.152167	0.051556	-0.001241
1202	6.0050e-01	-8.0356	-1.293357	0.000012	0.122178	0.041395	-0.000996
1203	6.0100e-01	-8.1062	-1.298249	0.000012	0.119957	0.040642	-0.000978
1204	6.0150e-01	-8.1126	-1.303548	0.000013	0.129953	0.044029	-0.001060
1205	6.0200e-01	-8.1447	-1.307760	0.000010	0.103296	0.034998	-0.000842
1206	6.0250e-01	-8.1463	-1.312832	0.000012	0.124399	0.042148	-0.001015
1207	6.0300e-01	-8.2105	-1.319626	0.000017	0.166606	0.056448	-0.001359
1208	6.0350e-01	-8.2650	-1.324155	0.000011	0.111071	0.037632	-0.000906
1209	6.0400e-01	-8.3083	-1.329725	0.000014	0.136617	0.046287	-0.001114
1210	6.0450e-01	-8.3147	-1.334662	0.000012	0.121067	0.041019	-0.000987
1211	6.0500e-01	-8.3853	-1.339599	0.000012	0.121067	0.041019	-0.000987
1212	6.0550e-01	-8.4174	-1.344264	0.000011	0.114403	0.038761	-0.000933
1213	6.0600e-01	-8.4639	-1.350423	0.000015	0.151057	0.051179	-0.001232
1214	6.0650e-01	-8.5089	-1.355496	0.000012	0.124399	0.042148	-0.001015
1215	6.0700e-01	-8.5393	-1.359934	0.000011	0.108850	0.036879	-0.000888
1216	6.0750e-01	-8.5650	-1.365052	0.000013	0.125510	0.042524	-0.001024
1217	6.0800e-01	-8.6308	-1.370260	0.000013	0.127732	0.043277	-0.001042
1218	6.0850e-01	-8.6741	-1.376012	0.000014	0.141060	0.047792	-0.001150
1219	6.0900e-01	-8.7062	-1.382081	0.000015	0.148835	0.050427	-0.001214
1220	6.0950e-01	-8.7527	-1.384300	0.000005	0.054425	0.018440	-0.000444
1221	6.1000e-01	-8.7671	-1.391909	0.000019	0.186599	0.063222	-0.001522
1222	6.1050e-01	-8.8506	-1.395759	0.000009	0.094410	0.031987	-0.000770
1223	6.1100e-01	-8.8602	-1.399065	0.000008	0.081082	0.027471	-0.000661
1224	6.1150e-01	-8.9211	-1.406447	0.000018	0.181046	0.061340	-0.001476
1225	6.1200e-01	-8.9500	-1.410025	0.000009	0.087746	0.029729	-0.000716
1226	6.1250e-01	-8.9789	-1.415687	0.000014	0.138839	0.047040	-0.001132
1227	6.1300e-01	-9.0046	-1.421574	0.000014	0.144392	0.048921	-0.001178
1228	6.1350e-01	-9.0495	-1.427915	0.000016	0.155499	0.052685	-0.001268
1229	6.1400e-01	-9.1185	-1.431900	0.000010	0.097742	0.033116	-0.000797
1230	6.1450e-01	-9.1297	-1.438468	0.000016	0.161053	0.054566	-0.001313
1231	6.1500e-01	-9.1939	-1.441593	0.000008	0.076639	0.025966	-0.000625
1232	6.1550e-01	-9.2243	-1.446665	0.000012	0.124399	0.042148	-0.001015
1233	6.1600e-01	-9.2805	-1.451330	0.000011	0.114403	0.038761	-0.000933
1234	6.1650e-01	-9.2949	-1.456901	0.000014	0.136617	0.046287	-0.001114
1235	6.1700e-01	-9.3398	-1.460615	0.000009	0.091078	0.030858	-0.000743
1236	6.1750e-01	-9.3767	-1.465461	0.000012	0.118846	0.040266	-0.000969
1237	6.1800e-01	-9.4265	-1.470307	0.000012	0.118846	0.040266	-0.000969
1238	6.1850e-01	-9.4249	-1.475923	-0.000014	-0.137728	-0.046664	-0.001123
1239	6.1900e-01	-9.4922	-1.480905	0.000012	0.122178	0.041395	-0.000996
1240	6.1950e-01	-9.5404	-1.487562	0.000016	0.163274	0.055319	-0.001332
1241	6.2000e-01	-9.5757	-1.491774	0.000010	0.103296	0.034998	-0.000842
1242	6.2050e-01	-9.6414	-1.495896	0.000010	0.101075	0.034245	-0.000824
1243	6.2100e-01	-9.6463	-1.502689	0.000017	0.166606	0.056448	-0.001359
1244	6.2150e-01	-9.6719	-1.506720	0.000010	0.098853	0.033492	-0.000806
1245	6.2200e-01	-9.7569	-1.511385	0.000011	0.114403	0.038761	-0.000933
1246	6.2250e-01	-9.7714	-1.515914	0.000011	0.111071	0.037632	-0.000906
1247	6.2300e-01	-9.8195	-1.521802	0.000014	0.144392	0.048921	-0.001178
1248	6.2350e-01	-9.8612	-1.525335	0.000009	0.086635	0.029353	-0.000707
1249	6.2400e-01	-9.8869	-1.531494	0.000015	0.151057	0.051179	-0.001232
1250	6.2450e-01	-9.9270	-1.534211	0.000007	0.066643	0.022579	-0.000543
1251	6.2500e-01	-9.9623	-1.540099	0.000014	0.144392	0.048921	-0.001178
1252	6.2550e-01	-10.0265	-1.546259	0.000015	0.151057	0.051179	-0.001232
1253	6.2600e-01	-10.0457	-1.549746	0.000009	0.085525	0.028977	-0.000697
1254	6.2650e-01	-10.0810	-1.554003	0.000010	0.104407	0.035374	-0.000851
1255	6.2700e-01	-10.1211	-1.561567	0.000019	0.185489	0.062845	-0.001513
1256	6.2750e-01	-10.1708	-1.564918	0.000008	0.082193	0.027848	-0.000670
1257	6.2800e-01	-10.2286	-1.570761	0.000014	0.143282	0.048545	-0.001168
1258	6.2850e-01	-10.2831	-1.574384	0.000009	0.088857	0.030105	-0.000725
1259	6.2900e-01	-10.2976	-1.578596	0.000010	0.103296	0.034998	-0.000842
1260	6.2950e-01	-10.3393	-1.583759	0.000013	0.126621	0.042900	-0.001033
1261	6.3000e-01	-10.3938	-1.590236	0.000016	0.158832	0.053814	-0.001295
1262	6.3050e-01	-10.4227	-1.594040	0.000009	0.093300	0.031611	-0.000761
1263	6.3100e-01	-10.4500	-1.597754	0.000009	0.091078	0.030858	-0.000743
1264	6.3150e-01	-10.5190	-1.603687	0.000015	0.145503	0.049298	-0.001187
1265	6.3200e-01	-10.5414	-1.609076	0.000013	0.132174	0.044782	-0.001078
1266	6.3250e-01	-10.5751	-1.612971	0.000010	0.095521	0.032363	-0.000779
1267	6.3300e-01	-10.6280	-1.618361	0.000013	0.132174	0.044782	-0.001078
1268	6.3350e-01	-10.6842	-1.623343	0.000012	0.122178	0.041395	-0.000996
1269	6.3400e-01	-10.6810	-1.628325	-0.000012	-0.122178	-0.041395	-0.000996
1270	6.3450e-01	-10.7564	-1.633307	0.000012	0.122178	0.041395	-0.000996
1271	6.3500e-01	-10.7788	-1.636160	0.000007	0.069975	0.023708	-0.000571
1272	6.3550e-01	-10.7997	-1.642003	0.000014	0.143282	0.048545	-0.001168
1273	6.3600e-01	-10.8254	-1.648434	0.000016	0.157721	0.053437	-0.001286
1274	6.3650e-01	-10.8943	-1.651559	0.000008	0.076639	0.025966	-0.000625
1275	6.3700e-01	-10.9296	-1.655499	0.000010	0.096632	0.032740	-0.000788
1276	6.3750e-01	-10.9409	-1.660209	0.000012	0.115514	0.039137	-0.000942
1277	6.3800e-01	-11.0339	-1.666323	0.000015	0.149946	0.050803	-0.001223
1278	6.3850e-01	-11.0917	-1.669539	0.000008	0.078860	0.026719	-0.000643
1279	6.3900e-01	-11.1254	-1.674747	0.000013	0.127732	0.043277	-0.001042
1280	6.3950e-01	-11.1510	-1.678959	0.000010	0.103296	0.034998	-0.000842
1281	6.4000e-01	-11.1943	-1.684711	0.000014	0.141060	0.047792	-0.001150
1282	6.4050e-01	-11.2312	-1.690056	0.000013	0.131064	0.044406	-0.001069
1283	6.4100e-01	-11.2697	-1.694449	0.000011	0.107739	0.036503	-0.000879
1284	6.4150e-01	-11.3082	-1.700065	0.000014	0.137728	0.046664	-0.001123
1285	6.4200e-01	-11.3660	-1.704232	0.000010	0.102185	0.034621	-0.000833
1286	6.4250e-01	-11.3644	-1.710346	-0.000015	-0.149946	-0.050803	-0.001223
1287	6.4300e-01	-11.4253	-1.713063	0.000007	0.066643	0.022579	-0.000543
1288	6.4350e-01	-11.4687	-1.716098	0.000007	0.074418	0.025213	-0.000607
1289	6.4400e-01	-11.4943	-1.721578	0.000013	0.134396	0.045535	-0.001096
1290	6.4450e-01	-11.5457	-1.727465	0.000014	0.144392	0.048921	-0.001178
1291	6.4500e-01	-11.5858	-1.732991	0.000014	0.135507	0.045911	-0.001105
1292	6.4550e-01	-11.6082	-1.736342	0.000008	0.082193	0.027848	-0.000670
1293	6.4600e-01	-11.6788	-1.741007	0.000011	0.114403	0.038761	-0.000933
1294	6.4650e-01	-11.7237	-1.745219	0.000010	0.103296	0.034998	-0.000842
1295	6.4700e-01	-11.7590	-1.749839	0.000011	0.113292	0.038385	-0.000924
1296	6.4750e-01	-11.7590	-1.754730	0.000012	0.119957	0.040642	-0.000978
1297	6.4800e-01	-11.8039	-1.761614	0.000017	0.168828	0.057200	-0.001377
1298	6.4850e-01	-11.8665	-1.764513	0.000007	0.071085	0.024084	-0.000580
1299	6.4900e-01	-11.8986	-1.769359	0.000012	0.118846	0.040266	-0.000969
1300	6.4950e-01	-11.9467	-1.774386	0.000012	0.123289	0.041771	-0.001005
1301	6.5000e-01	-11.9660	-1.778508	0.000010	0.101075	0.034245	-0.000824
1302	6.5050e-01	-12.0285	-1.783444	0.000012	0.121067	0.041019	-0.000987
1303	6.5100e-01	-12.0670	-1.787113	0.000009	0.089967	0.030482	-0.000734
1304	6.5150e-01	-12.1055	-1.792185	0.000012	0.124399	0.042148	-0.001015
1305	6.5200e-01	-12.1408	-1.796171	0.000010	0.097742	0.033116	-0.000797
1306	6.5250e-01	-12.2002	-1.801923	0.000014	0.141060	0.047792	-0.001150
1307	6.5300e-01	-12.2355	-1.806271	0.000011	0.106628	0.036127	-0.000870
1308	6.5350e-01	-12.2788	-1.810664	0.000011	0.107739	0.036503	-0.000879
1309	6.5400e-01	-12.2980	-1.814197	0.000009	0.086635	0.029353	-0.000707
1310	6.5450e-01	-12.3237	-1.818726	0.000011	0.111071	0.037632	-0.000906
1311	6.5500e-01	-12.3991	-1.822938	0.000010	0.103296	0.034998	-0.000842
1312	6.5550e-01	-12.4376	-1.828871	0.000015	0.145503	0.049298	-0.001187
1313	6.5600e-01	-12.4793	-1.833988	0.000013	0.125510	0.042524	-0.001024
1314	6.5650e-01	-12.4617	-1.838970	-0.000012	-0.122178	-0.041395	-0.000996
1315	6.5700e-01	-12.5419	-1.843862	0.000012	0.119957	0.040642	-0.000978
1316	6.5750e-01	-12.5836	-1.846715	0.000007	0.069975	0.023708	-0.000571
1317	6.5800e-01	-12.5980	-1.851833	0.000013	0.125510	0.042524	-0.001024
1318	6.5850e-01	-12.6975	-1.858038	0.000015	0.152167	0.051556	-0.001241
1319	6.5900e-01	-12.7007	-1.861027	0.000007	0.073307	0.024837	-0.000598
1320	6.5950e-01	-12.7360	-1.866009	0.000012	0.122178	0.041395	-0.000996
1321	6.6000e-01	-12.7585	-1.869043	0.000007	0.074418	0.025213	-0.000607
1322	6.6050e-01	-12.8210	-1.874931	0.000014	0.144392	0.048921	-0.001178
1323	6.6100e-01	-12.8900	-1.879188	0.000010	0.104407	0.035374	-0.000851
1324	6.6150e-01	-12.8788	-1.884306	-0.000013	-0.125510	-0.042524	-0.001024
1325	6.6200e-01	-12.9494	-1.888473	0.000010	0.102185	0.034621	-0.000833
1326	6.6250e-01	-12.9766	-1.892141	0.000009	0.089967	0.030482	-0.000734
1327	6.6300e-01	-13.0119	-1.898301	0.000015	0.151057	0.051179	-0.001232
1328	6.6350e-01	-13.0585	-1.900112	0.000004	0.044428	0.015053	-0.000362
1329	6.6400e-01	-13.1002	-1.905638	0.000014	0.135507	0.045911	-0.001105
1330	6.6450e-01	-13.1515	-1.910937	0.000013	0.129953	0.044029	-0.001060
1331	6.6500e-01	-13.1868	-1.916009	0.000012	0.124399	0.042148	-0.001015
1332	6.6550e-01	-13.2141	-1.920267	0.000010	0.104407	0.035374	-0.000851
1333	6.6600e-01	-13.2606	-1.923437	0.000008	0.077750	0.026342	-0.000634
1334	6.6650e-01	-13.3232	-1.929325	0.000014	0.144392	0.048921	-0.001178
1335	6.6700e-01	-13.3504	-1.933446	0.000010	0.101075	0.034245	-0.000824
1336	6.6750e-01	-13.3697	-1.936571	0.000008	0.076639	0.025966	-0.000625
1337	6.6800e-01	-13.4419	-1.942912	0.000016	0.155499	0.052685	-0.001268
1338	6.6850e-01	-13.4723	-1.947124	0.000010	0.103296	0.034998	-0.000842
1339	6.6900e-01	-13.4916	-1.950430	0.000008	0.081082	0.027471	-0.000661
1340	6.6950e-01	-13.5092	-1.955865	0.000013	0.133285	0.045158	-0.001087
1341	6.7000e-01	-13.5862	-1.961164	0.000013	0.129953	0.044029	-0.001060
1342	6.7050e-01	-13.6119	-1.965466	0.000011	0.105517	0.035750	-0.000861
1343	6.7100e-01	-13.6616	-1.968546	0.000008	0.075528	0.025590	-0.000616
1344	6.7150e-01	-13.6729	-1.972803	0.000010	0.104407	0.035374	-0.000851
1345	6.7200e-01	-13.7210	-1.979959	0.000018	0.175492	0.059458	-0.001431
1346	6.7250e-01	-13.7707	-1.983175	0.000008	0.078860	0.026719	-0.000643
1347	6.7300e-01	-13.8108	-1.988700	0.000014	0.135507	0.045911	-0.001105
1348	6.7350e-01	-13.8461	-1.992459	0.000009	0.092189	0.031234	-0.000752
1349	6.7400e-01	-13.8959	-1.996898	0.000011	0.108850	0.036879	-0.000888
1350	6.7450e-01	-13.9440	-2.001472	0.000011	0.112182	0.038008	-0.000915
1351	6.7500e-01	-13.9873	-2.005005	0.000009	0.086635	0.029353	-0.000707
1352	6.7550e-01	-14.0162	-2.009443	0.000011	0.108850	0.036879	-0.000888
1353	6.7600e-01	-14.0483	-2.015558	0.000015	0.149946	0.050803	-0.001223
1354	6.7650e-01	-14.0900	-2.018728	0.000008	0.077750	0.026342	-0.000634
1355	6.7700e-01	-14.1429	-2.023529	0.000012	0.117735	0.039890	-0.000960
1356	6.7750e-01	-14.1814	-2.026518	0.000007	0.073307	0.024837	-0.000598
1357	6.7800e-01	-14.2167	-2.031772	0.000013	0.128842	0.043653	-0.001051
1358	6.7850e-01	-14.2777	-2.036753	0.000012	0.122178	0.041395	-0.000996
1359	6.7900e-01	-14.2969	-2.040422	0.000009	0.089967	0.030482	-0.000734
1360	6.7950e-01	-14.3194	-2.045404	0.000012	0.122178	0.041395	-0.000996
1361	6.8000e-01	-14.3819	-2.049389	0.000010	0.097742	0.033116	-0.000797
1362	6.8050e-01	-14.4221	-2.054145	0.000012	0.116625	0.039513	-0.000951
1363	6.8100e-01	-14.4509	-2.060667	0.000016	0.159942	0.054190	-0.001304
1364	6.8150e-01	-14.4846	-2.064426	0.000009	0.092189	0.031234	-0.000752
1365	6.8200e-01	-14.5247	-2.068004	0.000009	0.087746	0.029729	-0.000716
1366	6.8250e-01	-14.5584	-2.070540	0.000006	0.062200	0.021074	-0.000507
1367	6.8300e-01	-14.6274	-2.075296	0.000012	0.116625	0.039513	-0.000951
1368	6.8350e-01	-14.6354	-2.082406	0.000017	0.174381	0.059082	-0.001422
1369	6.8400e-01	-14.7188	-2.085622	0.000008	0.078860	0.026719	-0.000643
1370	6.8450e-01	-14.7493	-2.088928	0.000008	0.081082	0.027471	-0.000661
1371	6.8500e-01	-14.7798	-2.093185	0.000010	0.104407	0.035374	-0.000851
1372	6.8550e-01	-14.8327	-2.097624	0.000011	0.108850	0.036879	-0.000888
1373	6.8600e-01	-14.8584	-2.102696	0.000012	0.124399	0.042148	-0.001015
1374	6.8650e-01	-14.9081	-2.106818	0.000010	0.101075	0.034245	-0.000824
1375	6.8700e-01	-14.9258	-2.112660	0.000014	0.143282	0.048545	-0.001168
1376	6.8750e-01	-14.9755	-2.117325	0.000011	0.114403	0.038761	-0.000933
1377	6.8800e-01	-15.0349	-2.121492	0.000010	0.102185	0.034621	-0.000833
1378	6.8850e-01	-15.0766	-2.122850	0.000003	0.033321	0.011290	-0.000272
1379	6.8900e-01	-15.1215	-2.129916	0.000017	0.173271	0.058706	-0.001413
1380	6.8950e-01	-15.1183	-2.133131	-0.000008	-0.078860	-0.026719	-0.000643
1381	6.9000e-01	-15.1696	-2.136981	0.000009	0.094410	0.031987	-0.000770
1382	6.9050e-01	-15.2145	-2.142054	0.000012	0.124399	0.042148	-0.001015
1383	6.9100e-01	-15.2659	-2.147398	0.000013	0.131064	0.044406	-0.001069
1384	6.9150e-01	-15.3028	-2.152380	0.000012	0.122178	0.041395	-0.000996
1385	6.9200e-01	-15.3397	-2.154373	0.000005	0.048871	0.016558	-0.000399
1386	6.9250e-01	-15.3830	-2.158902	0.000011	0.111071	0.037632	-0.000906
1387	6.9300e-01	-15.4215	-2.164201	0.000013	0.129953	0.044029	-0.001060
1388	6.9350e-01	-15.4632	-2.169500	0.000013	0.129953	0.044029	-0.001060
1389	6.9400e-01	-15.5017	-2.174436	0.000012	0.121067	0.041019	-0.000987
1390	6.9450e-01	-15.5210	-2.177063	0.000006	0.064421	0.021826	-0.000525
1391	6.9500e-01	-15.5787	-2.182271	0.000013	0.127732	0.043277	-0.001042
1392	6.9550e-01	-15.6332	-2.186483	0.000010	0.103296	0.034998	-0.000842
1393	6.9600e-01	-15.6525	-2.191647	0.000013	0.126621	0.042900	-0.001033
1394	6.9650e-01	-15.6990	-2.195360	0.000009	0.091078	0.030858	-0.000743
1395	6.9700e-01	-15.7552	-2.197715	0.000006	0.057757	0.019569	-0.000471
1396	6.9750e-01	-15.7840	-2.203694	0.000015	0.146614	0.049674	-0.001196
1397	6.9800e-01	-15.8193	-2.208178	0.000011	0.109960	0.037256	-0.000897
1398	6.9850e-01	-15.8578	-2.216013	0.000019	0.192153	0.065103	-0.001567
1399	6.9900e-01	-15.9268	-2.218730	0.000007	0.066643	0.022579	-0.000543
1400	6.9950e-01	-15.9461	-2.222716	0.000010	0.097742	0.033116	-0.000797
1401	7.0000e-01	-15.9862	-2.226792	0.000010	0.099964	0.033869	-0.000815
1402	7.0050e-01	-16.0520	-2.231864	0.000012	0.124399	0.042148	-0.001015
1403	7.0100e-01	-16.0632	-2.236439	0.000011	0.112182	0.038008	-0.000915
1404	7.0150e-01	-16.1113	-2.239201	0.000007	0.067753	0.022955	-0.000553
1405	7.0200e-01	-16.1145	-2.245769	0.000016	0.161053	0.054566	-0.001313
1406	7.0250e-01	-16.1675	-2.248395	0.000006	0.064421	0.021826	-0.000525
1407	7.0300e-01	-16.2445	-2.252970	0.000011	0.112182	0.038008	-0.000915
1408	7.0350e-01	-16.2749	-2.256955	0.000010	0.097742	0.033116	-0.000797
1409	7.0400e-01	-16.2765	-2.261258	0.000011	0.105517	0.035750	-0.000861
1410	7.0450e-01	-16.3167	-2.265877	0.000011	0.113292	0.038385	-0.000924
1411	7.0500e-01	-16.3888	-2.271176	0.000013	0.129953	0.044029	-0.001060
1412	7.0550e-01	-16.4322	-2.274754	0.000009	0.087746	0.029729	-0.000716
1413	7.0600e-01	-16.4562	-2.279827	0.000012	0.124399	0.042148	-0.001015
1414	7.0650e-01	-16.4931	-2.283722	0.000010	0.095521	0.032363	-0.000779
1415	7.0700e-01	-16.5396	-2.286983	0.000008	0.079971	0.027095	-0.000652
1416	7.0750e-01	-16.5701	-2.291738	0.000012	0.116625	0.039513	-0.000951
1417	7.0800e-01	-16.6086	-2.297309	0.000014	0.136617	0.046287	-0.001114
1418	7.0850e-01	-16.6664	-2.301249	0.000010	0.096632	0.032740	-0.000788
1419	7.0900e-01	-16.7257	-2.305008	0.000009	0.092189	0.031234	-0.000752
1420	7.0950e-01	-16.7658	-2.310443	0.000013	0.133285	0.045158	-0.001087
1421	7.1000e-01	-16.7706	-2.315018	0.000011	0.112182	0.038008	-0.000915
1422	7.1050e-01	-16.8156	-2.318595	0.000009	0.087746	0.029729	-0.000716
1423	7.1100e-01	-16.8733	-2.324528	0.000015	0.145503	0.049298	-0.001187
1424	7.1150e-01	-16.9279	-2.326702	0.000005	0.053314	0.018063	-0.000435
1425	7.1200e-01	-16.9247	-2.331730	-0.000012	-0.123289	-0.041771	-0.001005
1426	7.1250e-01	-16.9664	-2.336530	0.000012	0.117735	0.039890	-0.000960
1427	7.1300e-01	-17.0145	-2.342690	0.000015	0.151057	0.051179	-0.001232
1428	7.1350e-01	-17.0706	-2.345860	0.000008	0.077750	0.026342	-0.000634
1429	7.1400e-01	-17.1043	-2.350253	0.000011	0.107739	0.036503	-0.000879
1430	7.1450e-01	-17.1509	-2.354194	0.000010	0.096632	0.032740	-0.000788
1431	7.1500e-01	-17.1845	-2.358587	0.000011	0.107739	0.036503	-0.000879
1432	7.1550e-01	-17.2038	-2.363161	0.000011	0.112182	0.038008	-0.000915
1433	7.1600e-01	-17.2487	-2.367917	0.000012	0.116625	0.039513	-0.000951
1434	7.1650e-01	-17.2808	-2.372808	0.000012	0.119957	0.040642	-0.000978
1435	7.1700e-01	-17.3289	-2.376567	0.000009	0.092189	0.031234	-0.000752
1436	7.1750e-01	-17.3722	-2.382274	0.000014	0.139949	0.047416	-0.001141
1437	7.1800e-01	-17.3995	-2.386078	0.000009	0.093300	0.031611	-0.000761
1438	7.1850e-01	-17.4332	-2.390698	0.000011	0.113292	0.038385	-0.000924
1439	7.1900e-01	-17.4958	-2.394412	0.000009	0.091078	0.030858	-0.000743
1440	7.1950e-01	-17.5230	-2.399575	0.000013	0.126621	0.042900	-0.001033
1441	7.2000e-01	-17.5888	-2.403153	0.000009	0.087746	0.029729	-0.000716
1442	7.2050e-01	-17.6434	-2.408587	0.000013	0.133285	0.045158	-0.001087
1443	7.2100e-01	-17.6482	-2.411486	0.000007	0.071085	0.024084	-0.000580
1444	7.2150e-01	-17.6931	-2.417736	0.000015	0.153278	0.051932	-0.001250
1445	7.2200e-01	-17.7444	-2.421767	0.000010	0.098853	0.033492	-0.000806
1446	7.2250e-01	-17.7717	-2.425435	0.000009	0.089967	0.030482	-0.000734
1447	7.2300e-01	-17.8150	-2.429829	0.000011	0.107739	0.036503	-0.000879
1448	7.2350e-01	-17.8599	-2.435762	0.000015	0.145503	0.049298	-0.001187
1449	7.2400e-01	-17.9113	-2.438887	0.000008	0.076639	0.025966	-0.000625
1450	7.2450e-01	-17.9385	-2.442827	0.000010	0.096632	0.032740	-0.000788
1451	7.2500e-01	-17.9851	-2.448669	0.000014	0.143282	0.048545	-0.001168
1452	7.2550e-01	-18.0155	-2.452247	0.000009	0.087746	0.029729	-0.000716
1453	7.2600e-01	-18.0621	-2.457999	0.000014	0.141060	0.047792	-0.001150
1454	7.2650e-01	-18.0957	-2.461260	0.000008	0.079971	0.027095	-0.000652
1455	7.2700e-01	-18.1423	-2.466242	0.000012	0.122178	0.041395	-0.000996
1456	7.2750e-01	-18.2016	-2.471179	0.000012	0.121067	0.041019	-0.000987
1457	7.2800e-01	-18.2177	-2.474757	0.000009	0.087746	0.029729	-0.000716
1458	7.2850e-01	-18.2449	-2.478788	0.000010	0.098853	0.033492	-0.000806
1459	7.2900e-01	-18.2899	-2.483724	0.000012	0.121067	0.041019	-0.000987
1460	7.2950e-01	-18.3540	-2.487574	0.000009	0.094410	0.031987	-0.000770
1461	7.3000e-01	-18.3989	-2.492873	0.000013	0.129953	0.044029	-0.001060
1462	7.3050e-01	-18.4134	-2.496179	0.000008	0.081082	0.027471	-0.000661
1463	7.3100e-01	-18.4920	-2.500029	0.000009	0.094410	0.031987	-0.000770
1464	7.3150e-01	-18.5273	-2.506551	0.000016	0.159942	0.054190	-0.001304
1465	7.3200e-01	-18.5449	-2.508589	0.000005	0.049982	0.016934	-0.000408
1466	7.3250e-01	-18.5947	-2.515201	0.000016	0.162164	0.054943	-0.001322
1467	7.3300e-01	-18.6187	-2.518915	0.000009	0.091078	0.030858	-0.000743
1468	7.3350e-01	-18.6781	-2.523851	0.000012	0.121067	0.041019	-0.000987
1469	7.3400e-01	-18.6973	-2.529603	0.000014	0.141060	0.047792	-0.001150
1470	7.3450e-01	-18.7326	-2.532683	0.000008	0.075528	0.025590	-0.000616
1471	7.3500e-01	-18.7679	-2.537031	0.000011	0.106628	0.036127	-0.000870
1472	7.3550e-01	-18.8160	-2.541968	0.000012	0.121067	0.041019	-0.000987
1473	7.3600e-01	-18.8674	-2.545908	0.000010	0.096632	0.032740	-0.000788
1474	7.3650e-01	-18.9139	-2.551977	0.000015	0.148835	0.050427	-0.001214
1475	7.3700e-01	-18.9171	-2.555374	0.000008	0.083303	0.028224	-0.000679
1476	7.3750e-01	-18.9877	-2.560491	0.000013	0.125510	0.042524	-0.001024
1477	7.3800e-01	-19.0230	-2.564658	0.000010	0.102185	0.034621	-0.000833
1478	7.3850e-01	-19.0823	-2.569051	0.000011	0.107739	0.036503	-0.000879
1479	7.3900e-01	-19.0920	-2.574350	0.000013	0.129953	0.044029	-0.001060
1480	7.3950e-01	-19.1433	-2.579015	0.000011	0.114403	0.038761	-0.000933
1481	7.4000e-01	-19.1914	-2.585310	0.000015	0.154389	0.052308	-0.001259
1482	7.4050e-01	-19.2011	-2.588300	0.000007	0.073307	0.024837	-0.000598
1483	7.4100e-01	-19.2492	-2.592421	0.000010	0.101075	0.034245	-0.000824
1484	7.4150e-01	-19.3069	-2.597403	0.000012	0.122178	0.041395	-0.000996
1485	7.4200e-01	-19.2957	-2.603019	-0.000014	-0.137728	-0.046664	-0.001123
1486	7.4250e-01	-19.4112	-2.606370	0.000008	0.082193	0.027848	-0.000670
1487	7.4300e-01	-19.4224	-2.610356	0.000010	0.097742	0.033116	-0.000797
1488	7.4350e-01	-19.4561	-2.616108	0.000014	0.141060	0.047792	-0.001150
1489	7.4400e-01	-19.5267	-2.619324	0.000008	0.078860	0.026719	-0.000643
1490	7.4450e-01	-19.5251	-2.624079	-0.000012	-0.116625	-0.039513	-0.000951
1491	7.4500e-01	-19.5668	-2.629604	0.000014	0.135507	0.045911	-0.001105
1492	7.4550e-01	-19.6166	-2.633545	0.000010	0.096632	0.032740	-0.000788
1493	7.4600e-01	-19.6422	-2.638753	0.000013	0.127732	0.043277	-0.001042
1494	7.4650e-01	-19.7160	-2.645184	0.000016	0.157721	0.053437	-0.001286
1495	7.4700e-01	-19.7064	-2.649351	-0.000010	-0.102185	-0.034621	-0.000833
1496	7.4750e-01	-19.7882	-2.654514	0.000013	0.126621	0.042900	-0.001033
1497	7.4800e-01	-19.8283	-2.658409	0.000010	0.095521	0.032363	-0.000779
1498	7.4850e-01	-19.8668	-2.662621	0.000010	0.103296	0.034998	-0.000842
1499	7.4900e-01	-19.8909	-2.667014	0.000011	0.107739	0.036503	-0.000879
1500	7.4950e-01	-19.9246	-2.671136	0.000010	0.101075	0.034245	-0.000824
1501	7.5000e-01	-19.9855	-2.675484	0.000011	0.106628	0.036127	-0.000870
1502	7.5050e-01	-19.9358	-2.676072	-0.000001	-0.014439	-0.004892	-0.000118
1503	7.5100e-01	-19.8508	-2.677522	-0.000004	-0.035543	-0.012042	-0.000290
1504	7.5150e-01	-19.8460	-2.676842	0.000002	0.016661	0.005645	0.000136
1505	7.5200e-01	-19.8251	-2.674759	0.000005	0.051093	0.017311	0.000417
1506	7.5250e-01	-19.7449	-2.672223	0.000006	0.062200	0.021074	0.000507
1507	7.5300e-01	-19.7048	-2.669732	0.000006	0.061089	0.020698	0.000498
1508	7.5350e-01	-19.6759	-2.667467	0.000006	0.055535	0.018816	0.000453
1509	7.5400e-01	-19.6390	-2.665339	0.000005	0.052203	0.017687	0.000426
1510	7.5450e-01	-19.5813	-2.663165	0.000005	0.053314	0.018063	0.000435
1511	7.5500e-01	-19.5476	-2.663391	-0.000001	-0.005554	-0.001882	-0.000045
1512	7.5550e-01	-19.5171	-2.658364	0.000012	0.123289	0.041771	0.001005
1513	7.5600e-01	-19.4658	-2.656280	0.000005	0.051093	0.017311	0.000417
1514	7.5650e-01	-19.4449	-2.654605	0.000004	0.041096	0.013924	0.000335
1515	7.5700e-01	-19.4257	-2.651887	0.000007	0.066643	0.022579	0.000543
1516	7.5750e-01	-19.3615	-2.649849	0.000005	0.049982	0.016934	0.000408
1517	7.5800e-01	-19.2925	-2.646271	0.000009	0.087746	0.029729	0.000716
1518	7.5850e-01	-19.3085	-2.643373	-0.000007	-0.071085	-0.024084	0.000580
1519	7.5900e-01	-19.2476	-2.640157	0.000008	0.078860	0.026719	0.000643
1520	7.5950e-01	-19.1979	-2.639704	0.000001	0.011107	0.003763	0.000091
1521	7.6000e-01	-19.1658	-2.636217	0.000009	0.085525	0.028977	0.000697
1522	7.6050e-01	-19.1289	-2.633726	0.000006	0.061089	0.020698	0.000498
1523	7.6100e-01	-19.0920	-2.631597	0.000005	0.052203	0.017687	0.000426
1524	7.6150e-01	-19.0471	-2.629423	0.000005	0.053314	0.018063	0.000435
1525	7.6200e-01	-19.0086	-2.626344	0.000008	0.075528	0.025590	0.000616
1526	7.6250e-01	-18.9396	-2.623807	0.000006	0.062200	0.021074	0.000507
1527	7.6300e-01	-18.9299	-2.620275	0.000009	0.086635	0.029353	0.000707
1528	7.6350e-01	-18.8626	-2.617512	0.000007	0.067753	0.022955	0.000553
1529	7.6400e-01	-18.8209	-2.614749	0.000007	0.067753	0.022955	0.000553
1530	7.6450e-01	-18.8000	-2.610990	0.000009	0.092189	0.031234	0.000752
1531	7.6500e-01	-18.7503	-2.608318	0.000007	0.065532	0.022203	0.000534
1532	7.6550e-01	-18.7005	-2.605419	0.000007	0.071085	0.024084	0.000580
1533	7.6600e-01	-18.6620	-2.602068	0.000008	0.082193	0.027848	0.000670
1534	7.6650e-01	-18.6524	-2.599169	0.000007	0.071085	0.024084	0.000580
1535	7.6700e-01	-18.5706	-2.595456	0.000009	0.091078	0.030858	0.000743
1536	7.6750e-01	-18.5594	-2.591968	0.000009	0.085525	0.028977	0.000697
1537	7.6800e-01	-18.5225	-2.591968	0.000000	0.000000	0.000000	0.000000
1538	7.6850e-01	-18.4904	-2.588571	0.000008	0.083303	0.028224	0.000679
1539	7.6900e-01	-18.4374	-2.584858	0.000009	0.091078	0.030858	0.000743
1540	7.6950e-01	-18.3765	-2.582502	0.000006	0.057757	0.019569	0.000471
1541	7.7000e-01	-18.3572	-2.580057	0.000006	0.059978	0.020321	0.000489
1542	7.7050e-01	-18.3203	-2.576886	0.000008	0.077750	0.026342	0.000634
1543	7.7100e-01	-18.2642	-2.572720	0.000010	0.102185	0.034621	0.000833
1544	7.7150e-01	-18.2241	-2.570455	0.000006	0.055535	0.018816	0.000453
1545	7.7200e-01	-18.2080	-2.566560	0.000010	0.095521	0.032363	0.000779
1546	7.7250e-01	-18.1503	-2.564885	0.000004	0.041096	0.013924	0.000335
1547	7.7300e-01	-18.1359	-2.561941	0.000007	0.072196	0.024461	0.000589
1548	7.7350e-01	-18.0588	-2.558861	0.000008	0.075528	0.025590	0.000616
1549	7.7400e-01	-18.0203	-2.555917	0.000007	0.072196	0.024461	0.000589
1550	7.7450e-01	-18.0043	-2.551750	0.000010	0.102185	0.034621	0.000833
1551	7.7500e-01	-17.9610	-2.548399	0.000008	0.082193	0.027848	0.000670
1552	7.7550e-01	-17.9642	-2.545138	-0.000008	-0.079971	-0.027095	0.000652
1553	7.7600e-01	-17.8663	-2.540428	0.000012	0.115514	0.039137	0.000942
1554	7.7650e-01	-17.8294	-2.537846	0.000006	0.063310	0.021450	0.000516
1555	7.7700e-01	-17.8214	-2.536261	0.000004	0.038875	0.013171	0.000317
1556	7.7750e-01	-17.7508	-2.531551	0.000012	0.115514	0.039137	0.000942
1557	7.7800e-01	-17.7236	-2.529603	0.000005	0.047761	0.016182	0.000389
1558	7.7850e-01	-17.6899	-2.527022	0.000006	0.063310	0.021450	0.000516
1559	7.7900e-01	-17.6065	-2.524168	0.000007	0.069975	0.023708	0.000571
1560	7.7950e-01	-17.6065	-2.521360	-0.000007	-0.068864	-0.023332	0.000562
1561	7.8000e-01	-17.5423	-2.517058	0.000011	0.105517	0.035750	0.000861
1562	7.8050e-01	-17.5006	-2.514159	0.000007	0.071085	0.024084	0.000580
1563	7.8100e-01	-17.5054	-2.510898	-0.000008	-0.079971	-0.027095	0.000652
1564	7.8150e-01	-17.4444	-2.507139	0.000009	0.092189	0.031234	0.000752
1565	7.8200e-01	-17.3979	-2.503833	0.000008	0.081082	0.027471	0.000661
1566	7.8250e-01	-17.3706	-2.500663	0.000008	0.077750	0.026342	0.000634
1567	7.8300e-01	-17.3161	-2.498896	0.000004	0.043318	0.014676	0.000353
1568	7.8350e-01	-17.2728	-2.494684	0.000010	0.103296	0.034998	0.000842
1569	7.8400e-01	-17.2343	-2.491288	0.000008	0.083303	0.028224	0.000679
1570	7.8450e-01	-17.1974	-2.487529	0.000009	0.092189	0.031234	0.000752
1571	7.8500e-01	-17.1589	-2.483860	0.000009	0.089967	0.030482	0.000734
1572	7.8550e-01	-17.0899	-2.482456	0.000003	0.034432	0.011666	0.000281
1573	7.8600e-01	-17.0851	-2.479014	0.000008	0.084414	0.028600	0.000688
1574	7.8650e-01	-17.0337	-2.476342	0.000007	0.065532	0.022203	0.000534
1575	7.8700e-01	-16.9872	-2.471949	0.000011	0.107739	0.036503	0.000879
1576	7.8750e-01	-16.9295	-2.467782	0.000010	0.102185	0.034621	0.000833
1577	7.8800e-01	-16.9295	-2.465744	-0.000005	-0.049982	-0.016934	0.000408
1578	7.8850e-01	-16.8525	-2.462347	0.000008	0.083303	0.028224	0.000679
1579	7.8900e-01	-16.8396	-2.458316	0.000010	0.098853	0.033492	0.000806
1580	7.8950e-01	-16.7755	-2.454059	0.000010	0.104407	0.035374	0.000851
1581	7.9000e-01	-16.7530	-2.451206	0.000007	0.069975	0.023708	0.000571
1582	7.9050e-01	-16.7386	-2.448307	0.000007	0.071085	0.024084	0.000580
1583	7.9100e-01	-16.6696	-2.444820	0.000009	0.085525	0.028977	0.000697
1584	7.9150e-01	-16.6487	-2.441151	0.000009	0.089967	0.030482	0.000734
1585	7.9200e-01	-16.6199	-2.439204	0.000005	0.047761	0.016182	0.000389
1586	7.9250e-01	-16.5236	-2.436079	0.000008	0.076639	0.025966	0.000625
1587	7.9300e-01	-16.5124	-2.432999	0.000008	0.075528	0.025590	0.000616
1588	7.9350e-01	-16.4931	-2.427836	0.000013	0.126621	0.042900	0.001033
1589	7.9400e-01	-16.4257	-2.425617	0.000005	0.054425	0.018440	0.000444
1590	7.9450e-01	-16.3985	-2.422084	0.000009	0.086635	0.029353	0.000707
1591	7.9500e-01	-16.3503	-2.419412	0.000007	0.065532	0.022203	0.000534
1592	7.9550e-01	-16.3215	-2.414792	0.000011	0.113292	0.038385	0.000924
1593	7.9600e-01	-16.2765	-2.411577	0.000008	0.078860	0.026719	0.000643
1594	7.9650e-01	-16.2188	-2.406776	0.000012	0.117735	0.039890	0.000960
1595	7.9700e-01	-16.2011	-2.404149	0.000006	0.064421	0.021826	0.000525
1596	7.9750e-01	-16.1610	-2.400662	0.000009	0.085525	0.028977	0.000697
1597	7.9800e-01	-16.0985	-2.397854	0.000007	0.068864	0.023332	0.000562
1598	7.9850e-01	-16.0889	-2.393959	0.000010	0.095521	0.032363	0.000779
1599	7.9900e-01	-16.0664	-2.391558	0.000006	0.058868	0.019945	0.000480
1600	7.9950e-01	-15.9926	-2.386667	0.000012	0.119957	0.040642	0.000978
1601	8.0000e-01	-15.9348	-2.383768	0.000007	0.071085	0.024084	0.000580
1602	8.0050e-01	-15.8963	-2.379647	0.000010	0.101075	0.034245	0.000824
1603	8.0100e-01	-15.8627	-2.377292	0.000006	0.057757	0.019569	0.000471
1604	8.0150e-01	-15.8498	-2.374076	0.000008	0.078860	0.026719	0.000643
1605	8.0200e-01	-15.8001	-2.369864	0.000010	0.103296	0.034998	0.000842
1606	8.0250e-01	-15.7520	-2.365199	0.000011	0.114403	0.038761	0.000933
1607	8.0300e-01	-15.7295	-2.362210	0.000007	0.073307	0.024837	0.000598
1608	8.0350e-01	-15.6878	-2.358179	0.000010	0.098853	0.033492	0.000806
1609	8.0400e-01	-15.6204	-2.355779	0.000006	0.058868	0.019945	0.000480
1610	8.0450e-01	-15.5835	-2.352563	0.000008	0.078860	0.026719	0.000643
1611	8.0500e-01	-15.5578	-2.348668	0.000010	0.095521	0.032363	0.000779
1612	8.0550e-01	-15.5210	-2.344954	0.000009	0.091078	0.030858	0.000743
1613	8.0600e-01	-15.4808	-2.340833	0.000010	0.101075	0.034245	0.000824
1614	8.0650e-01	-15.4022	-2.338433	0.000006	0.058868	0.019945	0.000480
1615	8.0700e-01	-15.4071	-2.334402	-0.000010	-0.098853	-0.033492	0.000806
1616	8.0750e-01	-15.3493	-2.330462	0.000010	0.096632	0.032740	0.000788
1617	8.0800e-01	-15.3220	-2.327427	0.000007	0.074418	0.025213	0.000607
1618	8.0850e-01	-15.2643	-2.324846	0.000006	0.063310	0.021450	0.000516
1619	8.0900e-01	-15.2546	-2.321811	0.000007	0.074418	0.025213	0.000607
1620	8.0950e-01	-15.1793	-2.316693	0.000013	0.125510	0.042524	0.001024
1621	8.1000e-01	-15.1391	-2.312979	0.000009	0.091078	0.030858	0.000743
1622	8.1050e-01	-15.1055	-2.310081	0.000007	0.071085	0.024084	0.000580
1623	8.1100e-01	-15.0814	-2.305778	0.000011	0.105517	0.035750	0.000861
1624	8.1150e-01	-15.0140	-2.302110	0.000009	0.089967	0.030482	0.000734
1625	8.1200e-01	-14.9819	-2.297626	0.000011	0.109960	0.037256	0.000897
1626	8.1250e-01	-14.9723	-2.295769	0.000005	0.045539	0.015429	0.000371
1627	8.1300e-01	-14.9274	-2.292780	0.000007	0.073307	0.024837	0.000598
1628	8.1350e-01	-14.8504	-2.289157	0.000009	0.088857	0.030105	0.000725
1629	8.1400e-01	-14.8247	-2.284175	0.000012	0.122178	0.041395	0.000996
1630	8.1450e-01	-14.7782	-2.281910	0.000006	0.055535	0.018816	0.000453
1631	8.1500e-01	-14.7269	-2.277245	0.000011	0.114403	0.038761	0.000933
1632	8.1550e-01	-14.6739	-2.274664	0.000006	0.063310	0.021450	0.000516
1633	8.1600e-01	-14.6707	-2.270950	0.000009	0.091078	0.030858	0.000743
1634	8.1650e-01	-14.6146	-2.265470	0.000013	0.134396	0.045535	0.001096
1635	8.1700e-01	-14.5696	-2.262617	0.000007	0.069975	0.023708	0.000571
1636	8.1750e-01	-14.5392	-2.259446	0.000008	0.077750	0.026342	0.000634
1637	8.1800e-01	-14.4975	-2.255234	0.000010	0.103296	0.034998	0.000842
1638	8.1850e-01	-14.4878	-2.252019	0.000008	0.078860	0.026719	0.000643
1639	8.1900e-01	-14.4253	-2.247354	0.000011	0.114403	0.038761	0.000933
1640	8.1950e-01	-14.3691	-2.244682	0.000007	0.065532	0.022203	0.000534
1641	8.2000e-01	-14.3611	-2.241013	0.000009	0.089967	0.030482	0.000734
1642	8.2050e-01	-14.3082	-2.236348	0.000011	0.114403	0.038761	0.000933
1643	8.2100e-01	-14.2408	-2.233495	0.000007	0.069975	0.023708	0.000571
1644	8.2150e-01	-14.2600	-2.230098	-0.000008	-0.083303	-0.028224	0.000679
1645	8.2200e-01	-14.2039	-2.224301	0.000014	0.142171	0.048169	0.001159
1646	8.2250e-01	-14.1477	-2.221719	0.000006	0.063310	0.021450	0.000516
1647	8.2300e-01	-14.1076	-2.218866	0.000007	0.069975	0.023708	0.000571
1648	8.2350e-01	-14.1028	-2.215605	0.000008	0.079971	0.027095	0.000652
1649	8.2400e-01	-14.0146	-2.210397	0.000013	0.127732	0.043277	0.001042
1650	8.2450e-01	-13.9793	-2.206728	0.000009	0.089967	0.030482	0.000734
1651	8.2500e-01	-13.9520	-2.204101	0.000006	0.064421	0.021826	0.000525
1652	8.2550e-01	-13.9039	-2.200840	0.000008	0.079971	0.027095	0.000652
1653	8.2600e-01	-13.8397	-2.195315	0.000014	0.135507	0.045911	0.001105
1654	8.2650e-01	-13.8012	-2.193096	0.000005	0.054425	0.018440	0.000444
1655	8.2700e-01	-13.8124	-2.187117	-0.000015	-0.146614	-0.049674	0.001196
1656	8.2750e-01	-13.7579	-2.183902	0.000008	0.078860	0.026719	0.000643
1657	8.2800e-01	-13.7066	-2.181003	0.000007	0.071085	0.024084	0.000580
1658	8.2850e-01	-13.6873	-2.176565	0.000011	0.108850	0.036879	0.000888
1659	8.2900e-01	-13.6584	-2.174164	0.000006	0.058868	0.019945	0.000480
1660	8.2950e-01	-13.5750	-2.169137	0.000012	0.123289	0.041771	0.001005
1661	8.3000e-01	-13.5381	-2.165423	0.000009	0.091078	0.030858	0.000743
1662	8.3050e-01	-13.4996	-2.162842	0.000006	0.063310	0.021450	0.000516
1663	8.3100e-01	-13.4691	-2.159083	0.000009	0.092189	0.031234	0.000752
1664	8.3150e-01	-13.4483	-2.156003	0.000008	0.075528	0.025590	0.000616
1665	8.3200e-01	-13.3873	-2.150613	0.000013	0.132174	0.044782	0.001078
1666	8.3250e-01	-13.3392	-2.145224	0.000013	0.132174	0.044782	0.001078
1667	8.3300e-01	-13.3183	-2.141827	0.000008	0.083303	0.028224	0.000679
1668	8.3350e-01	-13.2798	-2.139925	0.000005	0.046650	0.015805	0.000380
1669	8.3400e-01	-13.2317	-2.136845	0.000008	0.075528	0.025590	0.000616
1670	8.3450e-01	-13.1708	-2.132724	0.000010	0.101075	0.034245	0.000824
1671	8.3500e-01	-13.1691	-2.127108	0.000014	0.137728	0.046664	0.001123
1672	8.3550e-01	-13.1130	-2.121446	0.000014	0.138839	0.047040	0.001132
1673	8.3600e-01	-13.0633	-2.118820	0.000006	0.064421	0.021826	0.000525
1674	8.3650e-01	-13.0344	-2.116419	0.000006	0.058868	0.019945	0.000480
1675	8.3700e-01	-12.9975	-2.111573	0.000012	0.118846	0.040266	0.000969
1676	8.3750e-01	-12.9093	-2.107859	0.000009	0.091078	0.030858	0.000743
1677	8.3800e-01	-12.8980	-2.103738	0.000010	0.101075	0.034245	0.000824
1678	8.3850e-01	-12.8740	-2.100568	0.000008	0.077750	0.026342	0.000634
1679	8.3900e-01	-12.8499	-2.098212	0.000006	0.057757	0.019569	0.000471
1680	8.3950e-01	-12.7793	-2.094453	0.000009	0.092189	0.031234	0.000752
1681	8.4000e-01	-12.7456	-2.089924	0.000011	0.111071	0.037632	0.000906
1682	8.4050e-01	-12.6879	-2.085395	0.000011	0.111071	0.037632	0.000906
1683	8.4100e-01	-12.6702	-2.080912	0.000011	0.109960	0.037256	0.000897
1684	8.4150e-01	-12.6173	-2.077152	0.000009	0.092189	0.031234	0.000752
1685	8.4200e-01	-12.5948	-2.073892	0.000008	0.079971	0.027095	0.000652
1686	8.4250e-01	-12.5467	-2.070857	0.000007	0.074418	0.025213	0.000607
1687	8.4300e-01	-12.5307	-2.065196	0.000014	0.138839	0.047040	0.001132
1688	8.4350e-01	-12.4456	-2.061391	0.000009	0.093300	0.031611	0.000761
1689	8.4400e-01	-12.4280	-2.057949	0.000008	0.084414	0.028600	0.000688
1690	8.4450e-01	-12.3975	-2.054960	0.000007	0.073307	0.024837	0.000598
1691	8.4500e-01	-12.3670	-2.050159	0.000012	0.117735	0.039890	0.000960
1692	8.4550e-01	-12.3045	-2.046627	0.000009	0.086635	0.029353	0.000707
1693	8.4600e-01	-12.2403	-2.041690	0.000012	0.121067	0.041019	0.000987
1694	8.4650e-01	-12.2419	-2.037659	-0.000010	-0.098853	-0.033492	0.000806
1695	8.4700e-01	-12.1841	-2.034715	0.000007	0.072196	0.024461	0.000589
1696	8.4750e-01	-12.1585	-2.029371	0.000013	0.131064	0.044406	0.001069
1697	8.4800e-01	-12.1087	-2.025703	0.000009	0.089967	0.030482	0.000734
1698	8.4850e-01	-12.0622	-2.021536	0.000010	0.102185	0.034621	0.000833
1699	8.4900e-01	-12.0414	-2.018094	0.000008	0.084414	0.028600	0.000688
1700	8.4950e-01	-12.0093	-2.014923	0.000008	0.077750	0.026342	0.000634
1701	8.5000e-01	-11.9660	-2.009443	0.000013	0.134396	0.045535	0.001096
1702	8.5050e-01	-11.9211	-2.006092	0.000008	0.082193	0.027848	0.000670
1703	8.5100e-01	-11.8761	-2.002559	0.000009	0.086635	0.029353	0.000707
1704	8.5150e-01	-11.8264	-1.998302	0.000010	0.104407	0.035374	0.000851
1705	8.5200e-01	-11.8039	-1.993501	0.000012	0.117735	0.039890	0.000960
1706	8.5250e-01	-11.7302	-1.990648	0.000007	0.069975	0.023708	0.000571
1707	8.5300e-01	-11.7061	-1.986753	0.000010	0.095521	0.032363	0.000779
1708	8.5350e-01	-11.6740	-1.981997	0.000012	0.116625	0.039513	0.000951
1709	8.5400e-01	-11.6676	-1.977378	0.000011	0.113292	0.038385	0.000924
1710	8.5450e-01	-11.5970	-1.974026	0.000008	0.082193	0.027848	0.000670
1711	8.5500e-01	-11.5601	-1.969316	0.000012	0.115514	0.039137	0.000942
1712	8.5550e-01	-11.5040	-1.966327	0.000007	0.073307	0.024837	0.000598
1713	8.5600e-01	-11.4815	-1.962115	0.000010	0.103296	0.034998	0.000842
1714	8.5650e-01	-11.4286	-1.958356	0.000009	0.092189	0.031234	0.000752
1715	8.5700e-01	-11.3917	-1.953464	0.000012	0.119957	0.040642	0.000978
1716	8.5750e-01	-11.3516	-1.948301	0.000013	0.126621	0.042900	0.001033
1717	8.5800e-01	-11.3147	-1.945357	0.000007	0.072196	0.024461	0.000589
1718	8.5850e-01	-11.2569	-1.941100	0.000010	0.104407	0.035374	0.000851
1719	8.5900e-01	-11.2152	-1.936164	0.000012	0.121067	0.041019	0.000987
1720	8.5950e-01	-11.1863	-1.932857	0.000008	0.081082	0.027471	0.000661
1721	8.6000e-01	-11.1462	-1.929461	0.000008	0.083303	0.028224	0.000679
1722	8.6050e-01	-11.1061	-1.925339	0.000010	0.101075	0.034245	0.000824
1723	8.6100e-01	-11.0724	-1.920901	0.000011	0.108850	0.036879	0.000888
1724	8.6150e-01	-11.0323	-1.917142	0.000009	0.092189	0.031234	0.000752
1725	8.6200e-01	-11.0195	-1.913382	0.000009	0.092189	0.031234	0.000752
1726	8.6250e-01	-10.9842	-1.907042	0.000016	0.155499	0.052685	0.001268
1727	8.6300e-01	-10.8847	-1.903373	0.000009	0.089967	0.030482	0.000734
1728	8.6350e-01	-10.8382	-1.900112	0.000008	0.079971	0.027095	0.000652
1729	8.6400e-01	-10.8141	-1.895402	0.000012	0.115514	0.039137	0.000942
1730	8.6450e-01	-10.8029	-1.892866	0.000006	0.062200	0.021074	0.000507
1731	8.6500e-01	-10.7259	-1.888835	0.000010	0.098853	0.033492	0.000806
1732	8.6550e-01	-10.6954	-1.883944	0.000012	0.119957	0.040642	0.000978
1733	8.6600e-01	-10.6762	-1.880411	0.000009	0.086635	0.029353	0.000707
1734	8.6650e-01	-10.6393	-1.873980	0.000016	0.157721	0.053437	0.001286
1735	8.6700e-01	-10.6008	-1.870492	0.000009	0.085525	0.028977	0.000697
1736	8.6750e-01	-10.5414	-1.866733	0.000009	0.092189	0.031234	0.000752
1737	8.6800e-01	-10.5125	-1.862431	0.000011	0.105517	0.035750	0.000861
1738	8.6850e-01	-10.4708	-1.857358	0.000012	0.124399	0.042148	0.001015
1739	8.6900e-01	-10.4227	-1.853644	0.000009	0.091078	0.030858	0.000743
1740	8.6950e-01	-10.4067	-1.848889	0.000012	0.116625	0.039513	0.000951
1741	8.7000e-01	-10.3585	-1.845266	0.000009	0.088857	0.030105	0.000725
1742	8.7050e-01	-10.3024	-1.840284	0.000012	0.122178	0.041395	0.000996
1743	8.7100e-01	-10.2655	-1.835166	0.000013	0.125510	0.042524	0.001024
1744	8.7150e-01	-10.2222	-1.832947	0.000005	0.054425	0.018440	0.000444
1745	8.7200e-01	-10.2109	-1.827693	0.000013	0.128842	0.043653	0.001051
1746	8.7250e-01	-10.1371	-1.823028	0.000011	0.114403	0.038761	0.000933
1747	8.7300e-01	-10.1307	-1.819360	0.000009	0.089967	0.030482	0.000734
1748	8.7350e-01	-10.0698	-1.814921	0.000011	0.108850	0.036879	0.000888
1749	8.7400e-01	-10.0345	-1.810392	0.000011	0.111071	0.037632	0.000906
1750	8.7450e-01	-9.9783	-1.806452	0.000010	0.096632	0.032740	0.000788
1751	8.7500e-01	-9.9591	-1.802557	0.000010	0.095521	0.032363	0.000779
1752	8.7550e-01	-9.9238	-1.798979	0.000009	0.087746	0.029729	0.000716
1753	8.7600e-01	-9.8853	-1.792593	0.000016	0.156610	0.053061	0.001277
1754	8.7650e-01	-9.8452	-1.789106	0.000009	0.085525	0.028977	0.000697
1755	8.7700e-01	-9.7682	-1.785120	0.000010	0.097742	0.033116	0.000797
1756	8.7750e-01	-9.7505	-1.780636	0.000011	0.109960	0.037256	0.000897
1757	8.7800e-01	-9.7152	-1.776741	0.000010	0.095521	0.032363	0.000779
1758	8.7850e-01	-9.6302	-1.771759	0.000012	0.122178	0.041395	0.000996
1759	8.7900e-01	-9.6206	-1.766732	0.000012	0.123289	0.041771	0.001005
1760	8.7950e-01	-9.5933	-1.761886	0.000012	0.118846	0.040266	0.000969
1761	8.8000e-01	-9.5404	-1.758671	0.000008	0.078860	0.026719	0.000643
1762	8.8050e-01	-9.5115	-1.753779	0.000012	0.119957	0.040642	0.000978
1763	8.8100e-01	-9.4425	-1.749114	0.000011	0.114403	0.038761	0.000933
1764	8.8150e-01	-9.4537	-1.745808	-0.000008	-0.081082	-0.027471	0.000661
1765	8.8200e-01	-9.4040	-1.740600	0.000013	0.127732	0.043277	0.001042
1766	8.8250e-01	-9.3222	-1.737158	0.000008	0.084414	0.028600	0.000688
1767	8.8300e-01	-9.2901	-1.731904	0.000013	0.128842	0.043653	0.001051
1768	8.8350e-01	-9.3110	-1.726786	-0.000013	-0.125510	-0.042524	0.001024
1769	8.8400e-01	-9.2275	-1.721487	0.000013	0.129953	0.044029	0.001060
1770	8.8450e-01	-9.1714	-1.718860	0.000006	0.064421	0.021826	0.000525
1771	8.8500e-01	-9.1618	-1.715146	0.000009	0.091078	0.030858	0.000743
1772	8.8550e-01	-9.1169	-1.710617	0.000011	0.111071	0.037632	0.000906
1773	8.8600e-01	-9.0960	-1.706315	0.000011	0.105517	0.035750	0.000861
1774	8.8650e-01	-9.0270	-1.701152	0.000013	0.126621	0.042900	0.001033
1775	8.8700e-01	-8.9821	-1.696487	0.000011	0.114403	0.038761	0.000933
1776	8.8750e-01	-8.9596	-1.692230	0.000010	0.104407	0.035374	0.000851
1777	8.8800e-01	-8.9019	-1.686523	0.000014	0.139949	0.047416	0.001141
1778	8.8850e-01	-8.8538	-1.682719	0.000009	0.093300	0.031611	0.000761
1779	8.8900e-01	-8.8249	-1.678914	0.000009	0.093300	0.031611	0.000761
1780	8.8950e-01	-8.8169	-1.673706	0.000013	0.127732	0.043277	0.001042
1781	8.9000e-01	-8.7719	-1.667727	0.000015	0.146614	0.049674	0.001196
1782	8.9050e-01	-8.6998	-1.664602	0.000008	0.076639	0.025966	0.000625
1783	8.9100e-01	-8.6901	-1.661613	0.000007	0.073307	0.024837	0.000598
1784	8.9150e-01	-8.6195	-1.656043	0.000014	0.136617	0.046287	0.001114
1785	8.9200e-01	-8.5875	-1.650064	0.000015	0.146614	0.049674	0.001196
1786	8.9250e-01	-8.5361	-1.646486	0.000009	0.087746	0.029729	0.000716
1787	8.9300e-01	-8.5233	-1.641187	0.000013	0.129953	0.044029	0.001060
1788	8.9350e-01	-8.4607	-1.637655	0.000009	0.086635	0.029353	0.000707
1789	8.9400e-01	-8.4527	-1.632809	0.000012	0.118846	0.040266	0.000969
1790	8.9450e-01	-8.3677	-1.628008	0.000012	0.117735	0.039890	0.000960
1791	8.9500e-01	-8.3404	-1.623660	0.000011	0.106628	0.036127	0.000870
1792	8.9550e-01	-8.3083	-1.618904	0.000012	0.116625	0.039513	0.000951
1793	8.9600e-01	-8.2538	-1.613968	0.000012	0.121067	0.041019	0.000987
1794	8.9650e-01	-8.2522	-1.608171	0.000014	0.142171	0.048169	0.001159
1795	8.9700e-01	-8.2073	-1.604457	0.000009	0.091078	0.030858	0.000743
1796	8.9750e-01	-8.1623	-1.600381	0.000010	0.099964	0.033869	0.000815
1797	8.9800e-01	-8.1062	-1.594946	0.000013	0.133285	0.045158	0.001087
1798	8.9850e-01	-8.0709	-1.590009	0.000012	0.121067	0.041019	0.000987
1799	8.9900e-01	-8.0276	-1.585163	0.000012	0.118846	0.040266	0.000969
1800	8.9950e-01	-8.0196	-1.582129	0.000007	0.074418	0.025213	0.000607
1801	9.0000e-01	-7.9265	-1.576241	0.000014	0.144392	0.048921	0.001178
1802	9.0050e-01	-7.8880	-1.571531	0.000012	0.115514	0.039137	0.000942
1803	9.0100e-01	-7.9073	-1.566096	-0.000013	-0.133285	-0.045158	0.001087
1804	9.0150e-01	-7.8415	-1.561522	0.000011	0.112182	0.038008	0.000915
1805	9.0200e-01	-7.7372	-1.557445	0.000010	0.099964	0.033869	0.000815
1806	9.0250e-01	-7.7452	-1.551875	-0.000014	-0.136617	-0.046287	0.001114
1807	9.0300e-01	-7.6907	-1.547029	0.000012	0.118846	0.040266	0.000969
1808	9.0350e-01	-7.6474	-1.542318	0.000012	0.115514	0.039137	0.000942
1809	9.0400e-01	-7.6458	-1.537608	0.000012	0.115514	0.039137	0.000942
1810	9.0450e-01	-7.6009	-1.532536	0.000012	0.124399	0.042148	0.001015
1811	9.0500e-01	-7.5303	-1.527373	0.000013	0.126621	0.042900	0.001033
1812	9.0550e-01	-7.5030	-1.523931	0.000008	0.084414	0.028600	0.000688
1813	9.0600e-01	-7.4597	-1.519084	0.000012	0.118846	0.040266	0.000969
1814	9.0650e-01	-7.4212	-1.514329	0.000012	0.116625	0.039513	0.000951
1815	9.0700e-01	-7.3971	-1.509528	0.000012	0.117735	0.039890	0.000960
1816	9.0750e-01	-7.3410	-1.504003	0.000014	0.135507	0.045911	0.001105
1817	9.0800e-01	-7.2993	-1.499383	0.000011	0.113292	0.038385	0.000924
1818	9.0850e-01	-7.2848	-1.496077	0.000008	0.081082	0.027471	0.000661
1819	9.0900e-01	-7.2255	-1.489057	0.000017	0.172160	0.058329	0.001404
1820	9.0950e-01	-7.1934	-1.484211	0.000012	0.118846	0.040266	0.000969
1821	9.1000e-01	-7.1629	-1.479682	0.000011	0.111071	0.037632	0.000906
1822	9.1050e-01	-7.1212	-1.475425	0.000010	0.104407	0.035374	0.000851
1823	9.1100e-01	-7.0715	-1.471711	0.000009	0.091078	0.030858	0.000743
1824	9.1150e-01	-6.9993	-1.467091	0.000011	0.113292	0.038385	0.000924
1825	9.1200e-01	-6.9880	-1.460750	0.000016	0.155499	0.052685	0.001268
1826	9.1250e-01	-6.9383	-1.456267	0.000011	0.109960	0.037256	0.000897
1827	9.1300e-01	-6.9207	-1.450741	0.000014	0.135507	0.045911	0.001105
1828	9.1350e-01	-6.8437	-1.444899	0.000014	0.143282	0.048545	0.001168
1829	9.1400e-01	-6.8469	-1.440687	-0.000010	-0.103296	-0.034998	0.000842
1830	9.1450e-01	-6.7971	-1.435886	0.000012	0.117735	0.039890	0.000960
1831	9.1500e-01	-6.7442	-1.430451	0.000013	0.133285	0.045158	0.001087
1832	9.1550e-01	-6.7137	-1.426149	0.000011	0.105517	0.035750	0.000861
1833	9.1600e-01	-6.6624	-1.421167	0.000012	0.122178	0.041395	0.000996
1834	9.1650e-01	-6.6239	-1.416275	0.000012	0.119957	0.040642	0.000978
1835	9.1700e-01	-6.5806	-1.412063	0.000010	0.103296	0.034998	0.000842
1836	9.1750e-01	-6.5677	-1.406719	0.000013	0.131064	0.044406	0.001069
1837	9.1800e-01	-6.5196	-1.401284	0.000013	0.133285	0.045158	0.001087
1838	9.1850e-01	-6.4410	-1.395034	0.000015	0.153278	0.051932	0.001250
1839	9.1900e-01	-6.4201	-1.391637	0.000008	0.083303	0.028224	0.000679
1840	9.1950e-01	-6.4121	-1.385614	0.000015	0.147724	0.050050	0.001205
1841	9.2000e-01	-6.3608	-1.380813	0.000012	0.117735	0.039890	0.000960
1842	9.2050e-01	-6.3207	-1.375197	0.000014	0.137728	0.046664	0.001123
1843	9.2100e-01	-6.2774	-1.371936	0.000008	0.079971	0.027095	0.000652
1844	9.2150e-01	-6.2629	-1.365867	0.000015	0.148835	0.050427	0.001214
1845	9.2200e-01	-6.2132	-1.359345	0.000016	0.159942	0.054190	0.001304
1846	9.2250e-01	-6.1586	-1.354771	0.000011	0.112182	0.038008	0.000915
1847	9.2300e-01	-6.1137	-1.349517	0.000013	0.128842	0.043653	0.001051
1848	9.2350e-01	-6.0752	-1.346166	0.000008	0.082193	0.027848	0.000670
1849	9.2400e-01	-6.0303	-1.340505	0.000014	0.138839	0.047040	0.001132
1850	9.2450e-01	-5.9966	-1.335251	0.000013	0.128842	0.043653	0.001051
1851	9.2500e-01	-5.9437	-1.328367	0.000017	0.168828	0.057200	0.001377
1852	9.2550e-01	-5.9244	-1.323838	0.000011	0.111071	0.037632	0.000906
1853	9.2600e-01	-5.8651	-1.319626	0.000010	0.103296	0.034998	0.000842
1854	9.2650e-01	-5.8266	-1.315097	0.000011	0.111071	0.037632	0.000906
1855	9.2700e-01	-5.8153	-1.309390	0.000014	0.139949	0.047416	0.001141
1856	9.2750e-01	-5.7464	-1.303593	0.000014	0.142171	0.048169	0.001159
1857	9.2800e-01	-5.7303	-1.298520	0.000012	0.124399	0.042148	0.001015
1858	9.2850e-01	-5.6629	-1.293448	0.000012	0.124399	0.042148	0.001015
1859	9.2900e-01	-5.6357	-1.287922	0.000014	0.135507	0.045911	0.001105
1860	9.2950e-01	-5.5988	-1.281536	0.000016	0.156610	0.053061	0.001277
1861	9.3000e-01	-5.5891	-1.275558	0.000015	0.146614	0.049674	0.001196
1862	9.3050e-01	-5.5234	-1.270984	0.000011	0.112182	0.038008	0.000915
1863	9.3100e-01	-5.4881	-1.266500	0.000011	0.109960	0.037256	0.000897
1864	9.3150e-01	-5.4416	-1.260205	0.000015	0.154389	0.052308	0.001259
1865	9.3200e-01	-5.3998	-1.254770	0.000013	0.133285	0.045158	0.001087
1866	9.3250e-01	-5.3084	-1.250286	0.000011	0.109960	0.037256	0.000897
1867	9.3300e-01	-5.3100	-1.245576	-0.000012	-0.115514	-0.039137	0.000942
1868	9.3350e-01	-5.2587	-1.239416	0.000015	0.151057	0.051179	0.001232
1869	9.3400e-01	-5.2234	-1.233347	0.000015	0.148835	0.050427	0.001214
1870	9.3450e-01	-5.2009	-1.229905	0.000008	0.084414	0.028600	0.000688
1871	9.3500e-01	-5.1544	-1.222342	0.000019	0.185489	0.062845	0.001513
1872	9.3550e-01	-5.1095	-1.217315	0.000012	0.123289	0.041771	0.001005
1873	9.3600e-01	-5.0614	-1.211744	0.000014	0.136617	0.046287	0.001114
1874	9.3650e-01	-5.0116	-1.206490	0.000013	0.128842	0.043653	0.001051
1875	9.3700e-01	-4.9747	-1.201735	0.000012	0.116625	0.039513	0.000951
1876	9.3750e-01	-4.9892	-1.195892	-0.000014	-0.143282	-0.048545	0.001168
1877	9.3800e-01	-4.8945	-1.189053	0.000017	0.167717	0.056824	0.001368
1878	9.3850e-01	-4.8753	-1.184389	0.000011	0.114403	0.038761	0.000933
1879	9.3900e-01	-4.8528	-1.179090	0.000013	0.129953	0.044029	0.001060
1880	9.3950e-01	-4.7951	-1.172975	0.000015	0.149946	0.050803	0.001223
1881	9.4000e-01	-4.7293	-1.166680	0.000015	0.154389	0.052308	0.001259
1882	9.4050e-01	-4.7213	-1.163012	0.000009	0.089967	0.030482	0.000734
1883	9.4100e-01	-4.6330	-1.156897	0.000015	0.149946	0.050803	0.001223
1884	9.4150e-01	-4.6025	-1.151417	0.000013	0.134396	0.045535	0.001096
1885	9.4200e-01	-4.5560	-1.146571	0.000012	0.118846	0.040266	0.000969
1886	9.4250e-01	-4.5480	-1.138917	0.000019	0.187710	0.063598	0.001531
1887	9.4300e-01	-4.5047	-1.134026	0.000012	0.119957	0.040642	0.000978
1888	9.4350e-01	-4.4774	-1.129134	0.000012	0.119957	0.040642	0.000978
1889	9.4400e-01	-4.4341	-1.121978	0.000018	0.175492	0.059458	0.001431
1890	9.4450e-01	-4.3812	-1.116136	0.000014	0.143282	0.048545	0.001168
1891	9.4500e-01	-4.3731	-1.111199	0.000012	0.121067	0.041019	0.000987
1892	9.4550e-01	-4.3282	-1.104768	0.000016	0.157721	0.053437	0.001286
1893	9.4600e-01	-4.2769	-1.097975	0.000017	0.166606	0.056448	0.001359
1894	9.4650e-01	-4.2448	-1.093128	0.000012	0.118846	0.040266	0.000969
1895	9.4700e-01	-4.1710	-1.088056	0.000012	0.124399	0.042148	0.001015
1896	9.4750e-01	-4.1678	-1.080221	0.000019	0.192153	0.065103	0.001567
1897	9.4800e-01	-4.1357	-1.075646	0.000011	0.112182	0.038008	0.000915
1898	9.4850e-01	-4.0635	-1.070121	0.000014	0.135507	0.045911	0.001105
1899	9.4900e-01	-4.0298	-1.062467	0.000019	0.187710	0.063598	0.001531
1900	9.4950e-01	-3.9592	-1.056760	0.000014	0.139949	0.047416	0.001141
1901	9.5000e-01	-3.9737	-1.052186	-0.000011	-0.112182	-0.038008	0.000915
1902	9.5050e-01	-3.9159	-1.045483	0.000016	0.164385	0.055695	0.001341
1903	9.5100e-01	-3.8855	-1.039142	0.000016	0.155499	0.052685	0.001268
1904	9.5150e-01	-3.8405	-1.033255	0.000014	0.144392	0.048921	0.001178
1905	9.5200e-01	-3.7844	-1.027593	0.000014	0.138839	0.047040	0.001132
1906	9.5250e-01	-3.7138	-1.022023	0.000014	0.136617	0.046287	0.001114
1907	9.5300e-01	-3.7186	-1.016452	-0.000014	-0.136617	-0.046287	0.001114
1908	9.5350e-01	-3.6769	-1.008662	0.000019	0.191042	0.064727	0.001558
1909	9.5400e-01	-3.6432	-1.002004	0.000016	0.163274	0.055319	0.001332
1910	9.5450e-01	-3.6047	-0.996434	0.000014	0.136617	0.046287	0.001114
1911	9.5500e-01	-3.5566	-0.990772	0.000014	0.138839	0.047040	0.001132
1912	9.5550e-01	-3.5052	-0.982711	0.000020	0.197706	0.066985	0.001612
1913	9.5600e-01	-3.4667	-0.976778	0.000015	0.145503	0.049298	0.001187
1914	9.5650e-01	-3.4218	-0.972203	0.000011	0.112182	0.038008	0.000915
1915	9.5700e-01	-3.3946	-0.965727	0.000016	0.158832	0.053814	0.001295
1916	9.5750e-01	-3.3496	-0.960156	0.000014	0.136617	0.046287	0.001114
1917	9.5800e-01	-3.3176	-0.952774	0.000018	0.181046	0.061340	0.001476
1918	9.5850e-01	-3.2758	-0.947928	0.000012	0.118846	0.040266	0.000969
1919	9.5900e-01	-3.2261	-0.940500	0.000018	0.182156	0.061716	0.001486
1920	9.5950e-01	-3.2085	-0.934295	0.000015	0.152167	0.051556	0.001241
1921	9.6000e-01	-3.1652	-0.926732	0.000019	0.185489	0.062845	0.001513
1922	9.6050e-01	-3.1122	-0.919893	0.000017	0.167717	0.056824	0.001368
1923	9.6100e-01	-3.0817	-0.913914	0.000015	0.146614	0.049674	0.001196
1924	9.6150e-01	-3.0513	-0.907483	0.000016	0.157721	0.053437	0.001286
1925	9.6200e-01	-3.0160	-0.900418	0.000017	0.173271	0.058706	0.001413
1926	9.6250e-01	-2.9566	-0.893987	0.000016	0.157721	0.053437	0.001286
1927	9.6300e-01	-2.9149	-0.889277	0.000012	0.115514	0.039137	0.000942
1928	9.6350e-01	-2.8732	-0.882257	0.000017	0.172160	0.058329	0.001404
1929	9.6400e-01	-2.8106	-0.875463	0.000017	0.166606	0.056448	0.001359
1930	9.6450e-01	-2.7882	-0.867492	0.000020	0.195485	0.066232	0.001594
1931	9.6500e-01	-2.7545	-0.861015	0.000016	0.158832	0.053814	0.001295
1932	9.6550e-01	-2.6919	-0.854176	0.000017	0.167717	0.056824	0.001368
1933	9.6600e-01	-2.6518	-0.847247	0.000017	0.169939	0.057577	0.001386
1934	9.6650e-01	-2.6309	-0.840680	0.000016	0.161053	0.054566	0.001313
1935	9.6700e-01	-2.5956	-0.834702	0.000015	0.146614	0.049674	0.001196
1936	9.6750e-01	-2.5379	-0.827319	0.000018	0.181046	0.061340	0.001476
1937	9.6800e-01	-2.4801	-0.818624	0.000021	0.213256	0.072253	0.001739
1938	9.6850e-01	-2.4593	-0.812419	0.000015	0.152167	0.051556	0.001241
1939	9.6900e-01	-2.4384	-0.805580	0.000017	0.167717	0.056824	0.001368
1940	9.6950e-01	-2.4080	-0.798832	0.000017	0.165496	0.056071	0.001350
1941	9.7000e-01	-2.3486	-0.792310	0.000016	0.159942	0.054190	0.001304
1942	9.7050e-01	-2.3069	-0.784701	0.000019	0.186599	0.063222	0.001522
1943	9.7100e-01	-2.2700	-0.778315	0.000016	0.156610	0.053061	0.001277
1944	9.7150e-01	-2.2315	-0.769619	0.000021	0.213256	0.072253	0.001739
1945	9.7200e-01	-2.1946	-0.762373	0.000018	0.177714	0.060211	0.001449
1946	9.7250e-01	-2.1400	-0.756440	0.000015	0.145503	0.049298	0.001187
1947	9.7300e-01	-2.1160	-0.749329	0.000017	0.174381	0.059082	0.001422
1948	9.7350e-01	-2.0679	-0.741449	0.000019	0.193264	0.065479	0.001576
1949	9.7400e-01	-2.0085	-0.733659	0.000019	0.191042	0.064727	0.001558
1950	9.7450e-01	-2.0085	-0.725869	-0.000019	-0.191042	-0.064727	0.001558
1951	9.7500e-01	-1.9267	-0.719392	0.000016	0.158832	0.053814	0.001295
1952	9.7550e-01	-1.9203	-0.712236	0.000018	0.175492	0.059458	0.001431
1953	9.7600e-01	-1.8770	-0.703178	0.000022	0.222142	0.075264	0.001812
1954	9.7650e-01	-1.8208	-0.694437	0.000021	0.214367	0.072630	0.001748
1955	9.7700e-01	-1.7951	-0.685968	0.000021	0.207703	0.070372	0.001694
1956	9.7750e-01	-1.7582	-0.680307	0.000014	0.138839	0.047040	0.001132
1957	9.7800e-01	-1.7037	-0.672834	0.000018	0.183267	0.062093	0.001495
1958	9.7850e-01	-1.6764	-0.666040	0.000017	0.166606	0.056448	0.001359
1959	9.7900e-01	-1.6219	-0.658613	0.000018	0.182156	0.061716	0.001486
1960	9.7950e-01	-1.6026	-0.649509	0.000022	0.223253	0.075640	0.001821
1961	9.8000e-01	-1.5593	-0.642263	0.000018	0.177714	0.060211	0.001449
1962	9.8050e-01	-1.4871	-0.634654	0.000019	0.186599	0.063222	0.001522
1963	9.8100e-01	-1.4615	-0.626321	0.000020	0.204371	0.069243	0.001667
1964	9.8150e-01	-1.4310	-0.618576	0.000019	0.189931	0.064350	0.001549
1965	9.8200e-01	-1.3861	-0.609337	0.000023	0.226585	0.076769	0.001848
1966	9.8250e-01	-1.3604	-0.600324	0.000022	0.221031	0.074887	0.001803
1967	9.8300e-01	-1.2882	-0.591628	0.000021	0.213256	0.072253	0.001739
1968	9.8350e-01	-1.3042	-0.584880	-0.000017	-0.165496	-0.056071	0.001350
1969	9.8400e-01	-1.2288	-0.576094	0.000022	0.215478	0.073006	0.001757
1970	9.8450e-01	-1.2096	-0.569255	0.000017	0.167717	0.056824	0.001368
1971	9.8500e-01	-1.1374	-0.560378	0.000022	0.217699	0.073758	0.001775
1972	9.8550e-01	-1.0925	-0.551456	0.000022	0.218810	0.074135	0.001784
1973	9.8600e-01	-1.0556	-0.542986	0.000021	0.207703	0.070372	0.001694
1974	9.8650e-01	-1.0171	-0.534472	0.000021	0.208813	0.070748	0.001703
1975	9.8700e-01	-0.9722	-0.526591	0.000019	0.193264	0.065479	0.001576
1976	9.8750e-01	-0.9465	-0.519888	0.000016	0.164385	0.055695	0.001341
1977	9.8800e-01	-0.9256	-0.509562	0.000025	0.253242	0.085801	0.002065
1978	9.8850e-01	-0.8791	-0.500006	0.000023	0.234360	0.079403	0.001911
1979	9.8900e-01	-0.8294	-0.492261	0.000019	0.189931	0.064350	0.001549
1980	9.8950e-01	-0.8005	-0.484018	0.000020	0.202149	0.068490	0.001649
1981	9.9000e-01	-0.7460	-0.474915	0.000022	0.223253	0.075640	0.001821
1982	9.9050e-01	-0.7331	-0.464770	0.000025	0.248799	0.084295	0.002029
1983	9.9100e-01	-0.6786	-0.456210	0.000021	0.209924	0.071124	0.001712
1984	9.9150e-01	-0.5871	-0.448012	0.000020	0.201038	0.068114	0.001640
1985	9.9200e-01	-0.5807	-0.439407	0.000021	0.211035	0.071501	0.001721
1986	9.9250e-01	-0.5406	-0.430349	0.000022	0.222142	0.075264	0.001812
1987	9.9300e-01	-0.5069	-0.419570	0.000026	0.264349	0.089564	0.002156
1988	9.9350e-01	-0.4861	-0.412459	0.000017	0.174381	0.059082	0.001422
1989	9.9400e-01	-0.4267	-0.402088	0.000025	0.254353	0.086177	0.002074
1990	9.9450e-01	-0.3738	-0.394434	0.000019	0.187710	0.063598	0.001531
1991	9.9500e-01	-0.3192	-0.385195	0.000023	0.226585	0.076769	0.001848
1992	9.9550e-01	-0.3369	-0.376861	-0.000020	-0.204371	-0.069243	0.001667
1993	9.9600e-01	-0.2904	-0.365946	0.000027	0.267681	0.090693	0.002183
1994	9.9650e-01	-0.2406	-0.356028	0.000024	0.243245	0.082414	0.001984
1995	9.9700e-01	-0.1829	-0.348238	0.000019	0.191042	0.064727	0.001558
1996	9.9750e-01	-0.1668	-0.338183	0.000025	0.246578	0.083543	0.002011
1997	9.9800e-01	-0.1315	-0.328536	0.000024	0.236581	0.080156	0.001929
1998	9.9850e-01	-0.0722	-0.321199	0.000018	0.179935	0.060964	0.001467
1999	9.9900e-01	-0.0225	-0.310828	0.000025	0.254353	0.086177	0.002074
2000	9.9950e-01	0.0176	-0.302494	0.000020	0.204371	0.069243	0.001667
2001	1.0000e+00	0.0594	-0.291444	0.000020	0.204371	0.069243	0.002210

Center data before PMax,+/-Pr and +/-Vc Calc.

PMax (uC/cm2):	2.68e+00
Pr (uC/cm2):	1.30e-01
-Pr (uC/cm2):	-2.91e-01
PLoss (uC/cm2):	-1.83e-01
Vc:	6.05e-01
-Vc:	-5.77e-01
C (Max-Eff) (nF):	1.34e-02
K (Eff):	4.53e+01
Vert. (+/-Pr) Shift (uC/cm2):	-8.08e-02
Horiz. Shift (+/-Vc):	1.38e-02
Offset (uC/cm2):	1.08e-01

A (Loop Area - uC/cm2·Volts):	8.44e-03



Hysteresis Version: 5.48.1 - Radiant Technologies, Inc., 1999 - 9/12/24

