»»»»»»»»»»»»»»»»»»»»»»»»»»»»»»»»»»»» Hysteresis ««««««««««««««««««««««««««««««««««««
»»»  Executed Version:	5.48.1
»»»  Vision Version:	5.48.4 (R)
»»»  Vision Compiled:	9/18/24
»»»  Driver Version:	5.47.0
»»»  Windows Version:	Windows 8 or 8.1
»»»  Processor Information:	x86 (AMD or Intel) - 32 Processors
»»»  Tester Name:	PMF21124-494 (100V)
»»»  Tester S/N:	PMF21124-494
»»»  Internal Amp Type:	100V RevK 270k
»»»  Internal Amp S/N:	iAB2-596/K     
»»»  Execution Count:	1
»»»»»»»»»»»»»»»»»»»»»»»»»»»»»»»»»»»»»»»»»»««««««««««««««««««««««««««««««««««««««««««

Stored:	6/11/2025 - 11:28:31
Configured:	06/11/25 10:21:25 AM
Executed:	06/11/25 11:28:10 AM

»»»»»»»»»»»»»»»»»»»»»»»»»»»»»»»»»»» Sample Info ««««««««««««««««««««««««««««««««««««
Sample Name:	
Lot Name:	
Wafer Name:	
Die Row/Column:	0/0
Capacitor Number:	0
Sample Area (cm2):	1.00e-04
Sample Thickness (microns):	3.00e-01

Amplifier:	Internal

»»»»»»»»»»»»»»»»»»»»»»»»»»»»»»»»»»» Tester Info «««««««««««««««««««««««««««««««««««
Tester Name:	PMF21124-494 (100V)
Tester Serial Number:	PMF21124-494
Return Signal Amp. Level:	100.0 [Index: 0]

»»»»»»»»»»»»»»»»»»»»»»»»»»»»»»»» Hysteresis Info ««««««««««««««««««««««««««««««««««
Task Name:	Hyst-1175
Volts:	20.00
Field:	666.67 (kV/cm)
DCBias:	0.00
DCField:	0.00 (kV/cm)
Hysteresis Period (ms):	1.00e+00
Preset:	Enabled
Preset Delay (ms):	1.00e+03
Profile:	Standard Bipolar

»»»»»»»»»»»»»»»»»»»»»»»»»»»»»»»»»»»»»» Data «««««««««««««««««««««««««««««««««««««««
Points:	2001

Valid Data

Point	Time (ms)	Drive Voltage	Measured Polarization (uC/cm2)	Capacitance (uF)	Normalized Capacitance (uF/cm2)	Dielectric Constant	Instantaneous Current (mA)
   1	0.0000e+00	0.0385	-0.106547	-0.000000	-0.002017	-0.000683	-0.000017
   2	5.0000e-04	0.0642	-0.106629	-0.000000	-0.002017	-0.000683	-0.000017
   3	1.0000e-03	0.1251	-0.106704	-0.000000	-0.001815	-0.000615	-0.000015
   4	1.5000e-03	0.1604	-0.106472	0.000001	0.005646	0.001913	0.000046
   5	2.0000e-03	0.2069	-0.106291	0.000000	0.004436	0.001503	0.000036
   6	2.5000e-03	0.2422	-0.106167	0.000000	0.003025	0.001025	0.000025
   7	3.0000e-03	0.2487	-0.106200	-0.000000	-0.000807	-0.000273	-0.000007
   8	3.5000e-03	0.3112	-0.105993	0.000001	0.005041	0.001708	0.000041
   9	4.0000e-03	0.3401	-0.105886	0.000000	0.002622	0.000888	0.000021
  10	4.5000e-03	0.4331	-0.105712	0.000000	0.004235	0.001435	0.000035
  11	5.0000e-03	0.4508	-0.105630	0.000000	0.002017	0.000683	0.000017
  12	5.5000e-03	0.4973	-0.105514	0.000000	0.002823	0.000957	0.000023
  13	6.0000e-03	0.5166	-0.105282	0.000001	0.005646	0.001913	0.000046
  14	6.5000e-03	0.5486	-0.105109	0.000000	0.004235	0.001435	0.000035
  15	7.0000e-03	0.5743	-0.104944	0.000000	0.004033	0.001366	0.000033
  16	7.5000e-03	0.6208	-0.104745	0.000000	0.004840	0.001640	0.000040
  17	8.0000e-03	0.7059	-0.104489	0.000001	0.006251	0.002118	0.000051
  18	8.5000e-03	0.7203	-0.104332	0.000000	0.003831	0.001298	0.000031
  19	9.0000e-03	0.7572	-0.104481	-0.000000	-0.003630	-0.001230	-0.000030
  20	9.5000e-03	0.7957	-0.104671	-0.000000	-0.004638	-0.001571	-0.000038
  21	1.0000e-02	0.8358	-0.104778	-0.000000	-0.002622	-0.000888	-0.000021
  22	1.0500e-02	0.8887	-0.104332	0.000001	0.010889	0.003689	0.000089
  23	1.1000e-02	0.9160	-0.103721	0.000001	0.014922	0.005056	0.000122
  24	1.1500e-02	0.9641	-0.103159	0.000001	0.013713	0.004646	0.000112
  25	1.2000e-02	0.9962	-0.102977	0.000000	0.004436	0.001503	0.000036
  26	1.2500e-02	1.0588	-0.102614	0.000001	0.008873	0.003006	0.000073
  27	1.3000e-02	1.0476	-0.102283	-0.000001	-0.008066	-0.002733	0.000066
  28	1.3500e-02	1.1326	-0.102068	0.000001	0.005243	0.001776	0.000043
  29	1.4000e-02	1.1615	-0.101754	0.000001	0.007663	0.002596	0.000063
  30	1.4500e-02	1.2000	-0.101325	0.000001	0.010486	0.003553	0.000086
  31	1.5000e-02	1.2513	-0.101523	-0.000000	-0.004840	-0.001640	-0.000040
  32	1.5500e-02	1.2786	-0.101523	0.000000	0.000000	0.000000	0.000000
  33	1.6000e-02	1.3315	-0.101531	-0.000000	-0.000202	-0.000068	-0.000002
  34	1.6500e-02	1.3973	-0.101308	0.000001	0.005445	0.001845	0.000045
  35	1.7000e-02	1.3909	-0.100978	-0.000001	-0.008066	-0.002733	0.000066
  36	1.7500e-02	1.4743	-0.100713	0.000001	0.006453	0.002186	0.000053
  37	1.8000e-02	1.4695	-0.100531	-0.000000	-0.004436	-0.001503	0.000036
  38	1.8500e-02	1.5176	-0.100771	-0.000001	-0.005848	-0.001981	-0.000048
  39	1.9000e-02	1.5802	-0.101052	-0.000001	-0.006856	-0.002323	-0.000056
  40	1.9500e-02	1.5866	-0.100672	0.000001	0.009276	0.003143	0.000076
  41	2.0000e-02	1.6395	-0.100242	0.000001	0.010486	0.003553	0.000086
  42	2.0500e-02	1.6700	-0.099713	0.000001	0.012906	0.004373	0.000106
  43	2.1000e-02	1.7262	-0.099358	0.000001	0.008671	0.002938	0.000071
  44	2.1500e-02	1.7358	-0.099350	0.000000	0.000202	0.000068	0.000002
  45	2.2000e-02	1.7999	-0.099350	0.000000	0.000000	0.000000	0.000000
  46	2.2500e-02	1.8481	-0.098995	0.000001	0.008671	0.002938	0.000071
  47	2.3000e-02	1.8401	-0.098705	-0.000001	-0.007058	-0.002391	0.000058
  48	2.3500e-02	1.9363	-0.098656	0.000000	0.001210	0.000410	0.000010
  49	2.4000e-02	1.9764	-0.098557	0.000000	0.002420	0.000820	0.000020
  50	2.4500e-02	1.9989	-0.098069	0.000001	0.011898	0.004031	0.000097
  51	2.5000e-02	2.0486	-0.097648	0.000001	0.010284	0.003484	0.000084
  52	2.5500e-02	2.0951	-0.097483	0.000000	0.004033	0.001366	0.000033
  53	2.6000e-02	2.1176	-0.097433	0.000000	0.001210	0.000410	0.000010
  54	2.6500e-02	2.1545	-0.097383	0.000000	0.001210	0.000410	0.000010
  55	2.7000e-02	2.2203	-0.097003	0.000001	0.009276	0.003143	0.000076
  56	2.7500e-02	2.2459	-0.096681	0.000001	0.007865	0.002665	0.000064
  57	2.8000e-02	2.2828	-0.096681	0.000000	0.000000	0.000000	0.000000
  58	2.8500e-02	2.3053	-0.096772	-0.000000	-0.002218	-0.000752	-0.000018
  59	2.9000e-02	2.3582	-0.096656	0.000000	0.002823	0.000957	0.000023
  60	2.9500e-02	2.3919	-0.096194	0.000001	0.011293	0.003826	0.000093
  61	3.0000e-02	2.4288	-0.095855	0.000001	0.008268	0.002801	0.000068
  62	3.0500e-02	2.4817	-0.095913	-0.000000	-0.001412	-0.000478	-0.000012
  63	3.1000e-02	2.5251	-0.095780	0.000000	0.003226	0.001093	0.000026
  64	3.1500e-02	2.5716	-0.095334	0.000001	0.010889	0.003689	0.000089
  65	3.2000e-02	2.6053	-0.094946	0.000001	0.009478	0.003211	0.000078
  66	3.2500e-02	2.6390	-0.094880	0.000000	0.001613	0.000547	0.000013
  67	3.3000e-02	2.6775	-0.094855	0.000000	0.000605	0.000205	0.000005
  68	3.3500e-02	2.6999	-0.094384	0.000001	0.011494	0.003894	0.000094
  69	3.4000e-02	2.7400	-0.094045	0.000001	0.008268	0.002801	0.000068
  70	3.4500e-02	2.7882	-0.093888	0.000000	0.003831	0.001298	0.000031
  71	3.5000e-02	2.8443	-0.093930	-0.000000	-0.001008	-0.000342	-0.000008
  72	3.5500e-02	2.8539	-0.093690	0.000001	0.005848	0.001981	0.000048
  73	3.6000e-02	2.9374	-0.093335	0.000001	0.008671	0.002938	0.000071
  74	3.6500e-02	2.9518	-0.093203	0.000000	0.003226	0.001093	0.000026
  75	3.7000e-02	3.0176	-0.093244	-0.000000	-0.001008	-0.000342	-0.000008
  76	3.7500e-02	3.0785	-0.093169	0.000000	0.001815	0.000615	0.000015
  77	3.8000e-02	3.0753	-0.092748	-0.000001	-0.010284	-0.003484	0.000084
  78	3.8500e-02	3.1347	-0.092426	0.000001	0.007865	0.002665	0.000064
  79	3.9000e-02	3.1828	-0.092426	0.000000	0.000000	0.000000	0.000000
  80	3.9500e-02	3.2004	-0.092261	0.000000	0.004033	0.001366	0.000033
  81	4.0000e-02	3.2133	-0.091914	0.000001	0.008470	0.002870	0.000069
  82	4.0500e-02	3.2502	-0.091633	0.000001	0.006856	0.002323	0.000056
  83	4.1000e-02	3.3336	-0.091443	0.000000	0.004638	0.001571	0.000038
  84	4.1500e-02	3.3913	-0.091261	0.000000	0.004436	0.001503	0.000036
  85	4.2000e-02	3.4010	-0.090856	0.000001	0.009881	0.003348	0.000081
  86	4.2500e-02	3.4555	-0.090641	0.000001	0.005243	0.001776	0.000043
  87	4.3000e-02	3.4940	-0.090509	0.000000	0.003226	0.001093	0.000026
  88	4.3500e-02	3.5502	-0.090385	0.000000	0.003025	0.001025	0.000025
  89	4.4000e-02	3.5502	-0.090030	-0.000001	-0.008671	-0.002938	0.000071
  90	4.4500e-02	3.5999	-0.089625	0.000001	0.009881	0.003348	0.000081
  91	4.5000e-02	3.6464	-0.089435	0.000000	0.004638	0.001571	0.000038
  92	4.5500e-02	3.6657	-0.089212	0.000001	0.005445	0.001845	0.000045
  93	4.6000e-02	3.7090	-0.088964	0.000001	0.006050	0.002050	0.000050
  94	4.6500e-02	3.7282	-0.088592	0.000001	0.009074	0.003075	0.000074
  95	4.7000e-02	3.8101	-0.088369	0.000001	0.005445	0.001845	0.000045
  96	4.7500e-02	3.8149	-0.088237	0.000000	0.003226	0.001093	0.000026
  97	4.8000e-02	3.8598	-0.088088	0.000000	0.003630	0.001230	0.000030
  98	4.8500e-02	3.9127	-0.087675	0.000001	0.010083	0.003416	0.000083
  99	4.9000e-02	3.9657	-0.087477	0.000000	0.004840	0.001640	0.000040
 100	4.9500e-02	4.0170	-0.087320	0.000000	0.003831	0.001298	0.000031
 101	5.0000e-02	4.0555	-0.087113	0.000001	0.005041	0.001708	0.000041
 102	5.0500e-02	4.0731	-0.086840	0.000001	0.006655	0.002255	0.000055
 103	5.1000e-02	4.1453	-0.086692	0.000000	0.003630	0.001230	0.000030
 104	5.1500e-02	4.1566	-0.086749	-0.000000	-0.001412	-0.000478	-0.000012
 105	5.2000e-02	4.2255	-0.086799	-0.000000	-0.001210	-0.000410	-0.000010
 106	5.2500e-02	4.2657	-0.086716	0.000000	0.002017	0.000683	0.000017
 107	5.3000e-02	4.2961	-0.086212	0.000001	0.012301	0.004168	0.000101
 108	5.3500e-02	4.3138	-0.085419	0.000002	0.019359	0.006559	0.000159
 109	5.4000e-02	4.3459	-0.084808	0.000001	0.014922	0.005056	0.000122
 110	5.4500e-02	4.4036	-0.084428	0.000001	0.009276	0.003143	0.000076
 111	5.5000e-02	4.4534	-0.083940	0.000001	0.011898	0.004031	0.000097
 112	5.5500e-02	4.4742	-0.083676	0.000001	0.006453	0.002186	0.000053
 113	5.6000e-02	4.5143	-0.083320	0.000001	0.008671	0.002938	0.000071
 114	5.6500e-02	4.5833	-0.082965	0.000001	0.008671	0.002938	0.000071
 115	5.7000e-02	4.5977	-0.082849	0.000000	0.002823	0.000957	0.000023
 116	5.7500e-02	4.6747	-0.083147	-0.000001	-0.007260	-0.002460	-0.000059
 117	5.8000e-02	4.7084	-0.083362	-0.000001	-0.005243	-0.001776	-0.000043
 118	5.8500e-02	4.7293	-0.083337	0.000000	0.000605	0.000205	0.000005
 119	5.9000e-02	4.7678	-0.082783	0.000001	0.013511	0.004578	0.000111
 120	5.9500e-02	4.8223	-0.082255	0.000001	0.012906	0.004373	0.000106
 121	6.0000e-02	4.8688	-0.081792	0.000001	0.011293	0.003826	0.000093
 122	6.0500e-02	4.8801	-0.081156	0.000002	0.015527	0.005261	0.000127
 123	6.1000e-02	4.9106	-0.081098	0.000000	0.001412	0.000478	0.000012
 124	6.1500e-02	4.9410	-0.080933	0.000000	0.004033	0.001366	0.000033
 125	6.2000e-02	5.0068	-0.080263	0.000002	0.016334	0.005534	0.000134
 126	6.2500e-02	5.0614	-0.079974	0.000001	0.007058	0.002391	0.000058
 127	6.3000e-02	5.0902	-0.079685	0.000001	0.007058	0.002391	0.000058
 128	6.3500e-02	5.1191	-0.079652	0.000000	0.000807	0.000273	0.000007
 129	6.4000e-02	5.1512	-0.079883	-0.000001	-0.005646	-0.001913	-0.000046
 130	6.4500e-02	5.2122	-0.079908	-0.000000	-0.000605	-0.000205	-0.000005
 131	6.5000e-02	5.2571	-0.079528	0.000001	0.009276	0.003143	0.000076
 132	6.5500e-02	5.2699	-0.079222	0.000001	0.007461	0.002528	0.000061
 133	6.6000e-02	5.3357	-0.079131	0.000000	0.002218	0.000752	0.000018
 134	6.6500e-02	5.3886	-0.079065	0.000000	0.001613	0.000547	0.000013
 135	6.7000e-02	5.4159	-0.078536	0.000001	0.012906	0.004373	0.000106
 136	6.7500e-02	5.4752	-0.077908	0.000002	0.015326	0.005193	0.000126
 137	6.8000e-02	5.4881	-0.077297	0.000001	0.014922	0.005056	0.000122
 138	6.8500e-02	5.5282	-0.077214	0.000000	0.002017	0.000683	0.000017
 139	6.9000e-02	5.5827	-0.077165	0.000000	0.001210	0.000410	0.000010
 140	6.9500e-02	5.6004	-0.076909	0.000001	0.006251	0.002118	0.000051
 141	7.0000e-02	5.6710	-0.076413	0.000001	0.012099	0.004099	0.000099
 142	7.0500e-02	5.6822	-0.076082	0.000001	0.008066	0.002733	0.000066
 143	7.1000e-02	5.7544	-0.075777	0.000001	0.007461	0.002528	0.000061
 144	7.1500e-02	5.7399	-0.075587	-0.000000	-0.004638	-0.001571	0.000038
 145	7.2000e-02	5.8218	-0.075347	0.000001	0.005848	0.001981	0.000048
 146	7.2500e-02	5.8619	-0.075240	0.000000	0.002622	0.000888	0.000021
 147	7.3000e-02	5.9036	-0.075289	-0.000000	-0.001210	-0.000410	-0.000010
 148	7.3500e-02	5.9068	-0.074868	0.000001	0.010284	0.003484	0.000084
 149	7.4000e-02	5.9870	-0.074479	0.000001	0.009478	0.003211	0.000078
 150	7.4500e-02	5.9886	-0.074314	0.000000	0.004033	0.001366	0.000033
 151	7.5000e-02	6.0335	-0.074157	0.000000	0.003831	0.001298	0.000031
 152	7.5500e-02	6.0656	-0.073942	0.000001	0.005243	0.001776	0.000043
 153	7.6000e-02	6.1234	-0.073504	0.000001	0.010688	0.003621	0.000088
 154	7.6500e-02	6.1586	-0.072885	0.000002	0.015124	0.005124	0.000124
 155	7.7000e-02	6.2084	-0.072802	0.000000	0.002017	0.000683	0.000017
 156	7.7500e-02	6.2693	-0.072645	0.000000	0.003831	0.001298	0.000031
 157	7.8000e-02	6.2902	-0.072315	0.000001	0.008066	0.002733	0.000066
 158	7.8500e-02	6.3287	-0.071621	0.000002	0.016939	0.005739	0.000139
 159	7.9000e-02	6.3560	-0.071397	0.000001	0.005445	0.001845	0.000045
 160	7.9500e-02	6.3961	-0.071257	0.000000	0.003428	0.001161	0.000028
 161	8.0000e-02	6.4635	-0.070951	0.000001	0.007461	0.002528	0.000061
 162	8.0500e-02	6.5036	-0.070588	0.000001	0.008873	0.003006	0.000073
 163	8.1000e-02	6.4763	-0.070373	-0.000001	-0.005243	-0.001776	0.000043
 164	8.1500e-02	6.5741	-0.070298	0.000000	0.001815	0.000615	0.000015
 165	8.2000e-02	6.6030	-0.070125	0.000000	0.004235	0.001435	0.000035
 166	8.2500e-02	6.6592	-0.069753	0.000001	0.009074	0.003075	0.000074
 167	8.3000e-02	6.6800	-0.069332	0.000001	0.010284	0.003484	0.000084
 168	8.3500e-02	6.7217	-0.069373	-0.000000	-0.001008	-0.000342	-0.000008
 169	8.4000e-02	6.7618	-0.069191	0.000000	0.004436	0.001503	0.000036
 170	8.4500e-02	6.8533	-0.068943	0.000001	0.006050	0.002050	0.000050
 171	8.5000e-02	6.8340	-0.068456	-0.000001	-0.011898	-0.004031	0.000097
 172	8.5500e-02	6.8790	-0.068241	0.000001	0.005243	0.001776	0.000043
 173	8.6000e-02	6.9207	-0.068125	0.000000	0.002823	0.000957	0.000023
 174	8.6500e-02	6.9704	-0.067539	0.000001	0.014318	0.004851	0.000117
 175	8.7000e-02	7.0025	-0.067208	0.000001	0.008066	0.002733	0.000066
 176	8.7500e-02	7.0297	-0.066977	0.000001	0.005646	0.001913	0.000046
 177	8.8000e-02	7.0650	-0.066894	0.000000	0.002017	0.000683	0.000017
 178	8.8500e-02	7.1629	-0.066655	0.000001	0.005848	0.001981	0.000048
 179	8.9000e-02	7.1822	-0.066184	0.000001	0.011494	0.003894	0.000094
 180	8.9500e-02	7.1918	-0.066018	0.000000	0.004033	0.001366	0.000033
 181	9.0000e-02	7.2399	-0.065944	0.000000	0.001815	0.000615	0.000015
 182	9.0500e-02	7.3009	-0.065605	0.000001	0.008268	0.002801	0.000068
 183	9.1000e-02	7.3265	-0.065167	0.000001	0.010688	0.003621	0.000088
 184	9.1500e-02	7.3714	-0.064853	0.000001	0.007663	0.002596	0.000063
 185	9.2000e-02	7.4148	-0.064713	0.000000	0.003428	0.001161	0.000028
 186	9.2500e-02	7.4308	-0.064432	0.000001	0.006856	0.002323	0.000056
 187	9.3000e-02	7.5046	-0.064102	0.000001	0.008066	0.002733	0.000066
 188	9.3500e-02	7.5255	-0.063854	0.000001	0.006050	0.002050	0.000050
 189	9.4000e-02	7.5656	-0.063870	-0.000000	-0.000403	-0.000137	-0.000003
 190	9.4500e-02	7.6137	-0.063994	-0.000000	-0.003025	-0.001025	-0.000025
 191	9.5000e-02	7.6233	-0.063771	0.000001	0.005445	0.001845	0.000045
 192	9.5500e-02	7.7180	-0.063407	0.000001	0.008873	0.003006	0.000073
 193	9.6000e-02	7.7292	-0.062713	0.000002	0.016939	0.005739	0.000139
 194	9.6500e-02	7.7741	-0.061928	0.000002	0.019157	0.006491	0.000157
 195	9.7000e-02	7.7966	-0.061391	0.000001	0.013108	0.004441	0.000107
 196	9.7500e-02	7.8271	-0.060929	0.000001	0.011293	0.003826	0.000093
 197	9.8000e-02	7.8864	-0.060532	0.000001	0.009679	0.003279	0.000079
 198	9.8500e-02	7.9329	-0.060045	0.000001	0.011898	0.004031	0.000097
 199	9.9000e-02	7.9554	-0.059739	0.000001	0.007461	0.002528	0.000061
 200	9.9500e-02	8.0164	-0.059516	0.000001	0.005445	0.001845	0.000045
 201	1.0000e-01	8.0484	-0.059788	-0.000001	-0.006655	-0.002255	-0.000055
 202	1.0050e-01	8.0901	-0.059995	-0.000001	-0.005041	-0.001708	-0.000041
 203	1.0100e-01	8.1639	-0.059921	0.000000	0.001815	0.000615	0.000015
 204	1.0150e-01	8.1495	-0.059367	-0.000001	-0.013511	-0.004578	0.000111
 205	1.0200e-01	8.2185	-0.058937	0.000001	0.010486	0.003553	0.000086
 206	1.0250e-01	8.2377	-0.058409	0.000001	0.012906	0.004373	0.000106
 207	1.0300e-01	8.2762	-0.058111	0.000001	0.007260	0.002460	0.000059
 208	1.0350e-01	8.3115	-0.058086	0.000000	0.000605	0.000205	0.000005
 209	1.0400e-01	8.3613	-0.058144	-0.000000	-0.001412	-0.000478	-0.000012
 210	1.0450e-01	8.4046	-0.057640	0.000001	0.012301	0.004168	0.000101
 211	1.0500e-01	8.4431	-0.057161	0.000001	0.011696	0.003963	0.000096
 212	1.0550e-01	8.4768	-0.056665	0.000001	0.012099	0.004099	0.000099
 213	1.0600e-01	8.5361	-0.056409	0.000001	0.006251	0.002118	0.000051
 214	1.0650e-01	8.5618	-0.056574	-0.000000	-0.004033	-0.001366	-0.000033
 215	1.0700e-01	8.5987	-0.056012	0.000001	0.013713	0.004646	0.000112
 216	1.0750e-01	8.6372	-0.055409	0.000001	0.014721	0.004988	0.000121
 217	1.0800e-01	8.7046	-0.054856	0.000001	0.013511	0.004578	0.000111
 218	1.0850e-01	8.7350	-0.054509	0.000001	0.008470	0.002870	0.000069
 219	1.0900e-01	8.7495	-0.054781	-0.000001	-0.006655	-0.002255	-0.000055
 220	1.0950e-01	8.8217	-0.054765	0.000000	0.000403	0.000137	0.000003
 221	1.1000e-01	8.8714	-0.054558	0.000001	0.005041	0.001708	0.000041
 222	1.1050e-01	8.9051	-0.054319	0.000001	0.005848	0.001981	0.000048
 223	1.1100e-01	8.9308	-0.054228	0.000000	0.002218	0.000752	0.000018
 224	1.1150e-01	8.9661	-0.054228	0.000000	0.000000	0.000000	0.000000
 225	1.1200e-01	8.9773	-0.053757	0.000001	0.011494	0.003894	0.000094
 226	1.1250e-01	9.0543	-0.053311	0.000001	0.010889	0.003689	0.000089
 227	1.1300e-01	9.0671	-0.052972	0.000001	0.008268	0.002801	0.000068
 228	1.1350e-01	9.1265	-0.052542	0.000001	0.010486	0.003553	0.000086
 229	1.1400e-01	9.1650	-0.051955	0.000001	0.014318	0.004851	0.000117
 230	1.1450e-01	9.1987	-0.051394	0.000001	0.013713	0.004646	0.000112
 231	1.1500e-01	9.2372	-0.051187	0.000001	0.005041	0.001708	0.000041
 232	1.1550e-01	9.3013	-0.051154	0.000000	0.000807	0.000273	0.000007
 233	1.1600e-01	9.3190	-0.051038	0.000000	0.002823	0.000957	0.000023
 234	1.1650e-01	9.3559	-0.050700	0.000001	0.008268	0.002801	0.000068
 235	1.1700e-01	9.3864	-0.050286	0.000001	0.010083	0.003416	0.000083
 236	1.1750e-01	9.4650	-0.049898	0.000001	0.009478	0.003211	0.000078
 237	1.1800e-01	9.4906	-0.049857	0.000000	0.001008	0.000342	0.000008
 238	1.1850e-01	9.5243	-0.049650	0.000001	0.005041	0.001708	0.000041
 239	1.1900e-01	9.5709	-0.049303	0.000001	0.008470	0.002870	0.000069
 240	1.1950e-01	9.6206	-0.049072	0.000001	0.005646	0.001913	0.000046
 241	1.2000e-01	9.6414	-0.048708	0.000001	0.008873	0.003006	0.000073
 242	1.2050e-01	9.6928	-0.048179	0.000001	0.012906	0.004373	0.000106
 243	1.2100e-01	9.7168	-0.047874	0.000001	0.007461	0.002528	0.000061
 244	1.2150e-01	9.7457	-0.047634	0.000001	0.005848	0.001981	0.000048
 245	1.2200e-01	9.8099	-0.047312	0.000001	0.007865	0.002665	0.000064
 246	1.2250e-01	9.8323	-0.046742	0.000001	0.013914	0.004714	0.000114
 247	1.2300e-01	9.8997	-0.046221	0.000001	0.012704	0.004304	0.000104
 248	1.2350e-01	9.9270	-0.046105	0.000000	0.002823	0.000957	0.000023
 249	1.2400e-01	9.9960	-0.045924	0.000000	0.004436	0.001503	0.000036
 250	1.2450e-01	10.0168	-0.045643	0.000001	0.006856	0.002323	0.000056
 251	1.2500e-01	10.0281	-0.045246	0.000001	0.009679	0.003279	0.000079
 252	1.2550e-01	10.1147	-0.045007	0.000001	0.005848	0.001981	0.000048
 253	1.2600e-01	10.1131	-0.044974	-0.000000	-0.000807	-0.000273	0.000007
 254	1.2650e-01	10.1500	-0.044635	0.000001	0.008268	0.002801	0.000068
 255	1.2700e-01	10.2029	-0.044164	0.000001	0.011494	0.003894	0.000094
 256	1.2750e-01	10.2254	-0.043800	0.000001	0.008873	0.003006	0.000073
 257	1.2800e-01	10.2639	-0.043660	0.000000	0.003428	0.001161	0.000028
 258	1.2850e-01	10.3329	-0.043304	0.000001	0.008671	0.002938	0.000071
 259	1.2900e-01	10.3617	-0.042710	0.000001	0.014519	0.004919	0.000119
 260	1.2950e-01	10.4115	-0.042247	0.000001	0.011293	0.003826	0.000093
 261	1.3000e-01	10.4484	-0.041991	0.000001	0.006251	0.002118	0.000051
 262	1.3050e-01	10.4788	-0.041726	0.000001	0.006453	0.002186	0.000053
 263	1.3100e-01	10.5494	-0.041313	0.000001	0.010083	0.003416	0.000083
 264	1.3150e-01	10.5542	-0.040875	0.000001	0.010688	0.003621	0.000088
 265	1.3200e-01	10.5944	-0.040677	0.000000	0.004840	0.001640	0.000040
 266	1.3250e-01	10.6345	-0.040545	0.000000	0.003226	0.001093	0.000026
 267	1.3300e-01	10.6922	-0.040297	0.000001	0.006050	0.002050	0.000050
 268	1.3350e-01	10.7147	-0.039933	0.000001	0.008873	0.003006	0.000073
 269	1.3400e-01	10.7564	-0.039619	0.000001	0.007663	0.002596	0.000063
 270	1.3450e-01	10.8029	-0.039520	0.000000	0.002420	0.000820	0.000020
 271	1.3500e-01	10.8382	-0.039074	0.000001	0.010889	0.003689	0.000089
 272	1.3550e-01	10.8992	-0.038719	0.000001	0.008671	0.002938	0.000071
 273	1.3600e-01	10.8911	-0.038322	-0.000001	-0.009679	-0.003279	0.000079
 274	1.3650e-01	10.9553	-0.038454	-0.000000	-0.003226	-0.001093	-0.000026
 275	1.3700e-01	11.0131	-0.038372	0.000000	0.002017	0.000683	0.000017
 276	1.3750e-01	11.0548	-0.038099	0.000001	0.006655	0.002255	0.000055
 277	1.3800e-01	11.0869	-0.037793	0.000001	0.007461	0.002528	0.000061
 278	1.3850e-01	11.0965	-0.036876	0.000002	0.022384	0.007584	0.000183
 279	1.3900e-01	11.2040	-0.036000	0.000002	0.021375	0.007242	0.000175
 280	1.3950e-01	11.2072	-0.035546	0.000001	0.011091	0.003758	0.000091
 281	1.4000e-01	11.2521	-0.034976	0.000001	0.013914	0.004714	0.000114
 282	1.4050e-01	11.2810	-0.034546	0.000001	0.010486	0.003553	0.000086
 283	1.4100e-01	11.3451	-0.034083	0.000001	0.011293	0.003826	0.000093
 284	1.4150e-01	11.3612	-0.033612	0.000001	0.011494	0.003894	0.000094
 285	1.4200e-01	11.3981	-0.033356	0.000001	0.006251	0.002118	0.000051
 286	1.4250e-01	11.4687	-0.033464	-0.000000	-0.002622	-0.000888	-0.000021
 287	1.4300e-01	11.4831	-0.033513	-0.000000	-0.001210	-0.000410	-0.000010
 288	1.4350e-01	11.5360	-0.033464	0.000000	0.001210	0.000410	0.000010
 289	1.4400e-01	11.5569	-0.032670	0.000002	0.019359	0.006559	0.000159
 290	1.4450e-01	11.5986	-0.032042	0.000002	0.015326	0.005193	0.000126
 291	1.4500e-01	11.6387	-0.031431	0.000001	0.014922	0.005056	0.000122
 292	1.4550e-01	11.6949	-0.031076	0.000001	0.008671	0.002938	0.000071
 293	1.4600e-01	11.7285	-0.030919	0.000000	0.003831	0.001298	0.000031
 294	1.4650e-01	11.7526	-0.030836	0.000000	0.002017	0.000683	0.000017
 295	1.4700e-01	11.8184	-0.030274	0.000001	0.013713	0.004646	0.000112
 296	1.4750e-01	11.8441	-0.029795	0.000001	0.011696	0.003963	0.000096
 297	1.4800e-01	11.8777	-0.029076	0.000002	0.017544	0.005944	0.000144
 298	1.4850e-01	11.9387	-0.028787	0.000001	0.007058	0.002391	0.000058
 299	1.4900e-01	11.9756	-0.028696	0.000000	0.002218	0.000752	0.000018
 300	1.4950e-01	12.0253	-0.028341	0.000001	0.008671	0.002938	0.000071
 301	1.5000e-01	12.0574	-0.027705	0.000002	0.015527	0.005261	0.000127
 302	1.5050e-01	12.0815	-0.027044	0.000002	0.016132	0.005466	0.000132
 303	1.5100e-01	12.1216	-0.026746	0.000001	0.007260	0.002460	0.000059
 304	1.5150e-01	12.1841	-0.026457	0.000001	0.007058	0.002391	0.000058
 305	1.5200e-01	12.2146	-0.026250	0.000001	0.005041	0.001708	0.000041
 306	1.5250e-01	12.2563	-0.025606	0.000002	0.015729	0.005329	0.000129
 307	1.5300e-01	12.2756	-0.025135	0.000001	0.011494	0.003894	0.000094
 308	1.5350e-01	12.3205	-0.024788	0.000001	0.008470	0.002870	0.000069
 309	1.5400e-01	12.3510	-0.024433	0.000001	0.008671	0.002938	0.000071
 310	1.5450e-01	12.3895	-0.023763	0.000002	0.016334	0.005534	0.000134
 311	1.5500e-01	12.4472	-0.023119	0.000002	0.015729	0.005329	0.000129
 312	1.5550e-01	12.4793	-0.022896	0.000001	0.005445	0.001845	0.000045
 313	1.5600e-01	12.5210	-0.022846	0.000000	0.001210	0.000410	0.000010
 314	1.5650e-01	12.5740	-0.022491	0.000001	0.008671	0.002938	0.000071
 315	1.5700e-01	12.5884	-0.022069	0.000001	0.010284	0.003484	0.000084
 316	1.5750e-01	12.6301	-0.021739	0.000001	0.008066	0.002733	0.000066
 317	1.5800e-01	12.7007	-0.021491	0.000001	0.006050	0.002050	0.000050
 318	1.5850e-01	12.7168	-0.021111	0.000001	0.009276	0.003143	0.000076
 319	1.5900e-01	12.7681	-0.020615	0.000001	0.012099	0.004099	0.000099
 320	1.5950e-01	12.8098	-0.019764	0.000002	0.020770	0.007037	0.000170
 321	1.6000e-01	12.8483	-0.019268	0.000001	0.012099	0.004099	0.000099
 322	1.6050e-01	12.9173	-0.018715	0.000001	0.013511	0.004578	0.000111
 323	1.6100e-01	12.9558	-0.018178	0.000001	0.013108	0.004441	0.000107
 324	1.6150e-01	12.9413	-0.017864	-0.000001	-0.007663	-0.002596	0.000063
 325	1.6200e-01	13.0183	-0.017641	0.000001	0.005445	0.001845	0.000045
 326	1.6250e-01	13.0520	-0.017484	0.000000	0.003831	0.001298	0.000031
 327	1.6300e-01	13.0633	-0.017038	0.000001	0.010889	0.003689	0.000089
 328	1.6350e-01	13.1210	-0.016253	0.000002	0.019157	0.006491	0.000157
 329	1.6400e-01	13.1820	-0.015666	0.000001	0.014318	0.004851	0.000117
 330	1.6450e-01	13.1804	-0.015418	-0.000001	-0.006050	-0.002050	0.000050
 331	1.6500e-01	13.2429	-0.015038	0.000001	0.009276	0.003143	0.000076
 332	1.6550e-01	13.2718	-0.014575	0.000001	0.011293	0.003826	0.000093
 333	1.6600e-01	13.3376	-0.014096	0.000001	0.011696	0.003963	0.000096
 334	1.6650e-01	13.3601	-0.013518	0.000001	0.014116	0.004783	0.000116
 335	1.6700e-01	13.4146	-0.012956	0.000001	0.013713	0.004646	0.000112
 336	1.6750e-01	13.4435	-0.012518	0.000001	0.010688	0.003621	0.000088
 337	1.6800e-01	13.4723	-0.012121	0.000001	0.009679	0.003279	0.000079
 338	1.6850e-01	13.5413	-0.011626	0.000001	0.012099	0.004099	0.000099
 339	1.6900e-01	13.5590	-0.011245	0.000001	0.009276	0.003143	0.000076
 340	1.6950e-01	13.6151	-0.010692	0.000001	0.013511	0.004578	0.000111
 341	1.7000e-01	13.6681	-0.010237	0.000001	0.011091	0.003758	0.000091
 342	1.7050e-01	13.6600	-0.009932	-0.000001	-0.007461	-0.002528	0.000061
 343	1.7100e-01	13.6953	-0.009477	0.000001	0.011091	0.003758	0.000091
 344	1.7150e-01	13.7563	-0.008882	0.000001	0.014519	0.004919	0.000119
 345	1.7200e-01	13.7772	-0.008320	0.000001	0.013713	0.004646	0.000112
 346	1.7250e-01	13.8012	-0.007858	0.000001	0.011293	0.003826	0.000093
 347	1.7300e-01	13.8750	-0.007205	0.000002	0.015931	0.005397	0.000131
 348	1.7350e-01	13.9392	-0.006676	0.000001	0.012906	0.004373	0.000106
 349	1.7400e-01	13.9648	-0.006090	0.000001	0.014318	0.004851	0.000117
 350	1.7450e-01	14.0082	-0.005676	0.000001	0.010083	0.003416	0.000083
 351	1.7500e-01	14.0402	-0.005164	0.000001	0.012503	0.004236	0.000102
 352	1.7550e-01	14.0675	-0.004520	0.000002	0.015729	0.005329	0.000129
 353	1.7600e-01	14.1172	-0.003941	0.000001	0.014116	0.004783	0.000116
 354	1.7650e-01	14.1509	-0.003487	0.000001	0.011091	0.003758	0.000091
 355	1.7700e-01	14.2151	-0.003065	0.000001	0.010284	0.003484	0.000084
 356	1.7750e-01	14.2295	-0.002429	0.000002	0.015527	0.005261	0.000127
 357	1.7800e-01	14.2697	-0.002033	0.000001	0.009679	0.003279	0.000079
 358	1.7850e-01	14.3322	-0.001496	0.000001	0.013108	0.004441	0.000107
 359	1.7900e-01	14.3691	-0.001611	-0.000000	-0.002823	-0.000957	-0.000023
 360	1.7950e-01	14.3755	-0.001322	0.000001	0.007058	0.002391	0.000058
 361	1.8000e-01	14.4557	-0.001074	0.000001	0.006050	0.002050	0.000050
 362	1.8050e-01	14.4606	-0.000446	0.000002	0.015326	0.005193	0.000126
 363	1.8100e-01	14.5087	0.000587	0.000003	0.025207	0.008540	0.000207
 364	1.8150e-01	14.5632	0.001578	0.000002	0.024199	0.008199	0.000198
 365	1.8200e-01	14.5969	0.002462	0.000002	0.021577	0.007311	0.000177
 366	1.8250e-01	14.6595	0.003123	0.000002	0.016132	0.005466	0.000132
 367	1.8300e-01	14.6627	0.003850	0.000002	0.017746	0.006012	0.000145
 368	1.8350e-01	14.7253	0.004553	0.000002	0.017141	0.005807	0.000140
 369	1.8400e-01	14.7878	0.005313	0.000002	0.018552	0.006286	0.000152
 370	1.8450e-01	14.7878	0.005693	-0.000001	-0.009276	-0.003143	0.000076
 371	1.8500e-01	14.8311	0.005751	0.000000	0.001412	0.000478	0.000012
 372	1.8550e-01	14.9146	0.005759	0.000000	0.000202	0.000068	0.000002
 373	1.8600e-01	14.9194	0.006114	0.000001	0.008671	0.002938	0.000071
 374	1.8650e-01	14.9691	0.006908	0.000002	0.019359	0.006559	0.000159
 375	1.8700e-01	15.0108	0.007726	0.000002	0.019964	0.006764	0.000164
 376	1.8750e-01	15.0220	0.008403	0.000002	0.016536	0.005602	0.000136
 377	1.8800e-01	15.0766	0.009023	0.000002	0.015124	0.005124	0.000124
 378	1.8850e-01	15.1295	0.009428	0.000001	0.009881	0.003348	0.000081
 379	1.8900e-01	15.1664	0.009717	0.000001	0.007058	0.002391	0.000058
 380	1.8950e-01	15.2065	0.010502	0.000002	0.019157	0.006491	0.000157
 381	1.9000e-01	15.2563	0.011328	0.000002	0.020166	0.006832	0.000165
 382	1.9050e-01	15.3076	0.012080	0.000002	0.018351	0.006217	0.000150
 383	1.9100e-01	15.3172	0.012576	0.000001	0.012099	0.004099	0.000099
 384	1.9150e-01	15.3702	0.012848	0.000001	0.006655	0.002255	0.000055
 385	1.9200e-01	15.4087	0.013228	0.000001	0.009276	0.003143	0.000076
 386	1.9250e-01	15.4439	0.014005	0.000002	0.018956	0.006422	0.000155
 387	1.9300e-01	15.4873	0.014798	0.000002	0.019359	0.006559	0.000159
 388	1.9350e-01	15.5338	0.015368	0.000001	0.013914	0.004714	0.000114
 389	1.9400e-01	15.5595	0.015691	0.000001	0.007865	0.002665	0.000064
 390	1.9450e-01	15.6060	0.016269	0.000001	0.014116	0.004783	0.000116
 391	1.9500e-01	15.6605	0.016905	0.000002	0.015527	0.005261	0.000127
 392	1.9550e-01	15.6910	0.017798	0.000002	0.021779	0.007379	0.000178
 393	1.9600e-01	15.7167	0.018252	0.000001	0.011091	0.003758	0.000091
 394	1.9650e-01	15.7889	0.018674	0.000001	0.010284	0.003484	0.000084
 395	1.9700e-01	15.8322	0.019384	0.000002	0.017342	0.005876	0.000142
 396	1.9750e-01	15.8338	0.020161	0.000002	0.018956	0.006422	0.000155
 397	1.9800e-01	15.8851	0.020830	0.000002	0.016334	0.005534	0.000134
 398	1.9850e-01	15.9236	0.021235	0.000001	0.009881	0.003348	0.000081
 399	1.9900e-01	15.9669	0.021822	0.000001	0.014318	0.004851	0.000117
 400	1.9950e-01	15.9798	0.022664	0.000002	0.020569	0.006969	0.000169
 401	2.0000e-01	16.0503	0.023458	0.000002	0.019359	0.006559	0.000159
 402	2.0050e-01	16.0712	0.024019	0.000001	0.013713	0.004646	0.000112
 403	2.0100e-01	16.1209	0.024565	0.000001	0.013309	0.004509	0.000109
 404	2.0150e-01	16.1771	0.025449	0.000002	0.021577	0.007311	0.000177
 405	2.0200e-01	16.2011	0.025870	0.000001	0.010284	0.003484	0.000084
 406	2.0250e-01	16.2589	0.026193	0.000001	0.007865	0.002665	0.000064
 407	2.0300e-01	16.2477	0.026622	-0.000001	-0.010486	-0.003553	0.000086
 408	2.0350e-01	16.3600	0.027209	0.000001	0.014318	0.004851	0.000117
 409	2.0400e-01	16.3792	0.027969	0.000002	0.018552	0.006286	0.000152
 410	2.0450e-01	16.4177	0.028349	0.000001	0.009276	0.003143	0.000076
 411	2.0500e-01	16.4514	0.028853	0.000001	0.012301	0.004168	0.000101
 412	2.0550e-01	16.4883	0.029481	0.000002	0.015326	0.005193	0.000126
 413	2.0600e-01	16.5284	0.030423	0.000002	0.022989	0.007789	0.000188
 414	2.0650e-01	16.5493	0.031332	0.000002	0.022182	0.007515	0.000182
 415	2.0700e-01	16.6038	0.031968	0.000002	0.015527	0.005261	0.000127
 416	2.0750e-01	16.6423	0.032670	0.000002	0.017141	0.005807	0.000140
 417	2.0800e-01	16.6920	0.033232	0.000001	0.013713	0.004646	0.000112
 418	2.0850e-01	16.7145	0.033703	0.000001	0.011494	0.003894	0.000094
 419	2.0900e-01	16.7867	0.034174	0.000001	0.011494	0.003894	0.000094
 420	2.0950e-01	16.8043	0.034736	0.000001	0.013713	0.004646	0.000112
 421	2.1000e-01	16.8493	0.035785	0.000003	0.025610	0.008677	0.000210
 422	2.1050e-01	16.9166	0.036653	0.000002	0.021174	0.007174	0.000174
 423	2.1100e-01	16.9295	0.037165	0.000001	0.012503	0.004236	0.000102
 424	2.1150e-01	16.9728	0.037694	0.000001	0.012906	0.004373	0.000106
 425	2.1200e-01	16.9792	0.038421	0.000002	0.017746	0.006012	0.000145
 426	2.1250e-01	17.0450	0.039281	0.000002	0.020972	0.007106	0.000172
 427	2.1300e-01	17.0787	0.040041	0.000002	0.018552	0.006286	0.000152
 428	2.1350e-01	17.1300	0.040627	0.000001	0.014318	0.004851	0.000117
 429	2.1400e-01	17.1589	0.041255	0.000002	0.015326	0.005193	0.000126
 430	2.1450e-01	17.1990	0.042049	0.000002	0.019359	0.006559	0.000159
 431	2.1500e-01	17.2503	0.042759	0.000002	0.017342	0.005876	0.000142
 432	2.1550e-01	17.2776	0.043453	0.000002	0.016939	0.005739	0.000139
 433	2.1600e-01	17.3321	0.044048	0.000001	0.014519	0.004919	0.000119
 434	2.1650e-01	17.3658	0.044742	0.000002	0.016939	0.005739	0.000139
 435	2.1700e-01	17.4107	0.045511	0.000002	0.018754	0.006354	0.000154
 436	2.1750e-01	17.4316	0.046254	0.000002	0.018149	0.006149	0.000149
 437	2.1800e-01	17.4797	0.046965	0.000002	0.017342	0.005876	0.000142
 438	2.1850e-01	17.5407	0.047775	0.000002	0.019762	0.006696	0.000162
 439	2.1900e-01	17.5583	0.048551	0.000002	0.018956	0.006422	0.000155
 440	2.1950e-01	17.6193	0.049311	0.000002	0.018552	0.006286	0.000152
 441	2.2000e-01	17.6690	0.050129	0.000002	0.019964	0.006764	0.000164
 442	2.2050e-01	17.6578	0.050865	-0.000002	-0.017947	-0.006081	0.000147
 443	2.2100e-01	17.7284	0.051484	0.000002	0.015124	0.005124	0.000124
 444	2.2150e-01	17.7492	0.051964	0.000001	0.011696	0.003963	0.000096
 445	2.2200e-01	17.7845	0.052459	0.000001	0.012099	0.004099	0.000099
 446	2.2250e-01	17.8455	0.052963	0.000001	0.012301	0.004168	0.000101
 447	2.2300e-01	17.8728	0.053740	0.000002	0.018956	0.006422	0.000155
 448	2.2350e-01	17.9289	0.054922	0.000003	0.028837	0.009770	0.000236
 449	2.2400e-01	17.9867	0.056178	0.000003	0.030652	0.010385	0.000251
 450	2.2450e-01	17.9995	0.057202	0.000003	0.025005	0.008472	0.000205
 451	2.2500e-01	18.0428	0.058037	0.000002	0.020367	0.006901	0.000167
 452	2.2550e-01	18.0941	0.059003	0.000002	0.023594	0.007994	0.000193
 453	2.2600e-01	18.1278	0.059937	0.000002	0.022787	0.007720	0.000187
 454	2.2650e-01	18.1583	0.060912	0.000002	0.023795	0.008062	0.000195
 455	2.2700e-01	18.2064	0.061639	0.000002	0.017746	0.006012	0.000145
 456	2.2750e-01	18.2465	0.061854	0.000001	0.005243	0.001776	0.000043
 457	2.2800e-01	18.2818	0.062416	0.000001	0.013713	0.004646	0.000112
 458	2.2850e-01	18.3155	0.062953	0.000001	0.013108	0.004441	0.000107
 459	2.2900e-01	18.3717	0.063945	0.000002	0.024199	0.008199	0.000198
 460	2.2950e-01	18.4198	0.065002	0.000003	0.025812	0.008745	0.000212
 461	2.3000e-01	18.4583	0.065903	0.000002	0.021980	0.007447	0.000180
 462	2.3050e-01	18.4920	0.066927	0.000003	0.025005	0.008472	0.000205
 463	2.3100e-01	18.5337	0.067357	0.000001	0.010486	0.003553	0.000086
 464	2.3150e-01	18.5834	0.067844	0.000001	0.011898	0.004031	0.000097
 465	2.3200e-01	18.5754	0.068753	-0.000002	-0.022182	-0.007515	0.000182
 466	2.3250e-01	18.6428	0.069985	0.000003	0.030047	0.010180	0.000246
 467	2.3300e-01	18.6909	0.070993	0.000002	0.024602	0.008335	0.000202
 468	2.3350e-01	18.7214	0.071827	0.000002	0.020367	0.006901	0.000167
 469	2.3400e-01	18.7471	0.072348	0.000001	0.012704	0.004304	0.000104
 470	2.3450e-01	18.8257	0.073166	0.000002	0.019964	0.006764	0.000164
 471	2.3500e-01	18.8545	0.074331	0.000003	0.028433	0.009633	0.000233
 472	2.3550e-01	18.9075	0.075281	0.000002	0.023190	0.007857	0.000190
 473	2.3600e-01	18.9524	0.076231	0.000002	0.023190	0.007857	0.000190
 474	2.3650e-01	18.9684	0.076842	0.000001	0.014922	0.005056	0.000122
 475	2.3700e-01	18.9957	0.077636	0.000002	0.019359	0.006559	0.000159
 476	2.3750e-01	19.0390	0.078660	0.000003	0.025005	0.008472	0.000205
 477	2.3800e-01	19.0663	0.079668	0.000002	0.024602	0.008335	0.000202
 478	2.3850e-01	19.1112	0.080486	0.000002	0.019964	0.006764	0.000164
 479	2.3900e-01	19.1738	0.081189	0.000002	0.017141	0.005807	0.000140
 480	2.3950e-01	19.2123	0.082221	0.000003	0.025207	0.008540	0.000207
 481	2.4000e-01	19.2861	0.083279	0.000003	0.025812	0.008745	0.000212
 482	2.4050e-01	19.3021	0.084287	0.000002	0.024602	0.008335	0.000202
 483	2.4100e-01	19.3422	0.085064	0.000002	0.018956	0.006422	0.000155
 484	2.4150e-01	19.3615	0.086031	0.000002	0.023594	0.007994	0.000193
 485	2.4200e-01	19.4000	0.087163	0.000003	0.027627	0.009360	0.000226
 486	2.4250e-01	19.4000	0.088187	-0.000003	-0.025005	-0.008472	0.000205
 487	2.4300e-01	19.4898	0.089046	0.000002	0.020972	0.007106	0.000172
 488	2.4350e-01	19.5219	0.089939	0.000002	0.021779	0.007379	0.000178
 489	2.4400e-01	19.5428	0.090939	0.000002	0.024400	0.008267	0.000200
 490	2.4450e-01	19.6005	0.091947	0.000002	0.024602	0.008335	0.000202
 491	2.4500e-01	19.6486	0.092789	0.000002	0.020569	0.006969	0.000169
 492	2.4550e-01	19.6871	0.093558	0.000002	0.018754	0.006354	0.000154
 493	2.4600e-01	19.7240	0.094657	0.000003	0.026820	0.009087	0.000220
 494	2.4650e-01	19.7449	0.095954	0.000003	0.031660	0.010727	0.000259
 495	2.4700e-01	19.7898	0.097094	0.000003	0.027828	0.009429	0.000228
 496	2.4750e-01	19.8476	0.097962	0.000002	0.021174	0.007174	0.000174
 497	2.4800e-01	19.8668	0.098920	0.000002	0.023392	0.007925	0.000192
 498	2.4850e-01	19.9230	0.099780	0.000002	0.020972	0.007106	0.000172
 499	2.4900e-01	19.9534	0.100672	0.000002	0.021779	0.007379	0.000178
 500	2.4950e-01	19.9919	0.101432	0.000002	0.018552	0.006286	0.000152
 501	2.5000e-01	20.0465	0.102374	0.000002	0.022989	0.007789	0.000188
 502	2.5050e-01	19.9743	0.103382	-0.000002	-0.024602	-0.008335	0.000202
 503	2.5100e-01	19.9149	0.104299	-0.000002	-0.022384	-0.007584	0.000183
 504	2.5150e-01	19.9101	0.105134	-0.000002	-0.020367	-0.006901	0.000167
 505	2.5200e-01	19.8636	0.105943	-0.000002	-0.019762	-0.006696	0.000162
 506	2.5250e-01	19.8219	0.106943	-0.000002	-0.024400	-0.008267	0.000200
 507	2.5300e-01	19.7433	0.107811	-0.000002	-0.021174	-0.007174	0.000174
 508	2.5350e-01	19.7337	0.108554	-0.000002	-0.018149	-0.006149	0.000149
 509	2.5400e-01	19.6968	0.108984	-0.000001	-0.010486	-0.003553	0.000086
 510	2.5450e-01	19.6599	0.109397	-0.000001	-0.010083	-0.003416	0.000083
 511	2.5500e-01	19.6262	0.109901	-0.000001	-0.012301	-0.004168	0.000101
 512	2.5550e-01	19.5716	0.110290	-0.000001	-0.009478	-0.003211	0.000078
 513	2.5600e-01	19.5299	0.110818	-0.000001	-0.012906	-0.004373	0.000106
 514	2.5650e-01	19.5171	0.111521	-0.000002	-0.017141	-0.005807	0.000140
 515	2.5700e-01	19.4674	0.112074	-0.000001	-0.013511	-0.004578	0.000111
 516	2.5750e-01	19.4192	0.112331	-0.000001	-0.006251	-0.002118	0.000051
 517	2.5800e-01	19.4048	0.112397	-0.000000	-0.001613	-0.000547	0.000013
 518	2.5850e-01	19.3438	0.112768	-0.000001	-0.009074	-0.003075	0.000074
 519	2.5900e-01	19.2893	0.113264	-0.000001	-0.012099	-0.004099	0.000099
 520	2.5950e-01	19.2524	0.113776	-0.000001	-0.012503	-0.004236	0.000102
 521	2.6000e-01	19.2123	0.113884	-0.000000	-0.002622	-0.000888	0.000021
 522	2.6050e-01	19.1786	0.114000	-0.000000	-0.002823	-0.000957	0.000023
 523	2.6100e-01	19.1529	0.114132	-0.000000	-0.003226	-0.001093	0.000026
 524	2.6150e-01	19.0904	0.114512	-0.000001	-0.009276	-0.003143	0.000076
 525	2.6200e-01	19.0759	0.114710	-0.000000	-0.004840	-0.001640	0.000040
 526	2.6250e-01	19.0471	0.114694	0.000000	0.000403	0.000137	-0.000003
 527	2.6300e-01	18.9652	0.114760	-0.000000	-0.001613	-0.000547	0.000013
 528	2.6350e-01	18.9476	0.114892	-0.000000	-0.003226	-0.001093	0.000026
 529	2.6400e-01	18.8995	0.114801	0.000000	0.002218	0.000752	-0.000018
 530	2.6450e-01	18.8818	0.114619	0.000000	0.004436	0.001503	-0.000036
 531	2.6500e-01	18.8048	0.114330	0.000001	0.007058	0.002391	-0.000058
 532	2.6550e-01	18.7679	0.114396	-0.000000	-0.001613	-0.000547	0.000013
 533	2.6600e-01	18.7423	0.115049	-0.000002	-0.015931	-0.005397	0.000131
 534	2.6650e-01	18.7294	0.115561	-0.000001	-0.012503	-0.004236	0.000102
 535	2.6700e-01	18.6572	0.115826	-0.000001	-0.006453	-0.002186	0.000053
 536	2.6750e-01	18.6316	0.115826	-0.000000	-0.000000	-0.000000	0.000000
 537	2.6800e-01	18.5850	0.115883	-0.000000	-0.001412	-0.000478	0.000012
 538	2.6850e-01	18.5225	0.116123	-0.000001	-0.005848	-0.001981	0.000048
 539	2.6900e-01	18.4952	0.116181	-0.000000	-0.001412	-0.000478	0.000012
 540	2.6950e-01	18.4792	0.116007	0.000000	0.004235	0.001435	-0.000035
 541	2.7000e-01	18.4118	0.115512	0.000001	0.012099	0.004099	-0.000099
 542	2.7050e-01	18.3973	0.115041	0.000001	0.011494	0.003894	-0.000094
 543	2.7100e-01	18.3011	0.114834	0.000001	0.005041	0.001708	-0.000041
 544	2.7150e-01	18.2754	0.114999	-0.000000	-0.004033	-0.001366	0.000033
 545	2.7200e-01	18.2465	0.115181	-0.000000	-0.004436	-0.001503	0.000036
 546	2.7250e-01	18.2305	0.115338	-0.000000	-0.003831	-0.001298	0.000031
 547	2.7300e-01	18.1808	0.115346	-0.000000	-0.000202	-0.000068	0.000002
 548	2.7350e-01	18.1599	0.114983	0.000001	0.008873	0.003006	-0.000073
 549	2.7400e-01	18.1150	0.114487	0.000001	0.012099	0.004099	-0.000099
 550	2.7450e-01	18.0492	0.114570	-0.000000	-0.002017	-0.000683	0.000017
 551	2.7500e-01	17.9931	0.114727	-0.000000	-0.003831	-0.001298	0.000031
 552	2.7550e-01	17.9834	0.114702	0.000000	0.000605	0.000205	-0.000005
 553	2.7600e-01	17.9273	0.114545	0.000000	0.003831	0.001298	-0.000031
 554	2.7650e-01	17.9289	0.114148	-0.000001	-0.009679	-0.003279	-0.000079
 555	2.7700e-01	17.8647	0.114066	0.000000	0.002017	0.000683	-0.000017
 556	2.7750e-01	17.7974	0.114239	-0.000000	-0.004235	-0.001435	0.000035
 557	2.7800e-01	17.7797	0.114214	0.000000	0.000605	0.000205	-0.000005
 558	2.7850e-01	17.7236	0.114107	0.000000	0.002622	0.000888	-0.000021
 559	2.7900e-01	17.6915	0.113752	0.000001	0.008671	0.002938	-0.000071
 560	2.7950e-01	17.6642	0.113595	0.000000	0.003831	0.001298	-0.000031
 561	2.8000e-01	17.6257	0.113636	-0.000000	-0.001008	-0.000342	0.000008
 562	2.8050e-01	17.5744	0.113677	-0.000000	-0.001008	-0.000342	0.000008
 563	2.8100e-01	17.5423	0.113388	0.000001	0.007058	0.002391	-0.000058
 564	2.8150e-01	17.4958	0.113074	0.000001	0.007663	0.002596	-0.000063
 565	2.8200e-01	17.4605	0.112975	0.000000	0.002420	0.000820	-0.000020
 566	2.8250e-01	17.4188	0.112942	0.000000	0.000807	0.000273	-0.000007
 567	2.8300e-01	17.3594	0.112835	0.000000	0.002622	0.000888	-0.000021
 568	2.8350e-01	17.3321	0.112397	0.000001	0.010688	0.003621	-0.000088
 569	2.8400e-01	17.3097	0.112281	0.000000	0.002823	0.000957	-0.000023
 570	2.8450e-01	17.2583	0.112273	0.000000	0.000202	0.000068	-0.000002
 571	2.8500e-01	17.2279	0.112281	-0.000000	-0.000202	-0.000068	0.000002
 572	2.8550e-01	17.1749	0.112074	0.000001	0.005041	0.001708	-0.000041
 573	2.8600e-01	17.1300	0.111950	0.000000	0.003025	0.001025	-0.000025
 574	2.8650e-01	17.0787	0.112157	-0.000001	-0.005041	-0.001708	0.000041
 575	2.8700e-01	17.0787	0.112149	0.000000	0.000202	0.000068	-0.000002
 576	2.8750e-01	17.0370	0.112025	0.000000	0.003025	0.001025	-0.000025
 577	2.8800e-01	16.9760	0.111785	0.000001	0.005848	0.001981	-0.000048
 578	2.8850e-01	16.9407	0.111686	0.000000	0.002420	0.000820	-0.000020
 579	2.8900e-01	16.9022	0.111636	0.000000	0.001210	0.000410	-0.000010
 580	2.8950e-01	16.8669	0.111496	0.000000	0.003428	0.001161	-0.000028
 581	2.9000e-01	16.8011	0.111058	0.000001	0.010688	0.003621	-0.000088
 582	2.9050e-01	16.7867	0.111000	0.000000	0.001412	0.000478	-0.000012
 583	2.9100e-01	16.7418	0.110951	0.000000	0.001210	0.000410	-0.000010
 584	2.9150e-01	16.6840	0.110794	0.000000	0.003831	0.001298	-0.000031
 585	2.9200e-01	16.6680	0.110513	0.000001	0.006856	0.002323	-0.000056
 586	2.9250e-01	16.6247	0.110455	0.000000	0.001412	0.000478	-0.000012
 587	2.9300e-01	16.5717	0.110571	-0.000000	-0.002823	-0.000957	0.000023
 588	2.9350e-01	16.5252	0.110678	-0.000000	-0.002622	-0.000888	0.000021
 589	2.9400e-01	16.4979	0.110587	0.000000	0.002218	0.000752	-0.000018
 590	2.9450e-01	16.4402	0.110331	0.000001	0.006251	0.002118	-0.000051
 591	2.9500e-01	16.4225	0.110042	0.000001	0.007058	0.002391	-0.000058
 592	2.9550e-01	16.3888	0.109794	0.000001	0.006050	0.002050	-0.000050
 593	2.9600e-01	16.3343	0.109381	0.000001	0.010083	0.003416	-0.000083
 594	2.9650e-01	16.3311	0.108918	0.000001	0.011293	0.003826	-0.000093
 595	2.9700e-01	16.2557	0.108885	0.000000	0.000807	0.000273	-0.000007
 596	2.9750e-01	16.2108	0.108637	0.000001	0.006050	0.002050	-0.000050
 597	2.9800e-01	16.2011	0.108257	0.000001	0.009276	0.003143	-0.000076
 598	2.9850e-01	16.1626	0.108009	0.000001	0.006050	0.002050	-0.000050
 599	2.9900e-01	16.0824	0.108100	-0.000000	-0.002218	-0.000752	0.000018
 600	2.9950e-01	16.0584	0.108174	-0.000000	-0.001815	-0.000615	0.000015
 601	3.0000e-01	16.0167	0.108042	0.000000	0.003226	0.001093	-0.000026
 602	3.0050e-01	15.9830	0.107621	0.000001	0.010284	0.003484	-0.000084
 603	3.0100e-01	15.9220	0.107456	0.000000	0.004033	0.001366	-0.000033
 604	3.0150e-01	15.8883	0.107340	0.000000	0.002823	0.000957	-0.000023
 605	3.0200e-01	15.8434	0.107224	0.000000	0.002823	0.000957	-0.000023
 606	3.0250e-01	15.7921	0.107183	0.000000	0.001008	0.000342	-0.000008
 607	3.0300e-01	15.7857	0.107257	-0.000000	-0.001815	-0.000615	0.000015
 608	3.0350e-01	15.7327	0.106960	0.000001	0.007260	0.002460	-0.000059
 609	3.0400e-01	15.7070	0.106795	0.000000	0.004033	0.001366	-0.000033
 610	3.0450e-01	15.6734	0.106555	0.000001	0.005848	0.001981	-0.000048
 611	3.0500e-01	15.6252	0.106340	0.000001	0.005243	0.001776	-0.000043
 612	3.0550e-01	15.5803	0.106365	-0.000000	-0.000605	-0.000205	0.000005
 613	3.0600e-01	15.5226	0.106100	0.000001	0.006453	0.002186	-0.000053
 614	3.0650e-01	15.5065	0.105473	0.000002	0.015326	0.005193	-0.000126
 615	3.0700e-01	15.4552	0.104944	0.000001	0.012906	0.004373	-0.000106
 616	3.0750e-01	15.4006	0.104663	0.000001	0.006856	0.002323	-0.000056
 617	3.0800e-01	15.3525	0.104762	-0.000000	-0.002420	-0.000820	0.000020
 618	3.0850e-01	15.3381	0.105282	-0.000001	-0.012704	-0.004304	0.000104
 619	3.0900e-01	15.2627	0.105406	-0.000000	-0.003025	-0.001025	0.000025
 620	3.0950e-01	15.2835	0.105382	-0.000000	-0.000605	-0.000205	-0.000005
 621	3.1000e-01	15.2001	0.105481	-0.000000	-0.002420	-0.000820	0.000020
 622	3.1050e-01	15.1841	0.105737	-0.000001	-0.006251	-0.002118	0.000051
 623	3.1100e-01	15.1359	0.105836	-0.000000	-0.002420	-0.000820	0.000020
 624	3.1150e-01	15.0846	0.105547	0.000001	0.007058	0.002391	-0.000058
 625	3.1200e-01	15.0686	0.105340	0.000001	0.005041	0.001708	-0.000041
 626	3.1250e-01	15.0252	0.104935	0.000001	0.009881	0.003348	-0.000081
 627	3.1300e-01	14.9819	0.104291	0.000002	0.015729	0.005329	-0.000129
 628	3.1350e-01	14.9498	0.103952	0.000001	0.008268	0.002801	-0.000068
 629	3.1400e-01	14.8953	0.103969	-0.000000	-0.000403	-0.000137	0.000003
 630	3.1450e-01	14.8359	0.104225	-0.000001	-0.006251	-0.002118	0.000051
 631	3.1500e-01	14.7750	0.104266	-0.000000	-0.001008	-0.000342	0.000008
 632	3.1550e-01	14.7670	0.104274	-0.000000	-0.000202	-0.000068	0.000002
 633	3.1600e-01	14.7397	0.103762	0.000001	0.012503	0.004236	-0.000102
 634	3.1650e-01	14.6900	0.103357	0.000001	0.009881	0.003348	-0.000081
 635	3.1700e-01	14.6595	0.103415	-0.000000	-0.001412	-0.000478	0.000012
 636	3.1750e-01	14.6386	0.103506	-0.000000	-0.002218	-0.000752	0.000018
 637	3.1800e-01	14.5905	0.103547	-0.000000	-0.001008	-0.000342	0.000008
 638	3.1850e-01	14.5376	0.103415	0.000000	0.003226	0.001093	-0.000026
 639	3.1900e-01	14.5087	0.103010	0.000001	0.009881	0.003348	-0.000081
 640	3.1950e-01	14.4606	0.102713	0.000001	0.007260	0.002460	-0.000059
 641	3.2000e-01	14.4365	0.102862	-0.000000	-0.003630	-0.001230	0.000030
 642	3.2050e-01	14.3691	0.102837	0.000000	0.000605	0.000205	-0.000005
 643	3.2100e-01	14.3065	0.102754	0.000000	0.002017	0.000683	-0.000017
 644	3.2150e-01	14.3130	0.102324	-0.000001	-0.010486	-0.003553	-0.000086
 645	3.2200e-01	14.2632	0.102110	0.000001	0.005243	0.001776	-0.000043
 646	3.2250e-01	14.2199	0.102283	-0.000000	-0.004235	-0.001435	0.000035
 647	3.2300e-01	14.1750	0.102258	0.000000	0.000605	0.000205	-0.000005
 648	3.2350e-01	14.1686	0.102002	0.000001	0.006251	0.002118	-0.000051
 649	3.2400e-01	14.1189	0.101589	0.000001	0.010083	0.003416	-0.000083
 650	3.2450e-01	14.0531	0.101622	-0.000000	-0.000807	-0.000273	0.000007
 651	3.2500e-01	14.0386	0.101713	-0.000000	-0.002218	-0.000752	0.000018
 652	3.2550e-01	13.9681	0.101515	0.000000	0.004840	0.001640	-0.000040
 653	3.2600e-01	13.9472	0.101184	0.000001	0.008066	0.002733	-0.000066
 654	3.2650e-01	13.8830	0.100961	0.000001	0.005445	0.001845	-0.000045
 655	3.2700e-01	13.8558	0.101002	-0.000000	-0.001008	-0.000342	0.000008
 656	3.2750e-01	13.7772	0.100812	0.000000	0.004638	0.001571	-0.000038
 657	3.2800e-01	13.7691	0.100548	0.000001	0.006453	0.002186	-0.000053
 658	3.2850e-01	13.7467	0.100267	0.000001	0.006856	0.002323	-0.000056
 659	3.2900e-01	13.6777	0.100267	-0.000000	-0.000000	-0.000000	0.000000
 660	3.2950e-01	13.6825	0.100292	0.000000	0.000605	0.000205	0.000005
 661	3.3000e-01	13.5927	0.100044	0.000001	0.006050	0.002050	-0.000050
 662	3.3050e-01	13.5718	0.099879	0.000000	0.004033	0.001366	-0.000033
 663	3.3100e-01	13.5317	0.099829	0.000000	0.001210	0.000410	-0.000010
 664	3.3150e-01	13.5076	0.099937	-0.000000	-0.002622	-0.000888	0.000021
 665	3.3200e-01	13.4691	0.099755	0.000000	0.004436	0.001503	-0.000036
 666	3.3250e-01	13.4114	0.099441	0.000001	0.007663	0.002596	-0.000063
 667	3.3300e-01	13.3921	0.099441	-0.000000	-0.000000	-0.000000	0.000000
 668	3.3350e-01	13.3103	0.099490	-0.000000	-0.001210	-0.000410	0.000010
 669	3.3400e-01	13.2574	0.099300	0.000000	0.004638	0.001571	-0.000038
 670	3.3450e-01	13.2510	0.098978	0.000001	0.007865	0.002665	-0.000064
 671	3.3500e-01	13.2028	0.098895	0.000000	0.002017	0.000683	-0.000017
 672	3.3550e-01	13.1772	0.098813	0.000000	0.002017	0.000683	-0.000017
 673	3.3600e-01	13.1194	0.098507	0.000001	0.007461	0.002528	-0.000061
 674	3.3650e-01	13.0841	0.098325	0.000000	0.004436	0.001503	-0.000036
 675	3.3700e-01	13.0504	0.098177	0.000000	0.003630	0.001230	-0.000030
 676	3.3750e-01	13.0007	0.098193	-0.000000	-0.000403	-0.000137	0.000003
 677	3.3800e-01	12.9638	0.098135	0.000000	0.001412	0.000478	-0.000012
 678	3.3850e-01	12.9301	0.098053	0.000000	0.002017	0.000683	-0.000017
 679	3.3900e-01	12.9365	0.098243	0.000000	0.004638	0.001571	0.000038
 680	3.3950e-01	12.8740	0.098449	-0.000001	-0.005041	-0.001708	0.000041
 681	3.4000e-01	12.8162	0.098532	-0.000000	-0.002017	-0.000683	0.000017
 682	3.4050e-01	12.7649	0.098391	0.000000	0.003428	0.001161	-0.000028
 683	3.4100e-01	12.7296	0.098011	0.000001	0.009276	0.003143	-0.000076
 684	3.4150e-01	12.7135	0.097582	0.000001	0.010486	0.003553	-0.000086
 685	3.4200e-01	12.6574	0.097326	0.000001	0.006251	0.002118	-0.000051
 686	3.4250e-01	12.6141	0.097160	0.000000	0.004033	0.001366	-0.000033
 687	3.4300e-01	12.5708	0.096772	0.000001	0.009478	0.003211	-0.000078
 688	3.4350e-01	12.5403	0.096648	0.000000	0.003025	0.001025	-0.000025
 689	3.4400e-01	12.5050	0.096532	0.000000	0.002823	0.000957	-0.000023
 690	3.4450e-01	12.4665	0.096293	0.000001	0.005848	0.001981	-0.000048
 691	3.4500e-01	12.3831	0.096318	-0.000000	-0.000605	-0.000205	0.000005
 692	3.4550e-01	12.3927	0.096301	-0.000000	-0.000403	-0.000137	-0.000003
 693	3.4600e-01	12.3366	0.096483	-0.000000	-0.004436	-0.001503	0.000036
 694	3.4650e-01	12.2900	0.096408	0.000000	0.001815	0.000615	-0.000015
 695	3.4700e-01	12.2403	0.096144	0.000001	0.006453	0.002186	-0.000053
 696	3.4750e-01	12.2082	0.095954	0.000000	0.004638	0.001571	-0.000038
 697	3.4800e-01	12.1922	0.095880	0.000000	0.001815	0.000615	-0.000015
 698	3.4850e-01	12.1344	0.095566	0.000001	0.007663	0.002596	-0.000063
 699	3.4900e-01	12.1071	0.095268	0.000001	0.007260	0.002460	-0.000059
 700	3.4950e-01	12.0510	0.094905	0.000001	0.008873	0.003006	-0.000073
 701	3.5000e-01	12.0189	0.094310	0.000001	0.014519	0.004919	-0.000119
 702	3.5050e-01	11.9788	0.094186	0.000000	0.003025	0.001025	-0.000025
 703	3.5100e-01	11.9194	0.094401	-0.000001	-0.005243	-0.001776	0.000043
 704	3.5150e-01	11.9066	0.094706	-0.000001	-0.007461	-0.002528	0.000061
 705	3.5200e-01	11.8505	0.094888	-0.000000	-0.004436	-0.001503	0.000036
 706	3.5250e-01	11.8007	0.094805	0.000000	0.002017	0.000683	-0.000017
 707	3.5300e-01	11.7606	0.094706	0.000000	0.002420	0.000820	-0.000020
 708	3.5350e-01	11.7366	0.094549	0.000000	0.003831	0.001298	-0.000031
 709	3.5400e-01	11.6997	0.094615	-0.000000	-0.001613	-0.000547	0.000013
 710	3.5450e-01	11.6564	0.094483	0.000000	0.003226	0.001093	-0.000026
 711	3.5500e-01	11.6483	0.093872	0.000001	0.014922	0.005056	-0.000122
 712	3.5550e-01	11.5713	0.093219	0.000002	0.015931	0.005397	-0.000131
 713	3.5600e-01	11.5425	0.092880	0.000001	0.008268	0.002801	-0.000068
 714	3.5650e-01	11.5023	0.093070	-0.000000	-0.004638	-0.001571	0.000038
 715	3.5700e-01	11.4687	0.093120	-0.000000	-0.001210	-0.000410	0.000010
 716	3.5750e-01	11.4221	0.093153	-0.000000	-0.000807	-0.000273	0.000007
 717	3.5800e-01	11.3852	0.092880	0.000001	0.006655	0.002255	-0.000055
 718	3.5850e-01	11.3483	0.092459	0.000001	0.010284	0.003484	-0.000084
 719	3.5900e-01	11.2970	0.091988	0.000001	0.011494	0.003894	-0.000094
 720	3.5950e-01	11.2922	0.091831	0.000000	0.003831	0.001298	-0.000031
 721	3.6000e-01	11.2473	0.091880	-0.000000	-0.001210	-0.000410	0.000010
 722	3.6050e-01	11.1895	0.091823	0.000000	0.001412	0.000478	-0.000012
 723	3.6100e-01	11.1462	0.091740	0.000000	0.002017	0.000683	-0.000017
 724	3.6150e-01	11.0917	0.091244	0.000001	0.012099	0.004099	-0.000099
 725	3.6200e-01	11.0708	0.090906	0.000001	0.008268	0.002801	-0.000068
 726	3.6250e-01	11.0115	0.090922	-0.000000	-0.000403	-0.000137	0.000003
 727	3.6300e-01	10.9906	0.091062	-0.000000	-0.003428	-0.001161	0.000028
 728	3.6350e-01	10.9216	0.090963	0.000000	0.002420	0.000820	-0.000020
 729	3.6400e-01	10.8927	0.090443	0.000001	0.012704	0.004304	-0.000104
 730	3.6450e-01	10.8639	0.090195	0.000001	0.006050	0.002050	-0.000050
 731	3.6500e-01	10.8077	0.090269	-0.000000	-0.001815	-0.000615	0.000015
 732	3.6550e-01	10.7452	0.090261	0.000000	0.000202	0.000068	-0.000002
 733	3.6600e-01	10.7371	0.089848	0.000001	0.010083	0.003416	-0.000083
 734	3.6650e-01	10.7034	0.089484	0.000001	0.008873	0.003006	-0.000073
 735	3.6700e-01	10.6553	0.089336	0.000000	0.003630	0.001230	-0.000030
 736	3.6750e-01	10.6168	0.089493	-0.000000	-0.003831	-0.001298	0.000031
 737	3.6800e-01	10.5671	0.089245	0.000001	0.006050	0.002050	-0.000050
 738	3.6850e-01	10.5302	0.088815	0.000001	0.010486	0.003553	-0.000086
 739	3.6900e-01	10.5109	0.088658	0.000000	0.003831	0.001298	-0.000031
 740	3.6950e-01	10.4740	0.088815	-0.000000	-0.003831	-0.001298	0.000031
 741	3.7000e-01	10.4195	0.088526	0.000001	0.007058	0.002391	-0.000058
 742	3.7050e-01	10.3746	0.088171	0.000001	0.008671	0.002938	-0.000071
 743	3.7100e-01	10.3377	0.087848	0.000001	0.007865	0.002665	-0.000064
 744	3.7150e-01	10.3120	0.087890	-0.000000	-0.001008	-0.000342	0.000008
 745	3.7200e-01	10.2559	0.087757	0.000000	0.003226	0.001093	-0.000026
 746	3.7250e-01	10.2254	0.087427	0.000001	0.008066	0.002733	-0.000066
 747	3.7300e-01	10.1404	0.087138	0.000001	0.007058	0.002391	-0.000058
 748	3.7350e-01	10.1339	0.087121	0.000000	0.000403	0.000137	-0.000003
 749	3.7400e-01	10.1067	0.087014	0.000000	0.002622	0.000888	-0.000021
 750	3.7450e-01	10.0617	0.086758	0.000001	0.006251	0.002118	-0.000051
 751	3.7500e-01	10.0393	0.086559	0.000000	0.004840	0.001640	-0.000040
 752	3.7550e-01	9.9575	0.086419	0.000000	0.003428	0.001161	-0.000028
 753	3.7600e-01	9.9222	0.086287	0.000000	0.003226	0.001093	-0.000026
 754	3.7650e-01	9.9061	0.086171	0.000000	0.002823	0.000957	-0.000023
 755	3.7700e-01	9.8612	0.085865	0.000001	0.007461	0.002528	-0.000061
 756	3.7750e-01	9.8147	0.085626	0.000001	0.005848	0.001981	-0.000048
 757	3.7800e-01	9.7682	0.085493	0.000000	0.003226	0.001093	-0.000026
 758	3.7850e-01	9.7200	0.085279	0.000001	0.005243	0.001776	-0.000043
 759	3.7900e-01	9.7088	0.085031	0.000001	0.006050	0.002050	-0.000050
 760	3.7950e-01	9.6543	0.084733	0.000001	0.007260	0.002460	-0.000059
 761	3.8000e-01	9.6174	0.084609	0.000000	0.003025	0.001025	-0.000025
 762	3.8050e-01	9.5644	0.084312	0.000001	0.007260	0.002460	-0.000059
 763	3.8100e-01	9.5211	0.083907	0.000001	0.009881	0.003348	-0.000081
 764	3.8150e-01	9.4955	0.083791	0.000000	0.002823	0.000957	-0.000023
 765	3.8200e-01	9.4521	0.083791	-0.000000	-0.000000	-0.000000	0.000000
 766	3.8250e-01	9.4185	0.083734	0.000000	0.001412	0.000478	-0.000012
 767	3.8300e-01	9.3655	0.083411	0.000001	0.007865	0.002665	-0.000064
 768	3.8350e-01	9.3511	0.083139	0.000001	0.006655	0.002255	-0.000055
 769	3.8400e-01	9.2773	0.083073	0.000000	0.001613	0.000547	-0.000013
 770	3.8450e-01	9.2340	0.082874	0.000000	0.004840	0.001640	-0.000040
 771	3.8500e-01	9.2195	0.082684	0.000000	0.004638	0.001571	-0.000038
 772	3.8550e-01	9.1698	0.082775	-0.000000	-0.002218	-0.000752	0.000018
 773	3.8600e-01	9.1554	0.082709	0.000000	0.001613	0.000547	-0.000013
 774	3.8650e-01	9.0928	0.082560	0.000000	0.003630	0.001230	-0.000030
 775	3.8700e-01	9.0784	0.082172	0.000001	0.009478	0.003211	-0.000078
 776	3.8750e-01	9.0206	0.081618	0.000001	0.013511	0.004578	-0.000111
 777	3.8800e-01	8.9837	0.081114	0.000001	0.012301	0.004168	-0.000101
 778	3.8850e-01	8.9083	0.080767	0.000001	0.008470	0.002870	-0.000069
 779	3.8900e-01	8.8971	0.080685	0.000000	0.002017	0.000683	-0.000017
 780	3.8950e-01	8.8554	0.080462	0.000001	0.005445	0.001845	-0.000045
 781	3.9000e-01	8.8217	0.080205	0.000001	0.006251	0.002118	-0.000051
 782	3.9050e-01	8.7735	0.079966	0.000001	0.005848	0.001981	-0.000048
 783	3.9100e-01	8.7286	0.079842	0.000000	0.003025	0.001025	-0.000025
 784	3.9150e-01	8.6853	0.079528	0.000001	0.007663	0.002596	-0.000063
 785	3.9200e-01	8.6436	0.079346	0.000000	0.004436	0.001503	-0.000036
 786	3.9250e-01	8.6115	0.079049	0.000001	0.007260	0.002460	-0.000059
 787	3.9300e-01	8.5634	0.078776	0.000001	0.006655	0.002255	-0.000055
 788	3.9350e-01	8.5297	0.078892	-0.000000	-0.002823	-0.000957	0.000023
 789	3.9400e-01	8.4976	0.078933	-0.000000	-0.001008	-0.000342	0.000008
 790	3.9450e-01	8.4992	0.078685	-0.000001	-0.006050	-0.002050	-0.000050
 791	3.9500e-01	8.4174	0.078702	-0.000000	-0.000403	-0.000137	0.000003
 792	3.9550e-01	8.3725	0.078669	0.000000	0.000807	0.000273	-0.000007
 793	3.9600e-01	8.3228	0.078644	0.000000	0.000605	0.000205	-0.000005
 794	3.9650e-01	8.2875	0.078346	0.000001	0.007260	0.002460	-0.000059
 795	3.9700e-01	8.2762	0.077834	0.000001	0.012503	0.004236	-0.000102
 796	3.9750e-01	8.2137	0.077115	0.000002	0.017544	0.005944	-0.000144
 797	3.9800e-01	8.2105	0.076644	0.000001	0.011494	0.003894	-0.000094
 798	3.9850e-01	8.1110	0.076297	0.000001	0.008470	0.002870	-0.000069
 799	3.9900e-01	8.0805	0.076495	-0.000000	-0.004840	-0.001640	0.000040
 800	3.9950e-01	8.0516	0.076446	0.000000	0.001210	0.000410	-0.000010
 801	4.0000e-01	8.0115	0.076388	0.000000	0.001412	0.000478	-0.000012
 802	4.0050e-01	7.9506	0.076363	0.000000	0.000605	0.000205	-0.000005
 803	4.0100e-01	7.9297	0.075975	0.000001	0.009478	0.003211	-0.000078
 804	4.0150e-01	7.8832	0.075206	0.000002	0.018754	0.006354	-0.000154
 805	4.0200e-01	7.8575	0.074942	0.000001	0.006453	0.002186	-0.000053
 806	4.0250e-01	7.7837	0.074942	-0.000000	-0.000000	-0.000000	0.000000
 807	4.0300e-01	7.8014	0.074851	-0.000000	-0.002218	-0.000752	-0.000018
 808	4.0350e-01	7.7693	0.074430	0.000001	0.010284	0.003484	-0.000084
 809	4.0400e-01	7.6859	0.073769	0.000002	0.016132	0.005466	-0.000132
 810	4.0450e-01	7.6458	0.073422	0.000001	0.008470	0.002870	-0.000069
 811	4.0500e-01	7.6281	0.073546	-0.000000	-0.003025	-0.001025	0.000025
 812	4.0550e-01	7.5816	0.073447	0.000000	0.002420	0.000820	-0.000020
 813	4.0600e-01	7.5319	0.073182	0.000001	0.006453	0.002186	-0.000053
 814	4.0650e-01	7.4950	0.072662	0.000001	0.012704	0.004304	-0.000104
 815	4.0700e-01	7.4180	0.072604	0.000000	0.001412	0.000478	-0.000012
 816	4.0750e-01	7.4132	0.072604	-0.000000	-0.000000	-0.000000	0.000000
 817	4.0800e-01	7.3731	0.072488	0.000000	0.002823	0.000957	-0.000023
 818	4.0850e-01	7.3169	0.072116	0.000001	0.009074	0.003075	-0.000074
 819	4.0900e-01	7.3041	0.071901	0.000001	0.005243	0.001776	-0.000043
 820	4.0950e-01	7.2495	0.071744	0.000000	0.003831	0.001298	-0.000031
 821	4.1000e-01	7.2239	0.071513	0.000001	0.005646	0.001913	-0.000046
 822	4.1050e-01	7.1501	0.071174	0.000001	0.008268	0.002801	-0.000068
 823	4.1100e-01	7.1084	0.070604	0.000001	0.013914	0.004714	-0.000114
 824	4.1150e-01	7.1100	0.070356	-0.000001	-0.006050	-0.002050	-0.000050
 825	4.1200e-01	7.0666	0.070257	0.000000	0.002420	0.000820	-0.000020
 826	4.1250e-01	7.0442	0.070026	0.000001	0.005646	0.001913	-0.000046
 827	4.1300e-01	6.9640	0.069538	0.000001	0.011898	0.004031	-0.000097
 828	4.1350e-01	6.9271	0.069324	0.000001	0.005243	0.001776	-0.000043
 829	4.1400e-01	6.8838	0.069158	0.000000	0.004033	0.001366	-0.000033
 830	4.1450e-01	6.8372	0.069001	0.000000	0.003831	0.001298	-0.000031
 831	4.1500e-01	6.8100	0.068704	0.000001	0.007260	0.002460	-0.000059
 832	4.1550e-01	6.7699	0.068522	0.000000	0.004436	0.001503	-0.000036
 833	4.1600e-01	6.7506	0.068481	0.000000	0.001008	0.000342	-0.000008
 834	4.1650e-01	6.7121	0.068142	0.000001	0.008268	0.002801	-0.000068
 835	4.1700e-01	6.6367	0.067844	0.000001	0.007260	0.002460	-0.000059
 836	4.1750e-01	6.5950	0.067489	0.000001	0.008671	0.002938	-0.000071
 837	4.1800e-01	6.5838	0.067299	0.000000	0.004638	0.001571	-0.000038
 838	4.1850e-01	6.5725	0.067076	0.000001	0.005445	0.001845	-0.000045
 839	4.1900e-01	6.4907	0.066779	0.000001	0.007260	0.002460	-0.000059
 840	4.1950e-01	6.4635	0.066349	0.000001	0.010486	0.003553	-0.000086
 841	4.2000e-01	6.4025	0.066134	0.000001	0.005243	0.001776	-0.000043
 842	4.2050e-01	6.3800	0.065878	0.000001	0.006251	0.002118	-0.000051
 843	4.2100e-01	6.3287	0.065556	0.000001	0.007865	0.002665	-0.000064
 844	4.2150e-01	6.3271	0.065258	0.000001	0.007260	0.002460	-0.000059
 845	4.2200e-01	6.2421	0.065035	0.000001	0.005445	0.001845	-0.000045
 846	4.2250e-01	6.2148	0.065043	-0.000000	-0.000202	-0.000068	0.000002
 847	4.2300e-01	6.1731	0.064763	0.000001	0.006856	0.002323	-0.000056
 848	4.2350e-01	6.1378	0.064415	0.000001	0.008470	0.002870	-0.000069
 849	4.2400e-01	6.0688	0.064143	0.000001	0.006655	0.002255	-0.000055
 850	4.2450e-01	6.0415	0.063862	0.000001	0.006856	0.002323	-0.000056
 851	4.2500e-01	6.0191	0.063564	0.000001	0.007260	0.002460	-0.000059
 852	4.2550e-01	5.9774	0.063234	0.000001	0.008066	0.002733	-0.000066
 853	4.2600e-01	5.9260	0.062755	0.000001	0.011696	0.003963	-0.000096
 854	4.2650e-01	5.8923	0.062589	0.000000	0.004033	0.001366	-0.000033
 855	4.2700e-01	5.8410	0.062432	0.000000	0.003831	0.001298	-0.000031
 856	4.2750e-01	5.8025	0.061995	0.000001	0.010688	0.003621	-0.000088
 857	4.2800e-01	5.7576	0.061763	0.000001	0.005646	0.001913	-0.000046
 858	4.2850e-01	5.7592	0.061457	-0.000001	-0.007461	-0.002528	-0.000061
 859	4.2900e-01	5.7175	0.061276	0.000000	0.004436	0.001503	-0.000036
 860	4.2950e-01	5.6806	0.060962	0.000001	0.007663	0.002596	-0.000063
 861	4.3000e-01	5.6084	0.060565	0.000001	0.009679	0.003279	-0.000079
 862	4.3050e-01	5.6068	0.060416	0.000000	0.003630	0.001230	-0.000030
 863	4.3100e-01	5.5442	0.060152	0.000001	0.006453	0.002186	-0.000053
 864	4.3150e-01	5.4704	0.059879	0.000001	0.006655	0.002255	-0.000055
 865	4.3200e-01	5.4464	0.059772	0.000000	0.002622	0.000888	-0.000021
 866	4.3250e-01	5.4319	0.059582	0.000000	0.004638	0.001571	-0.000038
 867	4.3300e-01	5.3726	0.059367	0.000001	0.005243	0.001776	-0.000043
 868	4.3350e-01	5.3116	0.058888	0.000001	0.011696	0.003963	-0.000096
 869	4.3400e-01	5.2859	0.057938	0.000002	0.023190	0.007857	-0.000190
 870	4.3450e-01	5.2507	0.057268	0.000002	0.016334	0.005534	-0.000134
 871	4.3500e-01	5.2057	0.056822	0.000001	0.010889	0.003689	-0.000089
 872	4.3550e-01	5.1929	0.056516	0.000001	0.007461	0.002528	-0.000061
 873	4.3600e-01	5.1512	0.056558	-0.000000	-0.001008	-0.000342	0.000008
 874	4.3650e-01	5.0966	0.056814	-0.000001	-0.006251	-0.002118	0.000051
 875	4.3700e-01	5.0742	0.056616	0.000000	0.004840	0.001640	-0.000040
 876	4.3750e-01	5.0437	0.056599	0.000000	0.000403	0.000137	-0.000003
 877	4.3800e-01	5.0004	0.056632	-0.000000	-0.000807	-0.000273	0.000007
 878	4.3850e-01	4.9394	0.056781	-0.000000	-0.003630	-0.001230	0.000030
 879	4.3900e-01	4.9009	0.056541	0.000001	0.005848	0.001981	-0.000048
 880	4.3950e-01	4.8705	0.056112	0.000001	0.010486	0.003553	-0.000086
 881	4.4000e-01	4.8047	0.055186	0.000002	0.022585	0.007652	-0.000185
 882	4.4050e-01	4.7902	0.054170	0.000002	0.024804	0.008404	-0.000203
 883	4.4100e-01	4.7373	0.053724	0.000001	0.010889	0.003689	-0.000089
 884	4.4150e-01	4.6924	0.053955	-0.000001	-0.005646	-0.001913	0.000046
 885	4.4200e-01	4.6699	0.054054	-0.000000	-0.002420	-0.000820	0.000020
 886	4.4250e-01	4.6106	0.054104	-0.000000	-0.001210	-0.000410	0.000010
 887	4.4300e-01	4.5769	0.053938	0.000000	0.004033	0.001366	-0.000033
 888	4.4350e-01	4.5560	0.053220	0.000002	0.017544	0.005944	-0.000144
 889	4.4400e-01	4.4854	0.052840	0.000001	0.009276	0.003143	-0.000076
 890	4.4450e-01	4.4566	0.052848	-0.000000	-0.000202	-0.000068	0.000002
 891	4.4500e-01	4.4181	0.052831	0.000000	0.000403	0.000137	-0.000003
 892	4.4550e-01	4.3731	0.052542	0.000001	0.007058	0.002391	-0.000058
 893	4.4600e-01	4.3491	0.052104	0.000001	0.010688	0.003621	-0.000088
 894	4.4650e-01	4.2913	0.051484	0.000002	0.015124	0.005124	-0.000124
 895	4.4700e-01	4.2641	0.051278	0.000001	0.005041	0.001708	-0.000041
 896	4.4750e-01	4.2079	0.051096	0.000000	0.004436	0.001503	-0.000036
 897	4.4800e-01	4.1614	0.050890	0.000001	0.005041	0.001708	-0.000041
 898	4.4850e-01	4.1261	0.050319	0.000001	0.013914	0.004714	-0.000114
 899	4.4900e-01	4.0844	0.049848	0.000001	0.011494	0.003894	-0.000094
 900	4.4950e-01	4.0699	0.049601	0.000001	0.006050	0.002050	-0.000050
 901	4.5000e-01	4.0010	0.049617	-0.000000	-0.000403	-0.000137	0.000003
 902	4.5050e-01	3.9801	0.049460	0.000000	0.003831	0.001298	-0.000031
 903	4.5100e-01	3.9143	0.049105	0.000001	0.008671	0.002938	-0.000071
 904	4.5150e-01	3.8967	0.048766	0.000001	0.008268	0.002801	-0.000068
 905	4.5200e-01	3.8502	0.048741	0.000000	0.000605	0.000205	-0.000005
 906	4.5250e-01	3.8293	0.048642	0.000000	0.002420	0.000820	-0.000020
 907	4.5300e-01	3.7748	0.048336	0.000001	0.007461	0.002528	-0.000061
 908	4.5350e-01	3.7330	0.047923	0.000001	0.010083	0.003416	-0.000083
 909	4.5400e-01	3.6913	0.047675	0.000001	0.006050	0.002050	-0.000050
 910	4.5450e-01	3.6593	0.047353	0.000001	0.007865	0.002665	-0.000064
 911	4.5500e-01	3.6400	0.047163	0.000000	0.004638	0.001571	-0.000038
 912	4.5550e-01	3.5823	0.046800	0.000001	0.008873	0.003006	-0.000073
 913	4.5600e-01	3.5165	0.046353	0.000001	0.010889	0.003689	-0.000089
 914	4.5650e-01	3.4667	0.046296	0.000000	0.001412	0.000478	-0.000012
 915	4.5700e-01	3.4619	0.045891	0.000001	0.009881	0.003348	-0.000081
 916	4.5750e-01	3.4042	0.045461	0.000001	0.010486	0.003553	-0.000086
 917	4.5800e-01	3.4010	0.045321	0.000000	0.003428	0.001161	-0.000028
 918	4.5850e-01	3.3416	0.045213	0.000000	0.002622	0.000888	-0.000021
 919	4.5900e-01	3.2823	0.045097	0.000000	0.002823	0.000957	-0.000023
 920	4.5950e-01	3.2534	0.044858	0.000001	0.005848	0.001981	-0.000048
 921	4.6000e-01	3.2069	0.044469	0.000001	0.009478	0.003211	-0.000078
 922	4.6050e-01	3.1764	0.044271	0.000000	0.004840	0.001640	-0.000040
 923	4.6100e-01	3.1026	0.044122	0.000000	0.003630	0.001230	-0.000030
 924	4.6150e-01	3.1250	0.043850	-0.000001	-0.006655	-0.002255	-0.000055
 925	4.6200e-01	3.0737	0.043329	0.000001	0.012704	0.004304	-0.000104
 926	4.6250e-01	3.0127	0.043197	0.000000	0.003226	0.001093	-0.000026
 927	4.6300e-01	2.9678	0.042792	0.000001	0.009881	0.003348	-0.000081
 928	4.6350e-01	2.9213	0.042453	0.000001	0.008268	0.002801	-0.000068
 929	4.6400e-01	2.8860	0.042123	0.000001	0.008066	0.002733	-0.000066
 930	4.6450e-01	2.8427	0.041801	0.000001	0.007865	0.002665	-0.000064
 931	4.6500e-01	2.8186	0.041520	0.000001	0.006856	0.002323	-0.000056
 932	4.6550e-01	2.7577	0.041379	0.000000	0.003428	0.001161	-0.000028
 933	4.6600e-01	2.7288	0.041041	0.000001	0.008268	0.002801	-0.000068
 934	4.6650e-01	2.6903	0.040850	0.000000	0.004638	0.001571	-0.000038
 935	4.6700e-01	2.6614	0.040611	0.000001	0.005848	0.001981	-0.000048
 936	4.6750e-01	2.6005	0.040429	0.000000	0.004436	0.001503	-0.000036
 937	4.6800e-01	2.5844	0.040239	0.000000	0.004638	0.001571	-0.000038
 938	4.6850e-01	2.5459	0.039975	0.000001	0.006453	0.002186	-0.000053
 939	4.6900e-01	2.4625	0.039735	0.000001	0.005848	0.001981	-0.000048
 940	4.6950e-01	2.4561	0.039438	0.000001	0.007260	0.002460	-0.000059
 941	4.7000e-01	2.4352	0.039214	0.000001	0.005445	0.001845	-0.000045
 942	4.7050e-01	2.3662	0.038801	0.000001	0.010083	0.003416	-0.000083
 943	4.7100e-01	2.3277	0.038471	0.000001	0.008066	0.002733	-0.000066
 944	4.7150e-01	2.2941	0.038239	0.000001	0.005646	0.001913	-0.000046
 945	4.7200e-01	2.2491	0.037868	0.000001	0.009074	0.003075	-0.000074
 946	4.7250e-01	2.2475	0.037512	0.000001	0.008671	0.002938	-0.000071
 947	4.7300e-01	2.1834	0.037281	0.000001	0.005646	0.001913	-0.000046
 948	4.7350e-01	2.1256	0.037190	0.000000	0.002218	0.000752	-0.000018
 949	4.7400e-01	2.0807	0.036794	0.000001	0.009679	0.003279	-0.000079
 950	4.7450e-01	2.0663	0.036471	0.000001	0.007865	0.002665	-0.000064
 951	4.7500e-01	1.9941	0.036232	0.000001	0.005848	0.001981	-0.000048
 952	4.7550e-01	1.9812	0.035992	0.000001	0.005848	0.001981	-0.000048
 953	4.7600e-01	1.9459	0.035637	0.000001	0.008671	0.002938	-0.000071
 954	4.7650e-01	1.8753	0.035017	0.000002	0.015124	0.005124	-0.000124
 955	4.7700e-01	1.8481	0.034439	0.000001	0.014116	0.004783	-0.000116
 956	4.7750e-01	1.8192	0.033885	0.000001	0.013511	0.004578	-0.000111
 957	4.7800e-01	1.8240	0.033959	0.000000	0.001815	0.000615	0.000015
 958	4.7850e-01	1.7614	0.034232	-0.000001	-0.006655	-0.002255	0.000055
 959	4.7900e-01	1.6925	0.034406	-0.000000	-0.004235	-0.001435	0.000035
 960	4.7950e-01	1.6427	0.034472	-0.000000	-0.001613	-0.000547	0.000013
 961	4.8000e-01	1.5962	0.034174	0.000001	0.007260	0.002460	-0.000059
 962	4.8050e-01	1.5818	0.033893	0.000001	0.006856	0.002323	-0.000056
 963	4.8100e-01	1.5705	0.033712	0.000000	0.004436	0.001503	-0.000036
 964	4.8150e-01	1.5160	0.033422	0.000001	0.007058	0.002391	-0.000058
 965	4.8200e-01	1.4406	0.032984	0.000001	0.010688	0.003621	-0.000088
 966	4.8250e-01	1.4101	0.032249	0.000002	0.017947	0.006081	-0.000147
 967	4.8300e-01	1.4069	0.031439	0.000002	0.019762	0.006696	-0.000162
 968	4.8350e-01	1.3074	0.031001	0.000001	0.010688	0.003621	-0.000088
 969	4.8400e-01	1.2914	0.031010	-0.000000	-0.000202	-0.000068	0.000002
 970	4.8450e-01	1.2625	0.031258	-0.000001	-0.006050	-0.002050	0.000050
 971	4.8500e-01	1.2176	0.031398	-0.000000	-0.003428	-0.001161	0.000028
 972	4.8550e-01	1.1486	0.031101	0.000001	0.007260	0.002460	-0.000059
 973	4.8600e-01	1.1422	0.030497	0.000001	0.014721	0.004988	-0.000121
 974	4.8650e-01	1.0877	0.029729	0.000002	0.018754	0.006354	-0.000154
 975	4.8700e-01	1.0283	0.029605	0.000000	0.003025	0.001025	-0.000025
 976	4.8750e-01	1.0331	0.029638	0.000000	0.000807	0.000273	0.000007
 977	4.8800e-01	0.9866	0.029712	-0.000000	-0.001815	-0.000615	0.000015
 978	4.8850e-01	0.9497	0.029547	0.000000	0.004033	0.001366	-0.000033
 979	4.8900e-01	0.9192	0.028845	0.000002	0.017141	0.005807	-0.000140
 980	4.8950e-01	0.8567	0.028481	0.000001	0.008873	0.003006	-0.000073
 981	4.9000e-01	0.7893	0.028291	0.000000	0.004638	0.001571	-0.000038
 982	4.9050e-01	0.7829	0.028349	-0.000000	-0.001412	-0.000478	0.000012
 983	4.9100e-01	0.7412	0.028184	0.000000	0.004033	0.001366	-0.000033
 984	4.9150e-01	0.7075	0.027490	0.000002	0.016939	0.005739	-0.000139
 985	4.9200e-01	0.6417	0.027052	0.000001	0.010688	0.003621	-0.000088
 986	4.9250e-01	0.6160	0.026845	0.000001	0.005041	0.001708	-0.000041
 987	4.9300e-01	0.5615	0.026754	0.000000	0.002218	0.000752	-0.000018
 988	4.9350e-01	0.5358	0.026473	0.000001	0.006856	0.002323	-0.000056
 989	4.9400e-01	0.5069	0.025879	0.000001	0.014519	0.004919	-0.000119
 990	4.9450e-01	0.4668	0.025664	0.000001	0.005243	0.001776	-0.000043
 991	4.9500e-01	0.4203	0.025614	0.000000	0.001210	0.000410	-0.000010
 992	4.9550e-01	0.3738	0.025449	0.000000	0.004033	0.001366	-0.000033
 993	4.9600e-01	0.3305	0.025168	0.000001	0.006856	0.002323	-0.000056
 994	4.9650e-01	0.2567	0.024647	0.000001	0.012704	0.004304	-0.000104
 995	4.9700e-01	0.2422	0.024639	0.000000	0.000202	0.000068	-0.000002
 996	4.9750e-01	0.2150	0.024581	0.000000	0.001412	0.000478	-0.000012
 997	4.9800e-01	0.1989	0.024127	0.000001	0.011091	0.003758	-0.000091
 998	4.9850e-01	0.1364	0.023788	0.000001	0.008268	0.002801	-0.000068
 999	4.9900e-01	0.0914	0.023598	0.000000	0.004638	0.001571	-0.000038
1000	4.9950e-01	0.0786	0.023449	0.000000	0.003630	0.001230	-0.000030
1001	5.0000e-01	0.0353	0.022937	0.000001	0.012503	0.004236	-0.000102
1002	5.0050e-01	-0.0225	0.022615	0.000001	0.007865	0.002665	-0.000064
1003	5.0100e-01	-0.0513	0.022202	0.000001	0.010083	0.003416	-0.000083
1004	5.0150e-01	-0.1299	0.022127	0.000000	0.001815	0.000615	-0.000015
1005	5.0200e-01	-0.1412	0.021913	0.000001	0.005243	0.001776	-0.000043
1006	5.0250e-01	-0.1604	0.021632	0.000001	0.006856	0.002323	-0.000056
1007	5.0300e-01	-0.1957	0.021276	0.000001	0.008671	0.002938	-0.000071
1008	5.0350e-01	-0.2759	0.021210	0.000000	0.001613	0.000547	-0.000013
1009	5.0400e-01	-0.2904	0.020946	0.000001	0.006453	0.002186	-0.000053
1010	5.0450e-01	-0.3369	0.020706	0.000001	0.005848	0.001981	-0.000048
1011	5.0500e-01	-0.4075	0.020392	0.000001	0.007663	0.002596	-0.000063
1012	5.0550e-01	-0.4219	0.020169	0.000001	0.005445	0.001845	-0.000045
1013	5.0600e-01	-0.4540	0.019921	0.000001	0.006050	0.002050	-0.000050
1014	5.0650e-01	-0.5246	0.019632	0.000001	0.007058	0.002391	-0.000058
1015	5.0700e-01	-0.5278	0.019136	0.000001	0.012099	0.004099	-0.000099
1016	5.0750e-01	-0.5599	0.018971	0.000000	0.004033	0.001366	-0.000033
1017	5.0800e-01	-0.6674	0.018682	0.000001	0.007058	0.002391	-0.000058
1018	5.0850e-01	-0.6802	0.018302	0.000001	0.009276	0.003143	-0.000076
1019	5.0900e-01	-0.7155	0.017872	0.000001	0.010486	0.003553	-0.000086
1020	5.0950e-01	-0.7251	0.017558	0.000001	0.007663	0.002596	-0.000063
1021	5.1000e-01	-0.7925	0.017318	0.000001	0.005848	0.001981	-0.000048
1022	5.1050e-01	-0.8101	0.017095	0.000001	0.005445	0.001845	-0.000045
1023	5.1100e-01	-0.8422	0.016724	0.000001	0.009074	0.003075	-0.000074
1024	5.1150e-01	-0.9128	0.016542	0.000000	0.004436	0.001503	-0.000036
1025	5.1200e-01	-0.9144	0.016443	0.000000	0.002420	0.000820	-0.000020
1026	5.1250e-01	-0.9481	0.016253	0.000000	0.004638	0.001571	-0.000038
1027	5.1300e-01	-1.0540	0.015963	0.000001	0.007058	0.002391	-0.000058
1028	5.1350e-01	-1.0732	0.015600	0.000001	0.008873	0.003006	-0.000073
1029	5.1400e-01	-1.1021	0.015418	0.000000	0.004436	0.001503	-0.000036
1030	5.1450e-01	-1.1486	0.015046	0.000001	0.009074	0.003075	-0.000074
1031	5.1500e-01	-1.1567	0.014831	0.000001	0.005243	0.001776	-0.000043
1032	5.1550e-01	-1.2176	0.014402	0.000001	0.010486	0.003553	-0.000086
1033	5.1600e-01	-1.2722	0.014104	0.000001	0.007260	0.002460	-0.000059
1034	5.1650e-01	-1.3395	0.013848	0.000001	0.006251	0.002118	-0.000051
1035	5.1700e-01	-1.3427	0.013493	0.000001	0.008671	0.002938	-0.000071
1036	5.1750e-01	-1.3973	0.013162	0.000001	0.008066	0.002733	-0.000066
1037	5.1800e-01	-1.4262	0.012923	0.000001	0.005848	0.001981	-0.000048
1038	5.1850e-01	-1.4807	0.012534	0.000001	0.009478	0.003211	-0.000078
1039	5.1900e-01	-1.5000	0.011923	0.000001	0.014922	0.005056	-0.000122
1040	5.1950e-01	-1.5561	0.011312	0.000001	0.014922	0.005056	-0.000122
1041	5.2000e-01	-1.5657	0.010733	0.000001	0.014116	0.004783	-0.000116
1042	5.2050e-01	-1.5625	0.010675	-0.000000	-0.001412	-0.000478	-0.000012
1043	5.2100e-01	-1.6443	0.010841	-0.000000	-0.004033	-0.001366	0.000033
1044	5.2150e-01	-1.7149	0.011064	-0.000001	-0.005445	-0.001845	0.000045
1045	5.2200e-01	-1.7390	0.010832	0.000001	0.005646	0.001913	-0.000046
1046	5.2250e-01	-1.7903	0.010733	0.000000	0.002420	0.000820	-0.000020
1047	5.2300e-01	-1.8144	0.010576	0.000000	0.003831	0.001298	-0.000031
1048	5.2350e-01	-1.8465	0.010510	0.000000	0.001613	0.000547	-0.000013
1049	5.2400e-01	-1.9203	0.010204	0.000001	0.007461	0.002528	-0.000061
1050	5.2450e-01	-1.9363	0.010064	0.000000	0.003428	0.001161	-0.000028
1051	5.2500e-01	-1.9700	0.009378	0.000002	0.016737	0.005671	-0.000137
1052	5.2550e-01	-2.0213	0.008668	0.000002	0.017342	0.005876	-0.000142
1053	5.2600e-01	-2.0887	0.008238	0.000001	0.010486	0.003553	-0.000086
1054	5.2650e-01	-2.1160	0.008056	0.000000	0.004436	0.001503	-0.000036
1055	5.2700e-01	-2.1625	0.007800	0.000001	0.006251	0.002118	-0.000051
1056	5.2750e-01	-2.1946	0.007585	0.000001	0.005243	0.001776	-0.000043
1057	5.2800e-01	-2.1930	0.007337	-0.000001	-0.006050	-0.002050	-0.000050
1058	5.2850e-01	-2.2700	0.006668	0.000002	0.016334	0.005534	-0.000134
1059	5.2900e-01	-2.3005	0.006081	0.000001	0.014318	0.004851	-0.000117
1060	5.2950e-01	-2.3406	0.005800	0.000001	0.006856	0.002323	-0.000056
1061	5.3000e-01	-2.3807	0.005734	0.000000	0.001613	0.000547	-0.000013
1062	5.3050e-01	-2.4112	0.005866	-0.000000	-0.003226	-0.001093	0.000026
1063	5.3100e-01	-2.4737	0.005743	0.000000	0.003025	0.001025	-0.000025
1064	5.3150e-01	-2.4834	0.005329	0.000001	0.010083	0.003416	-0.000083
1065	5.3200e-01	-2.5443	0.004883	0.000001	0.010889	0.003689	-0.000089
1066	5.3250e-01	-2.5989	0.004660	0.000001	0.005445	0.001845	-0.000045
1067	5.3300e-01	-2.6213	0.004454	0.000001	0.005041	0.001708	-0.000041
1068	5.3350e-01	-2.6839	0.003966	0.000001	0.011898	0.004031	-0.000097
1069	5.3400e-01	-2.7015	0.003421	0.000001	0.013309	0.004509	-0.000109
1070	5.3450e-01	-2.7416	0.003388	0.000000	0.000807	0.000273	-0.000007
1071	5.3500e-01	-2.7545	0.003297	0.000000	0.002218	0.000752	-0.000018
1072	5.3550e-01	-2.8202	0.002999	0.000001	0.007260	0.002460	-0.000059
1073	5.3600e-01	-2.8748	0.002471	0.000001	0.012906	0.004373	-0.000106
1074	5.3650e-01	-2.9085	0.002033	0.000001	0.010688	0.003621	-0.000088
1075	5.3700e-01	-2.9438	0.001810	0.000001	0.005445	0.001845	-0.000045
1076	5.3750e-01	-2.9855	0.001826	-0.000000	-0.000403	-0.000137	0.000003
1077	5.3800e-01	-3.0432	0.001380	0.000001	0.010889	0.003689	-0.000089
1078	5.3850e-01	-3.0464	0.000876	0.000001	0.012301	0.004168	-0.000101
1079	5.3900e-01	-3.0705	0.000463	0.000001	0.010083	0.003416	-0.000083
1080	5.3950e-01	-3.1266	0.000314	0.000000	0.003630	0.001230	-0.000030
1081	5.4000e-01	-3.1748	0.000355	-0.000000	-0.001008	-0.000342	0.000008
1082	5.4050e-01	-3.2101	-0.000198	0.000001	0.013511	0.004578	-0.000111
1083	5.4100e-01	-3.2518	-0.000595	0.000001	0.009679	0.003279	-0.000079
1084	5.4150e-01	-3.3047	-0.000843	0.000001	0.006050	0.002050	-0.000050
1085	5.4200e-01	-3.3288	-0.000868	0.000000	0.000605	0.000205	-0.000005
1086	5.4250e-01	-3.4074	-0.001239	0.000001	0.009074	0.003075	-0.000074
1087	5.4300e-01	-3.4331	-0.001735	0.000001	0.012099	0.004099	-0.000099
1088	5.4350e-01	-3.4635	-0.001933	0.000000	0.004840	0.001640	-0.000040
1089	5.4400e-01	-3.4972	-0.002049	0.000000	0.002823	0.000957	-0.000023
1090	5.4450e-01	-3.5758	-0.002404	0.000001	0.008671	0.002938	-0.000071
1091	5.4500e-01	-3.5582	-0.002801	-0.000001	-0.009679	-0.003279	-0.000079
1092	5.4550e-01	-3.5951	-0.003206	0.000001	0.009881	0.003348	-0.000081
1093	5.4600e-01	-3.6865	-0.003379	0.000000	0.004235	0.001435	-0.000035
1094	5.4650e-01	-3.6945	-0.003685	0.000001	0.007461	0.002528	-0.000061
1095	5.4700e-01	-3.7427	-0.004090	0.000001	0.009881	0.003348	-0.000081
1096	5.4750e-01	-3.7587	-0.004478	0.000001	0.009478	0.003211	-0.000078
1097	5.4800e-01	-3.8245	-0.004619	0.000000	0.003428	0.001161	-0.000028
1098	5.4850e-01	-3.8550	-0.004966	0.000001	0.008470	0.002870	-0.000069
1099	5.4900e-01	-3.9047	-0.005272	0.000001	0.007461	0.002528	-0.000061
1100	5.4950e-01	-3.9288	-0.005685	0.000001	0.010083	0.003416	-0.000083
1101	5.5000e-01	-3.9785	-0.005850	0.000000	0.004033	0.001366	-0.000033
1102	5.5050e-01	-4.0346	-0.006032	0.000000	0.004436	0.001503	-0.000036
1103	5.5100e-01	-4.0603	-0.006370	0.000001	0.008268	0.002801	-0.000068
1104	5.5150e-01	-4.0908	-0.006701	0.000001	0.008066	0.002733	-0.000066
1105	5.5200e-01	-4.1469	-0.006974	0.000001	0.006655	0.002255	-0.000055
1106	5.5250e-01	-4.2015	-0.007279	0.000001	0.007461	0.002528	-0.000061
1107	5.5300e-01	-4.2336	-0.007659	0.000001	0.009276	0.003143	-0.000076
1108	5.5350e-01	-4.2560	-0.008048	0.000001	0.009478	0.003211	-0.000078
1109	5.5400e-01	-4.2865	-0.008296	0.000001	0.006050	0.002050	-0.000050
1110	5.5450e-01	-4.3074	-0.008519	0.000001	0.005445	0.001845	-0.000045
1111	5.5500e-01	-4.3812	-0.008808	0.000001	0.007058	0.002391	-0.000058
1112	5.5550e-01	-4.3972	-0.009089	0.000001	0.006856	0.002323	-0.000056
1113	5.5600e-01	-4.4501	-0.009386	0.000001	0.007260	0.002460	-0.000059
1114	5.5650e-01	-4.5352	-0.009593	0.000001	0.005041	0.001708	-0.000041
1115	5.5700e-01	-4.5560	-0.009684	0.000000	0.002218	0.000752	-0.000018
1116	5.5750e-01	-4.5801	-0.009940	0.000001	0.006251	0.002118	-0.000051
1117	5.5800e-01	-4.6154	-0.010188	0.000001	0.006050	0.002050	-0.000050
1118	5.5850e-01	-4.6860	-0.010444	0.000001	0.006251	0.002118	-0.000051
1119	5.5900e-01	-4.7197	-0.010692	0.000001	0.006050	0.002050	-0.000050
1120	5.5950e-01	-4.7213	-0.010989	0.000001	0.007260	0.002460	-0.000059
1121	5.6000e-01	-4.7742	-0.011394	0.000001	0.009881	0.003348	-0.000081
1122	5.6050e-01	-4.8175	-0.011609	0.000001	0.005243	0.001776	-0.000043
1123	5.6100e-01	-4.8737	-0.012096	0.000001	0.011898	0.004031	-0.000097
1124	5.6150e-01	-4.8977	-0.012873	0.000002	0.018956	0.006422	-0.000155
1125	5.6200e-01	-4.9458	-0.013377	0.000001	0.012301	0.004168	-0.000101
1126	5.6250e-01	-4.9667	-0.013914	0.000001	0.013108	0.004441	-0.000107
1127	5.6300e-01	-5.0533	-0.013898	-0.000000	-0.000403	-0.000137	0.000003
1128	5.6350e-01	-5.0485	-0.013708	0.000000	0.004638	0.001571	0.000038
1129	5.6400e-01	-5.1111	-0.013526	-0.000000	-0.004436	-0.001503	0.000036
1130	5.6450e-01	-5.1913	-0.013774	0.000001	0.006050	0.002050	-0.000050
1131	5.6500e-01	-5.1913	-0.013832	0.000000	0.001412	0.000478	-0.000012
1132	5.6550e-01	-5.2619	-0.013898	0.000000	0.001613	0.000547	-0.000013
1133	5.6600e-01	-5.2507	-0.014088	-0.000000	-0.004638	-0.001571	-0.000038
1134	5.6650e-01	-5.3164	-0.014311	0.000001	0.005445	0.001845	-0.000045
1135	5.6700e-01	-5.3132	-0.014765	-0.000001	-0.011091	-0.003758	-0.000091
1136	5.6750e-01	-5.3678	-0.015608	0.000002	0.020569	0.006969	-0.000169
1137	5.6800e-01	-5.4079	-0.016310	0.000002	0.017141	0.005807	-0.000140
1138	5.6850e-01	-5.4496	-0.016781	0.000001	0.011494	0.003894	-0.000094
1139	5.6900e-01	-5.4929	-0.016641	-0.000000	-0.003428	-0.001161	0.000028
1140	5.6950e-01	-5.5474	-0.016699	0.000000	0.001412	0.000478	-0.000012
1141	5.7000e-01	-5.5715	-0.016955	0.000001	0.006251	0.002118	-0.000051
1142	5.7050e-01	-5.6405	-0.017252	0.000001	0.007260	0.002460	-0.000059
1143	5.7100e-01	-5.6838	-0.017649	0.000001	0.009679	0.003279	-0.000079
1144	5.7150e-01	-5.6726	-0.018087	-0.000001	-0.010688	-0.003621	-0.000088
1145	5.7200e-01	-5.7303	-0.018037	-0.000000	-0.001210	-0.000410	0.000010
1146	5.7250e-01	-5.7720	-0.018013	-0.000000	-0.000605	-0.000205	0.000005
1147	5.7300e-01	-5.8410	-0.018219	0.000001	0.005041	0.001708	-0.000041
1148	5.7350e-01	-5.8683	-0.018781	0.000001	0.013713	0.004646	-0.000112
1149	5.7400e-01	-5.9148	-0.019541	0.000002	0.018552	0.006286	-0.000152
1150	5.7450e-01	-5.9549	-0.019921	0.000001	0.009276	0.003143	-0.000076
1151	5.7500e-01	-6.0079	-0.020120	0.000000	0.004840	0.001640	-0.000040
1152	5.7550e-01	-6.0560	-0.020334	0.000001	0.005243	0.001776	-0.000043
1153	5.7600e-01	-6.0640	-0.020805	0.000001	0.011494	0.003894	-0.000094
1154	5.7650e-01	-6.0977	-0.021342	0.000001	0.013108	0.004441	-0.000107
1155	5.7700e-01	-6.1586	-0.021524	0.000000	0.004436	0.001503	-0.000036
1156	5.7750e-01	-6.1747	-0.021450	-0.000000	-0.001815	-0.000615	0.000015
1157	5.7800e-01	-6.2517	-0.021549	0.000000	0.002420	0.000820	-0.000020
1158	5.7850e-01	-6.2838	-0.022036	0.000001	0.011898	0.004031	-0.000097
1159	5.7900e-01	-6.3175	-0.022607	0.000001	0.013914	0.004714	-0.000114
1160	5.7950e-01	-6.3367	-0.022788	0.000000	0.004436	0.001503	-0.000036
1161	5.8000e-01	-6.3897	-0.023069	0.000001	0.006856	0.002323	-0.000056
1162	5.8050e-01	-6.3929	-0.023367	0.000001	0.007260	0.002460	-0.000059
1163	5.8100e-01	-6.4137	-0.023631	0.000001	0.006453	0.002186	-0.000053
1164	5.8150e-01	-6.5052	-0.023772	0.000000	0.003428	0.001161	-0.000028
1165	5.8200e-01	-6.5372	-0.023896	0.000000	0.003025	0.001025	-0.000025
1166	5.8250e-01	-6.5982	-0.024267	0.000001	0.009074	0.003075	-0.000074
1167	5.8300e-01	-6.6560	-0.024796	0.000001	0.012906	0.004373	-0.000106
1168	5.8350e-01	-6.6640	-0.025160	0.000001	0.008873	0.003006	-0.000073
1169	5.8400e-01	-6.6993	-0.025143	-0.000000	-0.000403	-0.000137	0.000003
1170	5.8450e-01	-6.7506	-0.025532	0.000001	0.009478	0.003211	-0.000078
1171	5.8500e-01	-6.7747	-0.026027	0.000001	0.012099	0.004099	-0.000099
1172	5.8550e-01	-6.8180	-0.026564	0.000001	0.013108	0.004441	-0.000107
1173	5.8600e-01	-6.8597	-0.026655	0.000000	0.002218	0.000752	-0.000018
1174	5.8650e-01	-6.8966	-0.026713	0.000000	0.001412	0.000478	-0.000012
1175	5.8700e-01	-6.9335	-0.027143	0.000001	0.010486	0.003553	-0.000086
1176	5.8750e-01	-6.9479	-0.027639	0.000001	0.012099	0.004099	-0.000099
1177	5.8800e-01	-7.0137	-0.027779	0.000000	0.003428	0.001161	-0.000028
1178	5.8850e-01	-7.0474	-0.027911	0.000000	0.003226	0.001093	-0.000026
1179	5.8900e-01	-7.1100	-0.028209	0.000001	0.007260	0.002460	-0.000059
1180	5.8950e-01	-7.1196	-0.028680	0.000001	0.011494	0.003894	-0.000094
1181	5.9000e-01	-7.1741	-0.029101	0.000001	0.010284	0.003484	-0.000084
1182	5.9050e-01	-7.2207	-0.029208	0.000000	0.002622	0.000888	-0.000021
1183	5.9100e-01	-7.2495	-0.029357	0.000000	0.003630	0.001230	-0.000030
1184	5.9150e-01	-7.3297	-0.029779	0.000001	0.010284	0.003484	-0.000084
1185	5.9200e-01	-7.3522	-0.030183	0.000001	0.009881	0.003348	-0.000081
1186	5.9250e-01	-7.3843	-0.030440	0.000001	0.006251	0.002118	-0.000051
1187	5.9300e-01	-7.4067	-0.030588	0.000000	0.003630	0.001230	-0.000030
1188	5.9350e-01	-7.4517	-0.031092	0.000001	0.012301	0.004168	-0.000101
1189	5.9400e-01	-7.4998	-0.031489	0.000001	0.009679	0.003279	-0.000079
1190	5.9450e-01	-7.5511	-0.031538	0.000000	0.001210	0.000410	-0.000010
1191	5.9500e-01	-7.5383	-0.031786	-0.000001	-0.006050	-0.002050	-0.000050
1192	5.9550e-01	-7.6201	-0.032150	0.000001	0.008873	0.003006	-0.000073
1193	5.9600e-01	-7.6827	-0.032571	0.000001	0.010284	0.003484	-0.000084
1194	5.9650e-01	-7.6730	-0.032860	-0.000001	-0.007058	-0.002391	-0.000058
1195	5.9700e-01	-7.7356	-0.033067	0.000001	0.005041	0.001708	-0.000041
1196	5.9750e-01	-7.7789	-0.033365	0.000001	0.007260	0.002460	-0.000059
1197	5.9800e-01	-7.8014	-0.033703	0.000001	0.008268	0.002801	-0.000068
1198	5.9850e-01	-7.8431	-0.034075	0.000001	0.009074	0.003075	-0.000074
1199	5.9900e-01	-7.8848	-0.034240	0.000000	0.004033	0.001366	-0.000033
1200	5.9950e-01	-7.9201	-0.034397	0.000000	0.003831	0.001298	-0.000031
1201	6.0000e-01	-7.9939	-0.034844	0.000001	0.010889	0.003689	-0.000089
1202	6.0050e-01	-8.0228	-0.035182	0.000001	0.008268	0.002801	-0.000068
1203	6.0100e-01	-8.0468	-0.035331	0.000000	0.003630	0.001230	-0.000030
1204	6.0150e-01	-8.1190	-0.035521	0.000000	0.004638	0.001571	-0.000038
1205	6.0200e-01	-8.1559	-0.035909	0.000001	0.009478	0.003211	-0.000078
1206	6.0250e-01	-8.1704	-0.036223	0.000001	0.007663	0.002596	-0.000063
1207	6.0300e-01	-8.2008	-0.036405	0.000000	0.004436	0.001503	-0.000036
1208	6.0350e-01	-8.2570	-0.036736	0.000001	0.008066	0.002733	-0.000066
1209	6.0400e-01	-8.3003	-0.037562	0.000002	0.020166	0.006832	-0.000165
1210	6.0450e-01	-8.3484	-0.038157	0.000001	0.014519	0.004919	-0.000119
1211	6.0500e-01	-8.3853	-0.038686	0.000001	0.012906	0.004373	-0.000106
1212	6.0550e-01	-8.3998	-0.038661	-0.000000	-0.000605	-0.000205	0.000005
1213	6.0600e-01	-8.4800	-0.038545	-0.000000	-0.002823	-0.000957	0.000023
1214	6.0650e-01	-8.4912	-0.038487	-0.000000	-0.001412	-0.000478	0.000012
1215	6.0700e-01	-8.5634	-0.038595	0.000000	0.002622	0.000888	-0.000021
1216	6.0750e-01	-8.5794	-0.038735	0.000000	0.003428	0.001161	-0.000028
1217	6.0800e-01	-8.6308	-0.038917	0.000000	0.004436	0.001503	-0.000036
1218	6.0850e-01	-8.6580	-0.039033	0.000000	0.002823	0.000957	-0.000023
1219	6.0900e-01	-8.6805	-0.039223	0.000000	0.004638	0.001571	-0.000038
1220	6.0950e-01	-8.7399	-0.039694	0.000001	0.011494	0.003894	-0.000094
1221	6.1000e-01	-8.7976	-0.040495	0.000002	0.019561	0.006627	-0.000160
1222	6.1050e-01	-8.8024	-0.041206	0.000002	0.017342	0.005876	-0.000142
1223	6.1100e-01	-8.8794	-0.041594	0.000001	0.009478	0.003211	-0.000078
1224	6.1150e-01	-8.8907	-0.041718	0.000000	0.003025	0.001025	-0.000025
1225	6.1200e-01	-8.9452	-0.041809	0.000000	0.002218	0.000752	-0.000018
1226	6.1250e-01	-8.9500	-0.042156	0.000001	0.008470	0.002870	-0.000069
1227	6.1300e-01	-9.0078	-0.042561	0.000001	0.009881	0.003348	-0.000081
1228	6.1350e-01	-9.0447	-0.043247	0.000002	0.016737	0.005671	-0.000137
1229	6.1400e-01	-9.0655	-0.043808	0.000001	0.013713	0.004646	-0.000112
1230	6.1450e-01	-9.1393	-0.043858	0.000000	0.001210	0.000410	-0.000010
1231	6.1500e-01	-9.1826	-0.044081	0.000001	0.005445	0.001845	-0.000045
1232	6.1550e-01	-9.2211	-0.044230	0.000000	0.003630	0.001230	-0.000030
1233	6.1600e-01	-9.2500	-0.044593	0.000001	0.008873	0.003006	-0.000073
1234	6.1650e-01	-9.2981	-0.045089	0.000001	0.012099	0.004099	-0.000099
1235	6.1700e-01	-9.3559	-0.045354	0.000001	0.006453	0.002186	-0.000053
1236	6.1750e-01	-9.3607	-0.045188	-0.000000	-0.004033	-0.001366	0.000033
1237	6.1800e-01	-9.4249	-0.045246	0.000000	0.001412	0.000478	-0.000012
1238	6.1850e-01	-9.4746	-0.045535	0.000001	0.007058	0.002391	-0.000058
1239	6.1900e-01	-9.5099	-0.046097	0.000001	0.013713	0.004646	-0.000112
1240	6.1950e-01	-9.5612	-0.046494	0.000001	0.009679	0.003279	-0.000079
1241	6.2000e-01	-9.5596	-0.046940	-0.000001	-0.010889	-0.003689	-0.000089
1242	6.2050e-01	-9.6190	-0.047345	0.000001	0.009881	0.003348	-0.000081
1243	6.2100e-01	-9.6511	-0.048006	0.000002	0.016132	0.005466	-0.000132
1244	6.2150e-01	-9.6799	-0.048436	0.000001	0.010486	0.003553	-0.000086
1245	6.2200e-01	-9.7361	-0.048617	0.000000	0.004436	0.001503	-0.000036
1246	6.2250e-01	-9.7906	-0.048733	0.000000	0.002823	0.000957	-0.000023
1247	6.2300e-01	-9.8420	-0.049154	0.000001	0.010284	0.003484	-0.000084
1248	6.2350e-01	-9.8612	-0.049584	0.000001	0.010486	0.003553	-0.000086
1249	6.2400e-01	-9.9045	-0.049592	0.000000	0.000202	0.000068	-0.000002
1250	6.2450e-01	-9.9639	-0.049460	-0.000000	-0.003226	-0.001093	0.000026
1251	6.2500e-01	-9.9912	-0.049815	0.000001	0.008671	0.002938	-0.000071
1252	6.2550e-01	-10.0168	-0.050344	0.000001	0.012906	0.004373	-0.000106
1253	6.2600e-01	-10.0970	-0.050757	0.000001	0.010083	0.003416	-0.000083
1254	6.2650e-01	-10.1147	-0.051014	0.000001	0.006251	0.002118	-0.000051
1255	6.2700e-01	-10.1853	-0.051253	0.000001	0.005848	0.001981	-0.000048
1256	6.2750e-01	-10.1901	-0.051575	0.000001	0.007865	0.002665	-0.000064
1257	6.2800e-01	-10.2190	-0.051881	0.000001	0.007461	0.002528	-0.000061
1258	6.2850e-01	-10.2366	-0.052129	0.000001	0.006050	0.002050	-0.000050
1259	6.2900e-01	-10.2703	-0.052501	0.000001	0.009074	0.003075	-0.000074
1260	6.2950e-01	-10.3714	-0.053054	0.000001	0.013511	0.004578	-0.000111
1261	6.3000e-01	-10.3393	-0.053360	-0.000001	-0.007461	-0.002528	-0.000061
1262	6.3050e-01	-10.3858	-0.053319	-0.000000	-0.001008	-0.000342	0.000008
1263	6.3100e-01	-10.4805	-0.053691	0.000001	0.009074	0.003075	-0.000074
1264	6.3150e-01	-10.4933	-0.054021	0.000001	0.008066	0.002733	-0.000066
1265	6.3200e-01	-10.5510	-0.054451	0.000001	0.010486	0.003553	-0.000086
1266	6.3250e-01	-10.5863	-0.054583	0.000000	0.003226	0.001093	-0.000026
1267	6.3300e-01	-10.6216	-0.054633	0.000000	0.001210	0.000410	-0.000010
1268	6.3350e-01	-10.6826	-0.054947	0.000001	0.007663	0.002596	-0.000063
1269	6.3400e-01	-10.6938	-0.055484	0.000001	0.013108	0.004441	-0.000107
1270	6.3450e-01	-10.7323	-0.055748	0.000001	0.006453	0.002186	-0.000053
1271	6.3500e-01	-10.7901	-0.055897	0.000000	0.003630	0.001230	-0.000030
1272	6.3550e-01	-10.8093	-0.056202	0.000001	0.007461	0.002528	-0.000061
1273	6.3600e-01	-10.8462	-0.056715	0.000001	0.012503	0.004236	-0.000102
1274	6.3650e-01	-10.9104	-0.057120	0.000001	0.009881	0.003348	-0.000081
1275	6.3700e-01	-10.9345	-0.057491	0.000001	0.009074	0.003075	-0.000074
1276	6.3750e-01	-10.9826	-0.057558	0.000000	0.001613	0.000547	-0.000013
1277	6.3800e-01	-11.0291	-0.057946	0.000001	0.009478	0.003211	-0.000078
1278	6.3850e-01	-11.0676	-0.058450	0.000001	0.012301	0.004168	-0.000101
1279	6.3900e-01	-11.1093	-0.058673	0.000001	0.005445	0.001845	-0.000045
1280	6.3950e-01	-11.1606	-0.058772	0.000000	0.002420	0.000820	-0.000020
1281	6.4000e-01	-11.1927	-0.059202	0.000001	0.010486	0.003553	-0.000086
1282	6.4050e-01	-11.2104	-0.059532	0.000001	0.008066	0.002733	-0.000066
1283	6.4100e-01	-11.2649	-0.059797	0.000001	0.006453	0.002186	-0.000053
1284	6.4150e-01	-11.3227	-0.060069	0.000001	0.006655	0.002255	-0.000055
1285	6.4200e-01	-11.3756	-0.060367	0.000001	0.007260	0.002460	-0.000059
1286	6.4250e-01	-11.4189	-0.060830	0.000001	0.011293	0.003826	-0.000093
1287	6.4300e-01	-11.4237	-0.061143	0.000001	0.007663	0.002596	-0.000063
1288	6.4350e-01	-11.4590	-0.061416	0.000001	0.006655	0.002255	-0.000055
1289	6.4400e-01	-11.5040	-0.061524	0.000000	0.002622	0.000888	-0.000021
1290	6.4450e-01	-11.5617	-0.061995	0.000001	0.011494	0.003894	-0.000094
1291	6.4500e-01	-11.6162	-0.062375	0.000001	0.009276	0.003143	-0.000076
1292	6.4550e-01	-11.6162	-0.062581	0.000001	0.005041	0.001708	-0.000041
1293	6.4600e-01	-11.6483	-0.063160	0.000001	0.014116	0.004783	-0.000116
1294	6.4650e-01	-11.7189	-0.063829	0.000002	0.016334	0.005534	-0.000134
1295	6.4700e-01	-11.7462	-0.064316	0.000001	0.011898	0.004031	-0.000097
1296	6.4750e-01	-11.7606	-0.064763	0.000001	0.010889	0.003689	-0.000089
1297	6.4800e-01	-11.8200	-0.064680	-0.000000	-0.002017	-0.000683	0.000017
1298	6.4850e-01	-11.8842	-0.064473	-0.000001	-0.005041	-0.001708	0.000041
1299	6.4900e-01	-11.8986	-0.064498	0.000000	0.000605	0.000205	-0.000005
1300	6.4950e-01	-11.9580	-0.064572	0.000000	0.001815	0.000615	-0.000015
1301	6.5000e-01	-12.0189	-0.064696	0.000000	0.003025	0.001025	-0.000025
1302	6.5050e-01	-12.0253	-0.064862	0.000000	0.004033	0.001366	-0.000033
1303	6.5100e-01	-12.0735	-0.065200	0.000001	0.008268	0.002801	-0.000068
1304	6.5150e-01	-12.1104	-0.065250	0.000000	0.001210	0.000410	-0.000010
1305	6.5200e-01	-12.1168	-0.065738	0.000001	0.011898	0.004031	-0.000097
1306	6.5250e-01	-12.1986	-0.066432	0.000002	0.016939	0.005739	-0.000139
1307	6.5300e-01	-12.2387	-0.067208	0.000002	0.018956	0.006422	-0.000155
1308	6.5350e-01	-12.2355	-0.067489	-0.000001	-0.006856	-0.002323	-0.000056
1309	6.5400e-01	-12.3093	-0.067497	0.000000	0.000202	0.000068	-0.000002
1310	6.5450e-01	-12.3494	-0.067597	0.000000	0.002420	0.000820	-0.000020
1311	6.5500e-01	-12.3702	-0.067630	0.000000	0.000807	0.000273	-0.000007
1312	6.5550e-01	-12.4200	-0.068018	0.000001	0.009478	0.003211	-0.000078
1313	6.5600e-01	-12.4681	-0.068687	0.000002	0.016334	0.005534	-0.000134
1314	6.5650e-01	-12.4954	-0.069241	0.000001	0.013511	0.004578	-0.000111
1315	6.5700e-01	-12.5467	-0.069307	0.000000	0.001613	0.000547	-0.000013
1316	6.5750e-01	-12.5772	-0.069456	0.000000	0.003630	0.001230	-0.000030
1317	6.5800e-01	-12.6061	-0.069679	0.000001	0.005445	0.001845	-0.000045
1318	6.5850e-01	-12.6670	-0.070075	0.000001	0.009679	0.003279	-0.000079
1319	6.5900e-01	-12.6879	-0.070662	0.000001	0.014318	0.004851	-0.000117
1320	6.5950e-01	-12.7392	-0.071116	0.000001	0.011091	0.003758	-0.000091
1321	6.6000e-01	-12.7857	-0.071108	-0.000000	-0.000202	-0.000068	0.000002
1322	6.6050e-01	-12.8290	-0.071191	0.000000	0.002017	0.000683	-0.000017
1323	6.6100e-01	-12.8531	-0.071455	0.000001	0.006453	0.002186	-0.000053
1324	6.6150e-01	-12.8740	-0.072034	0.000001	0.014116	0.004783	-0.000116
1325	6.6200e-01	-12.9478	-0.072174	0.000000	0.003428	0.001161	-0.000028
1326	6.6250e-01	-12.9895	-0.072257	0.000000	0.002017	0.000683	-0.000017
1327	6.6300e-01	-13.0183	-0.072529	0.000001	0.006655	0.002255	-0.000055
1328	6.6350e-01	-13.0633	-0.073000	0.000001	0.011494	0.003894	-0.000094
1329	6.6400e-01	-13.1130	-0.073356	0.000001	0.008671	0.002938	-0.000071
1330	6.6450e-01	-13.1306	-0.073347	-0.000000	-0.000202	-0.000068	0.000002
1331	6.6500e-01	-13.2189	-0.073339	-0.000000	-0.000202	-0.000068	0.000002
1332	6.6550e-01	-13.2173	-0.073851	-0.000001	-0.012503	-0.004236	-0.000102
1333	6.6600e-01	-13.2526	-0.074636	0.000002	0.019157	0.006491	-0.000157
1334	6.6650e-01	-13.2750	-0.075033	0.000001	0.009679	0.003279	-0.000079
1335	6.6700e-01	-13.3488	-0.075248	0.000001	0.005243	0.001776	-0.000043
1336	6.6750e-01	-13.3681	-0.075587	0.000001	0.008268	0.002801	-0.000068
1337	6.6800e-01	-13.4371	-0.076165	0.000001	0.014116	0.004783	-0.000116
1338	6.6850e-01	-13.4595	-0.076405	0.000001	0.005848	0.001981	-0.000048
1339	6.6900e-01	-13.4996	-0.076570	0.000000	0.004033	0.001366	-0.000033
1340	6.6950e-01	-13.5590	-0.076793	0.000001	0.005445	0.001845	-0.000045
1341	6.7000e-01	-13.6151	-0.076991	0.000000	0.004840	0.001640	-0.000040
1342	6.7050e-01	-13.6055	-0.077049	-0.000000	-0.001412	-0.000478	-0.000012
1343	6.7100e-01	-13.6633	-0.077132	0.000000	0.002017	0.000683	-0.000017
1344	6.7150e-01	-13.7194	-0.077388	0.000001	0.006251	0.002118	-0.000051
1345	6.7200e-01	-13.7595	-0.077851	0.000001	0.011293	0.003826	-0.000093
1346	6.7250e-01	-13.7772	-0.078346	0.000001	0.012099	0.004099	-0.000099
1347	6.7300e-01	-13.7964	-0.078751	0.000001	0.009881	0.003348	-0.000081
1348	6.7350e-01	-13.8493	-0.078983	0.000001	0.005646	0.001913	-0.000046
1349	6.7400e-01	-13.9167	-0.079206	0.000001	0.005445	0.001845	-0.000045
1350	6.7450e-01	-13.9392	-0.079495	0.000001	0.007058	0.002391	-0.000058
1351	6.7500e-01	-14.0098	-0.079883	0.000001	0.009478	0.003211	-0.000078
1352	6.7550e-01	-14.0322	-0.080181	0.000001	0.007260	0.002460	-0.000059
1353	6.7600e-01	-14.0643	-0.080486	0.000001	0.007461	0.002528	-0.000061
1354	6.7650e-01	-14.1028	-0.080809	0.000001	0.007865	0.002665	-0.000064
1355	6.7700e-01	-14.1702	-0.080949	0.000000	0.003428	0.001161	-0.000028
1356	6.7750e-01	-14.1493	-0.081040	-0.000000	-0.002218	-0.000752	-0.000018
1357	6.7800e-01	-14.2135	-0.081362	0.000001	0.007865	0.002665	-0.000064
1358	6.7850e-01	-14.2536	-0.081767	0.000001	0.009881	0.003348	-0.000081
1359	6.7900e-01	-14.2969	-0.082106	0.000001	0.008268	0.002801	-0.000068
1360	6.7950e-01	-14.3787	-0.082172	0.000000	0.001613	0.000547	-0.000013
1361	6.8000e-01	-14.4028	-0.082527	0.000001	0.008671	0.002938	-0.000071
1362	6.8050e-01	-14.4076	-0.083006	0.000001	0.011696	0.003963	-0.000096
1363	6.8100e-01	-14.4734	-0.083411	0.000001	0.009881	0.003348	-0.000081
1364	6.8150e-01	-14.4910	-0.083610	0.000000	0.004840	0.001640	-0.000040
1365	6.8200e-01	-14.5440	-0.083907	0.000001	0.007260	0.002460	-0.000059
1366	6.8250e-01	-14.6033	-0.084254	0.000001	0.008470	0.002870	-0.000069
1367	6.8300e-01	-14.6210	-0.084634	0.000001	0.009276	0.003143	-0.000076
1368	6.8350e-01	-14.6659	-0.084808	0.000000	0.004235	0.001435	-0.000035
1369	6.8400e-01	-14.6755	-0.084973	0.000000	0.004033	0.001366	-0.000033
1370	6.8450e-01	-14.7541	-0.085270	0.000001	0.007260	0.002460	-0.000059
1371	6.8500e-01	-14.7830	-0.085650	0.000001	0.009276	0.003143	-0.000076
1372	6.8550e-01	-14.8343	-0.085841	0.000000	0.004638	0.001571	-0.000038
1373	6.8600e-01	-14.8568	-0.085973	0.000000	0.003226	0.001093	-0.000026
1374	6.8650e-01	-14.8889	-0.086336	0.000001	0.008873	0.003006	-0.000073
1375	6.8700e-01	-14.9258	-0.086708	0.000001	0.009074	0.003075	-0.000074
1376	6.8750e-01	-14.9948	-0.086981	0.000001	0.006655	0.002255	-0.000055
1377	6.8800e-01	-15.0268	-0.087278	0.000001	0.007260	0.002460	-0.000059
1378	6.8850e-01	-15.0830	-0.087700	0.000001	0.010284	0.003484	-0.000084
1379	6.8900e-01	-15.1087	-0.088443	0.000002	0.018149	0.006149	-0.000149
1380	6.8950e-01	-15.1087	-0.089022	0.000001	0.014116	0.004783	-0.000116
1381	6.9000e-01	-15.2017	-0.089493	0.000001	0.011494	0.003894	-0.000094
1382	6.9050e-01	-15.2145	-0.089426	-0.000000	-0.001613	-0.000547	0.000013
1383	6.9100e-01	-15.2482	-0.089195	-0.000001	-0.005646	-0.001913	0.000046
1384	6.9150e-01	-15.2932	-0.089104	-0.000000	-0.002218	-0.000752	0.000018
1385	6.9200e-01	-15.3268	-0.089162	0.000000	0.001412	0.000478	-0.000012
1386	6.9250e-01	-15.4022	-0.089203	0.000000	0.001008	0.000342	-0.000008
1387	6.9300e-01	-15.4199	-0.089352	0.000000	0.003630	0.001230	-0.000030
1388	6.9350e-01	-15.4889	-0.089600	0.000001	0.006050	0.002050	-0.000050
1389	6.9400e-01	-15.4857	-0.089807	-0.000001	-0.005041	-0.001708	-0.000041
1390	6.9450e-01	-15.5498	-0.090244	0.000001	0.010688	0.003621	-0.000088
1391	6.9500e-01	-15.5851	-0.090980	0.000002	0.017947	0.006081	-0.000147
1392	6.9550e-01	-15.6268	-0.091690	0.000002	0.017342	0.005876	-0.000142
1393	6.9600e-01	-15.6653	-0.091955	0.000001	0.006453	0.002186	-0.000053
1394	6.9650e-01	-15.7038	-0.091897	-0.000000	-0.001412	-0.000478	0.000012
1395	6.9700e-01	-15.7568	-0.091971	0.000000	0.001815	0.000615	-0.000015
1396	6.9750e-01	-15.7985	-0.092054	0.000000	0.002017	0.000683	-0.000017
1397	6.9800e-01	-15.7808	-0.092525	-0.000001	-0.011494	-0.003894	-0.000094
1398	6.9850e-01	-15.8322	-0.093194	0.000002	0.016334	0.005534	-0.000134
1399	6.9900e-01	-15.9477	-0.093583	0.000001	0.009478	0.003211	-0.000078
1400	6.9950e-01	-15.9477	-0.093616	0.000000	0.000807	0.000273	-0.000007
1401	7.0000e-01	-15.9878	-0.093707	0.000000	0.002218	0.000752	-0.000018
1402	7.0050e-01	-16.0006	-0.093723	0.000000	0.000403	0.000137	-0.000003
1403	7.0100e-01	-16.0423	-0.094244	0.000001	0.012704	0.004304	-0.000104
1404	7.0150e-01	-16.1081	-0.094888	0.000002	0.015729	0.005329	-0.000129
1405	7.0200e-01	-16.1033	-0.094987	-0.000000	-0.002420	-0.000820	-0.000020
1406	7.0250e-01	-16.1979	-0.095012	0.000000	0.000605	0.000205	-0.000005
1407	7.0300e-01	-16.2268	-0.095161	0.000000	0.003630	0.001230	-0.000030
1408	7.0350e-01	-16.2782	-0.095690	0.000001	0.012906	0.004373	-0.000106
1409	7.0400e-01	-16.3022	-0.096053	0.000001	0.008873	0.003006	-0.000073
1410	7.0450e-01	-16.3279	-0.096210	0.000000	0.003831	0.001298	-0.000031
1411	7.0500e-01	-16.3712	-0.096194	-0.000000	-0.000403	-0.000137	0.000003
1412	7.0550e-01	-16.4241	-0.096375	0.000000	0.004436	0.001503	-0.000036
1413	7.0600e-01	-16.4658	-0.096855	0.000001	0.011696	0.003963	-0.000096
1414	7.0650e-01	-16.5092	-0.097202	0.000001	0.008470	0.002870	-0.000069
1415	7.0700e-01	-16.5412	-0.097185	-0.000000	-0.000403	-0.000137	0.000003
1416	7.0750e-01	-16.6054	-0.097367	0.000000	0.004436	0.001503	-0.000036
1417	7.0800e-01	-16.6182	-0.097722	0.000001	0.008671	0.002938	-0.000071
1418	7.0850e-01	-16.6551	-0.098077	0.000001	0.008671	0.002938	-0.000071
1419	7.0900e-01	-16.7145	-0.098301	0.000001	0.005445	0.001845	-0.000045
1420	7.0950e-01	-16.7498	-0.098416	0.000000	0.002823	0.000957	-0.000023
1421	7.1000e-01	-16.7562	-0.098631	0.000001	0.005243	0.001776	-0.000043
1422	7.1050e-01	-16.7995	-0.098937	0.000001	0.007461	0.002528	-0.000061
1423	7.1100e-01	-16.8396	-0.099052	0.000000	0.002823	0.000957	-0.000023
1424	7.1150e-01	-16.9006	-0.099019	-0.000000	-0.000807	-0.000273	0.000007
1425	7.1200e-01	-16.9487	-0.099300	0.000001	0.006856	0.002323	-0.000056
1426	7.1250e-01	-16.9776	-0.099829	0.000001	0.012906	0.004373	-0.000106
1427	7.1300e-01	-17.0353	-0.100234	0.000001	0.009881	0.003348	-0.000081
1428	7.1350e-01	-17.0578	-0.100507	0.000001	0.006655	0.002255	-0.000055
1429	7.1400e-01	-17.0674	-0.100639	0.000000	0.003226	0.001093	-0.000026
1430	7.1450e-01	-17.1605	-0.100994	0.000001	0.008671	0.002938	-0.000071
1431	7.1500e-01	-17.1701	-0.101407	0.000001	0.010083	0.003416	-0.000083
1432	7.1550e-01	-17.2118	-0.101573	0.000000	0.004033	0.001366	-0.000033
1433	7.1600e-01	-17.2712	-0.101763	0.000000	0.004638	0.001571	-0.000038
1434	7.1650e-01	-17.3065	-0.101936	0.000000	0.004235	0.001435	-0.000035
1435	7.1700e-01	-17.3241	-0.102002	0.000000	0.001613	0.000547	-0.000013
1436	7.1750e-01	-17.4268	-0.102192	0.000000	0.004638	0.001571	-0.000038
1437	7.1800e-01	-17.4107	-0.102465	-0.000001	-0.006655	-0.002255	-0.000055
1438	7.1850e-01	-17.4733	-0.102952	0.000001	0.011898	0.004031	-0.000097
1439	7.1900e-01	-17.5054	-0.103341	0.000001	0.009478	0.003211	-0.000078
1440	7.1950e-01	-17.5391	-0.103696	0.000001	0.008671	0.002938	-0.000071
1441	7.2000e-01	-17.5519	-0.103696	-0.000000	-0.000000	-0.000000	0.000000
1442	7.2050e-01	-17.6257	-0.103713	0.000000	0.000403	0.000137	-0.000003
1443	7.2100e-01	-17.6546	-0.103886	0.000000	0.004235	0.001435	-0.000035
1444	7.2150e-01	-17.7252	-0.104217	0.000001	0.008066	0.002733	-0.000066
1445	7.2200e-01	-17.7252	-0.104307	0.000000	0.002218	0.000752	-0.000018
1446	7.2250e-01	-17.7749	-0.104580	0.000001	0.006655	0.002255	-0.000055
1447	7.2300e-01	-17.8182	-0.104770	0.000000	0.004638	0.001571	-0.000038
1448	7.2350e-01	-17.8856	-0.104919	0.000000	0.003630	0.001230	-0.000030
1449	7.2400e-01	-17.9353	-0.105282	0.000001	0.008873	0.003006	-0.000073
1450	7.2450e-01	-17.8984	-0.105522	-0.000001	-0.005848	-0.001981	-0.000048
1451	7.2500e-01	-17.9786	-0.105861	0.000001	0.008268	0.002801	-0.000068
1452	7.2550e-01	-18.0348	-0.106117	0.000001	0.006251	0.002118	-0.000051
1453	7.2600e-01	-18.0588	-0.106175	0.000000	0.001412	0.000478	-0.000012
1454	7.2650e-01	-18.0974	-0.106538	0.000001	0.008873	0.003006	-0.000073
1455	7.2700e-01	-18.1439	-0.106894	0.000001	0.008671	0.002938	-0.000071
1456	7.2750e-01	-18.1695	-0.107257	0.000001	0.008873	0.003006	-0.000073
1457	7.2800e-01	-18.2353	-0.107191	-0.000000	-0.001613	-0.000547	0.000013
1458	7.2850e-01	-18.2658	-0.107398	0.000001	0.005041	0.001708	-0.000041
1459	7.2900e-01	-18.2866	-0.107464	0.000000	0.001613	0.000547	-0.000013
1460	7.2950e-01	-18.3781	-0.107662	0.000000	0.004840	0.001640	-0.000040
1461	7.3000e-01	-18.3749	-0.107745	-0.000000	-0.002017	-0.000683	-0.000017
1462	7.3050e-01	-18.4342	-0.107819	0.000000	0.001815	0.000615	-0.000015
1463	7.3100e-01	-18.4743	-0.108331	0.000001	0.012503	0.004236	-0.000102
1464	7.3150e-01	-18.5225	-0.109001	0.000002	0.016334	0.005534	-0.000134
1465	7.3200e-01	-18.5225	-0.109422	0.000001	0.010284	0.003484	-0.000084
1466	7.3250e-01	-18.5898	-0.109827	0.000001	0.009881	0.003348	-0.000081
1467	7.3300e-01	-18.6396	-0.109761	-0.000000	-0.001613	-0.000547	0.000013
1468	7.3350e-01	-18.6572	-0.109637	-0.000000	-0.003025	-0.001025	0.000025
1469	7.3400e-01	-18.7086	-0.109686	0.000000	0.001210	0.000410	-0.000010
1470	7.3450e-01	-18.7519	-0.109786	0.000000	0.002420	0.000820	-0.000020
1471	7.3500e-01	-18.7679	-0.109802	0.000000	0.000403	0.000137	-0.000003
1472	7.3550e-01	-18.8289	-0.109984	0.000000	0.004436	0.001503	-0.000036
1473	7.3600e-01	-18.8610	-0.110050	0.000000	0.001613	0.000547	-0.000013
1474	7.3650e-01	-18.9107	-0.110248	0.000000	0.004840	0.001640	-0.000040
1475	7.3700e-01	-18.9316	-0.110587	0.000001	0.008268	0.002801	-0.000068
1476	7.3750e-01	-19.0182	-0.111289	0.000002	0.017141	0.005807	-0.000140
1477	7.3800e-01	-19.0262	-0.111769	0.000001	0.011696	0.003963	-0.000096
1478	7.3850e-01	-19.0679	-0.111860	0.000000	0.002218	0.000752	-0.000018
1479	7.3900e-01	-19.0872	-0.111694	-0.000000	-0.004033	-0.001366	0.000033
1480	7.3950e-01	-19.1305	-0.111810	0.000000	0.002823	0.000957	-0.000023
1481	7.4000e-01	-19.1979	-0.111876	0.000000	0.001613	0.000547	-0.000013
1482	7.4050e-01	-19.2315	-0.112066	0.000000	0.004638	0.001571	-0.000038
1483	7.4100e-01	-19.2716	-0.112653	0.000001	0.014318	0.004851	-0.000117
1484	7.4150e-01	-19.3085	-0.113066	0.000001	0.010083	0.003416	-0.000083
1485	7.4200e-01	-19.2989	-0.113091	-0.000000	-0.000605	-0.000205	-0.000005
1486	7.4250e-01	-19.3936	-0.113066	-0.000000	-0.000605	-0.000205	0.000005
1487	7.4300e-01	-19.4433	-0.113182	0.000000	0.002823	0.000957	-0.000023
1488	7.4350e-01	-19.4465	-0.113529	0.000001	0.008470	0.002870	-0.000069
1489	7.4400e-01	-19.4898	-0.113975	0.000001	0.010889	0.003689	-0.000089
1490	7.4450e-01	-19.5203	-0.114090	0.000000	0.002823	0.000957	-0.000023
1491	7.4500e-01	-19.5492	-0.114033	-0.000000	-0.001412	-0.000478	0.000012
1492	7.4550e-01	-19.6053	-0.114074	0.000000	0.001008	0.000342	-0.000008
1493	7.4600e-01	-19.6406	-0.114504	0.000001	0.010486	0.003553	-0.000086
1494	7.4650e-01	-19.7000	-0.114751	0.000001	0.006050	0.002050	-0.000050
1495	7.4700e-01	-19.7545	-0.114768	0.000000	0.000403	0.000137	-0.000003
1496	7.4750e-01	-19.7994	-0.114842	0.000000	0.001815	0.000615	-0.000015
1497	7.4800e-01	-19.8123	-0.114991	0.000000	0.003630	0.001230	-0.000030
1498	7.4850e-01	-19.8845	-0.115454	0.000001	0.011293	0.003826	-0.000093
1499	7.4900e-01	-19.8909	-0.115586	0.000000	0.003226	0.001093	-0.000026
1500	7.4950e-01	-19.9278	-0.115710	0.000000	0.003025	0.001025	-0.000025
1501	7.5000e-01	-19.9871	-0.115693	-0.000000	-0.000403	-0.000137	0.000003
1502	7.5050e-01	-19.9342	-0.115974	-0.000001	-0.006856	-0.002323	-0.000056
1503	7.5100e-01	-19.8732	-0.116181	-0.000001	-0.005041	-0.001708	-0.000041
1504	7.5150e-01	-19.8283	-0.116173	0.000000	0.000202	0.000068	0.000002
1505	7.5200e-01	-19.7577	-0.116090	0.000000	0.002017	0.000683	0.000017
1506	7.5250e-01	-19.7577	-0.115991	-0.000000	-0.002420	-0.000820	0.000020
1507	7.5300e-01	-19.7160	-0.116115	-0.000000	-0.003025	-0.001025	-0.000025
1508	7.5350e-01	-19.6823	-0.116049	0.000000	0.001613	0.000547	0.000013
1509	7.5400e-01	-19.6262	-0.115916	0.000000	0.003226	0.001093	0.000026
1510	7.5450e-01	-19.5748	-0.115735	0.000000	0.004436	0.001503	0.000036
1511	7.5500e-01	-19.5283	-0.115660	0.000000	0.001815	0.000615	0.000015
1512	7.5550e-01	-19.5059	-0.115586	0.000000	0.001815	0.000615	0.000015
1513	7.5600e-01	-19.4658	-0.115338	0.000001	0.006050	0.002050	0.000050
1514	7.5650e-01	-19.4192	-0.115173	0.000000	0.004033	0.001366	0.000033
1515	7.5700e-01	-19.3888	-0.114917	0.000001	0.006251	0.002118	0.000051
1516	7.5750e-01	-19.3422	-0.114636	0.000001	0.006856	0.002323	0.000056
1517	7.5800e-01	-19.3278	-0.114280	0.000001	0.008671	0.002938	0.000071
1518	7.5850e-01	-19.3005	-0.114190	0.000000	0.002218	0.000752	0.000018
1519	7.5900e-01	-19.2396	-0.114223	-0.000000	-0.000807	-0.000273	-0.000007
1520	7.5950e-01	-19.1834	-0.114272	-0.000000	-0.001210	-0.000410	-0.000010
1521	7.6000e-01	-19.1497	-0.114082	0.000000	0.004638	0.001571	0.000038
1522	7.6050e-01	-19.1032	-0.113950	0.000000	0.003226	0.001093	0.000026
1523	7.6100e-01	-19.0872	-0.113826	0.000000	0.003025	0.001025	0.000025
1524	7.6150e-01	-19.0438	-0.113859	-0.000000	-0.000807	-0.000273	-0.000007
1525	7.6200e-01	-18.9957	-0.113776	0.000000	0.002017	0.000683	0.000017
1526	7.6250e-01	-18.9733	-0.113446	0.000001	0.008066	0.002733	0.000066
1527	7.6300e-01	-18.8930	-0.113115	0.000001	0.008066	0.002733	0.000066
1528	7.6350e-01	-18.8658	-0.112826	0.000001	0.007058	0.002391	0.000058
1529	7.6400e-01	-18.8144	-0.112446	0.000001	0.009276	0.003143	0.000076
1530	7.6450e-01	-18.8080	-0.112372	0.000000	0.001815	0.000615	0.000015
1531	7.6500e-01	-18.7503	-0.112198	0.000000	0.004235	0.001435	0.000035
1532	7.6550e-01	-18.7070	-0.112107	0.000000	0.002218	0.000752	0.000018
1533	7.6600e-01	-18.6701	-0.111917	0.000000	0.004638	0.001571	0.000038
1534	7.6650e-01	-18.6428	-0.111455	0.000001	0.011293	0.003826	0.000093
1535	7.6700e-01	-18.5882	-0.111050	0.000001	0.009881	0.003348	0.000081
1536	7.6750e-01	-18.5626	-0.110769	0.000001	0.006856	0.002323	0.000056
1537	7.6800e-01	-18.5241	-0.110794	-0.000000	-0.000605	-0.000205	-0.000005
1538	7.6850e-01	-18.4743	-0.110612	0.000000	0.004436	0.001503	0.000036
1539	7.6900e-01	-18.4391	-0.110488	0.000000	0.003025	0.001025	0.000025
1540	7.6950e-01	-18.3669	-0.110083	0.000001	0.009881	0.003348	0.000081
1541	7.7000e-01	-18.3155	-0.109893	0.000000	0.004638	0.001571	0.000038
1542	7.7050e-01	-18.3123	-0.109868	0.000000	0.000605	0.000205	0.000005
1543	7.7100e-01	-18.2674	-0.109686	0.000000	0.004436	0.001503	0.000036
1544	7.7150e-01	-18.2225	-0.109596	0.000000	0.002218	0.000752	0.000018
1545	7.7200e-01	-18.2064	-0.109249	0.000001	0.008470	0.002870	0.000069
1546	7.7250e-01	-18.1294	-0.108976	0.000001	0.006655	0.002255	0.000055
1547	7.7300e-01	-18.1359	-0.108728	-0.000001	-0.006050	-0.002050	0.000050
1548	7.7350e-01	-18.0925	-0.108827	-0.000000	-0.002420	-0.000820	-0.000020
1549	7.7400e-01	-18.0332	-0.108976	-0.000000	-0.003630	-0.001230	-0.000030
1550	7.7450e-01	-17.9818	-0.108827	0.000000	0.003630	0.001230	0.000030
1551	7.7500e-01	-17.9305	-0.108860	-0.000000	-0.000807	-0.000273	-0.000007
1552	7.7550e-01	-17.9097	-0.108414	0.000001	0.010889	0.003689	0.000089
1553	7.7600e-01	-17.8840	-0.107703	0.000002	0.017342	0.005876	0.000142
1554	7.7650e-01	-17.7733	-0.107241	0.000001	0.011293	0.003826	0.000093
1555	7.7700e-01	-17.7829	-0.106745	-0.000001	-0.012099	-0.004099	0.000099
1556	7.7750e-01	-17.7621	-0.106695	0.000000	0.001210	0.000410	0.000010
1557	7.7800e-01	-17.7139	-0.106547	0.000000	0.003630	0.001230	0.000030
1558	7.7850e-01	-17.6947	-0.106076	0.000001	0.011494	0.003894	0.000094
1559	7.7900e-01	-17.6450	-0.105886	0.000000	0.004638	0.001571	0.000038
1560	7.7950e-01	-17.5936	-0.105977	-0.000000	-0.002218	-0.000752	-0.000018
1561	7.8000e-01	-17.5391	-0.106423	-0.000001	-0.010889	-0.003689	-0.000089
1562	7.8050e-01	-17.5070	-0.106505	-0.000000	-0.002017	-0.000683	-0.000017
1563	7.8100e-01	-17.4781	-0.106167	0.000001	0.008268	0.002801	0.000068
1564	7.8150e-01	-17.4220	-0.105696	0.000001	0.011494	0.003894	0.000094
1565	7.8200e-01	-17.3931	-0.105266	0.000001	0.010486	0.003553	0.000086
1566	7.8250e-01	-17.3514	-0.104812	0.000001	0.011091	0.003758	0.000091
1567	7.8300e-01	-17.3305	-0.104679	0.000000	0.003226	0.001093	0.000026
1568	7.8350e-01	-17.2776	-0.104836	-0.000000	-0.003831	-0.001298	-0.000031
1569	7.8400e-01	-17.2503	-0.104787	0.000000	0.001210	0.000410	0.000010
1570	7.8450e-01	-17.2118	-0.104473	0.000001	0.007663	0.002596	0.000063
1571	7.8500e-01	-17.1364	-0.103919	0.000001	0.013511	0.004578	0.000111
1572	7.8550e-01	-17.1124	-0.103572	0.000001	0.008470	0.002870	0.000069
1573	7.8600e-01	-17.0674	-0.103572	0.000000	0.000000	0.000000	0.000000
1574	7.8650e-01	-17.0466	-0.103754	-0.000000	-0.004436	-0.001503	-0.000036
1575	7.8700e-01	-16.9888	-0.103514	0.000001	0.005848	0.001981	0.000048
1576	7.8750e-01	-16.9503	-0.103118	0.000001	0.009679	0.003279	0.000079
1577	7.8800e-01	-16.9295	-0.102787	0.000001	0.008066	0.002733	0.000066
1578	7.8850e-01	-16.8637	-0.102771	0.000000	0.000403	0.000137	0.000003
1579	7.8900e-01	-16.8444	-0.102638	0.000000	0.003226	0.001093	0.000026
1580	7.8950e-01	-16.7787	-0.102275	0.000001	0.008873	0.003006	0.000073
1581	7.9000e-01	-16.7594	-0.101944	0.000001	0.008066	0.002733	0.000066
1582	7.9050e-01	-16.7065	-0.101713	0.000001	0.005646	0.001913	0.000046
1583	7.9100e-01	-16.6872	-0.101581	0.000000	0.003226	0.001093	0.000026
1584	7.9150e-01	-16.6231	-0.101341	0.000001	0.005848	0.001981	0.000048
1585	7.9200e-01	-16.5797	-0.101069	0.000001	0.006655	0.002255	0.000055
1586	7.9250e-01	-16.5380	-0.100722	0.000001	0.008470	0.002870	0.000069
1587	7.9300e-01	-16.5124	-0.100655	0.000000	0.001613	0.000547	0.000013
1588	7.9350e-01	-16.4787	-0.100490	0.000000	0.004033	0.001366	0.000033
1589	7.9400e-01	-16.4177	-0.100317	0.000000	0.004235	0.001435	0.000035
1590	7.9450e-01	-16.3856	-0.100069	0.000001	0.006050	0.002050	0.000050
1591	7.9500e-01	-16.3471	-0.099796	0.000001	0.006655	0.002255	0.000055
1592	7.9550e-01	-16.3102	-0.099689	0.000000	0.002622	0.000888	0.000021
1593	7.9600e-01	-16.2798	-0.099466	0.000001	0.005445	0.001845	0.000045
1594	7.9650e-01	-16.2060	-0.099127	0.000001	0.008268	0.002801	0.000068
1595	7.9700e-01	-16.2028	-0.098862	0.000001	0.006453	0.002186	0.000053
1596	7.9750e-01	-16.1546	-0.098664	0.000000	0.004840	0.001640	0.000040
1597	7.9800e-01	-16.0889	-0.098358	0.000001	0.007461	0.002528	0.000061
1598	7.9850e-01	-16.0840	-0.098102	0.000001	0.006251	0.002118	0.000051
1599	7.9900e-01	-16.0375	-0.097763	0.000001	0.008268	0.002801	0.000068
1600	7.9950e-01	-15.9733	-0.097565	0.000000	0.004840	0.001640	0.000040
1601	8.0000e-01	-15.9477	-0.097416	0.000000	0.003630	0.001230	0.000030
1602	8.0050e-01	-15.9108	-0.097226	0.000000	0.004638	0.001571	0.000038
1603	8.0100e-01	-15.8418	-0.096871	0.000001	0.008671	0.002938	0.000071
1604	8.0150e-01	-15.8242	-0.096822	0.000000	0.001210	0.000410	0.000010
1605	8.0200e-01	-15.7760	-0.096508	0.000001	0.007663	0.002596	0.000063
1606	8.0250e-01	-15.7343	-0.096408	0.000000	0.002420	0.000820	0.000020
1607	8.0300e-01	-15.7006	-0.096061	0.000001	0.008470	0.002870	0.000069
1608	8.0350e-01	-15.6429	-0.095690	0.000001	0.009074	0.003075	0.000074
1609	8.0400e-01	-15.6268	-0.095367	0.000001	0.007865	0.002665	0.000064
1610	8.0450e-01	-15.5931	-0.094962	0.000001	0.009881	0.003348	0.000081
1611	8.0500e-01	-15.5739	-0.094880	0.000000	0.002017	0.000683	0.000017
1612	8.0550e-01	-15.4921	-0.094938	-0.000000	-0.001412	-0.000478	-0.000012
1613	8.0600e-01	-15.4857	-0.095004	-0.000000	-0.001613	-0.000547	-0.000013
1614	8.0650e-01	-15.4343	-0.094698	0.000001	0.007461	0.002528	0.000061
1615	8.0700e-01	-15.3894	-0.094541	0.000000	0.003831	0.001298	0.000031
1616	8.0750e-01	-15.3477	-0.094343	0.000000	0.004840	0.001640	0.000040
1617	8.0800e-01	-15.3012	-0.094211	0.000000	0.003226	0.001093	0.000026
1618	8.0850e-01	-15.2643	-0.094095	0.000000	0.002823	0.000957	0.000023
1619	8.0900e-01	-15.2563	-0.093872	0.000001	0.005445	0.001845	0.000045
1620	8.0950e-01	-15.1921	-0.093525	0.000001	0.008470	0.002870	0.000069
1621	8.1000e-01	-15.1632	-0.093186	0.000001	0.008268	0.002801	0.000068
1622	8.1050e-01	-15.1199	-0.092971	0.000001	0.005243	0.001776	0.000043
1623	8.1100e-01	-15.0814	-0.092665	0.000001	0.007461	0.002528	0.000061
1624	8.1150e-01	-15.0333	-0.092632	0.000000	0.000807	0.000273	0.000007
1625	8.1200e-01	-14.9819	-0.092508	0.000000	0.003025	0.001025	0.000025
1626	8.1250e-01	-14.9210	-0.092376	0.000000	0.003226	0.001093	0.000026
1627	8.1300e-01	-14.8969	-0.091955	0.000001	0.010284	0.003484	0.000084
1628	8.1350e-01	-14.8905	-0.091616	0.000001	0.008268	0.002801	0.000068
1629	8.1400e-01	-14.8279	-0.091525	0.000000	0.002218	0.000752	0.000018
1630	8.1450e-01	-14.8039	-0.091624	-0.000000	-0.002420	-0.000820	-0.000020
1631	8.1500e-01	-14.7429	-0.091459	0.000000	0.004033	0.001366	0.000033
1632	8.1550e-01	-14.7301	-0.091170	0.000001	0.007058	0.002391	0.000058
1633	8.1600e-01	-14.6643	-0.091087	0.000000	0.002017	0.000683	0.000017
1634	8.1650e-01	-14.6178	-0.091096	-0.000000	-0.000202	-0.000068	-0.000002
1635	8.1700e-01	-14.6258	-0.091269	0.000000	0.004235	0.001435	-0.000035
1636	8.1750e-01	-14.5392	-0.091286	-0.000000	-0.000403	-0.000137	-0.000003
1637	8.1800e-01	-14.5087	-0.090864	0.000001	0.010284	0.003484	0.000084
1638	8.1850e-01	-14.4557	-0.090104	0.000002	0.018552	0.006286	0.000152
1639	8.1900e-01	-14.4461	-0.089625	0.000001	0.011696	0.003963	0.000096
1640	8.1950e-01	-14.3755	-0.089286	0.000001	0.008268	0.002801	0.000068
1641	8.2000e-01	-14.3499	-0.089030	0.000001	0.006251	0.002118	0.000051
1642	8.2050e-01	-14.3210	-0.088650	0.000001	0.009276	0.003143	0.000076
1643	8.2100e-01	-14.2761	-0.088410	0.000001	0.005848	0.001981	0.000048
1644	8.2150e-01	-14.2472	-0.087956	0.000001	0.011091	0.003758	0.000091
1645	8.2200e-01	-14.2007	-0.088220	-0.000001	-0.006453	-0.002186	-0.000053
1646	8.2250e-01	-14.1429	-0.088575	-0.000001	-0.008671	-0.002938	-0.000071
1647	8.2300e-01	-14.1124	-0.088724	-0.000000	-0.003630	-0.001230	-0.000030
1648	8.2350e-01	-14.0210	-0.088526	0.000000	0.004840	0.001640	0.000040
1649	8.2400e-01	-14.0242	-0.088228	-0.000001	-0.007260	-0.002460	0.000059
1650	8.2450e-01	-13.9825	-0.087790	0.000001	0.010688	0.003621	0.000088
1651	8.2500e-01	-13.9584	-0.087427	0.000001	0.008873	0.003006	0.000073
1652	8.2550e-01	-13.9312	-0.087113	0.000001	0.007663	0.002596	0.000063
1653	8.2600e-01	-13.8814	-0.087237	-0.000000	-0.003025	-0.001025	-0.000025
1654	8.2650e-01	-13.8253	-0.087237	0.000000	0.000000	0.000000	0.000000
1655	8.2700e-01	-13.7836	-0.086774	0.000001	0.011293	0.003826	0.000093
1656	8.2750e-01	-13.7306	-0.086328	0.000001	0.010889	0.003689	0.000089
1657	8.2800e-01	-13.7146	-0.086113	0.000001	0.005243	0.001776	0.000043
1658	8.2850e-01	-13.6681	-0.086163	-0.000000	-0.001210	-0.000410	-0.000010
1659	8.2900e-01	-13.6151	-0.086188	-0.000000	-0.000605	-0.000205	-0.000005
1660	8.2950e-01	-13.5718	-0.085841	0.000001	0.008470	0.002870	0.000069
1661	8.3000e-01	-13.5606	-0.085601	0.000001	0.005848	0.001981	0.000048
1662	8.3050e-01	-13.5173	-0.085411	0.000000	0.004638	0.001571	0.000038
1663	8.3100e-01	-13.4900	-0.085361	0.000000	0.001210	0.000410	0.000010
1664	8.3150e-01	-13.4740	-0.085493	-0.000000	-0.003226	-0.001093	-0.000026
1665	8.3200e-01	-13.3841	-0.085064	0.000001	0.010486	0.003553	0.000086
1666	8.3250e-01	-13.3649	-0.084775	0.000001	0.007058	0.002391	0.000058
1667	8.3300e-01	-13.3087	-0.084403	0.000001	0.009074	0.003075	0.000074
1668	8.3350e-01	-13.2606	-0.084411	-0.000000	-0.000202	-0.000068	-0.000002
1669	8.3400e-01	-13.2349	-0.084254	0.000000	0.003831	0.001298	0.000031
1670	8.3450e-01	-13.1948	-0.083940	0.000001	0.007663	0.002596	0.000063
1671	8.3500e-01	-13.1531	-0.083659	0.000001	0.006856	0.002323	0.000056
1672	8.3550e-01	-13.1130	-0.083535	0.000000	0.003025	0.001025	0.000025
1673	8.3600e-01	-13.0424	-0.083494	0.000000	0.001008	0.000342	0.000008
1674	8.3650e-01	-13.0232	-0.083279	0.000001	0.005243	0.001776	0.000043
1675	8.3700e-01	-12.9879	-0.082982	0.000001	0.007260	0.002460	0.000059
1676	8.3750e-01	-12.9125	-0.082750	0.000001	0.005646	0.001913	0.000046
1677	8.3800e-01	-12.9012	-0.082684	0.000000	0.001613	0.000547	0.000013
1678	8.3850e-01	-12.8948	-0.082502	0.000000	0.004436	0.001503	0.000036
1679	8.3900e-01	-12.8659	-0.082321	0.000000	0.004436	0.001503	0.000036
1680	8.3950e-01	-12.7889	-0.082122	0.000000	0.004840	0.001640	0.000040
1681	8.4000e-01	-12.7520	-0.082048	0.000000	0.001815	0.000615	0.000015
1682	8.4050e-01	-12.6959	-0.081941	0.000000	0.002622	0.000888	0.000021
1683	8.4100e-01	-12.6734	-0.081577	0.000001	0.008873	0.003006	0.000073
1684	8.4150e-01	-12.6237	-0.081296	0.000001	0.006856	0.002323	0.000056
1685	8.4200e-01	-12.6012	-0.081056	0.000001	0.005848	0.001981	0.000048
1686	8.4250e-01	-12.5772	-0.080916	0.000000	0.003428	0.001161	0.000028
1687	8.4300e-01	-12.5114	-0.080643	0.000001	0.006655	0.002255	0.000055
1688	8.4350e-01	-12.4825	-0.080288	0.000001	0.008671	0.002938	0.000071
1689	8.4400e-01	-12.4312	-0.080007	0.000001	0.006856	0.002323	0.000056
1690	8.4450e-01	-12.3927	-0.079924	0.000000	0.002017	0.000683	0.000017
1691	8.4500e-01	-12.3333	-0.079792	0.000000	0.003226	0.001093	0.000026
1692	8.4550e-01	-12.3029	-0.079577	0.000001	0.005243	0.001776	0.000043
1693	8.4600e-01	-12.2740	-0.079511	0.000000	0.001613	0.000547	0.000013
1694	8.4650e-01	-12.2291	-0.079354	0.000000	0.003831	0.001298	0.000031
1695	8.4700e-01	-12.2098	-0.079272	0.000000	0.002017	0.000683	0.000017
1696	8.4750e-01	-12.1344	-0.078983	0.000001	0.007058	0.002391	0.000058
1697	8.4800e-01	-12.1071	-0.078817	0.000000	0.004033	0.001366	0.000033
1698	8.4850e-01	-12.0815	-0.078677	0.000000	0.003428	0.001161	0.000028
1699	8.4900e-01	-12.0446	-0.078454	0.000001	0.005445	0.001845	0.000045
1700	8.4950e-01	-12.0029	-0.077983	0.000001	0.011494	0.003894	0.000094
1701	8.5000e-01	-11.9547	-0.077652	0.000001	0.008066	0.002733	0.000066
1702	8.5050e-01	-11.8970	-0.077371	0.000001	0.006856	0.002323	0.000056
1703	8.5100e-01	-11.8809	-0.077181	0.000000	0.004638	0.001571	0.000038
1704	8.5150e-01	-11.8248	-0.076983	0.000000	0.004840	0.001640	0.000040
1705	8.5200e-01	-11.7670	-0.076983	0.000000	0.000000	0.000000	0.000000
1706	8.5250e-01	-11.7269	-0.077082	-0.000000	-0.002420	-0.000820	-0.000020
1707	8.5300e-01	-11.7157	-0.077082	0.000000	0.000000	0.000000	0.000000
1708	8.5350e-01	-11.6804	-0.076925	0.000000	0.003831	0.001298	0.000031
1709	8.5400e-01	-11.6179	-0.076752	0.000000	0.004235	0.001435	0.000035
1710	8.5450e-01	-11.5842	-0.076752	0.000000	0.000000	0.000000	0.000000
1711	8.5500e-01	-11.5569	-0.076652	0.000000	0.002420	0.000820	0.000020
1712	8.5550e-01	-11.5088	-0.076099	0.000001	0.013511	0.004578	0.000111
1713	8.5600e-01	-11.4767	-0.075636	0.000001	0.011293	0.003826	0.000093
1714	8.5650e-01	-11.4655	-0.075355	0.000001	0.006856	0.002323	0.000056
1715	8.5700e-01	-11.4157	-0.075223	0.000000	0.003226	0.001093	0.000026
1716	8.5750e-01	-11.3676	-0.075157	0.000000	0.001613	0.000547	0.000013
1717	8.5800e-01	-11.2826	-0.074967	0.000000	0.004638	0.001571	0.000038
1718	8.5850e-01	-11.2489	-0.075016	-0.000000	-0.001210	-0.000410	-0.000010
1719	8.5900e-01	-11.2377	-0.075165	-0.000000	-0.003630	-0.001230	-0.000030
1720	8.5950e-01	-11.1751	-0.074909	0.000001	0.006251	0.002118	0.000051
1721	8.6000e-01	-11.1286	-0.075000	-0.000000	-0.002218	-0.000752	-0.000018
1722	8.6050e-01	-11.1109	-0.074719	0.000001	0.006856	0.002323	0.000056
1723	8.6100e-01	-11.0339	-0.074124	0.000001	0.014519	0.004919	0.000119
1724	8.6150e-01	-11.0451	-0.073794	-0.000001	-0.008066	-0.002733	0.000066
1725	8.6200e-01	-10.9505	-0.073430	0.000001	0.008873	0.003006	0.000073
1726	8.6250e-01	-10.9489	-0.073050	0.000001	0.009276	0.003143	0.000076
1727	8.6300e-01	-10.8767	-0.072819	0.000001	0.005646	0.001913	0.000046
1728	8.6350e-01	-10.8607	-0.072637	0.000000	0.004436	0.001503	0.000036
1729	8.6400e-01	-10.8398	-0.072447	0.000000	0.004638	0.001571	0.000038
1730	8.6450e-01	-10.8077	-0.072224	0.000001	0.005445	0.001845	0.000045
1731	8.6500e-01	-10.7307	-0.072513	-0.000001	-0.007058	-0.002391	-0.000058
1732	8.6550e-01	-10.7018	-0.072587	-0.000000	-0.001815	-0.000615	-0.000015
1733	8.6600e-01	-10.6826	-0.072521	0.000000	0.001613	0.000547	0.000013
1734	8.6650e-01	-10.6313	-0.072058	0.000001	0.011293	0.003826	0.000093
1735	8.6700e-01	-10.5960	-0.071637	0.000001	0.010284	0.003484	0.000084
1736	8.6750e-01	-10.5366	-0.071389	0.000001	0.006050	0.002050	0.000050
1737	8.6800e-01	-10.4965	-0.071183	0.000001	0.005041	0.001708	0.000041
1738	8.6850e-01	-10.4484	-0.071571	-0.000001	-0.009478	-0.003211	-0.000078
1739	8.6900e-01	-10.4420	-0.071530	0.000000	0.001008	0.000342	0.000008
1740	8.6950e-01	-10.3778	-0.071083	0.000001	0.010889	0.003689	0.000089
1741	8.7000e-01	-10.3313	-0.070819	0.000001	0.006453	0.002186	0.000053
1742	8.7050e-01	-10.3168	-0.070579	0.000001	0.005848	0.001981	0.000048
1743	8.7100e-01	-10.2703	-0.070538	0.000000	0.001008	0.000342	0.000008
1744	8.7150e-01	-10.2286	-0.070546	-0.000000	-0.000202	-0.000068	-0.000002
1745	8.7200e-01	-10.1628	-0.070340	0.000001	0.005041	0.001708	0.000041
1746	8.7250e-01	-10.1660	-0.070100	-0.000001	-0.005848	-0.001981	0.000048
1747	8.7300e-01	-10.0922	-0.069844	0.000001	0.006251	0.002118	0.000051
1748	8.7350e-01	-10.0473	-0.069770	0.000000	0.001815	0.000615	0.000015
1749	8.7400e-01	-10.0232	-0.069778	-0.000000	-0.000202	-0.000068	-0.000002
1750	8.7450e-01	-10.0152	-0.069621	0.000000	0.003831	0.001298	0.000031
1751	8.7500e-01	-9.9334	-0.069414	0.000001	0.005041	0.001708	0.000041
1752	8.7550e-01	-9.9093	-0.069125	0.000001	0.007058	0.002391	0.000058
1753	8.7600e-01	-9.8821	-0.069150	-0.000000	-0.000605	-0.000205	-0.000005
1754	8.7650e-01	-9.8628	-0.069051	0.000000	0.002420	0.000820	0.000020
1755	8.7700e-01	-9.7906	-0.068960	0.000000	0.002218	0.000752	0.000018
1756	8.7750e-01	-9.7505	-0.068687	0.000001	0.006655	0.002255	0.000055
1757	8.7800e-01	-9.7233	-0.068390	0.000001	0.007260	0.002460	0.000059
1758	8.7850e-01	-9.6783	-0.068249	0.000000	0.003428	0.001161	0.000028
1759	8.7900e-01	-9.6366	-0.068125	0.000000	0.003025	0.001025	0.000025
1760	8.7950e-01	-9.5853	-0.067844	0.000001	0.006856	0.002323	0.000056
1761	8.8000e-01	-9.5404	-0.067712	0.000000	0.003226	0.001093	0.000026
1762	8.8050e-01	-9.5115	-0.067671	0.000000	0.001008	0.000342	0.000008
1763	8.8100e-01	-9.4858	-0.067597	0.000000	0.001815	0.000615	0.000015
1764	8.8150e-01	-9.4409	-0.067307	0.000001	0.007058	0.002391	0.000058
1765	8.8200e-01	-9.3799	-0.067150	0.000000	0.003831	0.001298	0.000031
1766	8.8250e-01	-9.3302	-0.067175	-0.000000	-0.000605	-0.000205	-0.000005
1767	8.8300e-01	-9.3142	-0.067035	0.000000	0.003428	0.001161	0.000028
1768	8.8350e-01	-9.2484	-0.066803	0.000001	0.005646	0.001913	0.000046
1769	8.8400e-01	-9.2500	-0.066630	-0.000000	-0.004235	-0.001435	0.000035
1770	8.8450e-01	-9.1602	-0.066556	0.000000	0.001815	0.000615	0.000015
1771	8.8500e-01	-9.1554	-0.066473	0.000000	0.002017	0.000683	0.000017
1772	8.8550e-01	-9.1088	-0.066258	0.000001	0.005243	0.001776	0.000043
1773	8.8600e-01	-9.0591	-0.066018	0.000001	0.005848	0.001981	0.000048
1774	8.8650e-01	-9.0318	-0.065721	0.000001	0.007260	0.002460	0.000059
1775	8.8700e-01	-9.0110	-0.065671	0.000000	0.001210	0.000410	0.000010
1776	8.8750e-01	-8.9308	-0.065523	0.000000	0.003630	0.001230	0.000030
1777	8.8800e-01	-8.8987	-0.065267	0.000001	0.006251	0.002118	0.000051
1778	8.8850e-01	-8.8634	-0.065068	0.000000	0.004840	0.001640	0.000040
1779	8.8900e-01	-8.8313	-0.065043	0.000000	0.000605	0.000205	0.000005
1780	8.8950e-01	-8.7864	-0.064853	0.000000	0.004638	0.001571	0.000038
1781	8.9000e-01	-8.7800	-0.064597	0.000001	0.006251	0.002118	0.000051
1782	8.9050e-01	-8.7046	-0.064449	0.000000	0.003630	0.001230	0.000030
1783	8.9100e-01	-8.6837	-0.064366	0.000000	0.002017	0.000683	0.000017
1784	8.9150e-01	-8.6404	-0.064316	0.000000	0.001210	0.000410	0.000010
1785	8.9200e-01	-8.5682	-0.064060	0.000001	0.006251	0.002118	0.000051
1786	8.9250e-01	-8.5698	-0.063862	-0.000000	-0.004840	-0.001640	0.000040
1787	8.9300e-01	-8.5169	-0.063730	0.000000	0.003226	0.001093	0.000026
1788	8.9350e-01	-8.4768	-0.063573	0.000000	0.003831	0.001298	0.000031
1789	8.9400e-01	-8.4318	-0.063374	0.000000	0.004840	0.001640	0.000040
1790	8.9450e-01	-8.3805	-0.063135	0.000001	0.005848	0.001981	0.000048
1791	8.9500e-01	-8.3613	-0.063003	0.000000	0.003226	0.001093	0.000026
1792	8.9550e-01	-8.3260	-0.062565	0.000001	0.010688	0.003621	0.000088
1793	8.9600e-01	-8.2827	-0.062251	0.000001	0.007663	0.002596	0.000063
1794	8.9650e-01	-8.2377	-0.061887	0.000001	0.008873	0.003006	0.000073
1795	8.9700e-01	-8.1848	-0.061705	0.000000	0.004436	0.001503	0.000036
1796	8.9750e-01	-8.1511	-0.061763	-0.000000	-0.001412	-0.000478	-0.000012
1797	8.9800e-01	-8.1158	-0.061829	-0.000000	-0.001613	-0.000547	-0.000013
1798	8.9850e-01	-8.0789	-0.061846	-0.000000	-0.000403	-0.000137	-0.000003
1799	8.9900e-01	-8.0276	-0.061838	0.000000	0.000202	0.000068	0.000002
1800	8.9950e-01	-7.9859	-0.061788	0.000000	0.001210	0.000410	0.000010
1801	9.0000e-01	-7.9586	-0.061631	0.000000	0.003831	0.001298	0.000031
1802	9.0050e-01	-7.9073	-0.061457	0.000000	0.004235	0.001435	0.000035
1803	9.0100e-01	-7.8784	-0.061581	-0.000000	-0.003025	-0.001025	-0.000025
1804	9.0150e-01	-7.8174	-0.061681	-0.000000	-0.002420	-0.000820	-0.000020
1805	9.0200e-01	-7.8110	-0.061416	0.000001	0.006453	0.002186	0.000053
1806	9.0250e-01	-7.7629	-0.061358	0.000000	0.001412	0.000478	0.000012
1807	9.0300e-01	-7.7067	-0.060739	0.000002	0.015124	0.005124	0.000124
1808	9.0350e-01	-7.6586	-0.060309	0.000001	0.010486	0.003553	0.000086
1809	9.0400e-01	-7.6361	-0.059921	0.000001	0.009478	0.003211	0.000078
1810	9.0450e-01	-7.5928	-0.059689	0.000001	0.005646	0.001913	0.000046
1811	9.0500e-01	-7.5303	-0.059615	0.000000	0.001815	0.000615	0.000015
1812	9.0550e-01	-7.5190	-0.059218	0.000001	0.009679	0.003279	0.000079
1813	9.0600e-01	-7.4404	-0.058863	0.000001	0.008671	0.002938	0.000071
1814	9.0650e-01	-7.4260	-0.058706	0.000000	0.003831	0.001298	0.000031
1815	9.0700e-01	-7.3923	-0.058863	-0.000000	-0.003831	-0.001298	-0.000031
1816	9.0750e-01	-7.3506	-0.059152	-0.000001	-0.007058	-0.002391	-0.000058
1817	9.0800e-01	-7.3233	-0.059293	-0.000000	-0.003428	-0.001161	-0.000028
1818	9.0850e-01	-7.2335	-0.059020	0.000001	0.006655	0.002255	0.000055
1819	9.0900e-01	-7.2463	-0.058582	-0.000001	-0.010688	-0.003621	0.000088
1820	9.0950e-01	-7.2110	-0.058268	0.000001	0.007663	0.002596	0.000063
1821	9.1000e-01	-7.1565	-0.057896	0.000001	0.009074	0.003075	0.000074
1822	9.1050e-01	-7.0715	-0.057855	0.000000	0.001008	0.000342	0.000008
1823	9.1100e-01	-7.0875	-0.057756	-0.000000	-0.002420	-0.000820	0.000020
1824	9.1150e-01	-7.0057	-0.057657	0.000000	0.002420	0.000820	0.000020
1825	9.1200e-01	-6.9896	-0.057384	0.000001	0.006655	0.002255	0.000055
1826	9.1250e-01	-6.9463	-0.057087	0.000001	0.007260	0.002460	0.000059
1827	9.1300e-01	-6.8966	-0.056756	0.000001	0.008066	0.002733	0.000066
1828	9.1350e-01	-6.8453	-0.056649	0.000000	0.002622	0.000888	0.000021
1829	9.1400e-01	-6.8084	-0.056756	-0.000000	-0.002622	-0.000888	-0.000021
1830	9.1450e-01	-6.7490	-0.056632	0.000000	0.003025	0.001025	0.000025
1831	9.1500e-01	-6.7618	-0.056376	-0.000001	-0.006251	-0.002118	0.000051
1832	9.1550e-01	-6.7282	-0.055880	0.000001	0.012099	0.004099	0.000099
1833	9.1600e-01	-6.6624	-0.055831	0.000000	0.001210	0.000410	0.000010
1834	9.1650e-01	-6.6030	-0.055855	-0.000000	-0.000605	-0.000205	-0.000005
1835	9.1700e-01	-6.5822	-0.055616	0.000001	0.005848	0.001981	0.000048
1836	9.1750e-01	-6.5645	-0.055294	0.000001	0.007865	0.002665	0.000064
1837	9.1800e-01	-6.4955	-0.055029	0.000001	0.006453	0.002186	0.000053
1838	9.1850e-01	-6.4362	-0.055021	0.000000	0.000202	0.000068	0.000002
1839	9.1900e-01	-6.4346	-0.054897	0.000000	0.003025	0.001025	0.000025
1840	9.1950e-01	-6.4250	-0.054633	0.000001	0.006453	0.002186	0.000053
1841	9.2000e-01	-6.3576	-0.054310	0.000001	0.007865	0.002665	0.000064
1842	9.2050e-01	-6.2950	-0.054104	0.000001	0.005041	0.001708	0.000041
1843	9.2100e-01	-6.2324	-0.054120	-0.000000	-0.000403	-0.000137	-0.000003
1844	9.2150e-01	-6.2196	-0.053790	0.000001	0.008066	0.002733	0.000066
1845	9.2200e-01	-6.1603	-0.053517	0.000001	0.006655	0.002255	0.000055
1846	9.2250e-01	-6.1827	-0.053311	-0.000001	-0.005041	-0.001708	0.000041
1847	9.2300e-01	-6.0977	-0.053277	0.000000	0.000807	0.000273	0.000007
1848	9.2350e-01	-6.0800	-0.053203	0.000000	0.001815	0.000615	0.000015
1849	9.2400e-01	-6.0415	-0.052856	0.000001	0.008470	0.002870	0.000069
1850	9.2450e-01	-6.0079	-0.052534	0.000001	0.007865	0.002665	0.000064
1851	9.2500e-01	-5.9437	-0.052550	-0.000000	-0.000403	-0.000137	-0.000003
1852	9.2550e-01	-5.8923	-0.052360	0.000000	0.004638	0.001571	0.000038
1853	9.2600e-01	-5.8522	-0.052079	0.000001	0.006856	0.002323	0.000056
1854	9.2650e-01	-5.8234	-0.051865	0.000001	0.005243	0.001776	0.000043
1855	9.2700e-01	-5.7801	-0.051807	0.000000	0.001412	0.000478	0.000012
1856	9.2750e-01	-5.7720	-0.051617	0.000000	0.004638	0.001571	0.000038
1857	9.2800e-01	-5.7095	-0.051377	0.000001	0.005848	0.001981	0.000048
1858	9.2850e-01	-5.6678	-0.051121	0.000001	0.006251	0.002118	0.000051
1859	9.2900e-01	-5.6485	-0.051080	0.000000	0.001008	0.000342	0.000008
1860	9.2950e-01	-5.5779	-0.050997	0.000000	0.002017	0.000683	0.000017
1861	9.3000e-01	-5.5490	-0.050700	0.000001	0.007260	0.002460	0.000059
1862	9.3050e-01	-5.5025	-0.050286	0.000001	0.010083	0.003416	0.000083
1863	9.3100e-01	-5.4849	-0.050212	0.000000	0.001815	0.000615	0.000015
1864	9.3150e-01	-5.4480	-0.050138	0.000000	0.001815	0.000615	0.000015
1865	9.3200e-01	-5.3870	-0.050014	0.000000	0.003025	0.001025	0.000025
1866	9.3250e-01	-5.3517	-0.049543	0.000001	0.011494	0.003894	0.000094
1867	9.3300e-01	-5.2859	-0.049402	0.000000	0.003428	0.001161	0.000028
1868	9.3350e-01	-5.2651	-0.049303	0.000000	0.002420	0.000820	0.000020
1869	9.3400e-01	-5.2555	-0.049221	0.000000	0.002017	0.000683	0.000017
1870	9.3450e-01	-5.2202	-0.048882	0.000001	0.008268	0.002801	0.000068
1871	9.3500e-01	-5.1608	-0.048667	0.000001	0.005243	0.001776	0.000043
1872	9.3550e-01	-5.1063	-0.048493	0.000000	0.004235	0.001435	0.000035
1873	9.3600e-01	-5.0646	-0.048427	0.000000	0.001613	0.000547	0.000013
1874	9.3650e-01	-5.0100	-0.048188	0.000001	0.005848	0.001981	0.000048
1875	9.3700e-01	-5.0036	-0.047865	0.000001	0.007865	0.002665	0.000064
1876	9.3750e-01	-4.9683	-0.047742	0.000000	0.003025	0.001025	0.000025
1877	9.3800e-01	-4.8849	-0.047477	0.000001	0.006453	0.002186	0.000053
1878	9.3850e-01	-4.8897	-0.047262	-0.000001	-0.005243	-0.001776	0.000043
1879	9.3900e-01	-4.8400	-0.046948	0.000001	0.007663	0.002596	0.000063
1880	9.3950e-01	-4.7758	-0.046800	0.000000	0.003630	0.001230	0.000030
1881	9.4000e-01	-4.7421	-0.046560	0.000001	0.005848	0.001981	0.000048
1882	9.4050e-01	-4.7036	-0.046312	0.000001	0.006050	0.002050	0.000050
1883	9.4100e-01	-4.6410	-0.046147	0.000000	0.004033	0.001366	0.000033
1884	9.4150e-01	-4.6154	-0.046023	0.000000	0.003025	0.001025	0.000025
1885	9.4200e-01	-4.5977	-0.045659	0.000001	0.008873	0.003006	0.000073
1886	9.4250e-01	-4.5448	-0.045387	0.000001	0.006655	0.002255	0.000055
1887	9.4300e-01	-4.5015	-0.045048	0.000001	0.008268	0.002801	0.000068
1888	9.4350e-01	-4.4357	-0.045180	-0.000000	-0.003226	-0.001093	-0.000026
1889	9.4400e-01	-4.4116	-0.045502	-0.000001	-0.007865	-0.002665	-0.000064
1890	9.4450e-01	-4.3860	-0.045701	-0.000000	-0.004840	-0.001640	-0.000040
1891	9.4500e-01	-4.3106	-0.045758	-0.000000	-0.001412	-0.000478	-0.000012
1892	9.4550e-01	-4.3074	-0.045511	0.000001	0.006050	0.002050	0.000050
1893	9.4600e-01	-4.2576	-0.044841	0.000002	0.016334	0.005534	0.000134
1894	9.4650e-01	-4.2464	-0.044387	0.000001	0.011091	0.003758	0.000091
1895	9.4700e-01	-4.2015	-0.044089	0.000001	0.007260	0.002460	0.000059
1896	9.4750e-01	-4.1485	-0.043833	0.000001	0.006251	0.002118	0.000051
1897	9.4800e-01	-4.0828	-0.043288	0.000001	0.013309	0.004509	0.000109
1898	9.4850e-01	-4.0828	-0.042800	-0.000001	-0.011898	-0.004031	0.000097
1899	9.4900e-01	-4.0154	-0.042387	0.000001	0.010083	0.003416	0.000083
1900	9.4950e-01	-3.9625	-0.042396	-0.000000	-0.000202	-0.000068	-0.000002
1901	9.5000e-01	-3.9191	-0.042701	-0.000001	-0.007461	-0.002528	-0.000061
1902	9.5050e-01	-3.8983	-0.042990	-0.000001	-0.007058	-0.002391	-0.000058
1903	9.5100e-01	-3.8534	-0.042949	0.000000	0.001008	0.000342	0.000008
1904	9.5150e-01	-3.8117	-0.042602	0.000001	0.008470	0.002870	0.000069
1905	9.5200e-01	-3.7812	-0.042123	0.000001	0.011696	0.003963	0.000096
1906	9.5250e-01	-3.7459	-0.041652	0.000001	0.011494	0.003894	0.000094
1907	9.5300e-01	-3.6833	-0.041578	0.000000	0.001815	0.000615	0.000015
1908	9.5350e-01	-3.6641	-0.041619	-0.000000	-0.001008	-0.000342	-0.000008
1909	9.5400e-01	-3.6496	-0.041553	0.000000	0.001613	0.000547	0.000013
1910	9.5450e-01	-3.5919	-0.041049	0.000001	0.012301	0.004168	0.000101
1911	9.5500e-01	-3.5389	-0.040503	0.000001	0.013309	0.004509	0.000109
1912	9.5550e-01	-3.4748	-0.040132	0.000001	0.009074	0.003075	0.000074
1913	9.5600e-01	-3.4138	-0.039958	0.000000	0.004235	0.001435	0.000035
1914	9.5650e-01	-3.4411	-0.039950	-0.000000	-0.000202	-0.000068	0.000002
1915	9.5700e-01	-3.3897	-0.039628	0.000001	0.007865	0.002665	0.000064
1916	9.5750e-01	-3.3272	-0.039338	0.000001	0.007058	0.002391	0.000058
1917	9.5800e-01	-3.3143	-0.039099	0.000001	0.005848	0.001981	0.000048
1918	9.5850e-01	-3.2518	-0.039033	0.000000	0.001613	0.000547	0.000013
1919	9.5900e-01	-3.2406	-0.038925	0.000000	0.002622	0.000888	0.000021
1920	9.5950e-01	-3.1780	-0.038669	0.000001	0.006251	0.002118	0.000051
1921	9.6000e-01	-3.1331	-0.038248	0.000001	0.010284	0.003484	0.000084
1922	9.6050e-01	-3.0801	-0.038116	0.000000	0.003226	0.001093	0.000026
1923	9.6100e-01	-3.0946	-0.038025	-0.000000	-0.002218	-0.000752	0.000018
1924	9.6150e-01	-3.0561	-0.037793	0.000001	0.005646	0.001913	0.000046
1925	9.6200e-01	-2.9502	-0.037397	0.000001	0.009679	0.003279	0.000079
1926	9.6250e-01	-2.9357	-0.037041	0.000001	0.008671	0.002938	0.000071
1927	9.6300e-01	-2.9197	-0.036860	0.000000	0.004436	0.001503	0.000036
1928	9.6350e-01	-2.8347	-0.036653	0.000001	0.005041	0.001708	0.000041
1929	9.6400e-01	-2.8202	-0.036289	0.000001	0.008873	0.003006	0.000073
1930	9.6450e-01	-2.8106	-0.035959	0.000001	0.008066	0.002733	0.000066
1931	9.6500e-01	-2.7224	-0.035761	0.000000	0.004840	0.001640	0.000040
1932	9.6550e-01	-2.6903	-0.035695	0.000000	0.001613	0.000547	0.000013
1933	9.6600e-01	-2.6807	-0.035604	0.000000	0.002218	0.000752	0.000018
1934	9.6650e-01	-2.6358	-0.035215	0.000001	0.009478	0.003211	0.000078
1935	9.6700e-01	-2.5892	-0.035091	0.000000	0.003025	0.001025	0.000025
1936	9.6750e-01	-2.5347	-0.035001	0.000000	0.002218	0.000752	0.000018
1937	9.6800e-01	-2.5090	-0.034703	0.000001	0.007260	0.002460	0.000059
1938	9.6850e-01	-2.4641	-0.034298	0.000001	0.009881	0.003348	0.000081
1939	9.6900e-01	-2.4545	-0.034075	0.000001	0.005445	0.001845	0.000045
1940	9.6950e-01	-2.4015	-0.033926	0.000000	0.003630	0.001230	0.000030
1941	9.7000e-01	-2.3614	-0.033687	0.000001	0.005848	0.001981	0.000048
1942	9.7050e-01	-2.3053	-0.033307	0.000001	0.009276	0.003143	0.000076
1943	9.7100e-01	-2.3069	-0.033133	-0.000000	-0.004235	-0.001435	0.000035
1944	9.7150e-01	-2.2170	-0.032976	0.000000	0.003831	0.001298	0.000031
1945	9.7200e-01	-2.2026	-0.032745	0.000001	0.005646	0.001913	0.000046
1946	9.7250e-01	-2.1609	-0.032398	0.000001	0.008470	0.002870	0.000069
1947	9.7300e-01	-2.0983	-0.032026	0.000001	0.009074	0.003075	0.000074
1948	9.7350e-01	-2.0775	-0.031902	0.000000	0.003025	0.001025	0.000025
1949	9.7400e-01	-2.0165	-0.031762	0.000000	0.003428	0.001161	0.000028
1950	9.7450e-01	-2.0005	-0.031348	0.000001	0.010083	0.003416	0.000083
1951	9.7500e-01	-1.9636	-0.031175	0.000000	0.004235	0.001435	0.000035
1952	9.7550e-01	-1.9235	-0.030911	0.000001	0.006453	0.002186	0.000053
1953	9.7600e-01	-1.8770	-0.030787	0.000000	0.003025	0.001025	0.000025
1954	9.7650e-01	-1.8096	-0.030440	0.000001	0.008470	0.002870	0.000069
1955	9.7700e-01	-1.7823	-0.030126	0.000001	0.007663	0.002596	0.000063
1956	9.7750e-01	-1.7711	-0.029861	0.000001	0.006453	0.002186	0.000053
1957	9.7800e-01	-1.7326	-0.029564	0.000001	0.007260	0.002460	0.000059
1958	9.7850e-01	-1.6732	-0.029332	0.000001	0.005646	0.001913	0.000046
1959	9.7900e-01	-1.6090	-0.029010	0.000001	0.007865	0.002665	0.000064
1960	9.7950e-01	-1.5946	-0.028696	0.000001	0.007663	0.002596	0.000063
1961	9.8000e-01	-1.5481	-0.028407	0.000001	0.007058	0.002391	0.000058
1962	9.8050e-01	-1.4903	-0.028176	0.000001	0.005646	0.001913	0.000046
1963	9.8100e-01	-1.4550	-0.027853	0.000001	0.007865	0.002665	0.000064
1964	9.8150e-01	-1.4069	-0.027597	0.000001	0.006251	0.002118	0.000051
1965	9.8200e-01	-1.3732	-0.027358	0.000001	0.005848	0.001981	0.000048
1966	9.8250e-01	-1.3299	-0.027093	0.000001	0.006453	0.002186	0.000053
1967	9.8300e-01	-1.3203	-0.026697	0.000001	0.009679	0.003279	0.000079
1968	9.8350e-01	-1.2962	-0.026383	0.000001	0.007663	0.002596	0.000063
1969	9.8400e-01	-1.2112	-0.026250	0.000000	0.003226	0.001093	0.000026
1970	9.8450e-01	-1.1518	-0.025945	0.000001	0.007461	0.002528	0.000061
1971	9.8500e-01	-1.1230	-0.025755	0.000000	0.004638	0.001571	0.000038
1972	9.8550e-01	-1.1085	-0.025234	0.000001	0.012704	0.004304	0.000104
1973	9.8600e-01	-1.0620	-0.025085	0.000000	0.003630	0.001230	0.000030
1974	9.8650e-01	-1.0155	-0.025102	-0.000000	-0.000403	-0.000137	-0.000003
1975	9.8700e-01	-0.9914	-0.025061	0.000000	0.001008	0.000342	0.000008
1976	9.8750e-01	-0.9112	-0.025044	0.000000	0.000403	0.000137	0.000003
1977	9.8800e-01	-0.9208	-0.024623	-0.000001	-0.010284	-0.003484	0.000084
1978	9.8850e-01	-0.8679	-0.023763	0.000002	0.020972	0.007106	0.000172
1979	9.8900e-01	-0.8150	-0.023069	0.000002	0.016939	0.005739	0.000139
1980	9.8950e-01	-0.8101	-0.022673	0.000001	0.009679	0.003279	0.000079
1981	9.9000e-01	-0.7620	-0.022334	0.000001	0.008268	0.002801	0.000068
1982	9.9050e-01	-0.7235	-0.022061	0.000001	0.006655	0.002255	0.000055
1983	9.9100e-01	-0.6529	-0.021863	0.000000	0.004840	0.001640	0.000040
1984	9.9150e-01	-0.6321	-0.021640	0.000001	0.005445	0.001845	0.000045
1985	9.9200e-01	-0.5952	-0.021326	0.000001	0.007663	0.002596	0.000063
1986	9.9250e-01	-0.5599	-0.021532	-0.000001	-0.005041	-0.001708	-0.000041
1987	9.9300e-01	-0.5246	-0.021475	0.000000	0.001412	0.000478	0.000012
1988	9.9350e-01	-0.4797	-0.021227	0.000001	0.006050	0.002050	0.000050
1989	9.9400e-01	-0.3962	-0.020739	0.000001	0.011898	0.004031	0.000097
1990	9.9450e-01	-0.3754	-0.020186	0.000001	0.013511	0.004578	0.000111
1991	9.9500e-01	-0.3321	-0.019591	0.000001	0.014519	0.004919	0.000119
1992	9.9550e-01	-0.3176	-0.019285	0.000001	0.007461	0.002528	0.000061
1993	9.9600e-01	-0.2823	-0.019268	0.000000	0.000403	0.000137	0.000003
1994	9.9650e-01	-0.2471	-0.019359	-0.000000	-0.002218	-0.000752	-0.000018
1995	9.9700e-01	-0.1909	-0.019004	0.000001	0.008671	0.002938	0.000071
1996	9.9750e-01	-0.1299	-0.018740	0.000001	0.006453	0.002186	0.000053
1997	9.9800e-01	-0.1219	-0.018153	0.000001	0.014318	0.004851	0.000117
1998	9.9850e-01	-0.0722	-0.017715	0.000001	0.010688	0.003621	0.000088
1999	9.9900e-01	-0.0225	-0.017500	0.000001	0.005243	0.001776	0.000043
2000	9.9950e-01	0.0128	-0.017360	0.000000	0.003428	0.001161	0.000028
2001	1.0000e+00	0.0674	-0.016971	0.000000	0.003428	0.001161	0.000078

Center data before PMax,+/-Pr and +/-Vc Calc.

PMax (uC/cm2):	1.02e-01
Pr (uC/cm2):	2.27e-02
-Pr (uC/cm2):	-1.70e-02
PLoss (uC/cm2):	8.96e-02
Vc:	1.45e+01
-Vc:	-3.20e+00
C (Max-Eff) (nF):	5.11e-04
K (Eff):	1.73e+00
Vert. (+/-Pr) Shift (uC/cm2):	2.88e-03
Horiz. Shift (+/-Vc):	5.64e+00
Offset (uC/cm2):	1.07e-01

A (Loop Area - uC/cm2·Volts):	-2.07e-03



Hysteresis Version: 5.48.1 - Radiant Technologies, Inc., 1999 - 9/12/24

