»»»»»»»»»»»»»»»»»»»»»»»»»»»»»»»»»»»» Hysteresis ««««««««««««««««««««««««««««««««««««
»»»  Executed Version:	5.48.1
»»»  Vision Version:	5.48.4 (R)
»»»  Vision Compiled:	9/18/24
»»»  Driver Version:	5.47.0
»»»  Windows Version:	Windows 8 or 8.1
»»»  Processor Information:	x86 (AMD or Intel) - 32 Processors
»»»  Tester Name:	PMF21124-494 (100V)
»»»  Tester S/N:	PMF21124-494
»»»  Internal Amp Type:	100V RevK 270k
»»»  Internal Amp S/N:	iAB2-596/K     
»»»  Execution Count:	1
»»»»»»»»»»»»»»»»»»»»»»»»»»»»»»»»»»»»»»»»»»««««««««««««««««««««««««««««««««««««««««««

Stored:	6/5/2025 - 17:21:33
Configured:	06/05/25 02:51:50 PM
Executed:	06/05/25 05:20:50 PM

»»»»»»»»»»»»»»»»»»»»»»»»»»»»»»»»»»» Sample Info ««««««««««««««««««««««««««««««««««««
Sample Name:	
Lot Name:	
Wafer Name:	
Die Row/Column:	0/0
Capacitor Number:	0
Sample Area (cm2):	1.00e-04
Sample Thickness (microns):	3.00e-01

Amplifier:	Internal

»»»»»»»»»»»»»»»»»»»»»»»»»»»»»»»»»»» Tester Info «««««««««««««««««««««««««««««««««««
Tester Name:	PMF21124-494 (100V)
Tester Serial Number:	PMF21124-494
Return Signal Amp. Level:	16.67 [Index: 1]

»»»»»»»»»»»»»»»»»»»»»»»»»»»»»»»» Hysteresis Info ««««««««««««««««««««««««««««««««««
Task Name:	Hyst-353
Volts:	20.00
Field:	666.67 (kV/cm)
DCBias:	0.00
DCField:	0.00 (kV/cm)
Hysteresis Period (ms):	1.00e+00
Preset:	Enabled
Preset Delay (ms):	1.00e+03
Profile:	Standard Bipolar

»»»»»»»»»»»»»»»»»»»»»»»»»»»»»»»»»»»»»» Data «««««««««««««««««««««««««««««««««««««««
Points:	2001

Valid Data

Point	Time (ms)	Drive Voltage	Measured Polarization (uC/cm2)	Capacitance (uF)	Normalized Capacitance (uF/cm2)	Dielectric Constant	Instantaneous Current (mA)
   1	0.0000e+00	0.0545	-1.097567	0.000003	0.032246	0.010925	0.000263
   2	5.0000e-04	0.0738	-1.096254	0.000003	0.032246	0.010925	0.000263
   3	1.0000e-03	0.1315	-1.095121	0.000003	0.027798	0.009418	0.000226
   4	1.5000e-03	0.1636	-1.094170	0.000002	0.023350	0.007911	0.000190
   5	2.0000e-03	0.2230	-1.094804	-0.000002	-0.015567	-0.005274	-0.000127
   6	2.5000e-03	0.2487	-1.094714	0.000000	0.002224	0.000753	0.000018
   7	3.0000e-03	0.2663	-1.094532	0.000000	0.004448	0.001507	0.000036
   8	3.5000e-03	0.3385	-1.096163	-0.000004	-0.040029	-0.013562	-0.000326
   9	4.0000e-03	0.3577	-1.096661	-0.000001	-0.012231	-0.004144	-0.000100
  10	4.5000e-03	0.4043	-1.096072	0.000001	0.014455	0.004897	0.000118
  11	5.0000e-03	0.4540	-1.095665	0.000001	0.010007	0.003391	0.000082
  12	5.5000e-03	0.4909	-1.095121	0.000001	0.013343	0.004521	0.000109
  13	6.0000e-03	0.5262	-1.093400	0.000004	0.042253	0.014316	0.000344
  14	6.5000e-03	0.5567	-1.092087	0.000003	0.032246	0.010925	0.000263
  15	7.0000e-03	0.5952	-1.092177	-0.000000	-0.002224	-0.000753	-0.000018
  16	7.5000e-03	0.6385	-1.092359	-0.000000	-0.004448	-0.001507	-0.000036
  17	8.0000e-03	0.6674	-1.091226	0.000003	0.027798	0.009418	0.000226
  18	8.5000e-03	0.7155	-1.089415	0.000004	0.044477	0.015069	0.000362
  19	9.0000e-03	0.7588	-1.088962	0.000001	0.011119	0.003767	0.000091
  20	9.5000e-03	0.8005	-1.088282	0.000002	0.016679	0.005651	0.000136
  21	1.0000e-02	0.8406	-1.088418	-0.000000	-0.003336	-0.001130	-0.000027
  22	1.0500e-02	0.8903	-1.088192	0.000001	0.005560	0.001884	0.000045
  23	1.1000e-02	0.9337	-1.089551	-0.000003	-0.033357	-0.011302	-0.000272
  24	1.1500e-02	0.9513	-1.088599	0.000002	0.023350	0.007911	0.000190
  25	1.2000e-02	1.0155	-1.086969	0.000004	0.040029	0.013562	0.000326
  26	1.2500e-02	1.0524	-1.086199	0.000002	0.018903	0.006404	0.000154
  27	1.3000e-02	1.0700	-1.085656	0.000001	0.013343	0.004521	0.000109
  28	1.3500e-02	1.1390	-1.085203	0.000001	0.011119	0.003767	0.000091
  29	1.4000e-02	1.1374	-1.084659	-0.000001	-0.013343	-0.004521	0.000109
  30	1.4500e-02	1.1871	-1.084116	0.000001	0.013343	0.004521	0.000109
  31	1.5000e-02	1.2481	-1.083663	0.000001	0.011119	0.003767	0.000091
  32	1.5500e-02	1.3107	-1.082983	0.000002	0.016679	0.005651	0.000136
  33	1.6000e-02	1.3203	-1.081851	0.000003	0.027798	0.009418	0.000226
  34	1.6500e-02	1.3572	-1.081217	0.000002	0.015567	0.005274	0.000127
  35	1.7000e-02	1.3909	-1.079994	0.000003	0.030022	0.010172	0.000245
  36	1.7500e-02	1.4550	-1.080175	-0.000000	-0.004448	-0.001507	-0.000036
  37	1.8000e-02	1.5032	-1.078907	0.000003	0.031134	0.010548	0.000254
  38	1.8500e-02	1.5320	-1.078590	0.000001	0.007783	0.002637	0.000063
  39	1.9000e-02	1.5705	-1.076960	0.000004	0.040029	0.013562	0.000326
  40	1.9500e-02	1.5978	-1.076779	0.000000	0.004448	0.001507	0.000036
  41	2.0000e-02	1.6572	-1.076462	0.000001	0.007783	0.002637	0.000063
  42	2.0500e-02	1.6604	-1.075193	0.000003	0.031134	0.010548	0.000254
  43	2.1000e-02	1.7342	-1.074559	0.000002	0.015567	0.005274	0.000127
  44	2.1500e-02	1.7582	-1.074831	-0.000001	-0.006671	-0.002260	-0.000054
  45	2.2000e-02	1.8016	-1.073608	0.000003	0.030022	0.010172	0.000245
  46	2.2500e-02	1.8577	-1.073155	0.000001	0.011119	0.003767	0.000091
  47	2.3000e-02	1.9026	-1.071842	0.000003	0.032246	0.010925	0.000263
  48	2.3500e-02	1.9171	-1.070076	0.000004	0.043365	0.014692	0.000353
  49	2.4000e-02	1.9636	-1.070619	-0.000001	-0.013343	-0.004521	-0.000109
  50	2.4500e-02	1.9957	-1.069532	0.000003	0.026686	0.009041	0.000217
  51	2.5000e-02	2.0486	-1.067721	0.000004	0.044477	0.015069	0.000362
  52	2.5500e-02	2.0903	-1.067404	0.000001	0.007783	0.002637	0.000063
  53	2.6000e-02	2.1031	-1.066634	0.000002	0.018903	0.006404	0.000154
  54	2.6500e-02	2.1641	-1.066181	0.000001	0.011119	0.003767	0.000091
  55	2.7000e-02	2.2106	-1.064867	0.000003	0.032246	0.010925	0.000263
  56	2.7500e-02	2.2235	-1.063826	0.000003	0.025574	0.008665	0.000208
  57	2.8000e-02	2.2892	-1.063056	0.000002	0.018903	0.006404	0.000154
  58	2.8500e-02	2.3101	-1.062557	0.000001	0.012231	0.004144	0.000100
  59	2.9000e-02	2.3743	-1.061153	0.000003	0.034469	0.011679	0.000281
  60	2.9500e-02	2.3871	-1.060202	0.000002	0.023350	0.007911	0.000190
  61	3.0000e-02	2.4400	-1.059206	0.000002	0.024462	0.008288	0.000199
  62	3.0500e-02	2.4737	-1.059115	0.000000	0.002224	0.000753	0.000018
  63	3.1000e-02	2.5315	-1.057394	0.000004	0.042253	0.014316	0.000344
  64	3.1500e-02	2.5684	-1.055900	0.000004	0.036693	0.012432	0.000299
  65	3.2000e-02	2.6005	-1.055039	0.000002	0.021126	0.007158	0.000172
  66	3.2500e-02	2.6759	-1.054768	0.000001	0.006671	0.002260	0.000054
  67	3.3000e-02	2.6839	-1.053228	0.000004	0.037805	0.012809	0.000308
  68	3.3500e-02	2.7095	-1.052005	0.000003	0.030022	0.010172	0.000245
  69	3.4000e-02	2.7609	-1.050646	0.000003	0.033357	0.011302	0.000272
  70	3.4500e-02	2.8090	-1.050284	0.000001	0.008895	0.003014	0.000072
  71	3.5000e-02	2.8475	-1.047612	0.000007	0.065603	0.022227	0.000534
  72	3.5500e-02	2.8908	-1.045030	0.000006	0.063379	0.021473	0.000516
  73	3.6000e-02	2.9165	-1.045483	-0.000001	-0.011119	-0.003767	-0.000091
  74	3.6500e-02	2.9694	-1.044305	0.000003	0.028910	0.009795	0.000236
  75	3.7000e-02	2.9983	-1.043309	0.000002	0.024462	0.008288	0.000199
  76	3.7500e-02	3.0464	-1.042449	0.000002	0.021126	0.007158	0.000172
  77	3.8000e-02	3.1170	-1.042901	-0.000001	-0.011119	-0.003767	-0.000091
  78	3.8500e-02	3.1234	-1.041769	0.000003	0.027798	0.009418	0.000226
  79	3.9000e-02	3.1780	-1.041271	0.000001	0.012231	0.004144	0.000100
  80	3.9500e-02	3.2037	-1.039278	0.000005	0.048924	0.016576	0.000399
  81	4.0000e-02	3.2373	-1.036787	0.000006	0.061155	0.020720	0.000498
  82	4.0500e-02	3.2887	-1.034523	0.000006	0.055596	0.018836	0.000453
  83	4.1000e-02	3.3561	-1.033889	0.000002	0.015567	0.005274	0.000127
  84	4.1500e-02	3.3930	-1.032439	0.000004	0.035581	0.012055	0.000290
  85	4.2000e-02	3.4010	-1.031081	0.000003	0.033357	0.011302	0.000272
  86	4.2500e-02	3.4315	-1.029994	0.000003	0.026686	0.009041	0.000217
  87	4.3000e-02	3.4716	-1.028182	0.000004	0.044477	0.015069	0.000362
  88	4.3500e-02	3.5229	-1.025601	0.000006	0.063379	0.021473	0.000516
  89	4.4000e-02	3.5694	-1.024332	0.000003	0.031134	0.010548	0.000254
  90	4.4500e-02	3.6240	-1.024151	0.000000	0.004448	0.001507	0.000036
  91	4.5000e-02	3.6432	-1.024514	-0.000001	-0.008895	-0.003014	-0.000072
  92	4.5500e-02	3.6753	-1.023653	0.000002	0.021126	0.007158	0.000172
  93	4.6000e-02	3.7330	-1.021932	0.000004	0.042253	0.014316	0.000344
  94	4.6500e-02	3.7780	-1.019124	0.000007	0.068939	0.023357	0.000562
  95	4.7000e-02	3.7924	-1.016814	0.000006	0.056708	0.019213	0.000462
  96	4.7500e-02	3.8245	-1.015727	0.000003	0.026686	0.009041	0.000217
  97	4.8000e-02	3.8838	-1.015184	0.000001	0.013343	0.004521	0.000109
  98	4.8500e-02	3.9288	-1.014640	0.000001	0.013343	0.004521	0.000109
  99	4.9000e-02	3.9496	-1.011651	0.000007	0.073386	0.024864	0.000598
 100	4.9500e-02	4.0090	-1.009341	0.000006	0.056708	0.019213	0.000462
 101	5.0000e-02	4.0202	-1.008979	0.000001	0.008895	0.003014	0.000072
 102	5.0500e-02	4.0667	-1.008028	0.000002	0.023350	0.007911	0.000190
 103	5.1000e-02	4.1373	-1.006624	0.000003	0.034469	0.011679	0.000281
 104	5.1500e-02	4.1614	-1.004812	0.000004	0.044477	0.015069	0.000362
 105	5.2000e-02	4.2031	-1.002593	0.000005	0.054484	0.018460	0.000444
 106	5.2500e-02	4.2624	-1.001325	0.000003	0.031134	0.010548	0.000254
 107	5.3000e-02	4.2801	-1.000872	0.000001	0.011119	0.003767	0.000091
 108	5.3500e-02	4.3218	-0.998879	0.000005	0.048924	0.016576	0.000399
 109	5.4000e-02	4.3731	-0.996569	0.000006	0.056708	0.019213	0.000462
 110	5.4500e-02	4.3796	-0.995165	0.000003	0.034469	0.011679	0.000281
 111	5.5000e-02	4.4293	-0.994078	0.000003	0.026686	0.009041	0.000217
 112	5.5500e-02	4.4630	-0.993173	0.000002	0.022238	0.007535	0.000181
 113	5.6000e-02	4.5271	-0.990818	0.000006	0.057820	0.019590	0.000471
 114	5.6500e-02	4.5640	-0.988508	0.000006	0.056708	0.019213	0.000462
 115	5.7000e-02	4.5993	-0.986923	0.000004	0.038917	0.013185	0.000317
 116	5.7500e-02	4.6491	-0.985700	0.000003	0.030022	0.010172	0.000245
 117	5.8000e-02	4.7004	-0.983526	0.000005	0.053372	0.018083	0.000435
 118	5.8500e-02	4.7277	-0.981805	0.000004	0.042253	0.014316	0.000344
 119	5.9000e-02	4.7549	-0.979903	0.000005	0.046700	0.015823	0.000380
 120	5.9500e-02	4.8319	-0.979314	0.000001	0.014455	0.004897	0.000118
 121	6.0000e-02	4.8111	-0.976823	-0.000006	-0.061155	-0.020720	0.000498
 122	6.0500e-02	4.8785	-0.975011	0.000004	0.044477	0.015069	0.000362
 123	6.1000e-02	4.9106	-0.973290	0.000004	0.042253	0.014316	0.000344
 124	6.1500e-02	4.9715	-0.972158	0.000003	0.027798	0.009418	0.000226
 125	6.2000e-02	5.0100	-0.969984	0.000005	0.053372	0.018083	0.000435
 126	6.2500e-02	5.0565	-0.968535	0.000004	0.035581	0.012055	0.000290
 127	6.3000e-02	5.0966	-0.966723	0.000004	0.044477	0.015069	0.000362
 128	6.3500e-02	5.1127	-0.964459	0.000006	0.055596	0.018836	0.000453
 129	6.4000e-02	5.1384	-0.962602	0.000005	0.045588	0.015446	0.000371
 130	6.4500e-02	5.2041	-0.960564	0.000005	0.050036	0.016953	0.000408
 131	6.5000e-02	5.2426	-0.959024	0.000004	0.037805	0.012809	0.000308
 132	6.5500e-02	5.3036	-0.956940	0.000005	0.051148	0.017329	0.000417
 133	6.6000e-02	5.3196	-0.955038	0.000005	0.046700	0.015823	0.000380
 134	6.6500e-02	5.3613	-0.952909	0.000005	0.052260	0.017706	0.000426
 135	6.7000e-02	5.4031	-0.950871	0.000005	0.050036	0.016953	0.000408
 136	6.7500e-02	5.4239	-0.949196	0.000004	0.041141	0.013939	0.000335
 137	6.8000e-02	5.4977	-0.947792	0.000003	0.034469	0.011679	0.000281
 138	6.8500e-02	5.5009	-0.945255	0.000006	0.062267	0.021097	0.000507
 139	6.9000e-02	5.5587	-0.943172	0.000005	0.051148	0.017329	0.000417
 140	6.9500e-02	5.6421	-0.941179	0.000005	0.048924	0.016576	0.000399
 141	7.0000e-02	5.6389	-0.938643	-0.000006	-0.062267	-0.021097	0.000507
 142	7.0500e-02	5.7030	-0.935699	0.000007	0.072274	0.024487	0.000589
 143	7.1000e-02	5.7255	-0.933480	0.000005	0.054484	0.018460	0.000444
 144	7.1500e-02	5.7752	-0.932257	0.000003	0.030022	0.010172	0.000245
 145	7.2000e-02	5.8282	-0.930536	0.000004	0.042253	0.014316	0.000344
 146	7.2500e-02	5.8282	-0.928453	-0.000005	-0.051148	-0.017329	0.000417
 147	7.3000e-02	5.9132	-0.928000	0.000001	0.011119	0.003767	0.000091
 148	7.3500e-02	5.9292	-0.926279	0.000004	0.042253	0.014316	0.000344
 149	7.4000e-02	5.9677	-0.922656	0.000009	0.088953	0.030138	0.000725
 150	7.4500e-02	6.0287	-0.919485	0.000008	0.077834	0.026371	0.000634
 151	7.5000e-02	6.0351	-0.917492	0.000005	0.048924	0.016576	0.000399
 152	7.5500e-02	6.0897	-0.916270	0.000003	0.030022	0.010172	0.000245
 153	7.6000e-02	6.1153	-0.913688	0.000006	0.063379	0.021473	0.000516
 154	7.6500e-02	6.1651	-0.910971	0.000007	0.066715	0.022604	0.000543
 155	7.7000e-02	6.2276	-0.909838	0.000003	0.027798	0.009418	0.000226
 156	7.7500e-02	6.2581	-0.906215	0.000009	0.088953	0.030138	0.000725
 157	7.8000e-02	6.2950	-0.903769	0.000006	0.060043	0.020343	0.000489
 158	7.8500e-02	6.3191	-0.901052	0.000007	0.066715	0.022604	0.000543
 159	7.9000e-02	6.3736	-0.899693	0.000003	0.033357	0.011302	0.000272
 160	7.9500e-02	6.3945	-0.899512	0.000000	0.004448	0.001507	0.000036
 161	8.0000e-02	6.4458	-0.897701	0.000004	0.044477	0.015069	0.000362
 162	8.0500e-02	6.4843	-0.893896	0.000009	0.093401	0.031645	0.000761
 163	8.1000e-02	6.4987	-0.891269	0.000006	0.064491	0.021850	0.000525
 164	8.1500e-02	6.5806	-0.887782	0.000009	0.085617	0.029008	0.000697
 165	8.2000e-02	6.6078	-0.885880	0.000005	0.046700	0.015823	0.000380
 166	8.2500e-02	6.6560	-0.885834	0.000000	0.001112	0.000377	0.000009
 167	8.3000e-02	6.6913	-0.882891	0.000007	0.072274	0.024487	0.000589
 168	8.3500e-02	6.7025	-0.879267	0.000009	0.088953	0.030138	0.000725
 169	8.4000e-02	6.7602	-0.875961	0.000008	0.081170	0.027501	0.000661
 170	8.4500e-02	6.8068	-0.873515	0.000006	0.060043	0.020343	0.000489
 171	8.5000e-02	6.8549	-0.872746	0.000002	0.018903	0.006404	0.000154
 172	8.5500e-02	6.8677	-0.870345	0.000006	0.058931	0.019967	0.000480
 173	8.6000e-02	6.9335	-0.866767	0.000009	0.087841	0.029761	0.000716
 174	8.6500e-02	6.9560	-0.863733	0.000007	0.074498	0.025241	0.000607
 175	8.7000e-02	7.0025	-0.861876	0.000005	0.045588	0.015446	0.000371
 176	8.7500e-02	7.0378	-0.860381	0.000004	0.036693	0.012432	0.000299
 177	8.8000e-02	7.0907	-0.857528	0.000007	0.070051	0.023734	0.000571
 178	8.8500e-02	7.1420	-0.853814	0.000009	0.091177	0.030892	0.000743
 179	8.9000e-02	7.1677	-0.851459	0.000006	0.057820	0.019590	0.000471
 180	8.9500e-02	7.2239	-0.849919	0.000004	0.037805	0.012809	0.000308
 181	9.0000e-02	7.2463	-0.847745	0.000005	0.053372	0.018083	0.000435
 182	9.0500e-02	7.2864	-0.844439	0.000008	0.081170	0.027501	0.000661
 183	9.1000e-02	7.3265	-0.841269	0.000008	0.077834	0.026371	0.000634
 184	9.1500e-02	7.3859	-0.838732	0.000006	0.062267	0.021097	0.000507
 185	9.2000e-02	7.3987	-0.836966	0.000004	0.043365	0.014692	0.000353
 186	9.2500e-02	7.4212	-0.832754	0.000010	0.103408	0.035036	0.000842
 187	9.3000e-02	7.4789	-0.830490	0.000006	0.055596	0.018836	0.000453
 188	9.3500e-02	7.5014	-0.828089	0.000006	0.058931	0.019967	0.000480
 189	9.4000e-02	7.5511	-0.825417	0.000007	0.065603	0.022227	0.000534
 190	9.4500e-02	7.6025	-0.822518	0.000007	0.071163	0.024111	0.000580
 191	9.5000e-02	7.6345	-0.819439	0.000008	0.075610	0.025617	0.000616
 192	9.5500e-02	7.6843	-0.816812	0.000006	0.064491	0.021850	0.000525
 193	9.6000e-02	7.7260	-0.814774	0.000005	0.050036	0.016953	0.000408
 194	9.6500e-02	7.7709	-0.812283	0.000006	0.061155	0.020720	0.000498
 195	9.7000e-02	7.8158	-0.808433	0.000009	0.094513	0.032022	0.000770
 196	9.7500e-02	7.8447	-0.805670	0.000007	0.067827	0.022980	0.000553
 197	9.8000e-02	7.9008	-0.803406	0.000006	0.055596	0.018836	0.000453
 198	9.8500e-02	7.9201	-0.800689	0.000007	0.066715	0.022604	0.000543
 199	9.9000e-02	7.9650	-0.797337	0.000008	0.082282	0.027878	0.000670
 200	9.9500e-02	8.0260	-0.794167	0.000008	0.077834	0.026371	0.000634
 201	1.0000e-01	8.0661	-0.791630	0.000006	0.062267	0.021097	0.000507
 202	1.0050e-01	8.0420	-0.789185	-0.000006	-0.060043	-0.020343	0.000489
 203	1.0100e-01	8.1511	-0.785516	0.000009	0.090065	0.030515	0.000734
 204	1.0150e-01	8.1543	-0.782074	0.000008	0.084506	0.028631	0.000688
 205	1.0200e-01	8.2105	-0.779855	0.000005	0.054484	0.018460	0.000444
 206	1.0250e-01	8.2458	-0.777273	0.000006	0.063379	0.021473	0.000516
 207	1.0300e-01	8.2730	-0.774239	0.000007	0.074498	0.025241	0.000607
 208	1.0350e-01	8.3147	-0.771069	0.000008	0.077834	0.026371	0.000634
 209	1.0400e-01	8.3741	-0.768351	0.000007	0.066715	0.022604	0.000543
 210	1.0450e-01	8.4238	-0.764592	0.000009	0.092289	0.031268	0.000752
 211	1.0500e-01	8.4270	-0.760108	0.000011	0.110080	0.037296	0.000897
 212	1.0550e-01	8.4944	-0.758659	0.000004	0.035581	0.012055	0.000290
 213	1.0600e-01	8.5217	-0.755126	0.000009	0.086729	0.029385	0.000707
 214	1.0650e-01	8.5682	-0.751730	0.000008	0.083394	0.028255	0.000679
 215	1.0700e-01	8.6099	-0.748333	0.000008	0.083394	0.028255	0.000679
 216	1.0750e-01	8.6372	-0.745932	0.000006	0.058931	0.019967	0.000480
 217	1.0800e-01	8.6853	-0.742762	0.000008	0.077834	0.026371	0.000634
 218	1.0850e-01	8.7142	-0.739003	0.000009	0.092289	0.031268	0.000752
 219	1.0900e-01	8.7575	-0.735833	0.000008	0.077834	0.026371	0.000634
 220	1.0950e-01	8.8008	-0.732436	0.000008	0.083394	0.028255	0.000679
 221	1.1000e-01	8.8618	-0.729220	0.000008	0.078946	0.026748	0.000643
 222	1.1050e-01	8.8810	-0.725914	0.000008	0.081170	0.027501	0.000661
 223	1.1100e-01	8.9163	-0.722789	0.000008	0.076722	0.025994	0.000625
 224	1.1150e-01	8.9725	-0.720253	0.000006	0.062267	0.021097	0.000507
 225	1.1200e-01	8.9933	-0.716584	0.000009	0.090065	0.030515	0.000734
 226	1.1250e-01	9.0543	-0.713188	0.000008	0.083394	0.028255	0.000679
 227	1.1300e-01	9.0944	-0.708840	0.000011	0.106744	0.036166	0.000870
 228	1.1350e-01	9.1393	-0.706666	0.000005	0.053372	0.018083	0.000435
 229	1.1400e-01	9.1890	-0.703994	0.000007	0.065603	0.022227	0.000534
 230	1.1450e-01	9.1762	-0.700234	-0.000009	-0.092289	-0.031268	0.000752
 231	1.1500e-01	9.2388	-0.696838	0.000008	0.083394	0.028255	0.000679
 232	1.1550e-01	9.2997	-0.692807	0.000010	0.098960	0.033529	0.000806
 233	1.1600e-01	9.3302	-0.689048	0.000009	0.092289	0.031268	0.000752
 234	1.1650e-01	9.3559	-0.686013	0.000007	0.074498	0.025241	0.000607
 235	1.1700e-01	9.4072	-0.683386	0.000006	0.064491	0.021850	0.000525
 236	1.1750e-01	9.4586	-0.678722	0.000011	0.114527	0.038803	0.000933
 237	1.1800e-01	9.4858	-0.674691	0.000010	0.098960	0.033529	0.000806
 238	1.1850e-01	9.5227	-0.671158	0.000009	0.086729	0.029385	0.000707
 239	1.1900e-01	9.5340	-0.668305	0.000007	0.070051	0.023734	0.000571
 240	1.1950e-01	9.6254	-0.665361	0.000007	0.072274	0.024487	0.000589
 241	1.2000e-01	9.6543	-0.661783	0.000009	0.087841	0.029761	0.000716
 242	1.2050e-01	9.6896	-0.657843	0.000010	0.096737	0.032775	0.000788
 243	1.2100e-01	9.7184	-0.653902	0.000010	0.096737	0.032775	0.000788
 244	1.2150e-01	9.7457	-0.650506	0.000008	0.083394	0.028255	0.000679
 245	1.2200e-01	9.8259	-0.647788	0.000007	0.066715	0.022604	0.000543
 246	1.2250e-01	9.8356	-0.643395	0.000011	0.107856	0.036543	0.000879
 247	1.2300e-01	9.8885	-0.639274	0.000010	0.101184	0.034282	0.000824
 248	1.2350e-01	9.9077	-0.635877	0.000008	0.083394	0.028255	0.000679
 249	1.2400e-01	9.9591	-0.632797	0.000008	0.075610	0.025617	0.000616
 250	1.2450e-01	10.0136	-0.628540	0.000010	0.104520	0.035412	0.000851
 251	1.2500e-01	10.0601	-0.623965	0.000011	0.112303	0.038049	0.000915
 252	1.2550e-01	10.0970	-0.621067	0.000007	0.071163	0.024111	0.000580
 253	1.2600e-01	10.1051	-0.617217	0.000009	0.094513	0.032022	0.000770
 254	1.2650e-01	10.1548	-0.613730	0.000009	0.085617	0.029008	0.000697
 255	1.2700e-01	10.2222	-0.609337	0.000011	0.107856	0.036543	0.000879
 256	1.2750e-01	10.2510	-0.604989	0.000011	0.106744	0.036166	0.000870
 257	1.2800e-01	10.3072	-0.601683	0.000008	0.081170	0.027501	0.000661
 258	1.2850e-01	10.3457	-0.598059	0.000009	0.088953	0.030138	0.000725
 259	1.2900e-01	10.3826	-0.593938	0.000010	0.101184	0.034282	0.000824
 260	1.2950e-01	10.4131	-0.589681	0.000010	0.104520	0.035412	0.000851
 261	1.3000e-01	10.4500	-0.585242	0.000011	0.108968	0.036919	0.000888
 262	1.3050e-01	10.5157	-0.582162	0.000008	0.075610	0.025617	0.000616
 263	1.3100e-01	10.5318	-0.577860	0.000011	0.105632	0.035789	0.000861
 264	1.3150e-01	10.5462	-0.573784	0.000010	0.100072	0.033905	0.000815
 265	1.3200e-01	10.6088	-0.569662	0.000010	0.101184	0.034282	0.000824
 266	1.3250e-01	10.6569	-0.566039	0.000009	0.088953	0.030138	0.000725
 267	1.3300e-01	10.6954	-0.562008	0.000010	0.098960	0.033529	0.000806
 268	1.3350e-01	10.7227	-0.557887	0.000010	0.101184	0.034282	0.000824
 269	1.3400e-01	10.7644	-0.553086	0.000012	0.117863	0.039933	0.000960
 270	1.3450e-01	10.8141	-0.549191	0.000010	0.095625	0.032399	0.000779
 271	1.3500e-01	10.8334	-0.544979	0.000010	0.103408	0.035036	0.000842
 272	1.3550e-01	10.8976	-0.540722	0.000010	0.104520	0.035412	0.000851
 273	1.3600e-01	10.9328	-0.536329	0.000011	0.107856	0.036543	0.000879
 274	1.3650e-01	10.9778	-0.532343	0.000010	0.097848	0.033152	0.000797
 275	1.3700e-01	10.9986	-0.528720	0.000009	0.088953	0.030138	0.000725
 276	1.3750e-01	11.0403	-0.523919	0.000012	0.117863	0.039933	0.000960
 277	1.3800e-01	11.0869	-0.519526	0.000011	0.107856	0.036543	0.000879
 278	1.3850e-01	11.1446	-0.515903	0.000009	0.088953	0.030138	0.000725
 279	1.3900e-01	11.1558	-0.510423	0.000013	0.134542	0.045584	0.001096
 280	1.3950e-01	11.2377	-0.506935	0.000009	0.085617	0.029008	0.000697
 281	1.4000e-01	11.2521	-0.501591	0.000013	0.131206	0.044454	0.001069
 282	1.4050e-01	11.2762	-0.497469	0.000010	0.101184	0.034282	0.000824
 283	1.4100e-01	11.3243	-0.492940	0.000011	0.111191	0.037673	0.000906
 284	1.4150e-01	11.3548	-0.489906	0.000007	0.074498	0.025241	0.000607
 285	1.4200e-01	11.3949	-0.485920	0.000010	0.097848	0.033152	0.000797
 286	1.4250e-01	11.4398	-0.479987	0.000015	0.145661	0.049351	0.001187
 287	1.4300e-01	11.4943	-0.475413	0.000011	0.112303	0.038049	0.000915
 288	1.4350e-01	11.5184	-0.470975	0.000011	0.108968	0.036919	0.000888
 289	1.4400e-01	11.5585	-0.467034	0.000010	0.096737	0.032775	0.000788
 290	1.4450e-01	11.5810	-0.462551	0.000011	0.110080	0.037296	0.000897
 291	1.4500e-01	11.6227	-0.457252	0.000013	0.130094	0.044077	0.001060
 292	1.4550e-01	11.6900	-0.453266	0.000010	0.097848	0.033152	0.000797
 293	1.4600e-01	11.7318	-0.448511	0.000012	0.116751	0.039556	0.000951
 294	1.4650e-01	11.7719	-0.443710	0.000012	0.117863	0.039933	0.000960
 295	1.4700e-01	11.8104	-0.438637	0.000012	0.124534	0.042193	0.001015
 296	1.4750e-01	11.8505	-0.433927	0.000012	0.115639	0.039180	0.000942
 297	1.4800e-01	11.9162	-0.430440	0.000009	0.085617	0.029008	0.000697
 298	1.4850e-01	11.9114	-0.425412	-0.000012	-0.123423	-0.041817	0.001005
 299	1.4900e-01	11.9756	-0.420657	0.000012	0.116751	0.039556	0.000951
 300	1.4950e-01	12.0061	-0.415856	0.000012	0.117863	0.039933	0.000960
 301	1.5000e-01	12.0510	-0.410557	0.000013	0.130094	0.044077	0.001060
 302	1.5050e-01	12.0783	-0.405756	0.000012	0.117863	0.039933	0.000960
 303	1.5100e-01	12.1264	-0.401680	0.000010	0.100072	0.033905	0.000815
 304	1.5150e-01	12.1553	-0.396427	0.000013	0.128982	0.043700	0.001051
 305	1.5200e-01	12.2066	-0.391716	0.000012	0.115639	0.039180	0.000942
 306	1.5250e-01	12.2355	-0.385149	0.000016	0.161228	0.054625	0.001313
 307	1.5300e-01	12.2676	-0.381300	0.000009	0.094513	0.032022	0.000770
 308	1.5350e-01	12.3237	-0.377088	0.000010	0.103408	0.035036	0.000842
 309	1.5400e-01	12.3654	-0.372377	0.000012	0.115639	0.039180	0.000942
 310	1.5450e-01	12.4023	-0.367441	0.000012	0.121199	0.041063	0.000987
 311	1.5500e-01	12.4505	-0.361598	0.000014	0.143437	0.048598	0.001168
 312	1.5550e-01	12.4922	-0.356888	0.000012	0.115639	0.039180	0.000942
 313	1.5600e-01	12.5419	-0.352857	0.000010	0.098960	0.033529	0.000806
 314	1.5650e-01	12.5531	-0.347649	0.000013	0.127870	0.043324	0.001042
 315	1.5700e-01	12.6269	-0.341988	0.000014	0.138989	0.047091	0.001132
 316	1.5750e-01	12.6606	-0.337323	0.000011	0.114527	0.038803	0.000933
 317	1.5800e-01	12.6847	-0.332613	0.000012	0.115639	0.039180	0.000942
 318	1.5850e-01	12.7071	-0.327223	0.000013	0.132318	0.044830	0.001078
 319	1.5900e-01	12.7601	-0.322105	0.000013	0.125646	0.042570	0.001024
 320	1.5950e-01	12.8034	-0.316716	0.000013	0.132318	0.044830	0.001078
 321	1.6000e-01	12.8499	-0.311643	0.000012	0.124534	0.042193	0.001015
 322	1.6050e-01	12.8692	-0.307069	0.000011	0.112303	0.038049	0.000915
 323	1.6100e-01	12.8996	-0.301181	0.000014	0.144549	0.048974	0.001178
 324	1.6150e-01	12.9221	-0.295339	0.000014	0.143437	0.048598	0.001168
 325	1.6200e-01	13.0296	-0.289813	0.000014	0.135654	0.045961	0.001105
 326	1.6250e-01	13.0312	-0.284922	0.000012	0.120087	0.040687	0.000978
 327	1.6300e-01	13.1002	-0.280212	0.000012	0.115639	0.039180	0.000942
 328	1.6350e-01	13.1018	-0.274233	0.000015	0.146773	0.049728	0.001196
 329	1.6400e-01	13.1772	-0.269115	0.000013	0.125646	0.042570	0.001024
 330	1.6450e-01	13.2044	-0.264405	0.000012	0.115639	0.039180	0.000942
 331	1.6500e-01	13.2830	-0.259242	0.000013	0.126758	0.042947	0.001033
 332	1.6550e-01	13.2991	-0.253128	0.000015	0.150108	0.050858	0.001223
 333	1.6600e-01	13.3536	-0.247693	0.000013	0.133430	0.045207	0.001087
 334	1.6650e-01	13.3745	-0.242802	0.000012	0.120087	0.040687	0.000978
 335	1.6700e-01	13.3905	-0.236823	0.000015	0.146773	0.049728	0.001196
 336	1.6750e-01	13.4499	-0.231207	0.000014	0.137877	0.046714	0.001123
 337	1.6800e-01	13.4884	-0.225184	0.000015	0.147885	0.050105	0.001205
 338	1.6850e-01	13.5141	-0.220066	0.000013	0.125646	0.042570	0.001024
 339	1.6900e-01	13.5526	-0.214405	0.000014	0.138989	0.047091	0.001132
 340	1.6950e-01	13.6087	-0.208789	0.000014	0.137877	0.046714	0.001123
 341	1.7000e-01	13.6312	-0.203218	0.000014	0.136765	0.046337	0.001114
 342	1.7050e-01	13.6809	-0.197828	0.000013	0.132318	0.044830	0.001078
 343	1.7100e-01	13.7354	-0.191759	0.000015	0.148997	0.050481	0.001214
 344	1.7150e-01	13.7643	-0.186008	0.000014	0.141213	0.047844	0.001150
 345	1.7200e-01	13.7836	-0.179893	0.000015	0.150108	0.050858	0.001223
 346	1.7250e-01	13.8558	-0.174323	0.000014	0.136765	0.046337	0.001114
 347	1.7300e-01	13.8782	-0.167937	0.000016	0.156780	0.053118	0.001277
 348	1.7350e-01	13.9135	-0.161958	0.000015	0.146773	0.049728	0.001196
 349	1.7400e-01	13.9905	-0.156207	0.000014	0.141213	0.047844	0.001150
 350	1.7450e-01	14.0066	-0.150500	0.000014	0.140101	0.047468	0.001141
 351	1.7500e-01	14.0531	-0.144567	0.000015	0.145661	0.049351	0.001187
 352	1.7550e-01	14.0932	-0.138498	0.000015	0.148997	0.050481	0.001214
 353	1.7600e-01	14.1333	-0.134377	0.000010	0.101184	0.034282	0.000824
 354	1.7650e-01	14.1397	-0.126632	0.000019	0.190137	0.064420	0.001549
 355	1.7700e-01	14.2055	-0.120291	0.000016	0.155668	0.052742	0.001268
 356	1.7750e-01	14.2648	-0.114947	0.000013	0.131206	0.044454	0.001069
 357	1.7800e-01	14.2905	-0.109195	0.000014	0.141213	0.047844	0.001150
 358	1.7850e-01	14.3033	-0.102673	0.000016	0.160116	0.054249	0.001304
 359	1.7900e-01	14.3547	-0.096514	0.000015	0.151220	0.051235	0.001232
 360	1.7950e-01	14.4140	-0.090445	0.000015	0.148997	0.050481	0.001214
 361	1.8000e-01	14.4301	-0.085055	0.000013	0.132318	0.044830	0.001078
 362	1.8050e-01	14.4991	-0.078307	0.000017	0.165675	0.056132	0.001350
 363	1.8100e-01	14.5087	-0.071332	0.000017	0.171235	0.058016	0.001395
 364	1.8150e-01	14.5648	-0.065943	0.000013	0.132318	0.044830	0.001078
 365	1.8200e-01	14.5680	-0.060191	0.000014	0.141213	0.047844	0.001150
 366	1.8250e-01	14.6611	-0.053624	0.000016	0.161228	0.054625	0.001313
 367	1.8300e-01	14.6980	-0.047011	0.000016	0.162340	0.055002	0.001322
 368	1.8350e-01	14.7429	-0.040671	0.000016	0.155668	0.052742	0.001268
 369	1.8400e-01	14.7670	-0.033922	0.000017	0.165675	0.056132	0.001350
 370	1.8450e-01	14.8183	-0.027446	0.000016	0.159004	0.053872	0.001295
 371	1.8500e-01	14.8295	-0.021739	0.000014	0.140101	0.047468	0.001141
 372	1.8550e-01	14.9033	-0.015127	0.000016	0.162340	0.055002	0.001322
 373	1.8600e-01	14.9226	-0.008741	0.000016	0.156780	0.053118	0.001277
 374	1.8650e-01	14.9595	-0.001178	0.000019	0.185690	0.062913	0.001513
 375	1.8700e-01	14.9787	0.004937	0.000015	0.150108	0.050858	0.001223
 376	1.8750e-01	15.0621	0.010870	0.000015	0.145661	0.049351	0.001187
 377	1.8800e-01	15.0750	0.017799	0.000017	0.170123	0.057639	0.001386
 378	1.8850e-01	15.1071	0.024502	0.000016	0.164563	0.055756	0.001341
 379	1.8900e-01	15.1825	0.030843	0.000016	0.155668	0.052742	0.001268
 380	1.8950e-01	15.2097	0.037772	0.000017	0.170123	0.057639	0.001386
 381	1.9000e-01	15.2466	0.044022	0.000015	0.153444	0.051988	0.001250
 382	1.9050e-01	15.2787	0.051223	0.000018	0.176794	0.059900	0.001440
 383	1.9100e-01	15.3156	0.058832	0.000019	0.186802	0.063290	0.001522
 384	1.9150e-01	15.3605	0.066079	0.000018	0.177906	0.060276	0.001449
 385	1.9200e-01	15.4199	0.072102	0.000015	0.147885	0.050105	0.001205
 386	1.9250e-01	15.4552	0.079032	0.000017	0.170123	0.057639	0.001386
 387	1.9300e-01	15.4696	0.086686	0.000019	0.187914	0.063667	0.001531
 388	1.9350e-01	15.4969	0.093615	0.000017	0.170123	0.057639	0.001386
 389	1.9400e-01	15.5546	0.100771	0.000018	0.175683	0.059523	0.001431
 390	1.9450e-01	15.6156	0.107066	0.000015	0.154556	0.052365	0.001259
 391	1.9500e-01	15.6493	0.114539	0.000018	0.183466	0.062160	0.001495
 392	1.9550e-01	15.6830	0.122646	0.000020	0.199033	0.067434	0.001621
 393	1.9600e-01	15.7247	0.129304	0.000016	0.163451	0.055379	0.001332
 394	1.9650e-01	15.7648	0.135962	0.000016	0.163451	0.055379	0.001332
 395	1.9700e-01	15.8434	0.143797	0.000019	0.192361	0.065174	0.001567
 396	1.9750e-01	15.8771	0.151723	0.000019	0.194585	0.065927	0.001585
 397	1.9800e-01	15.8947	0.159015	0.000018	0.179018	0.060653	0.001458
 398	1.9850e-01	15.9252	0.165355	0.000016	0.155668	0.052742	0.001268
 399	1.9900e-01	15.9637	0.172511	0.000018	0.175683	0.059523	0.001431
 400	1.9950e-01	15.9958	0.181297	0.000022	0.215711	0.073085	0.001757
 401	2.0000e-01	16.0343	0.188453	0.000018	0.175683	0.059523	0.001431
 402	2.0050e-01	16.0808	0.195790	0.000018	0.180130	0.061030	0.001467
 403	2.0100e-01	16.1049	0.202991	0.000018	0.176794	0.059900	0.001440
 404	2.0150e-01	16.1835	0.211234	0.000020	0.202368	0.068564	0.001649
 405	2.0200e-01	16.1835	0.218707	-0.000018	-0.183466	-0.062160	0.001495
 406	2.0250e-01	16.2445	0.226316	0.000019	0.186802	0.063290	0.001522
 407	2.0300e-01	16.3070	0.233200	0.000017	0.169011	0.057262	0.001377
 408	2.0350e-01	16.3086	0.241398	0.000020	0.201257	0.068188	0.001640
 409	2.0400e-01	16.3568	0.249459	0.000020	0.197921	0.067057	0.001612
 410	2.0450e-01	16.3937	0.257249	0.000019	0.191249	0.064797	0.001558
 411	2.0500e-01	16.4466	0.265175	0.000019	0.194585	0.065927	0.001585
 412	2.0550e-01	16.4642	0.272920	0.000019	0.190137	0.064420	0.001549
 413	2.0600e-01	16.5396	0.281434	0.000021	0.209040	0.070825	0.001703
 414	2.0650e-01	16.5637	0.288862	0.000018	0.182354	0.061783	0.001486
 415	2.0700e-01	16.6022	0.297014	0.000020	0.200145	0.067811	0.001630
 416	2.0750e-01	16.6407	0.305801	0.000022	0.215711	0.073085	0.001757
 417	2.0800e-01	16.6744	0.313047	0.000018	0.177906	0.060276	0.001449
 418	2.0850e-01	16.7161	0.321607	0.000021	0.210152	0.071201	0.001712
 419	2.0900e-01	16.7594	0.329487	0.000019	0.193473	0.065550	0.001576
 420	2.0950e-01	16.8156	0.337277	0.000019	0.191249	0.064797	0.001558
 421	2.1000e-01	16.8268	0.344796	0.000018	0.184578	0.062537	0.001504
 422	2.1050e-01	16.8781	0.352812	0.000020	0.196809	0.066681	0.001603
 423	2.1100e-01	16.9359	0.361825	0.000022	0.221271	0.074969	0.001803
 424	2.1150e-01	16.9664	0.369569	0.000019	0.190137	0.064420	0.001549
 425	2.1200e-01	17.0049	0.377767	0.000020	0.201257	0.068188	0.001640
 426	2.1250e-01	17.0434	0.386553	0.000022	0.215711	0.073085	0.001757
 427	2.1300e-01	17.0722	0.394706	0.000020	0.200145	0.067811	0.001630
 428	2.1350e-01	17.1204	0.403220	0.000021	0.209040	0.070825	0.001703
 429	2.1400e-01	17.1573	0.412188	0.000022	0.220159	0.074592	0.001793
 430	2.1450e-01	17.1990	0.420476	0.000020	0.203480	0.068941	0.001658
 431	2.1500e-01	17.2375	0.429126	0.000021	0.212376	0.071955	0.001730
 432	2.1550e-01	17.2952	0.437460	0.000020	0.204592	0.069318	0.001667
 433	2.1600e-01	17.3402	0.446110	0.000021	0.212376	0.071955	0.001730
 434	2.1650e-01	17.3578	0.454489	0.000021	0.205704	0.069694	0.001676
 435	2.1700e-01	17.3963	0.463864	0.000023	0.230166	0.077982	0.001875
 436	2.1750e-01	17.4396	0.472379	0.000021	0.209040	0.070825	0.001703
 437	2.1800e-01	17.4990	0.481437	0.000022	0.222383	0.075345	0.001812
 438	2.1850e-01	17.5214	0.490812	0.000023	0.230166	0.077982	0.001875
 439	2.1900e-01	17.5680	0.499191	0.000021	0.205704	0.069694	0.001676
 440	2.1950e-01	17.6177	0.507297	0.000020	0.199033	0.067434	0.001621
 441	2.2000e-01	17.6434	0.516854	0.000023	0.234614	0.079489	0.001911
 442	2.2050e-01	17.6851	0.525459	0.000021	0.211264	0.071578	0.001721
 443	2.2100e-01	17.7107	0.534472	0.000022	0.221271	0.074969	0.001803
 444	2.2150e-01	17.7540	0.542805	0.000020	0.204592	0.069318	0.001667
 445	2.2200e-01	17.7958	0.551863	0.000022	0.222383	0.075345	0.001812
 446	2.2250e-01	17.8407	0.561102	0.000023	0.226831	0.076852	0.001848
 447	2.2300e-01	17.8776	0.571247	0.000025	0.249069	0.084387	0.002029
 448	2.2350e-01	17.9385	0.580034	0.000022	0.215711	0.073085	0.001757
 449	2.2400e-01	17.9594	0.589228	0.000023	0.225719	0.076476	0.001839
 450	2.2450e-01	18.0107	0.598558	0.000023	0.229054	0.077606	0.001866
 451	2.2500e-01	18.0492	0.608069	0.000023	0.233502	0.079113	0.001902
 452	2.2550e-01	18.0941	0.617670	0.000024	0.235726	0.079866	0.001920
 453	2.2600e-01	18.1214	0.626321	0.000021	0.212376	0.071955	0.001730
 454	2.2650e-01	18.1679	0.636058	0.000024	0.239062	0.080996	0.001947
 455	2.2700e-01	18.1727	0.646067	0.000025	0.245733	0.083257	0.002002
 456	2.2750e-01	18.2113	0.656031	0.000024	0.244621	0.082880	0.001993
 457	2.2800e-01	18.2802	0.665950	0.000024	0.243509	0.082503	0.001984
 458	2.2850e-01	18.3396	0.675234	0.000023	0.227942	0.077229	0.001857
 459	2.2900e-01	18.3781	0.685877	0.000026	0.261300	0.088531	0.002129
 460	2.2950e-01	18.3989	0.697155	0.000028	0.276867	0.093805	0.002255
 461	2.3000e-01	18.4439	0.706530	0.000023	0.230166	0.077982	0.001875
 462	2.3050e-01	18.5145	0.716494	0.000024	0.244621	0.082880	0.001993
 463	2.3100e-01	18.5241	0.726095	0.000024	0.235726	0.079866	0.001920
 464	2.3150e-01	18.5546	0.736648	0.000026	0.259076	0.087777	0.002111
 465	2.3200e-01	18.5995	0.746476	0.000024	0.241285	0.081750	0.001966
 466	2.3250e-01	18.6412	0.755579	0.000022	0.223495	0.075722	0.001821
 467	2.3300e-01	18.6829	0.765453	0.000024	0.242397	0.082126	0.001975
 468	2.3350e-01	18.7134	0.776096	0.000026	0.261300	0.088531	0.002129
 469	2.3400e-01	18.7695	0.786105	0.000025	0.245733	0.083257	0.002002
 470	2.3450e-01	18.8016	0.796024	0.000024	0.243509	0.082503	0.001984
 471	2.3500e-01	18.8578	0.806033	0.000025	0.245733	0.083257	0.002002
 472	2.3550e-01	18.8979	0.816676	0.000026	0.261300	0.088531	0.002129
 473	2.3600e-01	18.9059	0.827138	0.000026	0.256852	0.087024	0.002092
 474	2.3650e-01	18.9492	0.837374	0.000025	0.251293	0.085140	0.002047
 475	2.3700e-01	18.9813	0.847519	0.000025	0.249069	0.084387	0.002029
 476	2.3750e-01	19.0406	0.858071	0.000026	0.259076	0.087777	0.002111
 477	2.3800e-01	19.0936	0.869575	0.000028	0.282426	0.095689	0.002301
 478	2.3850e-01	19.1209	0.880037	0.000026	0.256852	0.087024	0.002092
 479	2.3900e-01	19.1834	0.890681	0.000026	0.261300	0.088531	0.002129
 480	2.3950e-01	19.2123	0.901550	0.000027	0.266860	0.090414	0.002174
 481	2.4000e-01	19.2396	0.911876	0.000025	0.253517	0.085894	0.002065
 482	2.4050e-01	19.3053	0.923244	0.000028	0.279091	0.094558	0.002274
 483	2.4100e-01	19.3358	0.933299	0.000025	0.246845	0.083633	0.002011
 484	2.4150e-01	19.3823	0.944712	0.000028	0.280202	0.094935	0.002283
 485	2.4200e-01	19.4128	0.956125	0.000028	0.280202	0.094935	0.002283
 486	2.4250e-01	19.4289	0.966723	0.000026	0.260188	0.088154	0.002120
 487	2.4300e-01	19.4930	0.978408	0.000029	0.286874	0.097196	0.002337
 488	2.4350e-01	19.5107	0.989187	0.000026	0.264636	0.089661	0.002156
 489	2.4400e-01	19.5748	0.999921	0.000026	0.263524	0.089284	0.002147
 490	2.4450e-01	19.6246	1.011606	0.000029	0.286874	0.097196	0.002337
 491	2.4500e-01	19.6294	1.023427	0.000029	0.290210	0.098326	0.002364
 492	2.4550e-01	19.6759	1.034523	0.000027	0.272419	0.092298	0.002219
 493	2.4600e-01	19.7465	1.045574	0.000027	0.271307	0.091921	0.002210
 494	2.4650e-01	19.7625	1.057485	0.000029	0.292434	0.099079	0.002382
 495	2.4700e-01	19.8203	1.069442	0.000029	0.293545	0.099456	0.002391
 496	2.4750e-01	19.8315	1.080492	0.000027	0.271307	0.091921	0.002210
 497	2.4800e-01	19.8829	1.092449	0.000029	0.293545	0.099456	0.002391
 498	2.4850e-01	19.9182	1.103998	0.000028	0.283538	0.096065	0.002310
 499	2.4900e-01	19.9903	1.115955	0.000029	0.293545	0.099456	0.002391
 500	2.4950e-01	19.9919	1.127277	0.000028	0.277979	0.094182	0.002265
 501	2.5000e-01	20.0160	1.139778	0.000031	0.306888	0.103977	0.002500
 502	2.5050e-01	19.9791	1.150557	-0.000026	-0.264636	-0.089661	0.002156
 503	2.5100e-01	19.9230	1.162015	-0.000028	-0.281314	-0.095312	0.002292
 504	2.5150e-01	19.9101	1.173021	-0.000027	-0.270195	-0.091545	0.002201
 505	2.5200e-01	19.8331	1.184615	-0.000028	-0.284650	-0.096442	0.002319
 506	2.5250e-01	19.8347	1.195485	0.000027	0.266860	0.090414	0.002174
 507	2.5300e-01	19.7545	1.206445	-0.000027	-0.269083	-0.091168	0.002192
 508	2.5350e-01	19.7273	1.217224	-0.000026	-0.264636	-0.089661	0.002156
 509	2.5400e-01	19.6984	1.228501	-0.000028	-0.276867	-0.093805	0.002255
 510	2.5450e-01	19.6775	1.239779	-0.000028	-0.276867	-0.093805	0.002255
 511	2.5500e-01	19.6374	1.250150	-0.000025	-0.254628	-0.086270	0.002074
 512	2.5550e-01	19.5797	1.261518	-0.000028	-0.279091	-0.094558	0.002274
 513	2.5600e-01	19.5171	1.272614	-0.000027	-0.272419	-0.092298	0.002219
 514	2.5650e-01	19.5011	1.283575	-0.000027	-0.269083	-0.091168	0.002192
 515	2.5700e-01	19.4658	1.294444	-0.000027	-0.266860	-0.090414	0.002174
 516	2.5750e-01	19.3968	1.305631	-0.000027	-0.274643	-0.093052	0.002237
 517	2.5800e-01	19.4048	1.316365	0.000026	0.263524	0.089284	0.002147
 518	2.5850e-01	19.3454	1.327416	-0.000027	-0.271307	-0.091921	0.002210
 519	2.5900e-01	19.2973	1.337198	-0.000024	-0.240174	-0.081373	0.001957
 520	2.5950e-01	19.2684	1.349110	-0.000029	-0.292434	-0.099079	0.002382
 521	2.6000e-01	19.2251	1.359753	-0.000026	-0.261300	-0.088531	0.002129
 522	2.6050e-01	19.2027	1.369807	-0.000025	-0.246845	-0.083633	0.002011
 523	2.6100e-01	19.1241	1.380632	-0.000027	-0.265748	-0.090038	0.002165
 524	2.6150e-01	19.1144	1.390732	-0.000025	-0.247957	-0.084010	0.002020
 525	2.6200e-01	19.1000	1.401194	-0.000026	-0.256852	-0.087024	0.002092
 526	2.6250e-01	19.0198	1.411475	-0.000025	-0.252405	-0.085517	0.002056
 527	2.6300e-01	19.0021	1.421529	-0.000025	-0.246845	-0.083633	0.002011
 528	2.6350e-01	18.9412	1.432172	-0.000026	-0.261300	-0.088531	0.002129
 529	2.6400e-01	18.9283	1.442181	-0.000025	-0.245733	-0.083257	0.002002
 530	2.6450e-01	18.8658	1.453278	-0.000027	-0.272419	-0.092298	0.002219
 531	2.6500e-01	18.8177	1.463423	-0.000025	-0.249069	-0.084387	0.002029
 532	2.6550e-01	18.7808	1.474247	-0.000027	-0.265748	-0.090038	0.002165
 533	2.6600e-01	18.7439	1.483758	-0.000023	-0.233502	-0.079113	0.001902
 534	2.6650e-01	18.6957	1.494175	-0.000026	-0.255740	-0.086647	0.002083
 535	2.6700e-01	18.6669	1.504093	-0.000024	-0.243509	-0.082503	0.001984
 536	2.6750e-01	18.6123	1.514012	-0.000024	-0.243509	-0.082503	0.001984
 537	2.6800e-01	18.5674	1.524293	-0.000025	-0.252405	-0.085517	0.002056
 538	2.6850e-01	18.5241	1.534528	-0.000025	-0.251293	-0.085140	0.002047
 539	2.6900e-01	18.5016	1.544311	-0.000024	-0.240174	-0.081373	0.001957
 540	2.6950e-01	18.4583	1.553550	-0.000023	-0.226831	-0.076852	0.001848
 541	2.7000e-01	18.4054	1.563514	-0.000024	-0.244621	-0.082880	0.001993
 542	2.7050e-01	18.3733	1.573297	-0.000024	-0.240174	-0.081373	0.001957
 543	2.7100e-01	18.3348	1.583306	-0.000025	-0.245733	-0.083257	0.002002
 544	2.7150e-01	18.2931	1.592817	-0.000023	-0.233502	-0.079113	0.001902
 545	2.7200e-01	18.2530	1.602283	-0.000023	-0.232390	-0.078736	0.001893
 546	2.7250e-01	18.1952	1.611432	-0.000022	-0.224607	-0.076099	0.001830
 547	2.7300e-01	18.1920	1.621441	-0.000025	-0.245733	-0.083257	0.002002
 548	2.7350e-01	18.1326	1.630635	-0.000023	-0.225719	-0.076476	0.001839
 549	2.7400e-01	18.1038	1.640780	-0.000025	-0.249069	-0.084387	0.002029
 550	2.7450e-01	18.0476	1.649974	-0.000023	-0.225719	-0.076476	0.001839
 551	2.7500e-01	18.0220	1.658851	-0.000022	-0.217935	-0.073838	0.001775
 552	2.7550e-01	17.9626	1.667229	-0.000021	-0.205704	-0.069694	0.001676
 553	2.7600e-01	17.9241	1.678190	-0.000027	-0.269083	-0.091168	0.002192
 554	2.7650e-01	17.9161	1.687383	-0.000023	-0.225719	-0.076476	0.001839
 555	2.7700e-01	17.8503	1.696759	-0.000023	-0.230166	-0.077982	0.001875
 556	2.7750e-01	17.7925	1.705636	-0.000022	-0.217935	-0.073838	0.001775
 557	2.7800e-01	17.7861	1.714739	-0.000022	-0.223495	-0.075722	0.001821
 558	2.7850e-01	17.7444	1.724884	-0.000025	-0.249069	-0.084387	0.002029
 559	2.7900e-01	17.7284	1.733036	-0.000020	-0.200145	-0.067811	0.001630
 560	2.7950e-01	17.6738	1.741505	-0.000021	-0.207928	-0.070448	0.001694
 561	2.8000e-01	17.6225	1.750971	-0.000023	-0.232390	-0.078736	0.001893
 562	2.8050e-01	17.5744	1.759939	-0.000022	-0.220159	-0.074592	0.001793
 563	2.8100e-01	17.5696	1.768725	-0.000022	-0.215711	-0.073085	0.001757
 564	2.8150e-01	17.4893	1.777602	-0.000022	-0.217935	-0.073838	0.001775
 565	2.8200e-01	17.4508	1.786162	-0.000021	-0.210152	-0.071201	0.001712
 566	2.8250e-01	17.4204	1.795220	-0.000022	-0.222383	-0.075345	0.001812
 567	2.8300e-01	17.3835	1.803825	-0.000021	-0.211264	-0.071578	0.001721
 568	2.8350e-01	17.3305	1.812023	-0.000020	-0.201257	-0.068188	0.001640
 569	2.8400e-01	17.2792	1.821579	-0.000023	-0.234614	-0.079489	0.001911
 570	2.8450e-01	17.2455	1.831316	-0.000024	-0.239062	-0.080996	0.001947
 571	2.8500e-01	17.2279	1.839333	-0.000020	-0.196809	-0.066681	0.001603
 572	2.8550e-01	17.1958	1.847077	-0.000019	-0.190137	-0.064420	0.001549
 573	2.8600e-01	17.1444	1.855728	-0.000021	-0.212376	-0.071955	0.001730
 574	2.8650e-01	17.0947	1.864016	-0.000020	-0.203480	-0.068941	0.001658
 575	2.8700e-01	17.0402	1.872349	-0.000020	-0.204592	-0.069318	0.001667
 576	2.8750e-01	17.0257	1.881498	-0.000022	-0.224607	-0.076099	0.001830
 577	2.8800e-01	16.9920	1.890601	-0.000022	-0.223495	-0.075722	0.001821
 578	2.8850e-01	16.9359	1.898074	-0.000018	-0.183466	-0.062160	0.001495
 579	2.8900e-01	16.8862	1.906317	-0.000020	-0.202368	-0.068564	0.001649
 580	2.8950e-01	16.8621	1.914379	-0.000020	-0.197921	-0.067057	0.001612
 581	2.9000e-01	16.8172	1.923120	-0.000021	-0.214600	-0.072708	0.001748
 582	2.9050e-01	16.7514	1.931000	-0.000019	-0.193473	-0.065550	0.001576
 583	2.9100e-01	16.7289	1.938745	-0.000019	-0.190137	-0.064420	0.001549
 584	2.9150e-01	16.7001	1.946580	-0.000019	-0.192361	-0.065174	0.001567
 585	2.9200e-01	16.6744	1.954823	-0.000020	-0.202368	-0.068564	0.001649
 586	2.9250e-01	16.6215	1.963836	-0.000022	-0.221271	-0.074969	0.001803
 587	2.9300e-01	16.5926	1.971309	-0.000018	-0.183466	-0.062160	0.001495
 588	2.9350e-01	16.5589	1.979099	-0.000019	-0.191249	-0.064797	0.001558
 589	2.9400e-01	16.5011	1.986843	-0.000019	-0.190137	-0.064420	0.001549
 590	2.9450e-01	16.4498	1.995222	-0.000021	-0.205704	-0.069694	0.001676
 591	2.9500e-01	16.4498	2.003057	-0.000019	-0.192361	-0.065174	0.001567
 592	2.9550e-01	16.3776	2.010893	-0.000019	-0.192361	-0.065174	0.001567
 593	2.9600e-01	16.3391	2.018728	-0.000019	-0.192361	-0.065174	0.001567
 594	2.9650e-01	16.2589	2.025929	-0.000018	-0.176794	-0.059900	0.001440
 595	2.9700e-01	16.2605	2.033900	0.000020	0.195697	0.066304	0.001594
 596	2.9750e-01	16.2011	2.041192	-0.000018	-0.179018	-0.060653	0.001458
 597	2.9800e-01	16.1979	2.048801	-0.000019	-0.186802	-0.063290	0.001522
 598	2.9850e-01	16.1370	2.056183	-0.000018	-0.181242	-0.061406	0.001476
 599	2.9900e-01	16.0760	2.064018	-0.000019	-0.192361	-0.065174	0.001567
 600	2.9950e-01	16.0375	2.071536	-0.000018	-0.184578	-0.062537	0.001504
 601	3.0000e-01	16.0231	2.078375	-0.000017	-0.167899	-0.056886	0.001368
 602	3.0050e-01	15.9637	2.085486	-0.000017	-0.174571	-0.059146	0.001422
 603	3.0100e-01	15.9364	2.093910	-0.000021	-0.206816	-0.070071	0.001685
 604	3.0150e-01	15.8963	2.100885	-0.000017	-0.171235	-0.058016	0.001395
 605	3.0200e-01	15.8338	2.108539	-0.000019	-0.187914	-0.063667	0.001531
 606	3.0250e-01	15.8113	2.115559	-0.000017	-0.172347	-0.058393	0.001404
 607	3.0300e-01	15.7712	2.123122	-0.000019	-0.185690	-0.062913	0.001513
 608	3.0350e-01	15.7135	2.130142	-0.000017	-0.172347	-0.058393	0.001404
 609	3.0400e-01	15.6974	2.137479	-0.000018	-0.180130	-0.061030	0.001467
 610	3.0450e-01	15.6573	2.144182	-0.000016	-0.164563	-0.055756	0.001341
 611	3.0500e-01	15.6236	2.152108	-0.000019	-0.194585	-0.065927	0.001585
 612	3.0550e-01	15.5611	2.158313	-0.000015	-0.152332	-0.051612	0.001241
 613	3.0600e-01	15.5354	2.165831	-0.000018	-0.184578	-0.062537	0.001504
 614	3.0650e-01	15.4937	2.172262	-0.000016	-0.157892	-0.053495	0.001286
 615	3.0700e-01	15.4407	2.179463	-0.000018	-0.176794	-0.059900	0.001440
 616	3.0750e-01	15.4022	2.186574	-0.000017	-0.174571	-0.059146	0.001422
 617	3.0800e-01	15.3477	2.192824	-0.000015	-0.153444	-0.051988	0.001250
 618	3.0850e-01	15.3397	2.200025	-0.000018	-0.176794	-0.059900	0.001440
 619	3.0900e-01	15.2771	2.207136	-0.000017	-0.174571	-0.059146	0.001422
 620	3.0950e-01	15.2530	2.213884	-0.000017	-0.165675	-0.056132	0.001350
 621	3.1000e-01	15.2049	2.220678	-0.000017	-0.166787	-0.056509	0.001359
 622	3.1050e-01	15.1696	2.228558	-0.000019	-0.193473	-0.065550	0.001576
 623	3.1100e-01	15.1343	2.235850	-0.000018	-0.179018	-0.060653	0.001458
 624	3.1150e-01	15.0894	2.242643	-0.000017	-0.166787	-0.056509	0.001359
 625	3.1200e-01	15.0686	2.248758	-0.000015	-0.150108	-0.050858	0.001223
 626	3.1250e-01	15.0140	2.257227	-0.000021	-0.207928	-0.070448	0.001694
 627	3.1300e-01	14.9691	2.263432	-0.000015	-0.152332	-0.051612	0.001241
 628	3.1350e-01	14.9370	2.268957	-0.000014	-0.135654	-0.045961	0.001105
 629	3.1400e-01	14.8937	2.275253	-0.000015	-0.154556	-0.052365	0.001259
 630	3.1450e-01	14.8584	2.282318	-0.000017	-0.173459	-0.058769	0.001413
 631	3.1500e-01	14.8023	2.288885	-0.000016	-0.161228	-0.054625	0.001313
 632	3.1550e-01	14.7926	2.294637	-0.000014	-0.141213	-0.047844	0.001150
 633	3.1600e-01	14.7525	2.301521	-0.000017	-0.169011	-0.057262	0.001377
 634	3.1650e-01	14.6900	2.308133	-0.000016	-0.162340	-0.055002	0.001322
 635	3.1700e-01	14.6835	2.314429	-0.000015	-0.154556	-0.052365	0.001259
 636	3.1750e-01	14.5969	2.320226	-0.000014	-0.142325	-0.048221	0.001159
 637	3.1800e-01	14.5777	2.326838	-0.000016	-0.162340	-0.055002	0.001322
 638	3.1850e-01	14.5327	2.334175	-0.000018	-0.180130	-0.061030	0.001467
 639	3.1900e-01	14.4814	2.341920	-0.000019	-0.190137	-0.064420	0.001549
 640	3.1950e-01	14.4846	2.347083	0.000013	0.126758	0.042947	0.001033
 641	3.2000e-01	14.4156	2.353107	-0.000015	-0.147885	-0.050105	0.001205
 642	3.2050e-01	14.3739	2.358270	-0.000013	-0.126758	-0.042947	0.001033
 643	3.2100e-01	14.3258	2.363569	-0.000013	-0.130094	-0.044077	0.001060
 644	3.2150e-01	14.2761	2.371313	-0.000019	-0.190137	-0.064420	0.001549
 645	3.2200e-01	14.2424	2.378515	-0.000018	-0.176794	-0.059900	0.001440
 646	3.2250e-01	14.2247	2.383497	-0.000012	-0.122311	-0.041440	0.000996
 647	3.2300e-01	14.1558	2.388252	-0.000012	-0.116751	-0.039556	0.000951
 648	3.2350e-01	14.1205	2.393596	-0.000013	-0.131206	-0.044454	0.001069
 649	3.2400e-01	14.0980	2.401024	-0.000018	-0.182354	-0.061783	0.001486
 650	3.2450e-01	14.0804	2.407999	-0.000017	-0.171235	-0.058016	0.001395
 651	3.2500e-01	14.0114	2.413026	-0.000012	-0.123423	-0.041817	0.001005
 652	3.2550e-01	13.9777	2.417917	-0.000012	-0.120087	-0.040687	0.000978
 653	3.2600e-01	13.9328	2.424394	-0.000016	-0.159004	-0.053872	0.001295
 654	3.2650e-01	13.8622	2.431278	-0.000017	-0.169011	-0.057262	0.001377
 655	3.2700e-01	13.8477	2.437619	-0.000016	-0.155668	-0.052742	0.001268
 656	3.2750e-01	13.8076	2.442329	-0.000012	-0.115639	-0.039180	0.000942
 657	3.2800e-01	13.7820	2.447628	-0.000013	-0.130094	-0.044077	0.001060
 658	3.2850e-01	13.7082	2.453651	-0.000015	-0.147885	-0.050105	0.001205
 659	3.2900e-01	13.7130	2.460400	0.000017	0.165675	0.056132	0.001350
 660	3.2950e-01	13.6681	2.465653	-0.000013	-0.128982	-0.043700	0.001051
 661	3.3000e-01	13.6039	2.470273	-0.000011	-0.113415	-0.038426	0.000924
 662	3.3050e-01	13.5654	2.475798	-0.000014	-0.135654	-0.045961	0.001105
 663	3.3100e-01	13.5125	2.482637	-0.000017	-0.167899	-0.056886	0.001368
 664	3.3150e-01	13.5028	2.488480	-0.000014	-0.143437	-0.048598	0.001168
 665	3.3200e-01	13.4563	2.493054	-0.000011	-0.112303	-0.038049	0.000915
 666	3.3250e-01	13.4130	2.498715	-0.000014	-0.138989	-0.047091	0.001132
 667	3.3300e-01	13.4066	2.505237	-0.000016	-0.160116	-0.054249	0.001304
 668	3.3350e-01	13.3520	2.510944	-0.000014	-0.140101	-0.047468	0.001141
 669	3.3400e-01	13.3135	2.514703	-0.000009	-0.092289	-0.031268	0.000752
 670	3.3450e-01	13.2654	2.519911	-0.000013	-0.127870	-0.043324	0.001042
 671	3.3500e-01	13.1900	2.526659	-0.000017	-0.165675	-0.056132	0.001350
 672	3.3550e-01	13.1691	2.532049	-0.000013	-0.132318	-0.044830	0.001078
 673	3.3600e-01	13.1114	2.536578	-0.000011	-0.111191	-0.037673	0.000906
 674	3.3650e-01	13.0937	2.541651	-0.000012	-0.124534	-0.042193	0.001015
 675	3.3700e-01	13.0601	2.547538	-0.000014	-0.144549	-0.048974	0.001178
 676	3.3750e-01	13.0360	2.553200	-0.000014	-0.138989	-0.047091	0.001132
 677	3.3800e-01	12.9606	2.558046	-0.000012	-0.118975	-0.040310	0.000969
 678	3.3850e-01	12.9494	2.562303	-0.000010	-0.104520	-0.035412	0.000851
 679	3.3900e-01	12.9446	2.567964	-0.000014	-0.138989	-0.047091	0.001132
 680	3.3950e-01	12.8258	2.573671	-0.000014	-0.140101	-0.047468	0.001141
 681	3.4000e-01	12.8307	2.578879	0.000013	0.127870	0.043324	0.001042
 682	3.4050e-01	12.8018	2.583861	-0.000012	-0.122311	-0.041440	0.000996
 683	3.4100e-01	12.7328	2.588662	-0.000012	-0.117863	-0.039933	0.000960
 684	3.4150e-01	12.7135	2.593644	-0.000012	-0.122311	-0.041440	0.000996
 685	3.4200e-01	12.6670	2.598898	-0.000013	-0.128982	-0.043700	0.001051
 686	3.4250e-01	12.6301	2.603608	-0.000012	-0.115639	-0.039180	0.000942
 687	3.4300e-01	12.5868	2.608182	-0.000011	-0.112303	-0.038049	0.000915
 688	3.4350e-01	12.5435	2.612666	-0.000011	-0.110080	-0.037296	0.000897
 689	3.4400e-01	12.5018	2.617512	-0.000012	-0.118975	-0.040310	0.000969
 690	3.4450e-01	12.4649	2.623173	-0.000014	-0.138989	-0.047091	0.001132
 691	3.4500e-01	12.4360	2.628880	-0.000014	-0.140101	-0.047468	0.001141
 692	3.4550e-01	12.3767	2.633635	-0.000012	-0.116751	-0.039556	0.000951
 693	3.4600e-01	12.3494	2.638663	-0.000012	-0.123423	-0.041817	0.001005
 694	3.4650e-01	12.2916	2.644731	-0.000015	-0.148997	-0.050481	0.001214
 695	3.4700e-01	12.2451	2.650030	-0.000013	-0.130094	-0.044077	0.001060
 696	3.4750e-01	12.2307	2.653155	-0.000008	-0.076722	-0.025994	0.000625
 697	3.4800e-01	12.1938	2.657050	-0.000010	-0.095625	-0.032399	0.000779
 698	3.4850e-01	12.1456	2.661942	-0.000012	-0.120087	-0.040687	0.000978
 699	3.4900e-01	12.0927	2.666426	-0.000011	-0.110080	-0.037296	0.000897
 700	3.4950e-01	12.0686	2.670955	-0.000011	-0.111191	-0.037673	0.000906
 701	3.5000e-01	12.0141	2.675076	-0.000010	-0.101184	-0.034282	0.000824
 702	3.5050e-01	11.9692	2.679922	-0.000012	-0.118975	-0.040310	0.000969
 703	3.5100e-01	11.9419	2.684315	-0.000011	-0.107856	-0.036543	0.000879
 704	3.5150e-01	11.8970	2.687984	-0.000009	-0.090065	-0.030515	0.000734
 705	3.5200e-01	11.8649	2.691652	-0.000009	-0.090065	-0.030515	0.000734
 706	3.5250e-01	11.8232	2.697132	-0.000013	-0.134542	-0.045584	0.001096
 707	3.5300e-01	11.7670	2.703564	-0.000016	-0.157892	-0.053495	0.001286
 708	3.5350e-01	11.7205	2.707957	-0.000011	-0.107856	-0.036543	0.000879
 709	3.5400e-01	11.6965	2.711761	-0.000009	-0.093401	-0.031645	0.000761
 710	3.5450e-01	11.6451	2.714796	-0.000007	-0.074498	-0.025241	0.000607
 711	3.5500e-01	11.6243	2.718102	-0.000008	-0.081170	-0.027501	0.000661
 712	3.5550e-01	11.6002	2.723718	-0.000014	-0.137877	-0.046714	0.001123
 713	3.5600e-01	11.5360	2.729243	-0.000014	-0.135654	-0.045961	0.001105
 714	3.5650e-01	11.5056	2.733953	-0.000012	-0.115639	-0.039180	0.000942
 715	3.5700e-01	11.4414	2.736897	-0.000007	-0.072274	-0.024487	0.000589
 716	3.5750e-01	11.3852	2.739207	-0.000006	-0.056708	-0.019213	0.000462
 717	3.5800e-01	11.3997	2.744733	0.000014	0.135654	0.045961	0.001105
 718	3.5850e-01	11.3435	2.750122	-0.000013	-0.132318	-0.044830	0.001078
 719	3.5900e-01	11.3179	2.754153	-0.000010	-0.098960	-0.033529	0.000806
 720	3.5950e-01	11.2216	2.756735	-0.000006	-0.063379	-0.021473	0.000516
 721	3.6000e-01	11.2104	2.761173	-0.000011	-0.108968	-0.036919	0.000888
 722	3.6050e-01	11.1879	2.765611	-0.000011	-0.108968	-0.036919	0.000888
 723	3.6100e-01	11.1462	2.771137	-0.000014	-0.135654	-0.045961	0.001105
 724	3.6150e-01	11.1013	2.774715	-0.000009	-0.087841	-0.029761	0.000716
 725	3.6200e-01	11.0660	2.777025	-0.000006	-0.056708	-0.019213	0.000462
 726	3.6250e-01	11.0018	2.781599	-0.000011	-0.112303	-0.038049	0.000915
 727	3.6300e-01	10.9713	2.786354	-0.000012	-0.116751	-0.039556	0.000951
 728	3.6350e-01	10.9441	2.790883	-0.000011	-0.111191	-0.037673	0.000906
 729	3.6400e-01	10.9120	2.793737	-0.000007	-0.070051	-0.023734	0.000571
 730	3.6450e-01	10.8783	2.797179	-0.000008	-0.084506	-0.028631	0.000688
 731	3.6500e-01	10.8189	2.801436	-0.000010	-0.104520	-0.035412	0.000851
 732	3.6550e-01	10.7628	2.805829	-0.000011	-0.107856	-0.036543	0.000879
 733	3.6600e-01	10.7163	2.809317	-0.000009	-0.085617	-0.029008	0.000697
 734	3.6650e-01	10.7050	2.812487	-0.000008	-0.077834	-0.026371	0.000634
 735	3.6700e-01	10.7050	2.816563	-0.000010	-0.100072	-0.033905	0.000815
 736	3.6750e-01	10.6120	2.821454	-0.000012	-0.120087	-0.040687	0.000978
 737	3.6800e-01	10.5623	2.824353	-0.000007	-0.071163	-0.024111	0.000580
 738	3.6850e-01	10.5174	2.826980	-0.000006	-0.064491	-0.021850	0.000525
 739	3.6900e-01	10.4869	2.830784	-0.000009	-0.093401	-0.031645	0.000761
 740	3.6950e-01	10.4403	2.835902	-0.000013	-0.125646	-0.042570	0.001024
 741	3.7000e-01	10.4195	2.839072	-0.000008	-0.077834	-0.026371	0.000634
 742	3.7050e-01	10.3874	2.842333	-0.000008	-0.080058	-0.027124	0.000652
 743	3.7100e-01	10.3104	2.846274	-0.000010	-0.096737	-0.032775	0.000788
 744	3.7150e-01	10.3040	2.849897	-0.000009	-0.088953	-0.030138	0.000725
 745	3.7200e-01	10.2623	2.853656	-0.000009	-0.092289	-0.031268	0.000752
 746	3.7250e-01	10.1869	2.856509	-0.000007	-0.070051	-0.023734	0.000571
 747	3.7300e-01	10.1724	2.859680	-0.000008	-0.077834	-0.026371	0.000634
 748	3.7350e-01	10.1339	2.864073	-0.000011	-0.107856	-0.036543	0.000879
 749	3.7400e-01	10.1051	2.867424	-0.000008	-0.082282	-0.027878	0.000670
 750	3.7450e-01	10.0537	2.870504	-0.000008	-0.075610	-0.025617	0.000616
 751	3.7500e-01	10.0168	2.873086	-0.000006	-0.063379	-0.021473	0.000516
 752	3.7550e-01	9.9847	2.877071	-0.000010	-0.097848	-0.033152	0.000797
 753	3.7600e-01	9.9366	2.880966	-0.000010	-0.095625	-0.032399	0.000779
 754	3.7650e-01	9.8997	2.883366	-0.000006	-0.058931	-0.019967	0.000480
 755	3.7700e-01	9.8468	2.886174	-0.000007	-0.068939	-0.023357	0.000562
 756	3.7750e-01	9.8099	2.888801	-0.000006	-0.064491	-0.021850	0.000525
 757	3.7800e-01	9.7585	2.893059	-0.000010	-0.104520	-0.035412	0.000851
 758	3.7850e-01	9.7441	2.895459	-0.000006	-0.058931	-0.019967	0.000480
 759	3.7900e-01	9.7088	2.900033	-0.000011	-0.112303	-0.038049	0.000915
 760	3.7950e-01	9.6607	2.903113	-0.000008	-0.075610	-0.025617	0.000616
 761	3.8000e-01	9.6029	2.906555	-0.000008	-0.084506	-0.028631	0.000688
 762	3.8050e-01	9.5821	2.911129	-0.000011	-0.112303	-0.038049	0.000915
 763	3.8100e-01	9.4842	2.914209	-0.000008	-0.075610	-0.025617	0.000616
 764	3.8150e-01	9.4955	2.917742	0.000009	0.086729	0.029385	0.000707
 765	3.8200e-01	9.4586	2.918738	-0.000002	-0.024462	-0.008288	0.000199
 766	3.8250e-01	9.4265	2.921048	-0.000006	-0.056708	-0.019213	0.000462
 767	3.8300e-01	9.3848	2.924717	-0.000009	-0.090065	-0.030515	0.000734
 768	3.8350e-01	9.3447	2.927208	-0.000006	-0.061155	-0.020720	0.000498
 769	3.8400e-01	9.3094	2.930333	-0.000008	-0.076722	-0.025994	0.000625
 770	3.8450e-01	9.2580	2.932733	-0.000006	-0.058931	-0.019967	0.000480
 771	3.8500e-01	9.2051	2.935314	-0.000006	-0.063379	-0.021473	0.000516
 772	3.8550e-01	9.1826	2.937896	-0.000006	-0.063379	-0.021473	0.000516
 773	3.8600e-01	9.1650	2.940432	-0.000006	-0.062267	-0.021097	0.000507
 774	3.8650e-01	9.0735	2.943603	-0.000008	-0.077834	-0.026371	0.000634
 775	3.8700e-01	9.0447	2.947950	-0.000011	-0.106744	-0.036166	0.000870
 776	3.8750e-01	9.0302	2.952253	-0.000011	-0.105632	-0.035789	0.000861
 777	3.8800e-01	8.9677	2.954472	-0.000005	-0.054484	-0.018460	0.000444
 778	3.8850e-01	8.9436	2.956148	-0.000004	-0.041141	-0.013939	0.000335
 779	3.8900e-01	8.8891	2.958050	-0.000005	-0.046700	-0.015823	0.000380
 780	3.8950e-01	8.8489	2.960269	-0.000005	-0.054484	-0.018460	0.000444
 781	3.9000e-01	8.8361	2.964572	-0.000011	-0.105632	-0.035789	0.000861
 782	3.9050e-01	8.7703	2.967833	-0.000008	-0.080058	-0.027124	0.000652
 783	3.9100e-01	8.7302	2.969962	-0.000005	-0.052260	-0.017706	0.000426
 784	3.9150e-01	8.7126	2.971230	-0.000003	-0.031134	-0.010548	0.000254
 785	3.9200e-01	8.6677	2.973494	-0.000006	-0.055596	-0.018836	0.000453
 786	3.9250e-01	8.6292	2.977253	-0.000009	-0.092289	-0.031268	0.000752
 787	3.9300e-01	8.5714	2.981239	-0.000010	-0.097848	-0.033152	0.000797
 788	3.9350e-01	8.5570	2.982598	-0.000003	-0.033357	-0.011302	0.000272
 789	3.9400e-01	8.5008	2.984228	-0.000004	-0.040029	-0.013562	0.000326
 790	3.9450e-01	8.4463	2.986855	-0.000006	-0.064491	-0.021850	0.000525
 791	3.9500e-01	8.3966	2.990478	-0.000009	-0.088953	-0.030138	0.000725
 792	3.9550e-01	8.3693	2.993377	-0.000007	-0.071163	-0.024111	0.000580
 793	3.9600e-01	8.3099	2.994464	-0.000003	-0.026686	-0.009041	0.000217
 794	3.9650e-01	8.2698	2.996638	-0.000005	-0.053372	-0.018083	0.000435
 795	3.9700e-01	8.2602	2.999717	-0.000008	-0.075610	-0.025617	0.000616
 796	3.9750e-01	8.1992	3.002254	-0.000006	-0.062267	-0.021097	0.000507
 797	3.9800e-01	8.1800	3.004428	-0.000005	-0.053372	-0.018083	0.000435
 798	3.9850e-01	8.1286	3.006013	-0.000004	-0.038917	-0.013185	0.000317
 799	3.9900e-01	8.0918	3.009092	-0.000008	-0.075610	-0.025617	0.000616
 800	3.9950e-01	8.0645	3.011176	-0.000005	-0.051148	-0.017329	0.000417
 801	4.0000e-01	8.0308	3.013939	-0.000007	-0.067827	-0.022980	0.000553
 802	4.0050e-01	7.9650	3.015569	-0.000004	-0.040029	-0.013562	0.000326
 803	4.0100e-01	7.9201	3.018286	-0.000007	-0.066715	-0.022604	0.000543
 804	4.0150e-01	7.8944	3.020959	-0.000007	-0.065603	-0.022227	0.000534
 805	4.0200e-01	7.8527	3.023042	-0.000005	-0.051148	-0.017329	0.000417
 806	4.0250e-01	7.8367	3.025080	-0.000005	-0.050036	-0.016953	0.000408
 807	4.0300e-01	7.7757	3.026937	-0.000005	-0.045588	-0.015446	0.000371
 808	4.0350e-01	7.7324	3.029428	-0.000006	-0.061155	-0.020720	0.000498
 809	4.0400e-01	7.6746	3.031602	-0.000005	-0.053372	-0.018083	0.000435
 810	4.0450e-01	7.6474	3.033685	-0.000005	-0.051148	-0.017329	0.000417
 811	4.0500e-01	7.6265	3.035723	-0.000005	-0.050036	-0.016953	0.000408
 812	4.0550e-01	7.5511	3.038033	-0.000006	-0.056708	-0.019213	0.000462
 813	4.0600e-01	7.5190	3.040343	-0.000006	-0.056708	-0.019213	0.000462
 814	4.0650e-01	7.5110	3.043015	-0.000007	-0.065603	-0.022227	0.000534
 815	4.0700e-01	7.4533	3.044510	-0.000004	-0.036693	-0.012432	0.000299
 816	4.0750e-01	7.4003	3.046457	-0.000005	-0.047812	-0.016199	0.000389
 817	4.0800e-01	7.3795	3.048540	-0.000005	-0.051148	-0.017329	0.000417
 818	4.0850e-01	7.3217	3.051122	-0.000006	-0.063379	-0.021473	0.000516
 819	4.0900e-01	7.2944	3.052662	-0.000004	-0.037805	-0.012809	0.000308
 820	4.0950e-01	7.2912	3.054292	-0.000004	-0.040029	-0.013562	0.000326
 821	4.1000e-01	7.2126	3.056330	-0.000005	-0.050036	-0.016953	0.000408
 822	4.1050e-01	7.1709	3.058595	-0.000006	-0.055596	-0.018836	0.000453
 823	4.1100e-01	7.1436	3.060135	-0.000004	-0.037805	-0.012809	0.000308
 824	4.1150e-01	7.0971	3.061539	-0.000003	-0.034469	-0.011679	0.000281
 825	4.1200e-01	7.0586	3.063577	-0.000005	-0.050036	-0.016953	0.000408
 826	4.1250e-01	7.0009	3.064709	-0.000003	-0.027798	-0.009418	0.000226
 827	4.1300e-01	6.9608	3.066747	-0.000005	-0.050036	-0.016953	0.000408
 828	4.1350e-01	6.9078	3.069510	-0.000007	-0.067827	-0.022980	0.000553
 829	4.1400e-01	6.8934	3.071729	-0.000005	-0.054484	-0.018460	0.000444
 830	4.1450e-01	6.8597	3.075715	-0.000010	-0.097848	-0.033152	0.000797
 831	4.1500e-01	6.8164	3.078568	-0.000007	-0.070051	-0.023734	0.000571
 832	4.1550e-01	6.7811	3.079655	-0.000003	-0.026686	-0.009041	0.000217
 833	4.1600e-01	6.7298	3.080832	-0.000003	-0.028910	-0.009795	0.000236
 834	4.1650e-01	6.7009	3.080787	0.000000	0.001112	0.000377	-0.000009
 835	4.1700e-01	6.6143	3.082735	-0.000005	-0.047812	-0.016199	0.000389
 836	4.1750e-01	6.6126	3.083957	-0.000003	-0.030022	-0.010172	0.000245
 837	4.1800e-01	6.5709	3.085769	-0.000004	-0.044477	-0.015069	0.000362
 838	4.1850e-01	6.5244	3.087400	-0.000004	-0.040029	-0.013562	0.000326
 839	4.1900e-01	6.4843	3.089211	-0.000004	-0.044477	-0.015069	0.000362
 840	4.1950e-01	6.5020	3.090026	0.000002	0.020014	0.006781	0.000163
 841	4.2000e-01	6.4217	3.090660	-0.000002	-0.015567	-0.005274	0.000127
 842	4.2050e-01	6.3929	3.092789	-0.000005	-0.052260	-0.017706	0.000426
 843	4.2100e-01	6.3143	3.095325	-0.000006	-0.062267	-0.021097	0.000507
 844	4.2150e-01	6.2822	3.098043	-0.000007	-0.066715	-0.022604	0.000543
 845	4.2200e-01	6.2501	3.100443	-0.000006	-0.058931	-0.019967	0.000480
 846	4.2250e-01	6.2324	3.101168	-0.000002	-0.017791	-0.006028	0.000145
 847	4.2300e-01	6.1699	3.100806	0.000001	0.008895	0.003014	-0.000072
 848	4.2350e-01	6.1330	3.103025	-0.000005	-0.054484	-0.018460	0.000444
 849	4.2400e-01	6.1009	3.104700	-0.000004	-0.041141	-0.013939	0.000335
 850	4.2450e-01	6.0399	3.107418	-0.000007	-0.066715	-0.022604	0.000543
 851	4.2500e-01	5.9982	3.109184	-0.000004	-0.043365	-0.014692	0.000353
 852	4.2550e-01	5.9806	3.108822	0.000001	0.008895	0.003014	-0.000072
 853	4.2600e-01	5.9244	3.109773	-0.000002	-0.023350	-0.007911	0.000190
 854	4.2650e-01	5.8859	3.111720	-0.000005	-0.047812	-0.016199	0.000389
 855	4.2700e-01	5.8651	3.114076	-0.000006	-0.057820	-0.019590	0.000471
 856	4.2750e-01	5.8089	3.115570	-0.000004	-0.036693	-0.012432	0.000299
 857	4.2800e-01	5.7592	3.116159	-0.000001	-0.014455	-0.004897	0.000118
 858	4.2850e-01	5.7464	3.117336	-0.000003	-0.028910	-0.009795	0.000236
 859	4.2900e-01	5.7159	3.118831	-0.000004	-0.036693	-0.012432	0.000299
 860	4.2950e-01	5.6662	3.120688	-0.000005	-0.045588	-0.015446	0.000371
 861	4.3000e-01	5.6148	3.122047	-0.000003	-0.033357	-0.011302	0.000272
 862	4.3050e-01	5.5731	3.122953	-0.000002	-0.022238	-0.007535	0.000181
 863	4.3100e-01	5.5715	3.124628	-0.000004	-0.041141	-0.013939	0.000335
 864	4.3150e-01	5.4961	3.126078	-0.000004	-0.035581	-0.012055	0.000290
 865	4.3200e-01	5.4383	3.127210	-0.000003	-0.027798	-0.009418	0.000226
 866	4.3250e-01	5.4175	3.128161	-0.000002	-0.023350	-0.007911	0.000190
 867	4.3300e-01	5.3597	3.128976	-0.000002	-0.020014	-0.006781	0.000163
 868	4.3350e-01	5.3373	3.130063	-0.000003	-0.026686	-0.009041	0.000217
 869	4.3400e-01	5.3084	3.131965	-0.000005	-0.046700	-0.015823	0.000380
 870	4.3450e-01	5.2442	3.132554	-0.000001	-0.014455	-0.004897	0.000118
 871	4.3500e-01	5.2314	3.133188	-0.000002	-0.015567	-0.005274	0.000127
 872	4.3550e-01	5.1753	3.134728	-0.000004	-0.037805	-0.012809	0.000308
 873	4.3600e-01	5.1287	3.136494	-0.000004	-0.043365	-0.014692	0.000353
 874	4.3650e-01	5.0902	3.137445	-0.000002	-0.023350	-0.007911	0.000190
 875	4.3700e-01	5.0421	3.138079	-0.000002	-0.015567	-0.005274	0.000127
 876	4.3750e-01	5.0132	3.139348	-0.000003	-0.031134	-0.010548	0.000254
 877	4.3800e-01	4.9539	3.141069	-0.000004	-0.042253	-0.014316	0.000344
 878	4.3850e-01	4.9266	3.141340	-0.000001	-0.006671	-0.002260	0.000054
 879	4.3900e-01	4.8865	3.142337	-0.000002	-0.024462	-0.008288	0.000199
 880	4.3950e-01	4.8576	3.143650	-0.000003	-0.032246	-0.010925	0.000263
 881	4.4000e-01	4.8223	3.144420	-0.000002	-0.018903	-0.006404	0.000154
 882	4.4050e-01	4.7790	3.146051	-0.000004	-0.040029	-0.013562	0.000326
 883	4.4100e-01	4.7309	3.146639	-0.000001	-0.014455	-0.004897	0.000118
 884	4.4150e-01	4.6956	3.147726	-0.000003	-0.026686	-0.009041	0.000217
 885	4.4200e-01	4.6715	3.148768	-0.000003	-0.025574	-0.008665	0.000208
 886	4.4250e-01	4.6122	3.149538	-0.000002	-0.018903	-0.006404	0.000154
 887	4.4300e-01	4.5624	3.150444	-0.000002	-0.022238	-0.007535	0.000181
 888	4.4350e-01	4.5432	3.150987	-0.000001	-0.013343	-0.004521	0.000109
 889	4.4400e-01	4.4870	3.151531	-0.000001	-0.013343	-0.004521	0.000109
 890	4.4450e-01	4.4614	3.152572	-0.000003	-0.025574	-0.008665	0.000208
 891	4.4500e-01	4.4052	3.153931	-0.000003	-0.033357	-0.011302	0.000272
 892	4.4550e-01	4.3667	3.154882	-0.000002	-0.023350	-0.007911	0.000190
 893	4.4600e-01	4.3314	3.153931	0.000002	0.023350	0.007911	-0.000190
 894	4.4650e-01	4.2721	3.155607	-0.000004	-0.041141	-0.013939	0.000335
 895	4.4700e-01	4.2336	3.156150	-0.000001	-0.013343	-0.004521	0.000109
 896	4.4750e-01	4.2255	3.158098	-0.000005	-0.047812	-0.016199	0.000389
 897	4.4800e-01	4.1758	3.159321	-0.000003	-0.030022	-0.010172	0.000245
 898	4.4850e-01	4.1421	3.160951	-0.000004	-0.040029	-0.013562	0.000326
 899	4.4900e-01	4.0764	3.162808	-0.000005	-0.045588	-0.015446	0.000371
 900	4.4950e-01	4.0427	3.162763	0.000000	0.001112	0.000377	-0.000009
 901	4.5000e-01	3.9994	3.163352	-0.000001	-0.014455	-0.004897	0.000118
 902	4.5050e-01	3.9657	3.163306	0.000000	0.001112	0.000377	-0.000009
 903	4.5100e-01	3.9272	3.162989	0.000001	0.007783	0.002637	-0.000063
 904	4.5150e-01	3.8967	3.163034	-0.000000	-0.001112	-0.000377	0.000009
 905	4.5200e-01	3.8421	3.164484	-0.000004	-0.035581	-0.012055	0.000290
 906	4.5250e-01	3.8614	3.165163	0.000002	0.016679	0.005651	0.000136
 907	4.5300e-01	3.7876	3.165299	-0.000000	-0.003336	-0.001130	0.000027
 908	4.5350e-01	3.7475	3.164756	0.000001	0.013343	0.004521	-0.000109
 909	4.5400e-01	3.7170	3.165254	-0.000001	-0.012231	-0.004144	0.000100
 910	4.5450e-01	3.6528	3.165888	-0.000002	-0.015567	-0.005274	0.000127
 911	4.5500e-01	3.6127	3.166658	-0.000002	-0.018903	-0.006404	0.000154
 912	4.5550e-01	3.5550	3.168696	-0.000005	-0.050036	-0.016953	0.000408
 913	4.5600e-01	3.5389	3.170326	-0.000004	-0.040029	-0.013562	0.000326
 914	4.5650e-01	3.4828	3.170281	0.000000	0.001112	0.000377	-0.000009
 915	4.5700e-01	3.4684	3.169602	0.000002	0.016679	0.005651	-0.000136
 916	4.5750e-01	3.4090	3.169466	0.000000	0.003336	0.001130	-0.000027
 917	4.5800e-01	3.3625	3.170054	-0.000001	-0.014455	-0.004897	0.000118
 918	4.5850e-01	3.3384	3.171368	-0.000003	-0.032246	-0.010925	0.000263
 919	4.5900e-01	3.2726	3.172319	-0.000002	-0.023350	-0.007911	0.000190
 920	4.5950e-01	3.2389	3.171640	0.000002	0.016679	0.005651	-0.000136
 921	4.6000e-01	3.2534	3.171368	-0.000001	-0.006671	-0.002260	-0.000054
 922	4.6050e-01	3.1796	3.172545	-0.000003	-0.028910	-0.009795	0.000236
 923	4.6100e-01	3.1331	3.172591	-0.000000	-0.001112	-0.000377	0.000009
 924	4.6150e-01	3.0689	3.173995	-0.000003	-0.034469	-0.011679	0.000281
 925	4.6200e-01	3.0240	3.173587	0.000001	0.010007	0.003391	-0.000082
 926	4.6250e-01	3.0144	3.173587	-0.000000	-0.000000	-0.000000	0.000000
 927	4.6300e-01	2.9791	3.174176	-0.000001	-0.014455	-0.004897	0.000118
 928	4.6350e-01	2.9341	3.173814	0.000001	0.008895	0.003014	-0.000072
 929	4.6400e-01	2.8988	3.175172	-0.000003	-0.033357	-0.011302	0.000272
 930	4.6450e-01	2.8491	3.175489	-0.000001	-0.007783	-0.002637	0.000063
 931	4.6500e-01	2.8234	3.175852	-0.000001	-0.008895	-0.003014	0.000072
 932	4.6550e-01	2.8058	3.175761	0.000000	0.002224	0.000753	-0.000018
 933	4.6600e-01	2.7513	3.176305	-0.000001	-0.013343	-0.004521	0.000109
 934	4.6650e-01	2.7047	3.176123	0.000000	0.004448	0.001507	-0.000036
 935	4.6700e-01	2.6486	3.176667	-0.000001	-0.013343	-0.004521	0.000109
 936	4.6750e-01	2.6133	3.176622	0.000000	0.001112	0.000377	-0.000009
 937	4.6800e-01	2.5812	3.176712	-0.000000	-0.002224	-0.000753	0.000018
 938	4.6850e-01	2.5363	3.176984	-0.000001	-0.006671	-0.002260	0.000054
 939	4.6900e-01	2.4946	3.177392	-0.000001	-0.010007	-0.003391	0.000082
 940	4.6950e-01	2.4609	3.177301	0.000000	0.002224	0.000753	-0.000018
 941	4.7000e-01	2.4288	3.177437	-0.000000	-0.003336	-0.001130	0.000027
 942	4.7050e-01	2.3871	3.178071	-0.000002	-0.015567	-0.005274	0.000127
 943	4.7100e-01	2.3277	3.177482	0.000001	0.014455	0.004897	-0.000118
 944	4.7150e-01	2.3069	3.177165	0.000001	0.007783	0.002637	-0.000063
 945	4.7200e-01	2.2539	3.178297	-0.000003	-0.027798	-0.009418	0.000226
 946	4.7250e-01	2.2267	3.177980	0.000001	0.007783	0.002637	-0.000063
 947	4.7300e-01	2.1721	3.178026	-0.000000	-0.001112	-0.000377	0.000009
 948	4.7350e-01	2.1368	3.178433	-0.000001	-0.010007	-0.003391	0.000082
 949	4.7400e-01	2.1112	3.178071	0.000001	0.008895	0.003014	-0.000072
 950	4.7450e-01	2.0390	3.178433	-0.000001	-0.008895	-0.003014	0.000072
 951	4.7500e-01	2.0181	3.178841	-0.000001	-0.010007	-0.003391	0.000082
 952	4.7550e-01	1.9796	3.178796	0.000000	0.001112	0.000377	-0.000009
 953	4.7600e-01	1.9491	3.178026	0.000002	0.018903	0.006404	-0.000154
 954	4.7650e-01	1.9026	3.178433	-0.000001	-0.010007	-0.003391	0.000082
 955	4.7700e-01	1.8770	3.178524	-0.000000	-0.002224	-0.000753	0.000018
 956	4.7750e-01	1.8449	3.178433	0.000000	0.002224	0.000753	-0.000018
 957	4.7800e-01	1.7614	3.178252	0.000000	0.004448	0.001507	-0.000036
 958	4.7850e-01	1.7374	3.177890	0.000001	0.008895	0.003014	-0.000072
 959	4.7900e-01	1.6909	3.178297	-0.000001	-0.010007	-0.003391	0.000082
 960	4.7950e-01	1.6604	3.177618	0.000002	0.016679	0.005651	-0.000136
 961	4.8000e-01	1.6267	3.176576	0.000003	0.025574	0.008665	-0.000208
 962	4.8050e-01	1.5545	3.176169	0.000001	0.010007	0.003391	-0.000082
 963	4.8100e-01	1.5288	3.176622	-0.000001	-0.011119	-0.003767	0.000091
 964	4.8150e-01	1.5000	3.176848	-0.000001	-0.005560	-0.001884	0.000045
 965	4.8200e-01	1.4454	3.177392	-0.000001	-0.013343	-0.004521	0.000109
 966	4.8250e-01	1.4246	3.179158	-0.000004	-0.043365	-0.014692	0.000353
 967	4.8300e-01	1.3588	3.179747	-0.000001	-0.014455	-0.004897	0.000118
 968	4.8350e-01	1.3540	3.179656	0.000000	0.002224	0.000753	-0.000018
 969	4.8400e-01	1.2722	3.179248	0.000001	0.010007	0.003391	-0.000082
 970	4.8450e-01	1.2449	3.178841	0.000001	0.010007	0.003391	-0.000082
 971	4.8500e-01	1.2176	3.176939	0.000005	0.046700	0.015823	-0.000380
 972	4.8550e-01	1.1952	3.176033	0.000002	0.022238	0.007535	-0.000181
 973	4.8600e-01	1.1390	3.175625	0.000001	0.010007	0.003391	-0.000082
 974	4.8650e-01	1.0909	3.175942	-0.000001	-0.007783	-0.002637	0.000063
 975	4.8700e-01	1.0428	3.175399	0.000001	0.013343	0.004521	-0.000109
 976	4.8750e-01	1.0251	3.174176	0.000003	0.030022	0.010172	-0.000245
 977	4.8800e-01	0.9690	3.172862	0.000003	0.032246	0.010925	-0.000263
 978	4.8850e-01	0.9224	3.172319	0.000001	0.013343	0.004521	-0.000109
 979	4.8900e-01	0.8984	3.173451	-0.000003	-0.027798	-0.009418	0.000226
 980	4.8950e-01	0.8823	3.173587	-0.000000	-0.003336	-0.001130	0.000027
 981	4.9000e-01	0.8230	3.174493	-0.000002	-0.022238	-0.007535	0.000181
 982	4.9050e-01	0.7861	3.174266	0.000001	0.005560	0.001884	-0.000045
 983	4.9100e-01	0.7283	3.173497	0.000002	0.018903	0.006404	-0.000154
 984	4.9150e-01	0.6946	3.172410	0.000003	0.026686	0.009041	-0.000217
 985	4.9200e-01	0.6513	3.172545	-0.000000	-0.003336	-0.001130	0.000027
 986	4.9250e-01	0.6112	3.172183	0.000001	0.008895	0.003014	-0.000072
 987	4.9300e-01	0.5470	3.171866	0.000001	0.007783	0.002637	-0.000063
 988	4.9350e-01	0.5358	3.171594	0.000001	0.006671	0.002260	-0.000054
 989	4.9400e-01	0.4732	3.170689	0.000002	0.022238	0.007535	-0.000181
 990	4.9450e-01	0.4797	3.169602	-0.000003	-0.026686	-0.009041	-0.000217
 991	4.9500e-01	0.4219	3.169466	0.000000	0.003336	0.001130	-0.000027
 992	4.9550e-01	0.3754	3.168379	0.000003	0.026686	0.009041	-0.000217
 993	4.9600e-01	0.3497	3.168968	-0.000001	-0.014455	-0.004897	0.000118
 994	4.9650e-01	0.2727	3.167881	0.000003	0.026686	0.009041	-0.000217
 995	4.9700e-01	0.2438	3.167564	0.000001	0.007783	0.002637	-0.000063
 996	4.9750e-01	0.2005	3.166567	0.000002	0.024462	0.008288	-0.000199
 997	4.9800e-01	0.1203	3.166567	-0.000000	-0.000000	-0.000000	0.000000
 998	4.9850e-01	0.1011	3.166612	-0.000000	-0.001112	-0.000377	0.000009
 999	4.9900e-01	0.0914	3.166295	0.000001	0.007783	0.002637	-0.000063
1000	4.9950e-01	0.0385	3.164756	0.000004	0.037805	0.012809	-0.000308
1001	5.0000e-01	0.0610	3.164167	-0.000001	-0.014455	-0.004897	-0.000118
1002	5.0050e-01	-0.0273	3.163714	0.000001	0.011119	0.003767	-0.000091
1003	5.0100e-01	-0.0818	3.163623	0.000000	0.002224	0.000753	-0.000018
1004	5.0150e-01	-0.1187	3.162672	0.000002	0.023350	0.007911	-0.000190
1005	5.0200e-01	-0.1652	3.161812	0.000002	0.021126	0.007158	-0.000172
1006	5.0250e-01	-0.1749	3.161268	0.000001	0.013343	0.004521	-0.000109
1007	5.0300e-01	-0.2310	3.160725	0.000001	0.013343	0.004521	-0.000109
1008	5.0350e-01	-0.2615	3.160000	0.000002	0.017791	0.006028	-0.000145
1009	5.0400e-01	-0.2856	3.158596	0.000003	0.034469	0.011679	-0.000281
1010	5.0450e-01	-0.3449	3.157826	0.000002	0.018903	0.006404	-0.000154
1011	5.0500e-01	-0.3754	3.158053	-0.000001	-0.005560	-0.001884	0.000045
1012	5.0550e-01	-0.4267	3.157237	0.000002	0.020014	0.006781	-0.000163
1013	5.0600e-01	-0.4588	3.156105	0.000003	0.027798	0.009418	-0.000226
1014	5.0650e-01	-0.5262	3.155154	0.000002	0.023350	0.007911	-0.000190
1015	5.0700e-01	-0.5567	3.155154	-0.000000	-0.000000	-0.000000	0.000000
1016	5.0750e-01	-0.5647	3.154565	0.000001	0.014455	0.004897	-0.000118
1017	5.0800e-01	-0.6353	3.153524	0.000003	0.025574	0.008665	-0.000208
1018	5.0850e-01	-0.6914	3.153071	0.000001	0.011119	0.003767	-0.000091
1019	5.0900e-01	-0.6529	3.152029	-0.000003	-0.025574	-0.008665	-0.000208
1020	5.0950e-01	-0.7171	3.151395	0.000002	0.015567	0.005274	-0.000127
1021	5.1000e-01	-0.7813	3.150851	0.000001	0.013343	0.004521	-0.000109
1022	5.1050e-01	-0.8390	3.149357	0.000004	0.036693	0.012432	-0.000299
1023	5.1100e-01	-0.8743	3.149040	0.000001	0.007783	0.002637	-0.000063
1024	5.1150e-01	-0.8968	3.147817	0.000003	0.030022	0.010172	-0.000245
1025	5.1200e-01	-0.9545	3.147590	0.000001	0.005560	0.001884	-0.000045
1026	5.1250e-01	-0.9978	3.146503	0.000003	0.026686	0.009041	-0.000217
1027	5.1300e-01	-1.0123	3.144647	0.000005	0.045588	0.015446	-0.000371
1028	5.1350e-01	-1.0684	3.144330	0.000001	0.007783	0.002637	-0.000063
1029	5.1400e-01	-1.0764	3.142835	0.000004	0.036693	0.012432	-0.000299
1030	5.1450e-01	-1.1615	3.141476	0.000003	0.033357	0.011302	-0.000272
1031	5.1500e-01	-1.1887	3.141023	0.000001	0.011119	0.003767	-0.000091
1032	5.1550e-01	-1.1855	3.140525	-0.000001	-0.012231	-0.004144	-0.000100
1033	5.1600e-01	-1.2673	3.140118	0.000001	0.010007	0.003391	-0.000082
1034	5.1650e-01	-1.3331	3.140706	-0.000001	-0.014455	-0.004897	0.000118
1035	5.1700e-01	-1.3347	3.140842	-0.000000	-0.003336	-0.001130	0.000027
1036	5.1750e-01	-1.4101	3.139438	0.000003	0.034469	0.011679	-0.000281
1037	5.1800e-01	-1.4101	3.138714	0.000002	0.017791	0.006028	-0.000145
1038	5.1850e-01	-1.4262	3.138215	0.000001	0.012231	0.004144	-0.000100
1039	5.1900e-01	-1.5080	3.135317	0.000007	0.071163	0.024111	-0.000580
1040	5.1950e-01	-1.5288	3.133052	0.000006	0.055596	0.018836	-0.000453
1041	5.2000e-01	-1.5882	3.132554	0.000001	0.012231	0.004144	-0.000100
1042	5.2050e-01	-1.6155	3.131829	0.000002	0.017791	0.006028	-0.000145
1043	5.2100e-01	-1.6588	3.130290	0.000004	0.037805	0.012809	-0.000308
1044	5.2150e-01	-1.7021	3.128161	0.000005	0.052260	0.017706	-0.000426
1045	5.2200e-01	-1.7326	3.126938	0.000003	0.030022	0.010172	-0.000245
1046	5.2250e-01	-1.7983	3.125761	0.000003	0.028910	0.009795	-0.000236
1047	5.2300e-01	-1.8080	3.125625	0.000000	0.003336	0.001130	-0.000027
1048	5.2350e-01	-1.8721	3.124402	0.000003	0.030022	0.010172	-0.000245
1049	5.2400e-01	-1.9171	3.124402	-0.000000	-0.000000	-0.000000	0.000000
1050	5.2450e-01	-1.9267	3.124447	-0.000000	-0.001112	-0.000377	0.000009
1051	5.2500e-01	-1.9700	3.121911	0.000006	0.062267	0.021097	-0.000507
1052	5.2550e-01	-2.0133	3.119827	0.000005	0.051148	0.017329	-0.000417
1053	5.2600e-01	-2.0502	3.118740	0.000003	0.026686	0.009041	-0.000217
1054	5.2650e-01	-2.0871	3.118016	0.000002	0.017791	0.006028	-0.000145
1055	5.2700e-01	-2.1224	3.116657	0.000003	0.033357	0.011302	-0.000272
1056	5.2750e-01	-2.2090	3.115661	0.000002	0.024462	0.008288	-0.000199
1057	5.2800e-01	-2.2267	3.115072	0.000001	0.014455	0.004897	-0.000118
1058	5.2850e-01	-2.2475	3.112853	0.000005	0.054484	0.018460	-0.000444
1059	5.2900e-01	-2.2876	3.111358	0.000004	0.036693	0.012432	-0.000299
1060	5.2950e-01	-2.3374	3.109818	0.000004	0.037805	0.012809	-0.000308
1061	5.3000e-01	-2.4080	3.109048	0.000002	0.018903	0.006404	-0.000154
1062	5.3050e-01	-2.4272	3.107508	0.000004	0.037805	0.012809	-0.000308
1063	5.3100e-01	-2.4721	3.106603	0.000002	0.022238	0.007535	-0.000181
1064	5.3150e-01	-2.5138	3.104429	0.000005	0.053372	0.018083	-0.000435
1065	5.3200e-01	-2.5571	3.102345	0.000005	0.051148	0.017329	-0.000417
1066	5.3250e-01	-2.5700	3.102436	-0.000000	-0.002224	-0.000753	0.000018
1067	5.3300e-01	-2.6037	3.100715	0.000004	0.042253	0.014316	-0.000344
1068	5.3350e-01	-2.6598	3.099266	0.000004	0.035581	0.012055	-0.000290
1069	5.3400e-01	-2.6919	3.097228	0.000005	0.050036	0.016953	-0.000408
1070	5.3450e-01	-2.7625	3.095235	0.000005	0.048924	0.016576	-0.000399
1071	5.3500e-01	-2.8218	3.095099	0.000000	0.003336	0.001130	-0.000027
1072	5.3550e-01	-2.8234	3.093695	0.000003	0.034469	0.011679	-0.000281
1073	5.3600e-01	-2.8475	3.092019	0.000004	0.041141	0.013939	-0.000335
1074	5.3650e-01	-2.8940	3.089619	0.000006	0.058931	0.019967	-0.000480
1075	5.3700e-01	-2.9357	3.088804	0.000002	0.020014	0.006781	-0.000163
1076	5.3750e-01	-2.9598	3.087671	0.000003	0.027798	0.009418	-0.000226
1077	5.3800e-01	-3.0256	3.085135	0.000006	0.062267	0.021097	-0.000507
1078	5.3850e-01	-3.0801	3.083640	0.000004	0.036693	0.012432	-0.000299
1079	5.3900e-01	-3.1074	3.082418	0.000003	0.030022	0.010172	-0.000245
1080	5.3950e-01	-3.1331	3.081421	0.000002	0.024462	0.008288	-0.000199
1081	5.4000e-01	-3.1780	3.079021	0.000006	0.058931	0.019967	-0.000480
1082	5.4050e-01	-3.2069	3.076711	0.000006	0.056708	0.019213	-0.000462
1083	5.4100e-01	-3.2325	3.075805	0.000002	0.022238	0.007535	-0.000181
1084	5.4150e-01	-3.2887	3.074537	0.000003	0.031134	0.010548	-0.000254
1085	5.4200e-01	-3.3480	3.072544	0.000005	0.048924	0.016576	-0.000399
1086	5.4250e-01	-3.3753	3.070461	0.000005	0.051148	0.017329	-0.000417
1087	5.4300e-01	-3.4395	3.068876	0.000004	0.038917	0.013185	-0.000317
1088	5.4350e-01	-3.4571	3.068695	0.000000	0.004448	0.001507	-0.000036
1089	5.4400e-01	-3.5117	3.066521	0.000005	0.053372	0.018083	-0.000435
1090	5.4450e-01	-3.5646	3.064618	0.000005	0.046700	0.015823	-0.000380
1091	5.4500e-01	-3.5935	3.062716	0.000005	0.046700	0.015823	-0.000380
1092	5.4550e-01	-3.6079	3.061765	0.000002	0.023350	0.007911	-0.000190
1093	5.4600e-01	-3.6625	3.059093	0.000007	0.065603	0.022227	-0.000534
1094	5.4650e-01	-3.6817	3.057055	0.000005	0.050036	0.016953	-0.000408
1095	5.4700e-01	-3.7587	3.055108	0.000005	0.047812	0.016199	-0.000389
1096	5.4750e-01	-3.7892	3.052526	0.000006	0.063379	0.021473	-0.000516
1097	5.4800e-01	-3.8373	3.050035	0.000006	0.061155	0.020720	-0.000498
1098	5.4850e-01	-3.8967	3.047906	0.000005	0.052260	0.017706	-0.000426
1099	5.4900e-01	-3.9015	3.046185	0.000004	0.042253	0.014316	-0.000344
1100	5.4950e-01	-3.9352	3.044555	0.000004	0.040029	0.013562	-0.000326
1101	5.5000e-01	-3.9769	3.042200	0.000006	0.057820	0.019590	-0.000471
1102	5.5050e-01	-4.0218	3.043423	-0.000003	-0.030022	-0.010172	0.000245
1103	5.5100e-01	-4.0427	3.042426	0.000002	0.024462	0.008288	-0.000199
1104	5.5150e-01	-4.1277	3.039981	0.000006	0.060043	0.020343	-0.000489
1105	5.5200e-01	-4.1405	3.037625	0.000006	0.057820	0.019590	-0.000471
1106	5.5250e-01	-4.1694	3.036720	0.000002	0.022238	0.007535	-0.000181
1107	5.5300e-01	-4.2111	3.033912	0.000007	0.068939	0.023357	-0.000562
1108	5.5350e-01	-4.2641	3.030741	0.000008	0.077834	0.026371	-0.000634
1109	5.5400e-01	-4.3218	3.027933	0.000007	0.068939	0.023357	-0.000562
1110	5.5450e-01	-4.3619	3.026529	0.000003	0.034469	0.011679	-0.000281
1111	5.5500e-01	-4.3346	3.024219	-0.000006	-0.056708	-0.019213	-0.000462
1112	5.5550e-01	-4.4341	3.019826	0.000011	0.107856	0.036543	-0.000879
1113	5.5600e-01	-4.4951	3.017199	0.000006	0.064491	0.021850	-0.000525
1114	5.5650e-01	-4.4854	3.015931	-0.000003	-0.031134	-0.010548	-0.000254
1115	5.5700e-01	-4.5207	3.013712	0.000005	0.054484	0.018460	-0.000444
1116	5.5750e-01	-4.5945	3.012399	0.000003	0.032246	0.010925	-0.000263
1117	5.5800e-01	-4.6138	3.010361	0.000005	0.050036	0.016953	-0.000408
1118	5.5850e-01	-4.6635	3.009228	0.000003	0.027798	0.009418	-0.000226
1119	5.5900e-01	-4.7132	3.006284	0.000007	0.072274	0.024487	-0.000589
1120	5.5950e-01	-4.7566	3.003748	0.000006	0.062267	0.021097	-0.000507
1121	5.6000e-01	-4.7854	3.001348	0.000006	0.058931	0.019967	-0.000480
1122	5.6050e-01	-4.8143	2.998902	0.000006	0.060043	0.020343	-0.000489
1123	5.6100e-01	-4.8913	2.996774	0.000005	0.052260	0.017706	-0.000426
1124	5.6150e-01	-4.9090	2.994283	0.000006	0.061155	0.020720	-0.000498
1125	5.6200e-01	-4.9378	2.992562	0.000004	0.042253	0.014316	-0.000344
1126	5.6250e-01	-4.9876	2.990252	0.000006	0.056708	0.019213	-0.000462
1127	5.6300e-01	-5.0325	2.987036	0.000008	0.078946	0.026748	-0.000643
1128	5.6350e-01	-5.0389	2.984138	0.000007	0.071163	0.024111	-0.000580
1129	5.6400e-01	-5.0886	2.981828	0.000006	0.056708	0.019213	-0.000462
1130	5.6450e-01	-5.1448	2.980016	0.000004	0.044477	0.015069	-0.000362
1131	5.6500e-01	-5.1849	2.977389	0.000006	0.064491	0.021850	-0.000525
1132	5.6550e-01	-5.2154	2.974491	0.000007	0.071163	0.024111	-0.000580
1133	5.6600e-01	-5.2555	2.971320	0.000008	0.077834	0.026371	-0.000634
1134	5.6650e-01	-5.3116	2.968965	0.000006	0.057820	0.019590	-0.000471
1135	5.6700e-01	-5.3549	2.967335	0.000004	0.040029	0.013562	-0.000326
1136	5.6750e-01	-5.3966	2.963893	0.000008	0.084506	0.028631	-0.000688
1137	5.6800e-01	-5.4271	2.961039	0.000007	0.070051	0.023734	-0.000571
1138	5.6850e-01	-5.4496	2.957914	0.000008	0.076722	0.025994	-0.000625
1139	5.6900e-01	-5.4945	2.956239	0.000004	0.041141	0.013939	-0.000335
1140	5.6950e-01	-5.5522	2.954382	0.000005	0.045588	0.015446	-0.000371
1141	5.7000e-01	-5.5924	2.950124	0.000010	0.104520	0.035412	-0.000851
1142	5.7050e-01	-5.5859	2.947407	-0.000007	-0.066715	-0.022604	-0.000543
1143	5.7100e-01	-5.6613	2.945505	0.000005	0.046700	0.015823	-0.000380
1144	5.7150e-01	-5.7047	2.943150	0.000006	0.057820	0.019590	-0.000471
1145	5.7200e-01	-5.7415	2.939436	0.000009	0.091177	0.030892	-0.000743
1146	5.7250e-01	-5.8057	2.936718	0.000007	0.066715	0.022604	-0.000543
1147	5.7300e-01	-5.8089	2.933820	0.000007	0.071163	0.024111	-0.000580
1148	5.7350e-01	-5.8394	2.931510	0.000006	0.056708	0.019213	-0.000462
1149	5.7400e-01	-5.8940	2.928793	0.000007	0.066715	0.022604	-0.000543
1150	5.7450e-01	-5.9758	2.924717	0.000010	0.100072	0.033905	-0.000815
1151	5.7500e-01	-5.9710	2.922226	-0.000006	-0.061155	-0.020720	-0.000498
1152	5.7550e-01	-6.0079	2.919463	0.000007	0.067827	0.022980	-0.000553
1153	5.7600e-01	-6.1105	2.916610	0.000007	0.070051	0.023734	-0.000571
1154	5.7650e-01	-6.0672	2.912896	-0.000009	-0.091177	-0.030892	-0.000743
1155	5.7700e-01	-6.1250	2.910224	0.000007	0.065603	0.022227	-0.000534
1156	5.7750e-01	-6.1699	2.907687	0.000006	0.062267	0.021097	-0.000507
1157	5.7800e-01	-6.2148	2.904472	0.000008	0.078946	0.026748	-0.000643
1158	5.7850e-01	-6.2517	2.900713	0.000009	0.092289	0.031268	-0.000752
1159	5.7900e-01	-6.2854	2.898176	0.000006	0.062267	0.021097	-0.000507
1160	5.7950e-01	-6.3479	2.895323	0.000007	0.070051	0.023734	-0.000571
1161	5.8000e-01	-6.3399	2.892379	-0.000007	-0.072274	-0.024487	-0.000589
1162	5.8050e-01	-6.4217	2.888530	0.000009	0.094513	0.032022	-0.000770
1163	5.8100e-01	-6.4378	2.885359	0.000008	0.077834	0.026371	-0.000634
1164	5.8150e-01	-6.4971	2.882506	0.000007	0.070051	0.023734	-0.000571
1165	5.8200e-01	-6.5501	2.878702	0.000009	0.093401	0.031645	-0.000761
1166	5.8250e-01	-6.6046	2.874807	0.000010	0.095625	0.032399	-0.000779
1167	5.8300e-01	-6.6143	2.872044	0.000007	0.067827	0.022980	-0.000553
1168	5.8350e-01	-6.6495	2.867741	0.000011	0.105632	0.035789	-0.000861
1169	5.8400e-01	-6.7121	2.864933	0.000007	0.068939	0.023357	-0.000562
1170	5.8450e-01	-6.7298	2.863122	0.000004	0.044477	0.015069	-0.000362
1171	5.8500e-01	-6.7602	2.860857	0.000006	0.055596	0.018836	-0.000453
1172	5.8550e-01	-6.8196	2.858004	0.000007	0.070051	0.023734	-0.000571
1173	5.8600e-01	-6.8549	2.854245	0.000009	0.092289	0.031268	-0.000752
1174	5.8650e-01	-6.9126	2.851029	0.000008	0.078946	0.026748	-0.000643
1175	5.8700e-01	-6.9431	2.847859	0.000008	0.077834	0.026371	-0.000634
1176	5.8750e-01	-6.9592	2.842515	0.000013	0.131206	0.044454	-0.001069
1177	5.8800e-01	-7.0089	2.839072	0.000008	0.084506	0.028631	-0.000688
1178	5.8850e-01	-7.0538	2.835676	0.000008	0.083394	0.028255	-0.000679
1179	5.8900e-01	-7.0763	2.832007	0.000009	0.090065	0.030515	-0.000734
1180	5.8950e-01	-7.1693	2.827705	0.000011	0.105632	0.035789	-0.000861
1181	5.9000e-01	-7.1934	2.823402	0.000011	0.105632	0.035789	-0.000861
1182	5.9050e-01	-7.2223	2.819326	0.000010	0.100072	0.033905	-0.000815
1183	5.9100e-01	-7.2624	2.817107	0.000005	0.054484	0.018460	-0.000444
1184	5.9150e-01	-7.3185	2.813393	0.000009	0.091177	0.030892	-0.000743
1185	5.9200e-01	-7.3602	2.809860	0.000009	0.086729	0.029385	-0.000707
1186	5.9250e-01	-7.3939	2.806237	0.000009	0.088953	0.030138	-0.000725
1187	5.9300e-01	-7.4517	2.803202	0.000007	0.074498	0.025241	-0.000607
1188	5.9350e-01	-7.4452	2.799443	-0.000009	-0.092289	-0.031268	-0.000752
1189	5.9400e-01	-7.4854	2.795820	0.000009	0.088953	0.030138	-0.000725
1190	5.9450e-01	-7.5431	2.791608	0.000010	0.103408	0.035036	-0.000842
1191	5.9500e-01	-7.5880	2.786807	0.000012	0.117863	0.039933	-0.000960
1192	5.9550e-01	-7.6217	2.783184	0.000009	0.088953	0.030138	-0.000725
1193	5.9600e-01	-7.6313	2.780920	0.000006	0.055596	0.018836	-0.000453
1194	5.9650e-01	-7.7035	2.777523	0.000008	0.083394	0.028255	-0.000679
1195	5.9700e-01	-7.7340	2.772541	0.000012	0.122311	0.041440	-0.000996
1196	5.9750e-01	-7.7837	2.768193	0.000011	0.106744	0.036166	-0.000870
1197	5.9800e-01	-7.8319	2.763800	0.000011	0.107856	0.036543	-0.000879
1198	5.9850e-01	-7.8720	2.760992	0.000007	0.068939	0.023357	-0.000562
1199	5.9900e-01	-7.9025	2.757867	0.000008	0.076722	0.025994	-0.000625
1200	5.9950e-01	-7.9233	2.752477	0.000013	0.132318	0.044830	-0.001078
1201	6.0000e-01	-7.9827	2.748039	0.000011	0.108968	0.036919	-0.000888
1202	6.0050e-01	-8.0452	2.743781	0.000010	0.104520	0.035412	-0.000851
1203	6.0100e-01	-8.0613	2.740656	0.000008	0.076722	0.025994	-0.000625
1204	6.0150e-01	-8.1110	2.736444	0.000010	0.103408	0.035036	-0.000842
1205	6.0200e-01	-8.1447	2.731100	0.000013	0.131206	0.044454	-0.001069
1206	6.0250e-01	-8.1688	2.727341	0.000009	0.092289	0.031268	-0.000752
1207	6.0300e-01	-8.2153	2.723899	0.000008	0.084506	0.028631	-0.000688
1208	6.0350e-01	-8.2409	2.720729	0.000008	0.077834	0.026371	-0.000634
1209	6.0400e-01	-8.2923	2.715294	0.000013	0.133430	0.045207	-0.001087
1210	6.0450e-01	-8.3388	2.710448	0.000012	0.118975	0.040310	-0.000969
1211	6.0500e-01	-8.3709	2.706779	0.000009	0.090065	0.030515	-0.000734
1212	6.0550e-01	-8.3982	2.703382	0.000008	0.083394	0.028255	-0.000679
1213	6.0600e-01	-8.4607	2.698174	0.000013	0.127870	0.043324	-0.001042
1214	6.0650e-01	-8.5089	2.693011	0.000013	0.126758	0.042947	-0.001033
1215	6.0700e-01	-8.5361	2.688844	0.000010	0.102296	0.034659	-0.000833
1216	6.0750e-01	-8.5682	2.685266	0.000009	0.087841	0.029761	-0.000716
1217	6.0800e-01	-8.6292	2.680692	0.000011	0.112303	0.038049	-0.000915
1218	6.0850e-01	-8.6741	2.675121	0.000014	0.136765	0.046337	-0.001114
1219	6.0900e-01	-8.7046	2.670955	0.000010	0.102296	0.034659	-0.000833
1220	6.0950e-01	-8.7399	2.666878	0.000010	0.100072	0.033905	-0.000815
1221	6.1000e-01	-8.7976	2.663210	0.000009	0.090065	0.030515	-0.000734
1222	6.1050e-01	-8.8169	2.658002	0.000013	0.127870	0.043324	-0.001042
1223	6.1100e-01	-8.8538	2.653699	0.000011	0.105632	0.035789	-0.000861
1224	6.1150e-01	-8.8907	2.649034	0.000011	0.114527	0.038803	-0.000933
1225	6.1200e-01	-8.9532	2.644958	0.000010	0.100072	0.033905	-0.000815
1226	6.1250e-01	-8.9853	2.639976	0.000012	0.122311	0.041440	-0.000996
1227	6.1300e-01	-9.0046	2.634360	0.000014	0.137877	0.046714	-0.001123
1228	6.1350e-01	-9.0382	2.630193	0.000010	0.102296	0.034659	-0.000833
1229	6.1400e-01	-9.0944	2.625981	0.000010	0.103408	0.035036	-0.000842
1230	6.1450e-01	-9.1425	2.621452	0.000011	0.111191	0.037673	-0.000906
1231	6.1500e-01	-9.2083	2.615383	0.000015	0.148997	0.050481	-0.001214
1232	6.1550e-01	-9.2083	2.610582	0.000012	0.117863	0.039933	-0.000960
1233	6.1600e-01	-9.2677	2.605646	0.000012	0.121199	0.041063	-0.000987
1234	6.1650e-01	-9.3126	2.600619	0.000012	0.123423	0.041817	-0.001005
1235	6.1700e-01	-9.3655	2.596090	0.000011	0.111191	0.037673	-0.000906
1236	6.1750e-01	-9.3751	2.590926	0.000013	0.126758	0.042947	-0.001033
1237	6.1800e-01	-9.4393	2.586624	0.000011	0.105632	0.035789	-0.000861
1238	6.1850e-01	-9.4634	2.582955	0.000009	0.090065	0.030515	-0.000734
1239	6.1900e-01	-9.5003	2.579242	0.000009	0.091177	0.030892	-0.000743
1240	6.1950e-01	-9.5532	2.574713	0.000011	0.111191	0.037673	-0.000906
1241	6.2000e-01	-9.6126	2.569006	0.000014	0.140101	0.047468	-0.001141
1242	6.2050e-01	-9.6318	2.564930	0.000010	0.100072	0.033905	-0.000815
1243	6.2100e-01	-9.6446	2.559767	0.000013	0.126758	0.042947	-0.001033
1244	6.2150e-01	-9.7281	2.554649	0.000013	0.125646	0.042570	-0.001024
1245	6.2200e-01	-9.7200	2.547674	-0.000017	-0.171235	-0.058016	-0.001395
1246	6.2250e-01	-9.8195	2.541922	0.000014	0.141213	0.047844	-0.001150
1247	6.2300e-01	-9.8195	2.537122	0.000012	0.117863	0.039933	-0.000960
1248	6.2350e-01	-9.8580	2.530283	0.000017	0.167899	0.056886	-0.001368
1249	6.2400e-01	-9.8853	2.524757	0.000014	0.135654	0.045961	-0.001105
1250	6.2450e-01	-9.9222	2.519458	0.000013	0.130094	0.044077	-0.001060
1251	6.2500e-01	-9.9847	2.515292	0.000010	0.102296	0.034659	-0.000833
1252	6.2550e-01	-10.0232	2.509902	0.000013	0.132318	0.044830	-0.001078
1253	6.2600e-01	-10.0265	2.504558	0.000013	0.131206	0.044454	-0.001069
1254	6.2650e-01	-10.0826	2.498896	0.000014	0.138989	0.047091	-0.001132
1255	6.2700e-01	-10.1259	2.494413	0.000011	0.110080	0.037296	-0.000897
1256	6.2750e-01	-10.1821	2.489204	0.000013	0.127870	0.043324	-0.001042
1257	6.2800e-01	-10.2334	2.484041	0.000013	0.126758	0.042947	-0.001033
1258	6.2850e-01	-10.2623	2.477746	0.000015	0.154556	0.052365	-0.001259
1259	6.2900e-01	-10.2863	2.471586	0.000015	0.151220	0.051235	-0.001232
1260	6.2950e-01	-10.3489	2.464702	0.000017	0.169011	0.057262	-0.001377
1261	6.3000e-01	-10.3842	2.460581	0.000010	0.101184	0.034282	-0.000824
1262	6.3050e-01	-10.4083	2.456459	0.000010	0.101184	0.034282	-0.000824
1263	6.3100e-01	-10.4837	2.449303	0.000018	0.175683	0.059523	-0.001431
1264	6.3150e-01	-10.5286	2.442555	0.000017	0.165675	0.056132	-0.001350
1265	6.3200e-01	-10.5254	2.435716	-0.000017	-0.167899	-0.056886	-0.001368
1266	6.3250e-01	-10.6152	2.431550	0.000010	0.102296	0.034659	-0.000833
1267	6.3300e-01	-10.6296	2.426658	0.000012	0.120087	0.040687	-0.000978
1268	6.3350e-01	-10.6681	2.420272	0.000016	0.156780	0.053118	-0.001277
1269	6.3400e-01	-10.7002	2.413524	0.000017	0.165675	0.056132	-0.001350
1270	6.3450e-01	-10.7323	2.406685	0.000017	0.167899	0.056886	-0.001368
1271	6.3500e-01	-10.7724	2.402473	0.000010	0.103408	0.035036	-0.000842
1272	6.3550e-01	-10.8077	2.397038	0.000013	0.133430	0.045207	-0.001087
1273	6.3600e-01	-10.8623	2.389565	0.000018	0.183466	0.062160	-0.001495
1274	6.3650e-01	-10.9056	2.382410	0.000018	0.175683	0.059523	-0.001431
1275	6.3700e-01	-10.9553	2.378198	0.000010	0.103408	0.035036	-0.000842
1276	6.3750e-01	-10.9794	2.372219	0.000015	0.146773	0.049728	-0.001196
1277	6.3800e-01	-11.0532	2.365516	0.000016	0.164563	0.055756	-0.001341
1278	6.3850e-01	-11.0564	2.357817	0.000019	0.189025	0.064044	-0.001540
1279	6.3900e-01	-11.1093	2.352156	0.000014	0.138989	0.047091	-0.001132
1280	6.3950e-01	-11.1125	2.346993	0.000013	0.126758	0.042947	-0.001033
1281	6.4000e-01	-11.1847	2.341467	0.000014	0.135654	0.045961	-0.001105
1282	6.4050e-01	-11.2280	2.333541	0.000019	0.194585	0.065927	-0.001585
1283	6.4100e-01	-11.2585	2.326929	0.000016	0.162340	0.055002	-0.001322
1284	6.4150e-01	-11.3114	2.321268	0.000014	0.138989	0.047091	-0.001132
1285	6.4200e-01	-11.3355	2.315380	0.000014	0.144549	0.048974	-0.001178
1286	6.4250e-01	-11.3997	2.308043	0.000018	0.180130	0.061030	-0.001467
1287	6.4300e-01	-11.4093	2.301612	0.000016	0.157892	0.053495	-0.001286
1288	6.4350e-01	-11.4526	2.295543	0.000015	0.148997	0.050481	-0.001214
1289	6.4400e-01	-11.5136	2.289293	0.000015	0.153444	0.051988	-0.001250
1290	6.4450e-01	-11.5392	2.282635	0.000016	0.163451	0.055379	-0.001332
1291	6.4500e-01	-11.5938	2.275298	0.000018	0.180130	0.061030	-0.001467
1292	6.4550e-01	-11.6243	2.268640	0.000016	0.163451	0.055379	-0.001332
1293	6.4600e-01	-11.6483	2.262390	0.000015	0.153444	0.051988	-0.001250
1294	6.4650e-01	-11.6756	2.255325	0.000017	0.173459	0.058769	-0.001413
1295	6.4700e-01	-11.7606	2.248758	0.000016	0.161228	0.054625	-0.001313
1296	6.4750e-01	-11.7606	2.241964	0.000017	0.166787	0.056509	-0.001359
1297	6.4800e-01	-11.8312	2.235352	0.000016	0.162340	0.055002	-0.001322
1298	6.4850e-01	-11.8569	2.228513	0.000017	0.167899	0.056886	-0.001368
1299	6.4900e-01	-11.8553	2.220723	-0.000019	-0.191249	-0.064797	-0.001558
1300	6.4950e-01	-11.9355	2.213929	0.000017	0.166787	0.056509	-0.001359
1301	6.5000e-01	-11.9708	2.206638	0.000018	0.179018	0.060653	-0.001458
1302	6.5050e-01	-12.0237	2.199165	0.000018	0.183466	0.062160	-0.001495
1303	6.5100e-01	-12.0590	2.191511	0.000019	0.187914	0.063667	-0.001531
1304	6.5150e-01	-12.0879	2.183585	0.000019	0.194585	0.065927	-0.001585
1305	6.5200e-01	-12.1440	2.176927	0.000016	0.163451	0.055379	-0.001332
1306	6.5250e-01	-12.1825	2.170677	0.000015	0.153444	0.051988	-0.001250
1307	6.5300e-01	-12.2194	2.165605	0.000012	0.124534	0.042193	-0.001015
1308	6.5350e-01	-12.2980	2.158494	0.000017	0.174571	0.059146	-0.001422
1309	6.5400e-01	-12.2932	2.150976	-0.000018	-0.184578	-0.062537	-0.001504
1310	6.5450e-01	-12.3366	2.143322	0.000019	0.187914	0.063667	-0.001531
1311	6.5500e-01	-12.4007	2.135803	0.000018	0.184578	0.062537	-0.001504
1312	6.5550e-01	-12.4216	2.128919	0.000017	0.169011	0.057262	-0.001377
1313	6.5600e-01	-12.4777	2.120269	0.000021	0.212376	0.071955	-0.001730
1314	6.5650e-01	-12.4970	2.111618	0.000021	0.212376	0.071955	-0.001730
1315	6.5700e-01	-12.5547	2.103874	0.000019	0.190137	0.064420	-0.001549
1316	6.5750e-01	-12.6012	2.095722	0.000020	0.200145	0.067811	-0.001630
1317	6.5800e-01	-12.6173	2.087071	0.000021	0.212376	0.071955	-0.001730
1318	6.5850e-01	-12.6221	2.079779	0.000018	0.179018	0.060653	-0.001458
1319	6.5900e-01	-12.7200	2.072805	0.000017	0.171235	0.058016	-0.001395
1320	6.5950e-01	-12.7216	2.064471	0.000020	0.204592	0.069318	-0.001667
1321	6.6000e-01	-12.7954	2.056908	0.000019	0.185690	0.062913	-0.001513
1322	6.6050e-01	-12.8194	2.048212	0.000021	0.213488	0.072332	-0.001739
1323	6.6100e-01	-12.8659	2.040105	0.000020	0.199033	0.067434	-0.001621
1324	6.6150e-01	-12.8820	2.033674	0.000016	0.157892	0.053495	-0.001286
1325	6.6200e-01	-12.9365	2.026608	0.000017	0.173459	0.058769	-0.001413
1326	6.6250e-01	-12.9670	2.017867	0.000021	0.214600	0.072708	-0.001748
1327	6.6300e-01	-12.9991	2.008809	0.000022	0.222383	0.075345	-0.001812
1328	6.6350e-01	-13.0665	1.999027	0.000024	0.240174	0.081373	-0.001957
1329	6.6400e-01	-13.1098	1.991418	0.000019	0.186802	0.063290	-0.001522
1330	6.6450e-01	-13.1210	1.985258	0.000015	0.151220	0.051235	-0.001232
1331	6.6500e-01	-13.1643	1.976834	0.000021	0.206816	0.070071	-0.001685
1332	6.6550e-01	-13.2125	1.967369	0.000023	0.232390	0.078736	-0.001893
1333	6.6600e-01	-13.2847	1.958084	0.000023	0.227942	0.077229	-0.001857
1334	6.6650e-01	-13.2830	1.950430	-0.000019	-0.187914	-0.063667	-0.001531
1335	6.6700e-01	-13.3360	1.943953	0.000016	0.159004	0.053872	-0.001295
1336	6.6750e-01	-13.3905	1.934669	0.000023	0.227942	0.077229	-0.001857
1337	6.6800e-01	-13.4146	1.926109	0.000021	0.210152	0.071201	-0.001712
1338	6.6850e-01	-13.4419	1.916326	0.000024	0.240174	0.081373	-0.001957
1339	6.6900e-01	-13.4916	1.908718	0.000019	0.186802	0.063290	-0.001522
1340	6.6950e-01	-13.5526	1.900746	0.000020	0.195697	0.066304	-0.001594
1341	6.7000e-01	-13.5846	1.891507	0.000023	0.226831	0.076852	-0.001848
1342	6.7050e-01	-13.6215	1.881679	0.000024	0.241285	0.081750	-0.001966
1343	6.7100e-01	-13.6681	1.873980	0.000019	0.189025	0.064044	-0.001540
1344	6.7150e-01	-13.7210	1.865828	0.000020	0.200145	0.067811	-0.001630
1345	6.7200e-01	-13.7354	1.856769	0.000022	0.222383	0.075345	-0.001812
1346	6.7250e-01	-13.7691	1.847168	0.000024	0.235726	0.079866	-0.001920
1347	6.7300e-01	-13.8253	1.837974	0.000023	0.225719	0.076476	-0.001839
1348	6.7350e-01	-13.8654	1.830093	0.000019	0.193473	0.065550	-0.001576
1349	6.7400e-01	-13.8943	1.821262	0.000022	0.216823	0.073462	-0.001766
1350	6.7450e-01	-13.9729	1.811117	0.000025	0.249069	0.084387	-0.002029
1351	6.7500e-01	-14.0082	1.801062	0.000025	0.246845	0.083633	-0.002011
1352	6.7550e-01	-14.0050	1.792502	-0.000021	-0.210152	-0.071201	-0.001712
1353	6.7600e-01	-14.0595	1.783852	0.000021	0.212376	0.071955	-0.001730
1354	6.7650e-01	-14.0820	1.774205	0.000024	0.236838	0.080243	-0.001929
1355	6.7700e-01	-14.1333	1.764196	0.000025	0.245733	0.083257	-0.002002
1356	6.7750e-01	-14.1734	1.755002	0.000023	0.225719	0.076476	-0.001839
1357	6.7800e-01	-14.2055	1.745808	0.000023	0.225719	0.076476	-0.001839
1358	6.7850e-01	-14.2648	1.736116	0.000024	0.237950	0.080620	-0.001938
1359	6.7900e-01	-14.3434	1.726514	0.000024	0.235726	0.079866	-0.001920
1360	6.7950e-01	-14.3338	1.716822	-0.000024	-0.237950	-0.080620	-0.001938
1361	6.8000e-01	-14.3996	1.707492	0.000023	0.229054	0.077606	-0.001866
1362	6.8050e-01	-14.3836	1.698480	-0.000022	-0.221271	-0.074969	-0.001803
1363	6.8100e-01	-14.4926	1.687972	0.000026	0.257964	0.087401	-0.002101
1364	6.8150e-01	-14.4878	1.678008	-0.000024	-0.244621	-0.082880	-0.001993
1365	6.8200e-01	-14.5087	1.668814	0.000023	0.225719	0.076476	-0.001839
1366	6.8250e-01	-14.5729	1.658986	0.000024	0.241285	0.081750	-0.001966
1367	6.8300e-01	-14.6258	1.648434	0.000026	0.259076	0.087777	-0.002111
1368	6.8350e-01	-14.6755	1.638017	0.000026	0.255740	0.086647	-0.002083
1369	6.8400e-01	-14.7060	1.626604	0.000028	0.280202	0.094935	-0.002283
1370	6.8450e-01	-14.7381	1.617365	0.000023	0.226831	0.076852	-0.001848
1371	6.8500e-01	-14.7894	1.607038	0.000025	0.253517	0.085894	-0.002065
1372	6.8550e-01	-14.8392	1.597346	0.000024	0.237950	0.080620	-0.001938
1373	6.8600e-01	-14.8728	1.586884	0.000026	0.256852	0.087024	-0.002092
1374	6.8650e-01	-14.8809	1.577962	0.000022	0.219047	0.074215	-0.001784
1375	6.8700e-01	-14.9386	1.568813	0.000022	0.224607	0.076099	-0.001830
1376	6.8750e-01	-14.9819	1.558532	0.000025	0.252405	0.085517	-0.002056
1377	6.8800e-01	-15.0317	1.549112	0.000023	0.231278	0.078359	-0.001884
1378	6.8850e-01	-15.0557	1.538469	0.000026	0.261300	0.088531	-0.002129
1379	6.8900e-01	-15.1071	1.528188	0.000025	0.252405	0.085517	-0.002056
1380	6.8950e-01	-15.1295	1.517046	0.000027	0.273531	0.092675	-0.002228
1381	6.9000e-01	-15.2017	1.505860	0.000027	0.274643	0.093052	-0.002237
1382	6.9050e-01	-15.2097	1.493948	0.000029	0.292434	0.099079	-0.002382
1383	6.9100e-01	-15.2723	1.482807	0.000027	0.273531	0.092675	-0.002228
1384	6.9150e-01	-15.2787	1.470805	0.000029	0.294657	0.099833	-0.002400
1385	6.9200e-01	-15.3557	1.459799	0.000027	0.270195	0.091545	-0.002201
1386	6.9250e-01	-15.3830	1.448975	0.000027	0.265748	0.090038	-0.002165
1387	6.9300e-01	-15.3990	1.438332	0.000026	0.261300	0.088531	-0.002129
1388	6.9350e-01	-15.4504	1.428096	0.000025	0.251293	0.085140	-0.002047
1389	6.9400e-01	-15.4985	1.416955	0.000027	0.273531	0.092675	-0.002228
1390	6.9450e-01	-15.5450	1.405315	0.000029	0.285762	0.096819	-0.002328
1391	6.9500e-01	-15.5723	1.393041	0.000030	0.301329	0.102093	-0.002455
1392	6.9550e-01	-15.6252	1.383757	0.000023	0.227942	0.077229	-0.001857
1393	6.9600e-01	-15.6685	1.373793	0.000024	0.244621	0.082880	-0.001993
1394	6.9650e-01	-15.6830	1.361836	0.000029	0.293545	0.099456	-0.002391
1395	6.9700e-01	-15.7520	1.348929	0.000032	0.316896	0.107367	-0.002582
1396	6.9750e-01	-15.7840	1.337108	0.000029	0.290210	0.098326	-0.002364
1397	6.9800e-01	-15.8113	1.325785	0.000028	0.277979	0.094182	-0.002265
1398	6.9850e-01	-15.8514	1.315821	0.000024	0.244621	0.082880	-0.001993
1399	6.9900e-01	-15.8787	1.305223	0.000026	0.260188	0.088154	-0.002120
1400	6.9950e-01	-15.9284	1.292678	0.000031	0.308000	0.104353	-0.002509
1401	7.0000e-01	-15.9685	1.280223	0.000031	0.305777	0.103600	-0.002491
1402	7.0050e-01	-16.0247	1.268448	0.000029	0.289098	0.097949	-0.002355
1403	7.0100e-01	-16.0808	1.257850	0.000026	0.260188	0.088154	-0.002120
1404	7.0150e-01	-16.0937	1.246482	0.000028	0.279091	0.094558	-0.002274
1405	7.0200e-01	-16.1257	1.233121	0.000033	0.328015	0.111134	-0.002672
1406	7.0250e-01	-16.1963	1.221889	0.000028	0.275755	0.093428	-0.002246
1407	7.0300e-01	-16.2236	1.209887	0.000029	0.294657	0.099833	-0.002400
1408	7.0350e-01	-16.2701	1.199017	0.000027	0.266860	0.090414	-0.002174
1409	7.0400e-01	-16.3134	1.186336	0.000031	0.311336	0.105484	-0.002536
1410	7.0450e-01	-16.3487	1.173021	0.000033	0.326903	0.110758	-0.002663
1411	7.0500e-01	-16.3985	1.160928	0.000030	0.296881	0.100586	-0.002419
1412	7.0550e-01	-16.3888	1.149424	-0.000028	-0.282426	-0.095689	-0.002301
1413	7.0600e-01	-16.4642	1.137151	0.000030	0.301329	0.102093	-0.002455
1414	7.0650e-01	-16.5060	1.124288	0.000032	0.315784	0.106990	-0.002572
1415	7.0700e-01	-16.5156	1.111199	0.000032	0.321343	0.108874	-0.002618
1416	7.0750e-01	-16.5910	1.099379	0.000029	0.290210	0.098326	-0.002364
1417	7.0800e-01	-16.6086	1.086969	0.000030	0.304665	0.103223	-0.002482
1418	7.0850e-01	-16.6728	1.074288	0.000031	0.311336	0.105484	-0.002536
1419	7.0900e-01	-16.7177	1.061289	0.000032	0.319119	0.108121	-0.002600
1420	7.0950e-01	-16.7402	1.048789	0.000031	0.306888	0.103977	-0.002500
1421	7.1000e-01	-16.7915	1.036561	0.000030	0.300217	0.101716	-0.002446
1422	7.1050e-01	-16.8027	1.023517	0.000032	0.320231	0.108497	-0.002609
1423	7.1100e-01	-16.8653	1.010066	0.000033	0.330239	0.111888	-0.002690
1424	7.1150e-01	-16.8846	0.997022	0.000032	0.320231	0.108497	-0.002609
1425	7.1200e-01	-16.9311	0.984613	0.000030	0.304665	0.103223	-0.002482
1426	7.1250e-01	-17.0033	0.970754	0.000034	0.340246	0.115278	-0.002772
1427	7.1300e-01	-17.0113	0.956714	0.000034	0.344694	0.116785	-0.002808
1428	7.1350e-01	-17.0690	0.942991	0.000034	0.336910	0.114148	-0.002745
1429	7.1400e-01	-17.0771	0.930083	0.000032	0.316896	0.107367	-0.002582
1430	7.1450e-01	-17.1525	0.916179	0.000034	0.341358	0.115655	-0.002781
1431	7.1500e-01	-17.2022	0.902275	0.000034	0.341358	0.115655	-0.002781
1432	7.1550e-01	-17.2295	0.888371	0.000034	0.341358	0.115655	-0.002781
1433	7.1600e-01	-17.2680	0.875146	0.000032	0.324679	0.110004	-0.002645
1434	7.1650e-01	-17.2792	0.861151	0.000034	0.343582	0.116409	-0.002799
1435	7.1700e-01	-17.3562	0.847066	0.000035	0.345805	0.117162	-0.002817
1436	7.1750e-01	-17.3835	0.832392	0.000036	0.360260	0.122060	-0.002935
1437	7.1800e-01	-17.4300	0.818442	0.000034	0.342470	0.116032	-0.002790
1438	7.1850e-01	-17.4637	0.804584	0.000034	0.340246	0.115278	-0.002772
1439	7.1900e-01	-17.4926	0.790362	0.000035	0.349141	0.118292	-0.002844
1440	7.1950e-01	-17.5359	0.776232	0.000035	0.346917	0.117539	-0.002826
1441	7.2000e-01	-17.5744	0.761784	0.000035	0.354701	0.120176	-0.002890
1442	7.2050e-01	-17.6129	0.748333	0.000033	0.330239	0.111888	-0.002690
1443	7.2100e-01	-17.6514	0.734791	0.000033	0.332462	0.112641	-0.002708
1444	7.2150e-01	-17.6979	0.720570	0.000035	0.349141	0.118292	-0.002844
1445	7.2200e-01	-17.7701	0.706802	0.000034	0.338022	0.114525	-0.002754
1446	7.2250e-01	-17.7829	0.692309	0.000036	0.355813	0.120553	-0.002899
1447	7.2300e-01	-17.8070	0.677227	0.000037	0.370268	0.125450	-0.003016
1448	7.2350e-01	-17.8343	0.662689	0.000036	0.356925	0.120929	-0.002908
1449	7.2400e-01	-17.8792	0.647879	0.000036	0.363596	0.123190	-0.002962
1450	7.2450e-01	-17.9305	0.631665	0.000040	0.398065	0.134868	-0.003243
1451	7.2500e-01	-17.9610	0.614047	0.000043	0.432535	0.146547	-0.003524
1452	7.2550e-01	-18.0139	0.598829	0.000037	0.373603	0.126580	-0.003044
1453	7.2600e-01	-18.0572	0.582932	0.000039	0.390282	0.132231	-0.003179
1454	7.2650e-01	-18.0877	0.567443	0.000038	0.380275	0.128841	-0.003098
1455	7.2700e-01	-18.1439	0.552950	0.000036	0.355813	0.120553	-0.002899
1456	7.2750e-01	-18.1631	0.538050	0.000037	0.365820	0.123943	-0.002980
1457	7.2800e-01	-18.2289	0.522289	0.000039	0.386946	0.131101	-0.003152
1458	7.2850e-01	-18.2674	0.506256	0.000039	0.393618	0.133361	-0.003207
1459	7.2900e-01	-18.3043	0.489906	0.000040	0.401401	0.135998	-0.003270
1460	7.2950e-01	-18.3107	0.474281	0.000038	0.383611	0.129971	-0.003125
1461	7.3000e-01	-18.3989	0.461011	0.000033	0.325791	0.110381	-0.002654
1462	7.3050e-01	-18.4615	0.445386	0.000038	0.383611	0.129971	-0.003125
1463	7.3100e-01	-18.4647	0.428039	0.000043	0.425863	0.144286	-0.003469
1464	7.3150e-01	-18.5305	0.410421	0.000043	0.432535	0.146547	-0.003524
1465	7.3200e-01	-18.5497	0.393755	0.000041	0.409185	0.138635	-0.003333
1466	7.3250e-01	-18.5866	0.378356	0.000038	0.378051	0.128087	-0.003080
1467	7.3300e-01	-18.6139	0.363138	0.000037	0.373603	0.126580	-0.003044
1468	7.3350e-01	-18.6877	0.347196	0.000039	0.391394	0.132608	-0.003188
1469	7.3400e-01	-18.7054	0.329623	0.000043	0.431423	0.146170	-0.003515
1470	7.3450e-01	-18.7487	0.313047	0.000041	0.406961	0.137882	-0.003315
1471	7.3500e-01	-18.7695	0.297377	0.000038	0.384722	0.130347	-0.003134
1472	7.3550e-01	-18.8177	0.280846	0.000041	0.405849	0.137505	-0.003306
1473	7.3600e-01	-18.8690	0.264179	0.000041	0.409185	0.138635	-0.003333
1474	7.3650e-01	-18.9027	0.246153	0.000044	0.442542	0.149937	-0.003605
1475	7.3700e-01	-18.9636	0.228898	0.000042	0.423639	0.143533	-0.003451
1476	7.3750e-01	-18.9572	0.212185	-0.000041	-0.410296	-0.139012	-0.003342
1477	7.3800e-01	-19.0102	0.195156	0.000042	0.418080	0.141649	-0.003406
1478	7.3850e-01	-19.0583	0.177357	0.000044	0.436982	0.148054	-0.003560
1479	7.3900e-01	-19.0888	0.159150	0.000045	0.446990	0.151444	-0.003641
1480	7.3950e-01	-19.1433	0.141261	0.000044	0.439206	0.148807	-0.003578
1481	7.4000e-01	-19.1690	0.123371	0.000044	0.439206	0.148807	-0.003578
1482	7.4050e-01	-19.2011	0.105255	0.000044	0.444766	0.150691	-0.003623
1483	7.4100e-01	-19.2781	0.086867	0.000045	0.451437	0.152951	-0.003678
1484	7.4150e-01	-19.2813	0.069113	0.000044	0.435871	0.147677	-0.003551
1485	7.4200e-01	-19.3214	0.050725	0.000045	0.451437	0.152951	-0.003678
1486	7.4250e-01	-19.4032	0.032654	0.000044	0.443654	0.150314	-0.003614
1487	7.4300e-01	-19.4289	0.013949	0.000046	0.459221	0.155588	-0.003741
1488	7.4350e-01	-19.4802	-0.004212	0.000045	0.445878	0.151067	-0.003632
1489	7.4400e-01	-19.4994	-0.022917	0.000046	0.459221	0.155588	-0.003741
1490	7.4450e-01	-19.5508	-0.040852	0.000044	0.440318	0.149184	-0.003587
1491	7.4500e-01	-19.5877	-0.059647	0.000046	0.461445	0.156342	-0.003759
1492	7.4550e-01	-19.6486	-0.078896	0.000047	0.472564	0.160109	-0.003850
1493	7.4600e-01	-19.6775	-0.097465	0.000046	0.455885	0.154458	-0.003714
1494	7.4650e-01	-19.6679	-0.116215	-0.000046	-0.460333	-0.155965	-0.003750
1495	7.4700e-01	-19.7337	-0.135192	0.000047	0.465892	0.157849	-0.003795
1496	7.4750e-01	-19.8283	-0.155165	0.000049	0.490354	0.166137	-0.003995
1497	7.4800e-01	-19.8299	-0.175093	0.000049	0.489242	0.165760	-0.003986
1498	7.4850e-01	-19.8780	-0.195020	0.000049	0.489242	0.165760	-0.003986
1499	7.4900e-01	-19.8941	-0.214359	0.000047	0.474788	0.160862	-0.003868
1500	7.4950e-01	-19.9182	-0.235102	0.000051	0.509257	0.172541	-0.004149
1501	7.5000e-01	-19.9823	-0.254260	0.000047	0.470340	0.159355	-0.003832
1502	7.5050e-01	-19.9149	-0.274958	-0.000051	-0.508145	-0.172164	-0.004140
1503	7.5100e-01	-19.8572	-0.295067	-0.000049	-0.493690	-0.167267	-0.004022
1504	7.5150e-01	-19.8460	-0.314813	-0.000048	-0.484795	-0.164253	-0.003949
1505	7.5200e-01	-19.7994	-0.334605	-0.000049	-0.485907	-0.164630	-0.003958
1506	7.5250e-01	-19.7417	-0.352857	-0.000045	-0.448102	-0.151821	-0.003650
1507	7.5300e-01	-19.6920	-0.371200	-0.000045	-0.450325	-0.152574	-0.003669
1508	7.5350e-01	-19.6502	-0.388908	-0.000043	-0.434759	-0.147300	-0.003542
1509	7.5400e-01	-19.6246	-0.408157	-0.000047	-0.472564	-0.160109	-0.003850
1510	7.5450e-01	-19.5797	-0.425231	-0.000042	-0.419192	-0.142026	-0.003415
1511	7.5500e-01	-19.5845	-0.441264	0.000039	0.393618	0.133361	-0.003207
1512	7.5550e-01	-19.5267	-0.458882	-0.000043	-0.432535	-0.146547	-0.003524
1513	7.5600e-01	-19.4738	-0.475413	-0.000041	-0.405849	-0.137505	-0.003306
1514	7.5650e-01	-19.4449	-0.493167	-0.000044	-0.435871	-0.147677	-0.003551
1515	7.5700e-01	-19.3984	-0.509381	-0.000040	-0.398065	-0.134868	-0.003243
1516	7.5750e-01	-19.3390	-0.526365	-0.000042	-0.416968	-0.141273	-0.003397
1517	7.5800e-01	-19.3230	-0.543983	-0.000043	-0.432535	-0.146547	-0.003524
1518	7.5850e-01	-19.2973	-0.561238	-0.000042	-0.423639	-0.143533	-0.003451
1519	7.5900e-01	-19.2348	-0.579807	-0.000046	-0.455885	-0.154458	-0.003714
1520	7.5950e-01	-19.2059	-0.598059	-0.000045	-0.448102	-0.151821	-0.003650
1521	7.6000e-01	-19.1577	-0.615270	-0.000042	-0.422528	-0.143156	-0.003442
1522	7.6050e-01	-19.1160	-0.631755	-0.000040	-0.404737	-0.137129	-0.003297
1523	7.6100e-01	-19.0711	-0.647426	-0.000038	-0.384722	-0.130347	-0.003134
1524	7.6150e-01	-19.0406	-0.663549	-0.000040	-0.395842	-0.134115	-0.003225
1525	7.6200e-01	-18.9813	-0.680035	-0.000040	-0.404737	-0.137129	-0.003297
1526	7.6250e-01	-18.9540	-0.696022	-0.000039	-0.392506	-0.132985	-0.003198
1527	7.6300e-01	-18.9059	-0.713369	-0.000043	-0.425863	-0.144286	-0.003469
1528	7.6350e-01	-18.8497	-0.729719	-0.000040	-0.401401	-0.135998	-0.003270
1529	7.6400e-01	-18.8337	-0.743260	-0.000033	-0.332462	-0.112641	-0.002708
1530	7.6450e-01	-18.8080	-0.758568	-0.000038	-0.375827	-0.127334	-0.003062
1531	7.6500e-01	-18.7390	-0.774330	-0.000039	-0.386946	-0.131101	-0.003152
1532	7.6550e-01	-18.7214	-0.792582	-0.000045	-0.448102	-0.151821	-0.003650
1533	7.6600e-01	-18.6669	-0.808660	-0.000039	-0.394730	-0.133738	-0.003216
1534	7.6650e-01	-18.6460	-0.824330	-0.000038	-0.384722	-0.130347	-0.003134
1535	7.6700e-01	-18.6027	-0.839276	-0.000037	-0.366932	-0.124320	-0.002989
1536	7.6750e-01	-18.5513	-0.853316	-0.000034	-0.344694	-0.116785	-0.002808
1537	7.6800e-01	-18.5080	-0.870164	-0.000041	-0.413632	-0.140142	-0.003370
1538	7.6850e-01	-18.4952	-0.886061	-0.000039	-0.390282	-0.132231	-0.003179
1539	7.6900e-01	-18.4230	-0.900463	-0.000035	-0.353589	-0.119799	-0.002880
1540	7.6950e-01	-18.3973	-0.915817	-0.000038	-0.376939	-0.127710	-0.003071
1541	7.7000e-01	-18.3396	-0.930083	-0.000035	-0.350253	-0.118669	-0.002853
1542	7.7050e-01	-18.3155	-0.945708	-0.000038	-0.383611	-0.129971	-0.003125
1543	7.7100e-01	-18.2610	-0.960654	-0.000037	-0.366932	-0.124320	-0.002989
1544	7.7150e-01	-18.2129	-0.975509	-0.000036	-0.364708	-0.123566	-0.002971
1545	7.7200e-01	-18.1936	-0.990002	-0.000036	-0.355813	-0.120553	-0.002899
1546	7.7250e-01	-18.1631	-1.004541	-0.000036	-0.356925	-0.120929	-0.002908
1547	7.7300e-01	-18.0974	-1.019622	-0.000037	-0.370268	-0.125450	-0.003016
1548	7.7350e-01	-18.0556	-1.034206	-0.000036	-0.358037	-0.121306	-0.002917
1549	7.7400e-01	-18.0284	-1.048608	-0.000035	-0.353589	-0.119799	-0.002880
1550	7.7450e-01	-17.9514	-1.062693	-0.000035	-0.345805	-0.117162	-0.002817
1551	7.7500e-01	-17.9674	-1.076688	0.000034	0.343582	0.116409	-0.002799
1552	7.7550e-01	-17.8712	-1.091090	-0.000035	-0.353589	-0.119799	-0.002880
1553	7.7600e-01	-17.8776	-1.105312	0.000035	0.349141	0.118292	-0.002844
1554	7.7650e-01	-17.8278	-1.118944	-0.000033	-0.334686	-0.113395	-0.002726
1555	7.7700e-01	-17.7958	-1.132939	-0.000034	-0.343582	-0.116409	-0.002799
1556	7.7750e-01	-17.7685	-1.145801	-0.000032	-0.315784	-0.106990	-0.002572
1557	7.7800e-01	-17.7348	-1.159751	-0.000034	-0.342470	-0.116032	-0.002790
1558	7.7850e-01	-17.6931	-1.172749	-0.000032	-0.319119	-0.108121	-0.002600
1559	7.7900e-01	-17.6225	-1.186608	-0.000034	-0.340246	-0.115278	-0.002772
1560	7.7950e-01	-17.5680	-1.199606	-0.000032	-0.319119	-0.108121	-0.002600
1561	7.8000e-01	-17.5503	-1.212740	-0.000032	-0.322455	-0.109251	-0.002627
1562	7.8050e-01	-17.5118	-1.225603	-0.000032	-0.315784	-0.106990	-0.002572
1563	7.8100e-01	-17.4380	-1.238918	-0.000033	-0.326903	-0.110758	-0.002663
1564	7.8150e-01	-17.4188	-1.251101	-0.000030	-0.299105	-0.101340	-0.002437
1565	7.8200e-01	-17.4011	-1.264281	-0.000032	-0.323567	-0.109628	-0.002636
1566	7.8250e-01	-17.3353	-1.276872	-0.000031	-0.309112	-0.104730	-0.002518
1567	7.8300e-01	-17.3065	-1.288556	-0.000029	-0.286874	-0.097196	-0.002337
1568	7.8350e-01	-17.2327	-1.301283	-0.000031	-0.312448	-0.105860	-0.002545
1569	7.8400e-01	-17.2230	-1.313557	-0.000030	-0.301329	-0.102093	-0.002455
1570	7.8450e-01	-17.1926	-1.326102	-0.000031	-0.308000	-0.104353	-0.002509
1571	7.8500e-01	-17.1573	-1.338693	-0.000031	-0.309112	-0.104730	-0.002518
1572	7.8550e-01	-17.1107	-1.350242	-0.000028	-0.283538	-0.096065	-0.002310
1573	7.8600e-01	-17.0706	-1.363331	-0.000032	-0.321343	-0.108874	-0.002618
1574	7.8650e-01	-17.0273	-1.376918	-0.000033	-0.333574	-0.113018	-0.002717
1575	7.8700e-01	-16.9985	-1.387878	-0.000027	-0.269083	-0.091168	-0.002192
1576	7.8750e-01	-16.9391	-1.399835	-0.000029	-0.293545	-0.099456	-0.002391
1577	7.8800e-01	-16.9263	-1.412516	-0.000031	-0.311336	-0.105484	-0.002536
1578	7.8850e-01	-16.8557	-1.423884	-0.000028	-0.279091	-0.094558	-0.002274
1579	7.8900e-01	-16.8108	-1.434844	-0.000027	-0.269083	-0.091168	-0.002192
1580	7.8950e-01	-16.8011	-1.447073	-0.000030	-0.300217	-0.101716	-0.002446
1581	7.9000e-01	-16.7273	-1.459392	-0.000030	-0.302441	-0.102470	-0.002464
1582	7.9050e-01	-16.7097	-1.469627	-0.000025	-0.251293	-0.085140	-0.002047
1583	7.9100e-01	-16.6551	-1.481358	-0.000029	-0.287986	-0.097572	-0.002346
1584	7.9150e-01	-16.6006	-1.492816	-0.000028	-0.281314	-0.095312	-0.002292
1585	7.9200e-01	-16.5830	-1.504456	-0.000029	-0.285762	-0.096819	-0.002328
1586	7.9250e-01	-16.5477	-1.515552	-0.000027	-0.272419	-0.092298	-0.002219
1587	7.9300e-01	-16.5188	-1.528052	-0.000031	-0.306888	-0.103977	-0.002500
1588	7.9350e-01	-16.4546	-1.541413	-0.000033	-0.328015	-0.111134	-0.002672
1589	7.9400e-01	-16.4209	-1.554049	-0.000031	-0.310224	-0.105107	-0.002527
1590	7.9450e-01	-16.4081	-1.564918	-0.000027	-0.266860	-0.090414	-0.002174
1591	7.9500e-01	-16.3776	-1.575018	-0.000025	-0.247957	-0.084010	-0.002020
1592	7.9550e-01	-16.3343	-1.585888	-0.000027	-0.266860	-0.090414	-0.002174
1593	7.9600e-01	-16.2782	-1.597618	-0.000029	-0.287986	-0.097572	-0.002346
1594	7.9650e-01	-16.2830	-1.608714	0.000027	0.272419	0.092298	-0.002219
1595	7.9700e-01	-16.1995	-1.620580	-0.000029	-0.291322	-0.098702	-0.002373
1596	7.9750e-01	-16.1257	-1.631359	-0.000026	-0.264636	-0.089661	-0.002156
1597	7.9800e-01	-16.0921	-1.640780	-0.000023	-0.231278	-0.078359	-0.001884
1598	7.9850e-01	-16.0744	-1.650608	-0.000024	-0.241285	-0.081750	-0.001966
1599	7.9900e-01	-16.0295	-1.660889	-0.000025	-0.252405	-0.085517	-0.002056
1600	7.9950e-01	-15.9958	-1.673162	-0.000030	-0.301329	-0.102093	-0.002455
1601	8.0000e-01	-15.9573	-1.684802	-0.000029	-0.285762	-0.096819	-0.002328
1602	8.0050e-01	-15.8947	-1.694856	-0.000025	-0.246845	-0.083633	-0.002011
1603	8.0100e-01	-15.8450	-1.704911	-0.000025	-0.246845	-0.083633	-0.002011
1604	8.0150e-01	-15.8386	-1.714784	-0.000024	-0.242397	-0.082126	-0.001975
1605	8.0200e-01	-15.8177	-1.725790	-0.000027	-0.270195	-0.091545	-0.002201
1606	8.0250e-01	-15.7455	-1.736931	-0.000027	-0.273531	-0.092675	-0.002228
1607	8.0300e-01	-15.7167	-1.747620	-0.000026	-0.262412	-0.088908	-0.002138
1608	8.0350e-01	-15.6461	-1.757629	-0.000025	-0.245733	-0.083257	-0.002002
1609	8.0400e-01	-15.6284	-1.767774	-0.000025	-0.249069	-0.084387	-0.002029
1610	8.0450e-01	-15.5964	-1.777285	-0.000023	-0.233502	-0.079113	-0.001902
1611	8.0500e-01	-15.5819	-1.787611	-0.000025	-0.253517	-0.085894	-0.002065
1612	8.0550e-01	-15.5210	-1.798843	-0.000028	-0.275755	-0.093428	-0.002246
1613	8.0600e-01	-15.4472	-1.808581	-0.000024	-0.239062	-0.080996	-0.001947
1614	8.0650e-01	-15.4423	-1.818363	-0.000024	-0.240174	-0.081373	-0.001957
1615	8.0700e-01	-15.3669	-1.828554	-0.000025	-0.250181	-0.084764	-0.002038
1616	8.0750e-01	-15.3397	-1.838472	-0.000024	-0.243509	-0.082503	-0.001984
1617	8.0800e-01	-15.3140	-1.848527	-0.000025	-0.246845	-0.083633	-0.002011
1618	8.0850e-01	-15.2659	-1.858808	-0.000025	-0.252405	-0.085517	-0.002056
1619	8.0900e-01	-15.2210	-1.867911	-0.000022	-0.223495	-0.075722	-0.001821
1620	8.0950e-01	-15.1825	-1.878237	-0.000025	-0.253517	-0.085894	-0.002065
1621	8.1000e-01	-15.1648	-1.888292	-0.000025	-0.246845	-0.083633	-0.002011
1622	8.1050e-01	-15.1311	-1.898210	-0.000024	-0.243509	-0.082503	-0.001984
1623	8.1100e-01	-15.0702	-1.907676	-0.000023	-0.232390	-0.078736	-0.001893
1624	8.1150e-01	-15.0429	-1.916598	-0.000022	-0.219047	-0.074215	-0.001784
1625	8.1200e-01	-14.9916	-1.926698	-0.000025	-0.247957	-0.084010	-0.002020
1626	8.1250e-01	-14.9691	-1.936843	-0.000025	-0.249069	-0.084387	-0.002029
1627	8.1300e-01	-14.9113	-1.945312	-0.000021	-0.207928	-0.070448	-0.001694
1628	8.1350e-01	-14.8761	-1.953963	-0.000021	-0.212376	-0.071955	-0.001730
1629	8.1400e-01	-14.8343	-1.963881	-0.000024	-0.243509	-0.082503	-0.001984
1630	8.1450e-01	-14.7926	-1.973030	-0.000022	-0.224607	-0.076099	-0.001830
1631	8.1500e-01	-14.7541	-1.982179	-0.000022	-0.224607	-0.076099	-0.001830
1632	8.1550e-01	-14.6835	-1.990331	-0.000020	-0.200145	-0.067811	-0.001630
1633	8.1600e-01	-14.6531	-1.999978	-0.000024	-0.236838	-0.080243	-0.001929
1634	8.1650e-01	-14.6402	-2.009760	-0.000024	-0.240174	-0.081373	-0.001957
1635	8.1700e-01	-14.5825	-2.018320	-0.000021	-0.210152	-0.071201	-0.001712
1636	8.1750e-01	-14.5552	-2.027605	-0.000023	-0.227942	-0.077229	-0.001857
1637	8.1800e-01	-14.5231	-2.035576	-0.000020	-0.195697	-0.066304	-0.001594
1638	8.1850e-01	-14.4606	-2.045177	-0.000024	-0.235726	-0.079866	-0.001920
1639	8.1900e-01	-14.4461	-2.053964	-0.000022	-0.215711	-0.073085	-0.001757
1640	8.1950e-01	-14.3723	-2.062252	-0.000020	-0.203480	-0.068941	-0.001658
1641	8.2000e-01	-14.3499	-2.072080	-0.000024	-0.241285	-0.081750	-0.001966
1642	8.2050e-01	-14.3338	-2.080957	-0.000022	-0.217935	-0.073838	-0.001775
1643	8.2100e-01	-14.2648	-2.089200	-0.000020	-0.202368	-0.068564	-0.001649
1644	8.2150e-01	-14.2183	-2.097126	-0.000019	-0.194585	-0.065927	-0.001585
1645	8.2200e-01	-14.1975	-2.105867	-0.000021	-0.214600	-0.072708	-0.001748
1646	8.2250e-01	-14.1397	-2.113475	-0.000019	-0.186802	-0.063290	-0.001522
1647	8.2300e-01	-14.1092	-2.121356	-0.000019	-0.193473	-0.065550	-0.001576
1648	8.2350e-01	-14.0611	-2.129599	-0.000020	-0.202368	-0.068564	-0.001649
1649	8.2400e-01	-14.0499	-2.137977	-0.000021	-0.205704	-0.069694	-0.001676
1650	8.2450e-01	-13.9793	-2.145043	-0.000017	-0.173459	-0.058769	-0.001413
1651	8.2500e-01	-13.9616	-2.153512	-0.000021	-0.207928	-0.070448	-0.001694
1652	8.2550e-01	-13.9087	-2.161438	-0.000019	-0.194585	-0.065927	-0.001585
1653	8.2600e-01	-13.8622	-2.170134	-0.000021	-0.213488	-0.072332	-0.001739
1654	8.2650e-01	-13.8477	-2.178105	-0.000020	-0.195697	-0.066304	-0.001594
1655	8.2700e-01	-13.7483	-2.186393	-0.000020	-0.203480	-0.068941	-0.001658
1656	8.2750e-01	-13.7563	-2.197670	0.000028	0.276867	0.093805	-0.002255
1657	8.2800e-01	-13.7001	-2.206366	-0.000021	-0.213488	-0.072332	-0.001739
1658	8.2850e-01	-13.6681	-2.214428	-0.000020	-0.197921	-0.067057	-0.001612
1659	8.2900e-01	-13.6296	-2.221402	-0.000017	-0.171235	-0.058016	-0.001395
1660	8.2950e-01	-13.5670	-2.229328	-0.000019	-0.194585	-0.065927	-0.001585
1661	8.3000e-01	-13.5461	-2.237027	-0.000019	-0.189025	-0.064044	-0.001540
1662	8.3050e-01	-13.4996	-2.245180	-0.000020	-0.200145	-0.067811	-0.001630
1663	8.3100e-01	-13.4643	-2.253921	-0.000021	-0.214600	-0.072708	-0.001748
1664	8.3150e-01	-13.4114	-2.261122	-0.000018	-0.176794	-0.059900	-0.001440
1665	8.3200e-01	-13.3825	-2.268504	-0.000018	-0.181242	-0.061406	-0.001476
1666	8.3250e-01	-13.3456	-2.274573	-0.000015	-0.148997	-0.050481	-0.001214
1667	8.3300e-01	-13.3312	-2.281412	-0.000017	-0.167899	-0.056886	-0.001368
1668	8.3350e-01	-13.2494	-2.290198	-0.000022	-0.215711	-0.073085	-0.001757
1669	8.3400e-01	-13.2109	-2.298487	-0.000020	-0.203480	-0.068941	-0.001658
1670	8.3450e-01	-13.1964	-2.305914	-0.000018	-0.182354	-0.061783	-0.001486
1671	8.3500e-01	-13.1322	-2.313206	-0.000018	-0.179018	-0.060653	-0.001458
1672	8.3550e-01	-13.1050	-2.320543	-0.000018	-0.180130	-0.061030	-0.001467
1673	8.3600e-01	-13.0729	-2.327518	-0.000017	-0.171235	-0.058016	-0.001395
1674	8.3650e-01	-13.0344	-2.334809	-0.000018	-0.179018	-0.060653	-0.001458
1675	8.3700e-01	-13.0007	-2.342463	-0.000019	-0.187914	-0.063667	-0.001531
1676	8.3750e-01	-12.9558	-2.349846	-0.000018	-0.181242	-0.061406	-0.001476
1677	8.3800e-01	-12.8820	-2.357590	-0.000019	-0.190137	-0.064420	-0.001549
1678	8.3850e-01	-12.8659	-2.363478	-0.000014	-0.144549	-0.048974	-0.001178
1679	8.3900e-01	-12.9012	-2.369774	0.000015	0.154556	0.052365	-0.001259
1680	8.3950e-01	-12.7408	-2.377926	-0.000020	-0.200145	-0.067811	-0.001630
1681	8.4000e-01	-12.7232	-2.384719	-0.000017	-0.166787	-0.056509	-0.001359
1682	8.4050e-01	-12.7007	-2.392373	-0.000019	-0.187914	-0.063667	-0.001531
1683	8.4100e-01	-12.6398	-2.398669	-0.000015	-0.154556	-0.052365	-0.001259
1684	8.4150e-01	-12.6365	-2.405915	-0.000018	-0.177906	-0.060276	-0.001449
1685	8.4200e-01	-12.5948	-2.413343	-0.000018	-0.182354	-0.061783	-0.001486
1686	8.4250e-01	-12.5499	-2.420680	-0.000018	-0.180130	-0.061030	-0.001467
1687	8.4300e-01	-12.5242	-2.426794	-0.000015	-0.150108	-0.050858	-0.001223
1688	8.4350e-01	-12.4681	-2.432863	-0.000015	-0.148997	-0.050481	-0.001214
1689	8.4400e-01	-12.4537	-2.440472	-0.000019	-0.186802	-0.063290	-0.001522
1690	8.4450e-01	-12.3815	-2.448081	-0.000019	-0.186802	-0.063290	-0.001522
1691	8.4500e-01	-12.3430	-2.453742	-0.000014	-0.138989	-0.047091	-0.001132
1692	8.4550e-01	-12.2948	-2.459539	-0.000014	-0.142325	-0.048221	-0.001159
1693	8.4600e-01	-12.2628	-2.466604	-0.000017	-0.173459	-0.058769	-0.001413
1694	8.4650e-01	-12.2275	-2.473489	-0.000017	-0.169011	-0.057262	-0.001377
1695	8.4700e-01	-12.1633	-2.479512	-0.000015	-0.147885	-0.050105	-0.001205
1696	8.4750e-01	-12.1553	-2.485083	-0.000014	-0.136765	-0.046337	-0.001114
1697	8.4800e-01	-12.1264	-2.491106	-0.000015	-0.147885	-0.050105	-0.001205
1698	8.4850e-01	-12.0735	-2.497945	-0.000017	-0.167899	-0.056886	-0.001368
1699	8.4900e-01	-12.0301	-2.504648	-0.000016	-0.164563	-0.055756	-0.001341
1700	8.4950e-01	-11.9740	-2.510536	-0.000014	-0.144549	-0.048974	-0.001178
1701	8.5000e-01	-11.9387	-2.516107	-0.000014	-0.136765	-0.046337	-0.001114
1702	8.5050e-01	-11.9178	-2.522266	-0.000015	-0.151220	-0.051235	-0.001232
1703	8.5100e-01	-11.8441	-2.528833	-0.000016	-0.161228	-0.054625	-0.001313
1704	8.5150e-01	-11.8344	-2.534087	-0.000013	-0.128982	-0.043700	-0.001051
1705	8.5200e-01	-11.8120	-2.540518	-0.000016	-0.157892	-0.053495	-0.001286
1706	8.5250e-01	-11.7494	-2.546904	-0.000016	-0.156780	-0.053118	-0.001277
1707	8.5300e-01	-11.7141	-2.553109	-0.000015	-0.152332	-0.051612	-0.001241
1708	8.5350e-01	-11.6836	-2.559087	-0.000015	-0.146773	-0.049728	-0.001196
1709	8.5400e-01	-11.6451	-2.565066	-0.000015	-0.146773	-0.049728	-0.001196
1710	8.5450e-01	-11.5906	-2.570818	-0.000014	-0.141213	-0.047844	-0.001150
1711	8.5500e-01	-11.5392	-2.576524	-0.000014	-0.140101	-0.047468	-0.001141
1712	8.5550e-01	-11.5136	-2.582004	-0.000013	-0.134542	-0.045584	-0.001096
1713	8.5600e-01	-11.4574	-2.587847	-0.000014	-0.143437	-0.048598	-0.001168
1714	8.5650e-01	-11.4270	-2.592512	-0.000011	-0.114527	-0.038803	-0.000933
1715	8.5700e-01	-11.3820	-2.596905	-0.000011	-0.107856	-0.036543	-0.000879
1716	8.5750e-01	-11.3243	-2.602928	-0.000015	-0.147885	-0.050105	-0.001205
1717	8.5800e-01	-11.3130	-2.608635	-0.000014	-0.140101	-0.047468	-0.001141
1718	8.5850e-01	-11.2826	-2.614025	-0.000013	-0.132318	-0.044830	-0.001078
1719	8.5900e-01	-11.2312	-2.618191	-0.000010	-0.102296	-0.034659	-0.000833
1720	8.5950e-01	-11.1911	-2.623173	-0.000012	-0.122311	-0.041440	-0.000996
1721	8.6000e-01	-11.1639	-2.628653	-0.000013	-0.134542	-0.045584	-0.001096
1722	8.6050e-01	-11.1173	-2.633635	-0.000012	-0.122311	-0.041440	-0.000996
1723	8.6100e-01	-11.0580	-2.639432	-0.000014	-0.142325	-0.048221	-0.001159
1724	8.6150e-01	-10.9970	-2.645864	-0.000016	-0.157892	-0.053495	-0.001286
1725	8.6200e-01	-10.9778	-2.653563	-0.000019	-0.189025	-0.064044	-0.001540
1726	8.6250e-01	-10.9521	-2.658183	-0.000011	-0.113415	-0.038426	-0.000924
1727	8.6300e-01	-10.8863	-2.662531	-0.000011	-0.106744	-0.036166	-0.000870
1728	8.6350e-01	-10.8687	-2.667603	-0.000012	-0.124534	-0.042193	-0.001015
1729	8.6400e-01	-10.8414	-2.672630	-0.000012	-0.123423	-0.041817	-0.001005
1730	8.6450e-01	-10.7756	-2.678518	-0.000014	-0.144549	-0.048974	-0.001178
1731	8.6500e-01	-10.7243	-2.684451	-0.000015	-0.145661	-0.049351	-0.001187
1732	8.6550e-01	-10.6826	-2.689297	-0.000012	-0.118975	-0.040310	-0.000969
1733	8.6600e-01	-10.6778	-2.693871	-0.000011	-0.112303	-0.038049	-0.000915
1734	8.6650e-01	-10.6264	-2.698129	-0.000010	-0.104520	-0.035412	-0.000851
1735	8.6700e-01	-10.6008	-2.702250	-0.000010	-0.101184	-0.034282	-0.000824
1736	8.6750e-01	-10.5510	-2.707459	-0.000013	-0.127870	-0.043324	-0.001042
1737	8.6800e-01	-10.5157	-2.712486	-0.000012	-0.123423	-0.041817	-0.001005
1738	8.6850e-01	-10.4612	-2.717649	-0.000013	-0.126758	-0.042947	-0.001033
1739	8.6900e-01	-10.4371	-2.723310	-0.000014	-0.138989	-0.047091	-0.001132
1740	8.6950e-01	-10.3874	-2.728292	-0.000012	-0.122311	-0.041440	-0.000996
1741	8.7000e-01	-10.3168	-2.732278	-0.000010	-0.097848	-0.033152	-0.000797
1742	8.7050e-01	-10.3313	-2.735539	0.000008	0.080058	0.027124	-0.000652
1743	8.7100e-01	-10.2879	-2.741291	-0.000014	-0.141213	-0.047844	-0.001150
1744	8.7150e-01	-10.2350	-2.746771	-0.000013	-0.134542	-0.045584	-0.001096
1745	8.7200e-01	-10.2045	-2.752070	-0.000013	-0.130094	-0.044077	-0.001060
1746	8.7250e-01	-10.1500	-2.755331	-0.000008	-0.080058	-0.027124	-0.000652
1747	8.7300e-01	-10.1002	-2.758954	-0.000009	-0.088953	-0.030138	-0.000725
1748	8.7350e-01	-10.0906	-2.763800	-0.000012	-0.118975	-0.040310	-0.000969
1749	8.7400e-01	-10.0313	-2.769280	-0.000013	-0.134542	-0.045584	-0.001096
1750	8.7450e-01	-9.9880	-2.774307	-0.000012	-0.123423	-0.041817	-0.001005
1751	8.7500e-01	-9.9591	-2.777659	-0.000008	-0.082282	-0.027878	-0.000670
1752	8.7550e-01	-9.8917	-2.781508	-0.000009	-0.094513	-0.032022	-0.000770
1753	8.7600e-01	-9.8516	-2.787306	-0.000014	-0.142325	-0.048221	-0.001159
1754	8.7650e-01	-9.8500	-2.792016	-0.000012	-0.115639	-0.039180	-0.000942
1755	8.7700e-01	-9.8067	-2.795594	-0.000009	-0.087841	-0.029761	-0.000716
1756	8.7750e-01	-9.7473	-2.799217	-0.000009	-0.088953	-0.030138	-0.000725
1757	8.7800e-01	-9.7136	-2.804289	-0.000012	-0.124534	-0.042193	-0.001015
1758	8.7850e-01	-9.6687	-2.808864	-0.000011	-0.112303	-0.038049	-0.000915
1759	8.7900e-01	-9.6238	-2.813438	-0.000011	-0.112303	-0.038049	-0.000915
1760	8.7950e-01	-9.5869	-2.817016	-0.000009	-0.087841	-0.029761	-0.000716
1761	8.8000e-01	-9.5789	-2.820956	-0.000010	-0.096737	-0.032775	-0.000788
1762	8.8050e-01	-9.5147	-2.826210	-0.000013	-0.128982	-0.043700	-0.001051
1763	8.8100e-01	-9.4938	-2.830648	-0.000011	-0.108968	-0.036919	-0.000888
1764	8.8150e-01	-9.4233	-2.832958	-0.000006	-0.056708	-0.019213	-0.000462
1765	8.8200e-01	-9.4152	-2.837170	-0.000010	-0.103408	-0.035036	-0.000842
1766	8.8250e-01	-9.3591	-2.841835	-0.000011	-0.114527	-0.038803	-0.000933
1767	8.8300e-01	-9.2901	-2.846455	-0.000011	-0.113415	-0.038426	-0.000924
1768	8.8350e-01	-9.2853	-2.849444	-0.000007	-0.073386	-0.024864	-0.000598
1769	8.8400e-01	-9.2163	-2.853339	-0.000010	-0.095625	-0.032399	-0.000779
1770	8.8450e-01	-9.1923	-2.857098	-0.000009	-0.092289	-0.031268	-0.000752
1771	8.8500e-01	-9.1457	-2.861536	-0.000011	-0.108968	-0.036919	-0.000888
1772	8.8550e-01	-9.1185	-2.865205	-0.000009	-0.090065	-0.030515	-0.000734
1773	8.8600e-01	-9.0431	-2.868013	-0.000007	-0.068939	-0.023357	-0.000562
1774	8.8650e-01	-9.0382	-2.872814	-0.000012	-0.117863	-0.039933	-0.000960
1775	8.8700e-01	-8.9965	-2.876890	-0.000010	-0.100072	-0.033905	-0.000815
1776	8.8750e-01	-8.9709	-2.881374	-0.000011	-0.110080	-0.037296	-0.000897
1777	8.8800e-01	-8.9163	-2.884635	-0.000008	-0.080058	-0.027124	-0.000652
1778	8.8850e-01	-8.8891	-2.888394	-0.000009	-0.092289	-0.031268	-0.000752
1779	8.8900e-01	-8.8313	-2.892198	-0.000009	-0.093401	-0.031645	-0.000761
1780	8.8950e-01	-8.8008	-2.895504	-0.000008	-0.081170	-0.027501	-0.000661
1781	8.9000e-01	-8.7302	-2.899263	-0.000009	-0.092289	-0.031268	-0.000752
1782	8.9050e-01	-8.7126	-2.901301	-0.000005	-0.050036	-0.016953	-0.000408
1783	8.9100e-01	-8.6965	-2.904608	-0.000008	-0.081170	-0.027501	-0.000661
1784	8.9150e-01	-8.6452	-2.908955	-0.000011	-0.106744	-0.036166	-0.000870
1785	8.9200e-01	-8.5730	-2.911446	-0.000006	-0.061155	-0.020720	-0.000498
1786	8.9250e-01	-8.5377	-2.915251	-0.000009	-0.093401	-0.031645	-0.000761
1787	8.9300e-01	-8.5105	-2.917470	-0.000005	-0.054484	-0.018460	-0.000444
1788	8.9350e-01	-8.4671	-2.920957	-0.000009	-0.085617	-0.029008	-0.000697
1789	8.9400e-01	-8.3966	-2.924445	-0.000009	-0.085617	-0.029008	-0.000697
1790	8.9450e-01	-8.3885	-2.927434	-0.000007	-0.073386	-0.024864	-0.000598
1791	8.9500e-01	-8.3292	-2.931193	-0.000009	-0.092289	-0.031268	-0.000752
1792	8.9550e-01	-8.3099	-2.934952	-0.000009	-0.092289	-0.031268	-0.000752
1793	8.9600e-01	-8.2586	-2.940296	-0.000013	-0.131206	-0.044454	-0.001069
1794	8.9650e-01	-8.2169	-2.944146	-0.000009	-0.094513	-0.032022	-0.000770
1795	8.9700e-01	-8.1976	-2.946456	-0.000006	-0.056708	-0.019213	-0.000462
1796	8.9750e-01	-8.1415	-2.949626	-0.000008	-0.077834	-0.026371	-0.000634
1797	8.9800e-01	-8.1270	-2.952842	-0.000008	-0.078946	-0.026748	-0.000643
1798	8.9850e-01	-8.0356	-2.956420	-0.000009	-0.087841	-0.029761	-0.000716
1799	8.9900e-01	-8.0308	-2.960360	-0.000010	-0.096737	-0.032775	-0.000788
1800	8.9950e-01	-7.9971	-2.963259	-0.000007	-0.071163	-0.024111	-0.000580
1801	9.0000e-01	-7.9265	-2.965342	-0.000005	-0.051148	-0.017329	-0.000417
1802	9.0050e-01	-7.9153	-2.968059	-0.000007	-0.066715	-0.022604	-0.000543
1803	9.0100e-01	-7.8832	-2.970867	-0.000007	-0.068939	-0.023357	-0.000562
1804	9.0150e-01	-7.8287	-2.973494	-0.000006	-0.064491	-0.021850	-0.000525
1805	9.0200e-01	-7.8078	-2.976619	-0.000008	-0.076722	-0.025994	-0.000625
1806	9.0250e-01	-7.7533	-2.979835	-0.000008	-0.078946	-0.026748	-0.000643
1807	9.0300e-01	-7.6907	-2.983458	-0.000009	-0.088953	-0.030138	-0.000725
1808	9.0350e-01	-7.6811	-2.985813	-0.000006	-0.057820	-0.019590	-0.000471
1809	9.0400e-01	-7.6490	-2.989210	-0.000008	-0.083394	-0.028255	-0.000679
1810	9.0450e-01	-7.6057	-2.990795	-0.000004	-0.038917	-0.013185	-0.000317
1811	9.0500e-01	-7.5447	-2.993286	-0.000006	-0.061155	-0.020720	-0.000498
1812	9.0550e-01	-7.5158	-2.996638	-0.000008	-0.082282	-0.027878	-0.000670
1813	9.0600e-01	-7.4565	-3.000487	-0.000009	-0.094513	-0.032022	-0.000770
1814	9.0650e-01	-7.4212	-3.003024	-0.000006	-0.062267	-0.021097	-0.000507
1815	9.0700e-01	-7.3666	-3.004382	-0.000003	-0.033357	-0.011302	-0.000272
1816	9.0750e-01	-7.3426	-3.006919	-0.000006	-0.062267	-0.021097	-0.000507
1817	9.0800e-01	-7.3121	-3.010632	-0.000009	-0.091177	-0.030892	-0.000743
1818	9.0850e-01	-7.2575	-3.013622	-0.000007	-0.073386	-0.024864	-0.000598
1819	9.0900e-01	-7.2207	-3.015750	-0.000005	-0.052260	-0.017706	-0.000426
1820	9.0950e-01	-7.1950	-3.017471	-0.000004	-0.042253	-0.014316	-0.000344
1821	9.1000e-01	-7.1469	-3.020506	-0.000007	-0.074498	-0.025241	-0.000607
1822	9.1050e-01	-7.1100	-3.024038	-0.000009	-0.086729	-0.029385	-0.000707
1823	9.1100e-01	-7.0682	-3.026710	-0.000007	-0.065603	-0.022227	-0.000534
1824	9.1150e-01	-7.0217	-3.027843	-0.000003	-0.027798	-0.009418	-0.000226
1825	9.1200e-01	-6.9736	-3.030515	-0.000007	-0.065603	-0.022227	-0.000534
1826	9.1250e-01	-6.9640	-3.033957	-0.000008	-0.084506	-0.028631	-0.000688
1827	9.1300e-01	-6.9335	-3.036674	-0.000007	-0.066715	-0.022604	-0.000543
1828	9.1350e-01	-6.8838	-3.038350	-0.000004	-0.041141	-0.013939	-0.000335
1829	9.1400e-01	-6.8164	-3.040162	-0.000004	-0.044477	-0.015069	-0.000362
1830	9.1450e-01	-6.8132	-3.043604	-0.000008	-0.084506	-0.028631	-0.000688
1831	9.1500e-01	-6.7458	-3.046231	-0.000006	-0.064491	-0.021850	-0.000525
1832	9.1550e-01	-6.7185	-3.047680	-0.000004	-0.035581	-0.012055	-0.000290
1833	9.1600e-01	-6.7009	-3.049537	-0.000005	-0.045588	-0.015446	-0.000371
1834	9.1650e-01	-6.6351	-3.052390	-0.000007	-0.070051	-0.023734	-0.000571
1835	9.1700e-01	-6.5902	-3.055243	-0.000007	-0.070051	-0.023734	-0.000571
1836	9.1750e-01	-6.5517	-3.056829	-0.000004	-0.038917	-0.013185	-0.000317
1837	9.1800e-01	-6.5052	-3.058459	-0.000004	-0.040029	-0.013562	-0.000326
1838	9.1850e-01	-6.4667	-3.061041	-0.000006	-0.063379	-0.021473	-0.000516
1839	9.1900e-01	-6.4458	-3.063305	-0.000006	-0.055596	-0.018836	-0.000453
1840	9.1950e-01	-6.4185	-3.065207	-0.000005	-0.046700	-0.015823	-0.000380
1841	9.2000e-01	-6.3383	-3.066974	-0.000004	-0.043365	-0.014692	-0.000353
1842	9.2050e-01	-6.2774	-3.069193	-0.000005	-0.054484	-0.018460	-0.000444
1843	9.2100e-01	-6.2405	-3.072001	-0.000007	-0.068939	-0.023357	-0.000562
1844	9.2150e-01	-6.2164	-3.074175	-0.000005	-0.053372	-0.018083	-0.000435
1845	9.2200e-01	-6.2004	-3.075262	-0.000003	-0.026686	-0.009041	-0.000217
1846	9.2250e-01	-6.1474	-3.077345	-0.000005	-0.051148	-0.017329	-0.000417
1847	9.2300e-01	-6.1298	-3.080198	-0.000007	-0.070051	-0.023734	-0.000571
1848	9.2350e-01	-6.0897	-3.082463	-0.000006	-0.055596	-0.018836	-0.000453
1849	9.2400e-01	-6.0319	-3.084727	-0.000006	-0.055596	-0.018836	-0.000453
1850	9.2450e-01	-6.0079	-3.086177	-0.000004	-0.035581	-0.012055	-0.000290
1851	9.2500e-01	-5.9790	-3.088441	-0.000006	-0.055596	-0.018836	-0.000453
1852	9.2550e-01	-5.9196	-3.090162	-0.000004	-0.042253	-0.014316	-0.000344
1853	9.2600e-01	-5.8667	-3.091068	-0.000002	-0.022238	-0.007535	-0.000181
1854	9.2650e-01	-5.8314	-3.091249	-0.000000	-0.004448	-0.001507	-0.000036
1855	9.2700e-01	-5.7929	-3.093378	-0.000005	-0.052260	-0.017706	-0.000426
1856	9.2750e-01	-5.7592	-3.092789	0.000001	0.014455	0.004897	0.000118
1857	9.2800e-01	-5.7127	-3.095552	-0.000007	-0.067827	-0.022980	-0.000553
1858	9.2850e-01	-5.6437	-3.096911	-0.000003	-0.033357	-0.011302	-0.000272
1859	9.2900e-01	-5.6373	-3.098632	-0.000004	-0.042253	-0.014316	-0.000344
1860	9.2950e-01	-5.5699	-3.100579	-0.000005	-0.047812	-0.016199	-0.000389
1861	9.3000e-01	-5.5330	-3.102345	-0.000004	-0.043365	-0.014692	-0.000353
1862	9.3050e-01	-5.5073	-3.105833	-0.000009	-0.085617	-0.029008	-0.000697
1863	9.3100e-01	-5.4817	-3.108278	-0.000006	-0.060043	-0.020343	-0.000489
1864	9.3150e-01	-5.4496	-3.110588	-0.000006	-0.056708	-0.019213	-0.000462
1865	9.3200e-01	-5.3790	-3.112355	-0.000004	-0.043365	-0.014692	-0.000353
1866	9.3250e-01	-5.3293	-3.113170	-0.000002	-0.020014	-0.006781	-0.000163
1867	9.3300e-01	-5.3325	-3.114438	0.000003	0.031134	0.010548	-0.000254
1868	9.3350e-01	-5.2859	-3.115434	-0.000002	-0.024462	-0.008288	-0.000199
1869	9.3400e-01	-5.2250	-3.116974	-0.000004	-0.037805	-0.012809	-0.000308
1870	9.3450e-01	-5.2186	-3.119012	-0.000005	-0.050036	-0.016953	-0.000408
1871	9.3500e-01	-5.1753	-3.120326	-0.000003	-0.032246	-0.010925	-0.000263
1872	9.3550e-01	-5.1079	-3.119737	0.000001	0.014455	0.004897	0.000118
1873	9.3600e-01	-5.0630	-3.120643	-0.000002	-0.022238	-0.007535	-0.000181
1874	9.3650e-01	-5.0357	-3.122907	-0.000006	-0.055596	-0.018836	-0.000453
1875	9.3700e-01	-4.9972	-3.126078	-0.000008	-0.077834	-0.026371	-0.000634
1876	9.3750e-01	-4.9555	-3.127844	-0.000004	-0.043365	-0.014692	-0.000353
1877	9.3800e-01	-4.8785	-3.128659	-0.000002	-0.020014	-0.006781	-0.000163
1878	9.3850e-01	-4.8432	-3.128614	0.000000	0.001112	0.000377	0.000009
1879	9.3900e-01	-4.8287	-3.129791	-0.000003	-0.028910	-0.009795	-0.000236
1880	9.3950e-01	-4.7806	-3.131784	-0.000005	-0.048924	-0.016576	-0.000399
1881	9.4000e-01	-4.7886	-3.133958	0.000005	0.053372	0.018083	-0.000435
1882	9.4050e-01	-4.7116	-3.134411	-0.000001	-0.011119	-0.003767	-0.000091
1883	9.4100e-01	-4.6635	-3.135226	-0.000002	-0.020014	-0.006781	-0.000163
1884	9.4150e-01	-4.6266	-3.135996	-0.000002	-0.018903	-0.006404	-0.000154
1885	9.4200e-01	-4.5897	-3.137672	-0.000004	-0.041141	-0.013939	-0.000335
1886	9.4250e-01	-4.5608	-3.139438	-0.000004	-0.043365	-0.014692	-0.000353
1887	9.4300e-01	-4.5175	-3.139801	-0.000001	-0.008895	-0.003014	-0.000072
1888	9.4350e-01	-4.5047	-3.140842	-0.000003	-0.025574	-0.008665	-0.000208
1889	9.4400e-01	-4.4501	-3.141929	-0.000003	-0.026686	-0.009041	-0.000217
1890	9.4450e-01	-4.3796	-3.143288	-0.000003	-0.033357	-0.011302	-0.000272
1891	9.4500e-01	-4.3475	-3.144420	-0.000003	-0.027798	-0.009418	-0.000226
1892	9.4550e-01	-4.3122	-3.145417	-0.000002	-0.024462	-0.008288	-0.000199
1893	9.4600e-01	-4.2657	-3.146096	-0.000002	-0.016679	-0.005651	-0.000136
1894	9.4650e-01	-4.2015	-3.147455	-0.000003	-0.033357	-0.011302	-0.000272
1895	9.4700e-01	-4.2159	-3.148994	0.000004	0.037805	0.012809	-0.000308
1896	9.4750e-01	-4.1758	-3.149764	-0.000002	-0.018903	-0.006404	-0.000154
1897	9.4800e-01	-4.1068	-3.150398	-0.000002	-0.015567	-0.005274	-0.000127
1898	9.4850e-01	-4.0956	-3.151621	-0.000003	-0.030022	-0.010172	-0.000245
1899	9.4900e-01	-4.0154	-3.152210	-0.000001	-0.014455	-0.004897	-0.000118
1900	9.4950e-01	-3.9994	-3.153524	-0.000003	-0.032246	-0.010925	-0.000263
1901	9.5000e-01	-3.9609	-3.153705	-0.000000	-0.004448	-0.001507	-0.000036
1902	9.5050e-01	-3.9063	-3.154837	-0.000003	-0.027798	-0.009418	-0.000226
1903	9.5100e-01	-3.8678	-3.155833	-0.000002	-0.024462	-0.008288	-0.000199
1904	9.5150e-01	-3.8277	-3.156603	-0.000002	-0.018903	-0.006404	-0.000154
1905	9.5200e-01	-3.7699	-3.157464	-0.000002	-0.021126	-0.007158	-0.000172
1906	9.5250e-01	-3.7395	-3.157871	-0.000001	-0.010007	-0.003391	-0.000082
1907	9.5300e-01	-3.7010	-3.159140	-0.000003	-0.031134	-0.010548	-0.000254
1908	9.5350e-01	-3.6817	-3.160589	-0.000004	-0.035581	-0.012055	-0.000290
1909	9.5400e-01	-3.6079	-3.161268	-0.000002	-0.016679	-0.005651	-0.000136
1910	9.5450e-01	-3.6015	-3.161993	-0.000002	-0.017791	-0.006028	-0.000145
1911	9.5500e-01	-3.5614	-3.162536	-0.000001	-0.013343	-0.004521	-0.000109
1912	9.5550e-01	-3.4892	-3.163216	-0.000002	-0.016679	-0.005651	-0.000136
1913	9.5600e-01	-3.4667	-3.164167	-0.000002	-0.023350	-0.007911	-0.000190
1914	9.5650e-01	-3.4186	-3.164438	-0.000001	-0.006671	-0.002260	-0.000054
1915	9.5700e-01	-3.3930	-3.164982	-0.000001	-0.013343	-0.004521	-0.000109
1916	9.5750e-01	-3.3416	-3.165616	-0.000002	-0.015567	-0.005274	-0.000127
1917	9.5800e-01	-3.2887	-3.166386	-0.000002	-0.018903	-0.006404	-0.000154
1918	9.5850e-01	-3.2887	-3.167337	0.000002	0.023350	0.007911	-0.000190
1919	9.5900e-01	-3.2406	-3.167835	-0.000001	-0.012231	-0.004144	-0.000100
1920	9.5950e-01	-3.1972	-3.169330	-0.000004	-0.036693	-0.012432	-0.000299
1921	9.6000e-01	-3.1764	-3.169828	-0.000001	-0.012231	-0.004144	-0.000100
1922	9.6050e-01	-3.1074	-3.170236	-0.000001	-0.010007	-0.003391	-0.000082
1923	9.6100e-01	-3.0817	-3.170417	-0.000000	-0.004448	-0.001507	-0.000036
1924	9.6150e-01	-3.0240	-3.170553	-0.000000	-0.003336	-0.001130	-0.000027
1925	9.6200e-01	-2.9935	-3.167926	0.000006	0.064491	0.021850	0.000525
1926	9.6250e-01	-2.9598	-3.168832	-0.000002	-0.022238	-0.007535	-0.000181
1927	9.6300e-01	-2.8924	-3.169285	-0.000001	-0.011119	-0.003767	-0.000091
1928	9.6350e-01	-2.8700	-3.170009	-0.000002	-0.017791	-0.006028	-0.000145
1929	9.6400e-01	-2.8331	-3.170326	-0.000001	-0.007783	-0.002637	-0.000063
1930	9.6450e-01	-2.8074	-3.172319	-0.000005	-0.048924	-0.016576	-0.000399
1931	9.6500e-01	-2.7561	-3.173859	-0.000004	-0.037805	-0.012809	-0.000308
1932	9.6550e-01	-2.7256	-3.173542	0.000001	0.007783	0.002637	0.000063
1933	9.6600e-01	-2.6791	-3.174312	-0.000002	-0.018903	-0.006404	-0.000154
1934	9.6650e-01	-2.6342	-3.174629	-0.000001	-0.007783	-0.002637	-0.000063
1935	9.6700e-01	-2.5716	-3.176123	-0.000004	-0.036693	-0.012432	-0.000299
1936	9.6750e-01	-2.5539	-3.176576	-0.000001	-0.011119	-0.003767	-0.000091
1937	9.6800e-01	-2.5026	-3.176078	0.000001	0.012231	0.004144	0.000100
1938	9.6850e-01	-2.4609	-3.176667	-0.000001	-0.014455	-0.004897	-0.000118
1939	9.6900e-01	-2.4400	-3.176622	0.000000	0.001112	0.000377	0.000009
1940	9.6950e-01	-2.3903	-3.176033	0.000001	0.014455	0.004897	0.000118
1941	9.7000e-01	-2.3743	-3.176259	-0.000001	-0.005560	-0.001884	-0.000045
1942	9.7050e-01	-2.3117	-3.176486	-0.000001	-0.005560	-0.001884	-0.000045
1943	9.7100e-01	-2.2588	-3.176939	-0.000001	-0.011119	-0.003767	-0.000091
1944	9.7150e-01	-2.2652	-3.177074	0.000000	0.003336	0.001130	-0.000027
1945	9.7200e-01	-2.1930	-3.178026	-0.000002	-0.023350	-0.007911	-0.000190
1946	9.7250e-01	-2.1513	-3.178388	-0.000001	-0.008895	-0.003014	-0.000072
1947	9.7300e-01	-2.1064	-3.177663	0.000002	0.017791	0.006028	0.000145
1948	9.7350e-01	-2.0550	-3.177618	0.000000	0.001112	0.000377	0.000009
1949	9.7400e-01	-2.0085	-3.178207	-0.000001	-0.014455	-0.004897	-0.000118
1950	9.7450e-01	-2.0021	-3.178479	-0.000001	-0.006671	-0.002260	-0.000054
1951	9.7500e-01	-1.9459	-3.179430	-0.000002	-0.023350	-0.007911	-0.000190
1952	9.7550e-01	-1.9395	-3.178343	0.000003	0.026686	0.009041	0.000217
1953	9.7600e-01	-1.8593	-3.178252	0.000000	0.002224	0.000753	0.000018
1954	9.7650e-01	-1.8304	-3.179067	-0.000002	-0.020014	-0.006781	-0.000163
1955	9.7700e-01	-1.7919	-3.179747	-0.000002	-0.016679	-0.005651	-0.000136
1956	9.7750e-01	-1.7470	-3.179611	0.000000	0.003336	0.001130	0.000027
1957	9.7800e-01	-1.6957	-3.178207	0.000003	0.034469	0.011679	0.000281
1958	9.7850e-01	-1.6588	-3.178252	-0.000000	-0.001112	-0.000377	-0.000009
1959	9.7900e-01	-1.6379	-3.178524	-0.000001	-0.006671	-0.002260	-0.000054
1960	9.7950e-01	-1.6058	-3.179294	-0.000002	-0.018903	-0.006404	-0.000154
1961	9.8000e-01	-1.5433	-3.178161	0.000003	0.027798	0.009418	0.000226
1962	9.8050e-01	-1.5016	-3.178524	-0.000001	-0.008895	-0.003014	-0.000072
1963	9.8100e-01	-1.4807	-3.178796	-0.000001	-0.006671	-0.002260	-0.000054
1964	9.8150e-01	-1.4037	-3.179113	-0.000001	-0.007783	-0.002637	-0.000063
1965	9.8200e-01	-1.3636	-3.178660	0.000001	0.011119	0.003767	0.000091
1966	9.8250e-01	-1.3796	-3.177935	-0.000002	-0.017791	-0.006028	0.000145
1967	9.8300e-01	-1.3379	-3.177844	0.000000	0.002224	0.000753	0.000018
1968	9.8350e-01	-1.2465	-3.178886	-0.000003	-0.025574	-0.008665	-0.000208
1969	9.8400e-01	-1.2513	-3.178433	-0.000001	-0.011119	-0.003767	0.000091
1970	9.8450e-01	-1.1903	-3.178161	0.000001	0.006671	0.002260	0.000054
1971	9.8500e-01	-1.1583	-3.177754	0.000001	0.010007	0.003391	0.000082
1972	9.8550e-01	-1.0796	-3.178026	-0.000001	-0.006671	-0.002260	-0.000054
1973	9.8600e-01	-1.0780	-3.177844	0.000000	0.004448	0.001507	0.000036
1974	9.8650e-01	-1.0251	-3.176984	0.000002	0.021126	0.007158	0.000172
1975	9.8700e-01	-0.9834	-3.176169	0.000002	0.020014	0.006781	0.000163
1976	9.8750e-01	-0.9529	-3.176169	0.000000	0.000000	0.000000	0.000000
1977	9.8800e-01	-0.9112	-3.177029	-0.000002	-0.021126	-0.007158	-0.000172
1978	9.8850e-01	-0.8727	-3.176214	0.000002	0.020014	0.006781	0.000163
1979	9.8900e-01	-0.8182	-3.175716	0.000001	0.012231	0.004144	0.000100
1980	9.8950e-01	-0.7764	-3.175535	0.000000	0.004448	0.001507	0.000036
1981	9.9000e-01	-0.7636	-3.175806	-0.000001	-0.006671	-0.002260	-0.000054
1982	9.9050e-01	-0.7043	-3.175218	0.000001	0.014455	0.004897	0.000118
1983	9.9100e-01	-0.6481	-3.174765	0.000001	0.011119	0.003767	0.000091
1984	9.9150e-01	-0.6144	-3.174493	0.000001	0.006671	0.002260	0.000054
1985	9.9200e-01	-0.6048	-3.174901	-0.000001	-0.010007	-0.003391	-0.000082
1986	9.9250e-01	-0.5486	-3.174719	0.000000	0.004448	0.001507	0.000036
1987	9.9300e-01	-0.5230	-3.173859	0.000002	0.021126	0.007158	0.000172
1988	9.9350e-01	-0.4845	-3.173361	0.000001	0.012231	0.004144	0.000100
1989	9.9400e-01	-0.4123	-3.174176	-0.000002	-0.020014	-0.006781	-0.000163
1990	9.9450e-01	-0.3818	-3.173497	0.000002	0.016679	0.005651	0.000136
1991	9.9500e-01	-0.3706	-3.172772	0.000002	0.017791	0.006028	0.000145
1992	9.9550e-01	-0.3112	-3.171368	0.000003	0.034469	0.011679	0.000281
1993	9.9600e-01	-0.2647	-3.170372	0.000002	0.024462	0.008288	0.000199
1994	9.9650e-01	-0.2390	-3.169420	0.000002	0.023350	0.007911	0.000190
1995	9.9700e-01	-0.1829	-3.168424	0.000002	0.024462	0.008288	0.000199
1996	9.9750e-01	-0.1684	-3.167518	0.000002	0.022238	0.007535	0.000181
1997	9.9800e-01	-0.1043	-3.166839	0.000002	0.016679	0.005651	0.000136
1998	9.9850e-01	-0.0481	-3.167428	-0.000001	-0.014455	-0.004897	-0.000118
1999	9.9900e-01	-0.0112	-3.168107	-0.000002	-0.016679	-0.005651	-0.000136
2000	9.9950e-01	0.0160	-3.167790	0.000001	0.007783	0.002637	0.000063
2001	1.0000e+00	0.0225	-3.167156	0.000001	0.007783	0.002637	0.000127

Center data before PMax,+/-Pr and +/-Vc Calc.

PMax (uC/cm2):	1.14e+00
Pr (uC/cm2):	3.16e+00
-Pr (uC/cm2):	-3.17e+00
PLoss (uC/cm2):	-2.07e+00
Vc:	1.50e+01
-Vc:	-1.95e+01
C (Max-Eff) (nF):	5.69e-03
K (Eff):	1.93e+01
Vert. (+/-Pr) Shift (uC/cm2):	-1.65e-03
Horiz. Shift (+/-Vc):	-2.25e+00
Offset (uC/cm2):	1.10e+00

A (Loop Area - uC/cm2·Volts):	-9.40e-02



Hysteresis Version: 5.48.1 - Radiant Technologies, Inc., 1999 - 9/12/24

