»»»»»»»»»»»»»»»»»»»»»»»»»»»»»»»»»»»» Hysteresis ««««««««««««««««««««««««««««««««««««
»»»  Executed Version:	5.48.1
»»»  Vision Version:	5.48.4 (R)
»»»  Vision Compiled:	9/18/24
»»»  Driver Version:	5.47.0
»»»  Windows Version:	Windows 8 or 8.1
»»»  Processor Information:	x86 (AMD or Intel) - 32 Processors
»»»  Tester Name:	PMF21124-494 (100V)
»»»  Tester S/N:	PMF21124-494
»»»  Internal Amp Type:	100V RevK 270k
»»»  Internal Amp S/N:	iAB2-596/K     
»»»  Execution Count:	1
»»»»»»»»»»»»»»»»»»»»»»»»»»»»»»»»»»»»»»»»»»««««««««««««««««««««««««««««««««««««««««««

Stored:	6/11/2025 - 11:35:23
Configured:	06/11/25 10:21:25 AM
Executed:	06/11/25 11:34:55 AM

»»»»»»»»»»»»»»»»»»»»»»»»»»»»»»»»»»» Sample Info ««««««««««««««««««««««««««««««««««««
Sample Name:	
Lot Name:	
Wafer Name:	
Die Row/Column:	0/0
Capacitor Number:	0
Sample Area (cm2):	1.00e-04
Sample Thickness (microns):	3.00e-01

Amplifier:	Internal

»»»»»»»»»»»»»»»»»»»»»»»»»»»»»»»»»»» Tester Info «««««««««««««««««««««««««««««««««««
Tester Name:	PMF21124-494 (100V)
Tester Serial Number:	PMF21124-494
Return Signal Amp. Level:	100.0 [Index: 0]

»»»»»»»»»»»»»»»»»»»»»»»»»»»»»»»» Hysteresis Info ««««««««««««««««««««««««««««««««««
Task Name:	Hyst-1175
Volts:	20.00
Field:	666.67 (kV/cm)
DCBias:	0.00
DCField:	0.00 (kV/cm)
Hysteresis Period (ms):	1.00e+00
Preset:	Enabled
Preset Delay (ms):	1.00e+03
Profile:	Standard Bipolar

»»»»»»»»»»»»»»»»»»»»»»»»»»»»»»»»»»»»»» Data «««««««««««««««««««««««««««««««««««««««
Points:	2001

Valid Data

Point	Time (ms)	Drive Voltage	Measured Polarization (uC/cm2)	Capacitance (uF)	Normalized Capacitance (uF/cm2)	Dielectric Constant	Instantaneous Current (mA)
   1	0.0000e+00	0.0305	-0.085977	0.000001	0.007509	0.002544	0.000061
   2	5.0000e-04	0.0834	-0.085671	0.000001	0.007509	0.002544	0.000061
   3	1.0000e-03	0.1556	-0.085663	0.000000	0.000203	0.000069	0.000002
   4	1.5000e-03	0.1620	-0.085481	0.000000	0.004465	0.001513	0.000036
   5	2.0000e-03	0.2150	-0.085481	0.000000	0.000000	0.000000	0.000000
   6	2.5000e-03	0.2406	-0.085291	0.000000	0.004668	0.001582	0.000038
   7	3.0000e-03	0.2856	-0.084961	0.000001	0.008118	0.002751	0.000066
   8	3.5000e-03	0.3080	-0.084754	0.000001	0.005074	0.001719	0.000041
   9	4.0000e-03	0.3577	-0.084481	0.000001	0.006698	0.002269	0.000055
  10	4.5000e-03	0.4267	-0.084291	0.000000	0.004668	0.001582	0.000038
  11	5.0000e-03	0.4524	-0.083928	0.000001	0.008930	0.003026	0.000073
  12	5.5000e-03	0.4813	-0.083688	0.000001	0.005886	0.001994	0.000048
  13	6.0000e-03	0.5069	-0.083647	0.000000	0.001015	0.000344	0.000008
  14	6.5000e-03	0.5743	-0.083374	0.000001	0.006698	0.002269	0.000055
  15	7.0000e-03	0.5855	-0.083134	0.000001	0.005886	0.001994	0.000048
  16	7.5000e-03	0.6529	-0.082887	0.000001	0.006089	0.002063	0.000050
  17	8.0000e-03	0.6706	-0.082796	0.000000	0.002233	0.000756	0.000018
  18	8.5000e-03	0.7492	-0.082523	0.000001	0.006698	0.002269	0.000055
  19	9.0000e-03	0.7829	-0.082209	0.000001	0.007712	0.002613	0.000063
  20	9.5000e-03	0.8053	-0.081862	0.000001	0.008524	0.002888	0.000069
  21	1.0000e-02	0.8502	-0.081796	0.000000	0.001624	0.000550	0.000013
  22	1.0500e-02	0.8952	-0.081722	0.000000	0.001827	0.000619	0.000015
  23	1.1000e-02	0.9224	-0.081432	0.000001	0.007103	0.002407	0.000058
  24	1.1500e-02	0.9593	-0.081011	0.000001	0.010351	0.003507	0.000084
  25	1.2000e-02	1.0155	-0.080846	0.000000	0.004059	0.001375	0.000033
  26	1.2500e-02	1.0652	-0.080631	0.000001	0.005277	0.001788	0.000043
  27	1.3000e-02	1.0829	-0.080325	0.000001	0.007509	0.002544	0.000061
  28	1.3500e-02	1.1214	-0.080036	0.000001	0.007103	0.002407	0.000058
  29	1.4000e-02	1.1663	-0.079722	0.000001	0.007712	0.002613	0.000063
  30	1.4500e-02	1.1952	-0.079706	0.000000	0.000406	0.000138	0.000003
  31	1.5000e-02	1.2625	-0.079358	0.000001	0.008524	0.002888	0.000069
  32	1.5500e-02	1.2706	-0.079044	0.000001	0.007712	0.002613	0.000063
  33	1.6000e-02	1.3299	-0.078656	0.000001	0.009539	0.003232	0.000078
  34	1.6500e-02	1.3540	-0.078367	0.000001	0.007103	0.002407	0.000058
  35	1.7000e-02	1.3877	-0.078003	0.000001	0.008930	0.003026	0.000073
  36	1.7500e-02	1.4262	-0.077508	0.000001	0.012177	0.004126	0.000099
  37	1.8000e-02	1.4534	-0.077408	0.000000	0.002435	0.000825	0.000020
  38	1.8500e-02	1.5192	-0.077640	-0.000001	-0.005683	-0.001925	-0.000046
  39	1.9000e-02	1.5802	-0.077780	-0.000000	-0.003450	-0.001169	-0.000028
  40	1.9500e-02	1.6363	-0.077665	0.000000	0.002841	0.000963	0.000023
  41	2.0000e-02	1.6492	-0.077590	0.000000	0.001827	0.000619	0.000015
  42	2.0500e-02	1.7053	-0.077384	0.000001	0.005074	0.001719	0.000041
  43	2.1000e-02	1.7663	-0.077342	0.000000	0.001015	0.000344	0.000008
  44	2.1500e-02	1.7935	-0.077119	0.000001	0.005480	0.001857	0.000045
  45	2.2000e-02	1.8256	-0.076756	0.000001	0.008930	0.003026	0.000073
  46	2.2500e-02	1.8545	-0.076252	0.000001	0.012380	0.004195	0.000101
  47	2.3000e-02	1.8818	-0.075789	0.000001	0.011366	0.003851	0.000093
  48	2.3500e-02	1.9026	-0.075392	0.000001	0.009742	0.003301	0.000079
  49	2.4000e-02	1.9796	-0.075599	-0.000001	-0.005074	-0.001719	-0.000041
  50	2.4500e-02	2.0133	-0.075789	-0.000000	-0.004668	-0.001582	-0.000038
  51	2.5000e-02	2.0550	-0.075863	-0.000000	-0.001827	-0.000619	-0.000015
  52	2.5500e-02	2.0646	-0.075822	0.000000	0.001015	0.000344	0.000008
  53	2.6000e-02	2.1160	-0.075054	0.000002	0.018875	0.006395	0.000154
  54	2.6500e-02	2.1481	-0.074219	0.000002	0.020499	0.006945	0.000167
  55	2.7000e-02	2.1930	-0.073781	0.000001	0.010757	0.003644	0.000088
  56	2.7500e-02	2.2283	-0.073599	0.000000	0.004465	0.001513	0.000036
  57	2.8000e-02	2.2572	-0.073277	0.000001	0.007915	0.002682	0.000064
  58	2.8500e-02	2.3069	-0.072881	0.000001	0.009742	0.003301	0.000079
  59	2.9000e-02	2.3678	-0.072484	0.000001	0.009742	0.003301	0.000079
  60	2.9500e-02	2.4160	-0.072054	0.000001	0.010554	0.003576	0.000086
  61	3.0000e-02	2.4368	-0.071980	0.000000	0.001827	0.000619	0.000015
  62	3.0500e-02	2.4914	-0.072401	-0.000001	-0.010351	-0.003507	-0.000084
  63	3.1000e-02	2.5315	-0.072525	-0.000000	-0.003044	-0.001031	-0.000025
  64	3.1500e-02	2.5780	-0.072129	0.000001	0.009742	0.003301	0.000079
  65	3.2000e-02	2.6325	-0.071625	0.000001	0.012380	0.004195	0.000101
  66	3.2500e-02	2.6582	-0.071302	0.000001	0.007915	0.002682	0.000064
  67	3.3000e-02	2.7095	-0.070964	0.000001	0.008321	0.002819	0.000068
  68	3.3500e-02	2.7336	-0.070509	0.000001	0.011163	0.003782	0.000091
  69	3.4000e-02	2.7753	-0.070410	0.000000	0.002435	0.000825	0.000020
  70	3.4500e-02	2.7978	-0.070542	-0.000000	-0.003247	-0.001100	-0.000026
  71	3.5000e-02	2.8539	-0.070294	0.000001	0.006089	0.002063	0.000050
  72	3.5500e-02	2.9005	-0.069799	0.000001	0.012177	0.004126	0.000099
  73	3.6000e-02	2.9165	-0.069385	0.000001	0.010148	0.003438	0.000083
  74	3.6500e-02	2.9823	-0.069129	0.000001	0.006292	0.002132	0.000051
  75	3.7000e-02	2.9919	-0.069278	-0.000000	-0.003653	-0.001238	-0.000030
  76	3.7500e-02	3.0641	-0.069146	0.000000	0.003247	0.001100	0.000026
  77	3.8000e-02	3.1026	-0.068650	0.000001	0.012177	0.004126	0.000099
  78	3.8500e-02	3.0978	-0.068303	-0.000001	-0.008524	-0.002888	0.000069
  79	3.9000e-02	3.1395	-0.068088	0.000001	0.005277	0.001788	0.000043
  80	3.9500e-02	3.1876	-0.068138	-0.000000	-0.001218	-0.000413	-0.000010
  81	4.0000e-02	3.2646	-0.067857	0.000001	0.006901	0.002338	0.000056
  82	4.0500e-02	3.2871	-0.067378	0.000001	0.011772	0.003988	0.000096
  83	4.1000e-02	3.3127	-0.067080	0.000001	0.007306	0.002475	0.000059
  84	4.1500e-02	3.3769	-0.067055	0.000000	0.000609	0.000206	0.000005
  85	4.2000e-02	3.4266	-0.066791	0.000001	0.006495	0.002200	0.000053
  86	4.2500e-02	3.4363	-0.066527	0.000001	0.006495	0.002200	0.000053
  87	4.3000e-02	3.4860	-0.066188	0.000001	0.008321	0.002819	0.000068
  88	4.3500e-02	3.5309	-0.066047	0.000000	0.003450	0.001169	0.000028
  89	4.4000e-02	3.5742	-0.065948	0.000000	0.002435	0.000825	0.000020
  90	4.4500e-02	3.5983	-0.065692	0.000001	0.006292	0.002132	0.000051
  91	4.5000e-02	3.6657	-0.065229	0.000001	0.011366	0.003851	0.000093
  92	4.5500e-02	3.7122	-0.064973	0.000001	0.006292	0.002132	0.000051
  93	4.6000e-02	3.7138	-0.064915	0.000000	0.001421	0.000481	0.000012
  94	4.6500e-02	3.7619	-0.064800	0.000000	0.002841	0.000963	0.000023
  95	4.7000e-02	3.7972	-0.064453	0.000001	0.008524	0.002888	0.000069
  96	4.7500e-02	3.8486	-0.064048	0.000001	0.009945	0.003369	0.000081
  97	4.8000e-02	3.8887	-0.063907	0.000000	0.003450	0.001169	0.000028
  98	4.8500e-02	3.9063	-0.063759	0.000000	0.003653	0.001238	0.000030
  99	4.9000e-02	3.9833	-0.063412	0.000001	0.008524	0.002888	0.000069
 100	4.9500e-02	3.9897	-0.063089	0.000001	0.007915	0.002682	0.000064
 101	5.0000e-02	4.0266	-0.063089	0.000000	0.000000	0.000000	0.000000
 102	5.0500e-02	4.0972	-0.062800	0.000001	0.007103	0.002407	0.000058
 103	5.1000e-02	4.1004	-0.062660	0.000000	0.003450	0.001169	0.000028
 104	5.1500e-02	4.1774	-0.062296	0.000001	0.008930	0.003026	0.000073
 105	5.2000e-02	4.2159	-0.062057	0.000001	0.005886	0.001994	0.000048
 106	5.2500e-02	4.2544	-0.062040	0.000000	0.000406	0.000138	0.000003
 107	5.3000e-02	4.3090	-0.061718	0.000001	0.007915	0.002682	0.000064
 108	5.3500e-02	4.3218	-0.061470	0.000001	0.006089	0.002063	0.000050
 109	5.4000e-02	4.3667	-0.061404	0.000000	0.001624	0.000550	0.000013
 110	5.4500e-02	4.4100	-0.061172	0.000001	0.005683	0.001925	0.000046
 111	5.5000e-02	4.4389	-0.060908	0.000001	0.006495	0.002200	0.000053
 112	5.5500e-02	4.4935	-0.060561	0.000001	0.008524	0.002888	0.000069
 113	5.6000e-02	4.5416	-0.060222	0.000001	0.008321	0.002819	0.000068
 114	5.6500e-02	4.5656	-0.060040	0.000000	0.004465	0.001513	0.000036
 115	5.7000e-02	4.5737	-0.059834	0.000001	0.005074	0.001719	0.000041
 116	5.7500e-02	4.6282	-0.059561	0.000001	0.006698	0.002269	0.000055
 117	5.8000e-02	4.6763	-0.059289	0.000001	0.006698	0.002269	0.000055
 118	5.8500e-02	4.7180	-0.059074	0.000001	0.005277	0.001788	0.000043
 119	5.9000e-02	4.7469	-0.058826	0.000001	0.006089	0.002063	0.000050
 120	5.9500e-02	4.7886	-0.058537	0.000001	0.007103	0.002407	0.000058
 121	6.0000e-02	4.8496	-0.058173	0.000001	0.008930	0.003026	0.000073
 122	6.0500e-02	4.8977	-0.057636	0.000001	0.013192	0.004470	0.000107
 123	6.1000e-02	4.9186	-0.057347	0.000001	0.007103	0.002407	0.000058
 124	6.1500e-02	4.9667	-0.056934	0.000001	0.010148	0.003438	0.000083
 125	6.2000e-02	5.0148	-0.056644	0.000001	0.007103	0.002407	0.000058
 126	6.2500e-02	5.0437	-0.056678	-0.000000	-0.000812	-0.000275	-0.000007
 127	6.3000e-02	5.1063	-0.056884	-0.000001	-0.005074	-0.001719	-0.000041
 128	6.3500e-02	5.1432	-0.056669	0.000001	0.005277	0.001788	0.000043
 129	6.4000e-02	5.1560	-0.056421	0.000001	0.006089	0.002063	0.000050
 130	6.4500e-02	5.2009	-0.056364	0.000000	0.001421	0.000481	0.000012
 131	6.5000e-02	5.2186	-0.056116	0.000001	0.006089	0.002063	0.000050
 132	6.5500e-02	5.2859	-0.056058	0.000000	0.001421	0.000481	0.000012
 133	6.6000e-02	5.3453	-0.055653	0.000001	0.009945	0.003369	0.000081
 134	6.6500e-02	5.3710	-0.055083	0.000001	0.014004	0.004745	0.000114
 135	6.7000e-02	5.4047	-0.054579	0.000001	0.012380	0.004195	0.000101
 136	6.7500e-02	5.4127	-0.054265	0.000001	0.007712	0.002613	0.000063
 137	6.8000e-02	5.4961	-0.054182	0.000000	0.002030	0.000688	0.000017
 138	6.8500e-02	5.5298	-0.054017	0.000000	0.004059	0.001375	0.000033
 139	6.9000e-02	5.5843	-0.053769	0.000001	0.006089	0.002063	0.000050
 140	6.9500e-02	5.6132	-0.053587	0.000000	0.004465	0.001513	0.000036
 141	7.0000e-02	5.6389	-0.053397	0.000000	0.004668	0.001582	0.000038
 142	7.0500e-02	5.6790	-0.053191	0.000001	0.005074	0.001719	0.000041
 143	7.1000e-02	5.7351	-0.053207	-0.000000	-0.000406	-0.000138	-0.000003
 144	7.1500e-02	5.7480	-0.053315	-0.000000	-0.002638	-0.000894	-0.000021
 145	7.2000e-02	5.7961	-0.052902	0.000001	0.010148	0.003438	0.000083
 146	7.2500e-02	5.8763	-0.052150	0.000002	0.018469	0.006257	0.000150
 147	7.3000e-02	5.8956	-0.051249	0.000002	0.022122	0.007495	0.000180
 148	7.3500e-02	5.9357	-0.050671	0.000001	0.014207	0.004813	0.000116
 149	7.4000e-02	5.9501	-0.050266	0.000001	0.009945	0.003369	0.000081
 150	7.4500e-02	5.9966	-0.049952	0.000001	0.007712	0.002613	0.000063
 151	7.5000e-02	6.0752	-0.049563	0.000001	0.009539	0.003232	0.000078
 152	7.5500e-02	6.0865	-0.049018	0.000001	0.013395	0.004538	0.000109
 153	7.6000e-02	6.1137	-0.048655	0.000001	0.008930	0.003026	0.000073
 154	7.6500e-02	6.1570	-0.048869	-0.000001	-0.005277	-0.001788	-0.000043
 155	7.7000e-02	6.2036	-0.049010	-0.000000	-0.003450	-0.001169	-0.000028
 156	7.7500e-02	6.2613	-0.049002	0.000000	0.000203	0.000069	0.000002
 157	7.8000e-02	6.2629	-0.048431	0.000001	0.014004	0.004745	0.000114
 158	7.8500e-02	6.3175	-0.047886	0.000001	0.013395	0.004538	0.000109
 159	7.9000e-02	6.3656	-0.047324	0.000001	0.013801	0.004676	0.000112
 160	7.9500e-02	6.3961	-0.047076	0.000001	0.006089	0.002063	0.000050
 161	8.0000e-02	6.4217	-0.046771	0.000001	0.007509	0.002544	0.000061
 162	8.0500e-02	6.4827	-0.046663	0.000000	0.002638	0.000894	0.000021
 163	8.1000e-02	6.4859	-0.046531	0.000000	0.003247	0.001100	0.000026
 164	8.1500e-02	6.5613	-0.046010	0.000001	0.012786	0.004332	0.000104
 165	8.2000e-02	6.6030	-0.045531	0.000001	0.011772	0.003988	0.000096
 166	8.2500e-02	6.6656	-0.044986	0.000001	0.013395	0.004538	0.000109
 167	8.3000e-02	6.7153	-0.045019	-0.000000	-0.000812	-0.000275	-0.000007
 168	8.3500e-02	6.7298	-0.044978	0.000000	0.001015	0.000344	0.000008
 169	8.4000e-02	6.7634	-0.044573	0.000001	0.009945	0.003369	0.000081
 170	8.4500e-02	6.8019	-0.044044	0.000001	0.012989	0.004401	0.000106
 171	8.5000e-02	6.8372	-0.043556	0.000001	0.011974	0.004057	0.000097
 172	8.5500e-02	6.8741	-0.043590	-0.000000	-0.000812	-0.000275	-0.000007
 173	8.6000e-02	6.9142	-0.043333	0.000001	0.006292	0.002132	0.000051
 174	8.6500e-02	6.9736	-0.042829	0.000001	0.012380	0.004195	0.000101
 175	8.7000e-02	7.0009	-0.042350	0.000001	0.011772	0.003988	0.000096
 176	8.7500e-02	7.0538	-0.042061	0.000001	0.007103	0.002407	0.000058
 177	8.8000e-02	7.0747	-0.041987	0.000000	0.001827	0.000619	0.000015
 178	8.8500e-02	7.1180	-0.041540	0.000001	0.010960	0.003713	0.000089
 179	8.9000e-02	7.1549	-0.040921	0.000002	0.015222	0.005157	0.000124
 180	8.9500e-02	7.1934	-0.040656	0.000001	0.006495	0.002200	0.000053
 181	9.0000e-02	7.2624	-0.040458	0.000000	0.004871	0.001650	0.000040
 182	9.0500e-02	7.2624	-0.040177	-0.000001	-0.006901	-0.002338	0.000056
 183	9.1000e-02	7.3346	-0.039747	0.000001	0.010554	0.003576	0.000086
 184	9.1500e-02	7.3586	-0.039351	0.000001	0.009742	0.003301	0.000079
 185	9.2000e-02	7.3795	-0.039070	0.000001	0.006901	0.002338	0.000056
 186	9.2500e-02	7.4452	-0.038822	0.000001	0.006089	0.002063	0.000050
 187	9.3000e-02	7.4854	-0.038401	0.000001	0.010351	0.003507	0.000084
 188	9.3500e-02	7.5399	-0.037954	0.000001	0.010960	0.003713	0.000089
 189	9.4000e-02	7.5591	-0.037707	0.000001	0.006089	0.002063	0.000050
 190	9.4500e-02	7.6057	-0.037483	0.000001	0.005480	0.001857	0.000045
 191	9.5000e-02	7.6410	-0.037252	0.000001	0.005683	0.001925	0.000046
 192	9.5500e-02	7.6811	-0.036839	0.000001	0.010148	0.003438	0.000083
 193	9.6000e-02	7.7500	-0.036500	0.000001	0.008321	0.002819	0.000068
 194	9.6500e-02	7.7773	-0.036343	0.000000	0.003856	0.001307	0.000031
 195	9.7000e-02	7.8030	-0.036079	0.000001	0.006495	0.002200	0.000053
 196	9.7500e-02	7.8415	-0.035600	0.000001	0.011772	0.003988	0.000096
 197	9.8000e-02	7.8720	-0.035170	0.000001	0.010554	0.003576	0.000086
 198	9.8500e-02	7.8992	-0.034963	0.000001	0.005074	0.001719	0.000041
 199	9.9000e-02	7.9586	-0.034608	0.000001	0.008727	0.002957	0.000071
 200	9.9500e-02	7.9987	-0.034236	0.000001	0.009133	0.003094	0.000074
 201	1.0000e-01	8.0276	-0.033972	0.000001	0.006495	0.002200	0.000053
 202	1.0050e-01	8.0821	-0.033807	0.000000	0.004059	0.001375	0.000033
 203	1.0100e-01	8.0998	-0.033443	0.000001	0.008930	0.003026	0.000073
 204	1.0150e-01	8.1671	-0.032947	0.000001	0.012177	0.004126	0.000099
 205	1.0200e-01	8.2024	-0.032567	0.000001	0.009336	0.003163	0.000076
 206	1.0250e-01	8.2345	-0.032303	0.000001	0.006495	0.002200	0.000053
 207	1.0300e-01	8.2891	-0.031947	0.000001	0.008727	0.002957	0.000071
 208	1.0350e-01	8.3196	-0.031600	0.000001	0.008524	0.002888	0.000069
 209	1.0400e-01	8.3613	-0.031154	0.000001	0.010960	0.003713	0.000089
 210	1.0450e-01	8.4415	-0.030617	0.000001	0.013192	0.004470	0.000107
 211	1.0500e-01	8.4463	-0.030278	0.000001	0.008321	0.002819	0.000068
 212	1.0550e-01	8.4992	-0.029791	0.000001	0.011974	0.004057	0.000097
 213	1.0600e-01	8.5297	-0.029229	0.000001	0.013801	0.004676	0.000112
 214	1.0650e-01	8.5778	-0.029213	0.000000	0.000406	0.000138	0.000003
 215	1.0700e-01	8.6276	-0.029246	-0.000000	-0.000812	-0.000275	-0.000007
 216	1.0750e-01	8.6292	-0.029213	0.000000	0.000812	0.000275	0.000007
 217	1.0800e-01	8.6661	-0.028882	0.000001	0.008118	0.002751	0.000066
 218	1.0850e-01	8.7030	-0.028601	0.000001	0.006901	0.002338	0.000056
 219	1.0900e-01	8.7784	-0.028295	0.000001	0.007509	0.002544	0.000061
 220	1.0950e-01	8.7912	-0.028056	0.000001	0.005886	0.001994	0.000048
 221	1.1000e-01	8.8425	-0.027667	0.000001	0.009539	0.003232	0.000078
 222	1.1050e-01	8.8618	-0.027172	0.000001	0.012177	0.004126	0.000099
 223	1.1100e-01	8.9179	-0.026585	0.000001	0.014410	0.004882	0.000117
 224	1.1150e-01	8.9805	-0.026073	0.000001	0.012583	0.004263	0.000102
 225	1.1200e-01	9.0206	-0.025767	0.000001	0.007509	0.002544	0.000061
 226	1.1250e-01	9.0559	-0.025577	0.000000	0.004668	0.001582	0.000038
 227	1.1300e-01	9.0800	-0.025321	0.000001	0.006292	0.002132	0.000051
 228	1.1350e-01	9.1313	-0.025213	0.000000	0.002638	0.000894	0.000021
 229	1.1400e-01	9.1923	-0.024792	0.000001	0.010351	0.003507	0.000084
 230	1.1450e-01	9.1939	-0.024156	0.000002	0.015628	0.005295	0.000127
 231	1.1500e-01	9.2628	-0.023710	0.000001	0.010960	0.003713	0.000089
 232	1.1550e-01	9.2869	-0.023602	0.000000	0.002638	0.000894	0.000021
 233	1.1600e-01	9.3046	-0.023296	0.000001	0.007509	0.002544	0.000061
 234	1.1650e-01	9.3703	-0.023412	-0.000000	-0.002841	-0.000963	-0.000023
 235	1.1700e-01	9.3944	-0.023263	0.000000	0.003653	0.001238	0.000030
 236	1.1750e-01	9.4714	-0.022974	0.000001	0.007103	0.002407	0.000058
 237	1.1800e-01	9.5067	-0.022693	0.000001	0.006901	0.002338	0.000056
 238	1.1850e-01	9.5324	-0.022016	0.000002	0.016642	0.005639	0.000136
 239	1.1900e-01	9.5468	-0.021305	0.000002	0.017454	0.005914	0.000142
 240	1.1950e-01	9.6174	-0.020603	0.000002	0.017251	0.005845	0.000140
 241	1.2000e-01	9.6495	-0.020091	0.000001	0.012583	0.004263	0.000102
 242	1.2050e-01	9.6767	-0.019611	0.000001	0.011772	0.003988	0.000096
 243	1.2100e-01	9.7281	-0.019182	0.000001	0.010554	0.003576	0.000086
 244	1.2150e-01	9.7521	-0.018793	0.000001	0.009539	0.003232	0.000078
 245	1.2200e-01	9.8195	-0.018174	0.000002	0.015222	0.005157	0.000124
 246	1.2250e-01	9.8773	-0.018008	0.000000	0.004059	0.001375	0.000033
 247	1.2300e-01	9.8885	-0.018339	-0.000001	-0.008118	-0.002751	-0.000066
 248	1.2350e-01	9.8901	-0.018438	-0.000000	-0.002435	-0.000825	-0.000020
 249	1.2400e-01	9.9719	-0.017926	0.000001	0.012583	0.004263	0.000102
 250	1.2450e-01	9.9976	-0.017306	0.000002	0.015222	0.005157	0.000124
 251	1.2500e-01	10.0553	-0.016744	0.000001	0.013801	0.004676	0.000112
 252	1.2550e-01	10.0874	-0.016282	0.000001	0.011366	0.003851	0.000093
 253	1.2600e-01	10.1500	-0.015885	0.000001	0.009742	0.003301	0.000079
 254	1.2650e-01	10.1676	-0.015811	0.000000	0.001827	0.000619	0.000015
 255	1.2700e-01	10.2045	-0.015678	0.000000	0.003247	0.001100	0.000026
 256	1.2750e-01	10.2430	-0.015282	0.000001	0.009742	0.003301	0.000079
 257	1.2800e-01	10.2735	-0.014654	0.000002	0.015425	0.005226	0.000126
 258	1.2850e-01	10.3184	-0.014100	0.000001	0.013598	0.004607	0.000111
 259	1.2900e-01	10.3489	-0.014009	0.000000	0.002233	0.000756	0.000018
 260	1.2950e-01	10.4147	-0.013927	0.000000	0.002030	0.000688	0.000017
 261	1.3000e-01	10.4403	-0.013662	0.000001	0.006495	0.002200	0.000053
 262	1.3050e-01	10.4885	-0.012952	0.000002	0.017454	0.005914	0.000142
 263	1.3100e-01	10.5607	-0.012472	0.000001	0.011772	0.003988	0.000096
 264	1.3150e-01	10.5751	-0.012282	0.000000	0.004668	0.001582	0.000038
 265	1.3200e-01	10.6152	-0.012233	0.000000	0.001218	0.000413	0.000010
 266	1.3250e-01	10.6585	-0.011663	0.000001	0.014004	0.004745	0.000114
 267	1.3300e-01	10.6794	-0.011060	0.000001	0.014816	0.005020	0.000121
 268	1.3350e-01	10.7307	-0.010655	0.000001	0.009945	0.003369	0.000081
 269	1.3400e-01	10.7548	-0.010308	0.000001	0.008524	0.002888	0.000069
 270	1.3450e-01	10.8125	-0.009919	0.000001	0.009539	0.003232	0.000078
 271	1.3500e-01	10.8430	-0.009440	0.000001	0.011772	0.003988	0.000096
 272	1.3550e-01	10.8767	-0.008870	0.000001	0.014004	0.004745	0.000114
 273	1.3600e-01	10.8943	-0.008614	0.000001	0.006292	0.002132	0.000051
 274	1.3650e-01	10.9537	-0.008333	0.000001	0.006901	0.002338	0.000056
 275	1.3700e-01	11.0323	-0.007771	0.000001	0.013801	0.004676	0.000112
 276	1.3750e-01	11.0339	-0.007300	0.000001	0.011569	0.003920	0.000094
 277	1.3800e-01	11.0933	-0.006961	0.000001	0.008321	0.002819	0.000068
 278	1.3850e-01	11.1270	-0.006730	0.000001	0.005683	0.001925	0.000046
 279	1.3900e-01	11.1847	-0.006292	0.000001	0.010757	0.003644	0.000088
 280	1.3950e-01	11.2008	-0.005672	0.000002	0.015222	0.005157	0.000124
 281	1.4000e-01	11.2328	-0.005383	0.000001	0.007103	0.002407	0.000058
 282	1.4050e-01	11.2874	-0.005102	0.000001	0.006901	0.002338	0.000056
 283	1.4100e-01	11.3147	-0.004747	0.000001	0.008727	0.002957	0.000071
 284	1.4150e-01	11.3451	-0.004202	0.000001	0.013395	0.004538	0.000109
 285	1.4200e-01	11.4189	-0.003722	0.000001	0.011772	0.003988	0.000096
 286	1.4250e-01	11.4542	-0.003565	0.000000	0.003856	0.001307	0.000031
 287	1.4300e-01	11.4863	-0.003243	0.000001	0.007915	0.002682	0.000064
 288	1.4350e-01	11.5248	-0.002780	0.000001	0.011366	0.003851	0.000093
 289	1.4400e-01	11.5392	-0.002351	0.000001	0.010554	0.003576	0.000086
 290	1.4450e-01	11.6066	-0.001962	0.000001	0.009539	0.003232	0.000078
 291	1.4500e-01	11.6339	-0.001632	0.000001	0.008118	0.002751	0.000066
 292	1.4550e-01	11.6852	-0.001186	0.000001	0.010960	0.003713	0.000089
 293	1.4600e-01	11.7125	-0.000748	0.000001	0.010757	0.003644	0.000088
 294	1.4650e-01	11.7863	-0.000401	0.000001	0.008524	0.002888	0.000069
 295	1.4700e-01	11.8072	-0.000095	0.000001	0.007509	0.002544	0.000061
 296	1.4750e-01	11.8248	0.000293	0.000001	0.009539	0.003232	0.000078
 297	1.4800e-01	11.9098	0.000715	0.000001	0.010351	0.003507	0.000084
 298	1.4850e-01	11.9227	0.001351	0.000002	0.015628	0.005295	0.000127
 299	1.4900e-01	11.9692	0.001714	0.000001	0.008930	0.003026	0.000073
 300	1.4950e-01	11.9772	0.002086	0.000001	0.009133	0.003094	0.000074
 301	1.5000e-01	12.0221	0.002739	0.000002	0.016034	0.005432	0.000131
 302	1.5050e-01	12.0943	0.002995	0.000001	0.006292	0.002132	0.000051
 303	1.5100e-01	12.1120	0.002904	-0.000000	-0.002233	-0.000756	-0.000018
 304	1.5150e-01	12.1681	0.003012	0.000000	0.002638	0.000894	0.000021
 305	1.5200e-01	12.2114	0.003392	0.000001	0.009336	0.003163	0.000076
 306	1.5250e-01	12.2291	0.003673	0.000001	0.006901	0.002338	0.000056
 307	1.5300e-01	12.2916	0.004028	0.000001	0.008727	0.002957	0.000071
 308	1.5350e-01	12.3269	0.004325	0.000001	0.007306	0.002475	0.000059
 309	1.5400e-01	12.3622	0.004747	0.000001	0.010351	0.003507	0.000084
 310	1.5450e-01	12.3943	0.005300	0.000001	0.013598	0.004607	0.000111
 311	1.5500e-01	12.4488	0.005945	0.000002	0.015831	0.005364	0.000129
 312	1.5550e-01	12.4761	0.006441	0.000001	0.012177	0.004126	0.000099
 313	1.5600e-01	12.4986	0.006953	0.000001	0.012583	0.004263	0.000102
 314	1.5650e-01	12.5563	0.007226	0.000001	0.006698	0.002269	0.000055
 315	1.5700e-01	12.6029	0.007465	0.000001	0.005886	0.001994	0.000048
 316	1.5750e-01	12.6430	0.007664	0.000000	0.004871	0.001650	0.000040
 317	1.5800e-01	12.6606	0.008002	0.000001	0.008321	0.002819	0.000068
 318	1.5850e-01	12.7119	0.008614	0.000002	0.015019	0.005089	0.000122
 319	1.5900e-01	12.7777	0.009134	0.000001	0.012786	0.004332	0.000104
 320	1.5950e-01	12.7954	0.009407	0.000001	0.006698	0.002269	0.000055
 321	1.6000e-01	12.8579	0.009738	0.000001	0.008118	0.002751	0.000066
 322	1.6050e-01	12.8804	0.010142	0.000001	0.009945	0.003369	0.000081
 323	1.6100e-01	12.9061	0.010754	0.000002	0.015019	0.005089	0.000122
 324	1.6150e-01	12.9028	0.011316	-0.000001	-0.013801	-0.004676	0.000112
 325	1.6200e-01	13.0167	0.011803	0.000001	0.011974	0.004057	0.000097
 326	1.6250e-01	13.0216	0.011968	0.000000	0.004059	0.001375	0.000033
 327	1.6300e-01	13.0665	0.012035	0.000000	0.001624	0.000550	0.000013
 328	1.6350e-01	13.1339	0.012233	0.000000	0.004871	0.001650	0.000040
 329	1.6400e-01	13.1675	0.012696	0.000001	0.011366	0.003851	0.000093
 330	1.6450e-01	13.2076	0.013464	0.000002	0.018875	0.006395	0.000154
 331	1.6500e-01	13.2221	0.014133	0.000002	0.016440	0.005570	0.000134
 332	1.6550e-01	13.2927	0.014811	0.000002	0.016642	0.005639	0.000136
 333	1.6600e-01	13.3392	0.015521	0.000002	0.017454	0.005914	0.000142
 334	1.6650e-01	13.3424	0.016116	0.000001	0.014613	0.004951	0.000119
 335	1.6700e-01	13.4050	0.016629	0.000001	0.012583	0.004263	0.000102
 336	1.6750e-01	13.4691	0.017149	0.000001	0.012786	0.004332	0.000104
 337	1.6800e-01	13.5076	0.017620	0.000001	0.011569	0.003920	0.000094
 338	1.6850e-01	13.5285	0.018298	0.000002	0.016642	0.005639	0.000136
 339	1.6900e-01	13.5365	0.018347	0.000000	0.001218	0.000413	0.000010
 340	1.6950e-01	13.6103	0.018240	-0.000000	-0.002638	-0.000894	-0.000021
 341	1.7000e-01	13.6360	0.018455	0.000001	0.005277	0.001788	0.000043
 342	1.7050e-01	13.6857	0.019355	0.000002	0.022122	0.007495	0.000180
 343	1.7100e-01	13.7050	0.020173	0.000002	0.020093	0.006808	0.000164
 344	1.7150e-01	13.7691	0.020768	0.000001	0.014613	0.004951	0.000119
 345	1.7200e-01	13.7852	0.021371	0.000001	0.014816	0.005020	0.000121
 346	1.7250e-01	13.8542	0.021627	0.000001	0.006292	0.002132	0.000051
 347	1.7300e-01	13.8943	0.021801	0.000000	0.004262	0.001444	0.000035
 348	1.7350e-01	13.9135	0.022297	0.000001	0.012177	0.004126	0.000099
 349	1.7400e-01	13.9761	0.022850	0.000001	0.013598	0.004607	0.000111
 350	1.7450e-01	14.0210	0.023445	0.000001	0.014613	0.004951	0.000119
 351	1.7500e-01	14.0643	0.023924	0.000001	0.011772	0.003988	0.000096
 352	1.7550e-01	14.0771	0.024189	0.000001	0.006495	0.002200	0.000053
 353	1.7600e-01	14.1028	0.024404	0.000001	0.005277	0.001788	0.000043
 354	1.7650e-01	14.1477	0.025131	0.000002	0.017860	0.006051	0.000145
 355	1.7700e-01	14.2231	0.025850	0.000002	0.017657	0.005982	0.000144
 356	1.7750e-01	14.2664	0.026362	0.000001	0.012583	0.004263	0.000102
 357	1.7800e-01	14.2648	0.026511	-0.000000	-0.003653	-0.001238	0.000030
 358	1.7850e-01	14.3354	0.026949	0.000001	0.010757	0.003644	0.000088
 359	1.7900e-01	14.3627	0.027717	0.000002	0.018875	0.006395	0.000154
 360	1.7950e-01	14.4076	0.028502	0.000002	0.019281	0.006533	0.000157
 361	1.8000e-01	14.4541	0.028915	0.000001	0.010148	0.003438	0.000083
 362	1.8050e-01	14.4686	0.029196	0.000001	0.006901	0.002338	0.000056
 363	1.8100e-01	14.4975	0.029799	0.000001	0.014816	0.005020	0.000121
 364	1.8150e-01	14.5777	0.030411	0.000002	0.015019	0.005089	0.000122
 365	1.8200e-01	14.6306	0.030882	0.000001	0.011569	0.003920	0.000094
 366	1.8250e-01	14.6354	0.031138	0.000001	0.006292	0.002132	0.000051
 367	1.8300e-01	14.6916	0.031600	0.000001	0.011366	0.003851	0.000093
 368	1.8350e-01	14.7204	0.032261	0.000002	0.016237	0.005501	0.000132
 369	1.8400e-01	14.7878	0.032741	0.000001	0.011772	0.003988	0.000096
 370	1.8450e-01	14.7830	0.033195	-0.000001	-0.011163	-0.003782	0.000091
 371	1.8500e-01	14.8680	0.033699	0.000001	0.012380	0.004195	0.000101
 372	1.8550e-01	14.8744	0.034393	0.000002	0.017048	0.005776	0.000139
 373	1.8600e-01	14.9242	0.035046	0.000002	0.016034	0.005432	0.000131
 374	1.8650e-01	14.9739	0.035443	0.000001	0.009742	0.003301	0.000079
 375	1.8700e-01	14.9964	0.035938	0.000001	0.012177	0.004126	0.000099
 376	1.8750e-01	15.0493	0.036517	0.000001	0.014207	0.004813	0.000116
 377	1.8800e-01	15.0589	0.037326	0.000002	0.019890	0.006739	0.000162
 378	1.8850e-01	15.1295	0.037781	0.000001	0.011163	0.003782	0.000091
 379	1.8900e-01	15.1728	0.038202	0.000001	0.010351	0.003507	0.000084
 380	1.8950e-01	15.2258	0.038748	0.000001	0.013395	0.004538	0.000109
 381	1.9000e-01	15.2450	0.039351	0.000001	0.014816	0.005020	0.000121
 382	1.9050e-01	15.2851	0.039822	0.000001	0.011569	0.003920	0.000094
 383	1.9100e-01	15.3317	0.040218	0.000001	0.009742	0.003301	0.000079
 384	1.9150e-01	15.3605	0.040731	0.000001	0.012583	0.004263	0.000102
 385	1.9200e-01	15.4215	0.041441	0.000002	0.017454	0.005914	0.000142
 386	1.9250e-01	15.4776	0.042036	0.000001	0.014613	0.004951	0.000119
 387	1.9300e-01	15.4841	0.042557	0.000001	0.012786	0.004332	0.000104
 388	1.9350e-01	15.5450	0.043160	0.000001	0.014816	0.005020	0.000121
 389	1.9400e-01	15.5787	0.043928	0.000002	0.018875	0.006395	0.000154
 390	1.9450e-01	15.6012	0.044523	0.000001	0.014613	0.004951	0.000119
 391	1.9500e-01	15.6397	0.044680	0.000000	0.003856	0.001307	0.000031
 392	1.9550e-01	15.6830	0.044804	0.000000	0.003044	0.001031	0.000025
 393	1.9600e-01	15.7279	0.045399	0.000001	0.014613	0.004951	0.000119
 394	1.9650e-01	15.7552	0.046002	0.000001	0.014816	0.005020	0.000121
 395	1.9700e-01	15.7905	0.046316	0.000001	0.007712	0.002613	0.000063
 396	1.9750e-01	15.8274	0.046878	0.000001	0.013801	0.004676	0.000112
 397	1.9800e-01	15.8979	0.047357	0.000001	0.011772	0.003988	0.000096
 398	1.9850e-01	15.9252	0.048084	0.000002	0.017860	0.006051	0.000145
 399	1.9900e-01	15.9541	0.048845	0.000002	0.018672	0.006326	0.000152
 400	1.9950e-01	15.9846	0.049630	0.000002	0.019281	0.006533	0.000157
 401	2.0000e-01	16.0568	0.050340	0.000002	0.017454	0.005914	0.000142
 402	2.0050e-01	16.0824	0.050869	0.000001	0.012989	0.004401	0.000106
 403	2.0100e-01	16.1225	0.051216	0.000001	0.008524	0.002888	0.000069
 404	2.0150e-01	16.1530	0.051588	0.000001	0.009133	0.003094	0.000074
 405	2.0200e-01	16.1947	0.051984	0.000001	0.009742	0.003301	0.000079
 406	2.0250e-01	16.2621	0.052786	0.000002	0.019687	0.006670	0.000160
 407	2.0300e-01	16.3006	0.053620	0.000002	0.020499	0.006945	0.000167
 408	2.0350e-01	16.3359	0.054067	0.000001	0.010960	0.003713	0.000089
 409	2.0400e-01	16.3616	0.054554	0.000001	0.011974	0.004057	0.000097
 410	2.0450e-01	16.4225	0.055190	0.000002	0.015628	0.005295	0.000127
 411	2.0500e-01	16.3953	0.055843	-0.000002	-0.016034	-0.005432	0.000131
 412	2.0550e-01	16.4883	0.056768	0.000002	0.022731	0.007702	0.000185
 413	2.0600e-01	16.5124	0.057462	0.000002	0.017048	0.005776	0.000139
 414	2.0650e-01	16.5461	0.058024	0.000001	0.013801	0.004676	0.000112
 415	2.0700e-01	16.6263	0.058570	0.000001	0.013395	0.004538	0.000109
 416	2.0750e-01	16.6551	0.059057	0.000001	0.011974	0.004057	0.000097
 417	2.0800e-01	16.6936	0.059743	0.000002	0.016845	0.005707	0.000137
 418	2.0850e-01	16.7354	0.060280	0.000001	0.013192	0.004470	0.000107
 419	2.0900e-01	16.7739	0.060404	0.000000	0.003044	0.001031	0.000025
 420	2.0950e-01	16.8236	0.060792	0.000001	0.009539	0.003232	0.000078
 421	2.1000e-01	16.8188	0.061106	-0.000001	-0.007712	-0.002613	0.000063
 422	2.1050e-01	16.8813	0.061883	0.000002	0.019078	0.006464	0.000155
 423	2.1100e-01	16.9198	0.062965	0.000003	0.026587	0.009008	0.000216
 424	2.1150e-01	16.9856	0.063924	0.000002	0.023543	0.007977	0.000192
 425	2.1200e-01	17.0129	0.064758	0.000002	0.020499	0.006945	0.000167
 426	2.1250e-01	17.0498	0.065700	0.000002	0.023137	0.007839	0.000188
 427	2.1300e-01	17.0819	0.066667	0.000002	0.023746	0.008045	0.000193
 428	2.1350e-01	17.1268	0.067411	0.000002	0.018266	0.006189	0.000149
 429	2.1400e-01	17.1589	0.068080	0.000002	0.016440	0.005570	0.000134
 430	2.1450e-01	17.1990	0.068832	0.000002	0.018469	0.006257	0.000150
 431	2.1500e-01	17.2471	0.069121	0.000001	0.007103	0.002407	0.000058
 432	2.1550e-01	17.2984	0.069295	0.000000	0.004262	0.001444	0.000035
 433	2.1600e-01	17.3321	0.069534	0.000001	0.005886	0.001994	0.000048
 434	2.1650e-01	17.3546	0.070286	0.000002	0.018469	0.006257	0.000150
 435	2.1700e-01	17.4011	0.071212	0.000002	0.022731	0.007702	0.000185
 436	2.1750e-01	17.4380	0.072038	0.000002	0.020296	0.006876	0.000165
 437	2.1800e-01	17.4813	0.072732	0.000002	0.017048	0.005776	0.000139
 438	2.1850e-01	17.5407	0.073302	0.000001	0.014004	0.004745	0.000114
 439	2.1900e-01	17.5663	0.073599	0.000001	0.007306	0.002475	0.000059
 440	2.1950e-01	17.6081	0.073955	0.000001	0.008727	0.002957	0.000071
 441	2.2000e-01	17.6466	0.074814	0.000002	0.021108	0.007151	0.000172
 442	2.2050e-01	17.7027	0.075640	0.000002	0.020296	0.006876	0.000165
 443	2.2100e-01	17.7155	0.076665	0.000003	0.025167	0.008527	0.000205
 444	2.2150e-01	17.7621	0.077152	0.000001	0.011974	0.004057	0.000097
 445	2.2200e-01	17.7942	0.077532	0.000001	0.009336	0.003163	0.000076
 446	2.2250e-01	17.8551	0.078375	0.000002	0.020702	0.007014	0.000169
 447	2.2300e-01	17.8824	0.079466	0.000003	0.026790	0.009077	0.000218
 448	2.2350e-01	17.9209	0.080300	0.000002	0.020499	0.006945	0.000167
 449	2.2400e-01	17.9690	0.080755	0.000001	0.011163	0.003782	0.000091
 450	2.2450e-01	17.9690	0.081234	-0.000001	-0.011772	-0.003988	0.000096
 451	2.2500e-01	18.0508	0.082011	0.000002	0.019078	0.006464	0.000155
 452	2.2550e-01	18.1054	0.082944	0.000002	0.022934	0.007770	0.000187
 453	2.2600e-01	18.1278	0.083597	0.000002	0.016034	0.005432	0.000131
 454	2.2650e-01	18.1359	0.084093	0.000001	0.012177	0.004126	0.000099
 455	2.2700e-01	18.1856	0.084770	0.000002	0.016642	0.005639	0.000136
 456	2.2750e-01	18.2337	0.085630	0.000002	0.021108	0.007151	0.000172
 457	2.2800e-01	18.2979	0.086373	0.000002	0.018266	0.006189	0.000149
 458	2.2850e-01	18.3091	0.086968	0.000001	0.014613	0.004951	0.000119
 459	2.2900e-01	18.3701	0.087489	0.000001	0.012786	0.004332	0.000104
 460	2.2950e-01	18.3973	0.088390	0.000002	0.022122	0.007495	0.000180
 461	2.3000e-01	18.4423	0.089389	0.000002	0.024558	0.008320	0.000200
 462	2.3050e-01	18.4888	0.090042	0.000002	0.016034	0.005432	0.000131
 463	2.3100e-01	18.5273	0.090744	0.000002	0.017251	0.005845	0.000140
 464	2.3150e-01	18.5610	0.091447	0.000002	0.017251	0.005845	0.000140
 465	2.3200e-01	18.5947	0.092430	0.000002	0.024152	0.008183	0.000197
 466	2.3250e-01	18.6460	0.093116	0.000002	0.016845	0.005707	0.000137
 467	2.3300e-01	18.6829	0.093760	0.000002	0.015831	0.005364	0.000129
 468	2.3350e-01	18.7038	0.094512	0.000002	0.018469	0.006257	0.000150
 469	2.3400e-01	18.7599	0.095396	0.000002	0.021716	0.007358	0.000177
 470	2.3450e-01	18.8128	0.096115	0.000002	0.017657	0.005982	0.000144
 471	2.3500e-01	18.8449	0.096793	0.000002	0.016642	0.005639	0.000136
 472	2.3550e-01	18.8834	0.097454	0.000002	0.016237	0.005501	0.000132
 473	2.3600e-01	18.9171	0.098305	0.000002	0.020905	0.007083	0.000170
 474	2.3650e-01	18.9476	0.099106	0.000002	0.019687	0.006670	0.000160
 475	2.3700e-01	19.0182	0.099891	0.000002	0.019281	0.006533	0.000157
 476	2.3750e-01	19.0631	0.100808	0.000002	0.022528	0.007633	0.000183
 477	2.3800e-01	19.1032	0.101808	0.000002	0.024558	0.008320	0.000200
 478	2.3850e-01	19.1209	0.102692	0.000002	0.021716	0.007358	0.000177
 479	2.3900e-01	19.1786	0.103163	0.000001	0.011569	0.003920	0.000094
 480	2.3950e-01	19.1946	0.103485	0.000001	0.007915	0.002682	0.000064
 481	2.4000e-01	19.2652	0.104229	0.000002	0.018266	0.006189	0.000149
 482	2.4050e-01	19.3021	0.105204	0.000002	0.023949	0.008114	0.000195
 483	2.4100e-01	19.3230	0.105898	0.000002	0.017048	0.005776	0.000139
 484	2.4150e-01	19.3791	0.106427	0.000001	0.012989	0.004401	0.000106
 485	2.4200e-01	19.4080	0.107162	0.000002	0.018063	0.006120	0.000147
 486	2.4250e-01	19.4257	0.107997	0.000002	0.020499	0.006945	0.000167
 487	2.4300e-01	19.4898	0.108980	0.000002	0.024152	0.008183	0.000197
 488	2.4350e-01	19.5347	0.109864	0.000002	0.021716	0.007358	0.000177
 489	2.4400e-01	19.5412	0.110806	0.000002	0.023137	0.007839	0.000188
 490	2.4450e-01	19.5845	0.111715	0.000002	0.022325	0.007564	0.000182
 491	2.4500e-01	19.6310	0.112467	0.000002	0.018469	0.006257	0.000150
 492	2.4550e-01	19.6791	0.112987	0.000001	0.012786	0.004332	0.000104
 493	2.4600e-01	19.7080	0.113599	0.000002	0.015019	0.005089	0.000122
 494	2.4650e-01	19.7497	0.114615	0.000002	0.024964	0.008458	0.000203
 495	2.4700e-01	19.8107	0.115747	0.000003	0.027805	0.009421	0.000226
 496	2.4750e-01	19.8476	0.116516	0.000002	0.018875	0.006395	0.000154
 497	2.4800e-01	19.8957	0.117325	0.000002	0.019890	0.006739	0.000162
 498	2.4850e-01	19.9374	0.118110	0.000002	0.019281	0.006533	0.000157
 499	2.4900e-01	19.9390	0.118928	0.000002	0.020093	0.006808	0.000164
 500	2.4950e-01	20.0048	0.120019	0.000003	0.026790	0.009077	0.000218
 501	2.5000e-01	20.0593	0.120928	0.000002	0.022325	0.007564	0.000182
 502	2.5050e-01	19.9887	0.121696	-0.000002	-0.018875	-0.006395	0.000154
 503	2.5100e-01	19.9246	0.122655	-0.000002	-0.023543	-0.007977	0.000192
 504	2.5150e-01	19.8941	0.123192	-0.000001	-0.013192	-0.004470	0.000107
 505	2.5200e-01	19.8620	0.123968	-0.000002	-0.019078	-0.006464	0.000155
 506	2.5250e-01	19.8412	0.124596	-0.000002	-0.015425	-0.005226	0.000126
 507	2.5300e-01	19.7706	0.125200	-0.000001	-0.014816	-0.005020	0.000121
 508	2.5350e-01	19.7417	0.125728	-0.000001	-0.012989	-0.004401	0.000106
 509	2.5400e-01	19.7192	0.126117	-0.000001	-0.009539	-0.003232	0.000078
 510	2.5450e-01	19.6871	0.126530	-0.000001	-0.010148	-0.003438	0.000083
 511	2.5500e-01	19.6326	0.126836	-0.000001	-0.007509	-0.002544	0.000061
 512	2.5550e-01	19.6069	0.126720	0.000000	0.002841	0.000963	-0.000023
 513	2.5600e-01	19.5347	0.126819	-0.000000	-0.002435	-0.000825	0.000020
 514	2.5650e-01	19.5107	0.127042	-0.000001	-0.005480	-0.001857	0.000045
 515	2.5700e-01	19.4481	0.127918	-0.000002	-0.021513	-0.007289	0.000175
 516	2.5750e-01	19.4064	0.128686	-0.000002	-0.018875	-0.006395	0.000154
 517	2.5800e-01	19.3727	0.129257	-0.000001	-0.014004	-0.004745	0.000114
 518	2.5850e-01	19.3406	0.129562	-0.000001	-0.007509	-0.002544	0.000061
 519	2.5900e-01	19.2829	0.129984	-0.000001	-0.010351	-0.003507	0.000084
 520	2.5950e-01	19.2749	0.130331	-0.000001	-0.008524	-0.002888	0.000069
 521	2.6000e-01	19.1995	0.130512	-0.000000	-0.004465	-0.001513	0.000036
 522	2.6050e-01	19.1690	0.130719	-0.000001	-0.005074	-0.001719	0.000041
 523	2.6100e-01	19.1257	0.130835	-0.000000	-0.002841	-0.000963	0.000023
 524	2.6150e-01	19.1192	0.130355	0.000001	0.011772	0.003988	-0.000096
 525	2.6200e-01	19.0615	0.129951	0.000001	0.009945	0.003369	-0.000081
 526	2.6250e-01	19.0262	0.129653	0.000001	0.007306	0.002475	-0.000059
 527	2.6300e-01	18.9684	0.130165	-0.000001	-0.012583	-0.004263	0.000102
 528	2.6350e-01	18.9524	0.130512	-0.000001	-0.008524	-0.002888	0.000069
 529	2.6400e-01	18.8866	0.130628	-0.000000	-0.002841	-0.000963	0.000023
 530	2.6450e-01	18.8401	0.130760	-0.000000	-0.003247	-0.001100	0.000026
 531	2.6500e-01	18.8016	0.130669	0.000000	0.002233	0.000756	-0.000018
 532	2.6550e-01	18.7599	0.130504	0.000000	0.004059	0.001375	-0.000033
 533	2.6600e-01	18.7358	0.130545	-0.000000	-0.001015	-0.000344	0.000008
 534	2.6650e-01	18.6989	0.130752	-0.000001	-0.005074	-0.001719	0.000041
 535	2.6700e-01	18.6219	0.131091	-0.000001	-0.008321	-0.002819	0.000068
 536	2.6750e-01	18.6267	0.131198	0.000000	0.002638	0.000894	0.000021
 537	2.6800e-01	18.5834	0.130678	0.000001	0.012786	0.004332	-0.000104
 538	2.6850e-01	18.5369	0.130653	0.000000	0.000609	0.000206	-0.000005
 539	2.6900e-01	18.5321	0.130884	-0.000001	-0.005683	-0.001925	0.000046
 540	2.6950e-01	18.4583	0.131041	-0.000000	-0.003856	-0.001307	0.000031
 541	2.7000e-01	18.4230	0.130992	0.000000	0.001218	0.000413	-0.000010
 542	2.7050e-01	18.3877	0.130645	0.000001	0.008524	0.002888	-0.000069
 543	2.7100e-01	18.3717	0.130446	0.000000	0.004871	0.001650	-0.000040
 544	2.7150e-01	18.3091	0.130727	-0.000001	-0.006901	-0.002338	0.000056
 545	2.7200e-01	18.2578	0.130727	-0.000000	-0.000000	-0.000000	0.000000
 546	2.7250e-01	18.2385	0.130496	0.000001	0.005683	0.001925	-0.000046
 547	2.7300e-01	18.1872	0.130289	0.000001	0.005074	0.001719	-0.000041
 548	2.7350e-01	18.1407	0.130347	-0.000000	-0.001421	-0.000481	0.000012
 549	2.7400e-01	18.0637	0.130653	-0.000001	-0.007509	-0.002544	0.000061
 550	2.7450e-01	18.0861	0.130504	-0.000000	-0.003653	-0.001238	-0.000030
 551	2.7500e-01	18.0508	0.130322	0.000000	0.004465	0.001513	-0.000036
 552	2.7550e-01	17.9979	0.130430	-0.000000	-0.002638	-0.000894	0.000021
 553	2.7600e-01	17.9289	0.130504	-0.000000	-0.001827	-0.000619	0.000015
 554	2.7650e-01	17.9000	0.130521	-0.000000	-0.000406	-0.000138	0.000003
 555	2.7700e-01	17.8503	0.130273	0.000001	0.006089	0.002063	-0.000050
 556	2.7750e-01	17.8262	0.130000	0.000001	0.006698	0.002269	-0.000055
 557	2.7800e-01	17.7813	0.130066	-0.000000	-0.001624	-0.000550	0.000013
 558	2.7850e-01	17.7428	0.130091	-0.000000	-0.000609	-0.000206	0.000005
 559	2.7900e-01	17.6867	0.129777	0.000001	0.007712	0.002613	-0.000063
 560	2.7950e-01	17.6466	0.129587	0.000000	0.004668	0.001582	-0.000038
 561	2.8000e-01	17.6289	0.129529	0.000000	0.001421	0.000481	-0.000012
 562	2.8050e-01	17.5824	0.129504	0.000000	0.000609	0.000206	-0.000005
 563	2.8100e-01	17.5631	0.129554	-0.000000	-0.001218	-0.000413	0.000010
 564	2.8150e-01	17.4685	0.129612	-0.000000	-0.001421	-0.000481	0.000012
 565	2.8200e-01	17.4541	0.129719	-0.000000	-0.002638	-0.000894	0.000021
 566	2.8250e-01	17.4204	0.129645	0.000000	0.001827	0.000619	-0.000015
 567	2.8300e-01	17.3514	0.129389	0.000001	0.006292	0.002132	-0.000051
 568	2.8350e-01	17.3418	0.128769	0.000002	0.015222	0.005157	-0.000124
 569	2.8400e-01	17.2792	0.128331	0.000001	0.010757	0.003644	-0.000088
 570	2.8450e-01	17.2503	0.128282	0.000000	0.001218	0.000413	-0.000010
 571	2.8500e-01	17.2102	0.128058	0.000001	0.005480	0.001857	-0.000045
 572	2.8550e-01	17.1797	0.127711	0.000001	0.008524	0.002888	-0.000069
 573	2.8600e-01	17.1557	0.127414	0.000001	0.007306	0.002475	-0.000059
 574	2.8650e-01	17.0963	0.127389	0.000000	0.000609	0.000206	-0.000005
 575	2.8700e-01	17.0466	0.127422	-0.000000	-0.000812	-0.000275	0.000007
 576	2.8750e-01	17.0065	0.127472	-0.000000	-0.001218	-0.000413	0.000010
 577	2.8800e-01	17.0049	0.127480	-0.000000	-0.000203	-0.000069	0.000002
 578	2.8850e-01	16.9407	0.127389	0.000000	0.002233	0.000756	-0.000018
 579	2.8900e-01	16.8781	0.127075	0.000001	0.007712	0.002613	-0.000063
 580	2.8950e-01	16.8541	0.126712	0.000001	0.008930	0.003026	-0.000073
 581	2.9000e-01	16.8348	0.126522	0.000000	0.004668	0.001582	-0.000038
 582	2.9050e-01	16.7658	0.126513	0.000000	0.000203	0.000069	-0.000002
 583	2.9100e-01	16.7338	0.126844	-0.000001	-0.008118	-0.002751	0.000066
 584	2.9150e-01	16.7113	0.126712	0.000000	0.003247	0.001100	-0.000026
 585	2.9200e-01	16.6584	0.126414	0.000001	0.007306	0.002475	-0.000059
 586	2.9250e-01	16.6038	0.126249	0.000000	0.004059	0.001375	-0.000033
 587	2.9300e-01	16.5846	0.126216	0.000000	0.000812	0.000275	-0.000007
 588	2.9350e-01	16.5220	0.126075	0.000000	0.003450	0.001169	-0.000028
 589	2.9400e-01	16.4851	0.126026	0.000000	0.001218	0.000413	-0.000010
 590	2.9450e-01	16.4241	0.125794	0.000001	0.005683	0.001925	-0.000046
 591	2.9500e-01	16.4402	0.125629	-0.000000	-0.004059	-0.001375	-0.000033
 592	2.9550e-01	16.3856	0.125348	0.000001	0.006901	0.002338	-0.000056
 593	2.9600e-01	16.3632	0.125257	0.000000	0.002233	0.000756	-0.000018
 594	2.9650e-01	16.2846	0.125125	0.000000	0.003247	0.001100	-0.000026
 595	2.9700e-01	16.2782	0.124985	0.000000	0.003450	0.001169	-0.000028
 596	2.9750e-01	16.2220	0.124811	0.000000	0.004262	0.001444	-0.000035
 597	2.9800e-01	16.1947	0.124588	0.000001	0.005480	0.001857	-0.000045
 598	2.9850e-01	16.1514	0.124506	0.000000	0.002030	0.000688	-0.000017
 599	2.9900e-01	16.0889	0.124547	-0.000000	-0.001015	-0.000344	0.000008
 600	2.9950e-01	16.0359	0.124357	0.000000	0.004668	0.001582	-0.000038
 601	3.0000e-01	16.0407	0.124200	-0.000000	-0.003856	-0.001307	-0.000031
 602	3.0050e-01	15.9862	0.124043	0.000000	0.003856	0.001307	-0.000031
 603	3.0100e-01	15.9525	0.123960	0.000000	0.002030	0.000688	-0.000017
 604	3.0150e-01	15.8899	0.123349	0.000002	0.015019	0.005089	-0.000122
 605	3.0200e-01	15.8739	0.122993	0.000001	0.008727	0.002957	-0.000071
 606	3.0250e-01	15.8113	0.122622	0.000001	0.009133	0.003094	-0.000074
 607	3.0300e-01	15.7808	0.122704	-0.000000	-0.002030	-0.000688	0.000017
 608	3.0350e-01	15.7247	0.122944	-0.000001	-0.005886	-0.001994	0.000048
 609	3.0400e-01	15.7343	0.123101	0.000000	0.003856	0.001307	0.000031
 610	3.0450e-01	15.6413	0.123299	-0.000000	-0.004871	-0.001650	0.000040
 611	3.0500e-01	15.6204	0.123332	-0.000000	-0.000812	-0.000275	0.000007
 612	3.0550e-01	15.5787	0.123241	0.000000	0.002233	0.000756	-0.000018
 613	3.0600e-01	15.5322	0.123167	0.000000	0.001827	0.000619	-0.000015
 614	3.0650e-01	15.5081	0.123167	-0.000000	-0.000000	-0.000000	0.000000
 615	3.0700e-01	15.4488	0.123035	0.000000	0.003247	0.001100	-0.000026
 616	3.0750e-01	15.3990	0.122498	0.000001	0.013192	0.004470	-0.000107
 617	3.0800e-01	15.3605	0.121704	0.000002	0.019484	0.006601	-0.000159
 618	3.0850e-01	15.3365	0.121225	0.000001	0.011772	0.003988	-0.000096
 619	3.0900e-01	15.2948	0.121217	0.000000	0.000203	0.000069	-0.000002
 620	3.0950e-01	15.2659	0.121390	-0.000000	-0.004262	-0.001444	0.000035
 621	3.1000e-01	15.2306	0.121415	-0.000000	-0.000609	-0.000206	0.000005
 622	3.1050e-01	15.1889	0.121382	0.000000	0.000812	0.000275	-0.000007
 623	3.1100e-01	15.1295	0.121283	0.000000	0.002435	0.000825	-0.000020
 624	3.1150e-01	15.1087	0.120688	0.000001	0.014613	0.004951	-0.000119
 625	3.1200e-01	15.0172	0.120399	0.000001	0.007103	0.002407	-0.000058
 626	3.1250e-01	15.0012	0.120490	-0.000000	-0.002233	-0.000756	0.000018
 627	3.1300e-01	14.9707	0.120556	-0.000000	-0.001624	-0.000550	0.000013
 628	3.1350e-01	14.9466	0.120432	0.000000	0.003044	0.001031	-0.000025
 629	3.1400e-01	14.9274	0.120126	0.000001	0.007509	0.002544	-0.000061
 630	3.1450e-01	14.8905	0.119705	0.000001	0.010351	0.003507	-0.000084
 631	3.1500e-01	14.8151	0.119589	0.000000	0.002841	0.000963	-0.000023
 632	3.1550e-01	14.7718	0.119672	-0.000000	-0.002030	-0.000688	0.000017
 633	3.1600e-01	14.7718	0.119664	0.000000	0.000203	0.000069	-0.000002
 634	3.1650e-01	14.6723	0.119201	0.000001	0.011366	0.003851	-0.000093
 635	3.1700e-01	14.6386	0.118854	0.000001	0.008524	0.002888	-0.000069
 636	3.1750e-01	14.6162	0.118961	-0.000000	-0.002638	-0.000894	0.000021
 637	3.1800e-01	14.5712	0.118928	0.000000	0.000812	0.000275	-0.000007
 638	3.1850e-01	14.5456	0.118854	0.000000	0.001827	0.000619	-0.000015
 639	3.1900e-01	14.4910	0.118540	0.000001	0.007712	0.002613	-0.000063
 640	3.1950e-01	14.4461	0.118333	0.000001	0.005074	0.001719	-0.000041
 641	3.2000e-01	14.4172	0.118375	-0.000000	-0.001015	-0.000344	0.000008
 642	3.2050e-01	14.3771	0.118185	0.000000	0.004668	0.001582	-0.000038
 643	3.2100e-01	14.3499	0.117862	0.000001	0.007915	0.002682	-0.000064
 644	3.2150e-01	14.3033	0.117697	0.000000	0.004059	0.001375	-0.000033
 645	3.2200e-01	14.2472	0.117705	-0.000000	-0.000203	-0.000069	0.000002
 646	3.2250e-01	14.2087	0.117730	-0.000000	-0.000609	-0.000206	0.000005
 647	3.2300e-01	14.1590	0.117259	0.000001	0.011569	0.003920	-0.000094
 648	3.2350e-01	14.1445	0.117028	0.000001	0.005683	0.001925	-0.000046
 649	3.2400e-01	14.0868	0.116912	0.000000	0.002841	0.000963	-0.000023
 650	3.2450e-01	14.0611	0.116978	-0.000000	-0.001624	-0.000550	0.000013
 651	3.2500e-01	14.0066	0.116978	-0.000000	-0.000000	-0.000000	0.000000
 652	3.2550e-01	13.9697	0.116805	0.000000	0.004262	0.001444	-0.000035
 653	3.2600e-01	13.9440	0.116739	0.000000	0.001624	0.000550	-0.000013
 654	3.2650e-01	13.8911	0.116838	-0.000000	-0.002435	-0.000825	0.000020
 655	3.2700e-01	13.8558	0.116392	0.000001	0.010960	0.003713	-0.000089
 656	3.2750e-01	13.8124	0.115830	0.000001	0.013801	0.004676	-0.000112
 657	3.2800e-01	13.7836	0.115251	0.000001	0.014207	0.004813	-0.000116
 658	3.2850e-01	13.7403	0.115185	0.000000	0.001624	0.000550	-0.000013
 659	3.2900e-01	13.6841	0.115003	0.000000	0.004465	0.001513	-0.000036
 660	3.2950e-01	13.6488	0.114524	0.000001	0.011772	0.003988	-0.000096
 661	3.3000e-01	13.6167	0.114285	0.000001	0.005886	0.001994	-0.000048
 662	3.3050e-01	13.5911	0.114086	0.000000	0.004871	0.001650	-0.000040
 663	3.3100e-01	13.5381	0.114086	-0.000000	-0.000000	-0.000000	0.000000
 664	3.3150e-01	13.5269	0.114128	-0.000000	-0.001015	-0.000344	0.000008
 665	3.3200e-01	13.4563	0.114095	0.000000	0.000812	0.000275	-0.000007
 666	3.3250e-01	13.4563	0.113797	0.000001	0.007306	0.002475	-0.000059
 667	3.3300e-01	13.3649	0.113706	0.000000	0.002233	0.000756	-0.000018
 668	3.3350e-01	13.3376	0.113516	0.000000	0.004668	0.001582	-0.000038
 669	3.3400e-01	13.3055	0.113326	0.000000	0.004668	0.001582	-0.000038
 670	3.3450e-01	13.2397	0.113210	0.000000	0.002841	0.000963	-0.000023
 671	3.3500e-01	13.2445	0.113343	0.000000	0.003247	0.001100	0.000026
 672	3.3550e-01	13.1708	0.113136	0.000001	0.005074	0.001719	-0.000041
 673	3.3600e-01	13.1579	0.112946	0.000000	0.004668	0.001582	-0.000038
 674	3.3650e-01	13.1066	0.112541	0.000001	0.009945	0.003369	-0.000081
 675	3.3700e-01	13.0456	0.112326	0.000001	0.005277	0.001788	-0.000043
 676	3.3750e-01	12.9911	0.112293	0.000000	0.000812	0.000275	-0.000007
 677	3.3800e-01	12.9831	0.112194	0.000000	0.002435	0.000825	-0.000020
 678	3.3850e-01	12.9526	0.111922	0.000001	0.006698	0.002269	-0.000055
 679	3.3900e-01	12.9157	0.111765	0.000000	0.003856	0.001307	-0.000031
 680	3.3950e-01	12.8435	0.111566	0.000000	0.004871	0.001650	-0.000040
 681	3.4000e-01	12.8034	0.111459	0.000000	0.002638	0.000894	-0.000021
 682	3.4050e-01	12.7488	0.111327	0.000000	0.003247	0.001100	-0.000026
 683	3.4100e-01	12.7569	0.111112	-0.000001	-0.005277	-0.001788	-0.000043
 684	3.4150e-01	12.7103	0.110938	0.000000	0.004262	0.001444	-0.000035
 685	3.4200e-01	12.6654	0.110756	0.000000	0.004465	0.001513	-0.000036
 686	3.4250e-01	12.6157	0.110550	0.000001	0.005074	0.001719	-0.000041
 687	3.4300e-01	12.5804	0.110591	-0.000000	-0.001015	-0.000344	0.000008
 688	3.4350e-01	12.5531	0.110228	0.000001	0.008930	0.003026	-0.000073
 689	3.4400e-01	12.5323	0.110046	0.000000	0.004465	0.001513	-0.000036
 690	3.4450e-01	12.4793	0.109872	0.000000	0.004262	0.001444	-0.000035
 691	3.4500e-01	12.4152	0.109765	0.000000	0.002638	0.000894	-0.000021
 692	3.4550e-01	12.4007	0.109534	0.000001	0.005683	0.001925	-0.000046
 693	3.4600e-01	12.3317	0.109187	0.000001	0.008524	0.002888	-0.000069
 694	3.4650e-01	12.3093	0.109079	0.000000	0.002638	0.000894	-0.000021
 695	3.4700e-01	12.2772	0.108972	0.000000	0.002638	0.000894	-0.000021
 696	3.4750e-01	12.2162	0.108567	0.000001	0.009945	0.003369	-0.000081
 697	3.4800e-01	12.1729	0.107881	0.000002	0.016845	0.005707	-0.000137
 698	3.4850e-01	12.1055	0.107460	0.000001	0.010351	0.003507	-0.000084
 699	3.4900e-01	12.1087	0.107121	-0.000001	-0.008321	-0.002819	-0.000068
 700	3.4950e-01	12.0317	0.107352	-0.000001	-0.005683	-0.001925	0.000046
 701	3.5000e-01	12.0013	0.107716	-0.000001	-0.008930	-0.003026	0.000073
 702	3.5050e-01	11.9916	0.107724	-0.000000	-0.000203	-0.000069	0.000002
 703	3.5100e-01	11.9483	0.107947	-0.000001	-0.005480	-0.001857	0.000045
 704	3.5150e-01	11.8906	0.107988	-0.000000	-0.001015	-0.000344	0.000008
 705	3.5200e-01	11.8408	0.107914	0.000000	0.001827	0.000619	-0.000015
 706	3.5250e-01	11.8280	0.107807	0.000000	0.002638	0.000894	-0.000021
 707	3.5300e-01	11.7638	0.107765	0.000000	0.001015	0.000344	-0.000008
 708	3.5350e-01	11.7414	0.107468	0.000001	0.007306	0.002475	-0.000059
 709	3.5400e-01	11.6868	0.106799	0.000002	0.016440	0.005570	-0.000134
 710	3.5450e-01	11.6676	0.106162	0.000002	0.015628	0.005295	-0.000127
 711	3.5500e-01	11.6195	0.105873	0.000001	0.007103	0.002407	-0.000058
 712	3.5550e-01	11.5986	0.106063	-0.000000	-0.004668	-0.001582	0.000038
 713	3.5600e-01	11.5441	0.106030	0.000000	0.000812	0.000275	-0.000007
 714	3.5650e-01	11.4911	0.106055	-0.000000	-0.000609	-0.000206	0.000005
 715	3.5700e-01	11.4382	0.105956	0.000000	0.002435	0.000825	-0.000020
 716	3.5750e-01	11.4029	0.105444	0.000001	0.012583	0.004263	-0.000102
 717	3.5800e-01	11.3387	0.104931	0.000001	0.012583	0.004263	-0.000102
 718	3.5850e-01	11.3323	0.104873	0.000000	0.001421	0.000481	-0.000012
 719	3.5900e-01	11.3179	0.105030	-0.000000	-0.003856	-0.001307	0.000031
 720	3.5950e-01	11.2393	0.105014	0.000000	0.000406	0.000138	-0.000003
 721	3.6000e-01	11.2216	0.104882	0.000000	0.003247	0.001100	-0.000026
 722	3.6050e-01	11.1687	0.104295	0.000001	0.014410	0.004882	-0.000117
 723	3.6100e-01	11.1414	0.103989	0.000001	0.007509	0.002544	-0.000061
 724	3.6150e-01	11.0949	0.104130	-0.000000	-0.003450	-0.001169	0.000028
 725	3.6200e-01	11.0532	0.104155	-0.000000	-0.000609	-0.000206	0.000005
 726	3.6250e-01	11.0131	0.103857	0.000001	0.007306	0.002475	-0.000059
 727	3.6300e-01	10.9746	0.103535	0.000001	0.007915	0.002682	-0.000064
 728	3.6350e-01	10.9120	0.103328	0.000001	0.005074	0.001719	-0.000041
 729	3.6400e-01	10.8943	0.103394	-0.000000	-0.001624	-0.000550	0.000013
 730	3.6450e-01	10.8510	0.103436	-0.000000	-0.001015	-0.000344	0.000008
 731	3.6500e-01	10.8141	0.102973	0.000001	0.011366	0.003851	-0.000093
 732	3.6550e-01	10.7660	0.102634	0.000001	0.008321	0.002819	-0.000068
 733	3.6600e-01	10.7419	0.102593	0.000000	0.001015	0.000344	-0.000008
 734	3.6650e-01	10.6810	0.102593	-0.000000	-0.000000	-0.000000	0.000000
 735	3.6700e-01	10.6585	0.102436	0.000000	0.003856	0.001307	-0.000031
 736	3.6750e-01	10.6008	0.102006	0.000001	0.010554	0.003576	-0.000086
 737	3.6800e-01	10.5623	0.101734	0.000001	0.006698	0.002269	-0.000055
 738	3.6850e-01	10.5510	0.101676	0.000000	0.001421	0.000481	-0.000012
 739	3.6900e-01	10.5077	0.101701	-0.000000	-0.000609	-0.000206	0.000005
 740	3.6950e-01	10.4596	0.101544	0.000000	0.003856	0.001307	-0.000031
 741	3.7000e-01	10.4179	0.101230	0.000001	0.007712	0.002613	-0.000063
 742	3.7050e-01	10.4018	0.101337	-0.000000	-0.002638	-0.000894	0.000021
 743	3.7100e-01	10.3457	0.101081	0.000001	0.006292	0.002132	-0.000051
 744	3.7150e-01	10.2960	0.100412	0.000002	0.016440	0.005570	-0.000134
 745	3.7200e-01	10.2430	0.099701	0.000002	0.017454	0.005914	-0.000142
 746	3.7250e-01	10.2462	0.099511	-0.000000	-0.004668	-0.001582	-0.000038
 747	3.7300e-01	10.1628	0.099329	0.000000	0.004465	0.001513	-0.000036
 748	3.7350e-01	10.1179	0.098850	0.000001	0.011772	0.003988	-0.000096
 749	3.7400e-01	10.0906	0.098503	0.000001	0.008524	0.002888	-0.000069
 750	3.7450e-01	10.0890	0.098181	0.000001	0.007915	0.002682	-0.000064
 751	3.7500e-01	10.0008	0.098296	-0.000000	-0.002841	-0.000963	0.000023
 752	3.7550e-01	9.9703	0.098321	-0.000000	-0.000609	-0.000206	0.000005
 753	3.7600e-01	9.9430	0.098164	0.000000	0.003856	0.001307	-0.000031
 754	3.7650e-01	9.8901	0.098049	0.000000	0.002841	0.000963	-0.000023
 755	3.7700e-01	9.8596	0.097726	0.000001	0.007915	0.002682	-0.000064
 756	3.7750e-01	9.8035	0.097421	0.000001	0.007509	0.002544	-0.000061
 757	3.7800e-01	9.7730	0.097016	0.000001	0.009945	0.003369	-0.000081
 758	3.7850e-01	9.7184	0.096867	0.000000	0.003653	0.001238	-0.000030
 759	3.7900e-01	9.6992	0.096958	-0.000000	-0.002233	-0.000756	0.000018
 760	3.7950e-01	9.6591	0.096826	0.000000	0.003247	0.001100	-0.000026
 761	3.8000e-01	9.6045	0.096470	0.000001	0.008727	0.002957	-0.000071
 762	3.8050e-01	9.5757	0.096132	0.000001	0.008321	0.002819	-0.000068
 763	3.8100e-01	9.5404	0.095958	0.000000	0.004262	0.001444	-0.000035
 764	3.8150e-01	9.4971	0.095933	0.000000	0.000609	0.000206	-0.000005
 765	3.8200e-01	9.4553	0.095752	0.000000	0.004465	0.001513	-0.000036
 766	3.8250e-01	9.3912	0.095371	0.000001	0.009336	0.003163	-0.000076
 767	3.8300e-01	9.3751	0.095148	0.000001	0.005480	0.001857	-0.000045
 768	3.8350e-01	9.2917	0.094818	0.000001	0.008118	0.002751	-0.000066
 769	3.8400e-01	9.2853	0.094529	0.000001	0.007103	0.002407	-0.000058
 770	3.8450e-01	9.2757	0.094471	0.000000	0.001421	0.000481	-0.000012
 771	3.8500e-01	9.2243	0.094074	0.000001	0.009742	0.003301	-0.000079
 772	3.8550e-01	9.1714	0.093892	0.000000	0.004465	0.001513	-0.000036
 773	3.8600e-01	9.1345	0.093694	0.000000	0.004871	0.001650	-0.000040
 774	3.8650e-01	9.1056	0.093570	0.000000	0.003044	0.001031	-0.000025
 775	3.8700e-01	9.0479	0.093347	0.000001	0.005480	0.001857	-0.000045
 776	3.8750e-01	9.0062	0.093091	0.000001	0.006292	0.002132	-0.000051
 777	3.8800e-01	8.9789	0.092843	0.000001	0.006089	0.002063	-0.000050
 778	3.8850e-01	8.9516	0.092554	0.000001	0.007103	0.002407	-0.000058
 779	3.8900e-01	8.9067	0.092480	0.000000	0.001827	0.000619	-0.000015
 780	3.8950e-01	8.8489	0.092190	0.000001	0.007103	0.002407	-0.000058
 781	3.9000e-01	8.8265	0.091967	0.000001	0.005480	0.001857	-0.000045
 782	3.9050e-01	8.7655	0.091744	0.000001	0.005480	0.001857	-0.000045
 783	3.9100e-01	8.7447	0.091571	0.000000	0.004262	0.001444	-0.000035
 784	3.9150e-01	8.6869	0.091331	0.000001	0.005886	0.001994	-0.000048
 785	3.9200e-01	8.6452	0.091207	0.000000	0.003044	0.001031	-0.000025
 786	3.9250e-01	8.6195	0.090852	0.000001	0.008727	0.002957	-0.000071
 787	3.9300e-01	8.5923	0.090637	0.000001	0.005277	0.001788	-0.000043
 788	3.9350e-01	8.5409	0.090497	0.000000	0.003450	0.001169	-0.000028
 789	3.9400e-01	8.4800	0.089811	0.000002	0.016845	0.005707	-0.000137
 790	3.9450e-01	8.4495	0.089389	0.000001	0.010351	0.003507	-0.000084
 791	3.9500e-01	8.4142	0.088935	0.000001	0.011163	0.003782	-0.000091
 792	3.9550e-01	8.3677	0.088852	0.000000	0.002030	0.000688	-0.000017
 793	3.9600e-01	8.3564	0.089009	-0.000000	-0.003856	-0.001307	0.000031
 794	3.9650e-01	8.2955	0.089315	-0.000001	-0.007509	-0.002544	0.000061
 795	3.9700e-01	8.2393	0.089323	-0.000000	-0.000203	-0.000069	0.000002
 796	3.9750e-01	8.1848	0.089331	-0.000000	-0.000203	-0.000069	0.000002
 797	3.9800e-01	8.1800	0.089241	0.000000	0.002233	0.000756	-0.000018
 798	3.9850e-01	8.1335	0.089084	0.000000	0.003856	0.001307	-0.000031
 799	3.9900e-01	8.1126	0.088968	0.000000	0.002841	0.000963	-0.000023
 800	3.9950e-01	8.0565	0.088827	0.000000	0.003450	0.001169	-0.000028
 801	4.0000e-01	8.0244	0.088125	0.000002	0.017251	0.005845	-0.000140
 802	4.0050e-01	7.9570	0.087456	0.000002	0.016440	0.005570	-0.000134
 803	4.0100e-01	7.9474	0.086803	0.000002	0.016034	0.005432	-0.000131
 804	4.0150e-01	7.8784	0.086754	0.000000	0.001218	0.000413	-0.000010
 805	4.0200e-01	7.8463	0.086762	-0.000000	-0.000203	-0.000069	0.000002
 806	4.0250e-01	7.7918	0.086770	-0.000000	-0.000203	-0.000069	0.000002
 807	4.0300e-01	7.7725	0.086588	0.000000	0.004465	0.001513	-0.000036
 808	4.0350e-01	7.7597	0.086382	0.000001	0.005074	0.001719	-0.000041
 809	4.0400e-01	7.6763	0.085861	0.000001	0.012786	0.004332	-0.000104
 810	4.0450e-01	7.6730	0.085456	0.000001	0.009945	0.003369	-0.000081
 811	4.0500e-01	7.5976	0.085514	-0.000000	-0.001421	-0.000481	0.000012
 812	4.0550e-01	7.5656	0.085407	0.000000	0.002638	0.000894	-0.000021
 813	4.0600e-01	7.5174	0.085481	-0.000000	-0.001827	-0.000619	0.000015
 814	4.0650e-01	7.4886	0.084845	0.000002	0.015628	0.005295	-0.000127
 815	4.0700e-01	7.4452	0.084415	0.000001	0.010554	0.003576	-0.000086
 816	4.0750e-01	7.4260	0.084440	-0.000000	-0.000609	-0.000206	0.000005
 817	4.0800e-01	7.3714	0.084432	0.000000	0.000203	0.000069	-0.000002
 818	4.0850e-01	7.3265	0.084448	-0.000000	-0.000406	-0.000138	0.000003
 819	4.0900e-01	7.3105	0.083829	0.000002	0.015222	0.005157	-0.000124
 820	4.0950e-01	7.2656	0.083399	0.000001	0.010554	0.003576	-0.000086
 821	4.1000e-01	7.2255	0.083382	0.000000	0.000406	0.000138	-0.000003
 822	4.1050e-01	7.1693	0.083399	-0.000000	-0.000406	-0.000138	0.000003
 823	4.1100e-01	7.1276	0.083134	0.000001	0.006495	0.002200	-0.000053
 824	4.1150e-01	7.0779	0.082688	0.000001	0.010960	0.003713	-0.000089
 825	4.1200e-01	7.0506	0.082316	0.000001	0.009133	0.003094	-0.000074
 826	4.1250e-01	7.0025	0.082333	-0.000000	-0.000406	-0.000138	0.000003
 827	4.1300e-01	6.9656	0.082217	0.000000	0.002841	0.000963	-0.000023
 828	4.1350e-01	6.9110	0.082093	0.000000	0.003044	0.001031	-0.000025
 829	4.1400e-01	6.8854	0.081755	0.000001	0.008321	0.002819	-0.000068
 830	4.1450e-01	6.8565	0.081936	-0.000000	-0.004465	-0.001513	0.000036
 831	4.1500e-01	6.8324	0.081424	0.000001	0.012583	0.004263	-0.000102
 832	4.1550e-01	6.7618	0.080829	0.000001	0.014613	0.004951	-0.000119
 833	4.1600e-01	6.7201	0.080053	0.000002	0.019078	0.006464	-0.000155
 834	4.1650e-01	6.7298	0.079656	-0.000001	-0.009742	-0.003301	-0.000079
 835	4.1700e-01	6.6688	0.079474	0.000000	0.004465	0.001513	-0.000036
 836	4.1750e-01	6.6175	0.079127	0.000001	0.008524	0.002888	-0.000069
 837	4.1800e-01	6.5854	0.078623	0.000001	0.012380	0.004195	-0.000101
 838	4.1850e-01	6.5308	0.078359	0.000001	0.006495	0.002200	-0.000053
 839	4.1900e-01	6.4939	0.078301	0.000000	0.001421	0.000481	-0.000012
 840	4.1950e-01	6.5004	0.078450	0.000000	0.003653	0.001238	0.000030
 841	4.2000e-01	6.4073	0.078185	0.000001	0.006495	0.002200	-0.000053
 842	4.2050e-01	6.3656	0.077929	0.000001	0.006292	0.002132	-0.000051
 843	4.2100e-01	6.3592	0.077599	0.000001	0.008118	0.002751	-0.000066
 844	4.2150e-01	6.2934	0.077235	0.000001	0.008930	0.003026	-0.000073
 845	4.2200e-01	6.2533	0.076921	0.000001	0.007712	0.002613	-0.000063
 846	4.2250e-01	6.2389	0.076665	0.000001	0.006292	0.002132	-0.000051
 847	4.2300e-01	6.1651	0.076714	-0.000000	-0.001218	-0.000413	0.000010
 848	4.2350e-01	6.1474	0.076673	0.000000	0.001015	0.000344	-0.000008
 849	4.2400e-01	6.0881	0.076235	0.000001	0.010757	0.003644	-0.000088
 850	4.2450e-01	6.0816	0.075715	0.000001	0.012786	0.004332	-0.000104
 851	4.2500e-01	5.9982	0.075566	0.000000	0.003653	0.001238	-0.000030
 852	4.2550e-01	5.9710	0.075467	0.000000	0.002435	0.000825	-0.000020
 853	4.2600e-01	5.9292	0.075359	0.000000	0.002638	0.000894	-0.000021
 854	4.2650e-01	5.8779	0.075004	0.000001	0.008727	0.002957	-0.000071
 855	4.2700e-01	5.8522	0.074566	0.000001	0.010757	0.003644	-0.000088
 856	4.2750e-01	5.8298	0.074442	0.000000	0.003044	0.001031	-0.000025
 857	4.2800e-01	5.7945	0.074153	0.000001	0.007103	0.002407	-0.000058
 858	4.2850e-01	5.7079	0.074021	0.000000	0.003247	0.001100	-0.000026
 859	4.2900e-01	5.6758	0.073715	0.000001	0.007509	0.002544	-0.000061
 860	4.2950e-01	5.6742	0.073426	0.000001	0.007103	0.002407	-0.000058
 861	4.3000e-01	5.6068	0.073203	0.000001	0.005480	0.001857	-0.000045
 862	4.3050e-01	5.5988	0.072897	0.000001	0.007509	0.002544	-0.000061
 863	4.3100e-01	5.5378	0.072666	0.000001	0.005683	0.001925	-0.000046
 864	4.3150e-01	5.5009	0.072459	0.000001	0.005074	0.001719	-0.000041
 865	4.3200e-01	5.4239	0.072071	0.000001	0.009539	0.003232	-0.000078
 866	4.3250e-01	5.3870	0.071773	0.000001	0.007306	0.002475	-0.000059
 867	4.3300e-01	5.3822	0.071517	0.000001	0.006292	0.002132	-0.000051
 868	4.3350e-01	5.3357	0.071178	0.000001	0.008321	0.002819	-0.000068
 869	4.3400e-01	5.3196	0.070856	0.000001	0.007915	0.002682	-0.000064
 870	4.3450e-01	5.2426	0.070427	0.000001	0.010554	0.003576	-0.000086
 871	4.3500e-01	5.2282	0.070228	0.000000	0.004871	0.001650	-0.000040
 872	4.3550e-01	5.1720	0.069865	0.000001	0.008930	0.003026	-0.000073
 873	4.3600e-01	5.1464	0.069542	0.000001	0.007915	0.002682	-0.000064
 874	4.3650e-01	5.0999	0.069237	0.000001	0.007509	0.002544	-0.000061
 875	4.3700e-01	5.0694	0.068989	0.000001	0.006089	0.002063	-0.000050
 876	4.3750e-01	5.0100	0.068832	0.000000	0.003856	0.001307	-0.000031
 877	4.3800e-01	4.9844	0.068510	0.000001	0.007915	0.002682	-0.000064
 878	4.3850e-01	4.9314	0.068196	0.000001	0.007712	0.002613	-0.000063
 879	4.3900e-01	4.8961	0.067973	0.000001	0.005480	0.001857	-0.000045
 880	4.3950e-01	4.8544	0.067733	0.000001	0.005886	0.001994	-0.000048
 881	4.4000e-01	4.8287	0.067254	0.000001	0.011772	0.003988	-0.000096
 882	4.4050e-01	4.7742	0.066717	0.000001	0.013192	0.004470	-0.000107
 883	4.4100e-01	4.7710	0.066130	0.000001	0.014410	0.004882	-0.000117
 884	4.4150e-01	4.6844	0.065626	0.000001	0.012380	0.004195	-0.000101
 885	4.4200e-01	4.6876	0.065543	-0.000000	-0.002030	-0.000688	-0.000017
 886	4.4250e-01	4.6074	0.065527	0.000000	0.000406	0.000138	-0.000003
 887	4.4300e-01	4.5993	0.065750	-0.000001	-0.005480	-0.001857	0.000045
 888	4.4350e-01	4.5496	0.065758	-0.000000	-0.000203	-0.000069	0.000002
 889	4.4400e-01	4.4870	0.065494	0.000001	0.006495	0.002200	-0.000053
 890	4.4450e-01	4.4437	0.065238	0.000001	0.006292	0.002132	-0.000051
 891	4.4500e-01	4.4132	0.065105	0.000000	0.003247	0.001100	-0.000026
 892	4.4550e-01	4.3796	0.064957	0.000000	0.003653	0.001238	-0.000030
 893	4.4600e-01	4.3475	0.064692	0.000001	0.006495	0.002200	-0.000053
 894	4.4650e-01	4.3090	0.064006	0.000002	0.016845	0.005707	-0.000137
 895	4.4700e-01	4.2624	0.063139	0.000002	0.021310	0.007220	-0.000174
 896	4.4750e-01	4.2288	0.062660	0.000001	0.011772	0.003988	-0.000096
 897	4.4800e-01	4.1806	0.062602	0.000000	0.001421	0.000481	-0.000012
 898	4.4850e-01	4.1421	0.062511	0.000000	0.002233	0.000756	-0.000018
 899	4.4900e-01	4.0699	0.062437	0.000000	0.001827	0.000619	-0.000015
 900	4.4950e-01	4.0411	0.062387	0.000000	0.001218	0.000413	-0.000010
 901	4.5000e-01	4.0330	0.061982	0.000001	0.009945	0.003369	-0.000081
 902	4.5050e-01	3.9929	0.061222	0.000002	0.018672	0.006326	-0.000152
 903	4.5100e-01	3.8919	0.060817	0.000001	0.009945	0.003369	-0.000081
 904	4.5150e-01	3.9191	0.060817	0.000000	0.000000	0.000000	0.000000
 905	4.5200e-01	3.8421	0.060718	0.000000	0.002435	0.000825	-0.000020
 906	4.5250e-01	3.8052	0.060354	0.000001	0.008930	0.003026	-0.000073
 907	4.5300e-01	3.7748	0.059892	0.000001	0.011366	0.003851	-0.000093
 908	4.5350e-01	3.7234	0.059454	0.000001	0.010757	0.003644	-0.000088
 909	4.5400e-01	3.7122	0.059338	0.000000	0.002841	0.000963	-0.000023
 910	4.5450e-01	3.6528	0.059231	0.000000	0.002638	0.000894	-0.000021
 911	4.5500e-01	3.6240	0.059016	0.000001	0.005277	0.001788	-0.000043
 912	4.5550e-01	3.5630	0.058462	0.000001	0.013598	0.004607	-0.000111
 913	4.5600e-01	3.5261	0.057950	0.000001	0.012583	0.004263	-0.000102
 914	4.5650e-01	3.4924	0.057925	0.000000	0.000609	0.000206	-0.000005
 915	4.5700e-01	3.4475	0.057793	0.000000	0.003247	0.001100	-0.000026
 916	4.5750e-01	3.4026	0.057586	0.000001	0.005074	0.001719	-0.000041
 917	4.5800e-01	3.3721	0.057339	0.000001	0.006089	0.002063	-0.000050
 918	4.5850e-01	3.3368	0.057008	0.000001	0.008118	0.002751	-0.000066
 919	4.5900e-01	3.2919	0.056620	0.000001	0.009539	0.003232	-0.000078
 920	4.5950e-01	3.2406	0.056033	0.000001	0.014410	0.004882	-0.000117
 921	4.6000e-01	3.2117	0.055199	0.000002	0.020499	0.006945	-0.000167
 922	4.6050e-01	3.1876	0.054678	0.000001	0.012786	0.004332	-0.000104
 923	4.6100e-01	3.1331	0.054273	0.000001	0.009945	0.003369	-0.000081
 924	4.6150e-01	3.0849	0.053885	0.000001	0.009539	0.003232	-0.000078
 925	4.6200e-01	3.0561	0.053331	0.000001	0.013598	0.004607	-0.000111
 926	4.6250e-01	2.9999	0.052951	0.000001	0.009336	0.003163	-0.000076
 927	4.6300e-01	2.9614	0.052711	0.000001	0.005886	0.001994	-0.000048
 928	4.6350e-01	2.9133	0.052736	-0.000000	-0.000609	-0.000206	0.000005
 929	4.6400e-01	2.8940	0.052621	0.000000	0.002841	0.000963	-0.000023
 930	4.6450e-01	2.8636	0.052249	0.000001	0.009133	0.003094	-0.000074
 931	4.6500e-01	2.8299	0.051778	0.000001	0.011569	0.003920	-0.000094
 932	4.6550e-01	2.7737	0.051406	0.000001	0.009133	0.003094	-0.000074
 933	4.6600e-01	2.7095	0.051084	0.000001	0.007915	0.002682	-0.000064
 934	4.6650e-01	2.6807	0.050737	0.000001	0.008524	0.002888	-0.000069
 935	4.6700e-01	2.6454	0.050505	0.000001	0.005683	0.001925	-0.000046
 936	4.6750e-01	2.6245	0.050423	0.000000	0.002030	0.000688	-0.000017
 937	4.6800e-01	2.5588	0.050084	0.000001	0.008321	0.002819	-0.000068
 938	4.6850e-01	2.5235	0.049398	0.000002	0.016845	0.005707	-0.000137
 939	4.6900e-01	2.5010	0.049035	0.000001	0.008930	0.003026	-0.000073
 940	4.6950e-01	2.4400	0.048803	0.000001	0.005683	0.001925	-0.000046
 941	4.7000e-01	2.4015	0.048787	0.000000	0.000406	0.000138	-0.000003
 942	4.7050e-01	2.3727	0.048390	0.000001	0.009742	0.003301	-0.000079
 943	4.7100e-01	2.3326	0.047746	0.000002	0.015831	0.005364	-0.000129
 944	4.7150e-01	2.2844	0.047514	0.000001	0.005683	0.001925	-0.000046
 945	4.7200e-01	2.2620	0.047316	0.000000	0.004871	0.001650	-0.000040
 946	4.7250e-01	2.2251	0.047275	0.000000	0.001015	0.000344	-0.000008
 947	4.7300e-01	2.1834	0.046705	0.000001	0.014004	0.004745	-0.000114
 948	4.7350e-01	2.1352	0.046358	0.000001	0.008524	0.002888	-0.000069
 949	4.7400e-01	2.1096	0.046101	0.000001	0.006292	0.002132	-0.000051
 950	4.7450e-01	2.0566	0.045911	0.000000	0.004668	0.001582	-0.000038
 951	4.7500e-01	2.0229	0.045721	0.000000	0.004668	0.001582	-0.000038
 952	4.7550e-01	1.9796	0.045316	0.000001	0.009945	0.003369	-0.000081
 953	4.7600e-01	1.9572	0.045069	0.000001	0.006089	0.002063	-0.000050
 954	4.7650e-01	1.9171	0.044788	0.000001	0.006901	0.002338	-0.000056
 955	4.7700e-01	1.8481	0.044441	0.000001	0.008524	0.002888	-0.000069
 956	4.7750e-01	1.8112	0.044135	0.000001	0.007509	0.002544	-0.000061
 957	4.7800e-01	1.7502	0.043788	0.000001	0.008524	0.002888	-0.000069
 958	4.7850e-01	1.7181	0.043375	0.000001	0.010148	0.003438	-0.000083
 959	4.7900e-01	1.6716	0.042986	0.000001	0.009539	0.003232	-0.000078
 960	4.7950e-01	1.6556	0.042598	0.000001	0.009539	0.003232	-0.000078
 961	4.8000e-01	1.6315	0.042292	0.000001	0.007509	0.002544	-0.000061
 962	4.8050e-01	1.5882	0.041962	0.000001	0.008118	0.002751	-0.000066
 963	4.8100e-01	1.5256	0.041805	0.000000	0.003856	0.001307	-0.000031
 964	4.8150e-01	1.4871	0.041433	0.000001	0.009133	0.003094	-0.000074
 965	4.8200e-01	1.4679	0.041235	0.000000	0.004871	0.001650	-0.000040
 966	4.8250e-01	1.4262	0.040871	0.000001	0.008930	0.003026	-0.000073
 967	4.8300e-01	1.3556	0.040598	0.000001	0.006698	0.002269	-0.000055
 968	4.8350e-01	1.3443	0.040326	0.000001	0.006698	0.002269	-0.000055
 969	4.8400e-01	1.2818	0.040177	0.000000	0.003653	0.001238	-0.000030
 970	4.8450e-01	1.2465	0.039896	0.000001	0.006901	0.002338	-0.000056
 971	4.8500e-01	1.2144	0.039524	0.000001	0.009133	0.003094	-0.000074
 972	4.8550e-01	1.1550	0.039169	0.000001	0.008727	0.002957	-0.000071
 973	4.8600e-01	1.1406	0.038839	0.000001	0.008118	0.002751	-0.000066
 974	4.8650e-01	1.1133	0.038235	0.000001	0.014816	0.005020	-0.000121
 975	4.8700e-01	1.0588	0.037525	0.000002	0.017454	0.005914	-0.000142
 976	4.8750e-01	1.0075	0.036988	0.000001	0.013192	0.004470	-0.000107
 977	4.8800e-01	0.9641	0.036401	0.000001	0.014410	0.004882	-0.000117
 978	4.8850e-01	0.9305	0.036376	0.000000	0.000609	0.000206	-0.000005
 979	4.8900e-01	0.9192	0.036442	-0.000000	-0.001624	-0.000550	0.000013
 980	4.8950e-01	0.8502	0.036525	-0.000000	-0.002030	-0.000688	0.000017
 981	4.9000e-01	0.8117	0.036360	0.000000	0.004059	0.001375	-0.000033
 982	4.9050e-01	0.7620	0.036120	0.000001	0.005886	0.001994	-0.000048
 983	4.9100e-01	0.7219	0.035922	0.000000	0.004871	0.001650	-0.000040
 984	4.9150e-01	0.7123	0.035715	0.000001	0.005074	0.001719	-0.000041
 985	4.9200e-01	0.6754	0.035459	0.000001	0.006292	0.002132	-0.000051
 986	4.9250e-01	0.6048	0.034955	0.000001	0.012380	0.004195	-0.000101
 987	4.9300e-01	0.5807	0.034162	0.000002	0.019484	0.006601	-0.000159
 988	4.9350e-01	0.5310	0.033468	0.000002	0.017048	0.005776	-0.000139
 989	4.9400e-01	0.4636	0.032848	0.000002	0.015222	0.005157	-0.000124
 990	4.9450e-01	0.4636	0.032815	0.000000	0.000812	0.000275	-0.000007
 991	4.9500e-01	0.4380	0.032650	0.000000	0.004059	0.001375	-0.000033
 992	4.9550e-01	0.3385	0.032485	0.000000	0.004059	0.001375	-0.000033
 993	4.9600e-01	0.3561	0.032303	-0.000000	-0.004465	-0.001513	-0.000036
 994	4.9650e-01	0.2872	0.031600	0.000002	0.017251	0.005845	-0.000140
 995	4.9700e-01	0.2695	0.030857	0.000002	0.018266	0.006189	-0.000149
 996	4.9750e-01	0.2102	0.030493	0.000001	0.008930	0.003026	-0.000073
 997	4.9800e-01	0.2166	0.030402	-0.000000	-0.002233	-0.000756	-0.000018
 998	4.9850e-01	0.1636	0.030204	0.000000	0.004871	0.001650	-0.000040
 999	4.9900e-01	0.1027	0.029849	0.000001	0.008727	0.002957	-0.000071
1000	4.9950e-01	0.0385	0.029229	0.000002	0.015222	0.005157	-0.000124
1001	5.0000e-01	0.0401	0.028874	-0.000001	-0.008727	-0.002957	-0.000071
1002	5.0050e-01	-0.0401	0.028882	-0.000000	-0.000203	-0.000069	0.000002
1003	5.0100e-01	-0.0818	0.028816	0.000000	0.001624	0.000550	-0.000013
1004	5.0150e-01	-0.0946	0.028758	0.000000	0.001421	0.000481	-0.000012
1005	5.0200e-01	-0.1123	0.028180	0.000001	0.014207	0.004813	-0.000116
1006	5.0250e-01	-0.1845	0.027907	0.000001	0.006698	0.002269	-0.000055
1007	5.0300e-01	-0.2230	0.027618	0.000001	0.007103	0.002407	-0.000058
1008	5.0350e-01	-0.2583	0.026866	0.000002	0.018469	0.006257	-0.000150
1009	5.0400e-01	-0.2856	0.025974	0.000002	0.021919	0.007426	-0.000178
1010	5.0450e-01	-0.3417	0.025379	0.000001	0.014613	0.004951	-0.000119
1011	5.0500e-01	-0.3802	0.024932	0.000001	0.010960	0.003713	-0.000089
1012	5.0550e-01	-0.4251	0.024701	0.000001	0.005683	0.001925	-0.000046
1013	5.0600e-01	-0.4973	0.024362	0.000001	0.008321	0.002819	-0.000068
1014	5.0650e-01	-0.5053	0.023809	0.000001	0.013598	0.004607	-0.000111
1015	5.0700e-01	-0.5470	0.023429	0.000001	0.009336	0.003163	-0.000076
1016	5.0750e-01	-0.5679	0.023569	-0.000000	-0.003450	-0.001169	0.000028
1017	5.0800e-01	-0.6096	0.023586	-0.000000	-0.000406	-0.000138	0.000003
1018	5.0850e-01	-0.6561	0.023156	0.000001	0.010554	0.003576	-0.000086
1019	5.0900e-01	-0.7059	0.022685	0.000001	0.011569	0.003920	-0.000094
1020	5.0950e-01	-0.7444	0.022404	0.000001	0.006901	0.002338	-0.000056
1021	5.1000e-01	-0.7684	0.022008	0.000001	0.009742	0.003301	-0.000079
1022	5.1050e-01	-0.8278	0.021685	0.000001	0.007915	0.002682	-0.000064
1023	5.1100e-01	-0.8839	0.021462	0.000001	0.005480	0.001857	-0.000045
1024	5.1150e-01	-0.9192	0.021322	0.000000	0.003450	0.001169	-0.000028
1025	5.1200e-01	-0.9128	0.020917	-0.000001	-0.009945	-0.003369	-0.000081
1026	5.1250e-01	-0.9770	0.020471	0.000001	0.010960	0.003713	-0.000089
1027	5.1300e-01	-1.0139	0.019859	0.000002	0.015019	0.005089	-0.000122
1028	5.1350e-01	-1.0556	0.019611	0.000001	0.006089	0.002063	-0.000050
1029	5.1400e-01	-1.1198	0.019471	0.000000	0.003450	0.001169	-0.000028
1030	5.1450e-01	-1.1438	0.019198	0.000001	0.006698	0.002269	-0.000055
1031	5.1500e-01	-1.1903	0.018653	0.000001	0.013395	0.004538	-0.000109
1032	5.1550e-01	-1.2176	0.018339	0.000001	0.007712	0.002613	-0.000063
1033	5.1600e-01	-1.2401	0.018058	0.000001	0.006901	0.002338	-0.000056
1034	5.1650e-01	-1.3042	0.018041	0.000000	0.000406	0.000138	-0.000003
1035	5.1700e-01	-1.3363	0.017570	0.000001	0.011569	0.003920	-0.000094
1036	5.1750e-01	-1.4021	0.017083	0.000001	0.011974	0.004057	-0.000097
1037	5.1800e-01	-1.4005	0.016901	-0.000000	-0.004465	-0.001513	-0.000036
1038	5.1850e-01	-1.4550	0.016786	0.000000	0.002841	0.000963	-0.000023
1039	5.1900e-01	-1.4984	0.016463	0.000001	0.007915	0.002682	-0.000064
1040	5.1950e-01	-1.5096	0.016001	0.000001	0.011366	0.003851	-0.000093
1041	5.2000e-01	-1.5754	0.015637	0.000001	0.008930	0.003026	-0.000073
1042	5.2050e-01	-1.6090	0.015273	0.000001	0.008930	0.003026	-0.000073
1043	5.2100e-01	-1.6620	0.014951	0.000001	0.007915	0.002682	-0.000064
1044	5.2150e-01	-1.6812	0.014538	0.000001	0.010148	0.003438	-0.000083
1045	5.2200e-01	-1.7342	0.014150	0.000001	0.009539	0.003232	-0.000078
1046	5.2250e-01	-1.7919	0.013811	0.000001	0.008321	0.002819	-0.000068
1047	5.2300e-01	-1.8160	0.013472	0.000001	0.008321	0.002819	-0.000068
1048	5.2350e-01	-1.8898	0.013150	0.000001	0.007915	0.002682	-0.000064
1049	5.2400e-01	-1.9074	0.012687	0.000001	0.011366	0.003851	-0.000093
1050	5.2450e-01	-1.9443	0.012365	0.000001	0.007915	0.002682	-0.000064
1051	5.2500e-01	-2.0037	0.012200	0.000000	0.004059	0.001375	-0.000033
1052	5.2550e-01	-2.0422	0.011836	0.000001	0.008930	0.003026	-0.000073
1053	5.2600e-01	-2.0679	0.011382	0.000001	0.011163	0.003782	-0.000091
1054	5.2650e-01	-2.0807	0.010993	0.000001	0.009539	0.003232	-0.000078
1055	5.2700e-01	-2.1256	0.010737	0.000001	0.006292	0.002132	-0.000051
1056	5.2750e-01	-2.1866	0.010589	0.000000	0.003653	0.001238	-0.000030
1057	5.2800e-01	-2.2058	0.010093	0.000001	0.012177	0.004126	-0.000099
1058	5.2850e-01	-2.2748	0.009812	0.000001	0.006901	0.002338	-0.000056
1059	5.2900e-01	-2.2588	0.009407	-0.000001	-0.009945	-0.003369	-0.000081
1060	5.2950e-01	-2.3310	0.009209	0.000000	0.004871	0.001650	-0.000040
1061	5.3000e-01	-2.3871	0.008820	0.000001	0.009539	0.003232	-0.000078
1062	5.3050e-01	-2.4240	0.008465	0.000001	0.008727	0.002957	-0.000071
1063	5.3100e-01	-2.4914	0.008027	0.000001	0.010757	0.003644	-0.000088
1064	5.3150e-01	-2.5235	0.007763	0.000001	0.006495	0.002200	-0.000053
1065	5.3200e-01	-2.5604	0.007275	0.000001	0.011974	0.004057	-0.000097
1066	5.3250e-01	-2.5652	0.006821	0.000001	0.011163	0.003782	-0.000091
1067	5.3300e-01	-2.5924	0.006275	0.000001	0.013395	0.004538	-0.000109
1068	5.3350e-01	-2.6630	0.005656	0.000002	0.015222	0.005157	-0.000124
1069	5.3400e-01	-2.7112	0.005110	0.000001	0.013395	0.004538	-0.000109
1070	5.3450e-01	-2.7352	0.004590	0.000001	0.012786	0.004332	-0.000104
1071	5.3500e-01	-2.7817	0.004664	-0.000000	-0.001827	-0.000619	0.000015
1072	5.3550e-01	-2.8154	0.004846	-0.000000	-0.004465	-0.001513	0.000036
1073	5.3600e-01	-2.8700	0.004920	-0.000000	-0.001827	-0.000619	0.000015
1074	5.3650e-01	-2.9117	0.004747	0.000000	0.004262	0.001444	-0.000035
1075	5.3700e-01	-2.9759	0.004549	0.000000	0.004871	0.001650	-0.000040
1076	5.3750e-01	-2.9534	0.004334	-0.000001	-0.005277	-0.001788	-0.000043
1077	5.3800e-01	-3.0015	0.004003	0.000001	0.008118	0.002751	-0.000066
1078	5.3850e-01	-3.0705	0.003772	0.000001	0.005683	0.001925	-0.000046
1079	5.3900e-01	-3.1026	0.003053	0.000002	0.017657	0.005982	-0.000144
1080	5.3950e-01	-3.1299	0.002227	0.000002	0.020296	0.006876	-0.000165
1081	5.4000e-01	-3.1812	0.001516	0.000002	0.017454	0.005914	-0.000142
1082	5.4050e-01	-3.2325	0.001144	0.000001	0.009133	0.003094	-0.000074
1083	5.4100e-01	-3.2694	0.000888	0.000001	0.006292	0.002132	-0.000051
1084	5.4150e-01	-3.3079	0.000723	0.000000	0.004059	0.001375	-0.000033
1085	5.4200e-01	-3.3464	0.000764	-0.000000	-0.001015	-0.000344	0.000008
1086	5.4250e-01	-3.3577	0.000392	0.000001	0.009133	0.003094	-0.000074
1087	5.4300e-01	-3.3978	-0.000376	0.000002	0.018875	0.006395	-0.000154
1088	5.4350e-01	-3.4491	-0.000863	0.000001	0.011974	0.004057	-0.000097
1089	5.4400e-01	-3.4892	-0.000954	0.000000	0.002233	0.000756	-0.000018
1090	5.4450e-01	-3.5341	-0.001012	0.000000	0.001421	0.000481	-0.000012
1091	5.4500e-01	-3.6015	-0.001169	0.000000	0.003856	0.001307	-0.000031
1092	5.4550e-01	-3.6593	-0.001500	0.000001	0.008118	0.002751	-0.000066
1093	5.4600e-01	-3.6689	-0.001913	0.000001	0.010148	0.003438	-0.000083
1094	5.4650e-01	-3.6962	-0.002111	0.000000	0.004871	0.001650	-0.000040
1095	5.4700e-01	-3.7459	-0.002359	0.000001	0.006089	0.002063	-0.000050
1096	5.4750e-01	-3.7716	-0.003003	0.000002	0.015831	0.005364	-0.000129
1097	5.4800e-01	-3.8181	-0.003805	0.000002	0.019687	0.006670	-0.000160
1098	5.4850e-01	-3.8822	-0.004648	0.000002	0.020702	0.007014	-0.000169
1099	5.4900e-01	-3.9079	-0.005028	0.000001	0.009336	0.003163	-0.000076
1100	5.4950e-01	-3.9576	-0.005457	0.000001	0.010554	0.003576	-0.000086
1101	5.5000e-01	-3.9817	-0.005656	0.000000	0.004871	0.001650	-0.000040
1102	5.5050e-01	-4.0475	-0.006432	0.000002	0.019078	0.006464	-0.000155
1103	5.5100e-01	-4.0603	-0.006755	0.000001	0.007915	0.002682	-0.000064
1104	5.5150e-01	-4.1068	-0.006755	-0.000000	-0.000000	-0.000000	0.000000
1105	5.5200e-01	-4.1534	-0.006598	-0.000000	-0.003856	-0.001307	0.000031
1106	5.5250e-01	-4.1582	-0.006879	0.000001	0.006901	0.002338	-0.000056
1107	5.5300e-01	-4.2272	-0.007507	0.000002	0.015425	0.005226	-0.000126
1108	5.5350e-01	-4.2624	-0.007887	0.000001	0.009336	0.003163	-0.000076
1109	5.5400e-01	-4.3058	-0.008267	0.000001	0.009336	0.003163	-0.000076
1110	5.5450e-01	-4.3427	-0.008622	0.000001	0.008727	0.002957	-0.000071
1111	5.5500e-01	-4.4020	-0.009093	0.000001	0.011569	0.003920	-0.000094
1112	5.5550e-01	-4.4132	-0.009341	0.000001	0.006089	0.002063	-0.000050
1113	5.5600e-01	-4.4453	-0.009597	0.000001	0.006292	0.002132	-0.000051
1114	5.5650e-01	-4.4790	-0.009994	0.000001	0.009742	0.003301	-0.000079
1115	5.5700e-01	-4.5239	-0.010539	0.000001	0.013395	0.004538	-0.000109
1116	5.5750e-01	-4.5689	-0.010977	0.000001	0.010757	0.003644	-0.000088
1117	5.5800e-01	-4.6186	-0.011035	0.000000	0.001421	0.000481	-0.000012
1118	5.5850e-01	-4.6956	-0.011183	0.000000	0.003653	0.001238	-0.000030
1119	5.5900e-01	-4.7197	-0.011754	0.000001	0.014004	0.004745	-0.000114
1120	5.5950e-01	-4.7437	-0.012291	0.000001	0.013192	0.004470	-0.000107
1121	5.6000e-01	-4.7886	-0.012464	0.000000	0.004262	0.001444	-0.000035
1122	5.6050e-01	-4.8287	-0.012712	0.000001	0.006089	0.002063	-0.000050
1123	5.6100e-01	-4.8688	-0.012927	0.000001	0.005277	0.001788	-0.000043
1124	5.6150e-01	-4.8897	-0.013489	0.000001	0.013801	0.004676	-0.000112
1125	5.6200e-01	-4.9394	-0.013819	0.000001	0.008118	0.002751	-0.000066
1126	5.6250e-01	-4.9683	-0.014075	0.000001	0.006292	0.002132	-0.000051
1127	5.6300e-01	-5.0036	-0.014323	0.000001	0.006089	0.002063	-0.000050
1128	5.6350e-01	-5.0132	-0.014811	0.000001	0.011974	0.004057	-0.000097
1129	5.6400e-01	-5.0999	-0.015323	0.000001	0.012583	0.004263	-0.000102
1130	5.6450e-01	-5.1368	-0.015538	0.000001	0.005277	0.001788	-0.000043
1131	5.6500e-01	-5.1576	-0.015811	0.000001	0.006698	0.002269	-0.000055
1132	5.6550e-01	-5.2555	-0.016199	0.000001	0.009539	0.003232	-0.000078
1133	5.6600e-01	-5.2731	-0.016736	0.000001	0.013192	0.004470	-0.000107
1134	5.6650e-01	-5.2811	-0.017091	0.000001	0.008727	0.002957	-0.000071
1135	5.6700e-01	-5.3517	-0.017265	0.000000	0.004262	0.001444	-0.000035
1136	5.6750e-01	-5.3838	-0.017628	0.000001	0.008930	0.003026	-0.000073
1137	5.6800e-01	-5.4480	-0.018149	0.000001	0.012786	0.004332	-0.000104
1138	5.6850e-01	-5.4656	-0.018314	0.000000	0.004059	0.001375	-0.000033
1139	5.6900e-01	-5.4993	-0.018554	0.000001	0.005886	0.001994	-0.000048
1140	5.6950e-01	-5.5089	-0.018702	0.000000	0.003653	0.001238	-0.000030
1141	5.7000e-01	-5.5683	-0.019066	0.000001	0.008930	0.003026	-0.000073
1142	5.7050e-01	-5.6549	-0.019520	0.000001	0.011163	0.003782	-0.000091
1143	5.7100e-01	-5.6405	-0.019777	-0.000001	-0.006292	-0.002132	-0.000051
1144	5.7150e-01	-5.6918	-0.019909	0.000000	0.003247	0.001100	-0.000026
1145	5.7200e-01	-5.7560	-0.020206	0.000001	0.007306	0.002475	-0.000059
1146	5.7250e-01	-5.7672	-0.020702	0.000001	0.012177	0.004126	-0.000099
1147	5.7300e-01	-5.7913	-0.020884	0.000000	0.004465	0.001513	-0.000036
1148	5.7350e-01	-5.8859	-0.021247	0.000001	0.008930	0.003026	-0.000073
1149	5.7400e-01	-5.9405	-0.021537	0.000001	0.007103	0.002407	-0.000058
1150	5.7450e-01	-5.9148	-0.022008	-0.000001	-0.011569	-0.003920	-0.000094
1151	5.7500e-01	-5.9950	-0.022206	0.000000	0.004871	0.001650	-0.000040
1152	5.7550e-01	-6.0319	-0.022520	0.000001	0.007712	0.002613	-0.000063
1153	5.7600e-01	-6.1041	-0.022801	0.000001	0.006901	0.002338	-0.000056
1154	5.7650e-01	-6.0945	-0.023206	-0.000001	-0.009945	-0.003369	-0.000081
1155	5.7700e-01	-6.1394	-0.023437	0.000001	0.005683	0.001925	-0.000046
1156	5.7750e-01	-6.1875	-0.023767	0.000001	0.008118	0.002751	-0.000066
1157	5.7800e-01	-6.2485	-0.023974	0.000001	0.005074	0.001719	-0.000041
1158	5.7850e-01	-6.2485	-0.024296	0.000001	0.007915	0.002682	-0.000064
1159	5.7900e-01	-6.2950	-0.024585	0.000001	0.007103	0.002407	-0.000058
1160	5.7950e-01	-6.3576	-0.025288	0.000002	0.017251	0.005845	-0.000140
1161	5.8000e-01	-6.4025	-0.025825	0.000001	0.013192	0.004470	-0.000107
1162	5.8050e-01	-6.4089	-0.026502	0.000002	0.016642	0.005639	-0.000136
1163	5.8100e-01	-6.4009	-0.026973	-0.000001	-0.011569	-0.003920	-0.000094
1164	5.8150e-01	-6.4875	-0.026775	-0.000000	-0.004871	-0.001650	0.000040
1165	5.8200e-01	-6.5372	-0.026610	-0.000000	-0.004059	-0.001375	0.000033
1166	5.8250e-01	-6.6046	-0.026585	-0.000000	-0.000609	-0.000206	0.000005
1167	5.8300e-01	-6.6223	-0.026825	0.000001	0.005886	0.001994	-0.000048
1168	5.8350e-01	-6.6608	-0.027114	0.000001	0.007103	0.002407	-0.000058
1169	5.8400e-01	-6.6816	-0.027205	0.000000	0.002233	0.000756	-0.000018
1170	5.8450e-01	-6.7570	-0.027378	0.000000	0.004262	0.001444	-0.000035
1171	5.8500e-01	-6.7907	-0.027824	0.000001	0.010960	0.003713	-0.000089
1172	5.8550e-01	-6.7843	-0.028428	-0.000001	-0.014816	-0.005020	-0.000121
1173	5.8600e-01	-6.8677	-0.029213	0.000002	0.019281	0.006533	-0.000157
1174	5.8650e-01	-6.8918	-0.029882	0.000002	0.016440	0.005570	-0.000134
1175	5.8700e-01	-6.9383	-0.030254	0.000001	0.009133	0.003094	-0.000074
1176	5.8750e-01	-6.9800	-0.030270	0.000000	0.000406	0.000138	-0.000003
1177	5.8800e-01	-7.0121	-0.030295	0.000000	0.000609	0.000206	-0.000005
1178	5.8850e-01	-7.0827	-0.030435	0.000000	0.003450	0.001169	-0.000028
1179	5.8900e-01	-7.1244	-0.030708	0.000001	0.006698	0.002269	-0.000055
1180	5.8950e-01	-7.1116	-0.031229	-0.000001	-0.012786	-0.004332	-0.000104
1181	5.9000e-01	-7.1757	-0.031443	0.000001	0.005277	0.001788	-0.000043
1182	5.9050e-01	-7.2383	-0.031559	0.000000	0.002841	0.000963	-0.000023
1183	5.9100e-01	-7.2543	-0.031733	0.000000	0.004262	0.001444	-0.000035
1184	5.9150e-01	-7.2993	-0.032162	0.000001	0.010554	0.003576	-0.000086
1185	5.9200e-01	-7.3185	-0.032989	0.000002	0.020296	0.006876	-0.000165
1186	5.9250e-01	-7.3843	-0.033798	0.000002	0.019890	0.006739	-0.000162
1187	5.9300e-01	-7.4212	-0.034170	0.000001	0.009133	0.003094	-0.000074
1188	5.9350e-01	-7.4565	-0.034344	0.000000	0.004262	0.001444	-0.000035
1189	5.9400e-01	-7.4950	-0.034715	0.000001	0.009133	0.003094	-0.000074
1190	5.9450e-01	-7.5495	-0.035186	0.000001	0.011569	0.003920	-0.000094
1191	5.9500e-01	-7.5768	-0.035757	0.000001	0.014004	0.004745	-0.000114
1192	5.9550e-01	-7.6009	-0.035649	-0.000000	-0.002638	-0.000894	0.000021
1193	5.9600e-01	-7.6538	-0.035583	-0.000000	-0.001624	-0.000550	0.000013
1194	5.9650e-01	-7.6746	-0.035500	-0.000000	-0.002030	-0.000688	0.000017
1195	5.9700e-01	-7.7388	-0.036087	0.000001	0.014410	0.004882	-0.000117
1196	5.9750e-01	-7.7869	-0.036814	0.000002	0.017860	0.006051	-0.000145
1197	5.9800e-01	-7.8158	-0.036979	0.000000	0.004059	0.001375	-0.000033
1198	5.9850e-01	-7.8848	-0.037252	0.000001	0.006698	0.002269	-0.000055
1199	5.9900e-01	-7.9008	-0.037467	0.000001	0.005277	0.001788	-0.000043
1200	5.9950e-01	-7.9329	-0.037773	0.000001	0.007509	0.002544	-0.000061
1201	6.0000e-01	-7.9570	-0.037913	0.000000	0.003450	0.001169	-0.000028
1202	6.0050e-01	-8.0196	-0.038128	0.000001	0.005277	0.001788	-0.000043
1203	6.0100e-01	-8.0324	-0.038615	0.000001	0.011974	0.004057	-0.000097
1204	6.0150e-01	-8.1030	-0.039210	0.000001	0.014613	0.004951	-0.000119
1205	6.0200e-01	-8.1543	-0.039433	0.000001	0.005480	0.001857	-0.000045
1206	6.0250e-01	-8.1607	-0.039409	-0.000000	-0.000609	-0.000206	0.000005
1207	6.0300e-01	-8.2121	-0.039706	0.000001	0.007306	0.002475	-0.000059
1208	6.0350e-01	-8.2843	-0.040268	0.000001	0.013801	0.004676	-0.000112
1209	6.0400e-01	-8.3147	-0.040632	0.000001	0.008930	0.003026	-0.000073
1210	6.0450e-01	-8.3244	-0.040698	0.000000	0.001624	0.000550	-0.000013
1211	6.0500e-01	-8.3933	-0.040755	0.000000	0.001421	0.000481	-0.000012
1212	6.0550e-01	-8.4206	-0.041210	0.000001	0.011163	0.003782	-0.000091
1213	6.0600e-01	-8.4736	-0.041722	0.000001	0.012583	0.004263	-0.000102
1214	6.0650e-01	-8.4992	-0.041920	0.000000	0.004871	0.001650	-0.000040
1215	6.0700e-01	-8.5666	-0.041954	0.000000	0.000812	0.000275	-0.000007
1216	6.0750e-01	-8.5682	-0.042367	0.000001	0.010148	0.003438	-0.000083
1217	6.0800e-01	-8.6292	-0.042904	0.000001	0.013192	0.004470	-0.000107
1218	6.0850e-01	-8.6580	-0.043160	0.000001	0.006292	0.002132	-0.000051
1219	6.0900e-01	-8.6965	-0.043201	0.000000	0.001015	0.000344	-0.000008
1220	6.0950e-01	-8.7431	-0.043581	0.000001	0.009336	0.003163	-0.000076
1221	6.1000e-01	-8.7912	-0.044110	0.000001	0.012989	0.004401	-0.000106
1222	6.1050e-01	-8.8040	-0.044408	0.000001	0.007306	0.002475	-0.000059
1223	6.1100e-01	-8.8746	-0.044614	0.000001	0.005074	0.001719	-0.000041
1224	6.1150e-01	-8.8682	-0.044812	-0.000000	-0.004871	-0.001650	-0.000040
1225	6.1200e-01	-8.9372	-0.045226	0.000001	0.010148	0.003438	-0.000083
1226	6.1250e-01	-8.9853	-0.045556	0.000001	0.008118	0.002751	-0.000066
1227	6.1300e-01	-9.0270	-0.045680	0.000000	0.003044	0.001031	-0.000025
1228	6.1350e-01	-9.0623	-0.045812	0.000000	0.003247	0.001100	-0.000026
1229	6.1400e-01	-9.0960	-0.046027	0.000001	0.005277	0.001788	-0.000043
1230	6.1450e-01	-9.1489	-0.046473	0.000001	0.010960	0.003713	-0.000089
1231	6.1500e-01	-9.1826	-0.046837	0.000001	0.008930	0.003026	-0.000073
1232	6.1550e-01	-9.2179	-0.046853	0.000000	0.000406	0.000138	-0.000003
1233	6.1600e-01	-9.2564	-0.047258	0.000001	0.009945	0.003369	-0.000081
1234	6.1650e-01	-9.3013	-0.047655	0.000001	0.009742	0.003301	-0.000079
1235	6.1700e-01	-9.3607	-0.048002	0.000001	0.008524	0.002888	-0.000069
1236	6.1750e-01	-9.3671	-0.048167	0.000000	0.004059	0.001375	-0.000033
1237	6.1800e-01	-9.4120	-0.048382	0.000001	0.005277	0.001788	-0.000043
1238	6.1850e-01	-9.4345	-0.048836	0.000001	0.011163	0.003782	-0.000091
1239	6.1900e-01	-9.4987	-0.049216	0.000001	0.009336	0.003163	-0.000076
1240	6.1950e-01	-9.5372	-0.049464	0.000001	0.006089	0.002063	-0.000050
1241	6.2000e-01	-9.6110	-0.049729	0.000001	0.006495	0.002200	-0.000053
1242	6.2050e-01	-9.6238	-0.050100	0.000001	0.009133	0.003094	-0.000074
1243	6.2100e-01	-9.6527	-0.050481	0.000001	0.009336	0.003163	-0.000076
1244	6.2150e-01	-9.7056	-0.050596	0.000000	0.002841	0.000963	-0.000023
1245	6.2200e-01	-9.7297	-0.050720	0.000000	0.003044	0.001031	-0.000025
1246	6.2250e-01	-9.7842	-0.051051	0.000001	0.008118	0.002751	-0.000066
1247	6.2300e-01	-9.8195	-0.051530	0.000001	0.011772	0.003988	-0.000096
1248	6.2350e-01	-9.8388	-0.051836	0.000001	0.007509	0.002544	-0.000061
1249	6.2400e-01	-9.8981	-0.051951	0.000000	0.002841	0.000963	-0.000023
1250	6.2450e-01	-9.9398	-0.052414	0.000001	0.011366	0.003851	-0.000093
1251	6.2500e-01	-10.0008	-0.052827	0.000001	0.010148	0.003438	-0.000083
1252	6.2550e-01	-10.0457	-0.053149	0.000001	0.007915	0.002682	-0.000064
1253	6.2600e-01	-10.0842	-0.053761	0.000002	0.015019	0.005089	-0.000122
1254	6.2650e-01	-10.0922	-0.054504	0.000002	0.018266	0.006189	-0.000149
1255	6.2700e-01	-10.1500	-0.055075	0.000001	0.014004	0.004745	-0.000114
1256	6.2750e-01	-10.1901	-0.055331	0.000001	0.006292	0.002132	-0.000051
1257	6.2800e-01	-10.2350	-0.055240	-0.000000	-0.002233	-0.000756	0.000018
1258	6.2850e-01	-10.2687	-0.055091	-0.000000	-0.003653	-0.001238	0.000030
1259	6.2900e-01	-10.3152	-0.055182	0.000000	0.002233	0.000756	-0.000018
1260	6.2950e-01	-10.3473	-0.055380	0.000000	0.004871	0.001650	-0.000040
1261	6.3000e-01	-10.3842	-0.055479	0.000000	0.002435	0.000825	-0.000020
1262	6.3050e-01	-10.3746	-0.055537	-0.000000	-0.001421	-0.000481	-0.000012
1263	6.3100e-01	-10.4500	-0.055711	0.000000	0.004262	0.001444	-0.000035
1264	6.3150e-01	-10.4981	-0.055992	0.000001	0.006901	0.002338	-0.000056
1265	6.3200e-01	-10.5382	-0.056735	0.000002	0.018266	0.006189	-0.000149
1266	6.3250e-01	-10.5783	-0.057355	0.000002	0.015222	0.005157	-0.000124
1267	6.3300e-01	-10.6136	-0.058107	0.000002	0.018469	0.006257	-0.000150
1268	6.3350e-01	-10.6425	-0.058165	0.000000	0.001421	0.000481	-0.000012
1269	6.3400e-01	-10.7050	-0.057983	-0.000000	-0.004465	-0.001513	0.000036
1270	6.3450e-01	-10.7323	-0.058074	0.000000	0.002233	0.000756	-0.000018
1271	6.3500e-01	-10.7820	-0.058272	0.000000	0.004871	0.001650	-0.000040
1272	6.3550e-01	-10.8141	-0.058892	0.000002	0.015222	0.005157	-0.000124
1273	6.3600e-01	-10.8334	-0.060032	0.000003	0.028008	0.009489	-0.000228
1274	6.3650e-01	-10.8927	-0.060701	0.000002	0.016440	0.005570	-0.000134
1275	6.3700e-01	-10.9617	-0.060933	0.000001	0.005683	0.001925	-0.000046
1276	6.3750e-01	-10.9874	-0.061123	0.000000	0.004668	0.001582	-0.000038
1277	6.3800e-01	-11.0275	-0.061412	0.000001	0.007103	0.002407	-0.000058
1278	6.3850e-01	-11.0339	-0.061974	0.000001	0.013801	0.004676	-0.000112
1279	6.3900e-01	-11.1141	-0.062561	0.000001	0.014410	0.004882	-0.000117
1280	6.3950e-01	-11.1478	-0.062486	-0.000000	-0.001827	-0.000619	0.000015
1281	6.4000e-01	-11.1879	-0.062354	-0.000000	-0.003247	-0.001100	0.000026
1282	6.4050e-01	-11.2280	-0.062404	0.000000	0.001218	0.000413	-0.000010
1283	6.4100e-01	-11.2441	-0.062949	0.000001	0.013395	0.004538	-0.000109
1284	6.4150e-01	-11.2762	-0.063593	0.000002	0.015831	0.005364	-0.000129
1285	6.4200e-01	-11.3435	-0.064015	0.000001	0.010351	0.003507	-0.000084
1286	6.4250e-01	-11.3564	-0.064106	0.000000	0.002233	0.000756	-0.000018
1287	6.4300e-01	-11.4125	-0.064411	0.000001	0.007509	0.002544	-0.000061
1288	6.4350e-01	-11.4590	-0.064758	0.000001	0.008524	0.002888	-0.000069
1289	6.4400e-01	-11.5328	-0.065089	0.000001	0.008118	0.002751	-0.000066
1290	6.4450e-01	-11.5521	-0.065403	0.000001	0.007712	0.002613	-0.000063
1291	6.4500e-01	-11.5906	-0.065642	0.000001	0.005886	0.001994	-0.000048
1292	6.4550e-01	-11.6596	-0.066213	0.000001	0.014004	0.004745	-0.000114
1293	6.4600e-01	-11.6692	-0.066576	0.000001	0.008930	0.003026	-0.000073
1294	6.4650e-01	-11.6884	-0.066609	0.000000	0.000812	0.000275	-0.000007
1295	6.4700e-01	-11.7269	-0.066874	0.000001	0.006495	0.002200	-0.000053
1296	6.4750e-01	-11.8039	-0.067287	0.000001	0.010148	0.003438	-0.000083
1297	6.4800e-01	-11.8152	-0.067592	0.000001	0.007509	0.002544	-0.000061
1298	6.4850e-01	-11.8649	-0.067783	0.000000	0.004668	0.001582	-0.000038
1299	6.4900e-01	-11.9114	-0.067832	0.000000	0.001218	0.000413	-0.000010
1300	6.4950e-01	-11.9628	-0.068204	0.000001	0.009133	0.003094	-0.000074
1301	6.5000e-01	-11.9868	-0.068774	0.000001	0.014004	0.004745	-0.000114
1302	6.5050e-01	-11.9868	-0.069080	0.000001	0.007509	0.002544	-0.000061
1303	6.5100e-01	-12.0510	-0.069121	0.000000	0.001015	0.000344	-0.000008
1304	6.5150e-01	-12.0911	-0.069526	0.000001	0.009945	0.003369	-0.000081
1305	6.5200e-01	-12.1376	-0.069947	0.000001	0.010351	0.003507	-0.000084
1306	6.5250e-01	-12.1777	-0.070427	0.000001	0.011772	0.003988	-0.000096
1307	6.5300e-01	-12.2210	-0.070542	0.000000	0.002841	0.000963	-0.000023
1308	6.5350e-01	-12.2644	-0.070707	0.000000	0.004059	0.001375	-0.000033
1309	6.5400e-01	-12.3157	-0.071170	0.000001	0.011366	0.003851	-0.000093
1310	6.5450e-01	-12.3478	-0.071674	0.000001	0.012380	0.004195	-0.000101
1311	6.5500e-01	-12.3734	-0.071939	0.000001	0.006495	0.002200	-0.000053
1312	6.5550e-01	-12.4248	-0.072005	0.000000	0.001624	0.000550	-0.000013
1313	6.5600e-01	-12.4681	-0.072426	0.000001	0.010351	0.003507	-0.000084
1314	6.5650e-01	-12.5034	-0.072996	0.000001	0.014004	0.004745	-0.000114
1315	6.5700e-01	-12.5323	-0.073203	0.000001	0.005074	0.001719	-0.000041
1316	6.5750e-01	-12.5852	-0.073244	0.000000	0.001015	0.000344	-0.000008
1317	6.5800e-01	-12.6446	-0.073616	0.000001	0.009133	0.003094	-0.000074
1318	6.5850e-01	-12.6766	-0.074046	0.000001	0.010554	0.003576	-0.000086
1319	6.5900e-01	-12.6943	-0.074327	0.000001	0.006901	0.002338	-0.000056
1320	6.5950e-01	-12.7424	-0.074508	0.000000	0.004465	0.001513	-0.000036
1321	6.6000e-01	-12.8034	-0.074797	0.000001	0.007103	0.002407	-0.000058
1322	6.6050e-01	-12.8242	-0.075285	0.000001	0.011974	0.004057	-0.000097
1323	6.6100e-01	-12.8756	-0.075665	0.000001	0.009336	0.003163	-0.000076
1324	6.6150e-01	-12.8756	-0.075764	0.000000	0.002435	0.000825	-0.000020
1325	6.6200e-01	-12.9638	-0.076103	0.000001	0.008321	0.002819	-0.000068
1326	6.6250e-01	-12.9542	-0.076533	-0.000001	-0.010554	-0.003576	-0.000086
1327	6.6300e-01	-13.0280	-0.076805	0.000001	0.006698	0.002269	-0.000055
1328	6.6350e-01	-13.0633	-0.076929	0.000000	0.003044	0.001031	-0.000025
1329	6.6400e-01	-13.0713	-0.077095	0.000000	0.004059	0.001375	-0.000033
1330	6.6450e-01	-13.1595	-0.077433	0.000001	0.008321	0.002819	-0.000068
1331	6.6500e-01	-13.1884	-0.077780	0.000001	0.008524	0.002888	-0.000069
1332	6.6550e-01	-13.2189	-0.078119	0.000001	0.008321	0.002819	-0.000068
1333	6.6600e-01	-13.2782	-0.078210	0.000000	0.002233	0.000756	-0.000018
1334	6.6650e-01	-13.2943	-0.078532	0.000001	0.007915	0.002682	-0.000064
1335	6.6700e-01	-13.3264	-0.079003	0.000001	0.011569	0.003920	-0.000094
1336	6.6750e-01	-13.3729	-0.079210	0.000001	0.005074	0.001719	-0.000041
1337	6.6800e-01	-13.4338	-0.079408	0.000000	0.004871	0.001650	-0.000040
1338	6.6850e-01	-13.4723	-0.079722	0.000001	0.007712	0.002613	-0.000063
1339	6.6900e-01	-13.4659	-0.080152	-0.000001	-0.010554	-0.003576	-0.000086
1340	6.6950e-01	-13.5766	-0.080557	0.000001	0.009945	0.003369	-0.000081
1341	6.7000e-01	-13.5702	-0.080879	-0.000001	-0.007915	-0.002682	-0.000064
1342	6.7050e-01	-13.6199	-0.081168	0.000001	0.007103	0.002407	-0.000058
1343	6.7100e-01	-13.6745	-0.081705	0.000001	0.013192	0.004470	-0.000107
1344	6.7150e-01	-13.7274	-0.081903	0.000000	0.004871	0.001650	-0.000040
1345	6.7200e-01	-13.7723	-0.081928	0.000000	0.000609	0.000206	-0.000005
1346	6.7250e-01	-13.7932	-0.082821	0.000002	0.021919	0.007426	-0.000178
1347	6.7300e-01	-13.8445	-0.083415	0.000001	0.014613	0.004951	-0.000119
1348	6.7350e-01	-13.8526	-0.083837	0.000001	0.010351	0.003507	-0.000084
1349	6.7400e-01	-13.8927	-0.084035	0.000000	0.004871	0.001650	-0.000040
1350	6.7450e-01	-13.9616	-0.083705	-0.000001	-0.008118	-0.002751	0.000066
1351	6.7500e-01	-14.0114	-0.083572	-0.000000	-0.003247	-0.001100	0.000026
1352	6.7550e-01	-14.0017	-0.083705	-0.000000	-0.003247	-0.001100	-0.000026
1353	6.7600e-01	-14.0306	-0.083862	0.000000	0.003856	0.001307	-0.000031
1354	6.7650e-01	-14.1253	-0.084002	0.000000	0.003450	0.001169	-0.000028
1355	6.7700e-01	-14.1365	-0.084126	0.000000	0.003044	0.001031	-0.000025
1356	6.7750e-01	-14.1894	-0.084109	-0.000000	-0.000406	-0.000138	0.000003
1357	6.7800e-01	-14.2103	-0.084349	0.000001	0.005886	0.001994	-0.000048
1358	6.7850e-01	-14.2697	-0.084977	0.000002	0.015425	0.005226	-0.000126
1359	6.7900e-01	-14.3001	-0.085820	0.000002	0.020702	0.007014	-0.000169
1360	6.7950e-01	-14.3338	-0.086704	0.000002	0.021716	0.007358	-0.000177
1361	6.8000e-01	-14.3787	-0.087175	0.000001	0.011569	0.003920	-0.000094
1362	6.8050e-01	-14.4365	-0.087431	0.000001	0.006292	0.002132	-0.000051
1363	6.8100e-01	-14.4782	-0.087563	0.000000	0.003247	0.001100	-0.000026
1364	6.8150e-01	-14.5087	-0.087861	0.000001	0.007306	0.002475	-0.000059
1365	6.8200e-01	-14.5295	-0.088423	0.000001	0.013801	0.004676	-0.000112
1366	6.8250e-01	-14.5921	-0.089282	0.000002	0.021108	0.007151	-0.000172
1367	6.8300e-01	-14.6499	-0.089488	0.000001	0.005074	0.001719	-0.000041
1368	6.8350e-01	-14.6499	-0.089323	-0.000000	-0.004059	-0.001375	0.000033
1369	6.8400e-01	-14.6932	-0.089141	-0.000000	-0.004465	-0.001513	0.000036
1370	6.8450e-01	-14.7269	-0.089092	-0.000000	-0.001218	-0.000413	0.000010
1371	6.8500e-01	-14.7958	-0.089802	0.000002	0.017454	0.005914	-0.000142
1372	6.8550e-01	-14.8327	-0.090414	0.000002	0.015019	0.005089	-0.000122
1373	6.8600e-01	-14.8648	-0.090744	0.000001	0.008118	0.002751	-0.000066
1374	6.8650e-01	-14.9226	-0.090844	0.000000	0.002435	0.000825	-0.000020
1375	6.8700e-01	-14.9611	-0.091108	0.000001	0.006495	0.002200	-0.000053
1376	6.8750e-01	-14.9948	-0.091496	0.000001	0.009539	0.003232	-0.000078
1377	6.8800e-01	-15.0317	-0.091852	0.000001	0.008727	0.002957	-0.000071
1378	6.8850e-01	-15.0750	-0.092124	0.000001	0.006698	0.002269	-0.000055
1379	6.8900e-01	-15.1135	-0.092306	0.000000	0.004465	0.001513	-0.000036
1380	6.8950e-01	-15.1520	-0.092818	0.000001	0.012583	0.004263	-0.000102
1381	6.9000e-01	-15.1841	-0.093190	0.000001	0.009133	0.003094	-0.000074
1382	6.9050e-01	-15.2563	-0.093273	0.000000	0.002030	0.000688	-0.000017
1383	6.9100e-01	-15.2707	-0.093438	0.000000	0.004059	0.001375	-0.000033
1384	6.9150e-01	-15.2771	-0.093752	0.000001	0.007712	0.002613	-0.000063
1385	6.9200e-01	-15.3541	-0.094206	0.000001	0.011163	0.003782	-0.000091
1386	6.9250e-01	-15.3878	-0.094496	0.000001	0.007103	0.002407	-0.000058
1387	6.9300e-01	-15.4263	-0.094496	-0.000000	-0.000000	-0.000000	0.000000
1388	6.9350e-01	-15.4472	-0.094727	0.000001	0.005683	0.001925	-0.000046
1389	6.9400e-01	-15.5290	-0.095148	0.000001	0.010351	0.003507	-0.000084
1390	6.9450e-01	-15.5386	-0.095710	0.000001	0.013801	0.004676	-0.000112
1391	6.9500e-01	-15.5931	-0.095867	0.000000	0.003856	0.001307	-0.000031
1392	6.9550e-01	-15.6124	-0.096008	0.000000	0.003450	0.001169	-0.000028
1393	6.9600e-01	-15.6413	-0.096462	0.000001	0.011163	0.003782	-0.000091
1394	6.9650e-01	-15.7022	-0.097024	0.000001	0.013801	0.004676	-0.000112
1395	6.9700e-01	-15.7263	-0.097222	0.000000	0.004871	0.001650	-0.000040
1396	6.9750e-01	-15.7760	-0.097470	0.000001	0.006089	0.002063	-0.000050
1397	6.9800e-01	-15.8033	-0.097735	0.000001	0.006495	0.002200	-0.000053
1398	6.9850e-01	-15.8354	-0.098296	0.000001	0.013801	0.004676	-0.000112
1399	6.9900e-01	-15.8546	-0.098503	0.000001	0.005074	0.001719	-0.000041
1400	6.9950e-01	-15.9445	-0.098800	0.000001	0.007306	0.002475	-0.000059
1401	7.0000e-01	-15.9926	-0.098949	0.000000	0.003653	0.001238	-0.000030
1402	7.0050e-01	-16.0151	-0.099395	0.000001	0.010960	0.003713	-0.000089
1403	7.0100e-01	-16.0648	-0.099734	0.000001	0.008321	0.002819	-0.000068
1404	7.0150e-01	-16.0889	-0.099858	0.000000	0.003044	0.001031	-0.000025
1405	7.0200e-01	-16.1177	-0.100081	0.000001	0.005480	0.001857	-0.000045
1406	7.0250e-01	-16.1642	-0.100626	0.000001	0.013395	0.004538	-0.000109
1407	7.0300e-01	-16.2396	-0.100974	0.000001	0.008524	0.002888	-0.000069
1408	7.0350e-01	-16.2669	-0.101073	0.000000	0.002435	0.000825	-0.000020
1409	7.0400e-01	-16.3183	-0.101337	0.000001	0.006495	0.002200	-0.000053
1410	7.0450e-01	-16.3247	-0.101758	0.000001	0.010351	0.003507	-0.000084
1411	7.0500e-01	-16.3728	-0.102188	0.000001	0.010554	0.003576	-0.000086
1412	7.0550e-01	-16.4338	-0.102486	0.000001	0.007306	0.002475	-0.000059
1413	7.0600e-01	-16.4530	-0.102618	0.000000	0.003247	0.001100	-0.000026
1414	7.0650e-01	-16.4867	-0.103105	0.000001	0.011974	0.004057	-0.000097
1415	7.0700e-01	-16.5412	-0.103568	0.000001	0.011366	0.003851	-0.000093
1416	7.0750e-01	-16.5749	-0.103874	0.000001	0.007509	0.002544	-0.000061
1417	7.0800e-01	-16.6295	-0.103907	0.000000	0.000812	0.000275	-0.000007
1418	7.0850e-01	-16.6616	-0.104221	0.000001	0.007712	0.002613	-0.000063
1419	7.0900e-01	-16.6760	-0.104716	0.000001	0.012177	0.004126	-0.000099
1420	7.0950e-01	-16.7642	-0.104964	0.000001	0.006089	0.002063	-0.000050
1421	7.1000e-01	-16.7610	-0.105072	-0.000000	-0.002638	-0.000894	-0.000021
1422	7.1050e-01	-16.8204	-0.105303	0.000001	0.005683	0.001925	-0.000046
1423	7.1100e-01	-16.8829	-0.105733	0.000001	0.010554	0.003576	-0.000086
1424	7.1150e-01	-16.9279	-0.106072	0.000001	0.008321	0.002819	-0.000068
1425	7.1200e-01	-16.9728	-0.106303	0.000001	0.005683	0.001925	-0.000046
1426	7.1250e-01	-16.9792	-0.106559	0.000001	0.006292	0.002132	-0.000051
1427	7.1300e-01	-17.0386	-0.107047	0.000001	0.011974	0.004057	-0.000097
1428	7.1350e-01	-17.0835	-0.107526	0.000001	0.011772	0.003988	-0.000096
1429	7.1400e-01	-17.1011	-0.107732	0.000001	0.005074	0.001719	-0.000041
1430	7.1450e-01	-17.1605	-0.107980	0.000001	0.006089	0.002063	-0.000050
1431	7.1500e-01	-17.1733	-0.108418	0.000001	0.010757	0.003644	-0.000088
1432	7.1550e-01	-17.2022	-0.108782	0.000001	0.008930	0.003026	-0.000073
1433	7.1600e-01	-17.2648	-0.109178	0.000001	0.009742	0.003301	-0.000079
1434	7.1650e-01	-17.2968	-0.109443	0.000001	0.006495	0.002200	-0.000053
1435	7.1700e-01	-17.3482	-0.109864	0.000001	0.010351	0.003507	-0.000084
1436	7.1750e-01	-17.3995	-0.110261	0.000001	0.009742	0.003301	-0.000079
1437	7.1800e-01	-17.4524	-0.110467	0.000001	0.005074	0.001719	-0.000041
1438	7.1850e-01	-17.4605	-0.110889	0.000001	0.010351	0.003507	-0.000084
1439	7.1900e-01	-17.5086	-0.111492	0.000001	0.014816	0.005020	-0.000121
1440	7.1950e-01	-17.5503	-0.112186	0.000002	0.017048	0.005776	-0.000139
1441	7.2000e-01	-17.5712	-0.112715	0.000001	0.012989	0.004401	-0.000106
1442	7.2050e-01	-17.5984	-0.112731	0.000000	0.000406	0.000138	-0.000003
1443	7.2100e-01	-17.6401	-0.112583	-0.000000	-0.003653	-0.001238	0.000030
1444	7.2150e-01	-17.7188	-0.112500	-0.000000	-0.002030	-0.000688	0.000017
1445	7.2200e-01	-17.6915	-0.112392	0.000000	0.002638	0.000894	0.000021
1446	7.2250e-01	-17.7765	-0.112442	0.000000	0.001218	0.000413	-0.000010
1447	7.2300e-01	-17.8230	-0.112591	0.000000	0.003653	0.001238	-0.000030
1448	7.2350e-01	-17.8439	-0.113095	0.000001	0.012380	0.004195	-0.000101
1449	7.2400e-01	-17.9113	-0.113648	0.000001	0.013598	0.004607	-0.000111
1450	7.2450e-01	-17.9321	-0.114194	0.000001	0.013395	0.004538	-0.000109
1451	7.2500e-01	-17.9578	-0.115111	0.000002	0.022528	0.007633	-0.000183
1452	7.2550e-01	-18.0300	-0.115846	0.000002	0.018063	0.006120	-0.000147
1453	7.2600e-01	-18.0653	-0.116549	0.000002	0.017251	0.005845	-0.000140
1454	7.2650e-01	-18.0605	-0.116573	-0.000000	-0.000609	-0.000206	-0.000005
1455	7.2700e-01	-18.1342	-0.116582	0.000000	0.000203	0.000069	-0.000002
1456	7.2750e-01	-18.1679	-0.116491	-0.000000	-0.002233	-0.000756	0.000018
1457	7.2800e-01	-18.2257	-0.116425	-0.000000	-0.001624	-0.000550	0.000013
1458	7.2850e-01	-18.2530	-0.116772	0.000001	0.008524	0.002888	-0.000069
1459	7.2900e-01	-18.2931	-0.117474	0.000002	0.017251	0.005845	-0.000140
1460	7.2950e-01	-18.3316	-0.117796	0.000001	0.007915	0.002682	-0.000064
1461	7.3000e-01	-18.3733	-0.118152	0.000001	0.008727	0.002957	-0.000071
1462	7.3050e-01	-18.4150	-0.118383	0.000001	0.005683	0.001925	-0.000046
1463	7.3100e-01	-18.4551	-0.118730	0.000001	0.008524	0.002888	-0.000069
1464	7.3150e-01	-18.4856	-0.119325	0.000001	0.014613	0.004951	-0.000119
1465	7.3200e-01	-18.5273	-0.119589	0.000001	0.006495	0.002200	-0.000053
1466	7.3250e-01	-18.5754	-0.119837	0.000001	0.006089	0.002063	-0.000050
1467	7.3300e-01	-18.6155	-0.120044	0.000001	0.005074	0.001719	-0.000041
1468	7.3350e-01	-18.6556	-0.120424	0.000001	0.009336	0.003163	-0.000076
1469	7.3400e-01	-18.7166	-0.120763	0.000001	0.008321	0.002819	-0.000068
1470	7.3450e-01	-18.7246	-0.120969	0.000001	0.005074	0.001719	-0.000041
1471	7.3500e-01	-18.7952	-0.121093	0.000000	0.003044	0.001031	-0.000025
1472	7.3550e-01	-18.8080	-0.121283	0.000000	0.004668	0.001582	-0.000038
1473	7.3600e-01	-18.8594	-0.121638	0.000001	0.008727	0.002957	-0.000071
1474	7.3650e-01	-18.9091	-0.122101	0.000001	0.011366	0.003851	-0.000093
1475	7.3700e-01	-18.9572	-0.122093	-0.000000	-0.000203	-0.000069	0.000002
1476	7.3750e-01	-18.9877	-0.122258	0.000000	0.004059	0.001375	-0.000033
1477	7.3800e-01	-19.0471	-0.122646	0.000001	0.009539	0.003232	-0.000078
1478	7.3850e-01	-19.0968	-0.123167	0.000001	0.012786	0.004332	-0.000104
1479	7.3900e-01	-19.1209	-0.123531	0.000001	0.008930	0.003026	-0.000073
1480	7.3950e-01	-19.1433	-0.123646	0.000000	0.002841	0.000963	-0.000023
1481	7.4000e-01	-19.1898	-0.123935	0.000001	0.007103	0.002407	-0.000058
1482	7.4050e-01	-19.2155	-0.124340	0.000001	0.009945	0.003369	-0.000081
1483	7.4100e-01	-19.2845	-0.124770	0.000001	0.010554	0.003576	-0.000086
1484	7.4150e-01	-19.3005	-0.124844	0.000000	0.001827	0.000619	-0.000015
1485	7.4200e-01	-19.2973	-0.125125	-0.000001	-0.006901	-0.002338	-0.000056
1486	7.4250e-01	-19.3823	-0.125514	0.000001	0.009539	0.003232	-0.000078
1487	7.4300e-01	-19.4337	-0.125985	0.000001	0.011569	0.003920	-0.000094
1488	7.4350e-01	-19.4674	-0.126175	0.000000	0.004668	0.001582	-0.000038
1489	7.4400e-01	-19.4994	-0.126381	0.000001	0.005074	0.001719	-0.000041
1490	7.4450e-01	-19.5396	-0.126703	0.000001	0.007915	0.002682	-0.000064
1491	7.4500e-01	-19.5861	-0.127108	0.000001	0.009945	0.003369	-0.000081
1492	7.4550e-01	-19.6182	-0.127464	0.000001	0.008727	0.002957	-0.000071
1493	7.4600e-01	-19.6390	-0.127587	0.000000	0.003044	0.001031	-0.000025
1494	7.4650e-01	-19.6823	-0.128058	0.000001	0.011569	0.003920	-0.000094
1495	7.4700e-01	-19.7337	-0.128496	0.000001	0.010757	0.003644	-0.000088
1496	7.4750e-01	-19.7882	-0.128786	0.000001	0.007103	0.002407	-0.000058
1497	7.4800e-01	-19.8251	-0.128909	0.000000	0.003044	0.001031	-0.000025
1498	7.4850e-01	-19.8540	-0.129223	0.000001	0.007712	0.002613	-0.000063
1499	7.4900e-01	-19.9198	-0.129579	0.000001	0.008727	0.002957	-0.000071
1500	7.4950e-01	-19.9470	-0.129876	0.000001	0.007306	0.002475	-0.000059
1501	7.5000e-01	-19.9936	-0.130223	0.000001	0.008524	0.002888	-0.000069
1502	7.5050e-01	-19.9198	-0.130372	-0.000000	-0.003653	-0.001238	-0.000030
1503	7.5100e-01	-19.8540	-0.130736	-0.000001	-0.008930	-0.003026	-0.000073
1504	7.5150e-01	-19.8444	-0.131033	-0.000001	-0.007306	-0.002475	-0.000059
1505	7.5200e-01	-19.7802	-0.130884	0.000000	0.003653	0.001238	0.000030
1506	7.5250e-01	-19.7593	-0.130983	-0.000000	-0.002435	-0.000825	-0.000020
1507	7.5300e-01	-19.7064	-0.131041	-0.000000	-0.001421	-0.000481	-0.000012
1508	7.5350e-01	-19.6887	-0.131149	-0.000000	-0.002638	-0.000894	-0.000021
1509	7.5400e-01	-19.6150	-0.131074	0.000000	0.001827	0.000619	0.000015
1510	7.5450e-01	-19.5700	-0.131000	0.000000	0.001827	0.000619	0.000015
1511	7.5500e-01	-19.5203	-0.131099	-0.000000	-0.002435	-0.000825	-0.000020
1512	7.5550e-01	-19.4962	-0.131198	-0.000000	-0.002435	-0.000825	-0.000020
1513	7.5600e-01	-19.4802	-0.131116	0.000000	0.002030	0.000688	0.000017
1514	7.5650e-01	-19.4128	-0.131132	-0.000000	-0.000406	-0.000138	-0.000003
1515	7.5700e-01	-19.3695	-0.131066	0.000000	0.001624	0.000550	0.000013
1516	7.5750e-01	-19.3374	-0.131182	-0.000000	-0.002841	-0.000963	-0.000023
1517	7.5800e-01	-19.3085	-0.131058	0.000000	0.003044	0.001031	0.000025
1518	7.5850e-01	-19.2973	-0.130909	0.000000	0.003653	0.001238	0.000030
1519	7.5900e-01	-19.1802	-0.130901	0.000000	0.000203	0.000069	0.000002
1520	7.5950e-01	-19.1786	-0.130859	0.000000	0.001015	0.000344	0.000008
1521	7.6000e-01	-19.1401	-0.130802	0.000000	0.001421	0.000481	0.000012
1522	7.6050e-01	-19.1192	-0.130752	0.000000	0.001218	0.000413	0.000010
1523	7.6100e-01	-19.0743	-0.130529	0.000001	0.005480	0.001857	0.000045
1524	7.6150e-01	-19.0535	-0.130389	0.000000	0.003450	0.001169	0.000028
1525	7.6200e-01	-18.9861	-0.130364	0.000000	0.000609	0.000206	0.000005
1526	7.6250e-01	-18.9540	-0.130248	0.000000	0.002841	0.000963	0.000023
1527	7.6300e-01	-18.9267	-0.130256	-0.000000	-0.000203	-0.000069	-0.000002
1528	7.6350e-01	-18.8754	-0.130083	0.000000	0.004262	0.001444	0.000035
1529	7.6400e-01	-18.8241	-0.130157	-0.000000	-0.001827	-0.000619	-0.000015
1530	7.6450e-01	-18.7647	-0.130099	0.000000	0.001421	0.000481	0.000012
1531	7.6500e-01	-18.7663	-0.130091	-0.000000	-0.000203	-0.000069	0.000002
1532	7.6550e-01	-18.7198	-0.130223	-0.000000	-0.003247	-0.001100	-0.000026
1533	7.6600e-01	-18.7005	-0.130232	-0.000000	-0.000203	-0.000069	-0.000002
1534	7.6650e-01	-18.6123	-0.130240	-0.000000	-0.000203	-0.000069	-0.000002
1535	7.6700e-01	-18.5642	-0.129653	0.000001	0.014410	0.004882	0.000117
1536	7.6750e-01	-18.5481	-0.129347	0.000001	0.007509	0.002544	0.000061
1537	7.6800e-01	-18.5096	-0.129232	0.000000	0.002841	0.000963	0.000023
1538	7.6850e-01	-18.4904	-0.129190	0.000000	0.001015	0.000344	0.000008
1539	7.6900e-01	-18.4214	-0.128992	0.000000	0.004871	0.001650	0.000040
1540	7.6950e-01	-18.3909	-0.128728	0.000001	0.006495	0.002200	0.000053
1541	7.7000e-01	-18.3540	-0.128604	0.000000	0.003044	0.001031	0.000025
1542	7.7050e-01	-18.2915	-0.128480	0.000000	0.003044	0.001031	0.000025
1543	7.7100e-01	-18.2802	-0.128430	0.000000	0.001218	0.000413	0.000010
1544	7.7150e-01	-18.2064	-0.128678	-0.000001	-0.006089	-0.002063	-0.000050
1545	7.7200e-01	-18.1904	-0.128761	-0.000000	-0.002030	-0.000688	-0.000017
1546	7.7250e-01	-18.1776	-0.128629	0.000000	0.003247	0.001100	0.000026
1547	7.7300e-01	-18.1198	-0.128166	0.000001	0.011366	0.003851	0.000093
1548	7.7350e-01	-18.0685	-0.128017	0.000000	0.003653	0.001238	0.000030
1549	7.7400e-01	-18.0268	-0.127844	0.000000	0.004262	0.001444	0.000035
1550	7.7450e-01	-17.9770	-0.127687	0.000000	0.003856	0.001307	0.000031
1551	7.7500e-01	-17.9369	-0.127959	-0.000001	-0.006698	-0.002269	-0.000055
1552	7.7550e-01	-17.9193	-0.128050	-0.000000	-0.002233	-0.000756	-0.000018
1553	7.7600e-01	-17.8631	-0.127596	0.000001	0.011163	0.003782	0.000091
1554	7.7650e-01	-17.8086	-0.127530	0.000000	0.001624	0.000550	0.000013
1555	7.7700e-01	-17.7701	-0.127257	0.000001	0.006698	0.002269	0.000055
1556	7.7750e-01	-17.7492	-0.127290	-0.000000	-0.000812	-0.000275	-0.000007
1557	7.7800e-01	-17.7220	-0.127307	-0.000000	-0.000406	-0.000138	-0.000003
1558	7.7850e-01	-17.6754	-0.127116	0.000000	0.004668	0.001582	0.000038
1559	7.7900e-01	-17.6177	-0.126836	0.000001	0.006901	0.002338	0.000056
1560	7.7950e-01	-17.5968	-0.126579	0.000001	0.006292	0.002132	0.000051
1561	7.8000e-01	-17.5599	-0.126513	0.000000	0.001624	0.000550	0.000013
1562	7.8050e-01	-17.5166	-0.126637	-0.000000	-0.003044	-0.001031	-0.000025
1563	7.8100e-01	-17.4958	-0.126530	0.000000	0.002638	0.000894	0.000021
1564	7.8150e-01	-17.4220	-0.126265	0.000001	0.006495	0.002200	0.000053
1565	7.8200e-01	-17.3867	-0.126166	0.000000	0.002435	0.000825	0.000020
1566	7.8250e-01	-17.3369	-0.126216	-0.000000	-0.001218	-0.000413	-0.000010
1567	7.8300e-01	-17.2872	-0.126265	-0.000000	-0.001218	-0.000413	-0.000010
1568	7.8350e-01	-17.2631	-0.126001	0.000001	0.006495	0.002200	0.000053
1569	7.8400e-01	-17.2359	-0.125803	0.000000	0.004871	0.001650	0.000040
1570	7.8450e-01	-17.1460	-0.125778	0.000000	0.000609	0.000206	0.000005
1571	7.8500e-01	-17.1124	-0.125720	0.000000	0.001421	0.000481	0.000012
1572	7.8550e-01	-17.0947	-0.125514	0.000001	0.005074	0.001719	0.000041
1573	7.8600e-01	-17.0931	-0.125233	0.000001	0.006901	0.002338	0.000056
1574	7.8650e-01	-17.0049	-0.125133	0.000000	0.002435	0.000825	0.000020
1575	7.8700e-01	-16.9952	-0.125084	0.000000	0.001218	0.000413	0.000010
1576	7.8750e-01	-16.9551	-0.124935	0.000000	0.003653	0.001238	0.000030
1577	7.8800e-01	-16.9263	-0.124704	0.000001	0.005683	0.001925	0.000046
1578	7.8850e-01	-16.8637	-0.124448	0.000001	0.006292	0.002132	0.000051
1579	7.8900e-01	-16.8252	-0.124588	-0.000000	-0.003450	-0.001169	-0.000028
1580	7.8950e-01	-16.8011	-0.124522	0.000000	0.001624	0.000550	0.000013
1581	7.9000e-01	-16.7883	-0.124274	0.000001	0.006089	0.002063	0.000050
1582	7.9050e-01	-16.7017	-0.124068	0.000001	0.005074	0.001719	0.000041
1583	7.9100e-01	-16.6872	-0.124109	-0.000000	-0.001015	-0.000344	-0.000008
1584	7.9150e-01	-16.5974	-0.124059	0.000000	0.001218	0.000413	0.000010
1585	7.9200e-01	-16.5814	-0.123894	0.000000	0.004059	0.001375	0.000033
1586	7.9250e-01	-16.5461	-0.123688	0.000001	0.005074	0.001719	0.000041
1587	7.9300e-01	-16.4931	-0.123597	0.000000	0.002233	0.000756	0.000018
1588	7.9350e-01	-16.4466	-0.123506	0.000000	0.002233	0.000756	0.000018
1589	7.9400e-01	-16.4354	-0.123489	0.000000	0.000406	0.000138	0.000003
1590	7.9450e-01	-16.3792	-0.123068	0.000001	0.010351	0.003507	0.000084
1591	7.9500e-01	-16.3519	-0.123117	-0.000000	-0.001218	-0.000413	-0.000010
1592	7.9550e-01	-16.2926	-0.122977	0.000000	0.003450	0.001169	0.000028
1593	7.9600e-01	-16.2782	-0.122944	0.000000	0.000812	0.000275	0.000007
1594	7.9650e-01	-16.2445	-0.122779	0.000000	0.004059	0.001375	0.000033
1595	7.9700e-01	-16.1851	-0.122415	0.000001	0.008930	0.003026	0.000073
1596	7.9750e-01	-16.1209	-0.122514	-0.000000	-0.002435	-0.000825	-0.000020
1597	7.9800e-01	-16.1209	-0.122332	-0.000000	-0.004465	-0.001513	0.000036
1598	7.9850e-01	-16.0905	-0.122167	0.000000	0.004059	0.001375	0.000033
1599	7.9900e-01	-15.9846	-0.122085	0.000000	0.002030	0.000688	0.000017
1600	7.9950e-01	-15.9653	-0.122002	0.000000	0.002030	0.000688	0.000017
1601	8.0000e-01	-15.9637	-0.121895	0.000000	0.002638	0.000894	0.000021
1602	8.0050e-01	-15.9012	-0.121671	0.000001	0.005480	0.001857	0.000045
1603	8.0100e-01	-15.8466	-0.121506	0.000000	0.004059	0.001375	0.000033
1604	8.0150e-01	-15.8418	-0.121424	0.000000	0.002030	0.000688	0.000017
1605	8.0200e-01	-15.7696	-0.121200	0.000001	0.005480	0.001857	0.000045
1606	8.0250e-01	-15.7375	-0.121068	0.000000	0.003247	0.001100	0.000026
1607	8.0300e-01	-15.7215	-0.120903	0.000000	0.004059	0.001375	0.000033
1608	8.0350e-01	-15.6557	-0.120713	0.000000	0.004668	0.001582	0.000038
1609	8.0400e-01	-15.6108	-0.120688	0.000000	0.000609	0.000206	0.000005
1610	8.0450e-01	-15.5947	-0.120515	0.000000	0.004262	0.001444	0.000035
1611	8.0500e-01	-15.5595	-0.120308	0.000001	0.005074	0.001719	0.000041
1612	8.0550e-01	-15.5129	-0.120093	0.000001	0.005277	0.001788	0.000043
1613	8.0600e-01	-15.4504	-0.120126	-0.000000	-0.000812	-0.000275	-0.000007
1614	8.0650e-01	-15.4407	-0.119895	0.000001	0.005683	0.001925	0.000046
1615	8.0700e-01	-15.3718	-0.119763	0.000000	0.003247	0.001100	0.000026
1616	8.0750e-01	-15.3028	-0.119713	0.000000	0.001218	0.000413	0.000010
1617	8.0800e-01	-15.3140	-0.119573	-0.000000	-0.003450	-0.001169	0.000028
1618	8.0850e-01	-15.2627	-0.119259	0.000001	0.007712	0.002613	0.000063
1619	8.0900e-01	-15.2322	-0.119110	0.000000	0.003653	0.001238	0.000030
1620	8.0950e-01	-15.1985	-0.118722	0.000001	0.009539	0.003232	0.000078
1621	8.1000e-01	-15.1616	-0.118457	0.000001	0.006495	0.002200	0.000053
1622	8.1050e-01	-15.0942	-0.118251	0.000001	0.005074	0.001719	0.000041
1623	8.1100e-01	-15.0605	-0.117961	0.000001	0.007103	0.002407	0.000058
1624	8.1150e-01	-15.0349	-0.118061	-0.000000	-0.002435	-0.000825	-0.000020
1625	8.1200e-01	-14.9723	-0.118763	-0.000002	-0.017251	-0.005845	-0.000140
1626	8.1250e-01	-14.9466	-0.118994	-0.000001	-0.005683	-0.001925	-0.000046
1627	8.1300e-01	-14.9178	-0.119193	-0.000000	-0.004871	-0.001650	-0.000040
1628	8.1350e-01	-14.8584	-0.118961	0.000001	0.005683	0.001925	0.000046
1629	8.1400e-01	-14.8263	-0.118342	0.000002	0.015222	0.005157	0.000124
1630	8.1450e-01	-14.7974	-0.117978	0.000001	0.008930	0.003026	0.000073
1631	8.1500e-01	-14.7397	-0.117532	0.000001	0.010960	0.003713	0.000089
1632	8.1550e-01	-14.7301	-0.116970	0.000001	0.013801	0.004676	0.000112
1633	8.1600e-01	-14.6851	-0.116367	0.000001	0.014816	0.005020	0.000121
1634	8.1650e-01	-14.6210	-0.115937	0.000001	0.010554	0.003576	0.000086
1635	8.1700e-01	-14.5905	-0.115648	0.000001	0.007103	0.002407	0.000058
1636	8.1750e-01	-14.5600	-0.115731	-0.000000	-0.002030	-0.000688	-0.000017
1637	8.1800e-01	-14.4958	-0.115995	-0.000001	-0.006495	-0.002200	-0.000053
1638	8.1850e-01	-14.4926	-0.116433	-0.000001	-0.010757	-0.003644	-0.000088
1639	8.1900e-01	-14.4221	-0.116540	-0.000000	-0.002638	-0.000894	-0.000021
1640	8.1950e-01	-14.3643	-0.115995	0.000001	0.013395	0.004538	0.000109
1641	8.2000e-01	-14.3499	-0.115400	0.000001	0.014613	0.004951	0.000119
1642	8.2050e-01	-14.2809	-0.115136	0.000001	0.006495	0.002200	0.000053
1643	8.2100e-01	-14.2600	-0.114880	0.000001	0.006292	0.002132	0.000051
1644	8.2150e-01	-14.2344	-0.115053	-0.000000	-0.004262	-0.001444	-0.000035
1645	8.2200e-01	-14.2119	-0.115127	-0.000000	-0.001827	-0.000619	-0.000015
1646	8.2250e-01	-14.1349	-0.114656	0.000001	0.011569	0.003920	0.000094
1647	8.2300e-01	-14.1060	-0.114235	0.000001	0.010351	0.003507	0.000084
1648	8.2350e-01	-14.0467	-0.113954	0.000001	0.006901	0.002338	0.000056
1649	8.2400e-01	-14.0146	-0.113739	0.000001	0.005277	0.001788	0.000043
1650	8.2450e-01	-13.9873	-0.113781	-0.000000	-0.001015	-0.000344	-0.000008
1651	8.2500e-01	-13.9713	-0.113566	0.000001	0.005277	0.001788	0.000043
1652	8.2550e-01	-13.9007	-0.113334	0.000001	0.005683	0.001925	0.000046
1653	8.2600e-01	-13.8814	-0.113012	0.000001	0.007915	0.002682	0.000064
1654	8.2650e-01	-13.8189	-0.112781	0.000001	0.005683	0.001925	0.000046
1655	8.2700e-01	-13.7948	-0.112748	0.000000	0.000812	0.000275	0.000007
1656	8.2750e-01	-13.7274	-0.112624	0.000000	0.003044	0.001031	0.000025
1657	8.2800e-01	-13.7146	-0.112252	0.000001	0.009133	0.003094	0.000074
1658	8.2850e-01	-13.6745	-0.111897	0.000001	0.008727	0.002957	0.000071
1659	8.2900e-01	-13.6488	-0.111765	0.000000	0.003247	0.001100	0.000026
1660	8.2950e-01	-13.5862	-0.111624	0.000000	0.003450	0.001169	0.000028
1661	8.3000e-01	-13.5413	-0.111376	0.000001	0.006089	0.002063	0.000050
1662	8.3050e-01	-13.4852	-0.111145	0.000001	0.005683	0.001925	0.000046
1663	8.3100e-01	-13.4322	-0.110872	0.000001	0.006698	0.002269	0.000055
1664	8.3150e-01	-13.4210	-0.110657	0.000001	0.005277	0.001788	0.000043
1665	8.3200e-01	-13.3986	-0.110509	0.000000	0.003653	0.001238	0.000030
1666	8.3250e-01	-13.3584	-0.110211	0.000001	0.007306	0.002475	0.000059
1667	8.3300e-01	-13.3119	-0.109914	0.000001	0.007306	0.002475	0.000059
1668	8.3350e-01	-13.2638	-0.109715	0.000000	0.004871	0.001650	0.000040
1669	8.3400e-01	-13.2429	-0.109591	0.000000	0.003044	0.001031	0.000025
1670	8.3450e-01	-13.1659	-0.109451	0.000000	0.003450	0.001169	0.000028
1671	8.3500e-01	-13.1306	-0.109203	0.000001	0.006089	0.002063	0.000050
1672	8.3550e-01	-13.0986	-0.109021	0.000000	0.004465	0.001513	0.000036
1673	8.3600e-01	-13.0713	-0.109005	0.000000	0.000406	0.000138	0.000003
1674	8.3650e-01	-13.0408	-0.108831	0.000000	0.004262	0.001444	0.000035
1675	8.3700e-01	-13.0023	-0.108534	0.000001	0.007306	0.002475	0.000059
1676	8.3750e-01	-12.9333	-0.108162	0.000001	0.009133	0.003094	0.000074
1677	8.3800e-01	-12.9125	-0.108137	0.000000	0.000609	0.000206	0.000005
1678	8.3850e-01	-12.8611	-0.107898	0.000001	0.005886	0.001994	0.000048
1679	8.3900e-01	-12.8499	-0.107633	0.000001	0.006495	0.002200	0.000053
1680	8.3950e-01	-12.7809	-0.107294	0.000001	0.008321	0.002819	0.000068
1681	8.4000e-01	-12.7360	-0.107071	0.000001	0.005480	0.001857	0.000045
1682	8.4050e-01	-12.7071	-0.106997	0.000000	0.001827	0.000619	0.000015
1683	8.4100e-01	-12.6766	-0.106584	0.000001	0.010148	0.003438	0.000083
1684	8.4150e-01	-12.6349	-0.106344	0.000001	0.005886	0.001994	0.000048
1685	8.4200e-01	-12.5948	-0.106237	0.000000	0.002638	0.000894	0.000021
1686	8.4250e-01	-12.5467	-0.106105	0.000000	0.003247	0.001100	0.000026
1687	8.4300e-01	-12.4761	-0.105749	0.000001	0.008727	0.002957	0.000071
1688	8.4350e-01	-12.4537	-0.105501	0.000001	0.006089	0.002063	0.000050
1689	8.4400e-01	-12.4344	-0.105452	0.000000	0.001218	0.000413	0.000010
1690	8.4450e-01	-12.4055	-0.105303	0.000000	0.003653	0.001238	0.000030
1691	8.4500e-01	-12.3446	-0.105138	0.000000	0.004059	0.001375	0.000033
1692	8.4550e-01	-12.3045	-0.104816	0.000001	0.007915	0.002682	0.000064
1693	8.4600e-01	-12.2499	-0.104576	0.000001	0.005886	0.001994	0.000048
1694	8.4650e-01	-12.2323	-0.104345	0.000001	0.005683	0.001925	0.000046
1695	8.4700e-01	-12.1922	-0.104080	0.000001	0.006495	0.002200	0.000053
1696	8.4750e-01	-12.1360	-0.103808	0.000001	0.006698	0.002269	0.000055
1697	8.4800e-01	-12.1184	-0.103601	0.000001	0.005074	0.001719	0.000041
1698	8.4850e-01	-12.0670	-0.103551	0.000000	0.001218	0.000413	0.000010
1699	8.4900e-01	-12.0366	-0.103394	0.000000	0.003856	0.001307	0.000031
1700	8.4950e-01	-12.0141	-0.103122	0.000001	0.006698	0.002269	0.000055
1701	8.5000e-01	-11.9467	-0.102791	0.000001	0.008118	0.002751	0.000066
1702	8.5050e-01	-11.9291	-0.102626	0.000000	0.004059	0.001375	0.000033
1703	8.5100e-01	-11.8553	-0.102411	0.000001	0.005277	0.001788	0.000043
1704	8.5150e-01	-11.8264	-0.102155	0.000001	0.006292	0.002132	0.000051
1705	8.5200e-01	-11.8055	-0.101973	0.000000	0.004465	0.001513	0.000036
1706	8.5250e-01	-11.7654	-0.101709	0.000001	0.006495	0.002200	0.000053
1707	8.5300e-01	-11.6868	-0.101601	0.000000	0.002638	0.000894	0.000021
1708	8.5350e-01	-11.6836	-0.101254	0.000001	0.008524	0.002888	0.000069
1709	8.5400e-01	-11.6275	-0.100767	0.000001	0.011974	0.004057	0.000097
1710	8.5450e-01	-11.5810	-0.100436	0.000001	0.008118	0.002751	0.000066
1711	8.5500e-01	-11.5441	-0.100230	0.000001	0.005074	0.001719	0.000041
1712	8.5550e-01	-11.5264	-0.100172	0.000000	0.001421	0.000481	0.000012
1713	8.5600e-01	-11.4687	-0.100288	-0.000000	-0.002841	-0.000963	-0.000023
1714	8.5650e-01	-11.4622	-0.100255	0.000000	0.000812	0.000275	0.000007
1715	8.5700e-01	-11.4109	-0.100131	0.000000	0.003044	0.001031	0.000025
1716	8.5750e-01	-11.3259	-0.099908	0.000001	0.005480	0.001857	0.000045
1717	8.5800e-01	-11.3018	-0.099817	0.000000	0.002233	0.000756	0.000018
1718	8.5850e-01	-11.2665	-0.100065	-0.000001	-0.006089	-0.002063	-0.000050
1719	8.5900e-01	-11.2393	-0.100238	-0.000000	-0.004262	-0.001444	-0.000035
1720	8.5950e-01	-11.2024	-0.100131	0.000000	0.002638	0.000894	0.000021
1721	8.6000e-01	-11.1655	-0.099238	0.000002	0.021919	0.007426	0.000178
1722	8.6050e-01	-11.0885	-0.098396	0.000002	0.020702	0.007014	0.000169
1723	8.6100e-01	-11.0516	-0.097751	0.000002	0.015831	0.005364	0.000129
1724	8.6150e-01	-11.0467	-0.097396	0.000001	0.008727	0.002957	0.000071
1725	8.6200e-01	-10.9906	-0.097148	0.000001	0.006089	0.002063	0.000050
1726	8.6250e-01	-10.9377	-0.097016	0.000000	0.003247	0.001100	0.000026
1727	8.6300e-01	-10.9040	-0.096586	0.000001	0.010554	0.003576	0.000086
1728	8.6350e-01	-10.8687	-0.096107	0.000001	0.011772	0.003988	0.000096
1729	8.6400e-01	-10.8462	-0.095768	0.000001	0.008321	0.002819	0.000068
1730	8.6450e-01	-10.7901	-0.096189	-0.000001	-0.010351	-0.003507	-0.000084
1731	8.6500e-01	-10.7435	-0.096404	-0.000001	-0.005277	-0.001788	-0.000043
1732	8.6550e-01	-10.7307	-0.096644	-0.000001	-0.005886	-0.001994	-0.000048
1733	8.6600e-01	-10.6778	-0.096008	0.000002	0.015628	0.005295	0.000127
1734	8.6650e-01	-10.6184	-0.095355	0.000002	0.016034	0.005432	0.000131
1735	8.6700e-01	-10.5687	-0.094975	0.000001	0.009336	0.003163	0.000076
1736	8.6750e-01	-10.5334	-0.094719	0.000001	0.006292	0.002132	0.000051
1737	8.6800e-01	-10.4917	-0.094851	-0.000000	-0.003247	-0.001100	-0.000026
1738	8.6850e-01	-10.4676	-0.094859	-0.000000	-0.000203	-0.000069	-0.000002
1739	8.6900e-01	-10.4275	-0.094405	0.000001	0.011163	0.003782	0.000091
1740	8.6950e-01	-10.3922	-0.093983	0.000001	0.010351	0.003507	0.000084
1741	8.7000e-01	-10.3714	-0.093620	0.000001	0.008930	0.003026	0.000073
1742	8.7050e-01	-10.3008	-0.093529	0.000000	0.002233	0.000756	0.000018
1743	8.7100e-01	-10.2687	-0.093496	0.000000	0.000812	0.000275	0.000007
1744	8.7150e-01	-10.2174	-0.093331	0.000000	0.004059	0.001375	0.000033
1745	8.7200e-01	-10.1997	-0.092926	0.000001	0.009945	0.003369	0.000081
1746	8.7250e-01	-10.1420	-0.092711	0.000001	0.005277	0.001788	0.000043
1747	8.7300e-01	-10.1099	-0.092380	0.000001	0.008118	0.002751	0.000066
1748	8.7350e-01	-10.0634	-0.092207	0.000000	0.004262	0.001444	0.000035
1749	8.7400e-01	-10.0056	-0.092050	0.000000	0.003856	0.001307	0.000031
1750	8.7450e-01	-9.9799	-0.091843	0.000001	0.005074	0.001719	0.000041
1751	8.7500e-01	-9.9527	-0.091364	0.000001	0.011772	0.003988	0.000096
1752	8.7550e-01	-9.8837	-0.091017	0.000001	0.008524	0.002888	0.000069
1753	8.7600e-01	-9.8821	-0.091034	-0.000000	-0.000406	-0.000138	-0.000003
1754	8.7650e-01	-9.8580	-0.090868	0.000000	0.004059	0.001375	0.000033
1755	8.7700e-01	-9.7826	-0.090488	0.000001	0.009336	0.003163	0.000076
1756	8.7750e-01	-9.7377	-0.090232	0.000001	0.006292	0.002132	0.000051
1757	8.7800e-01	-9.6912	-0.089976	0.000001	0.006292	0.002132	0.000051
1758	8.7850e-01	-9.6527	-0.089968	0.000000	0.000203	0.000069	0.000002
1759	8.7900e-01	-9.6430	-0.089621	0.000001	0.008524	0.002888	0.000069
1760	8.7950e-01	-9.6142	-0.089340	0.000001	0.006901	0.002338	0.000056
1761	8.8000e-01	-9.5243	-0.089133	0.000001	0.005074	0.001719	0.000041
1762	8.8050e-01	-9.5083	-0.089017	0.000000	0.002841	0.000963	0.000023
1763	8.8100e-01	-9.4762	-0.088770	0.000001	0.006089	0.002063	0.000050
1764	8.8150e-01	-9.4249	-0.088348	0.000001	0.010351	0.003507	0.000084
1765	8.8200e-01	-9.3960	-0.088100	0.000001	0.006089	0.002063	0.000050
1766	8.8250e-01	-9.3944	-0.087952	0.000000	0.003653	0.001238	0.000030
1767	8.8300e-01	-9.3334	-0.087786	0.000000	0.004059	0.001375	0.000033
1768	8.8350e-01	-9.2660	-0.087390	0.000001	0.009742	0.003301	0.000079
1769	8.8400e-01	-9.2388	-0.087051	0.000001	0.008321	0.002819	0.000068
1770	8.8450e-01	-9.1906	-0.086944	0.000000	0.002638	0.000894	0.000021
1771	8.8500e-01	-9.1345	-0.086671	0.000001	0.006698	0.002269	0.000055
1772	8.8550e-01	-9.1056	-0.086448	0.000001	0.005480	0.001857	0.000045
1773	8.8600e-01	-9.0431	-0.086117	0.000001	0.008118	0.002751	0.000066
1774	8.8650e-01	-9.0078	-0.085952	0.000000	0.004059	0.001375	0.000033
1775	8.8700e-01	-8.9725	-0.085770	0.000000	0.004465	0.001513	0.000036
1776	8.8750e-01	-8.9484	-0.085465	0.000001	0.007509	0.002544	0.000061
1777	8.8800e-01	-8.8971	-0.085283	0.000000	0.004465	0.001513	0.000036
1778	8.8850e-01	-8.8778	-0.085076	0.000001	0.005074	0.001719	0.000041
1779	8.8900e-01	-8.8313	-0.084969	0.000000	0.002638	0.000894	0.000021
1780	8.8950e-01	-8.7575	-0.084663	0.000001	0.007509	0.002544	0.000061
1781	8.9000e-01	-8.7463	-0.084308	0.000001	0.008727	0.002957	0.000071
1782	8.9050e-01	-8.7286	-0.084035	0.000001	0.006698	0.002269	0.000055
1783	8.9100e-01	-8.6805	-0.083853	0.000000	0.004465	0.001513	0.000036
1784	8.9150e-01	-8.6179	-0.083539	0.000001	0.007712	0.002613	0.000063
1785	8.9200e-01	-8.6083	-0.083217	0.000001	0.007915	0.002682	0.000064
1786	8.9250e-01	-8.5554	-0.082986	0.000001	0.005683	0.001925	0.000046
1787	8.9300e-01	-8.4896	-0.082680	0.000001	0.007509	0.002544	0.000061
1788	8.9350e-01	-8.4639	-0.082473	0.000001	0.005074	0.001719	0.000041
1789	8.9400e-01	-8.4142	-0.082118	0.000001	0.008727	0.002957	0.000071
1790	8.9450e-01	-8.3982	-0.081879	0.000001	0.005886	0.001994	0.000048
1791	8.9500e-01	-8.3308	-0.081680	0.000000	0.004871	0.001650	0.000040
1792	8.9550e-01	-8.3147	-0.081358	0.000001	0.007915	0.002682	0.000064
1793	8.9600e-01	-8.2827	-0.081292	0.000000	0.001624	0.000550	0.000013
1794	8.9650e-01	-8.2265	-0.080953	0.000001	0.008321	0.002819	0.000068
1795	8.9700e-01	-8.1960	-0.080871	0.000000	0.002030	0.000688	0.000017
1796	8.9750e-01	-8.1351	-0.080416	0.000001	0.011163	0.003782	0.000091
1797	8.9800e-01	-8.0901	-0.080019	0.000001	0.009742	0.003301	0.000079
1798	8.9850e-01	-8.0757	-0.079549	0.000001	0.011569	0.003920	0.000094
1799	8.9900e-01	-8.0019	-0.079160	0.000001	0.009539	0.003232	0.000078
1800	8.9950e-01	-7.9907	-0.079201	-0.000000	-0.001015	-0.000344	-0.000008
1801	9.0000e-01	-7.9442	-0.079268	-0.000000	-0.001624	-0.000550	-0.000013
1802	9.0050e-01	-7.9073	-0.079086	0.000000	0.004465	0.001513	0.000036
1803	9.0100e-01	-7.8591	-0.078970	0.000000	0.002841	0.000963	0.000023
1804	9.0150e-01	-7.8399	-0.078805	0.000000	0.004059	0.001375	0.000033
1805	9.0200e-01	-7.8078	-0.078648	0.000000	0.003856	0.001307	0.000031
1806	9.0250e-01	-7.7308	-0.078433	0.000001	0.005277	0.001788	0.000043
1807	9.0300e-01	-7.7083	-0.078111	0.000001	0.007915	0.002682	0.000064
1808	9.0350e-01	-7.6618	-0.077838	0.000001	0.006698	0.002269	0.000055
1809	9.0400e-01	-7.6345	-0.077285	0.000001	0.013598	0.004607	0.000111
1810	9.0450e-01	-7.6025	-0.077086	0.000000	0.004871	0.001650	0.000040
1811	9.0500e-01	-7.5431	-0.076954	0.000000	0.003247	0.001100	0.000026
1812	9.0550e-01	-7.5126	-0.077086	-0.000000	-0.003247	-0.001100	-0.000026
1813	9.0600e-01	-7.4629	-0.077227	-0.000000	-0.003450	-0.001169	-0.000028
1814	9.0650e-01	-7.4468	-0.076772	0.000001	0.011163	0.003782	0.000091
1815	9.0700e-01	-7.3763	-0.076012	0.000002	0.018672	0.006326	0.000152
1816	9.0750e-01	-7.3426	-0.075194	0.000002	0.020093	0.006808	0.000164
1817	9.0800e-01	-7.2912	-0.074525	0.000002	0.016440	0.005570	0.000134
1818	9.0850e-01	-7.2463	-0.074227	0.000001	0.007306	0.002475	0.000059
1819	9.0900e-01	-7.2110	-0.073864	0.000001	0.008930	0.003026	0.000073
1820	9.0950e-01	-7.1549	-0.073575	0.000001	0.007103	0.002407	0.000058
1821	9.1000e-01	-7.1404	-0.073178	0.000001	0.009742	0.003301	0.000079
1822	9.1050e-01	-7.1116	-0.072757	0.000001	0.010351	0.003507	0.000084
1823	9.1100e-01	-7.0747	-0.073211	-0.000001	-0.011163	-0.003782	-0.000091
1824	9.1150e-01	-7.0009	-0.073327	-0.000000	-0.002841	-0.000963	-0.000023
1825	9.1200e-01	-7.0073	-0.073252	-0.000000	-0.001827	-0.000619	0.000015
1826	9.1250e-01	-6.9495	-0.072691	0.000001	0.013801	0.004676	0.000112
1827	9.1300e-01	-6.9046	-0.072096	0.000001	0.014613	0.004951	0.000119
1828	9.1350e-01	-6.8565	-0.071682	0.000001	0.010148	0.003438	0.000083
1829	9.1400e-01	-6.8469	-0.071484	0.000000	0.004871	0.001650	0.000040
1830	9.1450e-01	-6.7955	-0.071699	-0.000001	-0.005277	-0.001788	-0.000043
1831	9.1500e-01	-6.7426	-0.071592	0.000000	0.002638	0.000894	0.000021
1832	9.1550e-01	-6.7057	-0.071170	0.000001	0.010351	0.003507	0.000084
1833	9.1600e-01	-6.6608	-0.070674	0.000001	0.012177	0.004126	0.000099
1834	9.1650e-01	-6.6463	-0.070303	0.000001	0.009133	0.003094	0.000074
1835	9.1700e-01	-6.5725	-0.070005	0.000001	0.007306	0.002475	0.000059
1836	9.1750e-01	-6.5485	-0.069906	0.000000	0.002435	0.000825	0.000020
1837	9.1800e-01	-6.5084	-0.069716	0.000000	0.004668	0.001582	0.000038
1838	9.1850e-01	-6.4811	-0.069270	0.000001	0.010960	0.003713	0.000089
1839	9.1900e-01	-6.4394	-0.068724	0.000001	0.013395	0.004538	0.000109
1840	9.1950e-01	-6.3977	-0.068394	0.000001	0.008118	0.002751	0.000066
1841	9.2000e-01	-6.3303	-0.068493	-0.000000	-0.002435	-0.000825	-0.000020
1842	9.2050e-01	-6.3207	-0.068229	0.000001	0.006495	0.002200	0.000053
1843	9.2100e-01	-6.2709	-0.067832	0.000001	0.009742	0.003301	0.000079
1844	9.2150e-01	-6.2437	-0.067394	0.000001	0.010757	0.003644	0.000088
1845	9.2200e-01	-6.1731	-0.067287	0.000000	0.002638	0.000894	0.000021
1846	9.2250e-01	-6.1314	-0.067146	0.000000	0.003450	0.001169	0.000028
1847	9.2300e-01	-6.0800	-0.066857	0.000001	0.007103	0.002407	0.000058
1848	9.2350e-01	-6.0736	-0.066394	0.000001	0.011366	0.003851	0.000093
1849	9.2400e-01	-6.0480	-0.066130	0.000001	0.006495	0.002200	0.000053
1850	9.2450e-01	-6.0014	-0.066072	0.000000	0.001421	0.000481	0.000012
1851	9.2500e-01	-5.9645	-0.065849	0.000001	0.005480	0.001857	0.000045
1852	9.2550e-01	-5.9212	-0.065312	0.000001	0.013192	0.004470	0.000107
1853	9.2600e-01	-5.8683	-0.064907	0.000001	0.009945	0.003369	0.000081
1854	9.2650e-01	-5.8266	-0.064717	0.000000	0.004668	0.001582	0.000038
1855	9.2700e-01	-5.7945	-0.064585	0.000000	0.003247	0.001100	0.000026
1856	9.2750e-01	-5.7415	-0.064056	0.000001	0.012989	0.004401	0.000106
1857	9.2800e-01	-5.7271	-0.063734	0.000001	0.007915	0.002682	0.000064
1858	9.2850e-01	-5.6726	-0.063519	0.000001	0.005277	0.001788	0.000043
1859	9.2900e-01	-5.6357	-0.063453	0.000000	0.001624	0.000550	0.000013
1860	9.2950e-01	-5.5811	-0.062998	0.000001	0.011163	0.003782	0.000091
1861	9.3000e-01	-5.5683	-0.062585	0.000001	0.010148	0.003438	0.000083
1862	9.3050e-01	-5.5137	-0.062445	0.000000	0.003450	0.001169	0.000028
1863	9.3100e-01	-5.4656	-0.062370	0.000000	0.001827	0.000619	0.000015
1864	9.3150e-01	-5.4223	-0.061999	0.000001	0.009133	0.003094	0.000074
1865	9.3200e-01	-5.3998	-0.061709	0.000001	0.007103	0.002407	0.000058
1866	9.3250e-01	-5.3694	-0.061362	0.000001	0.008524	0.002888	0.000069
1867	9.3300e-01	-5.3341	-0.061189	0.000000	0.004262	0.001444	0.000035
1868	9.3350e-01	-5.2843	-0.060908	0.000001	0.006901	0.002338	0.000056
1869	9.3400e-01	-5.2138	-0.060445	0.000001	0.011366	0.003851	0.000093
1870	9.3450e-01	-5.1656	-0.060057	0.000001	0.009539	0.003232	0.000078
1871	9.3500e-01	-5.1496	-0.059834	0.000001	0.005480	0.001857	0.000045
1872	9.3550e-01	-5.1015	-0.059636	0.000000	0.004871	0.001650	0.000040
1873	9.3600e-01	-5.0870	-0.059231	0.000001	0.009945	0.003369	0.000081
1874	9.3650e-01	-5.0437	-0.058834	0.000001	0.009742	0.003301	0.000079
1875	9.3700e-01	-4.9876	-0.058661	0.000000	0.004262	0.001444	0.000035
1876	9.3750e-01	-4.9603	-0.058528	0.000000	0.003247	0.001100	0.000026
1877	9.3800e-01	-4.9154	-0.058024	0.000001	0.012380	0.004195	0.000101
1878	9.3850e-01	-4.8753	-0.057752	0.000001	0.006698	0.002269	0.000055
1879	9.3900e-01	-4.8191	-0.057586	0.000000	0.004059	0.001375	0.000033
1880	9.3950e-01	-4.7678	-0.057429	0.000000	0.003856	0.001307	0.000031
1881	9.4000e-01	-4.7726	-0.057033	-0.000001	-0.009742	-0.003301	0.000079
1882	9.4050e-01	-4.6972	-0.056669	0.000001	0.008930	0.003026	0.000073
1883	9.4100e-01	-4.6731	-0.056487	0.000000	0.004465	0.001513	0.000036
1884	9.4150e-01	-4.6266	-0.056017	0.000001	0.011569	0.003920	0.000094
1885	9.4200e-01	-4.5785	-0.055628	0.000001	0.009539	0.003232	0.000078
1886	9.4250e-01	-4.5336	-0.055174	0.000001	0.011163	0.003782	0.000091
1887	9.4300e-01	-4.5143	-0.054703	0.000001	0.011569	0.003920	0.000094
1888	9.4350e-01	-4.4678	-0.054620	0.000000	0.002030	0.000688	0.000017
1889	9.4400e-01	-4.4453	-0.054653	-0.000000	-0.000812	-0.000275	-0.000007
1890	9.4450e-01	-4.3860	-0.054447	0.000001	0.005074	0.001719	0.000041
1891	9.4500e-01	-4.3715	-0.054347	0.000000	0.002435	0.000825	0.000020
1892	9.4550e-01	-4.3090	-0.054100	0.000001	0.006089	0.002063	0.000050
1893	9.4600e-01	-4.2592	-0.053984	0.000000	0.002841	0.000963	0.000023
1894	9.4650e-01	-4.2304	-0.053620	0.000001	0.008930	0.003026	0.000073
1895	9.4700e-01	-4.1806	-0.053480	0.000000	0.003450	0.001169	0.000028
1896	9.4750e-01	-4.1373	-0.053166	0.000001	0.007712	0.002613	0.000063
1897	9.4800e-01	-4.1036	-0.052497	0.000002	0.016440	0.005570	0.000134
1898	9.4850e-01	-4.0924	-0.051968	0.000001	0.012989	0.004401	0.000106
1899	9.4900e-01	-4.0314	-0.051579	0.000001	0.009539	0.003232	0.000078
1900	9.4950e-01	-3.9833	-0.051497	0.000000	0.002030	0.000688	0.000017
1901	9.5000e-01	-3.9641	-0.051299	0.000000	0.004871	0.001650	0.000040
1902	9.5050e-01	-3.9127	-0.051323	-0.000000	-0.000609	-0.000206	-0.000005
1903	9.5100e-01	-3.8774	-0.051340	-0.000000	-0.000406	-0.000138	-0.000003
1904	9.5150e-01	-3.8357	-0.051125	0.000001	0.005277	0.001788	0.000043
1905	9.5200e-01	-3.7908	-0.050745	0.000001	0.009336	0.003163	0.000076
1906	9.5250e-01	-3.7363	-0.050076	0.000002	0.016440	0.005570	0.000134
1907	9.5300e-01	-3.6801	-0.049406	0.000002	0.016440	0.005570	0.000134
1908	9.5350e-01	-3.6641	-0.048828	0.000001	0.014207	0.004813	0.000116
1909	9.5400e-01	-3.6625	-0.048299	0.000001	0.012989	0.004401	0.000106
1910	9.5450e-01	-3.5903	-0.047622	0.000002	0.016642	0.005639	0.000136
1911	9.5500e-01	-3.5438	-0.047275	0.000001	0.008524	0.002888	0.000069
1912	9.5550e-01	-3.5069	-0.046928	0.000001	0.008524	0.002888	0.000069
1913	9.5600e-01	-3.4571	-0.046713	0.000001	0.005277	0.001788	0.000043
1914	9.5650e-01	-3.4427	-0.046614	0.000000	0.002435	0.000825	0.000020
1915	9.5700e-01	-3.3753	-0.046696	-0.000000	-0.002030	-0.000688	-0.000017
1916	9.5750e-01	-3.3272	-0.046895	-0.000000	-0.004871	-0.001650	-0.000040
1917	9.5800e-01	-3.2871	-0.046837	0.000000	0.001421	0.000481	0.000012
1918	9.5850e-01	-3.2823	-0.046382	0.000001	0.011163	0.003782	0.000091
1919	9.5900e-01	-3.2582	-0.045804	0.000001	0.014207	0.004813	0.000116
1920	9.5950e-01	-3.1700	-0.045217	0.000001	0.014410	0.004882	0.000117
1921	9.6000e-01	-3.1748	-0.044920	-0.000001	-0.007306	-0.002475	0.000059
1922	9.6050e-01	-3.1026	-0.045093	-0.000000	-0.004262	-0.001444	-0.000035
1923	9.6100e-01	-3.0753	-0.044920	0.000000	0.004262	0.001444	0.000035
1924	9.6150e-01	-3.0416	-0.044391	0.000001	0.012989	0.004401	0.000106
1925	9.6200e-01	-3.0192	-0.043829	0.000001	0.013801	0.004676	0.000112
1926	9.6250e-01	-2.9277	-0.043507	0.000001	0.007915	0.002682	0.000064
1927	9.6300e-01	-2.9309	-0.043185	-0.000001	-0.007915	-0.002682	0.000064
1928	9.6350e-01	-2.8876	-0.043086	0.000000	0.002435	0.000825	0.000020
1929	9.6400e-01	-2.8331	-0.042871	0.000001	0.005277	0.001788	0.000043
1930	9.6450e-01	-2.7994	-0.042325	0.000001	0.013395	0.004538	0.000109
1931	9.6500e-01	-2.7464	-0.041929	0.000001	0.009742	0.003301	0.000079
1932	9.6550e-01	-2.7208	-0.041565	0.000001	0.008930	0.003026	0.000073
1933	9.6600e-01	-2.6935	-0.041582	-0.000000	-0.000406	-0.000138	-0.000003
1934	9.6650e-01	-2.6181	-0.041169	0.000001	0.010148	0.003438	0.000083
1935	9.6700e-01	-2.5956	-0.040846	0.000001	0.007915	0.002682	0.000064
1936	9.6750e-01	-2.5379	-0.040384	0.000001	0.011366	0.003851	0.000093
1937	9.6800e-01	-2.5074	-0.040127	0.000001	0.006292	0.002132	0.000051
1938	9.6850e-01	-2.4721	-0.040061	0.000000	0.001624	0.000550	0.000013
1939	9.6900e-01	-2.4272	-0.039731	0.000001	0.008118	0.002751	0.000066
1940	9.6950e-01	-2.3743	-0.039219	0.000001	0.012583	0.004263	0.000102
1941	9.7000e-01	-2.3582	-0.038723	0.000001	0.012177	0.004126	0.000099
1942	9.7050e-01	-2.3005	-0.038525	0.000000	0.004871	0.001650	0.000040
1943	9.7100e-01	-2.2700	-0.038260	0.000001	0.006495	0.002200	0.000053
1944	9.7150e-01	-2.2170	-0.037715	0.000001	0.013395	0.004538	0.000109
1945	9.7200e-01	-2.1930	-0.037335	0.000001	0.009336	0.003163	0.000076
1946	9.7250e-01	-2.1064	-0.037087	0.000001	0.006089	0.002063	0.000050
1947	9.7300e-01	-2.1224	-0.036979	-0.000000	-0.002638	-0.000894	0.000021
1948	9.7350e-01	-2.0614	-0.036550	0.000001	0.010554	0.003576	0.000086
1949	9.7400e-01	-2.0342	-0.036079	0.000001	0.011569	0.003920	0.000094
1950	9.7450e-01	-2.0005	-0.035897	0.000000	0.004465	0.001513	0.000036
1951	9.7500e-01	-1.9668	-0.035748	0.000000	0.003653	0.001238	0.000030
1952	9.7550e-01	-1.9090	-0.035368	0.000001	0.009336	0.003163	0.000076
1953	9.7600e-01	-1.8705	-0.034864	0.000001	0.012380	0.004195	0.000101
1954	9.7650e-01	-1.8144	-0.034616	0.000001	0.006089	0.002063	0.000050
1955	9.7700e-01	-1.7679	-0.034385	0.000001	0.005683	0.001925	0.000046
1956	9.7750e-01	-1.7181	-0.034021	0.000001	0.008930	0.003026	0.000073
1957	9.7800e-01	-1.7133	-0.033575	0.000001	0.010960	0.003713	0.000089
1958	9.7850e-01	-1.6844	-0.033228	0.000001	0.008524	0.002888	0.000069
1959	9.7900e-01	-1.6347	-0.033030	0.000000	0.004871	0.001650	0.000040
1960	9.7950e-01	-1.5834	-0.032683	0.000001	0.008524	0.002888	0.000069
1961	9.8000e-01	-1.5866	-0.032261	-0.000001	-0.010351	-0.003507	0.000084
1962	9.8050e-01	-1.4984	-0.031881	0.000001	0.009336	0.003163	0.000076
1963	9.8100e-01	-1.4807	-0.031650	0.000001	0.005683	0.001925	0.000046
1964	9.8150e-01	-1.4454	-0.031526	0.000000	0.003044	0.001031	0.000025
1965	9.8200e-01	-1.3973	-0.031080	0.000001	0.010960	0.003713	0.000089
1966	9.8250e-01	-1.3363	-0.030840	0.000001	0.005886	0.001994	0.000048
1967	9.8300e-01	-1.3251	-0.030617	0.000001	0.005480	0.001857	0.000045
1968	9.8350e-01	-1.2417	-0.030394	0.000001	0.005480	0.001857	0.000045
1969	9.8400e-01	-1.2321	-0.030014	0.000001	0.009336	0.003163	0.000076
1970	9.8450e-01	-1.1935	-0.029609	0.000001	0.009945	0.003369	0.000081
1971	9.8500e-01	-1.1567	-0.029543	0.000000	0.001624	0.000550	0.000013
1972	9.8550e-01	-1.0989	-0.029072	0.000001	0.011569	0.003920	0.000094
1973	9.8600e-01	-1.0700	-0.028502	0.000001	0.014004	0.004745	0.000114
1974	9.8650e-01	-1.0363	-0.028056	0.000001	0.010960	0.003713	0.000089
1975	9.8700e-01	-1.0091	-0.027494	0.000001	0.013801	0.004676	0.000112
1976	9.8750e-01	-0.9497	-0.027329	0.000000	0.004059	0.001375	0.000033
1977	9.8800e-01	-0.8920	-0.027436	-0.000000	-0.002638	-0.000894	-0.000021
1978	9.8850e-01	-0.8631	-0.027362	0.000000	0.001827	0.000619	0.000015
1979	9.8900e-01	-0.8342	-0.027147	0.000001	0.005277	0.001788	0.000043
1980	9.8950e-01	-0.8021	-0.027023	0.000000	0.003044	0.001031	0.000025
1981	9.9000e-01	-0.7604	-0.026907	0.000000	0.002841	0.000963	0.000023
1982	9.9050e-01	-0.6962	-0.026602	0.000001	0.007509	0.002544	0.000061
1983	9.9100e-01	-0.6609	-0.026486	0.000000	0.002841	0.000963	0.000023
1984	9.9150e-01	-0.6545	-0.026114	0.000001	0.009133	0.003094	0.000074
1985	9.9200e-01	-0.5936	-0.025560	0.000001	0.013598	0.004607	0.000111
1986	9.9250e-01	-0.5567	-0.025015	0.000001	0.013395	0.004538	0.000109
1987	9.9300e-01	-0.5118	-0.024561	0.000001	0.011163	0.003782	0.000091
1988	9.9350e-01	-0.4604	-0.024503	0.000000	0.001421	0.000481	0.000012
1989	9.9400e-01	-0.4380	-0.024321	0.000000	0.004465	0.001513	0.000036
1990	9.9450e-01	-0.3962	-0.023900	0.000001	0.010351	0.003507	0.000084
1991	9.9500e-01	-0.3481	-0.023668	0.000001	0.005683	0.001925	0.000046
1992	9.9550e-01	-0.3112	-0.023115	0.000001	0.013598	0.004607	0.000111
1993	9.9600e-01	-0.3048	-0.022602	0.000001	0.012583	0.004263	0.000102
1994	9.9650e-01	-0.2358	-0.022454	0.000000	0.003653	0.001238	0.000030
1995	9.9700e-01	-0.1861	-0.022669	-0.000001	-0.005277	-0.001788	-0.000043
1996	9.9750e-01	-0.1508	-0.022768	-0.000000	-0.002435	-0.000825	-0.000020
1997	9.9800e-01	-0.1171	-0.022553	0.000001	0.005277	0.001788	0.000043
1998	9.9850e-01	-0.0722	-0.021751	0.000002	0.019687	0.006670	0.000160
1999	9.9900e-01	-0.0209	-0.021016	0.000002	0.018063	0.006120	0.000147
2000	9.9950e-01	0.0032	-0.020438	0.000001	0.014207	0.004813	0.000116
2001	1.0000e+00	0.0257	-0.020049	0.000001	0.014207	0.004813	0.000078

Center data before PMax,+/-Pr and +/-Vc Calc.

PMax (uC/cm2):	1.21e-01
Pr (uC/cm2):	2.89e-02
-Pr (uC/cm2):	-2.00e-02
PLoss (uC/cm2):	6.59e-02
Vc:	1.18e+01
-Vc:	-3.38e+00
C (Max-Eff) (nF):	6.03e-04
K (Eff):	2.04e+00
Vert. (+/-Pr) Shift (uC/cm2):	4.41e-03
Horiz. Shift (+/-Vc):	4.22e+00
Offset (uC/cm2):	8.70e-02

A (Loop Area - uC/cm2·Volts):	-5.76e-03



Hysteresis Version: 5.48.1 - Radiant Technologies, Inc., 1999 - 9/12/24

