»»»»»»»»»»»»»»»»»»»»»»»»»»»»»»»»»»»» Hysteresis ««««««««««««««««««««««««««««««««««««
»»»  Executed Version:	5.48.1
»»»  Vision Version:	5.48.4 (R)
»»»  Vision Compiled:	9/18/24
»»»  Driver Version:	5.47.0
»»»  Windows Version:	Windows 8 or 8.1
»»»  Processor Information:	x86 (AMD or Intel) - 32 Processors
»»»  Tester Name:	PMF21124-494 (100V)
»»»  Tester S/N:	PMF21124-494
»»»  Internal Amp Type:	100V RevK 270k
»»»  Internal Amp S/N:	iAB2-596/K     
»»»  Execution Count:	1
»»»»»»»»»»»»»»»»»»»»»»»»»»»»»»»»»»»»»»»»»»««««««««««««««««««««««««««««««««««««««««««

Stored:	6/12/2025 - 15:14:48
Configured:	06/12/25 03:03:03 PM
Executed:	06/12/25 03:11:47 PM

»»»»»»»»»»»»»»»»»»»»»»»»»»»»»»»»»»» Sample Info ««««««««««««««««««««««««««««««««««««
Sample Name:	
Lot Name:	
Wafer Name:	
Die Row/Column:	0/0
Capacitor Number:	0
Sample Area (cm2):	1.00e-04
Sample Thickness (microns):	3.00e-01

Amplifier:	Internal

»»»»»»»»»»»»»»»»»»»»»»»»»»»»»»»»»»» Tester Info «««««««««««««««««««««««««««««««««««
Tester Name:	PMF21124-494 (100V)
Tester Serial Number:	PMF21124-494
Return Signal Amp. Level:	0.019 [Index: 4]

»»»»»»»»»»»»»»»»»»»»»»»»»»»»»»»» Hysteresis Info ««««««««««««««««««««««««««««««««««
Task Name:	Hyst-1570
Volts:	20.00
Field:	666.67 (kV/cm)
DCBias:	0.00
DCField:	0.00 (kV/cm)
Hysteresis Period (ms):	2.00e+02
Preset:	Enabled
Preset Delay (ms):	1.00e+03
Profile:	Standard Bipolar

»»»»»»»»»»»»»»»»»»»»»»»»»»»»»»»»»»»»»» Data «««««««««««««««««««««««««««««««««««««««
Points:	2009

Valid Data

Point	Time (ms)	Drive Voltage	Measured Polarization (uC/cm2)	Capacitance (uF)	Normalized Capacitance (uF/cm2)	Dielectric Constant	Instantaneous Current (mA)
   1	0.0000e+00	-0.0112	15.890408	0.000607	6.073734	2.057837	0.000243
   2	9.9500e-02	0.0096	16.132394	0.000607	6.073734	2.057837	0.000243
   3	1.9900e-01	0.0529	16.576035	0.001114	11.135179	3.772701	0.000446
   4	2.9850e-01	0.0963	16.697028	0.000304	3.036867	1.028918	0.000122
   5	3.9800e-01	0.1332	17.181000	0.001215	12.147468	4.115673	0.000486
   6	4.9750e-01	0.1700	17.140669	-0.000101	-1.012289	-0.342973	-0.000041
   7	5.9700e-01	0.2278	16.939014	-0.000506	-5.061445	-1.714864	-0.000203
   8	6.9650e-01	0.2567	17.422986	0.001215	12.147468	4.115673	0.000486
   9	7.9600e-01	0.2968	17.624641	0.000506	5.061445	1.714864	0.000203
  10	8.9550e-01	0.3257	17.906958	0.000709	7.086023	2.400809	0.000284
  11	9.9500e-01	0.3834	18.148944	0.000607	6.073734	2.057837	0.000243
  12	1.0945e+00	0.4123	18.350599	0.000506	5.061445	1.714864	0.000203
  13	1.1940e+00	0.4572	18.310268	-0.000101	-1.012289	-0.342973	-0.000041
  14	1.2935e+00	0.4941	18.673247	0.000911	9.110601	3.086755	0.000365
  15	1.3930e+00	0.5230	18.955563	0.000709	7.086023	2.400809	0.000284
  16	1.4925e+00	0.5759	19.358873	0.001012	10.122890	3.429728	0.000405
  17	1.5920e+00	0.6096	19.439535	0.000202	2.024578	0.685946	0.000081
  18	1.6915e+00	0.6513	19.681521	0.000607	6.073734	2.057837	0.000243
  19	1.7910e+00	0.6978	20.165493	0.001215	12.147468	4.115673	0.000486
  20	1.8905e+00	0.7299	19.923507	-0.000607	-6.073734	-2.057837	-0.000243
  21	1.9900e+00	0.7764	20.044500	0.000304	3.036867	1.028918	0.000122
  22	2.0895e+00	0.8182	20.286486	0.000607	6.073734	2.057837	0.000243
  23	2.1890e+00	0.8535	20.730127	0.001114	11.135179	3.772701	0.000446
  24	2.2885e+00	0.8839	21.133437	0.001012	10.122890	3.429728	0.000405
  25	2.3880e+00	0.9369	20.931782	-0.000506	-5.061445	-1.714864	-0.000203
  26	2.4875e+00	0.9722	21.052775	0.000304	3.036867	1.028918	0.000122
  27	2.5870e+00	1.0059	21.577078	0.001316	13.159756	4.458646	0.000527
  28	2.6865e+00	1.0460	21.778732	0.000506	5.061445	1.714864	0.000203
  29	2.7860e+00	1.0893	21.698070	-0.000202	-2.024578	-0.685946	-0.000081
  30	2.8855e+00	1.1294	22.101380	0.001012	10.122890	3.429728	0.000405
  31	2.9850e+00	1.1711	22.303035	0.000506	5.061445	1.714864	0.000203
  32	3.0845e+00	1.2160	22.706345	0.001012	10.122890	3.429728	0.000405
  33	3.1840e+00	1.2481	22.827338	0.000304	3.036867	1.028918	0.000122
  34	3.2835e+00	1.2882	22.706345	-0.000304	-3.036867	-1.028918	-0.000122
  35	3.3830e+00	1.3283	23.311310	0.001518	15.184334	5.144592	0.000608
  36	3.4825e+00	1.3861	23.351641	0.000101	1.012289	0.342973	0.000041
  37	3.5820e+00	1.4085	23.795282	0.001114	11.135179	3.772701	0.000446
  38	3.6815e+00	1.4518	23.875944	0.000202	2.024578	0.685946	0.000081
  39	3.7810e+00	1.4887	24.117930	0.000607	6.073734	2.057837	0.000243
  40	3.8805e+00	1.5272	24.037268	-0.000202	-2.024578	-0.685946	-0.000081
  41	3.9800e+00	1.5673	24.158261	0.000304	3.036867	1.028918	0.000122
  42	4.0795e+00	1.6042	24.561570	0.001012	10.122890	3.429728	0.000405
  43	4.1790e+00	1.6524	24.843887	0.000709	7.086023	2.400809	0.000284
  44	4.2785e+00	1.6973	24.924549	0.000202	2.024578	0.685946	0.000081
  45	4.3780e+00	1.7310	25.085873	0.000405	4.049156	1.371891	0.000162
  46	4.4775e+00	1.7711	25.489183	0.001012	10.122890	3.429728	0.000405
  47	4.5770e+00	1.8048	25.408521	-0.000202	-2.024578	-0.685946	-0.000081
  48	4.6765e+00	1.8481	26.134479	0.001822	18.221201	6.173510	0.000730
  49	4.7760e+00	1.8962	26.255472	0.000304	3.036867	1.028918	0.000122
  50	4.8755e+00	1.9267	26.779775	0.001316	13.159756	4.458646	0.000527
  51	4.9750e+00	1.9716	26.860437	0.000202	2.024578	0.685946	0.000081
  52	5.0745e+00	2.0053	26.941099	0.000202	2.024578	0.685946	0.000081
  53	5.1740e+00	2.0486	27.062092	0.000304	3.036867	1.028918	0.000122
  54	5.2735e+00	2.0839	27.223416	0.000405	4.049156	1.371891	0.000162
  55	5.3730e+00	2.1176	27.263747	0.000101	1.012289	0.342973	0.000041
  56	5.4725e+00	2.1657	27.788049	0.001316	13.159756	4.458646	0.000527
  57	5.5720e+00	2.2106	28.070366	0.000709	7.086023	2.400809	0.000284
  58	5.6715e+00	2.2427	28.110697	0.000101	1.012289	0.342973	0.000041
  59	5.7710e+00	2.2844	28.594669	0.001215	12.147468	4.115673	0.000486
  60	5.8705e+00	2.3293	28.352683	-0.000607	-6.073734	-2.057837	-0.000243
  61	5.9700e+00	2.3695	28.473676	0.000304	3.036867	1.028918	0.000122
  62	6.0695e+00	2.4112	29.280296	0.002025	20.245779	6.859456	0.000811
  63	6.1690e+00	2.4465	29.118972	-0.000405	-4.049156	-1.371891	-0.000162
  64	6.2685e+00	2.4898	29.441620	0.000810	8.098312	2.743782	0.000324
  65	6.3680e+00	2.5186	30.006254	0.001417	14.172045	4.801619	0.000567
  66	6.4675e+00	2.5652	29.844930	-0.000405	-4.049156	-1.371891	-0.000162
  67	6.5670e+00	2.6037	30.288571	0.001114	11.135179	3.772701	0.000446
  68	6.6665e+00	2.6486	30.530556	0.000607	6.073734	2.057837	0.000243
  69	6.7660e+00	2.6839	30.893535	0.000911	9.110601	3.086755	0.000365
  70	6.8655e+00	2.7160	31.095190	0.000506	5.061445	1.714864	0.000203
  71	6.9650e+00	2.7657	31.256514	0.000405	4.049156	1.371891	0.000162
  72	7.0645e+00	2.8074	31.659824	0.001012	10.122890	3.429728	0.000405
  73	7.1640e+00	2.8459	31.498500	-0.000405	-4.049156	-1.371891	-0.000162
  74	7.2635e+00	2.8812	31.740486	0.000607	6.073734	2.057837	0.000243
  75	7.3630e+00	2.9213	32.385782	0.001620	16.196623	5.487565	0.000649
  76	7.4625e+00	2.9614	31.982472	-0.001012	-10.122890	-3.429728	-0.000405
  77	7.5620e+00	2.9967	32.587437	0.001518	15.184334	5.144592	0.000608
  78	7.6615e+00	3.0464	32.587437	0.000000	0.000000	0.000000	0.000000
  79	7.7610e+00	3.0817	32.829423	0.000607	6.073734	2.057837	0.000243
  80	7.8605e+00	3.1331	32.748761	-0.000202	-2.024578	-0.685946	-0.000081
  81	7.9600e+00	3.1652	32.950416	0.000506	5.061445	1.714864	0.000203
  82	8.0595e+00	3.2069	33.636042	0.001721	17.208912	5.830537	0.000689
  83	8.1590e+00	3.2422	33.676373	0.000101	1.012289	0.342973	0.000041
  84	8.2585e+00	3.2774	34.160345	0.001215	12.147468	4.115673	0.000486
  85	8.3580e+00	3.3159	34.563655	0.001012	10.122890	3.429728	0.000405
  86	8.4575e+00	3.3673	34.281338	-0.000709	-7.086023	-2.400809	-0.000284
  87	8.5570e+00	3.3978	34.482993	0.000506	5.061445	1.714864	0.000203
  88	8.6565e+00	3.4395	35.007296	0.001316	13.159756	4.458646	0.000527
  89	8.7560e+00	3.4812	34.926634	-0.000202	-2.024578	-0.685946	-0.000081
  90	8.8555e+00	3.5277	35.450937	0.001316	13.159756	4.458646	0.000527
  91	8.9550e+00	3.5502	35.410606	-0.000101	-1.012289	-0.342973	-0.000041
  92	9.0545e+00	3.6015	35.531599	0.000304	3.036867	1.028918	0.000122
  93	9.1540e+00	3.6416	36.055902	0.001316	13.159756	4.458646	0.000527
  94	9.2535e+00	3.6785	36.055902	0.000000	0.000000	0.000000	0.000000
  95	9.3530e+00	3.7218	36.580204	0.001316	13.159756	4.458646	0.000527
  96	9.4525e+00	3.7619	36.338218	-0.000607	-6.073734	-2.057837	-0.000243
  97	9.5520e+00	3.8101	36.781859	0.001114	11.135179	3.772701	0.000446
  98	9.6515e+00	3.8389	37.386824	0.001518	15.184334	5.144592	0.000608
  99	9.7510e+00	3.8822	37.104507	-0.000709	-7.086023	-2.400809	-0.000284
 100	9.8505e+00	3.9256	37.507817	0.001012	10.122890	3.429728	0.000405
 101	9.9500e+00	3.9673	37.507817	0.000000	0.000000	0.000000	0.000000
 102	1.0050e+01	4.0074	37.790134	0.000709	7.086023	2.400809	0.000284
 103	1.0149e+01	4.0346	38.032120	0.000607	6.073734	2.057837	0.000243
 104	1.0248e+01	4.0796	38.233775	0.000506	5.061445	1.714864	0.000203
 105	1.0348e+01	4.1245	38.596754	0.000911	9.110601	3.086755	0.000365
 106	1.0447e+01	4.1614	38.556423	-0.000101	-1.012289	-0.342973	-0.000041
 107	1.0547e+01	4.1983	39.080725	0.001316	13.159756	4.458646	0.000527
 108	1.0646e+01	4.2416	39.242049	0.000405	4.049156	1.371891	0.000162
 109	1.0746e+01	4.2785	39.564697	0.000810	8.098312	2.743782	0.000324
 110	1.0845e+01	4.3234	39.766352	0.000506	5.061445	1.714864	0.000203
 111	1.0945e+01	4.3587	39.927676	0.000405	4.049156	1.371891	0.000162
 112	1.1044e+01	4.4020	40.048669	0.000304	3.036867	1.028918	0.000122
 113	1.1144e+01	4.4293	40.048669	0.000000	0.000000	0.000000	0.000000
 114	1.1243e+01	4.4806	40.492310	0.001114	11.135179	3.772701	0.000446
 115	1.1343e+01	4.5223	40.734296	0.000607	6.073734	2.057837	0.000243
 116	1.1443e+01	4.5544	40.734296	0.000000	0.000000	0.000000	0.000000
 117	1.1542e+01	4.5945	40.935951	0.000506	5.061445	1.714864	0.000203
 118	1.1642e+01	4.6394	40.935951	0.000000	0.000000	0.000000	0.000000
 119	1.1741e+01	4.6715	41.339261	0.001012	10.122890	3.429728	0.000405
 120	1.1841e+01	4.7261	41.581247	0.000607	6.073734	2.057837	0.000243
 121	1.1940e+01	4.7630	41.944225	0.000911	9.110601	3.086755	0.000365
 122	1.2040e+01	4.8047	42.105549	0.000405	4.049156	1.371891	0.000162
 123	1.2139e+01	4.8384	42.186211	0.000202	2.024578	0.685946	0.000081
 124	1.2239e+01	4.8817	42.468528	0.000709	7.086023	2.400809	0.000284
 125	1.2338e+01	4.9170	42.589521	0.000304	3.036867	1.028918	0.000122
 126	1.2438e+01	4.9619	43.113824	0.001316	13.159756	4.458646	0.000527
 127	1.2537e+01	4.9988	43.033162	-0.000202	-2.024578	-0.685946	-0.000081
 128	1.2636e+01	5.0405	43.436472	0.001012	10.122890	3.429728	0.000405
 129	1.2736e+01	5.0726	43.638127	0.000506	5.061445	1.714864	0.000203
 130	1.2835e+01	5.1207	43.638127	0.000000	0.000000	0.000000	0.000000
 131	1.2935e+01	5.1592	44.122099	0.001215	12.147468	4.115673	0.000486
 132	1.3034e+01	5.1945	44.404416	0.000709	7.086023	2.400809	0.000284
 133	1.3134e+01	5.2362	44.162430	-0.000607	-6.073734	-2.057837	-0.000243
 134	1.3233e+01	5.2763	44.243092	0.000202	2.024578	0.685946	0.000081
 135	1.3333e+01	5.3196	44.928718	0.001721	17.208912	5.830537	0.000689
 136	1.3432e+01	5.3613	45.049711	0.000304	3.036867	1.028918	0.000122
 137	1.3532e+01	5.4031	45.049711	0.000000	0.000000	0.000000	0.000000
 138	1.3632e+01	5.4335	45.291697	0.000607	6.073734	2.057837	0.000243
 139	1.3731e+01	5.4785	45.372359	0.000202	2.024578	0.685946	0.000081
 140	1.3831e+01	5.5057	45.695007	0.000810	8.098312	2.743782	0.000324
 141	1.3930e+01	5.5667	45.896662	0.000506	5.061445	1.714864	0.000203
 142	1.4030e+01	5.5988	46.541958	0.001620	16.196623	5.487565	0.000649
 143	1.4129e+01	5.6421	46.461296	-0.000202	-2.024578	-0.685946	-0.000081
 144	1.4229e+01	5.6790	46.461296	0.000000	0.000000	0.000000	0.000000
 145	1.4328e+01	5.7095	46.662951	0.000506	5.061445	1.714864	0.000203
 146	1.4428e+01	5.7544	47.025930	0.000911	9.110601	3.086755	0.000365
 147	1.4527e+01	5.7929	47.106592	0.000202	2.024578	0.685946	0.000081
 148	1.4627e+01	5.8346	47.267916	0.000405	4.049156	1.371891	0.000162
 149	1.4726e+01	5.8763	47.751887	0.001215	12.147468	4.115673	0.000486
 150	1.4825e+01	5.9116	47.711556	-0.000101	-1.012289	-0.342973	-0.000041
 151	1.4925e+01	5.9517	47.751887	0.000101	1.012289	0.342973	0.000041
 152	1.5024e+01	5.9790	47.953542	0.000506	5.061445	1.714864	0.000203
 153	1.5124e+01	6.0303	48.356852	0.001012	10.122890	3.429728	0.000405
 154	1.5223e+01	6.0688	48.518176	0.000405	4.049156	1.371891	0.000162
 155	1.5323e+01	6.1153	48.477845	-0.000101	-1.012289	-0.342973	-0.000041
 156	1.5422e+01	6.1603	48.840824	0.000911	9.110601	3.086755	0.000365
 157	1.5522e+01	6.1891	49.405458	0.001417	14.172045	4.801619	0.000567
 158	1.5621e+01	6.2389	49.284465	-0.000304	-3.036867	-1.028918	-0.000122
 159	1.5721e+01	6.2742	49.768437	0.001215	12.147468	4.115673	0.000486
 160	1.5820e+01	6.3175	49.365127	-0.001012	-10.122890	-3.429728	-0.000405
 161	1.5920e+01	6.3560	49.687775	0.000810	8.098312	2.743782	0.000324
 162	1.6020e+01	6.3961	50.091085	0.001012	10.122890	3.429728	0.000405
 163	1.6119e+01	6.4314	50.131416	0.000101	1.012289	0.342973	0.000041
 164	1.6218e+01	6.4747	50.131416	0.000000	0.000000	0.000000	0.000000
 165	1.6318e+01	6.5068	50.655718	0.001316	13.159756	4.458646	0.000527
 166	1.6418e+01	6.5405	50.817042	0.000405	4.049156	1.371891	0.000162
 167	1.6517e+01	6.6030	51.059028	0.000607	6.073734	2.057837	0.000243
 168	1.6616e+01	6.6207	51.099359	0.000101	1.012289	0.342973	0.000041
 169	1.6716e+01	6.6656	51.301014	0.000506	5.061445	1.714864	0.000203
 170	1.6816e+01	6.7089	51.543000	0.000607	6.073734	2.057837	0.000243
 171	1.6915e+01	6.7442	51.986641	0.001114	11.135179	3.772701	0.000446
 172	1.7015e+01	6.7891	51.825317	-0.000405	-4.049156	-1.371891	-0.000162
 173	1.7114e+01	6.8244	52.309289	0.001215	12.147468	4.115673	0.000486
 174	1.7213e+01	6.8709	52.067303	-0.000607	-6.073734	-2.057837	-0.000243
 175	1.7313e+01	6.9030	52.833592	0.001923	19.233490	6.516483	0.000770
 176	1.7413e+01	6.9479	52.712599	-0.000304	-3.036867	-1.028918	-0.000122
 177	1.7512e+01	6.9864	52.672268	-0.000101	-1.012289	-0.342973	-0.000041
 178	1.7611e+01	7.0346	52.793261	0.000304	3.036867	1.028918	0.000122
 179	1.7711e+01	7.0666	53.398225	0.001518	15.184334	5.144592	0.000608
 180	1.7811e+01	7.1084	53.236902	-0.000405	-4.049156	-1.371891	-0.000162
 181	1.7910e+01	7.1420	53.398225	0.000405	4.049156	1.371891	0.000162
 182	1.8009e+01	7.1870	53.680542	0.000709	7.086023	2.400809	0.000284
 183	1.8109e+01	7.2255	54.124183	0.001114	11.135179	3.772701	0.000446
 184	1.8209e+01	7.2656	54.285507	0.000405	4.049156	1.371891	0.000162
 185	1.8308e+01	7.3025	54.285507	0.000000	0.000000	0.000000	0.000000
 186	1.8407e+01	7.3474	54.567824	0.000709	7.086023	2.400809	0.000284
 187	1.8507e+01	7.3923	54.769479	0.000506	5.061445	1.714864	0.000203
 188	1.8607e+01	7.4244	54.971134	0.000506	5.061445	1.714864	0.000203
 189	1.8706e+01	7.4741	54.890472	-0.000202	-2.024578	-0.685946	-0.000081
 190	1.8805e+01	7.5190	55.092127	0.000506	5.061445	1.714864	0.000203
 191	1.8905e+01	7.5431	55.535768	0.001114	11.135179	3.772701	0.000446
 192	1.9005e+01	7.5832	55.656761	0.000304	3.036867	1.028918	0.000122
 193	1.9104e+01	7.6329	55.374444	-0.000709	-7.086023	-2.400809	-0.000284
 194	1.9203e+01	7.6682	56.019740	0.001620	16.196623	5.487565	0.000649
 195	1.9303e+01	7.7051	56.060071	0.000101	1.012289	0.342973	0.000041
 196	1.9402e+01	7.7500	56.544042	0.001215	12.147468	4.115673	0.000486
 197	1.9502e+01	7.7821	56.665035	0.000304	3.036867	1.028918	0.000122
 198	1.9602e+01	7.8271	56.745697	0.000202	2.024578	0.685946	0.000081
 199	1.9701e+01	7.8559	56.463380	-0.000709	-7.086023	-2.400809	-0.000284
 200	1.9800e+01	7.9105	57.068345	0.001518	15.184334	5.144592	0.000608
 201	1.9900e+01	7.9506	57.108676	0.000101	1.012289	0.342973	0.000041
 202	2.0000e+01	7.9762	57.229669	0.000304	3.036867	1.028918	0.000122
 203	2.0099e+01	8.0228	57.753972	0.001316	13.159756	4.458646	0.000527
 204	2.0198e+01	8.0645	57.874965	0.000304	3.036867	1.028918	0.000122
 205	2.0298e+01	8.1030	57.874965	0.000000	0.000000	0.000000	0.000000
 206	2.0398e+01	8.1479	58.237944	0.000911	9.110601	3.086755	0.000365
 207	2.0497e+01	8.1880	58.116951	-0.000304	-3.036867	-1.028918	-0.000122
 208	2.0596e+01	8.2297	58.439599	0.000810	8.098312	2.743782	0.000324
 209	2.0696e+01	8.2682	58.721916	0.000709	7.086023	2.400809	0.000284
 210	2.0796e+01	8.3051	59.004233	0.000709	7.086023	2.400809	0.000284
 211	2.0895e+01	8.3420	59.286549	0.000709	7.086023	2.400809	0.000284
 212	2.0994e+01	8.3853	59.326880	0.000101	1.012289	0.342973	0.000041
 213	2.1094e+01	8.4238	59.205887	-0.000304	-3.036867	-1.028918	-0.000122
 214	2.1194e+01	8.4720	59.730190	0.001316	13.159756	4.458646	0.000527
 215	2.1293e+01	8.4928	59.488204	-0.000607	-6.073734	-2.057837	-0.000243
 216	2.1392e+01	8.5441	59.689859	0.000506	5.061445	1.714864	0.000203
 217	2.1492e+01	8.5794	60.173831	0.001215	12.147468	4.115673	0.000486
 218	2.1591e+01	8.6244	59.891514	-0.000709	-7.086023	-2.400809	-0.000284
 219	2.1691e+01	8.6645	60.375486	0.001215	12.147468	4.115673	0.000486
 220	2.1791e+01	8.7062	60.577141	0.000506	5.061445	1.714864	0.000203
 221	2.1890e+01	8.7431	60.980451	0.001012	10.122890	3.429728	0.000405
 222	2.1989e+01	8.7768	60.980451	0.000000	0.000000	0.000000	0.000000
 223	2.2089e+01	8.8281	60.980451	0.000000	0.000000	0.000000	0.000000
 224	2.2189e+01	8.8602	61.383761	0.001012	10.122890	3.429728	0.000405
 225	2.2288e+01	8.9003	61.383761	0.000000	0.000000	0.000000	0.000000
 226	2.2387e+01	8.9420	61.545085	0.000405	4.049156	1.371891	0.000162
 227	2.2487e+01	8.9805	61.867733	0.000810	8.098312	2.743782	0.000324
 228	2.2587e+01	9.0286	62.029057	0.000405	4.049156	1.371891	0.000162
 229	2.2686e+01	9.0671	62.190380	0.000405	4.049156	1.371891	0.000162
 230	2.2785e+01	9.0976	62.432366	0.000607	6.073734	2.057837	0.000243
 231	2.2885e+01	9.1441	62.109718	-0.000810	-8.098312	-2.743782	-0.000324
 232	2.2985e+01	9.1810	62.634021	0.001316	13.159756	4.458646	0.000527
 233	2.3084e+01	9.2275	62.634021	0.000000	0.000000	0.000000	0.000000
 234	2.3183e+01	9.2644	62.997000	0.000911	9.110601	3.086755	0.000365
 235	2.3283e+01	9.2965	63.400310	0.001012	10.122890	3.429728	0.000405
 236	2.3383e+01	9.3398	63.077662	-0.000810	-8.098312	-2.743782	-0.000324
 237	2.3482e+01	9.3832	63.359979	0.000709	7.086023	2.400809	0.000284
 238	2.3581e+01	9.4297	63.803620	0.001114	11.135179	3.772701	0.000446
 239	2.3681e+01	9.4682	63.722958	-0.000202	-2.024578	-0.685946	-0.000081
 240	2.3780e+01	9.4955	64.085937	0.000911	9.110601	3.086755	0.000365
 241	2.3880e+01	9.5340	64.368254	0.000709	7.086023	2.400809	0.000284
 242	2.3980e+01	9.5741	64.529578	0.000405	4.049156	1.371891	0.000162
 243	2.4079e+01	9.6270	64.448916	-0.000202	-2.024578	-0.685946	-0.000081
 244	2.4178e+01	9.6607	64.610240	0.000405	4.049156	1.371891	0.000162
 245	2.4278e+01	9.7024	65.053880	0.001114	11.135179	3.772701	0.000446
 246	2.4378e+01	9.7361	65.457190	0.001012	10.122890	3.429728	0.000405
 247	2.4477e+01	9.7858	65.497521	0.000101	1.012289	0.342973	0.000041
 248	2.4576e+01	9.8115	65.578183	0.000202	2.024578	0.685946	0.000081
 249	2.4676e+01	9.8644	65.739507	0.000405	4.049156	1.371891	0.000162
 250	2.4776e+01	9.9013	65.900831	0.000405	4.049156	1.371891	0.000162
 251	2.4875e+01	9.9382	66.021824	0.000304	3.036867	1.028918	0.000122
 252	2.4974e+01	9.9719	66.102486	0.000202	2.024578	0.685946	0.000081
 253	2.5074e+01	10.0200	66.465465	0.000911	9.110601	3.086755	0.000365
 254	2.5174e+01	10.0569	66.626789	0.000405	4.049156	1.371891	0.000162
 255	2.5273e+01	10.0906	67.110761	0.001215	12.147468	4.115673	0.000486
 256	2.5372e+01	10.1404	66.586458	-0.001316	-13.159756	-4.458646	-0.000527
 257	2.5472e+01	10.1740	66.828444	0.000607	6.073734	2.057837	0.000243
 258	2.5572e+01	10.2238	67.312416	0.001215	12.147468	4.115673	0.000486
 259	2.5671e+01	10.2575	67.473740	0.000405	4.049156	1.371891	0.000162
 260	2.5770e+01	10.3024	67.635064	0.000405	4.049156	1.371891	0.000162
 261	2.5870e+01	10.3345	67.836718	0.000506	5.061445	1.714864	0.000203
 262	2.5970e+01	10.3762	68.280359	0.001114	11.135179	3.772701	0.000446
 263	2.6069e+01	10.4115	68.320690	0.000101	1.012289	0.342973	0.000041
 264	2.6169e+01	10.4548	68.361021	0.000101	1.012289	0.342973	0.000041
 265	2.6268e+01	10.4965	68.361021	0.000000	0.000000	0.000000	0.000000
 266	2.6367e+01	10.5382	68.764331	0.001012	10.122890	3.429728	0.000405
 267	2.6467e+01	10.5767	68.724000	-0.000101	-1.012289	-0.342973	-0.000041
 268	2.6567e+01	10.6216	68.925655	0.000506	5.061445	1.714864	0.000203
 269	2.6666e+01	10.6569	68.965986	0.000101	1.012289	0.342973	0.000041
 270	2.6765e+01	10.6970	69.651613	0.001721	17.208912	5.830537	0.000689
 271	2.6865e+01	10.7355	69.409627	-0.000607	-6.073734	-2.057837	-0.000243
 272	2.6965e+01	10.7740	69.772606	0.000911	9.110601	3.086755	0.000365
 273	2.7064e+01	10.8109	69.812937	0.000101	1.012289	0.342973	0.000041
 274	2.7163e+01	10.8591	70.337240	0.001316	13.159756	4.458646	0.000527
 275	2.7263e+01	10.8943	70.256578	-0.000202	-2.024578	-0.685946	-0.000081
 276	2.7363e+01	10.9328	70.095254	-0.000405	-4.049156	-1.371891	-0.000162
 277	2.7462e+01	10.9697	70.538895	0.001114	11.135179	3.772701	0.000446
 278	2.7561e+01	11.0131	70.377571	-0.000405	-4.049156	-1.371891	-0.000162
 279	2.7661e+01	11.0500	70.821211	0.001114	11.135179	3.772701	0.000446
 280	2.7761e+01	11.0949	70.579226	-0.000607	-6.073734	-2.057837	-0.000243
 281	2.7860e+01	11.1366	71.103528	0.001316	13.159756	4.458646	0.000527
 282	2.7959e+01	11.1735	71.224521	0.000304	3.036867	1.028918	0.000122
 283	2.8059e+01	11.2088	71.426176	0.000506	5.061445	1.714864	0.000203
 284	2.8159e+01	11.2505	71.587500	0.000405	4.049156	1.371891	0.000162
 285	2.8258e+01	11.2986	71.708493	0.000304	3.036867	1.028918	0.000122
 286	2.8358e+01	11.3371	71.950479	0.000607	6.073734	2.057837	0.000243
 287	2.8457e+01	11.3788	72.152134	0.000506	5.061445	1.714864	0.000203
 288	2.8556e+01	11.4109	72.152134	0.000000	0.000000	0.000000	0.000000
 289	2.8656e+01	11.4542	72.394120	0.000607	6.073734	2.057837	0.000243
 290	2.8756e+01	11.4927	72.716768	0.000810	8.098312	2.743782	0.000324
 291	2.8855e+01	11.5392	72.837761	0.000304	3.036867	1.028918	0.000122
 292	2.8954e+01	11.5665	72.837761	0.000000	0.000000	0.000000	0.000000
 293	2.9054e+01	11.6179	73.120078	0.000709	7.086023	2.400809	0.000284
 294	2.9154e+01	11.6467	73.160409	0.000101	1.012289	0.342973	0.000041
 295	2.9253e+01	11.6900	73.442726	0.000709	7.086023	2.400809	0.000284
 296	2.9352e+01	11.7334	73.725042	0.000709	7.086023	2.400809	0.000284
 297	2.9452e+01	11.7783	73.483057	-0.000607	-6.073734	-2.057837	-0.000243
 298	2.9552e+01	11.8168	73.765373	0.000709	7.086023	2.400809	0.000284
 299	2.9651e+01	11.8521	74.330007	0.001417	14.172045	4.801619	0.000567
 300	2.9750e+01	11.8890	74.088021	-0.000607	-6.073734	-2.057837	-0.000243
 301	2.9850e+01	11.9371	74.491331	0.001012	10.122890	3.429728	0.000405
 302	2.9950e+01	11.9660	74.451000	-0.000101	-1.012289	-0.342973	-0.000041
 303	3.0049e+01	12.0173	74.692986	0.000607	6.073734	2.057837	0.000243
 304	3.0148e+01	12.0494	74.571993	-0.000304	-3.036867	-1.028918	-0.000122
 305	3.0248e+01	12.0943	74.975303	0.001012	10.122890	3.429728	0.000405
 306	3.0348e+01	12.1296	75.096296	0.000304	3.036867	1.028918	0.000122
 307	3.0447e+01	12.1713	75.136627	0.000101	1.012289	0.342973	0.000041
 308	3.0547e+01	12.2082	75.580268	0.001114	11.135179	3.772701	0.000446
 309	3.0646e+01	12.2563	76.064240	0.001215	12.147468	4.115673	0.000486
 310	3.0745e+01	12.2932	75.822254	-0.000607	-6.073734	-2.057837	-0.000243
 311	3.0845e+01	12.3333	75.983578	0.000405	4.049156	1.371891	0.000162
 312	3.0945e+01	12.3751	76.306226	0.000810	8.098312	2.743782	0.000324
 313	3.1044e+01	12.4071	76.507880	0.000506	5.061445	1.714864	0.000203
 314	3.1143e+01	12.4553	76.548211	0.000101	1.012289	0.342973	0.000041
 315	3.1243e+01	12.4938	76.346557	-0.000506	-5.061445	-1.714864	-0.000203
 316	3.1343e+01	12.5323	76.911190	0.001417	14.172045	4.801619	0.000567
 317	3.1442e+01	12.5708	76.669204	-0.000607	-6.073734	-2.057837	-0.000243
 318	3.1541e+01	12.6061	77.032183	0.000911	9.110601	3.086755	0.000365
 319	3.1641e+01	12.6510	77.556486	0.001316	13.159756	4.458646	0.000527
 320	3.1741e+01	12.6959	77.395162	-0.000405	-4.049156	-1.371891	-0.000162
 321	3.1840e+01	12.7264	77.637148	0.000607	6.073734	2.057837	0.000243
 322	3.1939e+01	12.7713	77.919465	0.000709	7.086023	2.400809	0.000284
 323	3.2039e+01	12.8082	77.959796	0.000101	1.012289	0.342973	0.000041
 324	3.2139e+01	12.8531	77.838803	-0.000304	-3.036867	-1.028918	-0.000122
 325	3.2238e+01	12.8884	78.201782	0.000911	9.110601	3.086755	0.000365
 326	3.2337e+01	12.9269	78.121120	-0.000202	-2.024578	-0.685946	-0.000081
 327	3.2437e+01	12.9558	78.645423	0.001316	13.159756	4.458646	0.000527
 328	3.2536e+01	13.0071	78.645423	0.000000	0.000000	0.000000	0.000000
 329	3.2636e+01	13.0408	78.766416	0.000304	3.036867	1.028918	0.000122
 330	3.2736e+01	13.0905	78.968071	0.000506	5.061445	1.714864	0.000203
 331	3.2835e+01	13.1226	79.290719	0.000810	8.098312	2.743782	0.000324
 332	3.2934e+01	13.1643	79.371380	0.000202	2.024578	0.685946	0.000081
 333	3.3034e+01	13.2125	79.411711	0.000101	1.012289	0.342973	0.000041
 334	3.3133e+01	13.2445	79.290719	-0.000304	-3.036867	-1.028918	-0.000122
 335	3.3233e+01	13.2830	79.895683	0.001518	15.184334	5.144592	0.000608
 336	3.3333e+01	13.3264	79.815021	-0.000202	-2.024578	-0.685946	-0.000081
 337	3.3432e+01	13.3633	79.694028	-0.000304	-3.036867	-1.028918	-0.000122
 338	3.3532e+01	13.4034	80.258662	0.001417	14.172045	4.801619	0.000567
 339	3.3631e+01	13.4451	80.460317	0.000506	5.061445	1.714864	0.000203
 340	3.3730e+01	13.4804	80.661972	0.000506	5.061445	1.714864	0.000203
 341	3.3830e+01	13.5333	80.984620	0.000810	8.098312	2.743782	0.000324
 342	3.3929e+01	13.5574	80.782965	-0.000506	-5.061445	-1.714864	-0.000203
 343	3.4029e+01	13.5975	81.186275	0.001012	10.122890	3.429728	0.000405
 344	3.4129e+01	13.6456	81.145944	-0.000101	-1.012289	-0.342973	-0.000041
 345	3.4228e+01	13.6889	81.508923	0.000911	9.110601	3.086755	0.000365
 346	3.4328e+01	13.7130	81.589585	0.000202	2.024578	0.685946	0.000081
 347	3.4427e+01	13.7659	81.508923	-0.000202	-2.024578	-0.685946	-0.000081
 348	3.4526e+01	13.7884	81.670247	0.000405	4.049156	1.371891	0.000162
 349	3.4626e+01	13.8365	81.791240	0.000304	3.036867	1.028918	0.000122
 350	3.4725e+01	13.8782	82.194550	0.001012	10.122890	3.429728	0.000405
 351	3.4825e+01	13.9119	82.355873	0.000405	4.049156	1.371891	0.000162
 352	3.4925e+01	13.9616	82.315542	-0.000101	-1.012289	-0.342973	-0.000041
 353	3.5024e+01	13.9985	82.275211	-0.000101	-1.012289	-0.342973	-0.000041
 354	3.5123e+01	14.0386	82.759183	0.001215	12.147468	4.115673	0.000486
 355	3.5223e+01	14.0804	82.880176	0.000304	3.036867	1.028918	0.000122
 356	3.5322e+01	14.1044	82.920507	0.000101	1.012289	0.342973	0.000041
 357	3.5422e+01	14.1574	83.001169	0.000202	2.024578	0.685946	0.000081
 358	3.5522e+01	14.2007	83.001169	0.000000	0.000000	0.000000	0.000000
 359	3.5621e+01	14.2360	83.485141	0.001215	12.147468	4.115673	0.000486
 360	3.5721e+01	14.2793	83.646465	0.000405	4.049156	1.371891	0.000162
 361	3.5820e+01	14.3226	83.565803	-0.000202	-2.024578	-0.685946	-0.000081
 362	3.5919e+01	14.3611	83.807789	0.000607	6.073734	2.057837	0.000243
 363	3.6019e+01	14.3948	83.767458	-0.000101	-1.012289	-0.342973	-0.000041
 364	3.6118e+01	14.4397	83.848120	0.000202	2.024578	0.685946	0.000081
 365	3.6218e+01	14.4782	84.211099	0.000911	9.110601	3.086755	0.000365
 366	3.6318e+01	14.5183	84.775733	0.001417	14.172045	4.801619	0.000567
 367	3.6417e+01	14.5488	84.654740	-0.000304	-3.036867	-1.028918	-0.000122
 368	3.6517e+01	14.6017	84.775733	0.000304	3.036867	1.028918	0.000122
 369	3.6616e+01	14.6354	84.856395	0.000202	2.024578	0.685946	0.000081
 370	3.6715e+01	14.6803	84.977388	0.000304	3.036867	1.028918	0.000122
 371	3.6815e+01	14.7172	85.138711	0.000405	4.049156	1.371891	0.000162
 372	3.6914e+01	14.7541	85.098381	-0.000101	-1.012289	-0.342973	-0.000041
 373	3.7014e+01	14.7894	85.179042	0.000202	2.024578	0.685946	0.000081
 374	3.7114e+01	14.8359	85.622683	0.001114	11.135179	3.772701	0.000446
 375	3.7213e+01	14.8825	85.784007	0.000405	4.049156	1.371891	0.000162
 376	3.7313e+01	14.9210	85.703345	-0.000202	-2.024578	-0.685946	-0.000081
 377	3.7412e+01	14.9547	86.025993	0.000810	8.098312	2.743782	0.000324
 378	3.7511e+01	14.9996	86.146986	0.000304	3.036867	1.028918	0.000122
 379	3.7611e+01	15.0317	86.308310	0.000405	4.049156	1.371891	0.000162
 380	3.7711e+01	15.0782	86.469634	0.000405	4.049156	1.371891	0.000162
 381	3.7810e+01	15.1183	86.711620	0.000607	6.073734	2.057837	0.000243
 382	3.7910e+01	15.1504	86.590627	-0.000304	-3.036867	-1.028918	-0.000122
 383	3.8009e+01	15.1985	86.872944	0.000709	7.086023	2.400809	0.000284
 384	3.8108e+01	15.2402	86.751951	-0.000304	-3.036867	-1.028918	-0.000122
 385	3.8208e+01	15.2691	87.316585	0.001417	14.172045	4.801619	0.000567
 386	3.8307e+01	15.3220	86.953606	-0.000911	-9.110601	-3.086755	-0.000365
 387	3.8407e+01	15.3589	87.356916	0.001012	10.122890	3.429728	0.000405
 388	3.8507e+01	15.3974	87.074599	-0.000709	-7.086023	-2.400809	-0.000284
 389	3.8606e+01	15.4327	87.477909	0.001012	10.122890	3.429728	0.000405
 390	3.8706e+01	15.4760	87.679564	0.000506	5.061445	1.714864	0.000203
 391	3.8805e+01	15.5145	87.477909	-0.000506	-5.061445	-1.714864	-0.000203
 392	3.8904e+01	15.5562	88.203866	0.001822	18.221201	6.173510	0.000730
 393	3.9004e+01	15.5931	88.042542	-0.000405	-4.049156	-1.371891	-0.000162
 394	3.9103e+01	15.6413	88.123204	0.000202	2.024578	0.685946	0.000081
 395	3.9203e+01	15.6798	88.808831	0.001721	17.208912	5.830537	0.000689
 396	3.9303e+01	15.7167	88.486183	-0.000810	-8.098312	-2.743782	-0.000324
 397	3.9402e+01	15.7488	88.647507	0.000405	4.049156	1.371891	0.000162
 398	3.9502e+01	15.7953	89.050817	0.001012	10.122890	3.429728	0.000405
 399	3.9601e+01	15.8258	88.889493	-0.000405	-4.049156	-1.371891	-0.000162
 400	3.9700e+01	15.8755	89.615451	0.001822	18.221201	6.173510	0.000730
 401	3.9800e+01	15.9076	89.333134	-0.000709	-7.086023	-2.400809	-0.000284
 402	3.9900e+01	15.9509	89.494458	0.000405	4.049156	1.371891	0.000162
 403	3.9999e+01	15.9974	89.978430	0.001215	12.147468	4.115673	0.000486
 404	4.0099e+01	16.0279	89.897768	-0.000202	-2.024578	-0.685946	-0.000081
 405	4.0198e+01	16.0760	90.139754	0.000607	6.073734	2.057837	0.000243
 406	4.0297e+01	16.1033	89.897768	-0.000607	-6.073734	-2.057837	-0.000243
 407	4.0397e+01	16.1482	90.180085	0.000709	7.086023	2.400809	0.000284
 408	4.0496e+01	16.1915	90.180085	0.000000	0.000000	0.000000	0.000000
 409	4.0596e+01	16.2332	90.381740	0.000506	5.061445	1.714864	0.000203
 410	4.0696e+01	16.2685	90.865712	0.001215	12.147468	4.115673	0.000486
 411	4.0795e+01	16.3086	90.744719	-0.000304	-3.036867	-1.028918	-0.000122
 412	4.0895e+01	16.3552	90.825381	0.000202	2.024578	0.685946	0.000081
 413	4.0994e+01	16.3904	91.148028	0.000810	8.098312	2.743782	0.000324
 414	4.1093e+01	16.4225	91.027035	-0.000304	-3.036867	-1.028918	-0.000122
 415	4.1193e+01	16.4626	91.228690	0.000506	5.061445	1.714864	0.000203
 416	4.1292e+01	16.5124	91.430345	0.000506	5.061445	1.714864	0.000203
 417	4.1392e+01	16.5573	91.309352	-0.000304	-3.036867	-1.028918	-0.000122
 418	4.1492e+01	16.5974	91.269021	-0.000101	-1.012289	-0.342973	-0.000041
 419	4.1591e+01	16.6423	92.357958	0.002733	27.331802	9.260265	0.001094
 420	4.1691e+01	16.6648	92.075641	-0.000709	-7.086023	-2.400809	-0.000284
 421	4.1790e+01	16.7065	92.115972	0.000101	1.012289	0.342973	0.000041
 422	4.1889e+01	16.7514	92.115972	0.000000	0.000000	0.000000	0.000000
 423	4.1989e+01	16.7899	92.317627	0.000506	5.061445	1.714864	0.000203
 424	4.2089e+01	16.8380	92.438620	0.000304	3.036867	1.028918	0.000122
 425	4.2188e+01	16.8717	92.761268	0.000810	8.098312	2.743782	0.000324
 426	4.2288e+01	16.9038	92.599944	-0.000405	-4.049156	-1.371891	-0.000162
 427	4.2387e+01	16.9471	93.083916	0.001215	12.147468	4.115673	0.000486
 428	4.2486e+01	16.9840	93.043585	-0.000101	-1.012289	-0.342973	-0.000041
 429	4.2586e+01	17.0241	93.245240	0.000506	5.061445	1.714864	0.000203
 430	4.2685e+01	17.0738	93.164578	-0.000202	-2.024578	-0.685946	-0.000081
 431	4.2785e+01	17.1075	93.406564	0.000607	6.073734	2.057837	0.000243
 432	4.2885e+01	17.1509	93.567888	0.000405	4.049156	1.371891	0.000162
 433	4.2984e+01	17.1926	93.729212	0.000405	4.049156	1.371891	0.000162
 434	4.3084e+01	17.2343	93.890535	0.000405	4.049156	1.371891	0.000162
 435	4.3183e+01	17.2599	93.930866	0.000101	1.012289	0.342973	0.000041
 436	4.3282e+01	17.3097	94.253514	0.000810	8.098312	2.743782	0.000324
 437	4.3382e+01	17.3418	94.334176	0.000202	2.024578	0.685946	0.000081
 438	4.3481e+01	17.3819	94.535831	0.000506	5.061445	1.714864	0.000203
 439	4.3581e+01	17.4300	94.737486	0.000506	5.061445	1.714864	0.000203
 440	4.3681e+01	17.4733	94.818148	0.000202	2.024578	0.685946	0.000081
 441	4.3780e+01	17.5118	94.898810	0.000202	2.024578	0.685946	0.000081
 442	4.3880e+01	17.5439	95.181127	0.000709	7.086023	2.400809	0.000284
 443	4.3979e+01	17.5760	95.342451	0.000405	4.049156	1.371891	0.000162
 444	4.4078e+01	17.6273	95.463444	0.000304	3.036867	1.028918	0.000122
 445	4.4178e+01	17.6722	95.503775	0.000101	1.012289	0.342973	0.000041
 446	4.4278e+01	17.7091	95.463444	-0.000101	-1.012289	-0.342973	-0.000041
 447	4.4377e+01	17.7492	95.826423	0.000911	9.110601	3.086755	0.000365
 448	4.4477e+01	17.7813	95.987747	0.000405	4.049156	1.371891	0.000162
 449	4.4576e+01	17.8278	95.786092	-0.000506	-5.061445	-1.714864	-0.000203
 450	4.4675e+01	17.8679	96.310395	0.001316	13.159756	4.458646	0.000527
 451	4.4775e+01	17.9048	96.068409	-0.000607	-6.073734	-2.057837	-0.000243
 452	4.4874e+01	17.9466	96.310395	0.000607	6.073734	2.057837	0.000243
 453	4.4974e+01	17.9851	96.512050	0.000506	5.061445	1.714864	0.000203
 454	4.5074e+01	18.0187	96.431388	-0.000202	-2.024578	-0.685946	-0.000081
 455	4.5173e+01	18.0637	96.996021	0.001417	14.172045	4.801619	0.000567
 456	4.5273e+01	18.1102	97.157345	0.000405	4.049156	1.371891	0.000162
 457	4.5372e+01	18.1535	96.915359	-0.000607	-6.073734	-2.057837	-0.000243
 458	4.5471e+01	18.1808	97.117014	0.000506	5.061445	1.714864	0.000203
 459	4.5571e+01	18.2241	97.479993	0.000911	9.110601	3.086755	0.000365
 460	4.5670e+01	18.2642	97.560655	0.000202	2.024578	0.685946	0.000081
 461	4.5770e+01	18.3027	97.681648	0.000304	3.036867	1.028918	0.000122
 462	4.5870e+01	18.3396	97.802641	0.000304	3.036867	1.028918	0.000122
 463	4.5969e+01	18.3877	98.084958	0.000709	7.086023	2.400809	0.000284
 464	4.6069e+01	18.4246	98.004296	-0.000202	-2.024578	-0.685946	-0.000081
 465	4.6168e+01	18.4583	98.165620	0.000405	4.049156	1.371891	0.000162
 466	4.6267e+01	18.5032	98.326944	0.000405	4.049156	1.371891	0.000162
 467	4.6367e+01	18.5465	98.609261	0.000709	7.086023	2.400809	0.000284
 468	4.6467e+01	18.5850	98.689923	0.000202	2.024578	0.685946	0.000081
 469	4.6566e+01	18.6203	99.173895	0.001215	12.147468	4.115673	0.000486
 470	4.6666e+01	18.6636	99.052902	-0.000304	-3.036867	-1.028918	-0.000122
 471	4.6765e+01	18.7054	98.891578	-0.000405	-4.049156	-1.371891	-0.000162
 472	4.6864e+01	18.7406	99.214226	0.000810	8.098312	2.743782	0.000324
 473	4.6964e+01	18.7904	99.254557	0.000101	1.012289	0.342973	0.000041
 474	4.7063e+01	18.8177	99.415881	0.000405	4.049156	1.371891	0.000162
 475	4.7163e+01	18.8706	99.335219	-0.000202	-2.024578	-0.685946	-0.000081
 476	4.7263e+01	18.9043	99.778859	0.001114	11.135179	3.772701	0.000446
 477	4.7362e+01	18.9412	99.899852	0.000304	3.036867	1.028918	0.000122
 478	4.7462e+01	18.9877	100.101507	0.000506	5.061445	1.714864	0.000203
 479	4.7561e+01	19.0214	100.222500	0.000304	3.036867	1.028918	0.000122
 480	4.7660e+01	19.0615	100.141838	-0.000202	-2.024578	-0.685946	-0.000081
 481	4.7760e+01	19.1064	100.303162	0.000405	4.049156	1.371891	0.000162
 482	4.7859e+01	19.1433	100.706472	0.001012	10.122890	3.429728	0.000405
 483	4.7959e+01	19.1818	100.585479	-0.000304	-3.036867	-1.028918	-0.000122
 484	4.8059e+01	19.2171	100.948458	0.000911	9.110601	3.086755	0.000365
 485	4.8158e+01	19.2684	100.867796	-0.000202	-2.024578	-0.685946	-0.000081
 486	4.8258e+01	19.2989	101.069451	0.000506	5.061445	1.714864	0.000203
 487	4.8357e+01	19.3438	100.827465	-0.000607	-6.073734	-2.057837	-0.000243
 488	4.8456e+01	19.3759	101.472761	0.001620	16.196623	5.487565	0.000649
 489	4.8556e+01	19.4208	101.311437	-0.000405	-4.049156	-1.371891	-0.000162
 490	4.8656e+01	19.4529	101.472761	0.000405	4.049156	1.371891	0.000162
 491	4.8755e+01	19.4978	102.037395	0.001417	14.172045	4.801619	0.000567
 492	4.8855e+01	19.5363	102.077726	0.000101	1.012289	0.342973	0.000041
 493	4.8954e+01	19.5829	101.835740	-0.000607	-6.073734	-2.057837	-0.000243
 494	4.9053e+01	19.6134	102.077726	0.000607	6.073734	2.057837	0.000243
 495	4.9153e+01	19.6599	102.440704	0.000911	9.110601	3.086755	0.000365
 496	4.9252e+01	19.6968	102.279381	-0.000405	-4.049156	-1.371891	-0.000162
 497	4.9352e+01	19.7385	102.803683	0.001316	13.159756	4.458646	0.000527
 498	4.9452e+01	19.7850	102.602028	-0.000506	-5.061445	-1.714864	-0.000203
 499	4.9551e+01	19.8219	102.602028	0.000000	0.000000	0.000000	0.000000
 500	4.9651e+01	19.8652	103.086000	0.001215	12.147468	4.115673	0.000486
 501	4.9750e+01	19.8957	103.045669	-0.000101	-1.012289	-0.342973	-0.000041
 502	4.9849e+01	19.9358	103.327986	0.000709	7.086023	2.400809	0.000284
 503	4.9949e+01	19.9855	103.529641	0.000506	5.061445	1.714864	0.000203
 504	5.0048e+01	19.9358	103.408648	0.000304	3.036867	1.028918	-0.000122
 505	5.0148e+01	19.8973	103.327986	0.000202	2.024578	0.685946	-0.000081
 506	5.0248e+01	19.8636	103.327986	-0.000000	-0.000000	-0.000000	0.000000
 507	5.0347e+01	19.8251	102.844014	0.001215	12.147468	4.115673	-0.000486
 508	5.0447e+01	19.7770	103.408648	-0.001417	-14.172045	-4.801619	0.000567
 509	5.0546e+01	19.7417	102.763352	0.001620	16.196623	5.487565	-0.000649
 510	5.0645e+01	19.7000	102.763352	-0.000000	-0.000000	-0.000000	0.000000
 511	5.0745e+01	19.6615	102.440704	0.000810	8.098312	2.743782	-0.000324
 512	5.0844e+01	19.6182	102.602028	-0.000405	-4.049156	-1.371891	0.000162
 513	5.0944e+01	19.5829	102.844014	-0.000607	-6.073734	-2.057837	0.000243
 514	5.1044e+01	19.5460	102.682690	0.000405	4.049156	1.371891	-0.000162
 515	5.1143e+01	19.4994	102.198719	0.001215	12.147468	4.115673	-0.000486
 516	5.1242e+01	19.4577	102.602028	-0.001012	-10.122890	-3.429728	0.000405
 517	5.1342e+01	19.4144	102.279381	0.000810	8.098312	2.743782	-0.000324
 518	5.1441e+01	19.3791	101.593754	0.001721	17.208912	5.830537	-0.000689
 519	5.1541e+01	19.3454	102.239050	-0.001620	-16.196623	-5.487565	0.000649
 520	5.1641e+01	19.3150	101.835740	0.001012	10.122890	3.429728	-0.000405
 521	5.1740e+01	19.2620	102.037395	-0.000506	-5.061445	-1.714864	0.000203
 522	5.1840e+01	19.2251	102.037395	-0.000000	-0.000000	-0.000000	0.000000
 523	5.1939e+01	19.1818	101.634085	0.001012	10.122890	3.429728	-0.000405
 524	5.2038e+01	19.1481	101.956733	-0.000810	-8.098312	-2.743782	0.000324
 525	5.2138e+01	19.1096	101.795409	0.000405	4.049156	1.371891	-0.000162
 526	5.2237e+01	19.0663	101.392099	0.001012	10.122890	3.429728	-0.000405
 527	5.2337e+01	19.0246	101.271106	0.000304	3.036867	1.028918	-0.000122
 528	5.2437e+01	18.9797	101.634085	-0.000911	-9.110601	-3.086755	0.000365
 529	5.2536e+01	18.9412	101.351768	0.000709	7.086023	2.400809	-0.000284
 530	5.2636e+01	18.9043	101.029120	0.000810	8.098312	2.743782	-0.000324
 531	5.2735e+01	18.8658	101.029120	-0.000000	-0.000000	-0.000000	0.000000
 532	5.2834e+01	18.8193	100.867796	0.000405	4.049156	1.371891	-0.000162
 533	5.2934e+01	18.7727	100.424155	0.001114	11.135179	3.772701	-0.000446
 534	5.3033e+01	18.7439	100.585479	-0.000405	-4.049156	-1.371891	0.000162
 535	5.3133e+01	18.7038	100.222500	0.000911	9.110601	3.086755	-0.000365
 536	5.3233e+01	18.6636	100.666141	-0.001114	-11.135179	-3.772701	0.000446
 537	5.3332e+01	18.6203	100.262831	0.001012	10.122890	3.429728	-0.000405
 538	5.3431e+01	18.5882	100.585479	-0.000810	-8.098312	-2.743782	0.000324
 539	5.3531e+01	18.5530	100.303162	0.000709	7.086023	2.400809	-0.000284
 540	5.3630e+01	18.5128	100.383824	-0.000202	-2.024578	-0.685946	0.000081
 541	5.3730e+01	18.4663	100.061176	0.000810	8.098312	2.743782	-0.000324
 542	5.3830e+01	18.4262	99.819190	0.000607	6.073734	2.057837	-0.000243
 543	5.3929e+01	18.3829	99.657866	0.000405	4.049156	1.371891	-0.000162
 544	5.4029e+01	18.3428	99.738528	-0.000202	-2.024578	-0.685946	0.000081
 545	5.4128e+01	18.3043	99.738528	-0.000000	-0.000000	-0.000000	0.000000
 546	5.4227e+01	18.2594	99.375550	0.000911	9.110601	3.086755	-0.000365
 547	5.4327e+01	18.2209	98.972240	0.001012	10.122890	3.429728	-0.000405
 548	5.4426e+01	18.1808	99.133564	-0.000405	-4.049156	-1.371891	0.000162
 549	5.4526e+01	18.1455	99.173895	-0.000101	-1.012289	-0.342973	0.000041
 550	5.4626e+01	18.1022	99.173895	-0.000000	-0.000000	-0.000000	0.000000
 551	5.4725e+01	18.0669	99.254557	-0.000202	-2.024578	-0.685946	0.000081
 552	5.4825e+01	18.0252	99.093233	0.000405	4.049156	1.371891	-0.000162
 553	5.4924e+01	17.9818	98.730254	0.000911	9.110601	3.086755	-0.000365
 554	5.5023e+01	17.9401	98.609261	0.000304	3.036867	1.028918	-0.000122
 555	5.5123e+01	17.9016	98.689923	-0.000202	-2.024578	-0.685946	0.000081
 556	5.5222e+01	17.8663	98.326944	0.000911	9.110601	3.086755	-0.000365
 557	5.5322e+01	17.8359	98.165620	0.000405	4.049156	1.371891	-0.000162
 558	5.5422e+01	17.7925	98.286613	-0.000304	-3.036867	-1.028918	0.000122
 559	5.5521e+01	17.7412	97.923634	0.000911	9.110601	3.086755	-0.000365
 560	5.5620e+01	17.7011	98.286613	-0.000911	-9.110601	-3.086755	0.000365
 561	5.5720e+01	17.6642	97.802641	0.001215	12.147468	4.115673	-0.000486
 562	5.5819e+01	17.6273	98.084958	-0.000709	-7.086023	-2.400809	0.000284
 563	5.5919e+01	17.5904	97.520324	0.001417	14.172045	4.801619	-0.000567
 564	5.6019e+01	17.5487	97.318669	0.000506	5.061445	1.714864	-0.000203
 565	5.6118e+01	17.5086	97.520324	-0.000506	-5.061445	-1.714864	0.000203
 566	5.6218e+01	17.4733	97.600986	-0.000202	-2.024578	-0.685946	0.000081
 567	5.6317e+01	17.4220	97.520324	0.000202	2.024578	0.685946	-0.000081
 568	5.6416e+01	17.3915	97.439662	0.000202	2.024578	0.685946	-0.000081
 569	5.6516e+01	17.3466	97.157345	0.000709	7.086023	2.400809	-0.000284
 570	5.6615e+01	17.3129	96.875028	0.000709	7.086023	2.400809	-0.000284
 571	5.6715e+01	17.2583	96.875028	-0.000000	-0.000000	-0.000000	0.000000
 572	5.6815e+01	17.2295	96.713704	0.000405	4.049156	1.371891	-0.000162
 573	5.6914e+01	17.1910	96.834697	-0.000304	-3.036867	-1.028918	0.000122
 574	5.7014e+01	17.1621	96.794366	0.000101	1.012289	0.342973	-0.000041
 575	5.7113e+01	17.1107	96.391057	0.001012	10.122890	3.429728	-0.000405
 576	5.7212e+01	17.0755	96.431388	-0.000101	-1.012289	-0.342973	0.000041
 577	5.7312e+01	17.0353	96.270064	0.000405	4.049156	1.371891	-0.000162
 578	5.7411e+01	16.9888	95.866754	0.001012	10.122890	3.429728	-0.000405
 579	5.7511e+01	16.9535	96.270064	-0.001012	-10.122890	-3.429728	0.000405
 580	5.7611e+01	16.8974	95.584437	0.001721	17.208912	5.830537	-0.000689
 581	5.7710e+01	16.8781	95.544106	0.000101	1.012289	0.342973	-0.000041
 582	5.7809e+01	16.8332	95.584437	-0.000101	-1.012289	-0.342973	0.000041
 583	5.7909e+01	16.7931	95.705430	-0.000304	-3.036867	-1.028918	0.000122
 584	5.8008e+01	16.7546	95.342451	0.000911	9.110601	3.086755	-0.000365
 585	5.8108e+01	16.7129	95.221458	0.000304	3.036867	1.028918	-0.000122
 586	5.8208e+01	16.6664	94.818148	0.001012	10.122890	3.429728	-0.000405
 587	5.8307e+01	16.6343	95.019803	-0.000506	-5.061445	-1.714864	0.000203
 588	5.8407e+01	16.5974	95.261789	-0.000607	-6.073734	-2.057837	0.000243
 589	5.8506e+01	16.5541	94.979472	0.000709	7.086023	2.400809	-0.000284
 590	5.8605e+01	16.5220	95.019803	-0.000101	-1.012289	-0.342973	0.000041
 591	5.8705e+01	16.4642	94.697155	0.000810	8.098312	2.743782	-0.000324
 592	5.8804e+01	16.4338	94.818148	-0.000304	-3.036867	-1.028918	0.000122
 593	5.8904e+01	16.3921	94.414838	0.001012	10.122890	3.429728	-0.000405
 594	5.9004e+01	16.3471	94.253514	0.000405	4.049156	1.371891	-0.000162
 595	5.9103e+01	16.3167	94.213183	0.000101	1.012289	0.342973	-0.000041
 596	5.9203e+01	16.2733	94.051859	0.000405	4.049156	1.371891	-0.000162
 597	5.9302e+01	16.2316	94.213183	-0.000405	-4.049156	-1.371891	0.000162
 598	5.9401e+01	16.1995	94.414838	-0.000506	-5.061445	-1.714864	0.000203
 599	5.9501e+01	16.1514	93.890535	0.001316	13.159756	4.458646	-0.000527
 600	5.9600e+01	16.1017	93.608219	0.000709	7.086023	2.400809	-0.000284
 601	5.9700e+01	16.0728	93.729212	-0.000304	-3.036867	-1.028918	0.000122
 602	5.9800e+01	16.0279	93.446895	0.000709	7.086023	2.400809	-0.000284
 603	5.9899e+01	15.9910	93.204909	0.000607	6.073734	2.057837	-0.000243
 604	5.9998e+01	15.9461	93.487226	-0.000709	-7.086023	-2.400809	0.000284
 605	6.0098e+01	15.9092	93.285571	0.000506	5.061445	1.714864	-0.000203
 606	6.0197e+01	15.8723	92.720937	0.001417	14.172045	4.801619	-0.000567
 607	6.0297e+01	15.8370	92.801599	-0.000202	-2.024578	-0.685946	0.000081
 608	6.0397e+01	15.7905	92.720937	0.000202	2.024578	0.685946	-0.000081
 609	6.0496e+01	15.7536	92.398289	0.000810	8.098312	2.743782	-0.000324
 610	6.0596e+01	15.7119	92.357958	0.000101	1.012289	0.342973	-0.000041
 611	6.0695e+01	15.6782	92.357958	-0.000000	-0.000000	-0.000000	0.000000
 612	6.0794e+01	15.6397	92.357958	-0.000000	-0.000000	-0.000000	0.000000
 613	6.0894e+01	15.5947	92.236965	0.000304	3.036867	1.028918	-0.000122
 614	6.0993e+01	15.5675	91.994979	0.000607	6.073734	2.057837	-0.000243
 615	6.1093e+01	15.5097	91.873986	0.000304	3.036867	1.028918	-0.000122
 616	6.1193e+01	15.4696	91.833655	0.000101	1.012289	0.342973	-0.000041
 617	6.1292e+01	15.4311	92.236965	-0.001012	-10.122890	-3.429728	0.000405
 618	6.1392e+01	15.3974	91.752993	0.001215	12.147468	4.115673	-0.000486
 619	6.1491e+01	15.3589	91.269021	0.001215	12.147468	4.115673	-0.000486
 620	6.1590e+01	15.3172	91.228690	0.000101	1.012289	0.342973	-0.000041
 621	6.1690e+01	15.2627	91.269021	-0.000101	-1.012289	-0.342973	0.000041
 622	6.1789e+01	15.2402	91.067366	0.000506	5.061445	1.714864	-0.000203
 623	6.1889e+01	15.1969	91.188359	-0.000304	-3.036867	-1.028918	0.000122
 624	6.1989e+01	15.1616	91.027035	0.000405	4.049156	1.371891	-0.000162
 625	6.2088e+01	15.1103	90.986704	0.000101	1.012289	0.342973	-0.000041
 626	6.2188e+01	15.0734	90.543064	0.001114	11.135179	3.772701	-0.000446
 627	6.2287e+01	15.0381	90.623726	-0.000202	-2.024578	-0.685946	0.000081
 628	6.2386e+01	14.9916	90.502733	0.000304	3.036867	1.028918	-0.000122
 629	6.2486e+01	14.9659	90.502733	-0.000000	-0.000000	-0.000000	0.000000
 630	6.2586e+01	14.9178	90.502733	-0.000000	-0.000000	-0.000000	0.000000
 631	6.2685e+01	14.8728	90.018761	0.001215	12.147468	4.115673	-0.000486
 632	6.2785e+01	14.8408	89.938099	0.000202	2.024578	0.685946	-0.000081
 633	6.2884e+01	14.7926	89.696113	0.000607	6.073734	2.057837	-0.000243
 634	6.2983e+01	14.7557	89.575120	0.000304	3.036867	1.028918	-0.000122
 635	6.3083e+01	14.7236	89.655782	-0.000202	-2.024578	-0.685946	0.000081
 636	6.3182e+01	14.6707	89.575120	0.000202	2.024578	0.685946	-0.000081
 637	6.3282e+01	14.6450	89.494458	0.000202	2.024578	0.685946	-0.000081
 638	6.3382e+01	14.6049	89.333134	0.000405	4.049156	1.371891	-0.000162
 639	6.3481e+01	14.5536	89.131479	0.000506	5.061445	1.714864	-0.000203
 640	6.3581e+01	14.5279	88.849162	0.000709	7.086023	2.400809	-0.000284
 641	6.3680e+01	14.4846	89.171810	-0.000810	-8.098312	-2.743782	0.000324
 642	6.3779e+01	14.4413	89.010486	0.000405	4.049156	1.371891	-0.000162
 643	6.3879e+01	14.3964	89.050817	-0.000101	-1.012289	-0.342973	0.000041
 644	6.3978e+01	14.3611	88.526514	0.001316	13.159756	4.458646	-0.000527
 645	6.4078e+01	14.3210	88.607176	-0.000202	-2.024578	-0.685946	0.000081
 646	6.4177e+01	14.2729	88.566845	0.000101	1.012289	0.342973	-0.000041
 647	6.4277e+01	14.2424	88.244197	0.000810	8.098312	2.743782	-0.000324
 648	6.4376e+01	14.2039	87.840888	0.001012	10.122890	3.429728	-0.000405
 649	6.4476e+01	14.1638	87.679564	0.000405	4.049156	1.371891	-0.000162
 650	6.4576e+01	14.1205	87.881219	-0.000506	-5.061445	-1.714864	0.000203
 651	6.4675e+01	14.0804	87.679564	0.000506	5.061445	1.714864	-0.000203
 652	6.4775e+01	14.0290	87.921550	-0.000607	-6.073734	-2.057837	0.000243
 653	6.4874e+01	14.0001	87.437578	0.001215	12.147468	4.115673	-0.000486
 654	6.4974e+01	13.9616	87.316585	0.000304	3.036867	1.028918	-0.000122
 655	6.5073e+01	13.9199	87.437578	-0.000304	-3.036867	-1.028918	0.000122
 656	6.5172e+01	13.8814	87.276254	0.000405	4.049156	1.371891	-0.000162
 657	6.5272e+01	13.8477	87.195592	0.000202	2.024578	0.685946	-0.000081
 658	6.5371e+01	13.7996	87.114930	0.000202	2.024578	0.685946	-0.000081
 659	6.5471e+01	13.7675	86.872944	0.000607	6.073734	2.057837	-0.000243
 660	6.5570e+01	13.7194	86.751951	0.000304	3.036867	1.028918	-0.000122
 661	6.5670e+01	13.6793	86.550296	0.000506	5.061445	1.714864	-0.000203
 662	6.5769e+01	13.6392	86.429303	0.000304	3.036867	1.028918	-0.000122
 663	6.5869e+01	13.6055	85.784007	0.001620	16.196623	5.487565	-0.000649
 664	6.5969e+01	13.5558	85.824338	-0.000101	-1.012289	-0.342973	0.000041
 665	6.6068e+01	13.5141	86.187317	-0.000911	-9.110601	-3.086755	0.000365
 666	6.6168e+01	13.4772	86.106655	0.000202	2.024578	0.685946	-0.000081
 667	6.6267e+01	13.4451	85.663014	0.001114	11.135179	3.772701	-0.000446
 668	6.6367e+01	13.3937	85.501690	0.000405	4.049156	1.371891	-0.000162
 669	6.6466e+01	13.3649	85.542021	-0.000101	-1.012289	-0.342973	0.000041
 670	6.6566e+01	13.3296	85.300035	0.000607	6.073734	2.057837	-0.000243
 671	6.6665e+01	13.2830	85.300035	-0.000000	-0.000000	-0.000000	0.000000
 672	6.6764e+01	13.2429	84.937057	0.000911	9.110601	3.086755	-0.000365
 673	6.6864e+01	13.2012	85.098381	-0.000405	-4.049156	-1.371891	0.000162
 674	6.6963e+01	13.1740	85.017719	0.000202	2.024578	0.685946	-0.000081
 675	6.7063e+01	13.1146	84.614409	0.001012	10.122890	3.429728	-0.000405
 676	6.7162e+01	13.0825	84.372423	0.000607	6.073734	2.057837	-0.000243
 677	6.7262e+01	13.0472	84.493416	-0.000304	-3.036867	-1.028918	0.000122
 678	6.7362e+01	13.0055	84.372423	0.000304	3.036867	1.028918	-0.000122
 679	6.7461e+01	12.9638	84.211099	0.000405	4.049156	1.371891	-0.000162
 680	6.7561e+01	12.9381	83.969113	0.000607	6.073734	2.057837	-0.000243
 681	6.7660e+01	12.8804	84.130437	-0.000405	-4.049156	-1.371891	0.000162
 682	6.7760e+01	12.8467	83.767458	0.000911	9.110601	3.086755	-0.000365
 683	6.7859e+01	12.8082	83.565803	0.000506	5.061445	1.714864	-0.000203
 684	6.7959e+01	12.7729	83.646465	-0.000202	-2.024578	-0.685946	0.000081
 685	6.8058e+01	12.7264	83.686796	-0.000101	-1.012289	-0.342973	0.000041
 686	6.8157e+01	12.6991	83.364148	0.000810	8.098312	2.743782	-0.000324
 687	6.8257e+01	12.6494	83.162493	0.000506	5.061445	1.714864	-0.000203
 688	6.8356e+01	12.6045	82.597859	0.001417	14.172045	4.801619	-0.000567
 689	6.8456e+01	12.5692	83.001169	-0.001012	-10.122890	-3.429728	0.000405
 690	6.8555e+01	12.5371	83.081831	-0.000202	-2.024578	-0.685946	0.000081
 691	6.8655e+01	12.4938	82.517197	0.001417	14.172045	4.801619	-0.000567
 692	6.8754e+01	12.4505	82.315542	0.000506	5.061445	1.714864	-0.000203
 693	6.8854e+01	12.4039	82.073557	0.000607	6.073734	2.057837	-0.000243
 694	6.8954e+01	12.3815	82.396204	-0.000810	-8.098312	-2.743782	0.000324
 695	6.9053e+01	12.3301	81.871902	0.001316	13.159756	4.458646	-0.000527
 696	6.9153e+01	12.2836	82.033226	-0.000405	-4.049156	-1.371891	0.000162
 697	6.9252e+01	12.2676	81.831571	0.000506	5.061445	1.714864	-0.000203
 698	6.9352e+01	12.2210	81.992895	-0.000405	-4.049156	-1.371891	0.000162
 699	6.9451e+01	12.1713	81.428261	0.001417	14.172045	4.801619	-0.000567
 700	6.9550e+01	12.1264	81.549254	-0.000304	-3.036867	-1.028918	0.000122
 701	6.9650e+01	12.0863	81.307268	0.000607	6.073734	2.057837	-0.000243
 702	6.9749e+01	12.0462	81.186275	0.000304	3.036867	1.028918	-0.000122
 703	6.9849e+01	12.0045	80.903958	0.000709	7.086023	2.400809	-0.000284
 704	6.9948e+01	11.9756	81.065282	-0.000405	-4.049156	-1.371891	0.000162
 705	7.0048e+01	11.9291	81.024951	0.000101	1.012289	0.342973	-0.000041
 706	7.0147e+01	11.8970	80.702303	0.000810	8.098312	2.743782	-0.000324
 707	7.0247e+01	11.8569	80.460317	0.000607	6.073734	2.057837	-0.000243
 708	7.0347e+01	11.8152	80.218331	0.000607	6.073734	2.057837	-0.000243
 709	7.0446e+01	11.7687	80.218331	-0.000000	-0.000000	-0.000000	0.000000
 710	7.0546e+01	11.7302	79.855352	0.000911	9.110601	3.086755	-0.000365
 711	7.0645e+01	11.6900	80.097338	-0.000607	-6.073734	-2.057837	0.000243
 712	7.0745e+01	11.6580	79.734359	0.000911	9.110601	3.086755	-0.000365
 713	7.0844e+01	11.6130	79.573035	0.000405	4.049156	1.371891	-0.000162
 714	7.0944e+01	11.5697	79.573035	-0.000000	-0.000000	-0.000000	0.000000
 715	7.1043e+01	11.5296	79.290719	0.000709	7.086023	2.400809	-0.000284
 716	7.1142e+01	11.4879	79.169726	0.000304	3.036867	1.028918	-0.000122
 717	7.1242e+01	11.4526	79.290719	-0.000304	-3.036867	-1.028918	0.000122
 718	7.1341e+01	11.4125	79.048733	0.000607	6.073734	2.057837	-0.000243
 719	7.1441e+01	11.3724	79.290719	-0.000607	-6.073734	-2.057837	0.000243
 720	7.1540e+01	11.3355	78.726085	0.001417	14.172045	4.801619	-0.000567
 721	7.1640e+01	11.2890	78.484099	0.000607	6.073734	2.057837	-0.000243
 722	7.1740e+01	11.2521	78.363106	0.000304	3.036867	1.028918	-0.000122
 723	7.1839e+01	11.2184	78.121120	0.000607	6.073734	2.057837	-0.000243
 724	7.1939e+01	11.1687	78.080789	0.000101	1.012289	0.342973	-0.000041
 725	7.2038e+01	11.1334	78.161451	-0.000202	-2.024578	-0.685946	0.000081
 726	7.2138e+01	11.1013	77.798472	0.000911	9.110601	3.086755	-0.000365
 727	7.2237e+01	11.0548	77.596817	0.000506	5.061445	1.714864	-0.000203
 728	7.2337e+01	11.0115	77.274169	0.000810	8.098312	2.743782	-0.000324
 729	7.2436e+01	10.9713	77.314500	-0.000101	-1.012289	-0.342973	0.000041
 730	7.2535e+01	10.9393	77.072514	0.000607	6.073734	2.057837	-0.000243
 731	7.2635e+01	10.8943	76.749866	0.000810	8.098312	2.743782	-0.000324
 732	7.2734e+01	10.8558	77.072514	-0.000810	-8.098312	-2.743782	0.000324
 733	7.2834e+01	10.8125	77.032183	0.000101	1.012289	0.342973	-0.000041
 734	7.2933e+01	10.7692	76.870859	0.000405	4.049156	1.371891	-0.000162
 735	7.3033e+01	10.7452	76.104571	0.001923	19.233490	6.516483	-0.000770
 736	7.3132e+01	10.6970	76.104571	-0.000000	-0.000000	-0.000000	0.000000
 737	7.3232e+01	10.6553	76.306226	-0.000506	-5.061445	-1.714864	0.000203
 738	7.3332e+01	10.6216	76.144902	0.000405	4.049156	1.371891	-0.000162
 739	7.3431e+01	10.5799	75.580268	0.001417	14.172045	4.801619	-0.000567
 740	7.3531e+01	10.5366	76.023909	-0.001114	-11.135179	-3.772701	0.000446
 741	7.3630e+01	10.5013	75.701261	0.000810	8.098312	2.743782	-0.000324
 742	7.3730e+01	10.4628	75.257620	0.001114	11.135179	3.772701	-0.000446
 743	7.3829e+01	10.4211	75.297951	-0.000101	-1.012289	-0.342973	0.000041
 744	7.3928e+01	10.3698	75.217289	0.000202	2.024578	0.685946	-0.000081
 745	7.4028e+01	10.3297	74.934972	0.000709	7.086023	2.400809	-0.000284
 746	7.4127e+01	10.2992	74.894641	0.000101	1.012289	0.342973	-0.000041
 747	7.4227e+01	10.2559	74.894641	-0.000000	-0.000000	-0.000000	0.000000
 748	7.4326e+01	10.2190	75.015634	-0.000304	-3.036867	-1.028918	0.000122
 749	7.4426e+01	10.1724	74.531662	0.001215	12.147468	4.115673	-0.000486
 750	7.4525e+01	10.1227	74.209014	0.000810	8.098312	2.743782	-0.000324
 751	7.4625e+01	10.0922	73.886366	0.000810	8.098312	2.743782	-0.000324
 752	7.4725e+01	10.0585	74.410669	-0.001316	-13.159756	-4.458646	0.000527
 753	7.4824e+01	10.0120	73.926697	0.001215	12.147468	4.115673	-0.000486
 754	7.4924e+01	9.9847	74.047690	-0.000304	-3.036867	-1.028918	0.000122
 755	7.5023e+01	9.9366	73.765373	0.000709	7.086023	2.400809	-0.000284
 756	7.5123e+01	9.9029	73.563719	0.000506	5.061445	1.714864	-0.000203
 757	7.5222e+01	9.8596	73.321733	0.000607	6.073734	2.057837	-0.000243
 758	7.5322e+01	9.8227	73.241071	0.000202	2.024578	0.685946	-0.000081
 759	7.5421e+01	9.7826	73.079747	0.000405	4.049156	1.371891	-0.000162
 760	7.5520e+01	9.7345	73.039416	0.000101	1.012289	0.342973	-0.000041
 761	7.5620e+01	9.6960	73.039416	-0.000000	-0.000000	-0.000000	0.000000
 762	7.5719e+01	9.6655	72.555444	0.001215	12.147468	4.115673	-0.000486
 763	7.5819e+01	9.6206	72.636106	-0.000202	-2.024578	-0.685946	0.000081
 764	7.5918e+01	9.5837	72.353789	0.000709	7.086023	2.400809	-0.000284
 765	7.6018e+01	9.5404	72.111803	0.000607	6.073734	2.057837	-0.000243
 766	7.6118e+01	9.5131	71.950479	0.000405	4.049156	1.371891	-0.000162
 767	7.6217e+01	9.4553	71.950479	-0.000000	-0.000000	-0.000000	0.000000
 768	7.6317e+01	9.4168	71.587500	0.000911	9.110601	3.086755	-0.000365
 769	7.6416e+01	9.3783	71.668162	-0.000202	-2.024578	-0.685946	0.000081
 770	7.6516e+01	9.3447	71.305183	0.000911	9.110601	3.086755	-0.000365
 771	7.6615e+01	9.3029	71.466507	-0.000405	-4.049156	-1.371891	0.000162
 772	7.6715e+01	9.2580	71.103528	0.000911	9.110601	3.086755	-0.000365
 773	7.6814e+01	9.2147	70.659888	0.001114	11.135179	3.772701	-0.000446
 774	7.6913e+01	9.1794	70.740549	-0.000202	-2.024578	-0.685946	0.000081
 775	7.7013e+01	9.1473	70.780880	-0.000101	-1.012289	-0.342973	0.000041
 776	7.7112e+01	9.1088	70.337240	0.001114	11.135179	3.772701	-0.000446
 777	7.7212e+01	9.0607	70.498564	-0.000405	-4.049156	-1.371891	0.000162
 778	7.7311e+01	9.0222	70.135585	0.000911	9.110601	3.086755	-0.000365
 779	7.7411e+01	8.9741	69.974261	0.000405	4.049156	1.371891	-0.000162
 780	7.7510e+01	8.9372	70.095254	-0.000304	-3.036867	-1.028918	0.000122
 781	7.7610e+01	8.9067	69.732275	0.000911	9.110601	3.086755	-0.000365
 782	7.7710e+01	8.8650	69.691944	0.000101	1.012289	0.342973	-0.000041
 783	7.7809e+01	8.8313	69.369296	0.000810	8.098312	2.743782	-0.000324
 784	7.7909e+01	8.7800	69.167641	0.000506	5.061445	1.714864	-0.000203
 785	7.8008e+01	8.7367	69.369296	-0.000506	-5.061445	-1.714864	0.000203
 786	7.8108e+01	8.7046	69.086979	0.000709	7.086023	2.400809	-0.000284
 787	7.8207e+01	8.6596	68.724000	0.000911	9.110601	3.086755	-0.000365
 788	7.8306e+01	8.6211	68.844993	-0.000304	-3.036867	-1.028918	0.000122
 789	7.8406e+01	8.5730	68.441683	0.001012	10.122890	3.429728	-0.000405
 790	7.8505e+01	8.5538	68.078704	0.000911	9.110601	3.086755	-0.000365
 791	7.8605e+01	8.5040	68.240028	-0.000405	-4.049156	-1.371891	0.000162
 792	7.8704e+01	8.4543	68.361021	-0.000304	-3.036867	-1.028918	0.000122
 793	7.8804e+01	8.4254	67.594733	0.001923	19.233490	6.516483	-0.000770
 794	7.8903e+01	8.3933	67.675395	-0.000202	-2.024578	-0.685946	0.000081
 795	7.9003e+01	8.3372	67.917380	-0.000607	-6.073734	-2.057837	0.000243
 796	7.9103e+01	8.3147	67.433409	0.001215	12.147468	4.115673	-0.000486
 797	7.9202e+01	8.2634	67.030099	0.001012	10.122890	3.429728	-0.000405
 798	7.9302e+01	8.2153	67.393078	-0.000911	-9.110601	-3.086755	0.000365
 799	7.9401e+01	8.1880	67.110761	0.000709	7.086023	2.400809	-0.000284
 800	7.9501e+01	8.1367	67.191423	-0.000202	-2.024578	-0.685946	0.000081
 801	7.9600e+01	8.1174	66.788113	0.001012	10.122890	3.429728	-0.000405
 802	7.9700e+01	8.0677	66.828444	-0.000101	-1.012289	-0.342973	0.000041
 803	7.9799e+01	8.0260	66.465465	0.000911	9.110601	3.086755	-0.000365
 804	7.9898e+01	7.9859	66.062155	0.001012	10.122890	3.429728	-0.000405
 805	7.9998e+01	7.9393	66.384803	-0.000810	-8.098312	-2.743782	0.000324
 806	8.0097e+01	7.9008	65.618514	0.001923	19.233490	6.516483	-0.000770
 807	8.0197e+01	7.8672	65.537852	0.000202	2.024578	0.685946	-0.000081
 808	8.0296e+01	7.8222	65.739507	-0.000506	-5.061445	-1.714864	0.000203
 809	8.0396e+01	7.7773	65.739507	-0.000000	-0.000000	-0.000000	0.000000
 810	8.0496e+01	7.7452	65.134542	0.001518	15.184334	5.144592	-0.000608
 811	8.0595e+01	7.6987	65.376528	-0.000607	-6.073734	-2.057837	0.000243
 812	8.0695e+01	7.6666	64.973218	0.001012	10.122890	3.429728	-0.000405
 813	8.0794e+01	7.6297	64.932887	0.000101	1.012289	0.342973	-0.000041
 814	8.0894e+01	7.5928	64.932887	-0.000000	-0.000000	-0.000000	0.000000
 815	8.0993e+01	7.5495	64.892557	0.000101	1.012289	0.342973	-0.000041
 816	8.1093e+01	7.5062	64.489247	0.001012	10.122890	3.429728	-0.000405
 817	8.1192e+01	7.4629	64.126268	0.000911	9.110601	3.086755	-0.000365
 818	8.1291e+01	7.4212	64.408585	-0.000709	-7.086023	-2.400809	0.000284
 819	8.1391e+01	7.3859	64.408585	-0.000000	-0.000000	-0.000000	0.000000
 820	8.1490e+01	7.3458	64.005275	0.001012	10.122890	3.429728	-0.000405
 821	8.1590e+01	7.3105	63.359979	0.001620	16.196623	5.487565	-0.000649
 822	8.1689e+01	7.2640	63.319648	0.000101	1.012289	0.342973	-0.000041
 823	8.1789e+01	7.2239	63.359979	-0.000101	-1.012289	-0.342973	0.000041
 824	8.1888e+01	7.1886	62.714683	0.001620	16.196623	5.487565	-0.000649
 825	8.1988e+01	7.1420	63.158324	-0.001114	-11.135179	-3.772701	0.000446
 826	8.2088e+01	7.1132	62.674352	0.001215	12.147468	4.115673	-0.000486
 827	8.2187e+01	7.0731	62.795345	-0.000304	-3.036867	-1.028918	0.000122
 828	8.2287e+01	7.0314	62.674352	0.000304	3.036867	1.028918	-0.000122
 829	8.2386e+01	6.9912	62.795345	-0.000304	-3.036867	-1.028918	0.000122
 830	8.2486e+01	6.9479	62.029057	0.001923	19.233490	6.516483	-0.000770
 831	8.2585e+01	6.9078	61.666078	0.000911	9.110601	3.086755	-0.000365
 832	8.2684e+01	6.8741	61.787071	-0.000304	-3.036867	-1.028918	0.000122
 833	8.2784e+01	6.8212	61.424092	0.000911	9.110601	3.086755	-0.000365
 834	8.2883e+01	6.7971	61.585416	-0.000405	-4.049156	-1.371891	0.000162
 835	8.2983e+01	6.7490	61.222437	0.000911	9.110601	3.086755	-0.000365
 836	8.3082e+01	6.7121	61.222437	-0.000000	-0.000000	-0.000000	0.000000
 837	8.3182e+01	6.6688	60.819127	0.001012	10.122890	3.429728	-0.000405
 838	8.3281e+01	6.6223	60.899789	-0.000202	-2.024578	-0.685946	0.000081
 839	8.3381e+01	6.5886	61.020782	-0.000304	-3.036867	-1.028918	0.000122
 840	8.3481e+01	6.5501	60.496479	0.001316	13.159756	4.458646	-0.000527
 841	8.3580e+01	6.5084	60.254493	0.000607	6.073734	2.057837	-0.000243
 842	8.3680e+01	6.4651	60.214162	0.000101	1.012289	0.342973	-0.000041
 843	8.3779e+01	6.4394	59.931845	0.000709	7.086023	2.400809	-0.000284
 844	8.3879e+01	6.3961	59.851183	0.000202	2.024578	0.685946	-0.000081
 845	8.3978e+01	6.3544	59.447873	0.001012	10.122890	3.429728	-0.000405
 846	8.4078e+01	6.3191	59.488204	-0.000101	-1.012289	-0.342973	0.000041
 847	8.4177e+01	6.2822	59.407542	0.000202	2.024578	0.685946	-0.000081
 848	8.4276e+01	6.2357	59.084895	0.000810	8.098312	2.743782	-0.000324
 849	8.4376e+01	6.2020	59.125226	-0.000101	-1.012289	-0.342973	0.000041
 850	8.4475e+01	6.1570	58.802578	0.000810	8.098312	2.743782	-0.000324
 851	8.4575e+01	6.1105	58.479930	0.000810	8.098312	2.743782	-0.000324
 852	8.4674e+01	6.0672	58.479930	-0.000000	-0.000000	-0.000000	0.000000
 853	8.4774e+01	6.0383	58.762247	-0.000709	-7.086023	-2.400809	0.000284
 854	8.4874e+01	5.9854	58.036289	0.001822	18.221201	6.173510	-0.000730
 855	8.4973e+01	5.9517	57.753972	0.000709	7.086023	2.400809	-0.000284
 856	8.5073e+01	5.9228	58.237944	-0.001215	-12.147468	-4.115673	0.000486
 857	8.5172e+01	5.8843	57.632979	0.001518	15.184334	5.144592	-0.000608
 858	8.5272e+01	5.8410	57.753972	-0.000304	-3.036867	-1.028918	0.000122
 859	8.5371e+01	5.8009	57.350662	0.001012	10.122890	3.429728	-0.000405
 860	8.5471e+01	5.7608	56.866690	0.001215	12.147468	4.115673	-0.000486
 861	8.5570e+01	5.7095	56.665035	0.000506	5.061445	1.714864	-0.000203
 862	8.5669e+01	5.6694	56.987683	-0.000810	-8.098312	-2.743782	0.000324
 863	8.5769e+01	5.6405	56.907021	0.000202	2.024578	0.685946	-0.000081
 864	8.5868e+01	5.6068	56.342387	0.001417	14.172045	4.801619	-0.000567
 865	8.5968e+01	5.5571	56.140733	0.000506	5.061445	1.714864	-0.000203
 866	8.6067e+01	5.5218	55.898747	0.000607	6.073734	2.057837	-0.000243
 867	8.6167e+01	5.4704	55.858416	0.000101	1.012289	0.342973	-0.000041
 868	8.6266e+01	5.4351	55.656761	0.000506	5.061445	1.714864	-0.000203
 869	8.6366e+01	5.3950	55.898747	-0.000607	-6.073734	-2.057837	0.000243
 870	8.6466e+01	5.3549	55.495437	0.001012	10.122890	3.429728	-0.000405
 871	8.6565e+01	5.3148	54.930803	0.001417	14.172045	4.801619	-0.000567
 872	8.6665e+01	5.2747	54.930803	-0.000000	-0.000000	-0.000000	0.000000
 873	8.6764e+01	5.2346	54.769479	0.000405	4.049156	1.371891	-0.000162
 874	8.6864e+01	5.1977	54.446831	0.000810	8.098312	2.743782	-0.000324
 875	8.6963e+01	5.1528	54.527493	-0.000202	-2.024578	-0.685946	0.000081
 876	8.7063e+01	5.1159	54.204845	0.000810	8.098312	2.743782	-0.000324
 877	8.7162e+01	5.0822	54.003190	0.000506	5.061445	1.714864	-0.000203
 878	8.7261e+01	5.0373	53.720873	0.000709	7.086023	2.400809	-0.000284
 879	8.7361e+01	5.0100	53.640211	0.000202	2.024578	0.685946	-0.000081
 880	8.7460e+01	4.9603	53.519218	0.000304	3.036867	1.028918	-0.000122
 881	8.7560e+01	4.9090	53.398225	0.000304	3.036867	1.028918	-0.000122
 882	8.7659e+01	4.8833	53.277233	0.000304	3.036867	1.028918	-0.000122
 883	8.7759e+01	4.8319	52.914254	0.000911	9.110601	3.086755	-0.000365
 884	8.7859e+01	4.8063	52.631937	0.000709	7.086023	2.400809	-0.000284
 885	8.7958e+01	4.7582	52.430282	0.000506	5.061445	1.714864	-0.000203
 886	8.8058e+01	4.7164	52.389951	0.000101	1.012289	0.342973	-0.000041
 887	8.8157e+01	4.6908	52.268958	0.000304	3.036867	1.028918	-0.000122
 888	8.8257e+01	4.6378	51.784986	0.001215	12.147468	4.115673	-0.000486
 889	8.8356e+01	4.5881	52.188296	-0.001012	-10.122890	-3.429728	0.000405
 890	8.8456e+01	4.5544	51.543000	0.001620	16.196623	5.487565	-0.000649
 891	8.8555e+01	4.5239	51.422007	0.000304	3.036867	1.028918	-0.000122
 892	8.8654e+01	4.4822	51.260683	0.000405	4.049156	1.371891	-0.000162
 893	8.8754e+01	4.4357	50.978366	0.000709	7.086023	2.400809	-0.000284
 894	8.8853e+01	4.3924	50.978366	-0.000000	-0.000000	-0.000000	0.000000
 895	8.8953e+01	4.3507	50.817042	0.000405	4.049156	1.371891	-0.000162
 896	8.9052e+01	4.3266	50.736380	0.000202	2.024578	0.685946	-0.000081
 897	8.9152e+01	4.2817	50.131416	0.001518	15.184334	5.144592	-0.000608
 898	8.9251e+01	4.2336	50.333071	-0.000506	-5.061445	-1.714864	0.000203
 899	8.9351e+01	4.2015	49.647444	0.001721	17.208912	5.830537	-0.000689
 900	8.9451e+01	4.1534	50.091085	-0.001114	-11.135179	-3.772701	0.000446
 901	8.9550e+01	4.1229	49.365127	0.001822	18.221201	6.173510	-0.000730
 902	8.9650e+01	4.0828	49.324796	0.000101	1.012289	0.342973	-0.000041
 903	8.9749e+01	4.0395	49.526451	-0.000506	-5.061445	-1.714864	0.000203
 904	8.9849e+01	4.0058	48.961817	0.001417	14.172045	4.801619	-0.000567
 905	8.9948e+01	3.9544	48.760162	0.000506	5.061445	1.714864	-0.000203
 906	9.0047e+01	3.9159	48.397183	0.000911	9.110601	3.086755	-0.000365
 907	9.0147e+01	3.8822	48.276190	0.000304	3.036867	1.028918	-0.000122
 908	9.0246e+01	3.8453	48.397183	-0.000304	-3.036867	-1.028918	0.000122
 909	9.0346e+01	3.8020	48.114866	0.000709	7.086023	2.400809	-0.000284
 910	9.0445e+01	3.7603	48.155197	-0.000101	-1.012289	-0.342973	0.000041
 911	9.0545e+01	3.7234	47.872880	0.000709	7.086023	2.400809	-0.000284
 912	9.0644e+01	3.6769	47.913211	-0.000101	-1.012289	-0.342973	0.000041
 913	9.0744e+01	3.6352	47.630894	0.000709	7.086023	2.400809	-0.000284
 914	9.0844e+01	3.5983	47.227585	0.001012	10.122890	3.429728	-0.000405
 915	9.0943e+01	3.5662	46.743613	0.001215	12.147468	4.115673	-0.000486
 916	9.1043e+01	3.5245	46.783944	-0.000101	-1.012289	-0.342973	0.000041
 917	9.1142e+01	3.4844	46.662951	0.000304	3.036867	1.028918	-0.000122
 918	9.1242e+01	3.4475	46.622620	0.000101	1.012289	0.342973	-0.000041
 919	9.1341e+01	3.4026	46.541958	0.000202	2.024578	0.685946	-0.000081
 920	9.1441e+01	3.3593	46.017655	0.001316	13.159756	4.458646	-0.000527
 921	9.1540e+01	3.3304	45.896662	0.000304	3.036867	1.028918	-0.000122
 922	9.1639e+01	3.2823	45.372359	0.001316	13.159756	4.458646	-0.000527
 923	9.1739e+01	3.2406	45.614345	-0.000607	-6.073734	-2.057837	0.000243
 924	9.1838e+01	3.2085	45.412690	0.000506	5.061445	1.714864	-0.000203
 925	9.1938e+01	3.1619	44.646402	0.001923	19.233490	6.516483	-0.000770
 926	9.2037e+01	3.1250	44.848056	-0.000506	-5.061445	-1.714864	0.000203
 927	9.2137e+01	3.0946	44.848056	-0.000000	-0.000000	-0.000000	0.000000
 928	9.2237e+01	3.0496	44.243092	0.001518	15.184334	5.144592	-0.000608
 929	9.2336e+01	3.0015	44.444747	-0.000506	-5.061445	-1.714864	0.000203
 930	9.2436e+01	2.9566	44.162430	0.000709	7.086023	2.400809	-0.000284
 931	9.2535e+01	2.9261	43.839782	0.000810	8.098312	2.743782	-0.000324
 932	9.2635e+01	2.8908	43.638127	0.000506	5.061445	1.714864	-0.000203
 933	9.2734e+01	2.8395	43.517134	0.000304	3.036867	1.028918	-0.000122
 934	9.2834e+01	2.8074	43.315479	0.000506	5.061445	1.714864	-0.000203
 935	9.2933e+01	2.7593	42.912169	0.001012	10.122890	3.429728	-0.000405
 936	9.3032e+01	2.7272	42.791176	0.000304	3.036867	1.028918	-0.000122
 937	9.3132e+01	2.6855	42.831507	-0.000101	-1.012289	-0.342973	0.000041
 938	9.3231e+01	2.6454	42.710514	0.000304	3.036867	1.028918	-0.000122
 939	9.3331e+01	2.6085	42.428197	0.000709	7.086023	2.400809	-0.000284
 940	9.3430e+01	2.5716	42.266873	0.000405	4.049156	1.371891	-0.000162
 941	9.3530e+01	2.5315	41.823233	0.001114	11.135179	3.772701	-0.000446
 942	9.3629e+01	2.4866	41.742571	0.000202	2.024578	0.685946	-0.000081
 943	9.3729e+01	2.4449	41.460254	0.000709	7.086023	2.400809	-0.000284
 944	9.3829e+01	2.4047	41.016613	0.001114	11.135179	3.772701	-0.000446
 945	9.3928e+01	2.3598	40.895620	0.000304	3.036867	1.028918	-0.000122
 946	9.4028e+01	2.3245	40.613303	0.000709	7.086023	2.400809	-0.000284
 947	9.4127e+01	2.2828	41.016613	-0.001012	-10.122890	-3.429728	0.000405
 948	9.4227e+01	2.2459	40.411648	0.001518	15.184334	5.144592	-0.000608
 949	9.4326e+01	2.2138	40.330986	0.000202	2.024578	0.685946	-0.000081
 950	9.4425e+01	2.1657	40.371317	-0.000101	-1.012289	-0.342973	0.000041
 951	9.4525e+01	2.1224	39.645359	0.001822	18.221201	6.173510	-0.000730
 952	9.4624e+01	2.0823	39.927676	-0.000709	-7.086023	-2.400809	0.000284
 953	9.4724e+01	2.0518	39.524366	0.001012	10.122890	3.429728	-0.000405
 954	9.4823e+01	2.0085	39.322711	0.000506	5.061445	1.714864	-0.000203
 955	9.4923e+01	1.9684	39.121056	0.000506	5.061445	1.714864	-0.000203
 956	9.5022e+01	1.9315	38.838740	0.000709	7.086023	2.400809	-0.000284
 957	9.5122e+01	1.8882	38.516092	0.000810	8.098312	2.743782	-0.000324
 958	9.5222e+01	1.8513	38.112782	0.001012	10.122890	3.429728	-0.000405
 959	9.5321e+01	1.8096	38.395099	-0.000709	-7.086023	-2.400809	0.000284
 960	9.5421e+01	1.7695	38.233775	0.000405	4.049156	1.371891	-0.000162
 961	9.5520e+01	1.7262	37.870796	0.000911	9.110601	3.086755	-0.000365
 962	9.5620e+01	1.6941	37.507817	0.000911	9.110601	3.086755	-0.000365
 963	9.5719e+01	1.6540	37.507817	-0.000000	-0.000000	-0.000000	0.000000
 964	9.5819e+01	1.6090	37.064176	0.001114	11.135179	3.772701	-0.000446
 965	9.5918e+01	1.5641	37.104507	-0.000101	-1.012289	-0.342973	0.000041
 966	9.6017e+01	1.5353	37.104507	-0.000000	-0.000000	-0.000000	0.000000
 967	9.6117e+01	1.4919	36.822190	0.000709	7.086023	2.400809	-0.000284
 968	9.6216e+01	1.4502	36.176894	0.001620	16.196623	5.487565	-0.000649
 969	9.6316e+01	1.4165	36.297887	-0.000304	-3.036867	-1.028918	0.000122
 970	9.6415e+01	1.3748	36.176894	0.000304	3.036867	1.028918	-0.000122
 971	9.6515e+01	1.3315	35.854247	0.000810	8.098312	2.743782	-0.000324
 972	9.6615e+01	1.2962	35.450937	0.001012	10.122890	3.429728	-0.000405
 973	9.6714e+01	1.2529	35.410606	0.000101	1.012289	0.342973	-0.000041
 974	9.6814e+01	1.2128	35.450937	-0.000101	-1.012289	-0.342973	0.000041
 975	9.6913e+01	1.1663	34.926634	0.001316	13.159756	4.458646	-0.000527
 976	9.7013e+01	1.1294	34.805641	0.000304	3.036867	1.028918	-0.000122
 977	9.7112e+01	1.0877	34.845972	-0.000101	-1.012289	-0.342973	0.000041
 978	9.7212e+01	1.0540	34.200676	0.001620	16.196623	5.487565	-0.000649
 979	9.7311e+01	1.0123	33.958690	0.000607	6.073734	2.057837	-0.000243
 980	9.7410e+01	0.9754	33.757035	0.000506	5.061445	1.714864	-0.000203
 981	9.7510e+01	0.9353	33.273063	0.001215	12.147468	4.115673	-0.000486
 982	9.7609e+01	0.9000	33.716704	-0.001114	-11.135179	-3.772701	0.000446
 983	9.7709e+01	0.8518	33.232732	0.001215	12.147468	4.115673	-0.000486
 984	9.7808e+01	0.8053	33.111740	0.000304	3.036867	1.028918	-0.000122
 985	9.7908e+01	0.7700	32.990747	0.000304	3.036867	1.028918	-0.000122
 986	9.8007e+01	0.7299	32.264789	0.001822	18.221201	6.173510	-0.000730
 987	9.8107e+01	0.6930	32.184127	0.000202	2.024578	0.685946	-0.000081
 988	9.8207e+01	0.6593	32.224458	-0.000101	-1.012289	-0.342973	0.000041
 989	9.8306e+01	0.6160	31.780817	0.001114	11.135179	3.772701	-0.000446
 990	9.8406e+01	0.5679	31.700155	0.000202	2.024578	0.685946	-0.000081
 991	9.8505e+01	0.5278	31.417838	0.000709	7.086023	2.400809	-0.000284
 992	9.8605e+01	0.4893	31.216183	0.000506	5.061445	1.714864	-0.000203
 993	9.8704e+01	0.4492	31.014528	0.000506	5.061445	1.714864	-0.000203
 994	9.8803e+01	0.4219	30.570887	0.001114	11.135179	3.772701	-0.000446
 995	9.8903e+01	0.3754	30.611218	-0.000101	-1.012289	-0.342973	0.000041
 996	9.9002e+01	0.3337	30.167578	0.001114	11.135179	3.772701	-0.000446
 997	9.9102e+01	0.2904	29.804599	0.000911	9.110601	3.086755	-0.000365
 998	9.9201e+01	0.2631	29.562613	0.000607	6.073734	2.057837	-0.000243
 999	9.9301e+01	0.2118	29.723937	-0.000405	-4.049156	-1.371891	0.000162
1000	9.9400e+01	0.1749	29.522282	0.000506	5.061445	1.714864	-0.000203
1001	9.9500e+01	0.1267	28.997979	0.001316	13.159756	4.458646	-0.000527
1002	9.9600e+01	0.1011	28.836655	0.000405	4.049156	1.371891	-0.000162
1003	9.9699e+01	0.0545	28.514007	0.000810	8.098312	2.743782	-0.000324
1004	9.9799e+01	0.0209	28.272021	0.000607	6.073734	2.057837	-0.000243
1005	9.9898e+01	-0.0112	28.231690	0.000101	1.012289	0.342973	-0.000041
1006	9.9998e+01	-0.0545	27.828380	0.001012	10.122890	3.429728	-0.000405
1007	1.0010e+02	-0.0979	27.707387	0.000304	3.036867	1.028918	-0.000122
1008	1.0020e+02	-0.1412	27.586394	0.000304	3.036867	1.028918	-0.000122
1009	1.0030e+02	-0.1781	27.667056	-0.000202	-2.024578	-0.685946	0.000081
1010	1.0040e+02	-0.2214	26.981430	0.001721	17.208912	5.830537	-0.000689
1011	1.0050e+02	-0.2535	26.779775	0.000506	5.061445	1.714864	-0.000203
1012	1.0059e+02	-0.2888	26.658782	0.000304	3.036867	1.028918	-0.000122
1013	1.0069e+02	-0.3353	26.336134	0.000810	8.098312	2.743782	-0.000324
1014	1.0079e+02	-0.3722	26.336134	-0.000000	-0.000000	-0.000000	0.000000
1015	1.0089e+02	-0.4123	25.569845	0.001923	19.233490	6.516483	-0.000770
1016	1.0099e+02	-0.4492	25.529514	0.000101	1.012289	0.342973	-0.000041
1017	1.0109e+02	-0.4909	25.247197	0.000709	7.086023	2.400809	-0.000284
1018	1.0119e+02	-0.5390	24.884218	0.000911	9.110601	3.086755	-0.000365
1019	1.0129e+02	-0.5791	24.642232	0.000607	6.073734	2.057837	-0.000243
1020	1.0139e+02	-0.6176	24.601901	0.000101	1.012289	0.342973	-0.000041
1021	1.0149e+02	-0.6513	24.480909	0.000304	3.036867	1.028918	-0.000122
1022	1.0159e+02	-0.6962	23.875944	0.001518	15.184334	5.144592	-0.000608
1023	1.0169e+02	-0.7379	23.593627	0.000709	7.086023	2.400809	-0.000284
1024	1.0179e+02	-0.7700	23.512965	0.000202	2.024578	0.685946	-0.000081
1025	1.0189e+02	-0.8150	23.230648	0.000709	7.086023	2.400809	-0.000284
1026	1.0199e+02	-0.8599	23.109655	0.000304	3.036867	1.028918	-0.000122
1027	1.0209e+02	-0.8871	22.706345	0.001012	10.122890	3.429728	-0.000405
1028	1.0219e+02	-0.9353	22.746676	-0.000101	-1.012289	-0.342973	0.000041
1029	1.0229e+02	-0.9770	22.141711	0.001518	15.184334	5.144592	-0.000608
1030	1.0239e+02	-1.0075	21.940056	0.000506	5.061445	1.714864	-0.000203
1031	1.0248e+02	-1.0572	21.456085	0.001215	12.147468	4.115673	-0.000486
1032	1.0258e+02	-1.0973	21.496416	-0.000101	-1.012289	-0.342973	0.000041
1033	1.0268e+02	-1.1358	21.456085	0.000101	1.012289	0.342973	-0.000041
1034	1.0278e+02	-1.1663	21.294761	0.000405	4.049156	1.371891	-0.000162
1035	1.0288e+02	-1.2160	20.891451	0.001012	10.122890	3.429728	-0.000405
1036	1.0298e+02	-1.2513	20.488141	0.001012	10.122890	3.429728	-0.000405
1037	1.0308e+02	-1.2866	20.609134	-0.000304	-3.036867	-1.028918	0.000122
1038	1.0318e+02	-1.3315	20.367148	0.000607	6.073734	2.057837	-0.000243
1039	1.0328e+02	-1.3764	19.883176	0.001215	12.147468	4.115673	-0.000486
1040	1.0338e+02	-1.4165	19.479866	0.001012	10.122890	3.429728	-0.000405
1041	1.0348e+02	-1.4470	19.399204	0.000202	2.024578	0.685946	-0.000081
1042	1.0358e+02	-1.4967	19.036225	0.000911	9.110601	3.086755	-0.000365
1043	1.0368e+02	-1.5369	19.197549	-0.000405	-4.049156	-1.371891	0.000162
1044	1.0378e+02	-1.5786	18.552254	0.001620	16.196623	5.487565	-0.000649
1045	1.0388e+02	-1.6155	18.390930	0.000405	4.049156	1.371891	-0.000162
1046	1.0398e+02	-1.6508	18.148944	0.000607	6.073734	2.057837	-0.000243
1047	1.0408e+02	-1.6925	17.785965	0.000911	9.110601	3.086755	-0.000365
1048	1.0418e+02	-1.7262	17.584310	0.000506	5.061445	1.714864	-0.000203
1049	1.0428e+02	-1.7711	17.422986	0.000405	4.049156	1.371891	-0.000162
1050	1.0438e+02	-1.8016	16.898683	0.001316	13.159756	4.458646	-0.000527
1051	1.0447e+02	-1.8593	16.535704	0.000911	9.110601	3.086755	-0.000365
1052	1.0457e+02	-1.8866	16.535704	-0.000000	-0.000000	-0.000000	0.000000
1053	1.0467e+02	-1.9203	16.132394	0.001012	10.122890	3.429728	-0.000405
1054	1.0477e+02	-1.9748	16.374380	-0.000607	-6.073734	-2.057837	0.000243
1055	1.0487e+02	-2.0085	16.092063	0.000709	7.086023	2.400809	-0.000284
1056	1.0497e+02	-2.0470	15.608092	0.001215	12.147468	4.115673	-0.000486
1057	1.0507e+02	-2.0951	15.245113	0.000911	9.110601	3.086755	-0.000365
1058	1.0517e+02	-2.1320	15.366106	-0.000304	-3.036867	-1.028918	0.000122
1059	1.0527e+02	-2.1705	14.841803	0.001316	13.159756	4.458646	-0.000527
1060	1.0537e+02	-2.2090	14.599817	0.000607	6.073734	2.057837	-0.000243
1061	1.0547e+02	-2.2491	14.559486	0.000101	1.012289	0.342973	-0.000041
1062	1.0557e+02	-2.2908	13.833528	0.001822	18.221201	6.173510	-0.000730
1063	1.0567e+02	-2.3229	14.398162	-0.001417	-14.172045	-4.801619	0.000567
1064	1.0577e+02	-2.3678	13.510880	0.002227	22.270357	7.545401	-0.000892
1065	1.0587e+02	-2.4160	13.188232	0.000810	8.098312	2.743782	-0.000324
1066	1.0597e+02	-2.4545	13.268894	-0.000202	-2.024578	-0.685946	0.000081
1067	1.0607e+02	-2.4850	13.026908	0.000607	6.073734	2.057837	-0.000243
1068	1.0617e+02	-2.5299	12.542937	0.001215	12.147468	4.115673	-0.000486
1069	1.0627e+02	-2.5539	12.502606	0.000101	1.012289	0.342973	-0.000041
1070	1.0637e+02	-2.6053	12.058965	0.001114	11.135179	3.772701	-0.000446
1071	1.0647e+02	-2.6470	11.937972	0.000304	3.036867	1.028918	-0.000122
1072	1.0656e+02	-2.6807	11.978303	-0.000101	-1.012289	-0.342973	0.000041
1073	1.0666e+02	-2.7256	11.373338	0.001518	15.184334	5.144592	-0.000608
1074	1.0676e+02	-2.7673	11.212014	0.000405	4.049156	1.371891	-0.000162
1075	1.0686e+02	-2.8186	11.091021	0.000304	3.036867	1.028918	-0.000122
1076	1.0696e+02	-2.8475	10.365063	0.001822	18.221201	6.173510	-0.000730
1077	1.0706e+02	-2.8892	10.889366	-0.001316	-13.159756	-4.458646	0.000527
1078	1.0716e+02	-2.9245	10.123077	0.001923	19.233490	6.516483	-0.000770
1079	1.0726e+02	-2.9630	10.365063	-0.000607	-6.073734	-2.057837	0.000243
1080	1.0736e+02	-3.0047	9.840761	0.001316	13.159756	4.458646	-0.000527
1081	1.0746e+02	-3.0513	9.518113	0.000810	8.098312	2.743782	-0.000324
1082	1.0756e+02	-3.0817	9.155134	0.000911	9.110601	3.086755	-0.000365
1083	1.0766e+02	-3.1250	8.671162	0.001215	12.147468	4.115673	-0.000486
1084	1.0776e+02	-3.1635	9.074472	-0.001012	-10.122890	-3.429728	0.000405
1085	1.0786e+02	-3.2133	8.267852	0.002025	20.245779	6.859456	-0.000811
1086	1.0796e+02	-3.2470	8.509838	-0.000607	-6.073734	-2.057837	0.000243
1087	1.0806e+02	-3.2919	8.025866	0.001215	12.147468	4.115673	-0.000486
1088	1.0816e+02	-3.3192	7.904873	0.000304	3.036867	1.028918	-0.000122
1089	1.0826e+02	-3.3737	7.622556	0.000709	7.086023	2.400809	-0.000284
1090	1.0836e+02	-3.4090	7.824211	-0.000506	-5.061445	-1.714864	0.000203
1091	1.0845e+02	-3.4475	7.178916	0.001620	16.196623	5.487565	-0.000649
1092	1.0855e+02	-3.4844	6.815937	0.000911	9.110601	3.086755	-0.000365
1093	1.0865e+02	-3.5245	6.815937	-0.000000	-0.000000	-0.000000	0.000000
1094	1.0875e+02	-3.5598	6.815937	-0.000000	-0.000000	-0.000000	0.000000
1095	1.0885e+02	-3.6095	6.089979	0.001822	18.221201	6.173510	-0.000730
1096	1.0895e+02	-3.6480	5.968986	0.000304	3.036867	1.028918	-0.000122
1097	1.0905e+02	-3.6865	6.049648	-0.000202	-2.024578	-0.685946	0.000081
1098	1.0915e+02	-3.7250	5.686669	0.000911	9.110601	3.086755	-0.000365
1099	1.0925e+02	-3.7667	5.122035	0.001417	14.172045	4.801619	-0.000567
1100	1.0935e+02	-3.7972	5.283359	-0.000405	-4.049156	-1.371891	0.000162
1101	1.0945e+02	-3.8373	4.839718	0.001114	11.135179	3.772701	-0.000446
1102	1.0955e+02	-3.8726	5.001042	-0.000405	-4.049156	-1.371891	0.000162
1103	1.0965e+02	-3.9240	4.799387	0.000506	5.061445	1.714864	-0.000203
1104	1.0975e+02	-3.9592	4.517070	0.000709	7.086023	2.400809	-0.000284
1105	1.0985e+02	-4.0090	3.992768	0.001316	13.159756	4.458646	-0.000527
1106	1.0995e+02	-4.0443	3.791113	0.000506	5.061445	1.714864	-0.000203
1107	1.1005e+02	-4.0844	3.307141	0.001215	12.147468	4.115673	-0.000486
1108	1.1015e+02	-4.1181	3.629789	-0.000810	-8.098312	-2.743782	0.000324
1109	1.1025e+02	-4.1550	3.226479	0.001012	10.122890	3.429728	-0.000405
1110	1.1035e+02	-4.2047	2.863500	0.000911	9.110601	3.086755	-0.000365
1111	1.1044e+02	-4.2384	2.823169	0.000101	1.012289	0.342973	-0.000041
1112	1.1054e+02	-4.2801	2.540852	0.000709	7.086023	2.400809	-0.000284
1113	1.1064e+02	-4.3298	2.339197	0.000506	5.061445	1.714864	-0.000203
1114	1.1074e+02	-4.3587	2.218204	0.000304	3.036867	1.028918	-0.000122
1115	1.1084e+02	-4.3972	1.774563	0.001114	11.135179	3.772701	-0.000446
1116	1.1094e+02	-4.4485	1.814894	-0.000101	-1.012289	-0.342973	0.000041
1117	1.1104e+02	-4.4790	1.532577	0.000709	7.086023	2.400809	-0.000284
1118	1.1114e+02	-4.5159	1.169599	0.000911	9.110601	3.086755	-0.000365
1119	1.1124e+02	-4.5592	1.371254	-0.000506	-5.061445	-1.714864	0.000203
1120	1.1134e+02	-4.5993	0.927613	0.001114	11.135179	3.772701	-0.000446
1121	1.1144e+02	-4.6475	0.483972	0.001114	11.135179	3.772701	-0.000446
1122	1.1154e+02	-4.6795	0.443641	0.000101	1.012289	0.342973	-0.000041
1123	1.1164e+02	-4.7197	0.403310	0.000101	1.012289	0.342973	-0.000041
1124	1.1174e+02	-4.7549	0.201655	0.000506	5.061445	1.714864	-0.000203
1125	1.1184e+02	-4.7902	-0.483972	0.001721	17.208912	5.830537	-0.000689
1126	1.1194e+02	-4.8464	-0.322648	-0.000405	-4.049156	-1.371891	0.000162
1127	1.1204e+02	-4.8737	-0.241986	-0.000202	-2.024578	-0.685946	0.000081
1128	1.1214e+02	-4.9154	-0.967944	0.001822	18.221201	6.173510	-0.000730
1129	1.1224e+02	-4.9619	-1.048606	0.000202	2.024578	0.685946	-0.000081
1130	1.1234e+02	-4.9972	-1.169599	0.000304	3.036867	1.028918	-0.000122
1131	1.1244e+02	-5.0373	-1.451915	0.000709	7.086023	2.400809	-0.000284
1132	1.1253e+02	-5.0838	-1.532577	0.000202	2.024578	0.685946	-0.000081
1133	1.1263e+02	-5.1207	-1.693901	0.000405	4.049156	1.371891	-0.000162
1134	1.1273e+02	-5.1560	-1.935887	0.000607	6.073734	2.057837	-0.000243
1135	1.1283e+02	-5.2025	-2.056880	0.000304	3.036867	1.028918	-0.000122
1136	1.1293e+02	-5.2362	-2.137542	0.000202	2.024578	0.685946	-0.000081
1137	1.1303e+02	-5.2763	-2.419859	0.000709	7.086023	2.400809	-0.000284
1138	1.1313e+02	-5.3164	-2.823169	0.001012	10.122890	3.429728	-0.000405
1139	1.1323e+02	-5.3597	-2.903831	0.000202	2.024578	0.685946	-0.000081
1140	1.1333e+02	-5.4047	-3.226479	0.000810	8.098312	2.743782	-0.000324
1141	1.1343e+02	-5.4400	-3.468465	0.000607	6.073734	2.057837	-0.000243
1142	1.1353e+02	-5.4752	-3.468465	-0.000000	-0.000000	-0.000000	0.000000
1143	1.1363e+02	-5.5234	-3.992768	0.001316	13.159756	4.458646	-0.000527
1144	1.1373e+02	-5.5555	-3.871775	-0.000304	-3.036867	-1.028918	0.000122
1145	1.1383e+02	-5.6020	-4.234754	0.000911	9.110601	3.086755	-0.000365
1146	1.1393e+02	-5.6357	-4.355746	0.000304	3.036867	1.028918	-0.000122
1147	1.1403e+02	-5.6645	-4.597732	0.000607	6.073734	2.057837	-0.000243
1148	1.1413e+02	-5.7111	-4.718725	0.000304	3.036867	1.028918	-0.000122
1149	1.1423e+02	-5.7528	-4.799387	0.000202	2.024578	0.685946	-0.000081
1150	1.1433e+02	-5.7929	-5.202697	0.001012	10.122890	3.429728	-0.000405
1151	1.1442e+02	-5.8298	-5.565676	0.000911	9.110601	3.086755	-0.000365
1152	1.1452e+02	-5.8763	-5.404352	-0.000405	-4.049156	-1.371891	0.000162
1153	1.1462e+02	-5.9148	-5.767331	0.000911	9.110601	3.086755	-0.000365
1154	1.1472e+02	-5.9581	-6.089979	0.000810	8.098312	2.743782	-0.000324
1155	1.1482e+02	-5.9838	-6.089979	-0.000000	-0.000000	-0.000000	0.000000
1156	1.1492e+02	-6.0303	-6.251303	0.000405	4.049156	1.371891	-0.000162
1157	1.1502e+02	-6.0784	-6.654613	0.001012	10.122890	3.429728	-0.000405
1158	1.1512e+02	-6.1089	-6.372296	-0.000709	-7.086023	-2.400809	0.000284
1159	1.1522e+02	-6.1474	-6.775606	0.001012	10.122890	3.429728	-0.000405
1160	1.1532e+02	-6.1923	-7.259577	0.001215	12.147468	4.115673	-0.000486
1161	1.1542e+02	-6.2421	-7.461232	0.000506	5.061445	1.714864	-0.000203
1162	1.1552e+02	-6.2742	-7.259577	-0.000506	-5.061445	-1.714864	0.000203
1163	1.1562e+02	-6.3159	-7.622556	0.000911	9.110601	3.086755	-0.000365
1164	1.1572e+02	-6.3576	-7.743549	0.000304	3.036867	1.028918	-0.000122
1165	1.1582e+02	-6.3897	-8.267852	0.001316	13.159756	4.458646	-0.000527
1166	1.1592e+02	-6.4330	-8.227521	-0.000101	-1.012289	-0.342973	0.000041
1167	1.1602e+02	-6.4699	-8.348514	0.000304	3.036867	1.028918	-0.000122
1168	1.1612e+02	-6.5132	-8.550169	0.000506	5.061445	1.714864	-0.000203
1169	1.1622e+02	-6.5469	-8.469507	-0.000202	-2.024578	-0.685946	0.000081
1170	1.1632e+02	-6.5918	-8.953479	0.001215	12.147468	4.115673	-0.000486
1171	1.1642e+02	-6.6303	-9.155134	0.000506	5.061445	1.714864	-0.000203
1172	1.1651e+02	-6.6640	-9.195465	0.000101	1.012289	0.342973	-0.000041
1173	1.1661e+02	-6.7089	-9.639106	0.001114	11.135179	3.772701	-0.000446
1174	1.1671e+02	-6.7442	-10.002085	0.000911	9.110601	3.086755	-0.000365
1175	1.1681e+02	-6.7891	-10.082747	0.000202	2.024578	0.685946	-0.000081
1176	1.1691e+02	-6.8340	-10.203739	0.000304	3.036867	1.028918	-0.000122
1177	1.1701e+02	-6.8661	-10.203739	-0.000000	-0.000000	-0.000000	0.000000
1178	1.1711e+02	-6.9207	-10.324732	0.000304	3.036867	1.028918	-0.000122
1179	1.1721e+02	-6.9447	-10.647380	0.000810	8.098312	2.743782	-0.000324
1180	1.1731e+02	-6.9977	-10.647380	-0.000000	-0.000000	-0.000000	0.000000
1181	1.1741e+02	-7.0249	-10.728042	0.000202	2.024578	0.685946	-0.000081
1182	1.1751e+02	-7.0666	-11.333007	0.001518	15.184334	5.144592	-0.000608
1183	1.1761e+02	-7.1116	-11.574993	0.000607	6.073734	2.057837	-0.000243
1184	1.1771e+02	-7.1501	-11.373338	-0.000506	-5.061445	-1.714864	0.000203
1185	1.1781e+02	-7.1918	-11.574993	0.000506	5.061445	1.714864	-0.000203
1186	1.1791e+02	-7.2303	-12.058965	0.001215	12.147468	4.115673	-0.000486
1187	1.1801e+02	-7.2688	-12.381613	0.000810	8.098312	2.743782	-0.000324
1188	1.1811e+02	-7.3041	-12.583268	0.000506	5.061445	1.714864	-0.000203
1189	1.1821e+02	-7.3458	-12.623599	0.000101	1.012289	0.342973	-0.000041
1190	1.1831e+02	-7.3827	-12.905916	0.000709	7.086023	2.400809	-0.000284
1191	1.1841e+02	-7.4292	-13.026908	0.000304	3.036867	1.028918	-0.000122
1192	1.1850e+02	-7.4645	-12.744592	-0.000709	-7.086023	-2.400809	0.000284
1193	1.1860e+02	-7.5158	-13.430218	0.001721	17.208912	5.830537	-0.000689
1194	1.1870e+02	-7.5479	-13.470549	0.000101	1.012289	0.342973	-0.000041
1195	1.1880e+02	-7.5928	-13.470549	-0.000000	-0.000000	-0.000000	0.000000
1196	1.1890e+02	-7.6233	-13.873859	0.001012	10.122890	3.429728	-0.000405
1197	1.1900e+02	-7.6730	-13.833528	-0.000101	-1.012289	-0.342973	0.000041
1198	1.1910e+02	-7.7067	-14.599817	0.001923	19.233490	6.516483	-0.000770
1199	1.1920e+02	-7.7452	-14.317500	-0.000709	-7.086023	-2.400809	0.000284
1200	1.1930e+02	-7.7837	-14.277169	-0.000101	-1.012289	-0.342973	0.000041
1201	1.1940e+02	-7.8254	-15.003127	0.001822	18.221201	6.173510	-0.000730
1202	1.1950e+02	-7.8720	-15.083789	0.000202	2.024578	0.685946	-0.000081
1203	1.1960e+02	-7.9073	-15.204782	0.000304	3.036867	1.028918	-0.000122
1204	1.1970e+02	-7.9426	-15.406437	0.000506	5.061445	1.714864	-0.000203
1205	1.1980e+02	-7.9811	-15.729085	0.000810	8.098312	2.743782	-0.000324
1206	1.1990e+02	-8.0164	-15.608092	-0.000304	-3.036867	-1.028918	0.000122
1207	1.2000e+02	-8.0677	-15.890408	0.000709	7.086023	2.400809	-0.000284
1208	1.2010e+02	-8.1030	-15.769416	-0.000304	-3.036867	-1.028918	0.000122
1209	1.2020e+02	-8.1463	-16.455042	0.001721	17.208912	5.830537	-0.000689
1210	1.2030e+02	-8.1880	-16.213056	-0.000607	-6.073734	-2.057837	0.000243
1211	1.2039e+02	-8.2265	-16.455042	0.000607	6.073734	2.057837	-0.000243
1212	1.2049e+02	-8.2650	-16.535704	0.000202	2.024578	0.685946	-0.000081
1213	1.2059e+02	-8.3067	-17.100338	0.001417	14.172045	4.801619	-0.000567
1214	1.2069e+02	-8.3436	-17.342324	0.000607	6.073734	2.057837	-0.000243
1215	1.2079e+02	-8.3805	-17.422986	0.000202	2.024578	0.685946	-0.000081
1216	1.2089e+02	-8.4190	-17.503648	0.000202	2.024578	0.685946	-0.000081
1217	1.2099e+02	-8.4703	-17.301993	-0.000506	-5.061445	-1.714864	0.000203
1218	1.2109e+02	-8.4960	-17.987620	0.001721	17.208912	5.830537	-0.000689
1219	1.2119e+02	-8.5393	-17.866627	-0.000304	-3.036867	-1.028918	0.000122
1220	1.2129e+02	-8.5778	-18.068282	0.000506	5.061445	1.714864	-0.000203
1221	1.2139e+02	-8.6195	-18.431261	0.000911	9.110601	3.086755	-0.000365
1222	1.2149e+02	-8.6564	-18.673247	0.000607	6.073734	2.057837	-0.000243
1223	1.2159e+02	-8.7110	-18.632916	-0.000101	-1.012289	-0.342973	0.000041
1224	1.2169e+02	-8.7447	-18.995894	0.000911	9.110601	3.086755	-0.000365
1225	1.2179e+02	-8.7703	-19.197549	0.000506	5.061445	1.714864	-0.000203
1226	1.2189e+02	-8.8217	-19.237880	0.000101	1.012289	0.342973	-0.000041
1227	1.2199e+02	-8.8634	-19.520197	0.000709	7.086023	2.400809	-0.000284
1228	1.2209e+02	-8.8971	-20.084831	0.001417	14.172045	4.801619	-0.000567
1229	1.2219e+02	-8.9468	-19.520197	-0.001417	-14.172045	-4.801619	0.000567
1230	1.2229e+02	-8.9725	-20.004169	0.001215	12.147468	4.115673	-0.000486
1231	1.2239e+02	-9.0174	-19.883176	-0.000304	-3.036867	-1.028918	0.000122
1232	1.2248e+02	-9.0639	-20.286486	0.001012	10.122890	3.429728	-0.000405
1233	1.2258e+02	-9.0960	-20.568803	0.000709	7.086023	2.400809	-0.000284
1234	1.2268e+02	-9.1441	-20.568803	-0.000000	-0.000000	-0.000000	0.000000
1235	1.2278e+02	-9.1826	-21.093106	0.001316	13.159756	4.458646	-0.000527
1236	1.2288e+02	-9.2259	-21.012444	-0.000202	-2.024578	-0.685946	0.000081
1237	1.2298e+02	-9.2596	-21.254430	0.000607	6.073734	2.057837	-0.000243
1238	1.2308e+02	-9.2997	-21.335092	0.000202	2.024578	0.685946	-0.000081
1239	1.2318e+02	-9.3382	-21.819063	0.001215	12.147468	4.115673	-0.000486
1240	1.2328e+02	-9.3832	-21.496416	-0.000810	-8.098312	-2.743782	0.000324
1241	1.2338e+02	-9.4313	-21.940056	0.001114	11.135179	3.772701	-0.000446
1242	1.2348e+02	-9.4650	-22.182042	0.000607	6.073734	2.057837	-0.000243
1243	1.2358e+02	-9.5051	-21.980387	-0.000506	-5.061445	-1.714864	0.000203
1244	1.2368e+02	-9.5388	-22.625683	0.001620	16.196623	5.487565	-0.000649
1245	1.2378e+02	-9.5773	-22.706345	0.000202	2.024578	0.685946	-0.000081
1246	1.2388e+02	-9.6222	-23.109655	0.001012	10.122890	3.429728	-0.000405
1247	1.2398e+02	-9.6639	-22.948331	-0.000405	-4.049156	-1.371891	0.000162
1248	1.2408e+02	-9.6928	-23.109655	0.000405	4.049156	1.371891	-0.000162
1249	1.2418e+02	-9.7361	-23.230648	0.000304	3.036867	1.028918	-0.000122
1250	1.2428e+02	-9.7698	-22.867669	-0.000911	-9.110601	-3.086755	0.000365
1251	1.2438e+02	-9.8195	-23.754951	0.002227	22.270357	7.545401	-0.000892
1252	1.2447e+02	-9.8532	-23.432303	-0.000810	-8.098312	-2.743782	0.000324
1253	1.2457e+02	-9.8981	-23.916275	0.001215	12.147468	4.115673	-0.000486
1254	1.2467e+02	-9.9334	-24.238923	0.000810	8.098312	2.743782	-0.000324
1255	1.2477e+02	-9.9815	-24.440578	0.000506	5.061445	1.714864	-0.000203
1256	1.2487e+02	-10.0216	-24.077599	-0.000911	-9.110601	-3.086755	0.000365
1257	1.2497e+02	-10.0585	-24.682563	0.001518	15.184334	5.144592	-0.000608
1258	1.2507e+02	-10.1002	-24.682563	-0.000000	-0.000000	-0.000000	0.000000
1259	1.2517e+02	-10.1468	-24.924549	0.000607	6.073734	2.057837	-0.000243
1260	1.2527e+02	-10.1740	-24.964880	0.000101	1.012289	0.342973	-0.000041
1261	1.2537e+02	-10.2158	-25.408521	0.001114	11.135179	3.772701	-0.000446
1262	1.2547e+02	-10.2559	-25.811831	0.001012	10.122890	3.429728	-0.000405
1263	1.2557e+02	-10.3024	-25.529514	-0.000709	-7.086023	-2.400809	0.000284
1264	1.2567e+02	-10.3361	-25.811831	0.000709	7.086023	2.400809	-0.000284
1265	1.2577e+02	-10.3730	-25.973155	0.000405	4.049156	1.371891	-0.000162
1266	1.2587e+02	-10.4131	-26.215141	0.000607	6.073734	2.057837	-0.000243
1267	1.2597e+02	-10.4532	-26.336134	0.000304	3.036867	1.028918	-0.000122
1268	1.2607e+02	-10.4981	-26.537789	0.000506	5.061445	1.714864	-0.000203
1269	1.2617e+02	-10.5446	-26.376465	-0.000405	-4.049156	-1.371891	0.000162
1270	1.2627e+02	-10.5751	-26.578120	0.000506	5.061445	1.714864	-0.000203
1271	1.2636e+02	-10.6152	-27.021761	0.001114	11.135179	3.772701	-0.000446
1272	1.2646e+02	-10.6617	-26.941099	-0.000202	-2.024578	-0.685946	0.000081
1273	1.2656e+02	-10.6986	-27.102423	0.000405	4.049156	1.371891	-0.000162
1274	1.2666e+02	-10.7339	-27.183085	0.000202	2.024578	0.685946	-0.000081
1275	1.2676e+02	-10.7660	-27.949373	0.001923	19.233490	6.516483	-0.000770
1276	1.2686e+02	-10.8109	-27.788049	-0.000405	-4.049156	-1.371891	0.000162
1277	1.2696e+02	-10.8574	-28.110697	0.000810	8.098312	2.743782	-0.000324
1278	1.2706e+02	-10.8911	-27.868711	-0.000607	-6.073734	-2.057837	0.000243
1279	1.2716e+02	-10.9216	-28.312352	0.001114	11.135179	3.772701	-0.000446
1280	1.2726e+02	-10.9794	-28.514007	0.000506	5.061445	1.714864	-0.000203
1281	1.2736e+02	-11.0211	-28.594669	0.000202	2.024578	0.685946	-0.000081
1282	1.2746e+02	-11.0612	-28.594669	-0.000000	-0.000000	-0.000000	0.000000
1283	1.2756e+02	-11.0965	-28.957648	0.000911	9.110601	3.086755	-0.000365
1284	1.2766e+02	-11.1446	-29.038310	0.000202	2.024578	0.685946	-0.000081
1285	1.2776e+02	-11.1751	-29.239965	0.000506	5.061445	1.714864	-0.000203
1286	1.2786e+02	-11.2120	-29.925592	0.001721	17.208912	5.830537	-0.000689
1287	1.2796e+02	-11.2553	-29.643275	-0.000709	-7.086023	-2.400809	0.000284
1288	1.2806e+02	-11.2954	-29.885261	0.000607	6.073734	2.057837	-0.000243
1289	1.2816e+02	-11.3323	-29.965923	0.000202	2.024578	0.685946	-0.000081
1290	1.2826e+02	-11.3772	-30.167578	0.000506	5.061445	1.714864	-0.000203
1291	1.2835e+02	-11.4141	-30.893535	0.001822	18.221201	6.173510	-0.000730
1292	1.2845e+02	-11.4574	-30.288571	-0.001518	-15.184334	-5.144592	0.000608
1293	1.2855e+02	-11.4895	-30.651549	0.000911	9.110601	3.086755	-0.000365
1294	1.2865e+02	-11.5344	-30.732211	0.000202	2.024578	0.685946	-0.000081
1295	1.2875e+02	-11.5681	-30.853204	0.000304	3.036867	1.028918	-0.000122
1296	1.2885e+02	-11.6050	-30.974197	0.000304	3.036867	1.028918	-0.000122
1297	1.2895e+02	-11.6596	-31.337176	0.000911	9.110601	3.086755	-0.000365
1298	1.2905e+02	-11.6916	-31.700155	0.000911	9.110601	3.086755	-0.000365
1299	1.2915e+02	-11.7334	-31.982472	0.000709	7.086023	2.400809	-0.000284
1300	1.2925e+02	-11.7670	-32.264789	0.000709	7.086023	2.400809	-0.000284
1301	1.2935e+02	-11.8184	-32.022803	-0.000607	-6.073734	-2.057837	0.000243
1302	1.2945e+02	-11.8601	-32.506775	0.001215	12.147468	4.115673	-0.000486
1303	1.2955e+02	-11.8954	-32.668099	0.000405	4.049156	1.371891	-0.000162
1304	1.2965e+02	-11.9275	-32.506775	-0.000405	-4.049156	-1.371891	0.000162
1305	1.2975e+02	-11.9788	-32.869754	0.000911	9.110601	3.086755	-0.000365
1306	1.2985e+02	-12.0029	-33.232732	0.000911	9.110601	3.086755	-0.000365
1307	1.2995e+02	-12.0382	-33.555380	0.000810	8.098312	2.743782	-0.000324
1308	1.3005e+02	-12.0847	-33.192401	-0.000911	-9.110601	-3.086755	0.000365
1309	1.3015e+02	-12.1328	-33.555380	0.000911	9.110601	3.086755	-0.000365
1310	1.3025e+02	-12.1649	-34.120014	0.001417	14.172045	4.801619	-0.000567
1311	1.3034e+02	-12.2082	-33.837697	-0.000709	-7.086023	-2.400809	0.000284
1312	1.3044e+02	-12.2435	-33.878028	0.000101	1.012289	0.342973	-0.000041
1313	1.3054e+02	-12.2868	-33.958690	0.000202	2.024578	0.685946	-0.000081
1314	1.3064e+02	-12.3349	-34.442662	0.001215	12.147468	4.115673	-0.000486
1315	1.3074e+02	-12.3686	-34.966965	0.001316	13.159756	4.458646	-0.000527
1316	1.3084e+02	-12.3991	-34.724979	-0.000607	-6.073734	-2.057837	0.000243
1317	1.3094e+02	-12.4537	-34.684648	-0.000101	-1.012289	-0.342973	0.000041
1318	1.3104e+02	-12.4873	-35.370275	0.001721	17.208912	5.830537	-0.000689
1319	1.3114e+02	-12.5226	-35.249282	-0.000304	-3.036867	-1.028918	0.000122
1320	1.3124e+02	-12.5644	-35.410606	0.000405	4.049156	1.371891	-0.000162
1321	1.3134e+02	-12.6141	-35.894578	0.001215	12.147468	4.115673	-0.000486
1322	1.3144e+02	-12.6510	-36.015571	0.000304	3.036867	1.028918	-0.000122
1323	1.3154e+02	-12.6863	-36.015571	-0.000000	-0.000000	-0.000000	0.000000
1324	1.3164e+02	-12.7200	-36.136563	0.000304	3.036867	1.028918	-0.000122
1325	1.3174e+02	-12.7713	-36.781859	0.001620	16.196623	5.487565	-0.000649
1326	1.3184e+02	-12.8130	-36.822190	0.000101	1.012289	0.342973	-0.000041
1327	1.3194e+02	-12.8531	-37.144838	0.000810	8.098312	2.743782	-0.000324
1328	1.3204e+02	-12.8836	-37.185169	0.000101	1.012289	0.342973	-0.000041
1329	1.3214e+02	-12.9221	-37.669141	0.001215	12.147468	4.115673	-0.000486
1330	1.3224e+02	-12.9654	-37.507817	-0.000405	-4.049156	-1.371891	0.000162
1331	1.3234e+02	-12.9959	-37.790134	0.000709	7.086023	2.400809	-0.000284
1332	1.3243e+02	-13.0456	-37.830465	0.000101	1.012289	0.342973	-0.000041
1333	1.3253e+02	-13.0841	-38.112782	0.000709	7.086023	2.400809	-0.000284
1334	1.3263e+02	-13.1162	-38.556423	0.001114	11.135179	3.772701	-0.000446
1335	1.3273e+02	-13.1627	-38.717747	0.000405	4.049156	1.371891	-0.000162
1336	1.3283e+02	-13.2028	-38.475761	-0.000607	-6.073734	-2.057837	0.000243
1337	1.3293e+02	-13.2413	-39.403373	0.002328	23.282646	7.888374	-0.000932
1338	1.3303e+02	-13.2847	-39.121056	-0.000709	-7.086023	-2.400809	0.000284
1339	1.3313e+02	-13.3280	-39.080725	-0.000101	-1.012289	-0.342973	0.000041
1340	1.3323e+02	-13.3665	-39.282380	0.000506	5.061445	1.714864	-0.000203
1341	1.3333e+02	-13.4082	-39.806683	0.001316	13.159756	4.458646	-0.000527
1342	1.3343e+02	-13.4435	-39.927676	0.000304	3.036867	1.028918	-0.000122
1343	1.3353e+02	-13.4820	-40.411648	0.001215	12.147468	4.115673	-0.000486
1344	1.3363e+02	-13.5205	-40.371317	-0.000101	-1.012289	-0.342973	0.000041
1345	1.3373e+02	-13.5622	-40.653634	0.000709	7.086023	2.400809	-0.000284
1346	1.3383e+02	-13.6023	-40.976282	0.000810	8.098312	2.743782	-0.000324
1347	1.3393e+02	-13.6440	-40.774627	-0.000506	-5.061445	-1.714864	0.000203
1348	1.3403e+02	-13.6825	-41.379592	0.001518	15.184334	5.144592	-0.000608
1349	1.3413e+02	-13.7226	-41.621578	0.000607	6.073734	2.057837	-0.000243
1350	1.3423e+02	-13.7611	-41.661909	0.000101	1.012289	0.342973	-0.000041
1351	1.3432e+02	-13.7900	-42.024887	0.000911	9.110601	3.086755	-0.000365
1352	1.3442e+02	-13.8429	-41.944225	-0.000202	-2.024578	-0.685946	0.000081
1353	1.3452e+02	-13.8830	-42.226542	0.000709	7.086023	2.400809	-0.000284
1354	1.3462e+02	-13.9199	-42.670183	0.001114	11.135179	3.772701	-0.000446
1355	1.3472e+02	-13.9600	-42.952500	0.000709	7.086023	2.400809	-0.000284
1356	1.3482e+02	-14.0050	-43.073493	0.000304	3.036867	1.028918	-0.000122
1357	1.3492e+02	-14.0483	-43.154155	0.000202	2.024578	0.685946	-0.000081
1358	1.3502e+02	-14.0755	-43.355810	0.000506	5.061445	1.714864	-0.000203
1359	1.3512e+02	-14.1253	-43.396141	0.000101	1.012289	0.342973	-0.000041
1360	1.3522e+02	-14.1622	-43.920444	0.001316	13.159756	4.458646	-0.000527
1361	1.3532e+02	-14.2007	-43.839782	-0.000202	-2.024578	-0.685946	0.000081
1362	1.3542e+02	-14.2536	-44.122099	0.000709	7.086023	2.400809	-0.000284
1363	1.3552e+02	-14.2713	-44.686733	0.001417	14.172045	4.801619	-0.000567
1364	1.3562e+02	-14.3162	-44.767394	0.000202	2.024578	0.685946	-0.000081
1365	1.3572e+02	-14.3531	-45.130373	0.000911	9.110601	3.086755	-0.000365
1366	1.3582e+02	-14.4012	-45.009380	-0.000304	-3.036867	-1.028918	0.000122
1367	1.3592e+02	-14.4301	-45.211035	0.000506	5.061445	1.714864	-0.000203
1368	1.3602e+02	-14.4830	-45.735338	0.001316	13.159756	4.458646	-0.000527
1369	1.3612e+02	-14.5167	-45.816000	0.000202	2.024578	0.685946	-0.000081
1370	1.3622e+02	-14.5536	-46.219310	0.001012	10.122890	3.429728	-0.000405
1371	1.3631e+02	-14.6049	-46.178979	-0.000101	-1.012289	-0.342973	0.000041
1372	1.3641e+02	-14.6402	-46.662951	0.001215	12.147468	4.115673	-0.000486
1373	1.3651e+02	-14.6771	-46.541958	-0.000304	-3.036867	-1.028918	0.000122
1374	1.3661e+02	-14.7269	-47.106592	0.001417	14.172045	4.801619	-0.000567
1375	1.3671e+02	-14.7654	-47.187254	0.000202	2.024578	0.685946	-0.000081
1376	1.3681e+02	-14.8023	-47.509902	0.000810	8.098312	2.743782	-0.000324
1377	1.3691e+02	-14.8343	-48.114866	0.001518	15.184334	5.144592	-0.000608
1378	1.3701e+02	-14.8664	-48.276190	0.000405	4.049156	1.371891	-0.000162
1379	1.3711e+02	-14.9113	-48.316521	0.000101	1.012289	0.342973	-0.000041
1380	1.3721e+02	-14.9611	-48.518176	0.000506	5.061445	1.714864	-0.000203
1381	1.3731e+02	-15.0044	-48.760162	0.000607	6.073734	2.057837	-0.000243
1382	1.3741e+02	-15.0381	-49.082810	0.000810	8.098312	2.743782	-0.000324
1383	1.3751e+02	-15.0718	-49.365127	0.000709	7.086023	2.400809	-0.000284
1384	1.3761e+02	-15.1183	-49.486120	0.000304	3.036867	1.028918	-0.000122
1385	1.3771e+02	-15.1568	-49.647444	0.000405	4.049156	1.371891	-0.000162
1386	1.3781e+02	-15.1985	-50.091085	0.001114	11.135179	3.772701	-0.000446
1387	1.3791e+02	-15.2434	-50.131416	0.000101	1.012289	0.342973	-0.000041
1388	1.3801e+02	-15.2755	-50.696049	0.001417	14.172045	4.801619	-0.000567
1389	1.3811e+02	-15.3124	-51.018697	0.000810	8.098312	2.743782	-0.000324
1390	1.3821e+02	-15.3605	-51.018697	-0.000000	-0.000000	-0.000000	0.000000
1391	1.3831e+02	-15.3974	-51.381676	0.000911	9.110601	3.086755	-0.000365
1392	1.3840e+02	-15.4327	-51.825317	0.001114	11.135179	3.772701	-0.000446
1393	1.3850e+02	-15.4728	-51.583331	-0.000607	-6.073734	-2.057837	0.000243
1394	1.3860e+02	-15.5145	-52.268958	0.001721	17.208912	5.830537	-0.000689
1395	1.3870e+02	-15.5482	-52.470613	0.000506	5.061445	1.714864	-0.000203
1396	1.3880e+02	-15.5931	-52.389951	-0.000202	-2.024578	-0.685946	0.000081
1397	1.3890e+02	-15.6397	-52.914254	0.001316	13.159756	4.458646	-0.000527
1398	1.3900e+02	-15.6750	-53.115909	0.000506	5.061445	1.714864	-0.000203
1399	1.3910e+02	-15.7151	-53.599880	0.001215	12.147468	4.115673	-0.000486
1400	1.3920e+02	-15.7584	-53.720873	0.000304	3.036867	1.028918	-0.000122
1401	1.3930e+02	-15.7969	-54.083852	0.000911	9.110601	3.086755	-0.000365
1402	1.3940e+02	-15.8402	-54.648486	0.001417	14.172045	4.801619	-0.000567
1403	1.3950e+02	-15.8755	-54.487162	-0.000405	-4.049156	-1.371891	0.000162
1404	1.3960e+02	-15.9172	-55.092127	0.001518	15.184334	5.144592	-0.000608
1405	1.3970e+02	-15.9525	-55.535768	0.001114	11.135179	3.772701	-0.000446
1406	1.3980e+02	-15.9910	-55.092127	-0.001114	-11.135179	-3.772701	0.000446
1407	1.3990e+02	-16.0327	-55.697092	0.001518	15.184334	5.144592	-0.000608
1408	1.4000e+02	-16.0744	-56.221395	0.001316	13.159756	4.458646	-0.000527
1409	1.4010e+02	-16.1145	-56.342387	0.000304	3.036867	1.028918	-0.000122
1410	1.4020e+02	-16.1482	-56.221395	-0.000304	-3.036867	-1.028918	0.000122
1411	1.4029e+02	-16.1947	-56.584373	0.000911	9.110601	3.086755	-0.000365
1412	1.4039e+02	-16.2284	-57.108676	0.001316	13.159756	4.458646	-0.000527
1413	1.4049e+02	-16.2749	-57.310331	0.000506	5.061445	1.714864	-0.000203
1414	1.4059e+02	-16.3070	-57.632979	0.000810	8.098312	2.743782	-0.000324
1415	1.4069e+02	-16.3519	-58.076620	0.001114	11.135179	3.772701	-0.000446
1416	1.4079e+02	-16.3969	-58.520261	0.001114	11.135179	3.772701	-0.000446
1417	1.4089e+02	-16.4306	-58.721916	0.000506	5.061445	1.714864	-0.000203
1418	1.4099e+02	-16.4819	-58.963902	0.000607	6.073734	2.057837	-0.000243
1419	1.4109e+02	-16.5092	-59.286549	0.000810	8.098312	2.743782	-0.000324
1420	1.4119e+02	-16.5557	-59.528535	0.000607	6.073734	2.057837	-0.000243
1421	1.4129e+02	-16.5910	-59.931845	0.001012	10.122890	3.429728	-0.000405
1422	1.4139e+02	-16.6263	-60.093169	0.000405	4.049156	1.371891	-0.000162
1423	1.4149e+02	-16.6664	-60.617472	0.001316	13.159756	4.458646	-0.000527
1424	1.4159e+02	-16.7145	-60.536810	-0.000202	-2.024578	-0.685946	0.000081
1425	1.4169e+02	-16.7434	-61.303099	0.001923	19.233490	6.516483	-0.000770
1426	1.4179e+02	-16.7915	-61.504754	0.000506	5.061445	1.714864	-0.000203
1427	1.4189e+02	-16.8316	-61.988726	0.001215	12.147468	4.115673	-0.000486
1428	1.4199e+02	-16.8669	-62.029057	0.000101	1.012289	0.342973	-0.000041
1429	1.4209e+02	-16.9102	-62.311373	0.000709	7.086023	2.400809	-0.000284
1430	1.4219e+02	-16.9567	-62.956669	0.001620	16.196623	5.487565	-0.000649
1431	1.4228e+02	-16.9856	-62.916338	-0.000101	-1.012289	-0.342973	0.000041
1432	1.4238e+02	-17.0305	-63.601965	0.001721	17.208912	5.830537	-0.000689
1433	1.4248e+02	-17.0690	-63.521303	-0.000202	-2.024578	-0.685946	0.000081
1434	1.4258e+02	-17.1107	-64.448916	0.002328	23.282646	7.888374	-0.000932
1435	1.4268e+02	-17.1476	-64.408585	-0.000101	-1.012289	-0.342973	0.000041
1436	1.4278e+02	-17.1749	-64.690902	0.000709	7.086023	2.400809	-0.000284
1437	1.4288e+02	-17.2214	-65.094211	0.001012	10.122890	3.429728	-0.000405
1438	1.4298e+02	-17.2696	-65.739507	0.001620	16.196623	5.487565	-0.000649
1439	1.4308e+02	-17.3065	-65.860500	0.000304	3.036867	1.028918	-0.000122
1440	1.4318e+02	-17.3482	-66.344472	0.001215	12.147468	4.115673	-0.000486
1441	1.4328e+02	-17.3803	-66.747782	0.001012	10.122890	3.429728	-0.000405
1442	1.4338e+02	-17.4204	-66.868775	0.000304	3.036867	1.028918	-0.000122
1443	1.4348e+02	-17.4813	-67.393078	0.001316	13.159756	4.458646	-0.000527
1444	1.4358e+02	-17.5006	-67.836718	0.001114	11.135179	3.772701	-0.000446
1445	1.4368e+02	-17.5471	-68.119035	0.000709	7.086023	2.400809	-0.000284
1446	1.4378e+02	-17.5824	-68.522345	0.001012	10.122890	3.429728	-0.000405
1447	1.4388e+02	-17.6209	-68.482014	-0.000101	-1.012289	-0.342973	0.000041
1448	1.4398e+02	-17.6674	-69.086979	0.001518	15.184334	5.144592	-0.000608
1449	1.4408e+02	-17.7107	-70.014592	0.002328	23.282646	7.888374	-0.000932
1450	1.4418e+02	-17.7444	-70.216247	0.000506	5.061445	1.714864	-0.000203
1451	1.4428e+02	-17.7845	-70.135585	-0.000202	-2.024578	-0.685946	0.000081
1452	1.4437e+02	-17.8166	-70.901873	0.001923	19.233490	6.516483	-0.000770
1453	1.4447e+02	-17.8679	-71.143859	0.000607	6.073734	2.057837	-0.000243
1454	1.4457e+02	-17.9129	-71.506838	0.000911	9.110601	3.086755	-0.000365
1455	1.4467e+02	-17.9385	-72.273127	0.001923	19.233490	6.516483	-0.000770
1456	1.4477e+02	-17.9754	-72.474782	0.000506	5.061445	1.714864	-0.000203
1457	1.4487e+02	-18.0203	-72.918423	0.001114	11.135179	3.772701	-0.000446
1458	1.4497e+02	-18.0685	-72.878092	-0.000101	-1.012289	-0.342973	0.000041
1459	1.4507e+02	-18.0974	-73.644380	0.001923	19.233490	6.516483	-0.000770
1460	1.4517e+02	-18.1359	-74.047690	0.001012	10.122890	3.429728	-0.000405
1461	1.4527e+02	-18.1792	-74.531662	0.001215	12.147468	4.115673	-0.000486
1462	1.4537e+02	-18.2337	-74.571993	0.000101	1.012289	0.342973	-0.000041
1463	1.4547e+02	-18.2690	-75.418944	0.002126	21.258068	7.202428	-0.000851
1464	1.4557e+02	-18.3059	-75.983578	0.001417	14.172045	4.801619	-0.000567
1465	1.4567e+02	-18.3460	-76.023909	0.000101	1.012289	0.342973	-0.000041
1466	1.4577e+02	-18.3877	-76.790197	0.001923	19.233490	6.516483	-0.000770
1467	1.4587e+02	-18.4230	-77.112845	0.000810	8.098312	2.743782	-0.000324
1468	1.4597e+02	-18.4615	-77.798472	0.001721	17.208912	5.830537	-0.000689
1469	1.4607e+02	-18.5048	-77.879134	0.000202	2.024578	0.685946	-0.000081
1470	1.4617e+02	-18.5401	-78.363106	0.001215	12.147468	4.115673	-0.000486
1471	1.4626e+02	-18.5786	-78.927740	0.001417	14.172045	4.801619	-0.000567
1472	1.4636e+02	-18.6235	-79.573035	0.001620	16.196623	5.487565	-0.000649
1473	1.4646e+02	-18.6636	-79.815021	0.000607	6.073734	2.057837	-0.000243
1474	1.4656e+02	-18.7070	-80.339324	0.001316	13.159756	4.458646	-0.000527
1475	1.4666e+02	-18.7294	-80.621641	0.000709	7.086023	2.400809	-0.000284
1476	1.4676e+02	-18.7791	-81.307268	0.001721	17.208912	5.830537	-0.000689
1477	1.4686e+02	-18.8241	-81.791240	0.001215	12.147468	4.115673	-0.000486
1478	1.4696e+02	-18.8610	-82.113888	0.000810	8.098312	2.743782	-0.000324
1479	1.4706e+02	-18.9043	-82.799514	0.001721	17.208912	5.830537	-0.000689
1480	1.4716e+02	-18.9428	-82.920507	0.000304	3.036867	1.028918	-0.000122
1481	1.4726e+02	-18.9797	-83.848120	0.002328	23.282646	7.888374	-0.000932
1482	1.4736e+02	-19.0198	-84.009444	0.000405	4.049156	1.371891	-0.000162
1483	1.4746e+02	-19.0615	-84.896726	0.002227	22.270357	7.545401	-0.000892
1484	1.4756e+02	-19.1096	-85.098381	0.000506	5.061445	1.714864	-0.000203
1485	1.4766e+02	-19.1465	-85.824338	0.001822	18.221201	6.173510	-0.000730
1486	1.4776e+02	-19.1834	-86.146986	0.000810	8.098312	2.743782	-0.000324
1487	1.4786e+02	-19.2235	-86.509965	0.000911	9.110601	3.086755	-0.000365
1488	1.4796e+02	-19.2684	-87.477909	0.002429	24.294935	8.231347	-0.000973
1489	1.4806e+02	-19.2989	-87.719895	0.000607	6.073734	2.057837	-0.000243
1490	1.4816e+02	-19.3406	-88.566845	0.002126	21.258068	7.202428	-0.000851
1491	1.4825e+02	-19.3855	-89.050817	0.001215	12.147468	4.115673	-0.000486
1492	1.4835e+02	-19.4224	-89.736444	0.001721	17.208912	5.830537	-0.000689
1493	1.4845e+02	-19.4593	-89.897768	0.000405	4.049156	1.371891	-0.000162
1494	1.4855e+02	-19.5011	-91.027035	0.002834	28.344091	9.603238	-0.001135
1495	1.4865e+02	-19.5347	-91.188359	0.000405	4.049156	1.371891	-0.000162
1496	1.4875e+02	-19.5765	-91.712662	0.001316	13.159756	4.458646	-0.000527
1497	1.4885e+02	-19.6246	-92.478951	0.001923	19.233490	6.516483	-0.000770
1498	1.4895e+02	-19.6615	-93.003254	0.001316	13.159756	4.458646	-0.000527
1499	1.4905e+02	-19.6952	-93.366233	0.000911	9.110601	3.086755	-0.000365
1500	1.4915e+02	-19.7433	-94.092190	0.001822	18.221201	6.173510	-0.000730
1501	1.4925e+02	-19.7770	-94.818148	0.001822	18.221201	6.173510	-0.000730
1502	1.4935e+02	-19.8123	-95.423113	0.001518	15.184334	5.144592	-0.000608
1503	1.4945e+02	-19.8540	-95.866754	0.001114	11.135179	3.772701	-0.000446
1504	1.4955e+02	-19.8925	-96.552381	0.001721	17.208912	5.830537	-0.000689
1505	1.4965e+02	-19.9390	-97.197676	0.001620	16.196623	5.487565	-0.000649
1506	1.4975e+02	-19.9839	-97.399331	0.000506	5.061445	1.714864	-0.000203
1507	1.4985e+02	-20.0160	-98.528599	0.002834	28.344091	9.603238	-0.001135
1508	1.4995e+02	-19.9807	-99.012571	-0.001215	-12.147468	-4.115673	-0.000486
1509	1.5005e+02	-19.9470	-99.335219	-0.000810	-8.098312	-2.743782	-0.000324
1510	1.5015e+02	-19.8941	-99.657866	-0.000810	-8.098312	-2.743782	-0.000324
1511	1.5025e+02	-19.8524	-100.303162	-0.001620	-16.196623	-5.487565	-0.000649
1512	1.5034e+02	-19.8219	-99.980514	0.000810	8.098312	2.743782	0.000324
1513	1.5044e+02	-19.7754	-100.746803	-0.001923	-19.233490	-6.516483	-0.000770
1514	1.5054e+02	-19.7337	-100.908127	-0.000405	-4.049156	-1.371891	-0.000162
1515	1.5064e+02	-19.6984	-100.988789	-0.000202	-2.024578	-0.685946	-0.000081
1516	1.5074e+02	-19.6551	-101.311437	-0.000810	-8.098312	-2.743782	-0.000324
1517	1.5084e+02	-19.6230	-101.150113	0.000405	4.049156	1.371891	0.000162
1518	1.5094e+02	-19.5700	-101.674416	-0.001316	-13.159756	-4.458646	-0.000527
1519	1.5104e+02	-19.5347	-101.513092	0.000405	4.049156	1.371891	0.000162
1520	1.5114e+02	-19.4962	-102.077726	-0.001417	-14.172045	-4.801619	-0.000567
1521	1.5124e+02	-19.4674	-101.714747	0.000911	9.110601	3.086755	0.000365
1522	1.5134e+02	-19.4128	-102.077726	-0.000911	-9.110601	-3.086755	-0.000365
1523	1.5144e+02	-19.3791	-102.360043	-0.000709	-7.086023	-2.400809	-0.000284
1524	1.5154e+02	-19.3470	-102.642359	-0.000709	-7.086023	-2.400809	-0.000284
1525	1.5164e+02	-19.2957	-102.279381	0.000911	9.110601	3.086755	0.000365
1526	1.5174e+02	-19.2604	-102.279381	0.000000	0.000000	0.000000	0.000000
1527	1.5184e+02	-19.2235	-102.723021	-0.001114	-11.135179	-3.772701	-0.000446
1528	1.5194e+02	-19.1754	-102.763352	-0.000101	-1.012289	-0.342973	-0.000041
1529	1.5204e+02	-19.1401	-103.166662	-0.001012	-10.122890	-3.429728	-0.000405
1530	1.5214e+02	-19.1000	-102.642359	0.001316	13.159756	4.458646	0.000527
1531	1.5224e+02	-19.0695	-102.723021	-0.000202	-2.024578	-0.685946	-0.000081
1532	1.5233e+02	-19.0150	-103.045669	-0.000810	-8.098312	-2.743782	-0.000324
1533	1.5243e+02	-18.9749	-102.965007	0.000202	2.024578	0.685946	0.000081
1534	1.5253e+02	-18.9412	-102.924676	0.000101	1.012289	0.342973	0.000041
1535	1.5263e+02	-18.9075	-103.126331	-0.000506	-5.061445	-1.714864	-0.000203
1536	1.5273e+02	-18.8690	-103.166662	-0.000101	-1.012289	-0.342973	-0.000041
1537	1.5283e+02	-18.8225	-103.126331	0.000101	1.012289	0.342973	0.000041
1538	1.5293e+02	-18.7888	-103.126331	0.000000	0.000000	0.000000	0.000000
1539	1.5303e+02	-18.7487	-103.287655	-0.000405	-4.049156	-1.371891	-0.000162
1540	1.5313e+02	-18.7054	-102.924676	0.000911	9.110601	3.086755	0.000365
1541	1.5323e+02	-18.6636	-102.965007	-0.000101	-1.012289	-0.342973	-0.000041
1542	1.5333e+02	-18.6235	-103.005338	-0.000101	-1.012289	-0.342973	-0.000041
1543	1.5343e+02	-18.5850	-103.529641	-0.001316	-13.159756	-4.458646	-0.000527
1544	1.5353e+02	-18.5401	-102.924676	0.001518	15.184334	5.144592	0.000608
1545	1.5363e+02	-18.5016	-103.206993	-0.000709	-7.086023	-2.400809	-0.000284
1546	1.5373e+02	-18.4599	-103.045669	0.000405	4.049156	1.371891	0.000162
1547	1.5383e+02	-18.4182	-103.005338	0.000101	1.012289	0.342973	0.000041
1548	1.5393e+02	-18.3861	-102.803683	0.000506	5.061445	1.714864	0.000203
1549	1.5403e+02	-18.3540	-103.045669	-0.000607	-6.073734	-2.057837	-0.000243
1550	1.5413e+02	-18.3011	-102.924676	0.000304	3.036867	1.028918	0.000122
1551	1.5422e+02	-18.2658	-103.005338	-0.000202	-2.024578	-0.685946	-0.000081
1552	1.5432e+02	-18.2321	-102.642359	0.000911	9.110601	3.086755	0.000365
1553	1.5442e+02	-18.1888	-103.045669	-0.001012	-10.122890	-3.429728	-0.000405
1554	1.5452e+02	-18.1487	-102.521366	0.001316	13.159756	4.458646	0.000527
1555	1.5462e+02	-18.1038	-102.803683	-0.000709	-7.086023	-2.400809	-0.000284
1556	1.5472e+02	-18.0669	-102.844014	-0.000101	-1.012289	-0.342973	-0.000041
1557	1.5482e+02	-18.0252	-102.763352	0.000202	2.024578	0.685946	0.000081
1558	1.5492e+02	-17.9883	-102.198719	0.001417	14.172045	4.801619	0.000567
1559	1.5502e+02	-17.9417	-102.602028	-0.001012	-10.122890	-3.429728	-0.000405
1560	1.5512e+02	-17.9016	-102.481035	0.000304	3.036867	1.028918	0.000122
1561	1.5522e+02	-17.8695	-102.279381	0.000506	5.061445	1.714864	0.000203
1562	1.5532e+02	-17.8230	-102.319712	-0.000101	-1.012289	-0.342973	-0.000041
1563	1.5542e+02	-17.7942	-102.481035	-0.000405	-4.049156	-1.371891	-0.000162
1564	1.5552e+02	-17.7396	-101.956733	0.001316	13.159756	4.458646	0.000527
1565	1.5562e+02	-17.7059	-102.400374	-0.001114	-11.135179	-3.772701	-0.000446
1566	1.5572e+02	-17.6722	-102.118057	0.000709	7.086023	2.400809	0.000284
1567	1.5582e+02	-17.6241	-102.400374	-0.000709	-7.086023	-2.400809	-0.000284
1568	1.5592e+02	-17.5824	-102.118057	0.000709	7.086023	2.400809	0.000284
1569	1.5602e+02	-17.5471	-102.077726	0.000101	1.012289	0.342973	0.000041
1570	1.5612e+02	-17.5086	-102.118057	-0.000101	-1.012289	-0.342973	-0.000041
1571	1.5622e+02	-17.4749	-102.037395	0.000202	2.024578	0.685946	0.000081
1572	1.5631e+02	-17.4284	-101.795409	0.000607	6.073734	2.057837	0.000243
1573	1.5641e+02	-17.3915	-101.432430	0.000911	9.110601	3.086755	0.000365
1574	1.5651e+02	-17.3530	-101.674416	-0.000607	-6.073734	-2.057837	-0.000243
1575	1.5661e+02	-17.3097	-101.311437	0.000911	9.110601	3.086755	0.000365
1576	1.5671e+02	-17.2696	-101.553423	-0.000607	-6.073734	-2.057837	-0.000243
1577	1.5681e+02	-17.2327	-101.513092	0.000101	1.012289	0.342973	0.000041
1578	1.5691e+02	-17.1845	-101.190444	0.000810	8.098312	2.743782	0.000324
1579	1.5701e+02	-17.1509	-101.513092	-0.000810	-8.098312	-2.743782	-0.000324
1580	1.5711e+02	-17.1204	-101.230775	0.000709	7.086023	2.400809	0.000284
1581	1.5721e+02	-17.0706	-100.666141	0.001417	14.172045	4.801619	0.000567
1582	1.5731e+02	-17.0273	-101.271106	-0.001518	-15.184334	-5.144592	-0.000608
1583	1.5741e+02	-16.9872	-101.029120	0.000607	6.073734	2.057837	0.000243
1584	1.5751e+02	-16.9471	-100.827465	0.000506	5.061445	1.714864	0.000203
1585	1.5761e+02	-16.9150	-100.343493	0.001215	12.147468	4.115673	0.000486
1586	1.5771e+02	-16.8653	-100.545148	-0.000506	-5.061445	-1.714864	-0.000203
1587	1.5781e+02	-16.8412	-100.424155	0.000304	3.036867	1.028918	0.000122
1588	1.5791e+02	-16.7899	-100.464486	-0.000101	-1.012289	-0.342973	-0.000041
1589	1.5801e+02	-16.7450	-100.262831	0.000506	5.061445	1.714864	0.000203
1590	1.5811e+02	-16.7145	-100.182169	0.000202	2.024578	0.685946	0.000081
1591	1.5821e+02	-16.6760	-100.383824	-0.000506	-5.061445	-1.714864	-0.000203
1592	1.5830e+02	-16.6295	-100.303162	0.000202	2.024578	0.685946	0.000081
1593	1.5840e+02	-16.5894	-100.303162	0.000000	0.000000	0.000000	0.000000
1594	1.5850e+02	-16.5573	-100.141838	0.000405	4.049156	1.371891	0.000162
1595	1.5860e+02	-16.5108	-99.657866	0.001215	12.147468	4.115673	0.000486
1596	1.5870e+02	-16.4739	-99.496543	0.000405	4.049156	1.371891	0.000162
1597	1.5880e+02	-16.4306	-99.577204	-0.000202	-2.024578	-0.685946	-0.000081
1598	1.5890e+02	-16.3953	-99.375550	0.000506	5.061445	1.714864	0.000203
1599	1.5900e+02	-16.3616	-99.496543	-0.000304	-3.036867	-1.028918	-0.000122
1600	1.5910e+02	-16.3134	-99.456212	0.000101	1.012289	0.342973	0.000041
1601	1.5920e+02	-16.2701	-99.335219	0.000304	3.036867	1.028918	0.000122
1602	1.5930e+02	-16.2348	-99.214226	0.000304	3.036867	1.028918	0.000122
1603	1.5940e+02	-16.1979	-99.173895	0.000101	1.012289	0.342973	0.000041
1604	1.5950e+02	-16.1610	-99.214226	-0.000101	-1.012289	-0.342973	-0.000041
1605	1.5960e+02	-16.1145	-99.052902	0.000405	4.049156	1.371891	0.000162
1606	1.5970e+02	-16.0776	-98.488268	0.001417	14.172045	4.801619	0.000567
1607	1.5980e+02	-16.0343	-98.407606	0.000202	2.024578	0.685946	0.000081
1608	1.5990e+02	-15.9942	-98.367275	0.000101	1.012289	0.342973	0.000041
1609	1.6000e+02	-15.9541	-98.488268	-0.000304	-3.036867	-1.028918	-0.000122
1610	1.6010e+02	-15.9140	-98.568930	-0.000202	-2.024578	-0.685946	-0.000081
1611	1.6019e+02	-15.8739	-98.004296	0.001417	14.172045	4.801619	0.000567
1612	1.6029e+02	-15.8322	-98.044627	-0.000101	-1.012289	-0.342973	-0.000041
1613	1.6039e+02	-15.7969	-98.165620	-0.000304	-3.036867	-1.028918	-0.000122
1614	1.6049e+02	-15.7504	-97.802641	0.000911	9.110601	3.086755	0.000365
1615	1.6059e+02	-15.7199	-97.721979	0.000202	2.024578	0.685946	0.000081
1616	1.6069e+02	-15.6750	-97.641317	0.000202	2.024578	0.685946	0.000081
1617	1.6079e+02	-15.6316	-97.721979	-0.000202	-2.024578	-0.685946	-0.000081
1618	1.6089e+02	-15.5964	-97.318669	0.001012	10.122890	3.429728	0.000405
1619	1.6099e+02	-15.5530	-97.479993	-0.000405	-4.049156	-1.371891	-0.000162
1620	1.6109e+02	-15.5210	-97.318669	0.000405	4.049156	1.371891	0.000162
1621	1.6119e+02	-15.4760	-97.278338	0.000101	1.012289	0.342973	0.000041
1622	1.6129e+02	-15.4391	-97.318669	-0.000101	-1.012289	-0.342973	-0.000041
1623	1.6139e+02	-15.4006	-96.673373	0.001620	16.196623	5.487565	0.000649
1624	1.6149e+02	-15.3461	-96.512050	0.000405	4.049156	1.371891	0.000162
1625	1.6159e+02	-15.3204	-96.673373	-0.000405	-4.049156	-1.371891	-0.000162
1626	1.6169e+02	-15.2803	-96.471719	0.000506	5.061445	1.714864	0.000203
1627	1.6179e+02	-15.2354	-96.310395	0.000405	4.049156	1.371891	0.000162
1628	1.6189e+02	-15.2097	-96.229733	0.000202	2.024578	0.685946	0.000081
1629	1.6199e+02	-15.1488	-96.189402	0.000101	1.012289	0.342973	0.000041
1630	1.6209e+02	-15.1135	-96.108740	0.000202	2.024578	0.685946	0.000081
1631	1.6219e+02	-15.0702	-96.028078	0.000202	2.024578	0.685946	0.000081
1632	1.6228e+02	-15.0397	-96.310395	-0.000709	-7.086023	-2.400809	-0.000284
1633	1.6238e+02	-14.9980	-95.745761	0.001417	14.172045	4.801619	0.000567
1634	1.6248e+02	-14.9611	-95.745761	0.000000	0.000000	0.000000	0.000000
1635	1.6258e+02	-14.9178	-95.584437	0.000405	4.049156	1.371891	0.000162
1636	1.6268e+02	-14.8793	-95.745761	-0.000405	-4.049156	-1.371891	-0.000162
1637	1.6278e+02	-14.8311	-95.342451	0.001012	10.122890	3.429728	0.000405
1638	1.6288e+02	-14.8007	-95.624768	-0.000709	-7.086023	-2.400809	-0.000284
1639	1.6298e+02	-14.7557	-95.221458	0.001012	10.122890	3.429728	0.000405
1640	1.6308e+02	-14.7188	-95.060134	0.000405	4.049156	1.371891	0.000162
1641	1.6318e+02	-14.6723	-95.261789	-0.000506	-5.061445	-1.714864	-0.000203
1642	1.6328e+02	-14.6402	-94.898810	0.000911	9.110601	3.086755	0.000365
1643	1.6338e+02	-14.6049	-94.697155	0.000506	5.061445	1.714864	0.000203
1644	1.6348e+02	-14.5584	-94.495500	0.000506	5.061445	1.714864	0.000203
1645	1.6358e+02	-14.5183	-94.334176	0.000405	4.049156	1.371891	0.000162
1646	1.6368e+02	-14.4750	-94.172852	0.000405	4.049156	1.371891	0.000162
1647	1.6378e+02	-14.4397	-94.172852	0.000000	0.000000	0.000000	0.000000
1648	1.6388e+02	-14.3996	-93.890535	0.000709	7.086023	2.400809	0.000284
1649	1.6398e+02	-14.3547	-93.971197	-0.000202	-2.024578	-0.685946	-0.000081
1650	1.6408e+02	-14.3130	-94.011528	-0.000101	-1.012289	-0.342973	-0.000041
1651	1.6418e+02	-14.2857	-93.890535	0.000304	3.036867	1.028918	0.000122
1652	1.6427e+02	-14.2344	-93.971197	-0.000202	-2.024578	-0.685946	-0.000081
1653	1.6437e+02	-14.2039	-93.487226	0.001215	12.147468	4.115673	0.000486
1654	1.6447e+02	-14.1686	-93.285571	0.000506	5.061445	1.714864	0.000203
1655	1.6457e+02	-14.1253	-93.285571	0.000000	0.000000	0.000000	0.000000
1656	1.6467e+02	-14.0804	-93.325902	-0.000101	-1.012289	-0.342973	-0.000041
1657	1.6477e+02	-14.0435	-92.761268	0.001417	14.172045	4.801619	0.000567
1658	1.6487e+02	-14.0017	-92.922592	-0.000405	-4.049156	-1.371891	-0.000162
1659	1.6497e+02	-13.9616	-93.164578	-0.000607	-6.073734	-2.057837	-0.000243
1660	1.6507e+02	-13.9199	-93.083916	0.000202	2.024578	0.685946	0.000081
1661	1.6517e+02	-13.8766	-92.398289	0.001721	17.208912	5.830537	0.000689
1662	1.6527e+02	-13.8429	-92.357958	0.000101	1.012289	0.342973	0.000041
1663	1.6537e+02	-13.8060	-92.438620	-0.000202	-2.024578	-0.685946	-0.000081
1664	1.6547e+02	-13.7611	-92.599944	-0.000405	-4.049156	-1.371891	-0.000162
1665	1.6557e+02	-13.7178	-92.317627	0.000709	7.086023	2.400809	0.000284
1666	1.6567e+02	-13.6793	-91.752993	0.001417	14.172045	4.801619	0.000567
1667	1.6577e+02	-13.6328	-92.115972	-0.000911	-9.110601	-3.086755	-0.000365
1668	1.6587e+02	-13.6023	-91.752993	0.000911	9.110601	3.086755	0.000365
1669	1.6597e+02	-13.5686	-91.591669	0.000405	4.049156	1.371891	0.000162
1670	1.6607e+02	-13.5205	-91.632000	-0.000101	-1.012289	-0.342973	-0.000041
1671	1.6616e+02	-13.4820	-91.591669	0.000101	1.012289	0.342973	0.000041
1672	1.6626e+02	-13.4499	-91.269021	0.000810	8.098312	2.743782	0.000324
1673	1.6636e+02	-13.4098	-91.430345	-0.000405	-4.049156	-1.371891	-0.000162
1674	1.6646e+02	-13.3584	-91.148028	0.000709	7.086023	2.400809	0.000284
1675	1.6656e+02	-13.3280	-91.188359	-0.000101	-1.012289	-0.342973	-0.000041
1676	1.6666e+02	-13.2830	-90.664057	0.001316	13.159756	4.458646	0.000527
1677	1.6676e+02	-13.2478	-91.027035	-0.000911	-9.110601	-3.086755	-0.000365
1678	1.6686e+02	-13.2028	-90.502733	0.001316	13.159756	4.458646	0.000527
1679	1.6696e+02	-13.1659	-90.623726	-0.000304	-3.036867	-1.028918	-0.000122
1680	1.6706e+02	-13.1290	-90.704388	-0.000202	-2.024578	-0.685946	-0.000081
1681	1.6716e+02	-13.0857	-89.897768	0.002025	20.245779	6.859456	0.000811
1682	1.6726e+02	-13.0392	-90.059092	-0.000405	-4.049156	-1.371891	-0.000162
1683	1.6736e+02	-13.0055	-90.260747	-0.000506	-5.061445	-1.714864	-0.000203
1684	1.6746e+02	-12.9574	-89.615451	0.001620	16.196623	5.487565	0.000649
1685	1.6756e+02	-12.9205	-89.978430	-0.000911	-9.110601	-3.086755	-0.000365
1686	1.6766e+02	-12.8740	-89.857437	0.000304	3.036867	1.028918	0.000122
1687	1.6776e+02	-12.8483	-89.615451	0.000607	6.073734	2.057837	0.000243
1688	1.6786e+02	-12.8130	-89.413796	0.000506	5.061445	1.714864	0.000203
1689	1.6796e+02	-12.7665	-89.736444	-0.000810	-8.098312	-2.743782	-0.000324
1690	1.6806e+02	-12.7280	-89.333134	0.001012	10.122890	3.429728	0.000405
1691	1.6816e+02	-12.6831	-89.171810	0.000405	4.049156	1.371891	0.000162
1692	1.6825e+02	-12.6510	-89.252472	-0.000202	-2.024578	-0.685946	-0.000081
1693	1.6835e+02	-12.6045	-89.333134	-0.000202	-2.024578	-0.685946	-0.000081
1694	1.6845e+02	-12.5676	-88.808831	0.001316	13.159756	4.458646	0.000527
1695	1.6855e+02	-12.5339	-88.808831	0.000000	0.000000	0.000000	0.000000
1696	1.6865e+02	-12.4873	-88.566845	0.000607	6.073734	2.057837	0.000243
1697	1.6875e+02	-12.4392	-88.445852	0.000304	3.036867	1.028918	0.000122
1698	1.6885e+02	-12.4023	-88.203866	0.000607	6.073734	2.057837	0.000243
1699	1.6895e+02	-12.3638	-88.324859	-0.000304	-3.036867	-1.028918	-0.000122
1700	1.6905e+02	-12.3333	-87.760226	0.001417	14.172045	4.801619	0.000567
1701	1.6915e+02	-12.3013	-88.042542	-0.000709	-7.086023	-2.400809	-0.000284
1702	1.6925e+02	-12.2467	-87.477909	0.001417	14.172045	4.801619	0.000567
1703	1.6935e+02	-12.2066	-87.961881	-0.001215	-12.147468	-4.115673	-0.000486
1704	1.6945e+02	-12.1649	-87.598902	0.000911	9.110601	3.086755	0.000365
1705	1.6955e+02	-12.1296	-87.800557	-0.000506	-5.061445	-1.714864	-0.000203
1706	1.6965e+02	-12.0943	-87.719895	0.000202	2.024578	0.685946	0.000081
1707	1.6975e+02	-12.0494	-87.518240	0.000506	5.061445	1.714864	0.000203
1708	1.6985e+02	-12.0061	-87.316585	0.000506	5.061445	1.714864	0.000203
1709	1.6995e+02	-11.9676	-87.034268	0.000709	7.086023	2.400809	0.000284
1710	1.7005e+02	-11.9259	-87.114930	-0.000202	-2.024578	-0.685946	-0.000081
1711	1.7015e+02	-11.8954	-86.751951	0.000911	9.110601	3.086755	0.000365
1712	1.7024e+02	-11.8569	-86.671289	0.000202	2.024578	0.685946	0.000081
1713	1.7034e+02	-11.8055	-86.308310	0.000911	9.110601	3.086755	0.000365
1714	1.7044e+02	-11.7767	-86.630958	-0.000810	-8.098312	-2.743782	-0.000324
1715	1.7054e+02	-11.7318	-86.469634	0.000405	4.049156	1.371891	0.000162
1716	1.7064e+02	-11.6949	-85.945331	0.001316	13.159756	4.458646	0.000527
1717	1.7074e+02	-11.6548	-86.066324	-0.000304	-3.036867	-1.028918	-0.000122
1718	1.7084e+02	-11.6130	-86.146986	-0.000202	-2.024578	-0.685946	-0.000081
1719	1.7094e+02	-11.5713	-85.864669	0.000709	7.086023	2.400809	0.000284
1720	1.7104e+02	-11.5425	-85.663014	0.000506	5.061445	1.714864	0.000203
1721	1.7114e+02	-11.4895	-85.300035	0.000911	9.110601	3.086755	0.000365
1722	1.7124e+02	-11.4526	-85.098381	0.000506	5.061445	1.714864	0.000203
1723	1.7134e+02	-11.4157	-85.259704	-0.000405	-4.049156	-1.371891	-0.000162
1724	1.7144e+02	-11.3644	-84.775733	0.001215	12.147468	4.115673	0.000486
1725	1.7154e+02	-11.3355	-84.937057	-0.000405	-4.049156	-1.371891	-0.000162
1726	1.7164e+02	-11.2938	-84.896726	0.000101	1.012289	0.342973	0.000041
1727	1.7174e+02	-11.2505	-84.533747	0.000911	9.110601	3.086755	0.000365
1728	1.7184e+02	-11.2152	-84.372423	0.000405	4.049156	1.371891	0.000162
1729	1.7194e+02	-11.1815	-84.574078	-0.000506	-5.061445	-1.714864	-0.000203
1730	1.7204e+02	-11.1286	-84.251430	0.000810	8.098312	2.743782	0.000324
1731	1.7213e+02	-11.0901	-84.453085	-0.000506	-5.061445	-1.714864	-0.000203
1732	1.7223e+02	-11.0596	-83.888451	0.001417	14.172045	4.801619	0.000567
1733	1.7233e+02	-11.0131	-84.009444	-0.000304	-3.036867	-1.028918	-0.000122
1734	1.7243e+02	-10.9681	-83.928782	0.000202	2.024578	0.685946	0.000081
1735	1.7253e+02	-10.9248	-83.767458	0.000405	4.049156	1.371891	0.000162
1736	1.7263e+02	-10.8976	-83.686796	0.000202	2.024578	0.685946	0.000081
1737	1.7273e+02	-10.8542	-83.323817	0.000911	9.110601	3.086755	0.000365
1738	1.7283e+02	-10.8157	-83.122162	0.000506	5.061445	1.714864	0.000203
1739	1.7293e+02	-10.7788	-83.323817	-0.000506	-5.061445	-1.714864	-0.000203
1740	1.7303e+02	-10.7339	-82.799514	0.001316	13.159756	4.458646	0.000527
1741	1.7313e+02	-10.6842	-83.041500	-0.000607	-6.073734	-2.057837	-0.000243
1742	1.7323e+02	-10.6521	-82.678521	0.000911	9.110601	3.086755	0.000365
1743	1.7333e+02	-10.6168	-82.920507	-0.000607	-6.073734	-2.057837	-0.000243
1744	1.7343e+02	-10.5735	-82.759183	0.000405	4.049156	1.371891	0.000162
1745	1.7353e+02	-10.5302	-82.436535	0.000810	8.098312	2.743782	0.000324
1746	1.7363e+02	-10.4981	-82.315542	0.000304	3.036867	1.028918	0.000122
1747	1.7373e+02	-10.4676	-81.912233	0.001012	10.122890	3.429728	0.000405
1748	1.7383e+02	-10.4195	-81.952564	-0.000101	-1.012289	-0.342973	-0.000041
1749	1.7393e+02	-10.3682	-82.436535	-0.001215	-12.147468	-4.115673	-0.000486
1750	1.7403e+02	-10.3473	-81.589585	0.002126	21.258068	7.202428	0.000851
1751	1.7413e+02	-10.3024	-81.670247	-0.000202	-2.024578	-0.685946	-0.000081
1752	1.7422e+02	-10.2623	-81.549254	0.000304	3.036867	1.028918	0.000122
1753	1.7432e+02	-10.2158	-81.468592	0.000202	2.024578	0.685946	0.000081
1754	1.7442e+02	-10.1805	-81.105613	0.000911	9.110601	3.086755	0.000365
1755	1.7452e+02	-10.1404	-81.468592	-0.000911	-9.110601	-3.086755	-0.000365
1756	1.7462e+02	-10.1067	-80.984620	0.001215	12.147468	4.115673	0.000486
1757	1.7472e+02	-10.0569	-80.903958	0.000202	2.024578	0.685946	0.000081
1758	1.7482e+02	-10.0184	-80.540979	0.000911	9.110601	3.086755	0.000365
1759	1.7492e+02	-9.9783	-80.419986	0.000304	3.036867	1.028918	0.000122
1760	1.7502e+02	-9.9366	-80.298993	0.000304	3.036867	1.028918	0.000122
1761	1.7512e+02	-9.9013	-80.178000	0.000304	3.036867	1.028918	0.000122
1762	1.7522e+02	-9.8548	-80.057007	0.000304	3.036867	1.028918	0.000122
1763	1.7532e+02	-9.8275	-79.936014	0.000304	3.036867	1.028918	0.000122
1764	1.7542e+02	-9.7794	-79.895683	0.000101	1.012289	0.342973	0.000041
1765	1.7552e+02	-9.7377	-79.815021	0.000202	2.024578	0.685946	0.000081
1766	1.7562e+02	-9.6944	-79.411711	0.001012	10.122890	3.429728	0.000405
1767	1.7572e+02	-9.6575	-79.532704	-0.000304	-3.036867	-1.028918	-0.000122
1768	1.7582e+02	-9.6110	-79.129395	0.001012	10.122890	3.429728	0.000405
1769	1.7592e+02	-9.5757	-79.331050	-0.000506	-5.061445	-1.714864	-0.000203
1770	1.7602e+02	-9.5436	-78.927740	0.001012	10.122890	3.429728	0.000405
1771	1.7612e+02	-9.5035	-78.726085	0.000506	5.061445	1.714864	0.000203
1772	1.7621e+02	-9.4618	-78.806747	-0.000202	-2.024578	-0.685946	-0.000081
1773	1.7631e+02	-9.4185	-78.403437	0.001012	10.122890	3.429728	0.000405
1774	1.7641e+02	-9.3719	-78.605092	-0.000506	-5.061445	-1.714864	-0.000203
1775	1.7651e+02	-9.3254	-78.685754	-0.000202	-2.024578	-0.685946	-0.000081
1776	1.7661e+02	-9.2949	-78.282444	0.001012	10.122890	3.429728	0.000405
1777	1.7671e+02	-9.2532	-77.879134	0.001012	10.122890	3.429728	0.000405
1778	1.7681e+02	-9.2211	-78.000127	-0.000304	-3.036867	-1.028918	-0.000122
1779	1.7691e+02	-9.1810	-77.838803	0.000405	4.049156	1.371891	0.000162
1780	1.7701e+02	-9.1409	-77.354831	0.001215	12.147468	4.115673	0.000486
1781	1.7711e+02	-9.1008	-77.516155	-0.000405	-4.049156	-1.371891	-0.000162
1782	1.7721e+02	-9.0559	-77.193507	0.000810	8.098312	2.743782	0.000324
1783	1.7731e+02	-9.0190	-76.870859	0.000810	8.098312	2.743782	0.000324
1784	1.7741e+02	-8.9741	-76.911190	-0.000101	-1.012289	-0.342973	-0.000041
1785	1.7751e+02	-8.9404	-76.749866	0.000405	4.049156	1.371891	0.000162
1786	1.7761e+02	-8.8971	-76.749866	0.000000	0.000000	0.000000	0.000000
1787	1.7771e+02	-8.8602	-76.548211	0.000506	5.061445	1.714864	0.000203
1788	1.7781e+02	-8.8201	-76.467549	0.000202	2.024578	0.685946	0.000081
1789	1.7791e+02	-8.7752	-76.346557	0.000304	3.036867	1.028918	0.000122
1790	1.7801e+02	-8.7367	-76.265895	0.000202	2.024578	0.685946	0.000081
1791	1.7810e+02	-8.7014	-75.943247	0.000810	8.098312	2.743782	0.000324
1792	1.7820e+02	-8.6645	-75.822254	0.000304	3.036867	1.028918	0.000122
1793	1.7830e+02	-8.6340	-75.741592	0.000202	2.024578	0.685946	0.000081
1794	1.7840e+02	-8.5826	-75.338282	0.001012	10.122890	3.429728	0.000405
1795	1.7850e+02	-8.5441	-75.418944	-0.000202	-2.024578	-0.685946	-0.000081
1796	1.7860e+02	-8.4960	-74.975303	0.001114	11.135179	3.772701	0.000446
1797	1.7870e+02	-8.4559	-74.934972	0.000101	1.012289	0.342973	0.000041
1798	1.7880e+02	-8.4238	-75.378613	-0.001114	-11.135179	-3.772701	-0.000446
1799	1.7890e+02	-8.3773	-75.015634	0.000911	9.110601	3.086755	0.000365
1800	1.7900e+02	-8.3484	-74.571993	0.001114	11.135179	3.772701	0.000446
1801	1.7910e+02	-8.3035	-74.128352	0.001114	11.135179	3.772701	0.000446
1802	1.7920e+02	-8.2554	-74.168683	-0.000101	-1.012289	-0.342973	-0.000041
1803	1.7930e+02	-8.2265	-73.886366	0.000709	7.086023	2.400809	0.000284
1804	1.7940e+02	-8.1928	-73.846035	0.000101	1.012289	0.342973	0.000041
1805	1.7950e+02	-8.1399	-73.846035	0.000000	0.000000	0.000000	0.000000
1806	1.7960e+02	-8.0998	-73.442726	0.001012	10.122890	3.429728	0.000405
1807	1.7970e+02	-8.0693	-73.604049	-0.000405	-4.049156	-1.371891	-0.000162
1808	1.7980e+02	-8.0180	-73.442726	0.000405	4.049156	1.371891	0.000162
1809	1.7990e+02	-7.9859	-73.281402	0.000405	4.049156	1.371891	0.000162
1810	1.8000e+02	-7.9426	-72.958754	0.000810	8.098312	2.743782	0.000324
1811	1.8009e+02	-7.9008	-73.079747	-0.000304	-3.036867	-1.028918	-0.000122
1812	1.8019e+02	-7.8656	-72.716768	0.000911	9.110601	3.086755	0.000365
1813	1.8029e+02	-7.8303	-72.474782	0.000607	6.073734	2.057837	0.000243
1814	1.8039e+02	-7.7773	-72.595775	-0.000304	-3.036867	-1.028918	-0.000122
1815	1.8049e+02	-7.7468	-72.273127	0.000810	8.098312	2.743782	0.000324
1816	1.8059e+02	-7.7051	-71.990810	0.000709	7.086023	2.400809	0.000284
1817	1.8069e+02	-7.6666	-71.627831	0.000911	9.110601	3.086755	0.000365
1818	1.8079e+02	-7.6169	-71.789155	-0.000405	-4.049156	-1.371891	-0.000162
1819	1.8089e+02	-7.5816	-71.547169	0.000607	6.073734	2.057837	0.000243
1820	1.8099e+02	-7.5495	-71.950479	-0.001012	-10.122890	-3.429728	-0.000405
1821	1.8109e+02	-7.5110	-71.426176	0.001316	13.159756	4.458646	0.000527
1822	1.8119e+02	-7.4693	-71.385845	0.000101	1.012289	0.342973	0.000041
1823	1.8129e+02	-7.4324	-71.224521	0.000405	4.049156	1.371891	0.000162
1824	1.8139e+02	-7.3859	-70.982535	0.000607	6.073734	2.057837	0.000243
1825	1.8149e+02	-7.3554	-70.982535	0.000000	0.000000	0.000000	0.000000
1826	1.8159e+02	-7.3057	-70.982535	0.000000	0.000000	0.000000	0.000000
1827	1.8169e+02	-7.2608	-70.700218	0.000709	7.086023	2.400809	0.000284
1828	1.8179e+02	-7.2303	-70.216247	0.001215	12.147468	4.115673	0.000486
1829	1.8189e+02	-7.1789	-70.256578	-0.000101	-1.012289	-0.342973	-0.000041
1830	1.8199e+02	-7.1356	-70.256578	0.000000	0.000000	0.000000	0.000000
1831	1.8209e+02	-7.1164	-69.853268	0.001012	10.122890	3.429728	0.000405
1832	1.8218e+02	-7.0634	-69.974261	-0.000304	-3.036867	-1.028918	-0.000122
1833	1.8228e+02	-7.0217	-69.570951	0.001012	10.122890	3.429728	0.000405
1834	1.8238e+02	-6.9832	-69.449958	0.000304	3.036867	1.028918	0.000122
1835	1.8248e+02	-6.9511	-69.248303	0.000506	5.061445	1.714864	0.000203
1836	1.8258e+02	-6.9030	-68.965986	0.000709	7.086023	2.400809	0.000284
1837	1.8268e+02	-6.8645	-68.844993	0.000304	3.036867	1.028918	0.000122
1838	1.8278e+02	-6.8292	-69.006317	-0.000405	-4.049156	-1.371891	-0.000162
1839	1.8288e+02	-6.7907	-68.643338	0.000911	9.110601	3.086755	0.000365
1840	1.8298e+02	-6.7458	-68.280359	0.000911	9.110601	3.086755	0.000365
1841	1.8308e+02	-6.7073	-68.441683	-0.000405	-4.049156	-1.371891	-0.000162
1842	1.8318e+02	-6.6688	-68.119035	0.000810	8.098312	2.743782	0.000324
1843	1.8328e+02	-6.6287	-67.998042	0.000304	3.036867	1.028918	0.000122
1844	1.8338e+02	-6.5934	-67.715726	0.000709	7.086023	2.400809	0.000284
1845	1.8348e+02	-6.5501	-67.635064	0.000202	2.024578	0.685946	0.000081
1846	1.8358e+02	-6.5132	-67.514071	0.000304	3.036867	1.028918	0.000122
1847	1.8368e+02	-6.4651	-67.070430	0.001114	11.135179	3.772701	0.000446
1848	1.8378e+02	-6.4394	-67.110761	-0.000101	-1.012289	-0.342973	-0.000041
1849	1.8388e+02	-6.3897	-66.868775	0.000607	6.073734	2.057837	0.000243
1850	1.8398e+02	-6.3544	-67.070430	-0.000506	-5.061445	-1.714864	-0.000203
1851	1.8407e+02	-6.3191	-66.828444	0.000607	6.073734	2.057837	0.000243
1852	1.8417e+02	-6.2806	-66.626789	0.000506	5.061445	1.714864	0.000203
1853	1.8427e+02	-6.2357	-66.263810	0.000911	9.110601	3.086755	0.000365
1854	1.8437e+02	-6.1907	-65.941162	0.000810	8.098312	2.743782	0.000324
1855	1.8447e+02	-6.1522	-65.981493	-0.000101	-1.012289	-0.342973	-0.000041
1856	1.8457e+02	-6.1121	-66.142817	-0.000405	-4.049156	-1.371891	-0.000162
1857	1.8467e+02	-6.0784	-65.900831	0.000607	6.073734	2.057837	0.000243
1858	1.8477e+02	-6.0319	-65.578183	0.000810	8.098312	2.743782	0.000324
1859	1.8487e+02	-5.9998	-65.497521	0.000202	2.024578	0.685946	0.000081
1860	1.8497e+02	-5.9533	-65.416859	0.000202	2.024578	0.685946	0.000081
1861	1.8507e+02	-5.9276	-64.892557	0.001316	13.159756	4.458646	0.000527
1862	1.8517e+02	-5.8699	-64.932887	-0.000101	-1.012289	-0.342973	-0.000041
1863	1.8527e+02	-5.8458	-64.771564	0.000405	4.049156	1.371891	0.000162
1864	1.8537e+02	-5.7945	-64.569909	0.000506	5.061445	1.714864	0.000203
1865	1.8547e+02	-5.7512	-64.247261	0.000810	8.098312	2.743782	0.000324
1866	1.8557e+02	-5.7079	-64.166599	0.000202	2.024578	0.685946	0.000081
1867	1.8567e+02	-5.6822	-64.206930	-0.000101	-1.012289	-0.342973	-0.000041
1868	1.8577e+02	-5.6276	-63.763289	0.001114	11.135179	3.772701	0.000446
1869	1.8587e+02	-5.6100	-63.521303	0.000607	6.073734	2.057837	0.000243
1870	1.8597e+02	-5.5555	-63.682627	-0.000405	-4.049156	-1.371891	-0.000162
1871	1.8606e+02	-5.5186	-63.158324	0.001316	13.159756	4.458646	0.000527
1872	1.8616e+02	-5.4817	-63.077662	0.000202	2.024578	0.685946	0.000081
1873	1.8626e+02	-5.4400	-63.158324	-0.000202	-2.024578	-0.685946	-0.000081
1874	1.8636e+02	-5.4047	-62.835676	0.000810	8.098312	2.743782	0.000324
1875	1.8646e+02	-5.3549	-62.714683	0.000304	3.036867	1.028918	0.000122
1876	1.8656e+02	-5.3164	-62.432366	0.000709	7.086023	2.400809	0.000284
1877	1.8666e+02	-5.2876	-62.392035	0.000101	1.012289	0.342973	0.000041
1878	1.8676e+02	-5.2298	-62.069387	0.000810	8.098312	2.743782	0.000324
1879	1.8686e+02	-5.1977	-62.351704	-0.000709	-7.086023	-2.400809	-0.000284
1880	1.8696e+02	-5.1512	-61.867733	0.001215	12.147468	4.115673	0.000486
1881	1.8706e+02	-5.1287	-61.464423	0.001012	10.122890	3.429728	0.000405
1882	1.8716e+02	-5.0742	-61.343430	0.000304	3.036867	1.028918	0.000122
1883	1.8726e+02	-5.0373	-61.504754	-0.000405	-4.049156	-1.371891	-0.000162
1884	1.8736e+02	-4.9924	-61.464423	0.000101	1.012289	0.342973	0.000041
1885	1.8746e+02	-4.9603	-61.101444	0.000911	9.110601	3.086755	0.000365
1886	1.8756e+02	-4.9202	-60.899789	0.000506	5.061445	1.714864	0.000203
1887	1.8766e+02	-4.8881	-60.456148	0.001114	11.135179	3.772701	0.000446
1888	1.8776e+02	-4.8512	-60.577141	-0.000304	-3.036867	-1.028918	-0.000122
1889	1.8786e+02	-4.7967	-60.173831	0.001012	10.122890	3.429728	0.000405
1890	1.8796e+02	-4.7630	-60.093169	0.000202	2.024578	0.685946	0.000081
1891	1.8806e+02	-4.7213	-60.052838	0.000101	1.012289	0.342973	0.000041
1892	1.8815e+02	-4.6731	-59.689859	0.000911	9.110601	3.086755	0.000365
1893	1.8825e+02	-4.6426	-59.972176	-0.000709	-7.086023	-2.400809	-0.000284
1894	1.8835e+02	-4.5977	-59.488204	0.001215	12.147468	4.115673	0.000486
1895	1.8845e+02	-4.5640	-59.528535	-0.000101	-1.012289	-0.342973	-0.000041
1896	1.8855e+02	-4.5223	-59.084895	0.001114	11.135179	3.772701	0.000446
1897	1.8865e+02	-4.4854	-58.963902	0.000304	3.036867	1.028918	0.000122
1898	1.8875e+02	-4.4485	-58.318606	0.001620	16.196623	5.487565	0.000649
1899	1.8885e+02	-4.4068	-58.883240	-0.001417	-14.172045	-4.801619	-0.000567
1900	1.8895e+02	-4.3571	-58.439599	0.001114	11.135179	3.772701	0.000446
1901	1.8905e+02	-4.3250	-58.237944	0.000506	5.061445	1.714864	0.000203
1902	1.8915e+02	-4.2817	-58.278275	-0.000101	-1.012289	-0.342973	-0.000041
1903	1.8925e+02	-4.2352	-57.794303	0.001215	12.147468	4.115673	0.000486
1904	1.8935e+02	-4.2015	-57.794303	0.000000	0.000000	0.000000	0.000000
1905	1.8945e+02	-4.1694	-57.874965	-0.000202	-2.024578	-0.685946	-0.000081
1906	1.8955e+02	-4.1133	-57.471655	0.001012	10.122890	3.429728	0.000405
1907	1.8965e+02	-4.0876	-57.108676	0.000911	9.110601	3.086755	0.000365
1908	1.8975e+02	-4.0443	-57.028014	0.000202	2.024578	0.685946	0.000081
1909	1.8985e+02	-4.0074	-56.745697	0.000709	7.086023	2.400809	0.000284
1910	1.8995e+02	-3.9657	-56.544042	0.000506	5.061445	1.714864	0.000203
1911	1.9004e+02	-3.9256	-56.463380	0.000202	2.024578	0.685946	0.000081
1912	1.9014e+02	-3.8790	-56.261726	0.000506	5.061445	1.714864	0.000203
1913	1.9024e+02	-3.8502	-55.939078	0.000810	8.098312	2.743782	0.000324
1914	1.9034e+02	-3.8020	-55.858416	0.000202	2.024578	0.685946	0.000081
1915	1.9044e+02	-3.7699	-55.777754	0.000202	2.024578	0.685946	0.000081
1916	1.9054e+02	-3.7218	-55.737423	0.000101	1.012289	0.342973	0.000041
1917	1.9064e+02	-3.6881	-55.293782	0.001114	11.135179	3.772701	0.000446
1918	1.9074e+02	-3.6416	-55.011465	0.000709	7.086023	2.400809	0.000284
1919	1.9084e+02	-3.6047	-54.971134	0.000101	1.012289	0.342973	0.000041
1920	1.9094e+02	-3.5630	-54.285507	0.001721	17.208912	5.830537	0.000689
1921	1.9104e+02	-3.5261	-54.567824	-0.000709	-7.086023	-2.400809	-0.000284
1922	1.9114e+02	-3.4796	-54.245176	0.000810	8.098312	2.743782	0.000324
1923	1.9124e+02	-3.4443	-54.043521	0.000506	5.061445	1.714864	0.000203
1924	1.9134e+02	-3.4010	-53.841866	0.000506	5.061445	1.714864	0.000203
1925	1.9144e+02	-3.3673	-53.922528	-0.000202	-2.024578	-0.685946	-0.000081
1926	1.9154e+02	-3.3208	-53.720873	0.000506	5.061445	1.714864	0.000203
1927	1.9164e+02	-3.2791	-53.478887	0.000607	6.073734	2.057837	0.000243
1928	1.9174e+02	-3.2406	-52.793261	0.001721	17.208912	5.830537	0.000689
1929	1.9184e+02	-3.2037	-53.075578	-0.000709	-7.086023	-2.400809	-0.000284
1930	1.9194e+02	-3.1555	-52.551275	0.001316	13.159756	4.458646	0.000527
1931	1.9203e+02	-3.1315	-52.309289	0.000607	6.073734	2.057837	0.000243
1932	1.9213e+02	-3.0898	-52.349620	-0.000101	-1.012289	-0.342973	-0.000041
1933	1.9223e+02	-3.0545	-51.986641	0.000911	9.110601	3.086755	0.000365
1934	1.9233e+02	-3.0111	-51.825317	0.000405	4.049156	1.371891	0.000162
1935	1.9243e+02	-2.9646	-51.986641	-0.000405	-4.049156	-1.371891	-0.000162
1936	1.9253e+02	-2.9213	-51.301014	0.001721	17.208912	5.830537	0.000689
1937	1.9263e+02	-2.8908	-51.502669	-0.000506	-5.061445	-1.714864	-0.000203
1938	1.9273e+02	-2.8459	-51.220352	0.000709	7.086023	2.400809	0.000284
1939	1.9283e+02	-2.8074	-50.817042	0.001012	10.122890	3.429728	0.000405
1940	1.9293e+02	-2.7705	-50.817042	0.000000	0.000000	0.000000	0.000000
1941	1.9303e+02	-2.7272	-50.696049	0.000304	3.036867	1.028918	0.000122
1942	1.9313e+02	-2.6823	-50.050754	0.001620	16.196623	5.487565	0.000649
1943	1.9323e+02	-2.6486	-50.131416	-0.000202	-2.024578	-0.685946	-0.000081
1944	1.9333e+02	-2.6085	-50.010423	0.000304	3.036867	1.028918	0.000122
1945	1.9343e+02	-2.5748	-49.647444	0.000911	9.110601	3.086755	0.000365
1946	1.9353e+02	-2.5299	-49.284465	0.000911	9.110601	3.086755	0.000365
1947	1.9363e+02	-2.4882	-49.324796	-0.000101	-1.012289	-0.342973	-0.000041
1948	1.9373e+02	-2.4561	-48.961817	0.000911	9.110601	3.086755	0.000365
1949	1.9383e+02	-2.4080	-48.961817	0.000000	0.000000	0.000000	0.000000
1950	1.9393e+02	-2.3711	-48.558507	0.001012	10.122890	3.429728	0.000405
1951	1.9403e+02	-2.3358	-48.477845	0.000202	2.024578	0.685946	0.000081
1952	1.9412e+02	-2.2908	-48.477845	0.000000	0.000000	0.000000	0.000000
1953	1.9422e+02	-2.2507	-47.630894	0.002126	21.258068	7.202428	0.000851
1954	1.9432e+02	-2.2074	-47.469571	0.000405	4.049156	1.371891	0.000162
1955	1.9442e+02	-2.1657	-47.227585	0.000607	6.073734	2.057837	0.000243
1956	1.9452e+02	-2.1288	-47.348578	-0.000304	-3.036867	-1.028918	-0.000122
1957	1.9462e+02	-2.0935	-46.824275	0.001316	13.159756	4.458646	0.000527
1958	1.9472e+02	-2.0454	-46.783944	0.000101	1.012289	0.342973	0.000041
1959	1.9482e+02	-2.0053	-46.824275	-0.000101	-1.012289	-0.342973	-0.000041
1960	1.9492e+02	-1.9620	-46.340303	0.001215	12.147468	4.115673	0.000486
1961	1.9502e+02	-1.9267	-46.541958	-0.000506	-5.061445	-1.714864	-0.000203
1962	1.9512e+02	-1.8946	-46.098317	0.001114	11.135179	3.772701	0.000446
1963	1.9522e+02	-1.8545	-45.977324	0.000304	3.036867	1.028918	0.000122
1964	1.9532e+02	-1.8064	-45.735338	0.000607	6.073734	2.057837	0.000243
1965	1.9542e+02	-1.7663	-45.211035	0.001316	13.159756	4.458646	0.000527
1966	1.9552e+02	-1.7310	-44.807725	0.001012	10.122890	3.429728	0.000405
1967	1.9562e+02	-1.6909	-45.090042	-0.000709	-7.086023	-2.400809	-0.000284
1968	1.9572e+02	-1.6492	-44.444747	0.001620	16.196623	5.487565	0.000649
1969	1.9582e+02	-1.6203	-44.444747	0.000000	0.000000	0.000000	0.000000
1970	1.9592e+02	-1.5721	-44.122099	0.000810	8.098312	2.743782	0.000324
1971	1.9601e+02	-1.5336	-44.001106	0.000304	3.036867	1.028918	0.000122
1972	1.9611e+02	-1.4919	-43.718789	0.000709	7.086023	2.400809	0.000284
1973	1.9621e+02	-1.4599	-43.759120	-0.000101	-1.012289	-0.342973	-0.000041
1974	1.9631e+02	-1.4085	-43.154155	0.001518	15.184334	5.144592	0.000608
1975	1.9641e+02	-1.3668	-43.073493	0.000202	2.024578	0.685946	0.000081
1976	1.9651e+02	-1.3363	-42.629852	0.001114	11.135179	3.772701	0.000446
1977	1.9661e+02	-1.2962	-42.670183	-0.000101	-1.012289	-0.342973	-0.000041
1978	1.9671e+02	-1.2497	-42.629852	0.000101	1.012289	0.342973	0.000041
1979	1.9681e+02	-1.2080	-42.307204	0.000810	8.098312	2.743782	0.000324
1980	1.9691e+02	-1.1743	-41.540916	0.001923	19.233490	6.516483	0.000770
1981	1.9701e+02	-1.1294	-41.661909	-0.000304	-3.036867	-1.028918	-0.000122
1982	1.9711e+02	-1.1005	-41.460254	0.000506	5.061445	1.714864	0.000203
1983	1.9721e+02	-1.0620	-41.339261	0.000304	3.036867	1.028918	0.000122
1984	1.9731e+02	-1.0075	-41.298930	0.000101	1.012289	0.342973	0.000041
1985	1.9741e+02	-0.9786	-40.693965	0.001518	15.184334	5.144592	0.000608
1986	1.9751e+02	-0.9305	-40.492310	0.000506	5.061445	1.714864	0.000203
1987	1.9761e+02	-0.8968	-40.129331	0.000911	9.110601	3.086755	0.000365
1988	1.9771e+02	-0.8583	-39.806683	0.000810	8.098312	2.743782	0.000324
1989	1.9781e+02	-0.8182	-39.564697	0.000607	6.073734	2.057837	0.000243
1990	1.9791e+02	-0.7764	-39.242049	0.000810	8.098312	2.743782	0.000324
1991	1.9800e+02	-0.7283	-38.879071	0.000911	9.110601	3.086755	0.000365
1992	1.9810e+02	-0.6930	-38.959732	-0.000202	-2.024578	-0.685946	-0.000081
1993	1.9820e+02	-0.6497	-38.596754	0.000911	9.110601	3.086755	0.000365
1994	1.9830e+02	-0.6144	-38.556423	0.000101	1.012289	0.342973	0.000041
1995	1.9840e+02	-0.5679	-37.991789	0.001417	14.172045	4.801619	0.000567
1996	1.9850e+02	-0.5374	-38.112782	-0.000304	-3.036867	-1.028918	-0.000122
1997	1.9860e+02	-0.5037	-37.951458	0.000405	4.049156	1.371891	0.000162
1998	1.9870e+02	-0.4572	-37.386824	0.001417	14.172045	4.801619	0.000567
1999	1.9880e+02	-0.4219	-37.225500	0.000405	4.049156	1.371891	0.000162
2000	1.9890e+02	-0.3738	-36.781859	0.001114	11.135179	3.772701	0.000446
2001	1.9900e+02	-0.3337	-36.660866	0.000304	3.036867	1.028918	0.000122
2002	1.9910e+02	-0.2936	-36.822190	-0.000405	-4.049156	-1.371891	-0.000162
2003	1.9920e+02	-0.2519	-36.338218	0.001215	12.147468	4.115673	0.000486
2004	1.9930e+02	-0.2182	-35.692923	0.001620	16.196623	5.487565	0.000649
2005	1.9940e+02	-0.1781	-35.652592	0.000101	1.012289	0.342973	0.000041
2006	1.9950e+02	-0.1332	-35.128289	0.001316	13.159756	4.458646	0.000527
2007	1.9960e+02	-0.0914	-35.289613	-0.000405	-4.049156	-1.371891	-0.000162
2008	1.9970e+02	-0.0561	-34.845972	0.001114	11.135179	3.772701	0.000446
2009	1.9980e+02	-0.0128	-35.007296	0.001114	11.135179	3.772701	-0.000162

Center data before PMax,+/-Pr and +/-Vc Calc.

PMax (uC/cm2):	1.04e+02
Pr (uC/cm2):	2.82e+01
-Pr (uC/cm2):	-3.50e+01
PLoss (uC/cm2):	-5.09e+01
-Vc:	-4.77e+00
C (Max-Eff) (nF):	5.18e-01
K (Eff):	1.76e+03
Vert. (+/-Pr) Shift (uC/cm2):	-3.38e+00
Offset (uC/cm2):	-1.61e+01

A (Loop Area - uC/cm2·Volts):	3.24e-01



Hysteresis Version: 5.48.1 - Radiant Technologies, Inc., 1999 - 9/12/24

