»»»»»»»»»»»»»»»»»»»»»»»»»»»»»»»»»»»» Hysteresis ««««««««««««««««««««««««««««««««««««
»»»  Executed Version:	5.48.1
»»»  Vision Version:	5.48.4 (R)
»»»  Vision Compiled:	9/18/24
»»»  Driver Version:	5.47.0
»»»  Windows Version:	Windows 8 or 8.1
»»»  Processor Information:	x86 (AMD or Intel) - 32 Processors
»»»  Tester Name:	PMF21124-494 (100V)
»»»  Tester S/N:	PMF21124-494
»»»  Internal Amp Type:	100V RevK 270k
»»»  Internal Amp S/N:	iAB2-596/K     
»»»  Execution Count:	1
»»»»»»»»»»»»»»»»»»»»»»»»»»»»»»»»»»»»»»»»»»««««««««««««««««««««««««««««««««««««««««««

Stored:	6/27/2025 - 11:18:14
Configured:	06/27/25 10:20:27 AM
Executed:	06/27/25 11:17:43 AM

»»»»»»»»»»»»»»»»»»»»»»»»»»»»»»»»»»» Sample Info ««««««««««««««««««««««««««««««««««««
Sample Name:	
Lot Name:	
Wafer Name:	
Die Row/Column:	0/0
Capacitor Number:	0
Sample Area (cm2):	1.00e-04
Sample Thickness (microns):	1.50e-01

Amplifier:	Internal

»»»»»»»»»»»»»»»»»»»»»»»»»»»»»»»»»»» Tester Info «««««««««««««««««««««««««««««««««««
Tester Name:	PMF21124-494 (100V)
Tester Serial Number:	PMF21124-494
Return Signal Amp. Level:	1.9 [Index: 2]

»»»»»»»»»»»»»»»»»»»»»»»»»»»»»»»» Hysteresis Info ««««««««««««««««««««««««««««««««««
Task Name:	Hyst-1242
Volts:	10.00
Field:	666.67 (kV/cm)
DCBias:	0.00
DCField:	0.00 (kV/cm)
Hysteresis Period (ms):	2.00e+02
Preset:	Enabled
Preset Delay (ms):	1.00e+03
Profile:	Standard Monopolar

»»»»»»»»»»»»»»»»»»»»»»»»»»»»»»»»»»»»»» Data «««««««««««««««««««««««««««««««««««««««
Points:	2011

Valid Data

Point	Time (ms)	Drive Voltage	Measured Polarization (uC/cm2)	Capacitance (uF)	Normalized Capacitance (uF/cm2)	Dielectric Constant	Instantaneous Current (mA)
   1	0.0000e+00	-0.0034	-10.710869	0.000274	2.742475	0.464588	0.000027
   2	9.9500e-02	0.0072	-10.683577	0.000274	2.742475	0.464588	0.000027
   3	1.9900e-01	0.0152	-10.659136	0.000246	2.455948	0.416049	0.000025
   4	2.9850e-01	0.0268	-10.633474	0.000258	2.578745	0.436851	0.000026
   5	3.9800e-01	0.0366	-10.608626	0.000250	2.496880	0.422983	0.000025
   6	4.9750e-01	0.0439	-10.576853	0.000319	3.192732	0.540863	0.000032
   7	5.9700e-01	0.0566	-10.552412	0.000246	2.455948	0.416049	0.000025
   8	6.9650e-01	0.0648	-10.521862	0.000307	3.069935	0.520061	0.000031
   9	7.9600e-01	0.0747	-10.494570	0.000274	2.742475	0.464588	0.000027
  10	8.9550e-01	0.0850	-10.461575	0.000332	3.315529	0.561666	0.000033
  11	9.9500e-01	0.0964	-10.433061	0.000287	2.865272	0.485390	0.000029
  12	1.0945e+00	0.1044	-10.408213	0.000250	2.496880	0.422983	0.000025
  13	1.1940e+00	0.1109	-10.379292	0.000291	2.906205	0.492324	0.000029
  14	1.2935e+00	0.1241	-10.344668	0.000348	3.479259	0.589402	0.000035
  15	1.3930e+00	0.1366	-10.319413	0.000254	2.537813	0.429917	0.000025
  16	1.4925e+00	0.1469	-10.288047	0.000315	3.151800	0.533929	0.000032
  17	1.5920e+00	0.1553	-10.259126	0.000291	2.906205	0.492324	0.000029
  18	1.6915e+00	0.1658	-10.224094	0.000352	3.520192	0.596337	0.000035
  19	1.7910e+00	0.1764	-10.195173	0.000291	2.906205	0.492324	0.000029
  20	1.8905e+00	0.1837	-10.160956	0.000344	3.438327	0.582468	0.000034
  21	1.9900e+00	0.1961	-10.137738	0.000233	2.333150	0.395246	0.000023
  22	2.0895e+00	0.2049	-10.105150	0.000327	3.274597	0.554732	0.000033
  23	2.1890e+00	0.2123	-10.072156	0.000332	3.315529	0.561666	0.000033
  24	2.2885e+00	0.2256	-10.042420	0.000299	2.988070	0.506193	0.000030
  25	2.3880e+00	0.2350	-10.014720	0.000278	2.783407	0.471522	0.000028
  26	2.4875e+00	0.2446	-9.983762	0.000311	3.110867	0.526995	0.000031
  27	2.5870e+00	0.2528	-9.958100	0.000258	2.578745	0.436851	0.000026
  28	2.6865e+00	0.2625	-9.929178	0.000291	2.906205	0.492324	0.000029
  29	2.7860e+00	0.2744	-9.902701	0.000266	2.660610	0.450720	0.000027
  30	2.8855e+00	0.2834	-9.873372	0.000295	2.947137	0.499259	0.000029
  31	2.9850e+00	0.2949	-9.846488	0.000270	2.701542	0.457654	0.000027
  32	3.0845e+00	0.3051	-9.820418	0.000262	2.619678	0.443785	0.000026
  33	3.1840e+00	0.3133	-9.790682	0.000299	2.988070	0.506193	0.000030
  34	3.2835e+00	0.3224	-9.767056	0.000237	2.374083	0.402181	0.000024
  35	3.3830e+00	0.3336	-9.739764	0.000274	2.742475	0.464588	0.000027
  36	3.4825e+00	0.3448	-9.713694	0.000262	2.619678	0.443785	0.000026
  37	3.5820e+00	0.3529	-9.689254	0.000246	2.455948	0.416049	0.000025
  38	3.6815e+00	0.3672	-9.662776	0.000266	2.660610	0.450720	0.000027
  39	3.7810e+00	0.3739	-9.639150	0.000237	2.374083	0.402181	0.000024
  40	3.8805e+00	0.3833	-9.613488	0.000258	2.578745	0.436851	0.000026
  41	3.9800e+00	0.3959	-9.582937	0.000307	3.069935	0.520061	0.000031
  42	4.0795e+00	0.4041	-9.561348	0.000217	2.169420	0.367510	0.000022
  43	4.1790e+00	0.4111	-9.536500	0.000250	2.496880	0.422983	0.000025
  44	4.2785e+00	0.4268	-9.511245	0.000254	2.537813	0.429917	0.000025
  45	4.3780e+00	0.4353	-9.488434	0.000229	2.292218	0.388312	0.000023
  46	4.4775e+00	0.4433	-9.461142	0.000274	2.742475	0.464588	0.000027
  47	4.5770e+00	0.4540	-9.435479	0.000258	2.578745	0.436851	0.000026
  48	4.6765e+00	0.4646	-9.411446	0.000242	2.415015	0.409115	0.000024
  49	4.7760e+00	0.4736	-9.386191	0.000254	2.537813	0.429917	0.000025
  50	4.8755e+00	0.4820	-9.362158	0.000242	2.415015	0.409115	0.000024
  51	4.9750e+00	0.4944	-9.334866	0.000274	2.742475	0.464588	0.000027
  52	5.0745e+00	0.5031	-9.314906	0.000201	2.005691	0.339773	0.000020
  53	5.1740e+00	0.5151	-9.288836	0.000262	2.619678	0.443785	0.000026
  54	5.2735e+00	0.5221	-9.262766	0.000262	2.619678	0.443785	0.000026
  55	5.3730e+00	0.5315	-9.238733	0.000242	2.415015	0.409115	0.000024
  56	5.4725e+00	0.5436	-9.215107	0.000237	2.374083	0.402181	0.000024
  57	5.5720e+00	0.5547	-9.191888	0.000233	2.333150	0.395246	0.000023
  58	5.6715e+00	0.5644	-9.169485	0.000225	2.251285	0.381378	0.000023
  59	5.7710e+00	0.5730	-9.144229	0.000254	2.537813	0.429917	0.000025
  60	5.8705e+00	0.5833	-9.117752	0.000266	2.660610	0.450720	0.000027
  61	5.9700e+00	0.5941	-9.094126	0.000237	2.374083	0.402181	0.000024
  62	6.0695e+00	0.6031	-9.074574	0.000196	1.964758	0.332839	0.000020
  63	6.1690e+00	0.6116	-9.053392	0.000213	2.128488	0.360576	0.000021
  64	6.2685e+00	0.6213	-9.030988	0.000225	2.251285	0.381378	0.000023
  65	6.3680e+00	0.6304	-9.000437	0.000307	3.069935	0.520061	0.000031
  66	6.4675e+00	0.6440	-8.981292	0.000192	1.923826	0.325905	0.000019
  67	6.5670e+00	0.6513	-8.957259	0.000242	2.415015	0.409115	0.000024
  68	6.6665e+00	0.6630	-8.935263	0.000221	2.210353	0.374444	0.000022
  69	6.7660e+00	0.6727	-8.910007	0.000254	2.537813	0.429917	0.000025
  70	6.8655e+00	0.6824	-8.890048	0.000201	2.005691	0.339773	0.000020
  71	6.9650e+00	0.6918	-8.862348	0.000278	2.783407	0.471522	0.000028
  72	7.0645e+00	0.7008	-8.842388	0.000201	2.005691	0.339773	0.000020
  73	7.1640e+00	0.7130	-8.817541	0.000250	2.496880	0.422983	0.000025
  74	7.2635e+00	0.7225	-8.799617	0.000180	1.801028	0.305102	0.000018
  75	7.3630e+00	0.7343	-8.777214	0.000225	2.251285	0.381378	0.000023
  76	7.4625e+00	0.7426	-8.750736	0.000266	2.660610	0.450720	0.000027
  77	7.5620e+00	0.7514	-8.727110	0.000237	2.374083	0.402181	0.000024
  78	7.6615e+00	0.7625	-8.705929	0.000213	2.128488	0.360576	0.000021
  79	7.7610e+00	0.7718	-8.679859	0.000262	2.619678	0.443785	0.000026
  80	7.8605e+00	0.7845	-8.654196	0.000258	2.578745	0.436851	0.000026
  81	7.9600e+00	0.7948	-8.635051	0.000192	1.923826	0.325905	0.000019
  82	8.0595e+00	0.8028	-8.610611	0.000246	2.455948	0.416049	0.000025
  83	8.1590e+00	0.8121	-8.589429	0.000213	2.128488	0.360576	0.000021
  84	8.2585e+00	0.8228	-8.566618	0.000229	2.292218	0.388312	0.000023
  85	8.3580e+00	0.8329	-8.542177	0.000246	2.455948	0.416049	0.000025
  86	8.4575e+00	0.8432	-8.523032	0.000192	1.923826	0.325905	0.000019
  87	8.5570e+00	0.8521	-8.496962	0.000262	2.619678	0.443785	0.000026
  88	8.6565e+00	0.8598	-8.480261	0.000168	1.678231	0.284300	0.000017
  89	8.7560e+00	0.8716	-8.452969	0.000274	2.742475	0.464588	0.000027
  90	8.8555e+00	0.8811	-8.429343	0.000237	2.374083	0.402181	0.000024
  91	8.9550e+00	0.8909	-8.410198	0.000192	1.923826	0.325905	0.000019
  92	9.0545e+00	0.8979	-8.391868	0.000184	1.841961	0.312037	0.000018
  93	9.1540e+00	0.9113	-8.367427	0.000246	2.455948	0.416049	0.000025
  94	9.2535e+00	0.9217	-8.351133	0.000164	1.637298	0.277366	0.000016
  95	9.3530e+00	0.9323	-8.328322	0.000229	2.292218	0.388312	0.000023
  96	9.4525e+00	0.9412	-8.308770	0.000196	1.964758	0.332839	0.000020
  97	9.5520e+00	0.9513	-8.285144	0.000237	2.374083	0.402181	0.000024
  98	9.6515e+00	0.9620	-8.270072	0.000151	1.514501	0.256563	0.000015
  99	9.7510e+00	0.9709	-8.254593	0.000156	1.555434	0.263498	0.000016
 100	9.8505e+00	0.9792	-8.232597	0.000221	2.210353	0.374444	0.000022
 101	9.9500e+00	0.9930	-8.214266	0.000184	1.841961	0.312037	0.000018
 102	1.0050e+01	0.9971	-8.197565	0.000168	1.678231	0.284300	0.000017
 103	1.0149e+01	1.0092	-8.176383	0.000213	2.128488	0.360576	0.000021
 104	1.0248e+01	1.0199	-8.159275	0.000172	1.719163	0.291234	0.000017
 105	1.0348e+01	1.0300	-8.136464	0.000229	2.292218	0.388312	0.000023
 106	1.0447e+01	1.0425	-8.115689	0.000209	2.087556	0.353641	0.000021
 107	1.0547e+01	1.0503	-8.095730	0.000201	2.005691	0.339773	0.000020
 108	1.0646e+01	1.0616	-8.082287	0.000135	1.350771	0.228827	0.000014
 109	1.0746e+01	1.0708	-8.061513	0.000209	2.087556	0.353641	0.000021
 110	1.0845e+01	1.0817	-8.039109	0.000225	2.251285	0.381378	0.000023
 111	1.0945e+01	1.0899	-8.019964	0.000192	1.923826	0.325905	0.000019
 112	1.1044e+01	1.1012	-7.995931	0.000242	2.415015	0.409115	0.000024
 113	1.1144e+01	1.1154	-7.975156	0.000209	2.087556	0.353641	0.000021
 114	1.1243e+01	1.1219	-7.955604	0.000196	1.964758	0.332839	0.000020
 115	1.1343e+01	1.1314	-7.931163	0.000246	2.455948	0.416049	0.000025
 116	1.1443e+01	1.1417	-7.908759	0.000225	2.251285	0.381378	0.000023
 117	1.1542e+01	1.1491	-7.881467	0.000274	2.742475	0.464588	0.000027
 118	1.1642e+01	1.1616	-7.860286	0.000213	2.128488	0.360576	0.000021
 119	1.1741e+01	1.1694	-7.845621	0.000147	1.473569	0.249629	0.000015
 120	1.1841e+01	1.1794	-7.815071	0.000307	3.069935	0.520061	0.000031
 121	1.1940e+01	1.1921	-7.791852	0.000233	2.333150	0.395246	0.000023
 122	1.2040e+01	1.1991	-7.768633	0.000233	2.333150	0.395246	0.000023
 123	1.2139e+01	1.2070	-7.746230	0.000225	2.251285	0.381378	0.000023
 124	1.2239e+01	1.2207	-7.719345	0.000270	2.701542	0.457654	0.000027
 125	1.2338e+01	1.2302	-7.695719	0.000237	2.374083	0.402181	0.000024
 126	1.2438e+01	1.2395	-7.672908	0.000229	2.292218	0.388312	0.000023
 127	1.2537e+01	1.2500	-7.650504	0.000225	2.251285	0.381378	0.000023
 128	1.2636e+01	1.2593	-7.627693	0.000229	2.292218	0.388312	0.000023
 129	1.2736e+01	1.2714	-7.603252	0.000246	2.455948	0.416049	0.000025
 130	1.2835e+01	1.2798	-7.576775	0.000266	2.660610	0.450720	0.000027
 131	1.2935e+01	1.2887	-7.555186	0.000217	2.169420	0.367510	0.000022
 132	1.3034e+01	1.2976	-7.531153	0.000242	2.415015	0.409115	0.000024
 133	1.3134e+01	1.3107	-7.507934	0.000233	2.333150	0.395246	0.000023
 134	1.3233e+01	1.3165	-7.483494	0.000246	2.455948	0.416049	0.000025
 135	1.3333e+01	1.3285	-7.458238	0.000254	2.537813	0.429917	0.000025
 136	1.3432e+01	1.3396	-7.431354	0.000270	2.701542	0.457654	0.000027
 137	1.3532e+01	1.3499	-7.407728	0.000237	2.374083	0.402181	0.000024
 138	1.3632e+01	1.3583	-7.382880	0.000250	2.496880	0.422983	0.000025
 139	1.3731e+01	1.3673	-7.361291	0.000217	2.169420	0.367510	0.000022
 140	1.3831e+01	1.3808	-7.332777	0.000287	2.865272	0.485390	0.000029
 141	1.3930e+01	1.3895	-7.306707	0.000262	2.619678	0.443785	0.000026
 142	1.4030e+01	1.3970	-7.284711	0.000221	2.210353	0.374444	0.000022
 143	1.4129e+01	1.4082	-7.257011	0.000278	2.783407	0.471522	0.000028
 144	1.4229e+01	1.4182	-7.234200	0.000229	2.292218	0.388312	0.000023
 145	1.4328e+01	1.4265	-7.209352	0.000250	2.496880	0.422983	0.000025
 146	1.4428e+01	1.4367	-7.185319	0.000242	2.415015	0.409115	0.000024
 147	1.4527e+01	1.4481	-7.159249	0.000262	2.619678	0.443785	0.000026
 148	1.4627e+01	1.4579	-7.133994	0.000254	2.537813	0.429917	0.000025
 149	1.4726e+01	1.4669	-7.107517	0.000266	2.660610	0.450720	0.000027
 150	1.4825e+01	1.4773	-7.077373	0.000303	3.029002	0.513127	0.000030
 151	1.4925e+01	1.4869	-7.054155	0.000233	2.333150	0.395246	0.000023
 152	1.5024e+01	1.4976	-7.030121	0.000242	2.415015	0.409115	0.000024
 153	1.5124e+01	1.5065	-7.003237	0.000270	2.701542	0.457654	0.000027
 154	1.5223e+01	1.5170	-6.975130	0.000282	2.824340	0.478456	0.000028
 155	1.5323e+01	1.5301	-6.950282	0.000250	2.496880	0.422983	0.000025
 156	1.5422e+01	1.5365	-6.931952	0.000184	1.841961	0.312037	0.000018
 157	1.5522e+01	1.5485	-6.899772	0.000323	3.233664	0.547798	0.000032
 158	1.5621e+01	1.5582	-6.873295	0.000266	2.660610	0.450720	0.000027
 159	1.5721e+01	1.5676	-6.850891	0.000225	2.251285	0.381378	0.000023
 160	1.5820e+01	1.5762	-6.824413	0.000266	2.660610	0.450720	0.000027
 161	1.5920e+01	1.5859	-6.799973	0.000246	2.455948	0.416049	0.000025
 162	1.6020e+01	1.5971	-6.773903	0.000262	2.619678	0.443785	0.000026
 163	1.6119e+01	1.6062	-6.747018	0.000270	2.701542	0.457654	0.000027
 164	1.6218e+01	1.6161	-6.724615	0.000225	2.251285	0.381378	0.000023
 165	1.6318e+01	1.6273	-6.698137	0.000266	2.660610	0.450720	0.000027
 166	1.6418e+01	1.6366	-6.670031	0.000282	2.824340	0.478456	0.000028
 167	1.6517e+01	1.6463	-6.645590	0.000246	2.455948	0.416049	0.000025
 168	1.6616e+01	1.6594	-6.621964	0.000237	2.374083	0.402181	0.000024
 169	1.6716e+01	1.6679	-6.594672	0.000274	2.742475	0.464588	0.000027
 170	1.6816e+01	1.6763	-6.570232	0.000246	2.455948	0.416049	0.000025
 171	1.6915e+01	1.6885	-6.538866	0.000315	3.151800	0.533929	0.000032
 172	1.7015e+01	1.7004	-6.517684	0.000213	2.128488	0.360576	0.000021
 173	1.7114e+01	1.7087	-6.488356	0.000295	2.947137	0.499259	0.000029
 174	1.7213e+01	1.7181	-6.462693	0.000258	2.578745	0.436851	0.000026
 175	1.7313e+01	1.7285	-6.436623	0.000262	2.619678	0.443785	0.000026
 176	1.7413e+01	1.7362	-6.406073	0.000307	3.069935	0.520061	0.000031
 177	1.7512e+01	1.7461	-6.379595	0.000266	2.660610	0.450720	0.000027
 178	1.7611e+01	1.7579	-6.354747	0.000250	2.496880	0.422983	0.000025
 179	1.7711e+01	1.7628	-6.322975	0.000319	3.192732	0.540863	0.000032
 180	1.7811e+01	1.7817	-6.296090	0.000270	2.701542	0.457654	0.000027
 181	1.7910e+01	1.7886	-6.270428	0.000258	2.578745	0.436851	0.000026
 182	1.8009e+01	1.7948	-6.237433	0.000332	3.315529	0.561666	0.000033
 183	1.8109e+01	1.8073	-6.210548	0.000270	2.701542	0.457654	0.000027
 184	1.8209e+01	1.8157	-6.179590	0.000311	3.110867	0.526995	0.000031
 185	1.8308e+01	1.8279	-6.149447	0.000303	3.029002	0.513127	0.000030
 186	1.8407e+01	1.8377	-6.122155	0.000274	2.742475	0.464588	0.000027
 187	1.8507e+01	1.8445	-6.093641	0.000287	2.865272	0.485390	0.000029
 188	1.8607e+01	1.8568	-6.061461	0.000323	3.233664	0.547798	0.000032
 189	1.8706e+01	1.8653	-6.036613	0.000250	2.496880	0.422983	0.000025
 190	1.8805e+01	1.8764	-6.007284	0.000295	2.947137	0.499259	0.000029
 191	1.8905e+01	1.8871	-5.980807	0.000266	2.660610	0.450720	0.000027
 192	1.9005e+01	1.8960	-5.951886	0.000291	2.906205	0.492324	0.000029
 193	1.9104e+01	1.9064	-5.921742	0.000303	3.029002	0.513127	0.000030
 194	1.9203e+01	1.9157	-5.894450	0.000274	2.742475	0.464588	0.000027
 195	1.9303e+01	1.9254	-5.869195	0.000254	2.537813	0.429917	0.000025
 196	1.9402e+01	1.9377	-5.841903	0.000274	2.742475	0.464588	0.000027
 197	1.9502e+01	1.9423	-5.814611	0.000274	2.742475	0.464588	0.000027
 198	1.9602e+01	1.9546	-5.790578	0.000242	2.415015	0.409115	0.000024
 199	1.9701e+01	1.9655	-5.762471	0.000282	2.824340	0.478456	0.000028
 200	1.9800e+01	1.9799	-5.739660	0.000229	2.292218	0.388312	0.000023
 201	1.9900e+01	1.9854	-5.712776	0.000270	2.701542	0.457654	0.000027
 202	2.0000e+01	1.9954	-5.688742	0.000242	2.415015	0.409115	0.000024
 203	2.0099e+01	2.0078	-5.666746	0.000221	2.210353	0.374444	0.000022
 204	2.0198e+01	2.0128	-5.637825	0.000291	2.906205	0.492324	0.000029
 205	2.0298e+01	2.0245	-5.615013	0.000229	2.292218	0.388312	0.000023
 206	2.0398e+01	2.0347	-5.590980	0.000242	2.415015	0.409115	0.000024
 207	2.0497e+01	2.0445	-5.567354	0.000237	2.374083	0.402181	0.000024
 208	2.0596e+01	2.0584	-5.543321	0.000242	2.415015	0.409115	0.000024
 209	2.0696e+01	2.0650	-5.524583	0.000188	1.882893	0.318971	0.000019
 210	2.0796e+01	2.0750	-5.491589	0.000332	3.315529	0.561666	0.000033
 211	2.0895e+01	2.0880	-5.473258	0.000184	1.841961	0.312037	0.000018
 212	2.0994e+01	2.0955	-5.450040	0.000233	2.333150	0.395246	0.000023
 213	2.1094e+01	2.1043	-5.428858	0.000213	2.128488	0.360576	0.000021
 214	2.1194e+01	2.1154	-5.406047	0.000229	2.292218	0.388312	0.000023
 215	2.1293e+01	2.1236	-5.377125	0.000291	2.906205	0.492324	0.000029
 216	2.1392e+01	2.1375	-5.359610	0.000176	1.760096	0.298168	0.000018
 217	2.1492e+01	2.1447	-5.334354	0.000254	2.537813	0.429917	0.000025
 218	2.1591e+01	2.1545	-5.313987	0.000205	2.046623	0.346707	0.000020
 219	2.1691e+01	2.1653	-5.289547	0.000246	2.455948	0.416049	0.000025
 220	2.1791e+01	2.1764	-5.263884	0.000258	2.578745	0.436851	0.000026
 221	2.1890e+01	2.1843	-5.241480	0.000225	2.251285	0.381378	0.000023
 222	2.1989e+01	2.1946	-5.220298	0.000213	2.128488	0.360576	0.000021
 223	2.2089e+01	2.2064	-5.199524	0.000209	2.087556	0.353641	0.000021
 224	2.2189e+01	2.2146	-5.172639	0.000270	2.701542	0.457654	0.000027
 225	2.2288e+01	2.2231	-5.153902	0.000188	1.882893	0.318971	0.000019
 226	2.2387e+01	2.2366	-5.129461	0.000246	2.455948	0.416049	0.000025
 227	2.2487e+01	2.2425	-5.109909	0.000196	1.964758	0.332839	0.000020
 228	2.2587e+01	2.2559	-5.087097	0.000229	2.292218	0.388312	0.000023
 229	2.2686e+01	2.2681	-5.063472	0.000237	2.374083	0.402181	0.000024
 230	2.2785e+01	2.2744	-5.047585	0.000160	1.596366	0.270432	0.000016
 231	2.2885e+01	2.2855	-5.023145	0.000246	2.455948	0.416049	0.000025
 232	2.2985e+01	2.2961	-5.001963	0.000213	2.128488	0.360576	0.000021
 233	2.3084e+01	2.3047	-4.981596	0.000205	2.046623	0.346707	0.000020
 234	2.3183e+01	2.3137	-4.957970	0.000237	2.374083	0.402181	0.000024
 235	2.3283e+01	2.3258	-4.939232	0.000188	1.882893	0.318971	0.000019
 236	2.3383e+01	2.3326	-4.915606	0.000237	2.374083	0.402181	0.000024
 237	2.3482e+01	2.3449	-4.891166	0.000246	2.455948	0.416049	0.000025
 238	2.3581e+01	2.3553	-4.872021	0.000192	1.923826	0.325905	0.000019
 239	2.3681e+01	2.3608	-4.852468	0.000196	1.964758	0.332839	0.000020
 240	2.3780e+01	2.3758	-4.831286	0.000213	2.128488	0.360576	0.000021
 241	2.3880e+01	2.3827	-4.808068	0.000233	2.333150	0.395246	0.000023
 242	2.3980e+01	2.3921	-4.787701	0.000205	2.046623	0.346707	0.000020
 243	2.4079e+01	2.4039	-4.768148	0.000196	1.964758	0.332839	0.000020
 244	2.4178e+01	2.4126	-4.744522	0.000237	2.374083	0.402181	0.000024
 245	2.4278e+01	2.4239	-4.724970	0.000196	1.964758	0.332839	0.000020
 246	2.4378e+01	2.4360	-4.703788	0.000213	2.128488	0.360576	0.000021
 247	2.4477e+01	2.4455	-4.680977	0.000229	2.292218	0.388312	0.000023
 248	2.4576e+01	2.4524	-4.659388	0.000217	2.169420	0.367510	0.000022
 249	2.4676e+01	2.4640	-4.640243	0.000192	1.923826	0.325905	0.000019
 250	2.4776e+01	2.4743	-4.614987	0.000254	2.537813	0.429917	0.000025
 251	2.4875e+01	2.4824	-4.597879	0.000172	1.719163	0.291234	0.000017
 252	2.4974e+01	2.4928	-4.574661	0.000233	2.333150	0.395246	0.000023
 253	2.5074e+01	2.5042	-4.554293	0.000205	2.046623	0.346707	0.000020
 254	2.5174e+01	2.5118	-4.535148	0.000192	1.923826	0.325905	0.000019
 255	2.5273e+01	2.5233	-4.511930	0.000233	2.333150	0.395246	0.000023
 256	2.5372e+01	2.5370	-4.493192	0.000188	1.882893	0.318971	0.000019
 257	2.5472e+01	2.5417	-4.471603	0.000217	2.169420	0.367510	0.000022
 258	2.5572e+01	2.5530	-4.452458	0.000192	1.923826	0.325905	0.000019
 259	2.5671e+01	2.5622	-4.434535	0.000180	1.801028	0.305102	0.000018
 260	2.5770e+01	2.5752	-4.415797	0.000188	1.882893	0.318971	0.000019
 261	2.5870e+01	2.5826	-4.395837	0.000201	2.005691	0.339773	0.000020
 262	2.5970e+01	2.5919	-4.380358	0.000156	1.555434	0.263498	0.000016
 263	2.6069e+01	2.6049	-4.362842	0.000176	1.760096	0.298168	0.000018
 264	2.6169e+01	2.6115	-4.342883	0.000201	2.005691	0.339773	0.000020
 265	2.6268e+01	2.6214	-4.327404	0.000156	1.555434	0.263498	0.000016
 266	2.6367e+01	2.6315	-4.309073	0.000184	1.841961	0.312037	0.000018
 267	2.6467e+01	2.6430	-4.292372	0.000168	1.678231	0.284300	0.000017
 268	2.6567e+01	2.6511	-4.270376	0.000221	2.210353	0.374444	0.000022
 269	2.6666e+01	2.6631	-4.257341	0.000131	1.309839	0.221893	0.000013
 270	2.6765e+01	2.6701	-4.240640	0.000168	1.678231	0.284300	0.000017
 271	2.6865e+01	2.6823	-4.222309	0.000184	1.841961	0.312037	0.000018
 272	2.6965e+01	2.6933	-4.203979	0.000184	1.841961	0.312037	0.000018
 273	2.7064e+01	2.7013	-4.188907	0.000151	1.514501	0.256563	0.000015
 274	2.7163e+01	2.7080	-4.168540	0.000205	2.046623	0.346707	0.000020
 275	2.7263e+01	2.7232	-4.150617	0.000180	1.801028	0.305102	0.000018
 276	2.7363e+01	2.7308	-4.133101	0.000176	1.760096	0.298168	0.000018
 277	2.7462e+01	2.7439	-4.114363	0.000188	1.882893	0.318971	0.000019
 278	2.7561e+01	2.7534	-4.098070	0.000164	1.637298	0.277366	0.000016
 279	2.7661e+01	2.7618	-4.077295	0.000209	2.087556	0.353641	0.000021
 280	2.7761e+01	2.7726	-4.059780	0.000176	1.760096	0.298168	0.000018
 281	2.7860e+01	2.7823	-4.036968	0.000229	2.292218	0.388312	0.000023
 282	2.7959e+01	2.7921	-4.018638	0.000184	1.841961	0.312037	0.000018
 283	2.8059e+01	2.8015	-3.998678	0.000201	2.005691	0.339773	0.000020
 284	2.8159e+01	2.8133	-3.975460	0.000233	2.333150	0.395246	0.000023
 285	2.8258e+01	2.8191	-3.957537	0.000180	1.801028	0.305102	0.000018
 286	2.8358e+01	2.8319	-3.932689	0.000250	2.496880	0.422983	0.000025
 287	2.8457e+01	2.8413	-3.913951	0.000188	1.882893	0.318971	0.000019
 288	2.8556e+01	2.8498	-3.891140	0.000229	2.292218	0.388312	0.000023
 289	2.8656e+01	2.8619	-3.868329	0.000229	2.292218	0.388312	0.000023
 290	2.8756e+01	2.8720	-3.846739	0.000217	2.169420	0.367510	0.000022
 291	2.8855e+01	2.8831	-3.822706	0.000242	2.415015	0.409115	0.000024
 292	2.8954e+01	2.8903	-3.803561	0.000192	1.923826	0.325905	0.000019
 293	2.9054e+01	2.9017	-3.778713	0.000250	2.496880	0.422983	0.000025
 294	2.9154e+01	2.9108	-3.758346	0.000205	2.046623	0.346707	0.000020
 295	2.9253e+01	2.9183	-3.733498	0.000250	2.496880	0.422983	0.000025
 296	2.9352e+01	2.9314	-3.712724	0.000209	2.087556	0.353641	0.000021
 297	2.9452e+01	2.9395	-3.689913	0.000229	2.292218	0.388312	0.000023
 298	2.9552e+01	2.9512	-3.666694	0.000233	2.333150	0.395246	0.000023
 299	2.9651e+01	2.9600	-3.645512	0.000213	2.128488	0.360576	0.000021
 300	2.9750e+01	2.9698	-3.625960	0.000196	1.964758	0.332839	0.000020
 301	2.9850e+01	2.9798	-3.599482	0.000266	2.660610	0.450720	0.000027
 302	2.9950e+01	2.9899	-3.579115	0.000205	2.046623	0.346707	0.000020
 303	3.0049e+01	3.0007	-3.556304	0.000229	2.292218	0.388312	0.000023
 304	3.0148e+01	3.0110	-3.530234	0.000262	2.619678	0.443785	0.000026
 305	3.0248e+01	3.0187	-3.510274	0.000201	2.005691	0.339773	0.000020
 306	3.0348e+01	3.0288	-3.490315	0.000201	2.005691	0.339773	0.000020
 307	3.0447e+01	3.0405	-3.465467	0.000250	2.496880	0.422983	0.000025
 308	3.0547e+01	3.0500	-3.438582	0.000270	2.701542	0.457654	0.000027
 309	3.0646e+01	3.0604	-3.416993	0.000217	2.169420	0.367510	0.000022
 310	3.0745e+01	3.0691	-3.393367	0.000237	2.374083	0.402181	0.000024
 311	3.0845e+01	3.0813	-3.370963	0.000225	2.251285	0.381378	0.000023
 312	3.0945e+01	3.0918	-3.348559	0.000225	2.251285	0.381378	0.000023
 313	3.1044e+01	3.1019	-3.322897	0.000258	2.578745	0.436851	0.000026
 314	3.1143e+01	3.1121	-3.297642	0.000254	2.537813	0.429917	0.000025
 315	3.1243e+01	3.1197	-3.280941	0.000168	1.678231	0.284300	0.000017
 316	3.1343e+01	3.1319	-3.249983	0.000311	3.110867	0.526995	0.000031
 317	3.1442e+01	3.1402	-3.228801	0.000213	2.128488	0.360576	0.000021
 318	3.1541e+01	3.1510	-3.202323	0.000266	2.660610	0.450720	0.000027
 319	3.1641e+01	3.1586	-3.178290	0.000242	2.415015	0.409115	0.000024
 320	3.1741e+01	3.1704	-3.157516	0.000209	2.087556	0.353641	0.000021
 321	3.1840e+01	3.1799	-3.133890	0.000237	2.374083	0.402181	0.000024
 322	3.1939e+01	3.1890	-3.109449	0.000246	2.455948	0.416049	0.000025
 323	3.2039e+01	3.2030	-3.082972	0.000266	2.660610	0.450720	0.000027
 324	3.2139e+01	3.2077	-3.063420	0.000196	1.964758	0.332839	0.000020
 325	3.2238e+01	3.2208	-3.037350	0.000262	2.619678	0.443785	0.000026
 326	3.2337e+01	3.2299	-3.010872	0.000266	2.660610	0.450720	0.000027
 327	3.2437e+01	3.2405	-2.986839	0.000242	2.415015	0.409115	0.000024
 328	3.2536e+01	3.2498	-2.964435	0.000225	2.251285	0.381378	0.000023
 329	3.2636e+01	3.2599	-2.939995	0.000246	2.455948	0.416049	0.000025
 330	3.2736e+01	3.2699	-2.920035	0.000201	2.005691	0.339773	0.000020
 331	3.2835e+01	3.2807	-2.893150	0.000270	2.701542	0.457654	0.000027
 332	3.2934e+01	3.2890	-2.870747	0.000225	2.251285	0.381378	0.000023
 333	3.3034e+01	3.3016	-2.850380	0.000205	2.046623	0.346707	0.000020
 334	3.3133e+01	3.3121	-2.821866	0.000287	2.865272	0.485390	0.000029
 335	3.3233e+01	3.3211	-2.794981	0.000270	2.701542	0.457654	0.000027
 336	3.3333e+01	3.3295	-2.773392	0.000217	2.169420	0.367510	0.000022
 337	3.3432e+01	3.3384	-2.750988	0.000225	2.251285	0.381378	0.000023
 338	3.3532e+01	3.3508	-2.727362	0.000237	2.374083	0.402181	0.000024
 339	3.3631e+01	3.3602	-2.701699	0.000258	2.578745	0.436851	0.000026
 340	3.3730e+01	3.3686	-2.676444	0.000254	2.537813	0.429917	0.000025
 341	3.3830e+01	3.3802	-2.655670	0.000209	2.087556	0.353641	0.000021
 342	3.3929e+01	3.3901	-2.624304	0.000315	3.151800	0.533929	0.000032
 343	3.4029e+01	3.3993	-2.601901	0.000225	2.251285	0.381378	0.000023
 344	3.4129e+01	3.4109	-2.575831	0.000262	2.619678	0.443785	0.000026
 345	3.4228e+01	3.4199	-2.549761	0.000262	2.619678	0.443785	0.000026
 346	3.4328e+01	3.4275	-2.523283	0.000266	2.660610	0.450720	0.000027
 347	3.4427e+01	3.4393	-2.493547	0.000299	2.988070	0.506193	0.000030
 348	3.4526e+01	3.4470	-2.470329	0.000233	2.333150	0.395246	0.000023
 349	3.4626e+01	3.4599	-2.443852	0.000266	2.660610	0.450720	0.000027
 350	3.4725e+01	3.4705	-2.417374	0.000266	2.660610	0.450720	0.000027
 351	3.4825e+01	3.4788	-2.389675	0.000278	2.783407	0.471522	0.000028
 352	3.4925e+01	3.4885	-2.360754	0.000291	2.906205	0.492324	0.000029
 353	3.5024e+01	3.4966	-2.331425	0.000295	2.947137	0.499259	0.000029
 354	3.5123e+01	3.5080	-2.305355	0.000262	2.619678	0.443785	0.000026
 355	3.5223e+01	3.5181	-2.279693	0.000258	2.578745	0.436851	0.000026
 356	3.5322e+01	3.5268	-2.252401	0.000274	2.742475	0.464588	0.000027
 357	3.5422e+01	3.5387	-2.222665	0.000299	2.988070	0.506193	0.000030
 358	3.5522e+01	3.5491	-2.199039	0.000237	2.374083	0.402181	0.000024
 359	3.5621e+01	3.5605	-2.173784	0.000254	2.537813	0.429917	0.000025
 360	3.5721e+01	3.5673	-2.148936	0.000250	2.496880	0.422983	0.000025
 361	3.5820e+01	3.5769	-2.119200	0.000299	2.988070	0.506193	0.000030
 362	3.5919e+01	3.5876	-2.098425	0.000209	2.087556	0.353641	0.000021
 363	3.6019e+01	3.6015	-2.068282	0.000303	3.029002	0.513127	0.000030
 364	3.6118e+01	3.6073	-2.041805	0.000266	2.660610	0.450720	0.000027
 365	3.6218e+01	3.6181	-2.017771	0.000242	2.415015	0.409115	0.000024
 366	3.6318e+01	3.6280	-1.993738	0.000242	2.415015	0.409115	0.000024
 367	3.6417e+01	3.6390	-1.968890	0.000250	2.496880	0.422983	0.000025
 368	3.6517e+01	3.6486	-1.946486	0.000225	2.251285	0.381378	0.000023
 369	3.6616e+01	3.6616	-1.926119	0.000205	2.046623	0.346707	0.000020
 370	3.6715e+01	3.6650	-1.903715	0.000225	2.251285	0.381378	0.000023
 371	3.6815e+01	3.6779	-1.880904	0.000229	2.292218	0.388312	0.000023
 372	3.6914e+01	3.6855	-1.855649	0.000254	2.537813	0.429917	0.000025
 373	3.7014e+01	3.6981	-1.834467	0.000213	2.128488	0.360576	0.000021
 374	3.7114e+01	3.7065	-1.812471	0.000221	2.210353	0.374444	0.000022
 375	3.7213e+01	3.7151	-1.790882	0.000217	2.169420	0.367510	0.000022
 376	3.7313e+01	3.7272	-1.770107	0.000209	2.087556	0.353641	0.000021
 377	3.7412e+01	3.7373	-1.748925	0.000213	2.128488	0.360576	0.000021
 378	3.7511e+01	3.7457	-1.725707	0.000233	2.333150	0.395246	0.000023
 379	3.7611e+01	3.7598	-1.703303	0.000225	2.251285	0.381378	0.000023
 380	3.7711e+01	3.7682	-1.680084	0.000233	2.333150	0.395246	0.000023
 381	3.7810e+01	3.7769	-1.660939	0.000192	1.923826	0.325905	0.000019
 382	3.7910e+01	3.7884	-1.641387	0.000196	1.964758	0.332839	0.000020
 383	3.8009e+01	3.7965	-1.619798	0.000217	2.169420	0.367510	0.000022
 384	3.8108e+01	3.8079	-1.598209	0.000217	2.169420	0.367510	0.000022
 385	3.8208e+01	3.8172	-1.578249	0.000201	2.005691	0.339773	0.000020
 386	3.8307e+01	3.8282	-1.552179	0.000262	2.619678	0.443785	0.000026
 387	3.8407e+01	3.8348	-1.534256	0.000180	1.801028	0.305102	0.000018
 388	3.8507e+01	3.8448	-1.513481	0.000209	2.087556	0.353641	0.000021
 389	3.8606e+01	3.8586	-1.493114	0.000205	2.046623	0.346707	0.000020
 390	3.8706e+01	3.8651	-1.471932	0.000213	2.128488	0.360576	0.000021
 391	3.8805e+01	3.8752	-1.449528	0.000225	2.251285	0.381378	0.000023
 392	3.8904e+01	3.8844	-1.430383	0.000192	1.923826	0.325905	0.000019
 393	3.9004e+01	3.8985	-1.405128	0.000254	2.537813	0.429917	0.000025
 394	3.9103e+01	3.9080	-1.390871	0.000143	1.432636	0.242695	0.000014
 395	3.9203e+01	3.9168	-1.369689	0.000213	2.128488	0.360576	0.000021
 396	3.9303e+01	3.9275	-1.349730	0.000201	2.005691	0.339773	0.000020
 397	3.9402e+01	3.9379	-1.327326	0.000225	2.251285	0.381378	0.000023
 398	3.9502e+01	3.9466	-1.308588	0.000188	1.882893	0.318971	0.000019
 399	3.9601e+01	3.9577	-1.285777	0.000229	2.292218	0.388312	0.000023
 400	3.9700e+01	3.9675	-1.269890	0.000160	1.596366	0.270432	0.000016
 401	3.9800e+01	3.9770	-1.246265	0.000237	2.374083	0.402181	0.000024
 402	3.9900e+01	3.9874	-1.232008	0.000143	1.432636	0.242695	0.000014
 403	3.9999e+01	3.9965	-1.205530	0.000266	2.660610	0.450720	0.000027
 404	4.0099e+01	4.0064	-1.192495	0.000131	1.309839	0.221893	0.000013
 405	4.0198e+01	4.0154	-1.169684	0.000229	2.292218	0.388312	0.000023
 406	4.0297e+01	4.0264	-1.149724	0.000201	2.005691	0.339773	0.000020
 407	4.0397e+01	4.0370	-1.129765	0.000201	2.005691	0.339773	0.000020
 408	4.0496e+01	4.0451	-1.109397	0.000205	2.046623	0.346707	0.000020
 409	4.0596e+01	4.0520	-1.091882	0.000176	1.760096	0.298168	0.000018
 410	4.0696e+01	4.0682	-1.075181	0.000168	1.678231	0.284300	0.000017
 411	4.0795e+01	4.0774	-1.052777	0.000225	2.251285	0.381378	0.000023
 412	4.0895e+01	4.0861	-1.033632	0.000192	1.923826	0.325905	0.000019
 413	4.0994e+01	4.0948	-1.011228	0.000225	2.251285	0.381378	0.000023
 414	4.1093e+01	4.1047	-0.994527	0.000168	1.678231	0.284300	0.000017
 415	4.1193e+01	4.1166	-0.976196	0.000184	1.841961	0.312037	0.000018
 416	4.1292e+01	4.1273	-0.957459	0.000188	1.882893	0.318971	0.000019
 417	4.1392e+01	4.1352	-0.936277	0.000213	2.128488	0.360576	0.000021
 418	4.1492e+01	4.1455	-0.916317	0.000201	2.005691	0.339773	0.000020
 419	4.1591e+01	4.1540	-0.896357	0.000201	2.005691	0.339773	0.000020
 420	4.1691e+01	4.1639	-0.872731	0.000237	2.374083	0.402181	0.000024
 421	4.1790e+01	4.1753	-0.852772	0.000201	2.005691	0.339773	0.000020
 422	4.1889e+01	4.1862	-0.838922	0.000139	1.391704	0.235761	0.000014
 423	4.1989e+01	4.1953	-0.819370	0.000196	1.964758	0.332839	0.000020
 424	4.2089e+01	4.2025	-0.800224	0.000192	1.923826	0.325905	0.000019
 425	4.2188e+01	4.2158	-0.782301	0.000180	1.801028	0.305102	0.000018
 426	4.2288e+01	4.2255	-0.762342	0.000201	2.005691	0.339773	0.000020
 427	4.2387e+01	4.2345	-0.747270	0.000151	1.514501	0.256563	0.000015
 428	4.2486e+01	4.2463	-0.733828	0.000135	1.350771	0.228827	0.000014
 429	4.2586e+01	4.2544	-0.717941	0.000160	1.596366	0.270432	0.000016
 430	4.2685e+01	4.2658	-0.697167	0.000209	2.087556	0.353641	0.000021
 431	4.2785e+01	4.2744	-0.677207	0.000201	2.005691	0.339773	0.000020
 432	4.2885e+01	4.2834	-0.664579	0.000127	1.268906	0.214959	0.000013
 433	4.2984e+01	4.2950	-0.646656	0.000180	1.801028	0.305102	0.000018
 434	4.3084e+01	4.3023	-0.628733	0.000180	1.801028	0.305102	0.000018
 435	4.3183e+01	4.3135	-0.616513	0.000123	1.227974	0.208024	0.000012
 436	4.3282e+01	4.3247	-0.600627	0.000160	1.596366	0.270432	0.000016
 437	4.3382e+01	4.3356	-0.584740	0.000160	1.596366	0.270432	0.000016
 438	4.3481e+01	4.3447	-0.567632	0.000172	1.719163	0.291234	0.000017
 439	4.3581e+01	4.3522	-0.555819	0.000119	1.187041	0.201090	0.000012
 440	4.3681e+01	4.3642	-0.541969	0.000139	1.391704	0.235761	0.000014
 441	4.3780e+01	4.3756	-0.520787	0.000213	2.128488	0.360576	0.000021
 442	4.3880e+01	4.3858	-0.508567	0.000123	1.227974	0.208024	0.000012
 443	4.3979e+01	4.3948	-0.491051	0.000176	1.760096	0.298168	0.000018
 444	4.4078e+01	4.4032	-0.471499	0.000196	1.964758	0.332839	0.000020
 445	4.4178e+01	4.4148	-0.457242	0.000143	1.432636	0.242695	0.000014
 446	4.4278e+01	4.4241	-0.441763	0.000156	1.555434	0.263498	0.000016
 447	4.4377e+01	4.4344	-0.421803	0.000201	2.005691	0.339773	0.000020
 448	4.4477e+01	4.4438	-0.407139	0.000147	1.473569	0.249629	0.000015
 449	4.4576e+01	4.4538	-0.386772	0.000205	2.046623	0.346707	0.000020
 450	4.4675e+01	4.4646	-0.369256	0.000176	1.760096	0.298168	0.000018
 451	4.4775e+01	4.4751	-0.348482	0.000209	2.087556	0.353641	0.000021
 452	4.4874e+01	4.4808	-0.327707	0.000209	2.087556	0.353641	0.000021
 453	4.4974e+01	4.4967	-0.309784	0.000180	1.801028	0.305102	0.000018
 454	4.5074e+01	4.5033	-0.288195	0.000217	2.169420	0.367510	0.000022
 455	4.5173e+01	4.5171	-0.269050	0.000192	1.923826	0.325905	0.000019
 456	4.5273e+01	4.5238	-0.249905	0.000192	1.923826	0.325905	0.000019
 457	4.5372e+01	4.5324	-0.230760	0.000192	1.923826	0.325905	0.000019
 458	4.5471e+01	4.5407	-0.206319	0.000246	2.455948	0.416049	0.000025
 459	4.5571e+01	4.5541	-0.187174	0.000192	1.923826	0.325905	0.000019
 460	4.5670e+01	4.5635	-0.167214	0.000201	2.005691	0.339773	0.000020
 461	4.5770e+01	4.5713	-0.146440	0.000209	2.087556	0.353641	0.000021
 462	4.5870e+01	4.5862	-0.124036	0.000225	2.251285	0.381378	0.000023
 463	4.5969e+01	4.5929	-0.099188	0.000250	2.496880	0.422983	0.000025
 464	4.6069e+01	4.6041	-0.082894	0.000164	1.637298	0.277366	0.000016
 465	4.6168e+01	4.6120	-0.060490	0.000225	2.251285	0.381378	0.000023
 466	4.6267e+01	4.6226	-0.040531	0.000201	2.005691	0.339773	0.000020
 467	4.6367e+01	4.6333	-0.022608	0.000180	1.801028	0.305102	0.000018
 468	4.6467e+01	4.6430	0.003055	0.000258	2.578745	0.436851	0.000026
 469	4.6566e+01	4.6514	0.023422	0.000205	2.046623	0.346707	0.000020
 470	4.6666e+01	4.6622	0.043382	0.000201	2.005691	0.339773	0.000020
 471	4.6765e+01	4.6746	0.060490	0.000172	1.719163	0.291234	0.000017
 472	4.6864e+01	4.6845	0.084116	0.000237	2.374083	0.402181	0.000024
 473	4.6964e+01	4.6929	0.106113	0.000221	2.210353	0.374444	0.000022
 474	4.7063e+01	4.7047	0.126073	0.000201	2.005691	0.339773	0.000020
 475	4.7163e+01	4.7128	0.149291	0.000233	2.333150	0.395246	0.000023
 476	4.7263e+01	4.7228	0.168436	0.000192	1.923826	0.325905	0.000019
 477	4.7362e+01	4.7309	0.192062	0.000237	2.374083	0.402181	0.000024
 478	4.7462e+01	4.7418	0.214873	0.000229	2.292218	0.388312	0.000023
 479	4.7561e+01	4.7504	0.235240	0.000205	2.046623	0.346707	0.000020
 480	4.7660e+01	4.7658	0.260088	0.000250	2.496880	0.422983	0.000025
 481	4.7760e+01	4.7750	0.283307	0.000233	2.333150	0.395246	0.000023
 482	4.7859e+01	4.7823	0.304081	0.000209	2.087556	0.353641	0.000021
 483	4.7959e+01	4.7921	0.327300	0.000233	2.333150	0.395246	0.000023
 484	4.8059e+01	4.8011	0.350111	0.000229	2.292218	0.388312	0.000023
 485	4.8158e+01	4.8125	0.373329	0.000233	2.333150	0.395246	0.000023
 486	4.8258e+01	4.8199	0.392475	0.000192	1.923826	0.325905	0.000019
 487	4.8357e+01	4.8312	0.416100	0.000237	2.374083	0.402181	0.000024
 488	4.8456e+01	4.8409	0.439726	0.000237	2.374083	0.402181	0.000024
 489	4.8556e+01	4.8529	0.459686	0.000201	2.005691	0.339773	0.000020
 490	4.8656e+01	4.8647	0.482497	0.000229	2.292218	0.388312	0.000023
 491	4.8755e+01	4.8725	0.506530	0.000242	2.415015	0.409115	0.000024
 492	4.8855e+01	4.8840	0.530564	0.000242	2.415015	0.409115	0.000024
 493	4.8954e+01	4.8920	0.550116	0.000196	1.964758	0.332839	0.000020
 494	4.9053e+01	4.9039	0.571298	0.000213	2.128488	0.360576	0.000021
 495	4.9153e+01	4.9114	0.596553	0.000254	2.537813	0.429917	0.000025
 496	4.9252e+01	4.9218	0.617328	0.000209	2.087556	0.353641	0.000021
 497	4.9352e+01	4.9351	0.638917	0.000217	2.169420	0.367510	0.000022
 498	4.9452e+01	4.9403	0.660506	0.000217	2.169420	0.367510	0.000022
 499	4.9551e+01	4.9508	0.684132	0.000237	2.374083	0.402181	0.000024
 500	4.9651e+01	4.9635	0.706536	0.000225	2.251285	0.381378	0.000023
 501	4.9750e+01	4.9723	0.725273	0.000188	1.882893	0.318971	0.000019
 502	4.9849e+01	4.9821	0.751343	0.000262	2.619678	0.443785	0.000026
 503	4.9949e+01	4.9930	0.771303	0.000201	2.005691	0.339773	0.000020
 504	5.0048e+01	4.9989	0.795744	0.000246	2.455948	0.416049	0.000025
 505	5.0148e+01	5.0126	0.819370	0.000237	2.374083	0.402181	0.000024
 506	5.0248e+01	5.0237	0.841366	0.000221	2.210353	0.374444	0.000022
 507	5.0347e+01	5.0301	0.862955	0.000217	2.169420	0.367510	0.000022
 508	5.0447e+01	5.0440	0.884952	0.000221	2.210353	0.374444	0.000022
 509	5.0546e+01	5.0498	0.908578	0.000237	2.374083	0.402181	0.000024
 510	5.0645e+01	5.0614	0.934647	0.000262	2.619678	0.443785	0.000026
 511	5.0745e+01	5.0721	0.960310	0.000258	2.578745	0.436851	0.000026
 512	5.0844e+01	5.0809	0.984751	0.000246	2.455948	0.416049	0.000025
 513	5.0944e+01	5.0909	1.007154	0.000225	2.251285	0.381378	0.000023
 514	5.1044e+01	5.1015	1.034854	0.000278	2.783407	0.471522	0.000028
 515	5.1143e+01	5.1111	1.058887	0.000242	2.415015	0.409115	0.000024
 516	5.1242e+01	5.1217	1.080883	0.000221	2.210353	0.374444	0.000022
 517	5.1342e+01	5.1320	1.107768	0.000270	2.701542	0.457654	0.000027
 518	5.1441e+01	5.1400	1.132209	0.000246	2.455948	0.416049	0.000025
 519	5.1541e+01	5.1498	1.163574	0.000315	3.151800	0.533929	0.000032
 520	5.1641e+01	5.1618	1.186793	0.000233	2.333150	0.395246	0.000023
 521	5.1740e+01	5.1708	1.213677	0.000270	2.701542	0.457654	0.000027
 522	5.1840e+01	5.1797	1.240154	0.000266	2.660610	0.450720	0.000027
 523	5.1939e+01	5.1883	1.265002	0.000250	2.496880	0.422983	0.000025
 524	5.2038e+01	5.1998	1.289850	0.000250	2.496880	0.422983	0.000025
 525	5.2138e+01	5.2103	1.315105	0.000254	2.537813	0.429917	0.000025
 526	5.2237e+01	5.2183	1.344027	0.000291	2.906205	0.492324	0.000029
 527	5.2337e+01	5.2316	1.367653	0.000237	2.374083	0.402181	0.000024
 528	5.2437e+01	5.2383	1.390056	0.000225	2.251285	0.381378	0.000023
 529	5.2536e+01	5.2505	1.416126	0.000262	2.619678	0.443785	0.000026
 530	5.2636e+01	5.2618	1.440160	0.000242	2.415015	0.409115	0.000024
 531	5.2735e+01	5.2721	1.465007	0.000250	2.496880	0.422983	0.000025
 532	5.2834e+01	5.2795	1.485782	0.000209	2.087556	0.353641	0.000021
 533	5.2934e+01	5.2900	1.509408	0.000237	2.374083	0.402181	0.000024
 534	5.3033e+01	5.3030	1.533848	0.000246	2.455948	0.416049	0.000025
 535	5.3133e+01	5.3103	1.556252	0.000225	2.251285	0.381378	0.000023
 536	5.3233e+01	5.3196	1.570917	0.000147	1.473569	0.249629	0.000015
 537	5.3332e+01	5.3284	1.596172	0.000254	2.537813	0.429917	0.000025
 538	5.3431e+01	5.3390	1.617761	0.000217	2.169420	0.367510	0.000022
 539	5.3531e+01	5.3474	1.642201	0.000246	2.455948	0.416049	0.000025
 540	5.3630e+01	5.3631	1.662976	0.000209	2.087556	0.353641	0.000021
 541	5.3730e+01	5.3725	1.684158	0.000213	2.128488	0.360576	0.000021
 542	5.3830e+01	5.3783	1.702488	0.000184	1.841961	0.312037	0.000018
 543	5.3929e+01	5.3912	1.720411	0.000180	1.801028	0.305102	0.000018
 544	5.4029e+01	5.4006	1.744037	0.000237	2.374083	0.402181	0.000024
 545	5.4128e+01	5.4075	1.761553	0.000176	1.760096	0.298168	0.000018
 546	5.4227e+01	5.4180	1.786401	0.000250	2.496880	0.422983	0.000025
 547	5.4327e+01	5.4278	1.803509	0.000172	1.719163	0.291234	0.000017
 548	5.4426e+01	5.4386	1.822247	0.000188	1.882893	0.318971	0.000019
 549	5.4526e+01	5.4494	1.847502	0.000254	2.537813	0.429917	0.000025
 550	5.4626e+01	5.4591	1.865018	0.000176	1.760096	0.298168	0.000018
 551	5.4725e+01	5.4684	1.884570	0.000196	1.964758	0.332839	0.000020
 552	5.4825e+01	5.4752	1.905752	0.000213	2.128488	0.360576	0.000021
 553	5.4924e+01	5.4905	1.926119	0.000205	2.046623	0.346707	0.000020
 554	5.5023e+01	5.4971	1.945264	0.000192	1.923826	0.325905	0.000019
 555	5.5123e+01	5.5103	1.962780	0.000176	1.760096	0.298168	0.000018
 556	5.5222e+01	5.5183	1.985184	0.000225	2.251285	0.381378	0.000023
 557	5.5322e+01	5.5282	2.004736	0.000196	1.964758	0.332839	0.000020
 558	5.5422e+01	5.5393	2.024289	0.000196	1.964758	0.332839	0.000020
 559	5.5521e+01	5.5477	2.042619	0.000184	1.841961	0.312037	0.000018
 560	5.5620e+01	5.5580	2.060950	0.000184	1.841961	0.312037	0.000018
 561	5.5720e+01	5.5685	2.081317	0.000205	2.046623	0.346707	0.000020
 562	5.5819e+01	5.5776	2.102499	0.000213	2.128488	0.360576	0.000021
 563	5.5919e+01	5.5923	2.119607	0.000172	1.719163	0.291234	0.000017
 564	5.6019e+01	5.5988	2.138345	0.000188	1.882893	0.318971	0.000019
 565	5.6118e+01	5.6065	2.155860	0.000176	1.760096	0.298168	0.000018
 566	5.6218e+01	5.6178	2.176228	0.000205	2.046623	0.346707	0.000020
 567	5.6317e+01	5.6313	2.193336	0.000172	1.719163	0.291234	0.000017
 568	5.6416e+01	5.6385	2.211666	0.000184	1.841961	0.312037	0.000018
 569	5.6516e+01	5.6486	2.230811	0.000192	1.923826	0.325905	0.000019
 570	5.6615e+01	5.6568	2.246291	0.000156	1.555434	0.263498	0.000016
 571	5.6715e+01	5.6719	2.265028	0.000188	1.882893	0.318971	0.000019
 572	5.6815e+01	5.6788	2.284988	0.000201	2.005691	0.339773	0.000020
 573	5.6914e+01	5.6886	2.302911	0.000180	1.801028	0.305102	0.000018
 574	5.7014e+01	5.6966	2.320834	0.000180	1.801028	0.305102	0.000018
 575	5.7113e+01	5.7082	2.338757	0.000180	1.801028	0.305102	0.000018
 576	5.7212e+01	5.7177	2.359532	0.000209	2.087556	0.353641	0.000021
 577	5.7312e+01	5.7278	2.377455	0.000180	1.801028	0.305102	0.000018
 578	5.7411e+01	5.7357	2.397007	0.000196	1.964758	0.332839	0.000020
 579	5.7511e+01	5.7509	2.417374	0.000205	2.046623	0.346707	0.000020
 580	5.7611e+01	5.7571	2.433261	0.000160	1.596366	0.270432	0.000016
 581	5.7710e+01	5.7647	2.450776	0.000176	1.760096	0.298168	0.000018
 582	5.7809e+01	5.7764	2.467885	0.000172	1.719163	0.291234	0.000017
 583	5.7909e+01	5.7858	2.488252	0.000205	2.046623	0.346707	0.000020
 584	5.8008e+01	5.7960	2.505768	0.000176	1.760096	0.298168	0.000018
 585	5.8108e+01	5.8063	2.524913	0.000192	1.923826	0.325905	0.000019
 586	5.8208e+01	5.8150	2.541614	0.000168	1.678231	0.284300	0.000017
 587	5.8307e+01	5.8277	2.563610	0.000221	2.210353	0.374444	0.000022
 588	5.8407e+01	5.8384	2.577867	0.000143	1.432636	0.242695	0.000014
 589	5.8506e+01	5.8453	2.597012	0.000192	1.923826	0.325905	0.000019
 590	5.8605e+01	5.8572	2.612491	0.000156	1.555434	0.263498	0.000016
 591	5.8705e+01	5.8671	2.630415	0.000180	1.801028	0.305102	0.000018
 592	5.8804e+01	5.8776	2.647116	0.000168	1.678231	0.284300	0.000017
 593	5.8904e+01	5.8868	2.663409	0.000164	1.637298	0.277366	0.000016
 594	5.9004e+01	5.8968	2.683369	0.000201	2.005691	0.339773	0.000020
 595	5.9103e+01	5.9048	2.700885	0.000176	1.760096	0.298168	0.000018
 596	5.9203e+01	5.9168	2.710661	0.000098	0.982379	0.166420	0.000010
 597	5.9302e+01	5.9246	2.730213	0.000196	1.964758	0.332839	0.000020
 598	5.9401e+01	5.9353	2.744470	0.000143	1.432636	0.242695	0.000014
 599	5.9501e+01	5.9454	2.760357	0.000160	1.596366	0.270432	0.000016
 600	5.9600e+01	5.9564	2.775836	0.000156	1.555434	0.263498	0.000016
 601	5.9700e+01	5.9673	2.789278	0.000135	1.350771	0.228827	0.000014
 602	5.9800e+01	5.9777	2.803942	0.000147	1.473569	0.249629	0.000015
 603	5.9899e+01	5.9890	2.817385	0.000135	1.350771	0.228827	0.000014
 604	5.9998e+01	5.9975	2.830420	0.000131	1.309839	0.221893	0.000013
 605	6.0098e+01	6.0084	2.846306	0.000160	1.596366	0.270432	0.000016
 606	6.0197e+01	6.0204	2.861785	0.000156	1.555434	0.263498	0.000016
 607	6.0297e+01	6.0259	2.873191	0.000115	1.146109	0.194156	0.000011
 608	6.0397e+01	6.0374	2.888262	0.000151	1.514501	0.256563	0.000015
 609	6.0496e+01	6.0450	2.905371	0.000172	1.719163	0.291234	0.000017
 610	6.0596e+01	6.0558	2.918813	0.000135	1.350771	0.228827	0.000014
 611	6.0695e+01	6.0674	2.932663	0.000139	1.391704	0.235761	0.000014
 612	6.0794e+01	6.0741	2.947734	0.000151	1.514501	0.256563	0.000015
 613	6.0894e+01	6.0867	2.970138	0.000225	2.251285	0.381378	0.000023
 614	6.0993e+01	6.0945	2.979100	0.000090	0.900514	0.152551	0.000009
 615	6.1093e+01	6.1046	2.999874	0.000209	2.087556	0.353641	0.000021
 616	6.1193e+01	6.1149	3.013724	0.000139	1.391704	0.235761	0.000014
 617	6.1292e+01	6.1256	3.034091	0.000205	2.046623	0.346707	0.000020
 618	6.1392e+01	6.1348	3.050792	0.000168	1.678231	0.284300	0.000017
 619	6.1491e+01	6.1440	3.069530	0.000188	1.882893	0.318971	0.000019
 620	6.1590e+01	6.1527	3.089490	0.000201	2.005691	0.339773	0.000020
 621	6.1690e+01	6.1646	3.109042	0.000196	1.964758	0.332839	0.000020
 622	6.1789e+01	6.1745	3.128187	0.000192	1.923826	0.325905	0.000019
 623	6.1889e+01	6.1820	3.144481	0.000164	1.637298	0.277366	0.000016
 624	6.1989e+01	6.1947	3.166885	0.000225	2.251285	0.381378	0.000023
 625	6.2088e+01	6.2057	3.186030	0.000192	1.923826	0.325905	0.000019
 626	6.2188e+01	6.2144	3.200694	0.000147	1.473569	0.249629	0.000015
 627	6.2287e+01	6.2263	3.226357	0.000258	2.578745	0.436851	0.000026
 628	6.2386e+01	6.2365	3.240614	0.000143	1.432636	0.242695	0.000014
 629	6.2486e+01	6.2450	3.264647	0.000242	2.415015	0.409115	0.000024
 630	6.2586e+01	6.2572	3.280941	0.000164	1.637298	0.277366	0.000016
 631	6.2685e+01	6.2634	3.301308	0.000205	2.046623	0.346707	0.000020
 632	6.2785e+01	6.2759	3.320453	0.000192	1.923826	0.325905	0.000019
 633	6.2884e+01	6.2836	3.339598	0.000192	1.923826	0.325905	0.000019
 634	6.2983e+01	6.2950	3.360780	0.000213	2.128488	0.360576	0.000021
 635	6.3083e+01	6.3039	3.382776	0.000221	2.210353	0.374444	0.000022
 636	6.3182e+01	6.3149	3.401107	0.000184	1.841961	0.312037	0.000018
 637	6.3282e+01	6.3247	3.421881	0.000209	2.087556	0.353641	0.000021
 638	6.3382e+01	6.3343	3.438989	0.000172	1.719163	0.291234	0.000017
 639	6.3481e+01	6.3438	3.457727	0.000188	1.882893	0.318971	0.000019
 640	6.3581e+01	6.3570	3.481760	0.000242	2.415015	0.409115	0.000024
 641	6.3680e+01	6.3631	3.502535	0.000209	2.087556	0.353641	0.000021
 642	6.3779e+01	6.3735	3.518829	0.000164	1.637298	0.277366	0.000016
 643	6.3879e+01	6.3860	3.540010	0.000213	2.128488	0.360576	0.000021
 644	6.3978e+01	6.3946	3.561192	0.000213	2.128488	0.360576	0.000021
 645	6.4078e+01	6.4028	3.580337	0.000192	1.923826	0.325905	0.000019
 646	6.4177e+01	6.4149	3.605185	0.000250	2.496880	0.422983	0.000025
 647	6.4277e+01	6.4249	3.621886	0.000168	1.678231	0.284300	0.000017
 648	6.4376e+01	6.4350	3.647956	0.000262	2.619678	0.443785	0.000026
 649	6.4476e+01	6.4443	3.666694	0.000188	1.882893	0.318971	0.000019
 650	6.4576e+01	6.4565	3.685839	0.000192	1.923826	0.325905	0.000019
 651	6.4675e+01	6.4642	3.708650	0.000229	2.292218	0.388312	0.000023
 652	6.4775e+01	6.4735	3.731054	0.000225	2.251285	0.381378	0.000023
 653	6.4874e+01	6.4832	3.752236	0.000213	2.128488	0.360576	0.000021
 654	6.4974e+01	6.4921	3.776269	0.000242	2.415015	0.409115	0.000024
 655	6.5073e+01	6.5007	3.798266	0.000221	2.210353	0.374444	0.000022
 656	6.5172e+01	6.5109	3.817411	0.000192	1.923826	0.325905	0.000019
 657	6.5272e+01	6.5241	3.838185	0.000209	2.087556	0.353641	0.000021
 658	6.5371e+01	6.5337	3.855701	0.000176	1.760096	0.298168	0.000018
 659	6.5471e+01	6.5443	3.880141	0.000246	2.455948	0.416049	0.000025
 660	6.5570e+01	6.5508	3.899694	0.000196	1.964758	0.332839	0.000020
 661	6.5670e+01	6.5627	3.922505	0.000229	2.292218	0.388312	0.000023
 662	6.5769e+01	6.5715	3.948575	0.000262	2.619678	0.443785	0.000026
 663	6.5869e+01	6.5816	3.963239	0.000147	1.473569	0.249629	0.000015
 664	6.5969e+01	6.5929	3.988087	0.000250	2.496880	0.422983	0.000025
 665	6.6068e+01	6.6035	4.008862	0.000209	2.087556	0.353641	0.000021
 666	6.6168e+01	6.6161	4.030044	0.000213	2.128488	0.360576	0.000021
 667	6.6267e+01	6.6239	4.052040	0.000221	2.210353	0.374444	0.000022
 668	6.6367e+01	6.6325	4.072407	0.000205	2.046623	0.346707	0.000020
 669	6.6466e+01	6.6434	4.093589	0.000213	2.128488	0.360576	0.000021
 670	6.6566e+01	6.6525	4.115178	0.000217	2.169420	0.367510	0.000022
 671	6.6665e+01	6.6607	4.137989	0.000229	2.292218	0.388312	0.000023
 672	6.6764e+01	6.6724	4.154690	0.000168	1.678231	0.284300	0.000017
 673	6.6864e+01	6.6805	4.182797	0.000282	2.824340	0.478456	0.000028
 674	6.6963e+01	6.6920	4.199498	0.000168	1.678231	0.284300	0.000017
 675	6.7063e+01	6.7034	4.217421	0.000180	1.801028	0.305102	0.000018
 676	6.7162e+01	6.7107	4.242676	0.000254	2.537813	0.429917	0.000025
 677	6.7262e+01	6.7211	4.268339	0.000258	2.578745	0.436851	0.000026
 678	6.7362e+01	6.7302	4.290335	0.000221	2.210353	0.374444	0.000022
 679	6.7461e+01	6.7413	4.316405	0.000262	2.619678	0.443785	0.000026
 680	6.7561e+01	6.7519	4.339217	0.000229	2.292218	0.388312	0.000023
 681	6.7660e+01	6.7616	4.364879	0.000258	2.578745	0.436851	0.000026
 682	6.7760e+01	6.7739	4.387283	0.000225	2.251285	0.381378	0.000023
 683	6.7859e+01	6.7863	4.407650	0.000205	2.046623	0.346707	0.000020
 684	6.7959e+01	6.7916	4.432498	0.000250	2.496880	0.422983	0.000025
 685	6.8058e+01	6.8016	4.461012	0.000287	2.865272	0.485390	0.000029
 686	6.8157e+01	6.8141	4.485453	0.000246	2.455948	0.416049	0.000025
 687	6.8257e+01	6.8213	4.510300	0.000250	2.496880	0.422983	0.000025
 688	6.8356e+01	6.8329	4.537592	0.000274	2.742475	0.464588	0.000027
 689	6.8456e+01	6.8418	4.559589	0.000221	2.210353	0.374444	0.000022
 690	6.8555e+01	6.8513	4.585251	0.000258	2.578745	0.436851	0.000026
 691	6.8655e+01	6.8604	4.607655	0.000225	2.251285	0.381378	0.000023
 692	6.8754e+01	6.8725	4.637799	0.000303	3.029002	0.513127	0.000030
 693	6.8854e+01	6.8832	4.658980	0.000213	2.128488	0.360576	0.000021
 694	6.8954e+01	6.8923	4.681384	0.000225	2.251285	0.381378	0.000023
 695	6.9053e+01	6.9003	4.708269	0.000270	2.701542	0.457654	0.000027
 696	6.9153e+01	6.9114	4.730265	0.000221	2.210353	0.374444	0.000022
 697	6.9252e+01	6.9220	4.753484	0.000233	2.333150	0.395246	0.000023
 698	6.9352e+01	6.9306	4.777924	0.000246	2.455948	0.416049	0.000025
 699	6.9451e+01	6.9440	4.797884	0.000201	2.005691	0.339773	0.000020
 700	6.9550e+01	6.9508	4.821510	0.000237	2.374083	0.402181	0.000024
 701	6.9650e+01	6.9601	4.844321	0.000229	2.292218	0.388312	0.000023
 702	6.9749e+01	6.9736	4.866725	0.000225	2.251285	0.381378	0.000023
 703	6.9849e+01	6.9796	4.886685	0.000201	2.005691	0.339773	0.000020
 704	6.9948e+01	6.9910	4.905830	0.000192	1.923826	0.325905	0.000019
 705	7.0048e+01	6.9988	4.928641	0.000229	2.292218	0.388312	0.000023
 706	7.0147e+01	7.0142	4.945342	0.000168	1.678231	0.284300	0.000017
 707	7.0247e+01	7.0207	4.966117	0.000209	2.087556	0.353641	0.000021
 708	7.0347e+01	7.0309	4.984854	0.000188	1.882893	0.318971	0.000019
 709	7.0446e+01	7.0397	5.007666	0.000229	2.292218	0.388312	0.000023
 710	7.0546e+01	7.0499	5.023552	0.000160	1.596366	0.270432	0.000016
 711	7.0645e+01	7.0611	5.047993	0.000246	2.455948	0.416049	0.000025
 712	7.0745e+01	7.0721	5.066323	0.000184	1.841961	0.312037	0.000018
 713	7.0844e+01	7.0793	5.085468	0.000192	1.923826	0.325905	0.000019
 714	7.0944e+01	7.0856	5.099725	0.000143	1.432636	0.242695	0.000014
 715	7.1043e+01	7.0995	5.124573	0.000250	2.496880	0.422983	0.000025
 716	7.1142e+01	7.1099	5.145347	0.000209	2.087556	0.353641	0.000021
 717	7.1242e+01	7.1201	5.160419	0.000151	1.514501	0.256563	0.000015
 718	7.1341e+01	7.1301	5.180379	0.000201	2.005691	0.339773	0.000020
 719	7.1441e+01	7.1402	5.198709	0.000184	1.841961	0.312037	0.000018
 720	7.1540e+01	7.1518	5.216632	0.000180	1.801028	0.305102	0.000018
 721	7.1640e+01	7.1612	5.238629	0.000221	2.210353	0.374444	0.000022
 722	7.1740e+01	7.1695	5.256552	0.000180	1.801028	0.305102	0.000018
 723	7.1839e+01	7.1821	5.278141	0.000217	2.169420	0.367510	0.000022
 724	7.1939e+01	7.1908	5.296064	0.000180	1.801028	0.305102	0.000018
 725	7.2038e+01	7.1997	5.315209	0.000192	1.923826	0.325905	0.000019
 726	7.2138e+01	7.2109	5.331503	0.000164	1.637298	0.277366	0.000016
 727	7.2237e+01	7.2223	5.349426	0.000180	1.801028	0.305102	0.000018
 728	7.2337e+01	7.2311	5.368164	0.000188	1.882893	0.318971	0.000019
 729	7.2436e+01	7.2393	5.389753	0.000217	2.169420	0.367510	0.000022
 730	7.2535e+01	7.2524	5.400344	0.000106	1.064244	0.180288	0.000011
 731	7.2635e+01	7.2604	5.420304	0.000201	2.005691	0.339773	0.000020
 732	7.2734e+01	7.2691	5.439856	0.000196	1.964758	0.332839	0.000020
 733	7.2834e+01	7.2781	5.455742	0.000160	1.596366	0.270432	0.000016
 734	7.2933e+01	7.2909	5.474480	0.000188	1.882893	0.318971	0.000019
 735	7.3033e+01	7.2990	5.489552	0.000151	1.514501	0.256563	0.000015
 736	7.3132e+01	7.3115	5.510734	0.000213	2.128488	0.360576	0.000021
 737	7.3232e+01	7.3196	5.527027	0.000164	1.637298	0.277366	0.000016
 738	7.3332e+01	7.3274	5.542506	0.000156	1.555434	0.263498	0.000016
 739	7.3431e+01	7.3357	5.565318	0.000229	2.292218	0.388312	0.000023
 740	7.3531e+01	7.3499	5.581611	0.000164	1.637298	0.277366	0.000016
 741	7.3630e+01	7.3589	5.597498	0.000160	1.596366	0.270432	0.000016
 742	7.3730e+01	7.3679	5.617050	0.000196	1.964758	0.332839	0.000020
 743	7.3829e+01	7.3795	5.634566	0.000176	1.760096	0.298168	0.000018
 744	7.3928e+01	7.3879	5.650045	0.000156	1.555434	0.263498	0.000016
 745	7.4028e+01	7.3983	5.667153	0.000172	1.719163	0.291234	0.000017
 746	7.4127e+01	7.4099	5.686706	0.000196	1.964758	0.332839	0.000020
 747	7.4227e+01	7.4201	5.701777	0.000151	1.514501	0.256563	0.000015
 748	7.4326e+01	7.4296	5.722144	0.000205	2.046623	0.346707	0.000020
 749	7.4426e+01	7.4378	5.738438	0.000164	1.637298	0.277366	0.000016
 750	7.4525e+01	7.4496	5.756361	0.000180	1.801028	0.305102	0.000018
 751	7.4625e+01	7.4581	5.772655	0.000164	1.637298	0.277366	0.000016
 752	7.4725e+01	7.4677	5.788541	0.000160	1.596366	0.270432	0.000016
 753	7.4824e+01	7.4797	5.811760	0.000233	2.333150	0.395246	0.000023
 754	7.4924e+01	7.4879	5.825610	0.000139	1.391704	0.235761	0.000014
 755	7.5023e+01	7.4973	5.839866	0.000143	1.432636	0.242695	0.000014
 756	7.5123e+01	7.5100	5.860234	0.000205	2.046623	0.346707	0.000020
 757	7.5222e+01	7.5193	5.876527	0.000164	1.637298	0.277366	0.000016
 758	7.5322e+01	7.5294	5.893228	0.000168	1.678231	0.284300	0.000017
 759	7.5421e+01	7.5382	5.914818	0.000217	2.169420	0.367510	0.000022
 760	7.5520e+01	7.5473	5.925408	0.000106	1.064244	0.180288	0.000011
 761	7.5620e+01	7.5586	5.942109	0.000168	1.678231	0.284300	0.000017
 762	7.5719e+01	7.5684	5.956774	0.000147	1.473569	0.249629	0.000015
 763	7.5819e+01	7.5764	5.972253	0.000156	1.555434	0.263498	0.000016
 764	7.5918e+01	7.5879	5.985695	0.000135	1.350771	0.228827	0.000014
 765	7.6018e+01	7.5986	5.999952	0.000143	1.432636	0.242695	0.000014
 766	7.6118e+01	7.6061	6.019097	0.000192	1.923826	0.325905	0.000019
 767	7.6217e+01	7.6173	6.031317	0.000123	1.227974	0.208024	0.000012
 768	7.6317e+01	7.6273	6.046389	0.000151	1.514501	0.256563	0.000015
 769	7.6416e+01	7.6391	6.061053	0.000147	1.473569	0.249629	0.000015
 770	7.6516e+01	7.6473	6.072052	0.000111	1.105176	0.187222	0.000011
 771	7.6615e+01	7.6580	6.085087	0.000131	1.309839	0.221893	0.000013
 772	7.6715e+01	7.6660	6.096900	0.000119	1.187041	0.201090	0.000012
 773	7.6814e+01	7.6762	6.112379	0.000156	1.555434	0.263498	0.000016
 774	7.6913e+01	7.6884	6.127450	0.000151	1.514501	0.256563	0.000015
 775	7.7013e+01	7.6962	6.140893	0.000135	1.350771	0.228827	0.000014
 776	7.7112e+01	7.7052	6.153113	0.000123	1.227974	0.208024	0.000012
 777	7.7212e+01	7.7164	6.169814	0.000168	1.678231	0.284300	0.000017
 778	7.7311e+01	7.7250	6.181220	0.000115	1.146109	0.194156	0.000011
 779	7.7411e+01	7.7381	6.200365	0.000192	1.923826	0.325905	0.000019
 780	7.7510e+01	7.7466	6.210956	0.000106	1.064244	0.180288	0.000011
 781	7.7610e+01	7.7572	6.228471	0.000176	1.760096	0.298168	0.000018
 782	7.7710e+01	7.7691	6.242321	0.000139	1.391704	0.235761	0.000014
 783	7.7809e+01	7.7783	6.259022	0.000168	1.678231	0.284300	0.000017
 784	7.7909e+01	7.7860	6.274908	0.000160	1.596366	0.270432	0.000016
 785	7.8008e+01	7.7956	6.293239	0.000184	1.841961	0.312037	0.000018
 786	7.8108e+01	7.8068	6.312791	0.000196	1.964758	0.332839	0.000020
 787	7.8207e+01	7.8152	6.329900	0.000172	1.719163	0.291234	0.000017
 788	7.8306e+01	7.8265	6.345379	0.000156	1.555434	0.263498	0.000016
 789	7.8406e+01	7.8369	6.361672	0.000164	1.637298	0.277366	0.000016
 790	7.8505e+01	7.8452	6.382447	0.000209	2.087556	0.353641	0.000021
 791	7.8605e+01	7.8553	6.402407	0.000201	2.005691	0.339773	0.000020
 792	7.8704e+01	7.8653	6.421144	0.000188	1.882893	0.318971	0.000019
 793	7.8804e+01	7.8776	6.439067	0.000180	1.801028	0.305102	0.000018
 794	7.8903e+01	7.8849	6.456990	0.000180	1.801028	0.305102	0.000018
 795	7.9003e+01	7.8974	6.475728	0.000188	1.882893	0.318971	0.000019
 796	7.9103e+01	7.9079	6.494466	0.000188	1.882893	0.318971	0.000019
 797	7.9202e+01	7.9150	6.513611	0.000192	1.923826	0.325905	0.000019
 798	7.9302e+01	7.9253	6.530312	0.000168	1.678231	0.284300	0.000017
 799	7.9401e+01	7.9353	6.549865	0.000196	1.964758	0.332839	0.000020
 800	7.9501e+01	7.9443	6.569417	0.000196	1.964758	0.332839	0.000020
 801	7.9600e+01	7.9545	6.588562	0.000192	1.923826	0.325905	0.000019
 802	7.9700e+01	7.9639	6.609337	0.000209	2.087556	0.353641	0.000021
 803	7.9799e+01	7.9774	6.626445	0.000172	1.719163	0.291234	0.000017
 804	7.9898e+01	7.9883	6.648849	0.000225	2.251285	0.381378	0.000023
 805	7.9998e+01	7.9984	6.666365	0.000176	1.760096	0.298168	0.000018
 806	8.0097e+01	8.0064	6.685917	0.000196	1.964758	0.332839	0.000020
 807	8.0197e+01	8.0159	6.706284	0.000205	2.046623	0.346707	0.000020
 808	8.0296e+01	8.0247	6.722170	0.000160	1.596366	0.270432	0.000016
 809	8.0396e+01	8.0387	6.744574	0.000225	2.251285	0.381378	0.000023
 810	8.0496e+01	8.0463	6.762905	0.000184	1.841961	0.312037	0.000018
 811	8.0595e+01	8.0569	6.786938	0.000242	2.415015	0.409115	0.000024
 812	8.0695e+01	8.0669	6.801602	0.000147	1.473569	0.249629	0.000015
 813	8.0794e+01	8.0753	6.826450	0.000250	2.496880	0.422983	0.000025
 814	8.0894e+01	8.0859	6.846410	0.000201	2.005691	0.339773	0.000020
 815	8.0993e+01	8.0950	6.865962	0.000196	1.964758	0.332839	0.000020
 816	8.1093e+01	8.1042	6.886737	0.000209	2.087556	0.353641	0.000021
 817	8.1192e+01	8.1128	6.908326	0.000217	2.169420	0.367510	0.000022
 818	8.1291e+01	8.1282	6.930322	0.000221	2.210353	0.374444	0.000022
 819	8.1391e+01	8.1322	6.947024	0.000168	1.678231	0.284300	0.000017
 820	8.1490e+01	8.1452	6.971057	0.000242	2.415015	0.409115	0.000024
 821	8.1590e+01	8.1545	6.990202	0.000192	1.923826	0.325905	0.000019
 822	8.1689e+01	8.1641	7.015864	0.000258	2.578745	0.436851	0.000026
 823	8.1789e+01	8.1763	7.035010	0.000192	1.923826	0.325905	0.000019
 824	8.1888e+01	8.1854	7.055784	0.000209	2.087556	0.353641	0.000021
 825	8.1988e+01	8.1934	7.076966	0.000213	2.128488	0.360576	0.000021
 826	8.2088e+01	8.2047	7.096926	0.000201	2.005691	0.339773	0.000020
 827	8.2187e+01	8.2153	7.118107	0.000213	2.128488	0.360576	0.000021
 828	8.2287e+01	8.2264	7.135216	0.000172	1.719163	0.291234	0.000017
 829	8.2386e+01	8.2336	7.162100	0.000270	2.701542	0.457654	0.000027
 830	8.2486e+01	8.2478	7.180023	0.000180	1.801028	0.305102	0.000018
 831	8.2585e+01	8.2550	7.200391	0.000205	2.046623	0.346707	0.000020
 832	8.2684e+01	8.2648	7.221980	0.000217	2.169420	0.367510	0.000022
 833	8.2784e+01	8.2734	7.241532	0.000196	1.964758	0.332839	0.000020
 834	8.2883e+01	8.2841	7.262714	0.000213	2.128488	0.360576	0.000021
 835	8.2983e+01	8.2945	7.283081	0.000205	2.046623	0.346707	0.000020
 836	8.3082e+01	8.3057	7.302226	0.000192	1.923826	0.325905	0.000019
 837	8.3182e+01	8.3117	7.325445	0.000233	2.333150	0.395246	0.000023
 838	8.3281e+01	8.3273	7.343368	0.000180	1.801028	0.305102	0.000018
 839	8.3381e+01	8.3344	7.366179	0.000229	2.292218	0.388312	0.000023
 840	8.3481e+01	8.3433	7.386139	0.000201	2.005691	0.339773	0.000020
 841	8.3580e+01	8.3537	7.407728	0.000217	2.169420	0.367510	0.000022
 842	8.3680e+01	8.3660	7.427688	0.000201	2.005691	0.339773	0.000020
 843	8.3779e+01	8.3720	7.452943	0.000254	2.537813	0.429917	0.000025
 844	8.3879e+01	8.3833	7.475347	0.000225	2.251285	0.381378	0.000023
 845	8.3978e+01	8.3919	7.495714	0.000205	2.046623	0.346707	0.000020
 846	8.4078e+01	8.4049	7.516081	0.000205	2.046623	0.346707	0.000020
 847	8.4177e+01	8.4131	7.546632	0.000307	3.069935	0.520061	0.000031
 848	8.4276e+01	8.4229	7.565777	0.000192	1.923826	0.325905	0.000019
 849	8.4376e+01	8.4342	7.588181	0.000225	2.251285	0.381378	0.000023
 850	8.4475e+01	8.4425	7.614251	0.000262	2.619678	0.443785	0.000026
 851	8.4575e+01	8.4534	7.635840	0.000217	2.169420	0.367510	0.000022
 852	8.4674e+01	8.4637	7.660688	0.000250	2.496880	0.422983	0.000025
 853	8.4774e+01	8.4741	7.690016	0.000295	2.947137	0.499259	0.000029
 854	8.4874e+01	8.4829	7.713235	0.000233	2.333150	0.395246	0.000023
 855	8.4973e+01	8.4968	7.739305	0.000262	2.619678	0.443785	0.000026
 856	8.5073e+01	8.4985	7.766189	0.000270	2.701542	0.457654	0.000027
 857	8.5172e+01	8.5133	7.784520	0.000184	1.841961	0.312037	0.000018
 858	8.5272e+01	8.5217	7.810182	0.000258	2.578745	0.436851	0.000026
 859	8.5371e+01	8.5313	7.837067	0.000270	2.701542	0.457654	0.000027
 860	8.5471e+01	8.5413	7.863137	0.000262	2.619678	0.443785	0.000026
 861	8.5570e+01	8.5534	7.883097	0.000201	2.005691	0.339773	0.000020
 862	8.5669e+01	8.5610	7.907945	0.000250	2.496880	0.422983	0.000025
 863	8.5769e+01	8.5728	7.933200	0.000254	2.537813	0.429917	0.000025
 864	8.5868e+01	8.5841	7.951530	0.000184	1.841961	0.312037	0.000018
 865	8.5968e+01	8.5941	7.978008	0.000266	2.660610	0.450720	0.000027
 866	8.6067e+01	8.6035	8.000004	0.000221	2.210353	0.374444	0.000022
 867	8.6167e+01	8.6126	8.022408	0.000225	2.251285	0.381378	0.000023
 868	8.6266e+01	8.6213	8.043997	0.000217	2.169420	0.367510	0.000022
 869	8.6366e+01	8.6329	8.062735	0.000188	1.882893	0.318971	0.000019
 870	8.6466e+01	8.6429	8.086361	0.000237	2.374083	0.402181	0.000024
 871	8.6565e+01	8.6542	8.107135	0.000209	2.087556	0.353641	0.000021
 872	8.6665e+01	8.6621	8.128724	0.000217	2.169420	0.367510	0.000022
 873	8.6764e+01	8.6702	8.150313	0.000217	2.169420	0.367510	0.000022
 874	8.6864e+01	8.6845	8.170681	0.000205	2.046623	0.346707	0.000020
 875	8.6963e+01	8.6915	8.189826	0.000192	1.923826	0.325905	0.000019
 876	8.7063e+01	8.7023	8.210600	0.000209	2.087556	0.353641	0.000021
 877	8.7162e+01	8.7128	8.230153	0.000196	1.964758	0.332839	0.000020
 878	8.7261e+01	8.7210	8.248890	0.000188	1.882893	0.318971	0.000019
 879	8.7361e+01	8.7331	8.266406	0.000176	1.760096	0.298168	0.000018
 880	8.7460e+01	8.7427	8.288810	0.000225	2.251285	0.381378	0.000023
 881	8.7560e+01	8.7523	8.307548	0.000188	1.882893	0.318971	0.000019
 882	8.7659e+01	8.7611	8.327100	0.000196	1.964758	0.332839	0.000020
 883	8.7759e+01	8.7744	8.345838	0.000188	1.882893	0.318971	0.000019
 884	8.7859e+01	8.7818	8.369056	0.000233	2.333150	0.395246	0.000023
 885	8.7958e+01	8.7894	8.384943	0.000160	1.596366	0.270432	0.000016
 886	8.8058e+01	8.8017	8.402866	0.000180	1.801028	0.305102	0.000018
 887	8.8157e+01	8.8120	8.424455	0.000217	2.169420	0.367510	0.000022
 888	8.8257e+01	8.8215	8.444007	0.000196	1.964758	0.332839	0.000020
 889	8.8356e+01	8.8314	8.459486	0.000156	1.555434	0.263498	0.000016
 890	8.8456e+01	8.8412	8.479039	0.000196	1.964758	0.332839	0.000020
 891	8.8555e+01	8.8491	8.498591	0.000196	1.964758	0.332839	0.000020
 892	8.8654e+01	8.8631	8.519773	0.000213	2.128488	0.360576	0.000021
 893	8.8754e+01	8.8721	8.536474	0.000168	1.678231	0.284300	0.000017
 894	8.8853e+01	8.8810	8.556027	0.000196	1.964758	0.332839	0.000020
 895	8.8953e+01	8.8905	8.575579	0.000196	1.964758	0.332839	0.000020
 896	8.9052e+01	8.9004	8.592280	0.000168	1.678231	0.284300	0.000017
 897	8.9152e+01	8.9114	8.610611	0.000184	1.841961	0.312037	0.000018
 898	8.9251e+01	8.9200	8.629348	0.000188	1.882893	0.318971	0.000019
 899	8.9351e+01	8.9323	8.646049	0.000168	1.678231	0.284300	0.000017
 900	8.9451e+01	8.9405	8.663972	0.000180	1.801028	0.305102	0.000018
 901	8.9550e+01	8.9516	8.685969	0.000221	2.210353	0.374444	0.000022
 902	8.9650e+01	8.9617	8.703077	0.000172	1.719163	0.291234	0.000017
 903	8.9749e+01	8.9724	8.718149	0.000151	1.514501	0.256563	0.000015
 904	8.9849e+01	8.9801	8.737294	0.000192	1.923826	0.325905	0.000019
 905	8.9948e+01	8.9887	8.756439	0.000192	1.923826	0.325905	0.000019
 906	9.0047e+01	9.0004	8.772733	0.000164	1.637298	0.277366	0.000016
 907	9.0147e+01	9.0101	8.793507	0.000209	2.087556	0.353641	0.000021
 908	9.0246e+01	9.0194	8.811838	0.000184	1.841961	0.312037	0.000018
 909	9.0346e+01	9.0295	8.825280	0.000135	1.350771	0.228827	0.000014
 910	9.0445e+01	9.0423	8.845240	0.000201	2.005691	0.339773	0.000020
 911	9.0545e+01	9.0513	8.861126	0.000160	1.596366	0.270432	0.000016
 912	9.0644e+01	9.0593	8.882308	0.000213	2.128488	0.360576	0.000021
 913	9.0744e+01	9.0710	8.902268	0.000201	2.005691	0.339773	0.000020
 914	9.0844e+01	9.0810	8.916525	0.000143	1.432636	0.242695	0.000014
 915	9.0943e+01	9.0911	8.933633	0.000172	1.719163	0.291234	0.000017
 916	9.1043e+01	9.0997	8.951556	0.000180	1.801028	0.305102	0.000018
 917	9.1142e+01	9.1084	8.972331	0.000209	2.087556	0.353641	0.000021
 918	9.1242e+01	9.1188	8.988217	0.000160	1.596366	0.270432	0.000016
 919	9.1341e+01	9.1295	9.008177	0.000201	2.005691	0.339773	0.000020
 920	9.1441e+01	9.1406	9.028137	0.000201	2.005691	0.339773	0.000020
 921	9.1540e+01	9.1482	9.044430	0.000164	1.637298	0.277366	0.000016
 922	9.1639e+01	9.1571	9.063983	0.000196	1.964758	0.332839	0.000020
 923	9.1739e+01	9.1708	9.081906	0.000180	1.801028	0.305102	0.000018
 924	9.1838e+01	9.1778	9.097385	0.000156	1.555434	0.263498	0.000016
 925	9.1938e+01	9.1882	9.114493	0.000172	1.719163	0.291234	0.000017
 926	9.2037e+01	9.1985	9.133231	0.000188	1.882893	0.318971	0.000019
 927	9.2137e+01	9.2094	9.150747	0.000176	1.760096	0.298168	0.000018
 928	9.2237e+01	9.2181	9.165004	0.000143	1.432636	0.242695	0.000014
 929	9.2336e+01	9.2292	9.180075	0.000151	1.514501	0.256563	0.000015
 930	9.2436e+01	9.2390	9.197184	0.000172	1.719163	0.291234	0.000017
 931	9.2535e+01	9.2530	9.210626	0.000135	1.350771	0.228827	0.000014
 932	9.2635e+01	9.2584	9.226512	0.000160	1.596366	0.270432	0.000016
 933	9.2734e+01	9.2677	9.244028	0.000176	1.760096	0.298168	0.000018
 934	9.2834e+01	9.2804	9.259507	0.000156	1.555434	0.263498	0.000016
 935	9.2933e+01	9.2886	9.272950	0.000135	1.350771	0.228827	0.000014
 936	9.3032e+01	9.2982	9.288836	0.000160	1.596366	0.270432	0.000016
 937	9.3132e+01	9.3085	9.300241	0.000115	1.146109	0.194156	0.000011
 938	9.3231e+01	9.3180	9.319794	0.000196	1.964758	0.332839	0.000020
 939	9.3331e+01	9.3280	9.330792	0.000111	1.105176	0.187222	0.000011
 940	9.3430e+01	9.3409	9.344234	0.000135	1.350771	0.228827	0.000014
 941	9.3530e+01	9.3491	9.360936	0.000168	1.678231	0.284300	0.000017
 942	9.3629e+01	9.3591	9.376415	0.000156	1.555434	0.263498	0.000016
 943	9.3729e+01	9.3678	9.391079	0.000147	1.473569	0.249629	0.000015
 944	9.3829e+01	9.3783	9.404929	0.000139	1.391704	0.235761	0.000014
 945	9.3928e+01	9.3901	9.420408	0.000156	1.555434	0.263498	0.000016
 946	9.4028e+01	9.4006	9.434257	0.000139	1.391704	0.235761	0.000014
 947	9.4127e+01	9.4083	9.452180	0.000180	1.801028	0.305102	0.000018
 948	9.4227e+01	9.4184	9.468067	0.000160	1.596366	0.270432	0.000016
 949	9.4326e+01	9.4280	9.481509	0.000135	1.350771	0.228827	0.000014
 950	9.4425e+01	9.4385	9.503913	0.000225	2.251285	0.381378	0.000023
 951	9.4525e+01	9.4485	9.515726	0.000119	1.187041	0.201090	0.000012
 952	9.4624e+01	9.4580	9.535685	0.000201	2.005691	0.339773	0.000020
 953	9.4724e+01	9.4636	9.554423	0.000188	1.882893	0.318971	0.000019
 954	9.4823e+01	9.4789	9.575605	0.000213	2.128488	0.360576	0.000021
 955	9.4923e+01	9.4884	9.595565	0.000201	2.005691	0.339773	0.000020
 956	9.5022e+01	9.4957	9.614710	0.000192	1.923826	0.325905	0.000019
 957	9.5122e+01	9.5069	9.633448	0.000188	1.882893	0.318971	0.000019
 958	9.5222e+01	9.5174	9.653815	0.000205	2.046623	0.346707	0.000020
 959	9.5321e+01	9.5277	9.675404	0.000217	2.169420	0.367510	0.000022
 960	9.5421e+01	9.5377	9.694549	0.000192	1.923826	0.325905	0.000019
 961	9.5520e+01	9.5468	9.716953	0.000225	2.251285	0.381378	0.000023
 962	9.5620e+01	9.5576	9.735691	0.000188	1.882893	0.318971	0.000019
 963	9.5719e+01	9.5673	9.756465	0.000209	2.087556	0.353641	0.000021
 964	9.5819e+01	9.5752	9.777240	0.000209	2.087556	0.353641	0.000021
 965	9.5918e+01	9.5859	9.798421	0.000213	2.128488	0.360576	0.000021
 966	9.6017e+01	9.5986	9.818381	0.000201	2.005691	0.339773	0.000020
 967	9.6117e+01	9.6063	9.840785	0.000225	2.251285	0.381378	0.000023
 968	9.6216e+01	9.6179	9.865226	0.000246	2.455948	0.416049	0.000025
 969	9.6316e+01	9.6261	9.881519	0.000164	1.637298	0.277366	0.000016
 970	9.6415e+01	9.6375	9.905145	0.000237	2.374083	0.402181	0.000024
 971	9.6515e+01	9.6462	9.923476	0.000184	1.841961	0.312037	0.000018
 972	9.6615e+01	9.6549	9.947509	0.000242	2.415015	0.409115	0.000024
 973	9.6714e+01	9.6669	9.972357	0.000250	2.496880	0.422983	0.000025
 974	9.6814e+01	9.6765	9.989058	0.000168	1.678231	0.284300	0.000017
 975	9.6913e+01	9.6891	10.012276	0.000233	2.333150	0.395246	0.000023
 976	9.7013e+01	9.6959	10.026533	0.000143	1.432636	0.242695	0.000014
 977	9.7112e+01	9.7076	10.053010	0.000266	2.660610	0.450720	0.000027
 978	9.7212e+01	9.7162	10.074192	0.000213	2.128488	0.360576	0.000021
 979	9.7311e+01	9.7268	10.093745	0.000196	1.964758	0.332839	0.000020
 980	9.7410e+01	9.7351	10.118593	0.000250	2.496880	0.422983	0.000025
 981	9.7510e+01	9.7480	10.140182	0.000217	2.169420	0.367510	0.000022
 982	9.7609e+01	9.7572	10.160142	0.000201	2.005691	0.339773	0.000020
 983	9.7709e+01	9.7660	10.189470	0.000295	2.947137	0.499259	0.000029
 984	9.7808e+01	9.7778	10.206579	0.000172	1.719163	0.291234	0.000017
 985	9.7908e+01	9.7881	10.227760	0.000213	2.128488	0.360576	0.000021
 986	9.8007e+01	9.7952	10.249757	0.000221	2.210353	0.374444	0.000022
 987	9.8107e+01	9.8067	10.271753	0.000221	2.210353	0.374444	0.000022
 988	9.8207e+01	9.8157	10.296601	0.000250	2.496880	0.422983	0.000025
 989	9.8306e+01	9.8267	10.323079	0.000266	2.660610	0.450720	0.000027
 990	9.8406e+01	9.8359	10.346704	0.000237	2.374083	0.402181	0.000024
 991	9.8505e+01	9.8471	10.366664	0.000201	2.005691	0.339773	0.000020
 992	9.8605e+01	9.8586	10.389475	0.000229	2.292218	0.388312	0.000023
 993	9.8704e+01	9.8657	10.413509	0.000242	2.415015	0.409115	0.000024
 994	9.8803e+01	9.8768	10.436727	0.000233	2.333150	0.395246	0.000023
 995	9.8903e+01	9.8861	10.458316	0.000217	2.169420	0.367510	0.000022
 996	9.9002e+01	9.8952	10.484794	0.000266	2.660610	0.450720	0.000027
 997	9.9102e+01	9.9039	10.502717	0.000180	1.801028	0.305102	0.000018
 998	9.9201e+01	9.9133	10.524713	0.000221	2.210353	0.374444	0.000022
 999	9.9301e+01	9.9280	10.548339	0.000237	2.374083	0.402181	0.000024
1000	9.9400e+01	9.9372	10.572780	0.000246	2.455948	0.416049	0.000025
1001	9.9500e+01	9.9469	10.597220	0.000246	2.455948	0.416049	0.000025
1002	9.9600e+01	9.9551	10.619624	0.000225	2.251285	0.381378	0.000023
1003	9.9699e+01	9.9634	10.643657	0.000242	2.415015	0.409115	0.000024
1004	9.9799e+01	9.9756	10.667283	0.000237	2.374083	0.402181	0.000024
1005	9.9898e+01	9.9866	10.688872	0.000217	2.169420	0.367510	0.000022
1006	9.9998e+01	9.9969	10.710869	0.000221	2.210353	0.374444	0.000022
1007	1.0010e+02	9.9854	10.708017	0.000029	0.286527	0.048539	-0.000003
1008	1.0020e+02	9.9756	10.705573	0.000025	0.245595	0.041605	-0.000002
1009	1.0030e+02	9.9666	10.700278	0.000053	0.532122	0.090144	-0.000005
1010	1.0040e+02	9.9549	10.694575	0.000057	0.573054	0.097078	-0.000006
1011	1.0050e+02	9.9458	10.693760	0.000008	0.081865	0.013868	-0.000001
1012	1.0059e+02	9.9331	10.691316	0.000025	0.245595	0.041605	-0.000002
1013	1.0069e+02	9.9259	10.686836	0.000045	0.450257	0.076276	-0.000005
1014	1.0079e+02	9.9155	10.681947	0.000049	0.491190	0.083210	-0.000005
1015	1.0089e+02	9.9072	10.679911	0.000020	0.204662	0.034671	-0.000002
1016	1.0099e+02	9.8990	10.679503	0.000004	0.040932	0.006934	-0.000000
1017	1.0109e+02	9.8847	10.673801	0.000057	0.573054	0.097078	-0.000006
1018	1.0119e+02	9.8756	10.672579	0.000012	0.122797	0.020802	-0.000001
1019	1.0129e+02	9.8658	10.670949	0.000016	0.163730	0.027737	-0.000002
1020	1.0139e+02	9.8573	10.668098	0.000029	0.286527	0.048539	-0.000003
1021	1.0149e+02	9.8472	10.666468	0.000016	0.163730	0.027737	-0.000002
1022	1.0159e+02	9.8368	10.666468	-0.000000	-0.000000	-0.000000	0.000000
1023	1.0169e+02	9.8262	10.665654	0.000008	0.081865	0.013868	-0.000001
1024	1.0179e+02	9.8161	10.661580	0.000041	0.409325	0.069341	-0.000004
1025	1.0189e+02	9.8047	10.659544	0.000020	0.204662	0.034671	-0.000002
1026	1.0199e+02	9.7953	10.660766	-0.000012	-0.122797	-0.020802	0.000001
1027	1.0209e+02	9.7893	10.654248	0.000065	0.654919	0.110946	-0.000007
1028	1.0219e+02	9.7762	10.652211	0.000020	0.204662	0.034671	-0.000002
1029	1.0229e+02	9.7662	10.645694	0.000065	0.654919	0.110946	-0.000007
1030	1.0239e+02	9.7543	10.644065	0.000016	0.163730	0.027737	-0.000002
1031	1.0248e+02	9.7462	10.639991	0.000041	0.409325	0.069341	-0.000004
1032	1.0258e+02	9.7378	10.636325	0.000037	0.368392	0.062407	-0.000004
1033	1.0268e+02	9.7266	10.629808	0.000065	0.654919	0.110946	-0.000007
1034	1.0278e+02	9.7157	10.624512	0.000053	0.532122	0.090144	-0.000005
1035	1.0288e+02	9.7042	10.622068	0.000025	0.245595	0.041605	-0.000002
1036	1.0298e+02	9.6973	10.611477	0.000106	1.064244	0.180288	-0.000011
1037	1.0308e+02	9.6856	10.607811	0.000037	0.368392	0.062407	-0.000004
1038	1.0318e+02	9.6780	10.595591	0.000123	1.227974	0.208024	-0.000012
1039	1.0328e+02	9.6669	10.593554	0.000020	0.204662	0.034671	-0.000002
1040	1.0338e+02	9.6606	10.583371	0.000102	1.023312	0.173354	-0.000010
1041	1.0348e+02	9.6455	10.575224	0.000082	0.818649	0.138683	-0.000008
1042	1.0358e+02	9.6375	10.567077	0.000082	0.818649	0.138683	-0.000008
1043	1.0368e+02	9.6289	10.559337	0.000078	0.777717	0.131749	-0.000008
1044	1.0378e+02	9.6175	10.553227	0.000061	0.613987	0.104012	-0.000006
1045	1.0388e+02	9.6075	10.541414	0.000119	1.187041	0.201090	-0.000012
1046	1.0398e+02	9.5969	10.533267	0.000082	0.818649	0.138683	-0.000008
1047	1.0408e+02	9.5898	10.521454	0.000119	1.187041	0.201090	-0.000012
1048	1.0418e+02	9.5779	10.516974	0.000045	0.450257	0.076276	-0.000005
1049	1.0428e+02	9.5647	10.505568	0.000115	1.146109	0.194156	-0.000011
1050	1.0438e+02	9.5567	10.494162	0.000115	1.146109	0.194156	-0.000011
1051	1.0447e+02	9.5471	10.485608	0.000086	0.859582	0.145617	-0.000009
1052	1.0457e+02	9.5358	10.477054	0.000086	0.859582	0.145617	-0.000009
1053	1.0467e+02	9.5269	10.460760	0.000164	1.637298	0.277366	-0.000016
1054	1.0477e+02	9.5176	10.456687	0.000041	0.409325	0.069341	-0.000004
1055	1.0487e+02	9.5093	10.448133	0.000086	0.859582	0.145617	-0.000009
1056	1.0497e+02	9.4978	10.437542	0.000106	1.064244	0.180288	-0.000011
1057	1.0507e+02	9.4897	10.429395	0.000082	0.818649	0.138683	-0.000008
1058	1.0517e+02	9.4770	10.420841	0.000086	0.859582	0.145617	-0.000009
1059	1.0527e+02	9.4695	10.409435	0.000115	1.146109	0.194156	-0.000011
1060	1.0537e+02	9.4556	10.399659	0.000098	0.982379	0.166420	-0.000010
1061	1.0547e+02	9.4488	10.389883	0.000098	0.982379	0.166420	-0.000010
1062	1.0557e+02	9.4358	10.381736	0.000082	0.818649	0.138683	-0.000008
1063	1.0567e+02	9.4276	10.368701	0.000131	1.309839	0.221893	-0.000013
1064	1.0577e+02	9.4181	10.354037	0.000147	1.473569	0.249629	-0.000015
1065	1.0587e+02	9.4083	10.345482	0.000086	0.859582	0.145617	-0.000009
1066	1.0597e+02	9.3970	10.334892	0.000106	1.064244	0.180288	-0.000011
1067	1.0607e+02	9.3898	10.323486	0.000115	1.146109	0.194156	-0.000011
1068	1.0617e+02	9.3741	10.312488	0.000111	1.105176	0.187222	-0.000011
1069	1.0627e+02	9.3682	10.298638	0.000139	1.391704	0.235761	-0.000014
1070	1.0637e+02	9.3573	10.290899	0.000078	0.777717	0.131749	-0.000008
1071	1.0647e+02	9.3468	10.275012	0.000160	1.596366	0.270432	-0.000016
1072	1.0656e+02	9.3371	10.268902	0.000061	0.613987	0.104012	-0.000006
1073	1.0666e+02	9.3293	10.256274	0.000127	1.268906	0.214959	-0.000013
1074	1.0676e+02	9.3194	10.241203	0.000151	1.514501	0.256563	-0.000015
1075	1.0686e+02	9.3088	10.233056	0.000082	0.818649	0.138683	-0.000008
1076	1.0696e+02	9.3006	10.218392	0.000147	1.473569	0.249629	-0.000015
1077	1.0706e+02	9.2899	10.206171	0.000123	1.227974	0.208024	-0.000012
1078	1.0716e+02	9.2822	10.194766	0.000115	1.146109	0.194156	-0.000011
1079	1.0726e+02	9.2696	10.182545	0.000123	1.227974	0.208024	-0.000012
1080	1.0736e+02	9.2590	10.170325	0.000123	1.227974	0.208024	-0.000012
1081	1.0746e+02	9.2484	10.156068	0.000143	1.432636	0.242695	-0.000014
1082	1.0756e+02	9.2397	10.145477	0.000106	1.064244	0.180288	-0.000011
1083	1.0766e+02	9.2295	10.134886	0.000106	1.064244	0.180288	-0.000011
1084	1.0776e+02	9.2188	10.120629	0.000143	1.432636	0.242695	-0.000014
1085	1.0786e+02	9.2104	10.110446	0.000102	1.023312	0.173354	-0.000010
1086	1.0796e+02	9.1992	10.097411	0.000131	1.309839	0.221893	-0.000013
1087	1.0806e+02	9.1908	10.086005	0.000115	1.146109	0.194156	-0.000011
1088	1.0816e+02	9.1815	10.074600	0.000115	1.146109	0.194156	-0.000011
1089	1.0826e+02	9.1724	10.061972	0.000127	1.268906	0.214959	-0.000013
1090	1.0836e+02	9.1566	10.050159	0.000119	1.187041	0.201090	-0.000012
1091	1.0845e+02	9.1505	10.037124	0.000131	1.309839	0.221893	-0.000013
1092	1.0855e+02	9.1370	10.021645	0.000156	1.555434	0.263498	-0.000016
1093	1.0865e+02	9.1280	10.009832	0.000119	1.187041	0.201090	-0.000012
1094	1.0875e+02	9.1204	9.998427	0.000115	1.146109	0.194156	-0.000011
1095	1.0885e+02	9.1090	9.987428	0.000111	1.105176	0.187222	-0.000011
1096	1.0895e+02	9.0991	9.968283	0.000192	1.923826	0.325905	-0.000019
1097	1.0905e+02	9.0894	9.957692	0.000106	1.064244	0.180288	-0.000011
1098	1.0915e+02	9.0787	9.937325	0.000205	2.046623	0.346707	-0.000020
1099	1.0925e+02	9.0702	9.924290	0.000131	1.309839	0.221893	-0.000013
1100	1.0935e+02	9.0583	9.910441	0.000139	1.391704	0.235761	-0.000014
1101	1.0945e+02	9.0512	9.889259	0.000213	2.128488	0.360576	-0.000021
1102	1.0955e+02	9.0394	9.878261	0.000111	1.105176	0.187222	-0.000011
1103	1.0965e+02	9.0288	9.860337	0.000180	1.801028	0.305102	-0.000018
1104	1.0975e+02	9.0212	9.843636	0.000168	1.678231	0.284300	-0.000017
1105	1.0985e+02	9.0088	9.826121	0.000176	1.760096	0.298168	-0.000018
1106	1.0995e+02	9.0002	9.814715	0.000115	1.146109	0.194156	-0.000011
1107	1.1005e+02	8.9917	9.794348	0.000205	2.046623	0.346707	-0.000020
1108	1.1015e+02	8.9808	9.776832	0.000176	1.760096	0.298168	-0.000018
1109	1.1025e+02	8.9707	9.761353	0.000156	1.555434	0.263498	-0.000016
1110	1.1035e+02	8.9613	9.747911	0.000135	1.350771	0.228827	-0.000014
1111	1.1044e+02	8.9494	9.730395	0.000176	1.760096	0.298168	-0.000018
1112	1.1054e+02	8.9391	9.713694	0.000168	1.678231	0.284300	-0.000017
1113	1.1064e+02	8.9307	9.697400	0.000164	1.637298	0.277366	-0.000016
1114	1.1074e+02	8.9190	9.681514	0.000160	1.596366	0.270432	-0.000016
1115	1.1084e+02	8.9111	9.666035	0.000156	1.555434	0.263498	-0.000016
1116	1.1094e+02	8.8989	9.651371	0.000147	1.473569	0.249629	-0.000015
1117	1.1104e+02	8.8918	9.638336	0.000131	1.309839	0.221893	-0.000013
1118	1.1114e+02	8.8821	9.620005	0.000184	1.841961	0.312037	-0.000018
1119	1.1124e+02	8.8723	9.609007	0.000111	1.105176	0.187222	-0.000011
1120	1.1134e+02	8.8638	9.594343	0.000147	1.473569	0.249629	-0.000015
1121	1.1144e+02	8.8533	9.579678	0.000147	1.473569	0.249629	-0.000015
1122	1.1154e+02	8.8408	9.569902	0.000098	0.982379	0.166420	-0.000010
1123	1.1164e+02	8.8320	9.557682	0.000123	1.227974	0.208024	-0.000012
1124	1.1174e+02	8.8234	9.544647	0.000131	1.309839	0.221893	-0.000013
1125	1.1184e+02	8.8136	9.529575	0.000151	1.514501	0.256563	-0.000015
1126	1.1194e+02	8.8050	9.514911	0.000147	1.473569	0.249629	-0.000015
1127	1.1204e+02	8.7915	9.503505	0.000115	1.146109	0.194156	-0.000011
1128	1.1214e+02	8.7818	9.495359	0.000082	0.818649	0.138683	-0.000008
1129	1.1224e+02	8.7731	9.481509	0.000139	1.391704	0.235761	-0.000014
1130	1.1234e+02	8.7609	9.468067	0.000135	1.350771	0.228827	-0.000014
1131	1.1244e+02	8.7519	9.456254	0.000119	1.187041	0.201090	-0.000012
1132	1.1253e+02	8.7418	9.444848	0.000115	1.146109	0.194156	-0.000011
1133	1.1263e+02	8.7325	9.431813	0.000131	1.309839	0.221893	-0.000013
1134	1.1273e+02	8.7211	9.417556	0.000143	1.432636	0.242695	-0.000014
1135	1.1283e+02	8.7122	9.409002	0.000086	0.859582	0.145617	-0.000009
1136	1.1293e+02	8.7022	9.395967	0.000131	1.309839	0.221893	-0.000013
1137	1.1303e+02	8.6924	9.386191	0.000098	0.982379	0.166420	-0.000010
1138	1.1313e+02	8.6817	9.373156	0.000131	1.309839	0.221893	-0.000013
1139	1.1323e+02	8.6736	9.358084	0.000151	1.514501	0.256563	-0.000015
1140	1.1333e+02	8.6597	9.349530	0.000086	0.859582	0.145617	-0.000009
1141	1.1343e+02	8.6524	9.337717	0.000119	1.187041	0.201090	-0.000012
1142	1.1353e+02	8.6439	9.324682	0.000131	1.309839	0.221893	-0.000013
1143	1.1363e+02	8.6329	9.312869	0.000119	1.187041	0.201090	-0.000012
1144	1.1373e+02	8.6237	9.299019	0.000139	1.391704	0.235761	-0.000014
1145	1.1383e+02	8.6144	9.288836	0.000102	1.023312	0.173354	-0.000010
1146	1.1393e+02	8.6015	9.275801	0.000131	1.309839	0.221893	-0.000013
1147	1.1403e+02	8.5938	9.268876	0.000070	0.695852	0.117880	-0.000007
1148	1.1413e+02	8.5806	9.255841	0.000131	1.309839	0.221893	-0.000013
1149	1.1423e+02	8.5727	9.240769	0.000151	1.514501	0.256563	-0.000015
1150	1.1433e+02	8.5629	9.234252	0.000065	0.654919	0.110946	-0.000007
1151	1.1442e+02	8.5535	9.223254	0.000111	1.105176	0.187222	-0.000011
1152	1.1452e+02	8.5437	9.210219	0.000131	1.309839	0.221893	-0.000013
1153	1.1462e+02	8.5332	9.198406	0.000119	1.187041	0.201090	-0.000012
1154	1.1472e+02	8.5232	9.190666	0.000078	0.777717	0.131749	-0.000008
1155	1.1482e+02	8.5156	9.180483	0.000102	1.023312	0.173354	-0.000010
1156	1.1492e+02	8.5037	9.169892	0.000106	1.064244	0.180288	-0.000011
1157	1.1502e+02	8.4946	9.156042	0.000139	1.391704	0.235761	-0.000014
1158	1.1512e+02	8.4853	9.148710	0.000074	0.736784	0.124815	-0.000007
1159	1.1522e+02	8.4728	9.131602	0.000172	1.719163	0.291234	-0.000017
1160	1.1532e+02	8.4635	9.123455	0.000082	0.818649	0.138683	-0.000008
1161	1.1542e+02	8.4541	9.111642	0.000119	1.187041	0.201090	-0.000012
1162	1.1552e+02	8.4437	9.103495	0.000082	0.818649	0.138683	-0.000008
1163	1.1562e+02	8.4354	9.094533	0.000090	0.900514	0.152551	-0.000009
1164	1.1572e+02	8.4245	9.082721	0.000119	1.187041	0.201090	-0.000012
1165	1.1582e+02	8.4110	9.070500	0.000123	1.227974	0.208024	-0.000012
1166	1.1592e+02	8.4042	9.058280	0.000123	1.227974	0.208024	-0.000012
1167	1.1602e+02	8.3939	9.050948	0.000074	0.736784	0.124815	-0.000007
1168	1.1612e+02	8.3852	9.037098	0.000139	1.391704	0.235761	-0.000014
1169	1.1622e+02	8.3742	9.026507	0.000106	1.064244	0.180288	-0.000011
1170	1.1632e+02	8.3657	9.017953	0.000086	0.859582	0.145617	-0.000009
1171	1.1642e+02	8.3536	9.003696	0.000143	1.432636	0.242695	-0.000014
1172	1.1651e+02	8.3440	8.993920	0.000098	0.982379	0.166420	-0.000010
1173	1.1661e+02	8.3328	8.980885	0.000131	1.309839	0.221893	-0.000013
1174	1.1671e+02	8.3220	8.970701	0.000102	1.023312	0.173354	-0.000010
1175	1.1681e+02	8.3159	8.961332	0.000094	0.941447	0.159485	-0.000009
1176	1.1691e+02	8.3042	8.951149	0.000102	1.023312	0.173354	-0.000010
1177	1.1701e+02	8.2935	8.940558	0.000106	1.064244	0.180288	-0.000011
1178	1.1711e+02	8.2867	8.928745	0.000119	1.187041	0.201090	-0.000012
1179	1.1721e+02	8.2764	8.918154	0.000106	1.064244	0.180288	-0.000011
1180	1.1731e+02	8.2633	8.908785	0.000094	0.941447	0.159485	-0.000009
1181	1.1741e+02	8.2549	8.896972	0.000119	1.187041	0.201090	-0.000012
1182	1.1751e+02	8.2447	8.893306	0.000037	0.368392	0.062407	-0.000004
1183	1.1761e+02	8.2342	8.882715	0.000106	1.064244	0.180288	-0.000011
1184	1.1771e+02	8.2244	8.871717	0.000111	1.105176	0.187222	-0.000011
1185	1.1781e+02	8.2141	8.866014	0.000057	0.573054	0.097078	-0.000006
1186	1.1791e+02	8.2056	8.855831	0.000102	1.023312	0.173354	-0.000010
1187	1.1801e+02	8.1956	8.846055	0.000098	0.982379	0.166420	-0.000010
1188	1.1811e+02	8.1841	8.839537	0.000065	0.654919	0.110946	-0.000007
1189	1.1821e+02	8.1741	8.835464	0.000041	0.409325	0.069341	-0.000004
1190	1.1831e+02	8.1654	8.825687	0.000098	0.982379	0.166420	-0.000010
1191	1.1841e+02	8.1544	8.818355	0.000074	0.736784	0.124815	-0.000007
1192	1.1850e+02	8.1433	8.811023	0.000074	0.736784	0.124815	-0.000007
1193	1.1860e+02	8.1377	8.799617	0.000115	1.146109	0.194156	-0.000011
1194	1.1870e+02	8.1251	8.793507	0.000061	0.613987	0.104012	-0.000006
1195	1.1880e+02	8.1186	8.785360	0.000082	0.818649	0.138683	-0.000008
1196	1.1890e+02	8.1047	8.780065	0.000053	0.532122	0.090144	-0.000005
1197	1.1900e+02	8.0959	8.768252	0.000119	1.187041	0.201090	-0.000012
1198	1.1910e+02	8.0846	8.760105	0.000082	0.818649	0.138683	-0.000008
1199	1.1920e+02	8.0737	8.748292	0.000119	1.187041	0.201090	-0.000012
1200	1.1930e+02	8.0667	8.737294	0.000111	1.105176	0.187222	-0.000011
1201	1.1940e+02	8.0540	8.728333	0.000090	0.900514	0.152551	-0.000009
1202	1.1950e+02	8.0439	8.716112	0.000123	1.227974	0.208024	-0.000012
1203	1.1960e+02	8.0344	8.709187	0.000070	0.695852	0.117880	-0.000007
1204	1.1970e+02	8.0228	8.693301	0.000160	1.596366	0.270432	-0.000016
1205	1.1980e+02	8.0163	8.680673	0.000127	1.268906	0.214959	-0.000013
1206	1.1990e+02	8.0058	8.668861	0.000119	1.187041	0.201090	-0.000012
1207	1.2000e+02	7.9997	8.657862	0.000111	1.105176	0.187222	-0.000011
1208	1.2010e+02	7.9859	8.646457	0.000115	1.146109	0.194156	-0.000011
1209	1.2020e+02	7.9792	8.634236	0.000123	1.227974	0.208024	-0.000012
1210	1.2030e+02	7.9668	8.618350	0.000160	1.596366	0.270432	-0.000016
1211	1.2039e+02	7.9570	8.606130	0.000123	1.227974	0.208024	-0.000012
1212	1.2049e+02	7.9411	8.595132	0.000111	1.105176	0.187222	-0.000011
1213	1.2059e+02	7.9370	8.577616	0.000176	1.760096	0.298168	-0.000018
1214	1.2069e+02	7.9237	8.565396	0.000123	1.227974	0.208024	-0.000012
1215	1.2079e+02	7.9176	8.550731	0.000147	1.473569	0.249629	-0.000015
1216	1.2089e+02	7.9063	8.540548	0.000102	1.023312	0.173354	-0.000010
1217	1.2099e+02	7.8983	8.522625	0.000180	1.801028	0.305102	-0.000018
1218	1.2109e+02	7.8852	8.512034	0.000106	1.064244	0.180288	-0.000011
1219	1.2119e+02	7.8770	8.496962	0.000151	1.514501	0.256563	-0.000015
1220	1.2129e+02	7.8658	8.479039	0.000180	1.801028	0.305102	-0.000018
1221	1.2139e+02	7.8582	8.470077	0.000090	0.900514	0.152551	-0.000009
1222	1.2149e+02	7.8477	8.455413	0.000147	1.473569	0.249629	-0.000015
1223	1.2159e+02	7.8371	8.438712	0.000168	1.678231	0.284300	-0.000017
1224	1.2169e+02	7.8296	8.425677	0.000131	1.309839	0.221893	-0.000013
1225	1.2179e+02	7.8152	8.411013	0.000147	1.473569	0.249629	-0.000015
1226	1.2189e+02	7.8091	8.398792	0.000123	1.227974	0.208024	-0.000012
1227	1.2199e+02	7.7984	8.382091	0.000168	1.678231	0.284300	-0.000017
1228	1.2209e+02	7.7874	8.369056	0.000131	1.309839	0.221893	-0.000013
1229	1.2219e+02	7.7778	8.353170	0.000160	1.596366	0.270432	-0.000016
1230	1.2229e+02	7.7653	8.337691	0.000156	1.555434	0.263498	-0.000016
1231	1.2239e+02	7.7569	8.319361	0.000184	1.841961	0.312037	-0.000018
1232	1.2248e+02	7.7457	8.306733	0.000127	1.268906	0.214959	-0.000013
1233	1.2258e+02	7.7377	8.289625	0.000172	1.719163	0.291234	-0.000017
1234	1.2268e+02	7.7266	8.271702	0.000180	1.801028	0.305102	-0.000018
1235	1.2278e+02	7.7189	8.257445	0.000143	1.432636	0.242695	-0.000014
1236	1.2288e+02	7.7052	8.242373	0.000151	1.514501	0.256563	-0.000015
1237	1.2298e+02	7.6983	8.227709	0.000147	1.473569	0.249629	-0.000015
1238	1.2308e+02	7.6847	8.212230	0.000156	1.555434	0.263498	-0.000016
1239	1.2318e+02	7.6771	8.195936	0.000164	1.637298	0.277366	-0.000016
1240	1.2328e+02	7.6698	8.180457	0.000156	1.555434	0.263498	-0.000016
1241	1.2338e+02	7.6571	8.165792	0.000147	1.473569	0.249629	-0.000015
1242	1.2348e+02	7.6488	8.148684	0.000172	1.719163	0.291234	-0.000017
1243	1.2358e+02	7.6384	8.130761	0.000180	1.801028	0.305102	-0.000018
1244	1.2368e+02	7.6273	8.118948	0.000119	1.187041	0.201090	-0.000012
1245	1.2378e+02	7.6189	8.101840	0.000172	1.719163	0.291234	-0.000017
1246	1.2388e+02	7.6066	8.082287	0.000196	1.964758	0.332839	-0.000020
1247	1.2398e+02	7.5999	8.068845	0.000135	1.350771	0.228827	-0.000014
1248	1.2408e+02	7.5880	8.051737	0.000172	1.719163	0.291234	-0.000017
1249	1.2418e+02	7.5784	8.033406	0.000184	1.841961	0.312037	-0.000018
1250	1.2428e+02	7.5687	8.020779	0.000127	1.268906	0.214959	-0.000013
1251	1.2438e+02	7.5566	8.002855	0.000180	1.801028	0.305102	-0.000018
1252	1.2447e+02	7.5479	7.983710	0.000192	1.923826	0.325905	-0.000019
1253	1.2457e+02	7.5347	7.970675	0.000131	1.309839	0.221893	-0.000013
1254	1.2467e+02	7.5298	7.952752	0.000180	1.801028	0.305102	-0.000018
1255	1.2477e+02	7.5187	7.936459	0.000164	1.637298	0.277366	-0.000016
1256	1.2487e+02	7.5091	7.920165	0.000164	1.637298	0.277366	-0.000016
1257	1.2497e+02	7.4969	7.907945	0.000123	1.227974	0.208024	-0.000012
1258	1.2507e+02	7.4889	7.889614	0.000184	1.841961	0.312037	-0.000018
1259	1.2517e+02	7.4780	7.872098	0.000176	1.760096	0.298168	-0.000018
1260	1.2527e+02	7.4673	7.857841	0.000143	1.432636	0.242695	-0.000014
1261	1.2537e+02	7.4589	7.838289	0.000196	1.964758	0.332839	-0.000020
1262	1.2547e+02	7.4468	7.824847	0.000135	1.350771	0.228827	-0.000014
1263	1.2557e+02	7.4393	7.802036	0.000229	2.292218	0.388312	-0.000023
1264	1.2567e+02	7.4291	7.782483	0.000196	1.964758	0.332839	-0.000020
1265	1.2577e+02	7.4206	7.766597	0.000160	1.596366	0.270432	-0.000016
1266	1.2587e+02	7.4088	7.745822	0.000209	2.087556	0.353641	-0.000021
1267	1.2597e+02	7.4007	7.726677	0.000192	1.923826	0.325905	-0.000019
1268	1.2607e+02	7.3915	7.707532	0.000192	1.923826	0.325905	-0.000019
1269	1.2617e+02	7.3809	7.689609	0.000180	1.801028	0.305102	-0.000018
1270	1.2627e+02	7.3711	7.671686	0.000180	1.801028	0.305102	-0.000018
1271	1.2636e+02	7.3580	7.650911	0.000209	2.087556	0.353641	-0.000021
1272	1.2646e+02	7.3475	7.630544	0.000205	2.046623	0.346707	-0.000020
1273	1.2656e+02	7.3416	7.608548	0.000221	2.210353	0.374444	-0.000022
1274	1.2666e+02	7.3310	7.591032	0.000176	1.760096	0.298168	-0.000018
1275	1.2676e+02	7.3198	7.566592	0.000246	2.455948	0.416049	-0.000025
1276	1.2686e+02	7.3084	7.546632	0.000201	2.005691	0.339773	-0.000020
1277	1.2696e+02	7.2988	7.528709	0.000180	1.801028	0.305102	-0.000018
1278	1.2706e+02	7.2907	7.509971	0.000188	1.882893	0.318971	-0.000019
1279	1.2716e+02	7.2793	7.488789	0.000213	2.128488	0.360576	-0.000021
1280	1.2726e+02	7.2708	7.467607	0.000213	2.128488	0.360576	-0.000021
1281	1.2736e+02	7.2588	7.446426	0.000213	2.128488	0.360576	-0.000021
1282	1.2746e+02	7.2495	7.427688	0.000188	1.882893	0.318971	-0.000019
1283	1.2756e+02	7.2417	7.409765	0.000180	1.801028	0.305102	-0.000018
1284	1.2766e+02	7.2311	7.395100	0.000147	1.473569	0.249629	-0.000015
1285	1.2776e+02	7.2217	7.374326	0.000209	2.087556	0.353641	-0.000021
1286	1.2786e+02	7.2092	7.354773	0.000196	1.964758	0.332839	-0.000020
1287	1.2796e+02	7.1984	7.332777	0.000221	2.210353	0.374444	-0.000022
1288	1.2806e+02	7.1900	7.318927	0.000139	1.391704	0.235761	-0.000014
1289	1.2816e+02	7.1786	7.302634	0.000164	1.637298	0.277366	-0.000016
1290	1.2826e+02	7.1709	7.288784	0.000139	1.391704	0.235761	-0.000014
1291	1.2835e+02	7.1597	7.270454	0.000184	1.841961	0.312037	-0.000018
1292	1.2845e+02	7.1481	7.254567	0.000160	1.596366	0.270432	-0.000016
1293	1.2855e+02	7.1393	7.239495	0.000151	1.514501	0.256563	-0.000015
1294	1.2865e+02	7.1288	7.221572	0.000180	1.801028	0.305102	-0.000018
1295	1.2875e+02	7.1207	7.206908	0.000147	1.473569	0.249629	-0.000015
1296	1.2885e+02	7.1102	7.190614	0.000164	1.637298	0.277366	-0.000016
1297	1.2895e+02	7.1009	7.173506	0.000172	1.719163	0.291234	-0.000017
1298	1.2905e+02	7.0911	7.158027	0.000156	1.555434	0.263498	-0.000016
1299	1.2915e+02	7.0792	7.141733	0.000164	1.637298	0.277366	-0.000016
1300	1.2925e+02	7.0705	7.129106	0.000127	1.268906	0.214959	-0.000013
1301	1.2935e+02	7.0608	7.109553	0.000196	1.964758	0.332839	-0.000020
1302	1.2945e+02	7.0522	7.098962	0.000106	1.064244	0.180288	-0.000011
1303	1.2955e+02	7.0391	7.081039	0.000180	1.801028	0.305102	-0.000018
1304	1.2965e+02	7.0305	7.066782	0.000143	1.432636	0.242695	-0.000014
1305	1.2975e+02	7.0223	7.052525	0.000143	1.432636	0.242695	-0.000014
1306	1.2985e+02	7.0125	7.038268	0.000143	1.432636	0.242695	-0.000014
1307	1.2995e+02	6.9977	7.021975	0.000164	1.637298	0.277366	-0.000016
1308	1.3005e+02	6.9912	7.006496	0.000156	1.555434	0.263498	-0.000016
1309	1.3015e+02	6.9793	6.993868	0.000127	1.268906	0.214959	-0.000013
1310	1.3025e+02	6.9707	6.973908	0.000201	2.005691	0.339773	-0.000020
1311	1.3034e+02	6.9601	6.959244	0.000147	1.473569	0.249629	-0.000015
1312	1.3044e+02	6.9491	6.944987	0.000143	1.432636	0.242695	-0.000014
1313	1.3054e+02	6.9447	6.931545	0.000135	1.350771	0.228827	-0.000014
1314	1.3064e+02	6.9323	6.918510	0.000131	1.309839	0.221893	-0.000013
1315	1.3074e+02	6.9224	6.898957	0.000196	1.964758	0.332839	-0.000020
1316	1.3084e+02	6.9102	6.889181	0.000098	0.982379	0.166420	-0.000010
1317	1.3094e+02	6.8995	6.871258	0.000180	1.801028	0.305102	-0.000018
1318	1.3104e+02	6.8914	6.855779	0.000156	1.555434	0.263498	-0.000016
1319	1.3114e+02	6.8800	6.843151	0.000127	1.268906	0.214959	-0.000013
1320	1.3124e+02	6.8703	6.832153	0.000111	1.105176	0.187222	-0.000011
1321	1.3134e+02	6.8620	6.816267	0.000160	1.596366	0.270432	-0.000016
1322	1.3144e+02	6.8520	6.802010	0.000143	1.432636	0.242695	-0.000014
1323	1.3154e+02	6.8413	6.787753	0.000143	1.432636	0.242695	-0.000014
1324	1.3164e+02	6.8322	6.775125	0.000127	1.268906	0.214959	-0.000013
1325	1.3174e+02	6.8240	6.760868	0.000143	1.432636	0.242695	-0.000014
1326	1.3184e+02	6.8117	6.747833	0.000131	1.309839	0.221893	-0.000013
1327	1.3194e+02	6.8032	6.732354	0.000156	1.555434	0.263498	-0.000016
1328	1.3204e+02	6.7913	6.718504	0.000139	1.391704	0.235761	-0.000014
1329	1.3214e+02	6.7809	6.704247	0.000143	1.432636	0.242695	-0.000014
1330	1.3224e+02	6.7733	6.689583	0.000147	1.473569	0.249629	-0.000015
1331	1.3234e+02	6.7623	6.672475	0.000172	1.719163	0.291234	-0.000017
1332	1.3243e+02	6.7516	6.664328	0.000082	0.818649	0.138683	-0.000008
1333	1.3253e+02	6.7433	6.650478	0.000139	1.391704	0.235761	-0.000014
1334	1.3263e+02	6.7320	6.631333	0.000192	1.923826	0.325905	-0.000019
1335	1.3273e+02	6.7233	6.618298	0.000131	1.309839	0.221893	-0.000013
1336	1.3283e+02	6.7135	6.604448	0.000139	1.391704	0.235761	-0.000014
1337	1.3293e+02	6.7060	6.587747	0.000168	1.678231	0.284300	-0.000017
1338	1.3303e+02	6.6958	6.574712	0.000131	1.309839	0.221893	-0.000013
1339	1.3313e+02	6.6848	6.562900	0.000119	1.187041	0.201090	-0.000012
1340	1.3323e+02	6.6734	6.547421	0.000156	1.555434	0.263498	-0.000016
1341	1.3333e+02	6.6622	6.533571	0.000139	1.391704	0.235761	-0.000014
1342	1.3343e+02	6.6521	6.516462	0.000172	1.719163	0.291234	-0.000017
1343	1.3353e+02	6.6419	6.506686	0.000098	0.982379	0.166420	-0.000010
1344	1.3363e+02	6.6335	6.489985	0.000168	1.678231	0.284300	-0.000017
1345	1.3373e+02	6.6227	6.478172	0.000119	1.187041	0.201090	-0.000012
1346	1.3383e+02	6.6118	6.459027	0.000192	1.923826	0.325905	-0.000019
1347	1.3393e+02	6.6051	6.450066	0.000090	0.900514	0.152551	-0.000009
1348	1.3403e+02	6.5914	6.439067	0.000111	1.105176	0.187222	-0.000011
1349	1.3413e+02	6.5821	6.427254	0.000119	1.187041	0.201090	-0.000012
1350	1.3423e+02	6.5721	6.415849	0.000115	1.146109	0.194156	-0.000011
1351	1.3432e+02	6.5636	6.404851	0.000111	1.105176	0.187222	-0.000011
1352	1.3442e+02	6.5546	6.393038	0.000119	1.187041	0.201090	-0.000012
1353	1.3452e+02	6.5423	6.380410	0.000127	1.268906	0.214959	-0.000013
1354	1.3462e+02	6.5332	6.370634	0.000098	0.982379	0.166420	-0.000010
1355	1.3472e+02	6.5221	6.358006	0.000127	1.268906	0.214959	-0.000013
1356	1.3482e+02	6.5118	6.345379	0.000127	1.268906	0.214959	-0.000013
1357	1.3492e+02	6.5022	6.336824	0.000086	0.859582	0.145617	-0.000009
1358	1.3502e+02	6.4922	6.328678	0.000082	0.818649	0.138683	-0.000008
1359	1.3512e+02	6.4803	6.318087	0.000106	1.064244	0.180288	-0.000011
1360	1.3522e+02	6.4716	6.305052	0.000131	1.309839	0.221893	-0.000013
1361	1.3532e+02	6.4623	6.289980	0.000151	1.514501	0.256563	-0.000015
1362	1.3542e+02	6.4548	6.278982	0.000111	1.105176	0.187222	-0.000011
1363	1.3552e+02	6.4439	6.266354	0.000127	1.268906	0.214959	-0.000013
1364	1.3562e+02	6.4330	6.258615	0.000078	0.777717	0.131749	-0.000008
1365	1.3572e+02	6.4242	6.245987	0.000127	1.268906	0.214959	-0.000013
1366	1.3582e+02	6.4139	6.237025	0.000090	0.900514	0.152551	-0.000009
1367	1.3592e+02	6.4047	6.220324	0.000168	1.678231	0.284300	-0.000017
1368	1.3602e+02	6.3937	6.209734	0.000106	1.064244	0.180288	-0.000011
1369	1.3612e+02	6.3833	6.195069	0.000147	1.473569	0.249629	-0.000015
1370	1.3622e+02	6.3734	6.182034	0.000131	1.309839	0.221893	-0.000013
1371	1.3631e+02	6.3672	6.166148	0.000160	1.596366	0.270432	-0.000016
1372	1.3641e+02	6.3520	6.153113	0.000131	1.309839	0.221893	-0.000013
1373	1.3651e+02	6.3451	6.137227	0.000160	1.596366	0.270432	-0.000016
1374	1.3661e+02	6.3358	6.123784	0.000135	1.350771	0.228827	-0.000014
1375	1.3671e+02	6.3235	6.106676	0.000172	1.719163	0.291234	-0.000017
1376	1.3681e+02	6.3173	6.089160	0.000176	1.760096	0.298168	-0.000018
1377	1.3691e+02	6.3052	6.076533	0.000127	1.268906	0.214959	-0.000013
1378	1.3701e+02	6.2933	6.063498	0.000131	1.309839	0.221893	-0.000013
1379	1.3711e+02	6.2855	6.043130	0.000205	2.046623	0.346707	-0.000020
1380	1.3721e+02	6.2762	6.029688	0.000135	1.350771	0.228827	-0.000014
1381	1.3731e+02	6.2646	6.012172	0.000176	1.760096	0.298168	-0.000018
1382	1.3741e+02	6.2560	5.996286	0.000160	1.596366	0.270432	-0.000016
1383	1.3751e+02	6.2432	5.980807	0.000156	1.555434	0.263498	-0.000016
1384	1.3761e+02	6.2318	5.961662	0.000192	1.923826	0.325905	-0.000019
1385	1.3771e+02	6.2298	5.946998	0.000147	1.473569	0.249629	-0.000015
1386	1.3781e+02	6.2145	5.929075	0.000180	1.801028	0.305102	-0.000018
1387	1.3791e+02	6.2061	5.912781	0.000164	1.637298	0.277366	-0.000016
1388	1.3801e+02	6.1941	5.895672	0.000172	1.719163	0.291234	-0.000017
1389	1.3811e+02	6.1861	5.879379	0.000164	1.637298	0.277366	-0.000016
1390	1.3821e+02	6.1745	5.861863	0.000176	1.760096	0.298168	-0.000018
1391	1.3831e+02	6.1646	5.844755	0.000172	1.719163	0.291234	-0.000017
1392	1.3840e+02	6.1539	5.826017	0.000188	1.882893	0.318971	-0.000019
1393	1.3850e+02	6.1443	5.812982	0.000131	1.309839	0.221893	-0.000013
1394	1.3860e+02	6.1360	5.792615	0.000205	2.046623	0.346707	-0.000020
1395	1.3870e+02	6.1256	5.779172	0.000135	1.350771	0.228827	-0.000014
1396	1.3880e+02	6.1169	5.758805	0.000205	2.046623	0.346707	-0.000020
1397	1.3890e+02	6.1068	5.741290	0.000176	1.760096	0.298168	-0.000018
1398	1.3900e+02	6.0946	5.722144	0.000192	1.923826	0.325905	-0.000019
1399	1.3910e+02	6.0845	5.701370	0.000209	2.087556	0.353641	-0.000021
1400	1.3920e+02	6.0769	5.684262	0.000172	1.719163	0.291234	-0.000017
1401	1.3930e+02	6.0686	5.667968	0.000164	1.637298	0.277366	-0.000016
1402	1.3940e+02	6.0558	5.645157	0.000229	2.292218	0.388312	-0.000023
1403	1.3950e+02	6.0461	5.630900	0.000143	1.432636	0.242695	-0.000014
1404	1.3960e+02	6.0369	5.612569	0.000184	1.841961	0.312037	-0.000018
1405	1.3970e+02	6.0265	5.594239	0.000184	1.841961	0.312037	-0.000018
1406	1.3980e+02	6.0172	5.575501	0.000188	1.882893	0.318971	-0.000019
1407	1.3990e+02	6.0064	5.557578	0.000180	1.801028	0.305102	-0.000018
1408	1.4000e+02	5.9964	5.538433	0.000192	1.923826	0.325905	-0.000019
1409	1.4010e+02	5.9856	5.518881	0.000196	1.964758	0.332839	-0.000020
1410	1.4020e+02	5.9756	5.502180	0.000168	1.678231	0.284300	-0.000017
1411	1.4029e+02	5.9675	5.481812	0.000205	2.046623	0.346707	-0.000020
1412	1.4039e+02	5.9573	5.465519	0.000164	1.637298	0.277366	-0.000016
1413	1.4049e+02	5.9486	5.444744	0.000209	2.087556	0.353641	-0.000021
1414	1.4059e+02	5.9356	5.425599	0.000192	1.923826	0.325905	-0.000019
1415	1.4069e+02	5.9321	5.408491	0.000172	1.719163	0.291234	-0.000017
1416	1.4079e+02	5.9167	5.390160	0.000184	1.841961	0.312037	-0.000018
1417	1.4089e+02	5.9045	5.367756	0.000225	2.251285	0.381378	-0.000023
1418	1.4099e+02	5.8966	5.349019	0.000188	1.882893	0.318971	-0.000019
1419	1.4109e+02	5.8848	5.332318	0.000168	1.678231	0.284300	-0.000017
1420	1.4119e+02	5.8775	5.310729	0.000217	2.169420	0.367510	-0.000022
1421	1.4129e+02	5.8685	5.292805	0.000180	1.801028	0.305102	-0.000018
1422	1.4139e+02	5.8569	5.274068	0.000188	1.882893	0.318971	-0.000019
1423	1.4149e+02	5.8459	5.257367	0.000168	1.678231	0.284300	-0.000017
1424	1.4159e+02	5.8381	5.236592	0.000209	2.087556	0.353641	-0.000021
1425	1.4169e+02	5.8267	5.221520	0.000151	1.514501	0.256563	-0.000015
1426	1.4179e+02	5.8176	5.198709	0.000229	2.292218	0.388312	-0.000023
1427	1.4189e+02	5.8079	5.177935	0.000209	2.087556	0.353641	-0.000021
1428	1.4199e+02	5.7946	5.159604	0.000184	1.841961	0.312037	-0.000018
1429	1.4209e+02	5.7870	5.138830	0.000209	2.087556	0.353641	-0.000021
1430	1.4219e+02	5.7762	5.121314	0.000176	1.760096	0.298168	-0.000018
1431	1.4228e+02	5.7656	5.100132	0.000213	2.128488	0.360576	-0.000021
1432	1.4238e+02	5.7574	5.077729	0.000225	2.251285	0.381378	-0.000023
1433	1.4248e+02	5.7493	5.054510	0.000233	2.333150	0.395246	-0.000023
1434	1.4258e+02	5.7388	5.030884	0.000237	2.374083	0.402181	-0.000024
1435	1.4268e+02	5.7281	5.012554	0.000184	1.841961	0.312037	-0.000018
1436	1.4278e+02	5.7183	4.988928	0.000237	2.374083	0.402181	-0.000024
1437	1.4288e+02	5.7085	4.965709	0.000233	2.333150	0.395246	-0.000023
1438	1.4298e+02	5.6971	4.944528	0.000213	2.128488	0.360576	-0.000021
1439	1.4308e+02	5.6890	4.918458	0.000262	2.619678	0.443785	-0.000026
1440	1.4318e+02	5.6770	4.900942	0.000176	1.760096	0.298168	-0.000018
1441	1.4328e+02	5.6764	4.874057	0.000270	2.701542	0.457654	-0.000027
1442	1.4338e+02	5.6572	4.851246	0.000229	2.292218	0.388312	-0.000023
1443	1.4348e+02	5.6459	4.831694	0.000196	1.964758	0.332839	-0.000020
1444	1.4358e+02	5.6403	4.807660	0.000242	2.415015	0.409115	-0.000024
1445	1.4368e+02	5.6277	4.783627	0.000242	2.415015	0.409115	-0.000024
1446	1.4378e+02	5.6185	4.760816	0.000229	2.292218	0.388312	-0.000023
1447	1.4388e+02	5.6081	4.737598	0.000233	2.333150	0.395246	-0.000023
1448	1.4398e+02	5.5975	4.715194	0.000225	2.251285	0.381378	-0.000023
1449	1.4408e+02	5.5871	4.695234	0.000201	2.005691	0.339773	-0.000020
1450	1.4418e+02	5.5779	4.674459	0.000209	2.087556	0.353641	-0.000021
1451	1.4428e+02	5.5689	4.649204	0.000254	2.537813	0.429917	-0.000025
1452	1.4437e+02	5.5569	4.630874	0.000184	1.841961	0.312037	-0.000018
1453	1.4447e+02	5.5491	4.607248	0.000237	2.374083	0.402181	-0.000024
1454	1.4457e+02	5.5395	4.591769	0.000156	1.555434	0.263498	-0.000016
1455	1.4467e+02	5.5277	4.572624	0.000192	1.923826	0.325905	-0.000019
1456	1.4477e+02	5.5202	4.549405	0.000233	2.333150	0.395246	-0.000023
1457	1.4487e+02	5.5074	4.531890	0.000176	1.760096	0.298168	-0.000018
1458	1.4497e+02	5.5009	4.513966	0.000180	1.801028	0.305102	-0.000018
1459	1.4507e+02	5.4910	4.495229	0.000188	1.882893	0.318971	-0.000019
1460	1.4517e+02	5.4795	4.473640	0.000217	2.169420	0.367510	-0.000022
1461	1.4527e+02	5.4702	4.454087	0.000196	1.964758	0.332839	-0.000020
1462	1.4537e+02	5.4591	4.436979	0.000172	1.719163	0.291234	-0.000017
1463	1.4547e+02	5.4485	4.419870	0.000172	1.719163	0.291234	-0.000017
1464	1.4557e+02	5.4385	4.403169	0.000168	1.678231	0.284300	-0.000017
1465	1.4567e+02	5.4267	4.385246	0.000180	1.801028	0.305102	-0.000018
1466	1.4577e+02	5.4176	4.370989	0.000143	1.432636	0.242695	-0.000014
1467	1.4587e+02	5.4104	4.348585	0.000225	2.251285	0.381378	-0.000023
1468	1.4597e+02	5.3999	4.330255	0.000184	1.841961	0.312037	-0.000018
1469	1.4607e+02	5.3878	4.313961	0.000164	1.637298	0.277366	-0.000016
1470	1.4617e+02	5.3796	4.296038	0.000180	1.801028	0.305102	-0.000018
1471	1.4626e+02	5.3674	4.277708	0.000184	1.841961	0.312037	-0.000018
1472	1.4636e+02	5.3587	4.258155	0.000196	1.964758	0.332839	-0.000020
1473	1.4646e+02	5.3493	4.244306	0.000139	1.391704	0.235761	-0.000014
1474	1.4656e+02	5.3402	4.225975	0.000184	1.841961	0.312037	-0.000018
1475	1.4666e+02	5.3310	4.206830	0.000192	1.923826	0.325905	-0.000019
1476	1.4676e+02	5.3191	4.190944	0.000160	1.596366	0.270432	-0.000016
1477	1.4686e+02	5.3091	4.168947	0.000221	2.210353	0.374444	-0.000022
1478	1.4696e+02	5.2982	4.153876	0.000151	1.514501	0.256563	-0.000015
1479	1.4706e+02	5.2904	4.137989	0.000160	1.596366	0.270432	-0.000016
1480	1.4716e+02	5.2804	4.121288	0.000168	1.678231	0.284300	-0.000017
1481	1.4726e+02	5.2715	4.104587	0.000168	1.678231	0.284300	-0.000017
1482	1.4736e+02	5.2605	4.082998	0.000217	2.169420	0.367510	-0.000022
1483	1.4746e+02	5.2520	4.070370	0.000127	1.268906	0.214959	-0.000013
1484	1.4756e+02	5.2393	4.052040	0.000184	1.841961	0.312037	-0.000018
1485	1.4766e+02	5.2271	4.036561	0.000156	1.555434	0.263498	-0.000016
1486	1.4776e+02	5.2227	4.016601	0.000201	2.005691	0.339773	-0.000020
1487	1.4786e+02	5.2093	4.001937	0.000147	1.473569	0.249629	-0.000015
1488	1.4796e+02	5.2012	3.986458	0.000156	1.555434	0.263498	-0.000016
1489	1.4806e+02	5.1888	3.968127	0.000184	1.841961	0.312037	-0.000018
1490	1.4816e+02	5.1794	3.954685	0.000135	1.350771	0.228827	-0.000014
1491	1.4825e+02	5.1677	3.935947	0.000188	1.882893	0.318971	-0.000019
1492	1.4835e+02	5.1587	3.920876	0.000151	1.514501	0.256563	-0.000015
1493	1.4845e+02	5.1495	3.907026	0.000139	1.391704	0.235761	-0.000014
1494	1.4855e+02	5.1388	3.885437	0.000217	2.169420	0.367510	-0.000022
1495	1.4865e+02	5.1315	3.873217	0.000123	1.227974	0.208024	-0.000012
1496	1.4875e+02	5.1229	3.856108	0.000172	1.719163	0.291234	-0.000017
1497	1.4885e+02	5.1110	3.839000	0.000172	1.719163	0.291234	-0.000017
1498	1.4895e+02	5.1000	3.821484	0.000176	1.760096	0.298168	-0.000018
1499	1.4905e+02	5.0912	3.806412	0.000151	1.514501	0.256563	-0.000015
1500	1.4915e+02	5.0814	3.786860	0.000196	1.964758	0.332839	-0.000020
1501	1.4925e+02	5.0710	3.773825	0.000131	1.309839	0.221893	-0.000013
1502	1.4935e+02	5.0620	3.754680	0.000192	1.923826	0.325905	-0.000019
1503	1.4945e+02	5.0513	3.741238	0.000135	1.350771	0.228827	-0.000014
1504	1.4955e+02	5.0412	3.724537	0.000168	1.678231	0.284300	-0.000017
1505	1.4965e+02	5.0301	3.705799	0.000188	1.882893	0.318971	-0.000019
1506	1.4975e+02	5.0188	3.688690	0.000172	1.719163	0.291234	-0.000017
1507	1.4985e+02	5.0133	3.671175	0.000176	1.760096	0.298168	-0.000018
1508	1.4995e+02	5.0018	3.658954	0.000123	1.227974	0.208024	-0.000012
1509	1.5005e+02	4.9915	3.635736	0.000233	2.333150	0.395246	-0.000023
1510	1.5015e+02	4.9816	3.625552	0.000102	1.023312	0.173354	-0.000010
1511	1.5025e+02	4.9740	3.608851	0.000168	1.678231	0.284300	-0.000017
1512	1.5034e+02	4.9586	3.592150	0.000168	1.678231	0.284300	-0.000017
1513	1.5044e+02	4.9506	3.572598	0.000196	1.964758	0.332839	-0.000020
1514	1.5054e+02	4.9407	3.559156	0.000135	1.350771	0.228827	-0.000014
1515	1.5064e+02	4.9334	3.545713	0.000135	1.350771	0.228827	-0.000014
1516	1.5074e+02	4.9218	3.531456	0.000143	1.432636	0.242695	-0.000014
1517	1.5084e+02	4.9131	3.516792	0.000147	1.473569	0.249629	-0.000015
1518	1.5094e+02	4.9023	3.502128	0.000147	1.473569	0.249629	-0.000015
1519	1.5104e+02	4.8904	3.492759	0.000094	0.941447	0.159485	-0.000009
1520	1.5114e+02	4.8804	3.473206	0.000196	1.964758	0.332839	-0.000020
1521	1.5124e+02	4.8711	3.459764	0.000135	1.350771	0.228827	-0.000014
1522	1.5134e+02	4.8608	3.447951	0.000119	1.187041	0.201090	-0.000012
1523	1.5144e+02	4.8536	3.434916	0.000131	1.309839	0.221893	-0.000013
1524	1.5154e+02	4.8406	3.419437	0.000156	1.555434	0.263498	-0.000016
1525	1.5164e+02	4.8322	3.411698	0.000078	0.777717	0.131749	-0.000008
1526	1.5174e+02	4.8222	3.396626	0.000151	1.514501	0.256563	-0.000015
1527	1.5184e+02	4.8168	3.383184	0.000135	1.350771	0.228827	-0.000014
1528	1.5194e+02	4.8052	3.367705	0.000156	1.555434	0.263498	-0.000016
1529	1.5204e+02	4.7933	3.354670	0.000131	1.309839	0.221893	-0.000013
1530	1.5214e+02	4.7842	3.340820	0.000139	1.391704	0.235761	-0.000014
1531	1.5224e+02	4.7732	3.327378	0.000135	1.350771	0.228827	-0.000014
1532	1.5233e+02	4.7643	3.313528	0.000139	1.391704	0.235761	-0.000014
1533	1.5243e+02	4.7545	3.297234	0.000164	1.637298	0.277366	-0.000016
1534	1.5253e+02	4.7445	3.280533	0.000168	1.678231	0.284300	-0.000017
1535	1.5263e+02	4.7329	3.268313	0.000123	1.227974	0.208024	-0.000012
1536	1.5273e+02	4.7254	3.252834	0.000156	1.555434	0.263498	-0.000016
1537	1.5283e+02	4.7128	3.236948	0.000160	1.596366	0.270432	-0.000016
1538	1.5293e+02	4.7038	3.218617	0.000184	1.841961	0.312037	-0.000018
1539	1.5303e+02	4.6935	3.202323	0.000164	1.637298	0.277366	-0.000016
1540	1.5313e+02	4.6839	3.186437	0.000160	1.596366	0.270432	-0.000016
1541	1.5323e+02	4.6747	3.171365	0.000151	1.514501	0.256563	-0.000015
1542	1.5333e+02	4.6655	3.151406	0.000201	2.005691	0.339773	-0.000020
1543	1.5343e+02	4.6519	3.132261	0.000192	1.923826	0.325905	-0.000019
1544	1.5353e+02	4.6429	3.117596	0.000147	1.473569	0.249629	-0.000015
1545	1.5363e+02	4.6357	3.098451	0.000192	1.923826	0.325905	-0.000019
1546	1.5373e+02	4.6228	3.080121	0.000184	1.841961	0.312037	-0.000018
1547	1.5383e+02	4.6142	3.060161	0.000201	2.005691	0.339773	-0.000020
1548	1.5393e+02	4.6046	3.038979	0.000213	2.128488	0.360576	-0.000021
1549	1.5403e+02	4.5942	3.021463	0.000176	1.760096	0.298168	-0.000018
1550	1.5413e+02	4.5834	3.004355	0.000172	1.719163	0.291234	-0.000017
1551	1.5422e+02	4.5727	2.986839	0.000176	1.760096	0.298168	-0.000018
1552	1.5432e+02	4.5635	2.966879	0.000201	2.005691	0.339773	-0.000020
1553	1.5442e+02	4.5536	2.947734	0.000192	1.923826	0.325905	-0.000019
1554	1.5452e+02	4.5464	2.928997	0.000188	1.882893	0.318971	-0.000019
1555	1.5462e+02	4.5351	2.906185	0.000229	2.292218	0.388312	-0.000023
1556	1.5472e+02	4.5229	2.889892	0.000164	1.637298	0.277366	-0.000016
1557	1.5482e+02	4.5125	2.867895	0.000221	2.210353	0.374444	-0.000022
1558	1.5492e+02	4.5039	2.848343	0.000196	1.964758	0.332839	-0.000020
1559	1.5502e+02	4.4946	2.830012	0.000184	1.841961	0.312037	-0.000018
1560	1.5512e+02	4.4832	2.809645	0.000205	2.046623	0.346707	-0.000020
1561	1.5522e+02	4.4753	2.791315	0.000184	1.841961	0.312037	-0.000018
1562	1.5532e+02	4.4639	2.773392	0.000180	1.801028	0.305102	-0.000018
1563	1.5542e+02	4.4532	2.747729	0.000258	2.578745	0.436851	-0.000026
1564	1.5552e+02	4.4437	2.732658	0.000151	1.514501	0.256563	-0.000015
1565	1.5562e+02	4.4352	2.711883	0.000209	2.087556	0.353641	-0.000021
1566	1.5572e+02	4.4239	2.690294	0.000217	2.169420	0.367510	-0.000022
1567	1.5582e+02	4.4106	2.668705	0.000217	2.169420	0.367510	-0.000022
1568	1.5592e+02	4.4043	2.651189	0.000176	1.760096	0.298168	-0.000018
1569	1.5602e+02	4.3938	2.626748	0.000246	2.455948	0.416049	-0.000025
1570	1.5612e+02	4.3842	2.605974	0.000209	2.087556	0.353641	-0.000021
1571	1.5622e+02	4.3752	2.588051	0.000180	1.801028	0.305102	-0.000018
1572	1.5631e+02	4.3615	2.566054	0.000221	2.210353	0.374444	-0.000022
1573	1.5641e+02	4.3517	2.546909	0.000192	1.923826	0.325905	-0.000019
1574	1.5651e+02	4.3434	2.524505	0.000225	2.251285	0.381378	-0.000023
1575	1.5661e+02	4.3337	2.503324	0.000213	2.128488	0.360576	-0.000021
1576	1.5671e+02	4.3241	2.483364	0.000201	2.005691	0.339773	-0.000020
1577	1.5681e+02	4.3129	2.458109	0.000254	2.537813	0.429917	-0.000025
1578	1.5691e+02	4.3035	2.440593	0.000176	1.760096	0.298168	-0.000018
1579	1.5701e+02	4.2959	2.417782	0.000229	2.292218	0.388312	-0.000023
1580	1.5711e+02	4.2846	2.397415	0.000205	2.046623	0.346707	-0.000020
1581	1.5721e+02	4.2736	2.375418	0.000221	2.210353	0.374444	-0.000022
1582	1.5731e+02	4.2654	2.356273	0.000192	1.923826	0.325905	-0.000019
1583	1.5741e+02	4.2559	2.334276	0.000221	2.210353	0.374444	-0.000022
1584	1.5751e+02	4.2445	2.313095	0.000213	2.128488	0.360576	-0.000021
1585	1.5761e+02	4.2350	2.291913	0.000213	2.128488	0.360576	-0.000021
1586	1.5771e+02	4.2263	2.269509	0.000225	2.251285	0.381378	-0.000023
1587	1.5781e+02	4.2159	2.248327	0.000213	2.128488	0.360576	-0.000021
1588	1.5791e+02	4.2052	2.228775	0.000196	1.964758	0.332839	-0.000020
1589	1.5801e+02	4.1952	2.207593	0.000213	2.128488	0.360576	-0.000021
1590	1.5811e+02	4.1845	2.186004	0.000217	2.169420	0.367510	-0.000022
1591	1.5821e+02	4.1757	2.165637	0.000205	2.046623	0.346707	-0.000020
1592	1.5830e+02	4.1666	2.141196	0.000246	2.455948	0.416049	-0.000025
1593	1.5840e+02	4.1568	2.124902	0.000164	1.637298	0.277366	-0.000016
1594	1.5850e+02	4.1438	2.098832	0.000262	2.619678	0.443785	-0.000026
1595	1.5860e+02	4.1358	2.078873	0.000201	2.005691	0.339773	-0.000020
1596	1.5870e+02	4.1258	2.059320	0.000196	1.964758	0.332839	-0.000020
1597	1.5880e+02	4.1183	2.032843	0.000266	2.660610	0.450720	-0.000027
1598	1.5890e+02	4.1048	2.014105	0.000188	1.882893	0.318971	-0.000019
1599	1.5900e+02	4.0951	1.987221	0.000270	2.701542	0.457654	-0.000027
1600	1.5910e+02	4.0847	1.960743	0.000266	2.660610	0.450720	-0.000027
1601	1.5920e+02	4.0766	1.940376	0.000205	2.046623	0.346707	-0.000020
1602	1.5930e+02	4.0640	1.917565	0.000229	2.292218	0.388312	-0.000023
1603	1.5940e+02	4.0560	1.891088	0.000266	2.660610	0.450720	-0.000027
1604	1.5950e+02	4.0455	1.865833	0.000254	2.537813	0.429917	-0.000025
1605	1.5960e+02	4.0372	1.842207	0.000237	2.374083	0.402181	-0.000024
1606	1.5970e+02	4.0276	1.816137	0.000262	2.619678	0.443785	-0.000026
1607	1.5980e+02	4.0166	1.790067	0.000262	2.619678	0.443785	-0.000026
1608	1.5990e+02	4.0061	1.762775	0.000274	2.742475	0.464588	-0.000027
1609	1.6000e+02	3.9919	1.741593	0.000213	2.128488	0.360576	-0.000021
1610	1.6010e+02	3.9875	1.714301	0.000274	2.742475	0.464588	-0.000027
1611	1.6019e+02	3.9761	1.689046	0.000254	2.537813	0.429917	-0.000025
1612	1.6029e+02	3.9646	1.664605	0.000246	2.455948	0.416049	-0.000025
1613	1.6039e+02	3.9577	1.638943	0.000258	2.578745	0.436851	-0.000026
1614	1.6049e+02	3.9502	1.615317	0.000237	2.374083	0.402181	-0.000024
1615	1.6059e+02	3.9345	1.587210	0.000282	2.824340	0.478456	-0.000028
1616	1.6069e+02	3.9262	1.565214	0.000221	2.210353	0.374444	-0.000022
1617	1.6079e+02	3.9157	1.541588	0.000237	2.374083	0.402181	-0.000024
1618	1.6089e+02	3.9046	1.516333	0.000254	2.537813	0.429917	-0.000025
1619	1.6099e+02	3.8956	1.492299	0.000242	2.415015	0.409115	-0.000024
1620	1.6109e+02	3.8851	1.467044	0.000254	2.537813	0.429917	-0.000025
1621	1.6119e+02	3.8777	1.448306	0.000188	1.882893	0.318971	-0.000019
1622	1.6129e+02	3.8654	1.425903	0.000225	2.251285	0.381378	-0.000023
1623	1.6139e+02	3.8563	1.401869	0.000242	2.415015	0.409115	-0.000024
1624	1.6149e+02	3.8458	1.380688	0.000213	2.128488	0.360576	-0.000021
1625	1.6159e+02	3.8367	1.363172	0.000176	1.760096	0.298168	-0.000018
1626	1.6169e+02	3.8245	1.342805	0.000205	2.046623	0.346707	-0.000020
1627	1.6179e+02	3.8163	1.321216	0.000217	2.169420	0.367510	-0.000022
1628	1.6189e+02	3.8062	1.298404	0.000229	2.292218	0.388312	-0.000023
1629	1.6199e+02	3.8012	1.278445	0.000201	2.005691	0.339773	-0.000020
1630	1.6209e+02	3.7871	1.258892	0.000196	1.964758	0.332839	-0.000020
1631	1.6219e+02	3.7800	1.238118	0.000209	2.087556	0.353641	-0.000021
1632	1.6228e+02	3.7681	1.216121	0.000221	2.210353	0.374444	-0.000022
1633	1.6238e+02	3.7577	1.195754	0.000205	2.046623	0.346707	-0.000020
1634	1.6248e+02	3.7472	1.177831	0.000180	1.801028	0.305102	-0.000018
1635	1.6258e+02	3.7383	1.155427	0.000225	2.251285	0.381378	-0.000023
1636	1.6268e+02	3.7278	1.133838	0.000217	2.169420	0.367510	-0.000022
1637	1.6278e+02	3.7167	1.115100	0.000188	1.882893	0.318971	-0.000019
1638	1.6288e+02	3.7082	1.095548	0.000196	1.964758	0.332839	-0.000020
1639	1.6298e+02	3.6971	1.072737	0.000229	2.292218	0.388312	-0.000023
1640	1.6308e+02	3.6890	1.054406	0.000184	1.841961	0.312037	-0.000018
1641	1.6318e+02	3.6792	1.036890	0.000176	1.760096	0.298168	-0.000018
1642	1.6328e+02	3.6654	1.015709	0.000213	2.128488	0.360576	-0.000021
1643	1.6338e+02	3.6594	0.994934	0.000209	2.087556	0.353641	-0.000021
1644	1.6348e+02	3.6495	0.973752	0.000213	2.128488	0.360576	-0.000021
1645	1.6358e+02	3.6376	0.953385	0.000205	2.046623	0.346707	-0.000020
1646	1.6368e+02	3.6305	0.933018	0.000205	2.046623	0.346707	-0.000020
1647	1.6378e+02	3.6200	0.920390	0.000127	1.268906	0.214959	-0.000013
1648	1.6388e+02	3.6068	0.897579	0.000229	2.292218	0.388312	-0.000023
1649	1.6398e+02	3.5992	0.877212	0.000205	2.046623	0.346707	-0.000020
1650	1.6408e+02	3.5896	0.857660	0.000196	1.964758	0.332839	-0.000020
1651	1.6418e+02	3.5832	0.837700	0.000201	2.005691	0.339773	-0.000020
1652	1.6427e+02	3.5697	0.819370	0.000184	1.841961	0.312037	-0.000018
1653	1.6437e+02	3.5569	0.799002	0.000205	2.046623	0.346707	-0.000020
1654	1.6447e+02	3.5491	0.777821	0.000213	2.128488	0.360576	-0.000021
1655	1.6457e+02	3.5373	0.760712	0.000172	1.719163	0.291234	-0.000017
1656	1.6467e+02	3.5300	0.741567	0.000192	1.923826	0.325905	-0.000019
1657	1.6477e+02	3.5178	0.722829	0.000188	1.882893	0.318971	-0.000019
1658	1.6487e+02	3.5091	0.704092	0.000188	1.882893	0.318971	-0.000019
1659	1.6497e+02	3.4985	0.686169	0.000180	1.801028	0.305102	-0.000018
1660	1.6507e+02	3.4902	0.665801	0.000205	2.046623	0.346707	-0.000020
1661	1.6517e+02	3.4794	0.645027	0.000209	2.087556	0.353641	-0.000021
1662	1.6527e+02	3.4669	0.627511	0.000176	1.760096	0.298168	-0.000018
1663	1.6537e+02	3.4584	0.611217	0.000164	1.637298	0.277366	-0.000016
1664	1.6547e+02	3.4490	0.594109	0.000172	1.719163	0.291234	-0.000017
1665	1.6557e+02	3.4370	0.570891	0.000233	2.333150	0.395246	-0.000023
1666	1.6567e+02	3.4267	0.554597	0.000164	1.637298	0.277366	-0.000016
1667	1.6577e+02	3.4176	0.534230	0.000205	2.046623	0.346707	-0.000020
1668	1.6587e+02	3.4097	0.513455	0.000209	2.087556	0.353641	-0.000021
1669	1.6597e+02	3.4002	0.497976	0.000156	1.555434	0.263498	-0.000016
1670	1.6607e+02	3.3892	0.476387	0.000217	2.169420	0.367510	-0.000022
1671	1.6616e+02	3.3788	0.458464	0.000180	1.801028	0.305102	-0.000018
1672	1.6626e+02	3.3703	0.438912	0.000196	1.964758	0.332839	-0.000020
1673	1.6636e+02	3.3582	0.419359	0.000196	1.964758	0.332839	-0.000020
1674	1.6646e+02	3.3515	0.400214	0.000192	1.923826	0.325905	-0.000019
1675	1.6656e+02	3.3398	0.381884	0.000184	1.841961	0.312037	-0.000018
1676	1.6666e+02	3.3300	0.362331	0.000196	1.964758	0.332839	-0.000020
1677	1.6676e+02	3.3199	0.344001	0.000184	1.841961	0.312037	-0.000018
1678	1.6686e+02	3.3094	0.327707	0.000164	1.637298	0.277366	-0.000016
1679	1.6696e+02	3.2989	0.307340	0.000205	2.046623	0.346707	-0.000020
1680	1.6706e+02	3.2885	0.286158	0.000213	2.128488	0.360576	-0.000021
1681	1.6716e+02	3.2803	0.268235	0.000180	1.801028	0.305102	-0.000018
1682	1.6726e+02	3.2708	0.258459	0.000098	0.982379	0.166420	-0.000010
1683	1.6736e+02	3.2586	0.233611	0.000250	2.496880	0.422983	-0.000025
1684	1.6746e+02	3.2485	0.220983	0.000127	1.268906	0.214959	-0.000013
1685	1.6756e+02	3.2439	0.201838	0.000192	1.923826	0.325905	-0.000019
1686	1.6766e+02	3.2281	0.187174	0.000147	1.473569	0.249629	-0.000015
1687	1.6776e+02	3.2177	0.170473	0.000168	1.678231	0.284300	-0.000017
1688	1.6786e+02	3.2093	0.151328	0.000192	1.923826	0.325905	-0.000019
1689	1.6796e+02	3.2014	0.135849	0.000156	1.555434	0.263498	-0.000016
1690	1.6806e+02	3.1896	0.122406	0.000135	1.350771	0.228827	-0.000014
1691	1.6816e+02	3.1812	0.107335	0.000151	1.514501	0.256563	-0.000015
1692	1.6825e+02	3.1701	0.093078	0.000143	1.432636	0.242695	-0.000014
1693	1.6835e+02	3.1605	0.076377	0.000168	1.678231	0.284300	-0.000017
1694	1.6845e+02	3.1511	0.062934	0.000135	1.350771	0.228827	-0.000014
1695	1.6855e+02	3.1423	0.042160	0.000209	2.087556	0.353641	-0.000021
1696	1.6865e+02	3.1309	0.027496	0.000147	1.473569	0.249629	-0.000015
1697	1.6875e+02	3.1203	0.011202	0.000164	1.637298	0.277366	-0.000016
1698	1.6885e+02	3.1104	-0.003870	0.000151	1.514501	0.256563	-0.000015
1699	1.6895e+02	3.0999	-0.021793	0.000180	1.801028	0.305102	-0.000018
1700	1.6905e+02	3.0916	-0.037679	0.000160	1.596366	0.270432	-0.000016
1701	1.6915e+02	3.0807	-0.054788	0.000172	1.719163	0.291234	-0.000017
1702	1.6925e+02	3.0686	-0.071489	0.000168	1.678231	0.284300	-0.000017
1703	1.6935e+02	3.0605	-0.090226	0.000188	1.882893	0.318971	-0.000019
1704	1.6945e+02	3.0535	-0.106520	0.000164	1.637298	0.277366	-0.000016
1705	1.6955e+02	3.0415	-0.126480	0.000201	2.005691	0.339773	-0.000020
1706	1.6965e+02	3.0318	-0.146847	0.000205	2.046623	0.346707	-0.000020
1707	1.6975e+02	3.0197	-0.164363	0.000176	1.760096	0.298168	-0.000018
1708	1.6985e+02	3.0128	-0.186767	0.000225	2.251285	0.381378	-0.000023
1709	1.6995e+02	3.0014	-0.206319	0.000196	1.964758	0.332839	-0.000020
1710	1.7005e+02	2.9903	-0.225871	0.000196	1.964758	0.332839	-0.000020
1711	1.7015e+02	2.9827	-0.244202	0.000184	1.841961	0.312037	-0.000018
1712	1.7024e+02	2.9689	-0.262532	0.000184	1.841961	0.312037	-0.000018
1713	1.7034e+02	2.9617	-0.283714	0.000213	2.128488	0.360576	-0.000021
1714	1.7044e+02	2.9543	-0.307340	0.000237	2.374083	0.402181	-0.000024
1715	1.7054e+02	2.9427	-0.326485	0.000192	1.923826	0.325905	-0.000019
1716	1.7064e+02	2.9330	-0.347667	0.000213	2.128488	0.360576	-0.000021
1717	1.7074e+02	2.9247	-0.372515	0.000250	2.496880	0.422983	-0.000025
1718	1.7084e+02	2.9123	-0.393289	0.000209	2.087556	0.353641	-0.000021
1719	1.7094e+02	2.9050	-0.415286	0.000221	2.210353	0.374444	-0.000022
1720	1.7104e+02	2.8911	-0.433209	0.000180	1.801028	0.305102	-0.000018
1721	1.7114e+02	2.8812	-0.460501	0.000274	2.742475	0.464588	-0.000027
1722	1.7124e+02	2.8715	-0.480868	0.000205	2.046623	0.346707	-0.000020
1723	1.7134e+02	2.8647	-0.500420	0.000196	1.964758	0.332839	-0.000020
1724	1.7144e+02	2.8537	-0.523232	0.000229	2.292218	0.388312	-0.000023
1725	1.7154e+02	2.8426	-0.544821	0.000217	2.169420	0.367510	-0.000022
1726	1.7164e+02	2.8326	-0.564780	0.000201	2.005691	0.339773	-0.000020
1727	1.7174e+02	2.8207	-0.588406	0.000237	2.374083	0.402181	-0.000024
1728	1.7184e+02	2.8132	-0.613662	0.000254	2.537813	0.429917	-0.000025
1729	1.7194e+02	2.8036	-0.631992	0.000184	1.841961	0.312037	-0.000018
1730	1.7204e+02	2.7902	-0.655618	0.000237	2.374083	0.402181	-0.000024
1731	1.7213e+02	2.7837	-0.672319	0.000168	1.678231	0.284300	-0.000017
1732	1.7223e+02	2.7739	-0.699611	0.000274	2.742475	0.464588	-0.000027
1733	1.7233e+02	2.7610	-0.724051	0.000246	2.455948	0.416049	-0.000025
1734	1.7243e+02	2.7520	-0.748492	0.000246	2.455948	0.416049	-0.000025
1735	1.7253e+02	2.7430	-0.770488	0.000221	2.210353	0.374444	-0.000022
1736	1.7263e+02	2.7341	-0.792485	0.000221	2.210353	0.374444	-0.000022
1737	1.7273e+02	2.7210	-0.814074	0.000217	2.169420	0.367510	-0.000022
1738	1.7283e+02	2.7121	-0.838922	0.000250	2.496880	0.422983	-0.000025
1739	1.7293e+02	2.7057	-0.861326	0.000225	2.251285	0.381378	-0.000023
1740	1.7303e+02	2.6916	-0.885359	0.000242	2.415015	0.409115	-0.000024
1741	1.7313e+02	2.6850	-0.908170	0.000229	2.292218	0.388312	-0.000023
1742	1.7323e+02	2.6715	-0.928130	0.000201	2.005691	0.339773	-0.000020
1743	1.7333e+02	2.6635	-0.958273	0.000303	3.029002	0.513127	-0.000030
1744	1.7343e+02	2.6522	-0.980270	0.000221	2.210353	0.374444	-0.000022
1745	1.7353e+02	2.6425	-1.002674	0.000225	2.251285	0.381378	-0.000023
1746	1.7363e+02	2.6324	-1.027114	0.000246	2.455948	0.416049	-0.000025
1747	1.7373e+02	2.6231	-1.049925	0.000229	2.292218	0.388312	-0.000023
1748	1.7383e+02	2.6153	-1.075995	0.000262	2.619678	0.443785	-0.000026
1749	1.7393e+02	2.6019	-1.101251	0.000254	2.537813	0.429917	-0.000025
1750	1.7403e+02	2.5961	-1.124062	0.000229	2.292218	0.388312	-0.000023
1751	1.7413e+02	2.5812	-1.144836	0.000209	2.087556	0.353641	-0.000021
1752	1.7422e+02	2.5744	-1.168462	0.000237	2.374083	0.402181	-0.000024
1753	1.7432e+02	2.5645	-1.192495	0.000242	2.415015	0.409115	-0.000024
1754	1.7442e+02	2.5517	-1.212455	0.000201	2.005691	0.339773	-0.000020
1755	1.7452e+02	2.5424	-1.239340	0.000270	2.701542	0.457654	-0.000027
1756	1.7462e+02	2.5320	-1.266632	0.000274	2.742475	0.464588	-0.000027
1757	1.7472e+02	2.5256	-1.286999	0.000205	2.046623	0.346707	-0.000020
1758	1.7482e+02	2.5163	-1.314291	0.000274	2.742475	0.464588	-0.000027
1759	1.7492e+02	2.5044	-1.332621	0.000184	1.841961	0.312037	-0.000018
1760	1.7502e+02	2.4916	-1.358284	0.000258	2.578745	0.436851	-0.000026
1761	1.7512e+02	2.4864	-1.383539	0.000254	2.537813	0.429917	-0.000025
1762	1.7522e+02	2.4751	-1.409202	0.000258	2.578745	0.436851	-0.000026
1763	1.7532e+02	2.4632	-1.431605	0.000225	2.251285	0.381378	-0.000023
1764	1.7542e+02	2.4546	-1.458083	0.000266	2.660610	0.450720	-0.000027
1765	1.7552e+02	2.4407	-1.482523	0.000246	2.455948	0.416049	-0.000025
1766	1.7562e+02	2.4349	-1.508186	0.000258	2.578745	0.436851	-0.000026
1767	1.7572e+02	2.4237	-1.534663	0.000266	2.660610	0.450720	-0.000027
1768	1.7582e+02	2.4133	-1.563177	0.000287	2.865272	0.485390	-0.000029
1769	1.7592e+02	2.4031	-1.588432	0.000254	2.537813	0.429917	-0.000025
1770	1.7602e+02	2.3949	-1.615317	0.000270	2.701542	0.457654	-0.000027
1771	1.7612e+02	2.3837	-1.643831	0.000287	2.865272	0.485390	-0.000029
1772	1.7621e+02	2.3736	-1.669086	0.000254	2.537813	0.429917	-0.000025
1773	1.7631e+02	2.3640	-1.696785	0.000278	2.783407	0.471522	-0.000028
1774	1.7641e+02	2.3585	-1.723263	0.000266	2.660610	0.450720	-0.000027
1775	1.7651e+02	2.3458	-1.751777	0.000287	2.865272	0.485390	-0.000029
1776	1.7661e+02	2.3328	-1.781513	0.000299	2.988070	0.506193	-0.000030
1777	1.7671e+02	2.3255	-1.809619	0.000282	2.824340	0.478456	-0.000028
1778	1.7681e+02	2.3130	-1.836911	0.000274	2.742475	0.464588	-0.000027
1779	1.7691e+02	2.3072	-1.862166	0.000254	2.537813	0.429917	-0.000025
1780	1.7701e+02	2.2963	-1.891902	0.000299	2.988070	0.506193	-0.000030
1781	1.7711e+02	2.2838	-1.920009	0.000282	2.824340	0.478456	-0.000028
1782	1.7721e+02	2.2737	-1.945672	0.000258	2.578745	0.436851	-0.000026
1783	1.7731e+02	2.2652	-1.973371	0.000278	2.783407	0.471522	-0.000028
1784	1.7741e+02	2.2553	-2.001070	0.000278	2.783407	0.471522	-0.000028
1785	1.7751e+02	2.2453	-2.028362	0.000274	2.742475	0.464588	-0.000027
1786	1.7761e+02	2.2350	-2.055654	0.000274	2.742475	0.464588	-0.000027
1787	1.7771e+02	2.2249	-2.079687	0.000242	2.415015	0.409115	-0.000024
1788	1.7781e+02	2.2173	-2.104943	0.000254	2.537813	0.429917	-0.000025
1789	1.7791e+02	2.2060	-2.130198	0.000254	2.537813	0.429917	-0.000025
1790	1.7801e+02	2.1946	-2.157490	0.000274	2.742475	0.464588	-0.000027
1791	1.7810e+02	2.1854	-2.183967	0.000266	2.660610	0.450720	-0.000027
1792	1.7820e+02	2.1763	-2.202705	0.000188	1.882893	0.318971	-0.000019
1793	1.7830e+02	2.1664	-2.225109	0.000225	2.251285	0.381378	-0.000023
1794	1.7840e+02	2.1554	-2.251993	0.000270	2.701542	0.457654	-0.000027
1795	1.7850e+02	2.1505	-2.271546	0.000196	1.964758	0.332839	-0.000020
1796	1.7860e+02	2.1335	-2.298838	0.000274	2.742475	0.464588	-0.000027
1797	1.7870e+02	2.1253	-2.321649	0.000229	2.292218	0.388312	-0.000023
1798	1.7880e+02	2.1146	-2.343238	0.000217	2.169420	0.367510	-0.000022
1799	1.7890e+02	2.1046	-2.366049	0.000229	2.292218	0.388312	-0.000023
1800	1.7900e+02	2.0971	-2.394563	0.000287	2.865272	0.485390	-0.000029
1801	1.7910e+02	2.0875	-2.413708	0.000192	1.923826	0.325905	-0.000019
1802	1.7920e+02	2.0757	-2.436112	0.000225	2.251285	0.381378	-0.000023
1803	1.7930e+02	2.0686	-2.460145	0.000242	2.415015	0.409115	-0.000024
1804	1.7940e+02	2.0574	-2.482142	0.000221	2.210353	0.374444	-0.000022
1805	1.7950e+02	2.0461	-2.505768	0.000237	2.374083	0.402181	-0.000024
1806	1.7960e+02	2.0363	-2.528579	0.000229	2.292218	0.388312	-0.000023
1807	1.7970e+02	2.0251	-2.554241	0.000258	2.578745	0.436851	-0.000026
1808	1.7980e+02	2.0148	-2.574609	0.000205	2.046623	0.346707	-0.000020
1809	1.7990e+02	2.0064	-2.599456	0.000250	2.496880	0.422983	-0.000025
1810	1.8000e+02	1.9964	-2.619824	0.000205	2.046623	0.346707	-0.000020
1811	1.8009e+02	1.9874	-2.642227	0.000225	2.251285	0.381378	-0.000023
1812	1.8019e+02	1.9746	-2.665039	0.000229	2.292218	0.388312	-0.000023
1813	1.8029e+02	1.9664	-2.690701	0.000258	2.578745	0.436851	-0.000026
1814	1.8039e+02	1.9579	-2.707810	0.000172	1.719163	0.291234	-0.000017
1815	1.8049e+02	1.9498	-2.735509	0.000278	2.783407	0.471522	-0.000028
1816	1.8059e+02	1.9387	-2.753432	0.000180	1.801028	0.305102	-0.000018
1817	1.8069e+02	1.9255	-2.778687	0.000254	2.537813	0.429917	-0.000025
1818	1.8079e+02	1.9147	-2.800684	0.000221	2.210353	0.374444	-0.000022
1819	1.8089e+02	1.9037	-2.820643	0.000201	2.005691	0.339773	-0.000020
1820	1.8099e+02	1.8951	-2.842640	0.000221	2.210353	0.374444	-0.000022
1821	1.8109e+02	1.8867	-2.867081	0.000246	2.455948	0.416049	-0.000025
1822	1.8119e+02	1.8768	-2.889077	0.000221	2.210353	0.374444	-0.000022
1823	1.8129e+02	1.8636	-2.908629	0.000196	1.964758	0.332839	-0.000020
1824	1.8139e+02	1.8549	-2.928182	0.000196	1.964758	0.332839	-0.000020
1825	1.8149e+02	1.8460	-2.951808	0.000237	2.374083	0.402181	-0.000024
1826	1.8159e+02	1.8345	-2.970953	0.000192	1.923826	0.325905	-0.000019
1827	1.8169e+02	1.8269	-2.992542	0.000217	2.169420	0.367510	-0.000022
1828	1.8179e+02	1.8149	-3.015761	0.000233	2.333150	0.395246	-0.000023
1829	1.8189e+02	1.8082	-3.034091	0.000184	1.841961	0.312037	-0.000018
1830	1.8199e+02	1.7974	-3.058532	0.000246	2.455948	0.416049	-0.000025
1831	1.8209e+02	1.7863	-3.079713	0.000213	2.128488	0.360576	-0.000021
1832	1.8218e+02	1.7767	-3.099673	0.000201	2.005691	0.339773	-0.000020
1833	1.8228e+02	1.7668	-3.121670	0.000221	2.210353	0.374444	-0.000022
1834	1.8238e+02	1.7594	-3.144073	0.000225	2.251285	0.381378	-0.000023
1835	1.8248e+02	1.7445	-3.164848	0.000209	2.087556	0.353641	-0.000021
1836	1.8258e+02	1.7397	-3.186844	0.000221	2.210353	0.374444	-0.000022
1837	1.8268e+02	1.7268	-3.208026	0.000213	2.128488	0.360576	-0.000021
1838	1.8278e+02	1.7161	-3.231652	0.000237	2.374083	0.402181	-0.000024
1839	1.8288e+02	1.7083	-3.252834	0.000213	2.128488	0.360576	-0.000021
1840	1.8298e+02	1.6975	-3.276052	0.000233	2.333150	0.395246	-0.000023
1841	1.8308e+02	1.6856	-3.298049	0.000221	2.210353	0.374444	-0.000022
1842	1.8318e+02	1.6768	-3.322082	0.000242	2.415015	0.409115	-0.000024
1843	1.8328e+02	1.6690	-3.340413	0.000184	1.841961	0.312037	-0.000018
1844	1.8338e+02	1.6591	-3.362002	0.000217	2.169420	0.367510	-0.000022
1845	1.8348e+02	1.6436	-3.382369	0.000205	2.046623	0.346707	-0.000020
1846	1.8358e+02	1.6387	-3.405587	0.000233	2.333150	0.395246	-0.000023
1847	1.8368e+02	1.6259	-3.424733	0.000192	1.923826	0.325905	-0.000019
1848	1.8378e+02	1.6184	-3.448358	0.000237	2.374083	0.402181	-0.000024
1849	1.8388e+02	1.6063	-3.470355	0.000221	2.210353	0.374444	-0.000022
1850	1.8398e+02	1.5975	-3.487871	0.000176	1.760096	0.298168	-0.000018
1851	1.8407e+02	1.5845	-3.512311	0.000246	2.455948	0.416049	-0.000025
1852	1.8417e+02	1.5783	-3.527383	0.000151	1.514501	0.256563	-0.000015
1853	1.8427e+02	1.5690	-3.547343	0.000201	2.005691	0.339773	-0.000020
1854	1.8437e+02	1.5572	-3.566895	0.000196	1.964758	0.332839	-0.000020
1855	1.8447e+02	1.5491	-3.586447	0.000196	1.964758	0.332839	-0.000020
1856	1.8457e+02	1.5375	-3.605185	0.000188	1.882893	0.318971	-0.000019
1857	1.8467e+02	1.5276	-3.619850	0.000147	1.473569	0.249629	-0.000015
1858	1.8477e+02	1.5151	-3.640624	0.000209	2.087556	0.353641	-0.000021
1859	1.8487e+02	1.5110	-3.658954	0.000184	1.841961	0.312037	-0.000018
1860	1.8497e+02	1.4999	-3.673619	0.000147	1.473569	0.249629	-0.000015
1861	1.8507e+02	1.4922	-3.696023	0.000225	2.251285	0.381378	-0.000023
1862	1.8517e+02	1.4790	-3.711909	0.000160	1.596366	0.270432	-0.000016
1863	1.8527e+02	1.4678	-3.734313	0.000225	2.251285	0.381378	-0.000023
1864	1.8537e+02	1.4565	-3.753865	0.000196	1.964758	0.332839	-0.000020
1865	1.8547e+02	1.4492	-3.771788	0.000180	1.801028	0.305102	-0.000018
1866	1.8557e+02	1.4365	-3.791341	0.000196	1.964758	0.332839	-0.000020
1867	1.8567e+02	1.4277	-3.808857	0.000176	1.760096	0.298168	-0.000018
1868	1.8577e+02	1.4185	-3.828002	0.000192	1.923826	0.325905	-0.000019
1869	1.8587e+02	1.4093	-3.848776	0.000209	2.087556	0.353641	-0.000021
1870	1.8597e+02	1.3992	-3.869958	0.000213	2.128488	0.360576	-0.000021
1871	1.8606e+02	1.3911	-3.890732	0.000209	2.087556	0.353641	-0.000021
1872	1.8616e+02	1.3770	-3.911914	0.000213	2.128488	0.360576	-0.000021
1873	1.8626e+02	1.3686	-3.935947	0.000242	2.415015	0.409115	-0.000024
1874	1.8636e+02	1.3583	-3.953870	0.000180	1.801028	0.305102	-0.000018
1875	1.8646e+02	1.3502	-3.983199	0.000295	2.947137	0.499259	-0.000029
1876	1.8656e+02	1.3401	-3.999900	0.000168	1.678231	0.284300	-0.000017
1877	1.8666e+02	1.3284	-4.023119	0.000233	2.333150	0.395246	-0.000023
1878	1.8676e+02	1.3190	-4.048374	0.000254	2.537813	0.429917	-0.000025
1879	1.8686e+02	1.3107	-4.069963	0.000217	2.169420	0.367510	-0.000022
1880	1.8696e+02	1.3022	-4.094811	0.000250	2.496880	0.422983	-0.000025
1881	1.8706e+02	1.2902	-4.115178	0.000205	2.046623	0.346707	-0.000020
1882	1.8716e+02	1.2811	-4.140841	0.000258	2.578745	0.436851	-0.000026
1883	1.8726e+02	1.2679	-4.170169	0.000295	2.947137	0.499259	-0.000029
1884	1.8736e+02	1.2579	-4.189722	0.000196	1.964758	0.332839	-0.000020
1885	1.8746e+02	1.2514	-4.215792	0.000262	2.619678	0.443785	-0.000026
1886	1.8756e+02	1.2410	-4.238603	0.000229	2.292218	0.388312	-0.000023
1887	1.8766e+02	1.2283	-4.266302	0.000278	2.783407	0.471522	-0.000028
1888	1.8776e+02	1.2194	-4.286669	0.000205	2.046623	0.346707	-0.000020
1889	1.8786e+02	1.2107	-4.312332	0.000258	2.578745	0.436851	-0.000026
1890	1.8796e+02	1.2019	-4.333921	0.000217	2.169420	0.367510	-0.000022
1891	1.8806e+02	1.1897	-4.361213	0.000274	2.742475	0.464588	-0.000027
1892	1.8815e+02	1.1806	-4.384432	0.000233	2.333150	0.395246	-0.000023
1893	1.8825e+02	1.1727	-4.405613	0.000213	2.128488	0.360576	-0.000021
1894	1.8835e+02	1.1589	-4.430054	0.000246	2.455948	0.416049	-0.000025
1895	1.8845e+02	1.1500	-4.457753	0.000278	2.783407	0.471522	-0.000028
1896	1.8855e+02	1.1388	-4.486675	0.000291	2.906205	0.492324	-0.000029
1897	1.8865e+02	1.1295	-4.508264	0.000217	2.169420	0.367510	-0.000022
1898	1.8875e+02	1.1216	-4.533926	0.000258	2.578745	0.436851	-0.000026
1899	1.8885e+02	1.1120	-4.562440	0.000287	2.865272	0.485390	-0.000029
1900	1.8895e+02	1.1012	-4.584029	0.000217	2.169420	0.367510	-0.000022
1901	1.8905e+02	1.0918	-4.612543	0.000287	2.865272	0.485390	-0.000029
1902	1.8915e+02	1.0835	-4.636169	0.000237	2.374083	0.402181	-0.000024
1903	1.8925e+02	1.0702	-4.667535	0.000315	3.151800	0.533929	-0.000032
1904	1.8935e+02	1.0597	-4.688716	0.000213	2.128488	0.360576	-0.000021
1905	1.8945e+02	1.0522	-4.718045	0.000295	2.947137	0.499259	-0.000029
1906	1.8955e+02	1.0391	-4.744115	0.000262	2.619678	0.443785	-0.000026
1907	1.8965e+02	1.0287	-4.771814	0.000278	2.783407	0.471522	-0.000028
1908	1.8975e+02	1.0215	-4.795848	0.000242	2.415015	0.409115	-0.000024
1909	1.8985e+02	1.0098	-4.821510	0.000258	2.578745	0.436851	-0.000026
1910	1.8995e+02	1.0009	-4.848395	0.000270	2.701542	0.457654	-0.000027
1911	1.9004e+02	0.9917	-4.874872	0.000266	2.660610	0.450720	-0.000027
1912	1.9014e+02	0.9785	-4.902979	0.000282	2.824340	0.478456	-0.000028
1913	1.9024e+02	0.9705	-4.927419	0.000246	2.455948	0.416049	-0.000025
1914	1.9034e+02	0.9626	-4.954304	0.000270	2.701542	0.457654	-0.000027
1915	1.9044e+02	0.9524	-4.979966	0.000258	2.578745	0.436851	-0.000026
1916	1.9054e+02	0.9399	-5.007258	0.000274	2.742475	0.464588	-0.000027
1917	1.9064e+02	0.9282	-5.032921	0.000258	2.578745	0.436851	-0.000026
1918	1.9074e+02	0.9236	-5.062250	0.000295	2.947137	0.499259	-0.000029
1919	1.9084e+02	0.9102	-5.087505	0.000254	2.537813	0.429917	-0.000025
1920	1.9094e+02	0.9000	-5.113167	0.000258	2.578745	0.436851	-0.000026
1921	1.9104e+02	0.8922	-5.139645	0.000266	2.660610	0.450720	-0.000027
1922	1.9114e+02	0.8823	-5.168973	0.000295	2.947137	0.499259	-0.000029
1923	1.9124e+02	0.8724	-5.195451	0.000266	2.660610	0.450720	-0.000027
1924	1.9134e+02	0.8620	-5.220298	0.000250	2.496880	0.422983	-0.000025
1925	1.9144e+02	0.8497	-5.249220	0.000291	2.906205	0.492324	-0.000029
1926	1.9154e+02	0.8425	-5.275290	0.000262	2.619678	0.443785	-0.000026
1927	1.9164e+02	0.8340	-5.300952	0.000258	2.578745	0.436851	-0.000026
1928	1.9174e+02	0.8213	-5.326208	0.000254	2.537813	0.429917	-0.000025
1929	1.9184e+02	0.8104	-5.355536	0.000295	2.947137	0.499259	-0.000029
1930	1.9194e+02	0.8018	-5.384050	0.000287	2.865272	0.485390	-0.000029
1931	1.9203e+02	0.7935	-5.409713	0.000258	2.578745	0.436851	-0.000026
1932	1.9213e+02	0.7845	-5.438634	0.000291	2.906205	0.492324	-0.000029
1933	1.9223e+02	0.7720	-5.469592	0.000311	3.110867	0.526995	-0.000031
1934	1.9233e+02	0.7628	-5.496884	0.000274	2.742475	0.464588	-0.000027
1935	1.9243e+02	0.7516	-5.524583	0.000278	2.783407	0.471522	-0.000028
1936	1.9253e+02	0.7409	-5.559207	0.000348	3.479259	0.589402	-0.000035
1937	1.9263e+02	0.7327	-5.589351	0.000303	3.029002	0.513127	-0.000030
1938	1.9273e+02	0.7247	-5.617050	0.000278	2.783407	0.471522	-0.000028
1939	1.9283e+02	0.7156	-5.648415	0.000315	3.151800	0.533929	-0.000032
1940	1.9293e+02	0.7035	-5.675707	0.000274	2.742475	0.464588	-0.000027
1941	1.9303e+02	0.6932	-5.708702	0.000332	3.315529	0.561666	-0.000033
1942	1.9313e+02	0.6846	-5.738031	0.000295	2.947137	0.499259	-0.000029
1943	1.9323e+02	0.6728	-5.773470	0.000356	3.561124	0.603271	-0.000036
1944	1.9333e+02	0.6617	-5.803613	0.000303	3.029002	0.513127	-0.000030
1945	1.9343e+02	0.6536	-5.834571	0.000311	3.110867	0.526995	-0.000031
1946	1.9353e+02	0.6417	-5.864307	0.000299	2.988070	0.506193	-0.000030
1947	1.9363e+02	0.6355	-5.893636	0.000295	2.947137	0.499259	-0.000029
1948	1.9373e+02	0.6223	-5.927038	0.000336	3.356462	0.568600	-0.000034
1949	1.9383e+02	0.6126	-5.955959	0.000291	2.906205	0.492324	-0.000029
1950	1.9393e+02	0.6019	-5.986510	0.000307	3.069935	0.520061	-0.000031
1951	1.9403e+02	0.5919	-6.016246	0.000299	2.988070	0.506193	-0.000030
1952	1.9412e+02	0.5834	-6.047204	0.000311	3.110867	0.526995	-0.000031
1953	1.9422e+02	0.5737	-6.074088	0.000270	2.701542	0.457654	-0.000027
1954	1.9432e+02	0.5643	-6.105861	0.000319	3.192732	0.540863	-0.000032
1955	1.9442e+02	0.5531	-6.133968	0.000282	2.824340	0.478456	-0.000028
1956	1.9452e+02	0.5441	-6.160038	0.000262	2.619678	0.443785	-0.000026
1957	1.9462e+02	0.5325	-6.189774	0.000299	2.988070	0.506193	-0.000030
1958	1.9472e+02	0.5227	-6.219510	0.000299	2.988070	0.506193	-0.000030
1959	1.9482e+02	0.5144	-6.245172	0.000258	2.578745	0.436851	-0.000026
1960	1.9492e+02	0.5025	-6.270428	0.000254	2.537813	0.429917	-0.000025
1961	1.9502e+02	0.4947	-6.298127	0.000278	2.783407	0.471522	-0.000028
1962	1.9512e+02	0.4838	-6.326233	0.000282	2.824340	0.478456	-0.000028
1963	1.9522e+02	0.4752	-6.350267	0.000242	2.415015	0.409115	-0.000024
1964	1.9532e+02	0.4606	-6.374300	0.000242	2.415015	0.409115	-0.000024
1965	1.9542e+02	0.4541	-6.404443	0.000303	3.029002	0.513127	-0.000030
1966	1.9552e+02	0.4438	-6.429699	0.000254	2.537813	0.429917	-0.000025
1967	1.9562e+02	0.4354	-6.456990	0.000274	2.742475	0.464588	-0.000027
1968	1.9572e+02	0.4247	-6.485504	0.000287	2.865272	0.485390	-0.000029
1969	1.9582e+02	0.4166	-6.510760	0.000254	2.537813	0.429917	-0.000025
1970	1.9592e+02	0.4047	-6.533164	0.000225	2.251285	0.381378	-0.000023
1971	1.9601e+02	0.3947	-6.562492	0.000295	2.947137	0.499259	-0.000029
1972	1.9611e+02	0.3852	-6.586525	0.000242	2.415015	0.409115	-0.000024
1973	1.9621e+02	0.3728	-6.614632	0.000282	2.824340	0.478456	-0.000028
1974	1.9631e+02	0.3642	-6.642331	0.000278	2.783407	0.471522	-0.000028
1975	1.9641e+02	0.3557	-6.665957	0.000237	2.374083	0.402181	-0.000024
1976	1.9651e+02	0.3435	-6.692434	0.000266	2.660610	0.450720	-0.000027
1977	1.9661e+02	0.3338	-6.716468	0.000242	2.415015	0.409115	-0.000024
1978	1.9671e+02	0.3255	-6.743760	0.000274	2.742475	0.464588	-0.000027
1979	1.9681e+02	0.3111	-6.769015	0.000254	2.537813	0.429917	-0.000025
1980	1.9691e+02	0.3024	-6.798751	0.000299	2.988070	0.506193	-0.000030
1981	1.9701e+02	0.2956	-6.819933	0.000213	2.128488	0.360576	-0.000021
1982	1.9711e+02	0.2867	-6.846410	0.000266	2.660610	0.450720	-0.000027
1983	1.9721e+02	0.2747	-6.873295	0.000270	2.701542	0.457654	-0.000027
1984	1.9731e+02	0.2625	-6.900586	0.000274	2.742475	0.464588	-0.000027
1985	1.9741e+02	0.2540	-6.923805	0.000233	2.333150	0.395246	-0.000023
1986	1.9751e+02	0.2440	-6.945394	0.000217	2.169420	0.367510	-0.000022
1987	1.9761e+02	0.2374	-6.973501	0.000282	2.824340	0.478456	-0.000028
1988	1.9771e+02	0.2267	-6.997127	0.000237	2.374083	0.402181	-0.000024
1989	1.9781e+02	0.2164	-7.022789	0.000258	2.578745	0.436851	-0.000026
1990	1.9791e+02	0.2042	-7.050896	0.000282	2.824340	0.478456	-0.000028
1991	1.9800e+02	0.1968	-7.074114	0.000233	2.333150	0.395246	-0.000023
1992	1.9810e+02	0.1842	-7.097333	0.000233	2.333150	0.395246	-0.000023
1993	1.9820e+02	0.1772	-7.126254	0.000291	2.906205	0.492324	-0.000029
1994	1.9830e+02	0.1632	-7.144585	0.000184	1.841961	0.312037	-0.000018
1995	1.9840e+02	0.1540	-7.169840	0.000254	2.537813	0.429917	-0.000025
1996	1.9850e+02	0.1434	-7.195503	0.000258	2.578745	0.436851	-0.000026
1997	1.9860e+02	0.1339	-7.222794	0.000274	2.742475	0.464588	-0.000027
1998	1.9870e+02	0.1242	-7.247642	0.000250	2.496880	0.422983	-0.000025
1999	1.9880e+02	0.1157	-7.273305	0.000258	2.578745	0.436851	-0.000026
2000	1.9890e+02	0.1068	-7.295709	0.000225	2.251285	0.381378	-0.000023
2001	1.9900e+02	0.0952	-7.321779	0.000262	2.619678	0.443785	-0.000026
2002	1.9910e+02	0.0842	-7.349071	0.000274	2.742475	0.464588	-0.000027
2003	1.9920e+02	0.0751	-7.371882	0.000229	2.292218	0.388312	-0.000023
2004	1.9930e+02	0.0658	-7.395915	0.000242	2.415015	0.409115	-0.000024
2005	1.9940e+02	0.0548	-7.420356	0.000246	2.455948	0.416049	-0.000025
2006	1.9950e+02	0.0460	-7.447240	0.000270	2.701542	0.457654	-0.000027
2007	1.9960e+02	0.0378	-7.475754	0.000287	2.865272	0.485390	-0.000029
2008	1.9970e+02	0.0237	-7.498158	0.000225	2.251285	0.381378	-0.000023
2009	1.9980e+02	0.0163	-7.520155	0.000221	2.210353	0.374444	-0.000022
2010	1.9990e+02	0.0073	-7.548261	0.000282	2.824340	0.478456	-0.000028
2011	2.0000e+02	-0.0055	-7.573516	0.000282	2.824340	0.478456	-0.000025

PMax (uC/cm2):	2.14e+01
Pr (uC/cm2):	3.15e+00
-Pr (uC/cm2):	0.00e+00
PLoss (uC/cm2):	0.00e+00
C (Max-Eff) (nF):	2.14e-01
K (Eff):	3.63e+02
Vert. (+/-Pr) Shift (uC/cm2):	1.57e+00
Offset (uC/cm2):	1.07e+01

A (Loop Area - uC/cm2·Volts):	-3.14e-02



Hysteresis Version: 5.48.1 - Radiant Technologies, Inc., 1999 - 9/12/24

