»»»»»»»»»»»»»»»»»»»»»»»»»»»»»»»»»»»» Hysteresis ««««««««««««««««««««««««««««««««««««
»»»  Executed Version:	5.48.1
»»»  Vision Version:	5.48.4 (R)
»»»  Vision Compiled:	9/18/24
»»»  Driver Version:	5.47.0
»»»  Windows Version:	Windows 8 or 8.1
»»»  Processor Information:	x86 (AMD or Intel) - 32 Processors
»»»  Tester Name:	PMF21124-494 (100V)
»»»  Tester S/N:	PMF21124-494
»»»  Internal Amp Type:	100V RevK 270k
»»»  Internal Amp S/N:	iAB2-596/K     
»»»  Execution Count:	1
»»»»»»»»»»»»»»»»»»»»»»»»»»»»»»»»»»»»»»»»»»««««««««««««««««««««««««««««««««««««««««««

Stored:	6/27/2025 - 11:38:48
Configured:	06/27/25 11:23:28 AM
Executed:	06/27/25 11:38:19 AM

»»»»»»»»»»»»»»»»»»»»»»»»»»»»»»»»»»» Sample Info ««««««««««««««««««««««««««««««««««««
Sample Name:	
Lot Name:	
Wafer Name:	
Die Row/Column:	0/0
Capacitor Number:	0
Sample Area (cm2):	1.00e-04
Sample Thickness (microns):	1.50e-01

Amplifier:	Internal

»»»»»»»»»»»»»»»»»»»»»»»»»»»»»»»»»»» Tester Info «««««««««««««««««««««««««««««««««««
Tester Name:	PMF21124-494 (100V)
Tester Serial Number:	PMF21124-494
Return Signal Amp. Level:	1.9 [Index: 2]

»»»»»»»»»»»»»»»»»»»»»»»»»»»»»»»» Hysteresis Info ««««««««««««««««««««««««««««««««««
Task Name:	Hyst-1276
Volts:	10.00
Field:	666.67 (kV/cm)
DCBias:	0.00
DCField:	0.00 (kV/cm)
Hysteresis Period (ms):	2.00e+02
Preset:	Enabled
Preset Delay (ms):	1.00e+03
Profile:	Standard Monopolar

»»»»»»»»»»»»»»»»»»»»»»»»»»»»»»»»»»»»»» Data «««««««««««««««««««««««««««««««««««««««
Points:	2011

Valid Data

Point	Time (ms)	Drive Voltage	Measured Polarization (uC/cm2)	Capacitance (uF)	Normalized Capacitance (uF/cm2)	Dielectric Constant	Instantaneous Current (mA)
   1	0.0000e+00	-0.0026	-19.317202	0.000315	3.153279	0.534180	0.000032
   2	9.9500e-02	0.0074	-19.285837	0.000315	3.153279	0.534180	0.000032
   3	1.9900e-01	0.0179	-19.252027	0.000340	3.398989	0.575804	0.000034
   4	2.9850e-01	0.0259	-19.209256	0.000430	4.299926	0.728427	0.000043
   5	3.9800e-01	0.0343	-19.178706	0.000307	3.071376	0.520305	0.000031
   6	4.9750e-01	0.0457	-19.143674	0.000352	3.521844	0.596617	0.000035
   7	5.9700e-01	0.0544	-19.105384	0.000385	3.849457	0.652116	0.000038
   8	6.9650e-01	0.0686	-19.072797	0.000328	3.276134	0.554992	0.000033
   9	7.9600e-01	0.0723	-19.034914	0.000381	3.808506	0.645178	0.000038
  10	8.9550e-01	0.0832	-19.003548	0.000315	3.153279	0.534180	0.000032
  11	9.9500e-01	0.0946	-18.964851	0.000389	3.890409	0.659053	0.000039
  12	1.0945e+00	0.1039	-18.924931	0.000401	4.013264	0.679865	0.000040
  13	1.1940e+00	0.1160	-18.885012	0.000401	4.013264	0.679865	0.000040
  14	1.2935e+00	0.1248	-18.851610	0.000336	3.358037	0.568867	0.000034
  15	1.3930e+00	0.1335	-18.811690	0.000401	4.013264	0.679865	0.000040
  16	1.4925e+00	0.1447	-18.778695	0.000332	3.317086	0.561930	0.000033
  17	1.5920e+00	0.1525	-18.741627	0.000373	3.726602	0.631304	0.000037
  18	1.6915e+00	0.1671	-18.700486	0.000414	4.136119	0.700678	0.000041
  19	1.7910e+00	0.1751	-18.667898	0.000328	3.276134	0.554992	0.000033
  20	1.8905e+00	0.1852	-18.632867	0.000352	3.521844	0.596617	0.000035
  21	1.9900e+00	0.1926	-18.590503	0.000426	4.258974	0.721490	0.000043
  22	2.0895e+00	0.2042	-18.559138	0.000315	3.153279	0.534180	0.000032
  23	2.1890e+00	0.2152	-18.520440	0.000389	3.890409	0.659053	0.000039
  24	2.2885e+00	0.2248	-18.485816	0.000348	3.480892	0.589679	0.000035
  25	2.3880e+00	0.2361	-18.449155	0.000369	3.685651	0.624366	0.000037
  26	2.4875e+00	0.2442	-18.411680	0.000377	3.767554	0.638241	0.000038
  27	2.5870e+00	0.2522	-18.379500	0.000324	3.235182	0.548055	0.000032
  28	2.6865e+00	0.2646	-18.339580	0.000401	4.013264	0.679865	0.000040
  29	2.7860e+00	0.2714	-18.301697	0.000381	3.808506	0.645178	0.000038
  30	2.8855e+00	0.2876	-18.263407	0.000385	3.849457	0.652116	0.000038
  31	2.9850e+00	0.2928	-18.224302	0.000393	3.931361	0.665991	0.000039
  32	3.0845e+00	0.3040	-18.189271	0.000352	3.521844	0.596617	0.000035
  33	3.1840e+00	0.3158	-18.149351	0.000401	4.013264	0.679865	0.000040
  34	3.2835e+00	0.3226	-18.114727	0.000348	3.480892	0.589679	0.000035
  35	3.3830e+00	0.3362	-18.077251	0.000377	3.767554	0.638241	0.000038
  36	3.4825e+00	0.3424	-18.039369	0.000381	3.808506	0.645178	0.000038
  37	3.5820e+00	0.3529	-18.001893	0.000377	3.767554	0.638241	0.000038
  38	3.6815e+00	0.3642	-17.962788	0.000393	3.931361	0.665991	0.000039
  39	3.7810e+00	0.3727	-17.922054	0.000410	4.095167	0.693740	0.000041
  40	3.8805e+00	0.3836	-17.887022	0.000352	3.521844	0.596617	0.000035
  41	3.9800e+00	0.3950	-17.844251	0.000430	4.299926	0.728427	0.000043
  42	4.0795e+00	0.4043	-17.803517	0.000410	4.095167	0.693740	0.000041
  43	4.1790e+00	0.4145	-17.761561	0.000422	4.218022	0.714552	0.000042
  44	4.2785e+00	0.4228	-17.724900	0.000369	3.685651	0.624366	0.000037
  45	4.3780e+00	0.4332	-17.681722	0.000434	4.340877	0.735365	0.000043
  46	4.4775e+00	0.4453	-17.643024	0.000389	3.890409	0.659053	0.000039
  47	4.5770e+00	0.4525	-17.600253	0.000430	4.299926	0.728427	0.000043
  48	4.6765e+00	0.4633	-17.562370	0.000381	3.808506	0.645178	0.000038
  49	4.7760e+00	0.4741	-17.518785	0.000438	4.381829	0.742302	0.000044
  50	4.8755e+00	0.4866	-17.474792	0.000442	4.422781	0.749239	0.000044
  51	4.9750e+00	0.4948	-17.435687	0.000393	3.931361	0.665991	0.000039
  52	5.0745e+00	0.5043	-17.392509	0.000434	4.340877	0.735365	0.000043
  53	5.1740e+00	0.5154	-17.356255	0.000364	3.644699	0.617429	0.000036
  54	5.2735e+00	0.5231	-17.314299	0.000422	4.218022	0.714552	0.000042
  55	5.3730e+00	0.5333	-17.271528	0.000430	4.299926	0.728427	0.000043
  56	5.4725e+00	0.5424	-17.226720	0.000450	4.504684	0.763114	0.000045
  57	5.5720e+00	0.5568	-17.189652	0.000373	3.726602	0.631304	0.000037
  58	5.6715e+00	0.5648	-17.142808	0.000471	4.709442	0.797801	0.000047
  59	5.7710e+00	0.5747	-17.099629	0.000434	4.340877	0.735365	0.000043
  60	5.8705e+00	0.5825	-17.059710	0.000401	4.013264	0.679865	0.000040
  61	5.9700e+00	0.5908	-17.018568	0.000414	4.136119	0.700678	0.000041
  62	6.0695e+00	0.6025	-16.975390	0.000434	4.340877	0.735365	0.000043
  63	6.1690e+00	0.6147	-16.931804	0.000438	4.381829	0.742302	0.000044
  64	6.2685e+00	0.6239	-16.893107	0.000389	3.890409	0.659053	0.000039
  65	6.3680e+00	0.6342	-16.851965	0.000414	4.136119	0.700678	0.000041
  66	6.4675e+00	0.6435	-16.805121	0.000471	4.709442	0.797801	0.000047
  67	6.5670e+00	0.6523	-16.766016	0.000393	3.931361	0.665991	0.000039
  68	6.6665e+00	0.6639	-16.722023	0.000442	4.422781	0.749239	0.000044
  69	6.7660e+00	0.6725	-16.680881	0.000414	4.136119	0.700678	0.000041
  70	6.8655e+00	0.6829	-16.639740	0.000414	4.136119	0.700678	0.000041
  71	6.9650e+00	0.6915	-16.598598	0.000414	4.136119	0.700678	0.000041
  72	7.0645e+00	0.7014	-16.553790	0.000450	4.504684	0.763114	0.000045
  73	7.1640e+00	0.7130	-16.508983	0.000450	4.504684	0.763114	0.000045
  74	7.2635e+00	0.7211	-16.467841	0.000414	4.136119	0.700678	0.000041
  75	7.3630e+00	0.7330	-16.427514	0.000405	4.054216	0.686803	0.000041
  76	7.4625e+00	0.7455	-16.382299	0.000455	4.545636	0.770052	0.000045
  77	7.5620e+00	0.7522	-16.339121	0.000434	4.340877	0.735365	0.000043
  78	7.6615e+00	0.7626	-16.293906	0.000455	4.545636	0.770052	0.000045
  79	7.7610e+00	0.7728	-16.252357	0.000418	4.177071	0.707615	0.000042
  80	7.8605e+00	0.7820	-16.210808	0.000418	4.177071	0.707615	0.000042
  81	7.9600e+00	0.7938	-16.164371	0.000467	4.668491	0.790864	0.000047
  82	8.0595e+00	0.8010	-16.126081	0.000385	3.849457	0.652116	0.000038
  83	8.1590e+00	0.8125	-16.087790	0.000385	3.849457	0.652116	0.000038
  84	8.2585e+00	0.8216	-16.042983	0.000450	4.504684	0.763114	0.000045
  85	8.3580e+00	0.8328	-15.996546	0.000467	4.668491	0.790864	0.000047
  86	8.4575e+00	0.8414	-15.953367	0.000434	4.340877	0.735365	0.000043
  87	8.5570e+00	0.8524	-15.912633	0.000410	4.095167	0.693740	0.000041
  88	8.6565e+00	0.8621	-15.867011	0.000459	4.586587	0.776989	0.000046
  89	8.7560e+00	0.8719	-15.816500	0.000508	5.078008	0.860238	0.000051
  90	8.8555e+00	0.8794	-15.774544	0.000422	4.218022	0.714552	0.000042
  91	8.9550e+00	0.8900	-15.730144	0.000446	4.463732	0.756177	0.000045
  92	9.0545e+00	0.9029	-15.684929	0.000455	4.545636	0.770052	0.000045
  93	9.1540e+00	0.9121	-15.638084	0.000471	4.709442	0.797801	0.000047
  94	9.2535e+00	0.9237	-15.590425	0.000479	4.791346	0.811676	0.000048
  95	9.3530e+00	0.9274	-15.548469	0.000422	4.218022	0.714552	0.000042
  96	9.4525e+00	0.9412	-15.503661	0.000450	4.504684	0.763114	0.000045
  97	9.5520e+00	0.9509	-15.458039	0.000459	4.586587	0.776989	0.000046
  98	9.6515e+00	0.9637	-15.419341	0.000389	3.890409	0.659053	0.000039
  99	9.7510e+00	0.9706	-15.374941	0.000446	4.463732	0.756177	0.000045
 100	9.8505e+00	0.9847	-15.330133	0.000450	4.504684	0.763114	0.000045
 101	9.9500e+00	0.9887	-15.283696	0.000467	4.668491	0.790864	0.000047
 102	1.0050e+01	1.0023	-15.240518	0.000434	4.340877	0.735365	0.000043
 103	1.0149e+01	1.0133	-15.195710	0.000450	4.504684	0.763114	0.000045
 104	1.0248e+01	1.0224	-15.144792	0.000512	5.118959	0.867175	0.000051
 105	1.0348e+01	1.0325	-15.099577	0.000455	4.545636	0.770052	0.000045
 106	1.0447e+01	1.0390	-15.057621	0.000422	4.218022	0.714552	0.000042
 107	1.0547e+01	1.0533	-15.013628	0.000442	4.422781	0.749239	0.000044
 108	1.0646e+01	1.0624	-14.967191	0.000467	4.668491	0.790864	0.000047
 109	1.0746e+01	1.0690	-14.923198	0.000442	4.422781	0.749239	0.000044
 110	1.0845e+01	1.0790	-14.878390	0.000450	4.504684	0.763114	0.000045
 111	1.0945e+01	1.0900	-14.835212	0.000434	4.340877	0.735365	0.000043
 112	1.1044e+01	1.0984	-14.792034	0.000434	4.340877	0.735365	0.000043
 113	1.1144e+01	1.1121	-14.746819	0.000455	4.545636	0.770052	0.000045
 114	1.1243e+01	1.1179	-14.702011	0.000450	4.504684	0.763114	0.000045
 115	1.1343e+01	1.1298	-14.658833	0.000434	4.340877	0.735365	0.000043
 116	1.1443e+01	1.1397	-14.614840	0.000442	4.422781	0.749239	0.000044
 117	1.1542e+01	1.1517	-14.570847	0.000442	4.422781	0.749239	0.000044
 118	1.1642e+01	1.1604	-14.530927	0.000401	4.013264	0.679865	0.000040
 119	1.1741e+01	1.1697	-14.484490	0.000467	4.668491	0.790864	0.000047
 120	1.1841e+01	1.1827	-14.439275	0.000455	4.545636	0.770052	0.000045
 121	1.1940e+01	1.1898	-14.391616	0.000479	4.791346	0.811676	0.000048
 122	1.2040e+01	1.1996	-14.354141	0.000377	3.767554	0.638241	0.000038
 123	1.2139e+01	1.2093	-14.308518	0.000459	4.586587	0.776989	0.000046
 124	1.2239e+01	1.2199	-14.266155	0.000426	4.258974	0.721490	0.000043
 125	1.2338e+01	1.2311	-14.222569	0.000438	4.381829	0.742302	0.000044
 126	1.2438e+01	1.2386	-14.181020	0.000418	4.177071	0.707615	0.000042
 127	1.2537e+01	1.2477	-14.147210	0.000340	3.398989	0.575804	0.000034
 128	1.2636e+01	1.2613	-14.104032	0.000434	4.340877	0.735365	0.000043
 129	1.2736e+01	1.2666	-14.062483	0.000418	4.177071	0.707615	0.000042
 130	1.2835e+01	1.2781	-14.021342	0.000414	4.136119	0.700678	0.000041
 131	1.2935e+01	1.2896	-13.976941	0.000446	4.463732	0.756177	0.000045
 132	1.3034e+01	1.2988	-13.935800	0.000414	4.136119	0.700678	0.000041
 133	1.3134e+01	1.3113	-13.896695	0.000393	3.931361	0.665991	0.000039
 134	1.3233e+01	1.3194	-13.853109	0.000438	4.381829	0.742302	0.000044
 135	1.3333e+01	1.3311	-13.812375	0.000410	4.095167	0.693740	0.000041
 136	1.3432e+01	1.3391	-13.770826	0.000418	4.177071	0.707615	0.000042
 137	1.3532e+01	1.3509	-13.728055	0.000430	4.299926	0.728427	0.000043
 138	1.3632e+01	1.3599	-13.687321	0.000410	4.095167	0.693740	0.000041
 139	1.3731e+01	1.3673	-13.649438	0.000381	3.808506	0.645178	0.000038
 140	1.3831e+01	1.3775	-13.609926	0.000397	3.972312	0.672928	0.000040
 141	1.3930e+01	1.3882	-13.567562	0.000426	4.258974	0.721490	0.000043
 142	1.4030e+01	1.3973	-13.529679	0.000381	3.808506	0.645178	0.000038
 143	1.4129e+01	1.4096	-13.491389	0.000385	3.849457	0.652116	0.000038
 144	1.4229e+01	1.4164	-13.449025	0.000426	4.258974	0.721490	0.000043
 145	1.4328e+01	1.4278	-13.404625	0.000446	4.463732	0.756177	0.000045
 146	1.4428e+01	1.4391	-13.368779	0.000360	3.603747	0.610491	0.000036
 147	1.4527e+01	1.4474	-13.331711	0.000373	3.726602	0.631304	0.000037
 148	1.4627e+01	1.4590	-13.285681	0.000463	4.627539	0.783926	0.000046
 149	1.4726e+01	1.4677	-13.250650	0.000352	3.521844	0.596617	0.000035
 150	1.4825e+01	1.4782	-13.209915	0.000410	4.095167	0.693740	0.000041
 151	1.4925e+01	1.4869	-13.170403	0.000397	3.972312	0.672928	0.000040
 152	1.5024e+01	1.4977	-13.129261	0.000414	4.136119	0.700678	0.000041
 153	1.5124e+01	1.5057	-13.093415	0.000360	3.603747	0.610491	0.000036
 154	1.5223e+01	1.5186	-13.049830	0.000438	4.381829	0.742302	0.000044
 155	1.5323e+01	1.5296	-13.009910	0.000401	4.013264	0.679865	0.000040
 156	1.5422e+01	1.5361	-12.973657	0.000364	3.644699	0.617429	0.000036
 157	1.5522e+01	1.5486	-12.935366	0.000385	3.849457	0.652116	0.000038
 158	1.5621e+01	1.5598	-12.897484	0.000381	3.808506	0.645178	0.000038
 159	1.5721e+01	1.5687	-12.853491	0.000442	4.422781	0.749239	0.000044
 160	1.5820e+01	1.5757	-12.816830	0.000369	3.685651	0.624366	0.000037
 161	1.5920e+01	1.5878	-12.774873	0.000422	4.218022	0.714552	0.000042
 162	1.6020e+01	1.5983	-12.738213	0.000369	3.685651	0.624366	0.000037
 163	1.6119e+01	1.6097	-12.700737	0.000377	3.767554	0.638241	0.000038
 164	1.6218e+01	1.6171	-12.657966	0.000430	4.299926	0.728427	0.000043
 165	1.6318e+01	1.6273	-12.619269	0.000389	3.890409	0.659053	0.000039
 166	1.6418e+01	1.6393	-12.581793	0.000377	3.767554	0.638241	0.000038
 167	1.6517e+01	1.6460	-12.544725	0.000373	3.726602	0.631304	0.000037
 168	1.6616e+01	1.6582	-12.503176	0.000418	4.177071	0.707615	0.000042
 169	1.6716e+01	1.6656	-12.463664	0.000397	3.972312	0.672928	0.000040
 170	1.6816e+01	1.6759	-12.426188	0.000377	3.767554	0.638241	0.000038
 171	1.6915e+01	1.6878	-12.382603	0.000438	4.381829	0.742302	0.000044
 172	1.7015e+01	1.6979	-12.346756	0.000360	3.603747	0.610491	0.000036
 173	1.7114e+01	1.7051	-12.313762	0.000332	3.317086	0.561930	0.000033
 174	1.7213e+01	1.7157	-12.278730	0.000352	3.521844	0.596617	0.000035
 175	1.7313e+01	1.7299	-12.241662	0.000373	3.726602	0.631304	0.000037
 176	1.7413e+01	1.7398	-12.203372	0.000385	3.849457	0.652116	0.000038
 177	1.7512e+01	1.7484	-12.167526	0.000360	3.603747	0.610491	0.000036
 178	1.7611e+01	1.7568	-12.131272	0.000364	3.644699	0.617429	0.000036
 179	1.7711e+01	1.7654	-12.092575	0.000389	3.890409	0.659053	0.000039
 180	1.7811e+01	1.7786	-12.053062	0.000397	3.972312	0.672928	0.000040
 181	1.7910e+01	1.7855	-12.018846	0.000344	3.439941	0.582742	0.000034
 182	1.8009e+01	1.7973	-11.977297	0.000418	4.177071	0.707615	0.000042
 183	1.8109e+01	1.8089	-11.940636	0.000369	3.685651	0.624366	0.000037
 184	1.8209e+01	1.8179	-11.903975	0.000369	3.685651	0.624366	0.000037
 185	1.8308e+01	1.8248	-11.866907	0.000373	3.726602	0.631304	0.000037
 186	1.8407e+01	1.8361	-11.831468	0.000356	3.562796	0.603554	0.000036
 187	1.8507e+01	1.8468	-11.794807	0.000369	3.685651	0.624366	0.000037
 188	1.8607e+01	1.8559	-11.757739	0.000373	3.726602	0.631304	0.000037
 189	1.8706e+01	1.8665	-11.721078	0.000369	3.685651	0.624366	0.000037
 190	1.8805e+01	1.8796	-11.685639	0.000356	3.562796	0.603554	0.000036
 191	1.8905e+01	1.8861	-11.647757	0.000381	3.808506	0.645178	0.000038
 192	1.9005e+01	1.8965	-11.613947	0.000340	3.398989	0.575804	0.000034
 193	1.9104e+01	1.9077	-11.575657	0.000385	3.849457	0.652116	0.000038
 194	1.9203e+01	1.9150	-11.541440	0.000344	3.439941	0.582742	0.000034
 195	1.9303e+01	1.9261	-11.504372	0.000373	3.726602	0.631304	0.000037
 196	1.9402e+01	1.9368	-11.467711	0.000369	3.685651	0.624366	0.000037
 197	1.9502e+01	1.9442	-11.428606	0.000393	3.931361	0.665991	0.000039
 198	1.9602e+01	1.9523	-11.391538	0.000373	3.726602	0.631304	0.000037
 199	1.9701e+01	1.9676	-11.353655	0.000381	3.808506	0.645178	0.000038
 200	1.9800e+01	1.9753	-11.314958	0.000389	3.890409	0.659053	0.000039
 201	1.9900e+01	1.9861	-11.281963	0.000332	3.317086	0.561930	0.000033
 202	2.0000e+01	1.9967	-11.243265	0.000389	3.890409	0.659053	0.000039
 203	2.0099e+01	2.0028	-11.206197	0.000373	3.726602	0.631304	0.000037
 204	2.0198e+01	2.0151	-11.171980	0.000344	3.439941	0.582742	0.000034
 205	2.0298e+01	2.0237	-11.129210	0.000430	4.299926	0.728427	0.000043
 206	2.0398e+01	2.0352	-11.094178	0.000352	3.521844	0.596617	0.000035
 207	2.0497e+01	2.0454	-11.056703	0.000377	3.767554	0.638241	0.000038
 208	2.0596e+01	2.0579	-11.017190	0.000397	3.972312	0.672928	0.000040
 209	2.0696e+01	2.0654	-10.982159	0.000352	3.521844	0.596617	0.000035
 210	2.0796e+01	2.0766	-10.940203	0.000422	4.218022	0.714552	0.000042
 211	2.0895e+01	2.0836	-10.896617	0.000438	4.381829	0.742302	0.000044
 212	2.0994e+01	2.0961	-10.861178	0.000356	3.562796	0.603554	0.000036
 213	2.1094e+01	2.1081	-10.821666	0.000397	3.972312	0.672928	0.000040
 214	2.1194e+01	2.1154	-10.778080	0.000438	4.381829	0.742302	0.000044
 215	2.1293e+01	2.1243	-10.738161	0.000401	4.013264	0.679865	0.000040
 216	2.1392e+01	2.1340	-10.695797	0.000426	4.258974	0.721490	0.000043
 217	2.1492e+01	2.1449	-10.658729	0.000373	3.726602	0.631304	0.000037
 218	2.1591e+01	2.1549	-10.617995	0.000410	4.095167	0.693740	0.000041
 219	2.1691e+01	2.1644	-10.573594	0.000446	4.463732	0.756177	0.000045
 220	2.1791e+01	2.1761	-10.537341	0.000364	3.644699	0.617429	0.000036
 221	2.1890e+01	2.1844	-10.497014	0.000405	4.054216	0.686803	0.000041
 222	2.1989e+01	2.1960	-10.457502	0.000397	3.972312	0.672928	0.000040
 223	2.2089e+01	2.2076	-10.417989	0.000397	3.972312	0.672928	0.000040
 224	2.2189e+01	2.2152	-10.377663	0.000405	4.054216	0.686803	0.000041
 225	2.2288e+01	2.2259	-10.338965	0.000389	3.890409	0.659053	0.000039
 226	2.2387e+01	2.2338	-10.294157	0.000450	4.504684	0.763114	0.000045
 227	2.2487e+01	2.2453	-10.253423	0.000410	4.095167	0.693740	0.000041
 228	2.2587e+01	2.2546	-10.215540	0.000381	3.808506	0.645178	0.000038
 229	2.2686e+01	2.2659	-10.170732	0.000450	4.504684	0.763114	0.000045
 230	2.2785e+01	2.2747	-10.128776	0.000422	4.218022	0.714552	0.000042
 231	2.2885e+01	2.2886	-10.090079	0.000389	3.890409	0.659053	0.000039
 232	2.2985e+01	2.2971	-10.050159	0.000401	4.013264	0.679865	0.000040
 233	2.3084e+01	2.3058	-10.008203	0.000422	4.218022	0.714552	0.000042
 234	2.3183e+01	2.3148	-9.969505	0.000389	3.890409	0.659053	0.000039
 235	2.3283e+01	2.3234	-9.927956	0.000418	4.177071	0.707615	0.000042
 236	2.3383e+01	2.3363	-9.887629	0.000405	4.054216	0.686803	0.000041
 237	2.3482e+01	2.3428	-9.850969	0.000369	3.685651	0.624366	0.000037
 238	2.3581e+01	2.3513	-9.805754	0.000455	4.545636	0.770052	0.000045
 239	2.3681e+01	2.3628	-9.765019	0.000410	4.095167	0.693740	0.000041
 240	2.3780e+01	2.3734	-9.725914	0.000393	3.931361	0.665991	0.000039
 241	2.3880e+01	2.3861	-9.683551	0.000426	4.258974	0.721490	0.000043
 242	2.3980e+01	2.3933	-9.646890	0.000369	3.685651	0.624366	0.000037
 243	2.4079e+01	2.4036	-9.604119	0.000430	4.299926	0.728427	0.000043
 244	2.4178e+01	2.4154	-9.561755	0.000426	4.258974	0.721490	0.000043
 245	2.4278e+01	2.4225	-9.523058	0.000389	3.890409	0.659053	0.000039
 246	2.4378e+01	2.4364	-9.479472	0.000438	4.381829	0.742302	0.000044
 247	2.4477e+01	2.4438	-9.439960	0.000397	3.972312	0.672928	0.000040
 248	2.4576e+01	2.4548	-9.398411	0.000418	4.177071	0.707615	0.000042
 249	2.4676e+01	2.4636	-9.361750	0.000369	3.685651	0.624366	0.000037
 250	2.4776e+01	2.4738	-9.321016	0.000410	4.095167	0.693740	0.000041
 251	2.4875e+01	2.4863	-9.275801	0.000455	4.545636	0.770052	0.000045
 252	2.4974e+01	2.4932	-9.237511	0.000385	3.849457	0.652116	0.000038
 253	2.5074e+01	2.5037	-9.195962	0.000418	4.177071	0.707615	0.000042
 254	2.5174e+01	2.5145	-9.155635	0.000405	4.054216	0.686803	0.000041
 255	2.5273e+01	2.5233	-9.114493	0.000414	4.136119	0.700678	0.000041
 256	2.5372e+01	2.5315	-9.072537	0.000422	4.218022	0.714552	0.000042
 257	2.5472e+01	2.5423	-9.027729	0.000450	4.504684	0.763114	0.000045
 258	2.5572e+01	2.5533	-8.985366	0.000426	4.258974	0.721490	0.000043
 259	2.5671e+01	2.5630	-8.943409	0.000422	4.218022	0.714552	0.000042
 260	2.5770e+01	2.5721	-8.899416	0.000442	4.422781	0.749239	0.000044
 261	2.5870e+01	2.5816	-8.856645	0.000430	4.299926	0.728427	0.000043
 262	2.5970e+01	2.5921	-8.817133	0.000397	3.972312	0.672928	0.000040
 263	2.6069e+01	2.6038	-8.775992	0.000414	4.136119	0.700678	0.000041
 264	2.6169e+01	2.6112	-8.734850	0.000414	4.136119	0.700678	0.000041
 265	2.6268e+01	2.6218	-8.688413	0.000467	4.668491	0.790864	0.000047
 266	2.6367e+01	2.6311	-8.647679	0.000410	4.095167	0.693740	0.000041
 267	2.6467e+01	2.6421	-8.608981	0.000389	3.890409	0.659053	0.000039
 268	2.6567e+01	2.6540	-8.562544	0.000467	4.668491	0.790864	0.000047
 269	2.6666e+01	2.6627	-8.522625	0.000401	4.013264	0.679865	0.000040
 270	2.6765e+01	2.6723	-8.480668	0.000422	4.218022	0.714552	0.000042
 271	2.6865e+01	2.6812	-8.433417	0.000475	4.750394	0.804739	0.000047
 272	2.6965e+01	2.6895	-8.392275	0.000414	4.136119	0.700678	0.000041
 273	2.7064e+01	2.7013	-8.349911	0.000426	4.258974	0.721490	0.000043
 274	2.7163e+01	2.7114	-8.312843	0.000373	3.726602	0.631304	0.000037
 275	2.7263e+01	2.7222	-8.266406	0.000467	4.668491	0.790864	0.000047
 276	2.7363e+01	2.7322	-8.226486	0.000401	4.013264	0.679865	0.000040
 277	2.7462e+01	2.7398	-8.185752	0.000410	4.095167	0.693740	0.000041
 278	2.7561e+01	2.7510	-8.143389	0.000426	4.258974	0.721490	0.000043
 279	2.7661e+01	2.7624	-8.103062	0.000405	4.054216	0.686803	0.000041
 280	2.7761e+01	2.7728	-8.060698	0.000426	4.258974	0.721490	0.000043
 281	2.7860e+01	2.7822	-8.018334	0.000426	4.258974	0.721490	0.000043
 282	2.7959e+01	2.7914	-7.979637	0.000389	3.890409	0.659053	0.000039
 283	2.8059e+01	2.8005	-7.939310	0.000405	4.054216	0.686803	0.000041
 284	2.8159e+01	2.8114	-7.895724	0.000438	4.381829	0.742302	0.000044
 285	2.8258e+01	2.8213	-7.860693	0.000352	3.521844	0.596617	0.000035
 286	2.8358e+01	2.8315	-7.816293	0.000446	4.463732	0.756177	0.000045
 287	2.8457e+01	2.8430	-7.776780	0.000397	3.972312	0.672928	0.000040
 288	2.8556e+01	2.8529	-7.735639	0.000414	4.136119	0.700678	0.000041
 289	2.8656e+01	2.8591	-7.691646	0.000442	4.422781	0.749239	0.000044
 290	2.8756e+01	2.8707	-7.653763	0.000381	3.808506	0.645178	0.000038
 291	2.8855e+01	2.8807	-7.615473	0.000385	3.849457	0.652116	0.000038
 292	2.8954e+01	2.8918	-7.575553	0.000401	4.013264	0.679865	0.000040
 293	2.9054e+01	2.9037	-7.532375	0.000434	4.340877	0.735365	0.000043
 294	2.9154e+01	2.9113	-7.498565	0.000340	3.398989	0.575804	0.000034
 295	2.9253e+01	2.9212	-7.461090	0.000377	3.767554	0.638241	0.000038
 296	2.9352e+01	2.9329	-7.421170	0.000401	4.013264	0.679865	0.000040
 297	2.9452e+01	2.9423	-7.384102	0.000373	3.726602	0.631304	0.000037
 298	2.9552e+01	2.9484	-7.344997	0.000393	3.931361	0.665991	0.000039
 299	2.9651e+01	2.9626	-7.309151	0.000360	3.603747	0.610491	0.000036
 300	2.9750e+01	2.9707	-7.271268	0.000381	3.808506	0.645178	0.000038
 301	2.9850e+01	2.9789	-7.229719	0.000418	4.177071	0.707615	0.000042
 302	2.9950e+01	2.9905	-7.195095	0.000348	3.480892	0.589679	0.000035
 303	3.0049e+01	3.0033	-7.158434	0.000369	3.685651	0.624366	0.000037
 304	3.0148e+01	3.0117	-7.117700	0.000410	4.095167	0.693740	0.000041
 305	3.0248e+01	3.0245	-7.080225	0.000377	3.767554	0.638241	0.000038
 306	3.0348e+01	3.0309	-7.045600	0.000348	3.480892	0.589679	0.000035
 307	3.0447e+01	3.0407	-7.008532	0.000373	3.726602	0.631304	0.000037
 308	3.0547e+01	3.0497	-6.969427	0.000393	3.931361	0.665991	0.000039
 309	3.0646e+01	3.0592	-6.932767	0.000369	3.685651	0.624366	0.000037
 310	3.0745e+01	3.0709	-6.897328	0.000356	3.562796	0.603554	0.000036
 311	3.0845e+01	3.0793	-6.863926	0.000336	3.358037	0.568867	0.000034
 312	3.0945e+01	3.0904	-6.824821	0.000393	3.931361	0.665991	0.000039
 313	3.1044e+01	3.0996	-6.787345	0.000377	3.767554	0.638241	0.000038
 314	3.1143e+01	3.1103	-6.751906	0.000356	3.562796	0.603554	0.000036
 315	3.1243e+01	3.1216	-6.719319	0.000328	3.276134	0.554992	0.000033
 316	3.1343e+01	3.1292	-6.678585	0.000410	4.095167	0.693740	0.000041
 317	3.1442e+01	3.1426	-6.643961	0.000348	3.480892	0.589679	0.000035
 318	3.1541e+01	3.1474	-6.608115	0.000360	3.603747	0.610491	0.000036
 319	3.1641e+01	3.1618	-6.572676	0.000356	3.562796	0.603554	0.000036
 320	3.1741e+01	3.1684	-6.538052	0.000348	3.480892	0.589679	0.000035
 321	3.1840e+01	3.1802	-6.500576	0.000377	3.767554	0.638241	0.000038
 322	3.1939e+01	3.1875	-6.463915	0.000369	3.685651	0.624366	0.000037
 323	3.2039e+01	3.1974	-6.428069	0.000360	3.603747	0.610491	0.000036
 324	3.2139e+01	3.2110	-6.393038	0.000352	3.521844	0.596617	0.000035
 325	3.2238e+01	3.2186	-6.359636	0.000336	3.358037	0.568867	0.000034
 326	3.2337e+01	3.2301	-6.320938	0.000389	3.890409	0.659053	0.000039
 327	3.2437e+01	3.2394	-6.288351	0.000328	3.276134	0.554992	0.000033
 328	3.2536e+01	3.2503	-6.252097	0.000364	3.644699	0.617429	0.000036
 329	3.2636e+01	3.2595	-6.219510	0.000328	3.276134	0.554992	0.000033
 330	3.2736e+01	3.2705	-6.185293	0.000344	3.439941	0.582742	0.000034
 331	3.2835e+01	3.2800	-6.143744	0.000418	4.177071	0.707615	0.000042
 332	3.2934e+01	3.2915	-6.112379	0.000315	3.153279	0.534180	0.000032
 333	3.3034e+01	3.2998	-6.076940	0.000356	3.562796	0.603554	0.000036
 334	3.3133e+01	3.3106	-6.041501	0.000356	3.562796	0.603554	0.000036
 335	3.3233e+01	3.3215	-6.003211	0.000385	3.849457	0.652116	0.000038
 336	3.3333e+01	3.3301	-5.972253	0.000311	3.112327	0.527242	0.000031
 337	3.3432e+01	3.3373	-5.937629	0.000348	3.480892	0.589679	0.000035
 338	3.3532e+01	3.3465	-5.903005	0.000348	3.480892	0.589679	0.000035
 339	3.3631e+01	3.3572	-5.867566	0.000356	3.562796	0.603554	0.000036
 340	3.3730e+01	3.3699	-5.835386	0.000324	3.235182	0.548055	0.000032
 341	3.3830e+01	3.3802	-5.801169	0.000344	3.439941	0.582742	0.000034
 342	3.3929e+01	3.3875	-5.773877	0.000274	2.743762	0.464806	0.000027
 343	3.4029e+01	3.4006	-5.737624	0.000364	3.644699	0.617429	0.000036
 344	3.4129e+01	3.4101	-5.705851	0.000319	3.194231	0.541117	0.000032
 345	3.4228e+01	3.4219	-5.674485	0.000315	3.153279	0.534180	0.000032
 346	3.4328e+01	3.4279	-5.638639	0.000360	3.603747	0.610491	0.000036
 347	3.4427e+01	3.4382	-5.608496	0.000303	3.030424	0.513368	0.000030
 348	3.4526e+01	3.4464	-5.571020	0.000377	3.767554	0.638241	0.000038
 349	3.4626e+01	3.4569	-5.536804	0.000344	3.439941	0.582742	0.000034
 350	3.4725e+01	3.4692	-5.506660	0.000303	3.030424	0.513368	0.000030
 351	3.4825e+01	3.4787	-5.472036	0.000348	3.480892	0.589679	0.000035
 352	3.4925e+01	3.4863	-5.439856	0.000324	3.235182	0.548055	0.000032
 353	3.5024e+01	3.4971	-5.407676	0.000324	3.235182	0.548055	0.000032
 354	3.5123e+01	3.5055	-5.375089	0.000328	3.276134	0.554992	0.000033
 355	3.5223e+01	3.5198	-5.343723	0.000315	3.153279	0.534180	0.000032
 356	3.5322e+01	3.5269	-5.312765	0.000311	3.112327	0.527242	0.000031
 357	3.5422e+01	3.5368	-5.281400	0.000315	3.153279	0.534180	0.000032
 358	3.5522e+01	3.5513	-5.243110	0.000385	3.849457	0.652116	0.000038
 359	3.5621e+01	3.5571	-5.213374	0.000299	2.989472	0.506430	0.000030
 360	3.5721e+01	3.5675	-5.179972	0.000336	3.358037	0.568867	0.000034
 361	3.5820e+01	3.5764	-5.151458	0.000287	2.866617	0.485618	0.000029
 362	3.5919e+01	3.5889	-5.116426	0.000352	3.521844	0.596617	0.000035
 363	3.6019e+01	3.5998	-5.085468	0.000311	3.112327	0.527242	0.000031
 364	3.6118e+01	3.6079	-5.049622	0.000360	3.603747	0.610491	0.000036
 365	3.6218e+01	3.6175	-5.018664	0.000311	3.112327	0.527242	0.000031
 366	3.6318e+01	3.6298	-4.984447	0.000344	3.439941	0.582742	0.000034
 367	3.6417e+01	3.6388	-4.950638	0.000340	3.398989	0.575804	0.000034
 368	3.6517e+01	3.6497	-4.918050	0.000328	3.276134	0.554992	0.000033
 369	3.6616e+01	3.6590	-4.883426	0.000348	3.480892	0.589679	0.000035
 370	3.6715e+01	3.6698	-4.854912	0.000287	2.866617	0.485618	0.000029
 371	3.6815e+01	3.6789	-4.819881	0.000352	3.521844	0.596617	0.000035
 372	3.6914e+01	3.6861	-4.789737	0.000303	3.030424	0.513368	0.000030
 373	3.7014e+01	3.6956	-4.755113	0.000348	3.480892	0.589679	0.000035
 374	3.7114e+01	3.7096	-4.720082	0.000352	3.521844	0.596617	0.000035
 375	3.7213e+01	3.7179	-4.688309	0.000319	3.194231	0.541117	0.000032
 376	3.7313e+01	3.7270	-4.650834	0.000377	3.767554	0.638241	0.000038
 377	3.7412e+01	3.7388	-4.619061	0.000319	3.194231	0.541117	0.000032
 378	3.7511e+01	3.7463	-4.584437	0.000348	3.480892	0.589679	0.000035
 379	3.7611e+01	3.7577	-4.544925	0.000397	3.972312	0.672928	0.000040
 380	3.7711e+01	3.7668	-4.510708	0.000344	3.439941	0.582742	0.000034
 381	3.7810e+01	3.7768	-4.476491	0.000344	3.439941	0.582742	0.000034
 382	3.7910e+01	3.7888	-4.442274	0.000344	3.439941	0.582742	0.000034
 383	3.8009e+01	3.7965	-4.404799	0.000377	3.767554	0.638241	0.000038
 384	3.8108e+01	3.8071	-4.366508	0.000385	3.849457	0.652116	0.000038
 385	3.8208e+01	3.8156	-4.332699	0.000340	3.398989	0.575804	0.000034
 386	3.8307e+01	3.8244	-4.296446	0.000364	3.644699	0.617429	0.000036
 387	3.8407e+01	3.8368	-4.259785	0.000369	3.685651	0.624366	0.000037
 388	3.8507e+01	3.8480	-4.226790	0.000332	3.317086	0.561930	0.000033
 389	3.8606e+01	3.8570	-4.193795	0.000332	3.317086	0.561930	0.000033
 390	3.8706e+01	3.8677	-4.152654	0.000414	4.136119	0.700678	0.000041
 391	3.8805e+01	3.8754	-4.120474	0.000324	3.235182	0.548055	0.000032
 392	3.8904e+01	3.8869	-4.082998	0.000377	3.767554	0.638241	0.000038
 393	3.9004e+01	3.8967	-4.047559	0.000356	3.562796	0.603554	0.000036
 394	3.9103e+01	3.9042	-4.010084	0.000377	3.767554	0.638241	0.000038
 395	3.9203e+01	3.9159	-3.974645	0.000356	3.562796	0.603554	0.000036
 396	3.9303e+01	3.9252	-3.937169	0.000377	3.767554	0.638241	0.000038
 397	3.9402e+01	3.9384	-3.900101	0.000373	3.726602	0.631304	0.000037
 398	3.9502e+01	3.9440	-3.862626	0.000377	3.767554	0.638241	0.000038
 399	3.9601e+01	3.9578	-3.829631	0.000332	3.317086	0.561930	0.000033
 400	3.9700e+01	3.9642	-3.790526	0.000393	3.931361	0.665991	0.000039
 401	3.9800e+01	3.9751	-3.753865	0.000369	3.685651	0.624366	0.000037
 402	3.9900e+01	3.9879	-3.718019	0.000360	3.603747	0.610491	0.000036
 403	3.9999e+01	3.9964	-3.681358	0.000369	3.685651	0.624366	0.000037
 404	4.0099e+01	4.0054	-3.649586	0.000319	3.194231	0.541117	0.000032
 405	4.0198e+01	4.0187	-3.612925	0.000369	3.685651	0.624366	0.000037
 406	4.0297e+01	4.0275	-3.574227	0.000389	3.890409	0.659053	0.000039
 407	4.0397e+01	4.0374	-3.543269	0.000311	3.112327	0.527242	0.000031
 408	4.0496e+01	4.0453	-3.502535	0.000410	4.095167	0.693740	0.000041
 409	4.0596e+01	4.0591	-3.465467	0.000373	3.726602	0.631304	0.000037
 410	4.0696e+01	4.0643	-3.430028	0.000356	3.562796	0.603554	0.000036
 411	4.0795e+01	4.0776	-3.393774	0.000364	3.644699	0.617429	0.000036
 412	4.0895e+01	4.0850	-3.357521	0.000364	3.644699	0.617429	0.000036
 413	4.0994e+01	4.0953	-3.318009	0.000397	3.972312	0.672928	0.000040
 414	4.1093e+01	4.1051	-3.280941	0.000373	3.726602	0.631304	0.000037
 415	4.1193e+01	4.1174	-3.245094	0.000360	3.603747	0.610491	0.000036
 416	4.1292e+01	4.1256	-3.213729	0.000315	3.153279	0.534180	0.000032
 417	4.1392e+01	4.1358	-3.172587	0.000414	4.136119	0.700678	0.000041
 418	4.1492e+01	4.1460	-3.139185	0.000336	3.358037	0.568867	0.000034
 419	4.1591e+01	4.1584	-3.105783	0.000336	3.358037	0.568867	0.000034
 420	4.1691e+01	4.1647	-3.067086	0.000389	3.890409	0.659053	0.000039
 421	4.1790e+01	4.1751	-3.028796	0.000385	3.849457	0.652116	0.000038
 422	4.1889e+01	4.1835	-2.992135	0.000369	3.685651	0.624366	0.000037
 423	4.1989e+01	4.1940	-2.954252	0.000381	3.808506	0.645178	0.000038
 424	4.2089e+01	4.2025	-2.913110	0.000414	4.136119	0.700678	0.000041
 425	4.2188e+01	4.2138	-2.879301	0.000340	3.398989	0.575804	0.000034
 426	4.2288e+01	4.2222	-2.838159	0.000414	4.136119	0.700678	0.000041
 427	4.2387e+01	4.2329	-2.801498	0.000369	3.685651	0.624366	0.000037
 428	4.2486e+01	4.2428	-2.760357	0.000414	4.136119	0.700678	0.000041
 429	4.2586e+01	4.2558	-2.724511	0.000360	3.603747	0.610491	0.000036
 430	4.2685e+01	4.2681	-2.684591	0.000401	4.013264	0.679865	0.000040
 431	4.2785e+01	4.2760	-2.646708	0.000381	3.808506	0.645178	0.000038
 432	4.2885e+01	4.2858	-2.613306	0.000336	3.358037	0.568867	0.000034
 433	4.2984e+01	4.2953	-2.576238	0.000373	3.726602	0.631304	0.000037
 434	4.3084e+01	4.3038	-2.537133	0.000393	3.931361	0.665991	0.000039
 435	4.3183e+01	4.3139	-2.498028	0.000393	3.931361	0.665991	0.000039
 436	4.3282e+01	4.3224	-2.459331	0.000389	3.890409	0.659053	0.000039
 437	4.3382e+01	4.3340	-2.421448	0.000381	3.808506	0.645178	0.000038
 438	4.3481e+01	4.3429	-2.383158	0.000385	3.849457	0.652116	0.000038
 439	4.3581e+01	4.3551	-2.345682	0.000377	3.767554	0.638241	0.000038
 440	4.3681e+01	4.3635	-2.309429	0.000364	3.644699	0.617429	0.000036
 441	4.3780e+01	4.3753	-2.269509	0.000401	4.013264	0.679865	0.000040
 442	4.3880e+01	4.3836	-2.234478	0.000352	3.521844	0.596617	0.000035
 443	4.3979e+01	4.3914	-2.195373	0.000393	3.931361	0.665991	0.000039
 444	4.4078e+01	4.4054	-2.159119	0.000364	3.644699	0.617429	0.000036
 445	4.4178e+01	4.4146	-2.121644	0.000377	3.767554	0.638241	0.000038
 446	4.4278e+01	4.4254	-2.084576	0.000373	3.726602	0.631304	0.000037
 447	4.4377e+01	4.4347	-2.049544	0.000352	3.521844	0.596617	0.000035
 448	4.4477e+01	4.4444	-2.008810	0.000410	4.095167	0.693740	0.000041
 449	4.4576e+01	4.4534	-1.975408	0.000336	3.358037	0.568867	0.000034
 450	4.4675e+01	4.4640	-1.939154	0.000364	3.644699	0.617429	0.000036
 451	4.4775e+01	4.4775	-1.906159	0.000332	3.317086	0.561930	0.000033
 452	4.4874e+01	4.4833	-1.868684	0.000377	3.767554	0.638241	0.000038
 453	4.4974e+01	4.4973	-1.829579	0.000393	3.931361	0.665991	0.000039
 454	4.5074e+01	4.5031	-1.793326	0.000364	3.644699	0.617429	0.000036
 455	4.5173e+01	4.5158	-1.756665	0.000369	3.685651	0.624366	0.000037
 456	4.5273e+01	4.5257	-1.720411	0.000364	3.644699	0.617429	0.000036
 457	4.5372e+01	4.5354	-1.684565	0.000360	3.603747	0.610491	0.000036
 458	4.5471e+01	4.5450	-1.646682	0.000381	3.808506	0.645178	0.000038
 459	4.5571e+01	4.5544	-1.608799	0.000381	3.808506	0.645178	0.000038
 460	4.5670e+01	4.5633	-1.578249	0.000307	3.071376	0.520305	0.000031
 461	4.5770e+01	4.5698	-1.541995	0.000364	3.644699	0.617429	0.000036
 462	4.5870e+01	4.5827	-1.509408	0.000328	3.276134	0.554992	0.000033
 463	4.5969e+01	4.5940	-1.476820	0.000328	3.276134	0.554992	0.000033
 464	4.6069e+01	4.6033	-1.442196	0.000348	3.480892	0.589679	0.000035
 465	4.6168e+01	4.6111	-1.410016	0.000324	3.235182	0.548055	0.000032
 466	4.6267e+01	4.6214	-1.374985	0.000352	3.521844	0.596617	0.000035
 467	4.6367e+01	4.6331	-1.337917	0.000373	3.726602	0.631304	0.000037
 468	4.6467e+01	4.6420	-1.308181	0.000299	2.989472	0.506430	0.000030
 469	4.6566e+01	4.6517	-1.271927	0.000364	3.644699	0.617429	0.000036
 470	4.6666e+01	4.6603	-1.238525	0.000336	3.358037	0.568867	0.000034
 471	4.6765e+01	4.6735	-1.206345	0.000324	3.235182	0.548055	0.000032
 472	4.6864e+01	4.6828	-1.170906	0.000356	3.562796	0.603554	0.000036
 473	4.6964e+01	4.6921	-1.137911	0.000332	3.317086	0.561930	0.000033
 474	4.7063e+01	4.7032	-1.106953	0.000311	3.112327	0.527242	0.000031
 475	4.7163e+01	4.7121	-1.075181	0.000319	3.194231	0.541117	0.000032
 476	4.7263e+01	4.7218	-1.038520	0.000369	3.685651	0.624366	0.000037
 477	4.7362e+01	4.7353	-1.010821	0.000278	2.784714	0.471743	0.000028
 478	4.7462e+01	4.7440	-0.976196	0.000348	3.480892	0.589679	0.000035
 479	4.7561e+01	4.7546	-0.943202	0.000332	3.317086	0.561930	0.000033
 480	4.7660e+01	4.7602	-0.914280	0.000291	2.907569	0.492555	0.000029
 481	4.7760e+01	4.7735	-0.879249	0.000352	3.521844	0.596617	0.000035
 482	4.7859e+01	4.7842	-0.847884	0.000315	3.153279	0.534180	0.000032
 483	4.7959e+01	4.7915	-0.815296	0.000328	3.276134	0.554992	0.000033
 484	4.8059e+01	4.7997	-0.785560	0.000299	2.989472	0.506430	0.000030
 485	4.8158e+01	4.8098	-0.752158	0.000336	3.358037	0.568867	0.000034
 486	4.8258e+01	4.8239	-0.721607	0.000307	3.071376	0.520305	0.000031
 487	4.8357e+01	4.8335	-0.689835	0.000319	3.194231	0.541117	0.000032
 488	4.8456e+01	4.8428	-0.656840	0.000332	3.317086	0.561930	0.000033
 489	4.8556e+01	4.8552	-0.623438	0.000336	3.358037	0.568867	0.000034
 490	4.8656e+01	4.8611	-0.591258	0.000324	3.235182	0.548055	0.000032
 491	4.8755e+01	4.8736	-0.562744	0.000287	2.866617	0.485618	0.000029
 492	4.8855e+01	4.8827	-0.528527	0.000344	3.439941	0.582742	0.000034
 493	4.8954e+01	4.8907	-0.498384	0.000303	3.030424	0.513368	0.000030
 494	4.9053e+01	4.9045	-0.468648	0.000299	2.989472	0.506430	0.000030
 495	4.9153e+01	4.9146	-0.438912	0.000299	2.989472	0.506430	0.000030
 496	4.9252e+01	4.9238	-0.403473	0.000356	3.562796	0.603554	0.000036
 497	4.9352e+01	4.9303	-0.374551	0.000291	2.907569	0.492555	0.000029
 498	4.9452e+01	4.9440	-0.344001	0.000307	3.071376	0.520305	0.000031
 499	4.9551e+01	4.9531	-0.313043	0.000311	3.112327	0.527242	0.000031
 500	4.9651e+01	4.9615	-0.279233	0.000340	3.398989	0.575804	0.000034
 501	4.9750e+01	4.9726	-0.249497	0.000299	2.989472	0.506430	0.000030
 502	4.9849e+01	4.9807	-0.217725	0.000319	3.194231	0.541117	0.000032
 503	4.9949e+01	4.9923	-0.184323	0.000336	3.358037	0.568867	0.000034
 504	5.0048e+01	5.0012	-0.157031	0.000274	2.743762	0.464806	0.000027
 505	5.0148e+01	5.0111	-0.126073	0.000311	3.112327	0.527242	0.000031
 506	5.0248e+01	5.0219	-0.098373	0.000278	2.784714	0.471743	0.000028
 507	5.0347e+01	5.0309	-0.066601	0.000319	3.194231	0.541117	0.000032
 508	5.0447e+01	5.0413	-0.038087	0.000287	2.866617	0.485618	0.000029
 509	5.0546e+01	5.0515	-0.007536	0.000307	3.071376	0.520305	0.000031
 510	5.0645e+01	5.0620	0.020978	0.000287	2.866617	0.485618	0.000029
 511	5.0745e+01	5.0715	0.047455	0.000266	2.661859	0.450931	0.000027
 512	5.0844e+01	5.0796	0.073525	0.000262	2.620907	0.443994	0.000026
 513	5.0944e+01	5.0884	0.101632	0.000283	2.825665	0.478681	0.000028
 514	5.1044e+01	5.0997	0.135849	0.000344	3.439941	0.582742	0.000034
 515	5.1143e+01	5.1113	0.165992	0.000303	3.030424	0.513368	0.000030
 516	5.1242e+01	5.1225	0.192062	0.000262	2.620907	0.443994	0.000026
 517	5.1342e+01	5.1302	0.224242	0.000324	3.235182	0.548055	0.000032
 518	5.1441e+01	5.1416	0.254793	0.000307	3.071376	0.520305	0.000031
 519	5.1541e+01	5.1528	0.283307	0.000287	2.866617	0.485618	0.000029
 520	5.1641e+01	5.1592	0.308155	0.000250	2.498052	0.423181	0.000025
 521	5.1740e+01	5.1679	0.337891	0.000299	2.989472	0.506430	0.000030
 522	5.1840e+01	5.1791	0.363961	0.000262	2.620907	0.443994	0.000026
 523	5.1939e+01	5.1916	0.395733	0.000319	3.194231	0.541117	0.000032
 524	5.2038e+01	5.2007	0.425877	0.000303	3.030424	0.513368	0.000030
 525	5.2138e+01	5.2065	0.456427	0.000307	3.071376	0.520305	0.000031
 526	5.2237e+01	5.2202	0.480461	0.000242	2.416149	0.409307	0.000024
 527	5.2337e+01	5.2293	0.507752	0.000274	2.743762	0.464806	0.000027
 528	5.2437e+01	5.2427	0.536674	0.000291	2.907569	0.492555	0.000029
 529	5.2536e+01	5.2490	0.566817	0.000303	3.030424	0.513368	0.000030
 530	5.2636e+01	5.2586	0.594924	0.000283	2.825665	0.478681	0.000028
 531	5.2735e+01	5.2697	0.625882	0.000311	3.112327	0.527242	0.000031
 532	5.2834e+01	5.2810	0.656025	0.000303	3.030424	0.513368	0.000030
 533	5.2934e+01	5.2895	0.682502	0.000266	2.661859	0.450931	0.000027
 534	5.3033e+01	5.2977	0.715090	0.000328	3.276134	0.554992	0.000033
 535	5.3133e+01	5.3111	0.741567	0.000266	2.661859	0.450931	0.000027
 536	5.3233e+01	5.3184	0.772118	0.000307	3.071376	0.520305	0.000031
 537	5.3332e+01	5.3271	0.798595	0.000266	2.661859	0.450931	0.000027
 538	5.3431e+01	5.3393	0.830775	0.000324	3.235182	0.548055	0.000032
 539	5.3531e+01	5.3484	0.856438	0.000258	2.579955	0.437056	0.000026
 540	5.3630e+01	5.3602	0.887803	0.000315	3.153279	0.534180	0.000032
 541	5.3730e+01	5.3687	0.916317	0.000287	2.866617	0.485618	0.000029
 542	5.3830e+01	5.3791	0.945238	0.000291	2.907569	0.492555	0.000029
 543	5.3929e+01	5.3896	0.976196	0.000311	3.112327	0.527242	0.000031
 544	5.4029e+01	5.3985	1.010006	0.000340	3.398989	0.575804	0.000034
 545	5.4128e+01	5.4095	1.040964	0.000311	3.112327	0.527242	0.000031
 546	5.4227e+01	5.4189	1.074773	0.000340	3.398989	0.575804	0.000034
 547	5.4327e+01	5.4322	1.107768	0.000332	3.317086	0.561930	0.000033
 548	5.4426e+01	5.4346	1.139948	0.000324	3.235182	0.548055	0.000032
 549	5.4526e+01	5.4502	1.168869	0.000291	2.907569	0.492555	0.000029
 550	5.4626e+01	5.4612	1.201457	0.000328	3.276134	0.554992	0.000033
 551	5.4725e+01	5.4681	1.236896	0.000356	3.562796	0.603554	0.000036
 552	5.4825e+01	5.4786	1.266632	0.000299	2.989472	0.506430	0.000030
 553	5.4924e+01	5.4887	1.299219	0.000328	3.276134	0.554992	0.000033
 554	5.5023e+01	5.5001	1.328548	0.000295	2.948521	0.499493	0.000029
 555	5.5123e+01	5.5083	1.362765	0.000344	3.439941	0.582742	0.000034
 556	5.5222e+01	5.5199	1.396167	0.000336	3.358037	0.568867	0.000034
 557	5.5322e+01	5.5294	1.430791	0.000348	3.480892	0.589679	0.000035
 558	5.5422e+01	5.5386	1.462156	0.000315	3.153279	0.534180	0.000032
 559	5.5521e+01	5.5471	1.496373	0.000344	3.439941	0.582742	0.000034
 560	5.5620e+01	5.5587	1.528146	0.000319	3.194231	0.541117	0.000032
 561	5.5720e+01	5.5679	1.558696	0.000307	3.071376	0.520305	0.000031
 562	5.5819e+01	5.5776	1.594135	0.000356	3.562796	0.603554	0.000036
 563	5.5919e+01	5.5877	1.623056	0.000291	2.907569	0.492555	0.000029
 564	5.6019e+01	5.6007	1.661347	0.000385	3.849457	0.652116	0.000038
 565	5.6118e+01	5.6087	1.693527	0.000324	3.235182	0.548055	0.000032
 566	5.6218e+01	5.6216	1.724892	0.000315	3.153279	0.534180	0.000032
 567	5.6317e+01	5.6275	1.758701	0.000340	3.398989	0.575804	0.000034
 568	5.6416e+01	5.6389	1.792104	0.000336	3.358037	0.568867	0.000034
 569	5.6516e+01	5.6469	1.822654	0.000307	3.071376	0.520305	0.000031
 570	5.6615e+01	5.6583	1.853612	0.000311	3.112327	0.527242	0.000031
 571	5.6715e+01	5.6654	1.890273	0.000369	3.685651	0.624366	0.000037
 572	5.6815e+01	5.6788	1.922046	0.000319	3.194231	0.541117	0.000032
 573	5.6914e+01	5.6850	1.953411	0.000315	3.153279	0.534180	0.000032
 574	5.7014e+01	5.6965	1.986813	0.000336	3.358037	0.568867	0.000034
 575	5.7113e+01	5.7104	2.017364	0.000307	3.071376	0.520305	0.000031
 576	5.7212e+01	5.7198	2.050359	0.000332	3.317086	0.561930	0.000033
 577	5.7312e+01	5.7290	2.086612	0.000364	3.644699	0.617429	0.000036
 578	5.7411e+01	5.7363	2.117570	0.000311	3.112327	0.527242	0.000031
 579	5.7511e+01	5.7504	2.152602	0.000352	3.521844	0.596617	0.000035
 580	5.7611e+01	5.7569	2.186004	0.000336	3.358037	0.568867	0.000034
 581	5.7710e+01	5.7673	2.221443	0.000356	3.562796	0.603554	0.000036
 582	5.7809e+01	5.7760	2.256067	0.000348	3.480892	0.589679	0.000035
 583	5.7909e+01	5.7895	2.284581	0.000287	2.866617	0.485618	0.000029
 584	5.8008e+01	5.7943	2.320020	0.000356	3.562796	0.603554	0.000036
 585	5.8108e+01	5.8063	2.348533	0.000287	2.866617	0.485618	0.000029
 586	5.8208e+01	5.8144	2.383565	0.000352	3.521844	0.596617	0.000035
 587	5.8307e+01	5.8291	2.420226	0.000369	3.685651	0.624366	0.000037
 588	5.8407e+01	5.8376	2.453628	0.000336	3.358037	0.568867	0.000034
 589	5.8506e+01	5.8462	2.486623	0.000332	3.317086	0.561930	0.000033
 590	5.8605e+01	5.8567	2.519617	0.000332	3.317086	0.561930	0.000033
 591	5.8705e+01	5.8663	2.552612	0.000332	3.317086	0.561930	0.000033
 592	5.8804e+01	5.8768	2.590902	0.000385	3.849457	0.652116	0.000038
 593	5.8904e+01	5.8895	2.627156	0.000364	3.644699	0.617429	0.000036
 594	5.9004e+01	5.8958	2.663002	0.000360	3.603747	0.610491	0.000036
 595	5.9103e+01	5.9035	2.698441	0.000356	3.562796	0.603554	0.000036
 596	5.9203e+01	5.9173	2.733472	0.000352	3.521844	0.596617	0.000035
 597	5.9302e+01	5.9277	2.765652	0.000324	3.235182	0.548055	0.000032
 598	5.9401e+01	5.9365	2.800276	0.000348	3.480892	0.589679	0.000035
 599	5.9501e+01	5.9492	2.833678	0.000336	3.358037	0.568867	0.000034
 600	5.9600e+01	5.9586	2.872376	0.000389	3.890409	0.659053	0.000039
 601	5.9700e+01	5.9661	2.904149	0.000319	3.194231	0.541117	0.000032
 602	5.9800e+01	5.9782	2.939180	0.000352	3.521844	0.596617	0.000035
 603	5.9899e+01	5.9849	2.974619	0.000356	3.562796	0.603554	0.000036
 604	5.9998e+01	5.9942	3.009650	0.000352	3.521844	0.596617	0.000035
 605	6.0098e+01	6.0030	3.044275	0.000348	3.480892	0.589679	0.000035
 606	6.0197e+01	6.0192	3.080528	0.000364	3.644699	0.617429	0.000036
 607	6.0297e+01	6.0250	3.114337	0.000340	3.398989	0.575804	0.000034
 608	6.0397e+01	6.0366	3.151406	0.000373	3.726602	0.631304	0.000037
 609	6.0496e+01	6.0450	3.185622	0.000344	3.439941	0.582742	0.000034
 610	6.0596e+01	6.0561	3.221876	0.000364	3.644699	0.617429	0.000036
 611	6.0695e+01	6.0671	3.256500	0.000348	3.480892	0.589679	0.000035
 612	6.0794e+01	6.0735	3.289087	0.000328	3.276134	0.554992	0.000033
 613	6.0894e+01	6.0867	3.322897	0.000340	3.398989	0.575804	0.000034
 614	6.0993e+01	6.0964	3.357928	0.000352	3.521844	0.596617	0.000035
 615	6.1093e+01	6.1064	3.390923	0.000332	3.317086	0.561930	0.000033
 616	6.1193e+01	6.1166	3.425547	0.000348	3.480892	0.589679	0.000035
 617	6.1292e+01	6.1248	3.461801	0.000364	3.644699	0.617429	0.000036
 618	6.1392e+01	6.1356	3.491944	0.000303	3.030424	0.513368	0.000030
 619	6.1491e+01	6.1483	3.523309	0.000315	3.153279	0.534180	0.000032
 620	6.1590e+01	6.1553	3.558341	0.000352	3.521844	0.596617	0.000035
 621	6.1690e+01	6.1654	3.592558	0.000344	3.439941	0.582742	0.000034
 622	6.1789e+01	6.1746	3.630033	0.000377	3.767554	0.638241	0.000038
 623	6.1889e+01	6.1839	3.662621	0.000328	3.276134	0.554992	0.000033
 624	6.1989e+01	6.1951	3.696837	0.000344	3.439941	0.582742	0.000034
 625	6.2088e+01	6.2061	3.726573	0.000299	2.989472	0.506430	0.000030
 626	6.2188e+01	6.2151	3.761605	0.000352	3.521844	0.596617	0.000035
 627	6.2287e+01	6.2261	3.794600	0.000332	3.317086	0.561930	0.000033
 628	6.2386e+01	6.2357	3.822706	0.000283	2.825665	0.478681	0.000028
 629	6.2486e+01	6.2453	3.855701	0.000332	3.317086	0.561930	0.000033
 630	6.2586e+01	6.2569	3.890325	0.000348	3.480892	0.589679	0.000035
 631	6.2685e+01	6.2656	3.924134	0.000340	3.398989	0.575804	0.000034
 632	6.2785e+01	6.2743	3.955500	0.000315	3.153279	0.534180	0.000032
 633	6.2884e+01	6.2843	3.985643	0.000303	3.030424	0.513368	0.000030
 634	6.2983e+01	6.2951	4.017416	0.000319	3.194231	0.541117	0.000032
 635	6.3083e+01	6.3048	4.044301	0.000270	2.702810	0.457868	0.000027
 636	6.3182e+01	6.3148	4.076888	0.000328	3.276134	0.554992	0.000033
 637	6.3282e+01	6.3238	4.106217	0.000295	2.948521	0.499493	0.000029
 638	6.3382e+01	6.3342	4.137989	0.000319	3.194231	0.541117	0.000032
 639	6.3481e+01	6.3457	4.170169	0.000324	3.235182	0.548055	0.000032
 640	6.3581e+01	6.3530	4.199091	0.000291	2.907569	0.492555	0.000029
 641	6.3680e+01	6.3692	4.232493	0.000336	3.358037	0.568867	0.000034
 642	6.3779e+01	6.3750	4.260599	0.000283	2.825665	0.478681	0.000028
 643	6.3879e+01	6.3851	4.290335	0.000299	2.989472	0.506430	0.000030
 644	6.3978e+01	6.3937	4.325774	0.000356	3.562796	0.603554	0.000036
 645	6.4078e+01	6.4040	4.354288	0.000287	2.866617	0.485618	0.000029
 646	6.4177e+01	6.4123	4.383210	0.000291	2.907569	0.492555	0.000029
 647	6.4277e+01	6.4259	4.408872	0.000258	2.579955	0.437056	0.000026
 648	6.4376e+01	6.4320	4.441867	0.000332	3.317086	0.561930	0.000033
 649	6.4476e+01	6.4433	4.470381	0.000287	2.866617	0.485618	0.000029
 650	6.4576e+01	6.4512	4.498080	0.000278	2.784714	0.471743	0.000028
 651	6.4675e+01	6.4642	4.531482	0.000336	3.358037	0.568867	0.000034
 652	6.4775e+01	6.4730	4.560811	0.000295	2.948521	0.499493	0.000029
 653	6.4874e+01	6.4848	4.590547	0.000299	2.989472	0.506430	0.000030
 654	6.4974e+01	6.4910	4.624356	0.000340	3.398989	0.575804	0.000034
 655	6.5073e+01	6.5047	4.653278	0.000291	2.907569	0.492555	0.000029
 656	6.5172e+01	6.5146	4.682199	0.000291	2.907569	0.492555	0.000029
 657	6.5272e+01	6.5235	4.715194	0.000332	3.317086	0.561930	0.000033
 658	6.5371e+01	6.5336	4.743300	0.000283	2.825665	0.478681	0.000028
 659	6.5471e+01	6.5432	4.771407	0.000283	2.825665	0.478681	0.000028
 660	6.5570e+01	6.5530	4.799921	0.000287	2.866617	0.485618	0.000029
 661	6.5670e+01	6.5641	4.832508	0.000328	3.276134	0.554992	0.000033
 662	6.5769e+01	6.5714	4.858171	0.000258	2.579955	0.437056	0.000026
 663	6.5869e+01	6.5813	4.887092	0.000291	2.907569	0.492555	0.000029
 664	6.5969e+01	6.5929	4.917236	0.000303	3.030424	0.513368	0.000030
 665	6.6068e+01	6.6027	4.946564	0.000295	2.948521	0.499493	0.000029
 666	6.6168e+01	6.6131	4.976300	0.000299	2.989472	0.506430	0.000030
 667	6.6267e+01	6.6241	5.006036	0.000299	2.989472	0.506430	0.000030
 668	6.6367e+01	6.6329	5.032514	0.000266	2.661859	0.450931	0.000027
 669	6.6466e+01	6.6448	5.063064	0.000307	3.071376	0.520305	0.000031
 670	6.6566e+01	6.6515	5.093208	0.000303	3.030424	0.513368	0.000030
 671	6.6665e+01	6.6648	5.122129	0.000291	2.907569	0.492555	0.000029
 672	6.6764e+01	6.6735	5.153902	0.000319	3.194231	0.541117	0.000032
 673	6.6864e+01	6.6814	5.180379	0.000266	2.661859	0.450931	0.000027
 674	6.6963e+01	6.6912	5.212152	0.000319	3.194231	0.541117	0.000032
 675	6.7063e+01	6.7041	5.239444	0.000274	2.743762	0.464806	0.000027
 676	6.7162e+01	6.7106	5.265921	0.000266	2.661859	0.450931	0.000027
 677	6.7262e+01	6.7220	5.290361	0.000246	2.457100	0.416244	0.000025
 678	6.7362e+01	6.7320	5.320097	0.000299	2.989472	0.506430	0.000030
 679	6.7461e+01	6.7406	5.347797	0.000278	2.784714	0.471743	0.000028
 680	6.7561e+01	6.7522	5.373459	0.000258	2.579955	0.437056	0.000026
 681	6.7660e+01	6.7648	5.400344	0.000270	2.702810	0.457868	0.000027
 682	6.7760e+01	6.7733	5.430080	0.000299	2.989472	0.506430	0.000030
 683	6.7859e+01	6.7803	5.460223	0.000303	3.030424	0.513368	0.000030
 684	6.7959e+01	6.7901	5.486700	0.000266	2.661859	0.450931	0.000027
 685	6.8058e+01	6.8013	5.515622	0.000291	2.907569	0.492555	0.000029
 686	6.8157e+01	6.8108	5.544136	0.000287	2.866617	0.485618	0.000029
 687	6.8257e+01	6.8240	5.569391	0.000254	2.539004	0.430119	0.000025
 688	6.8356e+01	6.8269	5.598720	0.000295	2.948521	0.499493	0.000029
 689	6.8456e+01	6.8424	5.625604	0.000270	2.702810	0.457868	0.000027
 690	6.8555e+01	6.8510	5.649638	0.000242	2.416149	0.409307	0.000024
 691	6.8655e+01	6.8604	5.675707	0.000262	2.620907	0.443994	0.000026
 692	6.8754e+01	6.8716	5.709924	0.000344	3.439941	0.582742	0.000034
 693	6.8854e+01	6.8804	5.736401	0.000266	2.661859	0.450931	0.000027
 694	6.8954e+01	6.8917	5.764508	0.000283	2.825665	0.478681	0.000028
 695	6.9053e+01	6.9016	5.788949	0.000246	2.457100	0.416244	0.000025
 696	6.9153e+01	6.9111	5.815019	0.000262	2.620907	0.443994	0.000026
 697	6.9252e+01	6.9213	5.844755	0.000299	2.989472	0.506430	0.000030
 698	6.9352e+01	6.9288	5.873269	0.000287	2.866617	0.485618	0.000029
 699	6.9451e+01	6.9414	5.902597	0.000295	2.948521	0.499493	0.000029
 700	6.9550e+01	6.9523	5.931926	0.000295	2.948521	0.499493	0.000029
 701	6.9650e+01	6.9616	5.962884	0.000311	3.112327	0.527242	0.000031
 702	6.9749e+01	6.9714	5.989769	0.000270	2.702810	0.457868	0.000027
 703	6.9849e+01	6.9796	6.016246	0.000266	2.661859	0.450931	0.000027
 704	6.9948e+01	6.9915	6.043130	0.000270	2.702810	0.457868	0.000027
 705	7.0048e+01	6.9990	6.073274	0.000303	3.030424	0.513368	0.000030
 706	7.0147e+01	7.0116	6.101380	0.000283	2.825665	0.478681	0.000028
 707	7.0247e+01	7.0211	6.129080	0.000278	2.784714	0.471743	0.000028
 708	7.0347e+01	7.0294	6.155964	0.000270	2.702810	0.457868	0.000027
 709	7.0446e+01	7.0376	6.188552	0.000328	3.276134	0.554992	0.000033
 710	7.0546e+01	7.0519	6.217066	0.000287	2.866617	0.485618	0.000029
 711	7.0645e+01	7.0622	6.248024	0.000311	3.112327	0.527242	0.000031
 712	7.0745e+01	7.0693	6.279796	0.000319	3.194231	0.541117	0.000032
 713	7.0844e+01	7.0802	6.311162	0.000315	3.153279	0.534180	0.000032
 714	7.0944e+01	7.0878	6.347008	0.000360	3.603747	0.610491	0.000036
 715	7.1043e+01	7.0988	6.373893	0.000270	2.702810	0.457868	0.000027
 716	7.1142e+01	7.1120	6.408517	0.000348	3.480892	0.589679	0.000035
 717	7.1242e+01	7.1220	6.438660	0.000303	3.030424	0.513368	0.000030
 718	7.1341e+01	7.1310	6.470433	0.000319	3.194231	0.541117	0.000032
 719	7.1441e+01	7.1385	6.505057	0.000348	3.480892	0.589679	0.000035
 720	7.1540e+01	7.1471	6.533978	0.000291	2.907569	0.492555	0.000029
 721	7.1640e+01	7.1603	6.566566	0.000328	3.276134	0.554992	0.000033
 722	7.1740e+01	7.1690	6.603634	0.000373	3.726602	0.631304	0.000037
 723	7.1839e+01	7.1795	6.628074	0.000246	2.457100	0.416244	0.000025
 724	7.1939e+01	7.1883	6.663920	0.000360	3.603747	0.610491	0.000036
 725	7.2038e+01	7.1998	6.696101	0.000324	3.235182	0.548055	0.000032
 726	7.2138e+01	7.2099	6.726244	0.000303	3.030424	0.513368	0.000030
 727	7.2237e+01	7.2193	6.765756	0.000397	3.972312	0.672928	0.000040
 728	7.2337e+01	7.2271	6.797529	0.000319	3.194231	0.541117	0.000032
 729	7.2436e+01	7.2387	6.831746	0.000344	3.439941	0.582742	0.000034
 730	7.2535e+01	7.2495	6.859445	0.000278	2.784714	0.471743	0.000028
 731	7.2635e+01	7.2613	6.894476	0.000352	3.521844	0.596617	0.000035
 732	7.2734e+01	7.2683	6.930322	0.000360	3.603747	0.610491	0.000036
 733	7.2834e+01	7.2811	6.962503	0.000324	3.235182	0.548055	0.000032
 734	7.2933e+01	7.2887	6.995090	0.000328	3.276134	0.554992	0.000033
 735	7.3033e+01	7.3006	7.027677	0.000328	3.276134	0.554992	0.000033
 736	7.3132e+01	7.3080	7.062709	0.000352	3.521844	0.596617	0.000035
 737	7.3232e+01	7.3193	7.095296	0.000328	3.276134	0.554992	0.000033
 738	7.3332e+01	7.3286	7.132364	0.000373	3.726602	0.631304	0.000037
 739	7.3431e+01	7.3394	7.163730	0.000315	3.153279	0.534180	0.000032
 740	7.3531e+01	7.3495	7.195910	0.000324	3.235182	0.548055	0.000032
 741	7.3630e+01	7.3577	7.226868	0.000311	3.112327	0.527242	0.000031
 742	7.3730e+01	7.3693	7.261899	0.000352	3.521844	0.596617	0.000035
 743	7.3829e+01	7.3777	7.297338	0.000356	3.562796	0.603554	0.000036
 744	7.3928e+01	7.3885	7.331962	0.000348	3.480892	0.589679	0.000035
 745	7.4028e+01	7.3980	7.365772	0.000340	3.398989	0.575804	0.000034
 746	7.4127e+01	7.4057	7.399581	0.000340	3.398989	0.575804	0.000034
 747	7.4227e+01	7.4192	7.435427	0.000360	3.603747	0.610491	0.000036
 748	7.4326e+01	7.4271	7.467607	0.000324	3.235182	0.548055	0.000032
 749	7.4426e+01	7.4386	7.503861	0.000364	3.644699	0.617429	0.000036
 750	7.4525e+01	7.4464	7.538078	0.000344	3.439941	0.582742	0.000034
 751	7.4625e+01	7.4561	7.575553	0.000377	3.767554	0.638241	0.000038
 752	7.4725e+01	7.4693	7.606918	0.000315	3.153279	0.534180	0.000032
 753	7.4824e+01	7.4758	7.641135	0.000344	3.439941	0.582742	0.000034
 754	7.4924e+01	7.4891	7.674537	0.000336	3.358037	0.568867	0.000034
 755	7.5023e+01	7.4979	7.711606	0.000373	3.726602	0.631304	0.000037
 756	7.5123e+01	7.5060	7.745008	0.000336	3.358037	0.568867	0.000034
 757	7.5222e+01	7.5176	7.778817	0.000340	3.398989	0.575804	0.000034
 758	7.5322e+01	7.5283	7.817922	0.000393	3.931361	0.665991	0.000039
 759	7.5421e+01	7.5396	7.852953	0.000352	3.521844	0.596617	0.000035
 760	7.5520e+01	7.5491	7.892058	0.000393	3.931361	0.665991	0.000039
 761	7.5620e+01	7.5618	7.929126	0.000373	3.726602	0.631304	0.000037
 762	7.5719e+01	7.5686	7.966195	0.000373	3.726602	0.631304	0.000037
 763	7.5819e+01	7.5773	8.000411	0.000344	3.439941	0.582742	0.000034
 764	7.5918e+01	7.5865	8.037887	0.000377	3.767554	0.638241	0.000038
 765	7.6018e+01	7.5980	8.076584	0.000389	3.890409	0.659053	0.000039
 766	7.6118e+01	7.6067	8.113653	0.000373	3.726602	0.631304	0.000037
 767	7.6217e+01	7.6165	8.151128	0.000377	3.767554	0.638241	0.000038
 768	7.6317e+01	7.6266	8.184530	0.000336	3.358037	0.568867	0.000034
 769	7.6416e+01	7.6354	8.223228	0.000389	3.890409	0.659053	0.000039
 770	7.6516e+01	7.6455	8.258667	0.000356	3.562796	0.603554	0.000036
 771	7.6615e+01	7.6591	8.300216	0.000418	4.177071	0.707615	0.000042
 772	7.6715e+01	7.6685	8.336469	0.000364	3.644699	0.617429	0.000036
 773	7.6814e+01	7.6756	8.370686	0.000344	3.439941	0.582742	0.000034
 774	7.6913e+01	7.6885	8.410198	0.000397	3.972312	0.672928	0.000040
 775	7.7013e+01	7.6971	8.449303	0.000393	3.931361	0.665991	0.000039
 776	7.7112e+01	7.7042	8.485556	0.000364	3.644699	0.617429	0.000036
 777	7.7212e+01	7.7177	8.522217	0.000369	3.685651	0.624366	0.000037
 778	7.7311e+01	7.7266	8.562137	0.000401	4.013264	0.679865	0.000040
 779	7.7411e+01	7.7374	8.599612	0.000377	3.767554	0.638241	0.000038
 780	7.7510e+01	7.7489	8.633422	0.000340	3.398989	0.575804	0.000034
 781	7.7610e+01	7.7565	8.672934	0.000397	3.972312	0.672928	0.000040
 782	7.7710e+01	7.7682	8.709187	0.000364	3.644699	0.617429	0.000036
 783	7.7809e+01	7.7735	8.749107	0.000401	4.013264	0.679865	0.000040
 784	7.7909e+01	7.7886	8.780880	0.000319	3.194231	0.541117	0.000032
 785	7.8008e+01	7.7979	8.817948	0.000373	3.726602	0.631304	0.000037
 786	7.8108e+01	7.8059	8.858275	0.000405	4.054216	0.686803	0.000041
 787	7.8207e+01	7.8161	8.892084	0.000340	3.398989	0.575804	0.000034
 788	7.8306e+01	7.8275	8.931189	0.000393	3.931361	0.665991	0.000039
 789	7.8406e+01	7.8373	8.969479	0.000385	3.849457	0.652116	0.000038
 790	7.8505e+01	7.8452	9.002067	0.000328	3.276134	0.554992	0.000033
 791	7.8605e+01	7.8545	9.043208	0.000414	4.136119	0.700678	0.000041
 792	7.8704e+01	7.8653	9.083943	0.000410	4.095167	0.693740	0.000041
 793	7.8804e+01	7.8756	9.116530	0.000328	3.276134	0.554992	0.000033
 794	7.8903e+01	7.8867	9.150339	0.000340	3.398989	0.575804	0.000034
 795	7.9003e+01	7.8965	9.189037	0.000389	3.890409	0.659053	0.000039
 796	7.9103e+01	7.9058	9.224476	0.000356	3.562796	0.603554	0.000036
 797	7.9202e+01	7.9173	9.259100	0.000348	3.480892	0.589679	0.000035
 798	7.9302e+01	7.9275	9.295353	0.000364	3.644699	0.617429	0.000036
 799	7.9401e+01	7.9364	9.330385	0.000352	3.521844	0.596617	0.000035
 800	7.9501e+01	7.9454	9.369082	0.000389	3.890409	0.659053	0.000039
 801	7.9600e+01	7.9552	9.403706	0.000348	3.480892	0.589679	0.000035
 802	7.9700e+01	7.9661	9.438331	0.000348	3.480892	0.589679	0.000035
 803	7.9799e+01	7.9757	9.477435	0.000393	3.931361	0.665991	0.000039
 804	7.9898e+01	7.9830	9.509616	0.000324	3.235182	0.548055	0.000032
 805	7.9998e+01	7.9980	9.544647	0.000352	3.521844	0.596617	0.000035
 806	8.0097e+01	8.0059	9.582937	0.000385	3.849457	0.652116	0.000038
 807	8.0197e+01	8.0161	9.619191	0.000364	3.644699	0.617429	0.000036
 808	8.0296e+01	8.0293	9.652185	0.000332	3.317086	0.561930	0.000033
 809	8.0396e+01	8.0367	9.688846	0.000369	3.685651	0.624366	0.000037
 810	8.0496e+01	8.0454	9.724285	0.000356	3.562796	0.603554	0.000036
 811	8.0595e+01	8.0560	9.757687	0.000336	3.358037	0.568867	0.000034
 812	8.0695e+01	8.0692	9.795163	0.000377	3.767554	0.638241	0.000038
 813	8.0794e+01	8.0750	9.831009	0.000360	3.603747	0.610491	0.000036
 814	8.0894e+01	8.0856	9.864818	0.000340	3.398989	0.575804	0.000034
 815	8.0993e+01	8.0959	9.901886	0.000373	3.726602	0.631304	0.000037
 816	8.1093e+01	8.1034	9.935289	0.000336	3.358037	0.568867	0.000034
 817	8.1192e+01	8.1193	9.971542	0.000364	3.644699	0.617429	0.000036
 818	8.1291e+01	8.1219	10.002500	0.000311	3.112327	0.527242	0.000031
 819	8.1391e+01	8.1345	10.042827	0.000405	4.054216	0.686803	0.000041
 820	8.1490e+01	8.1445	10.075822	0.000332	3.317086	0.561930	0.000033
 821	8.1590e+01	8.1554	10.111260	0.000356	3.562796	0.603554	0.000036
 822	8.1689e+01	8.1667	10.146292	0.000352	3.521844	0.596617	0.000035
 823	8.1789e+01	8.1753	10.185397	0.000393	3.931361	0.665991	0.000039
 824	8.1888e+01	8.1840	10.221650	0.000364	3.644699	0.617429	0.000036
 825	8.1988e+01	8.1944	10.259533	0.000381	3.808506	0.645178	0.000038
 826	8.2088e+01	8.2053	10.293750	0.000344	3.439941	0.582742	0.000034
 827	8.2187e+01	8.2133	10.330411	0.000369	3.685651	0.624366	0.000037
 828	8.2287e+01	8.2256	10.365442	0.000352	3.521844	0.596617	0.000035
 829	8.2386e+01	8.2349	10.397215	0.000319	3.194231	0.541117	0.000032
 830	8.2486e+01	8.2438	10.435505	0.000385	3.849457	0.652116	0.000038
 831	8.2585e+01	8.2515	10.471759	0.000364	3.644699	0.617429	0.000036
 832	8.2684e+01	8.2651	10.505975	0.000344	3.439941	0.582742	0.000034
 833	8.2784e+01	8.2737	10.543044	0.000373	3.726602	0.631304	0.000037
 834	8.2883e+01	8.2830	10.578482	0.000356	3.562796	0.603554	0.000036
 835	8.2983e+01	8.2960	10.613514	0.000352	3.521844	0.596617	0.000035
 836	8.3082e+01	8.3022	10.651804	0.000385	3.849457	0.652116	0.000038
 837	8.3182e+01	8.3169	10.693353	0.000418	4.177071	0.707615	0.000042
 838	8.3281e+01	8.3234	10.726755	0.000336	3.358037	0.568867	0.000034
 839	8.3381e+01	8.3344	10.758935	0.000324	3.235182	0.548055	0.000032
 840	8.3481e+01	8.3428	10.799669	0.000410	4.095167	0.693740	0.000041
 841	8.3580e+01	8.3511	10.832664	0.000332	3.317086	0.561930	0.000033
 842	8.3680e+01	8.3649	10.869325	0.000369	3.685651	0.624366	0.000037
 843	8.3779e+01	8.3740	10.904356	0.000352	3.521844	0.596617	0.000035
 844	8.3879e+01	8.3833	10.938166	0.000340	3.398989	0.575804	0.000034
 845	8.3978e+01	8.3930	10.974827	0.000369	3.685651	0.624366	0.000037
 846	8.4078e+01	8.4033	11.009858	0.000352	3.521844	0.596617	0.000035
 847	8.4177e+01	8.4158	11.044075	0.000344	3.439941	0.582742	0.000034
 848	8.4276e+01	8.4240	11.080736	0.000369	3.685651	0.624366	0.000037
 849	8.4376e+01	8.4356	11.116175	0.000356	3.562796	0.603554	0.000036
 850	8.4475e+01	8.4473	11.154872	0.000389	3.890409	0.659053	0.000039
 851	8.4575e+01	8.4545	11.192755	0.000381	3.808506	0.645178	0.000038
 852	8.4674e+01	8.4642	11.227379	0.000348	3.480892	0.589679	0.000035
 853	8.4774e+01	8.4736	11.266077	0.000389	3.890409	0.659053	0.000039
 854	8.4874e+01	8.4837	11.302330	0.000364	3.644699	0.617429	0.000036
 855	8.4973e+01	8.4942	11.334918	0.000328	3.276134	0.554992	0.000033
 856	8.5073e+01	8.5020	11.373208	0.000385	3.849457	0.652116	0.000038
 857	8.5172e+01	8.5136	11.406610	0.000336	3.358037	0.568867	0.000034
 858	8.5272e+01	8.5227	11.443678	0.000373	3.726602	0.631304	0.000037
 859	8.5371e+01	8.5354	11.479931	0.000364	3.644699	0.617429	0.000036
 860	8.5471e+01	8.5439	11.519851	0.000401	4.013264	0.679865	0.000040
 861	8.5570e+01	8.5541	11.556512	0.000369	3.685651	0.624366	0.000037
 862	8.5669e+01	8.5632	11.590321	0.000340	3.398989	0.575804	0.000034
 863	8.5769e+01	8.5725	11.631463	0.000414	4.136119	0.700678	0.000041
 864	8.5868e+01	8.5809	11.665272	0.000340	3.398989	0.575804	0.000034
 865	8.5968e+01	8.5930	11.703155	0.000381	3.808506	0.645178	0.000038
 866	8.6067e+01	8.6012	11.741853	0.000389	3.890409	0.659053	0.000039
 867	8.6167e+01	8.6138	11.778106	0.000364	3.644699	0.617429	0.000036
 868	8.6266e+01	8.6220	11.820470	0.000426	4.258974	0.721490	0.000043
 869	8.6366e+01	8.6325	11.859167	0.000389	3.890409	0.659053	0.000039
 870	8.6466e+01	8.6446	11.896643	0.000377	3.767554	0.638241	0.000038
 871	8.6565e+01	8.6526	11.935748	0.000393	3.931361	0.665991	0.000039
 872	8.6665e+01	8.6609	11.974445	0.000389	3.890409	0.659053	0.000039
 873	8.6764e+01	8.6719	12.012328	0.000381	3.808506	0.645178	0.000038
 874	8.6864e+01	8.6817	12.050618	0.000385	3.849457	0.652116	0.000038
 875	8.6963e+01	8.6932	12.090945	0.000405	4.054216	0.686803	0.000041
 876	8.7063e+01	8.7007	12.131272	0.000405	4.054216	0.686803	0.000041
 877	8.7162e+01	8.7128	12.172821	0.000418	4.177071	0.707615	0.000042
 878	8.7261e+01	8.7224	12.211111	0.000385	3.849457	0.652116	0.000038
 879	8.7361e+01	8.7309	12.257956	0.000471	4.709442	0.797801	0.000047
 880	8.7460e+01	8.7428	12.297061	0.000393	3.931361	0.665991	0.000039
 881	8.7560e+01	8.7518	12.343090	0.000463	4.627539	0.783926	0.000046
 882	8.7659e+01	8.7598	12.383825	0.000410	4.095167	0.693740	0.000041
 883	8.7759e+01	8.7720	12.429854	0.000463	4.627539	0.783926	0.000046
 884	8.7859e+01	8.7842	12.474255	0.000446	4.463732	0.756177	0.000045
 885	8.7958e+01	8.7904	12.516618	0.000426	4.258974	0.721490	0.000043
 886	8.8058e+01	8.8049	12.559797	0.000434	4.340877	0.735365	0.000043
 887	8.8157e+01	8.8122	12.605012	0.000455	4.545636	0.770052	0.000045
 888	8.8257e+01	8.8205	12.650634	0.000459	4.586587	0.776989	0.000046
 889	8.8356e+01	8.8306	12.692590	0.000422	4.218022	0.714552	0.000042
 890	8.8456e+01	8.8404	12.739842	0.000475	4.750394	0.804739	0.000047
 891	8.8555e+01	8.8514	12.781391	0.000418	4.177071	0.707615	0.000042
 892	8.8654e+01	8.8581	12.826199	0.000450	4.504684	0.763114	0.000045
 893	8.8754e+01	8.8708	12.867340	0.000414	4.136119	0.700678	0.000041
 894	8.8853e+01	8.8818	12.917851	0.000508	5.078008	0.860238	0.000051
 895	8.8953e+01	8.8906	12.963066	0.000455	4.545636	0.770052	0.000045
 896	8.9052e+01	8.8989	13.007059	0.000442	4.422781	0.749239	0.000044
 897	8.9152e+01	8.9100	13.056347	0.000496	4.955153	0.839426	0.000050
 898	8.9251e+01	8.9202	13.104414	0.000483	4.832297	0.818613	0.000048
 899	8.9351e+01	8.9327	13.148814	0.000446	4.463732	0.756177	0.000045
 900	8.9451e+01	8.9410	13.194436	0.000459	4.586587	0.776989	0.000046
 901	8.9550e+01	8.9521	13.240873	0.000467	4.668491	0.790864	0.000047
 902	8.9650e+01	8.9600	13.292606	0.000520	5.200863	0.881050	0.000052
 903	8.9749e+01	8.9713	13.334562	0.000422	4.218022	0.714552	0.000042
 904	8.9849e+01	8.9797	13.380592	0.000463	4.627539	0.783926	0.000046
 905	8.9948e+01	8.9913	13.429066	0.000487	4.873249	0.825551	0.000049
 906	9.0047e+01	9.0029	13.477132	0.000483	4.832297	0.818613	0.000048
 907	9.0147e+01	9.0102	13.527642	0.000508	5.078008	0.860238	0.000051
 908	9.0246e+01	9.0180	13.572857	0.000455	4.545636	0.770052	0.000045
 909	9.0346e+01	9.0293	13.620109	0.000475	4.750394	0.804739	0.000047
 910	9.0445e+01	9.0366	13.668990	0.000491	4.914201	0.832488	0.000049
 911	9.0545e+01	9.0481	13.715835	0.000471	4.709442	0.797801	0.000047
 912	9.0644e+01	9.0625	13.770419	0.000549	5.487524	0.929612	0.000055
 913	9.0744e+01	9.0713	13.818485	0.000483	4.832297	0.818613	0.000048
 914	9.0844e+01	9.0781	13.868181	0.000500	4.996104	0.846363	0.000050
 915	9.0943e+01	9.0882	13.920321	0.000524	5.241814	0.887987	0.000052
 916	9.1043e+01	9.0980	13.973275	0.000532	5.323718	0.901862	0.000053
 917	9.1142e+01	9.1085	14.014824	0.000418	4.177071	0.707615	0.000042
 918	9.1242e+01	9.1211	14.068593	0.000541	5.405621	0.915737	0.000054
 919	9.1341e+01	9.1315	14.114623	0.000463	4.627539	0.783926	0.000046
 920	9.1441e+01	9.1401	14.166356	0.000520	5.200863	0.881050	0.000052
 921	9.1540e+01	9.1486	14.214422	0.000483	4.832297	0.818613	0.000048
 922	9.1639e+01	9.1593	14.267784	0.000536	5.364669	0.908800	0.000054
 923	9.1739e+01	9.1694	14.315443	0.000479	4.791346	0.811676	0.000048
 924	9.1838e+01	9.1804	14.372064	0.000569	5.692283	0.964299	0.000057
 925	9.1938e+01	9.1895	14.420945	0.000491	4.914201	0.832488	0.000049
 926	9.2037e+01	9.1992	14.470233	0.000496	4.955153	0.839426	0.000050
 927	9.2137e+01	9.2112	14.528076	0.000582	5.815138	0.985111	0.000058
 928	9.2237e+01	9.2176	14.579808	0.000520	5.200863	0.881050	0.000052
 929	9.2336e+01	9.2275	14.638466	0.000590	5.897041	0.998986	0.000059
 930	9.2436e+01	9.2389	14.691420	0.000532	5.323718	0.901862	0.000053
 931	9.2535e+01	9.2501	14.745597	0.000545	5.446573	0.922674	0.000054
 932	9.2635e+01	9.2588	14.800995	0.000557	5.569428	0.943487	0.000056
 933	9.2734e+01	9.2681	14.851506	0.000508	5.078008	0.860238	0.000051
 934	9.2834e+01	9.2808	14.908534	0.000573	5.733234	0.971236	0.000057
 935	9.2933e+01	9.2890	14.960266	0.000520	5.200863	0.881050	0.000052
 936	9.3032e+01	9.2977	15.014443	0.000545	5.446573	0.922674	0.000054
 937	9.3132e+01	9.3085	15.069841	0.000557	5.569428	0.943487	0.000056
 938	9.3231e+01	9.3174	15.127684	0.000582	5.815138	0.985111	0.000058
 939	9.3331e+01	9.3305	15.183490	0.000561	5.610379	0.950424	0.000056
 940	9.3430e+01	9.3374	15.236037	0.000528	5.282766	0.894925	0.000053
 941	9.3530e+01	9.3485	15.293472	0.000577	5.774186	0.978174	0.000058
 942	9.3629e+01	9.3595	15.351722	0.000586	5.856089	0.992048	0.000059
 943	9.3729e+01	9.3690	15.405492	0.000541	5.405621	0.915737	0.000054
 944	9.3829e+01	9.3801	15.459261	0.000541	5.405621	0.915737	0.000054
 945	9.3928e+01	9.3880	15.521584	0.000627	6.265606	1.061422	0.000063
 946	9.4028e+01	9.3984	15.572909	0.000516	5.159911	0.874113	0.000052
 947	9.4127e+01	9.4102	15.633196	0.000606	6.060848	1.026735	0.000061
 948	9.4227e+01	9.4177	15.688595	0.000557	5.569428	0.943487	0.000056
 949	9.4326e+01	9.4289	15.744808	0.000565	5.651331	0.957361	0.000056
 950	9.4425e+01	9.4387	15.799799	0.000553	5.528476	0.936549	0.000055
 951	9.4525e+01	9.4448	15.856827	0.000573	5.733234	0.971236	0.000057
 952	9.4624e+01	9.4578	15.913448	0.000569	5.692283	0.964299	0.000057
 953	9.4724e+01	9.4648	15.965180	0.000520	5.200863	0.881050	0.000052
 954	9.4823e+01	9.4765	16.025467	0.000606	6.060848	1.026735	0.000061
 955	9.4923e+01	9.4909	16.082902	0.000577	5.774186	0.978174	0.000058
 956	9.5022e+01	9.4961	16.142782	0.000602	6.019896	1.019798	0.000060
 957	9.5122e+01	9.5046	16.198588	0.000561	5.610379	0.950424	0.000056
 958	9.5222e+01	9.5166	16.256430	0.000582	5.815138	0.985111	0.000058
 959	9.5321e+01	9.5255	16.314273	0.000582	5.815138	0.985111	0.000058
 960	9.5421e+01	9.5362	16.374152	0.000602	6.019896	1.019798	0.000060
 961	9.5520e+01	9.5452	16.431180	0.000573	5.733234	0.971236	0.000057
 962	9.5620e+01	9.5563	16.487393	0.000565	5.651331	0.957361	0.000056
 963	9.5719e+01	9.5689	16.543199	0.000561	5.610379	0.950424	0.000056
 964	9.5819e+01	9.5758	16.599820	0.000569	5.692283	0.964299	0.000057
 965	9.5918e+01	9.5862	16.653589	0.000541	5.405621	0.915737	0.000054
 966	9.6017e+01	9.5990	16.709802	0.000565	5.651331	0.957361	0.000056
 967	9.6117e+01	9.6070	16.774163	0.000647	6.470364	1.096109	0.000065
 968	9.6216e+01	9.6149	16.828339	0.000545	5.446573	0.922674	0.000054
 969	9.6316e+01	9.6266	16.886996	0.000590	5.897041	0.998986	0.000059
 970	9.6415e+01	9.6392	16.946876	0.000602	6.019896	1.019798	0.000060
 971	9.6515e+01	9.6476	17.005126	0.000586	5.856089	0.992048	0.000059
 972	9.6615e+01	9.6558	17.061746	0.000569	5.692283	0.964299	0.000057
 973	9.6714e+01	9.6670	17.118774	0.000573	5.733234	0.971236	0.000057
 974	9.6814e+01	9.6772	17.177024	0.000586	5.856089	0.992048	0.000059
 975	9.6913e+01	9.6851	17.234460	0.000577	5.774186	0.978174	0.000058
 976	9.7013e+01	9.6951	17.292710	0.000586	5.856089	0.992048	0.000059
 977	9.7112e+01	9.7063	17.353404	0.000610	6.101799	1.033673	0.000061
 978	9.7212e+01	9.7158	17.412468	0.000594	5.937993	1.005923	0.000059
 979	9.7311e+01	9.7280	17.471126	0.000590	5.897041	0.998986	0.000059
 980	9.7410e+01	9.7363	17.528561	0.000577	5.774186	0.978174	0.000058
 981	9.7510e+01	9.7494	17.590477	0.000622	6.224654	1.054485	0.000062
 982	9.7609e+01	9.7561	17.645061	0.000549	5.487524	0.929612	0.000055
 983	9.7709e+01	9.7633	17.703718	0.000590	5.897041	0.998986	0.000059
 984	9.7808e+01	9.7754	17.759117	0.000557	5.569428	0.943487	0.000056
 985	9.7908e+01	9.7887	17.821033	0.000622	6.224654	1.054485	0.000062
 986	9.8007e+01	9.7962	17.882542	0.000618	6.183703	1.047548	0.000062
 987	9.8107e+01	9.8074	17.940792	0.000586	5.856089	0.992048	0.000059
 988	9.8207e+01	9.8181	17.997005	0.000565	5.651331	0.957361	0.000056
 989	9.8306e+01	9.8257	18.063402	0.000668	6.675123	1.130796	0.000067
 990	9.8406e+01	9.8354	18.124910	0.000618	6.183703	1.047548	0.000062
 991	9.8505e+01	9.8466	18.182753	0.000582	5.815138	0.985111	0.000058
 992	9.8605e+01	9.8572	18.243855	0.000614	6.142751	1.040610	0.000061
 993	9.8704e+01	9.8663	18.306178	0.000627	6.265606	1.061422	0.000063
 994	9.8803e+01	9.8749	18.365243	0.000594	5.937993	1.005923	0.000059
 995	9.8903e+01	9.8853	18.426751	0.000618	6.183703	1.047548	0.000062
 996	9.9002e+01	9.8947	18.485816	0.000594	5.937993	1.005923	0.000059
 997	9.9102e+01	9.9064	18.548954	0.000635	6.347509	1.075297	0.000063
 998	9.9201e+01	9.9146	18.610055	0.000614	6.142751	1.040610	0.000061
 999	9.9301e+01	9.9245	18.674416	0.000647	6.470364	1.096109	0.000065
1000	9.9400e+01	9.9323	18.732258	0.000582	5.815138	0.985111	0.000058
1001	9.9500e+01	9.9453	18.795804	0.000639	6.388461	1.082235	0.000064
1002	9.9600e+01	9.9567	18.856090	0.000606	6.060848	1.026735	0.000061
1003	9.9699e+01	9.9639	18.922487	0.000668	6.675123	1.130796	0.000067
1004	9.9799e+01	9.9756	18.982774	0.000606	6.060848	1.026735	0.000061
1005	9.9898e+01	9.9820	19.043468	0.000610	6.101799	1.033673	0.000061
1006	9.9998e+01	9.9937	19.112309	0.000692	6.920833	1.172421	0.000069
1007	1.0010e+02	9.9839	19.133898	-0.000217	-2.170439	-0.367682	0.000022
1008	1.0020e+02	9.9786	19.146118	-0.000123	-1.228550	-0.208122	0.000012
1009	1.0030e+02	9.9634	19.167300	-0.000213	-2.129487	-0.360745	0.000021
1010	1.0040e+02	9.9561	19.179113	-0.000119	-1.187599	-0.201185	0.000012
1011	1.0050e+02	9.9445	19.193370	-0.000143	-1.433309	-0.242809	0.000014
1012	1.0059e+02	9.9366	19.205998	-0.000127	-1.269502	-0.215059	0.000013
1013	1.0069e+02	9.9250	19.216589	-0.000106	-1.064744	-0.180372	0.000011
1014	1.0079e+02	9.9135	19.227587	-0.000111	-1.105695	-0.187310	0.000011
1015	1.0089e+02	9.9073	19.237770	-0.000102	-1.023792	-0.173435	0.000010
1016	1.0099e+02	9.8965	19.246732	-0.000090	-0.900937	-0.152623	0.000009
1017	1.0109e+02	9.8844	19.256101	-0.000094	-0.941888	-0.159560	0.000009
1018	1.0119e+02	9.8760	19.264655	-0.000086	-0.859985	-0.145685	0.000009
1019	1.0129e+02	9.8651	19.273616	-0.000090	-0.900937	-0.152623	0.000009
1020	1.0139e+02	9.8550	19.283393	-0.000098	-0.982840	-0.166498	0.000010
1021	1.0149e+02	9.8441	19.285837	-0.000025	-0.245710	-0.041624	0.000002
1022	1.0159e+02	9.8371	19.293169	-0.000074	-0.737130	-0.124873	0.000007
1023	1.0169e+02	9.8260	19.298464	-0.000053	-0.532372	-0.090186	0.000005
1024	1.0179e+02	9.8161	19.300094	-0.000016	-0.163807	-0.027750	0.000002
1025	1.0189e+02	9.8059	19.304167	-0.000041	-0.409517	-0.069374	0.000004
1026	1.0199e+02	9.7950	19.307019	-0.000029	-0.286662	-0.048562	0.000003
1027	1.0209e+02	9.7852	19.313536	-0.000066	-0.655227	-0.110998	0.000007
1028	1.0219e+02	9.7754	19.314351	-0.000008	-0.081903	-0.013875	0.000001
1029	1.0229e+02	9.7665	19.312314	0.000020	0.204758	0.034687	-0.000002
1030	1.0239e+02	9.7565	19.313943	-0.000016	-0.163807	-0.027750	0.000002
1031	1.0248e+02	9.7457	19.314758	-0.000008	-0.081903	-0.013875	0.000001
1032	1.0258e+02	9.7320	19.315980	-0.000012	-0.122855	-0.020812	0.000001
1033	1.0268e+02	9.7274	19.315980	-0.000000	-0.000000	-0.000000	0.000000
1034	1.0278e+02	9.7169	19.316795	-0.000008	-0.081903	-0.013875	0.000001
1035	1.0288e+02	9.7050	19.315980	0.000008	0.081903	0.013875	-0.000001
1036	1.0298e+02	9.6973	19.314351	0.000016	0.163807	0.027750	-0.000002
1037	1.0308e+02	9.6875	19.317202	-0.000029	-0.286662	-0.048562	0.000003
1038	1.0318e+02	9.6766	19.313536	0.000037	0.368565	0.062437	-0.000004
1039	1.0328e+02	9.6656	19.310685	0.000029	0.286662	0.048562	-0.000003
1040	1.0338e+02	9.6568	19.307426	0.000033	0.327613	0.055499	-0.000003
1041	1.0348e+02	9.6462	19.303353	0.000041	0.409517	0.069374	-0.000004
1042	1.0358e+02	9.6351	19.299686	0.000037	0.368565	0.062437	-0.000004
1043	1.0368e+02	9.6278	19.299686	-0.000000	-0.000000	-0.000000	0.000000
1044	1.0378e+02	9.6188	19.296020	0.000037	0.368565	0.062437	-0.000004
1045	1.0388e+02	9.6063	19.298872	-0.000029	-0.286662	-0.048562	0.000003
1046	1.0398e+02	9.5997	19.295613	0.000033	0.327613	0.055499	-0.000003
1047	1.0408e+02	9.5863	19.293576	0.000020	0.204758	0.034687	-0.000002
1048	1.0418e+02	9.5776	19.288281	0.000053	0.532372	0.090186	-0.000005
1049	1.0428e+02	9.5654	19.285429	0.000029	0.286662	0.048562	-0.000003
1050	1.0438e+02	9.5576	19.284207	0.000012	0.122855	0.020812	-0.000001
1051	1.0447e+02	9.5459	19.281763	0.000025	0.245710	0.041624	-0.000002
1052	1.0457e+02	9.5399	19.277690	0.000041	0.409517	0.069374	-0.000004
1053	1.0467e+02	9.5290	19.279727	-0.000020	-0.204758	-0.034687	0.000002
1054	1.0477e+02	9.5167	19.269136	0.000106	1.064744	0.180372	-0.000011
1055	1.0487e+02	9.5068	19.271580	-0.000025	-0.245710	-0.041624	0.000002
1056	1.0497e+02	9.4963	19.264655	0.000070	0.696178	0.117936	-0.000007
1057	1.0507e+02	9.4886	19.260989	0.000037	0.368565	0.062437	-0.000004
1058	1.0517e+02	9.4775	19.260989	-0.000000	-0.000000	-0.000000	0.000000
1059	1.0527e+02	9.4689	19.252842	0.000082	0.819033	0.138748	-0.000008
1060	1.0537e+02	9.4575	19.252027	0.000008	0.081903	0.013875	-0.000001
1061	1.0547e+02	9.4483	19.245510	0.000066	0.655227	0.110998	-0.000007
1062	1.0557e+02	9.4409	19.240214	0.000053	0.532372	0.090186	-0.000005
1063	1.0567e+02	9.4276	19.234104	0.000061	0.614275	0.104061	-0.000006
1064	1.0577e+02	9.4204	19.232475	0.000016	0.163807	0.027750	-0.000002
1065	1.0587e+02	9.4070	19.226772	0.000057	0.573323	0.097124	-0.000006
1066	1.0597e+02	9.3983	19.221884	0.000049	0.491420	0.083249	-0.000005
1067	1.0607e+02	9.3860	19.216181	0.000057	0.573323	0.097124	-0.000006
1068	1.0617e+02	9.3768	19.211293	0.000049	0.491420	0.083249	-0.000005
1069	1.0627e+02	9.3684	19.204776	0.000066	0.655227	0.110998	-0.000007
1070	1.0637e+02	9.3567	19.194185	0.000106	1.064744	0.180372	-0.000011
1071	1.0647e+02	9.3467	19.191333	0.000029	0.286662	0.048562	-0.000003
1072	1.0656e+02	9.3382	19.184408	0.000070	0.696178	0.117936	-0.000007
1073	1.0666e+02	9.3267	19.176669	0.000078	0.778082	0.131811	-0.000008
1074	1.0676e+02	9.3189	19.169744	0.000070	0.696178	0.117936	-0.000007
1075	1.0686e+02	9.3092	19.159561	0.000102	1.023792	0.173435	-0.000010
1076	1.0696e+02	9.2993	19.154265	0.000053	0.532372	0.090186	-0.000005
1077	1.0706e+02	9.2877	19.148155	0.000061	0.614275	0.104061	-0.000006
1078	1.0716e+02	9.2780	19.140008	0.000082	0.819033	0.138748	-0.000008
1079	1.0726e+02	9.2688	19.131454	0.000086	0.859985	0.145685	-0.000009
1080	1.0736e+02	9.2573	19.125344	0.000061	0.614275	0.104061	-0.000006
1081	1.0746e+02	9.2496	19.118012	0.000074	0.737130	0.124873	-0.000007
1082	1.0756e+02	9.2408	19.108235	0.000098	0.982840	0.166498	-0.000010
1083	1.0766e+02	9.2310	19.101718	0.000066	0.655227	0.110998	-0.000007
1084	1.0776e+02	9.2231	19.091127	0.000106	1.064744	0.180372	-0.000011
1085	1.0786e+02	9.2090	19.083795	0.000074	0.737130	0.124873	-0.000007
1086	1.0796e+02	9.1992	19.074833	0.000090	0.900937	0.152623	-0.000009
1087	1.0806e+02	9.1908	19.068316	0.000066	0.655227	0.110998	-0.000007
1088	1.0816e+02	9.1793	19.055688	0.000127	1.269502	0.215059	-0.000013
1089	1.0826e+02	9.1711	19.047134	0.000086	0.859985	0.145685	-0.000009
1090	1.0836e+02	9.1590	19.038987	0.000082	0.819033	0.138748	-0.000008
1091	1.0845e+02	9.1504	19.030026	0.000090	0.900937	0.152623	-0.000009
1092	1.0855e+02	9.1381	19.017398	0.000127	1.269502	0.215059	-0.000013
1093	1.0865e+02	9.1317	19.011695	0.000057	0.573323	0.097124	-0.000006
1094	1.0875e+02	9.1187	19.006807	0.000049	0.491420	0.083249	-0.000005
1095	1.0885e+02	9.1112	18.999882	0.000070	0.696178	0.117936	-0.000007
1096	1.0895e+02	9.1016	18.988884	0.000111	1.105695	0.187310	-0.000011
1097	1.0905e+02	9.0910	18.982367	0.000066	0.655227	0.110998	-0.000007
1098	1.0915e+02	9.0802	18.973812	0.000086	0.859985	0.145685	-0.000009
1099	1.0925e+02	9.0709	18.962814	0.000111	1.105695	0.187310	-0.000011
1100	1.0935e+02	9.0594	18.953853	0.000090	0.900937	0.152623	-0.000009
1101	1.0945e+02	9.0507	18.944891	0.000090	0.900937	0.152623	-0.000009
1102	1.0955e+02	9.0417	18.938374	0.000066	0.655227	0.110998	-0.000007
1103	1.0965e+02	9.0288	18.926153	0.000123	1.228550	0.208122	-0.000012
1104	1.0975e+02	9.0198	18.920043	0.000061	0.614275	0.104061	-0.000006
1105	1.0985e+02	9.0090	18.907823	0.000123	1.228550	0.208122	-0.000012
1106	1.0995e+02	8.9990	18.898454	0.000094	0.941888	0.159560	-0.000009
1107	1.1005e+02	8.9909	18.886641	0.000119	1.187599	0.201185	-0.000012
1108	1.1015e+02	8.9771	18.876050	0.000106	1.064744	0.180372	-0.000011
1109	1.1025e+02	8.9732	18.866274	0.000098	0.982840	0.166498	-0.000010
1110	1.1035e+02	8.9609	18.856905	0.000094	0.941888	0.159560	-0.000009
1111	1.1044e+02	8.9486	18.847944	0.000090	0.900937	0.152623	-0.000009
1112	1.1054e+02	8.9393	18.838982	0.000090	0.900937	0.152623	-0.000009
1113	1.1064e+02	8.9294	18.829206	0.000098	0.982840	0.166498	-0.000010
1114	1.1074e+02	8.9205	18.817393	0.000119	1.187599	0.201185	-0.000012
1115	1.1084e+02	8.9095	18.802729	0.000147	1.474260	0.249746	-0.000015
1116	1.1094e+02	8.9004	18.792952	0.000098	0.982840	0.166498	-0.000010
1117	1.1104e+02	8.8886	18.779510	0.000135	1.351405	0.228934	-0.000014
1118	1.1114e+02	8.8787	18.770548	0.000090	0.900937	0.152623	-0.000009
1119	1.1124e+02	8.8692	18.751403	0.000192	1.924729	0.326058	-0.000019
1120	1.1134e+02	8.8613	18.740812	0.000106	1.064744	0.180372	-0.000011
1121	1.1144e+02	8.8514	18.727370	0.000135	1.351405	0.228934	-0.000014
1122	1.1154e+02	8.8421	18.715150	0.000123	1.228550	0.208122	-0.000012
1123	1.1164e+02	8.8320	18.705374	0.000098	0.982840	0.166498	-0.000010
1124	1.1174e+02	8.8193	18.693153	0.000123	1.228550	0.208122	-0.000012
1125	1.1184e+02	8.8110	18.682155	0.000111	1.105695	0.187310	-0.000011
1126	1.1194e+02	8.8013	18.671157	0.000111	1.105695	0.187310	-0.000011
1127	1.1204e+02	8.7916	18.654048	0.000172	1.719970	0.291371	-0.000017
1128	1.1214e+02	8.7806	18.640199	0.000139	1.392357	0.235872	-0.000014
1129	1.1224e+02	8.7733	18.623498	0.000168	1.679019	0.284433	-0.000017
1130	1.1234e+02	8.7618	18.611278	0.000123	1.228550	0.208122	-0.000012
1131	1.1244e+02	8.7549	18.598650	0.000127	1.269502	0.215059	-0.000013
1132	1.1253e+02	8.7409	18.581134	0.000176	1.760922	0.298308	-0.000018
1133	1.1263e+02	8.7313	18.565248	0.000160	1.597115	0.270559	-0.000016
1134	1.1273e+02	8.7240	18.546510	0.000188	1.883777	0.319120	-0.000019
1135	1.1283e+02	8.7103	18.533068	0.000135	1.351405	0.228934	-0.000014
1136	1.1293e+02	8.7012	18.515145	0.000180	1.801874	0.305246	-0.000018
1137	1.1303e+02	8.6935	18.502517	0.000127	1.269502	0.215059	-0.000013
1138	1.1313e+02	8.6817	18.482150	0.000205	2.047584	0.346870	-0.000020
1139	1.1323e+02	8.6712	18.465449	0.000168	1.679019	0.284433	-0.000017
1140	1.1333e+02	8.6624	18.450377	0.000152	1.515212	0.256684	-0.000015
1141	1.1343e+02	8.6526	18.432454	0.000180	1.801874	0.305246	-0.000018
1142	1.1353e+02	8.6426	18.414124	0.000184	1.842825	0.312183	-0.000018
1143	1.1363e+02	8.6329	18.395386	0.000188	1.883777	0.319120	-0.000019
1144	1.1373e+02	8.6240	18.379092	0.000164	1.638067	0.277496	-0.000016
1145	1.1383e+02	8.6145	18.363613	0.000156	1.556164	0.263621	-0.000016
1146	1.1393e+02	8.6036	18.342024	0.000217	2.170439	0.367682	-0.000022
1147	1.1403e+02	8.5938	18.326138	0.000160	1.597115	0.270559	-0.000016
1148	1.1413e+02	8.5815	18.305771	0.000205	2.047584	0.346870	-0.000020
1149	1.1423e+02	8.5707	18.286218	0.000197	1.965680	0.332995	-0.000020
1150	1.1433e+02	8.5645	18.269110	0.000172	1.719970	0.291371	-0.000017
1151	1.1442e+02	8.5529	18.252001	0.000172	1.719970	0.291371	-0.000017
1152	1.1452e+02	8.5427	18.228783	0.000233	2.334245	0.395432	-0.000023
1153	1.1462e+02	8.5335	18.206786	0.000221	2.211390	0.374620	-0.000022
1154	1.1472e+02	8.5238	18.189271	0.000176	1.760922	0.298308	-0.000018
1155	1.1482e+02	8.5147	18.170940	0.000184	1.842825	0.312183	-0.000018
1156	1.1492e+02	8.5034	18.151388	0.000197	1.965680	0.332995	-0.000020
1157	1.1502e+02	8.4921	18.133872	0.000176	1.760922	0.298308	-0.000018
1158	1.1512e+02	8.4863	18.108617	0.000254	2.539004	0.430119	-0.000025
1159	1.1522e+02	8.4727	18.096397	0.000123	1.228550	0.208122	-0.000012
1160	1.1532e+02	8.4601	18.073993	0.000225	2.252342	0.381557	-0.000023
1161	1.1542e+02	8.4524	18.055255	0.000188	1.883777	0.319120	-0.000019
1162	1.1552e+02	8.4437	18.034480	0.000209	2.088535	0.353807	-0.000021
1163	1.1562e+02	8.4332	18.015335	0.000192	1.924729	0.326058	-0.000019
1164	1.1572e+02	8.4212	17.991709	0.000238	2.375197	0.402369	-0.000024
1165	1.1582e+02	8.4150	17.971342	0.000205	2.047584	0.346870	-0.000020
1166	1.1592e+02	8.4037	17.950568	0.000209	2.088535	0.353807	-0.000021
1167	1.1602e+02	8.3965	17.930201	0.000205	2.047584	0.346870	-0.000020
1168	1.1612e+02	8.3840	17.906168	0.000242	2.416149	0.409307	-0.000024
1169	1.1622e+02	8.3744	17.889059	0.000172	1.719970	0.291371	-0.000017
1170	1.1632e+02	8.3672	17.869099	0.000201	2.006632	0.339933	-0.000020
1171	1.1642e+02	8.3530	17.847510	0.000217	2.170439	0.367682	-0.000022
1172	1.1651e+02	8.3421	17.826328	0.000213	2.129487	0.360745	-0.000021
1173	1.1661e+02	8.3341	17.803925	0.000225	2.252342	0.381557	-0.000023
1174	1.1671e+02	8.3232	17.780299	0.000238	2.375197	0.402369	-0.000024
1175	1.1681e+02	8.3147	17.757895	0.000225	2.252342	0.381557	-0.000023
1176	1.1691e+02	8.3039	17.737935	0.000201	2.006632	0.339933	-0.000020
1177	1.1701e+02	8.2929	17.715531	0.000225	2.252342	0.381557	-0.000023
1178	1.1711e+02	8.2861	17.695164	0.000205	2.047584	0.346870	-0.000020
1179	1.1721e+02	8.2745	17.661762	0.000336	3.358037	0.568867	-0.000034
1180	1.1731e+02	8.2642	17.641802	0.000201	2.006632	0.339933	-0.000020
1181	1.1741e+02	8.2533	17.618584	0.000233	2.334245	0.395432	-0.000023
1182	1.1751e+02	8.2429	17.595773	0.000229	2.293294	0.388494	-0.000023
1183	1.1761e+02	8.2337	17.570517	0.000254	2.539004	0.430119	-0.000025
1184	1.1771e+02	8.2255	17.548113	0.000225	2.252342	0.381557	-0.000023
1185	1.1781e+02	8.2142	17.524895	0.000233	2.334245	0.395432	-0.000023
1186	1.1791e+02	8.2021	17.502084	0.000229	2.293294	0.388494	-0.000023
1187	1.1801e+02	8.1944	17.482124	0.000201	2.006632	0.339933	-0.000020
1188	1.1811e+02	8.1852	17.458091	0.000242	2.416149	0.409307	-0.000024
1189	1.1821e+02	8.1741	17.428762	0.000295	2.948521	0.499493	-0.000029
1190	1.1831e+02	8.1656	17.406358	0.000225	2.252342	0.381557	-0.000023
1191	1.1841e+02	8.1549	17.385584	0.000209	2.088535	0.353807	-0.000021
1192	1.1850e+02	8.1447	17.357884	0.000278	2.784714	0.471743	-0.000028
1193	1.1860e+02	8.1374	17.334666	0.000233	2.334245	0.395432	-0.000023
1194	1.1870e+02	8.1239	17.311040	0.000238	2.375197	0.402369	-0.000024
1195	1.1880e+02	8.1144	17.287822	0.000233	2.334245	0.395432	-0.000023
1196	1.1890e+02	8.1060	17.258900	0.000291	2.907569	0.492555	-0.000029
1197	1.1900e+02	8.0978	17.236496	0.000225	2.252342	0.381557	-0.000023
1198	1.1910e+02	8.0829	17.209204	0.000274	2.743762	0.464806	-0.000027
1199	1.1920e+02	8.0740	17.187208	0.000221	2.211390	0.374620	-0.000022
1200	1.1930e+02	8.0665	17.162767	0.000246	2.457100	0.416244	-0.000025
1201	1.1940e+02	8.0566	17.137919	0.000250	2.498052	0.423181	-0.000025
1202	1.1950e+02	8.0470	17.114294	0.000238	2.375197	0.402369	-0.000024
1203	1.1960e+02	8.0367	17.091482	0.000229	2.293294	0.388494	-0.000023
1204	1.1970e+02	8.0267	17.067042	0.000246	2.457100	0.416244	-0.000025
1205	1.1980e+02	8.0166	17.041787	0.000254	2.539004	0.430119	-0.000025
1206	1.1990e+02	8.0048	17.018975	0.000229	2.293294	0.388494	-0.000023
1207	1.2000e+02	7.9932	16.993720	0.000254	2.539004	0.430119	-0.000025
1208	1.2010e+02	7.9843	16.969687	0.000242	2.416149	0.409307	-0.000024
1209	1.2020e+02	7.9769	16.946061	0.000238	2.375197	0.402369	-0.000024
1210	1.2030e+02	7.9665	16.923657	0.000225	2.252342	0.381557	-0.000023
1211	1.2039e+02	7.9548	16.895958	0.000278	2.784714	0.471743	-0.000028
1212	1.2049e+02	7.9468	16.871925	0.000242	2.416149	0.409307	-0.000024
1213	1.2059e+02	7.9375	16.851150	0.000209	2.088535	0.353807	-0.000021
1214	1.2069e+02	7.9260	16.826302	0.000250	2.498052	0.423181	-0.000025
1215	1.2079e+02	7.9175	16.805528	0.000209	2.088535	0.353807	-0.000021
1216	1.2089e+02	7.9071	16.787198	0.000184	1.842825	0.312183	-0.000018
1217	1.2099e+02	7.8972	16.761535	0.000258	2.579955	0.437056	-0.000026
1218	1.2109e+02	7.8851	16.739946	0.000217	2.170439	0.367682	-0.000022
1219	1.2119e+02	7.8724	16.719986	0.000201	2.006632	0.339933	-0.000020
1220	1.2129e+02	7.8658	16.700841	0.000192	1.924729	0.326058	-0.000019
1221	1.2139e+02	7.8573	16.677622	0.000233	2.334245	0.395432	-0.000023
1222	1.2149e+02	7.8451	16.652367	0.000254	2.539004	0.430119	-0.000025
1223	1.2159e+02	7.8369	16.635259	0.000172	1.719970	0.291371	-0.000017
1224	1.2169e+02	7.8263	16.616928	0.000184	1.842825	0.312183	-0.000018
1225	1.2179e+02	7.8168	16.588414	0.000287	2.866617	0.485618	-0.000029
1226	1.2189e+02	7.8061	16.570084	0.000184	1.842825	0.312183	-0.000018
1227	1.2199e+02	7.7967	16.544829	0.000254	2.539004	0.430119	-0.000025
1228	1.2209e+02	7.7866	16.525276	0.000197	1.965680	0.332995	-0.000020
1229	1.2219e+02	7.7773	16.502872	0.000225	2.252342	0.381557	-0.000023
1230	1.2229e+02	7.7686	16.480876	0.000221	2.211390	0.374620	-0.000022
1231	1.2239e+02	7.7576	16.462138	0.000188	1.883777	0.319120	-0.000019
1232	1.2248e+02	7.7463	16.439327	0.000229	2.293294	0.388494	-0.000023
1233	1.2258e+02	7.7382	16.423441	0.000160	1.597115	0.270559	-0.000016
1234	1.2268e+02	7.7254	16.396556	0.000270	2.702810	0.457868	-0.000027
1235	1.2278e+02	7.7175	16.376189	0.000205	2.047584	0.346870	-0.000020
1236	1.2288e+02	7.7076	16.356229	0.000201	2.006632	0.339933	-0.000020
1237	1.2298e+02	7.6962	16.328530	0.000278	2.784714	0.471743	-0.000028
1238	1.2308e+02	7.6871	16.310199	0.000184	1.842825	0.312183	-0.000018
1239	1.2318e+02	7.6789	16.288203	0.000221	2.211390	0.374620	-0.000022
1240	1.2328e+02	7.6662	16.269465	0.000188	1.883777	0.319120	-0.000019
1241	1.2338e+02	7.6579	16.247469	0.000221	2.211390	0.374620	-0.000022
1242	1.2348e+02	7.6494	16.221806	0.000258	2.579955	0.437056	-0.000026
1243	1.2358e+02	7.6372	16.204698	0.000172	1.719970	0.291371	-0.000017
1244	1.2368e+02	7.6275	16.182701	0.000221	2.211390	0.374620	-0.000022
1245	1.2378e+02	7.6179	16.158261	0.000246	2.457100	0.416244	-0.000025
1246	1.2388e+02	7.6090	16.137079	0.000213	2.129487	0.360745	-0.000021
1247	1.2398e+02	7.5986	16.118341	0.000188	1.883777	0.319120	-0.000019
1248	1.2408e+02	7.5879	16.096345	0.000221	2.211390	0.374620	-0.000022
1249	1.2418e+02	7.5775	16.072719	0.000238	2.375197	0.402369	-0.000024
1250	1.2428e+02	7.5676	16.056018	0.000168	1.679019	0.284433	-0.000017
1251	1.2438e+02	7.5582	16.033206	0.000229	2.293294	0.388494	-0.000023
1252	1.2447e+02	7.5482	16.010803	0.000225	2.252342	0.381557	-0.000023
1253	1.2457e+02	7.5372	15.990436	0.000205	2.047584	0.346870	-0.000020
1254	1.2467e+02	7.5294	15.965180	0.000254	2.539004	0.430119	-0.000025
1255	1.2477e+02	7.5176	15.944406	0.000209	2.088535	0.353807	-0.000021
1256	1.2487e+02	7.5085	15.922817	0.000217	2.170439	0.367682	-0.000022
1257	1.2497e+02	7.5002	15.901228	0.000217	2.170439	0.367682	-0.000022
1258	1.2507e+02	7.4876	15.882897	0.000184	1.842825	0.312183	-0.000018
1259	1.2517e+02	7.4789	15.857235	0.000258	2.579955	0.437056	-0.000026
1260	1.2527e+02	7.4674	15.839719	0.000176	1.760922	0.298308	-0.000018
1261	1.2537e+02	7.4538	15.822203	0.000176	1.760922	0.298308	-0.000018
1262	1.2547e+02	7.4476	15.801836	0.000205	2.047584	0.346870	-0.000020
1263	1.2557e+02	7.4387	15.783506	0.000184	1.842825	0.312183	-0.000018
1264	1.2567e+02	7.4290	15.763953	0.000197	1.965680	0.332995	-0.000020
1265	1.2577e+02	7.4198	15.744808	0.000192	1.924729	0.326058	-0.000019
1266	1.2587e+02	7.4078	15.724848	0.000201	2.006632	0.339933	-0.000020
1267	1.2597e+02	7.4014	15.703666	0.000213	2.129487	0.360745	-0.000021
1268	1.2607e+02	7.3879	15.684521	0.000192	1.924729	0.326058	-0.000019
1269	1.2617e+02	7.3791	15.663339	0.000213	2.129487	0.360745	-0.000021
1270	1.2627e+02	7.3699	15.638492	0.000250	2.498052	0.423181	-0.000025
1271	1.2636e+02	7.3579	15.618939	0.000197	1.965680	0.332995	-0.000020
1272	1.2646e+02	7.3510	15.598979	0.000201	2.006632	0.339933	-0.000020
1273	1.2656e+02	7.3368	15.581871	0.000172	1.719970	0.291371	-0.000017
1274	1.2666e+02	7.3272	15.556208	0.000258	2.579955	0.437056	-0.000026
1275	1.2676e+02	7.3198	15.542766	0.000135	1.351405	0.228934	-0.000014
1276	1.2686e+02	7.3098	15.519955	0.000229	2.293294	0.388494	-0.000023
1277	1.2696e+02	7.2971	15.500402	0.000197	1.965680	0.332995	-0.000020
1278	1.2706e+02	7.2912	15.480035	0.000205	2.047584	0.346870	-0.000020
1279	1.2716e+02	7.2807	15.459261	0.000209	2.088535	0.353807	-0.000021
1280	1.2726e+02	7.2691	15.437672	0.000217	2.170439	0.367682	-0.000022
1281	1.2736e+02	7.2598	15.420156	0.000176	1.760922	0.298308	-0.000018
1282	1.2746e+02	7.2489	15.397345	0.000229	2.293294	0.388494	-0.000023
1283	1.2756e+02	7.2394	15.376163	0.000213	2.129487	0.360745	-0.000021
1284	1.2766e+02	7.2289	15.356203	0.000201	2.006632	0.339933	-0.000020
1285	1.2776e+02	7.2202	15.331763	0.000246	2.457100	0.416244	-0.000025
1286	1.2786e+02	7.2091	15.311803	0.000201	2.006632	0.339933	-0.000020
1287	1.2796e+02	7.2002	15.286140	0.000258	2.579955	0.437056	-0.000026
1288	1.2806e+02	7.1893	15.264144	0.000221	2.211390	0.374620	-0.000022
1289	1.2816e+02	7.1786	15.244184	0.000201	2.006632	0.339933	-0.000020
1290	1.2826e+02	7.1716	15.221780	0.000225	2.252342	0.381557	-0.000023
1291	1.2835e+02	7.1579	15.199784	0.000221	2.211390	0.374620	-0.000022
1292	1.2845e+02	7.1499	15.182675	0.000172	1.719970	0.291371	-0.000017
1293	1.2855e+02	7.1392	15.156198	0.000266	2.661859	0.450931	-0.000027
1294	1.2865e+02	7.1288	15.135016	0.000213	2.129487	0.360745	-0.000021
1295	1.2875e+02	7.1207	15.114649	0.000205	2.047584	0.346870	-0.000020
1296	1.2885e+02	7.1116	15.091431	0.000233	2.334245	0.395432	-0.000023
1297	1.2895e+02	7.1014	15.065768	0.000258	2.579955	0.437056	-0.000026
1298	1.2905e+02	7.0879	15.045808	0.000201	2.006632	0.339933	-0.000020
1299	1.2915e+02	7.0803	15.018924	0.000270	2.702810	0.457868	-0.000027
1300	1.2925e+02	7.0681	14.998149	0.000209	2.088535	0.353807	-0.000021
1301	1.2935e+02	7.0608	14.972486	0.000258	2.579955	0.437056	-0.000026
1302	1.2945e+02	7.0502	14.947639	0.000250	2.498052	0.423181	-0.000025
1303	1.2955e+02	7.0418	14.920347	0.000274	2.743762	0.464806	-0.000027
1304	1.2965e+02	7.0275	14.898350	0.000221	2.211390	0.374620	-0.000022
1305	1.2975e+02	7.0228	14.870651	0.000278	2.784714	0.471743	-0.000028
1306	1.2985e+02	7.0100	14.850284	0.000205	2.047584	0.346870	-0.000020
1307	1.2995e+02	7.0037	14.824621	0.000258	2.579955	0.437056	-0.000026
1308	1.3005e+02	6.9901	14.799773	0.000250	2.498052	0.423181	-0.000025
1309	1.3015e+02	6.9794	14.774518	0.000254	2.539004	0.430119	-0.000025
1310	1.3025e+02	6.9714	14.748448	0.000262	2.620907	0.443994	-0.000026
1311	1.3034e+02	6.9610	14.724415	0.000242	2.416149	0.409307	-0.000024
1312	1.3044e+02	6.9518	14.698752	0.000258	2.579955	0.437056	-0.000026
1313	1.3054e+02	6.9415	14.672682	0.000262	2.620907	0.443994	-0.000026
1314	1.3064e+02	6.9302	14.647834	0.000250	2.498052	0.423181	-0.000025
1315	1.3074e+02	6.9197	14.618506	0.000295	2.948521	0.499493	-0.000029
1316	1.3084e+02	6.9106	14.592029	0.000266	2.661859	0.450931	-0.000027
1317	1.3094e+02	6.8994	14.568403	0.000238	2.375197	0.402369	-0.000024
1318	1.3104e+02	6.8900	14.541111	0.000274	2.743762	0.464806	-0.000027
1319	1.3114e+02	6.8816	14.515448	0.000258	2.579955	0.437056	-0.000026
1320	1.3124e+02	6.8764	14.486934	0.000287	2.866617	0.485618	-0.000029
1321	1.3134e+02	6.8636	14.460457	0.000266	2.661859	0.450931	-0.000027
1322	1.3144e+02	6.8540	14.433165	0.000274	2.743762	0.464806	-0.000027
1323	1.3154e+02	6.8444	14.407910	0.000254	2.539004	0.430119	-0.000025
1324	1.3164e+02	6.8305	14.385099	0.000229	2.293294	0.388494	-0.000023
1325	1.3174e+02	6.8243	14.357399	0.000278	2.784714	0.471743	-0.000028
1326	1.3184e+02	6.8145	14.331329	0.000262	2.620907	0.443994	-0.000026
1327	1.3194e+02	6.8027	14.304852	0.000266	2.661859	0.450931	-0.000027
1328	1.3204e+02	6.7896	14.277967	0.000270	2.702810	0.457868	-0.000027
1329	1.3214e+02	6.7806	14.247824	0.000303	3.030424	0.513368	-0.000030
1330	1.3224e+02	6.7730	14.218495	0.000295	2.948521	0.499493	-0.000029
1331	1.3234e+02	6.7606	14.194462	0.000242	2.416149	0.409307	-0.000024
1332	1.3243e+02	6.7529	14.167578	0.000270	2.702810	0.457868	-0.000027
1333	1.3253e+02	6.7426	14.138249	0.000295	2.948521	0.499493	-0.000029
1334	1.3263e+02	6.7313	14.113808	0.000246	2.457100	0.416244	-0.000025
1335	1.3273e+02	6.7242	14.082850	0.000311	3.112327	0.527242	-0.000031
1336	1.3283e+02	6.7123	14.058002	0.000250	2.498052	0.423181	-0.000025
1337	1.3293e+02	6.7043	14.032340	0.000258	2.579955	0.437056	-0.000026
1338	1.3303e+02	6.6891	14.003419	0.000291	2.907569	0.492555	-0.000029
1339	1.3313e+02	6.6833	13.975719	0.000278	2.784714	0.471743	-0.000028
1340	1.3323e+02	6.6727	13.949242	0.000266	2.661859	0.450931	-0.000027
1341	1.3333e+02	6.6642	13.925209	0.000242	2.416149	0.409307	-0.000024
1342	1.3343e+02	6.6520	13.892621	0.000328	3.276134	0.554992	-0.000033
1343	1.3353e+02	6.6447	13.865329	0.000274	2.743762	0.464806	-0.000027
1344	1.3363e+02	6.6325	13.833964	0.000315	3.153279	0.534180	-0.000032
1345	1.3373e+02	6.6241	13.802191	0.000319	3.194231	0.541117	-0.000032
1346	1.3383e+02	6.6137	13.776121	0.000262	2.620907	0.443994	-0.000026
1347	1.3393e+02	6.6044	13.744349	0.000319	3.194231	0.541117	-0.000032
1348	1.3403e+02	6.5948	13.716242	0.000283	2.825665	0.478681	-0.000028
1349	1.3413e+02	6.5825	13.687321	0.000291	2.907569	0.492555	-0.000029
1350	1.3423e+02	6.5731	13.657585	0.000299	2.989472	0.506430	-0.000030
1351	1.3432e+02	6.5638	13.627441	0.000303	3.030424	0.513368	-0.000030
1352	1.3442e+02	6.5497	13.597705	0.000299	2.989472	0.506430	-0.000030
1353	1.3452e+02	6.5427	13.569191	0.000287	2.866617	0.485618	-0.000029
1354	1.3462e+02	6.5327	13.545158	0.000242	2.416149	0.409307	-0.000024
1355	1.3472e+02	6.5240	13.511756	0.000336	3.358037	0.568867	-0.000034
1356	1.3482e+02	6.5154	13.481205	0.000307	3.071376	0.520305	-0.000031
1357	1.3492e+02	6.5039	13.449433	0.000319	3.194231	0.541117	-0.000032
1358	1.3502e+02	6.4939	13.422548	0.000270	2.702810	0.457868	-0.000027
1359	1.3512e+02	6.4844	13.394034	0.000287	2.866617	0.485618	-0.000029
1360	1.3522e+02	6.4744	13.363483	0.000307	3.071376	0.520305	-0.000031
1361	1.3532e+02	6.4652	13.329674	0.000340	3.398989	0.575804	-0.000034
1362	1.3542e+02	6.4520	13.302382	0.000274	2.743762	0.464806	-0.000027
1363	1.3552e+02	6.4440	13.270202	0.000324	3.235182	0.548055	-0.000032
1364	1.3562e+02	6.4368	13.244947	0.000254	2.539004	0.430119	-0.000025
1365	1.3572e+02	6.4238	13.209915	0.000352	3.521844	0.596617	-0.000035
1366	1.3582e+02	6.4147	13.181809	0.000283	2.825665	0.478681	-0.000028
1367	1.3592e+02	6.4017	13.151665	0.000303	3.030424	0.513368	-0.000030
1368	1.3602e+02	6.3933	13.123966	0.000278	2.784714	0.471743	-0.000028
1369	1.3612e+02	6.3818	13.094230	0.000299	2.989472	0.506430	-0.000030
1370	1.3622e+02	6.3753	13.063272	0.000311	3.112327	0.527242	-0.000031
1371	1.3631e+02	6.3641	13.032721	0.000307	3.071376	0.520305	-0.000031
1372	1.3641e+02	6.3534	13.007466	0.000254	2.539004	0.430119	-0.000025
1373	1.3651e+02	6.3464	12.977730	0.000299	2.989472	0.506430	-0.000030
1374	1.3661e+02	6.3348	12.943921	0.000340	3.398989	0.575804	-0.000034
1375	1.3671e+02	6.3249	12.914999	0.000291	2.907569	0.492555	-0.000029
1376	1.3681e+02	6.3140	12.886485	0.000287	2.866617	0.485618	-0.000029
1377	1.3691e+02	6.3042	12.854713	0.000319	3.194231	0.541117	-0.000032
1378	1.3701e+02	6.2930	12.831087	0.000238	2.375197	0.402369	-0.000024
1379	1.3711e+02	6.2859	12.798907	0.000324	3.235182	0.548055	-0.000032
1380	1.3721e+02	6.2733	12.769578	0.000295	2.948521	0.499493	-0.000029
1381	1.3731e+02	6.2664	12.740657	0.000291	2.907569	0.492555	-0.000029
1382	1.3741e+02	6.2546	12.715401	0.000254	2.539004	0.430119	-0.000025
1383	1.3751e+02	6.2455	12.683221	0.000324	3.235182	0.548055	-0.000032
1384	1.3761e+02	6.2357	12.661225	0.000221	2.211390	0.374620	-0.000022
1385	1.3771e+02	6.2249	12.635562	0.000258	2.579955	0.437056	-0.000026
1386	1.3781e+02	6.2148	12.609085	0.000266	2.661859	0.450931	-0.000027
1387	1.3791e+02	6.2051	12.583830	0.000254	2.539004	0.430119	-0.000025
1388	1.3801e+02	6.1950	12.552872	0.000311	3.112327	0.527242	-0.000031
1389	1.3811e+02	6.1835	12.529653	0.000233	2.334245	0.395432	-0.000023
1390	1.3821e+02	6.1752	12.505620	0.000242	2.416149	0.409307	-0.000024
1391	1.3831e+02	6.1639	12.473440	0.000324	3.235182	0.548055	-0.000032
1392	1.3840e+02	6.1552	12.446555	0.000270	2.702810	0.457868	-0.000027
1393	1.3850e+02	6.1452	12.422522	0.000242	2.416149	0.409307	-0.000024
1394	1.3860e+02	6.1347	12.394823	0.000278	2.784714	0.471743	-0.000028
1395	1.3870e+02	6.1236	12.367938	0.000270	2.702810	0.457868	-0.000027
1396	1.3880e+02	6.1149	12.341868	0.000262	2.620907	0.443994	-0.000026
1397	1.3890e+02	6.1057	12.315391	0.000266	2.661859	0.450931	-0.000027
1398	1.3900e+02	6.0935	12.290950	0.000246	2.457100	0.416244	-0.000025
1399	1.3910e+02	6.0873	12.266510	0.000246	2.457100	0.416244	-0.000025
1400	1.3920e+02	6.0747	12.240847	0.000258	2.579955	0.437056	-0.000026
1401	1.3930e+02	6.0694	12.212333	0.000287	2.866617	0.485618	-0.000029
1402	1.3940e+02	6.0571	12.191152	0.000213	2.129487	0.360745	-0.000021
1403	1.3950e+02	6.0490	12.159379	0.000319	3.194231	0.541117	-0.000032
1404	1.3960e+02	6.0393	12.137790	0.000217	2.170439	0.367682	-0.000022
1405	1.3970e+02	6.0241	12.110905	0.000270	2.702810	0.457868	-0.000027
1406	1.3980e+02	6.0149	12.081984	0.000291	2.907569	0.492555	-0.000029
1407	1.3990e+02	6.0053	12.055099	0.000270	2.702810	0.457868	-0.000027
1408	1.4000e+02	5.9927	12.029029	0.000262	2.620907	0.443994	-0.000026
1409	1.4010e+02	5.9864	12.005403	0.000238	2.375197	0.402369	-0.000024
1410	1.4020e+02	5.9753	11.978519	0.000270	2.702810	0.457868	-0.000027
1411	1.4029e+02	5.9660	11.950412	0.000283	2.825665	0.478681	-0.000028
1412	1.4039e+02	5.9588	11.925157	0.000254	2.539004	0.430119	-0.000025
1413	1.4049e+02	5.9463	11.901124	0.000242	2.416149	0.409307	-0.000024
1414	1.4059e+02	5.9359	11.873832	0.000274	2.743762	0.464806	-0.000027
1415	1.4069e+02	5.9249	11.844503	0.000295	2.948521	0.499493	-0.000029
1416	1.4079e+02	5.9174	11.820062	0.000246	2.457100	0.416244	-0.000025
1417	1.4089e+02	5.9068	11.793993	0.000262	2.620907	0.443994	-0.000026
1418	1.4099e+02	5.8965	11.768737	0.000254	2.539004	0.430119	-0.000025
1419	1.4109e+02	5.8875	11.745519	0.000233	2.334245	0.395432	-0.000023
1420	1.4119e+02	5.8750	11.719856	0.000258	2.579955	0.437056	-0.000026
1421	1.4129e+02	5.8674	11.692157	0.000278	2.784714	0.471743	-0.000028
1422	1.4139e+02	5.8566	11.666494	0.000258	2.579955	0.437056	-0.000026
1423	1.4149e+02	5.8468	11.640017	0.000266	2.661859	0.450931	-0.000027
1424	1.4159e+02	5.8373	11.612725	0.000274	2.743762	0.464806	-0.000027
1425	1.4169e+02	5.8276	11.588285	0.000246	2.457100	0.416244	-0.000025
1426	1.4179e+02	5.8172	11.565473	0.000229	2.293294	0.388494	-0.000023
1427	1.4189e+02	5.8054	11.530442	0.000352	3.521844	0.596617	-0.000035
1428	1.4199e+02	5.7972	11.512519	0.000180	1.801874	0.305246	-0.000018
1429	1.4209e+02	5.7876	11.486449	0.000262	2.620907	0.443994	-0.000026
1430	1.4219e+02	5.7796	11.462416	0.000242	2.416149	0.409307	-0.000024
1431	1.4228e+02	5.7666	11.437975	0.000246	2.457100	0.416244	-0.000025
1432	1.4238e+02	5.7561	11.414349	0.000238	2.375197	0.402369	-0.000024
1433	1.4248e+02	5.7467	11.391538	0.000229	2.293294	0.388494	-0.000023
1434	1.4258e+02	5.7352	11.366283	0.000254	2.539004	0.430119	-0.000025
1435	1.4268e+02	5.7271	11.344694	0.000217	2.170439	0.367682	-0.000022
1436	1.4278e+02	5.7175	11.316587	0.000283	2.825665	0.478681	-0.000028
1437	1.4288e+02	5.7098	11.288480	0.000283	2.825665	0.478681	-0.000028
1438	1.4298e+02	5.6991	11.270150	0.000184	1.842825	0.312183	-0.000018
1439	1.4308e+02	5.6857	11.242858	0.000274	2.743762	0.464806	-0.000027
1440	1.4318e+02	5.6791	11.219232	0.000238	2.375197	0.402369	-0.000024
1441	1.4328e+02	5.6689	11.197236	0.000221	2.211390	0.374620	-0.000022
1442	1.4338e+02	5.6568	11.172388	0.000250	2.498052	0.423181	-0.000025
1443	1.4348e+02	5.6477	11.146318	0.000262	2.620907	0.443994	-0.000026
1444	1.4358e+02	5.6371	11.121877	0.000246	2.457100	0.416244	-0.000025
1445	1.4368e+02	5.6285	11.095807	0.000262	2.620907	0.443994	-0.000026
1446	1.4378e+02	5.6176	11.071774	0.000242	2.416149	0.409307	-0.000024
1447	1.4388e+02	5.6063	11.048963	0.000229	2.293294	0.388494	-0.000023
1448	1.4398e+02	5.5982	11.023300	0.000258	2.579955	0.437056	-0.000026
1449	1.4408e+02	5.5865	10.996823	0.000266	2.661859	0.450931	-0.000027
1450	1.4418e+02	5.5788	10.974827	0.000221	2.211390	0.374620	-0.000022
1451	1.4428e+02	5.5657	10.947942	0.000270	2.702810	0.457868	-0.000027
1452	1.4437e+02	5.5555	10.923094	0.000250	2.498052	0.423181	-0.000025
1453	1.4447e+02	5.5468	10.895802	0.000274	2.743762	0.464806	-0.000027
1454	1.4457e+02	5.5387	10.866881	0.000291	2.907569	0.492555	-0.000029
1455	1.4467e+02	5.5267	10.846106	0.000209	2.088535	0.353807	-0.000021
1456	1.4477e+02	5.5178	10.816370	0.000299	2.989472	0.506430	-0.000030
1457	1.4487e+02	5.5109	10.788671	0.000278	2.784714	0.471743	-0.000028
1458	1.4497e+02	5.4994	10.767082	0.000217	2.170439	0.367682	-0.000022
1459	1.4507e+02	5.4901	10.736939	0.000303	3.030424	0.513368	-0.000030
1460	1.4517e+02	5.4774	10.714535	0.000225	2.252342	0.381557	-0.000023
1461	1.4527e+02	5.4675	10.688058	0.000266	2.661859	0.450931	-0.000027
1462	1.4537e+02	5.4571	10.664024	0.000242	2.416149	0.409307	-0.000024
1463	1.4547e+02	5.4487	10.637954	0.000262	2.620907	0.443994	-0.000026
1464	1.4557e+02	5.4365	10.610255	0.000278	2.784714	0.471743	-0.000028
1465	1.4567e+02	5.4291	10.581741	0.000287	2.866617	0.485618	-0.000029
1466	1.4577e+02	5.4203	10.554857	0.000270	2.702810	0.457868	-0.000027
1467	1.4587e+02	5.4089	10.523084	0.000319	3.194231	0.541117	-0.000032
1468	1.4597e+02	5.3956	10.495385	0.000278	2.784714	0.471743	-0.000028
1469	1.4607e+02	5.3886	10.464426	0.000311	3.112327	0.527242	-0.000031
1470	1.4617e+02	5.3778	10.437542	0.000270	2.702810	0.457868	-0.000027
1471	1.4626e+02	5.3707	10.411065	0.000266	2.661859	0.450931	-0.000027
1472	1.4636e+02	5.3619	10.380514	0.000307	3.071376	0.520305	-0.000031
1473	1.4646e+02	5.3487	10.352815	0.000278	2.784714	0.471743	-0.000028
1474	1.4656e+02	5.3378	10.325115	0.000278	2.784714	0.471743	-0.000028
1475	1.4666e+02	5.3289	10.291306	0.000340	3.398989	0.575804	-0.000034
1476	1.4676e+02	5.3191	10.266865	0.000246	2.457100	0.416244	-0.000025
1477	1.4686e+02	5.3103	10.235500	0.000315	3.153279	0.534180	-0.000032
1478	1.4696e+02	5.2993	10.207393	0.000283	2.825665	0.478681	-0.000028
1479	1.4706e+02	5.2886	10.180916	0.000266	2.661859	0.450931	-0.000027
1480	1.4716e+02	5.2792	10.147107	0.000340	3.398989	0.575804	-0.000034
1481	1.4726e+02	5.2708	10.116149	0.000311	3.112327	0.527242	-0.000031
1482	1.4736e+02	5.2605	10.090079	0.000262	2.620907	0.443994	-0.000026
1483	1.4746e+02	5.2498	10.056677	0.000336	3.358037	0.568867	-0.000034
1484	1.4756e+02	5.2417	10.024904	0.000319	3.194231	0.541117	-0.000032
1485	1.4766e+02	5.2287	9.993946	0.000311	3.112327	0.527242	-0.000031
1486	1.4776e+02	5.2178	9.962173	0.000319	3.194231	0.541117	-0.000032
1487	1.4786e+02	5.2090	9.936918	0.000254	2.539004	0.430119	-0.000025
1488	1.4796e+02	5.2010	9.905145	0.000319	3.194231	0.541117	-0.000032
1489	1.4806e+02	5.1916	9.874187	0.000311	3.112327	0.527242	-0.000031
1490	1.4816e+02	5.1794	9.845673	0.000287	2.866617	0.485618	-0.000029
1491	1.4825e+02	5.1717	9.815937	0.000299	2.989472	0.506430	-0.000030
1492	1.4835e+02	5.1632	9.785386	0.000307	3.071376	0.520305	-0.000031
1493	1.4845e+02	5.1514	9.755650	0.000299	2.989472	0.506430	-0.000030
1494	1.4855e+02	5.1421	9.719397	0.000364	3.644699	0.617429	-0.000036
1495	1.4865e+02	5.1315	9.691698	0.000278	2.784714	0.471743	-0.000028
1496	1.4875e+02	5.1196	9.659925	0.000319	3.194231	0.541117	-0.000032
1497	1.4885e+02	5.1113	9.628152	0.000319	3.194231	0.541117	-0.000032
1498	1.4895e+02	5.1028	9.598009	0.000303	3.030424	0.513368	-0.000030
1499	1.4905e+02	5.0910	9.562977	0.000352	3.521844	0.596617	-0.000035
1500	1.4915e+02	5.0806	9.534463	0.000287	2.866617	0.485618	-0.000029
1501	1.4925e+02	5.0697	9.504727	0.000299	2.989472	0.506430	-0.000030
1502	1.4935e+02	5.0591	9.472140	0.000328	3.276134	0.554992	-0.000033
1503	1.4945e+02	5.0518	9.439960	0.000324	3.235182	0.548055	-0.000032
1504	1.4955e+02	5.0404	9.405743	0.000344	3.439941	0.582742	-0.000034
1505	1.4965e+02	5.0311	9.379266	0.000266	2.661859	0.450931	-0.000027
1506	1.4975e+02	5.0225	9.347901	0.000315	3.153279	0.534180	-0.000032
1507	1.4985e+02	5.0095	9.315720	0.000324	3.235182	0.548055	-0.000032
1508	1.4995e+02	4.9995	9.284762	0.000311	3.112327	0.527242	-0.000031
1509	1.5005e+02	4.9912	9.253397	0.000315	3.153279	0.534180	-0.000032
1510	1.5015e+02	4.9817	9.222032	0.000315	3.153279	0.534180	-0.000032
1511	1.5025e+02	4.9709	9.189037	0.000332	3.317086	0.561930	-0.000033
1512	1.5034e+02	4.9625	9.154820	0.000344	3.439941	0.582742	-0.000034
1513	1.5044e+02	4.9491	9.123455	0.000315	3.153279	0.534180	-0.000032
1514	1.5054e+02	4.9381	9.086794	0.000369	3.685651	0.624366	-0.000037
1515	1.5064e+02	4.9328	9.052985	0.000340	3.398989	0.575804	-0.000034
1516	1.5074e+02	4.9201	9.018360	0.000348	3.480892	0.589679	-0.000035
1517	1.5084e+02	4.9133	8.979663	0.000389	3.890409	0.659053	-0.000039
1518	1.5094e+02	4.9010	8.950334	0.000295	2.948521	0.499493	-0.000029
1519	1.5104e+02	4.8936	8.920598	0.000299	2.989472	0.506430	-0.000030
1520	1.5114e+02	4.8795	8.885159	0.000356	3.562796	0.603554	-0.000036
1521	1.5124e+02	4.8699	8.853387	0.000319	3.194231	0.541117	-0.000032
1522	1.5134e+02	4.8608	8.817133	0.000364	3.644699	0.617429	-0.000036
1523	1.5144e+02	4.8531	8.785360	0.000319	3.194231	0.541117	-0.000032
1524	1.5154e+02	4.8412	8.751551	0.000340	3.398989	0.575804	-0.000034
1525	1.5164e+02	4.8324	8.717334	0.000344	3.439941	0.582742	-0.000034
1526	1.5174e+02	4.8217	8.684340	0.000332	3.317086	0.561930	-0.000033
1527	1.5184e+02	4.8141	8.648901	0.000356	3.562796	0.603554	-0.000036
1528	1.5194e+02	4.8034	8.613869	0.000352	3.521844	0.596617	-0.000035
1529	1.5204e+02	4.7939	8.581282	0.000328	3.276134	0.554992	-0.000033
1530	1.5214e+02	4.7829	8.548287	0.000332	3.317086	0.561930	-0.000033
1531	1.5224e+02	4.7726	8.511219	0.000373	3.726602	0.631304	-0.000037
1532	1.5233e+02	4.7616	8.476187	0.000352	3.521844	0.596617	-0.000035
1533	1.5243e+02	4.7492	8.445637	0.000307	3.071376	0.520305	-0.000031
1534	1.5253e+02	4.7414	8.407347	0.000385	3.849457	0.652116	-0.000038
1535	1.5263e+02	4.7319	8.373537	0.000340	3.398989	0.575804	-0.000034
1536	1.5273e+02	4.7233	8.344616	0.000291	2.907569	0.492555	-0.000029
1537	1.5283e+02	4.7121	8.307548	0.000373	3.726602	0.631304	-0.000037
1538	1.5293e+02	4.7018	8.277404	0.000303	3.030424	0.513368	-0.000030
1539	1.5303e+02	4.6938	8.241151	0.000364	3.644699	0.617429	-0.000036
1540	1.5313e+02	4.6826	8.210193	0.000311	3.112327	0.527242	-0.000031
1541	1.5323e+02	4.6700	8.173939	0.000364	3.644699	0.617429	-0.000036
1542	1.5333e+02	4.6595	8.138093	0.000360	3.603747	0.610491	-0.000036
1543	1.5343e+02	4.6575	8.107950	0.000303	3.030424	0.513368	-0.000030
1544	1.5353e+02	4.6425	8.072104	0.000360	3.603747	0.610491	-0.000036
1545	1.5363e+02	4.6339	8.042368	0.000299	2.989472	0.506430	-0.000030
1546	1.5373e+02	4.6238	8.006522	0.000360	3.603747	0.610491	-0.000036
1547	1.5383e+02	4.6140	7.972305	0.000344	3.439941	0.582742	-0.000034
1548	1.5393e+02	4.6023	7.940939	0.000315	3.153279	0.534180	-0.000032
1549	1.5403e+02	4.5940	7.909981	0.000311	3.112327	0.527242	-0.000031
1550	1.5413e+02	4.5821	7.882282	0.000278	2.784714	0.471743	-0.000028
1551	1.5422e+02	4.5739	7.850102	0.000324	3.235182	0.548055	-0.000032
1552	1.5432e+02	4.5623	7.815478	0.000348	3.480892	0.589679	-0.000035
1553	1.5442e+02	4.5541	7.788593	0.000270	2.702810	0.457868	-0.000027
1554	1.5452e+02	4.5438	7.753969	0.000348	3.480892	0.589679	-0.000035
1555	1.5462e+02	4.5339	7.725455	0.000287	2.866617	0.485618	-0.000029
1556	1.5472e+02	4.5226	7.693682	0.000319	3.194231	0.541117	-0.000032
1557	1.5482e+02	4.5128	7.663539	0.000303	3.030424	0.513368	-0.000030
1558	1.5492e+02	4.5026	7.633396	0.000303	3.030424	0.513368	-0.000030
1559	1.5502e+02	4.4960	7.602438	0.000311	3.112327	0.527242	-0.000031
1560	1.5512e+02	4.4842	7.571480	0.000311	3.112327	0.527242	-0.000031
1561	1.5522e+02	4.4732	7.536856	0.000348	3.480892	0.589679	-0.000035
1562	1.5532e+02	4.4624	7.509156	0.000278	2.784714	0.471743	-0.000028
1563	1.5542e+02	4.4540	7.480235	0.000291	2.907569	0.492555	-0.000029
1564	1.5552e+02	4.4427	7.449277	0.000311	3.112327	0.527242	-0.000031
1565	1.5562e+02	4.4332	7.421170	0.000283	2.825665	0.478681	-0.000028
1566	1.5572e+02	4.4225	7.387361	0.000340	3.398989	0.575804	-0.000034
1567	1.5582e+02	4.4152	7.356810	0.000307	3.071376	0.520305	-0.000031
1568	1.5592e+02	4.4048	7.332370	0.000246	2.457100	0.416244	-0.000025
1569	1.5602e+02	4.3922	7.298560	0.000340	3.398989	0.575804	-0.000034
1570	1.5612e+02	4.3829	7.268009	0.000307	3.071376	0.520305	-0.000031
1571	1.5622e+02	4.3745	7.237051	0.000311	3.112327	0.527242	-0.000031
1572	1.5631e+02	4.3634	7.207315	0.000299	2.989472	0.506430	-0.000030
1573	1.5641e+02	4.3539	7.177172	0.000303	3.030424	0.513368	-0.000030
1574	1.5651e+02	4.3432	7.149880	0.000274	2.743762	0.464806	-0.000027
1575	1.5661e+02	4.3366	7.116071	0.000340	3.398989	0.575804	-0.000034
1576	1.5671e+02	4.3255	7.084298	0.000319	3.194231	0.541117	-0.000032
1577	1.5681e+02	4.3139	7.052933	0.000315	3.153279	0.534180	-0.000032
1578	1.5691e+02	4.3032	7.023197	0.000299	2.989472	0.506430	-0.000030
1579	1.5701e+02	4.2977	6.993461	0.000299	2.989472	0.506430	-0.000030
1580	1.5711e+02	4.2835	6.963725	0.000299	2.989472	0.506430	-0.000030
1581	1.5721e+02	4.2759	6.936433	0.000274	2.743762	0.464806	-0.000027
1582	1.5731e+02	4.2651	6.901809	0.000348	3.480892	0.589679	-0.000035
1583	1.5741e+02	4.2544	6.874109	0.000278	2.784714	0.471743	-0.000028
1584	1.5751e+02	4.2446	6.846410	0.000278	2.784714	0.471743	-0.000028
1585	1.5761e+02	4.2339	6.812193	0.000344	3.439941	0.582742	-0.000034
1586	1.5771e+02	4.2258	6.786123	0.000262	2.620907	0.443994	-0.000026
1587	1.5781e+02	4.2130	6.756387	0.000299	2.989472	0.506430	-0.000030
1588	1.5791e+02	4.2044	6.724207	0.000324	3.235182	0.548055	-0.000032
1589	1.5801e+02	4.1975	6.692434	0.000319	3.194231	0.541117	-0.000032
1590	1.5811e+02	4.1866	6.662291	0.000303	3.030424	0.513368	-0.000030
1591	1.5821e+02	4.1784	6.632148	0.000303	3.030424	0.513368	-0.000030
1592	1.5830e+02	4.1668	6.601597	0.000307	3.071376	0.520305	-0.000031
1593	1.5840e+02	4.1555	6.573083	0.000287	2.866617	0.485618	-0.000029
1594	1.5850e+02	4.1476	6.541718	0.000315	3.153279	0.534180	-0.000032
1595	1.5860e+02	4.1333	6.512389	0.000295	2.948521	0.499493	-0.000029
1596	1.5870e+02	4.1253	6.486319	0.000262	2.620907	0.443994	-0.000026
1597	1.5880e+02	4.1148	6.452917	0.000336	3.358037	0.568867	-0.000034
1598	1.5890e+02	4.1045	6.427662	0.000254	2.539004	0.430119	-0.000025
1599	1.5900e+02	4.0963	6.403629	0.000242	2.416149	0.409307	-0.000024
1600	1.5910e+02	4.0853	6.372263	0.000315	3.153279	0.534180	-0.000032
1601	1.5920e+02	4.0755	6.344971	0.000274	2.743762	0.464806	-0.000027
1602	1.5930e+02	4.0653	6.317679	0.000274	2.743762	0.464806	-0.000027
1603	1.5940e+02	4.0576	6.286721	0.000311	3.112327	0.527242	-0.000031
1604	1.5950e+02	4.0443	6.259837	0.000270	2.702810	0.457868	-0.000027
1605	1.5960e+02	4.0347	6.222361	0.000377	3.767554	0.638241	-0.000038
1606	1.5970e+02	4.0243	6.196291	0.000262	2.620907	0.443994	-0.000026
1607	1.5980e+02	4.0163	6.168592	0.000278	2.784714	0.471743	-0.000028
1608	1.5990e+02	4.0062	6.139671	0.000291	2.907569	0.492555	-0.000029
1609	1.6000e+02	3.9949	6.114008	0.000258	2.579955	0.437056	-0.000026
1610	1.6010e+02	3.9864	6.086309	0.000278	2.784714	0.471743	-0.000028
1611	1.6019e+02	3.9790	6.054943	0.000315	3.153279	0.534180	-0.000032
1612	1.6029e+02	3.9660	6.026022	0.000291	2.907569	0.492555	-0.000029
1613	1.6039e+02	3.9593	6.001174	0.000250	2.498052	0.423181	-0.000025
1614	1.6049e+02	3.9424	5.966957	0.000344	3.439941	0.582742	-0.000034
1615	1.6059e+02	3.9361	5.938443	0.000287	2.866617	0.485618	-0.000029
1616	1.6069e+02	3.9260	5.906263	0.000324	3.235182	0.548055	-0.000032
1617	1.6079e+02	3.9181	5.881008	0.000254	2.539004	0.430119	-0.000025
1618	1.6089e+02	3.9073	5.850050	0.000311	3.112327	0.527242	-0.000031
1619	1.6099e+02	3.8956	5.823165	0.000270	2.702810	0.457868	-0.000027
1620	1.6109e+02	3.8848	5.790171	0.000332	3.317086	0.561930	-0.000033
1621	1.6119e+02	3.8792	5.760842	0.000295	2.948521	0.499493	-0.000029
1622	1.6129e+02	3.8661	5.729069	0.000319	3.194231	0.541117	-0.000032
1623	1.6139e+02	3.8564	5.694038	0.000352	3.521844	0.596617	-0.000035
1624	1.6149e+02	3.8483	5.666746	0.000274	2.743762	0.464806	-0.000027
1625	1.6159e+02	3.8346	5.633751	0.000332	3.317086	0.561930	-0.000033
1626	1.6169e+02	3.8264	5.605645	0.000283	2.825665	0.478681	-0.000028
1627	1.6179e+02	3.8172	5.575909	0.000299	2.989472	0.506430	-0.000030
1628	1.6189e+02	3.8055	5.546987	0.000291	2.907569	0.492555	-0.000029
1629	1.6199e+02	3.7942	5.518066	0.000291	2.907569	0.492555	-0.000029
1630	1.6209e+02	3.7879	5.485071	0.000332	3.317086	0.561930	-0.000033
1631	1.6219e+02	3.7778	5.453706	0.000315	3.153279	0.534180	-0.000032
1632	1.6228e+02	3.7678	5.425192	0.000287	2.866617	0.485618	-0.000029
1633	1.6238e+02	3.7592	5.391790	0.000336	3.358037	0.568867	-0.000034
1634	1.6248e+02	3.7485	5.354722	0.000373	3.726602	0.631304	-0.000037
1635	1.6258e+02	3.7381	5.324171	0.000307	3.071376	0.520305	-0.000031
1636	1.6268e+02	3.7269	5.292398	0.000319	3.194231	0.541117	-0.000032
1637	1.6278e+02	3.7170	5.259403	0.000332	3.317086	0.561930	-0.000033
1638	1.6288e+02	3.7060	5.225594	0.000340	3.398989	0.575804	-0.000034
1639	1.6298e+02	3.6990	5.190970	0.000348	3.480892	0.589679	-0.000035
1640	1.6308e+02	3.6889	5.157160	0.000340	3.398989	0.575804	-0.000034
1641	1.6318e+02	3.6766	5.128239	0.000291	2.907569	0.492555	-0.000029
1642	1.6328e+02	3.6668	5.092800	0.000356	3.562796	0.603554	-0.000036
1643	1.6338e+02	3.6575	5.057769	0.000352	3.521844	0.596617	-0.000035
1644	1.6348e+02	3.6471	5.024774	0.000332	3.317086	0.561930	-0.000033
1645	1.6358e+02	3.6376	4.990557	0.000344	3.439941	0.582742	-0.000034
1646	1.6368e+02	3.6288	4.956748	0.000340	3.398989	0.575804	-0.000034
1647	1.6378e+02	3.6195	4.920494	0.000364	3.644699	0.617429	-0.000036
1648	1.6388e+02	3.6102	4.886685	0.000340	3.398989	0.575804	-0.000034
1649	1.6398e+02	3.5957	4.851653	0.000352	3.521844	0.596617	-0.000035
1650	1.6408e+02	3.5876	4.818659	0.000332	3.317086	0.561930	-0.000033
1651	1.6418e+02	3.5790	4.782813	0.000360	3.603747	0.610491	-0.000036
1652	1.6427e+02	3.5685	4.750225	0.000328	3.276134	0.554992	-0.000033
1653	1.6437e+02	3.5589	4.712750	0.000377	3.767554	0.638241	-0.000038
1654	1.6447e+02	3.5485	4.680570	0.000324	3.235182	0.548055	-0.000032
1655	1.6457e+02	3.5377	4.643909	0.000369	3.685651	0.624366	-0.000037
1656	1.6467e+02	3.5236	4.606841	0.000373	3.726602	0.631304	-0.000037
1657	1.6477e+02	3.5184	4.572624	0.000344	3.439941	0.582742	-0.000034
1658	1.6487e+02	3.5083	4.540036	0.000328	3.276134	0.554992	-0.000033
1659	1.6497e+02	3.4992	4.504598	0.000356	3.562796	0.603554	-0.000036
1660	1.6507e+02	3.4885	4.468344	0.000364	3.644699	0.617429	-0.000036
1661	1.6517e+02	3.4780	4.434535	0.000340	3.398989	0.575804	-0.000034
1662	1.6527e+02	3.4682	4.396652	0.000381	3.808506	0.645178	-0.000038
1663	1.6537e+02	3.4609	4.363657	0.000332	3.317086	0.561930	-0.000033
1664	1.6547e+02	3.4499	4.327404	0.000364	3.644699	0.617429	-0.000036
1665	1.6557e+02	3.4386	4.290335	0.000373	3.726602	0.631304	-0.000037
1666	1.6567e+02	3.4305	4.258155	0.000324	3.235182	0.548055	-0.000032
1667	1.6577e+02	3.4209	4.218643	0.000397	3.972312	0.672928	-0.000040
1668	1.6587e+02	3.4078	4.181575	0.000373	3.726602	0.631304	-0.000037
1669	1.6597e+02	3.3987	4.144914	0.000369	3.685651	0.624366	-0.000037
1670	1.6607e+02	3.3872	4.104995	0.000401	4.013264	0.679865	-0.000040
1671	1.6616e+02	3.3785	4.073222	0.000319	3.194231	0.541117	-0.000032
1672	1.6626e+02	3.3686	4.038190	0.000352	3.521844	0.596617	-0.000035
1673	1.6636e+02	3.3582	4.001530	0.000369	3.685651	0.624366	-0.000037
1674	1.6646e+02	3.3529	3.963239	0.000385	3.849457	0.652116	-0.000038
1675	1.6656e+02	3.3381	3.929837	0.000336	3.358037	0.568867	-0.000034
1676	1.6666e+02	3.3292	3.891140	0.000389	3.890409	0.659053	-0.000039
1677	1.6676e+02	3.3220	3.856516	0.000348	3.480892	0.589679	-0.000035
1678	1.6686e+02	3.3080	3.817818	0.000389	3.890409	0.659053	-0.000039
1679	1.6696e+02	3.2958	3.782379	0.000356	3.562796	0.603554	-0.000036
1680	1.6706e+02	3.2903	3.741238	0.000414	4.136119	0.700678	-0.000041
1681	1.6716e+02	3.2784	3.705392	0.000360	3.603747	0.610491	-0.000036
1682	1.6726e+02	3.2694	3.660991	0.000446	4.463732	0.756177	-0.000045
1683	1.6736e+02	3.2615	3.625552	0.000356	3.562796	0.603554	-0.000036
1684	1.6746e+02	3.2510	3.590928	0.000348	3.480892	0.589679	-0.000035
1685	1.6756e+02	3.2415	3.548157	0.000430	4.299926	0.728427	-0.000043
1686	1.6766e+02	3.2288	3.509867	0.000385	3.849457	0.652116	-0.000038
1687	1.6776e+02	3.2201	3.470355	0.000397	3.972312	0.672928	-0.000040
1688	1.6786e+02	3.2088	3.438582	0.000319	3.194231	0.541117	-0.000032
1689	1.6796e+02	3.1991	3.396219	0.000426	4.258974	0.721490	-0.000043
1690	1.6806e+02	3.1888	3.357928	0.000385	3.849457	0.652116	-0.000038
1691	1.6816e+02	3.1809	3.319638	0.000385	3.849457	0.652116	-0.000038
1692	1.6825e+02	3.1695	3.282163	0.000377	3.767554	0.638241	-0.000038
1693	1.6835e+02	3.1628	3.240206	0.000422	4.218022	0.714552	-0.000042
1694	1.6845e+02	3.1496	3.203545	0.000369	3.685651	0.624366	-0.000037
1695	1.6855e+02	3.1382	3.166070	0.000377	3.767554	0.638241	-0.000038
1696	1.6865e+02	3.1316	3.127780	0.000385	3.849457	0.652116	-0.000038
1697	1.6875e+02	3.1203	3.088675	0.000393	3.931361	0.665991	-0.000039
1698	1.6885e+02	3.1117	3.049977	0.000389	3.890409	0.659053	-0.000039
1699	1.6895e+02	3.1020	3.008836	0.000414	4.136119	0.700678	-0.000041
1700	1.6905e+02	3.0910	2.969731	0.000393	3.931361	0.665991	-0.000039
1701	1.6915e+02	3.0785	2.932255	0.000377	3.767554	0.638241	-0.000038
1702	1.6925e+02	3.0714	2.888262	0.000442	4.422781	0.749239	-0.000044
1703	1.6935e+02	3.0605	2.854046	0.000344	3.439941	0.582742	-0.000034
1704	1.6945e+02	3.0503	2.814941	0.000393	3.931361	0.665991	-0.000039
1705	1.6955e+02	3.0450	2.775428	0.000397	3.972312	0.672928	-0.000040
1706	1.6965e+02	3.0299	2.737546	0.000381	3.808506	0.645178	-0.000038
1707	1.6975e+02	3.0224	2.700477	0.000373	3.726602	0.631304	-0.000037
1708	1.6985e+02	3.0109	2.663409	0.000373	3.726602	0.631304	-0.000037
1709	1.6995e+02	2.9998	2.622268	0.000414	4.136119	0.700678	-0.000041
1710	1.7005e+02	2.9916	2.578682	0.000438	4.381829	0.742302	-0.000044
1711	1.7015e+02	2.9827	2.542836	0.000360	3.603747	0.610491	-0.000036
1712	1.7024e+02	2.9722	2.507397	0.000356	3.562796	0.603554	-0.000036
1713	1.7034e+02	2.9620	2.470329	0.000373	3.726602	0.631304	-0.000037
1714	1.7044e+02	2.9491	2.431631	0.000389	3.890409	0.659053	-0.000039
1715	1.7054e+02	2.9414	2.390897	0.000410	4.095167	0.693740	-0.000041
1716	1.7064e+02	2.9318	2.353014	0.000381	3.808506	0.645178	-0.000038
1717	1.7074e+02	2.9208	2.318390	0.000348	3.480892	0.589679	-0.000035
1718	1.7084e+02	2.9097	2.280507	0.000381	3.808506	0.645178	-0.000038
1719	1.7094e+02	2.9023	2.247920	0.000328	3.276134	0.554992	-0.000033
1720	1.7104e+02	2.8928	2.207593	0.000405	4.054216	0.686803	-0.000041
1721	1.7114e+02	2.8835	2.173376	0.000344	3.439941	0.582742	-0.000034
1722	1.7124e+02	2.8727	2.143233	0.000303	3.030424	0.513368	-0.000030
1723	1.7134e+02	2.8603	2.103313	0.000401	4.013264	0.679865	-0.000040
1724	1.7144e+02	2.8521	2.068689	0.000348	3.480892	0.589679	-0.000035
1725	1.7154e+02	2.8412	2.028770	0.000401	4.013264	0.679865	-0.000040
1726	1.7164e+02	2.8277	2.000256	0.000287	2.866617	0.485618	-0.000029
1727	1.7174e+02	2.8222	1.959521	0.000410	4.095167	0.693740	-0.000041
1728	1.7184e+02	2.8118	1.922453	0.000373	3.726602	0.631304	-0.000037
1729	1.7194e+02	2.8018	1.889458	0.000332	3.317086	0.561930	-0.000033
1730	1.7204e+02	2.7938	1.847095	0.000426	4.258974	0.721490	-0.000043
1731	1.7213e+02	2.7831	1.811656	0.000356	3.562796	0.603554	-0.000036
1732	1.7223e+02	2.7712	1.781105	0.000307	3.071376	0.520305	-0.000031
1733	1.7233e+02	2.7596	1.748518	0.000328	3.276134	0.554992	-0.000033
1734	1.7243e+02	2.7516	1.711857	0.000369	3.685651	0.624366	-0.000037
1735	1.7253e+02	2.7425	1.676826	0.000352	3.521844	0.596617	-0.000035
1736	1.7263e+02	2.7332	1.642609	0.000344	3.439941	0.582742	-0.000034
1737	1.7273e+02	2.7230	1.605541	0.000373	3.726602	0.631304	-0.000037
1738	1.7283e+02	2.7116	1.567658	0.000381	3.808506	0.645178	-0.000038
1739	1.7293e+02	2.7030	1.532626	0.000352	3.521844	0.596617	-0.000035
1740	1.7303e+02	2.6918	1.499224	0.000336	3.358037	0.568867	-0.000034
1741	1.7313e+02	2.6810	1.464600	0.000348	3.480892	0.589679	-0.000035
1742	1.7323e+02	2.6746	1.430791	0.000340	3.398989	0.575804	-0.000034
1743	1.7333e+02	2.6612	1.392093	0.000389	3.890409	0.659053	-0.000039
1744	1.7343e+02	2.6526	1.352581	0.000397	3.972312	0.672928	-0.000040
1745	1.7353e+02	2.6401	1.321623	0.000311	3.112327	0.527242	-0.000031
1746	1.7363e+02	2.6321	1.283333	0.000385	3.849457	0.652116	-0.000038
1747	1.7373e+02	2.6235	1.247894	0.000356	3.562796	0.603554	-0.000036
1748	1.7383e+02	2.6126	1.211640	0.000364	3.644699	0.617429	-0.000036
1749	1.7393e+02	2.6017	1.175387	0.000364	3.644699	0.617429	-0.000036
1750	1.7403e+02	2.5914	1.142392	0.000332	3.317086	0.561930	-0.000033
1751	1.7413e+02	2.5838	1.105324	0.000373	3.726602	0.631304	-0.000037
1752	1.7422e+02	2.5726	1.071515	0.000340	3.398989	0.575804	-0.000034
1753	1.7432e+02	2.5595	1.037705	0.000340	3.398989	0.575804	-0.000034
1754	1.7442e+02	2.5503	1.001859	0.000360	3.603747	0.610491	-0.000036
1755	1.7452e+02	2.5420	0.964383	0.000377	3.767554	0.638241	-0.000038
1756	1.7462e+02	2.5324	0.930167	0.000344	3.439941	0.582742	-0.000034
1757	1.7472e+02	2.5216	0.894321	0.000360	3.603747	0.610491	-0.000036
1758	1.7482e+02	2.5140	0.859289	0.000352	3.521844	0.596617	-0.000035
1759	1.7492e+02	2.5027	0.824258	0.000352	3.521844	0.596617	-0.000035
1760	1.7502e+02	2.4938	0.788412	0.000360	3.603747	0.610491	-0.000036
1761	1.7512e+02	2.4847	0.751751	0.000369	3.685651	0.624366	-0.000037
1762	1.7522e+02	2.4744	0.719163	0.000328	3.276134	0.554992	-0.000033
1763	1.7532e+02	2.4635	0.682095	0.000373	3.726602	0.631304	-0.000037
1764	1.7542e+02	2.4519	0.649508	0.000328	3.276134	0.554992	-0.000033
1765	1.7552e+02	2.4432	0.617735	0.000319	3.194231	0.541117	-0.000032
1766	1.7562e+02	2.4340	0.582704	0.000352	3.521844	0.596617	-0.000035
1767	1.7572e+02	2.4236	0.552560	0.000303	3.030424	0.513368	-0.000030
1768	1.7582e+02	2.4155	0.519565	0.000332	3.317086	0.561930	-0.000033
1769	1.7592e+02	2.4072	0.482497	0.000373	3.726602	0.631304	-0.000037
1770	1.7602e+02	2.3949	0.451539	0.000311	3.112327	0.527242	-0.000031
1771	1.7612e+02	2.3820	0.412842	0.000389	3.890409	0.659053	-0.000039
1772	1.7621e+02	2.3745	0.379032	0.000340	3.398989	0.575804	-0.000034
1773	1.7631e+02	2.3658	0.343593	0.000356	3.562796	0.603554	-0.000036
1774	1.7641e+02	2.3541	0.304896	0.000389	3.890409	0.659053	-0.000039
1775	1.7651e+02	2.3444	0.274345	0.000307	3.071376	0.520305	-0.000031
1776	1.7661e+02	2.3364	0.242165	0.000324	3.235182	0.548055	-0.000032
1777	1.7671e+02	2.3241	0.209170	0.000332	3.317086	0.561930	-0.000033
1778	1.7681e+02	2.3132	0.171695	0.000377	3.767554	0.638241	-0.000038
1779	1.7691e+02	2.3051	0.137071	0.000348	3.480892	0.589679	-0.000035
1780	1.7701e+02	2.2949	0.103669	0.000336	3.358037	0.568867	-0.000034
1781	1.7711e+02	2.2864	0.073118	0.000307	3.071376	0.520305	-0.000031
1782	1.7721e+02	2.2765	0.037679	0.000356	3.562796	0.603554	-0.000036
1783	1.7731e+02	2.2640	0.003055	0.000348	3.480892	0.589679	-0.000035
1784	1.7741e+02	2.2561	-0.032791	0.000360	3.603747	0.610491	-0.000036
1785	1.7751e+02	2.2449	-0.070267	0.000377	3.767554	0.638241	-0.000038
1786	1.7761e+02	2.2393	-0.105298	0.000352	3.521844	0.596617	-0.000035
1787	1.7771e+02	2.2243	-0.140737	0.000356	3.562796	0.603554	-0.000036
1788	1.7781e+02	2.2161	-0.173324	0.000328	3.276134	0.554992	-0.000033
1789	1.7791e+02	2.2042	-0.211207	0.000381	3.808506	0.645178	-0.000038
1790	1.7801e+02	2.1946	-0.247461	0.000364	3.644699	0.617429	-0.000036
1791	1.7810e+02	2.1851	-0.282492	0.000352	3.521844	0.596617	-0.000035
1792	1.7820e+02	2.1767	-0.323226	0.000410	4.095167	0.693740	-0.000041
1793	1.7830e+02	2.1640	-0.357036	0.000340	3.398989	0.575804	-0.000034
1794	1.7840e+02	2.1532	-0.392475	0.000356	3.562796	0.603554	-0.000036
1795	1.7850e+02	2.1471	-0.425062	0.000328	3.276134	0.554992	-0.000033
1796	1.7860e+02	2.1372	-0.461315	0.000364	3.644699	0.617429	-0.000036
1797	1.7870e+02	2.1265	-0.498384	0.000373	3.726602	0.631304	-0.000037
1798	1.7880e+02	2.1152	-0.535452	0.000373	3.726602	0.631304	-0.000037
1799	1.7890e+02	2.1037	-0.574149	0.000389	3.890409	0.659053	-0.000039
1800	1.7900e+02	2.0981	-0.612032	0.000381	3.808506	0.645178	-0.000038
1801	1.7910e+02	2.0866	-0.648693	0.000369	3.685651	0.624366	-0.000037
1802	1.7920e+02	2.0742	-0.687798	0.000393	3.931361	0.665991	-0.000039
1803	1.7930e+02	2.0676	-0.726088	0.000385	3.849457	0.652116	-0.000038
1804	1.7940e+02	2.0558	-0.766415	0.000405	4.054216	0.686803	-0.000041
1805	1.7950e+02	2.0438	-0.802668	0.000364	3.644699	0.617429	-0.000036
1806	1.7960e+02	2.0356	-0.841773	0.000393	3.931361	0.665991	-0.000039
1807	1.7970e+02	2.0257	-0.884137	0.000426	4.258974	0.721490	-0.000043
1808	1.7980e+02	2.0157	-0.921613	0.000377	3.767554	0.638241	-0.000038
1809	1.7990e+02	2.0083	-0.957459	0.000360	3.603747	0.610491	-0.000036
1810	1.8000e+02	1.9941	-0.997786	0.000405	4.054216	0.686803	-0.000041
1811	1.8009e+02	1.9882	-1.037298	0.000397	3.972312	0.672928	-0.000040
1812	1.8019e+02	1.9759	-1.077625	0.000405	4.054216	0.686803	-0.000041
1813	1.8029e+02	1.9646	-1.116322	0.000389	3.890409	0.659053	-0.000039
1814	1.8039e+02	1.9560	-1.154612	0.000385	3.849457	0.652116	-0.000038
1815	1.8049e+02	1.9452	-1.197383	0.000430	4.299926	0.728427	-0.000043
1816	1.8059e+02	1.9381	-1.236081	0.000389	3.890409	0.659053	-0.000039
1817	1.8069e+02	1.9250	-1.277630	0.000418	4.177071	0.707615	-0.000042
1818	1.8079e+02	1.9154	-1.322030	0.000446	4.463732	0.756177	-0.000045
1819	1.8089e+02	1.9073	-1.357469	0.000356	3.562796	0.603554	-0.000036
1820	1.8099e+02	1.8954	-1.400647	0.000434	4.340877	0.735365	-0.000043
1821	1.8109e+02	1.8875	-1.440974	0.000405	4.054216	0.686803	-0.000041
1822	1.8119e+02	1.8765	-1.479672	0.000389	3.890409	0.659053	-0.000039
1823	1.8129e+02	1.8658	-1.521628	0.000422	4.218022	0.714552	-0.000042
1824	1.8139e+02	1.8560	-1.565621	0.000442	4.422781	0.749239	-0.000044
1825	1.8149e+02	1.8475	-1.605133	0.000397	3.972312	0.672928	-0.000040
1826	1.8159e+02	1.8350	-1.640572	0.000356	3.562796	0.603554	-0.000036
1827	1.8169e+02	1.8276	-1.686602	0.000463	4.627539	0.783926	-0.000046
1828	1.8179e+02	1.8153	-1.725299	0.000389	3.890409	0.659053	-0.000039
1829	1.8189e+02	1.8102	-1.766848	0.000418	4.177071	0.707615	-0.000042
1830	1.8199e+02	1.7982	-1.807583	0.000410	4.095167	0.693740	-0.000041
1831	1.8209e+02	1.7854	-1.848317	0.000410	4.095167	0.693740	-0.000041
1832	1.8218e+02	1.7765	-1.890273	0.000422	4.218022	0.714552	-0.000042
1833	1.8228e+02	1.7670	-1.932229	0.000422	4.218022	0.714552	-0.000042
1834	1.8238e+02	1.7578	-1.973778	0.000418	4.177071	0.707615	-0.000042
1835	1.8248e+02	1.7474	-2.016549	0.000430	4.299926	0.728427	-0.000043
1836	1.8258e+02	1.7384	-2.060950	0.000446	4.463732	0.756177	-0.000045
1837	1.8268e+02	1.7252	-2.101277	0.000405	4.054216	0.686803	-0.000041
1838	1.8278e+02	1.7175	-2.142011	0.000410	4.095167	0.693740	-0.000041
1839	1.8288e+02	1.7077	-2.183152	0.000414	4.136119	0.700678	-0.000041
1840	1.8298e+02	1.6952	-2.224294	0.000414	4.136119	0.700678	-0.000041
1841	1.8308e+02	1.6862	-2.265843	0.000418	4.177071	0.707615	-0.000042
1842	1.8318e+02	1.6775	-2.306170	0.000405	4.054216	0.686803	-0.000041
1843	1.8328e+02	1.6689	-2.351385	0.000455	4.545636	0.770052	-0.000045
1844	1.8338e+02	1.6566	-2.394971	0.000438	4.381829	0.742302	-0.000044
1845	1.8348e+02	1.6470	-2.433668	0.000389	3.890409	0.659053	-0.000039
1846	1.8358e+02	1.6380	-2.476846	0.000434	4.340877	0.735365	-0.000043
1847	1.8368e+02	1.6285	-2.522469	0.000459	4.586587	0.776989	-0.000046
1848	1.8378e+02	1.6174	-2.567684	0.000455	4.545636	0.770052	-0.000045
1849	1.8388e+02	1.6084	-2.614121	0.000467	4.668491	0.790864	-0.000047
1850	1.8398e+02	1.6021	-2.656892	0.000430	4.299926	0.728427	-0.000043
1851	1.8407e+02	1.5884	-2.701699	0.000450	4.504684	0.763114	-0.000045
1852	1.8417e+02	1.5757	-2.745285	0.000438	4.381829	0.742302	-0.000044
1853	1.8427e+02	1.5679	-2.786834	0.000418	4.177071	0.707615	-0.000042
1854	1.8437e+02	1.5601	-2.832049	0.000455	4.545636	0.770052	-0.000045
1855	1.8447e+02	1.5482	-2.878893	0.000471	4.709442	0.797801	-0.000047
1856	1.8457e+02	1.5385	-2.919220	0.000405	4.054216	0.686803	-0.000041
1857	1.8467e+02	1.5277	-2.965250	0.000463	4.627539	0.783926	-0.000046
1858	1.8477e+02	1.5170	-3.007206	0.000422	4.218022	0.714552	-0.000042
1859	1.8487e+02	1.5084	-3.053236	0.000463	4.627539	0.783926	-0.000046
1860	1.8497e+02	1.4999	-3.095192	0.000422	4.218022	0.714552	-0.000042
1861	1.8507e+02	1.4883	-3.144481	0.000496	4.955153	0.839426	-0.000050
1862	1.8517e+02	1.4788	-3.188066	0.000438	4.381829	0.742302	-0.000044
1863	1.8527e+02	1.4692	-3.234504	0.000467	4.668491	0.790864	-0.000047
1864	1.8537e+02	1.4586	-3.278089	0.000438	4.381829	0.742302	-0.000044
1865	1.8547e+02	1.4494	-3.319231	0.000414	4.136119	0.700678	-0.000041
1866	1.8557e+02	1.4370	-3.368927	0.000500	4.996104	0.846363	-0.000050
1867	1.8567e+02	1.4301	-3.412512	0.000438	4.381829	0.742302	-0.000044
1868	1.8577e+02	1.4185	-3.456913	0.000446	4.463732	0.756177	-0.000045
1869	1.8587e+02	1.4060	-3.500091	0.000434	4.340877	0.735365	-0.000043
1870	1.8597e+02	1.3969	-3.547750	0.000479	4.791346	0.811676	-0.000048
1871	1.8606e+02	1.3888	-3.593780	0.000463	4.627539	0.783926	-0.000046
1872	1.8616e+02	1.3787	-3.638180	0.000446	4.463732	0.756177	-0.000045
1873	1.8626e+02	1.3689	-3.681766	0.000438	4.381829	0.742302	-0.000044
1874	1.8636e+02	1.3576	-3.721685	0.000401	4.013264	0.679865	-0.000040
1875	1.8646e+02	1.3465	-3.766900	0.000455	4.545636	0.770052	-0.000045
1876	1.8656e+02	1.3404	-3.812930	0.000463	4.627539	0.783926	-0.000046
1877	1.8666e+02	1.3306	-3.857738	0.000450	4.504684	0.763114	-0.000045
1878	1.8676e+02	1.3192	-3.901323	0.000438	4.381829	0.742302	-0.000044
1879	1.8686e+02	1.3119	-3.944094	0.000430	4.299926	0.728427	-0.000043
1880	1.8696e+02	1.2994	-3.995827	0.000520	5.200863	0.881050	-0.000052
1881	1.8706e+02	1.2894	-4.033302	0.000377	3.767554	0.638241	-0.000038
1882	1.8716e+02	1.2810	-4.079739	0.000467	4.668491	0.790864	-0.000047
1883	1.8726e+02	1.2680	-4.121696	0.000422	4.218022	0.714552	-0.000042
1884	1.8736e+02	1.2582	-4.161615	0.000401	4.013264	0.679865	-0.000040
1885	1.8746e+02	1.2521	-4.205201	0.000438	4.381829	0.742302	-0.000044
1886	1.8756e+02	1.2411	-4.244306	0.000393	3.931361	0.665991	-0.000039
1887	1.8766e+02	1.2299	-4.285447	0.000414	4.136119	0.700678	-0.000041
1888	1.8776e+02	1.2191	-4.329440	0.000442	4.422781	0.749239	-0.000044
1889	1.8786e+02	1.2109	-4.368953	0.000397	3.972312	0.672928	-0.000040
1890	1.8796e+02	1.2030	-4.413760	0.000450	4.504684	0.763114	-0.000045
1891	1.8806e+02	1.1916	-4.452050	0.000385	3.849457	0.652116	-0.000038
1892	1.8815e+02	1.1806	-4.492377	0.000405	4.054216	0.686803	-0.000041
1893	1.8825e+02	1.1724	-4.535963	0.000438	4.381829	0.742302	-0.000044
1894	1.8835e+02	1.1602	-4.578327	0.000426	4.258974	0.721490	-0.000043
1895	1.8845e+02	1.1495	-4.620283	0.000422	4.218022	0.714552	-0.000042
1896	1.8855e+02	1.1429	-4.659388	0.000393	3.931361	0.665991	-0.000039
1897	1.8865e+02	1.1308	-4.702973	0.000438	4.381829	0.742302	-0.000044
1898	1.8875e+02	1.1201	-4.749003	0.000463	4.627539	0.783926	-0.000046
1899	1.8885e+02	1.1127	-4.784442	0.000356	3.562796	0.603554	-0.000036
1900	1.8895e+02	1.1006	-4.828028	0.000438	4.381829	0.742302	-0.000044
1901	1.8905e+02	1.0918	-4.865503	0.000377	3.767554	0.638241	-0.000038
1902	1.8915e+02	1.0783	-4.910718	0.000455	4.545636	0.770052	-0.000045
1903	1.8925e+02	1.0712	-4.951045	0.000405	4.054216	0.686803	-0.000041
1904	1.8935e+02	1.0627	-4.992187	0.000414	4.136119	0.700678	-0.000041
1905	1.8945e+02	1.0510	-5.029662	0.000377	3.767554	0.638241	-0.000038
1906	1.8955e+02	1.0386	-5.074062	0.000446	4.463732	0.756177	-0.000045
1907	1.8965e+02	1.0308	-5.118463	0.000446	4.463732	0.756177	-0.000045
1908	1.8975e+02	1.0201	-5.160012	0.000418	4.177071	0.707615	-0.000042
1909	1.8985e+02	1.0111	-5.198709	0.000389	3.890409	0.659053	-0.000039
1910	1.8995e+02	1.0004	-5.239036	0.000405	4.054216	0.686803	-0.000041
1911	1.9004e+02	0.9921	-5.281807	0.000430	4.299926	0.728427	-0.000043
1912	1.9014e+02	0.9797	-5.324986	0.000434	4.340877	0.735365	-0.000043
1913	1.9024e+02	0.9702	-5.366127	0.000414	4.136119	0.700678	-0.000041
1914	1.9034e+02	0.9593	-5.409305	0.000434	4.340877	0.735365	-0.000043
1915	1.9044e+02	0.9527	-5.447596	0.000385	3.849457	0.652116	-0.000038
1916	1.9054e+02	0.9401	-5.493625	0.000463	4.627539	0.783926	-0.000046
1917	1.9064e+02	0.9318	-5.533138	0.000397	3.972312	0.672928	-0.000040
1918	1.9074e+02	0.9203	-5.573464	0.000405	4.054216	0.686803	-0.000041
1919	1.9084e+02	0.9107	-5.610125	0.000369	3.685651	0.624366	-0.000037
1920	1.9094e+02	0.9014	-5.654526	0.000446	4.463732	0.756177	-0.000045
1921	1.9104e+02	0.8909	-5.696482	0.000422	4.218022	0.714552	-0.000042
1922	1.9114e+02	0.8813	-5.734365	0.000381	3.808506	0.645178	-0.000038
1923	1.9124e+02	0.8702	-5.777543	0.000434	4.340877	0.735365	-0.000043
1924	1.9134e+02	0.8609	-5.817055	0.000397	3.972312	0.672928	-0.000040
1925	1.9144e+02	0.8520	-5.860641	0.000438	4.381829	0.742302	-0.000044
1926	1.9154e+02	0.8414	-5.901783	0.000414	4.136119	0.700678	-0.000041
1927	1.9164e+02	0.8320	-5.943739	0.000422	4.218022	0.714552	-0.000042
1928	1.9174e+02	0.8198	-5.983251	0.000397	3.972312	0.672928	-0.000040
1929	1.9184e+02	0.8161	-6.026022	0.000430	4.299926	0.728427	-0.000043
1930	1.9194e+02	0.8039	-6.064720	0.000389	3.890409	0.659053	-0.000039
1931	1.9203e+02	0.7903	-6.102602	0.000381	3.808506	0.645178	-0.000038
1932	1.9213e+02	0.7821	-6.144966	0.000426	4.258974	0.721490	-0.000043
1933	1.9223e+02	0.7732	-6.184478	0.000397	3.972312	0.672928	-0.000040
1934	1.9233e+02	0.7600	-6.226842	0.000426	4.258974	0.721490	-0.000043
1935	1.9243e+02	0.7528	-6.263095	0.000364	3.644699	0.617429	-0.000036
1936	1.9253e+02	0.7394	-6.301386	0.000385	3.849457	0.652116	-0.000038
1937	1.9263e+02	0.7312	-6.342935	0.000418	4.177071	0.707615	-0.000042
1938	1.9273e+02	0.7223	-6.379188	0.000364	3.644699	0.617429	-0.000036
1939	1.9283e+02	0.7127	-6.421144	0.000422	4.218022	0.714552	-0.000042
1940	1.9293e+02	0.7031	-6.462286	0.000414	4.136119	0.700678	-0.000041
1941	1.9303e+02	0.6927	-6.503835	0.000418	4.177071	0.707615	-0.000042
1942	1.9313e+02	0.6827	-6.543754	0.000401	4.013264	0.679865	-0.000040
1943	1.9323e+02	0.6734	-6.585303	0.000418	4.177071	0.707615	-0.000042
1944	1.9333e+02	0.6610	-6.622779	0.000377	3.767554	0.638241	-0.000038
1945	1.9343e+02	0.6503	-6.661884	0.000393	3.931361	0.665991	-0.000039
1946	1.9353e+02	0.6426	-6.701803	0.000401	4.013264	0.679865	-0.000040
1947	1.9363e+02	0.6329	-6.740501	0.000389	3.890409	0.659053	-0.000039
1948	1.9373e+02	0.6226	-6.780013	0.000397	3.972312	0.672928	-0.000040
1949	1.9383e+02	0.6147	-6.822377	0.000426	4.258974	0.721490	-0.000043
1950	1.9393e+02	0.6028	-6.858223	0.000360	3.603747	0.610491	-0.000036
1951	1.9403e+02	0.5926	-6.907104	0.000491	4.914201	0.832488	-0.000049
1952	1.9412e+02	0.5833	-6.943765	0.000369	3.685651	0.624366	-0.000037
1953	1.9422e+02	0.5721	-6.986128	0.000426	4.258974	0.721490	-0.000043
1954	1.9432e+02	0.5607	-7.021975	0.000360	3.603747	0.610491	-0.000036
1955	1.9442e+02	0.5531	-7.070041	0.000483	4.832297	0.818613	-0.000048
1956	1.9452e+02	0.5482	-7.111997	0.000422	4.218022	0.714552	-0.000042
1957	1.9462e+02	0.5320	-7.151510	0.000397	3.972312	0.672928	-0.000040
1958	1.9472e+02	0.5225	-7.197132	0.000459	4.586587	0.776989	-0.000046
1959	1.9482e+02	0.5128	-7.236237	0.000393	3.931361	0.665991	-0.000039
1960	1.9492e+02	0.5042	-7.275749	0.000397	3.972312	0.672928	-0.000040
1961	1.9502e+02	0.4927	-7.314854	0.000393	3.931361	0.665991	-0.000039
1962	1.9512e+02	0.4826	-7.358847	0.000442	4.422781	0.749239	-0.000044
1963	1.9522e+02	0.4733	-7.400803	0.000422	4.218022	0.714552	-0.000042
1964	1.9532e+02	0.4639	-7.441537	0.000410	4.095167	0.693740	-0.000041
1965	1.9542e+02	0.4539	-7.485123	0.000438	4.381829	0.742302	-0.000044
1966	1.9552e+02	0.4443	-7.528709	0.000438	4.381829	0.742302	-0.000044
1967	1.9562e+02	0.4367	-7.570258	0.000418	4.177071	0.707615	-0.000042
1968	1.9572e+02	0.4240	-7.615473	0.000455	4.545636	0.770052	-0.000045
1969	1.9582e+02	0.4164	-7.659466	0.000442	4.422781	0.749239	-0.000044
1970	1.9592e+02	0.4071	-7.703051	0.000438	4.381829	0.742302	-0.000044
1971	1.9601e+02	0.3942	-7.747859	0.000450	4.504684	0.763114	-0.000045
1972	1.9611e+02	0.3850	-7.792259	0.000446	4.463732	0.756177	-0.000045
1973	1.9621e+02	0.3757	-7.838289	0.000463	4.627539	0.783926	-0.000046
1974	1.9631e+02	0.3637	-7.881060	0.000430	4.299926	0.728427	-0.000043
1975	1.9641e+02	0.3541	-7.920980	0.000401	4.013264	0.679865	-0.000040
1976	1.9651e+02	0.3423	-7.966602	0.000459	4.586587	0.776989	-0.000046
1977	1.9661e+02	0.3345	-8.011410	0.000450	4.504684	0.763114	-0.000045
1978	1.9671e+02	0.3253	-8.058254	0.000471	4.709442	0.797801	-0.000047
1979	1.9681e+02	0.3139	-8.102654	0.000446	4.463732	0.756177	-0.000045
1980	1.9691e+02	0.3011	-8.142981	0.000405	4.054216	0.686803	-0.000041
1981	1.9701e+02	0.2941	-8.187382	0.000446	4.463732	0.756177	-0.000045
1982	1.9711e+02	0.2849	-8.238707	0.000516	5.159911	0.874113	-0.000052
1983	1.9721e+02	0.2755	-8.286773	0.000483	4.832297	0.818613	-0.000048
1984	1.9731e+02	0.2654	-8.331988	0.000455	4.545636	0.770052	-0.000045
1985	1.9741e+02	0.2539	-8.376389	0.000446	4.463732	0.756177	-0.000045
1986	1.9751e+02	0.2467	-8.420382	0.000442	4.422781	0.749239	-0.000044
1987	1.9761e+02	0.2349	-8.470485	0.000504	5.037056	0.853300	-0.000050
1988	1.9771e+02	0.2258	-8.512848	0.000426	4.258974	0.721490	-0.000043
1989	1.9781e+02	0.2136	-8.562137	0.000496	4.955153	0.839426	-0.000050
1990	1.9791e+02	0.2045	-8.605315	0.000434	4.340877	0.735365	-0.000043
1991	1.9800e+02	0.1934	-8.655011	0.000500	4.996104	0.846363	-0.000050
1992	1.9810e+02	0.1850	-8.696967	0.000422	4.218022	0.714552	-0.000042
1993	1.9820e+02	0.1739	-8.745441	0.000487	4.873249	0.825551	-0.000049
1994	1.9830e+02	0.1661	-8.791063	0.000459	4.586587	0.776989	-0.000046
1995	1.9840e+02	0.1558	-8.837500	0.000467	4.668491	0.790864	-0.000047
1996	1.9850e+02	0.1469	-8.885567	0.000483	4.832297	0.818613	-0.000048
1997	1.9860e+02	0.1347	-8.930374	0.000450	4.504684	0.763114	-0.000045
1998	1.9870e+02	0.1264	-8.975182	0.000450	4.504684	0.763114	-0.000045
1999	1.9880e+02	0.1136	-9.023249	0.000483	4.832297	0.818613	-0.000048
2000	1.9890e+02	0.1037	-9.070093	0.000471	4.709442	0.797801	-0.000047
2001	1.9900e+02	0.0944	-9.114086	0.000442	4.422781	0.749239	-0.000044
2002	1.9910e+02	0.0861	-9.165818	0.000520	5.200863	0.881050	-0.000052
2003	1.9920e+02	0.0741	-9.213070	0.000475	4.750394	0.804739	-0.000047
2004	1.9930e+02	0.0687	-9.260729	0.000479	4.791346	0.811676	-0.000048
2005	1.9940e+02	0.0555	-9.306352	0.000459	4.586587	0.776989	-0.000046
2006	1.9950e+02	0.0436	-9.349530	0.000434	4.340877	0.735365	-0.000043
2007	1.9960e+02	0.0349	-9.398411	0.000491	4.914201	0.832488	-0.000049
2008	1.9970e+02	0.0247	-9.446070	0.000479	4.791346	0.811676	-0.000048
2009	1.9980e+02	0.0147	-9.489656	0.000438	4.381829	0.742302	-0.000044
2010	1.9990e+02	0.0044	-9.539352	0.000500	4.996104	0.846363	-0.000050
2011	2.0000e+02	-0.0032	-9.587825	0.000500	4.996104	0.846363	-0.000049

PMax (uC/cm2):	3.84e+01
Pr (uC/cm2):	9.72e+00
-Pr (uC/cm2):	0.00e+00
PLoss (uC/cm2):	0.00e+00
C (Max-Eff) (nF):	3.84e-01
K (Eff):	6.51e+02
Vert. (+/-Pr) Shift (uC/cm2):	4.86e+00
Offset (uC/cm2):	1.93e+01

A (Loop Area - uC/cm2·Volts):	-9.25e-02



Hysteresis Version: 5.48.1 - Radiant Technologies, Inc., 1999 - 9/12/24

