»»»»»»»»»»»»»»»»»»»»»»»»»»»»»»»»»»»» Hysteresis ««««««««««««««««««««««««««««««««««««
»»»  Executed Version:	5.48.1
»»»  Vision Version:	5.48.4 (R)
»»»  Vision Compiled:	9/18/24
»»»  Driver Version:	5.47.0
»»»  Windows Version:	Windows 8 or 8.1
»»»  Processor Information:	x86 (AMD or Intel) - 32 Processors
»»»  Tester Name:	PMF21124-494 (100V)
»»»  Tester S/N:	PMF21124-494
»»»  Internal Amp Type:	100V RevK 270k
»»»  Internal Amp S/N:	iAB2-596/K     
»»»  Execution Count:	1
»»»»»»»»»»»»»»»»»»»»»»»»»»»»»»»»»»»»»»»»»»««««««««««««««««««««««««««««««««««««««««««

Stored:	6/27/2025 - 11:26:56
Configured:	06/27/25 11:23:28 AM
Executed:	06/27/25 11:26:22 AM

»»»»»»»»»»»»»»»»»»»»»»»»»»»»»»»»»»» Sample Info ««««««««««««««««««««««««««««««««««««
Sample Name:	
Lot Name:	
Wafer Name:	
Die Row/Column:	0/0
Capacitor Number:	0
Sample Area (cm2):	1.00e-04
Sample Thickness (microns):	1.50e-01

Amplifier:	Internal

»»»»»»»»»»»»»»»»»»»»»»»»»»»»»»»»»»» Tester Info «««««««««««««««««««««««««««««««««««
Tester Name:	PMF21124-494 (100V)
Tester Serial Number:	PMF21124-494
Return Signal Amp. Level:	1.9 [Index: 2]

»»»»»»»»»»»»»»»»»»»»»»»»»»»»»»»» Hysteresis Info ««««««««««««««««««««««««««««««««««
Task Name:	Hyst-1276
Volts:	10.00
Field:	666.67 (kV/cm)
DCBias:	0.00
DCField:	0.00 (kV/cm)
Hysteresis Period (ms):	2.00e+02
Preset:	Enabled
Preset Delay (ms):	1.00e+03
Profile:	Standard Monopolar

»»»»»»»»»»»»»»»»»»»»»»»»»»»»»»»»»»»»»» Data «««««««««««««««««««««««««««««««««««««««
Points:	2011

Valid Data

Point	Time (ms)	Drive Voltage	Measured Polarization (uC/cm2)	Capacitance (uF)	Normalized Capacitance (uF/cm2)	Dielectric Constant	Instantaneous Current (mA)
   1	0.0000e+00	-0.0009	-10.761176	0.000209	2.088496	0.353801	0.000021
   2	9.9500e-02	0.0058	-10.740401	0.000209	2.088496	0.353801	0.000021
   3	1.9900e-01	0.0170	-10.718812	0.000217	2.170397	0.367675	0.000022
   4	2.9850e-01	0.0256	-10.700889	0.000180	1.801839	0.305240	0.000018
   5	3.9800e-01	0.0349	-10.678485	0.000225	2.252299	0.381550	0.000023
   6	4.9750e-01	0.0455	-10.657303	0.000213	2.129446	0.360738	0.000021
   7	5.9700e-01	0.0523	-10.635307	0.000221	2.211348	0.374613	0.000022
   8	6.9650e-01	0.0639	-10.610459	0.000250	2.498004	0.423173	0.000025
   9	7.9600e-01	0.0739	-10.588870	0.000217	2.170397	0.367675	0.000022
  10	8.9550e-01	0.0859	-10.563614	0.000254	2.538955	0.430111	0.000025
  11	9.9500e-01	0.0971	-10.542840	0.000209	2.088496	0.353801	0.000021
  12	1.0945e+00	0.1060	-10.521251	0.000217	2.170397	0.367675	0.000022
  13	1.1940e+00	0.1144	-10.499662	0.000217	2.170397	0.367675	0.000022
  14	1.2935e+00	0.1299	-10.474406	0.000254	2.538955	0.430111	0.000025
  15	1.3930e+00	0.1338	-10.451595	0.000229	2.293250	0.388487	0.000023
  16	1.4925e+00	0.1443	-10.432857	0.000188	1.883741	0.319114	0.000019
  17	1.5920e+00	0.1523	-10.408010	0.000250	2.498004	0.423173	0.000025
  18	1.6915e+00	0.1662	-10.384791	0.000233	2.334201	0.395424	0.000023
  19	1.7910e+00	0.1740	-10.364017	0.000209	2.088496	0.353801	0.000021
  20	1.8905e+00	0.1859	-10.340391	0.000238	2.375152	0.402362	0.000024
  21	1.9900e+00	0.1940	-10.318394	0.000221	2.211348	0.374613	0.000022
  22	2.0895e+00	0.2032	-10.295176	0.000233	2.334201	0.395424	0.000023
  23	2.1890e+00	0.2159	-10.273179	0.000221	2.211348	0.374613	0.000022
  24	2.2885e+00	0.2221	-10.249553	0.000238	2.375152	0.402362	0.000024
  25	2.3880e+00	0.2360	-10.227557	0.000221	2.211348	0.374613	0.000022
  26	2.4875e+00	0.2425	-10.203116	0.000246	2.457054	0.416236	0.000025
  27	2.5870e+00	0.2539	-10.175824	0.000274	2.743710	0.464797	0.000027
  28	2.6865e+00	0.2678	-10.153420	0.000225	2.252299	0.381550	0.000023
  29	2.7860e+00	0.2744	-10.134683	0.000188	1.883741	0.319114	0.000019
  30	2.8855e+00	0.2856	-10.109427	0.000254	2.538955	0.430111	0.000025
  31	2.9850e+00	0.2933	-10.086209	0.000233	2.334201	0.395424	0.000023
  32	3.0845e+00	0.3049	-10.064212	0.000221	2.211348	0.374613	0.000022
  33	3.1840e+00	0.3168	-10.040587	0.000238	2.375152	0.402362	0.000024
  34	3.2835e+00	0.3232	-10.018997	0.000217	2.170397	0.367675	0.000022
  35	3.3830e+00	0.3362	-9.997001	0.000221	2.211348	0.374613	0.000022
  36	3.4825e+00	0.3438	-9.970931	0.000262	2.620857	0.443985	0.000026
  37	3.5820e+00	0.3512	-9.950564	0.000205	2.047545	0.346863	0.000020
  38	3.6815e+00	0.3640	-9.925716	0.000250	2.498004	0.423173	0.000025
  39	3.7810e+00	0.3709	-9.900461	0.000254	2.538955	0.430111	0.000025
  40	3.8805e+00	0.3835	-9.873983	0.000266	2.661808	0.450922	0.000027
  41	3.9800e+00	0.3935	-9.855246	0.000188	1.883741	0.319114	0.000019
  42	4.0795e+00	0.4047	-9.827139	0.000283	2.825612	0.478672	0.000028
  43	4.1790e+00	0.4166	-9.801884	0.000254	2.538955	0.430111	0.000025
  44	4.2785e+00	0.4223	-9.782739	0.000192	1.924692	0.326052	0.000019
  45	4.3780e+00	0.4302	-9.759113	0.000238	2.375152	0.402362	0.000024
  46	4.4775e+00	0.4453	-9.737931	0.000213	2.129446	0.360738	0.000021
  47	4.5770e+00	0.4533	-9.711046	0.000270	2.702759	0.457860	0.000027
  48	4.6765e+00	0.4605	-9.694753	0.000164	1.638036	0.277491	0.000016
  49	4.7760e+00	0.4728	-9.675200	0.000197	1.965643	0.332989	0.000020
  50	4.8755e+00	0.4838	-9.649945	0.000254	2.538955	0.430111	0.000025
  51	4.9750e+00	0.4922	-9.627134	0.000229	2.293250	0.388487	0.000023
  52	5.0745e+00	0.5031	-9.605952	0.000213	2.129446	0.360738	0.000021
  53	5.1740e+00	0.5162	-9.584770	0.000213	2.129446	0.360738	0.000021
  54	5.2735e+00	0.5250	-9.563181	0.000217	2.170397	0.367675	0.000022
  55	5.3730e+00	0.5343	-9.538333	0.000250	2.498004	0.423173	0.000025
  56	5.4725e+00	0.5418	-9.517559	0.000209	2.088496	0.353801	0.000021
  57	5.5720e+00	0.5531	-9.495562	0.000221	2.211348	0.374613	0.000022
  58	5.6715e+00	0.5630	-9.471529	0.000242	2.416103	0.409299	0.000024
  59	5.7710e+00	0.5736	-9.453199	0.000184	1.842790	0.312177	0.000018
  60	5.8705e+00	0.5831	-9.429573	0.000238	2.375152	0.402362	0.000024
  61	5.9700e+00	0.5933	-9.405132	0.000246	2.457054	0.416236	0.000025
  62	6.0695e+00	0.6051	-9.389246	0.000160	1.597085	0.270553	0.000016
  63	6.1690e+00	0.6126	-9.368471	0.000209	2.088496	0.353801	0.000021
  64	6.2685e+00	0.6232	-9.343216	0.000254	2.538955	0.430111	0.000025
  65	6.3680e+00	0.6321	-9.322034	0.000213	2.129446	0.360738	0.000021
  66	6.4675e+00	0.6450	-9.296779	0.000254	2.538955	0.430111	0.000025
  67	6.5670e+00	0.6540	-9.274375	0.000225	2.252299	0.381550	0.000023
  68	6.6665e+00	0.6628	-9.247898	0.000266	2.661808	0.450922	0.000027
  69	6.7660e+00	0.6718	-9.225494	0.000225	2.252299	0.381550	0.000023
  70	6.8655e+00	0.6808	-9.198202	0.000274	2.743710	0.464797	0.000027
  71	6.9650e+00	0.6918	-9.165615	0.000328	3.276071	0.554982	0.000033
  72	7.0645e+00	0.7008	-9.145248	0.000205	2.047545	0.346863	0.000020
  73	7.1640e+00	0.7133	-9.119585	0.000258	2.579906	0.437048	0.000026
  74	7.2635e+00	0.7216	-9.089442	0.000303	3.030366	0.513358	0.000030
  75	7.3630e+00	0.7324	-9.065408	0.000242	2.416103	0.409299	0.000024
  76	7.4625e+00	0.7425	-9.034450	0.000311	3.112268	0.527232	0.000031
  77	7.5620e+00	0.7518	-9.016527	0.000180	1.801839	0.305240	0.000018
  78	7.6615e+00	0.7603	-8.986791	0.000299	2.989415	0.506421	0.000030
  79	7.7610e+00	0.7709	-8.963980	0.000229	2.293250	0.388487	0.000023
  80	7.8605e+00	0.7850	-8.936281	0.000278	2.784661	0.471734	0.000028
  81	7.9600e+00	0.7951	-8.907767	0.000287	2.866562	0.485609	0.000029
  82	8.0595e+00	0.7999	-8.885363	0.000225	2.252299	0.381550	0.000023
  83	8.1590e+00	0.8128	-8.857664	0.000278	2.784661	0.471734	0.000028
  84	8.2585e+00	0.8219	-8.826706	0.000311	3.112268	0.527232	0.000031
  85	8.3580e+00	0.8303	-8.803487	0.000233	2.334201	0.395424	0.000023
  86	8.4575e+00	0.8405	-8.776195	0.000274	2.743710	0.464797	0.000027
  87	8.5570e+00	0.8527	-8.748903	0.000274	2.743710	0.464797	0.000027
  88	8.6565e+00	0.8607	-8.721611	0.000274	2.743710	0.464797	0.000027
  89	8.7560e+00	0.8718	-8.698800	0.000229	2.293250	0.388487	0.000023
  90	8.8555e+00	0.8823	-8.673545	0.000254	2.538955	0.430111	0.000025
  91	8.9550e+00	0.8904	-8.653585	0.000201	2.006594	0.339926	0.000020
  92	9.0545e+00	0.8999	-8.627108	0.000266	2.661808	0.450922	0.000027
  93	9.1540e+00	0.9119	-8.597372	0.000299	2.989415	0.506421	0.000030
  94	9.2535e+00	0.9226	-8.574968	0.000225	2.252299	0.381550	0.000023
  95	9.3530e+00	0.9312	-8.552157	0.000229	2.293250	0.388487	0.000023
  96	9.4525e+00	0.9417	-8.527309	0.000250	2.498004	0.423173	0.000025
  97	9.5520e+00	0.9518	-8.503683	0.000238	2.375152	0.402362	0.000024
  98	9.6515e+00	0.9618	-8.477206	0.000266	2.661808	0.450922	0.000027
  99	9.7510e+00	0.9704	-8.454395	0.000229	2.293250	0.388487	0.000023
 100	9.8505e+00	0.9801	-8.429954	0.000246	2.457054	0.416236	0.000025
 101	9.9500e+00	0.9924	-8.401847	0.000283	2.825612	0.478672	0.000028
 102	1.0050e+01	1.0003	-8.376592	0.000254	2.538955	0.430111	0.000025
 103	1.0149e+01	1.0111	-8.351337	0.000254	2.538955	0.430111	0.000025
 104	1.0248e+01	1.0206	-8.328933	0.000225	2.252299	0.381550	0.000023
 105	1.0348e+01	1.0320	-8.303271	0.000258	2.579906	0.437048	0.000026
 106	1.0447e+01	1.0410	-8.280052	0.000233	2.334201	0.395424	0.000023
 107	1.0547e+01	1.0508	-8.252353	0.000278	2.784661	0.471734	0.000028
 108	1.0646e+01	1.0621	-8.231578	0.000209	2.088496	0.353801	0.000021
 109	1.0746e+01	1.0696	-8.206323	0.000254	2.538955	0.430111	0.000025
 110	1.0845e+01	1.0816	-8.182290	0.000242	2.416103	0.409299	0.000024
 111	1.0945e+01	1.0910	-8.160293	0.000221	2.211348	0.374613	0.000022
 112	1.1044e+01	1.0989	-8.131372	0.000291	2.907513	0.492546	0.000029
 113	1.1144e+01	1.1113	-8.110598	0.000209	2.088496	0.353801	0.000021
 114	1.1243e+01	1.1214	-8.091860	0.000188	1.883741	0.319114	0.000019
 115	1.1343e+01	1.1301	-8.062531	0.000295	2.948464	0.499483	0.000029
 116	1.1443e+01	1.1398	-8.039313	0.000233	2.334201	0.395424	0.000023
 117	1.1542e+01	1.1492	-8.012428	0.000270	2.702759	0.457860	0.000027
 118	1.1642e+01	1.1592	-7.984729	0.000278	2.784661	0.471734	0.000028
 119	1.1741e+01	1.1697	-7.963140	0.000217	2.170397	0.367675	0.000022
 120	1.1841e+01	1.1795	-7.936255	0.000270	2.702759	0.457860	0.000027
 121	1.1940e+01	1.1906	-7.915888	0.000205	2.047545	0.346863	0.000020
 122	1.2040e+01	1.2022	-7.895521	0.000205	2.047545	0.346863	0.000020
 123	1.2139e+01	1.2132	-7.871895	0.000238	2.375152	0.402362	0.000024
 124	1.2239e+01	1.2212	-7.847862	0.000242	2.416103	0.409299	0.000024
 125	1.2338e+01	1.2311	-7.830753	0.000172	1.719937	0.291365	0.000017
 126	1.2438e+01	1.2389	-7.799388	0.000315	3.153219	0.534170	0.000032
 127	1.2537e+01	1.2501	-7.779428	0.000201	2.006594	0.339926	0.000020
 128	1.2636e+01	1.2582	-7.752136	0.000274	2.743710	0.464797	0.000027
 129	1.2736e+01	1.2685	-7.730954	0.000213	2.129446	0.360738	0.000021
 130	1.2835e+01	1.2769	-7.707328	0.000238	2.375152	0.402362	0.000024
 131	1.2935e+01	1.2893	-7.681258	0.000262	2.620857	0.443985	0.000026
 132	1.3034e+01	1.2984	-7.655189	0.000262	2.620857	0.443985	0.000026
 133	1.3134e+01	1.3099	-7.631155	0.000242	2.416103	0.409299	0.000024
 134	1.3233e+01	1.3184	-7.603456	0.000278	2.784661	0.471734	0.000028
 135	1.3333e+01	1.3289	-7.579016	0.000246	2.457054	0.416236	0.000025
 136	1.3432e+01	1.3384	-7.552131	0.000270	2.702759	0.457860	0.000027
 137	1.3532e+01	1.3494	-7.524432	0.000278	2.784661	0.471734	0.000028
 138	1.3632e+01	1.3598	-7.499991	0.000246	2.457054	0.416236	0.000025
 139	1.3731e+01	1.3728	-7.474736	0.000254	2.538955	0.430111	0.000025
 140	1.3831e+01	1.3765	-7.451517	0.000233	2.334201	0.395424	0.000023
 141	1.3930e+01	1.3897	-7.427891	0.000238	2.375152	0.402362	0.000024
 142	1.4030e+01	1.3988	-7.401414	0.000266	2.661808	0.450922	0.000027
 143	1.4129e+01	1.4094	-7.370049	0.000315	3.153219	0.534170	0.000032
 144	1.4229e+01	1.4187	-7.349682	0.000205	2.047545	0.346863	0.000020
 145	1.4328e+01	1.4285	-7.321982	0.000278	2.784661	0.471734	0.000028
 146	1.4428e+01	1.4414	-7.295505	0.000266	2.661808	0.450922	0.000027
 147	1.4527e+01	1.4458	-7.272287	0.000233	2.334201	0.395424	0.000023
 148	1.4627e+01	1.4595	-7.245809	0.000266	2.661808	0.450922	0.000027
 149	1.4726e+01	1.4697	-7.220147	0.000258	2.579906	0.437048	0.000026
 150	1.4825e+01	1.4806	-7.198965	0.000213	2.129446	0.360738	0.000021
 151	1.4925e+01	1.4890	-7.179820	0.000192	1.924692	0.326052	0.000019
 152	1.5024e+01	1.5002	-7.155379	0.000246	2.457054	0.416236	0.000025
 153	1.5124e+01	1.5085	-7.133383	0.000221	2.211348	0.374613	0.000022
 154	1.5223e+01	1.5157	-7.107720	0.000258	2.579906	0.437048	0.000026
 155	1.5323e+01	1.5280	-7.085724	0.000221	2.211348	0.374613	0.000022
 156	1.5422e+01	1.5376	-7.068615	0.000172	1.719937	0.291365	0.000017
 157	1.5522e+01	1.5482	-7.045397	0.000233	2.334201	0.395424	0.000023
 158	1.5621e+01	1.5582	-7.027474	0.000180	1.801839	0.305240	0.000018
 159	1.5721e+01	1.5676	-7.004663	0.000229	2.293250	0.388487	0.000023
 160	1.5820e+01	1.5759	-6.983481	0.000213	2.129446	0.360738	0.000021
 161	1.5920e+01	1.5877	-6.962299	0.000213	2.129446	0.360738	0.000021
 162	1.6020e+01	1.5995	-6.943968	0.000184	1.842790	0.312177	0.000018
 163	1.6119e+01	1.6071	-6.923601	0.000205	2.047545	0.346863	0.000020
 164	1.6218e+01	1.6187	-6.898346	0.000254	2.538955	0.430111	0.000025
 165	1.6318e+01	1.6271	-6.880016	0.000184	1.842790	0.312177	0.000018
 166	1.6418e+01	1.6399	-6.860871	0.000192	1.924692	0.326052	0.000019
 167	1.6517e+01	1.6476	-6.842133	0.000188	1.883741	0.319114	0.000019
 168	1.6616e+01	1.6582	-6.817692	0.000246	2.457054	0.416236	0.000025
 169	1.6716e+01	1.6682	-6.800177	0.000176	1.760888	0.298303	0.000018
 170	1.6816e+01	1.6759	-6.778587	0.000217	2.170397	0.367675	0.000022
 171	1.6915e+01	1.6898	-6.753740	0.000250	2.498004	0.423173	0.000025
 172	1.7015e+01	1.6962	-6.733372	0.000205	2.047545	0.346863	0.000020
 173	1.7114e+01	1.7091	-6.709747	0.000238	2.375152	0.402362	0.000024
 174	1.7213e+01	1.7162	-6.688565	0.000213	2.129446	0.360738	0.000021
 175	1.7313e+01	1.7266	-6.670234	0.000184	1.842790	0.312177	0.000018
 176	1.7413e+01	1.7374	-6.644572	0.000258	2.579906	0.437048	0.000026
 177	1.7512e+01	1.7463	-6.621353	0.000233	2.334201	0.395424	0.000023
 178	1.7611e+01	1.7587	-6.598542	0.000229	2.293250	0.388487	0.000023
 179	1.7711e+01	1.7669	-6.575323	0.000233	2.334201	0.395424	0.000023
 180	1.7811e+01	1.7765	-6.552920	0.000225	2.252299	0.381550	0.000023
 181	1.7910e+01	1.7854	-6.530108	0.000229	2.293250	0.388487	0.000023
 182	1.8009e+01	1.7979	-6.506890	0.000233	2.334201	0.395424	0.000023
 183	1.8109e+01	1.8068	-6.485708	0.000213	2.129446	0.360738	0.000021
 184	1.8209e+01	1.8180	-6.463712	0.000221	2.211348	0.374613	0.000022
 185	1.8308e+01	1.8262	-6.440493	0.000233	2.334201	0.395424	0.000023
 186	1.8407e+01	1.8365	-6.417682	0.000229	2.293250	0.388487	0.000023
 187	1.8507e+01	1.8459	-6.396093	0.000217	2.170397	0.367675	0.000022
 188	1.8607e+01	1.8555	-6.370838	0.000254	2.538955	0.430111	0.000025
 189	1.8706e+01	1.8672	-6.349248	0.000217	2.170397	0.367675	0.000022
 190	1.8805e+01	1.8760	-6.329289	0.000201	2.006594	0.339926	0.000020
 191	1.8905e+01	1.8867	-6.300775	0.000287	2.866562	0.485609	0.000029
 192	1.9005e+01	1.8961	-6.281629	0.000192	1.924692	0.326052	0.000019
 193	1.9104e+01	1.9068	-6.259633	0.000221	2.211348	0.374613	0.000022
 194	1.9203e+01	1.9154	-6.236822	0.000229	2.293250	0.388487	0.000023
 195	1.9303e+01	1.9279	-6.213603	0.000233	2.334201	0.395424	0.000023
 196	1.9402e+01	1.9366	-6.190792	0.000229	2.293250	0.388487	0.000023
 197	1.9502e+01	1.9448	-6.168796	0.000221	2.211348	0.374613	0.000022
 198	1.9602e+01	1.9559	-6.144355	0.000246	2.457054	0.416236	0.000025
 199	1.9701e+01	1.9671	-6.118692	0.000258	2.579906	0.437048	0.000026
 200	1.9800e+01	1.9762	-6.099955	0.000188	1.883741	0.319114	0.000019
 201	1.9900e+01	1.9860	-6.077144	0.000229	2.293250	0.388487	0.000023
 202	2.0000e+01	1.9942	-6.053925	0.000233	2.334201	0.395424	0.000023
 203	2.0099e+01	2.0045	-6.033965	0.000201	2.006594	0.339926	0.000020
 204	2.0198e+01	2.0149	-6.010339	0.000238	2.375152	0.402362	0.000024
 205	2.0298e+01	2.0253	-5.983862	0.000266	2.661808	0.450922	0.000027
 206	2.0398e+01	2.0367	-5.956977	0.000270	2.702759	0.457860	0.000027
 207	2.0497e+01	2.0432	-5.934574	0.000225	2.252299	0.381550	0.000023
 208	2.0596e+01	2.0568	-5.914207	0.000205	2.047545	0.346863	0.000020
 209	2.0696e+01	2.0690	-5.887729	0.000266	2.661808	0.450922	0.000027
 210	2.0796e+01	2.0750	-5.864103	0.000238	2.375152	0.402362	0.000024
 211	2.0895e+01	2.0853	-5.843329	0.000209	2.088496	0.353801	0.000021
 212	2.0994e+01	2.0942	-5.819296	0.000242	2.416103	0.409299	0.000024
 213	2.1094e+01	2.1069	-5.798521	0.000209	2.088496	0.353801	0.000021
 214	2.1194e+01	2.1152	-5.772451	0.000262	2.620857	0.443985	0.000026
 215	2.1293e+01	2.1249	-5.753714	0.000188	1.883741	0.319114	0.000019
 216	2.1392e+01	2.1347	-5.734161	0.000197	1.965643	0.332989	0.000020
 217	2.1492e+01	2.1443	-5.715016	0.000192	1.924692	0.326052	0.000019
 218	2.1591e+01	2.1534	-5.688539	0.000266	2.661808	0.450922	0.000027
 219	2.1691e+01	2.1657	-5.671430	0.000172	1.719937	0.291365	0.000017
 220	2.1791e+01	2.1780	-5.647804	0.000238	2.375152	0.402362	0.000024
 221	2.1890e+01	2.1884	-5.622957	0.000250	2.498004	0.423173	0.000025
 222	2.1989e+01	2.1925	-5.605441	0.000176	1.760888	0.298303	0.000018
 223	2.2089e+01	2.2037	-5.581000	0.000246	2.457054	0.416236	0.000025
 224	2.2189e+01	2.2131	-5.555745	0.000254	2.538955	0.430111	0.000025
 225	2.2288e+01	2.2230	-5.538637	0.000172	1.719937	0.291365	0.000017
 226	2.2387e+01	2.2359	-5.514196	0.000246	2.457054	0.416236	0.000025
 227	2.2487e+01	2.2465	-5.497088	0.000172	1.719937	0.291365	0.000017
 228	2.2587e+01	2.2546	-5.474684	0.000225	2.252299	0.381550	0.000023
 229	2.2686e+01	2.2619	-5.453502	0.000213	2.129446	0.360738	0.000021
 230	2.2785e+01	2.2752	-5.432728	0.000209	2.088496	0.353801	0.000021
 231	2.2885e+01	2.2826	-5.410324	0.000225	2.252299	0.381550	0.000023
 232	2.2985e+01	2.2954	-5.385883	0.000246	2.457054	0.416236	0.000025
 233	2.3084e+01	2.3038	-5.368775	0.000172	1.719937	0.291365	0.000017
 234	2.3183e+01	2.3157	-5.343112	0.000258	2.579906	0.437048	0.000026
 235	2.3283e+01	2.3248	-5.317857	0.000254	2.538955	0.430111	0.000025
 236	2.3383e+01	2.3354	-5.296268	0.000217	2.170397	0.367675	0.000022
 237	2.3482e+01	2.3426	-5.268569	0.000278	2.784661	0.471734	0.000028
 238	2.3581e+01	2.3556	-5.241684	0.000270	2.702759	0.457860	0.000027
 239	2.3681e+01	2.3656	-5.218465	0.000233	2.334201	0.395424	0.000023
 240	2.3780e+01	2.3744	-5.192396	0.000262	2.620857	0.443985	0.000026
 241	2.3880e+01	2.3855	-5.165918	0.000266	2.661808	0.450922	0.000027
 242	2.3980e+01	2.3939	-5.136590	0.000295	2.948464	0.499483	0.000029
 243	2.4079e+01	2.4029	-5.115000	0.000217	2.170397	0.367675	0.000022
 244	2.4178e+01	2.4133	-5.091782	0.000233	2.334201	0.395424	0.000023
 245	2.4278e+01	2.4231	-5.064897	0.000270	2.702759	0.457860	0.000027
 246	2.4378e+01	2.4331	-5.035569	0.000295	2.948464	0.499483	0.000029
 247	2.4477e+01	2.4419	-5.013572	0.000221	2.211348	0.374613	0.000022
 248	2.4576e+01	2.4546	-4.987095	0.000266	2.661808	0.450922	0.000027
 249	2.4676e+01	2.4654	-4.960210	0.000270	2.702759	0.457860	0.000027
 250	2.4776e+01	2.4740	-4.936177	0.000242	2.416103	0.409299	0.000024
 251	2.4875e+01	2.4854	-4.907663	0.000287	2.866562	0.485609	0.000029
 252	2.4974e+01	2.4959	-4.881186	0.000266	2.661808	0.450922	0.000027
 253	2.5074e+01	2.5051	-4.856745	0.000246	2.457054	0.416236	0.000025
 254	2.5174e+01	2.5140	-4.828231	0.000287	2.866562	0.485609	0.000029
 255	2.5273e+01	2.5240	-4.805013	0.000233	2.334201	0.395424	0.000023
 256	2.5372e+01	2.5330	-4.783016	0.000221	2.211348	0.374613	0.000022
 257	2.5472e+01	2.5423	-4.759798	0.000233	2.334201	0.395424	0.000023
 258	2.5572e+01	2.5523	-4.731284	0.000287	2.866562	0.485609	0.000029
 259	2.5671e+01	2.5652	-4.708065	0.000233	2.334201	0.395424	0.000023
 260	2.5770e+01	2.5710	-4.684032	0.000242	2.416103	0.409299	0.000024
 261	2.5870e+01	2.5834	-4.659184	0.000250	2.498004	0.423173	0.000025
 262	2.5970e+01	2.5915	-4.634336	0.000250	2.498004	0.423173	0.000025
 263	2.6069e+01	2.6020	-4.613969	0.000205	2.047545	0.346863	0.000020
 264	2.6169e+01	2.6120	-4.589529	0.000246	2.457054	0.416236	0.000025
 265	2.6268e+01	2.6241	-4.565495	0.000242	2.416103	0.409299	0.000024
 266	2.6367e+01	2.6330	-4.539833	0.000258	2.579906	0.437048	0.000026
 267	2.6467e+01	2.6424	-4.514985	0.000250	2.498004	0.423173	0.000025
 268	2.6567e+01	2.6530	-4.492581	0.000225	2.252299	0.381550	0.000023
 269	2.6666e+01	2.6648	-4.468955	0.000238	2.375152	0.402362	0.000024
 270	2.6765e+01	2.6729	-4.446144	0.000229	2.293250	0.388487	0.000023
 271	2.6865e+01	2.6852	-4.421703	0.000246	2.457054	0.416236	0.000025
 272	2.6965e+01	2.6891	-4.393597	0.000283	2.825612	0.478672	0.000028
 273	2.7064e+01	2.7023	-4.372008	0.000217	2.170397	0.367675	0.000022
 274	2.7163e+01	2.7117	-4.345530	0.000266	2.661808	0.450922	0.000027
 275	2.7263e+01	2.7230	-4.322719	0.000229	2.293250	0.388487	0.000023
 276	2.7363e+01	2.7354	-4.301130	0.000217	2.170397	0.367675	0.000022
 277	2.7462e+01	2.7442	-4.275467	0.000258	2.579906	0.437048	0.000026
 278	2.7561e+01	2.7552	-4.254693	0.000209	2.088496	0.353801	0.000021
 279	2.7661e+01	2.7602	-4.231067	0.000238	2.375152	0.402362	0.000024
 280	2.7761e+01	2.7714	-4.205812	0.000254	2.538955	0.430111	0.000025
 281	2.7860e+01	2.7812	-4.180149	0.000258	2.579906	0.437048	0.000026
 282	2.7959e+01	2.7926	-4.155301	0.000250	2.498004	0.423173	0.000025
 283	2.8059e+01	2.8025	-4.130861	0.000246	2.457054	0.416236	0.000025
 284	2.8159e+01	2.8133	-4.109679	0.000213	2.129446	0.360738	0.000021
 285	2.8258e+01	2.8196	-4.088497	0.000213	2.129446	0.360738	0.000021
 286	2.8358e+01	2.8298	-4.062427	0.000262	2.620857	0.443985	0.000026
 287	2.8457e+01	2.8407	-4.042875	0.000197	1.965643	0.332989	0.000020
 288	2.8556e+01	2.8512	-4.015583	0.000274	2.743710	0.464797	0.000027
 289	2.8656e+01	2.8636	-3.996845	0.000188	1.883741	0.319114	0.000019
 290	2.8756e+01	2.8712	-3.972812	0.000242	2.416103	0.409299	0.000024
 291	2.8855e+01	2.8812	-3.952852	0.000201	2.006594	0.339926	0.000020
 292	2.8954e+01	2.8905	-3.930856	0.000221	2.211348	0.374613	0.000022
 293	2.9054e+01	2.8994	-3.907637	0.000233	2.334201	0.395424	0.000023
 294	2.9154e+01	2.9111	-3.881975	0.000258	2.579906	0.437048	0.000026
 295	2.9253e+01	2.9217	-3.858349	0.000238	2.375152	0.402362	0.000024
 296	2.9352e+01	2.9308	-3.837167	0.000213	2.129446	0.360738	0.000021
 297	2.9452e+01	2.9393	-3.814763	0.000225	2.252299	0.381550	0.000023
 298	2.9552e+01	2.9507	-3.788693	0.000262	2.620857	0.443985	0.000026
 299	2.9651e+01	2.9626	-3.763438	0.000254	2.538955	0.430111	0.000025
 300	2.9750e+01	2.9713	-3.734517	0.000291	2.907513	0.492546	0.000029
 301	2.9850e+01	2.9803	-3.709669	0.000250	2.498004	0.423173	0.000025
 302	2.9950e+01	2.9903	-3.686043	0.000238	2.375152	0.402362	0.000024
 303	3.0049e+01	3.0002	-3.660788	0.000254	2.538955	0.430111	0.000025
 304	3.0148e+01	3.0104	-3.635532	0.000254	2.538955	0.430111	0.000025
 305	3.0248e+01	3.0222	-3.610684	0.000250	2.498004	0.423173	0.000025
 306	3.0348e+01	3.0296	-3.590317	0.000205	2.047545	0.346863	0.000020
 307	3.0447e+01	3.0407	-3.566691	0.000238	2.375152	0.402362	0.000024
 308	3.0547e+01	3.0529	-3.541843	0.000250	2.498004	0.423173	0.000025
 309	3.0646e+01	3.0602	-3.514959	0.000270	2.702759	0.457860	0.000027
 310	3.0745e+01	3.0719	-3.489296	0.000258	2.579906	0.437048	0.000026
 311	3.0845e+01	3.0788	-3.464448	0.000250	2.498004	0.423173	0.000025
 312	3.0945e+01	3.0922	-3.440415	0.000242	2.416103	0.409299	0.000024
 313	3.1044e+01	3.0999	-3.415160	0.000254	2.538955	0.430111	0.000025
 314	3.1143e+01	3.1100	-3.390312	0.000250	2.498004	0.423173	0.000025
 315	3.1243e+01	3.1219	-3.364242	0.000262	2.620857	0.443985	0.000026
 316	3.1343e+01	3.1293	-3.342246	0.000221	2.211348	0.374613	0.000022
 317	3.1442e+01	3.1398	-3.315361	0.000270	2.702759	0.457860	0.000027
 318	3.1541e+01	3.1510	-3.293772	0.000217	2.170397	0.367675	0.000022
 319	3.1641e+01	3.1627	-3.272997	0.000209	2.088496	0.353801	0.000021
 320	3.1741e+01	3.1701	-3.248964	0.000242	2.416103	0.409299	0.000024
 321	3.1840e+01	3.1822	-3.231856	0.000172	1.719937	0.291365	0.000017
 322	3.1939e+01	3.1910	-3.214747	0.000172	1.719937	0.291365	0.000017
 323	3.2039e+01	3.2003	-3.191936	0.000229	2.293250	0.388487	0.000023
 324	3.2139e+01	3.2101	-3.169940	0.000221	2.211348	0.374613	0.000022
 325	3.2238e+01	3.2193	-3.151609	0.000184	1.842790	0.312177	0.000018
 326	3.2337e+01	3.2289	-3.128391	0.000233	2.334201	0.395424	0.000023
 327	3.2437e+01	3.2371	-3.113319	0.000152	1.515183	0.256679	0.000015
 328	3.2536e+01	3.2477	-3.091730	0.000217	2.170397	0.367675	0.000022
 329	3.2636e+01	3.2605	-3.065660	0.000262	2.620857	0.443985	0.000026
 330	3.2736e+01	3.2726	-3.049366	0.000164	1.638036	0.277491	0.000016
 331	3.2835e+01	3.2803	-3.031851	0.000176	1.760888	0.298303	0.000018
 332	3.2934e+01	3.2880	-3.011891	0.000201	2.006594	0.339926	0.000020
 333	3.3034e+01	3.2995	-2.989894	0.000221	2.211348	0.374613	0.000022
 334	3.3133e+01	3.3094	-2.964639	0.000254	2.538955	0.430111	0.000025
 335	3.3233e+01	3.3192	-2.952011	0.000127	1.269478	0.215055	0.000013
 336	3.3333e+01	3.3309	-2.930422	0.000217	2.170397	0.367675	0.000022
 337	3.3432e+01	3.3368	-2.912499	0.000180	1.801839	0.305240	0.000018
 338	3.3532e+01	3.3483	-2.889688	0.000229	2.293250	0.388487	0.000023
 339	3.3631e+01	3.3578	-2.868506	0.000213	2.129446	0.360738	0.000021
 340	3.3730e+01	3.3701	-2.848954	0.000197	1.965643	0.332989	0.000020
 341	3.3830e+01	3.3794	-2.827772	0.000213	2.129446	0.360738	0.000021
 342	3.3929e+01	3.3891	-2.806998	0.000209	2.088496	0.353801	0.000021
 343	3.4029e+01	3.3996	-2.785001	0.000221	2.211348	0.374613	0.000022
 344	3.4129e+01	3.4063	-2.764227	0.000209	2.088496	0.353801	0.000021
 345	3.4228e+01	3.4185	-2.740193	0.000242	2.416103	0.409299	0.000024
 346	3.4328e+01	3.4283	-2.716160	0.000242	2.416103	0.409299	0.000024
 347	3.4427e+01	3.4403	-2.697830	0.000184	1.842790	0.312177	0.000018
 348	3.4526e+01	3.4480	-2.673797	0.000242	2.416103	0.409299	0.000024
 349	3.4626e+01	3.4592	-2.654651	0.000192	1.924692	0.326052	0.000019
 350	3.4725e+01	3.4687	-2.633062	0.000217	2.170397	0.367675	0.000022
 351	3.4825e+01	3.4777	-2.609436	0.000238	2.375152	0.402362	0.000024
 352	3.4925e+01	3.4893	-2.590291	0.000192	1.924692	0.326052	0.000019
 353	3.5024e+01	3.4966	-2.565036	0.000254	2.538955	0.430111	0.000025
 354	3.5123e+01	3.5080	-2.546706	0.000184	1.842790	0.312177	0.000018
 355	3.5223e+01	3.5191	-2.523080	0.000238	2.375152	0.402362	0.000024
 356	3.5322e+01	3.5259	-2.503935	0.000192	1.924692	0.326052	0.000019
 357	3.5422e+01	3.5378	-2.482346	0.000217	2.170397	0.367675	0.000022
 358	3.5522e+01	3.5525	-2.460756	0.000217	2.170397	0.367675	0.000022
 359	3.5621e+01	3.5581	-2.437538	0.000233	2.334201	0.395424	0.000023
 360	3.5721e+01	3.5705	-2.414727	0.000229	2.293250	0.388487	0.000023
 361	3.5820e+01	3.5764	-2.394360	0.000205	2.047545	0.346863	0.000020
 362	3.5919e+01	3.5868	-2.370734	0.000238	2.375152	0.402362	0.000024
 363	3.6019e+01	3.5952	-2.349144	0.000217	2.170397	0.367675	0.000022
 364	3.6118e+01	3.6056	-2.325519	0.000238	2.375152	0.402362	0.000024
 365	3.6218e+01	3.6166	-2.304337	0.000213	2.129446	0.360738	0.000021
 366	3.6318e+01	3.6281	-2.284377	0.000201	2.006594	0.339926	0.000020
 367	3.6417e+01	3.6381	-2.262381	0.000221	2.211348	0.374613	0.000022
 368	3.6517e+01	3.6497	-2.237940	0.000246	2.457054	0.416236	0.000025
 369	3.6616e+01	3.6590	-2.218388	0.000197	1.965643	0.332989	0.000020
 370	3.6715e+01	3.6697	-2.196798	0.000217	2.170397	0.367675	0.000022
 371	3.6815e+01	3.6784	-2.175617	0.000213	2.129446	0.360738	0.000021
 372	3.6914e+01	3.6876	-2.152398	0.000233	2.334201	0.395424	0.000023
 373	3.7014e+01	3.7004	-2.128772	0.000238	2.375152	0.402362	0.000024
 374	3.7114e+01	3.7060	-2.104739	0.000242	2.416103	0.409299	0.000024
 375	3.7213e+01	3.7173	-2.082742	0.000221	2.211348	0.374613	0.000022
 376	3.7313e+01	3.7246	-2.059117	0.000238	2.375152	0.402362	0.000024
 377	3.7412e+01	3.7382	-2.038342	0.000209	2.088496	0.353801	0.000021
 378	3.7511e+01	3.7468	-2.019604	0.000188	1.883741	0.319114	0.000019
 379	3.7611e+01	3.7603	-1.996386	0.000233	2.334201	0.395424	0.000023
 380	3.7711e+01	3.7691	-1.971945	0.000246	2.457054	0.416236	0.000025
 381	3.7810e+01	3.7767	-1.953615	0.000184	1.842790	0.312177	0.000018
 382	3.7910e+01	3.7862	-1.934877	0.000188	1.883741	0.319114	0.000019
 383	3.8009e+01	3.7954	-1.911251	0.000238	2.375152	0.402362	0.000024
 384	3.8108e+01	3.8081	-1.893328	0.000180	1.801839	0.305240	0.000018
 385	3.8208e+01	3.8155	-1.872961	0.000205	2.047545	0.346863	0.000020
 386	3.8307e+01	3.8251	-1.851372	0.000217	2.170397	0.367675	0.000022
 387	3.8407e+01	3.8375	-1.834264	0.000172	1.719937	0.291365	0.000017
 388	3.8507e+01	3.8448	-1.810230	0.000242	2.416103	0.409299	0.000024
 389	3.8606e+01	3.8560	-1.788641	0.000217	2.170397	0.367675	0.000022
 390	3.8706e+01	3.8657	-1.769496	0.000192	1.924692	0.326052	0.000019
 391	3.8805e+01	3.8767	-1.747092	0.000225	2.252299	0.381550	0.000023
 392	3.8904e+01	3.8869	-1.727132	0.000201	2.006594	0.339926	0.000020
 393	3.9004e+01	3.8959	-1.702692	0.000246	2.457054	0.416236	0.000025
 394	3.9103e+01	3.9074	-1.688028	0.000147	1.474232	0.249742	0.000015
 395	3.9203e+01	3.9184	-1.663994	0.000242	2.416103	0.409299	0.000024
 396	3.9303e+01	3.9223	-1.646479	0.000176	1.760888	0.298303	0.000018
 397	3.9402e+01	3.9367	-1.626111	0.000205	2.047545	0.346863	0.000020
 398	3.9502e+01	3.9451	-1.603300	0.000229	2.293250	0.388487	0.000023
 399	3.9601e+01	3.9579	-1.584563	0.000188	1.883741	0.319114	0.000019
 400	3.9700e+01	3.9680	-1.565417	0.000192	1.924692	0.326052	0.000019
 401	3.9800e+01	3.9761	-1.539755	0.000258	2.579906	0.437048	0.000026
 402	3.9900e+01	3.9857	-1.514500	0.000254	2.538955	0.430111	0.000025
 403	3.9999e+01	3.9960	-1.496169	0.000184	1.842790	0.312177	0.000018
 404	4.0099e+01	4.0052	-1.469692	0.000266	2.661808	0.450922	0.000027
 405	4.0198e+01	4.0168	-1.449325	0.000205	2.047545	0.346863	0.000020
 406	4.0297e+01	4.0273	-1.419589	0.000299	2.989415	0.506421	0.000030
 407	4.0397e+01	4.0352	-1.398407	0.000213	2.129446	0.360738	0.000021
 408	4.0496e+01	4.0470	-1.374781	0.000238	2.375152	0.402362	0.000024
 409	4.0596e+01	4.0552	-1.345860	0.000291	2.907513	0.492546	0.000029
 410	4.0696e+01	4.0687	-1.323456	0.000225	2.252299	0.381550	0.000023
 411	4.0795e+01	4.0762	-1.299423	0.000242	2.416103	0.409299	0.000024
 412	4.0895e+01	4.0821	-1.276204	0.000233	2.334201	0.395424	0.000023
 413	4.0994e+01	4.0965	-1.252986	0.000233	2.334201	0.395424	0.000023
 414	4.1093e+01	4.1091	-1.230582	0.000225	2.252299	0.381550	0.000023
 415	4.1193e+01	4.1144	-1.204105	0.000266	2.661808	0.450922	0.000027
 416	4.1292e+01	4.1251	-1.175183	0.000291	2.907513	0.492546	0.000029
 417	4.1392e+01	4.1364	-1.150743	0.000246	2.457054	0.416236	0.000025
 418	4.1492e+01	4.1441	-1.126709	0.000242	2.416103	0.409299	0.000024
 419	4.1591e+01	4.1563	-1.100640	0.000262	2.620857	0.443985	0.000026
 420	4.1691e+01	4.1634	-1.076199	0.000246	2.457054	0.416236	0.000025
 421	4.1790e+01	4.1763	-1.053388	0.000229	2.293250	0.388487	0.000023
 422	4.1889e+01	4.1842	-1.030577	0.000229	2.293250	0.388487	0.000023
 423	4.1989e+01	4.1968	-1.004099	0.000266	2.661808	0.450922	0.000027
 424	4.2089e+01	4.2052	-0.980881	0.000233	2.334201	0.395424	0.000023
 425	4.2188e+01	4.2140	-0.954811	0.000262	2.620857	0.443985	0.000026
 426	4.2288e+01	4.2276	-0.931592	0.000233	2.334201	0.395424	0.000023
 427	4.2387e+01	4.2326	-0.912447	0.000192	1.924692	0.326052	0.000019
 428	4.2486e+01	4.2469	-0.886377	0.000262	2.620857	0.443985	0.000026
 429	4.2586e+01	4.2553	-0.863974	0.000225	2.252299	0.381550	0.000023
 430	4.2685e+01	4.2645	-0.840755	0.000233	2.334201	0.395424	0.000023
 431	4.2785e+01	4.2754	-0.821610	0.000192	1.924692	0.326052	0.000019
 432	4.2885e+01	4.2835	-0.797984	0.000238	2.375152	0.402362	0.000024
 433	4.2984e+01	4.2971	-0.775580	0.000225	2.252299	0.381550	0.000023
 434	4.3084e+01	4.3019	-0.748696	0.000270	2.702759	0.457860	0.000027
 435	4.3183e+01	4.3166	-0.729551	0.000192	1.924692	0.326052	0.000019
 436	4.3282e+01	4.3214	-0.706739	0.000229	2.293250	0.388487	0.000023
 437	4.3382e+01	4.3363	-0.679040	0.000278	2.784661	0.471734	0.000028
 438	4.3481e+01	4.3447	-0.658673	0.000205	2.047545	0.346863	0.000020
 439	4.3581e+01	4.3557	-0.634640	0.000242	2.416103	0.409299	0.000024
 440	4.3681e+01	4.3638	-0.609384	0.000254	2.538955	0.430111	0.000025
 441	4.3780e+01	4.3726	-0.593091	0.000164	1.638036	0.277491	0.000016
 442	4.3880e+01	4.3833	-0.569465	0.000238	2.375152	0.402362	0.000024
 443	4.3979e+01	4.3939	-0.543802	0.000258	2.579906	0.437048	0.000026
 444	4.4078e+01	4.4020	-0.521806	0.000221	2.211348	0.374613	0.000022
 445	4.4178e+01	4.4141	-0.499809	0.000221	2.211348	0.374613	0.000022
 446	4.4278e+01	4.4216	-0.478220	0.000217	2.170397	0.367675	0.000022
 447	4.4377e+01	4.4350	-0.453780	0.000246	2.457054	0.416236	0.000025
 448	4.4477e+01	4.4442	-0.431783	0.000221	2.211348	0.374613	0.000022
 449	4.4576e+01	4.4549	-0.411416	0.000205	2.047545	0.346863	0.000020
 450	4.4675e+01	4.4630	-0.387790	0.000238	2.375152	0.402362	0.000024
 451	4.4775e+01	4.4758	-0.369052	0.000188	1.883741	0.319114	0.000019
 452	4.4874e+01	4.4845	-0.341760	0.000274	2.743710	0.464797	0.000027
 453	4.4974e+01	4.4922	-0.319357	0.000225	2.252299	0.381550	0.000023
 454	4.5074e+01	4.5040	-0.300619	0.000188	1.883741	0.319114	0.000019
 455	4.5173e+01	4.5139	-0.276178	0.000246	2.457054	0.416236	0.000025
 456	4.5273e+01	4.5229	-0.256218	0.000201	2.006594	0.339926	0.000020
 457	4.5372e+01	4.5309	-0.233407	0.000229	2.293250	0.388487	0.000023
 458	4.5471e+01	4.5459	-0.208967	0.000246	2.457054	0.416236	0.000025
 459	4.5571e+01	4.5565	-0.190229	0.000188	1.883741	0.319114	0.000019
 460	4.5670e+01	4.5626	-0.172306	0.000180	1.801839	0.305240	0.000018
 461	4.5770e+01	4.5739	-0.149495	0.000229	2.293250	0.388487	0.000023
 462	4.5870e+01	4.5836	-0.124239	0.000254	2.538955	0.430111	0.000025
 463	4.5969e+01	4.5921	-0.102650	0.000217	2.170397	0.367675	0.000022
 464	4.6069e+01	4.6010	-0.083098	0.000197	1.965643	0.332989	0.000020
 465	4.6168e+01	4.6148	-0.060694	0.000225	2.252299	0.381550	0.000023
 466	4.6267e+01	4.6216	-0.039920	0.000209	2.088496	0.353801	0.000021
 467	4.6367e+01	4.6325	-0.012220	0.000278	2.784661	0.471734	0.000028
 468	4.6467e+01	4.6410	0.013035	0.000254	2.538955	0.430111	0.000025
 469	4.6566e+01	4.6526	0.037068	0.000242	2.416103	0.409299	0.000024
 470	4.6666e+01	4.6641	0.060287	0.000233	2.334201	0.395424	0.000023
 471	4.6765e+01	4.6729	0.085542	0.000254	2.538955	0.430111	0.000025
 472	4.6864e+01	4.6842	0.108760	0.000233	2.334201	0.395424	0.000023
 473	4.6964e+01	4.6925	0.131979	0.000233	2.334201	0.395424	0.000023
 474	4.7063e+01	4.7065	0.151124	0.000192	1.924692	0.326052	0.000019
 475	4.7163e+01	4.7135	0.175972	0.000250	2.498004	0.423173	0.000025
 476	4.7263e+01	4.7232	0.198376	0.000225	2.252299	0.381550	0.000023
 477	4.7362e+01	4.7346	0.223224	0.000250	2.498004	0.423173	0.000025
 478	4.7462e+01	4.7427	0.245220	0.000221	2.211348	0.374613	0.000022
 479	4.7561e+01	4.7535	0.272512	0.000274	2.743710	0.464797	0.000027
 480	4.7660e+01	4.7622	0.293287	0.000209	2.088496	0.353801	0.000021
 481	4.7760e+01	4.7735	0.320986	0.000278	2.784661	0.471734	0.000028
 482	4.7859e+01	4.7839	0.340131	0.000192	1.924692	0.326052	0.000019
 483	4.7959e+01	4.7909	0.365386	0.000254	2.538955	0.430111	0.000025
 484	4.8059e+01	4.8013	0.388605	0.000233	2.334201	0.395424	0.000023
 485	4.8158e+01	4.8135	0.412231	0.000238	2.375152	0.402362	0.000024
 486	4.8258e+01	4.8207	0.430154	0.000180	1.801839	0.305240	0.000018
 487	4.8357e+01	4.8331	0.447669	0.000176	1.760888	0.298303	0.000018
 488	4.8456e+01	4.8418	0.468444	0.000209	2.088496	0.353801	0.000021
 489	4.8556e+01	4.8495	0.488404	0.000201	2.006594	0.339926	0.000020
 490	4.8656e+01	4.8592	0.508771	0.000205	2.047545	0.346863	0.000020
 491	4.8755e+01	4.8720	0.529138	0.000205	2.047545	0.346863	0.000020
 492	4.8855e+01	4.8808	0.546246	0.000172	1.719937	0.291365	0.000017
 493	4.8954e+01	4.8904	0.564984	0.000188	1.883741	0.319114	0.000019
 494	4.9053e+01	4.9036	0.583722	0.000188	1.883741	0.319114	0.000019
 495	4.9153e+01	4.9122	0.602052	0.000184	1.842790	0.312177	0.000018
 496	4.9252e+01	4.9198	0.621605	0.000197	1.965643	0.332989	0.000020
 497	4.9352e+01	4.9326	0.643601	0.000221	2.211348	0.374613	0.000022
 498	4.9452e+01	4.9387	0.664376	0.000209	2.088496	0.353801	0.000021
 499	4.9551e+01	4.9507	0.681891	0.000176	1.760888	0.298303	0.000018
 500	4.9651e+01	4.9613	0.698592	0.000168	1.678987	0.284428	0.000017
 501	4.9750e+01	4.9703	0.717330	0.000188	1.883741	0.319114	0.000019
 502	4.9849e+01	4.9805	0.733217	0.000160	1.597085	0.270553	0.000016
 503	4.9949e+01	4.9893	0.755620	0.000225	2.252299	0.381550	0.000023
 504	5.0048e+01	5.0030	0.773136	0.000176	1.760888	0.298303	0.000018
 505	5.0148e+01	5.0103	0.793503	0.000205	2.047545	0.346863	0.000020
 506	5.0248e+01	5.0213	0.809797	0.000164	1.638036	0.277491	0.000016
 507	5.0347e+01	5.0312	0.827720	0.000180	1.801839	0.305240	0.000018
 508	5.0447e+01	5.0402	0.850124	0.000225	2.252299	0.381550	0.000023
 509	5.0546e+01	5.0507	0.868454	0.000184	1.842790	0.312177	0.000018
 510	5.0645e+01	5.0623	0.889229	0.000209	2.088496	0.353801	0.000021
 511	5.0745e+01	5.0710	0.911225	0.000221	2.211348	0.374613	0.000022
 512	5.0844e+01	5.0787	0.927519	0.000164	1.638036	0.277491	0.000016
 513	5.0944e+01	5.0881	0.949108	0.000217	2.170397	0.367675	0.000022
 514	5.1044e+01	5.0990	0.972327	0.000233	2.334201	0.395424	0.000023
 515	5.1143e+01	5.1110	0.991879	0.000197	1.965643	0.332989	0.000020
 516	5.1242e+01	5.1199	1.013061	0.000213	2.129446	0.360738	0.000021
 517	5.1342e+01	5.1295	1.032206	0.000192	1.924692	0.326052	0.000019
 518	5.1441e+01	5.1397	1.052166	0.000201	2.006594	0.339926	0.000020
 519	5.1541e+01	5.1493	1.072533	0.000205	2.047545	0.346863	0.000020
 520	5.1641e+01	5.1612	1.090863	0.000184	1.842790	0.312177	0.000018
 521	5.1740e+01	5.1719	1.112860	0.000221	2.211348	0.374613	0.000022
 522	5.1840e+01	5.1804	1.133634	0.000209	2.088496	0.353801	0.000021
 523	5.1939e+01	5.1905	1.154001	0.000205	2.047545	0.346863	0.000020
 524	5.2038e+01	5.2018	1.174776	0.000209	2.088496	0.353801	0.000021
 525	5.2138e+01	5.2087	1.195958	0.000213	2.129446	0.360738	0.000021
 526	5.2237e+01	5.2191	1.215918	0.000201	2.006594	0.339926	0.000020
 527	5.2337e+01	5.2277	1.234655	0.000188	1.883741	0.319114	0.000019
 528	5.2437e+01	5.2415	1.259503	0.000250	2.498004	0.423173	0.000025
 529	5.2536e+01	5.2493	1.277834	0.000184	1.842790	0.312177	0.000018
 530	5.2636e+01	5.2595	1.299015	0.000213	2.129446	0.360738	0.000021
 531	5.2735e+01	5.2724	1.321012	0.000221	2.211348	0.374613	0.000022
 532	5.2834e+01	5.2787	1.340564	0.000197	1.965643	0.332989	0.000020
 533	5.2934e+01	5.2896	1.360117	0.000197	1.965643	0.332989	0.000020
 534	5.3033e+01	5.2988	1.378855	0.000188	1.883741	0.319114	0.000019
 535	5.3133e+01	5.3121	1.399222	0.000205	2.047545	0.346863	0.000020
 536	5.3233e+01	5.3170	1.421218	0.000221	2.211348	0.374613	0.000022
 537	5.3332e+01	5.3274	1.438734	0.000176	1.760888	0.298303	0.000018
 538	5.3431e+01	5.3402	1.463989	0.000254	2.538955	0.430111	0.000025
 539	5.3531e+01	5.3506	1.483134	0.000192	1.924692	0.326052	0.000019
 540	5.3630e+01	5.3622	1.505131	0.000221	2.211348	0.374613	0.000022
 541	5.3730e+01	5.3689	1.527127	0.000221	2.211348	0.374613	0.000022
 542	5.3830e+01	5.3776	1.550346	0.000233	2.334201	0.395424	0.000023
 543	5.3929e+01	5.3889	1.570713	0.000205	2.047545	0.346863	0.000020
 544	5.4029e+01	5.3976	1.590265	0.000197	1.965643	0.332989	0.000020
 545	5.4128e+01	5.4108	1.614706	0.000246	2.457054	0.416236	0.000025
 546	5.4227e+01	5.4183	1.631814	0.000172	1.719937	0.291365	0.000017
 547	5.4327e+01	5.4276	1.650552	0.000188	1.883741	0.319114	0.000019
 548	5.4426e+01	5.4385	1.673363	0.000229	2.293250	0.388487	0.000023
 549	5.4526e+01	5.4487	1.692508	0.000192	1.924692	0.326052	0.000019
 550	5.4626e+01	5.4583	1.712468	0.000201	2.006594	0.339926	0.000020
 551	5.4725e+01	5.4664	1.732021	0.000197	1.965643	0.332989	0.000020
 552	5.4825e+01	5.4766	1.750351	0.000184	1.842790	0.312177	0.000018
 553	5.4924e+01	5.4864	1.767459	0.000172	1.719937	0.291365	0.000017
 554	5.5023e+01	5.4995	1.788234	0.000209	2.088496	0.353801	0.000021
 555	5.5123e+01	5.5085	1.807379	0.000192	1.924692	0.326052	0.000019
 556	5.5222e+01	5.5169	1.828968	0.000217	2.170397	0.367675	0.000022
 557	5.5322e+01	5.5289	1.845262	0.000164	1.638036	0.277491	0.000016
 558	5.5422e+01	5.5398	1.867258	0.000221	2.211348	0.374613	0.000022
 559	5.5521e+01	5.5494	1.889662	0.000225	2.252299	0.381550	0.000023
 560	5.5620e+01	5.5576	1.906363	0.000168	1.678987	0.284428	0.000017
 561	5.5720e+01	5.5676	1.924286	0.000180	1.801839	0.305240	0.000018
 562	5.5819e+01	5.5790	1.942209	0.000180	1.801839	0.305240	0.000018
 563	5.5919e+01	5.5869	1.960947	0.000188	1.883741	0.319114	0.000019
 564	5.6019e+01	5.5964	1.978870	0.000180	1.801839	0.305240	0.000018
 565	5.6118e+01	5.6091	2.001274	0.000225	2.252299	0.381550	0.000023
 566	5.6218e+01	5.6155	2.023270	0.000221	2.211348	0.374613	0.000022
 567	5.6317e+01	5.6280	2.037935	0.000147	1.474232	0.249742	0.000015
 568	5.6416e+01	5.6413	2.059524	0.000217	2.170397	0.367675	0.000022
 569	5.6516e+01	5.6489	2.082742	0.000233	2.334201	0.395424	0.000023
 570	5.6615e+01	5.6597	2.103924	0.000213	2.129446	0.360738	0.000021
 571	5.6715e+01	5.6680	2.124291	0.000205	2.047545	0.346863	0.000020
 572	5.6815e+01	5.6774	2.147510	0.000233	2.334201	0.395424	0.000023
 573	5.6914e+01	5.6869	2.168284	0.000209	2.088496	0.353801	0.000021
 574	5.7014e+01	5.6969	2.191910	0.000238	2.375152	0.402362	0.000024
 575	5.7113e+01	5.7081	2.217166	0.000254	2.538955	0.430111	0.000025
 576	5.7212e+01	5.7174	2.241199	0.000242	2.416103	0.409299	0.000024
 577	5.7312e+01	5.7269	2.264825	0.000238	2.375152	0.402362	0.000024
 578	5.7411e+01	5.7391	2.288858	0.000242	2.416103	0.409299	0.000024
 579	5.7511e+01	5.7471	2.311262	0.000225	2.252299	0.381550	0.000023
 580	5.7611e+01	5.7583	2.333258	0.000221	2.211348	0.374613	0.000022
 581	5.7710e+01	5.7673	2.355662	0.000225	2.252299	0.381550	0.000023
 582	5.7809e+01	5.7771	2.378473	0.000229	2.293250	0.388487	0.000023
 583	5.7909e+01	5.7887	2.399248	0.000209	2.088496	0.353801	0.000021
 584	5.8008e+01	5.7973	2.419615	0.000205	2.047545	0.346863	0.000020
 585	5.8108e+01	5.8076	2.450573	0.000311	3.112268	0.527232	0.000031
 586	5.8208e+01	5.8185	2.470533	0.000201	2.006594	0.339926	0.000020
 587	5.8307e+01	5.8299	2.500676	0.000303	3.030366	0.513358	0.000030
 588	5.8407e+01	5.8353	2.520228	0.000197	1.965643	0.332989	0.000020
 589	5.8506e+01	5.8470	2.542225	0.000221	2.211348	0.374613	0.000022
 590	5.8605e+01	5.8594	2.566258	0.000242	2.416103	0.409299	0.000024
 591	5.8705e+01	5.8687	2.588662	0.000225	2.252299	0.381550	0.000023
 592	5.8804e+01	5.8772	2.607807	0.000192	1.924692	0.326052	0.000019
 593	5.8904e+01	5.8869	2.629804	0.000221	2.211348	0.374613	0.000022
 594	5.9004e+01	5.8987	2.655873	0.000262	2.620857	0.443985	0.000026
 595	5.9103e+01	5.9084	2.676241	0.000205	2.047545	0.346863	0.000020
 596	5.9203e+01	5.9176	2.698644	0.000225	2.252299	0.381550	0.000023
 597	5.9302e+01	5.9281	2.720234	0.000217	2.170397	0.367675	0.000022
 598	5.9401e+01	5.9351	2.739786	0.000197	1.965643	0.332989	0.000020
 599	5.9501e+01	5.9447	2.760153	0.000205	2.047545	0.346863	0.000020
 600	5.9600e+01	5.9571	2.782557	0.000225	2.252299	0.381550	0.000023
 601	5.9700e+01	5.9675	2.802517	0.000201	2.006594	0.339926	0.000020
 602	5.9800e+01	5.9760	2.825328	0.000229	2.293250	0.388487	0.000023
 603	5.9899e+01	5.9868	2.853435	0.000283	2.825612	0.478672	0.000028
 604	5.9998e+01	5.9954	2.873802	0.000205	2.047545	0.346863	0.000020
 605	6.0098e+01	6.0044	2.894169	0.000205	2.047545	0.346863	0.000020
 606	6.0197e+01	6.0146	2.916573	0.000225	2.252299	0.381550	0.000023
 607	6.0297e+01	6.0270	2.938162	0.000217	2.170397	0.367675	0.000022
 608	6.0397e+01	6.0374	2.956085	0.000180	1.801839	0.305240	0.000018
 609	6.0496e+01	6.0455	2.978489	0.000225	2.252299	0.381550	0.000023
 610	6.0596e+01	6.0560	2.999671	0.000213	2.129446	0.360738	0.000021
 611	6.0695e+01	6.0669	3.020038	0.000205	2.047545	0.346863	0.000020
 612	6.0794e+01	6.0751	3.043256	0.000233	2.334201	0.395424	0.000023
 613	6.0894e+01	6.0863	3.067289	0.000242	2.416103	0.409299	0.000024
 614	6.0993e+01	6.0947	3.084398	0.000172	1.719937	0.291365	0.000017
 615	6.1093e+01	6.1062	3.104358	0.000201	2.006594	0.339926	0.000020
 616	6.1193e+01	6.1158	3.126761	0.000225	2.252299	0.381550	0.000023
 617	6.1292e+01	6.1266	3.146721	0.000201	2.006594	0.339926	0.000020
 618	6.1392e+01	6.1349	3.168718	0.000221	2.211348	0.374613	0.000022
 619	6.1491e+01	6.1466	3.193158	0.000246	2.457054	0.416236	0.000025
 620	6.1590e+01	6.1550	3.213118	0.000201	2.006594	0.339926	0.000020
 621	6.1690e+01	6.1626	3.233893	0.000209	2.088496	0.353801	0.000021
 622	6.1789e+01	6.1768	3.255482	0.000217	2.170397	0.367675	0.000022
 623	6.1889e+01	6.1842	3.275849	0.000205	2.047545	0.346863	0.000020
 624	6.1989e+01	6.1945	3.297438	0.000217	2.170397	0.367675	0.000022
 625	6.2088e+01	6.2074	3.317805	0.000205	2.047545	0.346863	0.000020
 626	6.2188e+01	6.2150	3.336543	0.000188	1.883741	0.319114	0.000019
 627	6.2287e+01	6.2276	3.356095	0.000197	1.965643	0.332989	0.000020
 628	6.2386e+01	6.2357	3.373204	0.000172	1.719937	0.291365	0.000017
 629	6.2486e+01	6.2466	3.394793	0.000217	2.170397	0.367675	0.000022
 630	6.2586e+01	6.2534	3.417604	0.000229	2.293250	0.388487	0.000023
 631	6.2685e+01	6.2654	3.438786	0.000213	2.129446	0.360738	0.000021
 632	6.2785e+01	6.2724	3.459560	0.000209	2.088496	0.353801	0.000021
 633	6.2884e+01	6.2856	3.483186	0.000238	2.375152	0.402362	0.000024
 634	6.2983e+01	6.2936	3.502331	0.000192	1.924692	0.326052	0.000019
 635	6.3083e+01	6.3042	3.524735	0.000225	2.252299	0.381550	0.000023
 636	6.3182e+01	6.3139	3.548768	0.000242	2.416103	0.409299	0.000024
 637	6.3282e+01	6.3226	3.570765	0.000221	2.211348	0.374613	0.000022
 638	6.3382e+01	6.3323	3.594391	0.000238	2.375152	0.402362	0.000024
 639	6.3481e+01	6.3439	3.617609	0.000233	2.334201	0.395424	0.000023
 640	6.3581e+01	6.3539	3.637976	0.000205	2.047545	0.346863	0.000020
 641	6.3680e+01	6.3631	3.657529	0.000197	1.965643	0.332989	0.000020
 642	6.3779e+01	6.3747	3.677896	0.000205	2.047545	0.346863	0.000020
 643	6.3879e+01	6.3831	3.703151	0.000254	2.538955	0.430111	0.000025
 644	6.3978e+01	6.3914	3.723518	0.000205	2.047545	0.346863	0.000020
 645	6.4078e+01	6.4043	3.745515	0.000221	2.211348	0.374613	0.000022
 646	6.4177e+01	6.4132	3.772399	0.000270	2.702759	0.457860	0.000027
 647	6.4277e+01	6.4241	3.792359	0.000201	2.006594	0.339926	0.000020
 648	6.4376e+01	6.4342	3.816392	0.000242	2.416103	0.409299	0.000024
 649	6.4476e+01	6.4425	3.840833	0.000246	2.457054	0.416236	0.000025
 650	6.4576e+01	6.4565	3.864459	0.000238	2.375152	0.402362	0.000024
 651	6.4675e+01	6.4629	3.880345	0.000160	1.597085	0.270553	0.000016
 652	6.4775e+01	6.4732	3.901527	0.000213	2.129446	0.360738	0.000021
 653	6.4874e+01	6.4815	3.921894	0.000205	2.047545	0.346863	0.000020
 654	6.4974e+01	6.4935	3.940632	0.000188	1.883741	0.319114	0.000019
 655	6.5073e+01	6.5031	3.961814	0.000213	2.129446	0.360738	0.000021
 656	6.5172e+01	6.5109	3.973627	0.000119	1.187576	0.201181	0.000012
 657	6.5272e+01	6.5231	3.997252	0.000238	2.375152	0.402362	0.000024
 658	6.5371e+01	6.5324	4.016398	0.000192	1.924692	0.326052	0.000019
 659	6.5471e+01	6.5423	4.034728	0.000184	1.842790	0.312177	0.000018
 660	6.5570e+01	6.5529	4.047356	0.000127	1.269478	0.215055	0.000013
 661	6.5670e+01	6.5630	4.068537	0.000213	2.129446	0.360738	0.000021
 662	6.5769e+01	6.5725	4.084424	0.000160	1.597085	0.270553	0.000016
 663	6.5869e+01	6.5841	4.105198	0.000209	2.088496	0.353801	0.000021
 664	6.5969e+01	6.5923	4.123936	0.000188	1.883741	0.319114	0.000019
 665	6.6068e+01	6.6027	4.141859	0.000180	1.801839	0.305240	0.000018
 666	6.6168e+01	6.6164	4.155709	0.000139	1.392330	0.235867	0.000014
 667	6.6267e+01	6.6196	4.172817	0.000172	1.719937	0.291365	0.000017
 668	6.6367e+01	6.6360	4.191555	0.000188	1.883741	0.319114	0.000019
 669	6.6466e+01	6.6424	4.204997	0.000135	1.351379	0.228930	0.000014
 670	6.6566e+01	6.6523	4.224957	0.000201	2.006594	0.339926	0.000020
 671	6.6665e+01	6.6610	4.240436	0.000156	1.556134	0.263616	0.000016
 672	6.6764e+01	6.6726	4.259988	0.000197	1.965643	0.332989	0.000020
 673	6.6864e+01	6.6836	4.278726	0.000188	1.883741	0.319114	0.000019
 674	6.6963e+01	6.6946	4.296242	0.000176	1.760888	0.298303	0.000018
 675	6.7063e+01	6.7018	4.314572	0.000184	1.842790	0.312177	0.000018
 676	6.7162e+01	6.7123	4.333310	0.000188	1.883741	0.319114	0.000019
 677	6.7262e+01	6.7238	4.350418	0.000172	1.719937	0.291365	0.000017
 678	6.7362e+01	6.7315	4.366305	0.000160	1.597085	0.270553	0.000016
 679	6.7461e+01	6.7429	4.392375	0.000262	2.620857	0.443985	0.000026
 680	6.7561e+01	6.7503	4.409483	0.000172	1.719937	0.291365	0.000017
 681	6.7660e+01	6.7616	4.430258	0.000209	2.088496	0.353801	0.000021
 682	6.7760e+01	6.7731	4.450217	0.000201	2.006594	0.339926	0.000020
 683	6.7859e+01	6.7814	4.469362	0.000192	1.924692	0.326052	0.000019
 684	6.7959e+01	6.7948	4.486064	0.000168	1.678987	0.284428	0.000017
 685	6.8058e+01	6.8028	4.507653	0.000217	2.170397	0.367675	0.000022
 686	6.8157e+01	6.8124	4.523946	0.000164	1.638036	0.277491	0.000016
 687	6.8257e+01	6.8211	4.543906	0.000201	2.006594	0.339926	0.000020
 688	6.8356e+01	6.8322	4.563459	0.000197	1.965643	0.332989	0.000020
 689	6.8456e+01	6.8436	4.583011	0.000197	1.965643	0.332989	0.000020
 690	6.8555e+01	6.8506	4.603378	0.000205	2.047545	0.346863	0.000020
 691	6.8655e+01	6.8587	4.618857	0.000156	1.556134	0.263616	0.000016
 692	6.8754e+01	6.8710	4.645742	0.000270	2.702759	0.457860	0.000027
 693	6.8854e+01	6.8800	4.659999	0.000143	1.433281	0.242804	0.000014
 694	6.8954e+01	6.8913	4.681995	0.000221	2.211348	0.374613	0.000022
 695	6.9053e+01	6.9030	4.696660	0.000147	1.474232	0.249742	0.000015
 696	6.9153e+01	6.9110	4.718656	0.000221	2.211348	0.374613	0.000022
 697	6.9252e+01	6.9216	4.739023	0.000205	2.047545	0.346863	0.000020
 698	6.9352e+01	6.9308	4.756539	0.000176	1.760888	0.298303	0.000018
 699	6.9451e+01	6.9423	4.777313	0.000209	2.088496	0.353801	0.000021
 700	6.9550e+01	6.9489	4.796866	0.000197	1.965643	0.332989	0.000020
 701	6.9650e+01	6.9602	4.811938	0.000152	1.515183	0.256679	0.000015
 702	6.9749e+01	6.9701	4.833934	0.000221	2.211348	0.374613	0.000022
 703	6.9849e+01	6.9814	4.854301	0.000205	2.047545	0.346863	0.000020
 704	6.9948e+01	6.9923	4.876705	0.000225	2.252299	0.381550	0.000023
 705	7.0048e+01	7.0017	4.893813	0.000172	1.719937	0.291365	0.000017
 706	7.0147e+01	7.0094	4.911329	0.000176	1.760888	0.298303	0.000018
 707	7.0247e+01	7.0208	4.932511	0.000213	2.129446	0.360738	0.000021
 708	7.0347e+01	7.0281	4.952471	0.000201	2.006594	0.339926	0.000020
 709	7.0446e+01	7.0410	4.972838	0.000205	2.047545	0.346863	0.000020
 710	7.0546e+01	7.0490	4.995649	0.000229	2.293250	0.388487	0.000023
 711	7.0645e+01	7.0588	5.010721	0.000152	1.515183	0.256679	0.000015
 712	7.0745e+01	7.0721	5.034347	0.000238	2.375152	0.402362	0.000024
 713	7.0844e+01	7.0801	5.053492	0.000192	1.924692	0.326052	0.000019
 714	7.0944e+01	7.0885	5.072637	0.000192	1.924692	0.326052	0.000019
 715	7.1043e+01	7.1017	5.091375	0.000188	1.883741	0.319114	0.000019
 716	7.1142e+01	7.1099	5.108483	0.000172	1.719937	0.291365	0.000017
 717	7.1242e+01	7.1207	5.132109	0.000238	2.375152	0.402362	0.000024
 718	7.1341e+01	7.1287	5.148403	0.000164	1.638036	0.277491	0.000016
 719	7.1441e+01	7.1397	5.166326	0.000180	1.801839	0.305240	0.000018
 720	7.1540e+01	7.1485	5.183027	0.000168	1.678987	0.284428	0.000017
 721	7.1640e+01	7.1593	5.202579	0.000197	1.965643	0.332989	0.000020
 722	7.1740e+01	7.1676	5.217651	0.000152	1.515183	0.256679	0.000015
 723	7.1839e+01	7.1822	5.234352	0.000168	1.678987	0.284428	0.000017
 724	7.1939e+01	7.1883	5.255534	0.000213	2.129446	0.360738	0.000021
 725	7.2038e+01	7.1992	5.273457	0.000180	1.801839	0.305240	0.000018
 726	7.2138e+01	7.2110	5.296268	0.000229	2.293250	0.388487	0.000023
 727	7.2237e+01	7.2207	5.312562	0.000164	1.638036	0.277491	0.000016
 728	7.2337e+01	7.2301	5.328855	0.000164	1.638036	0.277491	0.000016
 729	7.2436e+01	7.2370	5.345149	0.000164	1.638036	0.277491	0.000016
 730	7.2535e+01	7.2503	5.362665	0.000176	1.760888	0.298303	0.000018
 731	7.2635e+01	7.2576	5.380995	0.000184	1.842790	0.312177	0.000018
 732	7.2734e+01	7.2695	5.399733	0.000188	1.883741	0.319114	0.000019
 733	7.2834e+01	7.2797	5.417656	0.000180	1.801839	0.305240	0.000018
 734	7.2933e+01	7.2887	5.434764	0.000172	1.719937	0.291365	0.000017
 735	7.3033e+01	7.3000	5.456761	0.000221	2.211348	0.374613	0.000022
 736	7.3132e+01	7.3070	5.474684	0.000180	1.801839	0.305240	0.000018
 737	7.3232e+01	7.3208	5.497088	0.000225	2.252299	0.381550	0.000023
 738	7.3332e+01	7.3309	5.515011	0.000180	1.801839	0.305240	0.000018
 739	7.3431e+01	7.3389	5.537415	0.000225	2.252299	0.381550	0.000023
 740	7.3531e+01	7.3476	5.556560	0.000192	1.924692	0.326052	0.000019
 741	7.3630e+01	7.3592	5.580186	0.000238	2.375152	0.402362	0.000024
 742	7.3730e+01	7.3677	5.601775	0.000217	2.170397	0.367675	0.000022
 743	7.3829e+01	7.3780	5.624586	0.000229	2.293250	0.388487	0.000023
 744	7.3928e+01	7.3893	5.646582	0.000221	2.211348	0.374613	0.000022
 745	7.4028e+01	7.3975	5.668172	0.000217	2.170397	0.367675	0.000022
 746	7.4127e+01	7.4088	5.695464	0.000274	2.743710	0.464797	0.000027
 747	7.4227e+01	7.4188	5.712165	0.000168	1.678987	0.284428	0.000017
 748	7.4326e+01	7.4287	5.734568	0.000225	2.252299	0.381550	0.000023
 749	7.4426e+01	7.4415	5.754936	0.000205	2.047545	0.346863	0.000020
 750	7.4525e+01	7.4480	5.776932	0.000221	2.211348	0.374613	0.000022
 751	7.4625e+01	7.4581	5.802187	0.000254	2.538955	0.430111	0.000025
 752	7.4725e+01	7.4693	5.822962	0.000209	2.088496	0.353801	0.000021
 753	7.4824e+01	7.4770	5.851068	0.000283	2.825612	0.478672	0.000028
 754	7.4924e+01	7.4892	5.871028	0.000201	2.006594	0.339926	0.000020
 755	7.5023e+01	7.4992	5.894247	0.000233	2.334201	0.395424	0.000023
 756	7.5123e+01	7.5106	5.917058	0.000229	2.293250	0.388487	0.000023
 757	7.5222e+01	7.5188	5.939462	0.000225	2.252299	0.381550	0.000023
 758	7.5322e+01	7.5277	5.960236	0.000209	2.088496	0.353801	0.000021
 759	7.5421e+01	7.5411	5.979381	0.000192	1.924692	0.326052	0.000019
 760	7.5520e+01	7.5488	6.001785	0.000225	2.252299	0.381550	0.000023
 761	7.5620e+01	7.5578	6.020930	0.000192	1.924692	0.326052	0.000019
 762	7.5719e+01	7.5684	6.041297	0.000205	2.047545	0.346863	0.000020
 763	7.5819e+01	7.5785	6.062479	0.000213	2.129446	0.360738	0.000021
 764	7.5918e+01	7.5871	6.081624	0.000192	1.924692	0.326052	0.000019
 765	7.6018e+01	7.6006	6.106065	0.000246	2.457054	0.416236	0.000025
 766	7.6118e+01	7.6070	6.126025	0.000201	2.006594	0.339926	0.000020
 767	7.6217e+01	7.6197	6.143948	0.000180	1.801839	0.305240	0.000018
 768	7.6317e+01	7.6263	6.162278	0.000184	1.842790	0.312177	0.000018
 769	7.6416e+01	7.6368	6.185089	0.000229	2.293250	0.388487	0.000023
 770	7.6516e+01	7.6490	6.205864	0.000209	2.088496	0.353801	0.000021
 771	7.6615e+01	7.6579	6.229082	0.000233	2.334201	0.395424	0.000023
 772	7.6715e+01	7.6669	6.247413	0.000184	1.842790	0.312177	0.000018
 773	7.6814e+01	7.6778	6.270224	0.000229	2.293250	0.388487	0.000023
 774	7.6913e+01	7.6887	6.290591	0.000205	2.047545	0.346863	0.000020
 775	7.7013e+01	7.6961	6.314217	0.000238	2.375152	0.402362	0.000024
 776	7.7112e+01	7.7084	6.333769	0.000197	1.965643	0.332989	0.000020
 777	7.7212e+01	7.7177	6.350878	0.000172	1.719937	0.291365	0.000017
 778	7.7311e+01	7.7291	6.370023	0.000192	1.924692	0.326052	0.000019
 779	7.7411e+01	7.7375	6.392019	0.000221	2.211348	0.374613	0.000022
 780	7.7510e+01	7.7483	6.412794	0.000209	2.088496	0.353801	0.000021
 781	7.7610e+01	7.7563	6.429902	0.000172	1.719937	0.291365	0.000017
 782	7.7710e+01	7.7653	6.449862	0.000201	2.006594	0.339926	0.000020
 783	7.7809e+01	7.7794	6.469822	0.000201	2.006594	0.339926	0.000020
 784	7.7909e+01	7.7860	6.491411	0.000217	2.170397	0.367675	0.000022
 785	7.8008e+01	7.7962	6.510963	0.000197	1.965643	0.332989	0.000020
 786	7.8108e+01	7.8027	6.532960	0.000221	2.211348	0.374613	0.000022
 787	7.8207e+01	7.8174	6.552920	0.000201	2.006594	0.339926	0.000020
 788	7.8306e+01	7.8257	6.572879	0.000201	2.006594	0.339926	0.000020
 789	7.8406e+01	7.8378	6.592025	0.000192	1.924692	0.326052	0.000019
 790	7.8505e+01	7.8468	6.610762	0.000188	1.883741	0.319114	0.000019
 791	7.8605e+01	7.8561	6.629500	0.000188	1.883741	0.319114	0.000019
 792	7.8704e+01	7.8663	6.649867	0.000205	2.047545	0.346863	0.000020
 793	7.8804e+01	7.8754	6.670234	0.000205	2.047545	0.346863	0.000020
 794	7.8903e+01	7.8867	6.690194	0.000201	2.006594	0.339926	0.000020
 795	7.9003e+01	7.8968	6.710561	0.000205	2.047545	0.346863	0.000020
 796	7.9103e+01	7.9073	6.728077	0.000176	1.760888	0.298303	0.000018
 797	7.9202e+01	7.9160	6.745593	0.000176	1.760888	0.298303	0.000018
 798	7.9302e+01	7.9276	6.767182	0.000217	2.170397	0.367675	0.000022
 799	7.9401e+01	7.9369	6.790808	0.000238	2.375152	0.402362	0.000024
 800	7.9501e+01	7.9464	6.807509	0.000168	1.678987	0.284428	0.000017
 801	7.9600e+01	7.9569	6.827061	0.000197	1.965643	0.332989	0.000020
 802	7.9700e+01	7.9672	6.851502	0.000246	2.457054	0.416236	0.000025
 803	7.9799e+01	7.9751	6.871462	0.000201	2.006594	0.339926	0.000020
 804	7.9898e+01	7.9849	6.894273	0.000229	2.293250	0.388487	0.000023
 805	7.9998e+01	7.9948	6.917084	0.000229	2.293250	0.388487	0.000023
 806	8.0097e+01	8.0029	6.934192	0.000172	1.719937	0.291365	0.000017
 807	8.0197e+01	8.0143	6.954152	0.000201	2.006594	0.339926	0.000020
 808	8.0296e+01	8.0218	6.979407	0.000254	2.538955	0.430111	0.000025
 809	8.0396e+01	8.0371	6.995701	0.000164	1.638036	0.277491	0.000016
 810	8.0496e+01	8.0439	7.020956	0.000254	2.538955	0.430111	0.000025
 811	8.0595e+01	8.0539	7.040101	0.000192	1.924692	0.326052	0.000019
 812	8.0695e+01	8.0681	7.059246	0.000192	1.924692	0.326052	0.000019
 813	8.0794e+01	8.0762	7.084094	0.000250	2.498004	0.423173	0.000025
 814	8.0894e+01	8.0863	7.102832	0.000188	1.883741	0.319114	0.000019
 815	8.0993e+01	8.0954	7.125643	0.000229	2.293250	0.388487	0.000023
 816	8.1093e+01	8.1067	7.152121	0.000266	2.661808	0.450922	0.000027
 817	8.1192e+01	8.1147	7.173710	0.000217	2.170397	0.367675	0.000022
 818	8.1291e+01	8.1256	7.190003	0.000164	1.638036	0.277491	0.000016
 819	8.1391e+01	8.1339	7.212407	0.000225	2.252299	0.381550	0.000023
 820	8.1490e+01	8.1460	7.229108	0.000168	1.678987	0.284428	0.000017
 821	8.1590e+01	8.1564	7.249068	0.000201	2.006594	0.339926	0.000020
 822	8.1689e+01	8.1641	7.265362	0.000164	1.638036	0.277491	0.000016
 823	8.1789e+01	8.1738	7.288173	0.000229	2.293250	0.388487	0.000023
 824	8.1888e+01	8.1855	7.304467	0.000164	1.638036	0.277491	0.000016
 825	8.1988e+01	8.1978	7.321575	0.000172	1.719937	0.291365	0.000017
 826	8.2088e+01	8.2039	7.338683	0.000172	1.719937	0.291365	0.000017
 827	8.2187e+01	8.2165	7.351311	0.000127	1.269478	0.215055	0.000013
 828	8.2287e+01	8.2236	7.368827	0.000176	1.760888	0.298303	0.000018
 829	8.2386e+01	8.2350	7.386342	0.000176	1.760888	0.298303	0.000018
 830	8.2486e+01	8.2433	7.402636	0.000164	1.638036	0.277491	0.000016
 831	8.2585e+01	8.2540	7.419745	0.000172	1.719937	0.291365	0.000017
 832	8.2684e+01	8.2643	7.439704	0.000201	2.006594	0.339926	0.000020
 833	8.2784e+01	8.2755	7.457220	0.000176	1.760888	0.298303	0.000018
 834	8.2883e+01	8.2838	7.473106	0.000160	1.597085	0.270553	0.000016
 835	8.2983e+01	8.2961	7.487363	0.000143	1.433281	0.242804	0.000014
 836	8.3082e+01	8.3049	7.501620	0.000143	1.433281	0.242804	0.000014
 837	8.3182e+01	8.3203	7.520766	0.000192	1.924692	0.326052	0.000019
 838	8.3281e+01	8.3231	7.535837	0.000152	1.515183	0.256679	0.000015
 839	8.3381e+01	8.3347	7.550502	0.000147	1.474232	0.249742	0.000015
 840	8.3481e+01	8.3448	7.566795	0.000164	1.638036	0.277491	0.000016
 841	8.3580e+01	8.3545	7.586348	0.000197	1.965643	0.332989	0.000020
 842	8.3680e+01	8.3668	7.600605	0.000143	1.433281	0.242804	0.000014
 843	8.3779e+01	8.3728	7.619750	0.000192	1.924692	0.326052	0.000019
 844	8.3879e+01	8.3826	7.639710	0.000201	2.006594	0.339926	0.000020
 845	8.3978e+01	8.3926	7.659262	0.000197	1.965643	0.332989	0.000020
 846	8.4078e+01	8.4042	7.675556	0.000164	1.638036	0.277491	0.000016
 847	8.4177e+01	8.4124	7.697145	0.000217	2.170397	0.367675	0.000022
 848	8.4276e+01	8.4232	7.708550	0.000115	1.146625	0.194244	0.000011
 849	8.4376e+01	8.4328	7.728510	0.000201	2.006594	0.339926	0.000020
 850	8.4475e+01	8.4432	7.752136	0.000238	2.375152	0.402362	0.000024
 851	8.4575e+01	8.4530	7.767615	0.000156	1.556134	0.263616	0.000016
 852	8.4674e+01	8.4619	7.786353	0.000188	1.883741	0.319114	0.000019
 853	8.4774e+01	8.4726	7.806313	0.000201	2.006594	0.339926	0.000020
 854	8.4874e+01	8.4853	7.821792	0.000156	1.556134	0.263616	0.000016
 855	8.4973e+01	8.4930	7.843381	0.000217	2.170397	0.367675	0.000022
 856	8.5073e+01	8.4995	7.861711	0.000184	1.842790	0.312177	0.000018
 857	8.5172e+01	8.5145	7.879634	0.000180	1.801839	0.305240	0.000018
 858	8.5272e+01	8.5230	7.896743	0.000172	1.719937	0.291365	0.000017
 859	8.5371e+01	8.5352	7.916702	0.000201	2.006594	0.339926	0.000020
 860	8.5471e+01	8.5435	7.934626	0.000180	1.801839	0.305240	0.000018
 861	8.5570e+01	8.5520	7.954585	0.000201	2.006594	0.339926	0.000020
 862	8.5669e+01	8.5617	7.969657	0.000152	1.515183	0.256679	0.000015
 863	8.5769e+01	8.5706	7.987987	0.000184	1.842790	0.312177	0.000018
 864	8.5868e+01	8.5828	8.008355	0.000205	2.047545	0.346863	0.000020
 865	8.5968e+01	8.5958	8.026278	0.000180	1.801839	0.305240	0.000018
 866	8.6067e+01	8.6011	8.045015	0.000188	1.883741	0.319114	0.000019
 867	8.6167e+01	8.6105	8.066605	0.000217	2.170397	0.367675	0.000022
 868	8.6266e+01	8.6240	8.082084	0.000156	1.556134	0.263616	0.000016
 869	8.6366e+01	8.6343	8.100414	0.000184	1.842790	0.312177	0.000018
 870	8.6466e+01	8.6433	8.121188	0.000209	2.088496	0.353801	0.000021
 871	8.6565e+01	8.6523	8.138297	0.000172	1.719937	0.291365	0.000017
 872	8.6665e+01	8.6637	8.155813	0.000176	1.760888	0.298303	0.000018
 873	8.6764e+01	8.6734	8.176994	0.000213	2.129446	0.360738	0.000021
 874	8.6864e+01	8.6822	8.192881	0.000160	1.597085	0.270553	0.000016
 875	8.6963e+01	8.6924	8.213655	0.000209	2.088496	0.353801	0.000021
 876	8.7063e+01	8.7024	8.233208	0.000197	1.965643	0.332989	0.000020
 877	8.7162e+01	8.7119	8.254389	0.000213	2.129446	0.360738	0.000021
 878	8.7261e+01	8.7222	8.274349	0.000201	2.006594	0.339926	0.000020
 879	8.7361e+01	8.7311	8.293494	0.000192	1.924692	0.326052	0.000019
 880	8.7460e+01	8.7424	8.309788	0.000164	1.638036	0.277491	0.000016
 881	8.7560e+01	8.7541	8.330970	0.000213	2.129446	0.360738	0.000021
 882	8.7659e+01	8.7617	8.348078	0.000172	1.719937	0.291365	0.000017
 883	8.7759e+01	8.7723	8.364779	0.000168	1.678987	0.284428	0.000017
 884	8.7859e+01	8.7817	8.383517	0.000188	1.883741	0.319114	0.000019
 885	8.7958e+01	8.7891	8.404699	0.000213	2.129446	0.360738	0.000021
 886	8.8058e+01	8.8038	8.419363	0.000147	1.474232	0.249742	0.000015
 887	8.8157e+01	8.8103	8.434028	0.000147	1.474232	0.249742	0.000015
 888	8.8257e+01	8.8206	8.451136	0.000172	1.719937	0.291365	0.000017
 889	8.8356e+01	8.8293	8.470281	0.000192	1.924692	0.326052	0.000019
 890	8.8456e+01	8.8428	8.483723	0.000135	1.351379	0.228930	0.000014
 891	8.8555e+01	8.8486	8.504498	0.000209	2.088496	0.353801	0.000021
 892	8.8654e+01	8.8612	8.525680	0.000213	2.129446	0.360738	0.000021
 893	8.8754e+01	8.8692	8.543195	0.000176	1.760888	0.298303	0.000018
 894	8.8853e+01	8.8801	8.557860	0.000147	1.474232	0.249742	0.000015
 895	8.8953e+01	8.8916	8.579449	0.000217	2.170397	0.367675	0.000022
 896	8.9052e+01	8.9004	8.592484	0.000131	1.310429	0.221993	0.000013
 897	8.9152e+01	8.9111	8.608370	0.000160	1.597085	0.270553	0.000016
 898	8.9251e+01	8.9210	8.627515	0.000192	1.924692	0.326052	0.000019
 899	8.9351e+01	8.9310	8.643402	0.000160	1.597085	0.270553	0.000016
 900	8.9451e+01	8.9391	8.661732	0.000184	1.842790	0.312177	0.000018
 901	8.9550e+01	8.9492	8.677211	0.000156	1.556134	0.263616	0.000016
 902	8.9650e+01	8.9608	8.695134	0.000180	1.801839	0.305240	0.000018
 903	8.9749e+01	8.9697	8.717131	0.000221	2.211348	0.374613	0.000022
 904	8.9849e+01	8.9795	8.733832	0.000168	1.678987	0.284428	0.000017
 905	8.9948e+01	8.9899	8.757865	0.000242	2.416103	0.409299	0.000024
 906	9.0047e+01	9.0009	8.774566	0.000168	1.678987	0.284428	0.000017
 907	9.0147e+01	9.0082	8.790860	0.000164	1.638036	0.277491	0.000016
 908	9.0246e+01	9.0211	8.817744	0.000270	2.702759	0.457860	0.000027
 909	9.0346e+01	9.0286	8.838111	0.000205	2.047545	0.346863	0.000020
 910	9.0445e+01	9.0405	8.858071	0.000201	2.006594	0.339926	0.000020
 911	9.0545e+01	9.0497	8.881697	0.000238	2.375152	0.402362	0.000024
 912	9.0644e+01	9.0585	8.903286	0.000217	2.170397	0.367675	0.000022
 913	9.0744e+01	9.0693	8.926505	0.000233	2.334201	0.395424	0.000023
 914	9.0844e+01	9.0779	8.946057	0.000197	1.965643	0.332989	0.000020
 915	9.0943e+01	9.0901	8.967646	0.000217	2.170397	0.367675	0.000022
 916	9.1043e+01	9.0973	8.988421	0.000209	2.088496	0.353801	0.000021
 917	9.1142e+01	9.1098	9.010417	0.000221	2.211348	0.374613	0.000022
 918	9.1242e+01	9.1189	9.032006	0.000217	2.170397	0.367675	0.000022
 919	9.1341e+01	9.1302	9.054410	0.000225	2.252299	0.381550	0.000023
 920	9.1441e+01	9.1393	9.077629	0.000233	2.334201	0.395424	0.000023
 921	9.1540e+01	9.1508	9.097589	0.000201	2.006594	0.339926	0.000020
 922	9.1639e+01	9.1602	9.122029	0.000246	2.457054	0.416236	0.000025
 923	9.1739e+01	9.1699	9.141582	0.000197	1.965643	0.332989	0.000020
 924	9.1838e+01	9.1785	9.164393	0.000229	2.293250	0.388487	0.000023
 925	9.1938e+01	9.1880	9.185575	0.000213	2.129446	0.360738	0.000021
 926	9.2037e+01	9.2008	9.207571	0.000221	2.211348	0.374613	0.000022
 927	9.2137e+01	9.2079	9.229160	0.000217	2.170397	0.367675	0.000022
 928	9.2237e+01	9.2195	9.247083	0.000180	1.801839	0.305240	0.000018
 929	9.2336e+01	9.2272	9.268672	0.000217	2.170397	0.367675	0.000022
 930	9.2436e+01	9.2386	9.289040	0.000205	2.047545	0.346863	0.000020
 931	9.2535e+01	9.2480	9.308999	0.000201	2.006594	0.339926	0.000020
 932	9.2635e+01	9.2599	9.329366	0.000205	2.047545	0.346863	0.000020
 933	9.2734e+01	9.2683	9.346882	0.000176	1.760888	0.298303	0.000018
 934	9.2834e+01	9.2783	9.366435	0.000197	1.965643	0.332989	0.000020
 935	9.2933e+01	9.2884	9.388431	0.000221	2.211348	0.374613	0.000022
 936	9.3032e+01	9.2969	9.404725	0.000164	1.638036	0.277491	0.000016
 937	9.3132e+01	9.3082	9.431202	0.000266	2.661808	0.450922	0.000027
 938	9.3231e+01	9.3205	9.449125	0.000180	1.801839	0.305240	0.000018
 939	9.3331e+01	9.3325	9.467456	0.000184	1.842790	0.312177	0.000018
 940	9.3430e+01	9.3384	9.491896	0.000246	2.457054	0.416236	0.000025
 941	9.3530e+01	9.3488	9.510634	0.000188	1.883741	0.319114	0.000019
 942	9.3629e+01	9.3581	9.530186	0.000197	1.965643	0.332989	0.000020
 943	9.3729e+01	9.3678	9.550146	0.000201	2.006594	0.339926	0.000020
 944	9.3829e+01	9.3799	9.571328	0.000213	2.129446	0.360738	0.000021
 945	9.3928e+01	9.3876	9.590473	0.000192	1.924692	0.326052	0.000019
 946	9.4028e+01	9.3999	9.610025	0.000197	1.965643	0.332989	0.000020
 947	9.4127e+01	9.4106	9.629985	0.000201	2.006594	0.339926	0.000020
 948	9.4227e+01	9.4190	9.648723	0.000188	1.883741	0.319114	0.000019
 949	9.4326e+01	9.4312	9.666646	0.000180	1.801839	0.305240	0.000018
 950	9.4425e+01	9.4389	9.687013	0.000205	2.047545	0.346863	0.000020
 951	9.4525e+01	9.4473	9.706566	0.000197	1.965643	0.332989	0.000020
 952	9.4624e+01	9.4595	9.725711	0.000192	1.924692	0.326052	0.000019
 953	9.4724e+01	9.4668	9.746485	0.000209	2.088496	0.353801	0.000021
 954	9.4823e+01	9.4785	9.764001	0.000176	1.760888	0.298303	0.000018
 955	9.4923e+01	9.4905	9.786405	0.000225	2.252299	0.381550	0.000023
 956	9.5022e+01	9.4971	9.807179	0.000209	2.088496	0.353801	0.000021
 957	9.5122e+01	9.5056	9.825102	0.000180	1.801839	0.305240	0.000018
 958	9.5222e+01	9.5181	9.845877	0.000209	2.088496	0.353801	0.000021
 959	9.5321e+01	9.5283	9.864615	0.000188	1.883741	0.319114	0.000019
 960	9.5421e+01	9.5376	9.884167	0.000197	1.965643	0.332989	0.000020
 961	9.5520e+01	9.5462	9.902497	0.000184	1.842790	0.312177	0.000018
 962	9.5620e+01	9.5605	9.920420	0.000180	1.801839	0.305240	0.000018
 963	9.5719e+01	9.5663	9.939158	0.000188	1.883741	0.319114	0.000019
 964	9.5819e+01	9.5786	9.958303	0.000192	1.924692	0.326052	0.000019
 965	9.5918e+01	9.5864	9.977448	0.000192	1.924692	0.326052	0.000019
 966	9.6017e+01	9.5950	9.997001	0.000197	1.965643	0.332989	0.000020
 967	9.6117e+01	9.6066	10.016961	0.000201	2.006594	0.339926	0.000020
 968	9.6216e+01	9.6158	10.033254	0.000164	1.638036	0.277491	0.000016
 969	9.6316e+01	9.6291	10.058510	0.000254	2.538955	0.430111	0.000025
 970	9.6415e+01	9.6392	10.080506	0.000221	2.211348	0.374613	0.000022
 971	9.6515e+01	9.6461	10.104132	0.000238	2.375152	0.402362	0.000024
 972	9.6615e+01	9.6564	10.125721	0.000217	2.170397	0.367675	0.000022
 973	9.6714e+01	9.6658	10.144459	0.000188	1.883741	0.319114	0.000019
 974	9.6814e+01	9.6759	10.164419	0.000201	2.006594	0.339926	0.000020
 975	9.6913e+01	9.6859	10.192118	0.000278	2.784661	0.471734	0.000028
 976	9.7013e+01	9.6962	10.205968	0.000139	1.392330	0.235867	0.000014
 977	9.7112e+01	9.7071	10.225113	0.000192	1.924692	0.326052	0.000019
 978	9.7212e+01	9.7170	10.247517	0.000225	2.252299	0.381550	0.000023
 979	9.7311e+01	9.7266	10.269106	0.000217	2.170397	0.367675	0.000022
 980	9.7410e+01	9.7366	10.289473	0.000205	2.047545	0.346863	0.000020
 981	9.7510e+01	9.7439	10.314728	0.000254	2.538955	0.430111	0.000025
 982	9.7609e+01	9.7546	10.332244	0.000176	1.760888	0.298303	0.000018
 983	9.7709e+01	9.7659	10.355462	0.000233	2.334201	0.395424	0.000023
 984	9.7808e+01	9.7742	10.377866	0.000225	2.252299	0.381550	0.000023
 985	9.7908e+01	9.7852	10.399455	0.000217	2.170397	0.367675	0.000022
 986	9.8007e+01	9.7937	10.415749	0.000164	1.638036	0.277491	0.000016
 987	9.8107e+01	9.8058	10.438153	0.000225	2.252299	0.381550	0.000023
 988	9.8207e+01	9.8150	10.456483	0.000184	1.842790	0.312177	0.000018
 989	9.8306e+01	9.8257	10.477258	0.000209	2.088496	0.353801	0.000021
 990	9.8406e+01	9.8352	10.495996	0.000188	1.883741	0.319114	0.000019
 991	9.8505e+01	9.8490	10.515955	0.000201	2.006594	0.339926	0.000020
 992	9.8605e+01	9.8548	10.533064	0.000172	1.719937	0.291365	0.000017
 993	9.8704e+01	9.8641	10.546913	0.000139	1.392330	0.235867	0.000014
 994	9.8803e+01	9.8725	10.561578	0.000147	1.474232	0.249742	0.000015
 995	9.8903e+01	9.8867	10.581945	0.000205	2.047545	0.346863	0.000020
 996	9.9002e+01	9.8987	10.595794	0.000139	1.392330	0.235867	0.000014
 997	9.9102e+01	9.9062	10.614940	0.000192	1.924692	0.326052	0.000019
 998	9.9201e+01	9.9170	10.629604	0.000147	1.474232	0.249742	0.000015
 999	9.9301e+01	9.9268	10.649971	0.000205	2.047545	0.346863	0.000020
1000	9.9400e+01	9.9349	10.665450	0.000156	1.556134	0.263616	0.000016
1001	9.9500e+01	9.9451	10.682966	0.000176	1.760888	0.298303	0.000018
1002	9.9600e+01	9.9551	10.698852	0.000160	1.597085	0.270553	0.000016
1003	9.9699e+01	9.9640	10.715553	0.000168	1.678987	0.284428	0.000017
1004	9.9799e+01	9.9756	10.728995	0.000135	1.351379	0.228930	0.000014
1005	9.9898e+01	9.9830	10.744882	0.000160	1.597085	0.270553	0.000016
1006	9.9998e+01	9.9941	10.761176	0.000164	1.638036	0.277491	0.000016
1007	1.0010e+02	9.9860	10.752214	0.000090	0.900920	0.152620	-0.000009
1008	1.0020e+02	9.9756	10.737142	0.000152	1.515183	0.256679	-0.000015
1009	1.0030e+02	9.9640	10.724515	0.000127	1.269478	0.215055	-0.000013
1010	1.0040e+02	9.9537	10.712294	0.000123	1.228527	0.208118	-0.000012
1011	1.0050e+02	9.9441	10.697223	0.000152	1.515183	0.256679	-0.000015
1012	1.0059e+02	9.9329	10.686632	0.000106	1.064723	0.180369	-0.000011
1013	1.0069e+02	9.9268	10.676041	0.000106	1.064723	0.180369	-0.000011
1014	1.0079e+02	9.9140	10.661784	0.000143	1.433281	0.242804	-0.000014
1015	1.0089e+02	9.9072	10.646712	0.000152	1.515183	0.256679	-0.000015
1016	1.0099e+02	9.8938	10.639787	0.000070	0.696165	0.117934	-0.000007
1017	1.0109e+02	9.8846	10.621864	0.000180	1.801839	0.305240	-0.000018
1018	1.0119e+02	9.8743	10.614532	0.000074	0.737116	0.124871	-0.000007
1019	1.0129e+02	9.8633	10.600683	0.000139	1.392330	0.235867	-0.000014
1020	1.0139e+02	9.8562	10.587648	0.000131	1.310429	0.221993	-0.000013
1021	1.0149e+02	9.8474	10.574613	0.000131	1.310429	0.221993	-0.000013
1022	1.0159e+02	9.8356	10.562392	0.000123	1.228527	0.208118	-0.000012
1023	1.0169e+02	9.8242	10.548543	0.000139	1.392330	0.235867	-0.000014
1024	1.0179e+02	9.8164	10.534693	0.000139	1.392330	0.235867	-0.000014
1025	1.0189e+02	9.8075	10.520843	0.000139	1.392330	0.235867	-0.000014
1026	1.0199e+02	9.7949	10.508216	0.000127	1.269478	0.215055	-0.000013
1027	1.0209e+02	9.7873	10.495181	0.000131	1.310429	0.221993	-0.000013
1028	1.0219e+02	9.7751	10.478887	0.000164	1.638036	0.277491	-0.000016
1029	1.0229e+02	9.7672	10.466260	0.000127	1.269478	0.215055	-0.000013
1030	1.0239e+02	9.7553	10.453225	0.000131	1.310429	0.221993	-0.000013
1031	1.0248e+02	9.7437	10.439375	0.000139	1.392330	0.235867	-0.000014
1032	1.0258e+02	9.7359	10.425933	0.000135	1.351379	0.228930	-0.000014
1033	1.0268e+02	9.7250	10.416564	0.000094	0.941871	0.159557	-0.000009
1034	1.0278e+02	9.7168	10.398641	0.000180	1.801839	0.305240	-0.000018
1035	1.0288e+02	9.7070	10.391308	0.000074	0.737116	0.124871	-0.000007
1036	1.0298e+02	9.6973	10.377051	0.000143	1.433281	0.242804	-0.000014
1037	1.0308e+02	9.6861	10.359943	0.000172	1.719937	0.291365	-0.000017
1038	1.0318e+02	9.6754	10.346093	0.000139	1.392330	0.235867	-0.000014
1039	1.0328e+02	9.6684	10.331429	0.000147	1.474232	0.249742	-0.000015
1040	1.0338e+02	9.6571	10.318394	0.000131	1.310429	0.221993	-0.000013
1041	1.0348e+02	9.6466	10.304952	0.000135	1.351379	0.228930	-0.000014
1042	1.0358e+02	9.6362	10.291102	0.000139	1.392330	0.235867	-0.000014
1043	1.0368e+02	9.6291	10.277660	0.000135	1.351379	0.228930	-0.000014
1044	1.0378e+02	9.6143	10.265440	0.000123	1.228527	0.208118	-0.000012
1045	1.0388e+02	9.6062	10.254034	0.000115	1.146625	0.194244	-0.000011
1046	1.0398e+02	9.5968	10.241406	0.000127	1.269478	0.215055	-0.000013
1047	1.0408e+02	9.5864	10.224705	0.000168	1.678987	0.284428	-0.000017
1048	1.0418e+02	9.5789	10.211263	0.000135	1.351379	0.228930	-0.000014
1049	1.0428e+02	9.5679	10.200672	0.000106	1.064723	0.180369	-0.000011
1050	1.0438e+02	9.5576	10.183564	0.000172	1.719937	0.291365	-0.000017
1051	1.0447e+02	9.5477	10.168085	0.000156	1.556134	0.263616	-0.000016
1052	1.0457e+02	9.5361	10.156272	0.000119	1.187576	0.201181	-0.000012
1053	1.0467e+02	9.5264	10.138756	0.000176	1.760888	0.298303	-0.000018
1054	1.0477e+02	9.5166	10.122870	0.000160	1.597085	0.270553	-0.000016
1055	1.0487e+02	9.5068	10.108205	0.000147	1.474232	0.249742	-0.000015
1056	1.0497e+02	9.4981	10.089875	0.000184	1.842790	0.312177	-0.000018
1057	1.0507e+02	9.4863	10.070323	0.000197	1.965643	0.332989	-0.000020
1058	1.0517e+02	9.4778	10.056880	0.000135	1.351379	0.228930	-0.000014
1059	1.0527e+02	9.4667	10.045882	0.000111	1.105674	0.187306	-0.000011
1060	1.0537e+02	9.4580	10.029996	0.000160	1.597085	0.270553	-0.000016
1061	1.0547e+02	9.4482	10.016553	0.000135	1.351379	0.228930	-0.000014
1062	1.0557e+02	9.4341	9.999038	0.000176	1.760888	0.298303	-0.000018
1063	1.0567e+02	9.4290	9.984373	0.000147	1.474232	0.249742	-0.000015
1064	1.0577e+02	9.4176	9.966858	0.000176	1.760888	0.298303	-0.000018
1065	1.0587e+02	9.4092	9.951786	0.000152	1.515183	0.256679	-0.000015
1066	1.0597e+02	9.3970	9.935085	0.000168	1.678987	0.284428	-0.000017
1067	1.0607e+02	9.3876	9.917976	0.000172	1.719937	0.291365	-0.000017
1068	1.0617e+02	9.3771	9.902090	0.000160	1.597085	0.270553	-0.000016
1069	1.0627e+02	9.3690	9.887018	0.000152	1.515183	0.256679	-0.000015
1070	1.0637e+02	9.3592	9.869910	0.000172	1.719937	0.291365	-0.000017
1071	1.0647e+02	9.3497	9.855653	0.000143	1.433281	0.242804	-0.000014
1072	1.0656e+02	9.3389	9.840581	0.000152	1.515183	0.256679	-0.000015
1073	1.0666e+02	9.3293	9.832842	0.000078	0.778067	0.131808	-0.000008
1074	1.0676e+02	9.3176	9.817363	0.000156	1.556134	0.263616	-0.000016
1075	1.0686e+02	9.3069	9.804328	0.000131	1.310429	0.221993	-0.000013
1076	1.0696e+02	9.2977	9.791293	0.000131	1.310429	0.221993	-0.000013
1077	1.0706e+02	9.2886	9.778665	0.000127	1.269478	0.215055	-0.000013
1078	1.0716e+02	9.2759	9.767667	0.000111	1.105674	0.187306	-0.000011
1079	1.0726e+02	9.2678	9.759520	0.000082	0.819018	0.138745	-0.000008
1080	1.0736e+02	9.2573	9.746893	0.000127	1.269478	0.215055	-0.000013
1081	1.0746e+02	9.2483	9.734265	0.000127	1.269478	0.215055	-0.000013
1082	1.0756e+02	9.2368	9.719601	0.000147	1.474232	0.249742	-0.000015
1083	1.0766e+02	9.2295	9.710232	0.000094	0.941871	0.159557	-0.000009
1084	1.0776e+02	9.2173	9.697197	0.000131	1.310429	0.221993	-0.000013
1085	1.0786e+02	9.2084	9.684569	0.000127	1.269478	0.215055	-0.000013
1086	1.0796e+02	9.1992	9.671127	0.000135	1.351379	0.228930	-0.000014
1087	1.0806e+02	9.1903	9.661351	0.000098	0.982821	0.166494	-0.000010
1088	1.0816e+02	9.1803	9.646686	0.000147	1.474232	0.249742	-0.000015
1089	1.0826e+02	9.1691	9.638132	0.000086	0.859969	0.145683	-0.000009
1090	1.0836e+02	9.1602	9.625097	0.000131	1.310429	0.221993	-0.000013
1091	1.0845e+02	9.1504	9.616136	0.000090	0.900920	0.152620	-0.000009
1092	1.0855e+02	9.1407	9.601064	0.000152	1.515183	0.256679	-0.000015
1093	1.0865e+02	9.1321	9.589658	0.000115	1.146625	0.194244	-0.000011
1094	1.0875e+02	9.1213	9.574994	0.000147	1.474232	0.249742	-0.000015
1095	1.0885e+02	9.1107	9.563588	0.000115	1.146625	0.194244	-0.000011
1096	1.0895e+02	9.0992	9.546480	0.000172	1.719937	0.291365	-0.000017
1097	1.0905e+02	9.0905	9.538741	0.000078	0.778067	0.131808	-0.000008
1098	1.0915e+02	9.0800	9.520410	0.000184	1.842790	0.312177	-0.000018
1099	1.0925e+02	9.0702	9.511041	0.000094	0.941871	0.159557	-0.000009
1100	1.0935e+02	9.0565	9.493118	0.000180	1.801839	0.305240	-0.000018
1101	1.0945e+02	9.0472	9.479269	0.000139	1.392330	0.235867	-0.000014
1102	1.0955e+02	9.0395	9.463382	0.000160	1.597085	0.270553	-0.000016
1103	1.0965e+02	9.0295	9.454013	0.000094	0.941871	0.159557	-0.000009
1104	1.0975e+02	9.0208	9.437720	0.000164	1.638036	0.277491	-0.000016
1105	1.0985e+02	9.0092	9.425907	0.000119	1.187576	0.201181	-0.000012
1106	1.0995e+02	8.9997	9.411242	0.000147	1.474232	0.249742	-0.000015
1107	1.1005e+02	8.9899	9.396985	0.000143	1.433281	0.242804	-0.000014
1108	1.1015e+02	8.9844	9.380692	0.000164	1.638036	0.277491	-0.000016
1109	1.1025e+02	8.9719	9.370915	0.000098	0.982821	0.166494	-0.000010
1110	1.1035e+02	8.9609	9.353807	0.000172	1.719937	0.291365	-0.000017
1111	1.1044e+02	8.9478	9.343216	0.000106	1.064723	0.180369	-0.000011
1112	1.1054e+02	8.9388	9.326108	0.000172	1.719937	0.291365	-0.000017
1113	1.1064e+02	8.9314	9.312665	0.000135	1.351379	0.228930	-0.000014
1114	1.1074e+02	8.9212	9.296372	0.000164	1.638036	0.277491	-0.000016
1115	1.1084e+02	8.9126	9.284151	0.000123	1.228527	0.208118	-0.000012
1116	1.1094e+02	8.8990	9.266636	0.000176	1.760888	0.298303	-0.000018
1117	1.1104e+02	8.8916	9.252786	0.000139	1.392330	0.235867	-0.000014
1118	1.1114e+02	8.8845	9.238122	0.000147	1.474232	0.249742	-0.000015
1119	1.1124e+02	8.8691	9.223457	0.000147	1.474232	0.249742	-0.000015
1120	1.1134e+02	8.8625	9.209608	0.000139	1.392330	0.235867	-0.000014
1121	1.1144e+02	8.8519	9.193314	0.000164	1.638036	0.277491	-0.000016
1122	1.1154e+02	8.8412	9.181908	0.000115	1.146625	0.194244	-0.000011
1123	1.1164e+02	8.8306	9.168059	0.000139	1.392330	0.235867	-0.000014
1124	1.1174e+02	8.8232	9.153394	0.000147	1.474232	0.249742	-0.000015
1125	1.1184e+02	8.8106	9.137508	0.000160	1.597085	0.270553	-0.000016
1126	1.1194e+02	8.8040	9.121214	0.000164	1.638036	0.277491	-0.000016
1127	1.1204e+02	8.7928	9.107772	0.000135	1.351379	0.228930	-0.000014
1128	1.1214e+02	8.7821	9.090664	0.000172	1.719937	0.291365	-0.000017
1129	1.1224e+02	8.7715	9.074777	0.000160	1.597085	0.270553	-0.000016
1130	1.1234e+02	8.7604	9.057669	0.000172	1.719937	0.291365	-0.000017
1131	1.1244e+02	8.7524	9.040153	0.000176	1.760888	0.298303	-0.000018
1132	1.1253e+02	8.7403	9.025896	0.000143	1.433281	0.242804	-0.000014
1133	1.1263e+02	8.7305	9.012454	0.000135	1.351379	0.228930	-0.000014
1134	1.1273e+02	8.7195	8.996160	0.000164	1.638036	0.277491	-0.000016
1135	1.1283e+02	8.7109	8.985569	0.000106	1.064723	0.180369	-0.000011
1136	1.1293e+02	8.7017	8.971312	0.000143	1.433281	0.242804	-0.000014
1137	1.1303e+02	8.6936	8.956648	0.000147	1.474232	0.249742	-0.000015
1138	1.1313e+02	8.6857	8.942391	0.000143	1.433281	0.242804	-0.000014
1139	1.1323e+02	8.6751	8.930578	0.000119	1.187576	0.201181	-0.000012
1140	1.1333e+02	8.6634	8.917136	0.000135	1.351379	0.228930	-0.000014
1141	1.1343e+02	8.6533	8.903693	0.000135	1.351379	0.228930	-0.000014
1142	1.1353e+02	8.6410	8.890659	0.000131	1.310429	0.221993	-0.000013
1143	1.1363e+02	8.6321	8.873957	0.000168	1.678987	0.284428	-0.000017
1144	1.1373e+02	8.6214	8.862145	0.000119	1.187576	0.201181	-0.000012
1145	1.1383e+02	8.6088	8.845036	0.000172	1.719937	0.291365	-0.000017
1146	1.1393e+02	8.6026	8.831594	0.000135	1.351379	0.228930	-0.000014
1147	1.1403e+02	8.5902	8.821003	0.000106	1.064723	0.180369	-0.000011
1148	1.1413e+02	8.5833	8.807153	0.000139	1.392330	0.235867	-0.000014
1149	1.1423e+02	8.5752	8.792082	0.000152	1.515183	0.256679	-0.000015
1150	1.1433e+02	8.5625	8.778639	0.000135	1.351379	0.228930	-0.000014
1151	1.1442e+02	8.5529	8.766826	0.000119	1.187576	0.201181	-0.000012
1152	1.1452e+02	8.5441	8.752569	0.000143	1.433281	0.242804	-0.000014
1153	1.1462e+02	8.5337	8.739942	0.000127	1.269478	0.215055	-0.000013
1154	1.1472e+02	8.5246	8.723648	0.000164	1.638036	0.277491	-0.000016
1155	1.1482e+02	8.5123	8.708576	0.000152	1.515183	0.256679	-0.000015
1156	1.1492e+02	8.5036	8.692690	0.000160	1.597085	0.270553	-0.000016
1157	1.1502e+02	8.4937	8.672323	0.000205	2.047545	0.346863	-0.000020
1158	1.1512e+02	8.4826	8.657251	0.000152	1.515183	0.256679	-0.000015
1159	1.1522e+02	8.4718	8.639328	0.000180	1.801839	0.305240	-0.000018
1160	1.1532e+02	8.4635	8.622220	0.000172	1.719937	0.291365	-0.000017
1161	1.1542e+02	8.4538	8.604704	0.000176	1.760888	0.298303	-0.000018
1162	1.1552e+02	8.4444	8.583115	0.000217	2.170397	0.367675	-0.000022
1163	1.1562e+02	8.4347	8.570080	0.000131	1.310429	0.221993	-0.000013
1164	1.1572e+02	8.4238	8.548898	0.000213	2.129446	0.360738	-0.000021
1165	1.1582e+02	8.4158	8.528938	0.000201	2.006594	0.339926	-0.000020
1166	1.1592e+02	8.4039	8.511830	0.000172	1.719937	0.291365	-0.000017
1167	1.1602e+02	8.3906	8.494314	0.000176	1.760888	0.298303	-0.000018
1168	1.1612e+02	8.3839	8.478428	0.000160	1.597085	0.270553	-0.000016
1169	1.1622e+02	8.3736	8.457653	0.000209	2.088496	0.353801	-0.000021
1170	1.1632e+02	8.3627	8.438101	0.000197	1.965643	0.332989	-0.000020
1171	1.1642e+02	8.3552	8.418141	0.000201	2.006594	0.339926	-0.000020
1172	1.1651e+02	8.3435	8.400625	0.000176	1.760888	0.298303	-0.000018
1173	1.1661e+02	8.3343	8.379444	0.000213	2.129446	0.360738	-0.000021
1174	1.1671e+02	8.3224	8.359076	0.000205	2.047545	0.346863	-0.000020
1175	1.1681e+02	8.3131	8.345634	0.000135	1.351379	0.228930	-0.000014
1176	1.1691e+02	8.3052	8.324045	0.000217	2.170397	0.367675	-0.000022
1177	1.1701e+02	8.2962	8.308973	0.000152	1.515183	0.256679	-0.000015
1178	1.1711e+02	8.2851	8.289828	0.000192	1.924692	0.326052	-0.000019
1179	1.1721e+02	8.2743	8.273942	0.000160	1.597085	0.270553	-0.000016
1180	1.1731e+02	8.2645	8.258056	0.000160	1.597085	0.270553	-0.000016
1181	1.1741e+02	8.2528	8.238910	0.000192	1.924692	0.326052	-0.000019
1182	1.1751e+02	8.2451	8.219358	0.000197	1.965643	0.332989	-0.000020
1183	1.1761e+02	8.2350	8.205508	0.000139	1.392330	0.235867	-0.000014
1184	1.1771e+02	8.2253	8.185549	0.000201	2.006594	0.339926	-0.000020
1185	1.1781e+02	8.2134	8.169255	0.000164	1.638036	0.277491	-0.000016
1186	1.1791e+02	8.2071	8.154591	0.000147	1.474232	0.249742	-0.000015
1187	1.1801e+02	8.1947	8.134223	0.000205	2.047545	0.346863	-0.000020
1188	1.1811e+02	8.1866	8.120374	0.000139	1.392330	0.235867	-0.000014
1189	1.1821e+02	8.1741	8.102043	0.000184	1.842790	0.312177	-0.000018
1190	1.1831e+02	8.1651	8.083713	0.000184	1.842790	0.312177	-0.000018
1191	1.1841e+02	8.1548	8.067419	0.000164	1.638036	0.277491	-0.000016
1192	1.1850e+02	8.1440	8.050311	0.000172	1.719937	0.291365	-0.000017
1193	1.1860e+02	8.1362	8.034424	0.000160	1.597085	0.270553	-0.000016
1194	1.1870e+02	8.1250	8.016501	0.000180	1.801839	0.305240	-0.000018
1195	1.1880e+02	8.1152	7.998171	0.000184	1.842790	0.312177	-0.000018
1196	1.1890e+02	8.1030	7.981877	0.000164	1.638036	0.277491	-0.000016
1197	1.1900e+02	8.0920	7.965991	0.000160	1.597085	0.270553	-0.000016
1198	1.1910e+02	8.0836	7.947661	0.000184	1.842790	0.312177	-0.000018
1199	1.1920e+02	8.0754	7.933404	0.000143	1.433281	0.242804	-0.000014
1200	1.1930e+02	8.0660	7.913444	0.000201	2.006594	0.339926	-0.000020
1201	1.1940e+02	8.0563	7.897150	0.000164	1.638036	0.277491	-0.000016
1202	1.1950e+02	8.0461	7.882893	0.000143	1.433281	0.242804	-0.000014
1203	1.1960e+02	8.0341	7.867007	0.000160	1.597085	0.270553	-0.000016
1204	1.1970e+02	8.0215	7.846232	0.000209	2.088496	0.353801	-0.000021
1205	1.1980e+02	8.0164	7.829531	0.000168	1.678987	0.284428	-0.000017
1206	1.1990e+02	8.0032	7.814052	0.000156	1.556134	0.263616	-0.000016
1207	1.2000e+02	7.9940	7.795314	0.000188	1.883741	0.319114	-0.000019
1208	1.2010e+02	7.9856	7.777799	0.000176	1.760888	0.298303	-0.000018
1209	1.2020e+02	7.9754	7.761098	0.000168	1.678987	0.284428	-0.000017
1210	1.2030e+02	7.9659	7.747248	0.000139	1.392330	0.235867	-0.000014
1211	1.2039e+02	7.9562	7.729325	0.000180	1.801839	0.305240	-0.000018
1212	1.2049e+02	7.9444	7.712217	0.000172	1.719937	0.291365	-0.000017
1213	1.2059e+02	7.9391	7.698774	0.000135	1.351379	0.228930	-0.000014
1214	1.2069e+02	7.9233	7.679629	0.000192	1.924692	0.326052	-0.000019
1215	1.2079e+02	7.9175	7.665372	0.000143	1.433281	0.242804	-0.000014
1216	1.2089e+02	7.9073	7.649893	0.000156	1.556134	0.263616	-0.000016
1217	1.2099e+02	7.8967	7.626675	0.000233	2.334201	0.395424	-0.000023
1218	1.2109e+02	7.8863	7.614862	0.000119	1.187576	0.201181	-0.000012
1219	1.2119e+02	7.8777	7.596939	0.000180	1.801839	0.305240	-0.000018
1220	1.2129e+02	7.8667	7.576571	0.000205	2.047545	0.346863	-0.000020
1221	1.2139e+02	7.8564	7.559056	0.000176	1.760888	0.298303	-0.000018
1222	1.2149e+02	7.8475	7.539503	0.000197	1.965643	0.332989	-0.000020
1223	1.2159e+02	7.8373	7.521173	0.000184	1.842790	0.312177	-0.000018
1224	1.2169e+02	7.8240	7.499584	0.000217	2.170397	0.367675	-0.000022
1225	1.2179e+02	7.8175	7.482068	0.000176	1.760888	0.298303	-0.000018
1226	1.2189e+02	7.8075	7.465774	0.000164	1.638036	0.277491	-0.000016
1227	1.2199e+02	7.7965	7.446222	0.000197	1.965643	0.332989	-0.000020
1228	1.2209e+02	7.7858	7.428299	0.000180	1.801839	0.305240	-0.000018
1229	1.2219e+02	7.7783	7.410783	0.000176	1.760888	0.298303	-0.000018
1230	1.2229e+02	7.7664	7.396933	0.000139	1.392330	0.235867	-0.000014
1231	1.2239e+02	7.7563	7.380232	0.000168	1.678987	0.284428	-0.000017
1232	1.2248e+02	7.7483	7.355384	0.000250	2.498004	0.423173	-0.000025
1233	1.2258e+02	7.7363	7.336239	0.000192	1.924692	0.326052	-0.000019
1234	1.2268e+02	7.7267	7.317094	0.000192	1.924692	0.326052	-0.000019
1235	1.2278e+02	7.7188	7.299579	0.000176	1.760888	0.298303	-0.000018
1236	1.2288e+02	7.7069	7.282063	0.000176	1.760888	0.298303	-0.000018
1237	1.2298e+02	7.6965	7.265362	0.000168	1.678987	0.284428	-0.000017
1238	1.2308e+02	7.6872	7.247846	0.000176	1.760888	0.298303	-0.000018
1239	1.2318e+02	7.6797	7.230330	0.000176	1.760888	0.298303	-0.000018
1240	1.2328e+02	7.6706	7.216481	0.000139	1.392330	0.235867	-0.000014
1241	1.2338e+02	7.6566	7.196521	0.000201	2.006594	0.339926	-0.000020
1242	1.2348e+02	7.6469	7.180634	0.000160	1.597085	0.270553	-0.000016
1243	1.2358e+02	7.6377	7.169229	0.000115	1.146625	0.194244	-0.000011
1244	1.2368e+02	7.6275	7.153343	0.000160	1.597085	0.270553	-0.000016
1245	1.2378e+02	7.6182	7.139493	0.000139	1.392330	0.235867	-0.000014
1246	1.2388e+02	7.6083	7.124014	0.000156	1.556134	0.263616	-0.000016
1247	1.2398e+02	7.5964	7.112201	0.000119	1.187576	0.201181	-0.000012
1248	1.2408e+02	7.5892	7.096315	0.000160	1.597085	0.270553	-0.000016
1249	1.2418e+02	7.5793	7.080428	0.000160	1.597085	0.270553	-0.000016
1250	1.2428e+02	7.5685	7.064135	0.000164	1.638036	0.277491	-0.000016
1251	1.2438e+02	7.5570	7.048248	0.000160	1.597085	0.270553	-0.000016
1252	1.2447e+02	7.5478	7.033991	0.000143	1.433281	0.242804	-0.000014
1253	1.2457e+02	7.5355	7.021771	0.000123	1.228527	0.208118	-0.000012
1254	1.2467e+02	7.5283	7.007107	0.000147	1.474232	0.249742	-0.000015
1255	1.2477e+02	7.5185	6.992442	0.000147	1.474232	0.249742	-0.000015
1256	1.2487e+02	7.5059	6.983888	0.000086	0.859969	0.145683	-0.000009
1257	1.2497e+02	7.4967	6.968816	0.000152	1.515183	0.256679	-0.000015
1258	1.2507e+02	7.4871	6.953745	0.000152	1.515183	0.256679	-0.000015
1259	1.2517e+02	7.4781	6.936229	0.000176	1.760888	0.298303	-0.000018
1260	1.2527e+02	7.4674	6.924009	0.000123	1.228527	0.208118	-0.000012
1261	1.2537e+02	7.4581	6.910566	0.000135	1.351379	0.228930	-0.000014
1262	1.2547e+02	7.4499	6.895495	0.000152	1.515183	0.256679	-0.000015
1263	1.2557e+02	7.4377	6.876350	0.000192	1.924692	0.326052	-0.000019
1264	1.2567e+02	7.4268	6.860463	0.000160	1.597085	0.270553	-0.000016
1265	1.2577e+02	7.4197	6.844984	0.000156	1.556134	0.263616	-0.000016
1266	1.2587e+02	7.4088	6.825024	0.000201	2.006594	0.339926	-0.000020
1267	1.2597e+02	7.4012	6.812804	0.000123	1.228527	0.208118	-0.000012
1268	1.2607e+02	7.3879	6.792030	0.000209	2.088496	0.353801	-0.000021
1269	1.2617e+02	7.3800	6.776143	0.000160	1.597085	0.270553	-0.000016
1270	1.2627e+02	7.3685	6.763516	0.000127	1.269478	0.215055	-0.000013
1271	1.2636e+02	7.3613	6.748444	0.000152	1.515183	0.256679	-0.000015
1272	1.2646e+02	7.3507	6.731743	0.000168	1.678987	0.284428	-0.000017
1273	1.2656e+02	7.3391	6.715449	0.000164	1.638036	0.277491	-0.000016
1274	1.2666e+02	7.3307	6.697526	0.000180	1.801839	0.305240	-0.000018
1275	1.2676e+02	7.3193	6.684084	0.000135	1.351379	0.228930	-0.000014
1276	1.2686e+02	7.3096	6.666161	0.000180	1.801839	0.305240	-0.000018
1277	1.2696e+02	7.2990	6.647830	0.000184	1.842790	0.312177	-0.000018
1278	1.2706e+02	7.2874	6.636832	0.000111	1.105674	0.187306	-0.000011
1279	1.2716e+02	7.2803	6.621761	0.000152	1.515183	0.256679	-0.000015
1280	1.2726e+02	7.2700	6.598949	0.000229	2.293250	0.388487	-0.000023
1281	1.2736e+02	7.2581	6.584692	0.000143	1.433281	0.242804	-0.000014
1282	1.2746e+02	7.2488	6.570028	0.000147	1.474232	0.249742	-0.000015
1283	1.2756e+02	7.2401	6.550883	0.000192	1.924692	0.326052	-0.000019
1284	1.2766e+02	7.2304	6.535811	0.000152	1.515183	0.256679	-0.000015
1285	1.2776e+02	7.2200	6.516259	0.000197	1.965643	0.332989	-0.000020
1286	1.2786e+02	7.2131	6.498743	0.000176	1.760888	0.298303	-0.000018
1287	1.2796e+02	7.2014	6.484079	0.000147	1.474232	0.249742	-0.000015
1288	1.2806e+02	7.1907	6.469007	0.000152	1.515183	0.256679	-0.000015
1289	1.2816e+02	7.1807	6.449862	0.000192	1.924692	0.326052	-0.000019
1290	1.2826e+02	7.1704	6.433568	0.000164	1.638036	0.277491	-0.000016
1291	1.2835e+02	7.1589	6.419311	0.000143	1.433281	0.242804	-0.000014
1292	1.2845e+02	7.1486	6.403018	0.000164	1.638036	0.277491	-0.000016
1293	1.2855e+02	7.1400	6.381428	0.000217	2.170397	0.367675	-0.000022
1294	1.2865e+02	7.1314	6.369615	0.000119	1.187576	0.201181	-0.000012
1295	1.2875e+02	7.1204	6.349656	0.000201	2.006594	0.339926	-0.000020
1296	1.2885e+02	7.1107	6.329289	0.000205	2.047545	0.346863	-0.000020
1297	1.2895e+02	7.1018	6.313810	0.000156	1.556134	0.263616	-0.000016
1298	1.2905e+02	7.0889	6.291406	0.000225	2.252299	0.381550	-0.000023
1299	1.2915e+02	7.0801	6.274705	0.000168	1.678987	0.284428	-0.000017
1300	1.2925e+02	7.0730	6.257596	0.000172	1.719937	0.291365	-0.000017
1301	1.2935e+02	7.0623	6.237229	0.000205	2.047545	0.346863	-0.000020
1302	1.2945e+02	7.0510	6.224194	0.000131	1.310429	0.221993	-0.000013
1303	1.2955e+02	7.0413	6.207493	0.000168	1.678987	0.284428	-0.000017
1304	1.2965e+02	7.0316	6.190792	0.000168	1.678987	0.284428	-0.000017
1305	1.2975e+02	7.0216	6.178979	0.000119	1.187576	0.201181	-0.000012
1306	1.2985e+02	7.0109	6.161463	0.000176	1.760888	0.298303	-0.000018
1307	1.2995e+02	7.0034	6.147614	0.000139	1.392330	0.235867	-0.000014
1308	1.3005e+02	6.9875	6.133764	0.000139	1.392330	0.235867	-0.000014
1309	1.3015e+02	6.9802	6.117470	0.000164	1.638036	0.277491	-0.000016
1310	1.3025e+02	6.9707	6.100769	0.000168	1.678987	0.284428	-0.000017
1311	1.3034e+02	6.9593	6.085290	0.000156	1.556134	0.263616	-0.000016
1312	1.3044e+02	6.9531	6.067367	0.000180	1.801839	0.305240	-0.000018
1313	1.3054e+02	6.9399	6.054740	0.000127	1.269478	0.215055	-0.000013
1314	1.3064e+02	6.9326	6.038039	0.000168	1.678987	0.284428	-0.000017
1315	1.3074e+02	6.9221	6.021745	0.000164	1.638036	0.277491	-0.000016
1316	1.3084e+02	6.9132	6.006266	0.000156	1.556134	0.263616	-0.000016
1317	1.3094e+02	6.9014	5.989158	0.000172	1.719937	0.291365	-0.000017
1318	1.3104e+02	6.8913	5.973679	0.000156	1.556134	0.263616	-0.000016
1319	1.3114e+02	6.8789	5.961051	0.000127	1.269478	0.215055	-0.000013
1320	1.3124e+02	6.8743	5.944757	0.000164	1.638036	0.277491	-0.000016
1321	1.3134e+02	6.8610	5.924797	0.000201	2.006594	0.339926	-0.000020
1322	1.3144e+02	6.8506	5.909726	0.000152	1.515183	0.256679	-0.000015
1323	1.3154e+02	6.8424	5.893432	0.000164	1.638036	0.277491	-0.000016
1324	1.3164e+02	6.8319	5.873472	0.000201	2.006594	0.339926	-0.000020
1325	1.3174e+02	6.8220	5.857586	0.000160	1.597085	0.270553	-0.000016
1326	1.3184e+02	6.8125	5.833960	0.000238	2.375152	0.402362	-0.000024
1327	1.3194e+02	6.8056	5.815222	0.000188	1.883741	0.319114	-0.000019
1328	1.3204e+02	6.7907	5.796892	0.000184	1.842790	0.312177	-0.000018
1329	1.3214e+02	6.7803	5.774895	0.000221	2.211348	0.374613	-0.000022
1330	1.3224e+02	6.7713	5.755750	0.000192	1.924692	0.326052	-0.000019
1331	1.3234e+02	6.7614	5.735790	0.000201	2.006594	0.339926	-0.000020
1332	1.3243e+02	6.7509	5.710943	0.000250	2.498004	0.423173	-0.000025
1333	1.3253e+02	6.7422	5.693019	0.000180	1.801839	0.305240	-0.000018
1334	1.3263e+02	6.7324	5.673467	0.000197	1.965643	0.332989	-0.000020
1335	1.3273e+02	6.7188	5.654322	0.000192	1.924692	0.326052	-0.000019
1336	1.3283e+02	6.7131	5.633140	0.000213	2.129446	0.360738	-0.000021
1337	1.3293e+02	6.7014	5.613180	0.000201	2.006594	0.339926	-0.000020
1338	1.3303e+02	6.6917	5.591591	0.000217	2.170397	0.367675	-0.000022
1339	1.3313e+02	6.6824	5.566336	0.000254	2.538955	0.430111	-0.000025
1340	1.3323e+02	6.6717	5.550042	0.000164	1.638036	0.277491	-0.000016
1341	1.3333e+02	6.6621	5.524380	0.000258	2.579906	0.437048	-0.000026
1342	1.3343e+02	6.6518	5.505235	0.000192	1.924692	0.326052	-0.000019
1343	1.3353e+02	6.6466	5.484460	0.000209	2.088496	0.353801	-0.000021
1344	1.3363e+02	6.6332	5.466537	0.000180	1.801839	0.305240	-0.000018
1345	1.3373e+02	6.6233	5.449429	0.000172	1.719937	0.291365	-0.000017
1346	1.3383e+02	6.6129	5.429062	0.000205	2.047545	0.346863	-0.000020
1347	1.3393e+02	6.6035	5.409916	0.000192	1.924692	0.326052	-0.000019
1348	1.3403e+02	6.5899	5.388735	0.000213	2.129446	0.360738	-0.000021
1349	1.3413e+02	6.5824	5.369182	0.000197	1.965643	0.332989	-0.000020
1350	1.3423e+02	6.5743	5.350852	0.000184	1.842790	0.312177	-0.000018
1351	1.3432e+02	6.5614	5.334558	0.000164	1.638036	0.277491	-0.000016
1352	1.3442e+02	6.5513	5.313376	0.000213	2.129446	0.360738	-0.000021
1353	1.3452e+02	6.5441	5.298305	0.000152	1.515183	0.256679	-0.000015
1354	1.3462e+02	6.5317	5.277123	0.000213	2.129446	0.360738	-0.000021
1355	1.3472e+02	6.5229	5.258385	0.000188	1.883741	0.319114	-0.000019
1356	1.3482e+02	6.5112	5.239647	0.000188	1.883741	0.319114	-0.000019
1357	1.3492e+02	6.5032	5.217651	0.000221	2.211348	0.374613	-0.000022
1358	1.3502e+02	6.4928	5.198913	0.000188	1.883741	0.319114	-0.000019
1359	1.3512e+02	6.4837	5.181397	0.000176	1.760888	0.298303	-0.000018
1360	1.3522e+02	6.4770	5.164696	0.000168	1.678987	0.284428	-0.000017
1361	1.3532e+02	6.4657	5.145958	0.000188	1.883741	0.319114	-0.000019
1362	1.3542e+02	6.4509	5.121925	0.000242	2.416103	0.409299	-0.000024
1363	1.3552e+02	6.4425	5.105632	0.000164	1.638036	0.277491	-0.000016
1364	1.3562e+02	6.4330	5.090153	0.000156	1.556134	0.263616	-0.000016
1365	1.3572e+02	6.4217	5.069378	0.000209	2.088496	0.353801	-0.000021
1366	1.3582e+02	6.4123	5.049011	0.000205	2.047545	0.346863	-0.000020
1367	1.3592e+02	6.4043	5.031903	0.000172	1.719937	0.291365	-0.000017
1368	1.3602e+02	6.3924	5.013572	0.000184	1.842790	0.312177	-0.000018
1369	1.3612e+02	6.3830	4.995242	0.000184	1.842790	0.312177	-0.000018
1370	1.3622e+02	6.3739	4.971616	0.000238	2.375152	0.402362	-0.000024
1371	1.3631e+02	6.3624	4.958174	0.000135	1.351379	0.228930	-0.000014
1372	1.3641e+02	6.3524	4.934548	0.000238	2.375152	0.402362	-0.000024
1373	1.3651e+02	6.3442	4.922735	0.000119	1.187576	0.201181	-0.000012
1374	1.3661e+02	6.3345	4.898294	0.000246	2.457054	0.416236	-0.000025
1375	1.3671e+02	6.3226	4.878742	0.000197	1.965643	0.332989	-0.000020
1376	1.3681e+02	6.3136	4.861226	0.000176	1.760888	0.298303	-0.000018
1377	1.3691e+02	6.3051	4.838822	0.000225	2.252299	0.381550	-0.000023
1378	1.3701e+02	6.2933	4.827824	0.000111	1.105674	0.187306	-0.000011
1379	1.3711e+02	6.2861	4.806642	0.000213	2.129446	0.360738	-0.000021
1380	1.3721e+02	6.2749	4.792385	0.000143	1.433281	0.242804	-0.000014
1381	1.3731e+02	6.2667	4.772425	0.000201	2.006594	0.339926	-0.000020
1382	1.3741e+02	6.2552	4.755317	0.000172	1.719937	0.291365	-0.000017
1383	1.3751e+02	6.2439	4.733728	0.000217	2.170397	0.367675	-0.000022
1384	1.3761e+02	6.2347	4.717027	0.000168	1.678987	0.284428	-0.000017
1385	1.3771e+02	6.2231	4.694623	0.000225	2.252299	0.381550	-0.000023
1386	1.3781e+02	6.2167	4.675885	0.000188	1.883741	0.319114	-0.000019
1387	1.3791e+02	6.2063	4.656740	0.000192	1.924692	0.326052	-0.000019
1388	1.3801e+02	6.1960	4.637188	0.000197	1.965643	0.332989	-0.000020
1389	1.3811e+02	6.1839	4.616006	0.000213	2.129446	0.360738	-0.000021
1390	1.3821e+02	6.1742	4.596453	0.000197	1.965643	0.332989	-0.000020
1391	1.3831e+02	6.1652	4.574457	0.000221	2.211348	0.374613	-0.000022
1392	1.3840e+02	6.1546	4.555719	0.000188	1.883741	0.319114	-0.000019
1393	1.3850e+02	6.1456	4.534945	0.000209	2.088496	0.353801	-0.000021
1394	1.3860e+02	6.1347	4.516614	0.000184	1.842790	0.312177	-0.000018
1395	1.3870e+02	6.1272	4.498284	0.000184	1.842790	0.312177	-0.000018
1396	1.3880e+02	6.1132	4.476287	0.000221	2.211348	0.374613	-0.000022
1397	1.3890e+02	6.1047	4.458772	0.000176	1.760888	0.298303	-0.000018
1398	1.3900e+02	6.0954	4.437997	0.000209	2.088496	0.353801	-0.000021
1399	1.3910e+02	6.0860	4.417223	0.000209	2.088496	0.353801	-0.000021
1400	1.3920e+02	6.0748	4.394004	0.000233	2.334201	0.395424	-0.000023
1401	1.3930e+02	6.0662	4.372008	0.000221	2.211348	0.374613	-0.000022
1402	1.3940e+02	6.0566	4.353270	0.000188	1.883741	0.319114	-0.000019
1403	1.3950e+02	6.0452	4.332903	0.000205	2.047545	0.346863	-0.000020
1404	1.3960e+02	6.0348	4.310906	0.000221	2.211348	0.374613	-0.000022
1405	1.3970e+02	6.0279	4.293390	0.000176	1.760888	0.298303	-0.000018
1406	1.3980e+02	6.0170	4.272616	0.000209	2.088496	0.353801	-0.000021
1407	1.3990e+02	6.0059	4.259988	0.000127	1.269478	0.215055	-0.000013
1408	1.4000e+02	5.9975	4.241251	0.000188	1.883741	0.319114	-0.000019
1409	1.4010e+02	5.9868	4.218032	0.000233	2.334201	0.395424	-0.000023
1410	1.4020e+02	5.9775	4.207849	0.000102	1.023772	0.173432	-0.000010
1411	1.4029e+02	5.9664	4.187889	0.000201	2.006594	0.339926	-0.000020
1412	1.4039e+02	5.9563	4.169966	0.000180	1.801839	0.305240	-0.000018
1413	1.4049e+02	5.9486	4.155709	0.000143	1.433281	0.242804	-0.000014
1414	1.4059e+02	5.9348	4.142674	0.000131	1.310429	0.221993	-0.000013
1415	1.4069e+02	5.9263	4.124751	0.000180	1.801839	0.305240	-0.000018
1416	1.4079e+02	5.9168	4.105606	0.000192	1.924692	0.326052	-0.000019
1417	1.4089e+02	5.9044	4.089719	0.000160	1.597085	0.270553	-0.000016
1418	1.4099e+02	5.8990	4.072611	0.000172	1.719937	0.291365	-0.000017
1419	1.4109e+02	5.8858	4.055095	0.000176	1.760888	0.298303	-0.000018
1420	1.4119e+02	5.8755	4.040431	0.000147	1.474232	0.249742	-0.000015
1421	1.4129e+02	5.8675	4.024137	0.000164	1.638036	0.277491	-0.000016
1422	1.4139e+02	5.8558	4.007843	0.000164	1.638036	0.277491	-0.000016
1423	1.4149e+02	5.8477	3.992364	0.000156	1.556134	0.263616	-0.000016
1424	1.4159e+02	5.8381	3.981366	0.000111	1.105674	0.187306	-0.000011
1425	1.4169e+02	5.8296	3.962628	0.000188	1.883741	0.319114	-0.000019
1426	1.4179e+02	5.8172	3.945927	0.000168	1.678987	0.284428	-0.000017
1427	1.4189e+02	5.8074	3.930041	0.000160	1.597085	0.270553	-0.000016
1428	1.4199e+02	5.7958	3.912933	0.000172	1.719937	0.291365	-0.000017
1429	1.4209e+02	5.7912	3.896639	0.000164	1.638036	0.277491	-0.000016
1430	1.4219e+02	5.7764	3.879123	0.000176	1.760888	0.298303	-0.000018
1431	1.4228e+02	5.7653	3.861607	0.000176	1.760888	0.298303	-0.000018
1432	1.4238e+02	5.7612	3.842870	0.000188	1.883741	0.319114	-0.000019
1433	1.4248e+02	5.7464	3.826169	0.000168	1.678987	0.284428	-0.000017
1434	1.4258e+02	5.7377	3.805394	0.000209	2.088496	0.353801	-0.000021
1435	1.4268e+02	5.7287	3.786249	0.000192	1.924692	0.326052	-0.000019
1436	1.4278e+02	5.7182	3.770770	0.000156	1.556134	0.263616	-0.000016
1437	1.4288e+02	5.7059	3.752032	0.000188	1.883741	0.319114	-0.000019
1438	1.4298e+02	5.6974	3.733294	0.000188	1.883741	0.319114	-0.000019
1439	1.4308e+02	5.6889	3.717815	0.000156	1.556134	0.263616	-0.000016
1440	1.4318e+02	5.6792	3.694597	0.000233	2.334201	0.395424	-0.000023
1441	1.4328e+02	5.6696	3.678711	0.000160	1.597085	0.270553	-0.000016
1442	1.4338e+02	5.6579	3.663639	0.000152	1.515183	0.256679	-0.000015
1443	1.4348e+02	5.6486	3.644086	0.000197	1.965643	0.332989	-0.000020
1444	1.4358e+02	5.6380	3.628200	0.000160	1.597085	0.270553	-0.000016
1445	1.4368e+02	5.6274	3.610684	0.000176	1.760888	0.298303	-0.000018
1446	1.4378e+02	5.6194	3.592761	0.000180	1.801839	0.305240	-0.000018
1447	1.4388e+02	5.6083	3.574838	0.000180	1.801839	0.305240	-0.000018
1448	1.4398e+02	5.5981	3.553249	0.000217	2.170397	0.367675	-0.000022
1449	1.4408e+02	5.5868	3.534511	0.000188	1.883741	0.319114	-0.000019
1450	1.4418e+02	5.5782	3.516588	0.000180	1.801839	0.305240	-0.000018
1451	1.4428e+02	5.5692	3.499480	0.000172	1.719937	0.291365	-0.000017
1452	1.4437e+02	5.5569	3.477483	0.000221	2.211348	0.374613	-0.000022
1453	1.4447e+02	5.5489	3.461597	0.000160	1.597085	0.270553	-0.000016
1454	1.4457e+02	5.5384	3.443267	0.000184	1.842790	0.312177	-0.000018
1455	1.4467e+02	5.5257	3.424936	0.000184	1.842790	0.312177	-0.000018
1456	1.4477e+02	5.5193	3.405384	0.000197	1.965643	0.332989	-0.000020
1457	1.4487e+02	5.5099	3.386239	0.000192	1.924692	0.326052	-0.000019
1458	1.4497e+02	5.4984	3.369945	0.000164	1.638036	0.277491	-0.000016
1459	1.4507e+02	5.4908	3.351207	0.000188	1.883741	0.319114	-0.000019
1460	1.4517e+02	5.4788	3.332062	0.000192	1.924692	0.326052	-0.000019
1461	1.4527e+02	5.4684	3.312917	0.000192	1.924692	0.326052	-0.000019
1462	1.4537e+02	5.4586	3.294994	0.000180	1.801839	0.305240	-0.000018
1463	1.4547e+02	5.4505	3.273812	0.000213	2.129446	0.360738	-0.000021
1464	1.4557e+02	5.4392	3.251001	0.000229	2.293250	0.388487	-0.000023
1465	1.4567e+02	5.4350	3.233078	0.000180	1.801839	0.305240	-0.000018
1466	1.4577e+02	5.4195	3.215155	0.000180	1.801839	0.305240	-0.000018
1467	1.4587e+02	5.4087	3.192751	0.000225	2.252299	0.381550	-0.000023
1468	1.4597e+02	5.4014	3.174013	0.000188	1.883741	0.319114	-0.000019
1469	1.4607e+02	5.3893	3.156905	0.000172	1.719937	0.291365	-0.000017
1470	1.4617e+02	5.3782	3.137352	0.000197	1.965643	0.332989	-0.000020
1471	1.4626e+02	5.3695	3.120244	0.000172	1.719937	0.291365	-0.000017
1472	1.4636e+02	5.3568	3.104358	0.000160	1.597085	0.270553	-0.000016
1473	1.4646e+02	5.3486	3.088879	0.000156	1.556134	0.263616	-0.000016
1474	1.4656e+02	5.3372	3.071770	0.000172	1.719937	0.291365	-0.000017
1475	1.4666e+02	5.3307	3.052218	0.000197	1.965643	0.332989	-0.000020
1476	1.4676e+02	5.3204	3.037961	0.000143	1.433281	0.242804	-0.000014
1477	1.4686e+02	5.3088	3.019223	0.000188	1.883741	0.319114	-0.000019
1478	1.4696e+02	5.3002	2.998041	0.000213	2.129446	0.360738	-0.000021
1479	1.4706e+02	5.2894	2.979711	0.000184	1.842790	0.312177	-0.000018
1480	1.4716e+02	5.2782	2.961380	0.000184	1.842790	0.312177	-0.000018
1481	1.4726e+02	5.2691	2.943865	0.000176	1.760888	0.298303	-0.000018
1482	1.4736e+02	5.2604	2.926349	0.000176	1.760888	0.298303	-0.000018
1483	1.4746e+02	5.2520	2.911277	0.000152	1.515183	0.256679	-0.000015
1484	1.4756e+02	5.2388	2.892947	0.000184	1.842790	0.312177	-0.000018
1485	1.4766e+02	5.2300	2.879097	0.000139	1.392330	0.235867	-0.000014
1486	1.4776e+02	5.2198	2.861174	0.000180	1.801839	0.305240	-0.000018
1487	1.4786e+02	5.2098	2.839585	0.000217	2.170397	0.367675	-0.000022
1488	1.4796e+02	5.2002	2.826143	0.000135	1.351379	0.228930	-0.000014
1489	1.4806e+02	5.1895	2.806998	0.000192	1.924692	0.326052	-0.000019
1490	1.4816e+02	5.1786	2.786630	0.000205	2.047545	0.346863	-0.000020
1491	1.4825e+02	5.1688	2.768300	0.000184	1.842790	0.312177	-0.000018
1492	1.4835e+02	5.1621	2.745896	0.000225	2.252299	0.381550	-0.000023
1493	1.4845e+02	5.1504	2.727973	0.000180	1.801839	0.305240	-0.000018
1494	1.4855e+02	5.1392	2.701496	0.000266	2.661808	0.450922	-0.000027
1495	1.4865e+02	5.1289	2.679499	0.000221	2.211348	0.374613	-0.000022
1496	1.4875e+02	5.1185	2.660354	0.000192	1.924692	0.326052	-0.000019
1497	1.4885e+02	5.1099	2.632655	0.000278	2.784661	0.471734	-0.000028
1498	1.4895e+02	5.1008	2.614732	0.000180	1.801839	0.305240	-0.000018
1499	1.4905e+02	5.0900	2.593143	0.000217	2.170397	0.367675	-0.000022
1500	1.4915e+02	5.0799	2.570739	0.000225	2.252299	0.381550	-0.000023
1501	1.4925e+02	5.0745	2.547520	0.000233	2.334201	0.395424	-0.000023
1502	1.4935e+02	5.0635	2.526339	0.000213	2.129446	0.360738	-0.000021
1503	1.4945e+02	5.0506	2.502305	0.000242	2.416103	0.409299	-0.000024
1504	1.4955e+02	5.0397	2.486826	0.000156	1.556134	0.263616	-0.000016
1505	1.4965e+02	5.0304	2.460756	0.000262	2.620857	0.443985	-0.000026
1506	1.4975e+02	5.0204	2.437130	0.000238	2.375152	0.402362	-0.000024
1507	1.4985e+02	5.0102	2.415949	0.000213	2.129446	0.360738	-0.000021
1508	1.4995e+02	5.0025	2.389471	0.000266	2.661808	0.450922	-0.000027
1509	1.5005e+02	4.9917	2.368290	0.000213	2.129446	0.360738	-0.000021
1510	1.5015e+02	4.9830	2.345071	0.000233	2.334201	0.395424	-0.000023
1511	1.5025e+02	4.9734	2.321038	0.000242	2.416103	0.409299	-0.000024
1512	1.5034e+02	4.9648	2.302707	0.000184	1.842790	0.312177	-0.000018
1513	1.5044e+02	4.9506	2.283155	0.000197	1.965643	0.332989	-0.000020
1514	1.5054e+02	4.9392	2.258714	0.000246	2.457054	0.416236	-0.000025
1515	1.5064e+02	4.9303	2.242421	0.000164	1.638036	0.277491	-0.000016
1516	1.5074e+02	4.9191	2.219610	0.000229	2.293250	0.388487	-0.000023
1517	1.5084e+02	4.9133	2.198020	0.000217	2.170397	0.367675	-0.000022
1518	1.5094e+02	4.9029	2.180097	0.000180	1.801839	0.305240	-0.000018
1519	1.5104e+02	4.8916	2.154027	0.000262	2.620857	0.443985	-0.000026
1520	1.5114e+02	4.8797	2.136512	0.000176	1.760888	0.298303	-0.000018
1521	1.5124e+02	4.8725	2.116145	0.000205	2.047545	0.346863	-0.000020
1522	1.5134e+02	4.8611	2.098221	0.000180	1.801839	0.305240	-0.000018
1523	1.5144e+02	4.8508	2.075003	0.000233	2.334201	0.395424	-0.000023
1524	1.5154e+02	4.8409	2.053006	0.000221	2.211348	0.374613	-0.000022
1525	1.5164e+02	4.8327	2.031417	0.000217	2.170397	0.367675	-0.000022
1526	1.5174e+02	4.8212	2.010643	0.000209	2.088496	0.353801	-0.000021
1527	1.5184e+02	4.8116	1.989868	0.000209	2.088496	0.353801	-0.000021
1528	1.5194e+02	4.8032	1.968279	0.000217	2.170397	0.367675	-0.000022
1529	1.5204e+02	4.7932	1.951578	0.000168	1.678987	0.284428	-0.000017
1530	1.5214e+02	4.7825	1.924694	0.000270	2.702759	0.457860	-0.000027
1531	1.5224e+02	4.7742	1.904326	0.000205	2.047545	0.346863	-0.000020
1532	1.5233e+02	4.7609	1.886811	0.000176	1.760888	0.298303	-0.000018
1533	1.5243e+02	4.7521	1.868480	0.000184	1.842790	0.312177	-0.000018
1534	1.5253e+02	4.7438	1.845262	0.000233	2.334201	0.395424	-0.000023
1535	1.5263e+02	4.7314	1.826117	0.000192	1.924692	0.326052	-0.000019
1536	1.5273e+02	4.7230	1.808601	0.000176	1.760888	0.298303	-0.000018
1537	1.5283e+02	4.7121	1.786197	0.000225	2.252299	0.381550	-0.000023
1538	1.5293e+02	4.7034	1.763386	0.000229	2.293250	0.388487	-0.000023
1539	1.5303e+02	4.6920	1.743833	0.000197	1.965643	0.332989	-0.000020
1540	1.5313e+02	4.6824	1.720615	0.000233	2.334201	0.395424	-0.000023
1541	1.5323e+02	4.6728	1.701470	0.000192	1.924692	0.326052	-0.000019
1542	1.5333e+02	4.6626	1.682325	0.000192	1.924692	0.326052	-0.000019
1543	1.5343e+02	4.6548	1.661550	0.000209	2.088496	0.353801	-0.000021
1544	1.5353e+02	4.6424	1.640776	0.000209	2.088496	0.353801	-0.000021
1545	1.5363e+02	4.6352	1.619594	0.000213	2.129446	0.360738	-0.000021
1546	1.5373e+02	4.6230	1.599634	0.000201	2.006594	0.339926	-0.000020
1547	1.5383e+02	4.6126	1.580489	0.000192	1.924692	0.326052	-0.000019
1548	1.5393e+02	4.6004	1.560937	0.000197	1.965643	0.332989	-0.000020
1549	1.5403e+02	4.5943	1.539755	0.000213	2.129446	0.360738	-0.000021
1550	1.5413e+02	4.5816	1.520610	0.000192	1.924692	0.326052	-0.000019
1551	1.5422e+02	4.5750	1.503094	0.000176	1.760888	0.298303	-0.000018
1552	1.5432e+02	4.5625	1.476209	0.000270	2.702759	0.457860	-0.000027
1553	1.5442e+02	4.5531	1.458286	0.000180	1.801839	0.305240	-0.000018
1554	1.5452e+02	4.5443	1.439141	0.000192	1.924692	0.326052	-0.000019
1555	1.5462e+02	4.5306	1.413479	0.000258	2.579906	0.437048	-0.000026
1556	1.5472e+02	4.5234	1.392297	0.000213	2.129446	0.360738	-0.000021
1557	1.5482e+02	4.5144	1.366634	0.000258	2.579906	0.437048	-0.000026
1558	1.5492e+02	4.5036	1.347082	0.000197	1.965643	0.332989	-0.000020
1559	1.5502e+02	4.4939	1.325493	0.000217	2.170397	0.367675	-0.000022
1560	1.5512e+02	4.4843	1.301052	0.000246	2.457054	0.416236	-0.000025
1561	1.5522e+02	4.4769	1.278648	0.000225	2.252299	0.381550	-0.000023
1562	1.5532e+02	4.4646	1.257466	0.000213	2.129446	0.360738	-0.000021
1563	1.5542e+02	4.4537	1.238321	0.000192	1.924692	0.326052	-0.000019
1564	1.5552e+02	4.4442	1.219176	0.000192	1.924692	0.326052	-0.000019
1565	1.5562e+02	4.4337	1.195958	0.000233	2.334201	0.395424	-0.000023
1566	1.5572e+02	4.4271	1.174369	0.000217	2.170397	0.367675	-0.000022
1567	1.5582e+02	4.4151	1.151965	0.000225	2.252299	0.381550	-0.000023
1568	1.5592e+02	4.4039	1.125895	0.000262	2.620857	0.443985	-0.000026
1569	1.5602e+02	4.3951	1.103084	0.000229	2.293250	0.388487	-0.000023
1570	1.5612e+02	4.3832	1.081902	0.000213	2.129446	0.360738	-0.000021
1571	1.5622e+02	4.3730	1.061535	0.000205	2.047545	0.346863	-0.000020
1572	1.5631e+02	4.3644	1.038724	0.000229	2.293250	0.388487	-0.000023
1573	1.5641e+02	4.3570	1.015912	0.000229	2.293250	0.388487	-0.000023
1574	1.5651e+02	4.3450	0.995545	0.000205	2.047545	0.346863	-0.000020
1575	1.5661e+02	4.3343	0.976807	0.000188	1.883741	0.319114	-0.000019
1576	1.5671e+02	4.3246	0.958070	0.000188	1.883741	0.319114	-0.000019
1577	1.5681e+02	4.3150	0.938517	0.000197	1.965643	0.332989	-0.000020
1578	1.5691e+02	4.3034	0.918557	0.000201	2.006594	0.339926	-0.000020
1579	1.5701e+02	4.2954	0.900634	0.000180	1.801839	0.305240	-0.000018
1580	1.5711e+02	4.2834	0.882711	0.000180	1.801839	0.305240	-0.000018
1581	1.5721e+02	4.2744	0.865196	0.000176	1.760888	0.298303	-0.000018
1582	1.5731e+02	4.2645	0.848495	0.000168	1.678987	0.284428	-0.000017
1583	1.5741e+02	4.2583	0.827313	0.000213	2.129446	0.360738	-0.000021
1584	1.5751e+02	4.2461	0.808168	0.000192	1.924692	0.326052	-0.000019
1585	1.5761e+02	4.2352	0.793096	0.000152	1.515183	0.256679	-0.000015
1586	1.5771e+02	4.2236	0.771507	0.000217	2.170397	0.367675	-0.000022
1587	1.5781e+02	4.2154	0.753176	0.000184	1.842790	0.312177	-0.000018
1588	1.5791e+02	4.2054	0.735253	0.000180	1.801839	0.305240	-0.000018
1589	1.5801e+02	4.1971	0.719367	0.000160	1.597085	0.270553	-0.000016
1590	1.5811e+02	4.1843	0.702666	0.000168	1.678987	0.284428	-0.000017
1591	1.5821e+02	4.1734	0.688816	0.000139	1.392330	0.235867	-0.000014
1592	1.5830e+02	4.1645	0.664783	0.000242	2.416103	0.409299	-0.000024
1593	1.5840e+02	4.1549	0.650526	0.000143	1.433281	0.242804	-0.000014
1594	1.5850e+02	4.1457	0.631381	0.000192	1.924692	0.326052	-0.000019
1595	1.5860e+02	4.1351	0.612643	0.000188	1.883741	0.319114	-0.000019
1596	1.5870e+02	4.1259	0.595127	0.000176	1.760888	0.298303	-0.000018
1597	1.5880e+02	4.1161	0.572724	0.000225	2.252299	0.381550	-0.000023
1598	1.5890e+02	4.1085	0.554801	0.000180	1.801839	0.305240	-0.000018
1599	1.5900e+02	4.0965	0.534841	0.000201	2.006594	0.339926	-0.000020
1600	1.5910e+02	4.0853	0.517325	0.000176	1.760888	0.298303	-0.000018
1601	1.5920e+02	4.0771	0.494107	0.000233	2.334201	0.395424	-0.000023
1602	1.5930e+02	4.0661	0.475776	0.000184	1.842790	0.312177	-0.000018
1603	1.5940e+02	4.0536	0.454594	0.000213	2.129446	0.360738	-0.000021
1604	1.5950e+02	4.0476	0.434227	0.000205	2.047545	0.346863	-0.000020
1605	1.5960e+02	4.0349	0.414675	0.000197	1.965643	0.332989	-0.000020
1606	1.5970e+02	4.0267	0.395122	0.000197	1.965643	0.332989	-0.000020
1607	1.5980e+02	4.0161	0.374755	0.000205	2.047545	0.346863	-0.000020
1608	1.5990e+02	4.0064	0.353573	0.000213	2.129446	0.360738	-0.000021
1609	1.6000e+02	3.9977	0.336465	0.000172	1.719937	0.291365	-0.000017
1610	1.6010e+02	3.9878	0.316098	0.000205	2.047545	0.346863	-0.000020
1611	1.6019e+02	3.9766	0.298582	0.000176	1.760888	0.298303	-0.000018
1612	1.6029e+02	3.9651	0.274142	0.000246	2.457054	0.416236	-0.000025
1613	1.6039e+02	3.9582	0.258255	0.000160	1.597085	0.270553	-0.000016
1614	1.6049e+02	3.9462	0.238703	0.000197	1.965643	0.332989	-0.000020
1615	1.6059e+02	3.9352	0.215077	0.000238	2.375152	0.402362	-0.000024
1616	1.6069e+02	3.9285	0.195117	0.000201	2.006594	0.339926	-0.000020
1617	1.6079e+02	3.9174	0.175972	0.000192	1.924692	0.326052	-0.000019
1618	1.6089e+02	3.9063	0.155605	0.000205	2.047545	0.346863	-0.000020
1619	1.6099e+02	3.8978	0.134016	0.000217	2.170397	0.367675	-0.000022
1620	1.6109e+02	3.8845	0.114871	0.000192	1.924692	0.326052	-0.000019
1621	1.6119e+02	3.8757	0.093689	0.000213	2.129446	0.360738	-0.000021
1622	1.6129e+02	3.8681	0.073729	0.000201	2.006594	0.339926	-0.000020
1623	1.6139e+02	3.8579	0.057435	0.000164	1.638036	0.277491	-0.000016
1624	1.6149e+02	3.8465	0.029329	0.000283	2.825612	0.478672	-0.000028
1625	1.6159e+02	3.8360	0.010591	0.000188	1.883741	0.319114	-0.000019
1626	1.6169e+02	3.8290	-0.004481	0.000152	1.515183	0.256679	-0.000015
1627	1.6179e+02	3.8152	-0.030551	0.000262	2.620857	0.443985	-0.000026
1628	1.6189e+02	3.8061	-0.051325	0.000209	2.088496	0.353801	-0.000021
1629	1.6199e+02	3.7984	-0.067212	0.000160	1.597085	0.270553	-0.000016
1630	1.6209e+02	3.7872	-0.092874	0.000258	2.579906	0.437048	-0.000026
1631	1.6219e+02	3.7778	-0.114871	0.000221	2.211348	0.374613	-0.000022
1632	1.6228e+02	3.7696	-0.134830	0.000201	2.006594	0.339926	-0.000020
1633	1.6238e+02	3.7550	-0.156420	0.000217	2.170397	0.367675	-0.000022
1634	1.6248e+02	3.7463	-0.180860	0.000246	2.457054	0.416236	-0.000025
1635	1.6258e+02	3.7405	-0.202449	0.000217	2.170397	0.367675	-0.000022
1636	1.6268e+02	3.7292	-0.219150	0.000168	1.678987	0.284428	-0.000017
1637	1.6278e+02	3.7164	-0.240332	0.000213	2.129446	0.360738	-0.000021
1638	1.6288e+02	3.7066	-0.261107	0.000209	2.088496	0.353801	-0.000021
1639	1.6298e+02	3.7003	-0.283510	0.000225	2.252299	0.381550	-0.000023
1640	1.6308e+02	3.6868	-0.299804	0.000164	1.638036	0.277491	-0.000016
1641	1.6318e+02	3.6779	-0.316098	0.000164	1.638036	0.277491	-0.000016
1642	1.6328e+02	3.6691	-0.339724	0.000238	2.375152	0.402362	-0.000024
1643	1.6338e+02	3.6573	-0.356017	0.000164	1.638036	0.277491	-0.000016
1644	1.6348e+02	3.6472	-0.373533	0.000176	1.760888	0.298303	-0.000018
1645	1.6358e+02	3.6372	-0.394715	0.000213	2.129446	0.360738	-0.000021
1646	1.6368e+02	3.6276	-0.415489	0.000209	2.088496	0.353801	-0.000021
1647	1.6378e+02	3.6188	-0.436264	0.000209	2.088496	0.353801	-0.000021
1648	1.6388e+02	3.6080	-0.456631	0.000205	2.047545	0.346863	-0.000020
1649	1.6398e+02	3.5959	-0.475369	0.000188	1.883741	0.319114	-0.000019
1650	1.6408e+02	3.5885	-0.494107	0.000188	1.883741	0.319114	-0.000019
1651	1.6418e+02	3.5813	-0.513659	0.000197	1.965643	0.332989	-0.000020
1652	1.6427e+02	3.5692	-0.533211	0.000197	1.965643	0.332989	-0.000020
1653	1.6437e+02	3.5575	-0.552356	0.000192	1.924692	0.326052	-0.000019
1654	1.6447e+02	3.5535	-0.569058	0.000168	1.678987	0.284428	-0.000017
1655	1.6457e+02	3.5375	-0.591869	0.000229	2.293250	0.388487	-0.000023
1656	1.6467e+02	3.5291	-0.614273	0.000225	2.252299	0.381550	-0.000023
1657	1.6477e+02	3.5175	-0.629344	0.000152	1.515183	0.256679	-0.000015
1658	1.6487e+02	3.5081	-0.652155	0.000229	2.293250	0.388487	-0.000023
1659	1.6497e+02	3.4972	-0.676189	0.000242	2.416103	0.409299	-0.000024
1660	1.6507e+02	3.4873	-0.697778	0.000217	2.170397	0.367675	-0.000022
1661	1.6517e+02	3.4769	-0.718145	0.000205	2.047545	0.346863	-0.000020
1662	1.6527e+02	3.4688	-0.743807	0.000258	2.579906	0.437048	-0.000026
1663	1.6537e+02	3.4602	-0.771914	0.000283	2.825612	0.478672	-0.000028
1664	1.6547e+02	3.4488	-0.789430	0.000176	1.760888	0.298303	-0.000018
1665	1.6557e+02	3.4380	-0.815092	0.000258	2.579906	0.437048	-0.000026
1666	1.6567e+02	3.4307	-0.839940	0.000250	2.498004	0.423173	-0.000025
1667	1.6577e+02	3.4202	-0.867232	0.000274	2.743710	0.464797	-0.000027
1668	1.6587e+02	3.4084	-0.886785	0.000197	1.965643	0.332989	-0.000020
1669	1.6597e+02	3.4008	-0.913262	0.000266	2.661808	0.450922	-0.000027
1670	1.6607e+02	3.3895	-0.935666	0.000225	2.252299	0.381550	-0.000023
1671	1.6616e+02	3.3820	-0.960921	0.000254	2.538955	0.430111	-0.000025
1672	1.6626e+02	3.3679	-0.986584	0.000258	2.579906	0.437048	-0.000026
1673	1.6636e+02	3.3607	-1.012246	0.000258	2.579906	0.437048	-0.000026
1674	1.6646e+02	3.3509	-1.034243	0.000221	2.211348	0.374613	-0.000022
1675	1.6656e+02	3.3415	-1.061127	0.000270	2.702759	0.457860	-0.000027
1676	1.6666e+02	3.3302	-1.084346	0.000233	2.334201	0.395424	-0.000023
1677	1.6676e+02	3.3182	-1.111638	0.000274	2.743710	0.464797	-0.000027
1678	1.6686e+02	3.3126	-1.134449	0.000229	2.293250	0.388487	-0.000023
1679	1.6696e+02	3.3035	-1.161334	0.000270	2.702759	0.457860	-0.000027
1680	1.6706e+02	3.2914	-1.184145	0.000229	2.293250	0.388487	-0.000023
1681	1.6716e+02	3.2816	-1.203697	0.000197	1.965643	0.332989	-0.000020
1682	1.6726e+02	3.2667	-1.230175	0.000266	2.661808	0.450922	-0.000027
1683	1.6736e+02	3.2584	-1.252578	0.000225	2.252299	0.381550	-0.000023
1684	1.6746e+02	3.2508	-1.272538	0.000201	2.006594	0.339926	-0.000020
1685	1.6756e+02	3.2375	-1.299015	0.000266	2.661808	0.450922	-0.000027
1686	1.6766e+02	3.2287	-1.322234	0.000233	2.334201	0.395424	-0.000023
1687	1.6776e+02	3.2184	-1.341786	0.000197	1.965643	0.332989	-0.000020
1688	1.6786e+02	3.2124	-1.361746	0.000201	2.006594	0.339926	-0.000020
1689	1.6796e+02	3.1998	-1.384965	0.000233	2.334201	0.395424	-0.000023
1690	1.6806e+02	3.1890	-1.410627	0.000258	2.579906	0.437048	-0.000026
1691	1.6816e+02	3.1810	-1.431402	0.000209	2.088496	0.353801	-0.000021
1692	1.6825e+02	3.1692	-1.451769	0.000205	2.047545	0.346863	-0.000020
1693	1.6835e+02	3.1605	-1.482320	0.000307	3.071317	0.520295	-0.000031
1694	1.6845e+02	3.1517	-1.503094	0.000209	2.088496	0.353801	-0.000021
1695	1.6855e+02	3.1411	-1.523868	0.000209	2.088496	0.353801	-0.000021
1696	1.6865e+02	3.1307	-1.550753	0.000270	2.702759	0.457860	-0.000027
1697	1.6875e+02	3.1205	-1.570306	0.000197	1.965643	0.332989	-0.000020
1698	1.6885e+02	3.1094	-1.592302	0.000221	2.211348	0.374613	-0.000022
1699	1.6895e+02	3.1023	-1.615928	0.000238	2.375152	0.402362	-0.000024
1700	1.6905e+02	3.0900	-1.638739	0.000229	2.293250	0.388487	-0.000023
1701	1.6915e+02	3.0807	-1.661550	0.000229	2.293250	0.388487	-0.000023
1702	1.6925e+02	3.0729	-1.684361	0.000229	2.293250	0.388487	-0.000023
1703	1.6935e+02	3.0611	-1.704321	0.000201	2.006594	0.339926	-0.000020
1704	1.6945e+02	3.0495	-1.727947	0.000238	2.375152	0.402362	-0.000024
1705	1.6955e+02	3.0411	-1.755646	0.000278	2.784661	0.471734	-0.000028
1706	1.6965e+02	3.0338	-1.773162	0.000176	1.760888	0.298303	-0.000018
1707	1.6975e+02	3.0212	-1.793122	0.000201	2.006594	0.339926	-0.000020
1708	1.6985e+02	3.0101	-1.820007	0.000270	2.702759	0.457860	-0.000027
1709	1.6995e+02	3.0005	-1.842003	0.000221	2.211348	0.374613	-0.000022
1710	1.7005e+02	2.9900	-1.866036	0.000242	2.416103	0.409299	-0.000024
1711	1.7015e+02	2.9810	-1.888440	0.000225	2.252299	0.381550	-0.000023
1712	1.7024e+02	2.9702	-1.910029	0.000217	2.170397	0.367675	-0.000022
1713	1.7034e+02	2.9599	-1.937729	0.000278	2.784661	0.471734	-0.000028
1714	1.7044e+02	2.9504	-1.954837	0.000172	1.719937	0.291365	-0.000017
1715	1.7054e+02	2.9427	-1.977241	0.000225	2.252299	0.381550	-0.000023
1716	1.7064e+02	2.9328	-2.000459	0.000233	2.334201	0.395424	-0.000023
1717	1.7074e+02	2.9206	-2.020826	0.000205	2.047545	0.346863	-0.000020
1718	1.7084e+02	2.9137	-2.041601	0.000209	2.088496	0.353801	-0.000021
1719	1.7094e+02	2.9027	-2.063597	0.000221	2.211348	0.374613	-0.000022
1720	1.7104e+02	2.8938	-2.086409	0.000229	2.293250	0.388487	-0.000023
1721	1.7114e+02	2.8814	-2.112886	0.000266	2.661808	0.450922	-0.000027
1722	1.7124e+02	2.8723	-2.134068	0.000213	2.129446	0.360738	-0.000021
1723	1.7134e+02	2.8612	-2.157286	0.000233	2.334201	0.395424	-0.000023
1724	1.7144e+02	2.8519	-2.183356	0.000262	2.620857	0.443985	-0.000026
1725	1.7154e+02	2.8409	-2.208204	0.000250	2.498004	0.423173	-0.000025
1726	1.7164e+02	2.8318	-2.234274	0.000262	2.620857	0.443985	-0.000026
1727	1.7174e+02	2.8223	-2.257085	0.000229	2.293250	0.388487	-0.000023
1728	1.7184e+02	2.8115	-2.281933	0.000250	2.498004	0.423173	-0.000025
1729	1.7194e+02	2.8026	-2.305966	0.000242	2.416103	0.409299	-0.000024
1730	1.7204e+02	2.7911	-2.329999	0.000242	2.416103	0.409299	-0.000024
1731	1.7213e+02	2.7856	-2.352811	0.000229	2.293250	0.388487	-0.000023
1732	1.7223e+02	2.7716	-2.377658	0.000250	2.498004	0.423173	-0.000025
1733	1.7233e+02	2.7618	-2.400470	0.000229	2.293250	0.388487	-0.000023
1734	1.7243e+02	2.7500	-2.425318	0.000250	2.498004	0.423173	-0.000025
1735	1.7253e+02	2.7430	-2.450980	0.000258	2.579906	0.437048	-0.000026
1736	1.7263e+02	2.7297	-2.474199	0.000233	2.334201	0.395424	-0.000023
1737	1.7273e+02	2.7238	-2.499454	0.000254	2.538955	0.430111	-0.000025
1738	1.7283e+02	2.7110	-2.526339	0.000270	2.702759	0.457860	-0.000027
1739	1.7293e+02	2.7017	-2.550372	0.000242	2.416103	0.409299	-0.000024
1740	1.7303e+02	2.6929	-2.571961	0.000217	2.170397	0.367675	-0.000022
1741	1.7313e+02	2.6842	-2.594772	0.000229	2.293250	0.388487	-0.000023
1742	1.7323e+02	2.6708	-2.620435	0.000258	2.579906	0.437048	-0.000026
1743	1.7333e+02	2.6621	-2.637136	0.000168	1.678987	0.284428	-0.000017
1744	1.7343e+02	2.6514	-2.659947	0.000229	2.293250	0.388487	-0.000023
1745	1.7353e+02	2.6431	-2.682758	0.000229	2.293250	0.388487	-0.000023
1746	1.7363e+02	2.6340	-2.702718	0.000201	2.006594	0.339926	-0.000020
1747	1.7373e+02	2.6257	-2.723085	0.000205	2.047545	0.346863	-0.000020
1748	1.7383e+02	2.6128	-2.743859	0.000209	2.088496	0.353801	-0.000021
1749	1.7393e+02	2.6029	-2.761782	0.000180	1.801839	0.305240	-0.000018
1750	1.7403e+02	2.5905	-2.785001	0.000233	2.334201	0.395424	-0.000023
1751	1.7413e+02	2.5851	-2.804553	0.000197	1.965643	0.332989	-0.000020
1752	1.7422e+02	2.5732	-2.826957	0.000225	2.252299	0.381550	-0.000023
1753	1.7432e+02	2.5651	-2.846510	0.000197	1.965643	0.332989	-0.000020
1754	1.7442e+02	2.5524	-2.864840	0.000184	1.842790	0.312177	-0.000018
1755	1.7452e+02	2.5430	-2.885207	0.000205	2.047545	0.346863	-0.000020
1756	1.7462e+02	2.5319	-2.907204	0.000221	2.211348	0.374613	-0.000022
1757	1.7472e+02	2.5227	-2.926756	0.000197	1.965643	0.332989	-0.000020
1758	1.7482e+02	2.5111	-2.944679	0.000180	1.801839	0.305240	-0.000018
1759	1.7492e+02	2.5039	-2.964232	0.000197	1.965643	0.332989	-0.000020
1760	1.7502e+02	2.4943	-2.982155	0.000180	1.801839	0.305240	-0.000018
1761	1.7512e+02	2.4840	-3.003744	0.000217	2.170397	0.367675	-0.000022
1762	1.7522e+02	2.4695	-3.025740	0.000221	2.211348	0.374613	-0.000022
1763	1.7532e+02	2.4645	-3.045293	0.000197	1.965643	0.332989	-0.000020
1764	1.7542e+02	2.4559	-3.066882	0.000217	2.170397	0.367675	-0.000022
1765	1.7552e+02	2.4421	-3.089286	0.000225	2.252299	0.381550	-0.000023
1766	1.7562e+02	2.4344	-3.113726	0.000246	2.457054	0.416236	-0.000025
1767	1.7572e+02	2.4261	-3.130835	0.000172	1.719937	0.291365	-0.000017
1768	1.7582e+02	2.4113	-3.156905	0.000262	2.620857	0.443985	-0.000026
1769	1.7592e+02	2.4062	-3.179309	0.000225	2.252299	0.381550	-0.000023
1770	1.7602e+02	2.3927	-3.198046	0.000188	1.883741	0.319114	-0.000019
1771	1.7612e+02	2.3817	-3.223302	0.000254	2.538955	0.430111	-0.000025
1772	1.7621e+02	2.3726	-3.245705	0.000225	2.252299	0.381550	-0.000023
1773	1.7631e+02	2.3626	-3.268109	0.000225	2.252299	0.381550	-0.000023
1774	1.7641e+02	2.3539	-3.289291	0.000213	2.129446	0.360738	-0.000021
1775	1.7651e+02	2.3467	-3.308844	0.000197	1.965643	0.332989	-0.000020
1776	1.7661e+02	2.3313	-3.330433	0.000217	2.170397	0.367675	-0.000022
1777	1.7671e+02	2.3246	-3.354059	0.000238	2.375152	0.402362	-0.000024
1778	1.7681e+02	2.3138	-3.375240	0.000213	2.129446	0.360738	-0.000021
1779	1.7691e+02	2.3030	-3.399274	0.000242	2.416103	0.409299	-0.000024
1780	1.7701e+02	2.2924	-3.419641	0.000205	2.047545	0.346863	-0.000020
1781	1.7711e+02	2.2851	-3.441637	0.000221	2.211348	0.374613	-0.000022
1782	1.7721e+02	2.2756	-3.466078	0.000246	2.457054	0.416236	-0.000025
1783	1.7731e+02	2.2646	-3.485630	0.000197	1.965643	0.332989	-0.000020
1784	1.7741e+02	2.2557	-3.509663	0.000242	2.416103	0.409299	-0.000024
1785	1.7751e+02	2.2472	-3.533289	0.000238	2.375152	0.402362	-0.000024
1786	1.7761e+02	2.2363	-3.552842	0.000197	1.965643	0.332989	-0.000020
1787	1.7771e+02	2.2224	-3.579319	0.000266	2.661808	0.450922	-0.000027
1788	1.7781e+02	2.2137	-3.602538	0.000233	2.334201	0.395424	-0.000023
1789	1.7791e+02	2.2032	-3.626571	0.000242	2.416103	0.409299	-0.000024
1790	1.7801e+02	2.1938	-3.647345	0.000209	2.088496	0.353801	-0.000021
1791	1.7810e+02	2.1856	-3.670971	0.000238	2.375152	0.402362	-0.000024
1792	1.7820e+02	2.1745	-3.691746	0.000209	2.088496	0.353801	-0.000021
1793	1.7830e+02	2.1644	-3.717408	0.000258	2.579906	0.437048	-0.000026
1794	1.7840e+02	2.1536	-3.739812	0.000225	2.252299	0.381550	-0.000023
1795	1.7850e+02	2.1473	-3.761401	0.000217	2.170397	0.367675	-0.000022
1796	1.7860e+02	2.1371	-3.780954	0.000197	1.965643	0.332989	-0.000020
1797	1.7870e+02	2.1241	-3.808246	0.000274	2.743710	0.464797	-0.000027
1798	1.7880e+02	2.1147	-3.831464	0.000233	2.334201	0.395424	-0.000023
1799	1.7890e+02	2.1064	-3.855905	0.000246	2.457054	0.416236	-0.000025
1800	1.7900e+02	2.0950	-3.881567	0.000258	2.579906	0.437048	-0.000026
1801	1.7910e+02	2.0870	-3.901120	0.000197	1.965643	0.332989	-0.000020
1802	1.7920e+02	2.0748	-3.928819	0.000278	2.784661	0.471734	-0.000028
1803	1.7930e+02	2.0628	-3.950815	0.000221	2.211348	0.374613	-0.000022
1804	1.7940e+02	2.0565	-3.973219	0.000225	2.252299	0.381550	-0.000023
1805	1.7950e+02	2.0443	-3.995623	0.000225	2.252299	0.381550	-0.000023
1806	1.7960e+02	2.0362	-4.018434	0.000229	2.293250	0.388487	-0.000023
1807	1.7970e+02	2.0264	-4.038801	0.000205	2.047545	0.346863	-0.000020
1808	1.7980e+02	2.0164	-4.062835	0.000242	2.416103	0.409299	-0.000024
1809	1.7990e+02	2.0057	-4.080350	0.000176	1.760888	0.298303	-0.000018
1810	1.8000e+02	1.9965	-4.106420	0.000262	2.620857	0.443985	-0.000026
1811	1.8009e+02	1.9879	-4.125565	0.000192	1.924692	0.326052	-0.000019
1812	1.8019e+02	1.9743	-4.147155	0.000217	2.170397	0.367675	-0.000022
1813	1.8029e+02	1.9660	-4.166300	0.000192	1.924692	0.326052	-0.000019
1814	1.8039e+02	1.9566	-4.193184	0.000270	2.702759	0.457860	-0.000027
1815	1.8049e+02	1.9473	-4.215588	0.000225	2.252299	0.381550	-0.000023
1816	1.8059e+02	1.9354	-4.235141	0.000197	1.965643	0.332989	-0.000020
1817	1.8069e+02	1.9231	-4.258766	0.000238	2.375152	0.402362	-0.000024
1818	1.8079e+02	1.9185	-4.280763	0.000221	2.211348	0.374613	-0.000022
1819	1.8089e+02	1.9067	-4.299093	0.000184	1.842790	0.312177	-0.000018
1820	1.8099e+02	1.8971	-4.321497	0.000225	2.252299	0.381550	-0.000023
1821	1.8109e+02	1.8871	-4.343086	0.000217	2.170397	0.367675	-0.000022
1822	1.8119e+02	1.8744	-4.365083	0.000221	2.211348	0.374613	-0.000022
1823	1.8129e+02	1.8645	-4.389116	0.000242	2.416103	0.409299	-0.000024
1824	1.8139e+02	1.8561	-4.415186	0.000262	2.620857	0.443985	-0.000026
1825	1.8149e+02	1.8472	-4.434738	0.000197	1.965643	0.332989	-0.000020
1826	1.8159e+02	1.8382	-4.457550	0.000229	2.293250	0.388487	-0.000023
1827	1.8169e+02	1.8289	-4.479546	0.000221	2.211348	0.374613	-0.000022
1828	1.8179e+02	1.8166	-4.508060	0.000287	2.866562	0.485609	-0.000029
1829	1.8189e+02	1.8078	-4.532093	0.000242	2.416103	0.409299	-0.000024
1830	1.8199e+02	1.7976	-4.562237	0.000303	3.030366	0.513358	-0.000030
1831	1.8209e+02	1.7862	-4.585048	0.000229	2.293250	0.388487	-0.000023
1832	1.8218e+02	1.7772	-4.612340	0.000274	2.743710	0.464797	-0.000027
1833	1.8228e+02	1.7680	-4.641261	0.000291	2.907513	0.492546	-0.000029
1834	1.8238e+02	1.7572	-4.665294	0.000242	2.416103	0.409299	-0.000024
1835	1.8248e+02	1.7465	-4.692994	0.000278	2.784661	0.471734	-0.000028
1836	1.8258e+02	1.7381	-4.717434	0.000246	2.457054	0.416236	-0.000025
1837	1.8268e+02	1.7284	-4.747577	0.000303	3.030366	0.513358	-0.000030
1838	1.8278e+02	1.7175	-4.774869	0.000274	2.743710	0.464797	-0.000027
1839	1.8288e+02	1.7077	-4.798088	0.000233	2.334201	0.395424	-0.000023
1840	1.8298e+02	1.6975	-4.824973	0.000270	2.702759	0.457860	-0.000027
1841	1.8308e+02	1.6879	-4.851042	0.000262	2.620857	0.443985	-0.000026
1842	1.8318e+02	1.6793	-4.882000	0.000311	3.112268	0.527232	-0.000031
1843	1.8328e+02	1.6687	-4.906441	0.000246	2.457054	0.416236	-0.000025
1844	1.8338e+02	1.6555	-4.935362	0.000291	2.907513	0.492546	-0.000029
1845	1.8348e+02	1.6469	-4.962654	0.000274	2.743710	0.464797	-0.000027
1846	1.8358e+02	1.6351	-4.987502	0.000250	2.498004	0.423173	-0.000025
1847	1.8368e+02	1.6294	-5.012350	0.000250	2.498004	0.423173	-0.000025
1848	1.8378e+02	1.6185	-5.040864	0.000287	2.866562	0.485609	-0.000029
1849	1.8388e+02	1.6105	-5.066119	0.000254	2.538955	0.430111	-0.000025
1850	1.8398e+02	1.5981	-5.087301	0.000213	2.129446	0.360738	-0.000021
1851	1.8407e+02	1.5894	-5.116222	0.000291	2.907513	0.492546	-0.000029
1852	1.8417e+02	1.5797	-5.139034	0.000229	2.293250	0.388487	-0.000023
1853	1.8427e+02	1.5699	-5.165511	0.000266	2.661808	0.450922	-0.000027
1854	1.8437e+02	1.5608	-5.191988	0.000266	2.661808	0.450922	-0.000027
1855	1.8447e+02	1.5489	-5.218873	0.000270	2.702759	0.457860	-0.000027
1856	1.8457e+02	1.5369	-5.240462	0.000217	2.170397	0.367675	-0.000022
1857	1.8467e+02	1.5296	-5.264495	0.000242	2.416103	0.409299	-0.000024
1858	1.8477e+02	1.5191	-5.288528	0.000242	2.416103	0.409299	-0.000024
1859	1.8487e+02	1.5112	-5.319486	0.000311	3.112268	0.527232	-0.000031
1860	1.8497e+02	1.5016	-5.341890	0.000225	2.252299	0.381550	-0.000023
1861	1.8507e+02	1.4882	-5.369590	0.000278	2.784661	0.471734	-0.000028
1862	1.8517e+02	1.4782	-5.394030	0.000246	2.457054	0.416236	-0.000025
1863	1.8527e+02	1.4686	-5.420507	0.000266	2.661808	0.450922	-0.000027
1864	1.8537e+02	1.4562	-5.442911	0.000225	2.252299	0.381550	-0.000023
1865	1.8547e+02	1.4472	-5.466944	0.000242	2.416103	0.409299	-0.000024
1866	1.8557e+02	1.4398	-5.491792	0.000250	2.498004	0.423173	-0.000025
1867	1.8567e+02	1.4262	-5.520306	0.000287	2.866562	0.485609	-0.000029
1868	1.8577e+02	1.4173	-5.545969	0.000258	2.579906	0.437048	-0.000026
1869	1.8587e+02	1.4089	-5.572039	0.000262	2.620857	0.443985	-0.000026
1870	1.8597e+02	1.3979	-5.593221	0.000213	2.129446	0.360738	-0.000021
1871	1.8606e+02	1.3867	-5.619698	0.000266	2.661808	0.450922	-0.000027
1872	1.8616e+02	1.3758	-5.646175	0.000266	2.661808	0.450922	-0.000027
1873	1.8626e+02	1.3661	-5.671838	0.000258	2.579906	0.437048	-0.000026
1874	1.8636e+02	1.3599	-5.695056	0.000233	2.334201	0.395424	-0.000023
1875	1.8646e+02	1.3490	-5.721941	0.000270	2.702759	0.457860	-0.000027
1876	1.8656e+02	1.3396	-5.745974	0.000242	2.416103	0.409299	-0.000024
1877	1.8666e+02	1.3307	-5.771637	0.000258	2.579906	0.437048	-0.000026
1878	1.8676e+02	1.3189	-5.799336	0.000278	2.784661	0.471734	-0.000028
1879	1.8686e+02	1.3114	-5.822962	0.000238	2.375152	0.402362	-0.000024
1880	1.8696e+02	1.2975	-5.849439	0.000266	2.661808	0.450922	-0.000027
1881	1.8706e+02	1.2908	-5.871436	0.000221	2.211348	0.374613	-0.000022
1882	1.8716e+02	1.2759	-5.899135	0.000278	2.784661	0.471734	-0.000028
1883	1.8726e+02	1.2704	-5.921539	0.000225	2.252299	0.381550	-0.000023
1884	1.8736e+02	1.2605	-5.948016	0.000266	2.661808	0.450922	-0.000027
1885	1.8746e+02	1.2488	-5.967568	0.000197	1.965643	0.332989	-0.000020
1886	1.8756e+02	1.2382	-5.993638	0.000262	2.620857	0.443985	-0.000026
1887	1.8766e+02	1.2283	-6.018894	0.000254	2.538955	0.430111	-0.000025
1888	1.8776e+02	1.2209	-6.045778	0.000270	2.702759	0.457860	-0.000027
1889	1.8786e+02	1.2104	-6.068997	0.000233	2.334201	0.395424	-0.000023
1890	1.8796e+02	1.2015	-6.098325	0.000295	2.948464	0.499483	-0.000029
1891	1.8806e+02	1.1912	-6.123988	0.000258	2.579906	0.437048	-0.000026
1892	1.8815e+02	1.1806	-6.154539	0.000307	3.071317	0.520295	-0.000031
1893	1.8825e+02	1.1714	-6.179794	0.000254	2.538955	0.430111	-0.000025
1894	1.8835e+02	1.1620	-6.202605	0.000229	2.293250	0.388487	-0.000023
1895	1.8845e+02	1.1479	-6.233970	0.000315	3.153219	0.534170	-0.000032
1896	1.8855e+02	1.1405	-6.260855	0.000270	2.702759	0.457860	-0.000027
1897	1.8865e+02	1.1294	-6.285296	0.000246	2.457054	0.416236	-0.000025
1898	1.8875e+02	1.1213	-6.310551	0.000254	2.538955	0.430111	-0.000025
1899	1.8885e+02	1.1107	-6.337028	0.000266	2.661808	0.450922	-0.000027
1900	1.8895e+02	1.1000	-6.360247	0.000233	2.334201	0.395424	-0.000023
1901	1.8905e+02	1.0902	-6.391612	0.000315	3.153219	0.534170	-0.000032
1902	1.8915e+02	1.0793	-6.422977	0.000315	3.153219	0.534170	-0.000032
1903	1.8925e+02	1.0709	-6.449862	0.000270	2.702759	0.457860	-0.000027
1904	1.8935e+02	1.0609	-6.473895	0.000242	2.416103	0.409299	-0.000024
1905	1.8945e+02	1.0500	-6.500780	0.000270	2.702759	0.457860	-0.000027
1906	1.8955e+02	1.0388	-6.529701	0.000291	2.907513	0.492546	-0.000029
1907	1.8965e+02	1.0307	-6.555364	0.000258	2.579906	0.437048	-0.000026
1908	1.8975e+02	1.0205	-6.580619	0.000254	2.538955	0.430111	-0.000025
1909	1.8985e+02	1.0114	-6.603023	0.000225	2.252299	0.381550	-0.000023
1910	1.8995e+02	1.0016	-6.631537	0.000287	2.866562	0.485609	-0.000029
1911	1.9004e+02	0.9912	-6.658421	0.000270	2.702759	0.457860	-0.000027
1912	1.9014e+02	0.9825	-6.680418	0.000221	2.211348	0.374613	-0.000022
1913	1.9024e+02	0.9717	-6.706895	0.000266	2.661808	0.450922	-0.000027
1914	1.9034e+02	0.9629	-6.724411	0.000176	1.760888	0.298303	-0.000018
1915	1.9044e+02	0.9518	-6.748851	0.000246	2.457054	0.416236	-0.000025
1916	1.9054e+02	0.9442	-6.769219	0.000205	2.047545	0.346863	-0.000020
1917	1.9064e+02	0.9291	-6.794066	0.000250	2.498004	0.423173	-0.000025
1918	1.9074e+02	0.9197	-6.814434	0.000205	2.047545	0.346863	-0.000020
1919	1.9084e+02	0.9100	-6.839689	0.000254	2.538955	0.430111	-0.000025
1920	1.9094e+02	0.9010	-6.861685	0.000221	2.211348	0.374613	-0.000022
1921	1.9104e+02	0.8918	-6.885311	0.000238	2.375152	0.402362	-0.000024
1922	1.9114e+02	0.8835	-6.911381	0.000262	2.620857	0.443985	-0.000026
1923	1.9124e+02	0.8718	-6.933785	0.000225	2.252299	0.381550	-0.000023
1924	1.9134e+02	0.8602	-6.955781	0.000221	2.211348	0.374613	-0.000022
1925	1.9144e+02	0.8534	-6.975741	0.000201	2.006594	0.339926	-0.000020
1926	1.9154e+02	0.8398	-6.996923	0.000213	2.129446	0.360738	-0.000021
1927	1.9164e+02	0.8291	-7.023400	0.000266	2.661808	0.450922	-0.000027
1928	1.9174e+02	0.8199	-7.047026	0.000238	2.375152	0.402362	-0.000024
1929	1.9184e+02	0.8114	-7.068615	0.000217	2.170397	0.367675	-0.000022
1930	1.9194e+02	0.8028	-7.092649	0.000242	2.416103	0.409299	-0.000024
1931	1.9203e+02	0.7922	-7.115460	0.000229	2.293250	0.388487	-0.000023
1932	1.9213e+02	0.7825	-7.139493	0.000242	2.416103	0.409299	-0.000024
1933	1.9223e+02	0.7739	-7.165155	0.000258	2.579906	0.437048	-0.000026
1934	1.9233e+02	0.7625	-7.189596	0.000246	2.457054	0.416236	-0.000025
1935	1.9243e+02	0.7521	-7.215259	0.000258	2.579906	0.437048	-0.000026
1936	1.9253e+02	0.7426	-7.237662	0.000225	2.252299	0.381550	-0.000023
1937	1.9263e+02	0.7320	-7.263732	0.000262	2.620857	0.443985	-0.000026
1938	1.9273e+02	0.7207	-7.288988	0.000254	2.538955	0.430111	-0.000025
1939	1.9283e+02	0.7120	-7.315465	0.000266	2.661808	0.450922	-0.000027
1940	1.9293e+02	0.7018	-7.338683	0.000233	2.334201	0.395424	-0.000023
1941	1.9303e+02	0.6924	-7.364753	0.000262	2.620857	0.443985	-0.000026
1942	1.9313e+02	0.6815	-7.390416	0.000258	2.579906	0.437048	-0.000026
1943	1.9323e+02	0.6715	-7.413634	0.000233	2.334201	0.395424	-0.000023
1944	1.9333e+02	0.6628	-7.436446	0.000229	2.293250	0.388487	-0.000023
1945	1.9343e+02	0.6527	-7.462108	0.000258	2.579906	0.437048	-0.000026
1946	1.9353e+02	0.6431	-7.486141	0.000242	2.416103	0.409299	-0.000024
1947	1.9363e+02	0.6326	-7.511397	0.000254	2.538955	0.430111	-0.000025
1948	1.9373e+02	0.6226	-7.535430	0.000242	2.416103	0.409299	-0.000024
1949	1.9383e+02	0.6132	-7.566388	0.000311	3.112268	0.527232	-0.000031
1950	1.9393e+02	0.6032	-7.587162	0.000209	2.088496	0.353801	-0.000021
1951	1.9403e+02	0.5926	-7.610788	0.000238	2.375152	0.402362	-0.000024
1952	1.9412e+02	0.5833	-7.638080	0.000274	2.743710	0.464797	-0.000027
1953	1.9422e+02	0.5739	-7.663743	0.000258	2.579906	0.437048	-0.000026
1954	1.9432e+02	0.5653	-7.691035	0.000274	2.743710	0.464797	-0.000027
1955	1.9442e+02	0.5529	-7.717105	0.000262	2.620857	0.443985	-0.000026
1956	1.9452e+02	0.5435	-7.742360	0.000254	2.538955	0.430111	-0.000025
1957	1.9462e+02	0.5322	-7.767615	0.000254	2.538955	0.430111	-0.000025
1958	1.9472e+02	0.5223	-7.794092	0.000266	2.661808	0.450922	-0.000027
1959	1.9482e+02	0.5145	-7.819755	0.000258	2.579906	0.437048	-0.000026
1960	1.9492e+02	0.5029	-7.840937	0.000213	2.129446	0.360738	-0.000021
1961	1.9502e+02	0.4925	-7.867007	0.000262	2.620857	0.443985	-0.000026
1962	1.9512e+02	0.4835	-7.895928	0.000291	2.907513	0.492546	-0.000029
1963	1.9522e+02	0.4720	-7.920776	0.000250	2.498004	0.423173	-0.000025
1964	1.9532e+02	0.4654	-7.946438	0.000258	2.579906	0.437048	-0.000026
1965	1.9542e+02	0.4543	-7.971694	0.000254	2.538955	0.430111	-0.000025
1966	1.9552e+02	0.4423	-8.006318	0.000348	3.480826	0.589668	-0.000035
1967	1.9562e+02	0.4316	-8.026278	0.000201	2.006594	0.339926	-0.000020
1968	1.9572e+02	0.4257	-8.056421	0.000303	3.030366	0.513358	-0.000030
1969	1.9582e+02	0.4133	-8.084120	0.000278	2.784661	0.471734	-0.000028
1970	1.9592e+02	0.4028	-8.109783	0.000258	2.579906	0.437048	-0.000026
1971	1.9601e+02	0.3938	-8.132187	0.000225	2.252299	0.381550	-0.000023
1972	1.9611e+02	0.3843	-8.162330	0.000303	3.030366	0.513358	-0.000030
1973	1.9621e+02	0.3743	-8.186771	0.000246	2.457054	0.416236	-0.000025
1974	1.9631e+02	0.3635	-8.209582	0.000229	2.293250	0.388487	-0.000023
1975	1.9641e+02	0.3574	-8.233615	0.000242	2.416103	0.409299	-0.000024
1976	1.9651e+02	0.3451	-8.259278	0.000258	2.579906	0.437048	-0.000026
1977	1.9661e+02	0.3346	-8.279237	0.000201	2.006594	0.339926	-0.000020
1978	1.9671e+02	0.3246	-8.306937	0.000278	2.784661	0.471734	-0.000028
1979	1.9681e+02	0.3153	-8.330155	0.000233	2.334201	0.395424	-0.000023
1980	1.9691e+02	0.3029	-8.355818	0.000258	2.579906	0.437048	-0.000026
1981	1.9701e+02	0.2917	-8.385146	0.000295	2.948464	0.499483	-0.000029
1982	1.9711e+02	0.2873	-8.407550	0.000225	2.252299	0.381550	-0.000023
1983	1.9721e+02	0.2760	-8.431176	0.000238	2.375152	0.402362	-0.000024
1984	1.9731e+02	0.2666	-8.460097	0.000291	2.907513	0.492546	-0.000029
1985	1.9741e+02	0.2551	-8.479243	0.000192	1.924692	0.326052	-0.000019
1986	1.9751e+02	0.2441	-8.506535	0.000274	2.743710	0.464797	-0.000027
1987	1.9761e+02	0.2335	-8.530975	0.000246	2.457054	0.416236	-0.000025
1988	1.9771e+02	0.2256	-8.553786	0.000229	2.293250	0.388487	-0.000023
1989	1.9781e+02	0.2150	-8.581486	0.000278	2.784661	0.471734	-0.000028
1990	1.9791e+02	0.2043	-8.604704	0.000233	2.334201	0.395424	-0.000023
1991	1.9800e+02	0.1955	-8.627108	0.000225	2.252299	0.381550	-0.000023
1992	1.9810e+02	0.1846	-8.660103	0.000332	3.317022	0.561919	-0.000033
1993	1.9820e+02	0.1740	-8.682099	0.000221	2.211348	0.374613	-0.000022
1994	1.9830e+02	0.1670	-8.710206	0.000283	2.825612	0.478672	-0.000028
1995	1.9840e+02	0.1532	-8.739127	0.000291	2.907513	0.492546	-0.000029
1996	1.9850e+02	0.1443	-8.766826	0.000278	2.784661	0.471734	-0.000028
1997	1.9860e+02	0.1337	-8.794933	0.000283	2.825612	0.478672	-0.000028
1998	1.9870e+02	0.1239	-8.826706	0.000319	3.194170	0.541107	-0.000032
1999	1.9880e+02	0.1134	-8.851961	0.000254	2.538955	0.430111	-0.000025
2000	1.9890e+02	0.1061	-8.887807	0.000360	3.603679	0.610480	-0.000036
2001	1.9900e+02	0.0942	-8.915914	0.000283	2.825612	0.478672	-0.000028
2002	1.9910e+02	0.0869	-8.945650	0.000299	2.989415	0.506421	-0.000030
2003	1.9920e+02	0.0756	-8.977422	0.000319	3.194170	0.541107	-0.000032
2004	1.9930e+02	0.0657	-9.005529	0.000283	2.825612	0.478672	-0.000028
2005	1.9940e+02	0.0599	-9.034858	0.000295	2.948464	0.499483	-0.000029
2006	1.9950e+02	0.0458	-9.062557	0.000278	2.784661	0.471734	-0.000028
2007	1.9960e+02	0.0405	-9.091478	0.000291	2.907513	0.492546	-0.000029
2008	1.9970e+02	0.0306	-9.123251	0.000319	3.194170	0.541107	-0.000032
2009	1.9980e+02	0.0173	-9.153394	0.000303	3.030366	0.513358	-0.000030
2010	1.9990e+02	0.0049	-9.185982	0.000328	3.276071	0.554982	-0.000033
2011	2.0000e+02	-0.0045	-9.216125	0.000328	3.276071	0.554982	-0.000030

PMax (uC/cm2):	2.15e+01
Pr (uC/cm2):	1.52e+00
-Pr (uC/cm2):	0.00e+00
PLoss (uC/cm2):	0.00e+00
C (Max-Eff) (nF):	2.15e-01
K (Eff):	3.64e+02
Vert. (+/-Pr) Shift (uC/cm2):	7.61e-01
Offset (uC/cm2):	1.07e+01

A (Loop Area - uC/cm2·Volts):	-1.52e-02



Hysteresis Version: 5.48.1 - Radiant Technologies, Inc., 1999 - 9/12/24

