»»»»»»»»»»»»»»»»»»»»»»»»»»»»»»»»»»»» Hysteresis ««««««««««««««««««««««««««««««««««««
»»»  Executed Version:	5.48.1
»»»  Vision Version:	5.48.4 (R)
»»»  Vision Compiled:	9/18/24
»»»  Driver Version:	5.47.0
»»»  Windows Version:	Windows 8 or 8.1
»»»  Processor Information:	x86 (AMD or Intel) - 32 Processors
»»»  Tester Name:	PMF21124-494 (100V)
»»»  Tester S/N:	PMF21124-494
»»»  Internal Amp Type:	100V RevK 270k
»»»  Internal Amp S/N:	iAB2-596/K     
»»»  Execution Count:	1
»»»»»»»»»»»»»»»»»»»»»»»»»»»»»»»»»»»»»»»»»»««««««««««««««««««««««««««««««««««««««««««

Stored:	6/27/2025 - 17:38:49
Configured:	06/27/25 11:23:28 AM
Executed:	06/27/25 05:37:44 PM

»»»»»»»»»»»»»»»»»»»»»»»»»»»»»»»»»»» Sample Info ««««««««««««««««««««««««««««««««««««
Sample Name:	
Lot Name:	
Wafer Name:	
Die Row/Column:	0/0
Capacitor Number:	0
Sample Area (cm2):	1.00e-04
Sample Thickness (microns):	1.50e-01

Amplifier:	Internal

»»»»»»»»»»»»»»»»»»»»»»»»»»»»»»»»»»» Tester Info «««««««««««««««««««««««««««««««««««
Tester Name:	PMF21124-494 (100V)
Tester Serial Number:	PMF21124-494
Return Signal Amp. Level:	1.9 [Index: 2]

»»»»»»»»»»»»»»»»»»»»»»»»»»»»»»»» Hysteresis Info ««««««««««««««««««««««««««««««««««
Task Name:	Hyst-1276
Volts:	10.00
Field:	666.67 (kV/cm)
DCBias:	0.00
DCField:	0.00 (kV/cm)
Hysteresis Period (ms):	2.00e+02
Preset:	Enabled
Preset Delay (ms):	1.00e+03
Profile:	Standard Monopolar

»»»»»»»»»»»»»»»»»»»»»»»»»»»»»»»»»»»»»» Data «««««««««««««««««««««««««««««««««««««««
Points:	2011

Valid Data

Point	Time (ms)	Drive Voltage	Measured Polarization (uC/cm2)	Capacitance (uF)	Normalized Capacitance (uF/cm2)	Dielectric Constant	Instantaneous Current (mA)
   1	0.0000e+00	-0.0046	-18.199658	0.000356	3.562469	0.603499	0.000036
   2	9.9500e-02	0.0052	-18.164219	0.000356	3.562469	0.603499	0.000036
   3	1.9900e-01	0.0159	-18.117375	0.000471	4.709011	0.797728	0.000047
   4	2.9850e-01	0.0294	-18.074604	0.000430	4.299532	0.728360	0.000043
   5	3.9800e-01	0.0345	-18.034684	0.000401	4.012897	0.679803	0.000040
   6	4.9750e-01	0.0446	-17.991506	0.000434	4.340480	0.735297	0.000043
   7	5.9700e-01	0.0552	-17.951179	0.000405	4.053844	0.686740	0.000041
   8	6.9650e-01	0.0653	-17.908408	0.000430	4.299532	0.728360	0.000043
   9	7.9600e-01	0.0741	-17.862378	0.000463	4.627115	0.783855	0.000046
  10	8.9550e-01	0.0843	-17.819607	0.000430	4.299532	0.728360	0.000043
  11	9.9500e-01	0.0939	-17.774392	0.000455	4.545220	0.769981	0.000045
  12	1.0945e+00	0.1073	-17.739768	0.000348	3.480573	0.589625	0.000035
  13	1.1940e+00	0.1138	-17.693331	0.000467	4.668063	0.790791	0.000047
  14	1.2935e+00	0.1240	-17.655041	0.000385	3.849105	0.652056	0.000038
  15	1.3930e+00	0.1368	-17.610641	0.000446	4.463324	0.756107	0.000045
  16	1.4925e+00	0.1424	-17.567055	0.000438	4.381428	0.742234	0.000044
  17	1.5920e+00	0.1558	-17.522247	0.000450	4.504272	0.763044	0.000045
  18	1.6915e+00	0.1662	-17.477847	0.000446	4.463324	0.756107	0.000045
  19	1.7910e+00	0.1739	-17.437520	0.000405	4.053844	0.686740	0.000041
  20	1.8905e+00	0.1830	-17.391083	0.000467	4.668063	0.790791	0.000047
  21	1.9900e+00	0.1968	-17.351163	0.000401	4.012897	0.679803	0.000040
  22	2.0895e+00	0.2047	-17.307170	0.000442	4.422376	0.749171	0.000044
  23	2.1890e+00	0.2143	-17.262363	0.000450	4.504272	0.763044	0.000045
  24	2.2885e+00	0.2244	-17.217555	0.000450	4.504272	0.763044	0.000045
  25	2.3880e+00	0.2332	-17.174784	0.000430	4.299532	0.728360	0.000043
  26	2.4875e+00	0.2469	-17.130384	0.000446	4.463324	0.756107	0.000045
  27	2.5870e+00	0.2530	-17.090871	0.000397	3.971949	0.672866	0.000040
  28	2.6865e+00	0.2659	-17.047286	0.000438	4.381428	0.742234	0.000044
  29	2.7860e+00	0.2752	-17.004515	0.000430	4.299532	0.728360	0.000043
  30	2.8855e+00	0.2830	-16.965003	0.000397	3.971949	0.672866	0.000040
  31	2.9850e+00	0.2930	-16.917344	0.000479	4.790907	0.811602	0.000048
  32	3.0845e+00	0.3043	-16.878646	0.000389	3.890053	0.658993	0.000039
  33	3.1840e+00	0.3151	-16.837097	0.000418	4.176688	0.707550	0.000042
  34	3.2835e+00	0.3226	-16.784957	0.000524	5.241334	0.887906	0.000052
  35	3.3830e+00	0.3352	-16.744630	0.000405	4.053844	0.686740	0.000041
  36	3.4825e+00	0.3447	-16.699008	0.000459	4.586167	0.776918	0.000046
  37	3.5820e+00	0.3527	-16.658681	0.000405	4.053844	0.686740	0.000041
  38	3.6815e+00	0.3637	-16.617539	0.000414	4.135740	0.700613	0.000041
  39	3.7810e+00	0.3750	-16.574768	0.000430	4.299532	0.728360	0.000043
  40	3.8805e+00	0.3840	-16.531183	0.000438	4.381428	0.742234	0.000044
  41	3.9800e+00	0.3963	-16.488819	0.000426	4.258584	0.721424	0.000043
  42	4.0795e+00	0.4033	-16.446048	0.000430	4.299532	0.728360	0.000043
  43	4.1790e+00	0.4132	-16.406536	0.000397	3.971949	0.672866	0.000040
  44	4.2785e+00	0.4221	-16.362950	0.000438	4.381428	0.742234	0.000044
  45	4.3780e+00	0.4322	-16.319772	0.000434	4.340480	0.735297	0.000043
  46	4.4775e+00	0.4440	-16.277408	0.000426	4.258584	0.721424	0.000043
  47	4.5770e+00	0.4547	-16.235045	0.000426	4.258584	0.721424	0.000043
  48	4.6765e+00	0.4650	-16.189830	0.000455	4.545220	0.769981	0.000045
  49	4.7760e+00	0.4723	-16.148688	0.000414	4.135740	0.700613	0.000041
  50	4.8755e+00	0.4831	-16.104288	0.000446	4.463324	0.756107	0.000045
  51	4.9750e+00	0.4926	-16.062739	0.000418	4.176688	0.707550	0.000042
  52	5.0745e+00	0.5032	-16.015080	0.000479	4.790907	0.811602	0.000048
  53	5.1740e+00	0.5119	-15.975568	0.000397	3.971949	0.672866	0.000040
  54	5.2735e+00	0.5215	-15.935648	0.000401	4.012897	0.679803	0.000040
  55	5.3730e+00	0.5331	-15.891248	0.000446	4.463324	0.756107	0.000045
  56	5.4725e+00	0.5424	-15.847662	0.000438	4.381428	0.742234	0.000044
  57	5.5720e+00	0.5532	-15.804891	0.000430	4.299532	0.728360	0.000043
  58	5.6715e+00	0.5614	-15.761305	0.000438	4.381428	0.742234	0.000044
  59	5.7710e+00	0.5730	-15.720164	0.000414	4.135740	0.700613	0.000041
  60	5.8705e+00	0.5840	-15.679429	0.000409	4.094792	0.693677	0.000041
  61	5.9700e+00	0.5959	-15.635436	0.000442	4.422376	0.749171	0.000044
  62	6.0695e+00	0.6032	-15.594295	0.000414	4.135740	0.700613	0.000041
  63	6.1690e+00	0.6126	-15.549895	0.000446	4.463324	0.756107	0.000045
  64	6.2685e+00	0.6232	-15.505494	0.000446	4.463324	0.756107	0.000045
  65	6.3680e+00	0.6332	-15.464353	0.000414	4.135740	0.700613	0.000041
  66	6.4675e+00	0.6440	-15.420360	0.000442	4.422376	0.749171	0.000044
  67	6.5670e+00	0.6514	-15.378403	0.000422	4.217636	0.714487	0.000042
  68	6.6665e+00	0.6640	-15.332781	0.000459	4.586167	0.776918	0.000046
  69	6.7660e+00	0.6750	-15.292047	0.000409	4.094792	0.693677	0.000041
  70	6.8655e+00	0.6815	-15.248054	0.000442	4.422376	0.749171	0.000044
  71	6.9650e+00	0.6908	-15.206097	0.000422	4.217636	0.714487	0.000042
  72	7.0645e+00	0.7037	-15.164141	0.000422	4.217636	0.714487	0.000042
  73	7.1640e+00	0.7147	-15.116482	0.000479	4.790907	0.811602	0.000048
  74	7.2635e+00	0.7207	-15.078599	0.000381	3.808157	0.645119	0.000038
  75	7.3630e+00	0.7299	-15.037458	0.000414	4.135740	0.700613	0.000041
  76	7.4625e+00	0.7420	-14.992650	0.000450	4.504272	0.763044	0.000045
  77	7.5620e+00	0.7543	-14.953952	0.000389	3.890053	0.658993	0.000039
  78	7.6615e+00	0.7598	-14.910367	0.000438	4.381428	0.742234	0.000044
  79	7.7610e+00	0.7746	-14.870855	0.000397	3.971949	0.672866	0.000040
  80	7.8605e+00	0.7827	-14.827676	0.000434	4.340480	0.735297	0.000043
  81	7.9600e+00	0.7913	-14.782869	0.000450	4.504272	0.763044	0.000045
  82	8.0595e+00	0.8012	-14.740098	0.000430	4.299532	0.728360	0.000043
  83	8.1590e+00	0.8134	-14.697327	0.000430	4.299532	0.728360	0.000043
  84	8.2585e+00	0.8232	-14.654556	0.000430	4.299532	0.728360	0.000043
  85	8.3580e+00	0.8319	-14.604860	0.000500	4.995647	0.846285	0.000050
  86	8.4575e+00	0.8404	-14.569421	0.000356	3.562469	0.603499	0.000036
  87	8.5570e+00	0.8536	-14.524613	0.000450	4.504272	0.763044	0.000045
  88	8.6565e+00	0.8594	-14.480620	0.000442	4.422376	0.749171	0.000044
  89	8.7560e+00	0.8723	-14.441923	0.000389	3.890053	0.658993	0.000039
  90	8.8555e+00	0.8820	-14.397522	0.000446	4.463324	0.756107	0.000045
  91	8.9550e+00	0.8920	-14.358418	0.000393	3.931001	0.665930	0.000039
  92	9.0545e+00	0.9017	-14.315647	0.000430	4.299532	0.728360	0.000043
  93	9.1540e+00	0.9129	-14.266766	0.000491	4.913751	0.832412	0.000049
  94	9.2535e+00	0.9205	-14.230105	0.000369	3.685313	0.624309	0.000037
  95	9.3530e+00	0.9307	-14.184890	0.000455	4.545220	0.769981	0.000045
  96	9.4525e+00	0.9396	-14.142119	0.000430	4.299532	0.728360	0.000043
  97	9.5520e+00	0.9495	-14.101384	0.000409	4.094792	0.693677	0.000041
  98	9.6515e+00	0.9615	-14.061872	0.000397	3.971949	0.672866	0.000040
  99	9.7510e+00	0.9697	-14.019509	0.000426	4.258584	0.721424	0.000043
 100	9.8505e+00	0.9801	-13.970220	0.000495	4.954699	0.839349	0.000050
 101	9.9500e+00	0.9936	-13.929486	0.000409	4.094792	0.693677	0.000041
 102	1.0050e+01	1.0014	-13.887937	0.000418	4.176688	0.707550	0.000042
 103	1.0149e+01	1.0101	-13.848017	0.000401	4.012897	0.679803	0.000040
 104	1.0248e+01	1.0223	-13.806061	0.000422	4.217636	0.714487	0.000042
 105	1.0348e+01	1.0310	-13.761661	0.000446	4.463324	0.756107	0.000045
 106	1.0447e+01	1.0413	-13.721334	0.000405	4.053844	0.686740	0.000041
 107	1.0547e+01	1.0477	-13.683858	0.000377	3.767209	0.638182	0.000038
 108	1.0646e+01	1.0593	-13.642717	0.000414	4.135740	0.700613	0.000041
 109	1.0746e+01	1.0693	-13.602390	0.000405	4.053844	0.686740	0.000041
 110	1.0845e+01	1.0808	-13.557989	0.000446	4.463324	0.756107	0.000045
 111	1.0945e+01	1.0889	-13.513589	0.000446	4.463324	0.756107	0.000045
 112	1.1044e+01	1.0992	-13.470411	0.000434	4.340480	0.735297	0.000043
 113	1.1144e+01	1.1115	-13.429677	0.000409	4.094792	0.693677	0.000041
 114	1.1243e+01	1.1208	-13.388128	0.000418	4.176688	0.707550	0.000042
 115	1.1343e+01	1.1338	-13.344949	0.000434	4.340480	0.735297	0.000043
 116	1.1443e+01	1.1402	-13.305844	0.000393	3.931001	0.665930	0.000039
 117	1.1542e+01	1.1515	-13.262666	0.000434	4.340480	0.735297	0.000043
 118	1.1642e+01	1.1612	-13.223154	0.000397	3.971949	0.672866	0.000040
 119	1.1741e+01	1.1707	-13.179976	0.000434	4.340480	0.735297	0.000043
 120	1.1841e+01	1.1804	-13.139649	0.000405	4.053844	0.686740	0.000041
 121	1.1940e+01	1.1904	-13.096878	0.000430	4.299532	0.728360	0.000043
 122	1.2040e+01	1.1983	-13.057365	0.000397	3.971949	0.672866	0.000040
 123	1.2139e+01	1.2093	-13.011336	0.000463	4.627115	0.783855	0.000046
 124	1.2239e+01	1.2212	-12.966935	0.000446	4.463324	0.756107	0.000045
 125	1.2338e+01	1.2330	-12.927831	0.000393	3.931001	0.665930	0.000039
 126	1.2438e+01	1.2405	-12.882616	0.000455	4.545220	0.769981	0.000045
 127	1.2537e+01	1.2518	-12.838215	0.000446	4.463324	0.756107	0.000045
 128	1.2636e+01	1.2607	-12.799110	0.000393	3.931001	0.665930	0.000039
 129	1.2736e+01	1.2679	-12.759191	0.000401	4.012897	0.679803	0.000040
 130	1.2835e+01	1.2807	-12.719271	0.000401	4.012897	0.679803	0.000040
 131	1.2935e+01	1.2902	-12.674871	0.000446	4.463324	0.756107	0.000045
 132	1.3034e+01	1.2963	-12.635359	0.000397	3.971949	0.672866	0.000040
 133	1.3134e+01	1.3087	-12.595846	0.000397	3.971949	0.672866	0.000040
 134	1.3233e+01	1.3194	-12.548595	0.000475	4.749959	0.804665	0.000047
 135	1.3333e+01	1.3283	-12.509490	0.000393	3.931001	0.665930	0.000039
 136	1.3432e+01	1.3383	-12.471200	0.000385	3.849105	0.652056	0.000038
 137	1.3532e+01	1.3470	-12.425170	0.000463	4.627115	0.783855	0.000046
 138	1.3632e+01	1.3570	-12.387287	0.000381	3.808157	0.645119	0.000038
 139	1.3731e+01	1.3702	-12.346553	0.000409	4.094792	0.693677	0.000041
 140	1.3831e+01	1.3757	-12.307041	0.000397	3.971949	0.672866	0.000040
 141	1.3930e+01	1.3900	-12.263455	0.000438	4.381428	0.742234	0.000044
 142	1.4030e+01	1.3971	-12.222313	0.000414	4.135740	0.700613	0.000041
 143	1.4129e+01	1.4065	-12.179950	0.000426	4.258584	0.721424	0.000043
 144	1.4229e+01	1.4175	-12.135957	0.000442	4.422376	0.749171	0.000044
 145	1.4328e+01	1.4261	-12.096037	0.000401	4.012897	0.679803	0.000040
 146	1.4428e+01	1.4388	-12.055303	0.000409	4.094792	0.693677	0.000041
 147	1.4527e+01	1.4510	-12.014161	0.000414	4.135740	0.700613	0.000041
 148	1.4627e+01	1.4589	-11.971798	0.000426	4.258584	0.721424	0.000043
 149	1.4726e+01	1.4684	-11.933915	0.000381	3.808157	0.645119	0.000038
 150	1.4825e+01	1.4768	-11.890736	0.000434	4.340480	0.735297	0.000043
 151	1.4925e+01	1.4881	-11.852039	0.000389	3.890053	0.658993	0.000039
 152	1.5024e+01	1.5001	-11.805602	0.000467	4.668063	0.790791	0.000047
 153	1.5124e+01	1.5086	-11.769756	0.000360	3.603417	0.610435	0.000036
 154	1.5223e+01	1.5159	-11.726577	0.000434	4.340480	0.735297	0.000043
 155	1.5323e+01	1.5279	-11.689509	0.000373	3.726261	0.631246	0.000037
 156	1.5422e+01	1.5389	-11.648368	0.000414	4.135740	0.700613	0.000041
 157	1.5522e+01	1.5465	-11.604782	0.000438	4.381428	0.742234	0.000044
 158	1.5621e+01	1.5589	-11.564455	0.000405	4.053844	0.686740	0.000041
 159	1.5721e+01	1.5685	-11.522906	0.000418	4.176688	0.707550	0.000042
 160	1.5820e+01	1.5752	-11.479320	0.000438	4.381428	0.742234	0.000044
 161	1.5920e+01	1.5874	-11.439401	0.000401	4.012897	0.679803	0.000040
 162	1.6020e+01	1.5960	-11.399889	0.000397	3.971949	0.672866	0.000040
 163	1.6119e+01	1.6073	-11.359154	0.000409	4.094792	0.693677	0.000041
 164	1.6218e+01	1.6154	-11.317198	0.000422	4.217636	0.714487	0.000042
 165	1.6318e+01	1.6264	-11.280537	0.000369	3.685313	0.624309	0.000037
 166	1.6418e+01	1.6387	-11.239803	0.000409	4.094792	0.693677	0.000041
 167	1.6517e+01	1.6454	-11.197439	0.000426	4.258584	0.721424	0.000043
 168	1.6616e+01	1.6572	-11.154261	0.000434	4.340480	0.735297	0.000043
 169	1.6716e+01	1.6672	-11.115156	0.000393	3.931001	0.665930	0.000039
 170	1.6816e+01	1.6756	-11.076459	0.000389	3.890053	0.658993	0.000039
 171	1.6915e+01	1.6868	-11.036946	0.000397	3.971949	0.672866	0.000040
 172	1.7015e+01	1.6981	-10.997027	0.000401	4.012897	0.679803	0.000040
 173	1.7114e+01	1.7068	-10.954256	0.000430	4.299532	0.728360	0.000043
 174	1.7213e+01	1.7149	-10.913522	0.000409	4.094792	0.693677	0.000041
 175	1.7313e+01	1.7247	-10.875639	0.000381	3.808157	0.645119	0.000038
 176	1.7413e+01	1.7377	-10.830424	0.000455	4.545220	0.769981	0.000045
 177	1.7512e+01	1.7448	-10.793763	0.000369	3.685313	0.624309	0.000037
 178	1.7611e+01	1.7561	-10.754658	0.000393	3.931001	0.665930	0.000039
 179	1.7711e+01	1.7672	-10.713924	0.000409	4.094792	0.693677	0.000041
 180	1.7811e+01	1.7754	-10.671560	0.000426	4.258584	0.721424	0.000043
 181	1.7910e+01	1.7882	-10.634899	0.000369	3.685313	0.624309	0.000037
 182	1.8009e+01	1.7939	-10.592536	0.000426	4.258584	0.721424	0.000043
 183	1.8109e+01	1.8071	-10.550987	0.000418	4.176688	0.707550	0.000042
 184	1.8209e+01	1.8150	-10.513919	0.000373	3.726261	0.631246	0.000037
 185	1.8308e+01	1.8275	-10.477258	0.000369	3.685313	0.624309	0.000037
 186	1.8407e+01	1.8392	-10.433265	0.000442	4.422376	0.749171	0.000044
 187	1.8507e+01	1.8472	-10.394567	0.000389	3.890053	0.658993	0.000039
 188	1.8607e+01	1.8542	-10.354648	0.000401	4.012897	0.679803	0.000040
 189	1.8706e+01	1.8653	-10.310655	0.000442	4.422376	0.749171	0.000044
 190	1.8805e+01	1.8779	-10.271142	0.000397	3.971949	0.672866	0.000040
 191	1.8905e+01	1.8828	-10.229186	0.000422	4.217636	0.714487	0.000042
 192	1.9005e+01	1.8960	-10.189674	0.000397	3.971949	0.672866	0.000040
 193	1.9104e+01	1.9083	-10.145681	0.000442	4.422376	0.749171	0.000044
 194	1.9203e+01	1.9154	-10.110649	0.000352	3.521521	0.596562	0.000035
 195	1.9303e+01	1.9276	-10.069508	0.000414	4.135740	0.700613	0.000041
 196	1.9402e+01	1.9376	-10.030810	0.000389	3.890053	0.658993	0.000039
 197	1.9502e+01	1.9453	-9.991705	0.000393	3.931001	0.665930	0.000039
 198	1.9602e+01	1.9562	-9.948527	0.000434	4.340480	0.735297	0.000043
 199	1.9701e+01	1.9621	-9.914310	0.000344	3.439626	0.582688	0.000034
 200	1.9800e+01	1.9749	-9.875205	0.000393	3.931001	0.665930	0.000039
 201	1.9900e+01	1.9864	-9.832435	0.000430	4.299532	0.728360	0.000043
 202	2.0000e+01	1.9935	-9.793737	0.000389	3.890053	0.658993	0.000039
 203	2.0099e+01	2.0061	-9.753003	0.000409	4.094792	0.693677	0.000041
 204	2.0198e+01	2.0139	-9.712268	0.000409	4.094792	0.693677	0.000041
 205	2.0298e+01	2.0262	-9.675200	0.000373	3.726261	0.631246	0.000037
 206	2.0398e+01	2.0345	-9.635281	0.000401	4.012897	0.679803	0.000040
 207	2.0497e+01	2.0441	-9.597398	0.000381	3.808157	0.645119	0.000038
 208	2.0596e+01	2.0553	-9.559515	0.000381	3.808157	0.645119	0.000038
 209	2.0696e+01	2.0646	-9.525298	0.000344	3.439626	0.582688	0.000034
 210	2.0796e+01	2.0760	-9.482120	0.000434	4.340480	0.735297	0.000043
 211	2.0895e+01	2.0847	-9.441386	0.000409	4.094792	0.693677	0.000041
 212	2.0994e+01	2.0979	-9.406354	0.000352	3.521521	0.596562	0.000035
 213	2.1094e+01	2.1045	-9.367657	0.000389	3.890053	0.658993	0.000039
 214	2.1194e+01	2.1146	-9.328144	0.000397	3.971949	0.672866	0.000040
 215	2.1293e+01	2.1236	-9.287410	0.000409	4.094792	0.693677	0.000041
 216	2.1392e+01	2.1333	-9.249120	0.000385	3.849105	0.652056	0.000038
 217	2.1492e+01	2.1449	-9.212052	0.000373	3.726261	0.631246	0.000037
 218	2.1591e+01	2.1563	-9.171725	0.000405	4.053844	0.686740	0.000041
 219	2.1691e+01	2.1651	-9.132620	0.000393	3.931001	0.665930	0.000039
 220	2.1791e+01	2.1754	-9.089849	0.000430	4.299532	0.728360	0.000043
 221	2.1890e+01	2.1842	-9.056040	0.000340	3.398678	0.575752	0.000034
 222	2.1989e+01	2.1928	-9.017749	0.000385	3.849105	0.652056	0.000038
 223	2.2089e+01	2.2065	-8.977830	0.000401	4.012897	0.679803	0.000040
 224	2.2189e+01	2.2121	-8.936688	0.000414	4.135740	0.700613	0.000041
 225	2.2288e+01	2.2247	-8.900435	0.000364	3.644365	0.617372	0.000036
 226	2.2387e+01	2.2335	-8.865403	0.000352	3.521521	0.596562	0.000035
 227	2.2487e+01	2.2442	-8.825076	0.000405	4.053844	0.686740	0.000041
 228	2.2587e+01	2.2573	-8.782305	0.000430	4.299532	0.728360	0.000043
 229	2.2686e+01	2.2614	-8.748089	0.000344	3.439626	0.582688	0.000034
 230	2.2785e+01	2.2756	-8.704096	0.000442	4.422376	0.749171	0.000044
 231	2.2885e+01	2.2842	-8.667842	0.000364	3.644365	0.617372	0.000036
 232	2.2985e+01	2.2915	-8.631996	0.000360	3.603417	0.610435	0.000036
 233	2.3084e+01	2.3029	-8.590447	0.000418	4.176688	0.707550	0.000042
 234	2.3183e+01	2.3159	-8.552972	0.000377	3.767209	0.638182	0.000038
 235	2.3283e+01	2.3237	-8.511830	0.000414	4.135740	0.700613	0.000041
 236	2.3383e+01	2.3334	-8.478021	0.000340	3.398678	0.575752	0.000034
 237	2.3482e+01	2.3443	-8.439323	0.000389	3.890053	0.658993	0.000039
 238	2.3581e+01	2.3540	-8.399403	0.000401	4.012897	0.679803	0.000040
 239	2.3681e+01	2.3643	-8.361521	0.000381	3.808157	0.645119	0.000038
 240	2.3780e+01	2.3736	-8.321194	0.000405	4.053844	0.686740	0.000041
 241	2.3880e+01	2.3848	-8.283718	0.000377	3.767209	0.638182	0.000038
 242	2.3980e+01	2.3943	-8.245428	0.000385	3.849105	0.652056	0.000038
 243	2.4079e+01	2.4028	-8.210396	0.000352	3.521521	0.596562	0.000035
 244	2.4178e+01	2.4134	-8.171699	0.000389	3.890053	0.658993	0.000039
 245	2.4278e+01	2.4267	-8.133816	0.000381	3.808157	0.645119	0.000038
 246	2.4378e+01	2.4335	-8.096341	0.000377	3.767209	0.638182	0.000038
 247	2.4477e+01	2.4433	-8.059272	0.000373	3.726261	0.631246	0.000037
 248	2.4576e+01	2.4548	-8.016094	0.000434	4.340480	0.735297	0.000043
 249	2.4676e+01	2.4631	-7.983099	0.000332	3.316782	0.561878	0.000033
 250	2.4776e+01	2.4720	-7.940736	0.000426	4.258584	0.721424	0.000043
 251	2.4875e+01	2.4822	-7.904482	0.000364	3.644365	0.617372	0.000036
 252	2.4974e+01	2.4941	-7.868229	0.000364	3.644365	0.617372	0.000036
 253	2.5074e+01	2.5021	-7.827902	0.000405	4.053844	0.686740	0.000041
 254	2.5174e+01	2.5124	-7.790834	0.000373	3.726261	0.631246	0.000037
 255	2.5273e+01	2.5222	-7.754580	0.000364	3.644365	0.617372	0.000036
 256	2.5372e+01	2.5343	-7.712624	0.000422	4.217636	0.714487	0.000042
 257	2.5472e+01	2.5420	-7.679629	0.000332	3.316782	0.561878	0.000033
 258	2.5572e+01	2.5555	-7.639710	0.000401	4.012897	0.679803	0.000040
 259	2.5671e+01	2.5632	-7.603863	0.000360	3.603417	0.610435	0.000036
 260	2.5770e+01	2.5710	-7.565981	0.000381	3.808157	0.645119	0.000038
 261	2.5870e+01	2.5834	-7.529320	0.000369	3.685313	0.624309	0.000037
 262	2.5970e+01	2.5923	-7.491844	0.000377	3.767209	0.638182	0.000038
 263	2.6069e+01	2.6038	-7.452332	0.000397	3.971949	0.672866	0.000040
 264	2.6169e+01	2.6122	-7.415264	0.000373	3.726261	0.631246	0.000037
 265	2.6268e+01	2.6245	-7.374937	0.000405	4.053844	0.686740	0.000041
 266	2.6367e+01	2.6325	-7.337054	0.000381	3.808157	0.645119	0.000038
 267	2.6467e+01	2.6413	-7.302430	0.000348	3.480573	0.589625	0.000035
 268	2.6567e+01	2.6515	-7.262510	0.000401	4.012897	0.679803	0.000040
 269	2.6666e+01	2.6629	-7.226257	0.000364	3.644365	0.617372	0.000036
 270	2.6765e+01	2.6736	-7.188781	0.000377	3.767209	0.638182	0.000038
 271	2.6865e+01	2.6823	-7.152528	0.000364	3.644365	0.617372	0.000036
 272	2.6965e+01	2.6922	-7.116682	0.000360	3.603417	0.610435	0.000036
 273	2.7064e+01	2.7033	-7.078799	0.000381	3.808157	0.645119	0.000038
 274	2.7163e+01	2.7100	-7.041731	0.000373	3.726261	0.631246	0.000037
 275	2.7263e+01	2.7222	-7.005070	0.000369	3.685313	0.624309	0.000037
 276	2.7363e+01	2.7306	-6.970038	0.000352	3.521521	0.596562	0.000035
 277	2.7462e+01	2.7401	-6.935007	0.000352	3.521521	0.596562	0.000035
 278	2.7561e+01	2.7502	-6.891829	0.000434	4.340480	0.735297	0.000043
 279	2.7661e+01	2.7637	-6.857612	0.000344	3.439626	0.582688	0.000034
 280	2.7761e+01	2.7721	-6.821766	0.000360	3.603417	0.610435	0.000036
 281	2.7860e+01	2.7819	-6.783476	0.000385	3.849105	0.652056	0.000038
 282	2.7959e+01	2.7917	-6.744371	0.000393	3.931001	0.665930	0.000039
 283	2.8059e+01	2.7982	-6.706895	0.000377	3.767209	0.638182	0.000038
 284	2.8159e+01	2.8117	-6.675937	0.000311	3.112042	0.527194	0.000031
 285	2.8258e+01	2.8202	-6.637240	0.000389	3.890053	0.658993	0.000039
 286	2.8358e+01	2.8310	-6.600171	0.000373	3.726261	0.631246	0.000037
 287	2.8457e+01	2.8406	-6.565955	0.000344	3.439626	0.582688	0.000034
 288	2.8556e+01	2.8476	-6.525220	0.000409	4.094792	0.693677	0.000041
 289	2.8656e+01	2.8603	-6.487337	0.000381	3.808157	0.645119	0.000038
 290	2.8756e+01	2.8716	-6.445381	0.000422	4.217636	0.714487	0.000042
 291	2.8855e+01	2.8784	-6.411979	0.000336	3.357730	0.568815	0.000034
 292	2.8954e+01	2.8904	-6.374096	0.000381	3.808157	0.645119	0.000038
 293	2.9054e+01	2.8976	-6.335806	0.000385	3.849105	0.652056	0.000038
 294	2.9154e+01	2.9108	-6.294257	0.000418	4.176688	0.707550	0.000042
 295	2.9253e+01	2.9186	-6.259633	0.000348	3.480573	0.589625	0.000035
 296	2.9352e+01	2.9327	-6.228675	0.000311	3.112042	0.527194	0.000031
 297	2.9452e+01	2.9406	-6.186311	0.000426	4.258584	0.721424	0.000043
 298	2.9552e+01	2.9487	-6.148836	0.000377	3.767209	0.638182	0.000038
 299	2.9651e+01	2.9591	-6.112582	0.000364	3.644365	0.617372	0.000036
 300	2.9750e+01	2.9714	-6.075921	0.000369	3.685313	0.624309	0.000037
 301	2.9850e+01	2.9802	-6.040483	0.000356	3.562469	0.603499	0.000036
 302	2.9950e+01	2.9907	-6.007895	0.000328	3.275834	0.554941	0.000033
 303	3.0049e+01	2.9993	-5.966346	0.000418	4.176688	0.707550	0.000042
 304	3.0148e+01	3.0128	-5.930093	0.000364	3.644365	0.617372	0.000036
 305	3.0248e+01	3.0214	-5.893839	0.000364	3.644365	0.617372	0.000036
 306	3.0348e+01	3.0302	-5.856364	0.000377	3.767209	0.638182	0.000038
 307	3.0447e+01	3.0418	-5.822962	0.000336	3.357730	0.568815	0.000034
 308	3.0547e+01	3.0502	-5.785894	0.000373	3.726261	0.631246	0.000037
 309	3.0646e+01	3.0581	-5.748825	0.000373	3.726261	0.631246	0.000037
 310	3.0745e+01	3.0708	-5.714609	0.000344	3.439626	0.582688	0.000034
 311	3.0845e+01	3.0791	-5.675096	0.000397	3.971949	0.672866	0.000040
 312	3.0945e+01	3.0923	-5.641694	0.000336	3.357730	0.568815	0.000034
 313	3.1044e+01	3.1016	-5.605848	0.000360	3.603417	0.610435	0.000036
 314	3.1143e+01	3.1097	-5.565929	0.000401	4.012897	0.679803	0.000040
 315	3.1243e+01	3.1171	-5.533341	0.000328	3.275834	0.554941	0.000033
 316	3.1343e+01	3.1281	-5.495458	0.000381	3.808157	0.645119	0.000038
 317	3.1442e+01	3.1394	-5.461649	0.000340	3.398678	0.575752	0.000034
 318	3.1541e+01	3.1510	-5.422951	0.000389	3.890053	0.658993	0.000039
 319	3.1641e+01	3.1594	-5.385883	0.000373	3.726261	0.631246	0.000037
 320	3.1741e+01	3.1689	-5.354518	0.000315	3.152990	0.534131	0.000032
 321	3.1840e+01	3.1794	-5.316635	0.000381	3.808157	0.645119	0.000038
 322	3.1939e+01	3.1886	-5.280789	0.000360	3.603417	0.610435	0.000036
 323	3.2039e+01	3.1963	-5.242499	0.000385	3.849105	0.652056	0.000038
 324	3.2139e+01	3.2085	-5.207875	0.000348	3.480573	0.589625	0.000035
 325	3.2238e+01	3.2193	-5.173250	0.000348	3.480573	0.589625	0.000035
 326	3.2337e+01	3.2289	-5.136997	0.000364	3.644365	0.617372	0.000036
 327	3.2437e+01	3.2386	-5.099114	0.000381	3.808157	0.645119	0.000038
 328	3.2536e+01	3.2489	-5.062453	0.000369	3.685313	0.624309	0.000037
 329	3.2636e+01	3.2629	-5.027829	0.000348	3.480573	0.589625	0.000035
 330	3.2736e+01	3.2685	-4.992390	0.000356	3.562469	0.603499	0.000036
 331	3.2835e+01	3.2810	-4.956544	0.000360	3.603417	0.610435	0.000036
 332	3.2934e+01	3.2885	-4.922327	0.000344	3.439626	0.582688	0.000034
 333	3.3034e+01	3.2966	-4.886889	0.000356	3.562469	0.603499	0.000036
 334	3.3133e+01	3.3092	-4.851042	0.000360	3.603417	0.610435	0.000036
 335	3.3233e+01	3.3161	-4.815196	0.000360	3.603417	0.610435	0.000036
 336	3.3333e+01	3.3296	-4.779350	0.000360	3.603417	0.610435	0.000036
 337	3.3432e+01	3.3373	-4.741875	0.000377	3.767209	0.638182	0.000038
 338	3.3532e+01	3.3468	-4.706436	0.000356	3.562469	0.603499	0.000036
 339	3.3631e+01	3.3601	-4.676292	0.000303	3.030146	0.513321	0.000030
 340	3.3730e+01	3.3691	-4.637595	0.000389	3.890053	0.658993	0.000039
 341	3.3830e+01	3.3792	-4.600527	0.000373	3.726261	0.631246	0.000037
 342	3.3929e+01	3.3902	-4.566310	0.000344	3.439626	0.582688	0.000034
 343	3.4029e+01	3.3975	-4.532908	0.000336	3.357730	0.568815	0.000034
 344	3.4129e+01	3.4069	-4.496247	0.000369	3.685313	0.624309	0.000037
 345	3.4228e+01	3.4202	-4.460808	0.000356	3.562469	0.603499	0.000036
 346	3.4328e+01	3.4303	-4.422925	0.000381	3.808157	0.645119	0.000038
 347	3.4427e+01	3.4381	-4.389931	0.000332	3.316782	0.561878	0.000033
 348	3.4526e+01	3.4489	-4.352455	0.000377	3.767209	0.638182	0.000038
 349	3.4626e+01	3.4599	-4.319460	0.000332	3.316782	0.561878	0.000033
 350	3.4725e+01	3.4700	-4.284836	0.000348	3.480573	0.589625	0.000035
 351	3.4825e+01	3.4802	-4.246953	0.000381	3.808157	0.645119	0.000038
 352	3.4925e+01	3.4904	-4.211515	0.000356	3.562469	0.603499	0.000036
 353	3.5024e+01	3.4992	-4.176483	0.000352	3.521521	0.596562	0.000035
 354	3.5123e+01	3.5088	-4.142266	0.000344	3.439626	0.582688	0.000034
 355	3.5223e+01	3.5189	-4.104791	0.000377	3.767209	0.638182	0.000038
 356	3.5322e+01	3.5278	-4.071796	0.000332	3.316782	0.561878	0.000033
 357	3.5422e+01	3.5373	-4.037579	0.000344	3.439626	0.582688	0.000034
 358	3.5522e+01	3.5455	-4.001326	0.000364	3.644365	0.617372	0.000036
 359	3.5621e+01	3.5603	-3.964258	0.000373	3.726261	0.631246	0.000037
 360	3.5721e+01	3.5670	-3.929634	0.000348	3.480573	0.589625	0.000035
 361	3.5820e+01	3.5751	-3.889307	0.000405	4.053844	0.686740	0.000041
 362	3.5919e+01	3.5884	-3.860385	0.000291	2.907303	0.492510	0.000029
 363	3.6019e+01	3.5972	-3.825761	0.000348	3.480573	0.589625	0.000035
 364	3.6118e+01	3.6054	-3.789100	0.000369	3.685313	0.624309	0.000037
 365	3.6218e+01	3.6171	-3.758142	0.000311	3.112042	0.527194	0.000031
 366	3.6318e+01	3.6245	-3.723111	0.000352	3.521521	0.596562	0.000035
 367	3.6417e+01	3.6377	-3.688079	0.000352	3.521521	0.596562	0.000035
 368	3.6517e+01	3.6492	-3.653863	0.000344	3.439626	0.582688	0.000034
 369	3.6616e+01	3.6554	-3.614350	0.000397	3.971949	0.672866	0.000040
 370	3.6715e+01	3.6675	-3.579726	0.000348	3.480573	0.589625	0.000035
 371	3.6815e+01	3.6767	-3.545917	0.000340	3.398678	0.575752	0.000034
 372	3.6914e+01	3.6874	-3.508441	0.000377	3.767209	0.638182	0.000038
 373	3.7014e+01	3.6967	-3.477483	0.000311	3.112042	0.527194	0.000031
 374	3.7114e+01	3.7061	-3.443267	0.000344	3.439626	0.582688	0.000034
 375	3.7213e+01	3.7183	-3.412716	0.000307	3.071094	0.520257	0.000031
 376	3.7313e+01	3.7280	-3.376870	0.000360	3.603417	0.610435	0.000036
 377	3.7412e+01	3.7365	-3.343875	0.000332	3.316782	0.561878	0.000033
 378	3.7511e+01	3.7482	-3.310473	0.000336	3.357730	0.568815	0.000034
 379	3.7611e+01	3.7577	-3.276256	0.000344	3.439626	0.582688	0.000034
 380	3.7711e+01	3.7643	-3.241225	0.000352	3.521521	0.596562	0.000035
 381	3.7810e+01	3.7738	-3.206193	0.000352	3.521521	0.596562	0.000035
 382	3.7910e+01	3.7850	-3.174421	0.000319	3.193938	0.541068	0.000032
 383	3.8009e+01	3.7988	-3.136130	0.000385	3.849105	0.652056	0.000038
 384	3.8108e+01	3.8063	-3.104358	0.000319	3.193938	0.541068	0.000032
 385	3.8208e+01	3.8187	-3.070141	0.000344	3.439626	0.582688	0.000034
 386	3.8307e+01	3.8274	-3.036331	0.000340	3.398678	0.575752	0.000034
 387	3.8407e+01	3.8359	-3.000485	0.000360	3.603417	0.610435	0.000036
 388	3.8507e+01	3.8455	-2.971157	0.000295	2.948250	0.499447	0.000029
 389	3.8606e+01	3.8540	-2.932866	0.000385	3.849105	0.652056	0.000038
 390	3.8706e+01	3.8662	-2.898650	0.000344	3.439626	0.582688	0.000034
 391	3.8805e+01	3.8770	-2.865248	0.000336	3.357730	0.568815	0.000034
 392	3.8904e+01	3.8848	-2.834289	0.000311	3.112042	0.527194	0.000031
 393	3.9004e+01	3.8956	-2.798036	0.000364	3.644365	0.617372	0.000036
 394	3.9103e+01	3.9056	-2.765041	0.000332	3.316782	0.561878	0.000033
 395	3.9203e+01	3.9146	-2.732454	0.000328	3.275834	0.554941	0.000033
 396	3.9303e+01	3.9288	-2.692534	0.000401	4.012897	0.679803	0.000040
 397	3.9402e+01	3.9346	-2.660762	0.000319	3.193938	0.541068	0.000032
 398	3.9502e+01	3.9450	-2.629396	0.000315	3.152990	0.534131	0.000032
 399	3.9601e+01	3.9564	-2.596401	0.000332	3.316782	0.561878	0.000033
 400	3.9700e+01	3.9645	-2.559741	0.000369	3.685313	0.624309	0.000037
 401	3.9800e+01	3.9770	-2.526339	0.000336	3.357730	0.568815	0.000034
 402	3.9900e+01	3.9863	-2.493344	0.000332	3.316782	0.561878	0.000033
 403	3.9999e+01	3.9969	-2.458312	0.000352	3.521521	0.596562	0.000035
 404	4.0099e+01	4.0041	-2.423281	0.000352	3.521521	0.596562	0.000035
 405	4.0198e+01	4.0163	-2.392730	0.000307	3.071094	0.520257	0.000031
 406	4.0297e+01	4.0252	-2.356069	0.000369	3.685313	0.624309	0.000037
 407	4.0397e+01	4.0338	-2.322260	0.000340	3.398678	0.575752	0.000034
 408	4.0496e+01	4.0453	-2.288858	0.000336	3.357730	0.568815	0.000034
 409	4.0596e+01	4.0575	-2.256678	0.000323	3.234886	0.548005	0.000032
 410	4.0696e+01	4.0658	-2.224498	0.000323	3.234886	0.548005	0.000032
 411	4.0795e+01	4.0748	-2.190688	0.000340	3.398678	0.575752	0.000034
 412	4.0895e+01	4.0843	-2.154842	0.000360	3.603417	0.610435	0.000036
 413	4.0994e+01	4.0943	-2.122255	0.000328	3.275834	0.554941	0.000033
 414	4.1093e+01	4.1042	-2.088038	0.000344	3.439626	0.582688	0.000034
 415	4.1193e+01	4.1153	-2.059524	0.000287	2.866355	0.485574	0.000029
 416	4.1292e+01	4.1238	-2.021234	0.000385	3.849105	0.652056	0.000038
 417	4.1392e+01	4.1356	-1.989054	0.000323	3.234886	0.548005	0.000032
 418	4.1492e+01	4.1436	-1.956874	0.000323	3.234886	0.548005	0.000032
 419	4.1591e+01	4.1566	-1.921842	0.000352	3.521521	0.596562	0.000035
 420	4.1691e+01	4.1627	-1.888033	0.000340	3.398678	0.575752	0.000034
 421	4.1790e+01	4.1729	-1.856667	0.000315	3.152990	0.534131	0.000032
 422	4.1889e+01	4.1805	-1.822451	0.000344	3.439626	0.582688	0.000034
 423	4.1989e+01	4.1922	-1.788234	0.000344	3.439626	0.582688	0.000034
 424	4.2089e+01	4.2065	-1.752795	0.000356	3.562469	0.603499	0.000036
 425	4.2188e+01	4.2132	-1.720208	0.000328	3.275834	0.554941	0.000033
 426	4.2288e+01	4.2254	-1.687620	0.000328	3.275834	0.554941	0.000033
 427	4.2387e+01	4.2352	-1.656255	0.000315	3.152990	0.534131	0.000032
 428	4.2486e+01	4.2445	-1.620001	0.000364	3.644365	0.617372	0.000036
 429	4.2586e+01	4.2545	-1.586599	0.000336	3.357730	0.568815	0.000034
 430	4.2685e+01	4.2611	-1.556863	0.000299	2.989198	0.506384	0.000030
 431	4.2785e+01	4.2769	-1.521424	0.000356	3.562469	0.603499	0.000036
 432	4.2885e+01	4.2837	-1.490874	0.000307	3.071094	0.520257	0.000031
 433	4.2984e+01	4.2941	-1.454620	0.000364	3.644365	0.617372	0.000036
 434	4.3084e+01	4.3047	-1.415923	0.000389	3.890053	0.658993	0.000039
 435	4.3183e+01	4.3135	-1.386187	0.000299	2.989198	0.506384	0.000030
 436	4.3282e+01	4.3237	-1.356451	0.000299	2.989198	0.506384	0.000030
 437	4.3382e+01	4.3370	-1.323863	0.000328	3.275834	0.554941	0.000033
 438	4.3481e+01	4.3429	-1.288832	0.000352	3.521521	0.596562	0.000035
 439	4.3581e+01	4.3566	-1.256652	0.000323	3.234886	0.548005	0.000032
 440	4.3681e+01	4.3626	-1.224064	0.000328	3.275834	0.554941	0.000033
 441	4.3780e+01	4.3755	-1.194328	0.000299	2.989198	0.506384	0.000030
 442	4.3880e+01	4.3832	-1.162148	0.000323	3.234886	0.548005	0.000032
 443	4.3979e+01	4.3920	-1.130783	0.000315	3.152990	0.534131	0.000032
 444	4.4078e+01	4.4054	-1.096566	0.000344	3.439626	0.582688	0.000034
 445	4.4178e+01	4.4132	-1.065201	0.000315	3.152990	0.534131	0.000032
 446	4.4278e+01	4.4215	-1.030169	0.000352	3.521521	0.596562	0.000035
 447	4.4377e+01	4.4348	-1.001248	0.000291	2.907303	0.492510	0.000029
 448	4.4477e+01	4.4430	-0.963772	0.000377	3.767209	0.638182	0.000038
 449	4.4576e+01	4.4550	-0.932000	0.000319	3.193938	0.541068	0.000032
 450	4.4675e+01	4.4624	-0.900227	0.000319	3.193938	0.541068	0.000032
 451	4.4775e+01	4.4732	-0.864788	0.000356	3.562469	0.603499	0.000036
 452	4.4874e+01	4.4829	-0.833016	0.000319	3.193938	0.541068	0.000032
 453	4.4974e+01	4.4920	-0.802465	0.000307	3.071094	0.520257	0.000031
 454	4.5074e+01	4.5023	-0.769063	0.000336	3.357730	0.568815	0.000034
 455	4.5173e+01	4.5141	-0.735661	0.000336	3.357730	0.568815	0.000034
 456	4.5273e+01	4.5220	-0.704295	0.000315	3.152990	0.534131	0.000032
 457	4.5372e+01	4.5311	-0.670486	0.000340	3.398678	0.575752	0.000034
 458	4.5471e+01	4.5454	-0.639935	0.000307	3.071094	0.520257	0.000031
 459	4.5571e+01	4.5509	-0.603274	0.000369	3.685313	0.624309	0.000037
 460	4.5670e+01	4.5620	-0.570280	0.000332	3.316782	0.561878	0.000033
 461	4.5770e+01	4.5742	-0.535655	0.000348	3.480573	0.589625	0.000035
 462	4.5870e+01	4.5817	-0.503475	0.000323	3.234886	0.548005	0.000032
 463	4.5969e+01	4.5923	-0.467629	0.000360	3.603417	0.610435	0.000036
 464	4.6069e+01	4.6032	-0.436264	0.000315	3.152990	0.534131	0.000032
 465	4.6168e+01	4.6119	-0.401640	0.000348	3.480573	0.589625	0.000035
 466	4.6267e+01	4.6242	-0.371089	0.000307	3.071094	0.520257	0.000031
 467	4.6367e+01	4.6329	-0.340538	0.000307	3.071094	0.520257	0.000031
 468	4.6467e+01	4.6400	-0.305507	0.000352	3.521521	0.596562	0.000035
 469	4.6566e+01	4.6533	-0.272512	0.000332	3.316782	0.561878	0.000033
 470	4.6666e+01	4.6635	-0.240739	0.000319	3.193938	0.541068	0.000032
 471	4.6765e+01	4.6748	-0.213040	0.000278	2.784459	0.471700	0.000028
 472	4.6864e+01	4.6833	-0.176787	0.000364	3.644365	0.617372	0.000036
 473	4.6964e+01	4.6926	-0.145829	0.000311	3.112042	0.527194	0.000031
 474	4.7063e+01	4.7026	-0.113649	0.000323	3.234886	0.548005	0.000032
 475	4.7163e+01	4.7115	-0.081061	0.000328	3.275834	0.554941	0.000033
 476	4.7263e+01	4.7209	-0.043586	0.000377	3.767209	0.638182	0.000038
 477	4.7362e+01	4.7353	-0.015072	0.000287	2.866355	0.485574	0.000029
 478	4.7462e+01	4.7417	0.017516	0.000328	3.275834	0.554941	0.000033
 479	4.7561e+01	4.7534	0.051733	0.000344	3.439626	0.582688	0.000034
 480	4.7660e+01	4.7637	0.079839	0.000283	2.825407	0.478637	0.000028
 481	4.7760e+01	4.7732	0.113649	0.000340	3.398678	0.575752	0.000034
 482	4.7859e+01	4.7821	0.144607	0.000311	3.112042	0.527194	0.000031
 483	4.7959e+01	4.7906	0.177601	0.000332	3.316782	0.561878	0.000033
 484	4.8059e+01	4.8030	0.209781	0.000323	3.234886	0.548005	0.000032
 485	4.8158e+01	4.8145	0.242776	0.000332	3.316782	0.561878	0.000033
 486	4.8258e+01	4.8219	0.273734	0.000311	3.112042	0.527194	0.000031
 487	4.8357e+01	4.8302	0.304692	0.000311	3.112042	0.527194	0.000031
 488	4.8456e+01	4.8421	0.335243	0.000307	3.071094	0.520257	0.000031
 489	4.8556e+01	4.8512	0.372718	0.000377	3.767209	0.638182	0.000038
 490	4.8656e+01	4.8627	0.402454	0.000299	2.989198	0.506384	0.000030
 491	4.8755e+01	4.8717	0.434227	0.000319	3.193938	0.541068	0.000032
 492	4.8855e+01	4.8804	0.465185	0.000311	3.112042	0.527194	0.000031
 493	4.8954e+01	4.8902	0.501031	0.000360	3.603417	0.610435	0.000036
 494	4.9053e+01	4.9026	0.530360	0.000295	2.948250	0.499447	0.000029
 495	4.9153e+01	4.9110	0.561725	0.000315	3.152990	0.534131	0.000032
 496	4.9252e+01	4.9212	0.597572	0.000360	3.603417	0.610435	0.000036
 497	4.9352e+01	4.9361	0.624863	0.000274	2.743511	0.464763	0.000027
 498	4.9452e+01	4.9387	0.657858	0.000332	3.316782	0.561878	0.000033
 499	4.9551e+01	4.9529	0.689224	0.000315	3.152990	0.534131	0.000032
 500	4.9651e+01	4.9612	0.721811	0.000328	3.275834	0.554941	0.000033
 501	4.9750e+01	4.9722	0.749103	0.000274	2.743511	0.464763	0.000027
 502	4.9849e+01	4.9825	0.784542	0.000356	3.562469	0.603499	0.000036
 503	4.9949e+01	4.9929	0.816314	0.000319	3.193938	0.541068	0.000032
 504	5.0048e+01	5.0014	0.849309	0.000332	3.316782	0.561878	0.000033
 505	5.0148e+01	5.0092	0.883119	0.000340	3.398678	0.575752	0.000034
 506	5.0248e+01	5.0189	0.913262	0.000303	3.030146	0.513321	0.000030
 507	5.0347e+01	5.0314	0.943405	0.000303	3.030146	0.513321	0.000030
 508	5.0447e+01	5.0396	0.975585	0.000323	3.234886	0.548005	0.000032
 509	5.0546e+01	5.0489	1.008580	0.000332	3.316782	0.561878	0.000033
 510	5.0645e+01	5.0605	1.041982	0.000336	3.357730	0.568815	0.000034
 511	5.0745e+01	5.0706	1.070089	0.000283	2.825407	0.478637	0.000028
 512	5.0844e+01	5.0810	1.102676	0.000328	3.275834	0.554941	0.000033
 513	5.0944e+01	5.0919	1.132412	0.000299	2.989198	0.506384	0.000030
 514	5.1044e+01	5.1025	1.163778	0.000315	3.152990	0.534131	0.000032
 515	5.1143e+01	5.1086	1.196365	0.000328	3.275834	0.554941	0.000033
 516	5.1242e+01	5.1199	1.228138	0.000319	3.193938	0.541068	0.000032
 517	5.1342e+01	5.1295	1.260318	0.000323	3.234886	0.548005	0.000032
 518	5.1441e+01	5.1373	1.288017	0.000278	2.784459	0.471700	0.000028
 519	5.1541e+01	5.1501	1.321419	0.000336	3.357730	0.568815	0.000034
 520	5.1641e+01	5.1600	1.353192	0.000319	3.193938	0.541068	0.000032
 521	5.1740e+01	5.1703	1.384965	0.000319	3.193938	0.541068	0.000032
 522	5.1840e+01	5.1810	1.417552	0.000328	3.275834	0.554941	0.000033
 523	5.1939e+01	5.1913	1.450547	0.000332	3.316782	0.561878	0.000033
 524	5.2038e+01	5.1986	1.482320	0.000319	3.193938	0.541068	0.000032
 525	5.2138e+01	5.2087	1.514092	0.000319	3.193938	0.541068	0.000032
 526	5.2237e+01	5.2184	1.543014	0.000291	2.907303	0.492510	0.000029
 527	5.2337e+01	5.2287	1.576823	0.000340	3.398678	0.575752	0.000034
 528	5.2437e+01	5.2398	1.609410	0.000328	3.275834	0.554941	0.000033
 529	5.2536e+01	5.2509	1.638739	0.000295	2.948250	0.499447	0.000029
 530	5.2636e+01	5.2578	1.672141	0.000336	3.357730	0.568815	0.000034
 531	5.2735e+01	5.2699	1.703507	0.000315	3.152990	0.534131	0.000032
 532	5.2834e+01	5.2810	1.732428	0.000291	2.907303	0.492510	0.000029
 533	5.2934e+01	5.2911	1.762164	0.000299	2.989198	0.506384	0.000030
 534	5.3033e+01	5.3014	1.794344	0.000323	3.234886	0.548005	0.000032
 535	5.3133e+01	5.3089	1.822451	0.000283	2.825407	0.478637	0.000028
 536	5.3233e+01	5.3205	1.854631	0.000323	3.234886	0.548005	0.000032
 537	5.3332e+01	5.3307	1.886811	0.000323	3.234886	0.548005	0.000032
 538	5.3431e+01	5.3410	1.924694	0.000381	3.808157	0.645119	0.000038
 539	5.3531e+01	5.3490	1.951578	0.000270	2.702563	0.457827	0.000027
 540	5.3630e+01	5.3582	1.982129	0.000307	3.071094	0.520257	0.000031
 541	5.3730e+01	5.3675	2.013494	0.000315	3.152990	0.534131	0.000032
 542	5.3830e+01	5.3809	2.041601	0.000283	2.825407	0.478637	0.000028
 543	5.3929e+01	5.3863	2.073374	0.000319	3.193938	0.541068	0.000032
 544	5.4029e+01	5.3968	2.104332	0.000311	3.112042	0.527194	0.000031
 545	5.4128e+01	5.4063	2.133660	0.000295	2.948250	0.499447	0.000029
 546	5.4227e+01	5.4190	2.163804	0.000303	3.030146	0.513321	0.000030
 547	5.4327e+01	5.4308	2.194762	0.000311	3.112042	0.527194	0.000031
 548	5.4426e+01	5.4372	2.224090	0.000295	2.948250	0.499447	0.000029
 549	5.4526e+01	5.4488	2.253826	0.000299	2.989198	0.506384	0.000030
 550	5.4626e+01	5.4594	2.285599	0.000319	3.193938	0.541068	0.000032
 551	5.4725e+01	5.4668	2.318594	0.000332	3.316782	0.561878	0.000033
 552	5.4825e+01	5.4784	2.348330	0.000299	2.989198	0.506384	0.000030
 553	5.4924e+01	5.4876	2.381325	0.000332	3.316782	0.561878	0.000033
 554	5.5023e+01	5.4987	2.411875	0.000307	3.071094	0.520257	0.000031
 555	5.5123e+01	5.5099	2.438353	0.000266	2.661615	0.450890	0.000027
 556	5.5222e+01	5.5172	2.473384	0.000352	3.521521	0.596562	0.000035
 557	5.5322e+01	5.5279	2.500676	0.000274	2.743511	0.464763	0.000027
 558	5.5422e+01	5.5376	2.532041	0.000315	3.152990	0.534131	0.000032
 559	5.5521e+01	5.5502	2.560555	0.000287	2.866355	0.485574	0.000029
 560	5.5620e+01	5.5558	2.593550	0.000332	3.316782	0.561878	0.000033
 561	5.5720e+01	5.5682	2.624508	0.000311	3.112042	0.527194	0.000031
 562	5.5819e+01	5.5790	2.658725	0.000344	3.439626	0.582688	0.000034
 563	5.5919e+01	5.5909	2.683980	0.000254	2.538771	0.430079	0.000025
 564	5.6019e+01	5.5974	2.717382	0.000336	3.357730	0.568815	0.000034
 565	5.6118e+01	5.6071	2.746303	0.000291	2.907303	0.492510	0.000029
 566	5.6218e+01	5.6197	2.777669	0.000315	3.152990	0.534131	0.000032
 567	5.6317e+01	5.6299	2.808627	0.000311	3.112042	0.527194	0.000031
 568	5.6416e+01	5.6380	2.835104	0.000266	2.661615	0.450890	0.000027
 569	5.6516e+01	5.6487	2.868099	0.000332	3.316782	0.561878	0.000033
 570	5.6615e+01	5.6554	2.899872	0.000319	3.193938	0.541068	0.000032
 571	5.6715e+01	5.6655	2.925534	0.000258	2.579719	0.437016	0.000026
 572	5.6815e+01	5.6753	2.963417	0.000381	3.808157	0.645119	0.000038
 573	5.6914e+01	5.6878	2.992746	0.000295	2.948250	0.499447	0.000029
 574	5.7014e+01	5.6960	3.021260	0.000287	2.866355	0.485574	0.000029
 575	5.7113e+01	5.7056	3.050996	0.000299	2.989198	0.506384	0.000030
 576	5.7212e+01	5.7183	3.081139	0.000303	3.030146	0.513321	0.000030
 577	5.7312e+01	5.7250	3.110875	0.000299	2.989198	0.506384	0.000030
 578	5.7411e+01	5.7378	3.141426	0.000307	3.071094	0.520257	0.000031
 579	5.7511e+01	5.7464	3.172384	0.000311	3.112042	0.527194	0.000031
 580	5.7611e+01	5.7584	3.198861	0.000266	2.661615	0.450890	0.000027
 581	5.7710e+01	5.7655	3.232263	0.000336	3.357730	0.568815	0.000034
 582	5.7809e+01	5.7774	3.263629	0.000315	3.152990	0.534131	0.000032
 583	5.7909e+01	5.7887	3.293772	0.000303	3.030146	0.513321	0.000030
 584	5.8008e+01	5.7966	3.323508	0.000299	2.989198	0.506384	0.000030
 585	5.8108e+01	5.8051	3.353244	0.000299	2.989198	0.506384	0.000030
 586	5.8208e+01	5.8184	3.384609	0.000315	3.152990	0.534131	0.000032
 587	5.8307e+01	5.8234	3.414753	0.000303	3.030146	0.513321	0.000030
 588	5.8407e+01	5.8363	3.442452	0.000278	2.784459	0.471700	0.000028
 589	5.8506e+01	5.8456	3.478705	0.000364	3.644365	0.617372	0.000036
 590	5.8605e+01	5.8556	3.505997	0.000274	2.743511	0.464763	0.000027
 591	5.8705e+01	5.8672	3.536548	0.000307	3.071094	0.520257	0.000031
 592	5.8804e+01	5.8743	3.565469	0.000291	2.907303	0.492510	0.000029
 593	5.8904e+01	5.8849	3.596020	0.000307	3.071094	0.520257	0.000031
 594	5.9004e+01	5.8961	3.622090	0.000262	2.620667	0.443953	0.000026
 595	5.9103e+01	5.9057	3.653455	0.000315	3.152990	0.534131	0.000032
 596	5.9203e+01	5.9161	3.688894	0.000356	3.562469	0.603499	0.000036
 597	5.9302e+01	5.9258	3.714149	0.000254	2.538771	0.430079	0.000025
 598	5.9401e+01	5.9344	3.746737	0.000328	3.275834	0.554941	0.000033
 599	5.9501e+01	5.9484	3.775658	0.000291	2.907303	0.492510	0.000029
 600	5.9600e+01	5.9585	3.806616	0.000311	3.112042	0.527194	0.000031
 601	5.9700e+01	5.9650	3.838389	0.000319	3.193938	0.541068	0.000032
 602	5.9800e+01	5.9775	3.869347	0.000311	3.112042	0.527194	0.000031
 603	5.9899e+01	5.9866	3.897046	0.000278	2.784459	0.471700	0.000028
 604	5.9998e+01	5.9953	3.930448	0.000336	3.357730	0.568815	0.000034
 605	6.0098e+01	6.0036	3.956518	0.000262	2.620667	0.443953	0.000026
 606	6.0197e+01	6.0140	3.987884	0.000315	3.152990	0.534131	0.000032
 607	6.0297e+01	6.0226	4.014361	0.000266	2.661615	0.450890	0.000027
 608	6.0397e+01	6.0358	4.043282	0.000291	2.907303	0.492510	0.000029
 609	6.0496e+01	6.0430	4.071796	0.000287	2.866355	0.485574	0.000029
 610	6.0596e+01	6.0543	4.100717	0.000291	2.907303	0.492510	0.000029
 611	6.0695e+01	6.0653	4.130861	0.000303	3.030146	0.513321	0.000030
 612	6.0794e+01	6.0773	4.162226	0.000315	3.152990	0.534131	0.000032
 613	6.0894e+01	6.0851	4.193999	0.000319	3.193938	0.541068	0.000032
 614	6.0993e+01	6.0957	4.222920	0.000291	2.907303	0.492510	0.000029
 615	6.1093e+01	6.1043	4.256322	0.000336	3.357730	0.568815	0.000034
 616	6.1193e+01	6.1140	4.283614	0.000274	2.743511	0.464763	0.000027
 617	6.1292e+01	6.1245	4.316202	0.000328	3.275834	0.554941	0.000033
 618	6.1392e+01	6.1356	4.343494	0.000274	2.743511	0.464763	0.000027
 619	6.1491e+01	6.1427	4.374044	0.000307	3.071094	0.520257	0.000031
 620	6.1590e+01	6.1541	4.400114	0.000262	2.620667	0.443953	0.000026
 621	6.1690e+01	6.1633	4.430665	0.000307	3.071094	0.520257	0.000031
 622	6.1789e+01	6.1752	4.457957	0.000274	2.743511	0.464763	0.000027
 623	6.1889e+01	6.1848	4.488100	0.000303	3.030146	0.513321	0.000030
 624	6.1989e+01	6.1947	4.521502	0.000336	3.357730	0.568815	0.000034
 625	6.2088e+01	6.2037	4.548794	0.000274	2.743511	0.464763	0.000027
 626	6.2188e+01	6.2138	4.585048	0.000364	3.644365	0.617372	0.000036
 627	6.2287e+01	6.2261	4.611118	0.000262	2.620667	0.443953	0.000026
 628	6.2386e+01	6.2354	4.643298	0.000323	3.234886	0.548005	0.000032
 629	6.2486e+01	6.2446	4.673441	0.000303	3.030146	0.513321	0.000030
 630	6.2586e+01	6.2511	4.705621	0.000323	3.234886	0.548005	0.000032
 631	6.2685e+01	6.2655	4.736172	0.000307	3.071094	0.520257	0.000031
 632	6.2785e+01	6.2770	4.764686	0.000287	2.866355	0.485574	0.000029
 633	6.2884e+01	6.2818	4.794014	0.000295	2.948250	0.499447	0.000029
 634	6.2983e+01	6.2945	4.824158	0.000303	3.030146	0.513321	0.000030
 635	6.3083e+01	6.3015	4.850635	0.000266	2.661615	0.450890	0.000027
 636	6.3182e+01	6.3148	4.879964	0.000295	2.948250	0.499447	0.000029
 637	6.3282e+01	6.3240	4.910922	0.000311	3.112042	0.527194	0.000031
 638	6.3382e+01	6.3352	4.940250	0.000295	2.948250	0.499447	0.000029
 639	6.3481e+01	6.3420	4.971616	0.000315	3.152990	0.534131	0.000032
 640	6.3581e+01	6.3526	4.999315	0.000278	2.784459	0.471700	0.000028
 641	6.3680e+01	6.3638	5.031088	0.000319	3.193938	0.541068	0.000032
 642	6.3779e+01	6.3723	5.059602	0.000287	2.866355	0.485574	0.000029
 643	6.3879e+01	6.3848	5.088116	0.000287	2.866355	0.485574	0.000029
 644	6.3978e+01	6.3940	5.118667	0.000307	3.071094	0.520257	0.000031
 645	6.4078e+01	6.4050	5.145551	0.000270	2.702563	0.457827	0.000027
 646	6.4177e+01	6.4120	5.175694	0.000303	3.030146	0.513321	0.000030
 647	6.4277e+01	6.4239	5.206245	0.000307	3.071094	0.520257	0.000031
 648	6.4376e+01	6.4323	5.236388	0.000303	3.030146	0.513321	0.000030
 649	6.4476e+01	6.4419	5.265717	0.000295	2.948250	0.499447	0.000029
 650	6.4576e+01	6.4524	5.292194	0.000266	2.661615	0.450890	0.000027
 651	6.4675e+01	6.4611	5.323152	0.000311	3.112042	0.527194	0.000031
 652	6.4775e+01	6.4717	5.352888	0.000299	2.989198	0.506384	0.000030
 653	6.4874e+01	6.4829	5.383439	0.000307	3.071094	0.520257	0.000031
 654	6.4974e+01	6.4925	5.414805	0.000315	3.152990	0.534131	0.000032
 655	6.5073e+01	6.5046	5.446985	0.000323	3.234886	0.548005	0.000032
 656	6.5172e+01	6.5125	5.469388	0.000225	2.252136	0.381522	0.000023
 657	6.5272e+01	6.5258	5.502383	0.000332	3.316782	0.561878	0.000033
 658	6.5371e+01	6.5328	5.531305	0.000291	2.907303	0.492510	0.000029
 659	6.5471e+01	6.5430	5.558189	0.000270	2.702563	0.457827	0.000027
 660	6.5570e+01	6.5533	5.593221	0.000352	3.521521	0.596562	0.000035
 661	6.5670e+01	6.5593	5.621327	0.000283	2.825407	0.478637	0.000028
 662	6.5769e+01	6.5737	5.651471	0.000303	3.030146	0.513321	0.000030
 663	6.5869e+01	6.5821	5.678763	0.000274	2.743511	0.464763	0.000027
 664	6.5969e+01	6.5919	5.710128	0.000315	3.152990	0.534131	0.000032
 665	6.6068e+01	6.6045	5.740679	0.000307	3.071094	0.520257	0.000031
 666	6.6168e+01	6.6131	5.767156	0.000266	2.661615	0.450890	0.000027
 667	6.6267e+01	6.6230	5.797707	0.000307	3.071094	0.520257	0.000031
 668	6.6367e+01	6.6341	5.824998	0.000274	2.743511	0.464763	0.000027
 669	6.6466e+01	6.6418	5.855957	0.000311	3.112042	0.527194	0.000031
 670	6.6566e+01	6.6512	5.886100	0.000303	3.030146	0.513321	0.000030
 671	6.6665e+01	6.6634	5.913392	0.000274	2.743511	0.464763	0.000027
 672	6.6764e+01	6.6702	5.940684	0.000274	2.743511	0.464763	0.000027
 673	6.6864e+01	6.6793	5.969605	0.000291	2.907303	0.492510	0.000029
 674	6.6963e+01	6.6921	6.001785	0.000323	3.234886	0.548005	0.000032
 675	6.7063e+01	6.7010	6.029892	0.000283	2.825407	0.478637	0.000028
 676	6.7162e+01	6.7103	6.060442	0.000307	3.071094	0.520257	0.000031
 677	6.7262e+01	6.7235	6.093845	0.000336	3.357730	0.568815	0.000034
 678	6.7362e+01	6.7319	6.118285	0.000246	2.456875	0.416206	0.000025
 679	6.7461e+01	6.7403	6.154131	0.000360	3.603417	0.610435	0.000036
 680	6.7561e+01	6.7507	6.177757	0.000237	2.374980	0.402332	0.000024
 681	6.7660e+01	6.7608	6.207493	0.000299	2.989198	0.506384	0.000030
 682	6.7760e+01	6.7739	6.238859	0.000315	3.152990	0.534131	0.000032
 683	6.7859e+01	6.7798	6.264928	0.000262	2.620667	0.443953	0.000026
 684	6.7959e+01	6.7915	6.295886	0.000311	3.112042	0.527194	0.000031
 685	6.8058e+01	6.8040	6.322771	0.000270	2.702563	0.457827	0.000027
 686	6.8157e+01	6.8112	6.352100	0.000295	2.948250	0.499447	0.000029
 687	6.8257e+01	6.8233	6.380206	0.000283	2.825407	0.478637	0.000028
 688	6.8356e+01	6.8318	6.410350	0.000303	3.030146	0.513321	0.000030
 689	6.8456e+01	6.8386	6.441715	0.000315	3.152990	0.534131	0.000032
 690	6.8555e+01	6.8530	6.471044	0.000295	2.948250	0.499447	0.000029
 691	6.8655e+01	6.8633	6.500780	0.000299	2.989198	0.506384	0.000030
 692	6.8754e+01	6.8702	6.530516	0.000299	2.989198	0.506384	0.000030
 693	6.8854e+01	6.8819	6.559030	0.000287	2.866355	0.485574	0.000029
 694	6.8954e+01	6.8891	6.591210	0.000323	3.234886	0.548005	0.000032
 695	6.9053e+01	6.8990	6.622983	0.000319	3.193938	0.541068	0.000032
 696	6.9153e+01	6.9127	6.648645	0.000258	2.579719	0.437016	0.000026
 697	6.9252e+01	6.9231	6.679196	0.000307	3.071094	0.520257	0.000031
 698	6.9352e+01	6.9326	6.705266	0.000262	2.620667	0.443953	0.000026
 699	6.9451e+01	6.9415	6.731336	0.000262	2.620667	0.443953	0.000026
 700	6.9550e+01	6.9514	6.763923	0.000328	3.275834	0.554941	0.000033
 701	6.9650e+01	6.9636	6.792844	0.000291	2.907303	0.492510	0.000029
 702	6.9749e+01	6.9721	6.823395	0.000307	3.071094	0.520257	0.000031
 703	6.9849e+01	6.9787	6.851502	0.000283	2.825407	0.478637	0.000028
 704	6.9948e+01	6.9922	6.880830	0.000295	2.948250	0.499447	0.000029
 705	7.0048e+01	6.9986	6.908937	0.000283	2.825407	0.478637	0.000028
 706	7.0147e+01	7.0070	6.941117	0.000323	3.234886	0.548005	0.000032
 707	7.0247e+01	7.0219	6.970446	0.000295	2.948250	0.499447	0.000029
 708	7.0347e+01	7.0293	6.996923	0.000266	2.661615	0.450890	0.000027
 709	7.0446e+01	7.0404	7.029510	0.000328	3.275834	0.554941	0.000033
 710	7.0546e+01	7.0498	7.054766	0.000254	2.538771	0.430079	0.000025
 711	7.0645e+01	7.0583	7.083280	0.000287	2.866355	0.485574	0.000029
 712	7.0745e+01	7.0705	7.109757	0.000266	2.661615	0.450890	0.000027
 713	7.0844e+01	7.0825	7.137456	0.000278	2.784459	0.471700	0.000028
 714	7.0944e+01	7.0874	7.164748	0.000274	2.743511	0.464763	0.000027
 715	7.1043e+01	7.1006	7.198150	0.000336	3.357730	0.568815	0.000034
 716	7.1142e+01	7.1094	7.227479	0.000295	2.948250	0.499447	0.000029
 717	7.1242e+01	7.1200	7.255586	0.000283	2.825407	0.478637	0.000028
 718	7.1341e+01	7.1293	7.280841	0.000254	2.538771	0.430079	0.000025
 719	7.1441e+01	7.1402	7.310984	0.000303	3.030146	0.513321	0.000030
 720	7.1540e+01	7.1501	7.342349	0.000315	3.152990	0.534131	0.000032
 721	7.1640e+01	7.1610	7.371271	0.000291	2.907303	0.492510	0.000029
 722	7.1740e+01	7.1705	7.405080	0.000340	3.398678	0.575752	0.000034
 723	7.1839e+01	7.1815	7.431558	0.000266	2.661615	0.450890	0.000027
 724	7.1939e+01	7.1900	7.462923	0.000315	3.152990	0.534131	0.000032
 725	7.2038e+01	7.2005	7.484919	0.000221	2.211188	0.374585	0.000022
 726	7.2138e+01	7.2091	7.515063	0.000303	3.030146	0.513321	0.000030
 727	7.2237e+01	7.2176	7.548057	0.000332	3.316782	0.561878	0.000033
 728	7.2337e+01	7.2289	7.576979	0.000291	2.907303	0.492510	0.000029
 729	7.2436e+01	7.2375	7.603456	0.000266	2.661615	0.450890	0.000027
 730	7.2535e+01	7.2493	7.634007	0.000307	3.071094	0.520257	0.000031
 731	7.2635e+01	7.2568	7.663743	0.000299	2.989198	0.506384	0.000030
 732	7.2734e+01	7.2663	7.691849	0.000283	2.825407	0.478637	0.000028
 733	7.2834e+01	7.2782	7.721993	0.000303	3.030146	0.513321	0.000030
 734	7.2933e+01	7.2887	7.751729	0.000299	2.989198	0.506384	0.000030
 735	7.3033e+01	7.2967	7.780243	0.000287	2.866355	0.485574	0.000029
 736	7.3132e+01	7.3116	7.807127	0.000270	2.702563	0.457827	0.000027
 737	7.3232e+01	7.3190	7.837678	0.000307	3.071094	0.520257	0.000031
 738	7.3332e+01	7.3293	7.866599	0.000291	2.907303	0.492510	0.000029
 739	7.3431e+01	7.3389	7.897557	0.000311	3.112042	0.527194	0.000031
 740	7.3531e+01	7.3479	7.926479	0.000291	2.907303	0.492510	0.000029
 741	7.3630e+01	7.3595	7.955400	0.000291	2.907303	0.492510	0.000029
 742	7.3730e+01	7.3682	7.983099	0.000278	2.784459	0.471700	0.000028
 743	7.3829e+01	7.3784	8.009169	0.000262	2.620667	0.443953	0.000026
 744	7.3928e+01	7.3888	8.039720	0.000307	3.071094	0.520257	0.000031
 745	7.4028e+01	7.3981	8.069456	0.000299	2.989198	0.506384	0.000030
 746	7.4127e+01	7.4084	8.101636	0.000323	3.234886	0.548005	0.000032
 747	7.4227e+01	7.4195	8.127706	0.000262	2.620667	0.443953	0.000026
 748	7.4326e+01	7.4268	8.153369	0.000258	2.579719	0.437016	0.000026
 749	7.4426e+01	7.4379	8.184734	0.000315	3.152990	0.534131	0.000032
 750	7.4525e+01	7.4476	8.214877	0.000303	3.030146	0.513321	0.000030
 751	7.4625e+01	7.4561	8.244206	0.000295	2.948250	0.499447	0.000029
 752	7.4725e+01	7.4668	8.274349	0.000303	3.030146	0.513321	0.000030
 753	7.4824e+01	7.4782	8.306529	0.000323	3.234886	0.548005	0.000032
 754	7.4924e+01	7.4863	8.335043	0.000287	2.866355	0.485574	0.000029
 755	7.5023e+01	7.4969	8.362335	0.000274	2.743511	0.464763	0.000027
 756	7.5123e+01	7.5094	8.392886	0.000307	3.071094	0.520257	0.000031
 757	7.5222e+01	7.5190	8.424251	0.000315	3.152990	0.534131	0.000032
 758	7.5322e+01	7.5257	8.452358	0.000283	2.825407	0.478637	0.000028
 759	7.5421e+01	7.5369	8.480872	0.000287	2.866355	0.485574	0.000029
 760	7.5520e+01	7.5471	8.509793	0.000291	2.907303	0.492510	0.000029
 761	7.5620e+01	7.5586	8.541159	0.000315	3.152990	0.534131	0.000032
 762	7.5719e+01	7.5670	8.568858	0.000278	2.784459	0.471700	0.000028
 763	7.5819e+01	7.5763	8.596965	0.000283	2.825407	0.478637	0.000028
 764	7.5918e+01	7.5867	8.629145	0.000323	3.234886	0.548005	0.000032
 765	7.6018e+01	7.6001	8.658473	0.000295	2.948250	0.499447	0.000029
 766	7.6118e+01	7.6080	8.681692	0.000233	2.334032	0.395396	0.000023
 767	7.6217e+01	7.6174	8.715094	0.000336	3.357730	0.568815	0.000034
 768	7.6317e+01	7.6270	8.748089	0.000332	3.316782	0.561878	0.000033
 769	7.6416e+01	7.6383	8.775788	0.000278	2.784459	0.471700	0.000028
 770	7.6516e+01	7.6458	8.806746	0.000311	3.112042	0.527194	0.000031
 771	7.6615e+01	7.6576	8.833223	0.000266	2.661615	0.450890	0.000027
 772	7.6715e+01	7.6672	8.864996	0.000319	3.193938	0.541068	0.000032
 773	7.6814e+01	7.6775	8.891066	0.000262	2.620667	0.443953	0.000026
 774	7.6913e+01	7.6863	8.922024	0.000311	3.112042	0.527194	0.000031
 775	7.7013e+01	7.6963	8.952575	0.000307	3.071094	0.520257	0.000031
 776	7.7112e+01	7.7058	8.979459	0.000270	2.702563	0.457827	0.000027
 777	7.7212e+01	7.7182	9.006751	0.000274	2.743511	0.464763	0.000027
 778	7.7311e+01	7.7257	9.032821	0.000262	2.620667	0.443953	0.000026
 779	7.7411e+01	7.7368	9.065001	0.000323	3.234886	0.548005	0.000032
 780	7.7510e+01	7.7484	9.095959	0.000311	3.112042	0.527194	0.000031
 781	7.7610e+01	7.7554	9.124473	0.000287	2.866355	0.485574	0.000029
 782	7.7710e+01	7.7655	9.152987	0.000287	2.866355	0.485574	0.000029
 783	7.7809e+01	7.7750	9.183538	0.000307	3.071094	0.520257	0.000031
 784	7.7909e+01	7.7856	9.216125	0.000328	3.275834	0.554941	0.000033
 785	7.8008e+01	7.7967	9.245861	0.000299	2.989198	0.506384	0.000030
 786	7.8108e+01	7.8091	9.279263	0.000336	3.357730	0.568815	0.000034
 787	7.8207e+01	7.8163	9.305333	0.000262	2.620667	0.443953	0.000026
 788	7.8306e+01	7.8248	9.332625	0.000274	2.743511	0.464763	0.000027
 789	7.8406e+01	7.8352	9.364805	0.000323	3.234886	0.548005	0.000032
 790	7.8505e+01	7.8452	9.393319	0.000287	2.866355	0.485574	0.000029
 791	7.8605e+01	7.8599	9.423870	0.000307	3.071094	0.520257	0.000031
 792	7.8704e+01	7.8650	9.454828	0.000311	3.112042	0.527194	0.000031
 793	7.8804e+01	7.8751	9.486601	0.000319	3.193938	0.541068	0.000032
 794	7.8903e+01	7.8852	9.515115	0.000287	2.866355	0.485574	0.000029
 795	7.9003e+01	7.8977	9.543629	0.000287	2.866355	0.485574	0.000029
 796	7.9103e+01	7.9058	9.580697	0.000373	3.726261	0.631246	0.000037
 797	7.9202e+01	7.9150	9.607174	0.000266	2.661615	0.450890	0.000027
 798	7.9302e+01	7.9253	9.642206	0.000352	3.521521	0.596562	0.000035
 799	7.9401e+01	7.9333	9.671942	0.000299	2.989198	0.506384	0.000030
 800	7.9501e+01	7.9440	9.703307	0.000315	3.152990	0.534131	0.000032
 801	7.9600e+01	7.9535	9.730599	0.000274	2.743511	0.464763	0.000027
 802	7.9700e+01	7.9627	9.762372	0.000319	3.193938	0.541068	0.000032
 803	7.9799e+01	7.9720	9.794552	0.000323	3.234886	0.548005	0.000032
 804	7.9898e+01	7.9842	9.823473	0.000291	2.907303	0.492510	0.000029
 805	7.9998e+01	7.9967	9.856060	0.000328	3.275834	0.554941	0.000033
 806	8.0097e+01	8.0073	9.884574	0.000287	2.866355	0.485574	0.000029
 807	8.0197e+01	8.0166	9.914718	0.000303	3.030146	0.513321	0.000030
 808	8.0296e+01	8.0241	9.946083	0.000315	3.152990	0.534131	0.000032
 809	8.0396e+01	8.0341	9.976634	0.000307	3.071094	0.520257	0.000031
 810	8.0496e+01	8.0453	10.008406	0.000319	3.193938	0.541068	0.000032
 811	8.0595e+01	8.0554	10.038957	0.000307	3.071094	0.520257	0.000031
 812	8.0695e+01	8.0640	10.070730	0.000319	3.193938	0.541068	0.000032
 813	8.0794e+01	8.0769	10.101688	0.000311	3.112042	0.527194	0.000031
 814	8.0894e+01	8.0854	10.132646	0.000311	3.112042	0.527194	0.000031
 815	8.0993e+01	8.0968	10.159938	0.000274	2.743511	0.464763	0.000027
 816	8.1093e+01	8.1055	10.193747	0.000340	3.398678	0.575752	0.000034
 817	8.1192e+01	8.1187	10.222261	0.000287	2.866355	0.485574	0.000029
 818	8.1291e+01	8.1258	10.253627	0.000315	3.152990	0.534131	0.000032
 819	8.1391e+01	8.1348	10.284177	0.000307	3.071094	0.520257	0.000031
 820	8.1490e+01	8.1442	10.312284	0.000283	2.825407	0.478637	0.000028
 821	8.1590e+01	8.1537	10.348130	0.000360	3.603417	0.610435	0.000036
 822	8.1689e+01	8.1647	10.379088	0.000311	3.112042	0.527194	0.000031
 823	8.1789e+01	8.1724	10.408417	0.000295	2.948250	0.499447	0.000029
 824	8.1888e+01	8.1829	10.442634	0.000344	3.439626	0.582688	0.000034
 825	8.1988e+01	8.1936	10.470740	0.000283	2.825407	0.478637	0.000028
 826	8.2088e+01	8.2048	10.503735	0.000332	3.316782	0.561878	0.000033
 827	8.2187e+01	8.2159	10.535100	0.000315	3.152990	0.534131	0.000032
 828	8.2287e+01	8.2214	10.564022	0.000291	2.907303	0.492510	0.000029
 829	8.2386e+01	8.2326	10.596202	0.000323	3.234886	0.548005	0.000032
 830	8.2486e+01	8.2449	10.629604	0.000336	3.357730	0.568815	0.000034
 831	8.2585e+01	8.2593	10.660155	0.000307	3.071094	0.520257	0.000031
 832	8.2684e+01	8.2655	10.691113	0.000311	3.112042	0.527194	0.000031
 833	8.2784e+01	8.2738	10.719219	0.000283	2.825407	0.478637	0.000028
 834	8.2883e+01	8.2817	10.753029	0.000340	3.398678	0.575752	0.000034
 835	8.2983e+01	8.2948	10.786431	0.000336	3.357730	0.568815	0.000034
 836	8.3082e+01	8.3032	10.819426	0.000332	3.316782	0.561878	0.000033
 837	8.3182e+01	8.3126	10.846310	0.000270	2.702563	0.457827	0.000027
 838	8.3281e+01	8.3225	10.879305	0.000332	3.316782	0.561878	0.000033
 839	8.3381e+01	8.3322	10.916373	0.000373	3.726261	0.631246	0.000037
 840	8.3481e+01	8.3438	10.944480	0.000283	2.825407	0.478637	0.000028
 841	8.3580e+01	8.3532	10.976660	0.000323	3.234886	0.548005	0.000032
 842	8.3680e+01	8.3669	11.010062	0.000336	3.357730	0.568815	0.000034
 843	8.3779e+01	8.3730	11.038168	0.000283	2.825407	0.478637	0.000028
 844	8.3879e+01	8.3823	11.073607	0.000356	3.562469	0.603499	0.000036
 845	8.3978e+01	8.3938	11.103343	0.000299	2.989198	0.506384	0.000030
 846	8.4078e+01	8.4033	11.134709	0.000315	3.152990	0.534131	0.000032
 847	8.4177e+01	8.4146	11.169333	0.000348	3.480573	0.589625	0.000035
 848	8.4276e+01	8.4229	11.201513	0.000323	3.234886	0.548005	0.000032
 849	8.4376e+01	8.4344	11.230841	0.000295	2.948250	0.499447	0.000029
 850	8.4475e+01	8.4411	11.263429	0.000328	3.275834	0.554941	0.000033
 851	8.4575e+01	8.4546	11.295609	0.000323	3.234886	0.548005	0.000032
 852	8.4674e+01	8.4644	11.329418	0.000340	3.398678	0.575752	0.000034
 853	8.4774e+01	8.4708	11.364450	0.000352	3.521521	0.596562	0.000035
 854	8.4874e+01	8.4830	11.394186	0.000299	2.989198	0.506384	0.000030
 855	8.4973e+01	8.4922	11.425144	0.000311	3.112042	0.527194	0.000031
 856	8.5073e+01	8.5019	11.457731	0.000328	3.275834	0.554941	0.000033
 857	8.5172e+01	8.5166	11.492763	0.000352	3.521521	0.596562	0.000035
 858	8.5272e+01	8.5236	11.524943	0.000323	3.234886	0.548005	0.000032
 859	8.5371e+01	8.5327	11.559160	0.000344	3.439626	0.582688	0.000034
 860	8.5471e+01	8.5429	11.595006	0.000360	3.603417	0.610435	0.000036
 861	8.5570e+01	8.5502	11.628815	0.000340	3.398678	0.575752	0.000034
 862	8.5669e+01	8.5620	11.662217	0.000336	3.357730	0.568815	0.000034
 863	8.5769e+01	8.5728	11.692361	0.000303	3.030146	0.513321	0.000030
 864	8.5868e+01	8.5803	11.729021	0.000369	3.685313	0.624309	0.000037
 865	8.5968e+01	8.5895	11.757943	0.000291	2.907303	0.492510	0.000029
 866	8.6067e+01	8.6011	11.789715	0.000319	3.193938	0.541068	0.000032
 867	8.6167e+01	8.6118	11.829228	0.000397	3.971949	0.672866	0.000040
 868	8.6266e+01	8.6218	11.860186	0.000311	3.112042	0.527194	0.000031
 869	8.6366e+01	8.6334	11.891144	0.000311	3.112042	0.527194	0.000031
 870	8.6466e+01	8.6387	11.926175	0.000352	3.521521	0.596562	0.000035
 871	8.6565e+01	8.6511	11.960392	0.000344	3.439626	0.582688	0.000034
 872	8.6665e+01	8.6613	11.995831	0.000356	3.562469	0.603499	0.000036
 873	8.6764e+01	8.6737	12.030048	0.000344	3.439626	0.582688	0.000034
 874	8.6864e+01	8.6797	12.061006	0.000311	3.112042	0.527194	0.000031
 875	8.6963e+01	8.6932	12.099703	0.000389	3.890053	0.658993	0.000039
 876	8.7063e+01	8.7012	12.129032	0.000295	2.948250	0.499447	0.000029
 877	8.7162e+01	8.7135	12.162434	0.000336	3.357730	0.568815	0.000034
 878	8.7261e+01	8.7211	12.196243	0.000340	3.398678	0.575752	0.000034
 879	8.7361e+01	8.7326	12.225979	0.000299	2.989198	0.506384	0.000030
 880	8.7460e+01	8.7417	12.262640	0.000369	3.685313	0.624309	0.000037
 881	8.7560e+01	8.7549	12.300116	0.000377	3.767209	0.638182	0.000038
 882	8.7659e+01	8.7622	12.337591	0.000377	3.767209	0.638182	0.000038
 883	8.7759e+01	8.7736	12.365290	0.000278	2.784459	0.471700	0.000028
 884	8.7859e+01	8.7794	12.398693	0.000336	3.357730	0.568815	0.000034
 885	8.7958e+01	8.7913	12.437390	0.000389	3.890053	0.658993	0.000039
 886	8.8058e+01	8.7997	12.472014	0.000348	3.480573	0.589625	0.000035
 887	8.8157e+01	8.8116	12.505009	0.000332	3.316782	0.561878	0.000033
 888	8.8257e+01	8.8193	12.539633	0.000348	3.480573	0.589625	0.000035
 889	8.8356e+01	8.8291	12.571813	0.000323	3.234886	0.548005	0.000032
 890	8.8456e+01	8.8406	12.611733	0.000401	4.012897	0.679803	0.000040
 891	8.8555e+01	8.8504	12.642691	0.000311	3.112042	0.527194	0.000031
 892	8.8654e+01	8.8602	12.678944	0.000364	3.644365	0.617372	0.000036
 893	8.8754e+01	8.8721	12.715198	0.000364	3.644365	0.617372	0.000036
 894	8.8853e+01	8.8803	12.755117	0.000401	4.012897	0.679803	0.000040
 895	8.8953e+01	8.8909	12.787705	0.000328	3.275834	0.554941	0.000033
 896	8.9052e+01	8.9019	12.826810	0.000393	3.931001	0.665930	0.000039
 897	8.9152e+01	8.9099	12.862656	0.000360	3.603417	0.610435	0.000036
 898	8.9251e+01	8.9191	12.897280	0.000348	3.480573	0.589625	0.000035
 899	8.9351e+01	8.9338	12.937199	0.000401	4.012897	0.679803	0.000040
 900	8.9451e+01	8.9375	12.970602	0.000336	3.357730	0.568815	0.000034
 901	8.9550e+01	8.9485	13.005226	0.000348	3.480573	0.589625	0.000035
 902	8.9650e+01	8.9582	13.047182	0.000422	4.217636	0.714487	0.000042
 903	8.9749e+01	8.9717	13.085472	0.000385	3.849105	0.652056	0.000038
 904	8.9849e+01	8.9799	13.119689	0.000344	3.439626	0.582688	0.000034
 905	8.9948e+01	8.9907	13.161238	0.000418	4.176688	0.707550	0.000042
 906	9.0047e+01	8.9998	13.193825	0.000328	3.275834	0.554941	0.000033
 907	9.0147e+01	9.0100	13.237411	0.000438	4.381428	0.742234	0.000044
 908	9.0246e+01	9.0186	13.273257	0.000360	3.603417	0.610435	0.000036
 909	9.0346e+01	9.0314	13.313177	0.000401	4.012897	0.679803	0.000040
 910	9.0445e+01	9.0408	13.348615	0.000356	3.562469	0.603499	0.000036
 911	9.0545e+01	9.0509	13.384462	0.000360	3.603417	0.610435	0.000036
 912	9.0644e+01	9.0601	13.421937	0.000377	3.767209	0.638182	0.000038
 913	9.0744e+01	9.0701	13.463893	0.000422	4.217636	0.714487	0.000042
 914	9.0844e+01	9.0785	13.498110	0.000344	3.439626	0.582688	0.000034
 915	9.0943e+01	9.0882	13.535178	0.000373	3.726261	0.631246	0.000037
 916	9.1043e+01	9.0982	13.578357	0.000434	4.340480	0.735297	0.000043
 917	9.1142e+01	9.1098	13.616647	0.000385	3.849105	0.652056	0.000038
 918	9.1242e+01	9.1190	13.656566	0.000401	4.012897	0.679803	0.000040
 919	9.1341e+01	9.1289	13.700559	0.000442	4.422376	0.749171	0.000044
 920	9.1441e+01	9.1368	13.740479	0.000401	4.012897	0.679803	0.000040
 921	9.1540e+01	9.1470	13.779176	0.000389	3.890053	0.658993	0.000039
 922	9.1639e+01	9.1610	13.817874	0.000389	3.890053	0.658993	0.000039
 923	9.1739e+01	9.1688	13.854128	0.000364	3.644365	0.617372	0.000036
 924	9.1838e+01	9.1797	13.897306	0.000434	4.340480	0.735297	0.000043
 925	9.1938e+01	9.1891	13.937225	0.000401	4.012897	0.679803	0.000040
 926	9.2037e+01	9.1968	13.977960	0.000409	4.094792	0.693677	0.000041
 927	9.2137e+01	9.2096	14.015843	0.000381	3.808157	0.645119	0.000038
 928	9.2237e+01	9.2188	14.058613	0.000430	4.299532	0.728360	0.000043
 929	9.2336e+01	9.2273	14.098940	0.000405	4.053844	0.686740	0.000041
 930	9.2436e+01	9.2390	14.139675	0.000409	4.094792	0.693677	0.000041
 931	9.2535e+01	9.2493	14.185704	0.000463	4.627115	0.783855	0.000046
 932	9.2635e+01	9.2557	14.228475	0.000430	4.299532	0.728360	0.000043
 933	9.2734e+01	9.2677	14.270432	0.000422	4.217636	0.714487	0.000042
 934	9.2834e+01	9.2767	14.311573	0.000414	4.135740	0.700613	0.000041
 935	9.2933e+01	9.2879	14.354752	0.000434	4.340480	0.735297	0.000043
 936	9.3032e+01	9.2970	14.395078	0.000405	4.053844	0.686740	0.000041
 937	9.3132e+01	9.3038	14.441108	0.000463	4.627115	0.783855	0.000046
 938	9.3231e+01	9.3188	14.483879	0.000430	4.299532	0.728360	0.000043
 939	9.3331e+01	9.3262	14.530316	0.000467	4.668063	0.790791	0.000047
 940	9.3430e+01	9.3384	14.572680	0.000426	4.258584	0.721424	0.000043
 941	9.3530e+01	9.3506	14.613007	0.000405	4.053844	0.686740	0.000041
 942	9.3629e+01	9.3586	14.658222	0.000455	4.545220	0.769981	0.000045
 943	9.3729e+01	9.3677	14.698956	0.000409	4.094792	0.693677	0.000041
 944	9.3829e+01	9.3787	14.745393	0.000467	4.668063	0.790791	0.000047
 945	9.3928e+01	9.3876	14.783683	0.000385	3.849105	0.652056	0.000038
 946	9.4028e+01	9.3977	14.827269	0.000438	4.381428	0.742234	0.000044
 947	9.4127e+01	9.4092	14.878187	0.000512	5.118490	0.867096	0.000051
 948	9.4227e+01	9.4172	14.922587	0.000446	4.463324	0.756107	0.000045
 949	9.4326e+01	9.4294	14.970246	0.000479	4.790907	0.811602	0.000048
 950	9.4425e+01	9.4367	15.011388	0.000414	4.135740	0.700613	0.000041
 951	9.4525e+01	9.4476	15.061083	0.000500	4.995647	0.846285	0.000050
 952	9.4624e+01	9.4587	15.105891	0.000450	4.504272	0.763044	0.000045
 953	9.4724e+01	9.4669	15.152736	0.000471	4.709011	0.797728	0.000047
 954	9.4823e+01	9.4748	15.199173	0.000467	4.668063	0.790791	0.000047
 955	9.4923e+01	9.4855	15.243980	0.000450	4.504272	0.763044	0.000045
 956	9.5022e+01	9.5014	15.290417	0.000467	4.668063	0.790791	0.000047
 957	9.5122e+01	9.5071	15.335632	0.000455	4.545220	0.769981	0.000045
 958	9.5222e+01	9.5182	15.384106	0.000487	4.872803	0.825475	0.000049
 959	9.5321e+01	9.5271	15.429729	0.000459	4.586167	0.776918	0.000046
 960	9.5421e+01	9.5335	15.480646	0.000512	5.118490	0.867096	0.000051
 961	9.5520e+01	9.5442	15.525047	0.000446	4.463324	0.756107	0.000045
 962	9.5620e+01	9.5577	15.579631	0.000549	5.487022	0.929527	0.000055
 963	9.5719e+01	9.5662	15.625253	0.000459	4.586167	0.776918	0.000046
 964	9.5819e+01	9.5766	15.673319	0.000483	4.831855	0.818538	0.000048
 965	9.5918e+01	9.5867	15.725867	0.000528	5.282282	0.894843	0.000053
 966	9.6017e+01	9.5961	15.768638	0.000430	4.299532	0.728360	0.000043
 967	9.6117e+01	9.6070	15.820370	0.000520	5.200386	0.880969	0.000052
 968	9.6216e+01	9.6167	15.870066	0.000500	4.995647	0.846285	0.000050
 969	9.6316e+01	9.6292	15.920169	0.000504	5.036595	0.853222	0.000050
 970	9.6415e+01	9.6356	15.969050	0.000491	4.913751	0.832412	0.000049
 971	9.6515e+01	9.6469	16.020783	0.000520	5.200386	0.880969	0.000052
 972	9.6615e+01	9.6563	16.069256	0.000487	4.872803	0.825475	0.000049
 973	9.6714e+01	9.6667	16.119359	0.000504	5.036595	0.853222	0.000050
 974	9.6814e+01	9.6789	16.168241	0.000491	4.913751	0.832412	0.000049
 975	9.6913e+01	9.6863	16.223232	0.000553	5.527970	0.936463	0.000055
 976	9.7013e+01	9.6945	16.274557	0.000516	5.159438	0.874033	0.000052
 977	9.7112e+01	9.7092	16.324253	0.000500	4.995647	0.846285	0.000050
 978	9.7212e+01	9.7152	16.382095	0.000581	5.814605	0.985021	0.000058
 979	9.7311e+01	9.7266	16.429754	0.000479	4.790907	0.811602	0.000048
 980	9.7410e+01	9.7363	16.478228	0.000487	4.872803	0.825475	0.000049
 981	9.7510e+01	9.7440	16.530368	0.000524	5.241334	0.887906	0.000052
 982	9.7609e+01	9.7547	16.586581	0.000565	5.650813	0.957274	0.000056
 983	9.7709e+01	9.7643	16.639129	0.000528	5.282282	0.894843	0.000053
 984	9.7808e+01	9.7757	16.693305	0.000545	5.446074	0.922590	0.000054
 985	9.7908e+01	9.7852	16.747482	0.000545	5.446074	0.922590	0.000054
 986	9.8007e+01	9.7968	16.797177	0.000500	4.995647	0.846285	0.000050
 987	9.8107e+01	9.8047	16.855427	0.000586	5.855553	0.991958	0.000059
 988	9.8207e+01	9.8105	16.910011	0.000549	5.487022	0.929527	0.000055
 989	9.8306e+01	9.8242	16.959300	0.000495	4.954699	0.839349	0.000050
 990	9.8406e+01	9.8376	17.016735	0.000577	5.773657	0.978084	0.000058
 991	9.8505e+01	9.8450	17.070504	0.000541	5.405126	0.915653	0.000054
 992	9.8605e+01	9.8553	17.122644	0.000524	5.241334	0.887906	0.000052
 993	9.8704e+01	9.8640	17.179265	0.000569	5.691761	0.964210	0.000057
 994	9.8803e+01	9.8764	17.237922	0.000590	5.896501	0.998894	0.000059
 995	9.8903e+01	9.8853	17.294950	0.000573	5.732709	0.971147	0.000057
 996	9.9002e+01	9.8945	17.354422	0.000598	5.978397	1.012768	0.000060
 997	9.9102e+01	9.9052	17.410228	0.000561	5.609866	0.950337	0.000056
 998	9.9201e+01	9.9150	17.468071	0.000581	5.814605	0.985021	0.000058
 999	9.9301e+01	9.9249	17.527135	0.000594	5.937449	1.005831	0.000059
1000	9.9400e+01	9.9332	17.579275	0.000524	5.241334	0.887906	0.000052
1001	9.9500e+01	9.9448	17.637525	0.000586	5.855553	0.991958	0.000059
1002	9.9600e+01	9.9531	17.694960	0.000577	5.773657	0.978084	0.000058
1003	9.9699e+01	9.9634	17.754025	0.000594	5.937449	1.005831	0.000059
1004	9.9799e+01	9.9756	17.811868	0.000581	5.814605	0.985021	0.000058
1005	9.9898e+01	9.9856	17.874599	0.000631	6.305980	1.068262	0.000063
1006	9.9998e+01	9.9935	17.937737	0.000635	6.346928	1.075199	0.000063
1007	1.0010e+02	9.9829	17.954845	-0.000172	-1.719813	-0.291344	0.000017
1008	1.0020e+02	9.9731	17.969509	-0.000147	-1.474125	-0.249724	0.000015
1009	1.0030e+02	9.9658	17.984988	-0.000156	-1.556021	-0.263597	0.000016
1010	1.0040e+02	9.9503	17.998838	-0.000139	-1.392229	-0.235850	0.000014
1011	1.0050e+02	9.9439	18.012280	-0.000135	-1.351281	-0.228913	0.000014
1012	1.0059e+02	9.9353	18.026130	-0.000139	-1.392229	-0.235850	0.000014
1013	1.0069e+02	9.9249	18.041202	-0.000152	-1.515073	-0.256660	0.000015
1014	1.0079e+02	9.9142	18.049756	-0.000086	-0.859906	-0.145672	0.000009
1015	1.0089e+02	9.9049	18.058717	-0.000090	-0.900854	-0.152609	0.000009
1016	1.0099e+02	9.8956	18.070530	-0.000119	-1.187490	-0.201166	0.000012
1017	1.0109e+02	9.8842	18.079899	-0.000094	-0.941802	-0.159546	0.000009
1018	1.0119e+02	9.8743	18.089268	-0.000094	-0.941802	-0.159546	0.000009
1019	1.0129e+02	9.8623	18.098230	-0.000090	-0.900854	-0.152609	0.000009
1020	1.0139e+02	9.8527	18.109635	-0.000115	-1.146542	-0.194229	0.000011
1021	1.0149e+02	9.8452	18.117375	-0.000078	-0.778011	-0.131799	0.000008
1022	1.0159e+02	9.8341	18.125929	-0.000086	-0.859906	-0.145672	0.000009
1023	1.0169e+02	9.8248	18.130410	-0.000045	-0.450427	-0.076304	0.000005
1024	1.0179e+02	9.8118	18.140593	-0.000102	-1.023698	-0.173419	0.000010
1025	1.0189e+02	9.8067	18.149555	-0.000090	-0.900854	-0.152609	0.000009
1026	1.0199e+02	9.7949	18.158109	-0.000086	-0.859906	-0.145672	0.000009
1027	1.0209e+02	9.7855	18.164219	-0.000061	-0.614219	-0.104051	0.000006
1028	1.0219e+02	9.7756	18.166663	-0.000025	-0.245688	-0.041621	0.000002
1029	1.0229e+02	9.7648	18.176439	-0.000098	-0.982750	-0.166482	0.000010
1030	1.0239e+02	9.7565	18.179698	-0.000033	-0.327583	-0.055494	0.000003
1031	1.0248e+02	9.7439	18.180920	-0.000012	-0.122844	-0.020810	0.000001
1032	1.0258e+02	9.7363	18.180513	0.000004	0.040948	0.006937	-0.000000
1033	1.0268e+02	9.7241	18.184994	-0.000045	-0.450427	-0.076304	0.000005
1034	1.0278e+02	9.7168	18.190696	-0.000057	-0.573271	-0.097115	0.000006
1035	1.0288e+02	9.7048	18.187438	0.000033	0.327583	0.055494	-0.000003
1036	1.0298e+02	9.6979	18.188252	-0.000008	-0.081896	-0.013874	0.000001
1037	1.0308e+02	9.6875	18.193140	-0.000049	-0.491375	-0.083241	0.000005
1038	1.0318e+02	9.6753	18.197214	-0.000041	-0.409479	-0.069368	0.000004
1039	1.0328e+02	9.6643	18.195584	0.000016	0.163792	0.027747	-0.000002
1040	1.0338e+02	9.6582	18.196399	-0.000008	-0.081896	-0.013874	0.000001
1041	1.0348e+02	9.6460	18.199658	-0.000033	-0.327583	-0.055494	0.000003
1042	1.0358e+02	9.6350	18.198843	0.000008	0.081896	0.013874	-0.000001
1043	1.0368e+02	9.6262	18.197214	0.000016	0.163792	0.027747	-0.000002
1044	1.0378e+02	9.6185	18.198436	-0.000012	-0.122844	-0.020810	0.000001
1045	1.0388e+02	9.6046	18.195992	0.000025	0.245688	0.041621	-0.000002
1046	1.0398e+02	9.5956	18.194362	0.000016	0.163792	0.027747	-0.000002
1047	1.0408e+02	9.5854	18.187845	0.000066	0.655167	0.110988	-0.000007
1048	1.0418e+02	9.5771	18.184179	0.000037	0.368531	0.062431	-0.000004
1049	1.0428e+02	9.5660	18.181735	0.000025	0.245688	0.041621	-0.000002
1050	1.0438e+02	9.5547	18.182957	-0.000012	-0.122844	-0.020810	0.000001
1051	1.0447e+02	9.5511	18.177254	0.000057	0.573271	0.097115	-0.000006
1052	1.0457e+02	9.5361	18.174810	0.000025	0.245688	0.041621	-0.000002
1053	1.0467e+02	9.5256	18.173995	0.000008	0.081896	0.013874	-0.000001
1054	1.0477e+02	9.5178	18.168292	0.000057	0.573271	0.097115	-0.000006
1055	1.0487e+02	9.5070	18.165441	0.000029	0.286635	0.048557	-0.000003
1056	1.0497e+02	9.4957	18.160146	0.000053	0.532323	0.090178	-0.000005
1057	1.0507e+02	9.4891	18.154443	0.000057	0.573271	0.097115	-0.000006
1058	1.0517e+02	9.4760	18.149962	0.000045	0.450427	0.076304	-0.000005
1059	1.0527e+02	9.4664	18.148333	0.000016	0.163792	0.027747	-0.000002
1060	1.0537e+02	9.4586	18.142630	0.000057	0.573271	0.097115	-0.000006
1061	1.0547e+02	9.4467	18.140186	0.000025	0.245688	0.041621	-0.000002
1062	1.0557e+02	9.4385	18.132854	0.000074	0.737063	0.124862	-0.000007
1063	1.0567e+02	9.4297	18.127558	0.000053	0.532323	0.090178	-0.000005
1064	1.0577e+02	9.4167	18.123892	0.000037	0.368531	0.062431	-0.000004
1065	1.0587e+02	9.4095	18.116967	0.000070	0.696115	0.117925	-0.000007
1066	1.0597e+02	9.3980	18.112079	0.000049	0.491375	0.083241	-0.000005
1067	1.0607e+02	9.3874	18.106784	0.000053	0.532323	0.090178	-0.000005
1068	1.0617e+02	9.3790	18.101081	0.000057	0.573271	0.097115	-0.000006
1069	1.0627e+02	9.3669	18.090490	0.000106	1.064646	0.180356	-0.000011
1070	1.0637e+02	9.3573	18.087231	0.000033	0.327583	0.055494	-0.000003
1071	1.0647e+02	9.3475	18.082343	0.000049	0.491375	0.083241	-0.000005
1072	1.0656e+02	9.3378	18.073789	0.000086	0.859906	0.145672	-0.000009
1073	1.0666e+02	9.3268	18.066050	0.000078	0.778011	0.131799	-0.000008
1074	1.0676e+02	9.3166	18.059939	0.000061	0.614219	0.104051	-0.000006
1075	1.0686e+02	9.3079	18.050163	0.000098	0.982750	0.166482	-0.000010
1076	1.0696e+02	9.2981	18.040794	0.000094	0.941802	0.159546	-0.000009
1077	1.0706e+02	9.2884	18.033869	0.000070	0.696115	0.117925	-0.000007
1078	1.0716e+02	9.2792	18.022871	0.000111	1.105594	0.187293	-0.000011
1079	1.0726e+02	9.2663	18.014317	0.000086	0.859906	0.145672	-0.000009
1080	1.0736e+02	9.2578	18.004133	0.000102	1.023698	0.173419	-0.000010
1081	1.0746e+02	9.2464	17.991913	0.000123	1.228438	0.208103	-0.000012
1082	1.0756e+02	9.2407	17.981322	0.000106	1.064646	0.180356	-0.000011
1083	1.0766e+02	9.2269	17.971139	0.000102	1.023698	0.173419	-0.000010
1084	1.0776e+02	9.2168	17.963807	0.000074	0.737063	0.124862	-0.000007
1085	1.0786e+02	9.2081	17.951179	0.000127	1.269386	0.215040	-0.000013
1086	1.0796e+02	9.1968	17.943439	0.000078	0.778011	0.131799	-0.000008
1087	1.0806e+02	9.1883	17.929997	0.000135	1.351281	0.228913	-0.000014
1088	1.0816e+02	9.1773	17.917369	0.000127	1.269386	0.215040	-0.000013
1089	1.0826e+02	9.1663	17.910852	0.000066	0.655167	0.110988	-0.000007
1090	1.0836e+02	9.1577	17.899039	0.000119	1.187490	0.201166	-0.000012
1091	1.0845e+02	9.1507	17.888855	0.000102	1.023698	0.173419	-0.000010
1092	1.0855e+02	9.1376	17.876635	0.000123	1.228438	0.208103	-0.000012
1093	1.0865e+02	9.1274	17.866859	0.000098	0.982750	0.166482	-0.000010
1094	1.0875e+02	9.1183	17.852602	0.000143	1.433177	0.242787	-0.000014
1095	1.0885e+02	9.1097	17.840789	0.000119	1.187490	0.201166	-0.000012
1096	1.0895e+02	9.0991	17.828976	0.000119	1.187490	0.201166	-0.000012
1097	1.0905e+02	9.0918	17.816756	0.000123	1.228438	0.208103	-0.000012
1098	1.0915e+02	9.0807	17.800055	0.000168	1.678865	0.284407	-0.000017
1099	1.0925e+02	9.0686	17.787835	0.000123	1.228438	0.208103	-0.000012
1100	1.0935e+02	9.0576	17.781317	0.000066	0.655167	0.110988	-0.000007
1101	1.0945e+02	9.0491	17.767060	0.000143	1.433177	0.242787	-0.000014
1102	1.0955e+02	9.0394	17.756062	0.000111	1.105594	0.187293	-0.000011
1103	1.0965e+02	9.0283	17.740990	0.000152	1.515073	0.256660	-0.000015
1104	1.0975e+02	9.0210	17.727955	0.000131	1.310334	0.221977	-0.000013
1105	1.0985e+02	9.0093	17.718179	0.000098	0.982750	0.166482	-0.000010
1106	1.0995e+02	8.9976	17.703515	0.000147	1.474125	0.249724	-0.000015
1107	1.1005e+02	8.9899	17.690072	0.000135	1.351281	0.228913	-0.000014
1108	1.1015e+02	8.9777	17.673779	0.000164	1.637917	0.277471	-0.000016
1109	1.1025e+02	8.9700	17.659114	0.000147	1.474125	0.249724	-0.000015
1110	1.1035e+02	8.9602	17.644043	0.000152	1.515073	0.256660	-0.000015
1111	1.1044e+02	8.9478	17.629378	0.000147	1.474125	0.249724	-0.000015
1112	1.1054e+02	8.9394	17.613899	0.000156	1.556021	0.263597	-0.000016
1113	1.1064e+02	8.9309	17.598420	0.000156	1.556021	0.263597	-0.000016
1114	1.1074e+02	8.9202	17.582941	0.000156	1.556021	0.263597	-0.000016
1115	1.1084e+02	8.9103	17.573980	0.000090	0.900854	0.152609	-0.000009
1116	1.1094e+02	8.9001	17.556871	0.000172	1.719813	0.291344	-0.000017
1117	1.1104e+02	8.8916	17.543836	0.000131	1.310334	0.221977	-0.000013
1118	1.1114e+02	8.8801	17.527135	0.000168	1.678865	0.284407	-0.000017
1119	1.1124e+02	8.8712	17.513693	0.000135	1.351281	0.228913	-0.000014
1120	1.1134e+02	8.8587	17.495363	0.000184	1.842657	0.312154	-0.000018
1121	1.1144e+02	8.8526	17.479069	0.000164	1.637917	0.277471	-0.000016
1122	1.1154e+02	8.8389	17.463183	0.000160	1.596969	0.270534	-0.000016
1123	1.1164e+02	8.8320	17.447704	0.000156	1.556021	0.263597	-0.000016
1124	1.1174e+02	8.8208	17.431817	0.000160	1.596969	0.270534	-0.000016
1125	1.1184e+02	8.8091	17.418782	0.000131	1.310334	0.221977	-0.000013
1126	1.1194e+02	8.8000	17.402488	0.000164	1.637917	0.277471	-0.000016
1127	1.1204e+02	8.7906	17.390268	0.000123	1.228438	0.208103	-0.000012
1128	1.1214e+02	8.7820	17.367864	0.000225	2.252136	0.381522	-0.000023
1129	1.1224e+02	8.7701	17.354422	0.000135	1.351281	0.228913	-0.000014
1130	1.1234e+02	8.7625	17.338128	0.000164	1.637917	0.277471	-0.000016
1131	1.1244e+02	8.7524	17.326315	0.000119	1.187490	0.201166	-0.000012
1132	1.1253e+02	8.7386	17.310429	0.000160	1.596969	0.270534	-0.000016
1133	1.1263e+02	8.7301	17.294135	0.000164	1.637917	0.277471	-0.000016
1134	1.1273e+02	8.7220	17.279064	0.000152	1.515073	0.256660	-0.000015
1135	1.1283e+02	8.7099	17.259511	0.000197	1.965500	0.332965	-0.000020
1136	1.1293e+02	8.7006	17.242810	0.000168	1.678865	0.284407	-0.000017
1137	1.1303e+02	8.6922	17.224887	0.000180	1.801709	0.305218	-0.000018
1138	1.1313e+02	8.6820	17.212667	0.000123	1.228438	0.208103	-0.000012
1139	1.1323e+02	8.6729	17.191485	0.000213	2.129292	0.360712	-0.000021
1140	1.1333e+02	8.6623	17.173969	0.000176	1.760761	0.298281	-0.000018
1141	1.1343e+02	8.6536	17.158083	0.000160	1.596969	0.270534	-0.000016
1142	1.1353e+02	8.6404	17.142604	0.000156	1.556021	0.263597	-0.000016
1143	1.1363e+02	8.6313	17.122644	0.000201	2.006448	0.339902	-0.000020
1144	1.1373e+02	8.6195	17.106350	0.000164	1.637917	0.277471	-0.000016
1145	1.1383e+02	8.6133	17.088427	0.000180	1.801709	0.305218	-0.000018
1146	1.1393e+02	8.6008	17.070504	0.000180	1.801709	0.305218	-0.000018
1147	1.1403e+02	8.5914	17.050545	0.000201	2.006448	0.339902	-0.000020
1148	1.1413e+02	8.5826	17.036695	0.000139	1.392229	0.235850	-0.000014
1149	1.1423e+02	8.5708	17.012254	0.000246	2.456875	0.416206	-0.000025
1150	1.1433e+02	8.5616	16.993924	0.000184	1.842657	0.312154	-0.000018
1151	1.1442e+02	8.5541	16.980074	0.000139	1.392229	0.235850	-0.000014
1152	1.1452e+02	8.5407	16.957670	0.000225	2.252136	0.381522	-0.000023
1153	1.1462e+02	8.5320	16.943413	0.000143	1.433177	0.242787	-0.000014
1154	1.1472e+02	8.5224	16.925083	0.000184	1.842657	0.312154	-0.000018
1155	1.1482e+02	8.5125	16.906345	0.000188	1.883604	0.319091	-0.000019
1156	1.1492e+02	8.5016	16.888015	0.000184	1.842657	0.312154	-0.000018
1157	1.1502e+02	8.4924	16.870092	0.000180	1.801709	0.305218	-0.000018
1158	1.1512e+02	8.4814	16.852169	0.000180	1.801709	0.305218	-0.000018
1159	1.1522e+02	8.4742	16.830172	0.000221	2.211188	0.374585	-0.000022
1160	1.1532e+02	8.4624	16.808583	0.000217	2.170240	0.367649	-0.000022
1161	1.1542e+02	8.4516	16.789845	0.000188	1.883604	0.319091	-0.000019
1162	1.1552e+02	8.4424	16.773144	0.000168	1.678865	0.284407	-0.000017
1163	1.1562e+02	8.4320	16.753999	0.000192	1.924552	0.326028	-0.000019
1164	1.1572e+02	8.4229	16.734447	0.000197	1.965500	0.332965	-0.000020
1165	1.1582e+02	8.4093	16.714080	0.000205	2.047396	0.346838	-0.000020
1166	1.1592e+02	8.4046	16.695749	0.000184	1.842657	0.312154	-0.000018
1167	1.1602e+02	8.3938	16.677011	0.000188	1.883604	0.319091	-0.000019
1168	1.1612e+02	8.3808	16.655830	0.000213	2.129292	0.360712	-0.000021
1169	1.1622e+02	8.3728	16.636684	0.000192	1.924552	0.326028	-0.000019
1170	1.1632e+02	8.3643	16.614281	0.000225	2.252136	0.381522	-0.000023
1171	1.1642e+02	8.3532	16.597172	0.000172	1.719813	0.291344	-0.000017
1172	1.1651e+02	8.3438	16.578027	0.000192	1.924552	0.326028	-0.000019
1173	1.1661e+02	8.3350	16.556845	0.000213	2.129292	0.360712	-0.000021
1174	1.1671e+02	8.3234	16.535256	0.000217	2.170240	0.367649	-0.000022
1175	1.1681e+02	8.3169	16.512038	0.000233	2.334032	0.395396	-0.000023
1176	1.1691e+02	8.3038	16.497373	0.000147	1.474125	0.249724	-0.000015
1177	1.1701e+02	8.2938	16.477006	0.000205	2.047396	0.346838	-0.000020
1178	1.1711e+02	8.2829	16.456639	0.000205	2.047396	0.346838	-0.000020
1179	1.1721e+02	8.2747	16.435457	0.000213	2.129292	0.360712	-0.000021
1180	1.1731e+02	8.2662	16.418349	0.000172	1.719813	0.291344	-0.000017
1181	1.1741e+02	8.2544	16.393094	0.000254	2.538771	0.430079	-0.000025
1182	1.1751e+02	8.2453	16.375578	0.000176	1.760761	0.298281	-0.000018
1183	1.1761e+02	8.2327	16.354803	0.000209	2.088344	0.353775	-0.000021
1184	1.1771e+02	8.2236	16.335658	0.000192	1.924552	0.326028	-0.000019
1185	1.1781e+02	8.2156	16.311625	0.000242	2.415927	0.409269	-0.000024
1186	1.1791e+02	8.2041	16.290036	0.000217	2.170240	0.367649	-0.000022
1187	1.1801e+02	8.1925	16.267632	0.000225	2.252136	0.381522	-0.000023
1188	1.1811e+02	8.1840	16.246858	0.000209	2.088344	0.353775	-0.000021
1189	1.1821e+02	8.1760	16.227305	0.000197	1.965500	0.332965	-0.000020
1190	1.1831e+02	8.1662	16.207345	0.000201	2.006448	0.339902	-0.000020
1191	1.1841e+02	8.1557	16.186164	0.000213	2.129292	0.360712	-0.000021
1192	1.1850e+02	8.1451	16.167833	0.000184	1.842657	0.312154	-0.000018
1193	1.1860e+02	8.1362	16.146244	0.000217	2.170240	0.367649	-0.000022
1194	1.1870e+02	8.1242	16.126284	0.000201	2.006448	0.339902	-0.000020
1195	1.1880e+02	8.1152	16.105917	0.000205	2.047396	0.346838	-0.000020
1196	1.1890e+02	8.1056	16.083513	0.000225	2.252136	0.381522	-0.000023
1197	1.1900e+02	8.0929	16.065183	0.000184	1.842657	0.312154	-0.000018
1198	1.1910e+02	8.0839	16.044001	0.000213	2.129292	0.360712	-0.000021
1199	1.1920e+02	8.0753	16.022005	0.000221	2.211188	0.374585	-0.000022
1200	1.1930e+02	8.0647	16.000008	0.000221	2.211188	0.374585	-0.000022
1201	1.1940e+02	8.0557	15.979234	0.000209	2.088344	0.353775	-0.000021
1202	1.1950e+02	8.0453	15.955608	0.000237	2.374980	0.402332	-0.000024
1203	1.1960e+02	8.0355	15.934833	0.000209	2.088344	0.353775	-0.000021
1204	1.1970e+02	8.0225	15.912022	0.000229	2.293084	0.388459	-0.000023
1205	1.1980e+02	8.0155	15.888396	0.000237	2.374980	0.402332	-0.000024
1206	1.1990e+02	8.0041	15.868436	0.000201	2.006448	0.339902	-0.000020
1207	1.2000e+02	7.9932	15.848477	0.000201	2.006448	0.339902	-0.000020
1208	1.2010e+02	7.9850	15.828517	0.000201	2.006448	0.339902	-0.000020
1209	1.2020e+02	7.9762	15.806520	0.000221	2.211188	0.374585	-0.000022
1210	1.2030e+02	7.9655	15.784524	0.000221	2.211188	0.374585	-0.000022
1211	1.2039e+02	7.9534	15.762120	0.000225	2.252136	0.381522	-0.000023
1212	1.2049e+02	7.9449	15.737679	0.000246	2.456875	0.416206	-0.000025
1213	1.2059e+02	7.9367	15.714868	0.000229	2.293084	0.388459	-0.000023
1214	1.2069e+02	7.9239	15.687984	0.000270	2.702563	0.457827	-0.000027
1215	1.2079e+02	7.9156	15.664358	0.000237	2.374980	0.402332	-0.000024
1216	1.2089e+02	7.9055	15.646435	0.000180	1.801709	0.305218	-0.000018
1217	1.2099e+02	7.8940	15.621994	0.000246	2.456875	0.416206	-0.000025
1218	1.2109e+02	7.8829	15.597146	0.000250	2.497823	0.423143	-0.000025
1219	1.2119e+02	7.8779	15.578001	0.000192	1.924552	0.326028	-0.000019
1220	1.2129e+02	7.8665	15.553968	0.000242	2.415927	0.409269	-0.000024
1221	1.2139e+02	7.8558	15.531564	0.000225	2.252136	0.381522	-0.000023
1222	1.2149e+02	7.8468	15.505902	0.000258	2.579719	0.437016	-0.000026
1223	1.2159e+02	7.8343	15.487978	0.000180	1.801709	0.305218	-0.000018
1224	1.2169e+02	7.8278	15.462316	0.000258	2.579719	0.437016	-0.000026
1225	1.2179e+02	7.8148	15.441134	0.000213	2.129292	0.360712	-0.000021
1226	1.2189e+02	7.8043	15.420767	0.000205	2.047396	0.346838	-0.000020
1227	1.2199e+02	7.7957	15.394697	0.000262	2.620667	0.443953	-0.000026
1228	1.2209e+02	7.7876	15.372293	0.000225	2.252136	0.381522	-0.000023
1229	1.2219e+02	7.7753	15.352333	0.000201	2.006448	0.339902	-0.000020
1230	1.2229e+02	7.7674	15.329930	0.000225	2.252136	0.381522	-0.000023
1231	1.2239e+02	7.7560	15.305489	0.000246	2.456875	0.416206	-0.000025
1232	1.2248e+02	7.7441	15.282678	0.000229	2.293084	0.388459	-0.000023
1233	1.2258e+02	7.7378	15.261089	0.000217	2.170240	0.367649	-0.000022
1234	1.2268e+02	7.7249	15.237463	0.000237	2.374980	0.402332	-0.000024
1235	1.2278e+02	7.7174	15.213837	0.000237	2.374980	0.402332	-0.000024
1236	1.2288e+02	7.7041	15.192248	0.000217	2.170240	0.367649	-0.000022
1237	1.2298e+02	7.6945	15.167807	0.000246	2.456875	0.416206	-0.000025
1238	1.2308e+02	7.6855	15.148662	0.000192	1.924552	0.326028	-0.000019
1239	1.2318e+02	7.6758	15.121370	0.000274	2.743511	0.464763	-0.000027
1240	1.2328e+02	7.6688	15.098966	0.000225	2.252136	0.381522	-0.000023
1241	1.2338e+02	7.6589	15.076563	0.000225	2.252136	0.381522	-0.000023
1242	1.2348e+02	7.6476	15.053751	0.000229	2.293084	0.388459	-0.000023
1243	1.2358e+02	7.6357	15.029718	0.000242	2.415927	0.409269	-0.000024
1244	1.2368e+02	7.6272	15.008129	0.000217	2.170240	0.367649	-0.000022
1245	1.2378e+02	7.6177	14.984503	0.000237	2.374980	0.402332	-0.000024
1246	1.2388e+02	7.6081	14.960063	0.000246	2.456875	0.416206	-0.000025
1247	1.2398e+02	7.5977	14.939695	0.000205	2.047396	0.346838	-0.000020
1248	1.2408e+02	7.5864	14.916884	0.000229	2.293084	0.388459	-0.000023
1249	1.2418e+02	7.5772	14.890814	0.000262	2.620667	0.443953	-0.000026
1250	1.2428e+02	7.5690	14.867188	0.000237	2.374980	0.402332	-0.000024
1251	1.2438e+02	7.5566	14.843155	0.000242	2.415927	0.409269	-0.000024
1252	1.2447e+02	7.5482	14.820344	0.000229	2.293084	0.388459	-0.000023
1253	1.2457e+02	7.5383	14.795903	0.000246	2.456875	0.416206	-0.000025
1254	1.2467e+02	7.5275	14.774722	0.000213	2.129292	0.360712	-0.000021
1255	1.2477e+02	7.5175	14.753947	0.000209	2.088344	0.353775	-0.000021
1256	1.2487e+02	7.5068	14.727063	0.000270	2.702563	0.457827	-0.000027
1257	1.2497e+02	7.4981	14.707103	0.000201	2.006448	0.339902	-0.000020
1258	1.2507e+02	7.4871	14.684292	0.000229	2.293084	0.388459	-0.000023
1259	1.2517e+02	7.4763	14.658629	0.000258	2.579719	0.437016	-0.000026
1260	1.2527e+02	7.4686	14.632966	0.000258	2.579719	0.437016	-0.000026
1261	1.2537e+02	7.4583	14.608933	0.000242	2.415927	0.409269	-0.000024
1262	1.2547e+02	7.4473	14.585307	0.000237	2.374980	0.402332	-0.000024
1263	1.2557e+02	7.4383	14.559237	0.000262	2.620667	0.443953	-0.000026
1264	1.2567e+02	7.4262	14.536834	0.000225	2.252136	0.381522	-0.000023
1265	1.2577e+02	7.4220	14.515244	0.000217	2.170240	0.367649	-0.000022
1266	1.2587e+02	7.4065	14.490397	0.000250	2.497823	0.423143	-0.000025
1267	1.2597e+02	7.3965	14.464327	0.000262	2.620667	0.443953	-0.000026
1268	1.2607e+02	7.3891	14.439479	0.000250	2.497823	0.423143	-0.000025
1269	1.2617e+02	7.3764	14.418297	0.000213	2.129292	0.360712	-0.000021
1270	1.2627e+02	7.3689	14.395078	0.000233	2.334032	0.395396	-0.000023
1271	1.2636e+02	7.3560	14.369823	0.000254	2.538771	0.430079	-0.000025
1272	1.2646e+02	7.3494	14.348641	0.000213	2.129292	0.360712	-0.000021
1273	1.2656e+02	7.3354	14.327052	0.000217	2.170240	0.367649	-0.000022
1274	1.2666e+02	7.3274	14.301390	0.000258	2.579719	0.437016	-0.000026
1275	1.2676e+02	7.3186	14.276542	0.000250	2.497823	0.423143	-0.000025
1276	1.2686e+02	7.3087	14.249657	0.000270	2.702563	0.457827	-0.000027
1277	1.2696e+02	7.2987	14.222773	0.000270	2.702563	0.457827	-0.000027
1278	1.2706e+02	7.2872	14.196295	0.000266	2.661615	0.450890	-0.000027
1279	1.2716e+02	7.2797	14.173484	0.000229	2.293084	0.388459	-0.000023
1280	1.2726e+02	7.2681	14.145377	0.000283	2.825407	0.478637	-0.000028
1281	1.2736e+02	7.2575	14.121752	0.000237	2.374980	0.402332	-0.000024
1282	1.2746e+02	7.2487	14.096089	0.000258	2.579719	0.437016	-0.000026
1283	1.2756e+02	7.2390	14.075722	0.000205	2.047396	0.346838	-0.000020
1284	1.2766e+02	7.2268	14.045171	0.000307	3.071094	0.520257	-0.000031
1285	1.2776e+02	7.2182	14.023175	0.000221	2.211188	0.374585	-0.000022
1286	1.2786e+02	7.2092	13.997919	0.000254	2.538771	0.430079	-0.000025
1287	1.2796e+02	7.1983	13.977960	0.000201	2.006448	0.339902	-0.000020
1288	1.2806e+02	7.1896	13.954334	0.000237	2.374980	0.402332	-0.000024
1289	1.2816e+02	7.1768	13.927449	0.000270	2.702563	0.457827	-0.000027
1290	1.2826e+02	7.1684	13.904231	0.000233	2.334032	0.395396	-0.000023
1291	1.2835e+02	7.1605	13.876124	0.000283	2.825407	0.478637	-0.000028
1292	1.2845e+02	7.1474	13.850869	0.000254	2.538771	0.430079	-0.000025
1293	1.2855e+02	7.1421	13.826836	0.000242	2.415927	0.409269	-0.000024
1294	1.2865e+02	7.1322	13.801173	0.000258	2.579719	0.437016	-0.000026
1295	1.2875e+02	7.1177	13.776732	0.000246	2.456875	0.416206	-0.000025
1296	1.2885e+02	7.1113	13.753514	0.000233	2.334032	0.395396	-0.000023
1297	1.2895e+02	7.1009	13.729888	0.000237	2.374980	0.402332	-0.000024
1298	1.2905e+02	7.0898	13.705040	0.000250	2.497823	0.423143	-0.000025
1299	1.2915e+02	7.0779	13.687117	0.000180	1.801709	0.305218	-0.000018
1300	1.2925e+02	7.0704	13.660640	0.000266	2.661615	0.450890	-0.000027
1301	1.2935e+02	7.0589	13.634977	0.000258	2.579719	0.437016	-0.000026
1302	1.2945e+02	7.0495	13.609722	0.000254	2.538771	0.430079	-0.000025
1303	1.2955e+02	7.0396	13.585281	0.000246	2.456875	0.416206	-0.000025
1304	1.2965e+02	7.0290	13.559212	0.000262	2.620667	0.443953	-0.000026
1305	1.2975e+02	7.0177	13.533956	0.000254	2.538771	0.430079	-0.000025
1306	1.2985e+02	7.0062	13.507072	0.000270	2.702563	0.457827	-0.000027
1307	1.2995e+02	6.9985	13.483038	0.000242	2.415927	0.409269	-0.000024
1308	1.3005e+02	6.9912	13.457783	0.000254	2.538771	0.430079	-0.000025
1309	1.3015e+02	6.9787	13.434565	0.000233	2.334032	0.395396	-0.000023
1310	1.3025e+02	6.9717	13.410124	0.000246	2.456875	0.416206	-0.000025
1311	1.3034e+02	6.9607	13.384054	0.000262	2.620667	0.443953	-0.000026
1312	1.3044e+02	6.9488	13.356762	0.000274	2.743511	0.464763	-0.000027
1313	1.3054e+02	6.9380	13.331914	0.000250	2.497823	0.423143	-0.000025
1314	1.3064e+02	6.9296	13.306252	0.000258	2.579719	0.437016	-0.000026
1315	1.3074e+02	6.9219	13.283441	0.000229	2.293084	0.388459	-0.000023
1316	1.3084e+02	6.9129	13.254112	0.000295	2.948250	0.499447	-0.000029
1317	1.3094e+02	6.9003	13.230893	0.000233	2.334032	0.395396	-0.000023
1318	1.3104e+02	6.8922	13.206046	0.000250	2.497823	0.423143	-0.000025
1319	1.3114e+02	6.8801	13.180383	0.000258	2.579719	0.437016	-0.000026
1320	1.3124e+02	6.8718	13.157979	0.000225	2.252136	0.381522	-0.000023
1321	1.3134e+02	6.8639	13.133539	0.000246	2.456875	0.416206	-0.000025
1322	1.3144e+02	6.8497	13.106247	0.000274	2.743511	0.464763	-0.000027
1323	1.3154e+02	6.8420	13.079769	0.000266	2.661615	0.450890	-0.000027
1324	1.3164e+02	6.8322	13.054514	0.000254	2.538771	0.430079	-0.000025
1325	1.3174e+02	6.8225	13.025185	0.000295	2.948250	0.499447	-0.000029
1326	1.3184e+02	6.8125	13.003596	0.000217	2.170240	0.367649	-0.000022
1327	1.3194e+02	6.8014	12.975897	0.000278	2.784459	0.471700	-0.000028
1328	1.3204e+02	6.7921	12.949420	0.000266	2.661615	0.450890	-0.000027
1329	1.3214e+02	6.7825	12.922535	0.000270	2.702563	0.457827	-0.000027
1330	1.3224e+02	6.7712	12.901353	0.000213	2.129292	0.360712	-0.000021
1331	1.3234e+02	6.7601	12.873247	0.000283	2.825407	0.478637	-0.000028
1332	1.3243e+02	6.7506	12.847584	0.000258	2.579719	0.437016	-0.000026
1333	1.3253e+02	6.7432	12.824366	0.000233	2.334032	0.395396	-0.000023
1334	1.3263e+02	6.7303	12.800332	0.000242	2.415927	0.409269	-0.000024
1335	1.3273e+02	6.7232	12.776706	0.000237	2.374980	0.402332	-0.000024
1336	1.3283e+02	6.7120	12.746970	0.000299	2.989198	0.506384	-0.000030
1337	1.3293e+02	6.7014	12.721308	0.000258	2.579719	0.437016	-0.000026
1338	1.3303e+02	6.6908	12.695645	0.000258	2.579719	0.437016	-0.000026
1339	1.3313e+02	6.6825	12.663465	0.000323	3.234886	0.548005	-0.000032
1340	1.3323e+02	6.6723	12.642283	0.000213	2.129292	0.360712	-0.000021
1341	1.3333e+02	6.6631	12.615399	0.000270	2.702563	0.457827	-0.000027
1342	1.3343e+02	6.6494	12.588514	0.000270	2.702563	0.457827	-0.000027
1343	1.3353e+02	6.6425	12.562444	0.000262	2.620667	0.443953	-0.000026
1344	1.3363e+02	6.6315	12.536374	0.000262	2.620667	0.443953	-0.000026
1345	1.3373e+02	6.6232	12.512748	0.000237	2.374980	0.402332	-0.000024
1346	1.3383e+02	6.6114	12.485457	0.000274	2.743511	0.464763	-0.000027
1347	1.3393e+02	6.6050	12.460609	0.000250	2.497823	0.423143	-0.000025
1348	1.3403e+02	6.5932	12.437797	0.000229	2.293084	0.388459	-0.000023
1349	1.3413e+02	6.5797	12.410098	0.000278	2.784459	0.471700	-0.000028
1350	1.3423e+02	6.5742	12.382806	0.000274	2.743511	0.464763	-0.000027
1351	1.3432e+02	6.5594	12.357958	0.000250	2.497823	0.423143	-0.000025
1352	1.3442e+02	6.5496	12.329852	0.000283	2.825407	0.478637	-0.000028
1353	1.3452e+02	6.5417	12.302967	0.000270	2.702563	0.457827	-0.000027
1354	1.3462e+02	6.5321	12.277305	0.000258	2.579719	0.437016	-0.000026
1355	1.3472e+02	6.5215	12.246346	0.000311	3.112042	0.527194	-0.000031
1356	1.3482e+02	6.5111	12.223943	0.000225	2.252136	0.381522	-0.000023
1357	1.3492e+02	6.5008	12.199502	0.000246	2.456875	0.416206	-0.000025
1358	1.3502e+02	6.4924	12.168544	0.000311	3.112042	0.527194	-0.000031
1359	1.3512e+02	6.4840	12.144103	0.000246	2.456875	0.416206	-0.000025
1360	1.3522e+02	6.4747	12.118441	0.000258	2.579719	0.437016	-0.000026
1361	1.3532e+02	6.4652	12.096037	0.000225	2.252136	0.381522	-0.000023
1362	1.3542e+02	6.4525	12.068338	0.000278	2.784459	0.471700	-0.000028
1363	1.3552e+02	6.4407	12.041046	0.000274	2.743511	0.464763	-0.000027
1364	1.3562e+02	6.4306	12.021086	0.000201	2.006448	0.339902	-0.000020
1365	1.3572e+02	6.4211	11.989313	0.000319	3.193938	0.541068	-0.000032
1366	1.3582e+02	6.4111	11.962429	0.000270	2.702563	0.457827	-0.000027
1367	1.3592e+02	6.4008	11.933507	0.000291	2.907303	0.492510	-0.000029
1368	1.3602e+02	6.3911	11.909474	0.000242	2.415927	0.409269	-0.000024
1369	1.3612e+02	6.3828	11.883812	0.000258	2.579719	0.437016	-0.000026
1370	1.3622e+02	6.3732	11.858149	0.000258	2.579719	0.437016	-0.000026
1371	1.3631e+02	6.3674	11.829228	0.000291	2.907303	0.492510	-0.000029
1372	1.3641e+02	6.3545	11.799899	0.000295	2.948250	0.499447	-0.000029
1373	1.3651e+02	6.3424	11.777088	0.000229	2.293084	0.388459	-0.000023
1374	1.3661e+02	6.3340	11.751833	0.000254	2.538771	0.430079	-0.000025
1375	1.3671e+02	6.3241	11.724133	0.000278	2.784459	0.471700	-0.000028
1376	1.3681e+02	6.3131	11.698878	0.000254	2.538771	0.430079	-0.000025
1377	1.3691e+02	6.3039	11.669142	0.000299	2.989198	0.506384	-0.000030
1378	1.3701e+02	6.2957	11.649997	0.000192	1.924552	0.326028	-0.000019
1379	1.3711e+02	6.2850	11.618632	0.000315	3.152990	0.534131	-0.000032
1380	1.3721e+02	6.2737	11.592154	0.000266	2.661615	0.450890	-0.000027
1381	1.3731e+02	6.2644	11.563640	0.000287	2.866355	0.485574	-0.000029
1382	1.3741e+02	6.2548	11.537163	0.000266	2.661615	0.450890	-0.000027
1383	1.3751e+02	6.2434	11.502946	0.000344	3.439626	0.582688	-0.000034
1384	1.3761e+02	6.2347	11.477691	0.000254	2.538771	0.430079	-0.000025
1385	1.3771e+02	6.2234	11.451621	0.000262	2.620667	0.443953	-0.000026
1386	1.3781e+02	6.2189	11.428403	0.000233	2.334032	0.395396	-0.000023
1387	1.3791e+02	6.2048	11.397445	0.000311	3.112042	0.527194	-0.000031
1388	1.3801e+02	6.1942	11.374226	0.000233	2.334032	0.395396	-0.000023
1389	1.3811e+02	6.1826	11.343675	0.000307	3.071094	0.520257	-0.000031
1390	1.3821e+02	6.1770	11.318013	0.000258	2.579719	0.437016	-0.000026
1391	1.3831e+02	6.1660	11.288277	0.000299	2.989198	0.506384	-0.000030
1392	1.3840e+02	6.1518	11.262614	0.000258	2.579719	0.437016	-0.000026
1393	1.3850e+02	6.1454	11.238581	0.000242	2.415927	0.409269	-0.000024
1394	1.3860e+02	6.1358	11.208030	0.000307	3.071094	0.520257	-0.000031
1395	1.3870e+02	6.1258	11.182775	0.000254	2.538771	0.430079	-0.000025
1396	1.3880e+02	6.1150	11.155076	0.000278	2.784459	0.471700	-0.000028
1397	1.3890e+02	6.1053	11.124525	0.000307	3.071094	0.520257	-0.000031
1398	1.3900e+02	6.0952	11.100492	0.000242	2.415927	0.409269	-0.000024
1399	1.3910e+02	6.0850	11.073200	0.000274	2.743511	0.464763	-0.000027
1400	1.3920e+02	6.0754	11.046315	0.000270	2.702563	0.457827	-0.000027
1401	1.3930e+02	6.0656	11.019431	0.000270	2.702563	0.457827	-0.000027
1402	1.3940e+02	6.0546	10.988065	0.000315	3.152990	0.534131	-0.000032
1403	1.3950e+02	6.0485	10.965661	0.000225	2.252136	0.381522	-0.000023
1404	1.3960e+02	6.0355	10.933481	0.000323	3.234886	0.548005	-0.000032
1405	1.3970e+02	6.0244	10.907412	0.000262	2.620667	0.443953	-0.000026
1406	1.3980e+02	6.0148	10.879712	0.000278	2.784459	0.471700	-0.000028
1407	1.3990e+02	6.0057	10.852013	0.000278	2.784459	0.471700	-0.000028
1408	1.4000e+02	5.9974	10.824314	0.000278	2.784459	0.471700	-0.000028
1409	1.4010e+02	5.9856	10.799873	0.000246	2.456875	0.416206	-0.000025
1410	1.4020e+02	5.9777	10.770544	0.000295	2.948250	0.499447	-0.000029
1411	1.4029e+02	5.9681	10.744474	0.000262	2.620667	0.443953	-0.000026
1412	1.4039e+02	5.9551	10.714738	0.000299	2.989198	0.506384	-0.000030
1413	1.4049e+02	5.9444	10.687039	0.000278	2.784459	0.471700	-0.000028
1414	1.4059e+02	5.9376	10.657711	0.000295	2.948250	0.499447	-0.000029
1415	1.4069e+02	5.9246	10.633270	0.000246	2.456875	0.416206	-0.000025
1416	1.4079e+02	5.9158	10.606793	0.000266	2.661615	0.450890	-0.000027
1417	1.4089e+02	5.9072	10.576242	0.000307	3.071094	0.520257	-0.000031
1418	1.4099e+02	5.8967	10.546099	0.000303	3.030146	0.513321	-0.000030
1419	1.4109e+02	5.8863	10.517177	0.000291	2.907303	0.492510	-0.000029
1420	1.4119e+02	5.8775	10.493551	0.000237	2.374980	0.402332	-0.000024
1421	1.4129e+02	5.8678	10.462593	0.000311	3.112042	0.527194	-0.000031
1422	1.4139e+02	5.8554	10.436931	0.000258	2.579719	0.437016	-0.000026
1423	1.4149e+02	5.8488	10.416156	0.000209	2.088344	0.353775	-0.000021
1424	1.4159e+02	5.8382	10.383162	0.000332	3.316782	0.561878	-0.000033
1425	1.4169e+02	5.8266	10.355462	0.000278	2.784459	0.471700	-0.000028
1426	1.4179e+02	5.8163	10.328985	0.000266	2.661615	0.450890	-0.000027
1427	1.4189e+02	5.8086	10.304137	0.000250	2.497823	0.423143	-0.000025
1428	1.4199e+02	5.7978	10.273994	0.000303	3.030146	0.513321	-0.000030
1429	1.4209e+02	5.7884	10.243036	0.000311	3.112042	0.527194	-0.000031
1430	1.4219e+02	5.7777	10.218595	0.000246	2.456875	0.416206	-0.000025
1431	1.4228e+02	5.7648	10.188045	0.000307	3.071094	0.520257	-0.000031
1432	1.4238e+02	5.7579	10.158716	0.000295	2.948250	0.499447	-0.000029
1433	1.4248e+02	5.7446	10.129387	0.000295	2.948250	0.499447	-0.000029
1434	1.4258e+02	5.7374	10.099651	0.000299	2.989198	0.506384	-0.000030
1435	1.4268e+02	5.7252	10.075211	0.000246	2.456875	0.416206	-0.000025
1436	1.4278e+02	5.7192	10.049141	0.000262	2.620667	0.443953	-0.000026
1437	1.4288e+02	5.7090	10.022256	0.000270	2.702563	0.457827	-0.000027
1438	1.4298e+02	5.6965	9.997816	0.000246	2.456875	0.416206	-0.000025
1439	1.4308e+02	5.6861	9.966450	0.000315	3.152990	0.534131	-0.000032
1440	1.4318e+02	5.6783	9.939973	0.000266	2.661615	0.450890	-0.000027
1441	1.4328e+02	5.6655	9.910237	0.000299	2.989198	0.506384	-0.000030
1442	1.4338e+02	5.6593	9.879686	0.000307	3.071094	0.520257	-0.000031
1443	1.4348e+02	5.6466	9.854838	0.000250	2.497823	0.423143	-0.000025
1444	1.4358e+02	5.6382	9.825102	0.000299	2.989198	0.506384	-0.000030
1445	1.4368e+02	5.6278	9.796996	0.000283	2.825407	0.478637	-0.000028
1446	1.4378e+02	5.6162	9.768889	0.000283	2.825407	0.478637	-0.000028
1447	1.4388e+02	5.6066	9.733858	0.000352	3.521521	0.596562	-0.000035
1448	1.4398e+02	5.5972	9.706158	0.000278	2.784459	0.471700	-0.000028
1449	1.4408e+02	5.5901	9.679681	0.000266	2.661615	0.450890	-0.000027
1450	1.4418e+02	5.5779	9.650352	0.000295	2.948250	0.499447	-0.000029
1451	1.4428e+02	5.5683	9.617358	0.000332	3.316782	0.561878	-0.000033
1452	1.4437e+02	5.5581	9.590880	0.000266	2.661615	0.450890	-0.000027
1453	1.4447e+02	5.5473	9.562366	0.000287	2.866355	0.485574	-0.000029
1454	1.4457e+02	5.5373	9.536704	0.000258	2.579719	0.437016	-0.000026
1455	1.4467e+02	5.5273	9.514707	0.000221	2.211188	0.374585	-0.000022
1456	1.4477e+02	5.5176	9.481713	0.000332	3.316782	0.561878	-0.000033
1457	1.4487e+02	5.5106	9.454421	0.000274	2.743511	0.464763	-0.000027
1458	1.4497e+02	5.4966	9.426721	0.000278	2.784459	0.471700	-0.000028
1459	1.4507e+02	5.4879	9.392097	0.000348	3.480573	0.589625	-0.000035
1460	1.4517e+02	5.4773	9.366842	0.000254	2.538771	0.430079	-0.000025
1461	1.4527e+02	5.4694	9.335069	0.000319	3.193938	0.541068	-0.000032
1462	1.4537e+02	5.4574	9.308185	0.000270	2.702563	0.457827	-0.000027
1463	1.4547e+02	5.4472	9.280078	0.000283	2.825407	0.478637	-0.000028
1464	1.4557e+02	5.4382	9.250749	0.000295	2.948250	0.499447	-0.000029
1465	1.4567e+02	5.4302	9.221828	0.000291	2.907303	0.492510	-0.000029
1466	1.4577e+02	5.4202	9.199017	0.000229	2.293084	0.388459	-0.000023
1467	1.4587e+02	5.4089	9.174576	0.000246	2.456875	0.416206	-0.000025
1468	1.4597e+02	5.3996	9.146062	0.000287	2.866355	0.485574	-0.000029
1469	1.4607e+02	5.3884	9.114697	0.000315	3.152990	0.534131	-0.000032
1470	1.4617e+02	5.3765	9.088627	0.000262	2.620667	0.443953	-0.000026
1471	1.4626e+02	5.3678	9.056854	0.000319	3.193938	0.541068	-0.000032
1472	1.4636e+02	5.3600	9.027526	0.000295	2.948250	0.499447	-0.000029
1473	1.4646e+02	5.3484	8.999012	0.000287	2.866355	0.485574	-0.000029
1474	1.4656e+02	5.3390	8.970905	0.000283	2.825407	0.478637	-0.000028
1475	1.4666e+02	5.3281	8.941576	0.000295	2.948250	0.499447	-0.000029
1476	1.4676e+02	5.3178	8.913877	0.000278	2.784459	0.471700	-0.000028
1477	1.4686e+02	5.3066	8.885770	0.000283	2.825407	0.478637	-0.000028
1478	1.4696e+02	5.3004	8.854405	0.000315	3.152990	0.534131	-0.000032
1479	1.4706e+02	5.2892	8.827520	0.000270	2.702563	0.457827	-0.000027
1480	1.4716e+02	5.2774	8.795340	0.000323	3.234886	0.548005	-0.000032
1481	1.4726e+02	5.2666	8.766419	0.000291	2.907303	0.492510	-0.000029
1482	1.4736e+02	5.2582	8.738720	0.000278	2.784459	0.471700	-0.000028
1483	1.4746e+02	5.2513	8.710206	0.000287	2.866355	0.485574	-0.000029
1484	1.4756e+02	5.2380	8.681284	0.000291	2.907303	0.492510	-0.000029
1485	1.4766e+02	5.2294	8.651956	0.000295	2.948250	0.499447	-0.000029
1486	1.4776e+02	5.2228	8.627515	0.000246	2.456875	0.416206	-0.000025
1487	1.4786e+02	5.2110	8.595335	0.000323	3.234886	0.548005	-0.000032
1488	1.4796e+02	5.1981	8.565599	0.000299	2.989198	0.506384	-0.000030
1489	1.4806e+02	5.1889	8.537493	0.000283	2.825407	0.478637	-0.000028
1490	1.4816e+02	5.1799	8.507349	0.000303	3.030146	0.513321	-0.000030
1491	1.4825e+02	5.1699	8.478835	0.000287	2.866355	0.485574	-0.000029
1492	1.4835e+02	5.1591	8.448692	0.000303	3.030146	0.513321	-0.000030
1493	1.4845e+02	5.1499	8.417734	0.000311	3.112042	0.527194	-0.000031
1494	1.4855e+02	5.1406	8.391257	0.000266	2.661615	0.450890	-0.000027
1495	1.4865e+02	5.1312	8.361521	0.000299	2.989198	0.506384	-0.000030
1496	1.4875e+02	5.1211	8.328118	0.000336	3.357730	0.568815	-0.000034
1497	1.4885e+02	5.1092	8.300419	0.000278	2.784459	0.471700	-0.000028
1498	1.4895e+02	5.0970	8.270276	0.000303	3.030146	0.513321	-0.000030
1499	1.4905e+02	5.0906	8.246650	0.000237	2.374980	0.402332	-0.000024
1500	1.4915e+02	5.0799	8.214877	0.000319	3.193938	0.541068	-0.000032
1501	1.4925e+02	5.0710	8.187993	0.000270	2.702563	0.457827	-0.000027
1502	1.4935e+02	5.0603	8.159071	0.000291	2.907303	0.492510	-0.000029
1503	1.4945e+02	5.0504	8.128521	0.000307	3.071094	0.520257	-0.000031
1504	1.4955e+02	5.0393	8.098377	0.000303	3.030146	0.513321	-0.000030
1505	1.4965e+02	5.0306	8.069049	0.000295	2.948250	0.499447	-0.000029
1506	1.4975e+02	5.0217	8.041349	0.000278	2.784459	0.471700	-0.000028
1507	1.4985e+02	5.0082	8.010799	0.000307	3.071094	0.520257	-0.000031
1508	1.4995e+02	5.0024	7.977804	0.000332	3.316782	0.561878	-0.000033
1509	1.5005e+02	4.9947	7.952549	0.000254	2.538771	0.430079	-0.000025
1510	1.5015e+02	4.9816	7.922405	0.000303	3.030146	0.513321	-0.000030
1511	1.5025e+02	4.9703	7.889411	0.000332	3.316782	0.561878	-0.000033
1512	1.5034e+02	4.9595	7.860082	0.000295	2.948250	0.499447	-0.000029
1513	1.5044e+02	4.9503	7.832383	0.000278	2.784459	0.471700	-0.000028
1514	1.5054e+02	4.9401	7.802239	0.000303	3.030146	0.513321	-0.000030
1515	1.5064e+02	4.9310	7.772911	0.000295	2.948250	0.499447	-0.000029
1516	1.5074e+02	4.9213	7.741953	0.000311	3.112042	0.527194	-0.000031
1517	1.5084e+02	4.9117	7.714253	0.000278	2.784459	0.471700	-0.000028
1518	1.5094e+02	4.9010	7.684517	0.000299	2.989198	0.506384	-0.000030
1519	1.5104e+02	4.8910	7.656411	0.000283	2.825407	0.478637	-0.000028
1520	1.5114e+02	4.8855	7.622194	0.000344	3.439626	0.582688	-0.000034
1521	1.5124e+02	4.8713	7.592458	0.000299	2.989198	0.506384	-0.000030
1522	1.5134e+02	4.8602	7.565166	0.000274	2.743511	0.464763	-0.000027
1523	1.5144e+02	4.8528	7.536652	0.000287	2.866355	0.485574	-0.000029
1524	1.5154e+02	4.8421	7.503250	0.000336	3.357730	0.568815	-0.000034
1525	1.5164e+02	4.8305	7.473514	0.000299	2.989198	0.506384	-0.000030
1526	1.5174e+02	4.8230	7.443370	0.000303	3.030146	0.513321	-0.000030
1527	1.5184e+02	4.8117	7.415264	0.000283	2.825407	0.478637	-0.000028
1528	1.5194e+02	4.8038	7.386750	0.000287	2.866355	0.485574	-0.000029
1529	1.5204e+02	4.7913	7.354977	0.000319	3.193938	0.541068	-0.000032
1530	1.5214e+02	4.7817	7.327685	0.000274	2.743511	0.464763	-0.000027
1531	1.5224e+02	4.7720	7.299171	0.000287	2.866355	0.485574	-0.000029
1532	1.5233e+02	4.7622	7.267806	0.000315	3.152990	0.534131	-0.000032
1533	1.5243e+02	4.7520	7.237662	0.000303	3.030146	0.513321	-0.000030
1534	1.5253e+02	4.7412	7.206297	0.000315	3.152990	0.534131	-0.000032
1535	1.5263e+02	4.7330	7.174932	0.000315	3.152990	0.534131	-0.000032
1536	1.5273e+02	4.7256	7.148862	0.000262	2.620667	0.443953	-0.000026
1537	1.5283e+02	4.7100	7.117496	0.000315	3.152990	0.534131	-0.000032
1538	1.5293e+02	4.7021	7.086946	0.000307	3.071094	0.520257	-0.000031
1539	1.5303e+02	4.6918	7.054358	0.000328	3.275834	0.554941	-0.000033
1540	1.5313e+02	4.6833	7.022993	0.000315	3.152990	0.534131	-0.000032
1541	1.5323e+02	4.6700	6.998960	0.000242	2.415927	0.409269	-0.000024
1542	1.5333e+02	4.6645	6.963928	0.000352	3.521521	0.596562	-0.000035
1543	1.5343e+02	4.6533	6.935822	0.000283	2.825407	0.478637	-0.000028
1544	1.5353e+02	4.6418	6.907308	0.000287	2.866355	0.485574	-0.000029
1545	1.5363e+02	4.6324	6.874720	0.000328	3.275834	0.554941	-0.000033
1546	1.5373e+02	4.6240	6.839281	0.000356	3.562469	0.603499	-0.000036
1547	1.5383e+02	4.6127	6.815248	0.000242	2.415927	0.409269	-0.000024
1548	1.5393e+02	4.6010	6.778587	0.000369	3.685313	0.624309	-0.000037
1549	1.5403e+02	4.5911	6.749666	0.000291	2.907303	0.492510	-0.000029
1550	1.5413e+02	4.5801	6.716264	0.000336	3.357730	0.568815	-0.000034
1551	1.5422e+02	4.5731	6.685306	0.000311	3.112042	0.527194	-0.000031
1552	1.5432e+02	4.5640	6.653533	0.000319	3.193938	0.541068	-0.000032
1553	1.5442e+02	4.5557	6.625019	0.000287	2.866355	0.485574	-0.000029
1554	1.5452e+02	4.5443	6.595283	0.000299	2.989198	0.506384	-0.000030
1555	1.5462e+02	4.5345	6.563918	0.000315	3.152990	0.534131	-0.000032
1556	1.5472e+02	4.5238	6.532960	0.000311	3.112042	0.527194	-0.000031
1557	1.5482e+02	4.5129	6.500372	0.000328	3.275834	0.554941	-0.000033
1558	1.5492e+02	4.5020	6.470636	0.000299	2.989198	0.506384	-0.000030
1559	1.5502e+02	4.4947	6.439678	0.000311	3.112042	0.527194	-0.000031
1560	1.5512e+02	4.4846	6.407498	0.000323	3.234886	0.548005	-0.000032
1561	1.5522e+02	4.4707	6.376133	0.000315	3.152990	0.534131	-0.000032
1562	1.5532e+02	4.4630	6.344768	0.000315	3.152990	0.534131	-0.000032
1563	1.5542e+02	4.4522	6.314217	0.000307	3.071094	0.520257	-0.000031
1564	1.5552e+02	4.4446	6.284074	0.000303	3.030146	0.513321	-0.000030
1565	1.5562e+02	4.4332	6.253523	0.000307	3.071094	0.520257	-0.000031
1566	1.5572e+02	4.4244	6.221343	0.000323	3.234886	0.548005	-0.000032
1567	1.5582e+02	4.4116	6.189570	0.000319	3.193938	0.541068	-0.000032
1568	1.5592e+02	4.4023	6.159834	0.000299	2.989198	0.506384	-0.000030
1569	1.5602e+02	4.3955	6.129691	0.000303	3.030146	0.513321	-0.000030
1570	1.5612e+02	4.3829	6.094659	0.000352	3.521521	0.596562	-0.000035
1571	1.5622e+02	4.3755	6.066960	0.000278	2.784459	0.471700	-0.000028
1572	1.5631e+02	4.3628	6.032743	0.000344	3.439626	0.582688	-0.000034
1573	1.5641e+02	4.3543	6.003822	0.000291	2.907303	0.492510	-0.000029
1574	1.5651e+02	4.3458	5.972864	0.000311	3.112042	0.527194	-0.000031
1575	1.5661e+02	4.3330	5.942720	0.000303	3.030146	0.513321	-0.000030
1576	1.5671e+02	4.3229	5.912577	0.000303	3.030146	0.513321	-0.000030
1577	1.5681e+02	4.3153	5.879582	0.000332	3.316782	0.561878	-0.000033
1578	1.5691e+02	4.3032	5.849846	0.000299	2.989198	0.506384	-0.000030
1579	1.5701e+02	4.2960	5.816444	0.000336	3.357730	0.568815	-0.000034
1580	1.5711e+02	4.2846	5.786708	0.000299	2.989198	0.506384	-0.000030
1581	1.5721e+02	4.2751	5.757787	0.000291	2.907303	0.492510	-0.000029
1582	1.5731e+02	4.2629	5.725607	0.000323	3.234886	0.548005	-0.000032
1583	1.5741e+02	4.2574	5.690575	0.000352	3.521521	0.596562	-0.000035
1584	1.5751e+02	4.2443	5.659210	0.000315	3.152990	0.534131	-0.000032
1585	1.5761e+02	4.2332	5.625808	0.000336	3.357730	0.568815	-0.000034
1586	1.5771e+02	4.2251	5.594035	0.000319	3.193938	0.541068	-0.000032
1587	1.5781e+02	4.2136	5.564299	0.000299	2.989198	0.506384	-0.000030
1588	1.5791e+02	4.2076	5.533749	0.000307	3.071094	0.520257	-0.000031
1589	1.5801e+02	4.1949	5.503605	0.000303	3.030146	0.513321	-0.000030
1590	1.5811e+02	4.1841	5.471832	0.000319	3.193938	0.541068	-0.000032
1591	1.5821e+02	4.1758	5.436394	0.000356	3.562469	0.603499	-0.000036
1592	1.5830e+02	4.1664	5.408287	0.000283	2.825407	0.478637	-0.000028
1593	1.5840e+02	4.1556	5.378144	0.000303	3.030146	0.513321	-0.000030
1594	1.5850e+02	4.1446	5.346371	0.000319	3.193938	0.541068	-0.000032
1595	1.5860e+02	4.1341	5.314191	0.000323	3.234886	0.548005	-0.000032
1596	1.5870e+02	4.1266	5.281604	0.000328	3.275834	0.554941	-0.000033
1597	1.5880e+02	4.1120	5.247387	0.000344	3.439626	0.582688	-0.000034
1598	1.5890e+02	4.1055	5.216021	0.000315	3.152990	0.534131	-0.000032
1599	1.5900e+02	4.0953	5.182212	0.000340	3.398678	0.575752	-0.000034
1600	1.5910e+02	4.0871	5.154513	0.000278	2.784459	0.471700	-0.000028
1601	1.5920e+02	4.0759	5.119889	0.000348	3.480573	0.589625	-0.000035
1602	1.5930e+02	4.0662	5.088116	0.000319	3.193938	0.541068	-0.000032
1603	1.5940e+02	4.0543	5.056750	0.000315	3.152990	0.534131	-0.000032
1604	1.5950e+02	4.0480	5.025792	0.000311	3.112042	0.527194	-0.000031
1605	1.5960e+02	4.0343	4.991576	0.000344	3.439626	0.582688	-0.000034
1606	1.5970e+02	4.0277	4.962247	0.000295	2.948250	0.499447	-0.000029
1607	1.5980e+02	4.0130	4.929660	0.000328	3.275834	0.554941	-0.000033
1608	1.5990e+02	4.0069	4.897479	0.000323	3.234886	0.548005	-0.000032
1609	1.6000e+02	3.9942	4.869373	0.000283	2.825407	0.478637	-0.000028
1610	1.6010e+02	3.9881	4.833934	0.000356	3.562469	0.603499	-0.000036
1611	1.6019e+02	3.9775	4.801754	0.000323	3.234886	0.548005	-0.000032
1612	1.6029e+02	3.9663	4.765908	0.000360	3.603417	0.610435	-0.000036
1613	1.6039e+02	3.9573	4.738616	0.000274	2.743511	0.464763	-0.000027
1614	1.6049e+02	3.9458	4.701955	0.000369	3.685313	0.624309	-0.000037
1615	1.6059e+02	3.9381	4.664887	0.000373	3.726261	0.631246	-0.000037
1616	1.6069e+02	3.9231	4.630670	0.000344	3.439626	0.582688	-0.000034
1617	1.6079e+02	3.9184	4.601341	0.000295	2.948250	0.499447	-0.000029
1618	1.6089e+02	3.9031	4.570383	0.000311	3.112042	0.527194	-0.000031
1619	1.6099e+02	3.8969	4.540240	0.000303	3.030146	0.513321	-0.000030
1620	1.6109e+02	3.8842	4.506838	0.000336	3.357730	0.568815	-0.000034
1621	1.6119e+02	3.8744	4.476287	0.000307	3.071094	0.520257	-0.000031
1622	1.6129e+02	3.8644	4.444107	0.000323	3.234886	0.548005	-0.000032
1623	1.6139e+02	3.8525	4.411927	0.000323	3.234886	0.548005	-0.000032
1624	1.6149e+02	3.8468	4.378932	0.000332	3.316782	0.561878	-0.000033
1625	1.6159e+02	3.8361	4.345123	0.000340	3.398678	0.575752	-0.000034
1626	1.6169e+02	3.8255	4.303574	0.000418	4.176688	0.707550	-0.000042
1627	1.6179e+02	3.8168	4.277097	0.000266	2.661615	0.450890	-0.000027
1628	1.6189e+02	3.8062	4.242880	0.000344	3.439626	0.582688	-0.000034
1629	1.6199e+02	3.7979	4.213959	0.000291	2.907303	0.492510	-0.000029
1630	1.6209e+02	3.7872	4.182186	0.000319	3.193938	0.541068	-0.000032
1631	1.6219e+02	3.7788	4.147969	0.000344	3.439626	0.582688	-0.000034
1632	1.6228e+02	3.7677	4.120677	0.000274	2.743511	0.464763	-0.000027
1633	1.6238e+02	3.7554	4.086053	0.000348	3.480573	0.589625	-0.000035
1634	1.6248e+02	3.7470	4.052244	0.000340	3.398678	0.575752	-0.000034
1635	1.6258e+02	3.7379	4.021693	0.000307	3.071094	0.520257	-0.000031
1636	1.6268e+02	3.7267	3.991142	0.000307	3.071094	0.520257	-0.000031
1637	1.6278e+02	3.7167	3.956926	0.000344	3.439626	0.582688	-0.000034
1638	1.6288e+02	3.7069	3.925968	0.000311	3.112042	0.527194	-0.000031
1639	1.6298e+02	3.6970	3.892158	0.000340	3.398678	0.575752	-0.000034
1640	1.6308e+02	3.6877	3.862829	0.000295	2.948250	0.499447	-0.000029
1641	1.6318e+02	3.6777	3.825761	0.000373	3.726261	0.631246	-0.000037
1642	1.6328e+02	3.6673	3.792359	0.000336	3.357730	0.568815	-0.000034
1643	1.6338e+02	3.6612	3.763845	0.000287	2.866355	0.485574	-0.000029
1644	1.6348e+02	3.6484	3.727184	0.000369	3.685313	0.624309	-0.000037
1645	1.6358e+02	3.6367	3.696226	0.000311	3.112042	0.527194	-0.000031
1646	1.6368e+02	3.6290	3.664046	0.000323	3.234886	0.548005	-0.000032
1647	1.6378e+02	3.6178	3.629015	0.000352	3.521521	0.596562	-0.000035
1648	1.6388e+02	3.6091	3.594391	0.000348	3.480573	0.589625	-0.000035
1649	1.6398e+02	3.6001	3.562211	0.000323	3.234886	0.548005	-0.000032
1650	1.6408e+02	3.5869	3.530031	0.000323	3.234886	0.548005	-0.000032
1651	1.6418e+02	3.5759	3.497443	0.000328	3.275834	0.554941	-0.000033
1652	1.6427e+02	3.5669	3.463634	0.000340	3.398678	0.575752	-0.000034
1653	1.6437e+02	3.5573	3.428602	0.000352	3.521521	0.596562	-0.000035
1654	1.6447e+02	3.5453	3.395608	0.000332	3.316782	0.561878	-0.000033
1655	1.6457e+02	3.5360	3.358132	0.000377	3.767209	0.638182	-0.000038
1656	1.6467e+02	3.5262	3.325545	0.000328	3.275834	0.554941	-0.000033
1657	1.6477e+02	3.5173	3.293365	0.000323	3.234886	0.548005	-0.000032
1658	1.6487e+02	3.5091	3.261184	0.000323	3.234886	0.548005	-0.000032
1659	1.6497e+02	3.4973	3.229412	0.000319	3.193938	0.541068	-0.000032
1660	1.6507e+02	3.4856	3.191936	0.000377	3.767209	0.638182	-0.000038
1661	1.6517e+02	3.4796	3.163015	0.000291	2.907303	0.492510	-0.000029
1662	1.6527e+02	3.4716	3.128391	0.000348	3.480573	0.589625	-0.000035
1663	1.6537e+02	3.4608	3.096211	0.000323	3.234886	0.548005	-0.000032
1664	1.6547e+02	3.4493	3.061587	0.000348	3.480573	0.589625	-0.000035
1665	1.6557e+02	3.4397	3.026963	0.000348	3.480573	0.589625	-0.000035
1666	1.6567e+02	3.4248	2.996412	0.000307	3.071094	0.520257	-0.000031
1667	1.6577e+02	3.4205	2.962195	0.000344	3.439626	0.582688	-0.000034
1668	1.6587e+02	3.4097	2.927571	0.000348	3.480573	0.589625	-0.000035
1669	1.6597e+02	3.3986	2.894169	0.000336	3.357730	0.568815	-0.000034
1670	1.6607e+02	3.3886	2.857508	0.000369	3.685313	0.624309	-0.000037
1671	1.6616e+02	3.3773	2.822477	0.000352	3.521521	0.596562	-0.000035
1672	1.6626e+02	3.3702	2.791926	0.000307	3.071094	0.520257	-0.000031
1673	1.6636e+02	3.3570	2.757302	0.000348	3.480573	0.589625	-0.000035
1674	1.6646e+02	3.3480	2.725529	0.000319	3.193938	0.541068	-0.000032
1675	1.6656e+02	3.3398	2.690905	0.000348	3.480573	0.589625	-0.000035
1676	1.6666e+02	3.3277	2.654651	0.000364	3.644365	0.617372	-0.000036
1677	1.6676e+02	3.3202	2.622879	0.000319	3.193938	0.541068	-0.000032
1678	1.6686e+02	3.3092	2.587440	0.000356	3.562469	0.603499	-0.000036
1679	1.6696e+02	3.2989	2.552408	0.000352	3.521521	0.596562	-0.000035
1680	1.6706e+02	3.2887	2.515340	0.000373	3.726261	0.631246	-0.000037
1681	1.6716e+02	3.2757	2.485604	0.000299	2.989198	0.506384	-0.000030
1682	1.6726e+02	3.2723	2.451795	0.000340	3.398678	0.575752	-0.000034
1683	1.6736e+02	3.2597	2.417171	0.000348	3.480573	0.589625	-0.000035
1684	1.6746e+02	3.2485	2.382139	0.000352	3.521521	0.596562	-0.000035
1685	1.6756e+02	3.2388	2.348330	0.000340	3.398678	0.575752	-0.000034
1686	1.6766e+02	3.2268	2.312891	0.000356	3.562469	0.603499	-0.000036
1687	1.6776e+02	3.2211	2.279082	0.000340	3.398678	0.575752	-0.000034
1688	1.6786e+02	3.2116	2.242013	0.000373	3.726261	0.631246	-0.000037
1689	1.6796e+02	3.1982	2.208204	0.000340	3.398678	0.575752	-0.000034
1690	1.6806e+02	3.1900	2.173580	0.000348	3.480573	0.589625	-0.000035
1691	1.6816e+02	3.1773	2.138141	0.000356	3.562469	0.603499	-0.000036
1692	1.6825e+02	3.1686	2.104739	0.000336	3.357730	0.568815	-0.000034
1693	1.6835e+02	3.1620	2.073374	0.000315	3.152990	0.534131	-0.000032
1694	1.6845e+02	3.1482	2.039157	0.000344	3.439626	0.582688	-0.000034
1695	1.6855e+02	3.1405	2.003718	0.000356	3.562469	0.603499	-0.000036
1696	1.6865e+02	3.1293	1.971131	0.000328	3.275834	0.554941	-0.000033
1697	1.6875e+02	3.1199	1.936506	0.000348	3.480573	0.589625	-0.000035
1698	1.6885e+02	3.1091	1.903919	0.000328	3.275834	0.554941	-0.000033
1699	1.6895e+02	3.0975	1.869702	0.000344	3.439626	0.582688	-0.000034
1700	1.6905e+02	3.0886	1.834264	0.000356	3.562469	0.603499	-0.000036
1701	1.6915e+02	3.0807	1.799639	0.000348	3.480573	0.589625	-0.000035
1702	1.6925e+02	3.0700	1.762979	0.000369	3.685313	0.624309	-0.000037
1703	1.6935e+02	3.0599	1.728354	0.000348	3.480573	0.589625	-0.000035
1704	1.6945e+02	3.0489	1.695767	0.000328	3.275834	0.554941	-0.000033
1705	1.6955e+02	3.0404	1.659514	0.000364	3.644365	0.617372	-0.000036
1706	1.6965e+02	3.0303	1.620816	0.000389	3.890053	0.658993	-0.000039
1707	1.6975e+02	3.0231	1.586192	0.000348	3.480573	0.589625	-0.000035
1708	1.6985e+02	3.0112	1.552790	0.000336	3.357730	0.568815	-0.000034
1709	1.6995e+02	2.9996	1.516944	0.000360	3.603417	0.610435	-0.000036
1710	1.7005e+02	2.9890	1.483949	0.000332	3.316782	0.561878	-0.000033
1711	1.7015e+02	2.9810	1.451769	0.000323	3.234886	0.548005	-0.000032
1712	1.7024e+02	2.9736	1.411035	0.000409	4.094792	0.693677	-0.000041
1713	1.7034e+02	2.9601	1.379669	0.000315	3.152990	0.534131	-0.000032
1714	1.7044e+02	2.9482	1.346267	0.000336	3.357730	0.568815	-0.000034
1715	1.7054e+02	2.9427	1.306348	0.000401	4.012897	0.679803	-0.000040
1716	1.7064e+02	2.9314	1.268057	0.000385	3.849105	0.652056	-0.000038
1717	1.7074e+02	2.9197	1.233433	0.000348	3.480573	0.589625	-0.000035
1718	1.7084e+02	2.9111	1.197994	0.000356	3.562469	0.603499	-0.000036
1719	1.7094e+02	2.9014	1.161334	0.000369	3.685313	0.624309	-0.000037
1720	1.7104e+02	2.8927	1.126302	0.000352	3.521521	0.596562	-0.000035
1721	1.7114e+02	2.8812	1.090456	0.000360	3.603417	0.610435	-0.000036
1722	1.7124e+02	2.8726	1.053388	0.000373	3.726261	0.631246	-0.000037
1723	1.7134e+02	2.8626	1.019171	0.000344	3.439626	0.582688	-0.000034
1724	1.7144e+02	2.8515	0.982510	0.000369	3.685313	0.624309	-0.000037
1725	1.7154e+02	2.8411	0.947886	0.000348	3.480573	0.589625	-0.000035
1726	1.7164e+02	2.8329	0.913669	0.000344	3.439626	0.582688	-0.000034
1727	1.7174e+02	2.8209	0.877009	0.000369	3.685313	0.624309	-0.000037
1728	1.7184e+02	2.8128	0.842384	0.000348	3.480573	0.589625	-0.000035
1729	1.7194e+02	2.7993	0.803687	0.000389	3.890053	0.658993	-0.000039
1730	1.7204e+02	2.7906	0.767433	0.000364	3.644365	0.617372	-0.000036
1731	1.7213e+02	2.7834	0.731587	0.000360	3.603417	0.610435	-0.000036
1732	1.7223e+02	2.7704	0.695334	0.000364	3.644365	0.617372	-0.000036
1733	1.7233e+02	2.7609	0.660302	0.000352	3.521521	0.596562	-0.000035
1734	1.7243e+02	2.7502	0.622419	0.000381	3.808157	0.645119	-0.000038
1735	1.7253e+02	2.7435	0.589832	0.000328	3.275834	0.554941	-0.000033
1736	1.7263e+02	2.7304	0.553171	0.000369	3.685313	0.624309	-0.000037
1737	1.7273e+02	2.7236	0.519362	0.000340	3.398678	0.575752	-0.000034
1738	1.7283e+02	2.7110	0.479035	0.000405	4.053844	0.686740	-0.000041
1739	1.7293e+02	2.7013	0.445633	0.000336	3.357730	0.568815	-0.000034
1740	1.7303e+02	2.6923	0.409379	0.000364	3.644365	0.617372	-0.000036
1741	1.7313e+02	2.6810	0.374348	0.000352	3.521521	0.596562	-0.000035
1742	1.7323e+02	2.6720	0.336872	0.000377	3.767209	0.638182	-0.000038
1743	1.7333e+02	2.6631	0.301433	0.000356	3.562469	0.603499	-0.000036
1744	1.7343e+02	2.6524	0.261514	0.000401	4.012897	0.679803	-0.000040
1745	1.7353e+02	2.6415	0.226890	0.000348	3.480573	0.589625	-0.000035
1746	1.7363e+02	2.6311	0.189007	0.000381	3.808157	0.645119	-0.000038
1747	1.7373e+02	2.6227	0.154383	0.000348	3.480573	0.589625	-0.000035
1748	1.7383e+02	2.6158	0.116093	0.000385	3.849105	0.652056	-0.000038
1749	1.7393e+02	2.6028	0.079024	0.000373	3.726261	0.631246	-0.000037
1750	1.7403e+02	2.5906	0.043586	0.000356	3.562469	0.603499	-0.000036
1751	1.7413e+02	2.5835	0.006110	0.000377	3.767209	0.638182	-0.000038
1752	1.7422e+02	2.5717	-0.030551	0.000369	3.685313	0.624309	-0.000037
1753	1.7432e+02	2.5636	-0.071285	0.000409	4.094792	0.693677	-0.000041
1754	1.7442e+02	2.5552	-0.100614	0.000295	2.948250	0.499447	-0.000029
1755	1.7452e+02	2.5420	-0.139311	0.000389	3.890053	0.658993	-0.000039
1756	1.7462e+02	2.5332	-0.175972	0.000369	3.685313	0.624309	-0.000037
1757	1.7472e+02	2.5228	-0.216706	0.000409	4.094792	0.693677	-0.000041
1758	1.7482e+02	2.5128	-0.250108	0.000336	3.357730	0.568815	-0.000034
1759	1.7492e+02	2.5052	-0.285547	0.000356	3.562469	0.603499	-0.000036
1760	1.7502e+02	2.4926	-0.320986	0.000356	3.562469	0.603499	-0.000036
1761	1.7512e+02	2.4829	-0.358461	0.000377	3.767209	0.638182	-0.000038
1762	1.7522e+02	2.4722	-0.394308	0.000360	3.603417	0.610435	-0.000036
1763	1.7532e+02	2.4628	-0.433005	0.000389	3.890053	0.658993	-0.000039
1764	1.7542e+02	2.4549	-0.470481	0.000377	3.767209	0.638182	-0.000038
1765	1.7552e+02	2.4463	-0.509993	0.000397	3.971949	0.672866	-0.000040
1766	1.7562e+02	2.4335	-0.546246	0.000364	3.644365	0.617372	-0.000036
1767	1.7572e+02	2.4226	-0.578019	0.000319	3.193938	0.541068	-0.000032
1768	1.7582e+02	2.4129	-0.618753	0.000409	4.094792	0.693677	-0.000041
1769	1.7592e+02	2.4034	-0.655414	0.000369	3.685313	0.624309	-0.000037
1770	1.7602e+02	2.3932	-0.695334	0.000401	4.012897	0.679803	-0.000040
1771	1.7612e+02	2.3816	-0.727106	0.000319	3.193938	0.541068	-0.000032
1772	1.7621e+02	2.3737	-0.765804	0.000389	3.890053	0.658993	-0.000039
1773	1.7631e+02	2.3630	-0.805724	0.000401	4.012897	0.679803	-0.000040
1774	1.7641e+02	2.3522	-0.840755	0.000352	3.521521	0.596562	-0.000035
1775	1.7651e+02	2.3450	-0.875786	0.000352	3.521521	0.596562	-0.000035
1776	1.7661e+02	2.3339	-0.916113	0.000405	4.053844	0.686740	-0.000041
1777	1.7671e+02	2.3244	-0.951552	0.000356	3.562469	0.603499	-0.000036
1778	1.7681e+02	2.3153	-0.987806	0.000364	3.644365	0.617372	-0.000036
1779	1.7691e+02	2.3064	-1.029762	0.000422	4.217636	0.714487	-0.000042
1780	1.7701e+02	2.2918	-1.066423	0.000369	3.685313	0.624309	-0.000037
1781	1.7711e+02	2.2851	-1.106342	0.000401	4.012897	0.679803	-0.000040
1782	1.7721e+02	2.2747	-1.143818	0.000377	3.767209	0.638182	-0.000038
1783	1.7731e+02	2.2636	-1.187404	0.000438	4.381428	0.742234	-0.000044
1784	1.7741e+02	2.2536	-1.222435	0.000352	3.521521	0.596562	-0.000035
1785	1.7751e+02	2.2428	-1.259503	0.000373	3.726261	0.631246	-0.000037
1786	1.7761e+02	2.2366	-1.294535	0.000352	3.521521	0.596562	-0.000035
1787	1.7771e+02	2.2250	-1.334862	0.000405	4.053844	0.686740	-0.000041
1788	1.7781e+02	2.2164	-1.371115	0.000364	3.644365	0.617372	-0.000036
1789	1.7791e+02	2.2044	-1.407776	0.000369	3.685313	0.624309	-0.000037
1790	1.7801e+02	2.1931	-1.447695	0.000401	4.012897	0.679803	-0.000040
1791	1.7810e+02	2.1865	-1.484356	0.000369	3.685313	0.624309	-0.000037
1792	1.7820e+02	2.1734	-1.523054	0.000389	3.890053	0.658993	-0.000039
1793	1.7830e+02	2.1650	-1.558900	0.000360	3.603417	0.610435	-0.000036
1794	1.7840e+02	2.1546	-1.601264	0.000426	4.258584	0.721424	-0.000043
1795	1.7850e+02	2.1443	-1.639554	0.000385	3.849105	0.652056	-0.000038
1796	1.7860e+02	2.1331	-1.674993	0.000356	3.562469	0.603499	-0.000036
1797	1.7870e+02	2.1249	-1.714097	0.000393	3.931001	0.665930	-0.000039
1798	1.7880e+02	2.1164	-1.754017	0.000401	4.012897	0.679803	-0.000040
1799	1.7890e+02	2.1031	-1.790271	0.000364	3.644365	0.617372	-0.000036
1800	1.7900e+02	2.0959	-1.826931	0.000369	3.685313	0.624309	-0.000037
1801	1.7910e+02	2.0841	-1.861555	0.000348	3.480573	0.589625	-0.000035
1802	1.7920e+02	2.0730	-1.901475	0.000401	4.012897	0.679803	-0.000040
1803	1.7930e+02	2.0655	-1.938951	0.000377	3.767209	0.638182	-0.000038
1804	1.7940e+02	2.0556	-1.976426	0.000377	3.767209	0.638182	-0.000038
1805	1.7950e+02	2.0475	-2.015124	0.000389	3.890053	0.658993	-0.000039
1806	1.7960e+02	2.0330	-2.056673	0.000418	4.176688	0.707550	-0.000042
1807	1.7970e+02	2.0260	-2.091704	0.000352	3.521521	0.596562	-0.000035
1808	1.7980e+02	2.0152	-2.133660	0.000422	4.217636	0.714487	-0.000042
1809	1.7990e+02	2.0058	-2.171136	0.000377	3.767209	0.638182	-0.000038
1810	1.8000e+02	1.9936	-2.208204	0.000373	3.726261	0.631246	-0.000037
1811	1.8009e+02	1.9836	-2.246494	0.000385	3.849105	0.652056	-0.000038
1812	1.8019e+02	1.9761	-2.285192	0.000389	3.890053	0.658993	-0.000039
1813	1.8029e+02	1.9660	-2.323889	0.000389	3.890053	0.658993	-0.000039
1814	1.8039e+02	1.9561	-2.365438	0.000418	4.176688	0.707550	-0.000042
1815	1.8049e+02	1.9464	-2.403321	0.000381	3.808157	0.645119	-0.000038
1816	1.8059e+02	1.9361	-2.442426	0.000393	3.931001	0.665930	-0.000039
1817	1.8069e+02	1.9257	-2.481938	0.000397	3.971949	0.672866	-0.000040
1818	1.8079e+02	1.9155	-2.519414	0.000377	3.767209	0.638182	-0.000038
1819	1.8089e+02	1.9076	-2.560148	0.000409	4.094792	0.693677	-0.000041
1820	1.8099e+02	1.8961	-2.597623	0.000377	3.767209	0.638182	-0.000038
1821	1.8109e+02	1.8867	-2.635914	0.000385	3.849105	0.652056	-0.000038
1822	1.8119e+02	1.8773	-2.674611	0.000389	3.890053	0.658993	-0.000039
1823	1.8129e+02	1.8653	-2.715753	0.000414	4.135740	0.700613	-0.000041
1824	1.8139e+02	1.8554	-2.754858	0.000393	3.931001	0.665930	-0.000039
1825	1.8149e+02	1.8465	-2.793963	0.000393	3.931001	0.665930	-0.000039
1826	1.8159e+02	1.8344	-2.830623	0.000369	3.685313	0.624309	-0.000037
1827	1.8169e+02	1.8246	-2.872580	0.000422	4.217636	0.714487	-0.000042
1828	1.8179e+02	1.8163	-2.909241	0.000369	3.685313	0.624309	-0.000037
1829	1.8189e+02	1.8080	-2.949975	0.000409	4.094792	0.693677	-0.000041
1830	1.8199e+02	1.7957	-2.992338	0.000426	4.258584	0.721424	-0.000043
1831	1.8209e+02	1.7852	-3.028592	0.000364	3.644365	0.617372	-0.000036
1832	1.8218e+02	1.7764	-3.067697	0.000393	3.931001	0.665930	-0.000039
1833	1.8228e+02	1.7663	-3.110468	0.000430	4.299532	0.728360	-0.000043
1834	1.8238e+02	1.7570	-3.146314	0.000360	3.603417	0.610435	-0.000036
1835	1.8248e+02	1.7458	-3.185419	0.000393	3.931001	0.665930	-0.000039
1836	1.8258e+02	1.7363	-3.224524	0.000393	3.931001	0.665930	-0.000039
1837	1.8268e+02	1.7286	-3.264443	0.000401	4.012897	0.679803	-0.000040
1838	1.8278e+02	1.7154	-3.308436	0.000442	4.422376	0.749171	-0.000044
1839	1.8288e+02	1.7075	-3.344282	0.000360	3.603417	0.610435	-0.000036
1840	1.8298e+02	1.6972	-3.385017	0.000409	4.094792	0.693677	-0.000041
1841	1.8308e+02	1.6862	-3.426566	0.000418	4.176688	0.707550	-0.000042
1842	1.8318e+02	1.6779	-3.466078	0.000397	3.971949	0.672866	-0.000040
1843	1.8328e+02	1.6668	-3.507627	0.000418	4.176688	0.707550	-0.000042
1844	1.8338e+02	1.6551	-3.548361	0.000409	4.094792	0.693677	-0.000041
1845	1.8348e+02	1.6454	-3.589095	0.000409	4.094792	0.693677	-0.000041
1846	1.8358e+02	1.6356	-3.628200	0.000393	3.931001	0.665930	-0.000039
1847	1.8368e+02	1.6256	-3.662824	0.000348	3.480573	0.589625	-0.000035
1848	1.8378e+02	1.6206	-3.705595	0.000430	4.299532	0.728360	-0.000043
1849	1.8388e+02	1.6085	-3.745107	0.000397	3.971949	0.672866	-0.000040
1850	1.8398e+02	1.6004	-3.785842	0.000409	4.094792	0.693677	-0.000041
1851	1.8407e+02	1.5857	-3.829427	0.000438	4.381428	0.742234	-0.000044
1852	1.8417e+02	1.5771	-3.867310	0.000381	3.808157	0.645119	-0.000038
1853	1.8427e+02	1.5673	-3.909266	0.000422	4.217636	0.714487	-0.000042
1854	1.8437e+02	1.5585	-3.950001	0.000409	4.094792	0.693677	-0.000041
1855	1.8447e+02	1.5466	-3.989106	0.000393	3.931001	0.665930	-0.000039
1856	1.8457e+02	1.5381	-4.029433	0.000405	4.053844	0.686740	-0.000041
1857	1.8467e+02	1.5275	-4.070167	0.000409	4.094792	0.693677	-0.000041
1858	1.8477e+02	1.5177	-4.110086	0.000401	4.012897	0.679803	-0.000040
1859	1.8487e+02	1.5075	-4.152857	0.000430	4.299532	0.728360	-0.000043
1860	1.8497e+02	1.4966	-4.194406	0.000418	4.176688	0.707550	-0.000042
1861	1.8507e+02	1.4864	-4.235955	0.000418	4.176688	0.707550	-0.000042
1862	1.8517e+02	1.4771	-4.273838	0.000381	3.808157	0.645119	-0.000038
1863	1.8527e+02	1.4689	-4.315794	0.000422	4.217636	0.714487	-0.000042
1864	1.8537e+02	1.4585	-4.353677	0.000381	3.808157	0.645119	-0.000038
1865	1.8547e+02	1.4482	-4.396041	0.000426	4.258584	0.721424	-0.000043
1866	1.8557e+02	1.4373	-4.434331	0.000385	3.849105	0.652056	-0.000038
1867	1.8567e+02	1.4275	-4.472621	0.000385	3.849105	0.652056	-0.000038
1868	1.8577e+02	1.4168	-4.514577	0.000422	4.217636	0.714487	-0.000042
1869	1.8587e+02	1.4085	-4.557348	0.000430	4.299532	0.728360	-0.000043
1870	1.8597e+02	1.3984	-4.599305	0.000422	4.217636	0.714487	-0.000042
1871	1.8606e+02	1.3886	-4.640446	0.000414	4.135740	0.700613	-0.000041
1872	1.8616e+02	1.3779	-4.685661	0.000455	4.545220	0.769981	-0.000045
1873	1.8626e+02	1.3690	-4.724766	0.000393	3.931001	0.665930	-0.000039
1874	1.8636e+02	1.3601	-4.766315	0.000418	4.176688	0.707550	-0.000042
1875	1.8646e+02	1.3470	-4.807049	0.000409	4.094792	0.693677	-0.000041
1876	1.8656e+02	1.3371	-4.847376	0.000405	4.053844	0.686740	-0.000041
1877	1.8666e+02	1.3290	-4.886481	0.000393	3.931001	0.665930	-0.000039
1878	1.8676e+02	1.3174	-4.930067	0.000438	4.381428	0.742234	-0.000044
1879	1.8686e+02	1.3110	-4.969986	0.000401	4.012897	0.679803	-0.000040
1880	1.8696e+02	1.3003	-5.013979	0.000442	4.422376	0.749171	-0.000044
1881	1.8706e+02	1.2905	-5.056343	0.000426	4.258584	0.721424	-0.000043
1882	1.8716e+02	1.2803	-5.095448	0.000393	3.931001	0.665930	-0.000039
1883	1.8726e+02	1.2663	-5.141478	0.000463	4.627115	0.783855	-0.000046
1884	1.8736e+02	1.2595	-5.180175	0.000389	3.890053	0.658993	-0.000039
1885	1.8746e+02	1.2519	-5.221317	0.000414	4.135740	0.700613	-0.000041
1886	1.8756e+02	1.2387	-5.264088	0.000430	4.299532	0.728360	-0.000043
1887	1.8766e+02	1.2265	-5.307673	0.000438	4.381428	0.742234	-0.000044
1888	1.8776e+02	1.2206	-5.350852	0.000434	4.340480	0.735297	-0.000043
1889	1.8786e+02	1.2107	-5.391586	0.000409	4.094792	0.693677	-0.000041
1890	1.8796e+02	1.1980	-5.432320	0.000409	4.094792	0.693677	-0.000041
1891	1.8806e+02	1.1895	-5.475906	0.000438	4.381428	0.742234	-0.000044
1892	1.8815e+02	1.1811	-5.515825	0.000401	4.012897	0.679803	-0.000040
1893	1.8825e+02	1.1713	-5.561041	0.000455	4.545220	0.769981	-0.000045
1894	1.8835e+02	1.1586	-5.600553	0.000397	3.971949	0.672866	-0.000040
1895	1.8845e+02	1.1506	-5.644953	0.000446	4.463324	0.756107	-0.000045
1896	1.8855e+02	1.1401	-5.684873	0.000401	4.012897	0.679803	-0.000040
1897	1.8865e+02	1.1324	-5.730088	0.000455	4.545220	0.769981	-0.000045
1898	1.8875e+02	1.1214	-5.774081	0.000442	4.422376	0.749171	-0.000044
1899	1.8885e+02	1.1085	-5.813186	0.000393	3.931001	0.665930	-0.000039
1900	1.8895e+02	1.0992	-5.857586	0.000446	4.463324	0.756107	-0.000045
1901	1.8905e+02	1.0905	-5.899950	0.000426	4.258584	0.721424	-0.000043
1902	1.8915e+02	1.0793	-5.943943	0.000442	4.422376	0.749171	-0.000044
1903	1.8925e+02	1.0716	-5.985491	0.000418	4.176688	0.707550	-0.000042
1904	1.8935e+02	1.0586	-6.025818	0.000405	4.053844	0.686740	-0.000041
1905	1.8945e+02	1.0509	-6.072255	0.000467	4.668063	0.790791	-0.000047
1906	1.8955e+02	1.0406	-6.112582	0.000405	4.053844	0.686740	-0.000041
1907	1.8965e+02	1.0310	-6.157797	0.000455	4.545220	0.769981	-0.000045
1908	1.8975e+02	1.0214	-6.200161	0.000426	4.258584	0.721424	-0.000043
1909	1.8985e+02	1.0090	-6.243339	0.000434	4.340480	0.735297	-0.000043
1910	1.8995e+02	1.0004	-6.286925	0.000438	4.381428	0.742234	-0.000044
1911	1.9004e+02	0.9899	-6.328067	0.000414	4.135740	0.700613	-0.000041
1912	1.9014e+02	0.9794	-6.370430	0.000426	4.258584	0.721424	-0.000043
1913	1.9024e+02	0.9707	-6.413608	0.000434	4.340480	0.735297	-0.000043
1914	1.9034e+02	0.9597	-6.457601	0.000442	4.422376	0.749171	-0.000044
1915	1.9044e+02	0.9494	-6.500372	0.000430	4.299532	0.728360	-0.000043
1916	1.9054e+02	0.9415	-6.543551	0.000434	4.340480	0.735297	-0.000043
1917	1.9064e+02	0.9303	-6.586322	0.000430	4.299532	0.728360	-0.000043
1918	1.9074e+02	0.9229	-6.630315	0.000442	4.422376	0.749171	-0.000044
1919	1.9084e+02	0.9110	-6.674308	0.000442	4.422376	0.749171	-0.000044
1920	1.9094e+02	0.9028	-6.718301	0.000442	4.422376	0.749171	-0.000044
1921	1.9104e+02	0.8924	-6.758628	0.000405	4.053844	0.686740	-0.000041
1922	1.9114e+02	0.8818	-6.803435	0.000450	4.504272	0.763044	-0.000045
1923	1.9124e+02	0.8724	-6.845392	0.000422	4.217636	0.714487	-0.000042
1924	1.9134e+02	0.8593	-6.888570	0.000434	4.340480	0.735297	-0.000043
1925	1.9144e+02	0.8498	-6.933378	0.000450	4.504272	0.763044	-0.000045
1926	1.9154e+02	0.8421	-6.977371	0.000442	4.422376	0.749171	-0.000044
1927	1.9164e+02	0.8313	-7.021364	0.000442	4.422376	0.749171	-0.000044
1928	1.9174e+02	0.8217	-7.068208	0.000471	4.709011	0.797728	-0.000047
1929	1.9184e+02	0.8121	-7.105683	0.000377	3.767209	0.638182	-0.000038
1930	1.9194e+02	0.8019	-7.150491	0.000450	4.504272	0.763044	-0.000045
1931	1.9203e+02	0.7933	-7.194484	0.000442	4.422376	0.749171	-0.000044
1932	1.9213e+02	0.7813	-7.241736	0.000475	4.749959	0.804665	-0.000047
1933	1.9223e+02	0.7729	-7.286136	0.000446	4.463324	0.756107	-0.000045
1934	1.9233e+02	0.7607	-7.329315	0.000434	4.340480	0.735297	-0.000043
1935	1.9243e+02	0.7518	-7.373715	0.000446	4.463324	0.756107	-0.000045
1936	1.9253e+02	0.7449	-7.416078	0.000426	4.258584	0.721424	-0.000043
1937	1.9263e+02	0.7341	-7.459664	0.000438	4.381428	0.742234	-0.000044
1938	1.9273e+02	0.7219	-7.504472	0.000450	4.504272	0.763044	-0.000045
1939	1.9283e+02	0.7112	-7.548465	0.000442	4.422376	0.749171	-0.000044
1940	1.9293e+02	0.7005	-7.590828	0.000426	4.258584	0.721424	-0.000043
1941	1.9303e+02	0.6935	-7.638080	0.000475	4.749959	0.804665	-0.000047
1942	1.9313e+02	0.6822	-7.679222	0.000414	4.135740	0.700613	-0.000041
1943	1.9323e+02	0.6730	-7.724844	0.000459	4.586167	0.776918	-0.000046
1944	1.9333e+02	0.6638	-7.770059	0.000455	4.545220	0.769981	-0.000045
1945	1.9343e+02	0.6530	-7.814052	0.000442	4.422376	0.749171	-0.000044
1946	1.9353e+02	0.6405	-7.860489	0.000467	4.668063	0.790791	-0.000047
1947	1.9363e+02	0.6326	-7.902038	0.000418	4.176688	0.707550	-0.000042
1948	1.9373e+02	0.6225	-7.949290	0.000475	4.749959	0.804665	-0.000047
1949	1.9383e+02	0.6130	-7.996134	0.000471	4.709011	0.797728	-0.000047
1950	1.9393e+02	0.6047	-8.040535	0.000446	4.463324	0.756107	-0.000045
1951	1.9403e+02	0.5923	-8.089416	0.000491	4.913751	0.832412	-0.000049
1952	1.9412e+02	0.5839	-8.134631	0.000455	4.545220	0.769981	-0.000045
1953	1.9422e+02	0.5721	-8.174550	0.000401	4.012897	0.679803	-0.000040
1954	1.9432e+02	0.5634	-8.219765	0.000455	4.545220	0.769981	-0.000045
1955	1.9442e+02	0.5518	-8.263758	0.000442	4.422376	0.749171	-0.000044
1956	1.9452e+02	0.5418	-8.306122	0.000426	4.258584	0.721424	-0.000043
1957	1.9462e+02	0.5316	-8.351337	0.000455	4.545220	0.769981	-0.000045
1958	1.9472e+02	0.5210	-8.397367	0.000463	4.627115	0.783855	-0.000046
1959	1.9482e+02	0.5093	-8.440952	0.000438	4.381428	0.742234	-0.000044
1960	1.9492e+02	0.5020	-8.487389	0.000467	4.668063	0.790791	-0.000047
1961	1.9502e+02	0.4908	-8.534641	0.000475	4.749959	0.804665	-0.000047
1962	1.9512e+02	0.4856	-8.581486	0.000471	4.709011	0.797728	-0.000047
1963	1.9522e+02	0.4743	-8.624257	0.000430	4.299532	0.728360	-0.000043
1964	1.9532e+02	0.4614	-8.668249	0.000442	4.422376	0.749171	-0.000044
1965	1.9542e+02	0.4524	-8.715909	0.000479	4.790907	0.811602	-0.000048
1966	1.9552e+02	0.4430	-8.760716	0.000450	4.504272	0.763044	-0.000045
1967	1.9562e+02	0.4348	-8.804709	0.000442	4.422376	0.749171	-0.000044
1968	1.9572e+02	0.4234	-8.846258	0.000418	4.176688	0.707550	-0.000042
1969	1.9582e+02	0.4143	-8.891473	0.000455	4.545220	0.769981	-0.000045
1970	1.9592e+02	0.4025	-8.933022	0.000418	4.176688	0.707550	-0.000042
1971	1.9601e+02	0.3958	-8.979052	0.000463	4.627115	0.783855	-0.000046
1972	1.9611e+02	0.3809	-9.027118	0.000483	4.831855	0.818538	-0.000048
1973	1.9621e+02	0.3726	-9.070704	0.000438	4.381428	0.742234	-0.000044
1974	1.9631e+02	0.3608	-9.116326	0.000459	4.586167	0.776918	-0.000046
1975	1.9641e+02	0.3521	-9.163985	0.000479	4.790907	0.811602	-0.000048
1976	1.9651e+02	0.3461	-9.207978	0.000442	4.422376	0.749171	-0.000044
1977	1.9661e+02	0.3363	-9.251564	0.000438	4.381428	0.742234	-0.000044
1978	1.9671e+02	0.3240	-9.300445	0.000491	4.913751	0.832412	-0.000049
1979	1.9681e+02	0.3164	-9.345253	0.000450	4.504272	0.763044	-0.000045
1980	1.9691e+02	0.3027	-9.394134	0.000491	4.913751	0.832412	-0.000049
1981	1.9701e+02	0.2942	-9.438127	0.000442	4.422376	0.749171	-0.000044
1982	1.9711e+02	0.2844	-9.484157	0.000463	4.627115	0.783855	-0.000046
1983	1.9721e+02	0.2763	-9.530594	0.000467	4.668063	0.790791	-0.000047
1984	1.9731e+02	0.2658	-9.576623	0.000463	4.627115	0.783855	-0.000046
1985	1.9741e+02	0.2525	-9.618987	0.000426	4.258584	0.721424	-0.000043
1986	1.9751e+02	0.2428	-9.667053	0.000483	4.831855	0.818538	-0.000048
1987	1.9761e+02	0.2351	-9.714305	0.000475	4.749959	0.804665	-0.000047
1988	1.9771e+02	0.2256	-9.757891	0.000438	4.381428	0.742234	-0.000044
1989	1.9781e+02	0.2179	-9.802291	0.000446	4.463324	0.756107	-0.000045
1990	1.9791e+02	0.2067	-9.854024	0.000520	5.200386	0.880969	-0.000052
1991	1.9800e+02	0.1952	-9.896795	0.000430	4.299532	0.728360	-0.000043
1992	1.9810e+02	0.1848	-9.941195	0.000446	4.463324	0.756107	-0.000045
1993	1.9820e+02	0.1740	-9.994557	0.000536	5.364178	0.908716	-0.000054
1994	1.9830e+02	0.1635	-10.034476	0.000401	4.012897	0.679803	-0.000040
1995	1.9840e+02	0.1571	-10.083765	0.000495	4.954699	0.839349	-0.000050
1996	1.9850e+02	0.1449	-10.130609	0.000471	4.709011	0.797728	-0.000047
1997	1.9860e+02	0.1321	-10.176639	0.000463	4.627115	0.783855	-0.000046
1998	1.9870e+02	0.1245	-10.221039	0.000446	4.463324	0.756107	-0.000045
1999	1.9880e+02	0.1137	-10.270328	0.000495	4.954699	0.839349	-0.000050
2000	1.9890e+02	0.1051	-10.320024	0.000500	4.995647	0.846285	-0.000050
2001	1.9900e+02	0.0954	-10.360350	0.000405	4.053844	0.686740	-0.000041
2002	1.9910e+02	0.0852	-10.408010	0.000479	4.790907	0.811602	-0.000048
2003	1.9920e+02	0.0751	-10.453632	0.000459	4.586167	0.776918	-0.000046
2004	1.9930e+02	0.0660	-10.497625	0.000442	4.422376	0.749171	-0.000044
2005	1.9940e+02	0.0580	-10.544062	0.000467	4.668063	0.790791	-0.000047
2006	1.9950e+02	0.0436	-10.592943	0.000491	4.913751	0.832412	-0.000049
2007	1.9960e+02	0.0319	-10.640602	0.000479	4.790907	0.811602	-0.000048
2008	1.9970e+02	0.0256	-10.687039	0.000467	4.668063	0.790791	-0.000047
2009	1.9980e+02	0.0125	-10.731847	0.000450	4.504272	0.763044	-0.000045
2010	1.9990e+02	0.0037	-10.785209	0.000536	5.364178	0.908716	-0.000054
2011	2.0000e+02	-0.0035	-10.824314	0.000536	5.364178	0.908716	-0.000039

PMax (uC/cm2):	3.61e+01
Pr (uC/cm2):	7.37e+00
-Pr (uC/cm2):	0.00e+00
PLoss (uC/cm2):	0.00e+00
C (Max-Eff) (nF):	3.62e-01
K (Eff):	6.13e+02
Vert. (+/-Pr) Shift (uC/cm2):	3.69e+00
Offset (uC/cm2):	1.82e+01

A (Loop Area - uC/cm2·Volts):	-6.78e-02



Hysteresis Version: 5.48.1 - Radiant Technologies, Inc., 1999 - 9/12/24

