»»»»»»»»»»»»»»»»»»»»»»»»»»»»»»»»»»»» Hysteresis ««««««««««««««««««««««««««««««««««««
»»»  Executed Version:	5.48.1
»»»  Vision Version:	5.48.4 (R)
»»»  Vision Compiled:	9/18/24
»»»  Driver Version:	5.47.0
»»»  Windows Version:	Windows 8 or 8.1
»»»  Processor Information:	x86 (AMD or Intel) - 32 Processors
»»»  Tester Name:	PMF21124-494 (100V)
»»»  Tester S/N:	PMF21124-494
»»»  Internal Amp Type:	100V RevK 270k
»»»  Internal Amp S/N:	iAB2-596/K     
»»»  Execution Count:	1
»»»»»»»»»»»»»»»»»»»»»»»»»»»»»»»»»»»»»»»»»»««««««««««««««««««««««««««««««««««««««««««

Stored:	6/27/2025 - 12:7:20
Configured:	06/27/25 11:23:28 AM
Executed:	06/27/25 12:06:48 PM

»»»»»»»»»»»»»»»»»»»»»»»»»»»»»»»»»»» Sample Info ««««««««««««««««««««««««««««««««««««
Sample Name:	
Lot Name:	
Wafer Name:	
Die Row/Column:	0/0
Capacitor Number:	0
Sample Area (cm2):	1.00e-04
Sample Thickness (microns):	1.50e-01

Amplifier:	Internal

»»»»»»»»»»»»»»»»»»»»»»»»»»»»»»»»»»» Tester Info «««««««««««««««««««««««««««««««««««
Tester Name:	PMF21124-494 (100V)
Tester Serial Number:	PMF21124-494
Return Signal Amp. Level:	1.9 [Index: 2]

»»»»»»»»»»»»»»»»»»»»»»»»»»»»»»»» Hysteresis Info ««««««««««««««««««««««««««««««««««
Task Name:	Hyst-1276
Volts:	10.00
Field:	666.67 (kV/cm)
DCBias:	0.00
DCField:	0.00 (kV/cm)
Hysteresis Period (ms):	2.00e+02
Preset:	Enabled
Preset Delay (ms):	1.00e+03
Profile:	Standard Monopolar

»»»»»»»»»»»»»»»»»»»»»»»»»»»»»»»»»»»»»» Data «««««««««««««««««««««««««««««««««««««««
Points:	2011

Valid Data

Point	Time (ms)	Drive Voltage	Measured Polarization (uC/cm2)	Capacitance (uF)	Normalized Capacitance (uF/cm2)	Dielectric Constant	Instantaneous Current (mA)
   1	0.0000e+00	-0.0050	-10.637954	0.000143	1.432838	0.242729	0.000014
   2	9.9500e-02	0.0057	-10.623697	0.000143	1.432838	0.242729	0.000014
   3	1.9900e-01	0.0156	-10.599664	0.000242	2.415356	0.409172	0.000024
   4	2.9850e-01	0.0246	-10.578075	0.000217	2.169727	0.367562	0.000022
   5	3.9800e-01	0.0354	-10.558523	0.000197	1.965035	0.332886	0.000020
   6	4.9750e-01	0.0465	-10.536526	0.000221	2.210665	0.374497	0.000022
   7	5.9700e-01	0.0549	-10.512086	0.000246	2.456294	0.416108	0.000025
   8	6.9650e-01	0.0666	-10.490904	0.000213	2.128788	0.360627	0.000021
   9	7.9600e-01	0.0748	-10.466056	0.000250	2.497233	0.423043	0.000025
  10	8.9550e-01	0.0850	-10.446096	0.000201	2.005974	0.339821	0.000020
  11	9.9500e-01	0.0957	-10.419619	0.000266	2.660986	0.450783	0.000027
  12	1.0945e+00	0.1052	-10.397215	0.000225	2.251603	0.381432	0.000023
  13	1.1940e+00	0.1136	-10.373996	0.000233	2.333480	0.395302	0.000023
  14	1.2935e+00	0.1256	-10.352000	0.000221	2.210665	0.374497	0.000022
  15	1.3930e+00	0.1328	-10.329189	0.000229	2.292541	0.388367	0.000023
  16	1.4925e+00	0.1431	-10.303119	0.000262	2.620047	0.443848	0.000026
  17	1.5920e+00	0.1570	-10.278678	0.000246	2.456294	0.416108	0.000025
  18	1.6915e+00	0.1643	-10.258718	0.000201	2.005974	0.339821	0.000020
  19	1.7910e+00	0.1724	-10.235093	0.000237	2.374418	0.402237	0.000024
  20	1.8905e+00	0.1860	-10.209837	0.000254	2.538171	0.429978	0.000025
  21	1.9900e+00	0.1962	-10.187434	0.000225	2.251603	0.381432	0.000023
  22	2.0895e+00	0.2082	-10.163808	0.000237	2.374418	0.402237	0.000024
  23	2.1890e+00	0.2161	-10.143033	0.000209	2.087850	0.353691	0.000021
  24	2.2885e+00	0.2257	-10.120629	0.000225	2.251603	0.381432	0.000023
  25	2.3880e+00	0.2352	-10.092115	0.000287	2.865677	0.485459	0.000029
  26	2.4875e+00	0.2446	-10.069304	0.000229	2.292541	0.388367	0.000023
  27	2.5870e+00	0.2545	-10.045271	0.000242	2.415356	0.409172	0.000024
  28	2.6865e+00	0.2637	-10.022052	0.000233	2.333480	0.395302	0.000023
  29	2.7860e+00	0.2737	-10.002907	0.000192	1.924097	0.325951	0.000019
  30	2.8855e+00	0.2847	-9.978874	0.000242	2.415356	0.409172	0.000024
  31	2.9850e+00	0.2975	-9.951175	0.000278	2.783800	0.471589	0.000028
  32	3.0845e+00	0.3048	-9.932437	0.000188	1.883159	0.319016	0.000019
  33	3.1840e+00	0.3155	-9.907589	0.000250	2.497233	0.423043	0.000025
  34	3.2835e+00	0.3237	-9.890073	0.000176	1.760344	0.298210	0.000018
  35	3.3830e+00	0.3333	-9.867262	0.000229	2.292541	0.388367	0.000023
  36	3.4825e+00	0.3443	-9.845673	0.000217	2.169727	0.367562	0.000022
  37	3.5820e+00	0.3545	-9.822455	0.000233	2.333480	0.395302	0.000023
  38	3.6815e+00	0.3651	-9.800865	0.000217	2.169727	0.367562	0.000022
  39	3.7810e+00	0.3722	-9.784164	0.000168	1.678468	0.284340	0.000017
  40	3.8805e+00	0.3844	-9.760131	0.000242	2.415356	0.409172	0.000024
  41	3.9800e+00	0.3961	-9.733654	0.000266	2.660986	0.450783	0.000027
  42	4.0795e+00	0.4025	-9.707177	0.000266	2.660986	0.450783	0.000027
  43	4.1790e+00	0.4144	-9.688032	0.000192	1.924097	0.325951	0.000019
  44	4.2785e+00	0.4255	-9.666035	0.000221	2.210665	0.374497	0.000022
  45	4.3780e+00	0.4359	-9.644039	0.000221	2.210665	0.374497	0.000022
  46	4.4775e+00	0.4423	-9.619598	0.000246	2.456294	0.416108	0.000025
  47	4.5770e+00	0.4526	-9.595565	0.000242	2.415356	0.409172	0.000024
  48	4.6765e+00	0.4658	-9.571532	0.000242	2.415356	0.409172	0.000024
  49	4.7760e+00	0.4771	-9.545869	0.000258	2.579109	0.436913	0.000026
  50	4.8755e+00	0.4820	-9.524280	0.000217	2.169727	0.367562	0.000022
  51	4.9750e+00	0.4947	-9.498210	0.000262	2.620047	0.443848	0.000026
  52	5.0745e+00	0.5061	-9.476621	0.000217	2.169727	0.367562	0.000022
  53	5.1740e+00	0.5120	-9.455032	0.000217	2.169727	0.367562	0.000022
  54	5.2735e+00	0.5241	-9.426110	0.000291	2.906615	0.492394	0.000029
  55	5.3730e+00	0.5330	-9.400448	0.000258	2.579109	0.436913	0.000026
  56	5.4725e+00	0.5426	-9.375192	0.000254	2.538171	0.429978	0.000025
  57	5.5720e+00	0.5526	-9.348715	0.000266	2.660986	0.450783	0.000027
  58	5.6715e+00	0.5599	-9.321423	0.000274	2.742862	0.464653	0.000027
  59	5.7710e+00	0.5736	-9.296575	0.000250	2.497233	0.423043	0.000025
  60	5.8705e+00	0.5837	-9.272135	0.000246	2.456294	0.416108	0.000025
  61	5.9700e+00	0.5930	-9.247287	0.000250	2.497233	0.423043	0.000025
  62	6.0695e+00	0.6020	-9.218773	0.000287	2.865677	0.485459	0.000029
  63	6.1690e+00	0.6146	-9.195554	0.000233	2.333480	0.395302	0.000023
  64	6.2685e+00	0.6238	-9.169485	0.000262	2.620047	0.443848	0.000026
  65	6.3680e+00	0.6308	-9.147081	0.000225	2.251603	0.381432	0.000023
  66	6.4675e+00	0.6420	-9.121825	0.000254	2.538171	0.429978	0.000025
  67	6.5670e+00	0.6512	-9.097792	0.000242	2.415356	0.409172	0.000024
  68	6.6665e+00	0.6624	-9.074574	0.000233	2.333480	0.395302	0.000023
  69	6.7660e+00	0.6725	-9.051763	0.000229	2.292541	0.388367	0.000023
  70	6.8655e+00	0.6808	-9.025693	0.000262	2.620047	0.443848	0.000026
  71	6.9650e+00	0.6949	-8.999623	0.000262	2.620047	0.443848	0.000026
  72	7.0645e+00	0.7020	-8.980478	0.000192	1.924097	0.325951	0.000019
  73	7.1640e+00	0.7127	-8.956037	0.000246	2.456294	0.416108	0.000025
  74	7.2635e+00	0.7219	-8.931189	0.000250	2.497233	0.423043	0.000025
  75	7.3630e+00	0.7302	-8.904712	0.000266	2.660986	0.450783	0.000027
  76	7.4625e+00	0.7439	-8.881086	0.000237	2.374418	0.402237	0.000024
  77	7.5620e+00	0.7523	-8.861126	0.000201	2.005974	0.339821	0.000020
  78	7.6615e+00	0.7624	-8.830576	0.000307	3.070368	0.520134	0.000031
  79	7.7610e+00	0.7706	-8.812245	0.000184	1.842221	0.312081	0.000018
  80	7.8605e+00	0.7828	-8.784953	0.000274	2.742862	0.464653	0.000027
  81	7.9600e+00	0.7924	-8.759291	0.000258	2.579109	0.436913	0.000026
  82	8.0595e+00	0.7995	-8.737294	0.000221	2.210665	0.374497	0.000022
  83	8.1590e+00	0.8102	-8.714076	0.000233	2.333480	0.395302	0.000023
  84	8.2585e+00	0.8221	-8.692079	0.000221	2.210665	0.374497	0.000022
  85	8.3580e+00	0.8324	-8.666009	0.000262	2.620047	0.443848	0.000026
  86	8.4575e+00	0.8440	-8.639939	0.000262	2.620047	0.443848	0.000026
  87	8.5570e+00	0.8511	-8.617535	0.000225	2.251603	0.381432	0.000023
  88	8.6565e+00	0.8606	-8.590651	0.000270	2.701924	0.457718	0.000027
  89	8.7560e+00	0.8709	-8.568247	0.000225	2.251603	0.381432	0.000023
  90	8.8555e+00	0.8828	-8.547880	0.000205	2.046912	0.346756	0.000020
  91	8.9550e+00	0.8929	-8.521810	0.000262	2.620047	0.443848	0.000026
  92	9.0545e+00	0.9014	-8.492889	0.000291	2.906615	0.492394	0.000029
  93	9.1540e+00	0.9099	-8.468855	0.000242	2.415356	0.409172	0.000024
  94	9.2535e+00	0.9209	-8.445229	0.000237	2.374418	0.402237	0.000024
  95	9.3530e+00	0.9322	-8.426084	0.000192	1.924097	0.325951	0.000019
  96	9.4525e+00	0.9416	-8.402051	0.000242	2.415356	0.409172	0.000024
  97	9.5520e+00	0.9525	-8.377611	0.000246	2.456294	0.416108	0.000025
  98	9.6515e+00	0.9612	-8.352763	0.000250	2.497233	0.423043	0.000025
  99	9.7510e+00	0.9720	-8.335654	0.000172	1.719406	0.291275	0.000017
 100	9.8505e+00	0.9805	-8.306326	0.000295	2.947553	0.499329	0.000029
 101	9.9500e+00	0.9881	-8.288403	0.000180	1.801283	0.305146	0.000018
 102	1.0050e+01	1.0021	-8.261111	0.000274	2.742862	0.464653	0.000027
 103	1.0149e+01	1.0117	-8.235448	0.000258	2.579109	0.436913	0.000026
 104	1.0248e+01	1.0212	-8.213859	0.000217	2.169727	0.367562	0.000022
 105	1.0348e+01	1.0306	-8.191455	0.000225	2.251603	0.381432	0.000023
 106	1.0447e+01	1.0404	-8.167422	0.000242	2.415356	0.409172	0.000024
 107	1.0547e+01	1.0493	-8.141759	0.000258	2.579109	0.436913	0.000026
 108	1.0646e+01	1.0593	-8.119355	0.000225	2.251603	0.381432	0.000023
 109	1.0746e+01	1.0724	-8.098988	0.000205	2.046912	0.346756	0.000020
 110	1.0845e+01	1.0837	-8.072918	0.000262	2.620047	0.443848	0.000026
 111	1.0945e+01	1.0905	-8.046441	0.000266	2.660986	0.450783	0.000027
 112	1.1044e+01	1.0991	-8.026481	0.000201	2.005974	0.339821	0.000020
 113	1.1144e+01	1.1105	-8.004077	0.000225	2.251603	0.381432	0.000023
 114	1.1243e+01	1.1218	-7.976786	0.000274	2.742862	0.464653	0.000027
 115	1.1343e+01	1.1305	-7.953160	0.000237	2.374418	0.402237	0.000024
 116	1.1443e+01	1.1407	-7.928312	0.000250	2.497233	0.423043	0.000025
 117	1.1542e+01	1.1491	-7.905093	0.000233	2.333480	0.395302	0.000023
 118	1.1642e+01	1.1611	-7.877394	0.000278	2.783800	0.471589	0.000028
 119	1.1741e+01	1.1697	-7.856212	0.000213	2.128788	0.360627	0.000021
 120	1.1841e+01	1.1803	-7.827291	0.000291	2.906615	0.492394	0.000029
 121	1.1940e+01	1.1887	-7.800814	0.000266	2.660986	0.450783	0.000027
 122	1.2040e+01	1.1991	-7.776373	0.000246	2.456294	0.416108	0.000025
 123	1.2139e+01	1.2136	-7.749081	0.000274	2.742862	0.464653	0.000027
 124	1.2239e+01	1.2238	-7.726270	0.000229	2.292541	0.388367	0.000023
 125	1.2338e+01	1.2322	-7.704273	0.000221	2.210665	0.374497	0.000022
 126	1.2438e+01	1.2415	-7.677796	0.000266	2.660986	0.450783	0.000027
 127	1.2537e+01	1.2511	-7.652948	0.000250	2.497233	0.423043	0.000025
 128	1.2636e+01	1.2597	-7.629322	0.000237	2.374418	0.402237	0.000024
 129	1.2736e+01	1.2676	-7.607733	0.000217	2.169727	0.367562	0.000022
 130	1.2835e+01	1.2804	-7.582885	0.000250	2.497233	0.423043	0.000025
 131	1.2935e+01	1.2908	-7.558852	0.000242	2.415356	0.409172	0.000024
 132	1.3034e+01	1.2987	-7.536041	0.000229	2.292541	0.388367	0.000023
 133	1.3134e+01	1.3094	-7.512008	0.000242	2.415356	0.409172	0.000024
 134	1.3233e+01	1.3201	-7.488382	0.000237	2.374418	0.402237	0.000024
 135	1.3333e+01	1.3280	-7.468015	0.000205	2.046912	0.346756	0.000020
 136	1.3432e+01	1.3394	-7.447240	0.000209	2.087850	0.353691	0.000021
 137	1.3532e+01	1.3513	-7.418726	0.000287	2.865677	0.485459	0.000029
 138	1.3632e+01	1.3607	-7.399988	0.000188	1.883159	0.319016	0.000019
 139	1.3731e+01	1.3681	-7.378807	0.000213	2.128788	0.360627	0.000021
 140	1.3831e+01	1.3810	-7.356810	0.000221	2.210665	0.374497	0.000022
 141	1.3930e+01	1.3873	-7.336850	0.000201	2.005974	0.339821	0.000020
 142	1.4030e+01	1.3992	-7.314854	0.000221	2.210665	0.374497	0.000022
 143	1.4129e+01	1.4082	-7.293672	0.000213	2.128788	0.360627	0.000021
 144	1.4229e+01	1.4179	-7.272490	0.000213	2.128788	0.360627	0.000021
 145	1.4328e+01	1.4283	-7.255789	0.000168	1.678468	0.284340	0.000017
 146	1.4428e+01	1.4394	-7.230941	0.000250	2.497233	0.423043	0.000025
 147	1.4527e+01	1.4473	-7.206908	0.000242	2.415356	0.409172	0.000024
 148	1.4627e+01	1.4571	-7.184097	0.000229	2.292541	0.388367	0.000023
 149	1.4726e+01	1.4703	-7.162915	0.000213	2.128788	0.360627	0.000021
 150	1.4825e+01	1.4796	-7.138882	0.000242	2.415356	0.409172	0.000024
 151	1.4925e+01	1.4861	-7.118922	0.000201	2.005974	0.339821	0.000020
 152	1.5024e+01	1.4971	-7.095704	0.000233	2.333480	0.395302	0.000023
 153	1.5124e+01	1.5078	-7.072485	0.000233	2.333480	0.395302	0.000023
 154	1.5223e+01	1.5169	-7.050081	0.000225	2.251603	0.381432	0.000023
 155	1.5323e+01	1.5283	-7.022789	0.000274	2.742862	0.464653	0.000027
 156	1.5422e+01	1.5369	-7.006903	0.000160	1.596591	0.270470	0.000016
 157	1.5522e+01	1.5465	-6.982462	0.000246	2.456294	0.416108	0.000025
 158	1.5621e+01	1.5588	-6.955985	0.000266	2.660986	0.450783	0.000027
 159	1.5721e+01	1.5677	-6.933581	0.000225	2.251603	0.381432	0.000023
 160	1.5820e+01	1.5775	-6.908733	0.000250	2.497233	0.423043	0.000025
 161	1.5920e+01	1.5865	-6.888366	0.000205	2.046912	0.346756	0.000020
 162	1.6020e+01	1.5966	-6.863111	0.000254	2.538171	0.429978	0.000025
 163	1.6119e+01	1.6071	-6.840300	0.000229	2.292541	0.388367	0.000023
 164	1.6218e+01	1.6154	-6.816674	0.000237	2.374418	0.402237	0.000024
 165	1.6318e+01	1.6285	-6.793455	0.000233	2.333480	0.395302	0.000023
 166	1.6418e+01	1.6370	-6.771866	0.000217	2.169727	0.367562	0.000022
 167	1.6517e+01	1.6459	-6.752314	0.000197	1.965035	0.332886	0.000020
 168	1.6616e+01	1.6573	-6.724615	0.000278	2.783800	0.471589	0.000028
 169	1.6716e+01	1.6673	-6.702618	0.000221	2.210665	0.374497	0.000022
 170	1.6816e+01	1.6755	-6.678992	0.000237	2.374418	0.402237	0.000024
 171	1.6915e+01	1.6867	-6.657810	0.000213	2.128788	0.360627	0.000021
 172	1.7015e+01	1.7019	-6.635406	0.000225	2.251603	0.381432	0.000023
 173	1.7114e+01	1.7055	-6.609337	0.000262	2.620047	0.443848	0.000026
 174	1.7213e+01	1.7194	-6.589784	0.000197	1.965035	0.332886	0.000020
 175	1.7313e+01	1.7274	-6.566158	0.000237	2.374418	0.402237	0.000024
 176	1.7413e+01	1.7371	-6.544569	0.000217	2.169727	0.367562	0.000022
 177	1.7512e+01	1.7480	-6.521758	0.000229	2.292541	0.388367	0.000023
 178	1.7611e+01	1.7575	-6.500576	0.000213	2.128788	0.360627	0.000021
 179	1.7711e+01	1.7681	-6.472062	0.000287	2.865677	0.485459	0.000029
 180	1.7811e+01	1.7779	-6.447622	0.000246	2.456294	0.416108	0.000025
 181	1.7910e+01	1.7845	-6.428069	0.000197	1.965035	0.332886	0.000020
 182	1.8009e+01	1.7947	-6.406480	0.000217	2.169727	0.367562	0.000022
 183	1.8109e+01	1.8072	-6.377966	0.000287	2.865677	0.485459	0.000029
 184	1.8209e+01	1.8166	-6.358414	0.000197	1.965035	0.332886	0.000020
 185	1.8308e+01	1.8287	-6.333158	0.000254	2.538171	0.429978	0.000025
 186	1.8407e+01	1.8372	-6.305866	0.000274	2.742862	0.464653	0.000027
 187	1.8507e+01	1.8472	-6.288351	0.000176	1.760344	0.298210	0.000018
 188	1.8607e+01	1.8577	-6.266354	0.000221	2.210665	0.374497	0.000022
 189	1.8706e+01	1.8646	-6.240692	0.000258	2.579109	0.436913	0.000026
 190	1.8805e+01	1.8749	-6.216251	0.000246	2.456294	0.416108	0.000025
 191	1.8905e+01	1.8881	-6.190996	0.000254	2.538171	0.429978	0.000025
 192	1.9005e+01	1.8938	-6.171851	0.000192	1.924097	0.325951	0.000019
 193	1.9104e+01	1.9061	-6.145781	0.000262	2.620047	0.443848	0.000026
 194	1.9203e+01	1.9173	-6.122970	0.000229	2.292541	0.388367	0.000023
 195	1.9303e+01	1.9240	-6.101788	0.000213	2.128788	0.360627	0.000021
 196	1.9402e+01	1.9357	-6.078162	0.000237	2.374418	0.402237	0.000024
 197	1.9502e+01	1.9445	-6.054129	0.000242	2.415356	0.409172	0.000024
 198	1.9602e+01	1.9567	-6.032540	0.000217	2.169727	0.367562	0.000022
 199	1.9701e+01	1.9659	-6.009728	0.000229	2.292541	0.388367	0.000023
 200	1.9800e+01	1.9767	-5.984066	0.000258	2.579109	0.436913	0.000026
 201	1.9900e+01	1.9864	-5.963291	0.000209	2.087850	0.353691	0.000021
 202	2.0000e+01	1.9973	-5.942924	0.000205	2.046912	0.346756	0.000020
 203	2.0099e+01	2.0084	-5.919298	0.000237	2.374418	0.402237	0.000024
 204	2.0198e+01	2.0153	-5.903005	0.000164	1.637530	0.277405	0.000016
 205	2.0298e+01	2.0246	-5.880601	0.000225	2.251603	0.381432	0.000023
 206	2.0398e+01	2.0341	-5.858604	0.000221	2.210665	0.374497	0.000022
 207	2.0497e+01	2.0475	-5.834978	0.000237	2.374418	0.402237	0.000024
 208	2.0596e+01	2.0560	-5.815833	0.000192	1.924097	0.325951	0.000019
 209	2.0696e+01	2.0641	-5.790985	0.000250	2.497233	0.423043	0.000025
 210	2.0796e+01	2.0755	-5.768582	0.000225	2.251603	0.381432	0.000023
 211	2.0895e+01	2.0885	-5.746178	0.000225	2.251603	0.381432	0.000023
 212	2.0994e+01	2.0951	-5.721737	0.000246	2.456294	0.416108	0.000025
 213	2.1094e+01	2.1035	-5.699333	0.000225	2.251603	0.381432	0.000023
 214	2.1194e+01	2.1168	-5.674078	0.000254	2.538171	0.429978	0.000025
 215	2.1293e+01	2.1268	-5.655340	0.000188	1.883159	0.319016	0.000019
 216	2.1392e+01	2.1363	-5.630492	0.000250	2.497233	0.423043	0.000025
 217	2.1492e+01	2.1454	-5.608903	0.000217	2.169727	0.367562	0.000022
 218	2.1591e+01	2.1539	-5.584870	0.000242	2.415356	0.409172	0.000024
 219	2.1691e+01	2.1673	-5.559615	0.000254	2.538171	0.429978	0.000025
 220	2.1791e+01	2.1738	-5.537211	0.000225	2.251603	0.381432	0.000023
 221	2.1890e+01	2.1868	-5.513992	0.000233	2.333480	0.395302	0.000023
 222	2.1989e+01	2.1950	-5.487923	0.000262	2.620047	0.443848	0.000026
 223	2.2089e+01	2.2055	-5.459816	0.000282	2.824738	0.478524	0.000028
 224	2.2189e+01	2.2137	-5.433339	0.000266	2.660986	0.450783	0.000027
 225	2.2288e+01	2.2244	-5.410527	0.000229	2.292541	0.388367	0.000023
 226	2.2387e+01	2.2343	-5.384458	0.000262	2.620047	0.443848	0.000026
 227	2.2487e+01	2.2451	-5.353499	0.000311	3.111306	0.527070	0.000031
 228	2.2587e+01	2.2543	-5.331503	0.000221	2.210665	0.374497	0.000022
 229	2.2686e+01	2.2645	-5.305026	0.000266	2.660986	0.450783	0.000027
 230	2.2785e+01	2.2729	-5.283437	0.000217	2.169727	0.367562	0.000022
 231	2.2885e+01	2.2842	-5.260218	0.000233	2.333480	0.395302	0.000023
 232	2.2985e+01	2.2955	-5.234963	0.000254	2.538171	0.429978	0.000025
 233	2.3084e+01	2.3048	-5.210930	0.000242	2.415356	0.409172	0.000024
 234	2.3183e+01	2.3156	-5.187711	0.000233	2.333480	0.395302	0.000023
 235	2.3283e+01	2.3240	-5.162863	0.000250	2.497233	0.423043	0.000025
 236	2.3383e+01	2.3327	-5.136793	0.000262	2.620047	0.443848	0.000026
 237	2.3482e+01	2.3431	-5.120907	0.000160	1.596591	0.270470	0.000016
 238	2.3581e+01	2.3547	-5.093208	0.000278	2.783800	0.471589	0.000028
 239	2.3681e+01	2.3623	-5.067545	0.000258	2.579109	0.436913	0.000026
 240	2.3780e+01	2.3728	-5.043919	0.000237	2.374418	0.402237	0.000024
 241	2.3880e+01	2.3815	-5.021515	0.000225	2.251603	0.381432	0.000023
 242	2.3980e+01	2.3949	-4.998297	0.000233	2.333480	0.395302	0.000023
 243	2.4079e+01	2.4050	-4.976300	0.000221	2.210665	0.374497	0.000022
 244	2.4178e+01	2.4110	-4.950638	0.000258	2.579109	0.436913	0.000026
 245	2.4278e+01	2.4250	-4.922938	0.000278	2.783800	0.471589	0.000028
 246	2.4378e+01	2.4311	-4.900535	0.000225	2.251603	0.381432	0.000023
 247	2.4477e+01	2.4431	-4.877723	0.000229	2.292541	0.388367	0.000023
 248	2.4576e+01	2.4546	-4.855320	0.000225	2.251603	0.381432	0.000023
 249	2.4676e+01	2.4649	-4.834545	0.000209	2.087850	0.353691	0.000021
 250	2.4776e+01	2.4750	-4.809697	0.000250	2.497233	0.423043	0.000025
 251	2.4875e+01	2.4841	-4.786886	0.000229	2.292541	0.388367	0.000023
 252	2.4974e+01	2.4925	-4.764482	0.000225	2.251603	0.381432	0.000023
 253	2.5074e+01	2.5036	-4.738005	0.000266	2.660986	0.450783	0.000027
 254	2.5174e+01	2.5114	-4.715194	0.000229	2.292541	0.388367	0.000023
 255	2.5273e+01	2.5212	-4.690753	0.000246	2.456294	0.416108	0.000025
 256	2.5372e+01	2.5311	-4.669979	0.000209	2.087850	0.353691	0.000021
 257	2.5472e+01	2.5408	-4.641465	0.000287	2.865677	0.485459	0.000029
 258	2.5572e+01	2.5512	-4.623949	0.000176	1.760344	0.298210	0.000018
 259	2.5671e+01	2.5632	-4.597064	0.000270	2.701924	0.457718	0.000027
 260	2.5770e+01	2.5723	-4.574661	0.000225	2.251603	0.381432	0.000023
 261	2.5870e+01	2.5821	-4.548591	0.000262	2.620047	0.443848	0.000026
 262	2.5970e+01	2.5928	-4.528223	0.000205	2.046912	0.346756	0.000020
 263	2.6069e+01	2.6041	-4.505005	0.000233	2.333480	0.395302	0.000023
 264	2.6169e+01	2.6132	-4.483416	0.000217	2.169727	0.367562	0.000022
 265	2.6268e+01	2.6215	-4.460197	0.000233	2.333480	0.395302	0.000023
 266	2.6367e+01	2.6308	-4.437793	0.000225	2.251603	0.381432	0.000023
 267	2.6467e+01	2.6394	-4.414168	0.000237	2.374418	0.402237	0.000024
 268	2.6567e+01	2.6534	-4.391764	0.000225	2.251603	0.381432	0.000023
 269	2.6666e+01	2.6632	-4.367731	0.000242	2.415356	0.409172	0.000024
 270	2.6765e+01	2.6698	-4.344919	0.000229	2.292541	0.388367	0.000023
 271	2.6865e+01	2.6814	-4.321293	0.000237	2.374418	0.402237	0.000024
 272	2.6965e+01	2.6907	-4.298890	0.000225	2.251603	0.381432	0.000023
 273	2.7064e+01	2.7027	-4.272820	0.000262	2.620047	0.443848	0.000026
 274	2.7163e+01	2.7129	-4.252453	0.000205	2.046912	0.346756	0.000020
 275	2.7263e+01	2.7235	-4.227605	0.000250	2.497233	0.423043	0.000025
 276	2.7363e+01	2.7310	-4.201535	0.000262	2.620047	0.443848	0.000026
 277	2.7462e+01	2.7426	-4.187278	0.000143	1.432838	0.242729	0.000014
 278	2.7561e+01	2.7525	-4.162430	0.000250	2.497233	0.423043	0.000025
 279	2.7661e+01	2.7618	-4.137175	0.000254	2.538171	0.429978	0.000025
 280	2.7761e+01	2.7715	-4.117215	0.000201	2.005974	0.339821	0.000020
 281	2.7860e+01	2.7801	-4.096033	0.000213	2.128788	0.360627	0.000021
 282	2.7959e+01	2.7901	-4.069963	0.000262	2.620047	0.443848	0.000026
 283	2.8059e+01	2.8014	-4.047967	0.000221	2.210665	0.374497	0.000022
 284	2.8159e+01	2.8125	-4.019045	0.000291	2.906615	0.492394	0.000029
 285	2.8258e+01	2.8208	-3.995419	0.000237	2.374418	0.402237	0.000024
 286	2.8358e+01	2.8310	-3.968127	0.000274	2.742862	0.464653	0.000027
 287	2.8457e+01	2.8427	-3.947353	0.000209	2.087850	0.353691	0.000021
 288	2.8556e+01	2.8521	-3.921690	0.000258	2.579109	0.436913	0.000026
 289	2.8656e+01	2.8616	-3.895213	0.000266	2.660986	0.450783	0.000027
 290	2.8756e+01	2.8706	-3.873624	0.000217	2.169727	0.367562	0.000022
 291	2.8855e+01	2.8841	-3.847961	0.000258	2.579109	0.436913	0.000026
 292	2.8954e+01	2.8912	-3.822706	0.000254	2.538171	0.429978	0.000025
 293	2.9054e+01	2.9021	-3.797858	0.000250	2.497233	0.423043	0.000025
 294	2.9154e+01	2.9124	-3.775454	0.000225	2.251603	0.381432	0.000023
 295	2.9253e+01	2.9227	-3.751014	0.000246	2.456294	0.416108	0.000025
 296	2.9352e+01	2.9308	-3.729425	0.000217	2.169727	0.367562	0.000022
 297	2.9452e+01	2.9432	-3.705392	0.000242	2.415356	0.409172	0.000024
 298	2.9552e+01	2.9513	-3.682988	0.000225	2.251603	0.381432	0.000023
 299	2.9651e+01	2.9612	-3.662621	0.000205	2.046912	0.346756	0.000020
 300	2.9750e+01	2.9708	-3.635736	0.000270	2.701924	0.457718	0.000027
 301	2.9850e+01	2.9835	-3.611295	0.000246	2.456294	0.416108	0.000025
 302	2.9950e+01	2.9920	-3.590928	0.000205	2.046912	0.346756	0.000020
 303	3.0049e+01	2.9980	-3.571783	0.000192	1.924097	0.325951	0.000019
 304	3.0148e+01	3.0109	-3.548565	0.000233	2.333480	0.395302	0.000023
 305	3.0248e+01	3.0191	-3.524124	0.000246	2.456294	0.416108	0.000025
 306	3.0348e+01	3.0325	-3.508645	0.000156	1.555653	0.263535	0.000016
 307	3.0447e+01	3.0421	-3.487056	0.000217	2.169727	0.367562	0.000022
 308	3.0547e+01	3.0504	-3.467096	0.000201	2.005974	0.339821	0.000020
 309	3.0646e+01	3.0630	-3.446322	0.000209	2.087850	0.353691	0.000021
 310	3.0745e+01	3.0716	-3.427177	0.000192	1.924097	0.325951	0.000019
 311	3.0845e+01	3.0810	-3.405995	0.000213	2.128788	0.360627	0.000021
 312	3.0945e+01	3.0904	-3.386850	0.000192	1.924097	0.325951	0.000019
 313	3.1044e+01	3.1005	-3.366483	0.000205	2.046912	0.346756	0.000020
 314	3.1143e+01	3.1120	-3.344486	0.000221	2.210665	0.374497	0.000022
 315	3.1243e+01	3.1207	-3.323304	0.000213	2.128788	0.360627	0.000021
 316	3.1343e+01	3.1319	-3.300493	0.000229	2.292541	0.388367	0.000023
 317	3.1442e+01	3.1400	-3.274830	0.000258	2.579109	0.436913	0.000026
 318	3.1541e+01	3.1495	-3.256907	0.000180	1.801283	0.305146	0.000018
 319	3.1641e+01	3.1607	-3.232874	0.000242	2.415356	0.409172	0.000024
 320	3.1741e+01	3.1697	-3.214136	0.000188	1.883159	0.319016	0.000019
 321	3.1840e+01	3.1794	-3.190918	0.000233	2.333480	0.395302	0.000023
 322	3.1939e+01	3.1889	-3.169736	0.000213	2.128788	0.360627	0.000021
 323	3.2039e+01	3.1989	-3.144888	0.000250	2.497233	0.423043	0.000025
 324	3.2139e+01	3.2104	-3.120855	0.000242	2.415356	0.409172	0.000024
 325	3.2238e+01	3.2193	-3.098451	0.000225	2.251603	0.381432	0.000023
 326	3.2337e+01	3.2290	-3.077677	0.000209	2.087850	0.353691	0.000021
 327	3.2437e+01	3.2406	-3.056902	0.000209	2.087850	0.353691	0.000021
 328	3.2536e+01	3.2494	-3.034906	0.000221	2.210665	0.374497	0.000022
 329	3.2636e+01	3.2594	-3.010872	0.000242	2.415356	0.409172	0.000024
 330	3.2736e+01	3.2720	-2.986839	0.000242	2.415356	0.409172	0.000024
 331	3.2835e+01	3.2800	-2.966065	0.000209	2.087850	0.353691	0.000021
 332	3.2934e+01	3.2928	-2.944068	0.000221	2.210665	0.374497	0.000022
 333	3.3034e+01	3.2993	-2.922886	0.000213	2.128788	0.360627	0.000021
 334	3.3133e+01	3.3098	-2.901297	0.000217	2.169727	0.367562	0.000022
 335	3.3233e+01	3.3196	-2.876857	0.000246	2.456294	0.416108	0.000025
 336	3.3333e+01	3.3294	-2.856490	0.000205	2.046912	0.346756	0.000020
 337	3.3432e+01	3.3392	-2.830827	0.000258	2.579109	0.436913	0.000026
 338	3.3532e+01	3.3503	-2.812089	0.000188	1.883159	0.319016	0.000019
 339	3.3631e+01	3.3579	-2.788871	0.000233	2.333480	0.395302	0.000023
 340	3.3730e+01	3.3696	-2.768096	0.000209	2.087850	0.353691	0.000021
 341	3.3830e+01	3.3794	-2.744063	0.000242	2.415356	0.409172	0.000024
 342	3.3929e+01	3.3877	-2.724511	0.000197	1.965035	0.332886	0.000020
 343	3.4029e+01	3.4001	-2.701292	0.000233	2.333480	0.395302	0.000023
 344	3.4129e+01	3.4106	-2.680518	0.000209	2.087850	0.353691	0.000021
 345	3.4228e+01	3.4190	-2.659336	0.000213	2.128788	0.360627	0.000021
 346	3.4328e+01	3.4275	-2.633673	0.000258	2.579109	0.436913	0.000026
 347	3.4427e+01	3.4407	-2.614121	0.000197	1.965035	0.332886	0.000020
 348	3.4526e+01	3.4484	-2.590902	0.000233	2.333480	0.395302	0.000023
 349	3.4626e+01	3.4612	-2.570943	0.000201	2.005974	0.339821	0.000020
 350	3.4725e+01	3.4673	-2.546502	0.000246	2.456294	0.416108	0.000025
 351	3.4825e+01	3.4811	-2.518395	0.000282	2.824738	0.478524	0.000028
 352	3.4925e+01	3.4911	-2.499658	0.000188	1.883159	0.319016	0.000019
 353	3.5024e+01	3.4981	-2.477254	0.000225	2.251603	0.381432	0.000023
 354	3.5123e+01	3.5086	-2.454035	0.000233	2.333480	0.395302	0.000023
 355	3.5223e+01	3.5180	-2.432039	0.000221	2.210665	0.374497	0.000022
 356	3.5322e+01	3.5282	-2.414116	0.000180	1.801283	0.305146	0.000018
 357	3.5422e+01	3.5373	-2.390082	0.000242	2.415356	0.409172	0.000024
 358	3.5522e+01	3.5479	-2.366864	0.000233	2.333480	0.395302	0.000023
 359	3.5621e+01	3.5592	-2.344460	0.000225	2.251603	0.381432	0.000023
 360	3.5721e+01	3.5657	-2.320834	0.000237	2.374418	0.402237	0.000024
 361	3.5820e+01	3.5768	-2.298430	0.000225	2.251603	0.381432	0.000023
 362	3.5919e+01	3.5866	-2.275212	0.000233	2.333480	0.395302	0.000023
 363	3.6019e+01	3.5980	-2.253215	0.000221	2.210665	0.374497	0.000022
 364	3.6118e+01	3.6076	-2.229589	0.000237	2.374418	0.402237	0.000024
 365	3.6218e+01	3.6201	-2.209630	0.000201	2.005974	0.339821	0.000020
 366	3.6318e+01	3.6277	-2.186818	0.000229	2.292541	0.388367	0.000023
 367	3.6417e+01	3.6381	-2.166859	0.000201	2.005974	0.339821	0.000020
 368	3.6517e+01	3.6511	-2.145270	0.000217	2.169727	0.367562	0.000022
 369	3.6616e+01	3.6575	-2.122458	0.000229	2.292541	0.388367	0.000023
 370	3.6715e+01	3.6691	-2.103721	0.000188	1.883159	0.319016	0.000019
 371	3.6815e+01	3.6787	-2.087427	0.000164	1.637530	0.277405	0.000016
 372	3.6914e+01	3.6875	-2.068689	0.000188	1.883159	0.319016	0.000019
 373	3.7014e+01	3.6992	-2.046285	0.000225	2.251603	0.381432	0.000023
 374	3.7114e+01	3.7070	-2.025511	0.000209	2.087850	0.353691	0.000021
 375	3.7213e+01	3.7161	-2.003107	0.000225	2.251603	0.381432	0.000023
 376	3.7313e+01	3.7270	-1.980296	0.000229	2.292541	0.388367	0.000023
 377	3.7412e+01	3.7362	-1.958707	0.000217	2.169727	0.367562	0.000022
 378	3.7511e+01	3.7466	-1.937118	0.000217	2.169727	0.367562	0.000022
 379	3.7611e+01	3.7563	-1.916750	0.000205	2.046912	0.346756	0.000020
 380	3.7711e+01	3.7681	-1.897605	0.000192	1.924097	0.325951	0.000019
 381	3.7810e+01	3.7783	-1.873979	0.000237	2.374418	0.402237	0.000024
 382	3.7910e+01	3.7867	-1.850761	0.000233	2.333480	0.395302	0.000023
 383	3.8009e+01	3.7971	-1.828357	0.000225	2.251603	0.381432	0.000023
 384	3.8108e+01	3.8070	-1.809619	0.000188	1.883159	0.319016	0.000019
 385	3.8208e+01	3.8161	-1.783142	0.000266	2.660986	0.450783	0.000027
 386	3.8307e+01	3.8260	-1.761553	0.000217	2.169727	0.367562	0.000022
 387	3.8407e+01	3.8379	-1.739149	0.000225	2.251603	0.381432	0.000023
 388	3.8507e+01	3.8446	-1.717560	0.000217	2.169727	0.367562	0.000022
 389	3.8606e+01	3.8574	-1.689861	0.000278	2.783800	0.471589	0.000028
 390	3.8706e+01	3.8672	-1.665827	0.000242	2.415356	0.409172	0.000024
 391	3.8805e+01	3.8747	-1.642201	0.000237	2.374418	0.402237	0.000024
 392	3.8904e+01	3.8857	-1.620205	0.000221	2.210665	0.374497	0.000022
 393	3.9004e+01	3.8956	-1.591691	0.000287	2.865677	0.485459	0.000029
 394	3.9103e+01	3.9065	-1.567250	0.000246	2.456294	0.416108	0.000025
 395	3.9203e+01	3.9147	-1.544847	0.000225	2.251603	0.381432	0.000023
 396	3.9303e+01	3.9247	-1.520813	0.000242	2.415356	0.409172	0.000024
 397	3.9402e+01	3.9371	-1.494743	0.000262	2.620047	0.443848	0.000026
 398	3.9502e+01	3.9453	-1.473969	0.000209	2.087850	0.353691	0.000021
 399	3.9601e+01	3.9575	-1.447899	0.000262	2.620047	0.443848	0.000026
 400	3.9700e+01	3.9659	-1.429161	0.000188	1.883159	0.319016	0.000019
 401	3.9800e+01	3.9741	-1.403091	0.000262	2.620047	0.443848	0.000026
 402	3.9900e+01	3.9881	-1.380280	0.000229	2.292541	0.388367	0.000023
 403	3.9999e+01	3.9964	-1.362765	0.000176	1.760344	0.298210	0.000018
 404	4.0099e+01	4.0063	-1.335473	0.000274	2.742862	0.464653	0.000027
 405	4.0198e+01	4.0147	-1.315105	0.000205	2.046912	0.346756	0.000020
 406	4.0297e+01	4.0249	-1.289850	0.000254	2.538171	0.429978	0.000025
 407	4.0397e+01	4.0392	-1.270298	0.000197	1.965035	0.332886	0.000020
 408	4.0496e+01	4.0456	-1.246265	0.000242	2.415356	0.409172	0.000024
 409	4.0596e+01	4.0540	-1.224675	0.000217	2.169727	0.367562	0.000022
 410	4.0696e+01	4.0657	-1.201864	0.000229	2.292541	0.388367	0.000023
 411	4.0795e+01	4.0759	-1.180275	0.000217	2.169727	0.367562	0.000022
 412	4.0895e+01	4.0861	-1.160315	0.000201	2.005974	0.339821	0.000020
 413	4.0994e+01	4.0960	-1.130987	0.000295	2.947553	0.499329	0.000029
 414	4.1093e+01	4.1045	-1.112249	0.000188	1.883159	0.319016	0.000019
 415	4.1193e+01	4.1128	-1.087808	0.000246	2.456294	0.416108	0.000025
 416	4.1292e+01	4.1238	-1.068663	0.000192	1.924097	0.325951	0.000019
 417	4.1392e+01	4.1354	-1.043408	0.000254	2.538171	0.429978	0.000025
 418	4.1492e+01	4.1448	-1.023041	0.000205	2.046912	0.346756	0.000020
 419	4.1591e+01	4.1557	-1.002674	0.000205	2.046912	0.346756	0.000020
 420	4.1691e+01	4.1652	-0.977418	0.000254	2.538171	0.429978	0.000025
 421	4.1790e+01	4.1747	-0.953385	0.000242	2.415356	0.409172	0.000024
 422	4.1889e+01	4.1863	-0.933425	0.000201	2.005974	0.339821	0.000020
 423	4.1989e+01	4.1940	-0.909392	0.000242	2.415356	0.409172	0.000024
 424	4.2089e+01	4.2069	-0.885359	0.000242	2.415356	0.409172	0.000024
 425	4.2188e+01	4.2140	-0.867436	0.000180	1.801283	0.305146	0.000018
 426	4.2288e+01	4.2250	-0.841773	0.000258	2.579109	0.436913	0.000026
 427	4.2387e+01	4.2344	-0.821406	0.000205	2.046912	0.346756	0.000020
 428	4.2486e+01	4.2443	-0.794522	0.000270	2.701924	0.457718	0.000027
 429	4.2586e+01	4.2562	-0.777006	0.000176	1.760344	0.298210	0.000018
 430	4.2685e+01	4.2638	-0.755009	0.000221	2.210665	0.374497	0.000022
 431	4.2785e+01	4.2748	-0.729347	0.000258	2.579109	0.436913	0.000026
 432	4.2885e+01	4.2857	-0.709794	0.000197	1.965035	0.332886	0.000020
 433	4.2984e+01	4.2945	-0.689835	0.000201	2.005974	0.339821	0.000020
 434	4.3084e+01	4.3037	-0.670282	0.000197	1.965035	0.332886	0.000020
 435	4.3183e+01	4.3157	-0.645434	0.000250	2.497233	0.423043	0.000025
 436	4.3282e+01	4.3247	-0.626289	0.000192	1.924097	0.325951	0.000019
 437	4.3382e+01	4.3333	-0.597775	0.000287	2.865677	0.485459	0.000029
 438	4.3481e+01	4.3429	-0.581481	0.000164	1.637530	0.277405	0.000016
 439	4.3581e+01	4.3561	-0.559485	0.000221	2.210665	0.374497	0.000022
 440	4.3681e+01	4.3645	-0.539525	0.000201	2.005974	0.339821	0.000020
 441	4.3780e+01	4.3752	-0.514270	0.000254	2.538171	0.429978	0.000025
 442	4.3880e+01	4.3835	-0.492681	0.000217	2.169727	0.367562	0.000022
 443	4.3979e+01	4.3919	-0.470684	0.000221	2.210665	0.374497	0.000022
 444	4.4078e+01	4.4033	-0.450317	0.000205	2.046912	0.346756	0.000020
 445	4.4178e+01	4.4157	-0.429543	0.000209	2.087850	0.353691	0.000021
 446	4.4278e+01	4.4225	-0.403473	0.000262	2.620047	0.443848	0.000026
 447	4.4377e+01	4.4346	-0.385142	0.000184	1.842221	0.312081	0.000018
 448	4.4477e+01	4.4442	-0.361517	0.000237	2.374418	0.402237	0.000024
 449	4.4576e+01	4.4523	-0.340742	0.000209	2.087850	0.353691	0.000021
 450	4.4675e+01	4.4633	-0.316709	0.000242	2.415356	0.409172	0.000024
 451	4.4775e+01	4.4746	-0.298378	0.000184	1.842221	0.312081	0.000018
 452	4.4874e+01	4.4832	-0.272308	0.000262	2.620047	0.443848	0.000026
 453	4.4974e+01	4.4929	-0.247053	0.000254	2.538171	0.429978	0.000025
 454	4.5074e+01	4.5069	-0.222613	0.000246	2.456294	0.416108	0.000025
 455	4.5173e+01	4.5124	-0.199802	0.000229	2.292541	0.388367	0.000023
 456	4.5273e+01	4.5257	-0.179434	0.000205	2.046912	0.346756	0.000020
 457	4.5372e+01	4.5332	-0.154586	0.000250	2.497233	0.423043	0.000025
 458	4.5471e+01	4.5396	-0.131775	0.000229	2.292541	0.388367	0.000023
 459	4.5571e+01	4.5568	-0.109371	0.000225	2.251603	0.381432	0.000023
 460	4.5670e+01	4.5644	-0.085746	0.000237	2.374418	0.402237	0.000024
 461	4.5770e+01	4.5713	-0.061712	0.000242	2.415356	0.409172	0.000024
 462	4.5870e+01	4.5821	-0.041345	0.000205	2.046912	0.346756	0.000020
 463	4.5969e+01	4.5919	-0.018534	0.000229	2.292541	0.388367	0.000023
 464	4.6069e+01	4.6032	0.004277	0.000229	2.292541	0.388367	0.000023
 465	4.6168e+01	4.6133	0.028718	0.000246	2.456294	0.416108	0.000025
 466	4.6267e+01	4.6233	0.045011	0.000164	1.637530	0.277405	0.000016
 467	4.6367e+01	4.6339	0.068637	0.000237	2.374418	0.402237	0.000024
 468	4.6467e+01	4.6413	0.089004	0.000205	2.046912	0.346756	0.000020
 469	4.6566e+01	4.6533	0.111408	0.000225	2.251603	0.381432	0.000023
 470	4.6666e+01	4.6633	0.132997	0.000217	2.169727	0.367562	0.000022
 471	4.6765e+01	4.6714	0.154586	0.000217	2.169727	0.367562	0.000022
 472	4.6864e+01	4.6862	0.171695	0.000172	1.719406	0.291275	0.000017
 473	4.6964e+01	4.6923	0.190025	0.000184	1.842221	0.312081	0.000018
 474	4.7063e+01	4.7028	0.208356	0.000184	1.842221	0.312081	0.000018
 475	4.7163e+01	4.7131	0.229945	0.000217	2.169727	0.367562	0.000022
 476	4.7263e+01	4.7224	0.250312	0.000205	2.046912	0.346756	0.000020
 477	4.7362e+01	4.7317	0.267420	0.000172	1.719406	0.291275	0.000017
 478	4.7462e+01	4.7417	0.285751	0.000184	1.842221	0.312081	0.000018
 479	4.7561e+01	4.7544	0.306933	0.000213	2.128788	0.360627	0.000021
 480	4.7660e+01	4.7622	0.326078	0.000192	1.924097	0.325951	0.000019
 481	4.7760e+01	4.7710	0.345630	0.000197	1.965035	0.332886	0.000020
 482	4.7859e+01	4.7811	0.365183	0.000197	1.965035	0.332886	0.000020
 483	4.7959e+01	4.7945	0.386772	0.000217	2.169727	0.367562	0.000022
 484	4.8059e+01	4.8028	0.408768	0.000221	2.210665	0.374497	0.000022
 485	4.8158e+01	4.8113	0.426284	0.000176	1.760344	0.298210	0.000018
 486	4.8258e+01	4.8227	0.446651	0.000205	2.046912	0.346756	0.000020
 487	4.8357e+01	4.8307	0.469870	0.000233	2.333480	0.395302	0.000023
 488	4.8456e+01	4.8434	0.489829	0.000201	2.005974	0.339821	0.000020
 489	4.8556e+01	4.8536	0.509789	0.000201	2.005974	0.339821	0.000020
 490	4.8656e+01	4.8592	0.531378	0.000217	2.169727	0.367562	0.000022
 491	4.8755e+01	4.8727	0.550931	0.000197	1.965035	0.332886	0.000020
 492	4.8855e+01	4.8809	0.571705	0.000209	2.087850	0.353691	0.000021
 493	4.8954e+01	4.8933	0.594924	0.000233	2.333480	0.395302	0.000023
 494	4.9053e+01	4.9012	0.614069	0.000192	1.924097	0.325951	0.000019
 495	4.9153e+01	4.9125	0.635658	0.000217	2.169727	0.367562	0.000022
 496	4.9252e+01	4.9236	0.656433	0.000209	2.087850	0.353691	0.000021
 497	4.9352e+01	4.9333	0.680873	0.000246	2.456294	0.416108	0.000025
 498	4.9452e+01	4.9433	0.700833	0.000201	2.005974	0.339821	0.000020
 499	4.9551e+01	4.9516	0.724459	0.000237	2.374418	0.402237	0.000024
 500	4.9651e+01	4.9593	0.741160	0.000168	1.678468	0.284340	0.000017
 501	4.9750e+01	4.9707	0.761934	0.000209	2.087850	0.353691	0.000021
 502	4.9849e+01	4.9807	0.785967	0.000242	2.415356	0.409172	0.000024
 503	4.9949e+01	4.9912	0.808371	0.000225	2.251603	0.381432	0.000023
 504	5.0048e+01	5.0012	0.827924	0.000197	1.965035	0.332886	0.000020
 505	5.0148e+01	5.0137	0.846254	0.000184	1.842221	0.312081	0.000018
 506	5.0248e+01	5.0210	0.868251	0.000221	2.210665	0.374497	0.000022
 507	5.0347e+01	5.0328	0.885766	0.000176	1.760344	0.298210	0.000018
 508	5.0447e+01	5.0397	0.906541	0.000209	2.087850	0.353691	0.000021
 509	5.0546e+01	5.0518	0.926501	0.000201	2.005974	0.339821	0.000020
 510	5.0645e+01	5.0607	0.948904	0.000225	2.251603	0.381432	0.000023
 511	5.0745e+01	5.0718	0.966013	0.000172	1.719406	0.291275	0.000017
 512	5.0844e+01	5.0799	0.988417	0.000225	2.251603	0.381432	0.000023
 513	5.0944e+01	5.0893	1.012043	0.000237	2.374418	0.402237	0.000024
 514	5.1044e+01	5.1015	1.032410	0.000205	2.046912	0.346756	0.000020
 515	5.1143e+01	5.1090	1.051962	0.000197	1.965035	0.332886	0.000020
 516	5.1242e+01	5.1199	1.074773	0.000229	2.292541	0.388367	0.000023
 517	5.1342e+01	5.1304	1.095548	0.000209	2.087850	0.353691	0.000021
 518	5.1441e+01	5.1417	1.114286	0.000188	1.883159	0.319016	0.000019
 519	5.1541e+01	5.1507	1.139948	0.000258	2.579109	0.436913	0.000026
 520	5.1641e+01	5.1595	1.157871	0.000180	1.801283	0.305146	0.000018
 521	5.1740e+01	5.1707	1.179868	0.000221	2.210665	0.374497	0.000022
 522	5.1840e+01	5.1796	1.201864	0.000221	2.210665	0.374497	0.000022
 523	5.1939e+01	5.1893	1.222639	0.000209	2.087850	0.353691	0.000021
 524	5.2038e+01	5.1992	1.242598	0.000201	2.005974	0.339821	0.000020
 525	5.2138e+01	5.2116	1.260929	0.000184	1.842221	0.312081	0.000018
 526	5.2237e+01	5.2200	1.284555	0.000237	2.374418	0.402237	0.000024
 527	5.2337e+01	5.2306	1.304515	0.000201	2.005974	0.339821	0.000020
 528	5.2437e+01	5.2386	1.330177	0.000258	2.579109	0.436913	0.000026
 529	5.2536e+01	5.2478	1.352174	0.000221	2.210665	0.374497	0.000022
 530	5.2636e+01	5.2590	1.372133	0.000201	2.005974	0.339821	0.000020
 531	5.2735e+01	5.2726	1.392908	0.000209	2.087850	0.353691	0.000021
 532	5.2834e+01	5.2801	1.408794	0.000160	1.596591	0.270470	0.000016
 533	5.2934e+01	5.2877	1.433235	0.000246	2.456294	0.416108	0.000025
 534	5.3033e+01	5.2982	1.452787	0.000197	1.965035	0.332886	0.000020
 535	5.3133e+01	5.3077	1.469081	0.000164	1.637530	0.277405	0.000016
 536	5.3233e+01	5.3213	1.489855	0.000209	2.087850	0.353691	0.000021
 537	5.3332e+01	5.3294	1.509815	0.000201	2.005974	0.339821	0.000020
 538	5.3431e+01	5.3369	1.528960	0.000192	1.924097	0.325951	0.000019
 539	5.3531e+01	5.3509	1.548513	0.000197	1.965035	0.332886	0.000020
 540	5.3630e+01	5.3587	1.566028	0.000176	1.760344	0.298210	0.000018
 541	5.3730e+01	5.3707	1.588840	0.000229	2.292541	0.388367	0.000023
 542	5.3830e+01	5.3771	1.604319	0.000156	1.555653	0.263535	0.000016
 543	5.3929e+01	5.3878	1.625500	0.000213	2.128788	0.360627	0.000021
 544	5.4029e+01	5.3996	1.644238	0.000188	1.883159	0.319016	0.000019
 545	5.4128e+01	5.4064	1.667049	0.000229	2.292541	0.388367	0.000023
 546	5.4227e+01	5.4187	1.683750	0.000168	1.678468	0.284340	0.000017
 547	5.4327e+01	5.4275	1.706154	0.000225	2.251603	0.381432	0.000023
 548	5.4426e+01	5.4399	1.726929	0.000209	2.087850	0.353691	0.000021
 549	5.4526e+01	5.4490	1.748111	0.000213	2.128788	0.360627	0.000021
 550	5.4626e+01	5.4593	1.765626	0.000176	1.760344	0.298210	0.000018
 551	5.4725e+01	5.4688	1.790474	0.000250	2.497233	0.423043	0.000025
 552	5.4825e+01	5.4816	1.812471	0.000221	2.210665	0.374497	0.000022
 553	5.4924e+01	5.4888	1.831616	0.000192	1.924097	0.325951	0.000019
 554	5.5023e+01	5.4971	1.854020	0.000225	2.251603	0.381432	0.000023
 555	5.5123e+01	5.5094	1.875201	0.000213	2.128788	0.360627	0.000021
 556	5.5222e+01	5.5148	1.900864	0.000258	2.579109	0.436913	0.000026
 557	5.5322e+01	5.5297	1.920824	0.000201	2.005974	0.339821	0.000020
 558	5.5422e+01	5.5398	1.945264	0.000246	2.456294	0.416108	0.000025
 559	5.5521e+01	5.5499	1.967668	0.000225	2.251603	0.381432	0.000023
 560	5.5620e+01	5.5563	1.991294	0.000237	2.374418	0.402237	0.000024
 561	5.5720e+01	5.5686	2.014105	0.000229	2.292541	0.388367	0.000023
 562	5.5819e+01	5.5788	2.037731	0.000237	2.374418	0.402237	0.000024
 563	5.5919e+01	5.5865	2.058506	0.000209	2.087850	0.353691	0.000021
 564	5.6019e+01	5.5991	2.084983	0.000266	2.660986	0.450783	0.000027
 565	5.6118e+01	5.6104	2.107794	0.000229	2.292541	0.388367	0.000023
 566	5.6218e+01	5.6167	2.132235	0.000246	2.456294	0.416108	0.000025
 567	5.6317e+01	5.6275	2.148936	0.000168	1.678468	0.284340	0.000017
 568	5.6416e+01	5.6373	2.169303	0.000205	2.046912	0.346756	0.000020
 569	5.6516e+01	5.6475	2.193336	0.000242	2.415356	0.409172	0.000024
 570	5.6615e+01	5.6579	2.212481	0.000192	1.924097	0.325951	0.000019
 571	5.6715e+01	5.6670	2.234478	0.000221	2.210665	0.374497	0.000022
 572	5.6815e+01	5.6773	2.254437	0.000201	2.005974	0.339821	0.000020
 573	5.6914e+01	5.6890	2.273175	0.000188	1.883159	0.319016	0.000019
 574	5.7014e+01	5.6976	2.296801	0.000237	2.374418	0.402237	0.000024
 575	5.7113e+01	5.7066	2.320427	0.000237	2.374418	0.402237	0.000024
 576	5.7212e+01	5.7171	2.342423	0.000221	2.210665	0.374497	0.000022
 577	5.7312e+01	5.7263	2.359939	0.000176	1.760344	0.298210	0.000018
 578	5.7411e+01	5.7377	2.382343	0.000225	2.251603	0.381432	0.000023
 579	5.7511e+01	5.7484	2.402710	0.000205	2.046912	0.346756	0.000020
 580	5.7611e+01	5.7558	2.424707	0.000221	2.210665	0.374497	0.000022
 581	5.7710e+01	5.7677	2.443037	0.000184	1.842221	0.312081	0.000018
 582	5.7809e+01	5.7807	2.468700	0.000258	2.579109	0.436913	0.000026
 583	5.7909e+01	5.7873	2.484993	0.000164	1.637530	0.277405	0.000016
 584	5.8008e+01	5.7954	2.508619	0.000237	2.374418	0.402237	0.000024
 585	5.8108e+01	5.8057	2.526542	0.000180	1.801283	0.305146	0.000018
 586	5.8208e+01	5.8178	2.550983	0.000246	2.456294	0.416108	0.000025
 587	5.8307e+01	5.8266	2.571757	0.000209	2.087850	0.353691	0.000021
 588	5.8407e+01	5.8340	2.592939	0.000213	2.128788	0.360627	0.000021
 589	5.8506e+01	5.8474	2.616158	0.000233	2.333480	0.395302	0.000023
 590	5.8605e+01	5.8555	2.636525	0.000205	2.046912	0.346756	0.000020
 591	5.8705e+01	5.8669	2.657706	0.000213	2.128788	0.360627	0.000021
 592	5.8804e+01	5.8784	2.680110	0.000225	2.251603	0.381432	0.000023
 593	5.8904e+01	5.8875	2.699663	0.000197	1.965035	0.332886	0.000020
 594	5.9004e+01	5.8955	2.721252	0.000217	2.169727	0.367562	0.000022
 595	5.9103e+01	5.9049	2.742841	0.000217	2.169727	0.367562	0.000022
 596	5.9203e+01	5.9155	2.763208	0.000205	2.046912	0.346756	0.000020
 597	5.9302e+01	5.9262	2.783983	0.000209	2.087850	0.353691	0.000021
 598	5.9401e+01	5.9364	2.803942	0.000201	2.005974	0.339821	0.000020
 599	5.9501e+01	5.9459	2.823088	0.000192	1.924097	0.325951	0.000019
 600	5.9600e+01	5.9557	2.843047	0.000201	2.005974	0.339821	0.000020
 601	5.9700e+01	5.9623	2.864229	0.000213	2.128788	0.360627	0.000021
 602	5.9800e+01	5.9751	2.882152	0.000180	1.801283	0.305146	0.000018
 603	5.9899e+01	5.9856	2.906185	0.000242	2.415356	0.409172	0.000024
 604	5.9998e+01	5.9965	2.926145	0.000201	2.005974	0.339821	0.000020
 605	6.0098e+01	6.0051	2.946105	0.000201	2.005974	0.339821	0.000020
 606	6.0197e+01	6.0157	2.966879	0.000209	2.087850	0.353691	0.000021
 607	6.0297e+01	6.0271	2.990913	0.000242	2.415356	0.409172	0.000024
 608	6.0397e+01	6.0360	3.007614	0.000168	1.678468	0.284340	0.000017
 609	6.0496e+01	6.0446	3.027981	0.000205	2.046912	0.346756	0.000020
 610	6.0596e+01	6.0555	3.049570	0.000217	2.169727	0.367562	0.000022
 611	6.0695e+01	6.0662	3.069122	0.000197	1.965035	0.332886	0.000020
 612	6.0794e+01	6.0725	3.089897	0.000209	2.087850	0.353691	0.000021
 613	6.0894e+01	6.0867	3.109042	0.000192	1.924097	0.325951	0.000019
 614	6.0993e+01	6.0949	3.127780	0.000188	1.883159	0.319016	0.000019
 615	6.1093e+01	6.1025	3.147332	0.000197	1.965035	0.332886	0.000020
 616	6.1193e+01	6.1135	3.169329	0.000221	2.210665	0.374497	0.000022
 617	6.1292e+01	6.1253	3.188066	0.000188	1.883159	0.319016	0.000019
 618	6.1392e+01	6.1355	3.210878	0.000229	2.292541	0.388367	0.000023
 619	6.1491e+01	6.1446	3.234504	0.000237	2.374418	0.402237	0.000024
 620	6.1590e+01	6.1553	3.255685	0.000213	2.128788	0.360627	0.000021
 621	6.1690e+01	6.1626	3.277682	0.000221	2.210665	0.374497	0.000022
 622	6.1789e+01	6.1755	3.304566	0.000270	2.701924	0.457718	0.000027
 623	6.1889e+01	6.1861	3.326970	0.000225	2.251603	0.381432	0.000023
 624	6.1989e+01	6.1967	3.348152	0.000213	2.128788	0.360627	0.000021
 625	6.2088e+01	6.2075	3.370149	0.000221	2.210665	0.374497	0.000022
 626	6.2188e+01	6.2151	3.393367	0.000233	2.333480	0.395302	0.000023
 627	6.2287e+01	6.2249	3.413734	0.000205	2.046912	0.346756	0.000020
 628	6.2386e+01	6.2341	3.434101	0.000205	2.046912	0.346756	0.000020
 629	6.2486e+01	6.2447	3.455691	0.000217	2.169727	0.367562	0.000022
 630	6.2586e+01	6.2546	3.474428	0.000188	1.883159	0.319016	0.000019
 631	6.2685e+01	6.2647	3.496425	0.000221	2.210665	0.374497	0.000022
 632	6.2785e+01	6.2753	3.517199	0.000209	2.087850	0.353691	0.000021
 633	6.2884e+01	6.2849	3.537159	0.000201	2.005974	0.339821	0.000020
 634	6.2983e+01	6.2959	3.555897	0.000188	1.883159	0.319016	0.000019
 635	6.3083e+01	6.3021	3.574635	0.000188	1.883159	0.319016	0.000019
 636	6.3182e+01	6.3134	3.593780	0.000192	1.924097	0.325951	0.000019
 637	6.3282e+01	6.3245	3.618628	0.000250	2.497233	0.423043	0.000025
 638	6.3382e+01	6.3329	3.633699	0.000151	1.514715	0.256600	0.000015
 639	6.3481e+01	6.3436	3.657732	0.000242	2.415356	0.409172	0.000024
 640	6.3581e+01	6.3528	3.672804	0.000151	1.514715	0.256600	0.000015
 641	6.3680e+01	6.3625	3.693171	0.000205	2.046912	0.346756	0.000020
 642	6.3779e+01	6.3754	3.709058	0.000160	1.596591	0.270470	0.000016
 643	6.3879e+01	6.3844	3.727795	0.000188	1.883159	0.319016	0.000019
 644	6.3978e+01	6.3940	3.742867	0.000151	1.514715	0.256600	0.000015
 645	6.4078e+01	6.4037	3.761605	0.000188	1.883159	0.319016	0.000019
 646	6.4177e+01	6.4116	3.779121	0.000176	1.760344	0.298210	0.000018
 647	6.4277e+01	6.4234	3.797044	0.000180	1.801283	0.305146	0.000018
 648	6.4376e+01	6.4338	3.813745	0.000168	1.678468	0.284340	0.000017
 649	6.4476e+01	6.4462	3.832482	0.000188	1.883159	0.319016	0.000019
 650	6.4576e+01	6.4527	3.850405	0.000180	1.801283	0.305146	0.000018
 651	6.4675e+01	6.4617	3.871995	0.000217	2.169727	0.367562	0.000022
 652	6.4775e+01	6.4741	3.891140	0.000192	1.924097	0.325951	0.000019
 653	6.4874e+01	6.4837	3.911100	0.000201	2.005974	0.339821	0.000020
 654	6.4974e+01	6.4946	3.929430	0.000184	1.842221	0.312081	0.000018
 655	6.5073e+01	6.5015	3.948982	0.000197	1.965035	0.332886	0.000020
 656	6.5172e+01	6.5142	3.970164	0.000213	2.128788	0.360627	0.000021
 657	6.5272e+01	6.5243	3.988495	0.000184	1.842221	0.312081	0.000018
 658	6.5371e+01	6.5343	4.008862	0.000205	2.046912	0.346756	0.000020
 659	6.5471e+01	6.5463	4.028822	0.000201	2.005974	0.339821	0.000020
 660	6.5570e+01	6.5532	4.050003	0.000213	2.128788	0.360627	0.000021
 661	6.5670e+01	6.5622	4.066704	0.000168	1.678468	0.284340	0.000017
 662	6.5769e+01	6.5725	4.086257	0.000197	1.965035	0.332886	0.000020
 663	6.5869e+01	6.5826	4.105809	0.000197	1.965035	0.332886	0.000020
 664	6.5969e+01	6.5915	4.124954	0.000192	1.924097	0.325951	0.000019
 665	6.6068e+01	6.6024	4.148988	0.000242	2.415356	0.409172	0.000024
 666	6.6168e+01	6.6146	4.171391	0.000225	2.251603	0.381432	0.000023
 667	6.6267e+01	6.6219	4.188500	0.000172	1.719406	0.291275	0.000017
 668	6.6367e+01	6.6322	4.209274	0.000209	2.087850	0.353691	0.000021
 669	6.6466e+01	6.6438	4.226383	0.000172	1.719406	0.291275	0.000017
 670	6.6566e+01	6.6500	4.247972	0.000217	2.169727	0.367562	0.000022
 671	6.6665e+01	6.6604	4.265895	0.000180	1.801283	0.305146	0.000018
 672	6.6764e+01	6.6710	4.283003	0.000172	1.719406	0.291275	0.000017
 673	6.6864e+01	6.6817	4.308258	0.000254	2.538171	0.429978	0.000025
 674	6.6963e+01	6.6935	4.321701	0.000135	1.350962	0.228859	0.000014
 675	6.7063e+01	6.7020	4.344105	0.000225	2.251603	0.381432	0.000023
 676	6.7162e+01	6.7087	4.362842	0.000188	1.883159	0.319016	0.000019
 677	6.7262e+01	6.7208	4.383210	0.000205	2.046912	0.346756	0.000020
 678	6.7362e+01	6.7326	4.400318	0.000172	1.719406	0.291275	0.000017
 679	6.7461e+01	6.7423	4.420278	0.000201	2.005974	0.339821	0.000020
 680	6.7561e+01	6.7518	4.438201	0.000180	1.801283	0.305146	0.000018
 681	6.7660e+01	6.7646	4.458161	0.000201	2.005974	0.339821	0.000020
 682	6.7760e+01	6.7712	4.475676	0.000176	1.760344	0.298210	0.000018
 683	6.7859e+01	6.7825	4.500932	0.000254	2.538171	0.429978	0.000025
 684	6.7959e+01	6.7925	4.517633	0.000168	1.678468	0.284340	0.000017
 685	6.8058e+01	6.8016	4.540444	0.000229	2.292541	0.388367	0.000023
 686	6.8157e+01	6.8105	4.562440	0.000221	2.210665	0.374497	0.000022
 687	6.8257e+01	6.8199	4.583215	0.000209	2.087850	0.353691	0.000021
 688	6.8356e+01	6.8311	4.597879	0.000147	1.473777	0.249665	0.000015
 689	6.8456e+01	6.8410	4.619468	0.000217	2.169727	0.367562	0.000022
 690	6.8555e+01	6.8484	4.639835	0.000205	2.046912	0.346756	0.000020
 691	6.8655e+01	6.8604	4.658980	0.000192	1.924097	0.325951	0.000019
 692	6.8754e+01	6.8723	4.679348	0.000205	2.046912	0.346756	0.000020
 693	6.8854e+01	6.8809	4.697678	0.000184	1.842221	0.312081	0.000018
 694	6.8954e+01	6.8888	4.714786	0.000172	1.719406	0.291275	0.000017
 695	6.9053e+01	6.9015	4.735968	0.000213	2.128788	0.360627	0.000021
 696	6.9153e+01	6.9106	4.758779	0.000229	2.292541	0.388367	0.000023
 697	6.9252e+01	6.9211	4.777924	0.000192	1.924097	0.325951	0.000019
 698	6.9352e+01	6.9326	4.799921	0.000221	2.210665	0.374497	0.000022
 699	6.9451e+01	6.9401	4.820288	0.000205	2.046912	0.346756	0.000020
 700	6.9550e+01	6.9518	4.835767	0.000156	1.555653	0.263535	0.000016
 701	6.9650e+01	6.9599	4.856134	0.000205	2.046912	0.346756	0.000020
 702	6.9749e+01	6.9686	4.878131	0.000221	2.210665	0.374497	0.000022
 703	6.9849e+01	6.9800	4.895646	0.000176	1.760344	0.298210	0.000018
 704	6.9948e+01	6.9890	4.914384	0.000188	1.883159	0.319016	0.000019
 705	7.0048e+01	6.9999	4.927827	0.000135	1.350962	0.228859	0.000014
 706	7.0147e+01	7.0082	4.945342	0.000176	1.760344	0.298210	0.000018
 707	7.0247e+01	7.0200	4.962043	0.000168	1.678468	0.284340	0.000017
 708	7.0347e+01	7.0302	4.984040	0.000221	2.210665	0.374497	0.000022
 709	7.0446e+01	7.0406	4.998297	0.000143	1.432838	0.242729	0.000014
 710	7.0546e+01	7.0492	5.018664	0.000205	2.046912	0.346756	0.000020
 711	7.0645e+01	7.0605	5.035772	0.000172	1.719406	0.291275	0.000017
 712	7.0745e+01	7.0708	5.054510	0.000188	1.883159	0.319016	0.000019
 713	7.0844e+01	7.0809	5.075285	0.000209	2.087850	0.353691	0.000021
 714	7.0944e+01	7.0893	5.094430	0.000192	1.924097	0.325951	0.000019
 715	7.1043e+01	7.0995	5.110316	0.000160	1.596591	0.270470	0.000016
 716	7.1142e+01	7.1086	5.131498	0.000213	2.128788	0.360627	0.000021
 717	7.1242e+01	7.1225	5.151458	0.000201	2.005974	0.339821	0.000020
 718	7.1341e+01	7.1301	5.171010	0.000197	1.965035	0.332886	0.000020
 719	7.1441e+01	7.1394	5.195043	0.000242	2.415356	0.409172	0.000024
 720	7.1540e+01	7.1507	5.213374	0.000184	1.842221	0.312081	0.000018
 721	7.1640e+01	7.1603	5.233333	0.000201	2.005974	0.339821	0.000020
 722	7.1740e+01	7.1688	5.250849	0.000176	1.760344	0.298210	0.000018
 723	7.1839e+01	7.1795	5.276919	0.000262	2.620047	0.443848	0.000026
 724	7.1939e+01	7.1896	5.293213	0.000164	1.637530	0.277405	0.000016
 725	7.2038e+01	7.2014	5.316839	0.000237	2.374418	0.402237	0.000024
 726	7.2138e+01	7.2081	5.338020	0.000213	2.128788	0.360627	0.000021
 727	7.2237e+01	7.2187	5.364498	0.000266	2.660986	0.450783	0.000027
 728	7.2337e+01	7.2275	5.382421	0.000180	1.801283	0.305146	0.000018
 729	7.2436e+01	7.2354	5.403603	0.000213	2.128788	0.360627	0.000021
 730	7.2535e+01	7.2504	5.426821	0.000233	2.333480	0.395302	0.000023
 731	7.2635e+01	7.2643	5.448818	0.000221	2.210665	0.374497	0.000022
 732	7.2734e+01	7.2682	5.463889	0.000151	1.514715	0.256600	0.000015
 733	7.2834e+01	7.2778	5.491181	0.000274	2.742862	0.464653	0.000027
 734	7.2933e+01	7.2895	5.511141	0.000201	2.005974	0.339821	0.000020
 735	7.3033e+01	7.2986	5.531101	0.000201	2.005974	0.339821	0.000020
 736	7.3132e+01	7.3092	5.552690	0.000217	2.169727	0.367562	0.000022
 737	7.3232e+01	7.3193	5.574279	0.000217	2.169727	0.367562	0.000022
 738	7.3332e+01	7.3278	5.590980	0.000168	1.678468	0.284340	0.000017
 739	7.3431e+01	7.3402	5.612977	0.000221	2.210665	0.374497	0.000022
 740	7.3531e+01	7.3500	5.630085	0.000172	1.719406	0.291275	0.000017
 741	7.3630e+01	7.3584	5.649230	0.000192	1.924097	0.325951	0.000019
 742	7.3730e+01	7.3698	5.670005	0.000209	2.087850	0.353691	0.000021
 743	7.3829e+01	7.3779	5.691594	0.000217	2.169727	0.367562	0.000022
 744	7.3928e+01	7.3898	5.713998	0.000225	2.251603	0.381432	0.000023
 745	7.4028e+01	7.3992	5.729477	0.000156	1.555653	0.263535	0.000016
 746	7.4127e+01	7.4093	5.750658	0.000213	2.128788	0.360627	0.000021
 747	7.4227e+01	7.4200	5.769396	0.000188	1.883159	0.319016	0.000019
 748	7.4326e+01	7.4291	5.790985	0.000217	2.169727	0.367562	0.000022
 749	7.4426e+01	7.4397	5.810945	0.000201	2.005974	0.339821	0.000020
 750	7.4525e+01	7.4500	5.830090	0.000192	1.924097	0.325951	0.000019
 751	7.4625e+01	7.4572	5.850050	0.000201	2.005974	0.339821	0.000020
 752	7.4725e+01	7.4684	5.865122	0.000151	1.514715	0.256600	0.000015
 753	7.4824e+01	7.4776	5.890377	0.000254	2.538171	0.429978	0.000025
 754	7.4924e+01	7.4900	5.910744	0.000205	2.046912	0.346756	0.000020
 755	7.5023e+01	7.5021	5.929482	0.000188	1.883159	0.319016	0.000019
 756	7.5123e+01	7.5067	5.949849	0.000205	2.046912	0.346756	0.000020
 757	7.5222e+01	7.5167	5.967365	0.000176	1.760344	0.298210	0.000018
 758	7.5322e+01	7.5282	5.989361	0.000221	2.210665	0.374497	0.000022
 759	7.5421e+01	7.5387	6.007692	0.000184	1.842221	0.312081	0.000018
 760	7.5520e+01	7.5486	6.030503	0.000229	2.292541	0.388367	0.000023
 761	7.5620e+01	7.5576	6.055758	0.000254	2.538171	0.429978	0.000025
 762	7.5719e+01	7.5659	6.070422	0.000147	1.473777	0.249665	0.000015
 763	7.5819e+01	7.5779	6.089567	0.000192	1.924097	0.325951	0.000019
 764	7.5918e+01	7.5892	6.110749	0.000213	2.128788	0.360627	0.000021
 765	7.6018e+01	7.5985	6.129080	0.000184	1.842221	0.312081	0.000018
 766	7.6118e+01	7.6072	6.149039	0.000201	2.005974	0.339821	0.000020
 767	7.6217e+01	7.6201	6.166148	0.000172	1.719406	0.291275	0.000017
 768	7.6317e+01	7.6275	6.182034	0.000160	1.596591	0.270470	0.000016
 769	7.6416e+01	7.6367	6.202401	0.000205	2.046912	0.346756	0.000020
 770	7.6516e+01	7.6443	6.221546	0.000192	1.924097	0.325951	0.000019
 771	7.6615e+01	7.6573	6.244358	0.000229	2.292541	0.388367	0.000023
 772	7.6715e+01	7.6688	6.265132	0.000209	2.087850	0.353691	0.000021
 773	7.6814e+01	7.6783	6.281426	0.000164	1.637530	0.277405	0.000016
 774	7.6913e+01	7.6892	6.301386	0.000201	2.005974	0.339821	0.000020
 775	7.7013e+01	7.6971	6.318901	0.000176	1.760344	0.298210	0.000018
 776	7.7112e+01	7.7084	6.340898	0.000221	2.210665	0.374497	0.000022
 777	7.7212e+01	7.7160	6.359228	0.000184	1.842221	0.312081	0.000018
 778	7.7311e+01	7.7283	6.377966	0.000188	1.883159	0.319016	0.000019
 779	7.7411e+01	7.7361	6.398740	0.000209	2.087850	0.353691	0.000021
 780	7.7510e+01	7.7451	6.415442	0.000168	1.678468	0.284340	0.000017
 781	7.7610e+01	7.7562	6.436216	0.000209	2.087850	0.353691	0.000021
 782	7.7710e+01	7.7642	6.454546	0.000184	1.842221	0.312081	0.000018
 783	7.7809e+01	7.7766	6.474914	0.000205	2.046912	0.346756	0.000020
 784	7.7909e+01	7.7865	6.493244	0.000184	1.842221	0.312081	0.000018
 785	7.8008e+01	7.7979	6.513204	0.000201	2.005974	0.339821	0.000020
 786	7.8108e+01	7.8059	6.534793	0.000217	2.169727	0.367562	0.000022
 787	7.8207e+01	7.8179	6.553938	0.000192	1.924097	0.325951	0.000019
 788	7.8306e+01	7.8251	6.580008	0.000262	2.620047	0.443848	0.000026
 789	7.8406e+01	7.8382	6.595487	0.000156	1.555653	0.263535	0.000016
 790	7.8505e+01	7.8478	6.615854	0.000205	2.046912	0.346756	0.000020
 791	7.8605e+01	7.8565	6.639480	0.000237	2.374418	0.402237	0.000024
 792	7.8704e+01	7.8671	6.666365	0.000270	2.701924	0.457718	0.000027
 793	7.8804e+01	7.8760	6.683066	0.000168	1.678468	0.284340	0.000017
 794	7.8903e+01	7.8875	6.704247	0.000213	2.128788	0.360627	0.000021
 795	7.9003e+01	7.8945	6.723800	0.000197	1.965035	0.332886	0.000020
 796	7.9103e+01	7.9077	6.745389	0.000217	2.169727	0.367562	0.000022
 797	7.9202e+01	7.9162	6.765756	0.000205	2.046912	0.346756	0.000020
 798	7.9302e+01	7.9253	6.784901	0.000192	1.924097	0.325951	0.000019
 799	7.9401e+01	7.9339	6.802417	0.000176	1.760344	0.298210	0.000018
 800	7.9501e+01	7.9452	6.821562	0.000192	1.924097	0.325951	0.000019
 801	7.9600e+01	7.9527	6.841114	0.000197	1.965035	0.332886	0.000020
 802	7.9700e+01	7.9667	6.861889	0.000209	2.087850	0.353691	0.000021
 803	7.9799e+01	7.9761	6.877775	0.000160	1.596591	0.270470	0.000016
 804	7.9898e+01	7.9855	6.896106	0.000184	1.842221	0.312081	0.000018
 805	7.9998e+01	7.9955	6.916473	0.000205	2.046912	0.346756	0.000020
 806	8.0097e+01	8.0036	6.933581	0.000172	1.719406	0.291275	0.000017
 807	8.0197e+01	8.0165	6.955578	0.000221	2.210665	0.374497	0.000022
 808	8.0296e+01	8.0237	6.970242	0.000147	1.473777	0.249665	0.000015
 809	8.0396e+01	8.0376	6.985721	0.000156	1.555653	0.263535	0.000016
 810	8.0496e+01	8.0444	7.004459	0.000188	1.883159	0.319016	0.000019
 811	8.0595e+01	8.0546	7.019531	0.000151	1.514715	0.256600	0.000015
 812	8.0695e+01	8.0665	7.037046	0.000176	1.760344	0.298210	0.000018
 813	8.0794e+01	8.0753	7.050896	0.000139	1.391900	0.235794	0.000014
 814	8.0894e+01	8.0846	7.068819	0.000180	1.801283	0.305146	0.000018
 815	8.0993e+01	8.0946	7.087149	0.000184	1.842221	0.312081	0.000018
 816	8.1093e+01	8.1042	7.101406	0.000143	1.432838	0.242729	0.000014
 817	8.1192e+01	8.1156	7.122996	0.000217	2.169727	0.367562	0.000022
 818	8.1291e+01	8.1244	7.139289	0.000164	1.637530	0.277405	0.000016
 819	8.1391e+01	8.1371	7.161693	0.000225	2.251603	0.381432	0.000023
 820	8.1490e+01	8.1419	7.177579	0.000160	1.596591	0.270470	0.000016
 821	8.1590e+01	8.1553	7.194280	0.000168	1.678468	0.284340	0.000017
 822	8.1689e+01	8.1642	7.212204	0.000180	1.801283	0.305146	0.000018
 823	8.1789e+01	8.1748	7.232571	0.000205	2.046912	0.346756	0.000020
 824	8.1888e+01	8.1846	7.247642	0.000151	1.514715	0.256600	0.000015
 825	8.1988e+01	8.1953	7.266787	0.000192	1.924097	0.325951	0.000019
 826	8.2088e+01	8.2056	7.284303	0.000176	1.760344	0.298210	0.000018
 827	8.2187e+01	8.2159	7.307114	0.000229	2.292541	0.388367	0.000023
 828	8.2287e+01	8.2247	7.324223	0.000172	1.719406	0.291275	0.000017
 829	8.2386e+01	8.2332	7.340516	0.000164	1.637530	0.277405	0.000016
 830	8.2486e+01	8.2426	7.361291	0.000209	2.087850	0.353691	0.000021
 831	8.2585e+01	8.2526	7.378807	0.000176	1.760344	0.298210	0.000018
 832	8.2684e+01	8.2642	7.400803	0.000221	2.210665	0.374497	0.000022
 833	8.2784e+01	8.2771	7.419134	0.000184	1.842221	0.312081	0.000018
 834	8.2883e+01	8.2827	7.433798	0.000147	1.473777	0.249665	0.000015
 835	8.2983e+01	8.2931	7.457831	0.000242	2.415356	0.409172	0.000024
 836	8.3082e+01	8.3059	7.475754	0.000180	1.801283	0.305146	0.000018
 837	8.3182e+01	8.3154	7.494492	0.000188	1.883159	0.319016	0.000019
 838	8.3281e+01	8.3256	7.510378	0.000160	1.596591	0.270470	0.000016
 839	8.3381e+01	8.3353	7.532375	0.000221	2.210665	0.374497	0.000022
 840	8.3481e+01	8.3435	7.548261	0.000160	1.596591	0.270470	0.000016
 841	8.3580e+01	8.3522	7.566184	0.000180	1.801283	0.305146	0.000018
 842	8.3680e+01	8.3646	7.584515	0.000184	1.842221	0.312081	0.000018
 843	8.3779e+01	8.3750	7.604474	0.000201	2.005974	0.339821	0.000020
 844	8.3879e+01	8.3842	7.622397	0.000180	1.801283	0.305146	0.000018
 845	8.3978e+01	8.3936	7.640728	0.000184	1.842221	0.312081	0.000018
 846	8.4078e+01	8.4028	7.656207	0.000156	1.555653	0.263535	0.000016
 847	8.4177e+01	8.4143	7.678203	0.000221	2.210665	0.374497	0.000022
 848	8.4276e+01	8.4250	7.696941	0.000188	1.883159	0.319016	0.000019
 849	8.4376e+01	8.4326	7.712013	0.000151	1.514715	0.256600	0.000015
 850	8.4475e+01	8.4432	7.731158	0.000192	1.924097	0.325951	0.000019
 851	8.4575e+01	8.4577	7.753969	0.000229	2.292541	0.388367	0.000023
 852	8.4674e+01	8.4666	7.773114	0.000192	1.924097	0.325951	0.000019
 853	8.4774e+01	8.4731	7.791037	0.000180	1.801283	0.305146	0.000018
 854	8.4874e+01	8.4844	7.811812	0.000209	2.087850	0.353691	0.000021
 855	8.4973e+01	8.4961	7.827291	0.000156	1.555653	0.263535	0.000016
 856	8.5073e+01	8.5010	7.842362	0.000151	1.514715	0.256600	0.000015
 857	8.5172e+01	8.5116	7.866396	0.000242	2.415356	0.409172	0.000024
 858	8.5272e+01	8.5250	7.884726	0.000184	1.842221	0.312081	0.000018
 859	8.5371e+01	8.5308	7.903871	0.000192	1.924097	0.325951	0.000019
 860	8.5471e+01	8.5419	7.920980	0.000172	1.719406	0.291275	0.000017
 861	8.5570e+01	8.5547	7.940939	0.000201	2.005974	0.339821	0.000020
 862	8.5669e+01	8.5622	7.960492	0.000197	1.965035	0.332886	0.000020
 863	8.5769e+01	8.5694	7.977193	0.000168	1.678468	0.284340	0.000017
 864	8.5868e+01	8.5810	7.995931	0.000188	1.883159	0.319016	0.000019
 865	8.5968e+01	8.5925	8.016705	0.000209	2.087850	0.353691	0.000021
 866	8.6067e+01	8.6013	8.038294	0.000217	2.169727	0.367562	0.000022
 867	8.6167e+01	8.6124	8.059069	0.000209	2.087850	0.353691	0.000021
 868	8.6266e+01	8.6194	8.069660	0.000106	1.064394	0.180313	0.000011
 869	8.6366e+01	8.6319	8.092471	0.000229	2.292541	0.388367	0.000023
 870	8.6466e+01	8.6426	8.108357	0.000160	1.596591	0.270470	0.000016
 871	8.6565e+01	8.6523	8.123836	0.000156	1.555653	0.263535	0.000016
 872	8.6665e+01	8.6613	8.141759	0.000180	1.801283	0.305146	0.000018
 873	8.6764e+01	8.6698	8.156016	0.000143	1.432838	0.242729	0.000014
 874	8.6864e+01	8.6819	8.171495	0.000156	1.555653	0.263535	0.000016
 875	8.6963e+01	8.6926	8.191455	0.000201	2.005974	0.339821	0.000020
 876	8.7063e+01	8.7003	8.210600	0.000192	1.924097	0.325951	0.000019
 877	8.7162e+01	8.7158	8.225264	0.000147	1.473777	0.249665	0.000015
 878	8.7261e+01	8.7196	8.243188	0.000180	1.801283	0.305146	0.000018
 879	8.7361e+01	8.7329	8.259889	0.000168	1.678468	0.284340	0.000017
 880	8.7460e+01	8.7428	8.277404	0.000176	1.760344	0.298210	0.000018
 881	8.7560e+01	8.7518	8.298586	0.000213	2.128788	0.360627	0.000021
 882	8.7659e+01	8.7622	8.314065	0.000156	1.555653	0.263535	0.000016
 883	8.7759e+01	8.7699	8.335654	0.000217	2.169727	0.367562	0.000022
 884	8.7859e+01	8.7807	8.352763	0.000172	1.719406	0.291275	0.000017
 885	8.7958e+01	8.7926	8.371093	0.000184	1.842221	0.312081	0.000018
 886	8.8058e+01	8.8013	8.389831	0.000188	1.883159	0.319016	0.000019
 887	8.8157e+01	8.8113	8.409383	0.000197	1.965035	0.332886	0.000020
 888	8.8257e+01	8.8194	8.428121	0.000188	1.883159	0.319016	0.000019
 889	8.8356e+01	8.8284	8.444415	0.000164	1.637530	0.277405	0.000016
 890	8.8456e+01	8.8398	8.466004	0.000217	2.169727	0.367562	0.000022
 891	8.8555e+01	8.8501	8.485556	0.000197	1.965035	0.332886	0.000020
 892	8.8654e+01	8.8602	8.509997	0.000246	2.456294	0.416108	0.000025
 893	8.8754e+01	8.8707	8.527105	0.000172	1.719406	0.291275	0.000017
 894	8.8853e+01	8.8831	8.547472	0.000205	2.046912	0.346756	0.000020
 895	8.8953e+01	8.8906	8.571506	0.000242	2.415356	0.409172	0.000024
 896	8.9052e+01	8.9026	8.593095	0.000217	2.169727	0.367562	0.000022
 897	8.9152e+01	8.9101	8.613869	0.000209	2.087850	0.353691	0.000021
 898	8.9251e+01	8.9231	8.635051	0.000213	2.128788	0.360627	0.000021
 899	8.9351e+01	8.9307	8.656640	0.000217	2.169727	0.367562	0.000022
 900	8.9451e+01	8.9394	8.674971	0.000184	1.842221	0.312081	0.000018
 901	8.9550e+01	8.9502	8.693708	0.000188	1.883159	0.319016	0.000019
 902	8.9650e+01	8.9581	8.714890	0.000213	2.128788	0.360627	0.000021
 903	8.9749e+01	8.9691	8.733221	0.000184	1.842221	0.312081	0.000018
 904	8.9849e+01	8.9787	8.749922	0.000168	1.678468	0.284340	0.000017
 905	8.9948e+01	8.9899	8.771103	0.000213	2.128788	0.360627	0.000021
 906	9.0047e+01	8.9991	8.794322	0.000233	2.333480	0.395302	0.000023
 907	9.0147e+01	9.0112	8.807764	0.000135	1.350962	0.228859	0.000014
 908	9.0246e+01	9.0189	8.826909	0.000192	1.924097	0.325951	0.000019
 909	9.0346e+01	9.0323	8.845647	0.000188	1.883159	0.319016	0.000019
 910	9.0445e+01	9.0417	8.868458	0.000229	2.292541	0.388367	0.000023
 911	9.0545e+01	9.0503	8.884752	0.000164	1.637530	0.277405	0.000016
 912	9.0644e+01	9.0593	8.904712	0.000201	2.005974	0.339821	0.000020
 913	9.0744e+01	9.0702	8.925894	0.000213	2.128788	0.360627	0.000021
 914	9.0844e+01	9.0791	8.945853	0.000201	2.005974	0.339821	0.000020
 915	9.0943e+01	9.0894	8.960110	0.000143	1.432838	0.242729	0.000014
 916	9.1043e+01	9.1003	8.980885	0.000209	2.087850	0.353691	0.000021
 917	9.1142e+01	9.1113	8.998808	0.000180	1.801283	0.305146	0.000018
 918	9.1242e+01	9.1187	9.022434	0.000237	2.374418	0.402237	0.000024
 919	9.1341e+01	9.1309	9.037098	0.000147	1.473777	0.249665	0.000015
 920	9.1441e+01	9.1406	9.058280	0.000213	2.128788	0.360627	0.000021
 921	9.1540e+01	9.1512	9.073759	0.000156	1.555653	0.263535	0.000016
 922	9.1639e+01	9.1589	9.096163	0.000225	2.251603	0.381432	0.000023
 923	9.1739e+01	9.1696	9.113679	0.000176	1.760344	0.298210	0.000018
 924	9.1838e+01	9.1797	9.134046	0.000205	2.046912	0.346756	0.000020
 925	9.1938e+01	9.1882	9.152783	0.000188	1.883159	0.319016	0.000019
 926	9.2037e+01	9.1980	9.172743	0.000201	2.005974	0.339821	0.000020
 927	9.2137e+01	9.2109	9.194332	0.000217	2.169727	0.367562	0.000022
 928	9.2237e+01	9.2200	9.213478	0.000192	1.924097	0.325951	0.000019
 929	9.2336e+01	9.2292	9.232215	0.000188	1.883159	0.319016	0.000019
 930	9.2436e+01	9.2419	9.251768	0.000197	1.965035	0.332886	0.000020
 931	9.2535e+01	9.2480	9.270505	0.000188	1.883159	0.319016	0.000019
 932	9.2635e+01	9.2590	9.288429	0.000180	1.801283	0.305146	0.000018
 933	9.2734e+01	9.2667	9.303908	0.000156	1.555653	0.263535	0.000016
 934	9.2834e+01	9.2799	9.324275	0.000205	2.046912	0.346756	0.000020
 935	9.2933e+01	9.2881	9.338532	0.000143	1.432838	0.242729	0.000014
 936	9.3032e+01	9.2986	9.358899	0.000205	2.046912	0.346756	0.000020
 937	9.3132e+01	9.3081	9.380488	0.000217	2.169727	0.367562	0.000022
 938	9.3231e+01	9.3159	9.395152	0.000147	1.473777	0.249665	0.000015
 939	9.3331e+01	9.3276	9.416334	0.000213	2.128788	0.360627	0.000021
 940	9.3430e+01	9.3372	9.433442	0.000172	1.719406	0.291275	0.000017
 941	9.3530e+01	9.3478	9.452995	0.000197	1.965035	0.332886	0.000020
 942	9.3629e+01	9.3571	9.470918	0.000180	1.801283	0.305146	0.000018
 943	9.3729e+01	9.3681	9.490470	0.000197	1.965035	0.332886	0.000020
 944	9.3829e+01	9.3777	9.509208	0.000188	1.883159	0.319016	0.000019
 945	9.3928e+01	9.3884	9.526724	0.000176	1.760344	0.298210	0.000018
 946	9.4028e+01	9.3970	9.546276	0.000197	1.965035	0.332886	0.000020
 947	9.4127e+01	9.4080	9.563792	0.000176	1.760344	0.298210	0.000018
 948	9.4227e+01	9.4160	9.583345	0.000197	1.965035	0.332886	0.000020
 949	9.4326e+01	9.4270	9.602897	0.000197	1.965035	0.332886	0.000020
 950	9.4425e+01	9.4363	9.619598	0.000168	1.678468	0.284340	0.000017
 951	9.4525e+01	9.4482	9.637114	0.000176	1.760344	0.298210	0.000018
 952	9.4624e+01	9.4585	9.657481	0.000205	2.046912	0.346756	0.000020
 953	9.4724e+01	9.4678	9.674589	0.000172	1.719406	0.291275	0.000017
 954	9.4823e+01	9.4793	9.695771	0.000213	2.128788	0.360627	0.000021
 955	9.4923e+01	9.4880	9.713287	0.000176	1.760344	0.298210	0.000018
 956	9.5022e+01	9.4949	9.737727	0.000246	2.456294	0.416108	0.000025
 957	9.5122e+01	9.5074	9.757687	0.000201	2.005974	0.339821	0.000020
 958	9.5222e+01	9.5170	9.780091	0.000225	2.251603	0.381432	0.000023
 959	9.5321e+01	9.5264	9.798421	0.000184	1.842221	0.312081	0.000018
 960	9.5421e+01	9.5361	9.821233	0.000229	2.292541	0.388367	0.000023
 961	9.5520e+01	9.5466	9.836712	0.000156	1.555653	0.263535	0.000016
 962	9.5620e+01	9.5561	9.859115	0.000225	2.251603	0.381432	0.000023
 963	9.5719e+01	9.5692	9.879483	0.000205	2.046912	0.346756	0.000020
 964	9.5819e+01	9.5760	9.896184	0.000168	1.678468	0.284340	0.000017
 965	9.5918e+01	9.5863	9.918180	0.000221	2.210665	0.374497	0.000022
 966	9.6017e+01	9.5960	9.936511	0.000184	1.842221	0.312081	0.000018
 967	9.6117e+01	9.6064	9.956878	0.000205	2.046912	0.346756	0.000020
 968	9.6216e+01	9.6170	9.976023	0.000192	1.924097	0.325951	0.000019
 969	9.6316e+01	9.6245	9.993131	0.000172	1.719406	0.291275	0.000017
 970	9.6415e+01	9.6375	10.011462	0.000184	1.842221	0.312081	0.000018
 971	9.6515e+01	9.6458	10.030199	0.000188	1.883159	0.319016	0.000019
 972	9.6615e+01	9.6563	10.047308	0.000172	1.719406	0.291275	0.000017
 973	9.6714e+01	9.6639	10.062787	0.000156	1.555653	0.263535	0.000016
 974	9.6814e+01	9.6784	10.080710	0.000180	1.801283	0.305146	0.000018
 975	9.6913e+01	9.6870	10.100670	0.000201	2.005974	0.339821	0.000020
 976	9.7013e+01	9.6983	10.113297	0.000127	1.269085	0.214989	0.000013
 977	9.7112e+01	9.7065	10.129591	0.000164	1.637530	0.277405	0.000016
 978	9.7212e+01	9.7153	10.146292	0.000168	1.678468	0.284340	0.000017
 979	9.7311e+01	9.7250	10.160956	0.000147	1.473777	0.249665	0.000015
 980	9.7410e+01	9.7347	10.180101	0.000192	1.924097	0.325951	0.000019
 981	9.7510e+01	9.7452	10.193544	0.000135	1.350962	0.228859	0.000014
 982	9.7609e+01	9.7559	10.208615	0.000151	1.514715	0.256600	0.000015
 983	9.7709e+01	9.7647	10.225316	0.000168	1.678468	0.284340	0.000017
 984	9.7808e+01	9.7733	10.242425	0.000172	1.719406	0.291275	0.000017
 985	9.7908e+01	9.7858	10.263199	0.000209	2.087850	0.353691	0.000021
 986	9.8007e+01	9.7949	10.276642	0.000135	1.350962	0.228859	0.000014
 987	9.8107e+01	9.8035	10.297416	0.000209	2.087850	0.353691	0.000021
 988	9.8207e+01	9.8153	10.314524	0.000172	1.719406	0.291275	0.000017
 989	9.8306e+01	9.8260	10.332855	0.000184	1.842221	0.312081	0.000018
 990	9.8406e+01	9.8389	10.348334	0.000156	1.555653	0.263535	0.000016
 991	9.8505e+01	9.8456	10.368294	0.000201	2.005974	0.339821	0.000020
 992	9.8605e+01	9.8542	10.386624	0.000184	1.842221	0.312081	0.000018
 993	9.8704e+01	9.8653	10.401696	0.000151	1.514715	0.256600	0.000015
 994	9.8803e+01	9.8751	10.420026	0.000184	1.842221	0.312081	0.000018
 995	9.8903e+01	9.8856	10.440801	0.000209	2.087850	0.353691	0.000021
 996	9.9002e+01	9.8944	10.458316	0.000176	1.760344	0.298210	0.000018
 997	9.9102e+01	9.9061	10.474203	0.000160	1.596591	0.270470	0.000016
 998	9.9201e+01	9.9158	10.490496	0.000164	1.637530	0.277405	0.000016
 999	9.9301e+01	9.9248	10.513308	0.000229	2.292541	0.388367	0.000023
1000	9.9400e+01	9.9348	10.529194	0.000160	1.596591	0.270470	0.000016
1001	9.9500e+01	9.9439	10.549561	0.000205	2.046912	0.346756	0.000020
1002	9.9600e+01	9.9530	10.569521	0.000201	2.005974	0.339821	0.000020
1003	9.9699e+01	9.9642	10.585815	0.000164	1.637530	0.277405	0.000016
1004	9.9799e+01	9.9756	10.602516	0.000168	1.678468	0.284340	0.000017
1005	9.9898e+01	9.9836	10.620846	0.000184	1.842221	0.312081	0.000018
1006	9.9998e+01	9.9951	10.637954	0.000172	1.719406	0.291275	0.000017
1007	1.0010e+02	9.9835	10.628993	0.000090	0.900641	0.152573	-0.000009
1008	1.0020e+02	9.9735	10.617180	0.000119	1.187209	0.201119	-0.000012
1009	1.0030e+02	9.9628	10.606182	0.000111	1.105332	0.187248	-0.000011
1010	1.0040e+02	9.9574	10.593147	0.000131	1.310024	0.221924	-0.000013
1011	1.0050e+02	9.9451	10.578482	0.000147	1.473777	0.249665	-0.000015
1012	1.0059e+02	9.9341	10.568706	0.000098	0.982518	0.166443	-0.000010
1013	1.0069e+02	9.9238	10.554042	0.000147	1.473777	0.249665	-0.000015
1014	1.0079e+02	9.9146	10.544673	0.000094	0.941579	0.159508	-0.000009
1015	1.0089e+02	9.9048	10.532860	0.000119	1.187209	0.201119	-0.000012
1016	1.0099e+02	9.8950	10.521454	0.000115	1.146271	0.194184	-0.000011
1017	1.0109e+02	9.8849	10.510864	0.000106	1.064394	0.180313	-0.000011
1018	1.0119e+02	9.8731	10.494570	0.000164	1.637530	0.277405	-0.000016
1019	1.0129e+02	9.8627	10.482350	0.000123	1.228147	0.208054	-0.000012
1020	1.0139e+02	9.8562	10.469315	0.000131	1.310024	0.221924	-0.000013
1021	1.0149e+02	9.8441	10.459946	0.000094	0.941579	0.159508	-0.000009
1022	1.0159e+02	9.8358	10.444059	0.000160	1.596591	0.270470	-0.000016
1023	1.0169e+02	9.8269	10.436727	0.000074	0.736888	0.124832	-0.000007
1024	1.0179e+02	9.8138	10.419211	0.000176	1.760344	0.298210	-0.000018
1025	1.0189e+02	9.8047	10.405769	0.000135	1.350962	0.228859	-0.000014
1026	1.0199e+02	9.7958	10.394364	0.000115	1.146271	0.194184	-0.000011
1027	1.0209e+02	9.7853	10.381329	0.000131	1.310024	0.221924	-0.000013
1028	1.0219e+02	9.7720	10.367072	0.000143	1.432838	0.242729	-0.000014
1029	1.0229e+02	9.7675	10.354444	0.000127	1.269085	0.214989	-0.000013
1030	1.0239e+02	9.7561	10.344260	0.000102	1.023456	0.173378	-0.000010
1031	1.0248e+02	9.7449	10.328781	0.000156	1.555653	0.263535	-0.000016
1032	1.0258e+02	9.7346	10.317376	0.000115	1.146271	0.194184	-0.000011
1033	1.0268e+02	9.7266	10.300675	0.000168	1.678468	0.284340	-0.000017
1034	1.0278e+02	9.7181	10.287640	0.000131	1.310024	0.221924	-0.000013
1035	1.0288e+02	9.7073	10.276642	0.000111	1.105332	0.187248	-0.000011
1036	1.0298e+02	9.6967	10.260755	0.000160	1.596591	0.270470	-0.000016
1037	1.0308e+02	9.6866	10.247313	0.000135	1.350962	0.228859	-0.000014
1038	1.0318e+02	9.6771	10.232649	0.000147	1.473777	0.249665	-0.000015
1039	1.0328e+02	9.6671	10.215540	0.000172	1.719406	0.291275	-0.000017
1040	1.0338e+02	9.6551	10.200061	0.000156	1.555653	0.263535	-0.000016
1041	1.0348e+02	9.6478	10.182545	0.000176	1.760344	0.298210	-0.000018
1042	1.0358e+02	9.6375	10.169510	0.000131	1.310024	0.221924	-0.000013
1043	1.0368e+02	9.6289	10.152809	0.000168	1.678468	0.284340	-0.000017
1044	1.0378e+02	9.6191	10.135701	0.000172	1.719406	0.291275	-0.000017
1045	1.0388e+02	9.6061	10.120629	0.000151	1.514715	0.256600	-0.000015
1046	1.0398e+02	9.5962	10.104743	0.000160	1.596591	0.270470	-0.000016
1047	1.0408e+02	9.5850	10.094559	0.000102	1.023456	0.173378	-0.000010
1048	1.0418e+02	9.5767	10.079080	0.000156	1.555653	0.263535	-0.000016
1049	1.0428e+02	9.5679	10.067675	0.000115	1.146271	0.194184	-0.000011
1050	1.0438e+02	9.5575	10.052196	0.000156	1.555653	0.263535	-0.000016
1051	1.0447e+02	9.5469	10.035087	0.000172	1.719406	0.291275	-0.000017
1052	1.0457e+02	9.5367	10.023274	0.000119	1.187209	0.201119	-0.000012
1053	1.0467e+02	9.5242	10.007795	0.000156	1.555653	0.263535	-0.000016
1054	1.0477e+02	9.5168	9.993538	0.000143	1.432838	0.242729	-0.000014
1055	1.0487e+02	9.5051	9.979689	0.000139	1.391900	0.235794	-0.000014
1056	1.0497e+02	9.4967	9.969505	0.000102	1.023456	0.173378	-0.000010
1057	1.0507e+02	9.4861	9.954434	0.000151	1.514715	0.256600	-0.000015
1058	1.0517e+02	9.4788	9.941806	0.000127	1.269085	0.214989	-0.000013
1059	1.0527e+02	9.4702	9.926327	0.000156	1.555653	0.263535	-0.000016
1060	1.0537e+02	9.4568	9.916143	0.000102	1.023456	0.173378	-0.000010
1061	1.0547e+02	9.4476	9.907182	0.000090	0.900641	0.152573	-0.000009
1062	1.0557e+02	9.4397	9.894962	0.000123	1.228147	0.208054	-0.000012
1063	1.0567e+02	9.4263	9.882741	0.000123	1.228147	0.208054	-0.000012
1064	1.0577e+02	9.4177	9.872558	0.000102	1.023456	0.173378	-0.000010
1065	1.0587e+02	9.4081	9.857893	0.000147	1.473777	0.249665	-0.000015
1066	1.0597e+02	9.3957	9.847710	0.000102	1.023456	0.173378	-0.000010
1067	1.0607e+02	9.3883	9.831416	0.000164	1.637530	0.277405	-0.000016
1068	1.0617e+02	9.3788	9.822047	0.000094	0.941579	0.159508	-0.000009
1069	1.0627e+02	9.3696	9.804939	0.000172	1.719406	0.291275	-0.000017
1070	1.0637e+02	9.3569	9.792719	0.000123	1.228147	0.208054	-0.000012
1071	1.0647e+02	9.3524	9.780498	0.000123	1.228147	0.208054	-0.000012
1072	1.0656e+02	9.3412	9.764205	0.000164	1.637530	0.277405	-0.000016
1073	1.0666e+02	9.3292	9.751984	0.000123	1.228147	0.208054	-0.000012
1074	1.0676e+02	9.3179	9.736098	0.000160	1.596591	0.270470	-0.000016
1075	1.0686e+02	9.3099	9.723063	0.000131	1.310024	0.221924	-0.000013
1076	1.0696e+02	9.2969	9.707991	0.000151	1.514715	0.256600	-0.000015
1077	1.0706e+02	9.2898	9.693327	0.000147	1.473777	0.249665	-0.000015
1078	1.0716e+02	9.2776	9.681107	0.000123	1.228147	0.208054	-0.000012
1079	1.0726e+02	9.2682	9.664406	0.000168	1.678468	0.284340	-0.000017
1080	1.0736e+02	9.2584	9.648927	0.000156	1.555653	0.263535	-0.000016
1081	1.0746e+02	9.2471	9.638743	0.000102	1.023456	0.173378	-0.000010
1082	1.0756e+02	9.2426	9.622857	0.000160	1.596591	0.270470	-0.000016
1083	1.0766e+02	9.2299	9.610636	0.000123	1.228147	0.208054	-0.000012
1084	1.0776e+02	9.2182	9.589047	0.000217	2.169727	0.367562	-0.000022
1085	1.0786e+02	9.2065	9.580086	0.000090	0.900641	0.152573	-0.000009
1086	1.0796e+02	9.2010	9.562163	0.000180	1.801283	0.305146	-0.000018
1087	1.0806e+02	9.1879	9.552794	0.000094	0.941579	0.159508	-0.000009
1088	1.0816e+02	9.1797	9.538537	0.000143	1.432838	0.242729	-0.000014
1089	1.0826e+02	9.1688	9.523465	0.000151	1.514715	0.256600	-0.000015
1090	1.0836e+02	9.1574	9.506357	0.000172	1.719406	0.291275	-0.000017
1091	1.0845e+02	9.1512	9.496173	0.000102	1.023456	0.173378	-0.000010
1092	1.0855e+02	9.1396	9.479472	0.000168	1.678468	0.284340	-0.000017
1093	1.0865e+02	9.1302	9.465215	0.000143	1.432838	0.242729	-0.000014
1094	1.0875e+02	9.1180	9.452588	0.000127	1.269085	0.214989	-0.000013
1095	1.0885e+02	9.1090	9.442404	0.000102	1.023456	0.173378	-0.000010
1096	1.0895e+02	9.0955	9.422444	0.000201	2.005974	0.339821	-0.000020
1097	1.0905e+02	9.0881	9.410224	0.000123	1.228147	0.208054	-0.000012
1098	1.0915e+02	9.0800	9.392708	0.000176	1.760344	0.298210	-0.000018
1099	1.0925e+02	9.0696	9.380081	0.000127	1.269085	0.214989	-0.000013
1100	1.0935e+02	9.0565	9.363380	0.000168	1.678468	0.284340	-0.000017
1101	1.0945e+02	9.0497	9.348308	0.000151	1.514715	0.256600	-0.000015
1102	1.0955e+02	9.0390	9.336902	0.000115	1.146271	0.194184	-0.000011
1103	1.0965e+02	9.0287	9.316943	0.000201	2.005974	0.339821	-0.000020
1104	1.0975e+02	9.0186	9.302686	0.000143	1.432838	0.242729	-0.000014
1105	1.0985e+02	9.0094	9.289651	0.000131	1.310024	0.221924	-0.000013
1106	1.0995e+02	8.9983	9.271320	0.000184	1.842221	0.312081	-0.000018
1107	1.1005e+02	8.9898	9.259100	0.000123	1.228147	0.208054	-0.000012
1108	1.1015e+02	8.9813	9.240769	0.000184	1.842221	0.312081	-0.000018
1109	1.1025e+02	8.9684	9.225290	0.000156	1.555653	0.263535	-0.000016
1110	1.1035e+02	8.9587	9.214700	0.000106	1.064394	0.180313	-0.000011
1111	1.1044e+02	8.9490	9.197591	0.000172	1.719406	0.291275	-0.000017
1112	1.1054e+02	8.9404	9.181297	0.000164	1.637530	0.277405	-0.000016
1113	1.1064e+02	8.9321	9.168670	0.000127	1.269085	0.214989	-0.000013
1114	1.1074e+02	8.9210	9.151154	0.000176	1.760344	0.298210	-0.000018
1115	1.1084e+02	8.9104	9.134046	0.000172	1.719406	0.291275	-0.000017
1116	1.1094e+02	8.8966	9.119381	0.000147	1.473777	0.249665	-0.000015
1117	1.1104e+02	8.8901	9.107161	0.000123	1.228147	0.208054	-0.000012
1118	1.1114e+02	8.8794	9.087201	0.000201	2.005974	0.339821	-0.000020
1119	1.1124e+02	8.8715	9.071722	0.000156	1.555653	0.263535	-0.000016
1120	1.1134e+02	8.8602	9.058687	0.000131	1.310024	0.221924	-0.000013
1121	1.1144e+02	8.8509	9.044430	0.000143	1.432838	0.242729	-0.000014
1122	1.1154e+02	8.8379	9.029359	0.000151	1.514715	0.256600	-0.000015
1123	1.1164e+02	8.8315	9.018360	0.000111	1.105332	0.187248	-0.000011
1124	1.1174e+02	8.8232	9.004103	0.000143	1.432838	0.242729	-0.000014
1125	1.1184e+02	8.8106	8.993513	0.000106	1.064394	0.180313	-0.000011
1126	1.1194e+02	8.8007	8.983736	0.000098	0.982518	0.166443	-0.000010
1127	1.1204e+02	8.7952	8.968257	0.000156	1.555653	0.263535	-0.000016
1128	1.1214e+02	8.7806	8.956444	0.000119	1.187209	0.201119	-0.000012
1129	1.1224e+02	8.7707	8.938521	0.000180	1.801283	0.305146	-0.000018
1130	1.1234e+02	8.7598	8.923450	0.000151	1.514715	0.256600	-0.000015
1131	1.1244e+02	8.7510	8.907563	0.000160	1.596591	0.270470	-0.000016
1132	1.1253e+02	8.7402	8.894936	0.000127	1.269085	0.214989	-0.000013
1133	1.1263e+02	8.7354	8.880271	0.000147	1.473777	0.249665	-0.000015
1134	1.1273e+02	8.7222	8.864385	0.000160	1.596591	0.270470	-0.000016
1135	1.1283e+02	8.7125	8.848091	0.000164	1.637530	0.277405	-0.000016
1136	1.1293e+02	8.7035	8.831390	0.000168	1.678468	0.284340	-0.000017
1137	1.1303e+02	8.6935	8.817948	0.000135	1.350962	0.228859	-0.000014
1138	1.1313e+02	8.6806	8.802876	0.000151	1.514715	0.256600	-0.000015
1139	1.1323e+02	8.6736	8.784953	0.000180	1.801283	0.305146	-0.000018
1140	1.1333e+02	8.6623	8.769474	0.000156	1.555653	0.263535	-0.000016
1141	1.1343e+02	8.6533	8.756032	0.000135	1.350962	0.228859	-0.000014
1142	1.1353e+02	8.6431	8.736887	0.000192	1.924097	0.325951	-0.000019
1143	1.1363e+02	8.6328	8.720186	0.000168	1.678468	0.284340	-0.000017
1144	1.1373e+02	8.6256	8.699004	0.000213	2.128788	0.360627	-0.000021
1145	1.1383e+02	8.6140	8.679044	0.000201	2.005974	0.339821	-0.000020
1146	1.1393e+02	8.6028	8.660306	0.000188	1.883159	0.319016	-0.000019
1147	1.1403e+02	8.5933	8.644013	0.000164	1.637530	0.277405	-0.000016
1148	1.1413e+02	8.5822	8.626090	0.000180	1.801283	0.305146	-0.000018
1149	1.1423e+02	8.5735	8.608981	0.000172	1.719406	0.291275	-0.000017
1150	1.1433e+02	8.5638	8.592280	0.000168	1.678468	0.284340	-0.000017
1151	1.1442e+02	8.5562	8.574357	0.000180	1.801283	0.305146	-0.000018
1152	1.1452e+02	8.5428	8.556841	0.000176	1.760344	0.298210	-0.000018
1153	1.1462e+02	8.5352	8.539326	0.000176	1.760344	0.298210	-0.000018
1154	1.1472e+02	8.5263	8.522217	0.000172	1.719406	0.291275	-0.000017
1155	1.1482e+02	8.5151	8.508368	0.000139	1.391900	0.235794	-0.000014
1156	1.1492e+02	8.5038	8.491259	0.000172	1.719406	0.291275	-0.000017
1157	1.1502e+02	8.4943	8.474151	0.000172	1.719406	0.291275	-0.000017
1158	1.1512e+02	8.4815	8.456635	0.000176	1.760344	0.298210	-0.000018
1159	1.1522e+02	8.4721	8.442378	0.000143	1.432838	0.242729	-0.000014
1160	1.1532e+02	8.4622	8.426084	0.000164	1.637530	0.277405	-0.000016
1161	1.1542e+02	8.4525	8.408161	0.000180	1.801283	0.305146	-0.000018
1162	1.1552e+02	8.4425	8.393497	0.000147	1.473777	0.249665	-0.000015
1163	1.1562e+02	8.4328	8.373537	0.000201	2.005974	0.339821	-0.000020
1164	1.1572e+02	8.4219	8.360910	0.000127	1.269085	0.214989	-0.000013
1165	1.1582e+02	8.4140	8.345431	0.000156	1.555653	0.263535	-0.000016
1166	1.1592e+02	8.4022	8.325878	0.000197	1.965035	0.332886	-0.000020
1167	1.1602e+02	8.3936	8.311621	0.000143	1.432838	0.242729	-0.000014
1168	1.1612e+02	8.3838	8.293291	0.000184	1.842221	0.312081	-0.000018
1169	1.1622e+02	8.3725	8.279034	0.000143	1.432838	0.242729	-0.000014
1170	1.1632e+02	8.3631	8.264777	0.000143	1.432838	0.242729	-0.000014
1171	1.1642e+02	8.3547	8.248076	0.000168	1.678468	0.284340	-0.000017
1172	1.1651e+02	8.3440	8.229745	0.000184	1.842221	0.312081	-0.000018
1173	1.1661e+02	8.3324	8.214266	0.000156	1.555653	0.263535	-0.000016
1174	1.1671e+02	8.3252	8.197565	0.000168	1.678468	0.284340	-0.000017
1175	1.1681e+02	8.3154	8.180457	0.000172	1.719406	0.291275	-0.000017
1176	1.1691e+02	8.3037	8.164570	0.000160	1.596591	0.270470	-0.000016
1177	1.1701e+02	8.2941	8.145018	0.000197	1.965035	0.332886	-0.000020
1178	1.1711e+02	8.2848	8.129539	0.000156	1.555653	0.263535	-0.000016
1179	1.1721e+02	8.2758	8.112838	0.000168	1.678468	0.284340	-0.000017
1180	1.1731e+02	8.2641	8.098174	0.000147	1.473777	0.249665	-0.000015
1181	1.1741e+02	8.2559	8.080251	0.000180	1.801283	0.305146	-0.000018
1182	1.1751e+02	8.2439	8.062735	0.000176	1.760344	0.298210	-0.000018
1183	1.1761e+02	8.2343	8.046441	0.000164	1.637530	0.277405	-0.000016
1184	1.1771e+02	8.2253	8.026481	0.000201	2.005974	0.339821	-0.000020
1185	1.1781e+02	8.2154	8.013039	0.000135	1.350962	0.228859	-0.000014
1186	1.1791e+02	8.2048	7.993894	0.000192	1.924097	0.325951	-0.000019
1187	1.1801e+02	8.1918	7.979230	0.000147	1.473777	0.249665	-0.000015
1188	1.1811e+02	8.1846	7.966602	0.000127	1.269085	0.214989	-0.000013
1189	1.1821e+02	8.1731	7.948272	0.000184	1.842221	0.312081	-0.000018
1190	1.1831e+02	8.1628	7.932793	0.000156	1.555653	0.263535	-0.000016
1191	1.1841e+02	8.1532	7.913647	0.000192	1.924097	0.325951	-0.000019
1192	1.1850e+02	8.1451	7.900612	0.000131	1.310024	0.221924	-0.000013
1193	1.1860e+02	8.1333	7.885133	0.000156	1.555653	0.263535	-0.000016
1194	1.1870e+02	8.1245	7.864766	0.000205	2.046912	0.346756	-0.000020
1195	1.1880e+02	8.1152	7.851324	0.000135	1.350962	0.228859	-0.000014
1196	1.1890e+02	8.1039	7.835030	0.000164	1.637530	0.277405	-0.000016
1197	1.1900e+02	8.0949	7.817515	0.000176	1.760344	0.298210	-0.000018
1198	1.1910e+02	8.0849	7.803258	0.000143	1.432838	0.242729	-0.000014
1199	1.1920e+02	8.0780	7.787779	0.000156	1.555653	0.263535	-0.000016
1200	1.1930e+02	8.0644	7.769041	0.000188	1.883159	0.319016	-0.000019
1201	1.1940e+02	8.0566	7.753969	0.000151	1.514715	0.256600	-0.000015
1202	1.1950e+02	8.0432	7.738490	0.000156	1.555653	0.263535	-0.000016
1203	1.1960e+02	8.0352	7.720160	0.000184	1.842221	0.312081	-0.000018
1204	1.1970e+02	8.0261	7.703459	0.000168	1.678468	0.284340	-0.000017
1205	1.1980e+02	8.0140	7.684721	0.000188	1.883159	0.319016	-0.000019
1206	1.1990e+02	8.0045	7.669649	0.000151	1.514715	0.256600	-0.000015
1207	1.2000e+02	7.9954	7.646838	0.000229	2.292541	0.388367	-0.000023
1208	1.2010e+02	7.9839	7.632174	0.000147	1.473777	0.249665	-0.000015
1209	1.2020e+02	7.9740	7.610177	0.000221	2.210665	0.374497	-0.000022
1210	1.2030e+02	7.9662	7.590625	0.000197	1.965035	0.332886	-0.000020
1211	1.2039e+02	7.9575	7.576368	0.000143	1.432838	0.242729	-0.000014
1212	1.2049e+02	7.9447	7.556001	0.000205	2.046912	0.346756	-0.000020
1213	1.2059e+02	7.9379	7.536856	0.000192	1.924097	0.325951	-0.000019
1214	1.2069e+02	7.9249	7.521377	0.000156	1.555653	0.263535	-0.000016
1215	1.2079e+02	7.9153	7.504675	0.000168	1.678468	0.284340	-0.000017
1216	1.2089e+02	7.9057	7.483494	0.000213	2.128788	0.360627	-0.000021
1217	1.2099e+02	7.8972	7.468422	0.000151	1.514715	0.256600	-0.000015
1218	1.2109e+02	7.8838	7.450499	0.000180	1.801283	0.305146	-0.000018
1219	1.2119e+02	7.8764	7.435020	0.000156	1.555653	0.263535	-0.000016
1220	1.2129e+02	7.8684	7.419948	0.000151	1.514715	0.256600	-0.000015
1221	1.2139e+02	7.8552	7.402840	0.000172	1.719406	0.291275	-0.000017
1222	1.2149e+02	7.8461	7.387768	0.000151	1.514715	0.256600	-0.000015
1223	1.2159e+02	7.8369	7.373104	0.000147	1.473777	0.249665	-0.000015
1224	1.2169e+02	7.8263	7.352737	0.000205	2.046912	0.346756	-0.000020
1225	1.2179e+02	7.8158	7.343368	0.000094	0.941579	0.159508	-0.000009
1226	1.2189e+02	7.8076	7.324630	0.000188	1.883159	0.319016	-0.000019
1227	1.2199e+02	7.7966	7.312410	0.000123	1.228147	0.208054	-0.000012
1228	1.2209e+02	7.7900	7.293265	0.000192	1.924097	0.325951	-0.000019
1229	1.2219e+02	7.7759	7.281452	0.000119	1.187209	0.201119	-0.000012
1230	1.2229e+02	7.7666	7.268417	0.000131	1.310024	0.221924	-0.000013
1231	1.2239e+02	7.7572	7.252938	0.000156	1.555653	0.263535	-0.000016
1232	1.2248e+02	7.7457	7.241125	0.000119	1.187209	0.201119	-0.000012
1233	1.2258e+02	7.7354	7.224424	0.000168	1.678468	0.284340	-0.000017
1234	1.2268e+02	7.7275	7.208945	0.000156	1.555653	0.263535	-0.000016
1235	1.2278e+02	7.7167	7.194280	0.000147	1.473777	0.249665	-0.000015
1236	1.2288e+02	7.7077	7.178801	0.000156	1.555653	0.263535	-0.000016
1237	1.2298e+02	7.6975	7.160878	0.000180	1.801283	0.305146	-0.000018
1238	1.2308e+02	7.6888	7.146621	0.000143	1.432838	0.242729	-0.000014
1239	1.2318e+02	7.6745	7.129920	0.000168	1.678468	0.284340	-0.000017
1240	1.2328e+02	7.6669	7.113627	0.000164	1.637530	0.277405	-0.000016
1241	1.2338e+02	7.6565	7.097333	0.000164	1.637530	0.277405	-0.000016
1242	1.2348e+02	7.6476	7.080632	0.000168	1.678468	0.284340	-0.000017
1243	1.2358e+02	7.6380	7.065153	0.000156	1.555653	0.263535	-0.000016
1244	1.2368e+02	7.6291	7.048859	0.000164	1.637530	0.277405	-0.000016
1245	1.2378e+02	7.6180	7.030936	0.000180	1.801283	0.305146	-0.000018
1246	1.2388e+02	7.6067	7.017086	0.000139	1.391900	0.235794	-0.000014
1247	1.2398e+02	7.5993	6.998756	0.000184	1.842221	0.312081	-0.000018
1248	1.2408e+02	7.5857	6.978389	0.000205	2.046912	0.346756	-0.000020
1249	1.2418e+02	7.5767	6.964539	0.000139	1.391900	0.235794	-0.000014
1250	1.2428e+02	7.5638	6.949468	0.000151	1.514715	0.256600	-0.000015
1251	1.2438e+02	7.5589	6.931952	0.000176	1.760344	0.298210	-0.000018
1252	1.2447e+02	7.5471	6.914029	0.000180	1.801283	0.305146	-0.000018
1253	1.2457e+02	7.5394	6.899772	0.000143	1.432838	0.242729	-0.000014
1254	1.2467e+02	7.5289	6.881849	0.000180	1.801283	0.305146	-0.000018
1255	1.2477e+02	7.5175	6.863926	0.000180	1.801283	0.305146	-0.000018
1256	1.2487e+02	7.5085	6.844781	0.000192	1.924097	0.325951	-0.000019
1257	1.2497e+02	7.4992	6.830931	0.000139	1.391900	0.235794	-0.000014
1258	1.2507e+02	7.4883	6.816674	0.000143	1.432838	0.242729	-0.000014
1259	1.2517e+02	7.4795	6.799973	0.000168	1.678468	0.284340	-0.000017
1260	1.2527e+02	7.4667	6.783679	0.000164	1.637530	0.277405	-0.000016
1261	1.2537e+02	7.4578	6.764534	0.000192	1.924097	0.325951	-0.000019
1262	1.2547e+02	7.4500	6.754351	0.000102	1.023456	0.173378	-0.000010
1263	1.2557e+02	7.4386	6.734798	0.000197	1.965035	0.332886	-0.000020
1264	1.2567e+02	7.4279	6.719319	0.000156	1.555653	0.263535	-0.000016
1265	1.2577e+02	7.4170	6.704655	0.000147	1.473777	0.249665	-0.000015
1266	1.2587e+02	7.4089	6.685510	0.000192	1.924097	0.325951	-0.000019
1267	1.2597e+02	7.3988	6.667994	0.000176	1.760344	0.298210	-0.000018
1268	1.2607e+02	7.3902	6.650886	0.000172	1.719406	0.291275	-0.000017
1269	1.2617e+02	7.3791	6.630518	0.000205	2.046912	0.346756	-0.000020
1270	1.2627e+02	7.3684	6.613410	0.000172	1.719406	0.291275	-0.000017
1271	1.2636e+02	7.3586	6.599560	0.000139	1.391900	0.235794	-0.000014
1272	1.2646e+02	7.3478	6.580415	0.000192	1.924097	0.325951	-0.000019
1273	1.2656e+02	7.3399	6.562492	0.000180	1.801283	0.305146	-0.000018
1274	1.2666e+02	7.3292	6.544162	0.000184	1.842221	0.312081	-0.000018
1275	1.2676e+02	7.3184	6.527868	0.000164	1.637530	0.277405	-0.000016
1276	1.2686e+02	7.3089	6.509130	0.000188	1.883159	0.319016	-0.000019
1277	1.2696e+02	7.3031	6.494059	0.000151	1.514715	0.256600	-0.000015
1278	1.2706e+02	7.2888	6.478172	0.000160	1.596591	0.270470	-0.000016
1279	1.2716e+02	7.2787	6.462286	0.000160	1.596591	0.270470	-0.000016
1280	1.2726e+02	7.2666	6.443548	0.000188	1.883159	0.319016	-0.000019
1281	1.2736e+02	7.2600	6.429699	0.000139	1.391900	0.235794	-0.000014
1282	1.2746e+02	7.2491	6.408109	0.000217	2.169727	0.367562	-0.000022
1283	1.2756e+02	7.2388	6.393038	0.000151	1.514715	0.256600	-0.000015
1284	1.2766e+02	7.2326	6.374300	0.000188	1.883159	0.319016	-0.000019
1285	1.2776e+02	7.2218	6.355155	0.000192	1.924097	0.325951	-0.000019
1286	1.2786e+02	7.2094	6.340083	0.000151	1.514715	0.256600	-0.000015
1287	1.2796e+02	7.2012	6.322567	0.000176	1.760344	0.298210	-0.000018
1288	1.2806e+02	7.1900	6.306274	0.000164	1.637530	0.277405	-0.000016
1289	1.2816e+02	7.1804	6.288758	0.000176	1.760344	0.298210	-0.000018
1290	1.2826e+02	7.1683	6.275316	0.000135	1.350962	0.228859	-0.000014
1291	1.2835e+02	7.1617	6.258615	0.000168	1.678468	0.284340	-0.000017
1292	1.2845e+02	7.1499	6.242728	0.000160	1.596591	0.270470	-0.000016
1293	1.2855e+02	7.1397	6.229693	0.000131	1.310024	0.221924	-0.000013
1294	1.2865e+02	7.1294	6.216251	0.000135	1.350962	0.228859	-0.000014
1295	1.2875e+02	7.1207	6.199550	0.000168	1.678468	0.284340	-0.000017
1296	1.2885e+02	7.1087	6.183256	0.000164	1.637530	0.277405	-0.000016
1297	1.2895e+02	7.0998	6.165333	0.000180	1.801283	0.305146	-0.000018
1298	1.2905e+02	7.0924	6.147817	0.000176	1.760344	0.298210	-0.000018
1299	1.2915e+02	7.0803	6.132338	0.000156	1.555653	0.263535	-0.000016
1300	1.2925e+02	7.0703	6.116859	0.000156	1.555653	0.263535	-0.000016
1301	1.2935e+02	7.0608	6.098122	0.000188	1.883159	0.319016	-0.000019
1302	1.2945e+02	7.0505	6.081013	0.000172	1.719406	0.291275	-0.000017
1303	1.2955e+02	7.0397	6.062276	0.000188	1.883159	0.319016	-0.000019
1304	1.2965e+02	7.0309	6.044760	0.000176	1.760344	0.298210	-0.000018
1305	1.2975e+02	7.0216	6.027651	0.000172	1.719406	0.291275	-0.000017
1306	1.2985e+02	7.0130	6.010543	0.000172	1.719406	0.291275	-0.000017
1307	1.2995e+02	7.0020	5.993027	0.000176	1.760344	0.298210	-0.000018
1308	1.3005e+02	6.9880	5.974290	0.000188	1.883159	0.319016	-0.000019
1309	1.3015e+02	6.9816	5.957996	0.000164	1.637530	0.277405	-0.000016
1310	1.3025e+02	6.9701	5.938851	0.000192	1.924097	0.325951	-0.000019
1311	1.3034e+02	6.9607	5.918076	0.000209	2.087850	0.353691	-0.000021
1312	1.3044e+02	6.9500	5.898116	0.000201	2.005974	0.339821	-0.000020
1313	1.3054e+02	6.9411	5.876935	0.000213	2.128788	0.360627	-0.000021
1314	1.3064e+02	6.9289	5.856975	0.000201	2.005974	0.339821	-0.000020
1315	1.3074e+02	6.9201	5.837015	0.000201	2.005974	0.339821	-0.000020
1316	1.3084e+02	6.9125	5.812982	0.000242	2.415356	0.409172	-0.000024
1317	1.3094e+02	6.9025	5.798725	0.000143	1.432838	0.242729	-0.000014
1318	1.3104e+02	6.8916	5.775914	0.000229	2.292541	0.388367	-0.000023
1319	1.3114e+02	6.8835	5.757176	0.000188	1.883159	0.319016	-0.000019
1320	1.3124e+02	6.8703	5.738031	0.000192	1.924097	0.325951	-0.000019
1321	1.3134e+02	6.8588	5.722959	0.000151	1.514715	0.256600	-0.000015
1322	1.3144e+02	6.8511	5.699741	0.000233	2.333480	0.395302	-0.000023
1323	1.3154e+02	6.8410	5.684262	0.000156	1.555653	0.263535	-0.000016
1324	1.3164e+02	6.8302	5.666746	0.000176	1.760344	0.298210	-0.000018
1325	1.3174e+02	6.8213	5.646379	0.000205	2.046912	0.346756	-0.000020
1326	1.3184e+02	6.8099	5.629678	0.000168	1.678468	0.284340	-0.000017
1327	1.3194e+02	6.8011	5.610125	0.000197	1.965035	0.332886	-0.000020
1328	1.3204e+02	6.7910	5.590166	0.000201	2.005974	0.339821	-0.000020
1329	1.3214e+02	6.7834	5.574686	0.000156	1.555653	0.263535	-0.000016
1330	1.3224e+02	6.7723	5.555541	0.000192	1.924097	0.325951	-0.000019
1331	1.3234e+02	6.7638	5.535582	0.000201	2.005974	0.339821	-0.000020
1332	1.3243e+02	6.7519	5.519695	0.000160	1.596591	0.270470	-0.000016
1333	1.3253e+02	6.7432	5.504624	0.000151	1.514715	0.256600	-0.000015
1334	1.3263e+02	6.7330	5.484664	0.000201	2.005974	0.339821	-0.000020
1335	1.3273e+02	6.7229	5.467555	0.000172	1.719406	0.291275	-0.000017
1336	1.3283e+02	6.7129	5.445152	0.000225	2.251603	0.381432	-0.000023
1337	1.3293e+02	6.7019	5.431709	0.000135	1.350962	0.228859	-0.000014
1338	1.3303e+02	6.6930	5.411342	0.000205	2.046912	0.346756	-0.000020
1339	1.3313e+02	6.6833	5.395048	0.000164	1.637530	0.277405	-0.000016
1340	1.3323e+02	6.6726	5.372237	0.000229	2.292541	0.388367	-0.000023
1341	1.3333e+02	6.6628	5.355536	0.000168	1.678468	0.284340	-0.000017
1342	1.3343e+02	6.6523	5.338428	0.000172	1.719406	0.291275	-0.000017
1343	1.3353e+02	6.6425	5.320097	0.000184	1.842221	0.312081	-0.000018
1344	1.3363e+02	6.6326	5.300952	0.000192	1.924097	0.325951	-0.000019
1345	1.3373e+02	6.6233	5.282215	0.000188	1.883159	0.319016	-0.000019
1346	1.3383e+02	6.6126	5.264291	0.000180	1.801283	0.305146	-0.000018
1347	1.3393e+02	6.6080	5.244332	0.000201	2.005974	0.339821	-0.000020
1348	1.3403e+02	6.5911	5.225187	0.000192	1.924097	0.325951	-0.000019
1349	1.3413e+02	6.5829	5.205634	0.000197	1.965035	0.332886	-0.000020
1350	1.3423e+02	6.5726	5.190155	0.000156	1.555653	0.263535	-0.000016
1351	1.3432e+02	6.5630	5.172639	0.000176	1.760344	0.298210	-0.000018
1352	1.3442e+02	6.5520	5.155124	0.000176	1.760344	0.298210	-0.000018
1353	1.3452e+02	6.5441	5.136793	0.000184	1.842221	0.312081	-0.000018
1354	1.3462e+02	6.5328	5.118463	0.000184	1.842221	0.312081	-0.000018
1355	1.3472e+02	6.5228	5.100540	0.000180	1.801283	0.305146	-0.000018
1356	1.3482e+02	6.5121	5.083431	0.000172	1.719406	0.291275	-0.000017
1357	1.3492e+02	6.5039	5.063472	0.000201	2.005974	0.339821	-0.000020
1358	1.3502e+02	6.4933	5.046771	0.000168	1.678468	0.284340	-0.000017
1359	1.3512e+02	6.4813	5.027625	0.000192	1.924097	0.325951	-0.000019
1360	1.3522e+02	6.4724	5.010517	0.000172	1.719406	0.291275	-0.000017
1361	1.3532e+02	6.4635	4.990965	0.000197	1.965035	0.332886	-0.000020
1362	1.3542e+02	6.4527	4.973449	0.000176	1.760344	0.298210	-0.000018
1363	1.3552e+02	6.4435	4.953082	0.000205	2.046912	0.346756	-0.000020
1364	1.3562e+02	6.4317	4.938825	0.000143	1.432838	0.242729	-0.000014
1365	1.3572e+02	6.4217	4.918458	0.000205	2.046912	0.346756	-0.000020
1366	1.3582e+02	6.4146	4.902571	0.000160	1.596591	0.270470	-0.000016
1367	1.3592e+02	6.4046	4.883019	0.000197	1.965035	0.332886	-0.000020
1368	1.3602e+02	6.3932	4.867947	0.000151	1.514715	0.256600	-0.000015
1369	1.3612e+02	6.3833	4.846765	0.000213	2.128788	0.360627	-0.000021
1370	1.3622e+02	6.3744	4.832101	0.000147	1.473777	0.249665	-0.000015
1371	1.3631e+02	6.3625	4.809697	0.000225	2.251603	0.381432	-0.000023
1372	1.3641e+02	6.3538	4.791367	0.000184	1.842221	0.312081	-0.000018
1373	1.3651e+02	6.3456	4.772222	0.000192	1.924097	0.325951	-0.000019
1374	1.3661e+02	6.3345	4.749818	0.000225	2.251603	0.381432	-0.000023
1375	1.3671e+02	6.3229	4.729043	0.000209	2.087850	0.353691	-0.000021
1376	1.3681e+02	6.3126	4.709491	0.000197	1.965035	0.332886	-0.000020
1377	1.3691e+02	6.3071	4.689938	0.000197	1.965035	0.332886	-0.000020
1378	1.3701e+02	6.2960	4.668757	0.000213	2.128788	0.360627	-0.000021
1379	1.3711e+02	6.2842	4.650426	0.000184	1.842221	0.312081	-0.000018
1380	1.3721e+02	6.2751	4.630874	0.000197	1.965035	0.332886	-0.000020
1381	1.3731e+02	6.2646	4.613765	0.000172	1.719406	0.291275	-0.000017
1382	1.3741e+02	6.2541	4.593398	0.000205	2.046912	0.346756	-0.000020
1383	1.3751e+02	6.2432	4.574661	0.000188	1.883159	0.319016	-0.000019
1384	1.3761e+02	6.2330	4.553886	0.000209	2.087850	0.353691	-0.000021
1385	1.3771e+02	6.2255	4.535148	0.000188	1.883159	0.319016	-0.000019
1386	1.3781e+02	6.2137	4.516003	0.000192	1.924097	0.325951	-0.000019
1387	1.3791e+02	6.2040	4.498487	0.000176	1.760344	0.298210	-0.000018
1388	1.3801e+02	6.1951	4.482194	0.000164	1.637530	0.277405	-0.000016
1389	1.3811e+02	6.1848	4.463456	0.000188	1.883159	0.319016	-0.000019
1390	1.3821e+02	6.1736	4.443496	0.000201	2.005974	0.339821	-0.000020
1391	1.3831e+02	6.1643	4.426795	0.000168	1.678468	0.284340	-0.000017
1392	1.3840e+02	6.1538	4.412538	0.000143	1.432838	0.242729	-0.000014
1393	1.3850e+02	6.1457	4.390949	0.000217	2.169727	0.367562	-0.000022
1394	1.3860e+02	6.1343	4.377507	0.000135	1.350962	0.228859	-0.000014
1395	1.3870e+02	6.1272	4.359176	0.000184	1.842221	0.312081	-0.000018
1396	1.3880e+02	6.1167	4.341661	0.000176	1.760344	0.298210	-0.000018
1397	1.3890e+02	6.1052	4.328626	0.000131	1.310024	0.221924	-0.000013
1398	1.3900e+02	6.0972	4.313147	0.000156	1.555653	0.263535	-0.000016
1399	1.3910e+02	6.0836	4.297668	0.000156	1.555653	0.263535	-0.000016
1400	1.3920e+02	6.0737	4.280559	0.000172	1.719406	0.291275	-0.000017
1401	1.3930e+02	6.0653	4.262229	0.000184	1.842221	0.312081	-0.000018
1402	1.3940e+02	6.0535	4.245528	0.000168	1.678468	0.284340	-0.000017
1403	1.3950e+02	6.0469	4.229234	0.000164	1.637530	0.277405	-0.000016
1404	1.3960e+02	6.0352	4.212940	0.000164	1.637530	0.277405	-0.000016
1405	1.3970e+02	6.0279	4.193795	0.000192	1.924097	0.325951	-0.000019
1406	1.3980e+02	6.0186	4.175057	0.000188	1.883159	0.319016	-0.000019
1407	1.3990e+02	6.0059	4.156320	0.000188	1.883159	0.319016	-0.000019
1408	1.4000e+02	5.9966	4.141655	0.000147	1.473777	0.249665	-0.000015
1409	1.4010e+02	5.9866	4.120881	0.000209	2.087850	0.353691	-0.000021
1410	1.4020e+02	5.9768	4.100921	0.000201	2.005974	0.339821	-0.000020
1411	1.4029e+02	5.9658	4.084627	0.000164	1.637530	0.277405	-0.000016
1412	1.4039e+02	5.9556	4.067519	0.000172	1.719406	0.291275	-0.000017
1413	1.4049e+02	5.9473	4.052855	0.000147	1.473777	0.249665	-0.000015
1414	1.4059e+02	5.9374	4.033302	0.000197	1.965035	0.332886	-0.000020
1415	1.4069e+02	5.9266	4.010084	0.000233	2.333480	0.395302	-0.000023
1416	1.4079e+02	5.9197	3.994605	0.000156	1.555653	0.263535	-0.000016
1417	1.4089e+02	5.9031	3.977904	0.000168	1.678468	0.284340	-0.000017
1418	1.4099e+02	5.8950	3.955093	0.000229	2.292541	0.388367	-0.000023
1419	1.4109e+02	5.8864	3.939206	0.000160	1.596591	0.270470	-0.000016
1420	1.4119e+02	5.8746	3.920876	0.000184	1.842221	0.312081	-0.000018
1421	1.4129e+02	5.8663	3.904582	0.000164	1.637530	0.277405	-0.000016
1422	1.4139e+02	5.8567	3.882586	0.000221	2.210665	0.374497	-0.000022
1423	1.4149e+02	5.8462	3.865477	0.000172	1.719406	0.291275	-0.000017
1424	1.4159e+02	5.8367	3.849591	0.000160	1.596591	0.270470	-0.000016
1425	1.4169e+02	5.8283	3.829631	0.000201	2.005974	0.339821	-0.000020
1426	1.4179e+02	5.8167	3.812523	0.000172	1.719406	0.291275	-0.000017
1427	1.4189e+02	5.8081	3.792970	0.000197	1.965035	0.332886	-0.000020
1428	1.4199e+02	5.7967	3.776676	0.000164	1.637530	0.277405	-0.000016
1429	1.4209e+02	5.7885	3.757124	0.000197	1.965035	0.332886	-0.000020
1430	1.4219e+02	5.7781	3.739608	0.000176	1.760344	0.298210	-0.000018
1431	1.4228e+02	5.7684	3.720463	0.000192	1.924097	0.325951	-0.000019
1432	1.4238e+02	5.7571	3.706206	0.000143	1.432838	0.242729	-0.000014
1433	1.4248e+02	5.7465	3.683395	0.000229	2.292541	0.388367	-0.000023
1434	1.4258e+02	5.7369	3.665065	0.000184	1.842221	0.312081	-0.000018
1435	1.4268e+02	5.7264	3.646327	0.000188	1.883159	0.319016	-0.000019
1436	1.4278e+02	5.7195	3.627589	0.000188	1.883159	0.319016	-0.000019
1437	1.4288e+02	5.7073	3.608851	0.000188	1.883159	0.319016	-0.000019
1438	1.4298e+02	5.6954	3.588484	0.000205	2.046912	0.346756	-0.000020
1439	1.4308e+02	5.6886	3.569746	0.000188	1.883159	0.319016	-0.000019
1440	1.4318e+02	5.6776	3.550194	0.000197	1.965035	0.332886	-0.000020
1441	1.4328e+02	5.6686	3.530642	0.000197	1.965035	0.332886	-0.000020
1442	1.4338e+02	5.6579	3.513941	0.000168	1.678468	0.284340	-0.000017
1443	1.4348e+02	5.6481	3.493166	0.000209	2.087850	0.353691	-0.000021
1444	1.4358e+02	5.6385	3.476872	0.000164	1.637530	0.277405	-0.000016
1445	1.4368e+02	5.6275	3.455691	0.000213	2.128788	0.360627	-0.000021
1446	1.4378e+02	5.6175	3.439397	0.000164	1.637530	0.277405	-0.000016
1447	1.4388e+02	5.6087	3.415364	0.000242	2.415356	0.409172	-0.000024
1448	1.4398e+02	5.5986	3.399477	0.000160	1.596591	0.270470	-0.000016
1449	1.4408e+02	5.5869	3.379517	0.000201	2.005974	0.339821	-0.000020
1450	1.4418e+02	5.5769	3.362816	0.000168	1.678468	0.284340	-0.000017
1451	1.4428e+02	5.5680	3.341227	0.000217	2.169727	0.367562	-0.000022
1452	1.4437e+02	5.5560	3.322082	0.000192	1.924097	0.325951	-0.000019
1453	1.4447e+02	5.5489	3.304566	0.000176	1.760344	0.298210	-0.000018
1454	1.4457e+02	5.5372	3.282977	0.000217	2.169727	0.367562	-0.000022
1455	1.4467e+02	5.5257	3.265054	0.000180	1.801283	0.305146	-0.000018
1456	1.4477e+02	5.5186	3.243872	0.000213	2.128788	0.360627	-0.000021
1457	1.4487e+02	5.5090	3.229615	0.000143	1.432838	0.242729	-0.000014
1458	1.4497e+02	5.4992	3.213322	0.000164	1.637530	0.277405	-0.000016
1459	1.4507e+02	5.4897	3.197435	0.000160	1.596591	0.270470	-0.000016
1460	1.4517e+02	5.4784	3.177883	0.000197	1.965035	0.332886	-0.000020
1461	1.4527e+02	5.4675	3.163626	0.000143	1.432838	0.242729	-0.000014
1462	1.4537e+02	5.4581	3.146518	0.000172	1.719406	0.291275	-0.000017
1463	1.4547e+02	5.4504	3.131446	0.000151	1.514715	0.256600	-0.000015
1464	1.4557e+02	5.4380	3.111486	0.000201	2.005974	0.339821	-0.000020
1465	1.4567e+02	5.4293	3.093563	0.000180	1.801283	0.305146	-0.000018
1466	1.4577e+02	5.4176	3.072381	0.000213	2.128788	0.360627	-0.000021
1467	1.4587e+02	5.4099	3.055273	0.000172	1.719406	0.291275	-0.000017
1468	1.4597e+02	5.4014	3.040608	0.000147	1.473777	0.249665	-0.000015
1469	1.4607e+02	5.3887	3.021056	0.000197	1.965035	0.332886	-0.000020
1470	1.4617e+02	5.3790	2.997838	0.000233	2.333480	0.395302	-0.000023
1471	1.4626e+02	5.3680	2.980322	0.000176	1.760344	0.298210	-0.000018
1472	1.4636e+02	5.3600	2.963213	0.000172	1.719406	0.291275	-0.000017
1473	1.4646e+02	5.3506	2.942846	0.000205	2.046912	0.346756	-0.000020
1474	1.4656e+02	5.3396	2.920035	0.000229	2.292541	0.388367	-0.000023
1475	1.4666e+02	5.3277	2.898853	0.000213	2.128788	0.360627	-0.000021
1476	1.4676e+02	5.3205	2.881338	0.000176	1.760344	0.298210	-0.000018
1477	1.4686e+02	5.3086	2.858119	0.000233	2.333480	0.395302	-0.000023
1478	1.4696e+02	5.2990	2.837345	0.000209	2.087850	0.353691	-0.000021
1479	1.4706e+02	5.2895	2.819014	0.000184	1.842221	0.312081	-0.000018
1480	1.4716e+02	5.2779	2.793352	0.000258	2.579109	0.436913	-0.000026
1481	1.4726e+02	5.2680	2.773392	0.000201	2.005974	0.339821	-0.000020
1482	1.4736e+02	5.2589	2.750988	0.000225	2.251603	0.381432	-0.000023
1483	1.4746e+02	5.2502	2.731435	0.000197	1.965035	0.332886	-0.000020
1484	1.4756e+02	5.2390	2.709846	0.000217	2.169727	0.367562	-0.000022
1485	1.4766e+02	5.2285	2.682147	0.000278	2.783800	0.471589	-0.000028
1486	1.4776e+02	5.2222	2.665853	0.000164	1.637530	0.277405	-0.000016
1487	1.4786e+02	5.2106	2.641005	0.000250	2.497233	0.423043	-0.000025
1488	1.4796e+02	5.1985	2.623490	0.000176	1.760344	0.298210	-0.000018
1489	1.4806e+02	5.1907	2.606789	0.000168	1.678468	0.284340	-0.000017
1490	1.4816e+02	5.1797	2.584385	0.000225	2.251603	0.381432	-0.000023
1491	1.4825e+02	5.1685	2.566462	0.000180	1.801283	0.305146	-0.000018
1492	1.4835e+02	5.1591	2.544465	0.000221	2.210665	0.374497	-0.000022
1493	1.4845e+02	5.1495	2.524098	0.000205	2.046912	0.346756	-0.000020
1494	1.4855e+02	5.1411	2.504138	0.000201	2.005974	0.339821	-0.000020
1495	1.4865e+02	5.1292	2.483771	0.000205	2.046912	0.346756	-0.000020
1496	1.4875e+02	5.1168	2.463811	0.000201	2.005974	0.339821	-0.000020
1497	1.4885e+02	5.1118	2.443037	0.000209	2.087850	0.353691	-0.000021
1498	1.4895e+02	5.1023	2.425114	0.000180	1.801283	0.305146	-0.000018
1499	1.4905e+02	5.0912	2.403932	0.000213	2.128788	0.360627	-0.000021
1500	1.4915e+02	5.0805	2.383972	0.000201	2.005974	0.339821	-0.000020
1501	1.4925e+02	5.0715	2.363198	0.000209	2.087850	0.353691	-0.000021
1502	1.4935e+02	5.0623	2.346904	0.000164	1.637530	0.277405	-0.000016
1503	1.4945e+02	5.0488	2.326130	0.000209	2.087850	0.353691	-0.000021
1504	1.4955e+02	5.0397	2.306985	0.000192	1.924097	0.325951	-0.000019
1505	1.4965e+02	5.0311	2.285395	0.000217	2.169727	0.367562	-0.000022
1506	1.4975e+02	5.0210	2.268694	0.000168	1.678468	0.284340	-0.000017
1507	1.4985e+02	5.0103	2.247920	0.000209	2.087850	0.353691	-0.000021
1508	1.4995e+02	5.0000	2.227553	0.000205	2.046912	0.346756	-0.000020
1509	1.5005e+02	4.9905	2.207186	0.000205	2.046912	0.346756	-0.000020
1510	1.5015e+02	4.9848	2.185596	0.000217	2.169727	0.367562	-0.000022
1511	1.5025e+02	4.9717	2.164415	0.000213	2.128788	0.360627	-0.000021
1512	1.5034e+02	4.9627	2.143640	0.000209	2.087850	0.353691	-0.000021
1513	1.5044e+02	4.9510	2.125717	0.000180	1.801283	0.305146	-0.000018
1514	1.5054e+02	4.9416	2.102499	0.000233	2.333480	0.395302	-0.000023
1515	1.5064e+02	4.9323	2.084168	0.000184	1.842221	0.312081	-0.000018
1516	1.5074e+02	4.9225	2.062172	0.000221	2.210665	0.374497	-0.000022
1517	1.5084e+02	4.9128	2.045878	0.000164	1.637530	0.277405	-0.000016
1518	1.5094e+02	4.9024	2.022252	0.000237	2.374418	0.402237	-0.000024
1519	1.5104e+02	4.8915	2.002292	0.000201	2.005974	0.339821	-0.000020
1520	1.5114e+02	4.8809	1.982740	0.000197	1.965035	0.332886	-0.000020
1521	1.5124e+02	4.8721	1.964409	0.000184	1.842221	0.312081	-0.000018
1522	1.5134e+02	4.8621	1.948523	0.000160	1.596591	0.270470	-0.000016
1523	1.5144e+02	4.8510	1.924083	0.000246	2.456294	0.416108	-0.000025
1524	1.5154e+02	4.8422	1.905752	0.000184	1.842221	0.312081	-0.000018
1525	1.5164e+02	4.8316	1.885385	0.000205	2.046912	0.346756	-0.000020
1526	1.5174e+02	4.8203	1.864611	0.000209	2.087850	0.353691	-0.000021
1527	1.5184e+02	4.8123	1.845873	0.000188	1.883159	0.319016	-0.000019
1528	1.5194e+02	4.8000	1.826320	0.000197	1.965035	0.332886	-0.000020
1529	1.5204e+02	4.7906	1.807175	0.000192	1.924097	0.325951	-0.000019
1530	1.5214e+02	4.7824	1.783142	0.000242	2.415356	0.409172	-0.000024
1531	1.5224e+02	4.7729	1.766848	0.000164	1.637530	0.277405	-0.000016
1532	1.5233e+02	4.7604	1.745259	0.000217	2.169727	0.367562	-0.000022
1533	1.5243e+02	4.7514	1.726521	0.000188	1.883159	0.319016	-0.000019
1534	1.5253e+02	4.7439	1.708191	0.000184	1.842221	0.312081	-0.000018
1535	1.5263e+02	4.7316	1.686602	0.000217	2.169727	0.367562	-0.000022
1536	1.5273e+02	4.7228	1.667457	0.000192	1.924097	0.325951	-0.000019
1537	1.5283e+02	4.7124	1.644646	0.000229	2.292541	0.388367	-0.000023
1538	1.5293e+02	4.7038	1.623464	0.000213	2.128788	0.360627	-0.000021
1539	1.5303e+02	4.6918	1.604726	0.000188	1.883159	0.319016	-0.000019
1540	1.5313e+02	4.6854	1.584359	0.000205	2.046912	0.346756	-0.000020
1541	1.5323e+02	4.6722	1.564806	0.000197	1.965035	0.332886	-0.000020
1542	1.5333e+02	4.6618	1.540366	0.000246	2.456294	0.416108	-0.000025
1543	1.5343e+02	4.6542	1.516333	0.000242	2.415356	0.409172	-0.000024
1544	1.5353e+02	4.6386	1.494336	0.000221	2.210665	0.374497	-0.000022
1545	1.5363e+02	4.6345	1.471118	0.000233	2.333480	0.395302	-0.000023
1546	1.5373e+02	4.6229	1.452787	0.000184	1.842221	0.312081	-0.000018
1547	1.5383e+02	4.6140	1.429161	0.000237	2.374418	0.402237	-0.000024
1548	1.5393e+02	4.6023	1.409609	0.000197	1.965035	0.332886	-0.000020
1549	1.5403e+02	4.5940	1.387205	0.000225	2.251603	0.381432	-0.000023
1550	1.5413e+02	4.5816	1.365616	0.000217	2.169727	0.367562	-0.000022
1551	1.5422e+02	4.5789	1.344027	0.000217	2.169727	0.367562	-0.000022
1552	1.5432e+02	4.5650	1.320808	0.000233	2.333480	0.395302	-0.000023
1553	1.5442e+02	4.5547	1.306551	0.000143	1.432838	0.242729	-0.000014
1554	1.5452e+02	4.5412	1.280889	0.000258	2.579109	0.436913	-0.000026
1555	1.5462e+02	4.5348	1.264188	0.000168	1.678468	0.284340	-0.000017
1556	1.5472e+02	4.5242	1.245043	0.000192	1.924097	0.325951	-0.000019
1557	1.5482e+02	4.5116	1.225490	0.000197	1.965035	0.332886	-0.000020
1558	1.5492e+02	4.5050	1.202679	0.000229	2.292541	0.388367	-0.000023
1559	1.5502e+02	4.4933	1.183126	0.000197	1.965035	0.332886	-0.000020
1560	1.5512e+02	4.4815	1.164389	0.000188	1.883159	0.319016	-0.000019
1561	1.5522e+02	4.4727	1.145244	0.000192	1.924097	0.325951	-0.000019
1562	1.5532e+02	4.4630	1.129765	0.000156	1.555653	0.263535	-0.000016
1563	1.5542e+02	4.4524	1.113064	0.000168	1.678468	0.284340	-0.000017
1564	1.5552e+02	4.4430	1.095955	0.000172	1.719406	0.291275	-0.000017
1565	1.5562e+02	4.4333	1.076810	0.000192	1.924097	0.325951	-0.000019
1566	1.5572e+02	4.4241	1.061738	0.000151	1.514715	0.256600	-0.000015
1567	1.5582e+02	4.4125	1.040557	0.000213	2.128788	0.360627	-0.000021
1568	1.5592e+02	4.4032	1.025485	0.000151	1.514715	0.256600	-0.000015
1569	1.5602e+02	4.3944	1.007154	0.000184	1.842221	0.312081	-0.000018
1570	1.5612e+02	4.3825	0.985158	0.000221	2.210665	0.374497	-0.000022
1571	1.5622e+02	4.3780	0.962754	0.000225	2.251603	0.381432	-0.000023
1572	1.5631e+02	4.3640	0.948090	0.000147	1.473777	0.249665	-0.000015
1573	1.5641e+02	4.3542	0.925686	0.000225	2.251603	0.381432	-0.000023
1574	1.5651e+02	4.3444	0.905319	0.000205	2.046912	0.346756	-0.000020
1575	1.5661e+02	4.3356	0.886988	0.000184	1.842221	0.312081	-0.000018
1576	1.5671e+02	4.3256	0.866214	0.000209	2.087850	0.353691	-0.000021
1577	1.5681e+02	4.3147	0.847476	0.000188	1.883159	0.319016	-0.000019
1578	1.5691e+02	4.3051	0.827924	0.000197	1.965035	0.332886	-0.000020
1579	1.5701e+02	4.2959	0.807149	0.000209	2.087850	0.353691	-0.000021
1580	1.5711e+02	4.2877	0.787189	0.000201	2.005974	0.339821	-0.000020
1581	1.5721e+02	4.2737	0.765193	0.000221	2.210665	0.374497	-0.000022
1582	1.5731e+02	4.2645	0.747677	0.000176	1.760344	0.298210	-0.000018
1583	1.5741e+02	4.2530	0.724051	0.000237	2.374418	0.402237	-0.000024
1584	1.5751e+02	4.2462	0.709794	0.000143	1.432838	0.242729	-0.000014
1585	1.5761e+02	4.2334	0.685761	0.000242	2.415356	0.409172	-0.000024
1586	1.5771e+02	4.2254	0.669060	0.000168	1.678468	0.284340	-0.000017
1587	1.5781e+02	4.2171	0.645434	0.000237	2.374418	0.402237	-0.000024
1588	1.5791e+02	4.2039	0.625067	0.000205	2.046912	0.346756	-0.000020
1589	1.5801e+02	4.1956	0.605107	0.000201	2.005974	0.339821	-0.000020
1590	1.5811e+02	4.1849	0.585555	0.000197	1.965035	0.332886	-0.000020
1591	1.5821e+02	4.1756	0.564780	0.000209	2.087850	0.353691	-0.000021
1592	1.5830e+02	4.1644	0.542784	0.000221	2.210665	0.374497	-0.000022
1593	1.5840e+02	4.1547	0.524861	0.000180	1.801283	0.305146	-0.000018
1594	1.5850e+02	4.1451	0.502864	0.000221	2.210665	0.374497	-0.000022
1595	1.5860e+02	4.1331	0.486571	0.000164	1.637530	0.277405	-0.000016
1596	1.5870e+02	4.1236	0.467833	0.000188	1.883159	0.319016	-0.000019
1597	1.5880e+02	4.1167	0.445836	0.000221	2.210665	0.374497	-0.000022
1598	1.5890e+02	4.1073	0.426691	0.000192	1.924097	0.325951	-0.000019
1599	1.5900e+02	4.0957	0.406732	0.000201	2.005974	0.339821	-0.000020
1600	1.5910e+02	4.0870	0.385142	0.000217	2.169727	0.367562	-0.000022
1601	1.5920e+02	4.0743	0.361924	0.000233	2.333480	0.395302	-0.000023
1602	1.5930e+02	4.0665	0.344001	0.000180	1.801283	0.305146	-0.000018
1603	1.5940e+02	4.0578	0.324856	0.000192	1.924097	0.325951	-0.000019
1604	1.5950e+02	4.0435	0.299193	0.000258	2.579109	0.436913	-0.000026
1605	1.5960e+02	4.0336	0.277197	0.000221	2.210665	0.374497	-0.000022
1606	1.5970e+02	4.0285	0.258052	0.000192	1.924097	0.325951	-0.000019
1607	1.5980e+02	4.0146	0.238092	0.000201	2.005974	0.339821	-0.000020
1608	1.5990e+02	4.0054	0.216910	0.000213	2.128788	0.360627	-0.000021
1609	1.6000e+02	3.9944	0.201024	0.000160	1.596591	0.270470	-0.000016
1610	1.6010e+02	3.9853	0.177805	0.000233	2.333480	0.395302	-0.000023
1611	1.6019e+02	3.9758	0.154179	0.000237	2.374418	0.402237	-0.000024
1612	1.6029e+02	3.9648	0.134627	0.000197	1.965035	0.332886	-0.000020
1613	1.6039e+02	3.9561	0.115482	0.000192	1.924097	0.325951	-0.000019
1614	1.6049e+02	3.9471	0.095929	0.000197	1.965035	0.332886	-0.000020
1615	1.6059e+02	3.9346	0.075155	0.000209	2.087850	0.353691	-0.000021
1616	1.6069e+02	3.9285	0.053973	0.000213	2.128788	0.360627	-0.000021
1617	1.6079e+02	3.9159	0.029532	0.000246	2.456294	0.416108	-0.000025
1618	1.6089e+02	3.9051	0.009573	0.000201	2.005974	0.339821	-0.000020
1619	1.6099e+02	3.8955	-0.011609	0.000213	2.128788	0.360627	-0.000021
1620	1.6109e+02	3.8835	-0.031569	0.000201	2.005974	0.339821	-0.000020
1621	1.6119e+02	3.8763	-0.053158	0.000217	2.169727	0.367562	-0.000022
1622	1.6129e+02	3.8671	-0.073118	0.000201	2.005974	0.339821	-0.000020
1623	1.6139e+02	3.8574	-0.090634	0.000176	1.760344	0.298210	-0.000018
1624	1.6149e+02	3.8478	-0.114667	0.000242	2.415356	0.409172	-0.000024
1625	1.6159e+02	3.8357	-0.130146	0.000156	1.555653	0.263535	-0.000016
1626	1.6169e+02	3.8264	-0.152550	0.000225	2.251603	0.381432	-0.000023
1627	1.6179e+02	3.8178	-0.171288	0.000188	1.883159	0.319016	-0.000019
1628	1.6189e+02	3.8068	-0.186767	0.000156	1.555653	0.263535	-0.000016
1629	1.6199e+02	3.7962	-0.206726	0.000201	2.005974	0.339821	-0.000020
1630	1.6209e+02	3.7868	-0.226279	0.000197	1.965035	0.332886	-0.000020
1631	1.6219e+02	3.7769	-0.243795	0.000176	1.760344	0.298210	-0.000018
1632	1.6228e+02	3.7685	-0.267420	0.000237	2.374418	0.402237	-0.000024
1633	1.6238e+02	3.7574	-0.284121	0.000168	1.678468	0.284340	-0.000017
1634	1.6248e+02	3.7470	-0.308155	0.000242	2.415356	0.409172	-0.000024
1635	1.6258e+02	3.7371	-0.328522	0.000205	2.046912	0.346756	-0.000020
1636	1.6268e+02	3.7254	-0.346037	0.000176	1.760344	0.298210	-0.000018
1637	1.6278e+02	3.7154	-0.365997	0.000201	2.005974	0.339821	-0.000020
1638	1.6288e+02	3.7075	-0.388401	0.000225	2.251603	0.381432	-0.000023
1639	1.6298e+02	3.6984	-0.409990	0.000217	2.169727	0.367562	-0.000022
1640	1.6308e+02	3.6866	-0.431172	0.000213	2.128788	0.360627	-0.000021
1641	1.6318e+02	3.6787	-0.457649	0.000266	2.660986	0.450783	-0.000027
1642	1.6328e+02	3.6681	-0.479239	0.000217	2.169727	0.367562	-0.000022
1643	1.6338e+02	3.6600	-0.496347	0.000172	1.719406	0.291275	-0.000017
1644	1.6348e+02	3.6465	-0.519565	0.000233	2.333480	0.395302	-0.000023
1645	1.6358e+02	3.6386	-0.544006	0.000246	2.456294	0.416108	-0.000025
1646	1.6368e+02	3.6293	-0.563558	0.000197	1.965035	0.332886	-0.000020
1647	1.6378e+02	3.6195	-0.587999	0.000246	2.456294	0.416108	-0.000025
1648	1.6388e+02	3.6089	-0.614884	0.000270	2.701924	0.457718	-0.000027
1649	1.6398e+02	3.5962	-0.637695	0.000229	2.292541	0.388367	-0.000023
1650	1.6408e+02	3.5871	-0.660099	0.000225	2.251603	0.381432	-0.000023
1651	1.6418e+02	3.5815	-0.686983	0.000270	2.701924	0.457718	-0.000027
1652	1.6427e+02	3.5680	-0.707758	0.000209	2.087850	0.353691	-0.000021
1653	1.6437e+02	3.5588	-0.733013	0.000254	2.538171	0.429978	-0.000025
1654	1.6447e+02	3.5470	-0.755824	0.000229	2.292541	0.388367	-0.000023
1655	1.6457e+02	3.5378	-0.777821	0.000221	2.210665	0.374497	-0.000022
1656	1.6467e+02	3.5287	-0.799817	0.000221	2.210665	0.374497	-0.000022
1657	1.6477e+02	3.5208	-0.821406	0.000217	2.169727	0.367562	-0.000022
1658	1.6487e+02	3.5110	-0.840551	0.000192	1.924097	0.325951	-0.000019
1659	1.6497e+02	3.4974	-0.868251	0.000278	2.783800	0.471589	-0.000028
1660	1.6507e+02	3.4874	-0.887803	0.000197	1.965035	0.332886	-0.000020
1661	1.6517e+02	3.4787	-0.911022	0.000233	2.333480	0.395302	-0.000023
1662	1.6527e+02	3.4688	-0.930981	0.000201	2.005974	0.339821	-0.000020
1663	1.6537e+02	3.4588	-0.952571	0.000217	2.169727	0.367562	-0.000022
1664	1.6547e+02	3.4486	-0.974567	0.000221	2.210665	0.374497	-0.000022
1665	1.6557e+02	3.4399	-1.001452	0.000270	2.701924	0.457718	-0.000027
1666	1.6567e+02	3.4263	-1.019375	0.000180	1.801283	0.305146	-0.000018
1667	1.6577e+02	3.4206	-1.038927	0.000197	1.965035	0.332886	-0.000020
1668	1.6587e+02	3.4081	-1.063368	0.000246	2.456294	0.416108	-0.000025
1669	1.6597e+02	3.3973	-1.085364	0.000221	2.210665	0.374497	-0.000022
1670	1.6607e+02	3.3896	-1.105731	0.000205	2.046912	0.346756	-0.000020
1671	1.6616e+02	3.3766	-1.125284	0.000197	1.965035	0.332886	-0.000020
1672	1.6626e+02	3.3692	-1.148910	0.000237	2.374418	0.402237	-0.000024
1673	1.6636e+02	3.3583	-1.170499	0.000217	2.169727	0.367562	-0.000022
1674	1.6646e+02	3.3483	-1.193717	0.000233	2.333480	0.395302	-0.000023
1675	1.6656e+02	3.3398	-1.216529	0.000229	2.292541	0.388367	-0.000023
1676	1.6666e+02	3.3299	-1.239340	0.000229	2.292541	0.388367	-0.000023
1677	1.6676e+02	3.3190	-1.259299	0.000201	2.005974	0.339821	-0.000020
1678	1.6686e+02	3.3065	-1.282925	0.000237	2.374418	0.402237	-0.000024
1679	1.6696e+02	3.2991	-1.307366	0.000246	2.456294	0.416108	-0.000025
1680	1.6706e+02	3.2907	-1.328140	0.000209	2.087850	0.353691	-0.000021
1681	1.6716e+02	3.2790	-1.349730	0.000217	2.169727	0.367562	-0.000022
1682	1.6726e+02	3.2713	-1.371319	0.000217	2.169727	0.367562	-0.000022
1683	1.6736e+02	3.2587	-1.395352	0.000242	2.415356	0.409172	-0.000024
1684	1.6746e+02	3.2506	-1.415312	0.000201	2.005974	0.339821	-0.000020
1685	1.6756e+02	3.2400	-1.438530	0.000233	2.333480	0.395302	-0.000023
1686	1.6766e+02	3.2298	-1.460527	0.000221	2.210665	0.374497	-0.000022
1687	1.6776e+02	3.2208	-1.482523	0.000221	2.210665	0.374497	-0.000022
1688	1.6786e+02	3.2087	-1.504112	0.000217	2.169727	0.367562	-0.000022
1689	1.6796e+02	3.1983	-1.522443	0.000184	1.842221	0.312081	-0.000018
1690	1.6806e+02	3.1904	-1.545254	0.000229	2.292541	0.388367	-0.000023
1691	1.6816e+02	3.1789	-1.566436	0.000213	2.128788	0.360627	-0.000021
1692	1.6825e+02	3.1686	-1.588840	0.000225	2.251603	0.381432	-0.000023
1693	1.6835e+02	3.1597	-1.611651	0.000229	2.292541	0.388367	-0.000023
1694	1.6845e+02	3.1499	-1.636091	0.000246	2.456294	0.416108	-0.000025
1695	1.6855e+02	3.1374	-1.654422	0.000184	1.842221	0.312081	-0.000018
1696	1.6865e+02	3.1316	-1.675604	0.000213	2.128788	0.360627	-0.000021
1697	1.6875e+02	3.1216	-1.696785	0.000213	2.128788	0.360627	-0.000021
1698	1.6885e+02	3.1118	-1.721633	0.000250	2.497233	0.423043	-0.000025
1699	1.6895e+02	3.1001	-1.742815	0.000213	2.128788	0.360627	-0.000021
1700	1.6905e+02	3.0921	-1.765219	0.000225	2.251603	0.381432	-0.000023
1701	1.6915e+02	3.0836	-1.786401	0.000213	2.128788	0.360627	-0.000021
1702	1.6925e+02	3.0692	-1.807990	0.000217	2.169727	0.367562	-0.000022
1703	1.6935e+02	3.0606	-1.830394	0.000225	2.251603	0.381432	-0.000023
1704	1.6945e+02	3.0510	-1.850354	0.000201	2.005974	0.339821	-0.000020
1705	1.6955e+02	3.0393	-1.876831	0.000266	2.660986	0.450783	-0.000027
1706	1.6965e+02	3.0329	-1.896383	0.000197	1.965035	0.332886	-0.000020
1707	1.6975e+02	3.0222	-1.921231	0.000250	2.497233	0.423043	-0.000025
1708	1.6985e+02	3.0117	-1.946894	0.000258	2.579109	0.436913	-0.000026
1709	1.6995e+02	3.0015	-1.970112	0.000233	2.333480	0.395302	-0.000023
1710	1.7005e+02	2.9894	-1.992516	0.000225	2.251603	0.381432	-0.000023
1711	1.7015e+02	2.9789	-2.013698	0.000213	2.128788	0.360627	-0.000021
1712	1.7024e+02	2.9713	-2.043434	0.000299	2.988491	0.506264	-0.000030
1713	1.7034e+02	2.9603	-2.066245	0.000229	2.292541	0.388367	-0.000023
1714	1.7044e+02	2.9552	-2.087834	0.000217	2.169727	0.367562	-0.000022
1715	1.7054e+02	2.9398	-2.113089	0.000254	2.538171	0.429978	-0.000025
1716	1.7064e+02	2.9311	-2.135901	0.000229	2.292541	0.388367	-0.000023
1717	1.7074e+02	2.9223	-2.156268	0.000205	2.046912	0.346756	-0.000020
1718	1.7084e+02	2.9116	-2.179486	0.000233	2.333480	0.395302	-0.000023
1719	1.7094e+02	2.9003	-2.201483	0.000221	2.210665	0.374497	-0.000022
1720	1.7104e+02	2.8934	-2.226738	0.000254	2.538171	0.429978	-0.000025
1721	1.7114e+02	2.8810	-2.249549	0.000229	2.292541	0.388367	-0.000023
1722	1.7124e+02	2.8726	-2.271546	0.000221	2.210665	0.374497	-0.000022
1723	1.7134e+02	2.8600	-2.291098	0.000197	1.965035	0.332886	-0.000020
1724	1.7144e+02	2.8500	-2.315946	0.000250	2.497233	0.423043	-0.000025
1725	1.7154e+02	2.8395	-2.335906	0.000201	2.005974	0.339821	-0.000020
1726	1.7164e+02	2.8308	-2.360346	0.000246	2.456294	0.416108	-0.000025
1727	1.7174e+02	2.8289	-2.382343	0.000221	2.210665	0.374497	-0.000022
1728	1.7184e+02	2.8150	-2.399859	0.000176	1.760344	0.298210	-0.000018
1729	1.7194e+02	2.8016	-2.419411	0.000197	1.965035	0.332886	-0.000020
1730	1.7204e+02	2.7903	-2.442630	0.000233	2.333480	0.395302	-0.000023
1731	1.7213e+02	2.7850	-2.459738	0.000172	1.719406	0.291275	-0.000017
1732	1.7223e+02	2.7755	-2.479698	0.000201	2.005974	0.339821	-0.000020
1733	1.7233e+02	2.7643	-2.498843	0.000192	1.924097	0.325951	-0.000019
1734	1.7243e+02	2.7521	-2.517581	0.000188	1.883159	0.319016	-0.000019
1735	1.7253e+02	2.7419	-2.539984	0.000225	2.251603	0.381432	-0.000023
1736	1.7263e+02	2.7322	-2.560352	0.000205	2.046912	0.346756	-0.000020
1737	1.7273e+02	2.7226	-2.581941	0.000217	2.169727	0.367562	-0.000022
1738	1.7283e+02	2.7117	-2.605567	0.000237	2.374418	0.402237	-0.000024
1739	1.7293e+02	2.7032	-2.620231	0.000147	1.473777	0.249665	-0.000015
1740	1.7303e+02	2.6913	-2.643042	0.000229	2.292541	0.388367	-0.000023
1741	1.7313e+02	2.6815	-2.668705	0.000258	2.579109	0.436913	-0.000026
1742	1.7323e+02	2.6732	-2.687850	0.000192	1.924097	0.325951	-0.000019
1743	1.7333e+02	2.6627	-2.712290	0.000246	2.456294	0.416108	-0.000025
1744	1.7343e+02	2.6525	-2.735509	0.000233	2.333480	0.395302	-0.000023
1745	1.7353e+02	2.6420	-2.761171	0.000258	2.579109	0.436913	-0.000026
1746	1.7363e+02	2.6328	-2.781946	0.000209	2.087850	0.353691	-0.000021
1747	1.7373e+02	2.6221	-2.801091	0.000192	1.924097	0.325951	-0.000019
1748	1.7383e+02	2.6114	-2.825532	0.000246	2.456294	0.416108	-0.000025
1749	1.7393e+02	2.6025	-2.845084	0.000197	1.965035	0.332886	-0.000020
1750	1.7403e+02	2.5939	-2.868303	0.000233	2.333480	0.395302	-0.000023
1751	1.7413e+02	2.5833	-2.887040	0.000188	1.883159	0.319016	-0.000019
1752	1.7422e+02	2.5746	-2.911888	0.000250	2.497233	0.423043	-0.000025
1753	1.7432e+02	2.5613	-2.935921	0.000242	2.415356	0.409172	-0.000024
1754	1.7442e+02	2.5507	-2.955474	0.000197	1.965035	0.332886	-0.000020
1755	1.7452e+02	2.5414	-2.978692	0.000233	2.333480	0.395302	-0.000023
1756	1.7462e+02	2.5314	-3.001504	0.000229	2.292541	0.388367	-0.000023
1757	1.7472e+02	2.5242	-3.023500	0.000221	2.210665	0.374497	-0.000022
1758	1.7482e+02	2.5133	-3.045089	0.000217	2.169727	0.367562	-0.000022
1759	1.7492e+02	2.5063	-3.066678	0.000217	2.169727	0.367562	-0.000022
1760	1.7502e+02	2.4926	-3.089490	0.000229	2.292541	0.388367	-0.000023
1761	1.7512e+02	2.4854	-3.111079	0.000217	2.169727	0.367562	-0.000022
1762	1.7522e+02	2.4728	-3.131853	0.000209	2.087850	0.353691	-0.000021
1763	1.7532e+02	2.4609	-3.156701	0.000250	2.497233	0.423043	-0.000025
1764	1.7542e+02	2.4538	-3.175032	0.000184	1.842221	0.312081	-0.000018
1765	1.7552e+02	2.4441	-3.200287	0.000254	2.538171	0.429978	-0.000025
1766	1.7562e+02	2.4352	-3.222283	0.000221	2.210665	0.374497	-0.000022
1767	1.7572e+02	2.4212	-3.239392	0.000172	1.719406	0.291275	-0.000017
1768	1.7582e+02	2.4114	-3.267091	0.000278	2.783800	0.471589	-0.000028
1769	1.7592e+02	2.4059	-3.285014	0.000180	1.801283	0.305146	-0.000018
1770	1.7602e+02	2.3947	-3.311491	0.000266	2.660986	0.450783	-0.000027
1771	1.7612e+02	2.3843	-3.333488	0.000221	2.210665	0.374497	-0.000022
1772	1.7621e+02	2.3735	-3.357114	0.000237	2.374418	0.402237	-0.000024
1773	1.7631e+02	2.3640	-3.381147	0.000242	2.415356	0.409172	-0.000024
1774	1.7641e+02	2.3544	-3.402736	0.000217	2.169727	0.367562	-0.000022
1775	1.7651e+02	2.3421	-3.427584	0.000250	2.497233	0.423043	-0.000025
1776	1.7661e+02	2.3357	-3.446322	0.000188	1.883159	0.319016	-0.000019
1777	1.7671e+02	2.3228	-3.474021	0.000278	2.783800	0.471589	-0.000028
1778	1.7681e+02	2.3142	-3.498869	0.000250	2.497233	0.423043	-0.000025
1779	1.7691e+02	2.3044	-3.520865	0.000221	2.210665	0.374497	-0.000022
1780	1.7701e+02	2.2941	-3.541640	0.000209	2.087850	0.353691	-0.000021
1781	1.7711e+02	2.2827	-3.564858	0.000233	2.333480	0.395302	-0.000023
1782	1.7721e+02	2.2758	-3.587262	0.000225	2.251603	0.381432	-0.000023
1783	1.7731e+02	2.2655	-3.610888	0.000237	2.374418	0.402237	-0.000024
1784	1.7741e+02	2.2544	-3.636551	0.000258	2.579109	0.436913	-0.000026
1785	1.7751e+02	2.2459	-3.658547	0.000221	2.210665	0.374497	-0.000022
1786	1.7761e+02	2.2337	-3.680951	0.000225	2.251603	0.381432	-0.000023
1787	1.7771e+02	2.2247	-3.704577	0.000237	2.374418	0.402237	-0.000024
1788	1.7781e+02	2.2160	-3.727388	0.000229	2.292541	0.388367	-0.000023
1789	1.7791e+02	2.2039	-3.749792	0.000225	2.251603	0.381432	-0.000023
1790	1.7801e+02	2.1932	-3.774640	0.000250	2.497233	0.423043	-0.000025
1791	1.7810e+02	2.1855	-3.796229	0.000217	2.169727	0.367562	-0.000022
1792	1.7820e+02	2.1748	-3.814559	0.000184	1.842221	0.312081	-0.000018
1793	1.7830e+02	2.1665	-3.839407	0.000250	2.497233	0.423043	-0.000025
1794	1.7840e+02	2.1524	-3.854072	0.000147	1.473777	0.249665	-0.000015
1795	1.7850e+02	2.1449	-3.877290	0.000233	2.333480	0.395302	-0.000023
1796	1.7860e+02	2.1357	-3.900916	0.000237	2.374418	0.402237	-0.000024
1797	1.7870e+02	2.1236	-3.921690	0.000209	2.087850	0.353691	-0.000021
1798	1.7880e+02	2.1135	-3.940836	0.000192	1.924097	0.325951	-0.000019
1799	1.7890e+02	2.1015	-3.964869	0.000242	2.415356	0.409172	-0.000024
1800	1.7900e+02	2.0951	-3.987273	0.000225	2.251603	0.381432	-0.000023
1801	1.7910e+02	2.0853	-4.009676	0.000225	2.251603	0.381432	-0.000023
1802	1.7920e+02	2.0725	-4.032488	0.000229	2.292541	0.388367	-0.000023
1803	1.7930e+02	2.0663	-4.050818	0.000184	1.842221	0.312081	-0.000018
1804	1.7940e+02	2.0564	-4.076481	0.000258	2.579109	0.436913	-0.000026
1805	1.7950e+02	2.0467	-4.102143	0.000258	2.579109	0.436913	-0.000026
1806	1.7960e+02	2.0369	-4.122918	0.000209	2.087850	0.353691	-0.000021
1807	1.7970e+02	2.0272	-4.146136	0.000233	2.333480	0.395302	-0.000023
1808	1.7980e+02	2.0154	-4.171391	0.000254	2.538171	0.429978	-0.000025
1809	1.7990e+02	2.0088	-4.197054	0.000258	2.579109	0.436913	-0.000026
1810	1.8000e+02	1.9971	-4.219458	0.000225	2.251603	0.381432	-0.000023
1811	1.8009e+02	1.9848	-4.244713	0.000254	2.538171	0.429978	-0.000025
1812	1.8019e+02	1.9761	-4.269968	0.000254	2.538171	0.429978	-0.000025
1813	1.8029e+02	1.9681	-4.296853	0.000270	2.701924	0.457718	-0.000027
1814	1.8039e+02	1.9583	-4.320886	0.000242	2.415356	0.409172	-0.000024
1815	1.8049e+02	1.9457	-4.344919	0.000242	2.415356	0.409172	-0.000024
1816	1.8059e+02	1.9385	-4.375470	0.000307	3.070368	0.520134	-0.000031
1817	1.8069e+02	1.9259	-4.401133	0.000258	2.579109	0.436913	-0.000026
1818	1.8079e+02	1.9182	-4.425980	0.000250	2.497233	0.423043	-0.000025
1819	1.8089e+02	1.9035	-4.452458	0.000266	2.660986	0.450783	-0.000027
1820	1.8099e+02	1.8970	-4.478528	0.000262	2.620047	0.443848	-0.000026
1821	1.8109e+02	1.8875	-4.503376	0.000250	2.497233	0.423043	-0.000025
1822	1.8119e+02	1.8757	-4.525372	0.000221	2.210665	0.374497	-0.000022
1823	1.8129e+02	1.8661	-4.556330	0.000311	3.111306	0.527070	-0.000031
1824	1.8139e+02	1.8566	-4.575883	0.000197	1.965035	0.332886	-0.000020
1825	1.8149e+02	1.8450	-4.599101	0.000233	2.333480	0.395302	-0.000023
1826	1.8159e+02	1.8352	-4.623542	0.000246	2.456294	0.416108	-0.000025
1827	1.8169e+02	1.8272	-4.650834	0.000274	2.742862	0.464653	-0.000027
1828	1.8179e+02	1.8153	-4.674459	0.000237	2.374418	0.402237	-0.000024
1829	1.8189e+02	1.8066	-4.697678	0.000233	2.333480	0.395302	-0.000023
1830	1.8199e+02	1.7989	-4.718860	0.000213	2.128788	0.360627	-0.000021
1831	1.8209e+02	1.7887	-4.744522	0.000258	2.579109	0.436913	-0.000026
1832	1.8218e+02	1.7757	-4.768556	0.000242	2.415356	0.409172	-0.000024
1833	1.8228e+02	1.7661	-4.793403	0.000250	2.497233	0.423043	-0.000025
1834	1.8238e+02	1.7537	-4.820288	0.000270	2.701924	0.457718	-0.000027
1835	1.8248e+02	1.7445	-4.841470	0.000213	2.128788	0.360627	-0.000021
1836	1.8258e+02	1.7373	-4.865910	0.000246	2.456294	0.416108	-0.000025
1837	1.8268e+02	1.7285	-4.889536	0.000237	2.374418	0.402237	-0.000024
1838	1.8278e+02	1.7161	-4.912755	0.000233	2.333480	0.395302	-0.000023
1839	1.8288e+02	1.7060	-4.934751	0.000221	2.210665	0.374497	-0.000022
1840	1.8298e+02	1.6975	-4.963673	0.000291	2.906615	0.492394	-0.000029
1841	1.8308e+02	1.6905	-4.987706	0.000242	2.415356	0.409172	-0.000024
1842	1.8318e+02	1.6784	-5.014590	0.000270	2.701924	0.457718	-0.000027
1843	1.8328e+02	1.6662	-5.034958	0.000205	2.046912	0.346756	-0.000020
1844	1.8338e+02	1.6590	-5.059806	0.000250	2.497233	0.423043	-0.000025
1845	1.8348e+02	1.6479	-5.084653	0.000250	2.497233	0.423043	-0.000025
1846	1.8358e+02	1.6378	-5.109094	0.000246	2.456294	0.416108	-0.000025
1847	1.8368e+02	1.6263	-5.133127	0.000242	2.415356	0.409172	-0.000024
1848	1.8378e+02	1.6164	-5.158790	0.000258	2.579109	0.436913	-0.000026
1849	1.8388e+02	1.6074	-5.184452	0.000258	2.579109	0.436913	-0.000026
1850	1.8398e+02	1.5955	-5.205227	0.000209	2.087850	0.353691	-0.000021
1851	1.8407e+02	1.5891	-5.230889	0.000258	2.579109	0.436913	-0.000026
1852	1.8417e+02	1.5771	-5.259403	0.000287	2.865677	0.485459	-0.000029
1853	1.8427e+02	1.5668	-5.281807	0.000225	2.251603	0.381432	-0.000023
1854	1.8437e+02	1.5590	-5.304618	0.000229	2.292541	0.388367	-0.000023
1855	1.8447e+02	1.5472	-5.327430	0.000229	2.292541	0.388367	-0.000023
1856	1.8457e+02	1.5405	-5.350648	0.000233	2.333480	0.395302	-0.000023
1857	1.8467e+02	1.5289	-5.377940	0.000274	2.742862	0.464653	-0.000027
1858	1.8477e+02	1.5154	-5.399122	0.000213	2.128788	0.360627	-0.000021
1859	1.8487e+02	1.5096	-5.424784	0.000258	2.579109	0.436913	-0.000026
1860	1.8497e+02	1.4999	-5.450854	0.000262	2.620047	0.443848	-0.000026
1861	1.8507e+02	1.4851	-5.475295	0.000246	2.456294	0.416108	-0.000025
1862	1.8517e+02	1.4807	-5.499328	0.000242	2.415356	0.409172	-0.000024
1863	1.8527e+02	1.4692	-5.522139	0.000229	2.292541	0.388367	-0.000023
1864	1.8537e+02	1.4589	-5.545358	0.000233	2.333480	0.395302	-0.000023
1865	1.8547e+02	1.4503	-5.568169	0.000229	2.292541	0.388367	-0.000023
1866	1.8557e+02	1.4380	-5.595868	0.000278	2.783800	0.471589	-0.000028
1867	1.8567e+02	1.4276	-5.621124	0.000254	2.538171	0.429978	-0.000025
1868	1.8577e+02	1.4179	-5.642305	0.000213	2.128788	0.360627	-0.000021
1869	1.8587e+02	1.4101	-5.669597	0.000274	2.742862	0.464653	-0.000027
1870	1.8597e+02	1.3989	-5.692001	0.000225	2.251603	0.381432	-0.000023
1871	1.8606e+02	1.3869	-5.718478	0.000266	2.660986	0.450783	-0.000027
1872	1.8616e+02	1.3792	-5.742512	0.000242	2.415356	0.409172	-0.000024
1873	1.8626e+02	1.3694	-5.766952	0.000246	2.456294	0.416108	-0.000025
1874	1.8636e+02	1.3599	-5.789356	0.000225	2.251603	0.381432	-0.000023
1875	1.8646e+02	1.3490	-5.816648	0.000274	2.742862	0.464653	-0.000027
1876	1.8656e+02	1.3393	-5.839052	0.000225	2.251603	0.381432	-0.000023
1877	1.8666e+02	1.3283	-5.869195	0.000303	3.029430	0.513199	-0.000030
1878	1.8676e+02	1.3203	-5.897302	0.000282	2.824738	0.478524	-0.000028
1879	1.8686e+02	1.3055	-5.925816	0.000287	2.865677	0.485459	-0.000029
1880	1.8696e+02	1.3003	-5.950664	0.000250	2.497233	0.423043	-0.000025
1881	1.8706e+02	1.2881	-5.973068	0.000225	2.251603	0.381432	-0.000023
1882	1.8716e+02	1.2792	-6.000767	0.000278	2.783800	0.471589	-0.000028
1883	1.8726e+02	1.2685	-6.028059	0.000274	2.742862	0.464653	-0.000027
1884	1.8736e+02	1.2579	-6.052907	0.000250	2.497233	0.423043	-0.000025
1885	1.8746e+02	1.2477	-6.077755	0.000250	2.497233	0.423043	-0.000025
1886	1.8756e+02	1.2400	-6.102602	0.000250	2.497233	0.423043	-0.000025
1887	1.8766e+02	1.2314	-6.126636	0.000242	2.415356	0.409172	-0.000024
1888	1.8776e+02	1.2213	-6.156779	0.000303	3.029430	0.513199	-0.000030
1889	1.8786e+02	1.2110	-6.174702	0.000180	1.801283	0.305146	-0.000018
1890	1.8796e+02	1.1994	-6.201179	0.000266	2.660986	0.450783	-0.000027
1891	1.8806e+02	1.1943	-6.224805	0.000237	2.374418	0.402237	-0.000024
1892	1.8815e+02	1.1794	-6.250060	0.000254	2.538171	0.429978	-0.000025
1893	1.8825e+02	1.1700	-6.273686	0.000237	2.374418	0.402237	-0.000024
1894	1.8835e+02	1.1577	-6.299349	0.000258	2.579109	0.436913	-0.000026
1895	1.8845e+02	1.1505	-6.320531	0.000213	2.128788	0.360627	-0.000021
1896	1.8855e+02	1.1423	-6.347008	0.000266	2.660986	0.450783	-0.000027
1897	1.8865e+02	1.1311	-6.368190	0.000213	2.128788	0.360627	-0.000021
1898	1.8875e+02	1.1203	-6.389779	0.000217	2.169727	0.367562	-0.000022
1899	1.8885e+02	1.1091	-6.410146	0.000205	2.046912	0.346756	-0.000020
1900	1.8895e+02	1.0989	-6.433365	0.000233	2.333480	0.395302	-0.000023
1901	1.8905e+02	1.0908	-6.452917	0.000197	1.965035	0.332886	-0.000020
1902	1.8915e+02	1.0783	-6.482246	0.000295	2.947553	0.499329	-0.000029
1903	1.8925e+02	1.0688	-6.503428	0.000213	2.128788	0.360627	-0.000021
1904	1.8935e+02	1.0614	-6.524202	0.000209	2.087850	0.353691	-0.000021
1905	1.8945e+02	1.0490	-6.546606	0.000225	2.251603	0.381432	-0.000023
1906	1.8955e+02	1.0397	-6.575120	0.000287	2.865677	0.485459	-0.000029
1907	1.8965e+02	1.0313	-6.595894	0.000209	2.087850	0.353691	-0.000021
1908	1.8975e+02	1.0186	-6.622372	0.000266	2.660986	0.450783	-0.000027
1909	1.8985e+02	1.0096	-6.646405	0.000242	2.415356	0.409172	-0.000024
1910	1.8995e+02	0.9982	-6.672882	0.000266	2.660986	0.450783	-0.000027
1911	1.9004e+02	0.9908	-6.695286	0.000225	2.251603	0.381432	-0.000023
1912	1.9014e+02	0.9819	-6.720541	0.000254	2.538171	0.429978	-0.000025
1913	1.9024e+02	0.9711	-6.742945	0.000225	2.251603	0.381432	-0.000023
1914	1.9034e+02	0.9607	-6.766571	0.000237	2.374418	0.402237	-0.000024
1915	1.9044e+02	0.9515	-6.792641	0.000262	2.620047	0.443848	-0.000026
1916	1.9054e+02	0.9397	-6.819933	0.000274	2.742862	0.464653	-0.000027
1917	1.9064e+02	0.9314	-6.840707	0.000209	2.087850	0.353691	-0.000021
1918	1.9074e+02	0.9214	-6.867999	0.000274	2.742862	0.464653	-0.000027
1919	1.9084e+02	0.9107	-6.891625	0.000237	2.374418	0.402237	-0.000024
1920	1.9094e+02	0.8994	-6.917288	0.000258	2.579109	0.436913	-0.000026
1921	1.9104e+02	0.8896	-6.945802	0.000287	2.865677	0.485459	-0.000029
1922	1.9114e+02	0.8819	-6.968205	0.000225	2.251603	0.381432	-0.000023
1923	1.9124e+02	0.8711	-6.993868	0.000258	2.579109	0.436913	-0.000026
1924	1.9134e+02	0.8610	-7.015457	0.000217	2.169727	0.367562	-0.000022
1925	1.9144e+02	0.8511	-7.040712	0.000254	2.538171	0.429978	-0.000025
1926	1.9154e+02	0.8398	-7.069634	0.000291	2.906615	0.492394	-0.000029
1927	1.9164e+02	0.8308	-7.094482	0.000250	2.497233	0.423043	-0.000025
1928	1.9174e+02	0.8205	-7.119329	0.000250	2.497233	0.423043	-0.000025
1929	1.9184e+02	0.8106	-7.141733	0.000225	2.251603	0.381432	-0.000023
1930	1.9194e+02	0.8036	-7.166989	0.000254	2.538171	0.429978	-0.000025
1931	1.9203e+02	0.7919	-7.191429	0.000246	2.456294	0.416108	-0.000025
1932	1.9213e+02	0.7829	-7.214648	0.000233	2.333480	0.395302	-0.000023
1933	1.9223e+02	0.7718	-7.237051	0.000225	2.251603	0.381432	-0.000023
1934	1.9233e+02	0.7623	-7.268417	0.000315	3.152244	0.534005	-0.000032
1935	1.9243e+02	0.7499	-7.285933	0.000176	1.760344	0.298210	-0.000018
1936	1.9253e+02	0.7416	-7.310373	0.000246	2.456294	0.416108	-0.000025
1937	1.9263e+02	0.7333	-7.341738	0.000315	3.152244	0.534005	-0.000032
1938	1.9273e+02	0.7226	-7.364142	0.000225	2.251603	0.381432	-0.000023
1939	1.9283e+02	0.7114	-7.391434	0.000274	2.742862	0.464653	-0.000027
1940	1.9293e+02	0.7049	-7.419948	0.000287	2.865677	0.485459	-0.000029
1941	1.9303e+02	0.6898	-7.443167	0.000233	2.333480	0.395302	-0.000023
1942	1.9313e+02	0.6826	-7.470459	0.000274	2.742862	0.464653	-0.000027
1943	1.9323e+02	0.6705	-7.494085	0.000237	2.374418	0.402237	-0.000024
1944	1.9333e+02	0.6625	-7.520155	0.000262	2.620047	0.443848	-0.000026
1945	1.9343e+02	0.6519	-7.546632	0.000266	2.660986	0.450783	-0.000027
1946	1.9353e+02	0.6424	-7.569036	0.000225	2.251603	0.381432	-0.000023
1947	1.9363e+02	0.6316	-7.597142	0.000282	2.824738	0.478524	-0.000028
1948	1.9373e+02	0.6226	-7.622805	0.000258	2.579109	0.436913	-0.000026
1949	1.9383e+02	0.6111	-7.648060	0.000254	2.538171	0.429978	-0.000025
1950	1.9393e+02	0.6028	-7.674130	0.000262	2.620047	0.443848	-0.000026
1951	1.9403e+02	0.5914	-7.697756	0.000237	2.374418	0.402237	-0.000024
1952	1.9412e+02	0.5828	-7.724640	0.000270	2.701924	0.457718	-0.000027
1953	1.9422e+02	0.5719	-7.753969	0.000295	2.947553	0.499329	-0.000029
1954	1.9432e+02	0.5612	-7.779224	0.000254	2.538171	0.429978	-0.000025
1955	1.9442e+02	0.5543	-7.804887	0.000258	2.579109	0.436913	-0.000026
1956	1.9452e+02	0.5432	-7.832179	0.000274	2.742862	0.464653	-0.000027
1957	1.9462e+02	0.5350	-7.854990	0.000229	2.292541	0.388367	-0.000023
1958	1.9472e+02	0.5217	-7.876987	0.000221	2.210665	0.374497	-0.000022
1959	1.9482e+02	0.5131	-7.903464	0.000266	2.660986	0.450783	-0.000027
1960	1.9492e+02	0.5018	-7.930756	0.000274	2.742862	0.464653	-0.000027
1961	1.9502e+02	0.4934	-7.953160	0.000225	2.251603	0.381432	-0.000023
1962	1.9512e+02	0.4815	-7.973934	0.000209	2.087850	0.353691	-0.000021
1963	1.9522e+02	0.4724	-8.000819	0.000270	2.701924	0.457718	-0.000027
1964	1.9532e+02	0.4627	-8.021186	0.000205	2.046912	0.346756	-0.000020
1965	1.9542e+02	0.4516	-8.047256	0.000262	2.620047	0.443848	-0.000026
1966	1.9552e+02	0.4430	-8.068845	0.000217	2.169727	0.367562	-0.000022
1967	1.9562e+02	0.4335	-8.096544	0.000278	2.783800	0.471589	-0.000028
1968	1.9572e+02	0.4239	-8.123836	0.000274	2.742862	0.464653	-0.000027
1969	1.9582e+02	0.4134	-8.144611	0.000209	2.087850	0.353691	-0.000021
1970	1.9592e+02	0.4049	-8.175161	0.000307	3.070368	0.520134	-0.000031
1971	1.9601e+02	0.3928	-8.195936	0.000209	2.087850	0.353691	-0.000021
1972	1.9611e+02	0.3837	-8.222413	0.000266	2.660986	0.450783	-0.000027
1973	1.9621e+02	0.3713	-8.253778	0.000315	3.152244	0.534005	-0.000032
1974	1.9631e+02	0.3654	-8.271294	0.000176	1.760344	0.298210	-0.000018
1975	1.9641e+02	0.3522	-8.303882	0.000328	3.275059	0.554810	-0.000033
1976	1.9651e+02	0.3466	-8.331988	0.000282	2.824738	0.478524	-0.000028
1977	1.9661e+02	0.3337	-8.356836	0.000250	2.497233	0.423043	-0.000025
1978	1.9671e+02	0.3232	-8.385757	0.000291	2.906615	0.492394	-0.000029
1979	1.9681e+02	0.3143	-8.407754	0.000221	2.210665	0.374497	-0.000022
1980	1.9691e+02	0.3017	-8.438305	0.000307	3.070368	0.520134	-0.000031
1981	1.9701e+02	0.2952	-8.468855	0.000307	3.070368	0.520134	-0.000031
1982	1.9711e+02	0.2843	-8.494925	0.000262	2.620047	0.443848	-0.000026
1983	1.9721e+02	0.2747	-8.527920	0.000332	3.315997	0.561745	-0.000033
1984	1.9731e+02	0.2635	-8.556027	0.000282	2.824738	0.478524	-0.000028
1985	1.9741e+02	0.2548	-8.583726	0.000278	2.783800	0.471589	-0.000028
1986	1.9751e+02	0.2451	-8.612647	0.000291	2.906615	0.492394	-0.000029
1987	1.9761e+02	0.2351	-8.639532	0.000270	2.701924	0.457718	-0.000027
1988	1.9771e+02	0.2238	-8.668861	0.000295	2.947553	0.499329	-0.000029
1989	1.9781e+02	0.2125	-8.698597	0.000299	2.988491	0.506264	-0.000030
1990	1.9791e+02	0.2050	-8.727925	0.000295	2.947553	0.499329	-0.000029
1991	1.9800e+02	0.1974	-8.749922	0.000221	2.210665	0.374497	-0.000022
1992	1.9810e+02	0.1849	-8.780472	0.000307	3.070368	0.520134	-0.000031
1993	1.9820e+02	0.1769	-8.804913	0.000246	2.456294	0.416108	-0.000025
1994	1.9830e+02	0.1663	-8.833020	0.000282	2.824738	0.478524	-0.000028
1995	1.9840e+02	0.1555	-8.858682	0.000258	2.579109	0.436913	-0.000026
1996	1.9850e+02	0.1427	-8.885974	0.000274	2.742862	0.464653	-0.000027
1997	1.9860e+02	0.1347	-8.912859	0.000270	2.701924	0.457718	-0.000027
1998	1.9870e+02	0.1260	-8.937707	0.000250	2.497233	0.423043	-0.000025
1999	1.9880e+02	0.1131	-8.968665	0.000311	3.111306	0.527070	-0.000031
2000	1.9890e+02	0.1066	-9.000845	0.000323	3.234121	0.547875	-0.000032
2001	1.9900e+02	0.0954	-9.019990	0.000192	1.924097	0.325951	-0.000019
2002	1.9910e+02	0.0842	-9.049726	0.000299	2.988491	0.506264	-0.000030
2003	1.9920e+02	0.0772	-9.075796	0.000262	2.620047	0.443848	-0.000026
2004	1.9930e+02	0.0642	-9.105939	0.000303	3.029430	0.513199	-0.000030
2005	1.9940e+02	0.0528	-9.130787	0.000250	2.497233	0.423043	-0.000025
2006	1.9950e+02	0.0442	-9.158079	0.000274	2.742862	0.464653	-0.000027
2007	1.9960e+02	0.0350	-9.183334	0.000254	2.538171	0.429978	-0.000025
2008	1.9970e+02	0.0240	-9.208997	0.000258	2.579109	0.436913	-0.000026
2009	1.9980e+02	0.0153	-9.238325	0.000295	2.947553	0.499329	-0.000029
2010	1.9990e+02	0.0057	-9.267654	0.000295	2.947553	0.499329	-0.000029
2011	2.0000e+02	-0.0047	-9.292502	0.000295	2.947553	0.499329	-0.000025

PMax (uC/cm2):	2.13e+01
Pr (uC/cm2):	1.35e+00
-Pr (uC/cm2):	0.00e+00
PLoss (uC/cm2):	0.00e+00
C (Max-Eff) (nF):	2.13e-01
K (Eff):	3.61e+02
Vert. (+/-Pr) Shift (uC/cm2):	6.73e-01
Offset (uC/cm2):	1.06e+01

A (Loop Area - uC/cm2·Volts):	-1.37e-02



Hysteresis Version: 5.48.1 - Radiant Technologies, Inc., 1999 - 9/12/24

