»»»»»»»»»»»»»»»»»»»»»»»»»»»»»»»»»»»» Hysteresis ««««««««««««««««««««««««««««««««««««
»»»  Executed Version:	5.48.1
»»»  Vision Version:	5.48.4 (R)
»»»  Vision Compiled:	9/18/24
»»»  Driver Version:	5.47.0
»»»  Windows Version:	Windows 8 or 8.1
»»»  Processor Information:	x86 (AMD or Intel) - 32 Processors
»»»  Tester Name:	PMF21124-494 (100V)
»»»  Tester S/N:	PMF21124-494
»»»  Internal Amp Type:	100V RevK 270k
»»»  Internal Amp S/N:	iAB2-596/K     
»»»  Execution Count:	1
»»»»»»»»»»»»»»»»»»»»»»»»»»»»»»»»»»»»»»»»»»««««««««««««««««««««««««««««««««««««««««««

Stored:	6/27/2025 - 11:41:24
Configured:	06/27/25 11:23:28 AM
Executed:	06/27/25 11:40:42 AM

»»»»»»»»»»»»»»»»»»»»»»»»»»»»»»»»»»» Sample Info ««««««««««««««««««««««««««««««««««««
Sample Name:	
Lot Name:	
Wafer Name:	
Die Row/Column:	0/0
Capacitor Number:	0
Sample Area (cm2):	1.00e-04
Sample Thickness (microns):	1.50e-01

Amplifier:	Internal

»»»»»»»»»»»»»»»»»»»»»»»»»»»»»»»»»»» Tester Info «««««««««««««««««««««««««««««««««««
Tester Name:	PMF21124-494 (100V)
Tester Serial Number:	PMF21124-494
Return Signal Amp. Level:	1.9 [Index: 2]

»»»»»»»»»»»»»»»»»»»»»»»»»»»»»»»» Hysteresis Info ««««««««««««««««««««««««««««««««««
Task Name:	Hyst-1276
Volts:	10.00
Field:	666.67 (kV/cm)
DCBias:	0.00
DCField:	0.00 (kV/cm)
Hysteresis Period (ms):	2.00e+02
Preset:	Enabled
Preset Delay (ms):	1.00e+03
Profile:	Standard Monopolar

»»»»»»»»»»»»»»»»»»»»»»»»»»»»»»»»»»»»»» Data «««««««««««««««««««««««««««««««««««««««
Points:	2011

Valid Data

Point	Time (ms)	Drive Voltage	Measured Polarization (uC/cm2)	Capacitance (uF)	Normalized Capacitance (uF/cm2)	Dielectric Constant	Instantaneous Current (mA)
   1	0.0000e+00	-0.0029	-19.895018	0.000430	4.299105	0.728288	0.000043
   2	9.9500e-02	0.0041	-19.852247	0.000430	4.299105	0.728288	0.000043
   3	1.9900e-01	0.0153	-19.808254	0.000442	4.421937	0.749096	0.000044
   4	2.9850e-01	0.0270	-19.765075	0.000434	4.340049	0.735224	0.000043
   5	3.9800e-01	0.0357	-19.725970	0.000393	3.930611	0.665863	0.000039
   6	4.9750e-01	0.0469	-19.680348	0.000459	4.585712	0.776841	0.000046
   7	5.9700e-01	0.0536	-19.638799	0.000418	4.176274	0.707480	0.000042
   8	6.9650e-01	0.0635	-19.594806	0.000442	4.421937	0.749096	0.000044
   9	7.9600e-01	0.0800	-19.553257	0.000418	4.176274	0.707480	0.000042
  10	8.9550e-01	0.0852	-19.503969	0.000495	4.954207	0.839265	0.000050
  11	9.9500e-01	0.0968	-19.462827	0.000414	4.135330	0.700544	0.000041
  12	1.0945e+00	0.1043	-19.415575	0.000475	4.749488	0.804585	0.000047
  13	1.1940e+00	0.1155	-19.369546	0.000463	4.626656	0.783777	0.000046
  14	1.2935e+00	0.1267	-19.329219	0.000405	4.053442	0.686672	0.000041
  15	1.3930e+00	0.1314	-19.281560	0.000479	4.790432	0.811521	0.000048
  16	1.4925e+00	0.1450	-19.232271	0.000495	4.954207	0.839265	0.000050
  17	1.5920e+00	0.1556	-19.187056	0.000454	4.544769	0.769905	0.000045
  18	1.6915e+00	0.1636	-19.140212	0.000471	4.708544	0.797649	0.000047
  19	1.7910e+00	0.1761	-19.096219	0.000442	4.421937	0.749096	0.000044
  20	1.8905e+00	0.1849	-19.044894	0.000516	5.158927	0.873946	0.000052
  21	1.9900e+00	0.1939	-18.999679	0.000454	4.544769	0.769905	0.000045
  22	2.0895e+00	0.2045	-18.957722	0.000422	4.217218	0.714416	0.000042
  23	2.1890e+00	0.2147	-18.909656	0.000483	4.831376	0.818457	0.000048
  24	2.2885e+00	0.2239	-18.862812	0.000471	4.708544	0.797649	0.000047
  25	2.3880e+00	0.2359	-18.817189	0.000459	4.585712	0.776841	0.000046
  26	2.4875e+00	0.2466	-18.767901	0.000495	4.954207	0.839265	0.000050
  27	2.5870e+00	0.2559	-18.721871	0.000463	4.626656	0.783777	0.000046
  28	2.6865e+00	0.2611	-18.677471	0.000446	4.462881	0.756032	0.000045
  29	2.7860e+00	0.2759	-18.633478	0.000442	4.421937	0.749096	0.000044
  30	2.8855e+00	0.2837	-18.585004	0.000487	4.872320	0.825393	0.000049
  31	2.9850e+00	0.2957	-18.537345	0.000479	4.790432	0.811521	0.000048
  32	3.0845e+00	0.3043	-18.489278	0.000483	4.831376	0.818457	0.000048
  33	3.1840e+00	0.3131	-18.442027	0.000475	4.749488	0.804585	0.000047
  34	3.2835e+00	0.3255	-18.392331	0.000500	4.995151	0.846202	0.000050
  35	3.3830e+00	0.3339	-18.338562	0.000540	5.404590	0.915562	0.000054
  36	3.4825e+00	0.3453	-18.294976	0.000438	4.380993	0.742160	0.000044
  37	3.5820e+00	0.3536	-18.242429	0.000528	5.281758	0.894754	0.000053
  38	3.6815e+00	0.3628	-18.196399	0.000463	4.626656	0.783777	0.000046
  39	3.7810e+00	0.3749	-18.146703	0.000500	4.995151	0.846202	0.000050
  40	3.8805e+00	0.3837	-18.098230	0.000487	4.872320	0.825393	0.000049
  41	3.9800e+00	0.3936	-18.049348	0.000491	4.913263	0.832329	0.000049
  42	4.0795e+00	0.4014	-18.000875	0.000487	4.872320	0.825393	0.000049
  43	4.1790e+00	0.4127	-17.951994	0.000491	4.913263	0.832329	0.000049
  44	4.2785e+00	0.4249	-17.901483	0.000508	5.077039	0.860074	0.000051
  45	4.3780e+00	0.4311	-17.849751	0.000520	5.199870	0.880882	0.000052
  46	4.4775e+00	0.4445	-17.803314	0.000467	4.667600	0.790713	0.000047
  47	4.5770e+00	0.4551	-17.752803	0.000508	5.077039	0.860074	0.000051
  48	4.6765e+00	0.4647	-17.700256	0.000528	5.281758	0.894754	0.000053
  49	4.7760e+00	0.4739	-17.654634	0.000459	4.585712	0.776841	0.000046
  50	4.8755e+00	0.4826	-17.605345	0.000495	4.954207	0.839265	0.000050
  51	4.9750e+00	0.4933	-17.557279	0.000483	4.831376	0.818457	0.000048
  52	5.0745e+00	0.5028	-17.506768	0.000508	5.077039	0.860074	0.000051
  53	5.1740e+00	0.5119	-17.460738	0.000463	4.626656	0.783777	0.000046
  54	5.2735e+00	0.5206	-17.416338	0.000446	4.462881	0.756032	0.000045
  55	5.3730e+00	0.5344	-17.362569	0.000540	5.404590	0.915562	0.000054
  56	5.4725e+00	0.5425	-17.315725	0.000471	4.708544	0.797649	0.000047
  57	5.5720e+00	0.5528	-17.267658	0.000483	4.831376	0.818457	0.000048
  58	5.6715e+00	0.5633	-17.219184	0.000487	4.872320	0.825393	0.000049
  59	5.7710e+00	0.5753	-17.174377	0.000450	4.503825	0.762969	0.000045
  60	5.8705e+00	0.5829	-17.127940	0.000467	4.667600	0.790713	0.000047
  61	5.9700e+00	0.5934	-17.079873	0.000483	4.831376	0.818457	0.000048
  62	6.0695e+00	0.6026	-17.033029	0.000471	4.708544	0.797649	0.000047
  63	6.1690e+00	0.6120	-16.988628	0.000446	4.462881	0.756032	0.000045
  64	6.2685e+00	0.6252	-16.937303	0.000516	5.158927	0.873946	0.000052
  65	6.3680e+00	0.6322	-16.890866	0.000467	4.667600	0.790713	0.000047
  66	6.4675e+00	0.6413	-16.841578	0.000495	4.954207	0.839265	0.000050
  67	6.5670e+00	0.6545	-16.801658	0.000401	4.012498	0.679736	0.000040
  68	6.6665e+00	0.6630	-16.750333	0.000516	5.158927	0.873946	0.000052
  69	6.7660e+00	0.6718	-16.702674	0.000479	4.790432	0.811521	0.000048
  70	6.8655e+00	0.6812	-16.662347	0.000405	4.053442	0.686672	0.000041
  71	6.9650e+00	0.6920	-16.612651	0.000500	4.995151	0.846202	0.000050
  72	7.0645e+00	0.7009	-16.567029	0.000459	4.585712	0.776841	0.000046
  73	7.1640e+00	0.7122	-16.518148	0.000491	4.913263	0.832329	0.000049
  74	7.2635e+00	0.7253	-16.472525	0.000459	4.585712	0.776841	0.000046
  75	7.3630e+00	0.7287	-16.421608	0.000512	5.117983	0.867010	0.000051
  76	7.4625e+00	0.7402	-16.375171	0.000467	4.667600	0.790713	0.000047
  77	7.5620e+00	0.7499	-16.323845	0.000516	5.158927	0.873946	0.000052
  78	7.6615e+00	0.7623	-16.280260	0.000438	4.380993	0.742160	0.000044
  79	7.7610e+00	0.7729	-16.228527	0.000520	5.199870	0.880882	0.000052
  80	7.8605e+00	0.7809	-16.182090	0.000467	4.667600	0.790713	0.000047
  81	7.9600e+00	0.7903	-16.129950	0.000524	5.240814	0.887818	0.000052
  82	8.0595e+00	0.8018	-16.082291	0.000479	4.790432	0.811521	0.000048
  83	8.1590e+00	0.8117	-16.037891	0.000446	4.462881	0.756032	0.000045
  84	8.2585e+00	0.8244	-15.987788	0.000504	5.036095	0.853138	0.000050
  85	8.3580e+00	0.8315	-15.942573	0.000454	4.544769	0.769905	0.000045
  86	8.4575e+00	0.8434	-15.887582	0.000553	5.527421	0.936371	0.000055
  87	8.5570e+00	0.8500	-15.843996	0.000438	4.380993	0.742160	0.000044
  88	8.6565e+00	0.8614	-15.797559	0.000467	4.667600	0.790713	0.000047
  89	8.7560e+00	0.8736	-15.745826	0.000520	5.199870	0.880882	0.000052
  90	8.8555e+00	0.8811	-15.698575	0.000475	4.749488	0.804585	0.000047
  91	8.9550e+00	0.8910	-15.654582	0.000442	4.421937	0.749096	0.000044
  92	9.0545e+00	0.9012	-15.604071	0.000508	5.077039	0.860074	0.000051
  93	9.1540e+00	0.9146	-15.557227	0.000471	4.708544	0.797649	0.000047
  94	9.2535e+00	0.9192	-15.507938	0.000495	4.954207	0.839265	0.000050
  95	9.3530e+00	0.9341	-15.465982	0.000422	4.217218	0.714416	0.000042
  96	9.4525e+00	0.9396	-15.423618	0.000426	4.258162	0.721352	0.000043
  97	9.5520e+00	0.9505	-15.371071	0.000528	5.281758	0.894754	0.000053
  98	9.6515e+00	0.9618	-15.326263	0.000450	4.503825	0.762969	0.000045
  99	9.7510e+00	0.9724	-15.282678	0.000438	4.380993	0.742160	0.000044
 100	9.8505e+00	0.9789	-15.233389	0.000495	4.954207	0.839265	0.000050
 101	9.9500e+00	0.9898	-15.189396	0.000442	4.421937	0.749096	0.000044
 102	1.0050e+01	1.0000	-15.146218	0.000434	4.340049	0.735224	0.000043
 103	1.0149e+01	1.0118	-15.100188	0.000463	4.626656	0.783777	0.000046
 104	1.0248e+01	1.0194	-15.055381	0.000450	4.503825	0.762969	0.000045
 105	1.0348e+01	1.0284	-15.006500	0.000491	4.913263	0.832329	0.000049
 106	1.0447e+01	1.0377	-14.962914	0.000438	4.380993	0.742160	0.000044
 107	1.0547e+01	1.0504	-14.916070	0.000471	4.708544	0.797649	0.000047
 108	1.0646e+01	1.0596	-14.872077	0.000442	4.421937	0.749096	0.000044
 109	1.0746e+01	1.0723	-14.826862	0.000454	4.544769	0.769905	0.000045
 110	1.0845e+01	1.0805	-14.780017	0.000471	4.708544	0.797649	0.000047
 111	1.0945e+01	1.0910	-14.734395	0.000459	4.585712	0.776841	0.000046
 112	1.1044e+01	1.1026	-14.691216	0.000434	4.340049	0.735224	0.000043
 113	1.1144e+01	1.1089	-14.643150	0.000483	4.831376	0.818457	0.000048
 114	1.1243e+01	1.1208	-14.601601	0.000418	4.176274	0.707480	0.000042
 115	1.1343e+01	1.1298	-14.558830	0.000430	4.299105	0.728288	0.000043
 116	1.1443e+01	1.1366	-14.513208	0.000459	4.585712	0.776841	0.000046
 117	1.1542e+01	1.1477	-14.470029	0.000434	4.340049	0.735224	0.000043
 118	1.1642e+01	1.1591	-14.425629	0.000446	4.462881	0.756032	0.000045
 119	1.1741e+01	1.1700	-14.384488	0.000414	4.135330	0.700544	0.000041
 120	1.1841e+01	1.1832	-14.343346	0.000414	4.135330	0.700544	0.000041
 121	1.1940e+01	1.1886	-14.299760	0.000438	4.380993	0.742160	0.000044
 122	1.2040e+01	1.1989	-14.256175	0.000438	4.380993	0.742160	0.000044
 123	1.2139e+01	1.2093	-14.214218	0.000422	4.217218	0.714416	0.000042
 124	1.2239e+01	1.2180	-14.170225	0.000442	4.421937	0.749096	0.000044
 125	1.2338e+01	1.2286	-14.124603	0.000459	4.585712	0.776841	0.000046
 126	1.2438e+01	1.2403	-14.080610	0.000442	4.421937	0.749096	0.000044
 127	1.2537e+01	1.2497	-14.041912	0.000389	3.889667	0.658927	0.000039
 128	1.2636e+01	1.2592	-14.002400	0.000397	3.971555	0.672800	0.000040
 129	1.2736e+01	1.2709	-13.960851	0.000418	4.176274	0.707480	0.000042
 130	1.2835e+01	1.2764	-13.917266	0.000438	4.380993	0.742160	0.000044
 131	1.2935e+01	1.2850	-13.876531	0.000409	4.094386	0.693608	0.000041
 132	1.3034e+01	1.2984	-13.837426	0.000393	3.930611	0.665863	0.000039
 133	1.3134e+01	1.3107	-13.793026	0.000446	4.462881	0.756032	0.000045
 134	1.3233e+01	1.3185	-13.749033	0.000442	4.421937	0.749096	0.000044
 135	1.3333e+01	1.3344	-13.705040	0.000442	4.421937	0.749096	0.000044
 136	1.3432e+01	1.3400	-13.665528	0.000397	3.971555	0.672800	0.000040
 137	1.3532e+01	1.3496	-13.615017	0.000508	5.077039	0.860074	0.000051
 138	1.3632e+01	1.3602	-13.573469	0.000418	4.176274	0.707480	0.000042
 139	1.3731e+01	1.3688	-13.528253	0.000454	4.544769	0.769905	0.000045
 140	1.3831e+01	1.3763	-13.481409	0.000471	4.708544	0.797649	0.000047
 141	1.3930e+01	1.3881	-13.438638	0.000430	4.299105	0.728288	0.000043
 142	1.4030e+01	1.4008	-13.393016	0.000459	4.585712	0.776841	0.000046
 143	1.4129e+01	1.4101	-13.354318	0.000389	3.889667	0.658927	0.000039
 144	1.4229e+01	1.4141	-13.305437	0.000491	4.913263	0.832329	0.000049
 145	1.4328e+01	1.4288	-13.261037	0.000446	4.462881	0.756032	0.000045
 146	1.4428e+01	1.4376	-13.216636	0.000446	4.462881	0.756032	0.000045
 147	1.4527e+01	1.4496	-13.173458	0.000434	4.340049	0.735224	0.000043
 148	1.4627e+01	1.4587	-13.128243	0.000454	4.544769	0.769905	0.000045
 149	1.4726e+01	1.4666	-13.083843	0.000446	4.462881	0.756032	0.000045
 150	1.4825e+01	1.4764	-13.036184	0.000479	4.790432	0.811521	0.000048
 151	1.4925e+01	1.4865	-12.990561	0.000459	4.585712	0.776841	0.000046
 152	1.5024e+01	1.4991	-12.946161	0.000446	4.462881	0.756032	0.000045
 153	1.5124e+01	1.5066	-12.901353	0.000450	4.503825	0.762969	0.000045
 154	1.5223e+01	1.5202	-12.857768	0.000438	4.380993	0.742160	0.000044
 155	1.5323e+01	1.5308	-12.813775	0.000442	4.421937	0.749096	0.000044
 156	1.5422e+01	1.5391	-12.767338	0.000467	4.667600	0.790713	0.000047
 157	1.5522e+01	1.5470	-12.727011	0.000405	4.053442	0.686672	0.000041
 158	1.5621e+01	1.5575	-12.683018	0.000442	4.421937	0.749096	0.000044
 159	1.5721e+01	1.5684	-12.633729	0.000495	4.954207	0.839265	0.000050
 160	1.5820e+01	1.5778	-12.592995	0.000409	4.094386	0.693608	0.000041
 161	1.5920e+01	1.5872	-12.551446	0.000418	4.176274	0.707480	0.000042
 162	1.6020e+01	1.5977	-12.509082	0.000426	4.258162	0.721352	0.000043
 163	1.6119e+01	1.6072	-12.466719	0.000426	4.258162	0.721352	0.000043
 164	1.6218e+01	1.6189	-12.424355	0.000426	4.258162	0.721352	0.000043
 165	1.6318e+01	1.6280	-12.377103	0.000475	4.749488	0.804585	0.000047
 166	1.6418e+01	1.6370	-12.333110	0.000442	4.421937	0.749096	0.000044
 167	1.6517e+01	1.6463	-12.289117	0.000442	4.421937	0.749096	0.000044
 168	1.6616e+01	1.6583	-12.246754	0.000426	4.258162	0.721352	0.000043
 169	1.6716e+01	1.6666	-12.206020	0.000409	4.094386	0.693608	0.000041
 170	1.6816e+01	1.6795	-12.163656	0.000426	4.258162	0.721352	0.000043
 171	1.6915e+01	1.6885	-12.118034	0.000459	4.585712	0.776841	0.000046
 172	1.7015e+01	1.6978	-12.075670	0.000426	4.258162	0.721352	0.000043
 173	1.7114e+01	1.7063	-12.028011	0.000479	4.790432	0.811521	0.000048
 174	1.7213e+01	1.7160	-11.986869	0.000414	4.135330	0.700544	0.000041
 175	1.7313e+01	1.7268	-11.940432	0.000467	4.667600	0.790713	0.000047
 176	1.7413e+01	1.7381	-11.900513	0.000401	4.012498	0.679736	0.000040
 177	1.7512e+01	1.7437	-11.854483	0.000463	4.626656	0.783777	0.000046
 178	1.7611e+01	1.7574	-11.810897	0.000438	4.380993	0.742160	0.000044
 179	1.7711e+01	1.7676	-11.763238	0.000479	4.790432	0.811521	0.000048
 180	1.7811e+01	1.7790	-11.720467	0.000430	4.299105	0.728288	0.000043
 181	1.7910e+01	1.7873	-11.676474	0.000442	4.421937	0.749096	0.000044
 182	1.8009e+01	1.7997	-11.628815	0.000479	4.790432	0.811521	0.000048
 183	1.8109e+01	1.8071	-11.584007	0.000450	4.503825	0.762969	0.000045
 184	1.8209e+01	1.8197	-11.538792	0.000454	4.544769	0.769905	0.000045
 185	1.8308e+01	1.8269	-11.492355	0.000467	4.667600	0.790713	0.000047
 186	1.8407e+01	1.8393	-11.444696	0.000479	4.790432	0.811521	0.000048
 187	1.8507e+01	1.8477	-11.402333	0.000426	4.258162	0.721352	0.000043
 188	1.8607e+01	1.8574	-11.357525	0.000450	4.503825	0.762969	0.000045
 189	1.8706e+01	1.8658	-11.309866	0.000479	4.790432	0.811521	0.000048
 190	1.8805e+01	1.8741	-11.263022	0.000471	4.708544	0.797649	0.000047
 191	1.8905e+01	1.8867	-11.219029	0.000442	4.421937	0.749096	0.000044
 192	1.9005e+01	1.8951	-11.174221	0.000450	4.503825	0.762969	0.000045
 193	1.9104e+01	1.9074	-11.127376	0.000471	4.708544	0.797649	0.000047
 194	1.9203e+01	1.9167	-11.085828	0.000418	4.176274	0.707480	0.000042
 195	1.9303e+01	1.9278	-11.036539	0.000495	4.954207	0.839265	0.000050
 196	1.9402e+01	1.9364	-10.991731	0.000450	4.503825	0.762969	0.000045
 197	1.9502e+01	1.9447	-10.943258	0.000487	4.872320	0.825393	0.000049
 198	1.9602e+01	1.9514	-10.896006	0.000475	4.749488	0.804585	0.000047
 199	1.9701e+01	1.9675	-10.854050	0.000422	4.217218	0.714416	0.000042
 200	1.9800e+01	1.9744	-10.804354	0.000500	4.995151	0.846202	0.000050
 201	1.9900e+01	1.9869	-10.756287	0.000483	4.831376	0.818457	0.000048
 202	2.0000e+01	1.9959	-10.707406	0.000491	4.913263	0.832329	0.000049
 203	2.0099e+01	2.0037	-10.661784	0.000459	4.585712	0.776841	0.000046
 204	2.0198e+01	2.0184	-10.610866	0.000512	5.117983	0.867010	0.000051
 205	2.0298e+01	2.0261	-10.563207	0.000479	4.790432	0.811521	0.000048
 206	2.0398e+01	2.0361	-10.518807	0.000446	4.462881	0.756032	0.000045
 207	2.0497e+01	2.0464	-10.472777	0.000463	4.626656	0.783777	0.000046
 208	2.0596e+01	2.0547	-10.424303	0.000487	4.872320	0.825393	0.000049
 209	2.0696e+01	2.0673	-10.379903	0.000446	4.462881	0.756032	0.000045
 210	2.0796e+01	2.0744	-10.332651	0.000475	4.749488	0.804585	0.000047
 211	2.0895e+01	2.0869	-10.282548	0.000504	5.036095	0.853138	0.000050
 212	2.0994e+01	2.0959	-10.238148	0.000446	4.462881	0.756032	0.000045
 213	2.1094e+01	2.1050	-10.183156	0.000553	5.527421	0.936371	0.000055
 214	2.1194e+01	2.1180	-10.138349	0.000450	4.503825	0.762969	0.000045
 215	2.1293e+01	2.1249	-10.091912	0.000467	4.667600	0.790713	0.000047
 216	2.1392e+01	2.1350	-10.040587	0.000516	5.158927	0.873946	0.000052
 217	2.1492e+01	2.1448	-9.994557	0.000463	4.626656	0.783777	0.000046
 218	2.1591e+01	2.1553	-9.948527	0.000463	4.626656	0.783777	0.000046
 219	2.1691e+01	2.1651	-9.902090	0.000467	4.667600	0.790713	0.000047
 220	2.1791e+01	2.1741	-9.854024	0.000483	4.831376	0.818457	0.000048
 221	2.1890e+01	2.1867	-9.806365	0.000479	4.790432	0.811521	0.000048
 222	2.1989e+01	2.1947	-9.766852	0.000397	3.971555	0.672800	0.000040
 223	2.2089e+01	2.2050	-9.720415	0.000467	4.667600	0.790713	0.000047
 224	2.2189e+01	2.2161	-9.673571	0.000471	4.708544	0.797649	0.000047
 225	2.2288e+01	2.2247	-9.628763	0.000450	4.503825	0.762969	0.000045
 226	2.2387e+01	2.2330	-9.582326	0.000467	4.667600	0.790713	0.000047
 227	2.2487e+01	2.2474	-9.538741	0.000438	4.380993	0.742160	0.000044
 228	2.2587e+01	2.2559	-9.492303	0.000467	4.667600	0.790713	0.000047
 229	2.2686e+01	2.2702	-9.448718	0.000438	4.380993	0.742160	0.000044
 230	2.2785e+01	2.2736	-9.403095	0.000459	4.585712	0.776841	0.000046
 231	2.2885e+01	2.2858	-9.359510	0.000438	4.380993	0.742160	0.000044
 232	2.2985e+01	2.2966	-9.313480	0.000463	4.626656	0.783777	0.000046
 233	2.3084e+01	2.3073	-9.269894	0.000438	4.380993	0.742160	0.000044
 234	2.3183e+01	2.3139	-9.228346	0.000418	4.176274	0.707480	0.000042
 235	2.3283e+01	2.3240	-9.181094	0.000475	4.749488	0.804585	0.000047
 236	2.3383e+01	2.3342	-9.137101	0.000442	4.421937	0.749096	0.000044
 237	2.3482e+01	2.3426	-9.094737	0.000426	4.258162	0.721352	0.000043
 238	2.3581e+01	2.3532	-9.050744	0.000442	4.421937	0.749096	0.000044
 239	2.3681e+01	2.3657	-9.001863	0.000491	4.913263	0.832329	0.000049
 240	2.3780e+01	2.3742	-8.956241	0.000459	4.585712	0.776841	0.000046
 241	2.3880e+01	2.3878	-8.913062	0.000434	4.340049	0.735224	0.000043
 242	2.3980e+01	2.3923	-8.868255	0.000450	4.503825	0.762969	0.000045
 243	2.4079e+01	2.4036	-8.821818	0.000467	4.667600	0.790713	0.000047
 244	2.4178e+01	2.4149	-8.774566	0.000475	4.749488	0.804585	0.000047
 245	2.4278e+01	2.4228	-8.727722	0.000471	4.708544	0.797649	0.000047
 246	2.4378e+01	2.4327	-8.680877	0.000471	4.708544	0.797649	0.000047
 247	2.4477e+01	2.4410	-8.636884	0.000442	4.421937	0.749096	0.000044
 248	2.4576e+01	2.4525	-8.591262	0.000459	4.585712	0.776841	0.000046
 249	2.4676e+01	2.4628	-8.549713	0.000418	4.176274	0.707480	0.000042
 250	2.4776e+01	2.4711	-8.500424	0.000495	4.954207	0.839265	0.000050
 251	2.4875e+01	2.4843	-8.459283	0.000414	4.135330	0.700544	0.000041
 252	2.4974e+01	2.4953	-8.413253	0.000463	4.626656	0.783777	0.000046
 253	2.5074e+01	2.5019	-8.365594	0.000479	4.790432	0.811521	0.000048
 254	2.5174e+01	2.5129	-8.322823	0.000430	4.299105	0.728288	0.000043
 255	2.5273e+01	2.5215	-8.278830	0.000442	4.421937	0.749096	0.000044
 256	2.5372e+01	2.5322	-8.232393	0.000467	4.667600	0.790713	0.000047
 257	2.5472e+01	2.5426	-8.189215	0.000434	4.340049	0.735224	0.000043
 258	2.5572e+01	2.5525	-8.143592	0.000459	4.585712	0.776841	0.000046
 259	2.5671e+01	2.5613	-8.097155	0.000467	4.667600	0.790713	0.000047
 260	2.5770e+01	2.5727	-8.057643	0.000397	3.971555	0.672800	0.000040
 261	2.5870e+01	2.5834	-8.012021	0.000459	4.585712	0.776841	0.000046
 262	2.5970e+01	2.5931	-7.969250	0.000430	4.299105	0.728288	0.000043
 263	2.6069e+01	2.6035	-7.927293	0.000422	4.217218	0.714416	0.000042
 264	2.6169e+01	2.6151	-7.883708	0.000438	4.380993	0.742160	0.000044
 265	2.6268e+01	2.6231	-7.840122	0.000438	4.380993	0.742160	0.000044
 266	2.6367e+01	2.6351	-7.795722	0.000446	4.462881	0.756032	0.000045
 267	2.6467e+01	2.6391	-7.752543	0.000434	4.340049	0.735224	0.000043
 268	2.6567e+01	2.6531	-7.709772	0.000430	4.299105	0.728288	0.000043
 269	2.6666e+01	2.6602	-7.671075	0.000389	3.889667	0.658927	0.000039
 270	2.6765e+01	2.6733	-7.631155	0.000401	4.012498	0.679736	0.000040
 271	2.6865e+01	2.6841	-7.587162	0.000442	4.421937	0.749096	0.000044
 272	2.6965e+01	2.6939	-7.544799	0.000426	4.258162	0.721352	0.000043
 273	2.7064e+01	2.7041	-7.503657	0.000414	4.135330	0.700544	0.000041
 274	2.7163e+01	2.7102	-7.460071	0.000438	4.380993	0.742160	0.000044
 275	2.7263e+01	2.7202	-7.417301	0.000430	4.299105	0.728288	0.000043
 276	2.7363e+01	2.7326	-7.378603	0.000389	3.889667	0.658927	0.000039
 277	2.7462e+01	2.7442	-7.333795	0.000450	4.503825	0.762969	0.000045
 278	2.7561e+01	2.7535	-7.293468	0.000405	4.053442	0.686672	0.000041
 279	2.7661e+01	2.7596	-7.247846	0.000459	4.585712	0.776841	0.000046
 280	2.7761e+01	2.7755	-7.212815	0.000352	3.521172	0.596503	0.000035
 281	2.7860e+01	2.7831	-7.171266	0.000418	4.176274	0.707480	0.000042
 282	2.7959e+01	2.7933	-7.130124	0.000414	4.135330	0.700544	0.000041
 283	2.8059e+01	2.8036	-7.091426	0.000389	3.889667	0.658927	0.000039
 284	2.8159e+01	2.8120	-7.050285	0.000414	4.135330	0.700544	0.000041
 285	2.8258e+01	2.8212	-7.010365	0.000401	4.012498	0.679736	0.000040
 286	2.8358e+01	2.8313	-6.968409	0.000422	4.217218	0.714416	0.000042
 287	2.8457e+01	2.8420	-6.934600	0.000340	3.398341	0.575694	0.000034
 288	2.8556e+01	2.8516	-6.894680	0.000401	4.012498	0.679736	0.000040
 289	2.8656e+01	2.8602	-6.854353	0.000405	4.053442	0.686672	0.000041
 290	2.8756e+01	2.8699	-6.814434	0.000401	4.012498	0.679736	0.000040
 291	2.8855e+01	2.8816	-6.775329	0.000393	3.930611	0.665863	0.000039
 292	2.8954e+01	2.8912	-6.732965	0.000426	4.258162	0.721352	0.000043
 293	2.9054e+01	2.9039	-6.697934	0.000352	3.521172	0.596503	0.000035
 294	2.9154e+01	2.9113	-6.654755	0.000434	4.340049	0.735224	0.000043
 295	2.9253e+01	2.9209	-6.621761	0.000332	3.316453	0.561822	0.000033
 296	2.9352e+01	2.9328	-6.583878	0.000381	3.807779	0.645055	0.000038
 297	2.9452e+01	2.9409	-6.542329	0.000418	4.176274	0.707480	0.000042
 298	2.9552e+01	2.9539	-6.509334	0.000332	3.316453	0.561822	0.000033
 299	2.9651e+01	2.9600	-6.471044	0.000385	3.848723	0.651991	0.000038
 300	2.9750e+01	2.9768	-6.428273	0.000430	4.299105	0.728288	0.000043
 301	2.9850e+01	2.9816	-6.391612	0.000368	3.684948	0.624247	0.000037
 302	2.9950e+01	2.9910	-6.354544	0.000373	3.725891	0.631183	0.000037
 303	3.0049e+01	3.0041	-6.310143	0.000446	4.462881	0.756032	0.000045
 304	3.0148e+01	3.0109	-6.271039	0.000393	3.930611	0.665863	0.000039
 305	3.0248e+01	3.0227	-6.229897	0.000414	4.135330	0.700544	0.000041
 306	3.0348e+01	3.0325	-6.189163	0.000409	4.094386	0.693608	0.000041
 307	3.0447e+01	3.0421	-6.148428	0.000409	4.094386	0.693608	0.000041
 308	3.0547e+01	3.0511	-6.110138	0.000385	3.848723	0.651991	0.000038
 309	3.0646e+01	3.0613	-6.073070	0.000373	3.725891	0.631183	0.000037
 310	3.0745e+01	3.0697	-6.029892	0.000434	4.340049	0.735224	0.000043
 311	3.0845e+01	3.0813	-5.987936	0.000422	4.217218	0.714416	0.000042
 312	3.0945e+01	3.0909	-5.948423	0.000397	3.971555	0.672800	0.000040
 313	3.1044e+01	3.0993	-5.909726	0.000389	3.889667	0.658927	0.000039
 314	3.1143e+01	3.1101	-5.869806	0.000401	4.012498	0.679736	0.000040
 315	3.1243e+01	3.1202	-5.831516	0.000385	3.848723	0.651991	0.000038
 316	3.1343e+01	3.1290	-5.785079	0.000467	4.667600	0.790713	0.000047
 317	3.1442e+01	3.1414	-5.745567	0.000397	3.971555	0.672800	0.000040
 318	3.1541e+01	3.1487	-5.704425	0.000414	4.135330	0.700544	0.000041
 319	3.1641e+01	3.1611	-5.668579	0.000360	3.603060	0.610375	0.000036
 320	3.1741e+01	3.1702	-5.625401	0.000434	4.340049	0.735224	0.000043
 321	3.1840e+01	3.1804	-5.583852	0.000418	4.176274	0.707480	0.000042
 322	3.1939e+01	3.1895	-5.547598	0.000364	3.644004	0.617311	0.000036
 323	3.2039e+01	3.1998	-5.506049	0.000418	4.176274	0.707480	0.000042
 324	3.2139e+01	3.2098	-5.461242	0.000450	4.503825	0.762969	0.000045
 325	3.2238e+01	3.2207	-5.424173	0.000373	3.725891	0.631183	0.000037
 326	3.2337e+01	3.2289	-5.384254	0.000401	4.012498	0.679736	0.000040
 327	3.2437e+01	3.2415	-5.344742	0.000397	3.971555	0.672800	0.000040
 328	3.2536e+01	3.2491	-5.308895	0.000360	3.603060	0.610375	0.000036
 329	3.2636e+01	3.2600	-5.273864	0.000352	3.521172	0.596503	0.000035
 330	3.2736e+01	3.2696	-5.230686	0.000434	4.340049	0.735224	0.000043
 331	3.2835e+01	3.2796	-5.193210	0.000377	3.766835	0.638119	0.000038
 332	3.2934e+01	3.2891	-5.154513	0.000389	3.889667	0.658927	0.000039
 333	3.3034e+01	3.3009	-5.117444	0.000373	3.725891	0.631183	0.000037
 334	3.3133e+01	3.3135	-5.075488	0.000422	4.217218	0.714416	0.000042
 335	3.3233e+01	3.3198	-5.037605	0.000381	3.807779	0.645055	0.000038
 336	3.3333e+01	3.3297	-4.998093	0.000397	3.971555	0.672800	0.000040
 337	3.3432e+01	3.3411	-4.961025	0.000373	3.725891	0.631183	0.000037
 338	3.3532e+01	3.3491	-4.923957	0.000373	3.725891	0.631183	0.000037
 339	3.3631e+01	3.3603	-4.881593	0.000426	4.258162	0.721352	0.000043
 340	3.3730e+01	3.3694	-4.843710	0.000381	3.807779	0.645055	0.000038
 341	3.3830e+01	3.3783	-4.805013	0.000389	3.889667	0.658927	0.000039
 342	3.3929e+01	3.3907	-4.769981	0.000352	3.521172	0.596503	0.000035
 343	3.4029e+01	3.3971	-4.729654	0.000405	4.053442	0.686672	0.000041
 344	3.4129e+01	3.4084	-4.686069	0.000438	4.380993	0.742160	0.000044
 345	3.4228e+01	3.4182	-4.647371	0.000389	3.889667	0.658927	0.000039
 346	3.4328e+01	3.4280	-4.609896	0.000377	3.766835	0.638119	0.000038
 347	3.4427e+01	3.4380	-4.571198	0.000389	3.889667	0.658927	0.000039
 348	3.4526e+01	3.4522	-4.525168	0.000463	4.626656	0.783777	0.000046
 349	3.4626e+01	3.4595	-4.486878	0.000385	3.848723	0.651991	0.000038
 350	3.4725e+01	3.4694	-4.446959	0.000401	4.012498	0.679736	0.000040
 351	3.4825e+01	3.4798	-4.404595	0.000426	4.258162	0.721352	0.000043
 352	3.4925e+01	3.4887	-4.364268	0.000405	4.053442	0.686672	0.000041
 353	3.5024e+01	3.5006	-4.322719	0.000418	4.176274	0.707480	0.000042
 354	3.5123e+01	3.5091	-4.280763	0.000422	4.217218	0.714416	0.000042
 355	3.5223e+01	3.5190	-4.238399	0.000426	4.258162	0.721352	0.000043
 356	3.5322e+01	3.5284	-4.199294	0.000393	3.930611	0.665863	0.000039
 357	3.5422e+01	3.5388	-4.156931	0.000426	4.258162	0.721352	0.000043
 358	3.5522e+01	3.5466	-4.117826	0.000393	3.930611	0.665863	0.000039
 359	3.5621e+01	3.5590	-4.077906	0.000401	4.012498	0.679736	0.000040
 360	3.5721e+01	3.5654	-4.035135	0.000430	4.299105	0.728288	0.000043
 361	3.5820e+01	3.5783	-3.999289	0.000360	3.603060	0.610375	0.000036
 362	3.5919e+01	3.5873	-3.958962	0.000405	4.053442	0.686672	0.000041
 363	3.6019e+01	3.5978	-3.917006	0.000422	4.217218	0.714416	0.000042
 364	3.6118e+01	3.6092	-3.875050	0.000422	4.217218	0.714416	0.000042
 365	3.6218e+01	3.6169	-3.836352	0.000389	3.889667	0.658927	0.000039
 366	3.6318e+01	3.6276	-3.790322	0.000463	4.626656	0.783777	0.000046
 367	3.6417e+01	3.6362	-3.752032	0.000385	3.848723	0.651991	0.000038
 368	3.6517e+01	3.6488	-3.707632	0.000446	4.462881	0.756032	0.000045
 369	3.6616e+01	3.6585	-3.662417	0.000454	4.544769	0.769905	0.000045
 370	3.6715e+01	3.6706	-3.623719	0.000389	3.889667	0.658927	0.000039
 371	3.6815e+01	3.6770	-3.579726	0.000442	4.421937	0.749096	0.000044
 372	3.6914e+01	3.6876	-3.538585	0.000414	4.135330	0.700544	0.000041
 373	3.7014e+01	3.6964	-3.493370	0.000454	4.544769	0.769905	0.000045
 374	3.7114e+01	3.7099	-3.451821	0.000418	4.176274	0.707480	0.000042
 375	3.7213e+01	3.7172	-3.409864	0.000422	4.217218	0.714416	0.000042
 376	3.7313e+01	3.7266	-3.366686	0.000434	4.340049	0.735224	0.000043
 377	3.7412e+01	3.7362	-3.327174	0.000397	3.971555	0.672800	0.000040
 378	3.7511e+01	3.7466	-3.283996	0.000434	4.340049	0.735224	0.000043
 379	3.7611e+01	3.7612	-3.237966	0.000463	4.626656	0.783777	0.000046
 380	3.7711e+01	3.7698	-3.199676	0.000385	3.848723	0.651991	0.000038
 381	3.7810e+01	3.7778	-3.154053	0.000459	4.585712	0.776841	0.000046
 382	3.7910e+01	3.7859	-3.114134	0.000401	4.012498	0.679736	0.000040
 383	3.8009e+01	3.7963	-3.069326	0.000450	4.503825	0.762969	0.000045
 384	3.8108e+01	3.8071	-3.025740	0.000438	4.380993	0.742160	0.000044
 385	3.8208e+01	3.8174	-2.980525	0.000454	4.544769	0.769905	0.000045
 386	3.8307e+01	3.8271	-2.946309	0.000344	3.439284	0.582631	0.000034
 387	3.8407e+01	3.8357	-2.903130	0.000434	4.340049	0.735224	0.000043
 388	3.8507e+01	3.8461	-2.863211	0.000401	4.012498	0.679736	0.000040
 389	3.8606e+01	3.8536	-2.821662	0.000418	4.176274	0.707480	0.000042
 390	3.8706e+01	3.8663	-2.779298	0.000426	4.258162	0.721352	0.000043
 391	3.8805e+01	3.8773	-2.741008	0.000385	3.848723	0.651991	0.000038
 392	3.8904e+01	3.8860	-2.700274	0.000409	4.094386	0.693608	0.000041
 393	3.9004e+01	3.8958	-2.656688	0.000438	4.380993	0.742160	0.000044
 394	3.9103e+01	3.9068	-2.620435	0.000364	3.644004	0.617311	0.000036
 395	3.9203e+01	3.9152	-2.578478	0.000422	4.217218	0.714416	0.000042
 396	3.9303e+01	3.9273	-2.538559	0.000401	4.012498	0.679736	0.000040
 397	3.9402e+01	3.9373	-2.500676	0.000381	3.807779	0.645055	0.000038
 398	3.9502e+01	3.9468	-2.461164	0.000397	3.971555	0.672800	0.000040
 399	3.9601e+01	3.9571	-2.418393	0.000430	4.299105	0.728288	0.000043
 400	3.9700e+01	3.9628	-2.380510	0.000381	3.807779	0.645055	0.000038
 401	3.9800e+01	3.9777	-2.340590	0.000401	4.012498	0.679736	0.000040
 402	3.9900e+01	3.9854	-2.303929	0.000368	3.684948	0.624247	0.000037
 403	3.9999e+01	3.9957	-2.261566	0.000426	4.258162	0.721352	0.000043
 404	4.0099e+01	4.0044	-2.224090	0.000377	3.766835	0.638119	0.000038
 405	4.0198e+01	4.0151	-2.183763	0.000405	4.053442	0.686672	0.000041
 406	4.0297e+01	4.0286	-2.146695	0.000373	3.725891	0.631183	0.000037
 407	4.0397e+01	4.0366	-2.105146	0.000418	4.176274	0.707480	0.000042
 408	4.0496e+01	4.0446	-2.064412	0.000409	4.094386	0.693608	0.000041
 409	4.0596e+01	4.0578	-2.023678	0.000409	4.094386	0.693608	0.000041
 410	4.0696e+01	4.0650	-1.984980	0.000389	3.889667	0.658927	0.000039
 411	4.0795e+01	4.0726	-1.945061	0.000401	4.012498	0.679736	0.000040
 412	4.0895e+01	4.0822	-1.904326	0.000409	4.094386	0.693608	0.000041
 413	4.0994e+01	4.0975	-1.864407	0.000401	4.012498	0.679736	0.000040
 414	4.1093e+01	4.1070	-1.819192	0.000454	4.544769	0.769905	0.000045
 415	4.1193e+01	4.1167	-1.783346	0.000360	3.603060	0.610375	0.000036
 416	4.1292e+01	4.1246	-1.743833	0.000397	3.971555	0.672800	0.000040
 417	4.1392e+01	4.1352	-1.700655	0.000434	4.340049	0.735224	0.000043
 418	4.1492e+01	4.1451	-1.660736	0.000401	4.012498	0.679736	0.000040
 419	4.1591e+01	4.1537	-1.618372	0.000426	4.258162	0.721352	0.000043
 420	4.1691e+01	4.1624	-1.580896	0.000377	3.766835	0.638119	0.000038
 421	4.1790e+01	4.1759	-1.539348	0.000418	4.176274	0.707480	0.000042
 422	4.1889e+01	4.1834	-1.499835	0.000397	3.971555	0.672800	0.000040
 423	4.1989e+01	4.1950	-1.459916	0.000401	4.012498	0.679736	0.000040
 424	4.2089e+01	4.2051	-1.422033	0.000381	3.807779	0.645055	0.000038
 425	4.2188e+01	4.2150	-1.382113	0.000401	4.012498	0.679736	0.000040
 426	4.2288e+01	4.2242	-1.341379	0.000409	4.094386	0.693608	0.000041
 427	4.2387e+01	4.2365	-1.302681	0.000389	3.889667	0.658927	0.000039
 428	4.2486e+01	4.2451	-1.267243	0.000356	3.562116	0.603439	0.000036
 429	4.2586e+01	4.2570	-1.225694	0.000418	4.176274	0.707480	0.000042
 430	4.2685e+01	4.2616	-1.188626	0.000373	3.725891	0.631183	0.000037
 431	4.2785e+01	4.2730	-1.149113	0.000397	3.971555	0.672800	0.000040
 432	4.2885e+01	4.2841	-1.112045	0.000373	3.725891	0.631183	0.000037
 433	4.2984e+01	4.2967	-1.072533	0.000397	3.971555	0.672800	0.000040
 434	4.3084e+01	4.3052	-1.035057	0.000377	3.766835	0.638119	0.000038
 435	4.3183e+01	4.3150	-0.997989	0.000373	3.725891	0.631183	0.000037
 436	4.3282e+01	4.3240	-0.965402	0.000328	3.275509	0.554886	0.000033
 437	4.3382e+01	4.3362	-0.926704	0.000389	3.889667	0.658927	0.000039
 438	4.3481e+01	4.3456	-0.886785	0.000401	4.012498	0.679736	0.000040
 439	4.3581e+01	4.3543	-0.852568	0.000344	3.439284	0.582631	0.000034
 440	4.3681e+01	4.3655	-0.814685	0.000381	3.807779	0.645055	0.000038
 441	4.3780e+01	4.3749	-0.778432	0.000364	3.644004	0.617311	0.000036
 442	4.3880e+01	4.3850	-0.743807	0.000348	3.480228	0.589567	0.000035
 443	4.3979e+01	4.3940	-0.705925	0.000381	3.807779	0.645055	0.000038
 444	4.4078e+01	4.4033	-0.669671	0.000364	3.644004	0.617311	0.000036
 445	4.4178e+01	4.4152	-0.631788	0.000381	3.807779	0.645055	0.000038
 446	4.4278e+01	4.4246	-0.598386	0.000336	3.357397	0.568758	0.000034
 447	4.4377e+01	4.4332	-0.560096	0.000385	3.848723	0.651991	0.000038
 448	4.4477e+01	4.4424	-0.521806	0.000385	3.848723	0.651991	0.000038
 449	4.4576e+01	4.4534	-0.486367	0.000356	3.562116	0.603439	0.000036
 450	4.4675e+01	4.4640	-0.451336	0.000352	3.521172	0.596503	0.000035
 451	4.4775e+01	4.4750	-0.415897	0.000356	3.562116	0.603439	0.000036
 452	4.4874e+01	4.4830	-0.382902	0.000332	3.316453	0.561822	0.000033
 453	4.4974e+01	4.4942	-0.348278	0.000348	3.480228	0.589567	0.000035
 454	4.5074e+01	4.5014	-0.314468	0.000340	3.398341	0.575694	0.000034
 455	4.5173e+01	4.5147	-0.280252	0.000344	3.439284	0.582631	0.000034
 456	4.5273e+01	4.5230	-0.244813	0.000356	3.562116	0.603439	0.000036
 457	4.5372e+01	4.5335	-0.212633	0.000323	3.234565	0.547950	0.000032
 458	4.5471e+01	4.5446	-0.177601	0.000352	3.521172	0.596503	0.000035
 459	4.5571e+01	4.5531	-0.138904	0.000389	3.889667	0.658927	0.000039
 460	4.5670e+01	4.5623	-0.107538	0.000315	3.152677	0.534078	0.000032
 461	4.5770e+01	4.5730	-0.075766	0.000319	3.193621	0.541014	0.000032
 462	4.5870e+01	4.5843	-0.038698	0.000373	3.725891	0.631183	0.000037
 463	4.5969e+01	4.5931	-0.006110	0.000328	3.275509	0.554886	0.000033
 464	4.6069e+01	4.6017	0.024033	0.000303	3.029846	0.513270	0.000030
 465	4.6168e+01	4.6131	0.058657	0.000348	3.480228	0.589567	0.000035
 466	4.6267e+01	4.6262	0.087986	0.000295	2.947958	0.499398	0.000029
 467	4.6367e+01	4.6316	0.123832	0.000360	3.603060	0.610375	0.000036
 468	4.6467e+01	4.6420	0.158864	0.000352	3.521172	0.596503	0.000035
 469	4.6566e+01	4.6523	0.194710	0.000360	3.603060	0.610375	0.000036
 470	4.6666e+01	4.6619	0.223224	0.000287	2.866070	0.485525	0.000029
 471	4.6765e+01	4.6738	0.263958	0.000409	4.094386	0.693608	0.000041
 472	4.6864e+01	4.6821	0.298582	0.000348	3.480228	0.589567	0.000035
 473	4.6964e+01	4.6934	0.331169	0.000328	3.275509	0.554886	0.000033
 474	4.7063e+01	4.7005	0.369867	0.000389	3.889667	0.658927	0.000039
 475	4.7163e+01	4.7158	0.403269	0.000336	3.357397	0.568758	0.000034
 476	4.7263e+01	4.7238	0.439523	0.000364	3.644004	0.617311	0.000036
 477	4.7362e+01	4.7337	0.474147	0.000348	3.480228	0.589567	0.000035
 478	4.7462e+01	4.7430	0.509586	0.000356	3.562116	0.603439	0.000036
 479	4.7561e+01	4.7511	0.545432	0.000360	3.603060	0.610375	0.000036
 480	4.7660e+01	4.7626	0.581685	0.000364	3.644004	0.617311	0.000036
 481	4.7760e+01	4.7723	0.617124	0.000356	3.562116	0.603439	0.000036
 482	4.7859e+01	4.7842	0.650526	0.000336	3.357397	0.568758	0.000034
 483	4.7959e+01	4.7950	0.685150	0.000348	3.480228	0.589567	0.000035
 484	4.8059e+01	4.8000	0.723033	0.000381	3.807779	0.645055	0.000038
 485	4.8158e+01	4.8114	0.757250	0.000344	3.439284	0.582631	0.000034
 486	4.8258e+01	4.8205	0.795540	0.000385	3.848723	0.651991	0.000038
 487	4.8357e+01	4.8354	0.827313	0.000319	3.193621	0.541014	0.000032
 488	4.8456e+01	4.8403	0.867232	0.000401	4.012498	0.679736	0.000040
 489	4.8556e+01	4.8525	0.902671	0.000356	3.562116	0.603439	0.000036
 490	4.8656e+01	4.8602	0.938110	0.000356	3.562116	0.603439	0.000036
 491	4.8755e+01	4.8749	0.971105	0.000332	3.316453	0.561822	0.000033
 492	4.8855e+01	4.8883	1.008580	0.000377	3.766835	0.638119	0.000038
 493	4.8954e+01	4.8894	1.044426	0.000360	3.603060	0.610375	0.000036
 494	4.9053e+01	4.8990	1.074977	0.000307	3.070790	0.520206	0.000031
 495	4.9153e+01	4.9123	1.109601	0.000348	3.480228	0.589567	0.000035
 496	4.9252e+01	4.9198	1.145040	0.000356	3.562116	0.603439	0.000036
 497	4.9352e+01	4.9294	1.175591	0.000307	3.070790	0.520206	0.000031
 498	4.9452e+01	4.9416	1.207771	0.000323	3.234565	0.547950	0.000032
 499	4.9551e+01	4.9536	1.242802	0.000352	3.521172	0.596503	0.000035
 500	4.9651e+01	4.9628	1.277426	0.000348	3.480228	0.589567	0.000035
 501	4.9750e+01	4.9726	1.314902	0.000377	3.766835	0.638119	0.000038
 502	4.9849e+01	4.9820	1.347489	0.000328	3.275509	0.554886	0.000033
 503	4.9949e+01	4.9917	1.380077	0.000328	3.275509	0.554886	0.000033
 504	5.0048e+01	5.0001	1.417145	0.000373	3.725891	0.631183	0.000037
 505	5.0148e+01	5.0114	1.452584	0.000356	3.562116	0.603439	0.000036
 506	5.0248e+01	5.0195	1.482727	0.000303	3.029846	0.513270	0.000030
 507	5.0347e+01	5.0314	1.517758	0.000352	3.521172	0.596503	0.000035
 508	5.0447e+01	5.0402	1.552790	0.000352	3.521172	0.596503	0.000035
 509	5.0546e+01	5.0515	1.585377	0.000328	3.275509	0.554886	0.000033
 510	5.0645e+01	5.0610	1.621223	0.000360	3.603060	0.610375	0.000036
 511	5.0745e+01	5.0683	1.654218	0.000332	3.316453	0.561822	0.000033
 512	5.0844e+01	5.0802	1.688028	0.000340	3.398341	0.575694	0.000034
 513	5.0944e+01	5.0924	1.727947	0.000401	4.012498	0.679736	0.000040
 514	5.1044e+01	5.0971	1.762164	0.000344	3.439284	0.582631	0.000034
 515	5.1143e+01	5.1090	1.796788	0.000348	3.480228	0.589567	0.000035
 516	5.1242e+01	5.1206	1.830597	0.000340	3.398341	0.575694	0.000034
 517	5.1342e+01	5.1293	1.867258	0.000368	3.684948	0.624247	0.000037
 518	5.1441e+01	5.1400	1.904734	0.000377	3.766835	0.638119	0.000038
 519	5.1541e+01	5.1487	1.940173	0.000356	3.562116	0.603439	0.000036
 520	5.1641e+01	5.1615	1.971945	0.000319	3.193621	0.541014	0.000032
 521	5.1740e+01	5.1704	2.011865	0.000401	4.012498	0.679736	0.000040
 522	5.1840e+01	5.1806	2.050562	0.000389	3.889667	0.658927	0.000039
 523	5.1939e+01	5.1882	2.086816	0.000364	3.644004	0.617311	0.000036
 524	5.2038e+01	5.2006	2.121033	0.000344	3.439284	0.582631	0.000034
 525	5.2138e+01	5.2093	2.156064	0.000352	3.521172	0.596503	0.000035
 526	5.2237e+01	5.2213	2.195576	0.000397	3.971555	0.672800	0.000040
 527	5.2337e+01	5.2312	2.232645	0.000373	3.725891	0.631183	0.000037
 528	5.2437e+01	5.2416	2.266454	0.000340	3.398341	0.575694	0.000034
 529	5.2536e+01	5.2485	2.298227	0.000319	3.193621	0.541014	0.000032
 530	5.2636e+01	5.2612	2.336924	0.000389	3.889667	0.658927	0.000039
 531	5.2735e+01	5.2706	2.377251	0.000405	4.053442	0.686672	0.000041
 532	5.2834e+01	5.2813	2.406987	0.000299	2.988902	0.506334	0.000030
 533	5.2934e+01	5.2892	2.447721	0.000409	4.094386	0.693608	0.000041
 534	5.3033e+01	5.2999	2.483975	0.000364	3.644004	0.617311	0.000036
 535	5.3133e+01	5.3094	2.520636	0.000368	3.684948	0.624247	0.000037
 536	5.3233e+01	5.3187	2.563407	0.000430	4.299105	0.728288	0.000043
 537	5.3332e+01	5.3286	2.596809	0.000336	3.357397	0.568758	0.000034
 538	5.3431e+01	5.3399	2.639172	0.000426	4.258162	0.721352	0.000043
 539	5.3531e+01	5.3501	2.674611	0.000356	3.562116	0.603439	0.000036
 540	5.3630e+01	5.3588	2.715345	0.000409	4.094386	0.693608	0.000041
 541	5.3730e+01	5.3683	2.757302	0.000422	4.217218	0.714416	0.000042
 542	5.3830e+01	5.3772	2.789889	0.000328	3.275509	0.554886	0.000033
 543	5.3929e+01	5.3902	2.827365	0.000377	3.766835	0.638119	0.000038
 544	5.4029e+01	5.3997	2.862396	0.000352	3.521172	0.596503	0.000035
 545	5.4128e+01	5.4083	2.901501	0.000393	3.930611	0.665863	0.000039
 546	5.4227e+01	5.4188	2.941421	0.000401	4.012498	0.679736	0.000040
 547	5.4327e+01	5.4256	2.980525	0.000393	3.930611	0.665863	0.000039
 548	5.4426e+01	5.4391	3.022482	0.000422	4.217218	0.714416	0.000042
 549	5.4526e+01	5.4507	3.062401	0.000401	4.012498	0.679736	0.000040
 550	5.4626e+01	5.4589	3.096211	0.000340	3.398341	0.575694	0.000034
 551	5.4725e+01	5.4722	3.137760	0.000418	4.176274	0.707480	0.000042
 552	5.4825e+01	5.4789	3.177272	0.000397	3.971555	0.672800	0.000040
 553	5.4924e+01	5.4888	3.210267	0.000332	3.316453	0.561822	0.000033
 554	5.5023e+01	5.5013	3.249779	0.000397	3.971555	0.672800	0.000040
 555	5.5123e+01	5.5085	3.288884	0.000393	3.930611	0.665863	0.000039
 556	5.5222e+01	5.5186	3.320656	0.000319	3.193621	0.541014	0.000032
 557	5.5322e+01	5.5274	3.359354	0.000389	3.889667	0.658927	0.000039
 558	5.5422e+01	5.5392	3.393978	0.000348	3.480228	0.589567	0.000035
 559	5.5521e+01	5.5470	3.429010	0.000352	3.521172	0.596503	0.000035
 560	5.5620e+01	5.5618	3.462819	0.000340	3.398341	0.575694	0.000034
 561	5.5720e+01	5.5679	3.504368	0.000418	4.176274	0.707480	0.000042
 562	5.5819e+01	5.5793	3.537770	0.000336	3.357397	0.568758	0.000034
 563	5.5919e+01	5.5880	3.574838	0.000373	3.725891	0.631183	0.000037
 564	5.6019e+01	5.5993	3.611499	0.000368	3.684948	0.624247	0.000037
 565	5.6118e+01	5.6091	3.644086	0.000328	3.275509	0.554886	0.000033
 566	5.6218e+01	5.6194	3.680340	0.000364	3.644004	0.617311	0.000036
 567	5.6317e+01	5.6274	3.714149	0.000340	3.398341	0.575694	0.000034
 568	5.6416e+01	5.6377	3.752440	0.000385	3.848723	0.651991	0.000038
 569	5.6516e+01	5.6457	3.788286	0.000360	3.603060	0.610375	0.000036
 570	5.6615e+01	5.6611	3.818429	0.000303	3.029846	0.513270	0.000030
 571	5.6715e+01	5.6677	3.857941	0.000397	3.971555	0.672800	0.000040
 572	5.6815e+01	5.6783	3.889714	0.000319	3.193621	0.541014	0.000032
 573	5.6914e+01	5.6863	3.925153	0.000356	3.562116	0.603439	0.000036
 574	5.7014e+01	5.6992	3.963036	0.000381	3.807779	0.645055	0.000038
 575	5.7113e+01	5.7085	3.999697	0.000368	3.684948	0.624247	0.000037
 576	5.7212e+01	5.7157	4.037172	0.000377	3.766835	0.638119	0.000038
 577	5.7312e+01	5.7244	4.066908	0.000299	2.988902	0.506334	0.000030
 578	5.7411e+01	5.7384	4.107235	0.000405	4.053442	0.686672	0.000041
 579	5.7511e+01	5.7490	4.146340	0.000393	3.930611	0.665863	0.000039
 580	5.7611e+01	5.7557	4.178927	0.000328	3.275509	0.554886	0.000033
 581	5.7710e+01	5.7677	4.214773	0.000360	3.603060	0.610375	0.000036
 582	5.7809e+01	5.7787	4.252249	0.000377	3.766835	0.638119	0.000038
 583	5.7909e+01	5.7871	4.290132	0.000381	3.807779	0.645055	0.000038
 584	5.8008e+01	5.7972	4.325163	0.000352	3.521172	0.596503	0.000035
 585	5.8108e+01	5.8068	4.360602	0.000356	3.562116	0.603439	0.000036
 586	5.8208e+01	5.8178	4.399707	0.000393	3.930611	0.665863	0.000039
 587	5.8307e+01	5.8279	4.434738	0.000352	3.521172	0.596503	0.000035
 588	5.8407e+01	5.8356	4.472214	0.000377	3.766835	0.638119	0.000038
 589	5.8506e+01	5.8473	4.510097	0.000381	3.807779	0.645055	0.000038
 590	5.8605e+01	5.8578	4.545536	0.000356	3.562116	0.603439	0.000036
 591	5.8705e+01	5.8681	4.577716	0.000323	3.234565	0.547950	0.000032
 592	5.8804e+01	5.8776	4.615598	0.000381	3.807779	0.645055	0.000038
 593	5.8904e+01	5.8874	4.650630	0.000352	3.521172	0.596503	0.000035
 594	5.9004e+01	5.8977	4.686476	0.000360	3.603060	0.610375	0.000036
 595	5.9103e+01	5.9084	4.719471	0.000332	3.316453	0.561822	0.000033
 596	5.9203e+01	5.9168	4.756132	0.000368	3.684948	0.624247	0.000037
 597	5.9302e+01	5.9249	4.787090	0.000311	3.111733	0.527142	0.000031
 598	5.9401e+01	5.9383	4.820899	0.000340	3.398341	0.575694	0.000034
 599	5.9501e+01	5.9469	4.853894	0.000332	3.316453	0.561822	0.000033
 600	5.9600e+01	5.9582	4.890555	0.000368	3.684948	0.624247	0.000037
 601	5.9700e+01	5.9661	4.924771	0.000344	3.439284	0.582631	0.000034
 602	5.9800e+01	5.9795	4.958581	0.000340	3.398341	0.575694	0.000034
 603	5.9899e+01	5.9859	4.992390	0.000340	3.398341	0.575694	0.000034
 604	5.9998e+01	5.9975	5.024570	0.000323	3.234565	0.547950	0.000032
 605	6.0098e+01	6.0062	5.060824	0.000364	3.644004	0.617311	0.000036
 606	6.0197e+01	6.0146	5.093004	0.000323	3.234565	0.547950	0.000032
 607	6.0297e+01	6.0262	5.126813	0.000340	3.398341	0.575694	0.000034
 608	6.0397e+01	6.0356	5.153698	0.000270	2.702295	0.457781	0.000027
 609	6.0496e+01	6.0452	5.189544	0.000360	3.603060	0.610375	0.000036
 610	6.0596e+01	6.0558	5.224983	0.000356	3.562116	0.603439	0.000036
 611	6.0695e+01	6.0665	5.255126	0.000303	3.029846	0.513270	0.000030
 612	6.0794e+01	6.0770	5.290158	0.000352	3.521172	0.596503	0.000035
 613	6.0894e+01	6.0867	5.323560	0.000336	3.357397	0.568758	0.000034
 614	6.0993e+01	6.0986	5.356555	0.000332	3.316453	0.561822	0.000033
 615	6.1093e+01	6.1047	5.389957	0.000336	3.357397	0.568758	0.000034
 616	6.1193e+01	6.1180	5.420915	0.000311	3.111733	0.527142	0.000031
 617	6.1292e+01	6.1266	5.455946	0.000352	3.521172	0.596503	0.000035
 618	6.1392e+01	6.1358	5.483238	0.000274	2.743239	0.464717	0.000027
 619	6.1491e+01	6.1451	5.516233	0.000332	3.316453	0.561822	0.000033
 620	6.1590e+01	6.1602	5.545969	0.000299	2.988902	0.506334	0.000030
 621	6.1690e+01	6.1657	5.577334	0.000315	3.152677	0.534078	0.000032
 622	6.1789e+01	6.1752	5.605848	0.000287	2.866070	0.485525	0.000029
 623	6.1889e+01	6.1874	5.638028	0.000323	3.234565	0.547950	0.000032
 624	6.1989e+01	6.2003	5.666135	0.000283	2.825126	0.478589	0.000028
 625	6.2088e+01	6.2045	5.695056	0.000291	2.907014	0.492462	0.000029
 626	6.2188e+01	6.2148	5.726829	0.000319	3.193621	0.541014	0.000032
 627	6.2287e+01	6.2257	5.762675	0.000360	3.603060	0.610375	0.000036
 628	6.2386e+01	6.2371	5.789152	0.000266	2.661351	0.450845	0.000027
 629	6.2486e+01	6.2447	5.822147	0.000332	3.316453	0.561822	0.000033
 630	6.2586e+01	6.2569	5.850661	0.000287	2.866070	0.485525	0.000029
 631	6.2685e+01	6.2640	5.879990	0.000295	2.947958	0.499398	0.000029
 632	6.2785e+01	6.2753	5.908504	0.000287	2.866070	0.485525	0.000029
 633	6.2884e+01	6.2841	5.937425	0.000291	2.907014	0.492462	0.000029
 634	6.2983e+01	6.2954	5.965532	0.000283	2.825126	0.478589	0.000028
 635	6.3083e+01	6.3058	5.996897	0.000315	3.152677	0.534078	0.000032
 636	6.3182e+01	6.3133	6.030706	0.000340	3.398341	0.575694	0.000034
 637	6.3282e+01	6.3233	6.057591	0.000270	2.702295	0.457781	0.000027
 638	6.3382e+01	6.3329	6.092623	0.000352	3.521172	0.596503	0.000035
 639	6.3481e+01	6.3404	6.123581	0.000311	3.111733	0.527142	0.000031
 640	6.3581e+01	6.3517	6.157797	0.000344	3.439284	0.582631	0.000034
 641	6.3680e+01	6.3645	6.189163	0.000315	3.152677	0.534078	0.000032
 642	6.3779e+01	6.3711	6.220121	0.000311	3.111733	0.527142	0.000031
 643	6.3879e+01	6.3803	6.251893	0.000319	3.193621	0.541014	0.000032
 644	6.3978e+01	6.3897	6.281222	0.000295	2.947958	0.499398	0.000029
 645	6.4078e+01	6.4030	6.311773	0.000307	3.070790	0.520206	0.000031
 646	6.4177e+01	6.4138	6.346804	0.000352	3.521172	0.596503	0.000035
 647	6.4277e+01	6.4223	6.378577	0.000319	3.193621	0.541014	0.000032
 648	6.4376e+01	6.4333	6.408313	0.000299	2.988902	0.506334	0.000030
 649	6.4476e+01	6.4436	6.439271	0.000311	3.111733	0.527142	0.000031
 650	6.4576e+01	6.4538	6.474710	0.000356	3.562116	0.603439	0.000036
 651	6.4675e+01	6.4649	6.509741	0.000352	3.521172	0.596503	0.000035
 652	6.4775e+01	6.4747	6.541107	0.000315	3.152677	0.534078	0.000032
 653	6.4874e+01	6.4828	6.570435	0.000295	2.947958	0.499398	0.000029
 654	6.4974e+01	6.4945	6.607504	0.000373	3.725891	0.631183	0.000037
 655	6.5073e+01	6.5003	6.638462	0.000311	3.111733	0.527142	0.000031
 656	6.5172e+01	6.5115	6.669420	0.000311	3.111733	0.527142	0.000031
 657	6.5272e+01	6.5232	6.703229	0.000340	3.398341	0.575694	0.000034
 658	6.5371e+01	6.5325	6.739075	0.000360	3.603060	0.610375	0.000036
 659	6.5471e+01	6.5437	6.769626	0.000307	3.070790	0.520206	0.000031
 660	6.5570e+01	6.5534	6.798955	0.000295	2.947958	0.499398	0.000029
 661	6.5670e+01	6.5617	6.831135	0.000323	3.234565	0.547950	0.000032
 662	6.5769e+01	6.5737	6.863722	0.000328	3.275509	0.554886	0.000033
 663	6.5869e+01	6.5826	6.891421	0.000278	2.784183	0.471653	0.000028
 664	6.5969e+01	6.5910	6.918713	0.000274	2.743239	0.464717	0.000027
 665	6.6068e+01	6.6030	6.952930	0.000344	3.439284	0.582631	0.000034
 666	6.6168e+01	6.6124	6.979815	0.000270	2.702295	0.457781	0.000027
 667	6.6267e+01	6.6243	7.012809	0.000332	3.316453	0.561822	0.000033
 668	6.6367e+01	6.6314	7.044175	0.000315	3.152677	0.534078	0.000032
 669	6.6466e+01	6.6427	7.080021	0.000360	3.603060	0.610375	0.000036
 670	6.6566e+01	6.6498	7.107313	0.000274	2.743239	0.464717	0.000027
 671	6.6665e+01	6.6637	7.139900	0.000328	3.275509	0.554886	0.000033
 672	6.6764e+01	6.6714	7.172080	0.000323	3.234565	0.547950	0.000032
 673	6.6864e+01	6.6823	7.201409	0.000295	2.947958	0.499398	0.000029
 674	6.6963e+01	6.6909	7.234404	0.000332	3.316453	0.561822	0.000033
 675	6.7063e+01	6.7033	7.264547	0.000303	3.029846	0.513270	0.000030
 676	6.7162e+01	6.7122	7.294690	0.000303	3.029846	0.513270	0.000030
 677	6.7262e+01	6.7211	7.329315	0.000348	3.480228	0.589567	0.000035
 678	6.7362e+01	6.7324	7.357421	0.000283	2.825126	0.478589	0.000028
 679	6.7461e+01	6.7437	7.393675	0.000364	3.644004	0.617311	0.000036
 680	6.7561e+01	6.7495	7.421374	0.000278	2.784183	0.471653	0.000028
 681	6.7660e+01	6.7651	7.457627	0.000364	3.644004	0.617311	0.000036
 682	6.7760e+01	6.7708	7.488993	0.000315	3.152677	0.534078	0.000032
 683	6.7859e+01	6.7800	7.521988	0.000332	3.316453	0.561822	0.000033
 684	6.7959e+01	6.7907	7.554982	0.000332	3.316453	0.561822	0.000033
 685	6.8058e+01	6.8018	7.587977	0.000332	3.316453	0.561822	0.000033
 686	6.8157e+01	6.8123	7.621379	0.000336	3.357397	0.568758	0.000034
 687	6.8257e+01	6.8230	7.654374	0.000332	3.316453	0.561822	0.000033
 688	6.8356e+01	6.8307	7.685739	0.000315	3.152677	0.534078	0.000032
 689	6.8456e+01	6.8414	7.723215	0.000377	3.766835	0.638119	0.000038
 690	6.8555e+01	6.8519	7.756210	0.000332	3.316453	0.561822	0.000033
 691	6.8655e+01	6.8604	7.790019	0.000340	3.398341	0.575694	0.000034
 692	6.8754e+01	6.8710	7.823421	0.000336	3.357397	0.568758	0.000034
 693	6.8854e+01	6.8784	7.856823	0.000336	3.357397	0.568758	0.000034
 694	6.8954e+01	6.8929	7.891040	0.000344	3.439284	0.582631	0.000034
 695	6.9053e+01	6.9030	7.925664	0.000348	3.480228	0.589567	0.000035
 696	6.9153e+01	6.9131	7.958659	0.000332	3.316453	0.561822	0.000033
 697	6.9252e+01	6.9225	7.992061	0.000336	3.357397	0.568758	0.000034
 698	6.9352e+01	6.9302	8.021797	0.000299	2.988902	0.506334	0.000030
 699	6.9451e+01	6.9407	8.058050	0.000364	3.644004	0.617311	0.000036
 700	6.9550e+01	6.9495	8.092674	0.000348	3.480228	0.589567	0.000035
 701	6.9650e+01	6.9608	8.128521	0.000360	3.603060	0.610375	0.000036
 702	6.9749e+01	6.9716	8.161108	0.000328	3.275509	0.554886	0.000033
 703	6.9849e+01	6.9802	8.196954	0.000360	3.603060	0.610375	0.000036
 704	6.9948e+01	6.9917	8.232393	0.000356	3.562116	0.603439	0.000036
 705	7.0048e+01	6.9996	8.273127	0.000409	4.094386	0.693608	0.000041
 706	7.0147e+01	7.0098	8.306529	0.000336	3.357397	0.568758	0.000034
 707	7.0247e+01	7.0223	8.342375	0.000360	3.603060	0.610375	0.000036
 708	7.0347e+01	7.0309	8.378629	0.000364	3.644004	0.617311	0.000036
 709	7.0446e+01	7.0409	8.411624	0.000332	3.316453	0.561822	0.000033
 710	7.0546e+01	7.0544	8.448285	0.000368	3.684948	0.624247	0.000037
 711	7.0645e+01	7.0564	8.484131	0.000360	3.603060	0.610375	0.000036
 712	7.0745e+01	7.0691	8.519569	0.000356	3.562116	0.603439	0.000036
 713	7.0844e+01	7.0821	8.555823	0.000364	3.644004	0.617311	0.000036
 714	7.0944e+01	7.0919	8.592484	0.000368	3.684948	0.624247	0.000037
 715	7.1043e+01	7.1021	8.626701	0.000344	3.439284	0.582631	0.000034
 716	7.1142e+01	7.1117	8.667435	0.000409	4.094386	0.693608	0.000041
 717	7.1242e+01	7.1221	8.704910	0.000377	3.766835	0.638119	0.000038
 718	7.1341e+01	7.1307	8.739942	0.000352	3.521172	0.596503	0.000035
 719	7.1441e+01	7.1365	8.775788	0.000360	3.603060	0.610375	0.000036
 720	7.1540e+01	7.1505	8.812856	0.000373	3.725891	0.631183	0.000037
 721	7.1640e+01	7.1598	8.849110	0.000364	3.644004	0.617311	0.000036
 722	7.1740e+01	7.1708	8.881290	0.000323	3.234565	0.547950	0.000032
 723	7.1839e+01	7.1790	8.913470	0.000323	3.234565	0.547950	0.000032
 724	7.1939e+01	7.1895	8.947686	0.000344	3.439284	0.582631	0.000034
 725	7.2038e+01	7.1998	8.983125	0.000356	3.562116	0.603439	0.000036
 726	7.2138e+01	7.2100	9.018564	0.000356	3.562116	0.603439	0.000036
 727	7.2237e+01	7.2230	9.051559	0.000332	3.316453	0.561822	0.000033
 728	7.2337e+01	7.2305	9.084554	0.000332	3.316453	0.561822	0.000033
 729	7.2436e+01	7.2402	9.122844	0.000385	3.848723	0.651991	0.000038
 730	7.2535e+01	7.2513	9.155839	0.000332	3.316453	0.561822	0.000033
 731	7.2635e+01	7.2612	9.185982	0.000303	3.029846	0.513270	0.000030
 732	7.2734e+01	7.2710	9.223457	0.000377	3.766835	0.638119	0.000038
 733	7.2834e+01	7.2778	9.254823	0.000315	3.152677	0.534078	0.000032
 734	7.2933e+01	7.2901	9.290262	0.000356	3.562116	0.603439	0.000036
 735	7.3033e+01	7.2974	9.324478	0.000344	3.439284	0.582631	0.000034
 736	7.3132e+01	7.3096	9.355436	0.000311	3.111733	0.527142	0.000031
 737	7.3232e+01	7.3180	9.388024	0.000328	3.275509	0.554886	0.000033
 738	7.3332e+01	7.3299	9.422241	0.000344	3.439284	0.582631	0.000034
 739	7.3431e+01	7.3389	9.458494	0.000364	3.644004	0.617311	0.000036
 740	7.3531e+01	7.3508	9.487823	0.000295	2.947958	0.499398	0.000029
 741	7.3630e+01	7.3590	9.524484	0.000368	3.684948	0.624247	0.000037
 742	7.3730e+01	7.3710	9.554627	0.000303	3.029846	0.513270	0.000030
 743	7.3829e+01	7.3787	9.591695	0.000373	3.725891	0.631183	0.000037
 744	7.3928e+01	7.3884	9.629171	0.000377	3.766835	0.638119	0.000038
 745	7.4028e+01	7.3989	9.660536	0.000315	3.152677	0.534078	0.000032
 746	7.4127e+01	7.4088	9.698826	0.000385	3.848723	0.651991	0.000038
 747	7.4227e+01	7.4178	9.731006	0.000323	3.234565	0.547950	0.000032
 748	7.4326e+01	7.4305	9.768074	0.000373	3.725891	0.631183	0.000037
 749	7.4426e+01	7.4413	9.804328	0.000364	3.644004	0.617311	0.000036
 750	7.4525e+01	7.4477	9.838137	0.000340	3.398341	0.575694	0.000034
 751	7.4625e+01	7.4588	9.873576	0.000356	3.562116	0.603439	0.000036
 752	7.4725e+01	7.4667	9.908608	0.000352	3.521172	0.596503	0.000035
 753	7.4824e+01	7.4780	9.943639	0.000352	3.521172	0.596503	0.000035
 754	7.4924e+01	7.4920	9.979078	0.000356	3.562116	0.603439	0.000036
 755	7.5023e+01	7.4990	10.012480	0.000336	3.357397	0.568758	0.000034
 756	7.5123e+01	7.5068	10.049141	0.000368	3.684948	0.624247	0.000037
 757	7.5222e+01	7.5188	10.082135	0.000332	3.316453	0.561822	0.000033
 758	7.5322e+01	7.5272	10.116760	0.000348	3.480228	0.589567	0.000035
 759	7.5421e+01	7.5364	10.151791	0.000352	3.521172	0.596503	0.000035
 760	7.5520e+01	7.5464	10.184786	0.000332	3.316453	0.561822	0.000033
 761	7.5620e+01	7.5583	10.221854	0.000373	3.725891	0.631183	0.000037
 762	7.5719e+01	7.5649	10.254849	0.000332	3.316453	0.561822	0.000033
 763	7.5819e+01	7.5748	10.287029	0.000323	3.234565	0.547950	0.000032
 764	7.5918e+01	7.5889	10.324504	0.000377	3.766835	0.638119	0.000038
 765	7.6018e+01	7.5970	10.356684	0.000323	3.234565	0.547950	0.000032
 766	7.6118e+01	7.6073	10.391308	0.000348	3.480228	0.589567	0.000035
 767	7.6217e+01	7.6167	10.421044	0.000299	2.988902	0.506334	0.000030
 768	7.6317e+01	7.6263	10.456891	0.000360	3.603060	0.610375	0.000036
 769	7.6416e+01	7.6369	10.488663	0.000319	3.193621	0.541014	0.000032
 770	7.6516e+01	7.6447	10.520029	0.000315	3.152677	0.534078	0.000032
 771	7.6615e+01	7.6572	10.556282	0.000364	3.644004	0.617311	0.000036
 772	7.6715e+01	7.6690	10.584796	0.000287	2.866070	0.485525	0.000029
 773	7.6814e+01	7.6769	10.616162	0.000315	3.152677	0.534078	0.000032
 774	7.6913e+01	7.6882	10.652415	0.000364	3.644004	0.617311	0.000036
 775	7.7013e+01	7.6968	10.682151	0.000299	2.988902	0.506334	0.000030
 776	7.7112e+01	7.7088	10.716775	0.000348	3.480228	0.589567	0.000035
 777	7.7212e+01	7.7169	10.751399	0.000348	3.480228	0.589567	0.000035
 778	7.7311e+01	7.7258	10.782357	0.000311	3.111733	0.527142	0.000031
 779	7.7411e+01	7.7385	10.815352	0.000332	3.316453	0.561822	0.000033
 780	7.7510e+01	7.7480	10.849162	0.000340	3.398341	0.575694	0.000034
 781	7.7610e+01	7.7575	10.882564	0.000336	3.357397	0.568758	0.000034
 782	7.7710e+01	7.7663	10.913114	0.000307	3.070790	0.520206	0.000031
 783	7.7809e+01	7.7769	10.945702	0.000328	3.275509	0.554886	0.000033
 784	7.7909e+01	7.7876	10.979511	0.000340	3.398341	0.575694	0.000034
 785	7.8008e+01	7.7970	11.010877	0.000315	3.152677	0.534078	0.000032
 786	7.8108e+01	7.8063	11.038576	0.000278	2.784183	0.471653	0.000028
 787	7.8207e+01	7.8191	11.071163	0.000328	3.275509	0.554886	0.000033
 788	7.8306e+01	7.8251	11.100085	0.000291	2.907014	0.492462	0.000029
 789	7.8406e+01	7.8361	11.134301	0.000344	3.439284	0.582631	0.000034
 790	7.8505e+01	7.8472	11.161186	0.000270	2.702295	0.457781	0.000027
 791	7.8605e+01	7.8572	11.191329	0.000303	3.029846	0.513270	0.000030
 792	7.8704e+01	7.8680	11.220658	0.000295	2.947958	0.499398	0.000029
 793	7.8804e+01	7.8767	11.258133	0.000377	3.766835	0.638119	0.000038
 794	7.8903e+01	7.8880	11.286647	0.000287	2.866070	0.485525	0.000029
 795	7.9003e+01	7.8970	11.315569	0.000291	2.907014	0.492462	0.000029
 796	7.9103e+01	7.9073	11.349786	0.000344	3.439284	0.582631	0.000034
 797	7.9202e+01	7.9166	11.377892	0.000283	2.825126	0.478589	0.000028
 798	7.9302e+01	7.9254	11.405184	0.000274	2.743239	0.464717	0.000027
 799	7.9401e+01	7.9399	11.434920	0.000299	2.988902	0.506334	0.000030
 800	7.9501e+01	7.9456	11.469137	0.000344	3.439284	0.582631	0.000034
 801	7.9600e+01	7.9590	11.497244	0.000283	2.825126	0.478589	0.000028
 802	7.9700e+01	7.9641	11.530238	0.000332	3.316453	0.561822	0.000033
 803	7.9799e+01	7.9774	11.562418	0.000323	3.234565	0.547950	0.000032
 804	7.9898e+01	7.9862	11.593376	0.000311	3.111733	0.527142	0.000031
 805	7.9998e+01	7.9960	11.619854	0.000266	2.661351	0.450845	0.000027
 806	8.0097e+01	8.0029	11.652441	0.000328	3.275509	0.554886	0.000033
 807	8.0197e+01	8.0163	11.688695	0.000364	3.644004	0.617311	0.000036
 808	8.0296e+01	8.0236	11.720060	0.000315	3.152677	0.534078	0.000032
 809	8.0396e+01	8.0359	11.754277	0.000344	3.439284	0.582631	0.000034
 810	8.0496e+01	8.0451	11.787271	0.000332	3.316453	0.561822	0.000033
 811	8.0595e+01	8.0565	11.821488	0.000344	3.439284	0.582631	0.000034
 812	8.0695e+01	8.0666	11.854076	0.000328	3.275509	0.554886	0.000033
 813	8.0794e+01	8.0738	11.886256	0.000323	3.234565	0.547950	0.000032
 814	8.0894e+01	8.0873	11.921694	0.000356	3.562116	0.603439	0.000036
 815	8.0993e+01	8.0973	11.951838	0.000303	3.029846	0.513270	0.000030
 816	8.1093e+01	8.1062	11.986462	0.000348	3.480228	0.589567	0.000035
 817	8.1192e+01	8.1144	12.019864	0.000336	3.357397	0.568758	0.000034
 818	8.1291e+01	8.1268	12.055710	0.000360	3.603060	0.610375	0.000036
 819	8.1391e+01	8.1362	12.089927	0.000344	3.439284	0.582631	0.000034
 820	8.1490e+01	8.1460	12.119256	0.000295	2.947958	0.499398	0.000029
 821	8.1590e+01	8.1543	12.153880	0.000348	3.480228	0.589567	0.000035
 822	8.1689e+01	8.1654	12.188504	0.000348	3.480228	0.589567	0.000035
 823	8.1789e+01	8.1723	12.226794	0.000385	3.848723	0.651991	0.000038
 824	8.1888e+01	8.1858	12.261418	0.000348	3.480228	0.589567	0.000035
 825	8.1988e+01	8.1958	12.295228	0.000340	3.398341	0.575694	0.000034
 826	8.2088e+01	8.2060	12.327000	0.000319	3.193621	0.541014	0.000032
 827	8.2187e+01	8.2162	12.364068	0.000373	3.725891	0.631183	0.000037
 828	8.2287e+01	8.2237	12.394212	0.000303	3.029846	0.513270	0.000030
 829	8.2386e+01	8.2339	12.426392	0.000323	3.234565	0.547950	0.000032
 830	8.2486e+01	8.2449	12.458572	0.000323	3.234565	0.547950	0.000032
 831	8.2585e+01	8.2549	12.490345	0.000319	3.193621	0.541014	0.000032
 832	8.2684e+01	8.2650	12.523339	0.000332	3.316453	0.561822	0.000033
 833	8.2784e+01	8.2758	12.553075	0.000299	2.988902	0.506334	0.000030
 834	8.2883e+01	8.2841	12.590551	0.000377	3.766835	0.638119	0.000038
 835	8.2983e+01	8.2944	12.623138	0.000328	3.275509	0.554886	0.000033
 836	8.3082e+01	8.3063	12.659799	0.000368	3.684948	0.624247	0.000037
 837	8.3182e+01	8.3100	12.694016	0.000344	3.439284	0.582631	0.000034
 838	8.3281e+01	8.3242	12.724974	0.000311	3.111733	0.527142	0.000031
 839	8.3381e+01	8.3310	12.759191	0.000344	3.439284	0.582631	0.000034
 840	8.3481e+01	8.3450	12.794222	0.000352	3.521172	0.596503	0.000035
 841	8.3580e+01	8.3547	12.823958	0.000299	2.988902	0.506334	0.000030
 842	8.3680e+01	8.3660	12.861841	0.000381	3.807779	0.645055	0.000038
 843	8.3779e+01	8.3734	12.898095	0.000364	3.644004	0.617311	0.000036
 844	8.3879e+01	8.3863	12.931497	0.000336	3.357397	0.568758	0.000034
 845	8.3978e+01	8.3947	12.961640	0.000303	3.029846	0.513270	0.000030
 846	8.4078e+01	8.4044	12.999523	0.000381	3.807779	0.645055	0.000038
 847	8.4177e+01	8.4135	13.031296	0.000319	3.193621	0.541014	0.000032
 848	8.4276e+01	8.4241	13.074881	0.000438	4.380993	0.742160	0.000044
 849	8.4376e+01	8.4327	13.105839	0.000311	3.111733	0.527142	0.000031
 850	8.4475e+01	8.4424	13.143315	0.000377	3.766835	0.638119	0.000038
 851	8.4575e+01	8.4521	13.178754	0.000356	3.562116	0.603439	0.000036
 852	8.4674e+01	8.4663	13.213785	0.000352	3.521172	0.596503	0.000035
 853	8.4774e+01	8.4747	13.249631	0.000360	3.603060	0.610375	0.000036
 854	8.4874e+01	8.4803	13.286292	0.000368	3.684948	0.624247	0.000037
 855	8.4973e+01	8.4937	13.327841	0.000418	4.176274	0.707480	0.000042
 856	8.5073e+01	8.5044	13.362058	0.000344	3.439284	0.582631	0.000034
 857	8.5172e+01	8.5114	13.403199	0.000414	4.135330	0.700544	0.000041
 858	8.5272e+01	8.5229	13.437009	0.000340	3.398341	0.575694	0.000034
 859	8.5371e+01	8.5327	13.475299	0.000385	3.848723	0.651991	0.000038
 860	8.5471e+01	8.5433	13.515626	0.000405	4.053442	0.686672	0.000041
 861	8.5570e+01	8.5543	13.550657	0.000352	3.521172	0.596503	0.000035
 862	8.5669e+01	8.5648	13.585689	0.000352	3.521172	0.596503	0.000035
 863	8.5769e+01	8.5724	13.621128	0.000356	3.562116	0.603439	0.000036
 864	8.5868e+01	8.5828	13.665121	0.000442	4.421937	0.749096	0.000044
 865	8.5968e+01	8.5938	13.701374	0.000364	3.644004	0.617311	0.000036
 866	8.6067e+01	8.6011	13.739257	0.000381	3.807779	0.645055	0.000038
 867	8.6167e+01	8.6133	13.775918	0.000368	3.684948	0.624247	0.000037
 868	8.6266e+01	8.6211	13.812986	0.000373	3.725891	0.631183	0.000037
 869	8.6366e+01	8.6311	13.858608	0.000459	4.585712	0.776841	0.000046
 870	8.6466e+01	8.6426	13.895269	0.000368	3.684948	0.624247	0.000037
 871	8.6565e+01	8.6524	13.936411	0.000414	4.135330	0.700544	0.000041
 872	8.6665e+01	8.6646	13.979589	0.000434	4.340049	0.735224	0.000043
 873	8.6764e+01	8.6713	14.017879	0.000385	3.848723	0.651991	0.000038
 874	8.6864e+01	8.6845	14.058206	0.000405	4.053442	0.686672	0.000041
 875	8.6963e+01	8.6915	14.099348	0.000414	4.135330	0.700544	0.000041
 876	8.7063e+01	8.7045	14.140897	0.000418	4.176274	0.707480	0.000042
 877	8.7162e+01	8.7140	14.182446	0.000418	4.176274	0.707480	0.000042
 878	8.7261e+01	8.7223	14.219921	0.000377	3.766835	0.638119	0.000038
 879	8.7361e+01	8.7366	14.265951	0.000463	4.626656	0.783777	0.000046
 880	8.7460e+01	8.7436	14.300168	0.000344	3.439284	0.582631	0.000034
 881	8.7560e+01	8.7514	14.347827	0.000479	4.790432	0.811521	0.000048
 882	8.7659e+01	8.7640	14.385710	0.000381	3.807779	0.645055	0.000038
 883	8.7759e+01	8.7759	14.428073	0.000426	4.258162	0.721352	0.000043
 884	8.7859e+01	8.7807	14.474510	0.000467	4.667600	0.790713	0.000047
 885	8.7958e+01	8.7910	14.514837	0.000405	4.053442	0.686672	0.000041
 886	8.8058e+01	8.8018	14.556386	0.000418	4.176274	0.707480	0.000042
 887	8.8157e+01	8.8142	14.598750	0.000426	4.258162	0.721352	0.000043
 888	8.8257e+01	8.8213	14.640706	0.000422	4.217218	0.714416	0.000042
 889	8.8356e+01	8.8314	14.678182	0.000377	3.766835	0.638119	0.000038
 890	8.8456e+01	8.8422	14.721360	0.000434	4.340049	0.735224	0.000043
 891	8.8555e+01	8.8528	14.761279	0.000401	4.012498	0.679736	0.000040
 892	8.8654e+01	8.8599	14.801199	0.000401	4.012498	0.679736	0.000040
 893	8.8754e+01	8.8687	14.842748	0.000418	4.176274	0.707480	0.000042
 894	8.8853e+01	8.8802	14.881853	0.000393	3.930611	0.665863	0.000039
 895	8.8953e+01	8.8896	14.922587	0.000409	4.094386	0.693608	0.000041
 896	8.9052e+01	8.9002	14.963321	0.000409	4.094386	0.693608	0.000041
 897	8.9152e+01	8.9126	15.003648	0.000405	4.053442	0.686672	0.000041
 898	8.9251e+01	8.9209	15.043975	0.000405	4.053442	0.686672	0.000041
 899	8.9351e+01	8.9329	15.084302	0.000405	4.053442	0.686672	0.000041
 900	8.9451e+01	8.9404	15.125444	0.000414	4.135330	0.700544	0.000041
 901	8.9550e+01	8.9463	15.169844	0.000446	4.462881	0.756032	0.000045
 902	8.9650e+01	8.9600	15.205690	0.000360	3.603060	0.610375	0.000036
 903	8.9749e+01	8.9731	15.249276	0.000438	4.380993	0.742160	0.000044
 904	8.9849e+01	8.9802	15.290825	0.000418	4.176274	0.707480	0.000042
 905	8.9948e+01	8.9895	15.332374	0.000418	4.176274	0.707480	0.000042
 906	9.0047e+01	9.0023	15.369442	0.000373	3.725891	0.631183	0.000037
 907	9.0147e+01	9.0078	15.409361	0.000401	4.012498	0.679736	0.000040
 908	9.0246e+01	9.0211	15.451318	0.000422	4.217218	0.714416	0.000042
 909	9.0346e+01	9.0296	15.494089	0.000430	4.299105	0.728288	0.000043
 910	9.0445e+01	9.0420	15.536860	0.000430	4.299105	0.728288	0.000043
 911	9.0545e+01	9.0491	15.575964	0.000393	3.930611	0.665863	0.000039
 912	9.0644e+01	9.0588	15.624438	0.000487	4.872320	0.825393	0.000049
 913	9.0744e+01	9.0707	15.664358	0.000401	4.012498	0.679736	0.000040
 914	9.0844e+01	9.0796	15.709980	0.000459	4.585712	0.776841	0.000046
 915	9.0943e+01	9.0885	15.751122	0.000414	4.135330	0.700544	0.000041
 916	9.1043e+01	9.0991	15.795115	0.000442	4.421937	0.749096	0.000044
 917	9.1142e+01	9.1116	15.839108	0.000442	4.421937	0.749096	0.000044
 918	9.1242e+01	9.1220	15.883508	0.000446	4.462881	0.756032	0.000045
 919	9.1341e+01	9.1309	15.925057	0.000418	4.176274	0.707480	0.000042
 920	9.1441e+01	9.1431	15.969865	0.000450	4.503825	0.762969	0.000045
 921	9.1540e+01	9.1487	16.014672	0.000450	4.503825	0.762969	0.000045
 922	9.1639e+01	9.1602	16.053777	0.000393	3.930611	0.665863	0.000039
 923	9.1739e+01	9.1724	16.099400	0.000459	4.585712	0.776841	0.000046
 924	9.1838e+01	9.1776	16.146651	0.000475	4.749488	0.804585	0.000047
 925	9.1938e+01	9.1895	16.187793	0.000414	4.135330	0.700544	0.000041
 926	9.2037e+01	9.1987	16.235045	0.000475	4.749488	0.804585	0.000047
 927	9.2137e+01	9.2094	16.272520	0.000377	3.766835	0.638119	0.000038
 928	9.2237e+01	9.2194	16.320179	0.000479	4.790432	0.811521	0.000048
 929	9.2336e+01	9.2294	16.365802	0.000459	4.585712	0.776841	0.000046
 930	9.2436e+01	9.2352	16.407758	0.000422	4.217218	0.714416	0.000042
 931	9.2535e+01	9.2474	16.450122	0.000426	4.258162	0.721352	0.000043
 932	9.2635e+01	9.2579	16.496966	0.000471	4.708544	0.797649	0.000047
 933	9.2734e+01	9.2749	16.537700	0.000409	4.094386	0.693608	0.000041
 934	9.2834e+01	9.2798	16.581693	0.000442	4.421937	0.749096	0.000044
 935	9.2933e+01	9.2902	16.623242	0.000418	4.176274	0.707480	0.000042
 936	9.3032e+01	9.2982	16.668865	0.000459	4.585712	0.776841	0.000046
 937	9.3132e+01	9.3082	16.711636	0.000430	4.299105	0.728288	0.000043
 938	9.3231e+01	9.3179	16.752777	0.000414	4.135330	0.700544	0.000041
 939	9.3331e+01	9.3311	16.795141	0.000426	4.258162	0.721352	0.000043
 940	9.3430e+01	9.3377	16.838726	0.000438	4.380993	0.742160	0.000044
 941	9.3530e+01	9.3481	16.880683	0.000422	4.217218	0.714416	0.000042
 942	9.3629e+01	9.3580	16.924676	0.000442	4.421937	0.749096	0.000044
 943	9.3729e+01	9.3677	16.969076	0.000446	4.462881	0.756032	0.000045
 944	9.3829e+01	9.3799	17.009403	0.000405	4.053442	0.686672	0.000041
 945	9.3928e+01	9.3877	17.052174	0.000430	4.299105	0.728288	0.000043
 946	9.4028e+01	9.3967	17.100240	0.000483	4.831376	0.818457	0.000048
 947	9.4127e+01	9.4093	17.145048	0.000450	4.503825	0.762969	0.000045
 948	9.4227e+01	9.4183	17.186597	0.000418	4.176274	0.707480	0.000042
 949	9.4326e+01	9.4289	17.231405	0.000450	4.503825	0.762969	0.000045
 950	9.4425e+01	9.4379	17.274583	0.000434	4.340049	0.735224	0.000043
 951	9.4525e+01	9.4463	17.319391	0.000450	4.503825	0.762969	0.000045
 952	9.4624e+01	9.4572	17.362569	0.000434	4.340049	0.735224	0.000043
 953	9.4724e+01	9.4672	17.403303	0.000409	4.094386	0.693608	0.000041
 954	9.4823e+01	9.4765	17.448111	0.000450	4.503825	0.762969	0.000045
 955	9.4923e+01	9.4862	17.490882	0.000430	4.299105	0.728288	0.000043
 956	9.5022e+01	9.4976	17.533245	0.000426	4.258162	0.721352	0.000043
 957	9.5122e+01	9.5080	17.577238	0.000442	4.421937	0.749096	0.000044
 958	9.5222e+01	9.5142	17.618380	0.000414	4.135330	0.700544	0.000041
 959	9.5321e+01	9.5258	17.659929	0.000418	4.176274	0.707480	0.000042
 960	9.5421e+01	9.5373	17.701071	0.000414	4.135330	0.700544	0.000041
 961	9.5520e+01	9.5472	17.748730	0.000479	4.790432	0.811521	0.000048
 962	9.5620e+01	9.5606	17.795574	0.000471	4.708544	0.797649	0.000047
 963	9.5719e+01	9.5686	17.836308	0.000409	4.094386	0.693608	0.000041
 964	9.5819e+01	9.5779	17.882745	0.000467	4.667600	0.790713	0.000047
 965	9.5918e+01	9.5864	17.924294	0.000418	4.176274	0.707480	0.000042
 966	9.6017e+01	9.5959	17.968695	0.000446	4.462881	0.756032	0.000045
 967	9.6117e+01	9.6053	18.007800	0.000393	3.930611	0.665863	0.000039
 968	9.6216e+01	9.6175	18.053015	0.000454	4.544769	0.769905	0.000045
 969	9.6316e+01	9.6282	18.093749	0.000409	4.094386	0.693608	0.000041
 970	9.6415e+01	9.6369	18.142223	0.000487	4.872320	0.825393	0.000049
 971	9.6515e+01	9.6445	18.184179	0.000422	4.217218	0.714416	0.000042
 972	9.6615e+01	9.6574	18.228579	0.000446	4.462881	0.756032	0.000045
 973	9.6714e+01	9.6661	18.272572	0.000442	4.421937	0.749096	0.000044
 974	9.6814e+01	9.6770	18.322675	0.000504	5.036095	0.853138	0.000050
 975	9.6913e+01	9.6880	18.369927	0.000475	4.749488	0.804585	0.000047
 976	9.7013e+01	9.6973	18.415957	0.000463	4.626656	0.783777	0.000046
 977	9.7112e+01	9.7046	18.466875	0.000512	5.117983	0.867010	0.000051
 978	9.7212e+01	9.7172	18.511275	0.000446	4.462881	0.756032	0.000045
 979	9.7311e+01	9.7245	18.559341	0.000483	4.831376	0.818457	0.000048
 980	9.7410e+01	9.7376	18.604964	0.000459	4.585712	0.776841	0.000046
 981	9.7510e+01	9.7451	18.655474	0.000508	5.077039	0.860074	0.000051
 982	9.7609e+01	9.7572	18.702726	0.000475	4.749488	0.804585	0.000047
 983	9.7709e+01	9.7689	18.749978	0.000475	4.749488	0.804585	0.000047
 984	9.7808e+01	9.7748	18.795193	0.000454	4.544769	0.769905	0.000045
 985	9.7908e+01	9.7877	18.843259	0.000483	4.831376	0.818457	0.000048
 986	9.8007e+01	9.7910	18.894992	0.000520	5.199870	0.880882	0.000052
 987	9.8107e+01	9.8077	18.941836	0.000471	4.708544	0.797649	0.000047
 988	9.8207e+01	9.8161	18.995605	0.000540	5.404590	0.915562	0.000054
 989	9.8306e+01	9.8264	19.044486	0.000491	4.913263	0.832329	0.000049
 990	9.8406e+01	9.8389	19.094589	0.000504	5.036095	0.853138	0.000050
 991	9.8505e+01	9.8438	19.143063	0.000487	4.872320	0.825393	0.000049
 992	9.8605e+01	9.8556	19.194796	0.000520	5.199870	0.880882	0.000052
 993	9.8704e+01	9.8624	19.240825	0.000463	4.626656	0.783777	0.000046
 994	9.8803e+01	9.8745	19.290521	0.000500	4.995151	0.846202	0.000050
 995	9.8903e+01	9.8850	19.343476	0.000532	5.322702	0.901690	0.000053
 996	9.9002e+01	9.8966	19.391135	0.000479	4.790432	0.811521	0.000048
 997	9.9102e+01	9.9056	19.435943	0.000450	4.503825	0.762969	0.000045
 998	9.9201e+01	9.9181	19.488082	0.000524	5.240814	0.887818	0.000052
 999	9.9301e+01	9.9277	19.535334	0.000475	4.749488	0.804585	0.000047
1000	9.9400e+01	9.9361	19.588696	0.000536	5.363646	0.908626	0.000054
1001	9.9500e+01	9.9451	19.637170	0.000487	4.872320	0.825393	0.000049
1002	9.9600e+01	9.9542	19.684829	0.000479	4.790432	0.811521	0.000048
1003	9.9699e+01	9.9635	19.735339	0.000508	5.077039	0.860074	0.000051
1004	9.9799e+01	9.9762	19.786664	0.000516	5.158927	0.873946	0.000052
1005	9.9898e+01	9.9854	19.838397	0.000520	5.199870	0.880882	0.000052
1006	9.9998e+01	9.9957	19.885649	0.000475	4.749488	0.804585	0.000047
1007	1.0010e+02	9.9866	19.891351	-0.000057	-0.573214	-0.097105	0.000006
1008	1.0020e+02	9.9744	19.895018	-0.000037	-0.368495	-0.062425	0.000004
1009	1.0030e+02	9.9634	19.888907	0.000061	0.614158	0.104041	-0.000006
1010	1.0040e+02	9.9542	19.892574	-0.000037	-0.368495	-0.062425	0.000004
1011	1.0050e+02	9.9448	19.888500	0.000041	0.409439	0.069361	-0.000004
1012	1.0059e+02	9.9352	19.886056	0.000025	0.245663	0.041616	-0.000002
1013	1.0069e+02	9.9261	19.883612	0.000025	0.245663	0.041616	-0.000002
1014	1.0079e+02	9.9143	19.884834	-0.000012	-0.122832	-0.020808	0.000001
1015	1.0089e+02	9.9030	19.881575	0.000033	0.327551	0.055489	-0.000003
1016	1.0099e+02	9.8949	19.877909	0.000037	0.368495	0.062425	-0.000004
1017	1.0109e+02	9.8849	19.874650	0.000033	0.327551	0.055489	-0.000003
1018	1.0119e+02	9.8748	19.866096	0.000086	0.859821	0.145658	-0.000009
1019	1.0129e+02	9.8647	19.868540	-0.000025	-0.245663	-0.041616	0.000002
1020	1.0139e+02	9.8575	19.859579	0.000090	0.900765	0.152594	-0.000009
1021	1.0149e+02	9.8464	19.860393	-0.000008	-0.081888	-0.013872	0.000001
1022	1.0159e+02	9.8367	19.855505	0.000049	0.491326	0.083233	-0.000005
1023	1.0169e+02	9.8292	19.848581	0.000070	0.696046	0.117913	-0.000007
1024	1.0179e+02	9.8158	19.844914	0.000037	0.368495	0.062425	-0.000004
1025	1.0189e+02	9.8059	19.838804	0.000061	0.614158	0.104041	-0.000006
1026	1.0199e+02	9.7949	19.833916	0.000049	0.491326	0.083233	-0.000005
1027	1.0209e+02	9.7865	19.826584	0.000074	0.736990	0.124849	-0.000007
1028	1.0219e+02	9.7782	19.818030	0.000086	0.859821	0.145658	-0.000009
1029	1.0229e+02	9.7659	19.811512	0.000066	0.655102	0.110977	-0.000007
1030	1.0239e+02	9.7577	19.804995	0.000066	0.655102	0.110977	-0.000007
1031	1.0248e+02	9.7445	19.799292	0.000057	0.573214	0.097105	-0.000006
1032	1.0258e+02	9.7368	19.788294	0.000111	1.105484	0.187274	-0.000011
1033	1.0268e+02	9.7278	19.782591	0.000057	0.573214	0.097105	-0.000006
1034	1.0278e+02	9.7144	19.771593	0.000111	1.105484	0.187274	-0.000011
1035	1.0288e+02	9.7057	19.763853	0.000078	0.777933	0.131785	-0.000008
1036	1.0298e+02	9.6964	19.755299	0.000086	0.859821	0.145658	-0.000009
1037	1.0308e+02	9.6881	19.748782	0.000066	0.655102	0.110977	-0.000007
1038	1.0318e+02	9.6766	19.743486	0.000053	0.532270	0.090169	-0.000005
1039	1.0328e+02	9.6683	19.731266	0.000123	1.228316	0.208082	-0.000012
1040	1.0338e+02	9.6570	19.725156	0.000061	0.614158	0.104041	-0.000006
1041	1.0348e+02	9.6458	19.715379	0.000098	0.982653	0.166466	-0.000010
1042	1.0358e+02	9.6387	19.709269	0.000061	0.614158	0.104041	-0.000006
1043	1.0368e+02	9.6293	19.700308	0.000090	0.900765	0.152594	-0.000009
1044	1.0378e+02	9.6149	19.690124	0.000102	1.023597	0.173402	-0.000010
1045	1.0388e+02	9.6059	19.682792	0.000074	0.736990	0.124849	-0.000007
1046	1.0398e+02	9.5975	19.671386	0.000115	1.146428	0.194210	-0.000011
1047	1.0408e+02	9.5901	19.663240	0.000082	0.818877	0.138722	-0.000008
1048	1.0418e+02	9.5766	19.653463	0.000098	0.982653	0.166466	-0.000010
1049	1.0428e+02	9.5665	19.645724	0.000078	0.777933	0.131785	-0.000008
1050	1.0438e+02	9.5588	19.637984	0.000078	0.777933	0.131785	-0.000008
1051	1.0447e+02	9.5498	19.627394	0.000106	1.064540	0.180338	-0.000011
1052	1.0457e+02	9.5380	19.615581	0.000119	1.187372	0.201146	-0.000012
1053	1.0467e+02	9.5293	19.604582	0.000111	1.105484	0.187274	-0.000011
1054	1.0477e+02	9.5174	19.596435	0.000082	0.818877	0.138722	-0.000008
1055	1.0487e+02	9.5081	19.585845	0.000106	1.064540	0.180338	-0.000011
1056	1.0497e+02	9.4979	19.571180	0.000147	1.473979	0.249699	-0.000015
1057	1.0507e+02	9.4898	19.562219	0.000090	0.900765	0.152594	-0.000009
1058	1.0517e+02	9.4776	19.545925	0.000164	1.637754	0.277443	-0.000016
1059	1.0527e+02	9.4678	19.532075	0.000139	1.392091	0.235827	-0.000014
1060	1.0537e+02	9.4572	19.523521	0.000086	0.859821	0.145658	-0.000009
1061	1.0547e+02	9.4497	19.507227	0.000164	1.637754	0.277443	-0.000016
1062	1.0557e+02	9.4373	19.495007	0.000123	1.228316	0.208082	-0.000012
1063	1.0567e+02	9.4291	19.479935	0.000151	1.514923	0.256635	-0.000015
1064	1.0577e+02	9.4165	19.466086	0.000139	1.392091	0.235827	-0.000014
1065	1.0587e+02	9.4098	19.450199	0.000160	1.596811	0.270507	-0.000016
1066	1.0597e+02	9.3970	19.433498	0.000168	1.678698	0.284379	-0.000017
1067	1.0607e+02	9.3890	19.417205	0.000164	1.637754	0.277443	-0.000016
1068	1.0617e+02	9.3757	19.402948	0.000143	1.433035	0.242763	-0.000014
1069	1.0627e+02	9.3678	19.387469	0.000156	1.555867	0.263571	-0.000016
1070	1.0637e+02	9.3613	19.370768	0.000168	1.678698	0.284379	-0.000017
1071	1.0647e+02	9.3482	19.358547	0.000123	1.228316	0.208082	-0.000012
1072	1.0656e+02	9.3392	19.343883	0.000147	1.473979	0.249699	-0.000015
1073	1.0666e+02	9.3281	19.324331	0.000197	1.965305	0.332932	-0.000020
1074	1.0676e+02	9.3171	19.308852	0.000156	1.555867	0.263571	-0.000016
1075	1.0686e+02	9.3085	19.295002	0.000139	1.392091	0.235827	-0.000014
1076	1.0696e+02	9.2997	19.275042	0.000201	2.006249	0.339868	-0.000020
1077	1.0706e+02	9.2861	19.259156	0.000160	1.596811	0.270507	-0.000016
1078	1.0716e+02	9.2773	19.242862	0.000164	1.637754	0.277443	-0.000016
1079	1.0726e+02	9.2689	19.225754	0.000172	1.719642	0.291315	-0.000017
1080	1.0736e+02	9.2599	19.210275	0.000156	1.555867	0.263571	-0.000016
1081	1.0746e+02	9.2503	19.193981	0.000164	1.637754	0.277443	-0.000016
1082	1.0756e+02	9.2383	19.182575	0.000115	1.146428	0.194210	-0.000011
1083	1.0766e+02	9.2300	19.165874	0.000168	1.678698	0.284379	-0.000017
1084	1.0776e+02	9.2178	19.149581	0.000164	1.637754	0.277443	-0.000016
1085	1.0786e+02	9.2086	19.135324	0.000143	1.433035	0.242763	-0.000014
1086	1.0796e+02	9.2004	19.114142	0.000213	2.129081	0.360676	-0.000021
1087	1.0806e+02	9.1895	19.096626	0.000176	1.760586	0.298251	-0.000018
1088	1.0816e+02	9.1779	19.079925	0.000168	1.678698	0.284379	-0.000017
1089	1.0826e+02	9.1699	19.065668	0.000143	1.433035	0.242763	-0.000014
1090	1.0836e+02	9.1592	19.046116	0.000197	1.965305	0.332932	-0.000020
1091	1.0845e+02	9.1496	19.028600	0.000176	1.760586	0.298251	-0.000018
1092	1.0855e+02	9.1406	19.015565	0.000131	1.310204	0.221954	-0.000013
1093	1.0865e+02	9.1291	18.995198	0.000205	2.047193	0.346804	-0.000020
1094	1.0875e+02	9.1162	18.978089	0.000172	1.719642	0.291315	-0.000017
1095	1.0885e+02	9.1090	18.960574	0.000176	1.760586	0.298251	-0.000018
1096	1.0895e+02	9.1006	18.942651	0.000180	1.801530	0.305187	-0.000018
1097	1.0905e+02	9.0899	18.923506	0.000192	1.924361	0.325996	-0.000019
1098	1.0915e+02	9.0821	18.906805	0.000168	1.678698	0.284379	-0.000017
1099	1.0925e+02	9.0726	18.887252	0.000197	1.965305	0.332932	-0.000020
1100	1.0935e+02	9.0626	18.865256	0.000221	2.210969	0.374548	-0.000022
1101	1.0945e+02	9.0489	18.844888	0.000205	2.047193	0.346804	-0.000020
1102	1.0955e+02	9.0412	18.828595	0.000164	1.637754	0.277443	-0.000016
1103	1.0965e+02	9.0289	18.807820	0.000209	2.088137	0.353740	-0.000021
1104	1.0975e+02	9.0201	18.787046	0.000209	2.088137	0.353740	-0.000021
1105	1.0985e+02	9.0151	18.764642	0.000225	2.251912	0.381484	-0.000023
1106	1.0995e+02	8.9995	18.741016	0.000237	2.374744	0.402293	-0.000024
1107	1.1005e+02	8.9896	18.723908	0.000172	1.719642	0.291315	-0.000017
1108	1.1015e+02	8.9810	18.699467	0.000246	2.456632	0.416165	-0.000025
1109	1.1025e+02	8.9706	18.679100	0.000205	2.047193	0.346804	-0.000020
1110	1.1035e+02	8.9600	18.659548	0.000197	1.965305	0.332932	-0.000020
1111	1.1044e+02	8.9507	18.636736	0.000229	2.292856	0.388420	-0.000023
1112	1.1054e+02	8.9419	18.615555	0.000213	2.129081	0.360676	-0.000021
1113	1.1064e+02	8.9323	18.592743	0.000229	2.292856	0.388420	-0.000023
1114	1.1074e+02	8.9182	18.570747	0.000221	2.210969	0.374548	-0.000022
1115	1.1084e+02	8.9099	18.546306	0.000246	2.456632	0.416165	-0.000025
1116	1.1094e+02	8.9004	18.526347	0.000201	2.006249	0.339868	-0.000020
1117	1.1104e+02	8.8929	18.502721	0.000237	2.374744	0.402293	-0.000024
1118	1.1114e+02	8.8821	18.486020	0.000168	1.678698	0.284379	-0.000017
1119	1.1124e+02	8.8699	18.459135	0.000270	2.702295	0.457781	-0.000027
1120	1.1134e+02	8.8625	18.438768	0.000205	2.047193	0.346804	-0.000020
1121	1.1144e+02	8.8540	18.413105	0.000258	2.579463	0.436973	-0.000026
1122	1.1154e+02	8.8375	18.384999	0.000283	2.825126	0.478589	-0.000028
1123	1.1164e+02	8.8320	18.360558	0.000246	2.456632	0.416165	-0.000025
1124	1.1174e+02	8.8208	18.337747	0.000229	2.292856	0.388420	-0.000023
1125	1.1184e+02	8.8117	18.314528	0.000233	2.333800	0.395356	-0.000023
1126	1.1194e+02	8.8026	18.290903	0.000237	2.374744	0.402293	-0.000024
1127	1.1204e+02	8.7919	18.264018	0.000270	2.702295	0.457781	-0.000027
1128	1.1214e+02	8.7818	18.239170	0.000250	2.497576	0.423101	-0.000025
1129	1.1224e+02	8.7725	18.211471	0.000278	2.784183	0.471653	-0.000028
1130	1.1234e+02	8.7630	18.188660	0.000229	2.292856	0.388420	-0.000023
1131	1.1244e+02	8.7525	18.165034	0.000237	2.374744	0.402293	-0.000024
1132	1.1253e+02	8.7427	18.139779	0.000254	2.538519	0.430037	-0.000025
1133	1.1263e+02	8.7327	18.112487	0.000274	2.743239	0.464717	-0.000027
1134	1.1273e+02	8.7232	18.084787	0.000278	2.784183	0.471653	-0.000028
1135	1.1283e+02	8.7096	18.057088	0.000278	2.784183	0.471653	-0.000028
1136	1.1293e+02	8.7021	18.031018	0.000262	2.620407	0.443909	-0.000026
1137	1.1303e+02	8.6933	18.003726	0.000274	2.743239	0.464717	-0.000027
1138	1.1313e+02	8.6800	17.981322	0.000225	2.251912	0.381484	-0.000023
1139	1.1323e+02	8.6719	17.954845	0.000266	2.661351	0.450845	-0.000027
1140	1.1333e+02	8.6638	17.930812	0.000242	2.415688	0.409229	-0.000024
1141	1.1343e+02	8.6535	17.903927	0.000270	2.702295	0.457781	-0.000027
1142	1.1353e+02	8.6411	17.880709	0.000233	2.333800	0.395356	-0.000023
1143	1.1363e+02	8.6348	17.858712	0.000221	2.210969	0.374548	-0.000022
1144	1.1373e+02	8.6200	17.831013	0.000278	2.784183	0.471653	-0.000028
1145	1.1383e+02	8.6147	17.807387	0.000237	2.374744	0.402293	-0.000024
1146	1.1393e+02	8.6035	17.784576	0.000229	2.292856	0.388420	-0.000023
1147	1.1403e+02	8.5926	17.759321	0.000254	2.538519	0.430037	-0.000025
1148	1.1413e+02	8.5806	17.735287	0.000242	2.415688	0.409229	-0.000024
1149	1.1423e+02	8.5764	17.712884	0.000225	2.251912	0.381484	-0.000023
1150	1.1433e+02	8.5641	17.687221	0.000258	2.579463	0.436973	-0.000026
1151	1.1442e+02	8.5548	17.660744	0.000266	2.661351	0.450845	-0.000027
1152	1.1452e+02	8.5429	17.640377	0.000205	2.047193	0.346804	-0.000020
1153	1.1462e+02	8.5339	17.611863	0.000287	2.866070	0.485525	-0.000029
1154	1.1472e+02	8.5230	17.589459	0.000225	2.251912	0.381484	-0.000023
1155	1.1482e+02	8.5133	17.563389	0.000262	2.620407	0.443909	-0.000026
1156	1.1492e+02	8.5016	17.541800	0.000217	2.170025	0.367612	-0.000022
1157	1.1502e+02	8.4905	17.518174	0.000237	2.374744	0.402293	-0.000024
1158	1.1512e+02	8.4836	17.492511	0.000258	2.579463	0.436973	-0.000026
1159	1.1522e+02	8.4712	17.467663	0.000250	2.497576	0.423101	-0.000025
1160	1.1532e+02	8.4621	17.439557	0.000283	2.825126	0.478589	-0.000028
1161	1.1542e+02	8.4540	17.419597	0.000201	2.006249	0.339868	-0.000020
1162	1.1552e+02	8.4415	17.393934	0.000258	2.579463	0.436973	-0.000026
1163	1.1562e+02	8.4344	17.365013	0.000291	2.907014	0.492462	-0.000029
1164	1.1572e+02	8.4241	17.342202	0.000229	2.292856	0.388420	-0.000023
1165	1.1582e+02	8.4170	17.316539	0.000258	2.579463	0.436973	-0.000026
1166	1.1592e+02	8.4045	17.290877	0.000258	2.579463	0.436973	-0.000026
1167	1.1602e+02	8.3936	17.261955	0.000291	2.907014	0.492462	-0.000029
1168	1.1612e+02	8.3811	17.233441	0.000287	2.866070	0.485525	-0.000029
1169	1.1622e+02	8.3746	17.205335	0.000283	2.825126	0.478589	-0.000028
1170	1.1632e+02	8.3652	17.178043	0.000274	2.743239	0.464717	-0.000027
1171	1.1642e+02	8.3527	17.152788	0.000254	2.538519	0.430037	-0.000025
1172	1.1651e+02	8.3427	17.128347	0.000246	2.456632	0.416165	-0.000025
1173	1.1661e+02	8.3321	17.103499	0.000250	2.497576	0.423101	-0.000025
1174	1.1671e+02	8.3262	17.074985	0.000287	2.866070	0.485525	-0.000029
1175	1.1681e+02	8.3149	17.050952	0.000242	2.415688	0.409229	-0.000024
1176	1.1691e+02	8.3020	17.023660	0.000274	2.743239	0.464717	-0.000027
1177	1.1701e+02	8.2955	16.998812	0.000250	2.497576	0.423101	-0.000025
1178	1.1711e+02	8.2838	16.971520	0.000274	2.743239	0.464717	-0.000027
1179	1.1721e+02	8.2764	16.943006	0.000287	2.866070	0.485525	-0.000029
1180	1.1731e+02	8.2629	16.915714	0.000274	2.743239	0.464717	-0.000027
1181	1.1741e+02	8.2541	16.889237	0.000266	2.661351	0.450845	-0.000027
1182	1.1751e+02	8.2426	16.866018	0.000233	2.333800	0.395356	-0.000023
1183	1.1761e+02	8.2324	16.842392	0.000237	2.374744	0.402293	-0.000024
1184	1.1771e+02	8.2244	16.815508	0.000270	2.702295	0.457781	-0.000027
1185	1.1781e+02	8.2124	16.793104	0.000225	2.251912	0.381484	-0.000023
1186	1.1791e+02	8.2041	16.767441	0.000258	2.579463	0.436973	-0.000026
1187	1.1801e+02	8.1948	16.740964	0.000266	2.661351	0.450845	-0.000027
1188	1.1811e+02	8.1876	16.717746	0.000233	2.333800	0.395356	-0.000023
1189	1.1821e+02	8.1748	16.691268	0.000266	2.661351	0.450845	-0.000027
1190	1.1831e+02	8.1667	16.669272	0.000221	2.210969	0.374548	-0.000022
1191	1.1841e+02	8.1561	16.641980	0.000274	2.743239	0.464717	-0.000027
1192	1.1850e+02	8.1446	16.621205	0.000209	2.088137	0.353740	-0.000021
1193	1.1860e+02	8.1365	16.596765	0.000246	2.456632	0.416165	-0.000025
1194	1.1870e+02	8.1238	16.568658	0.000283	2.825126	0.478589	-0.000028
1195	1.1880e+02	8.1182	16.545032	0.000237	2.374744	0.402293	-0.000024
1196	1.1890e+02	8.1045	16.519370	0.000258	2.579463	0.436973	-0.000026
1197	1.1900e+02	8.0938	16.495744	0.000237	2.374744	0.402293	-0.000024
1198	1.1910e+02	8.0818	16.471711	0.000242	2.415688	0.409229	-0.000024
1199	1.1920e+02	8.0756	16.447678	0.000242	2.415688	0.409229	-0.000024
1200	1.1930e+02	8.0682	16.421200	0.000266	2.661351	0.450845	-0.000027
1201	1.1940e+02	8.0548	16.397574	0.000237	2.374744	0.402293	-0.000024
1202	1.1950e+02	8.0441	16.371097	0.000266	2.661351	0.450845	-0.000027
1203	1.1960e+02	8.0340	16.346249	0.000250	2.497576	0.423101	-0.000025
1204	1.1970e+02	8.0284	16.323438	0.000229	2.292856	0.388420	-0.000023
1205	1.1980e+02	8.0151	16.301442	0.000221	2.210969	0.374548	-0.000022
1206	1.1990e+02	8.0054	16.282296	0.000192	1.924361	0.325996	-0.000019
1207	1.2000e+02	7.9956	16.256227	0.000262	2.620407	0.443909	-0.000026
1208	1.2010e+02	7.9837	16.233008	0.000233	2.333800	0.395356	-0.000023
1209	1.2020e+02	7.9753	16.211826	0.000213	2.129081	0.360676	-0.000021
1210	1.2030e+02	7.9656	16.188608	0.000233	2.333800	0.395356	-0.000023
1211	1.2039e+02	7.9552	16.165389	0.000233	2.333800	0.395356	-0.000023
1212	1.2049e+02	7.9464	16.140541	0.000250	2.497576	0.423101	-0.000025
1213	1.2059e+02	7.9356	16.118137	0.000225	2.251912	0.381484	-0.000023
1214	1.2069e+02	7.9259	16.092067	0.000262	2.620407	0.443909	-0.000026
1215	1.2079e+02	7.9156	16.072515	0.000197	1.965305	0.332932	-0.000020
1216	1.2089e+02	7.9095	16.049297	0.000233	2.333800	0.395356	-0.000023
1217	1.2099e+02	7.8983	16.029337	0.000201	2.006249	0.339868	-0.000020
1218	1.2109e+02	7.8850	16.004489	0.000250	2.497576	0.423101	-0.000025
1219	1.2119e+02	7.8793	15.984529	0.000201	2.006249	0.339868	-0.000020
1220	1.2129e+02	7.8648	15.965791	0.000188	1.883418	0.319060	-0.000019
1221	1.2139e+02	7.8580	15.942165	0.000237	2.374744	0.402293	-0.000024
1222	1.2149e+02	7.8452	15.916096	0.000262	2.620407	0.443909	-0.000026
1223	1.2159e+02	7.8432	15.890433	0.000258	2.579463	0.436973	-0.000026
1224	1.2169e+02	7.8258	15.869251	0.000213	2.129081	0.360676	-0.000021
1225	1.2179e+02	7.8149	15.843589	0.000258	2.579463	0.436973	-0.000026
1226	1.2189e+02	7.8080	15.815889	0.000278	2.784183	0.471653	-0.000028
1227	1.2199e+02	7.7962	15.790227	0.000258	2.579463	0.436973	-0.000026
1228	1.2209e+02	7.7888	15.765786	0.000246	2.456632	0.416165	-0.000025
1229	1.2219e+02	7.7776	15.742160	0.000237	2.374744	0.402293	-0.000024
1230	1.2229e+02	7.7670	15.716090	0.000262	2.620407	0.443909	-0.000026
1231	1.2239e+02	7.7566	15.689613	0.000266	2.661351	0.450845	-0.000027
1232	1.2248e+02	7.7468	15.664765	0.000250	2.497576	0.423101	-0.000025
1233	1.2258e+02	7.7395	15.643176	0.000217	2.170025	0.367612	-0.000022
1234	1.2268e+02	7.7261	15.613033	0.000303	3.029846	0.513270	-0.000030
1235	1.2278e+02	7.7170	15.589407	0.000237	2.374744	0.402293	-0.000024
1236	1.2288e+02	7.7051	15.560893	0.000287	2.866070	0.485525	-0.000029
1237	1.2298e+02	7.6965	15.536452	0.000246	2.456632	0.416165	-0.000025
1238	1.2308e+02	7.6852	15.509975	0.000266	2.661351	0.450845	-0.000027
1239	1.2318e+02	7.6771	15.483090	0.000270	2.702295	0.457781	-0.000027
1240	1.2328e+02	7.6669	15.457020	0.000262	2.620407	0.443909	-0.000026
1241	1.2338e+02	7.6582	15.429729	0.000274	2.743239	0.464717	-0.000027
1242	1.2348e+02	7.6458	15.405695	0.000242	2.415688	0.409229	-0.000024
1243	1.2358e+02	7.6379	15.377181	0.000287	2.866070	0.485525	-0.000029
1244	1.2368e+02	7.6273	15.353148	0.000242	2.415688	0.409229	-0.000024
1245	1.2378e+02	7.6176	15.329115	0.000242	2.415688	0.409229	-0.000024
1246	1.2388e+02	7.6080	15.301008	0.000283	2.825126	0.478589	-0.000028
1247	1.2398e+02	7.5957	15.279419	0.000217	2.170025	0.367612	-0.000022
1248	1.2408e+02	7.5874	15.253349	0.000262	2.620407	0.443909	-0.000026
1249	1.2418e+02	7.5787	15.226465	0.000270	2.702295	0.457781	-0.000027
1250	1.2428e+02	7.5684	15.205690	0.000209	2.088137	0.353740	-0.000021
1251	1.2438e+02	7.5603	15.178805	0.000270	2.702295	0.457781	-0.000027
1252	1.2447e+02	7.5468	15.154772	0.000242	2.415688	0.409229	-0.000024
1253	1.2457e+02	7.5372	15.129110	0.000258	2.579463	0.436973	-0.000026
1254	1.2467e+02	7.5286	15.104262	0.000250	2.497576	0.423101	-0.000025
1255	1.2477e+02	7.5174	15.081043	0.000233	2.333800	0.395356	-0.000023
1256	1.2487e+02	7.5083	15.053751	0.000274	2.743239	0.464717	-0.000027
1257	1.2497e+02	7.4987	15.025237	0.000287	2.866070	0.485525	-0.000029
1258	1.2507e+02	7.4877	15.000389	0.000250	2.497576	0.423101	-0.000025
1259	1.2517e+02	7.4773	14.971061	0.000295	2.947958	0.499398	-0.000029
1260	1.2527e+02	7.4686	14.949879	0.000213	2.129081	0.360676	-0.000021
1261	1.2537e+02	7.4636	14.925438	0.000246	2.456632	0.416165	-0.000025
1262	1.2547e+02	7.4480	14.897332	0.000283	2.825126	0.478589	-0.000028
1263	1.2557e+02	7.4400	14.873299	0.000242	2.415688	0.409229	-0.000024
1264	1.2567e+02	7.4277	14.846007	0.000274	2.743239	0.464717	-0.000027
1265	1.2577e+02	7.4186	14.817900	0.000283	2.825126	0.478589	-0.000028
1266	1.2587e+02	7.4085	14.794274	0.000237	2.374744	0.402293	-0.000024
1267	1.2597e+02	7.3999	14.767797	0.000266	2.661351	0.450845	-0.000027
1268	1.2607e+02	7.3902	14.740505	0.000274	2.743239	0.464717	-0.000027
1269	1.2617e+02	7.3793	14.709547	0.000311	3.111733	0.527142	-0.000031
1270	1.2627e+02	7.3699	14.682662	0.000270	2.702295	0.457781	-0.000027
1271	1.2636e+02	7.3597	14.656185	0.000266	2.661351	0.450845	-0.000027
1272	1.2646e+02	7.3479	14.626856	0.000295	2.947958	0.499398	-0.000029
1273	1.2656e+02	7.3400	14.593862	0.000332	3.316453	0.561822	-0.000033
1274	1.2666e+02	7.3293	14.571050	0.000229	2.292856	0.388420	-0.000023
1275	1.2676e+02	7.3242	14.541722	0.000295	2.947958	0.499398	-0.000029
1276	1.2686e+02	7.3130	14.511986	0.000299	2.988902	0.506334	-0.000030
1277	1.2696e+02	7.2991	14.479806	0.000323	3.234565	0.547950	-0.000032
1278	1.2706e+02	7.2903	14.456180	0.000237	2.374744	0.402293	-0.000024
1279	1.2716e+02	7.2791	14.424407	0.000319	3.193621	0.541014	-0.000032
1280	1.2726e+02	7.2682	14.395486	0.000291	2.907014	0.492462	-0.000029
1281	1.2736e+02	7.2587	14.370638	0.000250	2.497576	0.423101	-0.000025
1282	1.2746e+02	7.2488	14.339272	0.000315	3.152677	0.534078	-0.000032
1283	1.2756e+02	7.2419	14.305870	0.000336	3.357397	0.568758	-0.000034
1284	1.2766e+02	7.2287	14.281837	0.000242	2.415688	0.409229	-0.000024
1285	1.2776e+02	7.2184	14.251694	0.000303	3.029846	0.513270	-0.000030
1286	1.2786e+02	7.2112	14.223180	0.000287	2.866070	0.485525	-0.000029
1287	1.2796e+02	7.2026	14.190592	0.000328	3.275509	0.554886	-0.000033
1288	1.2806e+02	7.1909	14.160042	0.000307	3.070790	0.520206	-0.000031
1289	1.2816e+02	7.1799	14.131120	0.000291	2.907014	0.492462	-0.000029
1290	1.2826e+02	7.1695	14.097311	0.000340	3.398341	0.575694	-0.000034
1291	1.2835e+02	7.1609	14.065946	0.000315	3.152677	0.534078	-0.000032
1292	1.2845e+02	7.1500	14.035802	0.000303	3.029846	0.513270	-0.000030
1293	1.2855e+02	7.1431	14.007696	0.000283	2.825126	0.478589	-0.000028
1294	1.2865e+02	7.1301	13.974701	0.000332	3.316453	0.561822	-0.000033
1295	1.2875e+02	7.1226	13.943336	0.000315	3.152677	0.534078	-0.000032
1296	1.2885e+02	7.1086	13.911155	0.000323	3.234565	0.547950	-0.000032
1297	1.2895e+02	7.1003	13.879790	0.000315	3.152677	0.534078	-0.000032
1298	1.2905e+02	7.0899	13.850869	0.000291	2.907014	0.492462	-0.000029
1299	1.2915e+02	7.0829	13.815837	0.000352	3.521172	0.596503	-0.000035
1300	1.2925e+02	7.0695	13.788138	0.000278	2.784183	0.471653	-0.000028
1301	1.2935e+02	7.0614	13.753921	0.000344	3.439284	0.582631	-0.000034
1302	1.2945e+02	7.0528	13.720112	0.000340	3.398341	0.575694	-0.000034
1303	1.2955e+02	7.0419	13.690783	0.000295	2.947958	0.499398	-0.000029
1304	1.2965e+02	7.0339	13.652900	0.000381	3.807779	0.645055	-0.000038
1305	1.2975e+02	7.0221	13.621942	0.000311	3.111733	0.527142	-0.000031
1306	1.2985e+02	7.0119	13.592614	0.000295	2.947958	0.499398	-0.000029
1307	1.2995e+02	6.9998	13.558804	0.000340	3.398341	0.575694	-0.000034
1308	1.3005e+02	6.9899	13.528253	0.000307	3.070790	0.520206	-0.000031
1309	1.3015e+02	6.9830	13.500962	0.000274	2.743239	0.464717	-0.000027
1310	1.3025e+02	6.9736	13.465115	0.000360	3.603060	0.610375	-0.000036
1311	1.3034e+02	6.9585	13.442712	0.000225	2.251912	0.381484	-0.000023
1312	1.3044e+02	6.9518	13.409717	0.000332	3.316453	0.561822	-0.000033
1313	1.3054e+02	6.9421	13.379981	0.000299	2.988902	0.506334	-0.000030
1314	1.3064e+02	6.9317	13.350652	0.000295	2.947958	0.499398	-0.000029
1315	1.3074e+02	6.9225	13.322545	0.000283	2.825126	0.478589	-0.000028
1316	1.3084e+02	6.9143	13.288329	0.000344	3.439284	0.582631	-0.000034
1317	1.3094e+02	6.9033	13.260629	0.000278	2.784183	0.471653	-0.000028
1318	1.3104e+02	6.8932	13.231301	0.000295	2.947958	0.499398	-0.000029
1319	1.3114e+02	6.8832	13.204823	0.000266	2.661351	0.450845	-0.000027
1320	1.3124e+02	6.8731	13.168570	0.000364	3.644004	0.617311	-0.000036
1321	1.3134e+02	6.8605	13.138427	0.000303	3.029846	0.513270	-0.000030
1322	1.3144e+02	6.8537	13.108691	0.000299	2.988902	0.506334	-0.000030
1323	1.3154e+02	6.8430	13.080584	0.000283	2.825126	0.478589	-0.000028
1324	1.3164e+02	6.8311	13.052477	0.000283	2.825126	0.478589	-0.000028
1325	1.3174e+02	6.8219	13.021112	0.000315	3.152677	0.534078	-0.000032
1326	1.3184e+02	6.8127	12.995857	0.000254	2.538519	0.430037	-0.000025
1327	1.3194e+02	6.8018	12.961233	0.000348	3.480228	0.589567	-0.000035
1328	1.3204e+02	6.7912	12.931497	0.000299	2.988902	0.506334	-0.000030
1329	1.3214e+02	6.7825	12.903390	0.000283	2.825126	0.478589	-0.000028
1330	1.3224e+02	6.7716	12.867137	0.000364	3.644004	0.617311	-0.000036
1331	1.3234e+02	6.7620	12.840252	0.000270	2.702295	0.457781	-0.000027
1332	1.3243e+02	6.7520	12.810923	0.000295	2.947958	0.499398	-0.000029
1333	1.3253e+02	6.7435	12.775077	0.000360	3.603060	0.610375	-0.000036
1334	1.3263e+02	6.7321	12.745748	0.000295	2.947958	0.499398	-0.000029
1335	1.3273e+02	6.7211	12.711124	0.000348	3.480228	0.589567	-0.000035
1336	1.3283e+02	6.7129	12.679352	0.000319	3.193621	0.541014	-0.000032
1337	1.3293e+02	6.7042	12.650838	0.000287	2.866070	0.485525	-0.000029
1338	1.3303e+02	6.6943	12.615806	0.000352	3.521172	0.596503	-0.000035
1339	1.3313e+02	6.6848	12.582811	0.000332	3.316453	0.561822	-0.000033
1340	1.3323e+02	6.6729	12.556741	0.000262	2.620407	0.443909	-0.000026
1341	1.3333e+02	6.6623	12.521303	0.000356	3.562116	0.603439	-0.000036
1342	1.3343e+02	6.6540	12.491567	0.000299	2.988902	0.506334	-0.000030
1343	1.3353e+02	6.6438	12.462238	0.000295	2.947958	0.499398	-0.000029
1344	1.3363e+02	6.6300	12.425577	0.000368	3.684948	0.624247	-0.000037
1345	1.3373e+02	6.6213	12.401137	0.000246	2.456632	0.416165	-0.000025
1346	1.3383e+02	6.6125	12.370586	0.000307	3.070790	0.520206	-0.000031
1347	1.3393e+02	6.6035	12.338813	0.000319	3.193621	0.541014	-0.000032
1348	1.3403e+02	6.5932	12.307855	0.000311	3.111733	0.527142	-0.000031
1349	1.3413e+02	6.5801	12.272824	0.000352	3.521172	0.596503	-0.000035
1350	1.3423e+02	6.5752	12.247568	0.000254	2.538519	0.430037	-0.000025
1351	1.3432e+02	6.5633	12.218240	0.000295	2.947958	0.499398	-0.000029
1352	1.3442e+02	6.5549	12.183616	0.000348	3.480228	0.589567	-0.000035
1353	1.3452e+02	6.5435	12.158360	0.000254	2.538519	0.430037	-0.000025
1354	1.3462e+02	6.5336	12.124144	0.000344	3.439284	0.582631	-0.000034
1355	1.3472e+02	6.5244	12.096444	0.000278	2.784183	0.471653	-0.000028
1356	1.3482e+02	6.5185	12.065486	0.000311	3.111733	0.527142	-0.000031
1357	1.3492e+02	6.5038	12.043083	0.000225	2.251912	0.381484	-0.000023
1358	1.3502e+02	6.4956	12.012125	0.000311	3.111733	0.527142	-0.000031
1359	1.3512e+02	6.4837	11.980759	0.000315	3.152677	0.534078	-0.000032
1360	1.3522e+02	6.4709	11.950208	0.000307	3.070790	0.520206	-0.000031
1361	1.3532e+02	6.4638	11.924546	0.000258	2.579463	0.436973	-0.000026
1362	1.3542e+02	6.4526	11.894403	0.000303	3.029846	0.513270	-0.000030
1363	1.3552e+02	6.4434	11.861000	0.000336	3.357397	0.568758	-0.000034
1364	1.3562e+02	6.4314	11.835338	0.000258	2.579463	0.436973	-0.000026
1365	1.3572e+02	6.4245	11.805602	0.000299	2.988902	0.506334	-0.000030
1366	1.3582e+02	6.4138	11.777495	0.000283	2.825126	0.478589	-0.000028
1367	1.3592e+02	6.4063	11.747352	0.000303	3.029846	0.513270	-0.000030
1368	1.3602e+02	6.3912	11.718431	0.000291	2.907014	0.492462	-0.000029
1369	1.3612e+02	6.3819	11.685436	0.000332	3.316453	0.561822	-0.000033
1370	1.3622e+02	6.3740	11.659366	0.000262	2.620407	0.443909	-0.000026
1371	1.3631e+02	6.3616	11.627186	0.000323	3.234565	0.547950	-0.000032
1372	1.3641e+02	6.3534	11.601931	0.000254	2.538519	0.430037	-0.000025
1373	1.3651e+02	6.3447	11.573824	0.000283	2.825126	0.478589	-0.000028
1374	1.3661e+02	6.3351	11.550198	0.000237	2.374744	0.402293	-0.000024
1375	1.3671e+02	6.3241	11.518425	0.000319	3.193621	0.541014	-0.000032
1376	1.3681e+02	6.3122	11.491948	0.000266	2.661351	0.450845	-0.000027
1377	1.3691e+02	6.3027	11.469137	0.000229	2.292856	0.388420	-0.000023
1378	1.3701e+02	6.2940	11.442252	0.000270	2.702295	0.457781	-0.000027
1379	1.3711e+02	6.2878	11.413738	0.000287	2.866070	0.485525	-0.000029
1380	1.3721e+02	6.2756	11.385224	0.000287	2.866070	0.485525	-0.000029
1381	1.3731e+02	6.2652	11.359562	0.000258	2.579463	0.436973	-0.000026
1382	1.3741e+02	6.2530	11.331455	0.000283	2.825126	0.478589	-0.000028
1383	1.3751e+02	6.2455	11.302534	0.000291	2.907014	0.492462	-0.000029
1384	1.3761e+02	6.2358	11.275649	0.000270	2.702295	0.457781	-0.000027
1385	1.3771e+02	6.2252	11.254060	0.000217	2.170025	0.367612	-0.000022
1386	1.3781e+02	6.2159	11.223509	0.000307	3.070790	0.520206	-0.000031
1387	1.3791e+02	6.2048	11.195810	0.000278	2.784183	0.471653	-0.000028
1388	1.3801e+02	6.1949	11.172999	0.000229	2.292856	0.388420	-0.000023
1389	1.3811e+02	6.1867	11.143263	0.000299	2.988902	0.506334	-0.000030
1390	1.3821e+02	6.1759	11.111490	0.000319	3.193621	0.541014	-0.000032
1391	1.3831e+02	6.1639	11.085828	0.000258	2.579463	0.436973	-0.000026
1392	1.3840e+02	6.1555	11.058128	0.000278	2.784183	0.471653	-0.000028
1393	1.3850e+02	6.1452	11.025948	0.000323	3.234565	0.547950	-0.000032
1394	1.3860e+02	6.1364	10.997434	0.000287	2.866070	0.485525	-0.000029
1395	1.3870e+02	6.1303	10.971772	0.000258	2.579463	0.436973	-0.000026
1396	1.3880e+02	6.1172	10.937962	0.000340	3.398341	0.575694	-0.000034
1397	1.3890e+02	6.1071	10.911892	0.000262	2.620407	0.443909	-0.000026
1398	1.3900e+02	6.0925	10.882564	0.000295	2.947958	0.499398	-0.000029
1399	1.3910e+02	6.0857	10.852013	0.000307	3.070790	0.520206	-0.000031
1400	1.3920e+02	6.0744	10.822277	0.000299	2.988902	0.506334	-0.000030
1401	1.3930e+02	6.0656	10.789690	0.000328	3.275509	0.554886	-0.000033
1402	1.3940e+02	6.0564	10.759139	0.000307	3.070790	0.520206	-0.000031
1403	1.3950e+02	6.0465	10.730625	0.000287	2.866070	0.485525	-0.000029
1404	1.3960e+02	6.0351	10.701704	0.000291	2.907014	0.492462	-0.000029
1405	1.3970e+02	6.0269	10.672375	0.000295	2.947958	0.499398	-0.000029
1406	1.3980e+02	6.0160	10.640195	0.000323	3.234565	0.547950	-0.000032
1407	1.3990e+02	6.0049	10.610866	0.000295	2.947958	0.499398	-0.000029
1408	1.4000e+02	5.9957	10.578686	0.000323	3.234565	0.547950	-0.000032
1409	1.4010e+02	5.9877	10.550579	0.000283	2.825126	0.478589	-0.000028
1410	1.4020e+02	5.9760	10.521658	0.000291	2.907014	0.492462	-0.000029
1411	1.4029e+02	5.9664	10.487034	0.000348	3.480228	0.589567	-0.000035
1412	1.4039e+02	5.9575	10.457705	0.000295	2.947958	0.499398	-0.000029
1413	1.4049e+02	5.9472	10.428377	0.000295	2.947958	0.499398	-0.000029
1414	1.4059e+02	5.9363	10.398233	0.000303	3.029846	0.513270	-0.000030
1415	1.4069e+02	5.9277	10.369312	0.000291	2.907014	0.492462	-0.000029
1416	1.4079e+02	5.9190	10.343242	0.000262	2.620407	0.443909	-0.000026
1417	1.4089e+02	5.9073	10.313913	0.000295	2.947958	0.499398	-0.000029
1418	1.4099e+02	5.8947	10.285399	0.000287	2.866070	0.485525	-0.000029
1419	1.4109e+02	5.8858	10.253627	0.000319	3.193621	0.541014	-0.000032
1420	1.4119e+02	5.8778	10.227557	0.000262	2.620407	0.443909	-0.000026
1421	1.4129e+02	5.8675	10.199450	0.000283	2.825126	0.478589	-0.000028
1422	1.4139e+02	5.8569	10.163604	0.000360	3.603060	0.610375	-0.000036
1423	1.4149e+02	5.8479	10.137127	0.000266	2.661351	0.450845	-0.000027
1424	1.4159e+02	5.8370	10.104132	0.000332	3.316453	0.561822	-0.000033
1425	1.4169e+02	5.8274	10.075211	0.000291	2.907014	0.492462	-0.000029
1426	1.4179e+02	5.8183	10.051177	0.000242	2.415688	0.409229	-0.000024
1427	1.4189e+02	5.8060	10.017775	0.000336	3.357397	0.568758	-0.000034
1428	1.4199e+02	5.7986	9.988039	0.000299	2.988902	0.506334	-0.000030
1429	1.4209e+02	5.7888	9.957489	0.000307	3.070790	0.520206	-0.000031
1430	1.4219e+02	5.7769	9.928160	0.000295	2.947958	0.499398	-0.000029
1431	1.4228e+02	5.7695	9.899646	0.000287	2.866070	0.485525	-0.000029
1432	1.4238e+02	5.7557	9.869095	0.000307	3.070790	0.520206	-0.000031
1433	1.4248e+02	5.7488	9.836101	0.000332	3.316453	0.561822	-0.000033
1434	1.4258e+02	5.7381	9.805957	0.000303	3.029846	0.513270	-0.000030
1435	1.4268e+02	5.7272	9.774592	0.000315	3.152677	0.534078	-0.000032
1436	1.4278e+02	5.7164	9.740375	0.000344	3.439284	0.582631	-0.000034
1437	1.4288e+02	5.7046	9.706566	0.000340	3.398341	0.575694	-0.000034
1438	1.4298e+02	5.6973	9.674386	0.000323	3.234565	0.547950	-0.000032
1439	1.4308e+02	5.6870	9.642613	0.000319	3.193621	0.541014	-0.000032
1440	1.4318e+02	5.6774	9.614506	0.000283	2.825126	0.478589	-0.000028
1441	1.4328e+02	5.6690	9.581511	0.000332	3.316453	0.561822	-0.000033
1442	1.4338e+02	5.6588	9.547295	0.000344	3.439284	0.582631	-0.000034
1443	1.4348e+02	5.6477	9.515115	0.000323	3.234565	0.547950	-0.000032
1444	1.4358e+02	5.6394	9.480898	0.000344	3.439284	0.582631	-0.000034
1445	1.4368e+02	5.6252	9.448718	0.000323	3.234565	0.547950	-0.000032
1446	1.4378e+02	5.6156	9.414501	0.000344	3.439284	0.582631	-0.000034
1447	1.4388e+02	5.6081	9.385580	0.000291	2.907014	0.492462	-0.000029
1448	1.4398e+02	5.5990	9.353807	0.000319	3.193621	0.541014	-0.000032
1449	1.4408e+02	5.5888	9.317961	0.000360	3.603060	0.610375	-0.000036
1450	1.4418e+02	5.5779	9.290262	0.000278	2.784183	0.471653	-0.000028
1451	1.4428e+02	5.5690	9.252379	0.000381	3.807779	0.645055	-0.000038
1452	1.4437e+02	5.5581	9.217755	0.000348	3.480228	0.589567	-0.000035
1453	1.4447e+02	5.5485	9.185982	0.000319	3.193621	0.541014	-0.000032
1454	1.4457e+02	5.5367	9.153394	0.000328	3.275509	0.554886	-0.000033
1455	1.4467e+02	5.5267	9.118363	0.000352	3.521172	0.596503	-0.000035
1456	1.4477e+02	5.5175	9.081702	0.000368	3.684948	0.624247	-0.000037
1457	1.4487e+02	5.5071	9.051151	0.000307	3.070790	0.520206	-0.000031
1458	1.4497e+02	5.4978	9.009603	0.000418	4.176274	0.707480	-0.000042
1459	1.4507e+02	5.4876	8.975386	0.000344	3.439284	0.582631	-0.000034
1460	1.4517e+02	5.4807	8.940354	0.000352	3.521172	0.596503	-0.000035
1461	1.4527e+02	5.4729	8.904916	0.000356	3.562116	0.603439	-0.000036
1462	1.4537e+02	5.4592	8.866625	0.000385	3.848723	0.651991	-0.000038
1463	1.4547e+02	5.4482	8.836889	0.000299	2.988902	0.506334	-0.000030
1464	1.4557e+02	5.4406	8.803487	0.000336	3.357397	0.568758	-0.000034
1465	1.4567e+02	5.4302	8.767234	0.000364	3.644004	0.617311	-0.000036
1466	1.4577e+02	5.4194	8.730980	0.000364	3.644004	0.617311	-0.000036
1467	1.4587e+02	5.4082	8.694319	0.000368	3.684948	0.624247	-0.000037
1468	1.4597e+02	5.3988	8.654807	0.000397	3.971555	0.672800	-0.000040
1469	1.4607e+02	5.3857	8.620590	0.000344	3.439284	0.582631	-0.000034
1470	1.4617e+02	5.3814	8.583930	0.000368	3.684948	0.624247	-0.000037
1471	1.4626e+02	5.3674	8.548491	0.000356	3.562116	0.603439	-0.000036
1472	1.4636e+02	5.3582	8.509386	0.000393	3.930611	0.665863	-0.000039
1473	1.4646e+02	5.3484	8.473132	0.000364	3.644004	0.617311	-0.000036
1474	1.4656e+02	5.3413	8.438101	0.000352	3.521172	0.596503	-0.000035
1475	1.4666e+02	5.3321	8.406328	0.000319	3.193621	0.541014	-0.000032
1476	1.4676e+02	5.3201	8.372111	0.000344	3.439284	0.582631	-0.000034
1477	1.4686e+02	5.3074	8.332599	0.000397	3.971555	0.672800	-0.000040
1478	1.4696e+02	5.3014	8.304900	0.000278	2.784183	0.471653	-0.000028
1479	1.4706e+02	5.2882	8.271498	0.000336	3.357397	0.568758	-0.000034
1480	1.4716e+02	5.2782	8.233615	0.000381	3.807779	0.645055	-0.000038
1481	1.4726e+02	5.2715	8.199806	0.000340	3.398341	0.575694	-0.000034
1482	1.4736e+02	5.2572	8.170070	0.000299	2.988902	0.506334	-0.000030
1483	1.4746e+02	5.2485	8.131372	0.000389	3.889667	0.658927	-0.000039
1484	1.4756e+02	5.2399	8.095119	0.000364	3.644004	0.617311	-0.000036
1485	1.4766e+02	5.2262	8.060902	0.000344	3.439284	0.582631	-0.000034
1486	1.4776e+02	5.2198	8.031573	0.000295	2.947958	0.499398	-0.000029
1487	1.4786e+02	5.2090	7.994505	0.000373	3.725891	0.631183	-0.000037
1488	1.4796e+02	5.2001	7.958659	0.000360	3.603060	0.610375	-0.000036
1489	1.4806e+02	5.1905	7.924442	0.000344	3.439284	0.582631	-0.000034
1490	1.4816e+02	5.1809	7.893484	0.000311	3.111733	0.527142	-0.000031
1491	1.4825e+02	5.1685	7.864155	0.000295	2.947958	0.499398	-0.000029
1492	1.4835e+02	5.1589	7.827902	0.000364	3.644004	0.617311	-0.000036
1493	1.4845e+02	5.1510	7.795314	0.000328	3.275509	0.554886	-0.000033
1494	1.4855e+02	5.1391	7.759876	0.000356	3.562116	0.603439	-0.000036
1495	1.4865e+02	5.1305	7.725251	0.000348	3.480228	0.589567	-0.000035
1496	1.4875e+02	5.1185	7.691849	0.000336	3.357397	0.568758	-0.000034
1497	1.4885e+02	5.1110	7.655596	0.000364	3.644004	0.617311	-0.000036
1498	1.4895e+02	5.1009	7.619750	0.000360	3.603060	0.610375	-0.000036
1499	1.4905e+02	5.0929	7.585940	0.000340	3.398341	0.575694	-0.000034
1500	1.4915e+02	5.0823	7.544799	0.000414	4.135330	0.700544	-0.000041
1501	1.4925e+02	5.0692	7.514248	0.000307	3.070790	0.520206	-0.000031
1502	1.4935e+02	5.0607	7.475551	0.000389	3.889667	0.658927	-0.000039
1503	1.4945e+02	5.0513	7.439704	0.000360	3.603060	0.610375	-0.000036
1504	1.4955e+02	5.0417	7.409154	0.000307	3.070790	0.520206	-0.000031
1505	1.4965e+02	5.0314	7.368419	0.000409	4.094386	0.693608	-0.000041
1506	1.4975e+02	5.0237	7.337461	0.000311	3.111733	0.527142	-0.000031
1507	1.4985e+02	5.0103	7.299171	0.000385	3.848723	0.651991	-0.000038
1508	1.4995e+02	5.0030	7.266176	0.000332	3.316453	0.561822	-0.000033
1509	1.5005e+02	4.9934	7.229923	0.000364	3.644004	0.617311	-0.000036
1510	1.5015e+02	4.9810	7.192040	0.000381	3.807779	0.645055	-0.000038
1511	1.5025e+02	4.9725	7.160267	0.000319	3.193621	0.541014	-0.000032
1512	1.5034e+02	4.9604	7.120755	0.000397	3.971555	0.672800	-0.000040
1513	1.5044e+02	4.9487	7.088168	0.000328	3.275509	0.554886	-0.000033
1514	1.5054e+02	4.9421	7.050692	0.000377	3.766835	0.638119	-0.000038
1515	1.5064e+02	4.9340	7.016883	0.000340	3.398341	0.575694	-0.000034
1516	1.5074e+02	4.9217	6.980222	0.000368	3.684948	0.624247	-0.000037
1517	1.5084e+02	4.9094	6.943968	0.000364	3.644004	0.617311	-0.000036
1518	1.5094e+02	4.8994	6.914232	0.000299	2.988902	0.506334	-0.000030
1519	1.5104e+02	4.8935	6.882867	0.000315	3.152677	0.534078	-0.000032
1520	1.5114e+02	4.8806	6.843355	0.000397	3.971555	0.672800	-0.000040
1521	1.5124e+02	4.8685	6.813212	0.000303	3.029846	0.513270	-0.000030
1522	1.5134e+02	4.8641	6.781439	0.000319	3.193621	0.541014	-0.000032
1523	1.5144e+02	4.8525	6.747629	0.000340	3.398341	0.575694	-0.000034
1524	1.5154e+02	4.8409	6.708524	0.000393	3.930611	0.665863	-0.000039
1525	1.5164e+02	4.8318	6.676344	0.000323	3.234565	0.547950	-0.000032
1526	1.5174e+02	4.8214	6.645794	0.000307	3.070790	0.520206	-0.000031
1527	1.5184e+02	4.8118	6.607911	0.000381	3.807779	0.645055	-0.000038
1528	1.5194e+02	4.8030	6.578175	0.000299	2.988902	0.506334	-0.000030
1529	1.5204e+02	4.7952	6.545180	0.000332	3.316453	0.561822	-0.000033
1530	1.5214e+02	4.7826	6.515444	0.000299	2.988902	0.506334	-0.000030
1531	1.5224e+02	4.7726	6.482042	0.000336	3.357397	0.568758	-0.000034
1532	1.5233e+02	4.7622	6.443752	0.000385	3.848723	0.651991	-0.000038
1533	1.5243e+02	4.7527	6.411164	0.000328	3.275509	0.554886	-0.000033
1534	1.5253e+02	4.7405	6.376540	0.000348	3.480228	0.589567	-0.000035
1535	1.5263e+02	4.7297	6.341916	0.000348	3.480228	0.589567	-0.000035
1536	1.5273e+02	4.7245	6.307292	0.000348	3.480228	0.589567	-0.000035
1537	1.5283e+02	4.7147	6.275112	0.000323	3.234565	0.547950	-0.000032
1538	1.5293e+02	4.7049	6.245783	0.000295	2.947958	0.499398	-0.000029
1539	1.5303e+02	4.6923	6.210752	0.000352	3.521172	0.596503	-0.000035
1540	1.5313e+02	4.6804	6.180201	0.000307	3.070790	0.520206	-0.000031
1541	1.5323e+02	4.6704	6.146392	0.000340	3.398341	0.575694	-0.000034
1542	1.5333e+02	4.6617	6.113804	0.000328	3.275509	0.554886	-0.000033
1543	1.5343e+02	4.6551	6.081217	0.000328	3.275509	0.554886	-0.000033
1544	1.5353e+02	4.6420	6.053925	0.000274	2.743239	0.464717	-0.000027
1545	1.5363e+02	4.6297	6.023782	0.000303	3.029846	0.513270	-0.000030
1546	1.5373e+02	4.6241	5.989565	0.000344	3.439284	0.582631	-0.000034
1547	1.5383e+02	4.6117	5.959422	0.000303	3.029846	0.513270	-0.000030
1548	1.5393e+02	4.6022	5.924797	0.000348	3.480228	0.589567	-0.000035
1549	1.5403e+02	4.5936	5.894654	0.000303	3.029846	0.513270	-0.000030
1550	1.5413e+02	4.5811	5.861659	0.000332	3.316453	0.561822	-0.000033
1551	1.5422e+02	4.5723	5.832331	0.000295	2.947958	0.499398	-0.000029
1552	1.5432e+02	4.5623	5.799743	0.000328	3.275509	0.554886	-0.000033
1553	1.5442e+02	4.5553	5.771637	0.000283	2.825126	0.478589	-0.000028
1554	1.5452e+02	4.5420	5.737420	0.000344	3.439284	0.582631	-0.000034
1555	1.5462e+02	4.5358	5.705240	0.000323	3.234565	0.547950	-0.000032
1556	1.5472e+02	4.5269	5.674689	0.000307	3.070790	0.520206	-0.000031
1557	1.5482e+02	4.5147	5.642102	0.000328	3.275509	0.554886	-0.000033
1558	1.5492e+02	4.5025	5.613588	0.000287	2.866070	0.485525	-0.000029
1559	1.5502e+02	4.4930	5.580593	0.000332	3.316453	0.561822	-0.000033
1560	1.5512e+02	4.4847	5.549228	0.000315	3.152677	0.534078	-0.000032
1561	1.5522e+02	4.4729	5.511345	0.000381	3.807779	0.645055	-0.000038
1562	1.5532e+02	4.4642	5.476313	0.000352	3.521172	0.596503	-0.000035
1563	1.5542e+02	4.4539	5.443726	0.000328	3.275509	0.554886	-0.000033
1564	1.5552e+02	4.4434	5.409916	0.000340	3.398341	0.575694	-0.000034
1565	1.5562e+02	4.4326	5.375700	0.000344	3.439284	0.582631	-0.000034
1566	1.5572e+02	4.4234	5.339446	0.000364	3.644004	0.617311	-0.000036
1567	1.5582e+02	4.4154	5.308488	0.000311	3.111733	0.527142	-0.000031
1568	1.5592e+02	4.4048	5.272642	0.000360	3.603060	0.610375	-0.000036
1569	1.5602e+02	4.3942	5.240462	0.000323	3.234565	0.547950	-0.000032
1570	1.5612e+02	4.3863	5.203394	0.000373	3.725891	0.631183	-0.000037
1571	1.5622e+02	4.3771	5.169584	0.000340	3.398341	0.575694	-0.000034
1572	1.5631e+02	4.3653	5.132516	0.000373	3.725891	0.631183	-0.000037
1573	1.5641e+02	4.3524	5.101151	0.000315	3.152677	0.534078	-0.000032
1574	1.5651e+02	4.3456	5.065712	0.000356	3.562116	0.603439	-0.000036
1575	1.5661e+02	4.3343	5.030681	0.000352	3.521172	0.596503	-0.000035
1576	1.5671e+02	4.3222	4.996056	0.000348	3.480228	0.589567	-0.000035
1577	1.5681e+02	4.3157	4.960618	0.000356	3.562116	0.603439	-0.000036
1578	1.5691e+02	4.3027	4.923957	0.000368	3.684948	0.624247	-0.000037
1579	1.5701e+02	4.2956	4.893406	0.000307	3.070790	0.520206	-0.000031
1580	1.5711e+02	4.2840	4.861226	0.000323	3.234565	0.547950	-0.000032
1581	1.5721e+02	4.2748	4.824565	0.000368	3.684948	0.624247	-0.000037
1582	1.5731e+02	4.2630	4.789126	0.000356	3.562116	0.603439	-0.000036
1583	1.5741e+02	4.2524	4.756132	0.000332	3.316453	0.561822	-0.000033
1584	1.5751e+02	4.2445	4.721508	0.000348	3.480228	0.589567	-0.000035
1585	1.5761e+02	4.2362	4.685661	0.000360	3.603060	0.610375	-0.000036
1586	1.5771e+02	4.2269	4.653481	0.000323	3.234565	0.547950	-0.000032
1587	1.5781e+02	4.2178	4.621301	0.000323	3.234565	0.547950	-0.000032
1588	1.5791e+02	4.2061	4.590343	0.000311	3.111733	0.527142	-0.000031
1589	1.5801e+02	4.1967	4.552053	0.000385	3.848723	0.651991	-0.000038
1590	1.5811e+02	4.1856	4.517429	0.000348	3.480228	0.589567	-0.000035
1591	1.5821e+02	4.1746	4.485249	0.000323	3.234565	0.547950	-0.000032
1592	1.5830e+02	4.1640	4.450625	0.000348	3.480228	0.589567	-0.000035
1593	1.5840e+02	4.1558	4.417630	0.000332	3.316453	0.561822	-0.000033
1594	1.5850e+02	4.1436	4.383413	0.000344	3.439284	0.582631	-0.000034
1595	1.5860e+02	4.1343	4.351640	0.000319	3.193621	0.541014	-0.000032
1596	1.5870e+02	4.1261	4.315794	0.000360	3.603060	0.610375	-0.000036
1597	1.5880e+02	4.1143	4.276689	0.000393	3.930611	0.665863	-0.000039
1598	1.5890e+02	4.1045	4.245324	0.000315	3.152677	0.534078	-0.000032
1599	1.5900e+02	4.0975	4.209885	0.000356	3.562116	0.603439	-0.000036
1600	1.5910e+02	4.0841	4.175261	0.000348	3.480228	0.589567	-0.000035
1601	1.5920e+02	4.0771	4.137786	0.000377	3.766835	0.638119	-0.000038
1602	1.5930e+02	4.0679	4.103976	0.000340	3.398341	0.575694	-0.000034
1603	1.5940e+02	4.0582	4.069352	0.000348	3.480228	0.589567	-0.000035
1604	1.5950e+02	4.0449	4.026174	0.000434	4.340049	0.735224	-0.000043
1605	1.5960e+02	4.0327	3.992772	0.000336	3.357397	0.568758	-0.000034
1606	1.5970e+02	4.0263	3.953259	0.000397	3.971555	0.672800	-0.000040
1607	1.5980e+02	4.0161	3.917006	0.000364	3.644004	0.617311	-0.000036
1608	1.5990e+02	4.0064	3.881975	0.000352	3.521172	0.596503	-0.000035
1609	1.6000e+02	3.9967	3.842462	0.000397	3.971555	0.672800	-0.000040
1610	1.6010e+02	3.9868	3.804579	0.000381	3.807779	0.645055	-0.000038
1611	1.6019e+02	3.9776	3.767511	0.000373	3.725891	0.631183	-0.000037
1612	1.6029e+02	3.9683	3.730443	0.000373	3.725891	0.631183	-0.000037
1613	1.6039e+02	3.9570	3.693782	0.000368	3.684948	0.624247	-0.000037
1614	1.6049e+02	3.9476	3.657936	0.000360	3.603060	0.610375	-0.000036
1615	1.6059e+02	3.9373	3.620461	0.000377	3.766835	0.638119	-0.000038
1616	1.6069e+02	3.9285	3.582985	0.000377	3.766835	0.638119	-0.000038
1617	1.6079e+02	3.9159	3.543880	0.000393	3.930611	0.665863	-0.000039
1618	1.6089e+02	3.9059	3.508034	0.000360	3.603060	0.610375	-0.000036
1619	1.6099e+02	3.8975	3.469744	0.000385	3.848723	0.651991	-0.000038
1620	1.6109e+02	3.8862	3.430232	0.000397	3.971555	0.672800	-0.000040
1621	1.6119e+02	3.8760	3.393571	0.000368	3.684948	0.624247	-0.000037
1622	1.6129e+02	3.8657	3.349578	0.000442	4.421937	0.749096	-0.000044
1623	1.6139e+02	3.8557	3.314954	0.000348	3.480228	0.589567	-0.000035
1624	1.6149e+02	3.8465	3.274627	0.000405	4.053442	0.686672	-0.000041
1625	1.6159e+02	3.8359	3.230226	0.000446	4.462881	0.756032	-0.000045
1626	1.6169e+02	3.8244	3.194380	0.000360	3.603060	0.610375	-0.000036
1627	1.6179e+02	3.8171	3.153239	0.000414	4.135330	0.700544	-0.000041
1628	1.6189e+02	3.8062	3.113726	0.000397	3.971555	0.672800	-0.000040
1629	1.6199e+02	3.7966	3.072585	0.000414	4.135330	0.700544	-0.000041
1630	1.6209e+02	3.7878	3.030629	0.000422	4.217218	0.714416	-0.000042
1631	1.6219e+02	3.7777	2.992338	0.000385	3.848723	0.651991	-0.000038
1632	1.6228e+02	3.7709	2.955270	0.000373	3.725891	0.631183	-0.000037
1633	1.6238e+02	3.7565	2.916165	0.000393	3.930611	0.665863	-0.000039
1634	1.6248e+02	3.7487	2.872172	0.000442	4.421937	0.749096	-0.000044
1635	1.6258e+02	3.7365	2.833882	0.000385	3.848723	0.651991	-0.000038
1636	1.6268e+02	3.7286	2.790704	0.000434	4.340049	0.735224	-0.000043
1637	1.6278e+02	3.7185	2.748340	0.000426	4.258162	0.721352	-0.000043
1638	1.6288e+02	3.7078	2.708013	0.000405	4.053442	0.686672	-0.000041
1639	1.6298e+02	3.6964	2.662798	0.000454	4.544769	0.769905	-0.000045
1640	1.6308e+02	3.6870	2.624915	0.000381	3.807779	0.645055	-0.000038
1641	1.6318e+02	3.6755	2.584588	0.000405	4.053442	0.686672	-0.000041
1642	1.6328e+02	3.6698	2.546298	0.000385	3.848723	0.651991	-0.000038
1643	1.6338e+02	3.6585	2.508823	0.000377	3.766835	0.638119	-0.000038
1644	1.6348e+02	3.6463	2.466459	0.000426	4.258162	0.721352	-0.000043
1645	1.6358e+02	3.6366	2.426540	0.000401	4.012498	0.679736	-0.000040
1646	1.6368e+02	3.6288	2.388249	0.000385	3.848723	0.651991	-0.000038
1647	1.6378e+02	3.6184	2.347515	0.000409	4.094386	0.693608	-0.000041
1648	1.6388e+02	3.6059	2.308818	0.000389	3.889667	0.658927	-0.000039
1649	1.6398e+02	3.5965	2.271342	0.000377	3.766835	0.638119	-0.000038
1650	1.6408e+02	3.5873	2.233052	0.000385	3.848723	0.651991	-0.000038
1651	1.6418e+02	3.5769	2.192725	0.000405	4.053442	0.686672	-0.000041
1652	1.6427e+02	3.5688	2.153620	0.000393	3.930611	0.665863	-0.000039
1653	1.6437e+02	3.5577	2.114108	0.000397	3.971555	0.672800	-0.000040
1654	1.6447e+02	3.5484	2.075003	0.000393	3.930611	0.665863	-0.000039
1655	1.6457e+02	3.5376	2.033861	0.000414	4.135330	0.700544	-0.000041
1656	1.6467e+02	3.5271	1.998015	0.000360	3.603060	0.610375	-0.000036
1657	1.6477e+02	3.5204	1.958096	0.000401	4.012498	0.679736	-0.000040
1658	1.6487e+02	3.5106	1.916547	0.000418	4.176274	0.707480	-0.000042
1659	1.6497e+02	3.4991	1.877849	0.000389	3.889667	0.658927	-0.000039
1660	1.6507e+02	3.4904	1.843632	0.000344	3.439284	0.582631	-0.000034
1661	1.6517e+02	3.4774	1.802898	0.000409	4.094386	0.693608	-0.000041
1662	1.6527e+02	3.4698	1.764608	0.000385	3.848723	0.651991	-0.000038
1663	1.6537e+02	3.4577	1.725503	0.000393	3.930611	0.665863	-0.000039
1664	1.6547e+02	3.4473	1.686398	0.000393	3.930611	0.665863	-0.000039
1665	1.6557e+02	3.4376	1.646479	0.000401	4.012498	0.679736	-0.000040
1666	1.6567e+02	3.4303	1.604522	0.000422	4.217218	0.714416	-0.000042
1667	1.6577e+02	3.4186	1.565010	0.000397	3.971555	0.672800	-0.000040
1668	1.6587e+02	3.4096	1.522239	0.000430	4.299105	0.728288	-0.000043
1669	1.6597e+02	3.3991	1.480283	0.000422	4.217218	0.714416	-0.000042
1670	1.6607e+02	3.3892	1.441993	0.000385	3.848723	0.651991	-0.000038
1671	1.6616e+02	3.3801	1.398814	0.000434	4.340049	0.735224	-0.000043
1672	1.6626e+02	3.3727	1.358487	0.000405	4.053442	0.686672	-0.000041
1673	1.6636e+02	3.3589	1.317346	0.000414	4.135330	0.700544	-0.000041
1674	1.6646e+02	3.3511	1.275797	0.000418	4.176274	0.707480	-0.000042
1675	1.6656e+02	3.3396	1.237099	0.000389	3.889667	0.658927	-0.000039
1676	1.6666e+02	3.3321	1.200438	0.000368	3.684948	0.624247	-0.000037
1677	1.6676e+02	3.3201	1.157668	0.000430	4.299105	0.728288	-0.000043
1678	1.6686e+02	3.3108	1.114897	0.000430	4.299105	0.728288	-0.000043
1679	1.6696e+02	3.3002	1.073755	0.000414	4.135330	0.700544	-0.000041
1680	1.6706e+02	3.2880	1.035465	0.000385	3.848723	0.651991	-0.000038
1681	1.6716e+02	3.2774	0.994731	0.000409	4.094386	0.693608	-0.000041
1682	1.6726e+02	3.2681	0.955626	0.000393	3.930611	0.665863	-0.000039
1683	1.6736e+02	3.2592	0.915299	0.000405	4.053442	0.686672	-0.000041
1684	1.6746e+02	3.2497	0.874972	0.000405	4.053442	0.686672	-0.000041
1685	1.6756e+02	3.2386	0.832201	0.000430	4.299105	0.728288	-0.000043
1686	1.6766e+02	3.2284	0.794725	0.000377	3.766835	0.638119	-0.000038
1687	1.6776e+02	3.2156	0.751140	0.000438	4.380993	0.742160	-0.000044
1688	1.6786e+02	3.2101	0.718552	0.000328	3.275509	0.554886	-0.000033
1689	1.6796e+02	3.1989	0.676596	0.000422	4.217218	0.714416	-0.000042
1690	1.6806e+02	3.1893	0.637084	0.000397	3.971555	0.672800	-0.000040
1691	1.6816e+02	3.1815	0.600830	0.000364	3.644004	0.617311	-0.000036
1692	1.6825e+02	3.1684	0.556430	0.000446	4.462881	0.756032	-0.000045
1693	1.6835e+02	3.1583	0.520176	0.000364	3.644004	0.617311	-0.000036
1694	1.6845e+02	3.1482	0.481072	0.000393	3.930611	0.665863	-0.000039
1695	1.6855e+02	3.1402	0.442374	0.000389	3.889667	0.658927	-0.000039
1696	1.6865e+02	3.1307	0.405713	0.000368	3.684948	0.624247	-0.000037
1697	1.6875e+02	3.1220	0.366201	0.000397	3.971555	0.672800	-0.000040
1698	1.6885e+02	3.1112	0.329540	0.000368	3.684948	0.624247	-0.000037
1699	1.6895e+02	3.0996	0.290843	0.000389	3.889667	0.658927	-0.000039
1700	1.6905e+02	3.0929	0.252145	0.000389	3.889667	0.658927	-0.000039
1701	1.6915e+02	3.0779	0.211003	0.000414	4.135330	0.700544	-0.000041
1702	1.6925e+02	3.0740	0.173935	0.000373	3.725891	0.631183	-0.000037
1703	1.6935e+02	3.0608	0.131979	0.000422	4.217218	0.714416	-0.000042
1704	1.6945e+02	3.0481	0.089615	0.000426	4.258162	0.721352	-0.000043
1705	1.6955e+02	3.0409	0.056213	0.000336	3.357397	0.568758	-0.000034
1706	1.6965e+02	3.0317	0.018738	0.000377	3.766835	0.638119	-0.000038
1707	1.6975e+02	3.0206	-0.019552	0.000385	3.848723	0.651991	-0.000038
1708	1.6985e+02	3.0092	-0.055806	0.000364	3.644004	0.617311	-0.000036
1709	1.6995e+02	3.0020	-0.093689	0.000381	3.807779	0.645055	-0.000038
1710	1.7005e+02	2.9902	-0.128720	0.000352	3.521172	0.596503	-0.000035
1711	1.7015e+02	2.9812	-0.162122	0.000336	3.357397	0.568758	-0.000034
1712	1.7024e+02	2.9710	-0.204486	0.000426	4.258162	0.721352	-0.000043
1713	1.7034e+02	2.9629	-0.239925	0.000356	3.562116	0.603439	-0.000036
1714	1.7044e+02	2.9522	-0.280659	0.000409	4.094386	0.693608	-0.000041
1715	1.7054e+02	2.9395	-0.316505	0.000360	3.603060	0.610375	-0.000036
1716	1.7064e+02	2.9298	-0.356017	0.000397	3.971555	0.672800	-0.000040
1717	1.7074e+02	2.9211	-0.389827	0.000340	3.398341	0.575694	-0.000034
1718	1.7084e+02	2.9101	-0.428524	0.000389	3.889667	0.658927	-0.000039
1719	1.7094e+02	2.9036	-0.465185	0.000368	3.684948	0.624247	-0.000037
1720	1.7104e+02	2.8915	-0.498995	0.000340	3.398341	0.575694	-0.000034
1721	1.7114e+02	2.8822	-0.537692	0.000389	3.889667	0.658927	-0.000039
1722	1.7124e+02	2.8677	-0.573131	0.000356	3.562116	0.603439	-0.000036
1723	1.7134e+02	2.8640	-0.606533	0.000336	3.357397	0.568758	-0.000034
1724	1.7144e+02	2.8503	-0.646045	0.000397	3.971555	0.672800	-0.000040
1725	1.7154e+02	2.8394	-0.685965	0.000401	4.012498	0.679736	-0.000040
1726	1.7164e+02	2.8323	-0.722218	0.000364	3.644004	0.617311	-0.000036
1727	1.7174e+02	2.8230	-0.761323	0.000393	3.930611	0.665863	-0.000039
1728	1.7184e+02	2.8107	-0.802465	0.000414	4.135330	0.700544	-0.000041
1729	1.7194e+02	2.8062	-0.839940	0.000377	3.766835	0.638119	-0.000038
1730	1.7204e+02	2.7914	-0.879453	0.000397	3.971555	0.672800	-0.000040
1731	1.7213e+02	2.7821	-0.920594	0.000414	4.135330	0.700544	-0.000041
1732	1.7223e+02	2.7740	-0.960514	0.000401	4.012498	0.679736	-0.000040
1733	1.7233e+02	2.7619	-0.996767	0.000364	3.644004	0.617311	-0.000036
1734	1.7243e+02	2.7530	-1.035872	0.000393	3.930611	0.665863	-0.000039
1735	1.7253e+02	2.7431	-1.081494	0.000459	4.585712	0.776841	-0.000046
1736	1.7263e+02	2.7342	-1.115711	0.000344	3.439284	0.582631	-0.000034
1737	1.7273e+02	2.7229	-1.156853	0.000414	4.135330	0.700544	-0.000041
1738	1.7283e+02	2.7126	-1.201661	0.000450	4.503825	0.762969	-0.000045
1739	1.7293e+02	2.7032	-1.238729	0.000373	3.725891	0.631183	-0.000037
1740	1.7303e+02	2.6929	-1.279056	0.000405	4.053442	0.686672	-0.000041
1741	1.7313e+02	2.6800	-1.321827	0.000430	4.299105	0.728288	-0.000043
1742	1.7323e+02	2.6711	-1.359709	0.000381	3.807779	0.645055	-0.000038
1743	1.7333e+02	2.6614	-1.402073	0.000426	4.258162	0.721352	-0.000043
1744	1.7343e+02	2.6525	-1.443215	0.000414	4.135330	0.700544	-0.000041
1745	1.7353e+02	2.6439	-1.483134	0.000401	4.012498	0.679736	-0.000040
1746	1.7363e+02	2.6333	-1.523054	0.000401	4.012498	0.679736	-0.000040
1747	1.7373e+02	2.6199	-1.562973	0.000401	4.012498	0.679736	-0.000040
1748	1.7383e+02	2.6110	-1.602486	0.000397	3.971555	0.672800	-0.000040
1749	1.7393e+02	2.6035	-1.640368	0.000381	3.807779	0.645055	-0.000038
1750	1.7403e+02	2.5931	-1.681510	0.000414	4.135330	0.700544	-0.000041
1751	1.7413e+02	2.5854	-1.721022	0.000397	3.971555	0.672800	-0.000040
1752	1.7422e+02	2.5714	-1.759720	0.000389	3.889667	0.658927	-0.000039
1753	1.7432e+02	2.5643	-1.799639	0.000401	4.012498	0.679736	-0.000040
1754	1.7442e+02	2.5530	-1.836300	0.000368	3.684948	0.624247	-0.000037
1755	1.7452e+02	2.5388	-1.878257	0.000422	4.217218	0.714416	-0.000042
1756	1.7462e+02	2.5332	-1.917361	0.000393	3.930611	0.665863	-0.000039
1757	1.7472e+02	2.5216	-1.958096	0.000409	4.094386	0.693608	-0.000041
1758	1.7482e+02	2.5129	-1.995571	0.000377	3.766835	0.638119	-0.000038
1759	1.7492e+02	2.5019	-2.037120	0.000418	4.176274	0.707480	-0.000042
1760	1.7502e+02	2.4934	-2.075818	0.000389	3.889667	0.658927	-0.000039
1761	1.7512e+02	2.4831	-2.116552	0.000409	4.094386	0.693608	-0.000041
1762	1.7522e+02	2.4751	-2.156471	0.000401	4.012498	0.679736	-0.000040
1763	1.7532e+02	2.4618	-2.198020	0.000418	4.176274	0.707480	-0.000042
1764	1.7542e+02	2.4574	-2.238755	0.000409	4.094386	0.693608	-0.000041
1765	1.7552e+02	2.4404	-2.276638	0.000381	3.807779	0.645055	-0.000038
1766	1.7562e+02	2.4332	-2.318594	0.000422	4.217218	0.714416	-0.000042
1767	1.7572e+02	2.4233	-2.356477	0.000381	3.807779	0.645055	-0.000038
1768	1.7582e+02	2.4136	-2.403321	0.000471	4.708544	0.797649	-0.000047
1769	1.7592e+02	2.4036	-2.441611	0.000385	3.848723	0.651991	-0.000038
1770	1.7602e+02	2.3941	-2.481123	0.000397	3.971555	0.672800	-0.000040
1771	1.7612e+02	2.3837	-2.523487	0.000426	4.258162	0.721352	-0.000043
1772	1.7621e+02	2.3761	-2.569109	0.000459	4.585712	0.776841	-0.000046
1773	1.7631e+02	2.3628	-2.611066	0.000422	4.217218	0.714416	-0.000042
1774	1.7641e+02	2.3544	-2.655059	0.000442	4.421937	0.749096	-0.000044
1775	1.7651e+02	2.3454	-2.699459	0.000446	4.462881	0.756032	-0.000045
1776	1.7661e+02	2.3359	-2.741415	0.000422	4.217218	0.714416	-0.000042
1777	1.7671e+02	2.3266	-2.784186	0.000430	4.299105	0.728288	-0.000043
1778	1.7681e+02	2.3156	-2.829809	0.000459	4.585712	0.776841	-0.000046
1779	1.7691e+02	2.3060	-2.872172	0.000426	4.258162	0.721352	-0.000043
1780	1.7701e+02	2.2921	-2.912907	0.000409	4.094386	0.693608	-0.000041
1781	1.7711e+02	2.2853	-2.955678	0.000430	4.299105	0.728288	-0.000043
1782	1.7721e+02	2.2764	-3.000893	0.000454	4.544769	0.769905	-0.000045
1783	1.7731e+02	2.2646	-3.043664	0.000430	4.299105	0.728288	-0.000043
1784	1.7741e+02	2.2538	-3.084398	0.000409	4.094386	0.693608	-0.000041
1785	1.7751e+02	2.2430	-3.129613	0.000454	4.544769	0.769905	-0.000045
1786	1.7761e+02	2.2335	-3.172791	0.000434	4.340049	0.735224	-0.000043
1787	1.7771e+02	2.2248	-3.215562	0.000430	4.299105	0.728288	-0.000043
1788	1.7781e+02	2.2159	-3.260777	0.000454	4.544769	0.769905	-0.000045
1789	1.7791e+02	2.2068	-3.305992	0.000454	4.544769	0.769905	-0.000045
1790	1.7801e+02	2.1957	-3.354059	0.000483	4.831376	0.818457	-0.000048
1791	1.7810e+02	2.1847	-3.398052	0.000442	4.421937	0.749096	-0.000044
1792	1.7820e+02	2.1759	-3.446525	0.000487	4.872320	0.825393	-0.000049
1793	1.7830e+02	2.1635	-3.492555	0.000463	4.626656	0.783777	-0.000046
1794	1.7840e+02	2.1549	-3.541029	0.000487	4.872320	0.825393	-0.000049
1795	1.7850e+02	2.1453	-3.582985	0.000422	4.217218	0.714416	-0.000042
1796	1.7860e+02	2.1381	-3.631052	0.000483	4.831376	0.818457	-0.000048
1797	1.7870e+02	2.1253	-3.675859	0.000450	4.503825	0.762969	-0.000045
1798	1.7880e+02	2.1150	-3.723111	0.000475	4.749488	0.804585	-0.000047
1799	1.7890e+02	2.1064	-3.768733	0.000459	4.585712	0.776841	-0.000046
1800	1.7900e+02	2.0940	-3.815985	0.000475	4.749488	0.804585	-0.000047
1801	1.7910e+02	2.0851	-3.855090	0.000393	3.930611	0.665863	-0.000039
1802	1.7920e+02	2.0752	-3.905600	0.000508	5.077039	0.860074	-0.000051
1803	1.7930e+02	2.0662	-3.956111	0.000508	5.077039	0.860074	-0.000051
1804	1.7940e+02	2.0537	-4.004177	0.000483	4.831376	0.818457	-0.000048
1805	1.7950e+02	2.0450	-4.047763	0.000438	4.380993	0.742160	-0.000044
1806	1.7960e+02	2.0362	-4.097051	0.000495	4.954207	0.839265	-0.000050
1807	1.7970e+02	2.0255	-4.145525	0.000487	4.872320	0.825393	-0.000049
1808	1.7980e+02	2.0170	-4.190740	0.000454	4.544769	0.769905	-0.000045
1809	1.7990e+02	2.0074	-4.235141	0.000446	4.462881	0.756032	-0.000045
1810	1.8000e+02	1.9962	-4.286466	0.000516	5.158927	0.873946	-0.000052
1811	1.8009e+02	1.9859	-4.325978	0.000397	3.971555	0.672800	-0.000040
1812	1.8019e+02	1.9794	-4.375266	0.000495	4.954207	0.839265	-0.000050
1813	1.8029e+02	1.9666	-4.418445	0.000434	4.340049	0.735224	-0.000043
1814	1.8039e+02	1.9542	-4.461216	0.000430	4.299105	0.728288	-0.000043
1815	1.8049e+02	1.9444	-4.504801	0.000438	4.380993	0.742160	-0.000044
1816	1.8059e+02	1.9349	-4.551238	0.000467	4.667600	0.790713	-0.000047
1817	1.8069e+02	1.9273	-4.598897	0.000479	4.790432	0.811521	-0.000048
1818	1.8079e+02	1.9152	-4.651445	0.000528	5.281758	0.894754	-0.000053
1819	1.8089e+02	1.9076	-4.690142	0.000389	3.889667	0.658927	-0.000039
1820	1.8099e+02	1.8956	-4.736172	0.000463	4.626656	0.783777	-0.000046
1821	1.8109e+02	1.8893	-4.781794	0.000459	4.585712	0.776841	-0.000046
1822	1.8119e+02	1.8758	-4.825380	0.000438	4.380993	0.742160	-0.000044
1823	1.8129e+02	1.8661	-4.868558	0.000434	4.340049	0.735224	-0.000043
1824	1.8139e+02	1.8564	-4.916625	0.000483	4.831376	0.818457	-0.000048
1825	1.8149e+02	1.8464	-4.959396	0.000430	4.299105	0.728288	-0.000043
1826	1.8159e+02	1.8376	-5.002574	0.000434	4.340049	0.735224	-0.000043
1827	1.8169e+02	1.8281	-5.045752	0.000434	4.340049	0.735224	-0.000043
1828	1.8179e+02	1.8165	-5.098299	0.000528	5.281758	0.894754	-0.000053
1829	1.8189e+02	1.8065	-5.138626	0.000405	4.053442	0.686672	-0.000041
1830	1.8199e+02	1.7982	-5.187100	0.000487	4.872320	0.825393	-0.000049
1831	1.8209e+02	1.7874	-5.231908	0.000450	4.503825	0.762969	-0.000045
1832	1.8218e+02	1.7754	-5.277123	0.000454	4.544769	0.769905	-0.000045
1833	1.8228e+02	1.7690	-5.326004	0.000491	4.913263	0.832329	-0.000049
1834	1.8238e+02	1.7586	-5.370404	0.000446	4.462881	0.756032	-0.000045
1835	1.8248e+02	1.7484	-5.418878	0.000487	4.872320	0.825393	-0.000049
1836	1.8258e+02	1.7345	-5.467759	0.000491	4.913263	0.832329	-0.000049
1837	1.8268e+02	1.7287	-5.513381	0.000459	4.585712	0.776841	-0.000046
1838	1.8278e+02	1.7187	-5.560633	0.000475	4.749488	0.804585	-0.000047
1839	1.8288e+02	1.7087	-5.602182	0.000418	4.176274	0.707480	-0.000042
1840	1.8298e+02	1.6975	-5.654322	0.000524	5.240814	0.887818	-0.000052
1841	1.8308e+02	1.6877	-5.699130	0.000450	4.503825	0.762969	-0.000045
1842	1.8318e+02	1.6783	-5.747603	0.000487	4.872320	0.825393	-0.000049
1843	1.8328e+02	1.6676	-5.794040	0.000467	4.667600	0.790713	-0.000047
1844	1.8338e+02	1.6569	-5.838848	0.000450	4.503825	0.762969	-0.000045
1845	1.8348e+02	1.6461	-5.888544	0.000500	4.995151	0.846202	-0.000050
1846	1.8358e+02	1.6370	-5.932130	0.000438	4.380993	0.742160	-0.000044
1847	1.8368e+02	1.6294	-5.977345	0.000454	4.544769	0.769905	-0.000045
1848	1.8378e+02	1.6171	-6.026226	0.000491	4.913263	0.832329	-0.000049
1849	1.8388e+02	1.6085	-6.074292	0.000483	4.831376	0.818457	-0.000048
1850	1.8398e+02	1.5997	-6.119914	0.000459	4.585712	0.776841	-0.000046
1851	1.8407e+02	1.5866	-6.167166	0.000475	4.749488	0.804585	-0.000047
1852	1.8417e+02	1.5765	-6.215233	0.000483	4.831376	0.818457	-0.000048
1853	1.8427e+02	1.5673	-6.261670	0.000467	4.667600	0.790713	-0.000047
1854	1.8437e+02	1.5594	-6.304441	0.000430	4.299105	0.728288	-0.000043
1855	1.8447e+02	1.5502	-6.348841	0.000446	4.462881	0.756032	-0.000045
1856	1.8457e+02	1.5377	-6.396093	0.000475	4.749488	0.804585	-0.000047
1857	1.8467e+02	1.5313	-6.436012	0.000401	4.012498	0.679736	-0.000040
1858	1.8477e+02	1.5159	-6.484486	0.000487	4.872320	0.825393	-0.000049
1859	1.8487e+02	1.5054	-6.528072	0.000438	4.380993	0.742160	-0.000044
1860	1.8497e+02	1.4976	-6.574916	0.000471	4.708544	0.797649	-0.000047
1861	1.8507e+02	1.4909	-6.619724	0.000450	4.503825	0.762969	-0.000045
1862	1.8517e+02	1.4793	-6.664124	0.000446	4.462881	0.756032	-0.000045
1863	1.8527e+02	1.4693	-6.707302	0.000434	4.340049	0.735224	-0.000043
1864	1.8537e+02	1.4593	-6.752517	0.000454	4.544769	0.769905	-0.000045
1865	1.8547e+02	1.4465	-6.798955	0.000467	4.667600	0.790713	-0.000047
1866	1.8557e+02	1.4354	-6.845392	0.000467	4.667600	0.790713	-0.000047
1867	1.8567e+02	1.4283	-6.889792	0.000446	4.462881	0.756032	-0.000045
1868	1.8577e+02	1.4172	-6.932970	0.000434	4.340049	0.735224	-0.000043
1869	1.8587e+02	1.4070	-6.979815	0.000471	4.708544	0.797649	-0.000047
1870	1.8597e+02	1.3969	-7.022993	0.000434	4.340049	0.735224	-0.000043
1871	1.8606e+02	1.3897	-7.067393	0.000446	4.462881	0.756032	-0.000045
1872	1.8616e+02	1.3779	-7.117904	0.000508	5.077039	0.860074	-0.000051
1873	1.8626e+02	1.3684	-7.159453	0.000418	4.176274	0.707480	-0.000042
1874	1.8636e+02	1.3600	-7.198150	0.000389	3.889667	0.658927	-0.000039
1875	1.8646e+02	1.3494	-7.244995	0.000471	4.708544	0.797649	-0.000047
1876	1.8656e+02	1.3380	-7.289802	0.000450	4.503825	0.762969	-0.000045
1877	1.8666e+02	1.3312	-7.330944	0.000414	4.135330	0.700544	-0.000041
1878	1.8676e+02	1.3171	-7.374937	0.000442	4.421937	0.749096	-0.000044
1879	1.8686e+02	1.3079	-7.417301	0.000426	4.258162	0.721352	-0.000043
1880	1.8696e+02	1.3001	-7.460071	0.000430	4.299105	0.728288	-0.000043
1881	1.8706e+02	1.2887	-7.505694	0.000459	4.585712	0.776841	-0.000046
1882	1.8716e+02	1.2798	-7.548465	0.000430	4.299105	0.728288	-0.000043
1883	1.8726e+02	1.2701	-7.594495	0.000463	4.626656	0.783777	-0.000046
1884	1.8736e+02	1.2582	-7.635636	0.000414	4.135330	0.700544	-0.000041
1885	1.8746e+02	1.2521	-7.675556	0.000401	4.012498	0.679736	-0.000040
1886	1.8756e+02	1.2418	-7.718734	0.000434	4.340049	0.735224	-0.000043
1887	1.8766e+02	1.2296	-7.764764	0.000463	4.626656	0.783777	-0.000046
1888	1.8776e+02	1.2197	-7.802239	0.000377	3.766835	0.638119	-0.000038
1889	1.8786e+02	1.2083	-7.845825	0.000438	4.380993	0.742160	-0.000044
1890	1.8796e+02	1.2016	-7.893891	0.000483	4.831376	0.818457	-0.000048
1891	1.8806e+02	1.1898	-7.933404	0.000397	3.971555	0.672800	-0.000040
1892	1.8815e+02	1.1790	-7.974545	0.000414	4.135330	0.700544	-0.000041
1893	1.8825e+02	1.1712	-8.020982	0.000467	4.667600	0.790713	-0.000047
1894	1.8835e+02	1.1600	-8.064160	0.000434	4.340049	0.735224	-0.000043
1895	1.8845e+02	1.1498	-8.107746	0.000438	4.380993	0.742160	-0.000044
1896	1.8855e+02	1.1427	-8.154591	0.000471	4.708544	0.797649	-0.000047
1897	1.8865e+02	1.1304	-8.203879	0.000495	4.954207	0.839265	-0.000050
1898	1.8875e+02	1.1204	-8.245835	0.000422	4.217218	0.714416	-0.000042
1899	1.8885e+02	1.1092	-8.290643	0.000450	4.503825	0.762969	-0.000045
1900	1.8895e+02	1.1034	-8.341968	0.000516	5.158927	0.873946	-0.000052
1901	1.8905e+02	1.0891	-8.383517	0.000418	4.176274	0.707480	-0.000042
1902	1.8915e+02	1.0816	-8.427917	0.000446	4.462881	0.756032	-0.000045
1903	1.8925e+02	1.0722	-8.477206	0.000495	4.954207	0.839265	-0.000050
1904	1.8935e+02	1.0601	-8.522014	0.000450	4.503825	0.762969	-0.000045
1905	1.8945e+02	1.0497	-8.569265	0.000475	4.749488	0.804585	-0.000047
1906	1.8955e+02	1.0427	-8.615295	0.000463	4.626656	0.783777	-0.000046
1907	1.8965e+02	1.0297	-8.659288	0.000442	4.421937	0.749096	-0.000044
1908	1.8975e+02	1.0213	-8.707354	0.000483	4.831376	0.818457	-0.000048
1909	1.8985e+02	1.0120	-8.753384	0.000463	4.626656	0.783777	-0.000046
1910	1.8995e+02	1.0006	-8.802673	0.000495	4.954207	0.839265	-0.000050
1911	1.9004e+02	0.9907	-8.845036	0.000426	4.258162	0.721352	-0.000043
1912	1.9014e+02	0.9776	-8.892288	0.000475	4.749488	0.804585	-0.000047
1913	1.9024e+02	0.9715	-8.941984	0.000500	4.995151	0.846202	-0.000050
1914	1.9034e+02	0.9623	-8.988421	0.000467	4.667600	0.790713	-0.000047
1915	1.9044e+02	0.9492	-9.034450	0.000463	4.626656	0.783777	-0.000046
1916	1.9054e+02	0.9412	-9.078851	0.000446	4.462881	0.756032	-0.000045
1917	1.9064e+02	0.9331	-9.124473	0.000459	4.585712	0.776841	-0.000046
1918	1.9074e+02	0.9232	-9.173354	0.000491	4.913263	0.832329	-0.000049
1919	1.9084e+02	0.9128	-9.212459	0.000393	3.930611	0.665863	-0.000039
1920	1.9094e+02	0.9050	-9.259304	0.000471	4.708544	0.797649	-0.000047
1921	1.9104e+02	0.8911	-9.306148	0.000471	4.708544	0.797649	-0.000047
1922	1.9114e+02	0.8808	-9.348919	0.000430	4.299105	0.728288	-0.000043
1923	1.9124e+02	0.8720	-9.393727	0.000450	4.503825	0.762969	-0.000045
1924	1.9134e+02	0.8609	-9.445052	0.000516	5.158927	0.873946	-0.000052
1925	1.9144e+02	0.8511	-9.491489	0.000467	4.667600	0.790713	-0.000047
1926	1.9154e+02	0.8409	-9.533445	0.000422	4.217218	0.714416	-0.000042
1927	1.9164e+02	0.8334	-9.584770	0.000516	5.158927	0.873946	-0.000052
1928	1.9174e+02	0.8232	-9.628763	0.000442	4.421937	0.749096	-0.000044
1929	1.9184e+02	0.8130	-9.671127	0.000426	4.258162	0.721352	-0.000043
1930	1.9194e+02	0.8030	-9.715120	0.000442	4.421937	0.749096	-0.000044
1931	1.9203e+02	0.7911	-9.764408	0.000495	4.954207	0.839265	-0.000050
1932	1.9213e+02	0.7807	-9.811660	0.000475	4.749488	0.804585	-0.000047
1933	1.9223e+02	0.7755	-9.857690	0.000463	4.626656	0.783777	-0.000046
1934	1.9233e+02	0.7610	-9.905756	0.000483	4.831376	0.818457	-0.000048
1935	1.9243e+02	0.7545	-9.955452	0.000500	4.995151	0.846202	-0.000050
1936	1.9253e+02	0.7426	-9.999852	0.000446	4.462881	0.756032	-0.000045
1937	1.9263e+02	0.7345	-10.049141	0.000495	4.954207	0.839265	-0.000050
1938	1.9273e+02	0.7233	-10.099651	0.000508	5.077039	0.860074	-0.000051
1939	1.9283e+02	0.7132	-10.146088	0.000467	4.667600	0.790713	-0.000047
1940	1.9293e+02	0.7024	-10.195377	0.000495	4.954207	0.839265	-0.000050
1941	1.9303e+02	0.6942	-10.241406	0.000463	4.626656	0.783777	-0.000046
1942	1.9313e+02	0.6800	-10.291102	0.000500	4.995151	0.846202	-0.000050
1943	1.9323e+02	0.6692	-10.342020	0.000512	5.117983	0.867010	-0.000051
1944	1.9333e+02	0.6603	-10.388050	0.000463	4.626656	0.783777	-0.000046
1945	1.9343e+02	0.6517	-10.438560	0.000508	5.077039	0.860074	-0.000051
1946	1.9353e+02	0.6454	-10.484183	0.000459	4.585712	0.776841	-0.000046
1947	1.9363e+02	0.6318	-10.534286	0.000504	5.036095	0.853138	-0.000050
1948	1.9373e+02	0.6214	-10.587648	0.000536	5.363646	0.908626	-0.000054
1949	1.9383e+02	0.6126	-10.635307	0.000479	4.790432	0.811521	-0.000048
1950	1.9393e+02	0.5994	-10.684595	0.000495	4.954207	0.839265	-0.000050
1951	1.9403e+02	0.5907	-10.731032	0.000467	4.667600	0.790713	-0.000047
1952	1.9412e+02	0.5812	-10.779506	0.000487	4.872320	0.825393	-0.000049
1953	1.9422e+02	0.5737	-10.831646	0.000524	5.240814	0.887818	-0.000052
1954	1.9432e+02	0.5624	-10.879712	0.000483	4.831376	0.818457	-0.000048
1955	1.9442e+02	0.5547	-10.933074	0.000536	5.363646	0.908626	-0.000054
1956	1.9452e+02	0.5446	-10.979918	0.000471	4.708544	0.797649	-0.000047
1957	1.9462e+02	0.5332	-11.029614	0.000500	4.995151	0.846202	-0.000050
1958	1.9472e+02	0.5236	-11.082976	0.000536	5.363646	0.908626	-0.000054
1959	1.9482e+02	0.5132	-11.135931	0.000532	5.322702	0.901690	-0.000053
1960	1.9492e+02	0.5022	-11.187256	0.000516	5.158927	0.873946	-0.000052
1961	1.9502e+02	0.4932	-11.238174	0.000512	5.117983	0.867010	-0.000051
1962	1.9512e+02	0.4848	-11.290313	0.000524	5.240814	0.887818	-0.000052
1963	1.9522e+02	0.4753	-11.342861	0.000528	5.281758	0.894754	-0.000053
1964	1.9532e+02	0.4632	-11.394186	0.000516	5.158927	0.873946	-0.000052
1965	1.9542e+02	0.4555	-11.444696	0.000508	5.077039	0.860074	-0.000051
1966	1.9552e+02	0.4429	-11.498058	0.000536	5.363646	0.908626	-0.000054
1967	1.9562e+02	0.4333	-11.546125	0.000483	4.831376	0.818457	-0.000048
1968	1.9572e+02	0.4256	-11.599894	0.000540	5.404590	0.915562	-0.000054
1969	1.9582e+02	0.4131	-11.653663	0.000540	5.404590	0.915562	-0.000054
1970	1.9592e+02	0.4059	-11.709469	0.000561	5.609309	0.950243	-0.000056
1971	1.9601e+02	0.3951	-11.759979	0.000508	5.077039	0.860074	-0.000051
1972	1.9611e+02	0.3841	-11.812527	0.000528	5.281758	0.894754	-0.000053
1973	1.9621e+02	0.3716	-11.869962	0.000577	5.773084	0.977987	-0.000058
1974	1.9631e+02	0.3647	-11.918436	0.000487	4.872320	0.825393	-0.000049
1975	1.9641e+02	0.3538	-11.973020	0.000549	5.486477	0.929434	-0.000055
1976	1.9651e+02	0.3460	-12.020679	0.000479	4.790432	0.811521	-0.000048
1977	1.9661e+02	0.3331	-12.074041	0.000536	5.363646	0.908626	-0.000054
1978	1.9671e+02	0.3238	-12.127402	0.000536	5.363646	0.908626	-0.000054
1979	1.9681e+02	0.3153	-12.174654	0.000475	4.749488	0.804585	-0.000047
1980	1.9691e+02	0.3058	-12.225165	0.000508	5.077039	0.860074	-0.000051
1981	1.9701e+02	0.2941	-12.276490	0.000516	5.158927	0.873946	-0.000052
1982	1.9711e+02	0.2876	-12.327408	0.000512	5.117983	0.867010	-0.000051
1983	1.9721e+02	0.2728	-12.379955	0.000528	5.281758	0.894754	-0.000053
1984	1.9731e+02	0.2623	-12.430058	0.000504	5.036095	0.853138	-0.000050
1985	1.9741e+02	0.2552	-12.483827	0.000540	5.404590	0.915562	-0.000054
1986	1.9751e+02	0.2438	-12.529857	0.000463	4.626656	0.783777	-0.000046
1987	1.9761e+02	0.2337	-12.583219	0.000536	5.363646	0.908626	-0.000054
1988	1.9771e+02	0.2240	-12.632100	0.000491	4.913263	0.832329	-0.000049
1989	1.9781e+02	0.2151	-12.681388	0.000495	4.954207	0.839265	-0.000050
1990	1.9791e+02	0.2020	-12.734750	0.000536	5.363646	0.908626	-0.000054
1991	1.9800e+02	0.1955	-12.780780	0.000463	4.626656	0.783777	-0.000046
1992	1.9810e+02	0.1823	-12.834549	0.000540	5.404590	0.915562	-0.000054
1993	1.9820e+02	0.1744	-12.883023	0.000487	4.872320	0.825393	-0.000049
1994	1.9830e+02	0.1675	-12.931904	0.000491	4.913263	0.832329	-0.000049
1995	1.9840e+02	0.1553	-12.984859	0.000532	5.322702	0.901690	-0.000053
1996	1.9850e+02	0.1433	-13.036184	0.000516	5.158927	0.873946	-0.000052
1997	1.9860e+02	0.1334	-13.086694	0.000508	5.077039	0.860074	-0.000051
1998	1.9870e+02	0.1253	-13.134353	0.000479	4.790432	0.811521	-0.000048
1999	1.9880e+02	0.1144	-13.185678	0.000516	5.158927	0.873946	-0.000052
2000	1.9890e+02	0.1052	-13.240670	0.000553	5.527421	0.936371	-0.000055
2001	1.9900e+02	0.0964	-13.289551	0.000491	4.913263	0.832329	-0.000049
2002	1.9910e+02	0.0858	-13.342505	0.000532	5.322702	0.901690	-0.000053
2003	1.9920e+02	0.0780	-13.397497	0.000553	5.527421	0.936371	-0.000055
2004	1.9930e+02	0.0655	-13.448007	0.000508	5.077039	0.860074	-0.000051
2005	1.9940e+02	0.0577	-13.501369	0.000536	5.363646	0.908626	-0.000054
2006	1.9950e+02	0.0479	-13.554323	0.000532	5.322702	0.901690	-0.000053
2007	1.9960e+02	0.0352	-13.605649	0.000516	5.158927	0.873946	-0.000052
2008	1.9970e+02	0.0266	-13.654937	0.000495	4.954207	0.839265	-0.000050
2009	1.9980e+02	0.0141	-13.707077	0.000524	5.240814	0.887818	-0.000052
2010	1.9990e+02	0.0071	-13.758402	0.000516	5.158927	0.873946	-0.000052
2011	2.0000e+02	-0.0027	-13.808912	0.000516	5.158927	0.873946	-0.000051

PMax (uC/cm2):	3.98e+01
Pr (uC/cm2):	6.07e+00
-Pr (uC/cm2):	0.00e+00
PLoss (uC/cm2):	0.00e+00
C (Max-Eff) (nF):	3.98e-01
K (Eff):	6.74e+02
Vert. (+/-Pr) Shift (uC/cm2):	3.03e+00
Offset (uC/cm2):	1.99e+01

A (Loop Area - uC/cm2·Volts):	-5.96e-02



Hysteresis Version: 5.48.1 - Radiant Technologies, Inc., 1999 - 9/12/24

