»»»»»»»»»»»»»»»»»»»»»»»»»»»»»»»»»»»» Hysteresis ««««««««««««««««««««««««««««««««««««
»»»  Executed Version:	5.48.1
»»»  Vision Version:	5.48.4 (R)
»»»  Vision Compiled:	9/18/24
»»»  Driver Version:	5.47.0
»»»  Windows Version:	Windows 8 or 8.1
»»»  Processor Information:	x86 (AMD or Intel) - 32 Processors
»»»  Tester Name:	PMF21124-494 (100V)
»»»  Tester S/N:	PMF21124-494
»»»  Internal Amp Type:	100V RevK 270k
»»»  Internal Amp S/N:	iAB2-596/K     
»»»  Execution Count:	1
»»»»»»»»»»»»»»»»»»»»»»»»»»»»»»»»»»»»»»»»»»««««««««««««««««««««««««««««««««««««««««««

Stored:	6/27/2025 - 11:44:56
Configured:	06/27/25 11:23:28 AM
Executed:	06/27/25 11:44:24 AM

»»»»»»»»»»»»»»»»»»»»»»»»»»»»»»»»»»» Sample Info ««««««««««««««««««««««««««««««««««««
Sample Name:	
Lot Name:	
Wafer Name:	
Die Row/Column:	0/0
Capacitor Number:	0
Sample Area (cm2):	1.00e-04
Sample Thickness (microns):	1.50e-01

Amplifier:	Internal

»»»»»»»»»»»»»»»»»»»»»»»»»»»»»»»»»»» Tester Info «««««««««««««««««««««««««««««««««««
Tester Name:	PMF21124-494 (100V)
Tester Serial Number:	PMF21124-494
Return Signal Amp. Level:	1.9 [Index: 2]

»»»»»»»»»»»»»»»»»»»»»»»»»»»»»»»» Hysteresis Info ««««««««««««««««««««««««««««««««««
Task Name:	Hyst-1276
Volts:	10.00
Field:	666.67 (kV/cm)
DCBias:	0.00
DCField:	0.00 (kV/cm)
Hysteresis Period (ms):	2.00e+02
Preset:	Enabled
Preset Delay (ms):	1.00e+03
Profile:	Standard Monopolar

»»»»»»»»»»»»»»»»»»»»»»»»»»»»»»»»»»»»»» Data «««««««««««««««««««««««««««««««««««««««
Points:	2011

Valid Data

Point	Time (ms)	Drive Voltage	Measured Polarization (uC/cm2)	Capacitance (uF)	Normalized Capacitance (uF/cm2)	Dielectric Constant	Instantaneous Current (mA)
   1	0.0000e+00	-0.0042	-18.048534	0.000364	3.644588	0.617410	0.000036
   2	9.9500e-02	0.0034	-18.012280	0.000364	3.644588	0.617410	0.000036
   3	1.9900e-01	0.0163	-17.972361	0.000401	4.013142	0.679845	0.000040
   4	2.9850e-01	0.0260	-17.928775	0.000438	4.381695	0.742279	0.000044
   5	3.9800e-01	0.0345	-17.890485	0.000385	3.849340	0.652096	0.000038
   6	4.9750e-01	0.0465	-17.850158	0.000405	4.054092	0.686782	0.000041
   7	5.9700e-01	0.0546	-17.809016	0.000414	4.135993	0.700656	0.000041
   8	6.9650e-01	0.0669	-17.768689	0.000405	4.054092	0.686782	0.000041
   9	7.9600e-01	0.0755	-17.724289	0.000446	4.463596	0.756154	0.000045
  10	8.9550e-01	0.0835	-17.683962	0.000405	4.054092	0.686782	0.000041
  11	9.9500e-01	0.0945	-17.640377	0.000438	4.381695	0.742279	0.000044
  12	1.0945e+00	0.1037	-17.598013	0.000426	4.258844	0.721468	0.000043
  13	1.1940e+00	0.1122	-17.557279	0.000410	4.095042	0.693719	0.000041
  14	1.2935e+00	0.1258	-17.521433	0.000360	3.603637	0.610473	0.000036
  15	1.3930e+00	0.1348	-17.480698	0.000410	4.095042	0.693719	0.000041
  16	1.4925e+00	0.1424	-17.439964	0.000410	4.095042	0.693719	0.000041
  17	1.5920e+00	0.1552	-17.398822	0.000414	4.135993	0.700656	0.000041
  18	1.6915e+00	0.1659	-17.358903	0.000401	4.013142	0.679845	0.000040
  19	1.7910e+00	0.1744	-17.320205	0.000389	3.890290	0.659033	0.000039
  20	1.8905e+00	0.1843	-17.278656	0.000418	4.176943	0.707593	0.000042
  21	1.9900e+00	0.1965	-17.238737	0.000401	4.013142	0.679845	0.000040
  22	2.0895e+00	0.2045	-17.199632	0.000393	3.931241	0.665970	0.000039
  23	2.1890e+00	0.2158	-17.155639	0.000442	4.422646	0.749216	0.000044
  24	2.2885e+00	0.2241	-17.114497	0.000414	4.135993	0.700656	0.000041
  25	2.3880e+00	0.2333	-17.074170	0.000405	4.054092	0.686782	0.000041
  26	2.4875e+00	0.2455	-17.032621	0.000418	4.176943	0.707593	0.000042
  27	2.5870e+00	0.2569	-16.992295	0.000405	4.054092	0.686782	0.000041
  28	2.6865e+00	0.2651	-16.950746	0.000418	4.176943	0.707593	0.000042
  29	2.7860e+00	0.2746	-16.911641	0.000393	3.931241	0.665970	0.000039
  30	2.8855e+00	0.2825	-16.870092	0.000418	4.176943	0.707593	0.000042
  31	2.9850e+00	0.2943	-16.829765	0.000405	4.054092	0.686782	0.000041
  32	3.0845e+00	0.3026	-16.790660	0.000393	3.931241	0.665970	0.000039
  33	3.1840e+00	0.3130	-16.754406	0.000364	3.644588	0.617410	0.000036
  34	3.2835e+00	0.3238	-16.710006	0.000446	4.463596	0.756154	0.000045
  35	3.3830e+00	0.3345	-16.668457	0.000418	4.176943	0.707593	0.000042
  36	3.4825e+00	0.3450	-16.628130	0.000405	4.054092	0.686782	0.000041
  37	3.5820e+00	0.3534	-16.585767	0.000426	4.258844	0.721468	0.000043
  38	3.6815e+00	0.3664	-16.538515	0.000475	4.750249	0.804714	0.000047
  39	3.7810e+00	0.3741	-16.499817	0.000389	3.890290	0.659033	0.000039
  40	3.8805e+00	0.3831	-16.459083	0.000410	4.095042	0.693719	0.000041
  41	3.9800e+00	0.3931	-16.414683	0.000446	4.463596	0.756154	0.000045
  42	4.0795e+00	0.4032	-16.369875	0.000450	4.504547	0.763091	0.000045
  43	4.1790e+00	0.4153	-16.330770	0.000393	3.931241	0.665970	0.000039
  44	4.2785e+00	0.4234	-16.281482	0.000496	4.955001	0.839400	0.000050
  45	4.3780e+00	0.4364	-16.239118	0.000426	4.258844	0.721468	0.000043
  46	4.4775e+00	0.4445	-16.200421	0.000389	3.890290	0.659033	0.000039
  47	4.5770e+00	0.4533	-16.158057	0.000426	4.258844	0.721468	0.000043
  48	4.6765e+00	0.4651	-16.112435	0.000459	4.586447	0.776965	0.000046
  49	4.7760e+00	0.4733	-16.067627	0.000450	4.504547	0.763091	0.000045
  50	4.8755e+00	0.4845	-16.026893	0.000410	4.095042	0.693719	0.000041
  51	4.9750e+00	0.4901	-15.982900	0.000442	4.422646	0.749216	0.000044
  52	5.0745e+00	0.5027	-15.939314	0.000438	4.381695	0.742279	0.000044
  53	5.1740e+00	0.5117	-15.892877	0.000467	4.668348	0.790840	0.000047
  54	5.2735e+00	0.5225	-15.848884	0.000442	4.422646	0.749216	0.000044
  55	5.3730e+00	0.5356	-15.798374	0.000508	5.077853	0.860212	0.000051
  56	5.4725e+00	0.5445	-15.756825	0.000418	4.176943	0.707593	0.000042
  57	5.5720e+00	0.5524	-15.712832	0.000442	4.422646	0.749216	0.000044
  58	5.6715e+00	0.5633	-15.663950	0.000491	4.914051	0.832463	0.000049
  59	5.7710e+00	0.5779	-15.623216	0.000410	4.095042	0.693719	0.000041
  60	5.8705e+00	0.5827	-15.572298	0.000512	5.118803	0.867149	0.000051
  61	5.9700e+00	0.5970	-15.528305	0.000442	4.422646	0.749216	0.000044
  62	6.0695e+00	0.6023	-15.484312	0.000442	4.422646	0.749216	0.000044
  63	6.1690e+00	0.6153	-15.440319	0.000442	4.422646	0.749216	0.000044
  64	6.2685e+00	0.6221	-15.396734	0.000438	4.381695	0.742279	0.000044
  65	6.3680e+00	0.6308	-15.350704	0.000463	4.627398	0.783902	0.000046
  66	6.4675e+00	0.6435	-15.304267	0.000467	4.668348	0.790840	0.000047
  67	6.5670e+00	0.6517	-15.257015	0.000475	4.750249	0.804714	0.000047
  68	6.6665e+00	0.6621	-15.213430	0.000438	4.381695	0.742279	0.000044
  69	6.7660e+00	0.6725	-15.166178	0.000475	4.750249	0.804714	0.000047
  70	6.8655e+00	0.6841	-15.124222	0.000422	4.217894	0.714531	0.000042
  71	6.9650e+00	0.6934	-15.072489	0.000520	5.200704	0.881023	0.000052
  72	7.0645e+00	0.6999	-15.028089	0.000446	4.463596	0.756154	0.000045
  73	7.1640e+00	0.7123	-14.983688	0.000446	4.463596	0.756154	0.000045
  74	7.2635e+00	0.7225	-14.942139	0.000418	4.176943	0.707593	0.000042
  75	7.3630e+00	0.7316	-14.897332	0.000450	4.504547	0.763091	0.000045
  76	7.4625e+00	0.7435	-14.852931	0.000446	4.463596	0.756154	0.000045
  77	7.5620e+00	0.7548	-14.809753	0.000434	4.340745	0.735342	0.000043
  78	7.6615e+00	0.7633	-14.764945	0.000450	4.504547	0.763091	0.000045
  79	7.7610e+00	0.7714	-14.721767	0.000434	4.340745	0.735342	0.000043
  80	7.8605e+00	0.7809	-14.679811	0.000422	4.217894	0.714531	0.000042
  81	7.9600e+00	0.7946	-14.635003	0.000450	4.504547	0.763091	0.000045
  82	8.0595e+00	0.8022	-14.593047	0.000422	4.217894	0.714531	0.000042
  83	8.1590e+00	0.8127	-14.551905	0.000414	4.135993	0.700656	0.000041
  84	8.2585e+00	0.8202	-14.507505	0.000446	4.463596	0.756154	0.000045
  85	8.3580e+00	0.8330	-14.459846	0.000479	4.791200	0.811651	0.000048
  86	8.4575e+00	0.8427	-14.418704	0.000414	4.135993	0.700656	0.000041
  87	8.5570e+00	0.8524	-14.378785	0.000401	4.013142	0.679845	0.000040
  88	8.6565e+00	0.8652	-14.333570	0.000455	4.545497	0.770028	0.000045
  89	8.7560e+00	0.8715	-14.292021	0.000418	4.176943	0.707593	0.000042
  90	8.8555e+00	0.8801	-14.249250	0.000430	4.299794	0.728405	0.000043
  91	8.9550e+00	0.8900	-14.203627	0.000459	4.586447	0.776965	0.000046
  92	9.0545e+00	0.9017	-14.163301	0.000405	4.054092	0.686782	0.000041
  93	9.1540e+00	0.9124	-14.120530	0.000430	4.299794	0.728405	0.000043
  94	9.2535e+00	0.9211	-14.077759	0.000430	4.299794	0.728405	0.000043
  95	9.3530e+00	0.9284	-14.030507	0.000475	4.750249	0.804714	0.000047
  96	9.4525e+00	0.9414	-13.989773	0.000410	4.095042	0.693719	0.000041
  97	9.5520e+00	0.9527	-13.945780	0.000442	4.422646	0.749216	0.000044
  98	9.6515e+00	0.9617	-13.904638	0.000414	4.135993	0.700656	0.000041
  99	9.7510e+00	0.9705	-13.858201	0.000467	4.668348	0.790840	0.000047
 100	9.8505e+00	0.9804	-13.817874	0.000405	4.054092	0.686782	0.000041
 101	9.9500e+00	0.9913	-13.769808	0.000483	4.832150	0.818588	0.000048
 102	1.0050e+01	0.9989	-13.725815	0.000442	4.422646	0.749216	0.000044
 103	1.0149e+01	1.0102	-13.679785	0.000463	4.627398	0.783902	0.000046
 104	1.0248e+01	1.0201	-13.637829	0.000422	4.217894	0.714531	0.000042
 105	1.0348e+01	1.0313	-13.590170	0.000479	4.791200	0.811651	0.000048
 106	1.0447e+01	1.0386	-13.547806	0.000426	4.258844	0.721468	0.000043
 107	1.0547e+01	1.0481	-13.505850	0.000422	4.217894	0.714531	0.000042
 108	1.0646e+01	1.0593	-13.462671	0.000434	4.340745	0.735342	0.000043
 109	1.0746e+01	1.0704	-13.421530	0.000414	4.135993	0.700656	0.000041
 110	1.0845e+01	1.0802	-13.377537	0.000442	4.422646	0.749216	0.000044
 111	1.0945e+01	1.0909	-13.331100	0.000467	4.668348	0.790840	0.000047
 112	1.1044e+01	1.1028	-13.290773	0.000405	4.054092	0.686782	0.000041
 113	1.1144e+01	1.1066	-13.242706	0.000483	4.832150	0.818588	0.000048
 114	1.1243e+01	1.1201	-13.198713	0.000442	4.422646	0.749216	0.000044
 115	1.1343e+01	1.1295	-13.154313	0.000446	4.463596	0.756154	0.000045
 116	1.1443e+01	1.1404	-13.112357	0.000422	4.217894	0.714531	0.000042
 117	1.1542e+01	1.1502	-13.069993	0.000426	4.258844	0.721468	0.000043
 118	1.1642e+01	1.1588	-13.025185	0.000450	4.504547	0.763091	0.000045
 119	1.1741e+01	1.1720	-12.982007	0.000434	4.340745	0.735342	0.000043
 120	1.1841e+01	1.1797	-12.939643	0.000426	4.258844	0.721468	0.000043
 121	1.1940e+01	1.1897	-12.898095	0.000418	4.176943	0.707593	0.000042
 122	1.2040e+01	1.2012	-12.859397	0.000389	3.890290	0.659033	0.000039
 123	1.2139e+01	1.2090	-12.814589	0.000450	4.504547	0.763091	0.000045
 124	1.2239e+01	1.2193	-12.774262	0.000405	4.054092	0.686782	0.000041
 125	1.2338e+01	1.2305	-12.737602	0.000369	3.685538	0.624347	0.000037
 126	1.2438e+01	1.2411	-12.690350	0.000475	4.750249	0.804714	0.000047
 127	1.2537e+01	1.2531	-12.650023	0.000405	4.054092	0.686782	0.000041
 128	1.2636e+01	1.2604	-12.611325	0.000389	3.890290	0.659033	0.000039
 129	1.2736e+01	1.2711	-12.570591	0.000410	4.095042	0.693719	0.000041
 130	1.2835e+01	1.2813	-12.527413	0.000434	4.340745	0.735342	0.000043
 131	1.2935e+01	1.2873	-12.489530	0.000381	3.808389	0.645159	0.000038
 132	1.3034e+01	1.2978	-12.449203	0.000405	4.054092	0.686782	0.000041
 133	1.3134e+01	1.3103	-12.402766	0.000467	4.668348	0.790840	0.000047
 134	1.3233e+01	1.3189	-12.366513	0.000364	3.644588	0.617410	0.000036
 135	1.3333e+01	1.3283	-12.327815	0.000389	3.890290	0.659033	0.000039
 136	1.3432e+01	1.3401	-12.286266	0.000418	4.176943	0.707593	0.000042
 137	1.3532e+01	1.3490	-12.248791	0.000377	3.767439	0.638221	0.000038
 138	1.3632e+01	1.3580	-12.208871	0.000401	4.013142	0.679845	0.000040
 139	1.3731e+01	1.3683	-12.173432	0.000356	3.562687	0.603535	0.000036
 140	1.3831e+01	1.3766	-12.131476	0.000422	4.217894	0.714531	0.000042
 141	1.3930e+01	1.3884	-12.090334	0.000414	4.135993	0.700656	0.000041
 142	1.4030e+01	1.4005	-12.053266	0.000373	3.726489	0.631284	0.000037
 143	1.4129e+01	1.4090	-12.014976	0.000385	3.849340	0.652096	0.000038
 144	1.4229e+01	1.4218	-11.977908	0.000373	3.726489	0.631284	0.000037
 145	1.4328e+01	1.4276	-11.938395	0.000397	3.972191	0.672907	0.000040
 146	1.4428e+01	1.4379	-11.897254	0.000414	4.135993	0.700656	0.000041
 147	1.4527e+01	1.4461	-11.860186	0.000373	3.726489	0.631284	0.000037
 148	1.4627e+01	1.4589	-11.820266	0.000401	4.013142	0.679845	0.000040
 149	1.4726e+01	1.4686	-11.781976	0.000385	3.849340	0.652096	0.000038
 150	1.4825e+01	1.4782	-11.744500	0.000377	3.767439	0.638221	0.000038
 151	1.4925e+01	1.4906	-11.705803	0.000389	3.890290	0.659033	0.000039
 152	1.5024e+01	1.4989	-11.669549	0.000364	3.644588	0.617410	0.000036
 153	1.5124e+01	1.5076	-11.628000	0.000418	4.176943	0.707593	0.000042
 154	1.5223e+01	1.5143	-11.592969	0.000352	3.521736	0.596598	0.000035
 155	1.5323e+01	1.5261	-11.553049	0.000401	4.013142	0.679845	0.000040
 156	1.5422e+01	1.5353	-11.513537	0.000397	3.972191	0.672907	0.000040
 157	1.5522e+01	1.5484	-11.476062	0.000377	3.767439	0.638221	0.000038
 158	1.5621e+01	1.5572	-11.434105	0.000422	4.217894	0.714531	0.000042
 159	1.5721e+01	1.5661	-11.395815	0.000385	3.849340	0.652096	0.000038
 160	1.5820e+01	1.5775	-11.356303	0.000397	3.972191	0.672907	0.000040
 161	1.5920e+01	1.5900	-11.314754	0.000418	4.176943	0.707593	0.000042
 162	1.6020e+01	1.5967	-11.274834	0.000401	4.013142	0.679845	0.000040
 163	1.6119e+01	1.6076	-11.238174	0.000369	3.685538	0.624347	0.000037
 164	1.6218e+01	1.6183	-11.197032	0.000414	4.135993	0.700656	0.000041
 165	1.6318e+01	1.6271	-11.155483	0.000418	4.176943	0.707593	0.000042
 166	1.6418e+01	1.6398	-11.111897	0.000438	4.381695	0.742279	0.000044
 167	1.6517e+01	1.6483	-11.077681	0.000344	3.439836	0.582724	0.000034
 168	1.6616e+01	1.6593	-11.032058	0.000459	4.586447	0.776965	0.000046
 169	1.6716e+01	1.6673	-10.995805	0.000364	3.644588	0.617410	0.000036
 170	1.6816e+01	1.6757	-10.956293	0.000397	3.972191	0.672907	0.000040
 171	1.6915e+01	1.6877	-10.917188	0.000393	3.931241	0.665970	0.000039
 172	1.7015e+01	1.6960	-10.878490	0.000389	3.890290	0.659033	0.000039
 173	1.7114e+01	1.7092	-10.831238	0.000475	4.750249	0.804714	0.000047
 174	1.7213e+01	1.7165	-10.798244	0.000332	3.316984	0.561912	0.000033
 175	1.7313e+01	1.7266	-10.753436	0.000450	4.504547	0.763091	0.000045
 176	1.7413e+01	1.7403	-10.710665	0.000430	4.299794	0.728405	0.000043
 177	1.7512e+01	1.7505	-10.670745	0.000401	4.013142	0.679845	0.000040
 178	1.7611e+01	1.7582	-10.632455	0.000385	3.849340	0.652096	0.000038
 179	1.7711e+01	1.7664	-10.594572	0.000381	3.808389	0.645159	0.000038
 180	1.7811e+01	1.7789	-10.553838	0.000410	4.095042	0.693719	0.000041
 181	1.7910e+01	1.7865	-10.513104	0.000410	4.095042	0.693719	0.000041
 182	1.8009e+01	1.7951	-10.471555	0.000418	4.176943	0.707593	0.000042
 183	1.8109e+01	1.8059	-10.431228	0.000405	4.054092	0.686782	0.000041
 184	1.8209e+01	1.8166	-10.397011	0.000344	3.439836	0.582724	0.000034
 185	1.8308e+01	1.8278	-10.355462	0.000418	4.176943	0.707593	0.000042
 186	1.8407e+01	1.8349	-10.317172	0.000385	3.849340	0.652096	0.000038
 187	1.8507e+01	1.8508	-10.282955	0.000344	3.439836	0.582724	0.000034
 188	1.8607e+01	1.8561	-10.241406	0.000418	4.176943	0.707593	0.000042
 189	1.8706e+01	1.8653	-10.205153	0.000364	3.644588	0.617410	0.000036
 190	1.8805e+01	1.8759	-10.163604	0.000418	4.176943	0.707593	0.000042
 191	1.8905e+01	1.8874	-10.124499	0.000393	3.931241	0.665970	0.000039
 192	1.9005e+01	1.8987	-10.084987	0.000397	3.972191	0.672907	0.000040
 193	1.9104e+01	1.9077	-10.043845	0.000414	4.135993	0.700656	0.000041
 194	1.9203e+01	1.9156	-10.007184	0.000369	3.685538	0.624347	0.000037
 195	1.9303e+01	1.9274	-9.967265	0.000401	4.013142	0.679845	0.000040
 196	1.9402e+01	1.9341	-9.930197	0.000373	3.726489	0.631284	0.000037
 197	1.9502e+01	1.9443	-9.889462	0.000410	4.095042	0.693719	0.000041
 198	1.9602e+01	1.9558	-9.857690	0.000319	3.194133	0.541101	0.000032
 199	1.9701e+01	1.9653	-9.816548	0.000414	4.135993	0.700656	0.000041
 200	1.9800e+01	1.9787	-9.779887	0.000369	3.685538	0.624347	0.000037
 201	1.9900e+01	1.9847	-9.739968	0.000401	4.013142	0.679845	0.000040
 202	2.0000e+01	1.9962	-9.699641	0.000405	4.054092	0.686782	0.000041
 203	2.0099e+01	2.0052	-9.659314	0.000405	4.054092	0.686782	0.000041
 204	2.0198e+01	2.0170	-9.618172	0.000414	4.135993	0.700656	0.000041
 205	2.0298e+01	2.0239	-9.578660	0.000397	3.972191	0.672907	0.000040
 206	2.0398e+01	2.0374	-9.540370	0.000385	3.849340	0.652096	0.000038
 207	2.0497e+01	2.0463	-9.495970	0.000446	4.463596	0.756154	0.000045
 208	2.0596e+01	2.0551	-9.459716	0.000364	3.644588	0.617410	0.000036
 209	2.0696e+01	2.0641	-9.416945	0.000430	4.299794	0.728405	0.000043
 210	2.0796e+01	2.0763	-9.379877	0.000373	3.726489	0.631284	0.000037
 211	2.0895e+01	2.0872	-9.334255	0.000459	4.586447	0.776965	0.000046
 212	2.0994e+01	2.0955	-9.295150	0.000393	3.931241	0.665970	0.000039
 213	2.1094e+01	2.1064	-9.255230	0.000401	4.013142	0.679845	0.000040
 214	2.1194e+01	2.1148	-9.217755	0.000377	3.767439	0.638221	0.000038
 215	2.1293e+01	2.1236	-9.176206	0.000418	4.176943	0.707593	0.000042
 216	2.1392e+01	2.1336	-9.136693	0.000397	3.972191	0.672907	0.000040
 217	2.1492e+01	2.1479	-9.095144	0.000418	4.176943	0.707593	0.000042
 218	2.1591e+01	2.1527	-9.056447	0.000389	3.890290	0.659033	0.000039
 219	2.1691e+01	2.1658	-9.012861	0.000438	4.381695	0.742279	0.000044
 220	2.1791e+01	2.1759	-8.973756	0.000393	3.931241	0.665970	0.000039
 221	2.1890e+01	2.1854	-8.924875	0.000491	4.914051	0.832463	0.000049
 222	2.1989e+01	2.1926	-8.885770	0.000393	3.931241	0.665970	0.000039
 223	2.2089e+01	2.2053	-8.842592	0.000434	4.340745	0.735342	0.000043
 224	2.2189e+01	2.2131	-8.799821	0.000430	4.299794	0.728405	0.000043
 225	2.2288e+01	2.2254	-8.757865	0.000422	4.217894	0.714531	0.000042
 226	2.2387e+01	2.2345	-8.713057	0.000450	4.504547	0.763091	0.000045
 227	2.2487e+01	2.2448	-8.669879	0.000434	4.340745	0.735342	0.000043
 228	2.2587e+01	2.2560	-8.628737	0.000414	4.135993	0.700656	0.000041
 229	2.2686e+01	2.2660	-8.589632	0.000393	3.931241	0.665970	0.000039
 230	2.2785e+01	2.2758	-8.548898	0.000410	4.095042	0.693719	0.000041
 231	2.2885e+01	2.2839	-8.503276	0.000459	4.586447	0.776965	0.000046
 232	2.2985e+01	2.2933	-8.461319	0.000422	4.217894	0.714531	0.000042
 233	2.3084e+01	2.3016	-8.418141	0.000434	4.340745	0.735342	0.000043
 234	2.3183e+01	2.3132	-8.372519	0.000459	4.586447	0.776965	0.000046
 235	2.3283e+01	2.3248	-8.331785	0.000410	4.095042	0.693719	0.000041
 236	2.3383e+01	2.3323	-8.289014	0.000430	4.299794	0.728405	0.000043
 237	2.3482e+01	2.3450	-8.247465	0.000418	4.176943	0.707593	0.000042
 238	2.3581e+01	2.3547	-8.201028	0.000467	4.668348	0.790840	0.000047
 239	2.3681e+01	2.3681	-8.164367	0.000369	3.685538	0.624347	0.000037
 240	2.3780e+01	2.3739	-8.122410	0.000422	4.217894	0.714531	0.000042
 241	2.3880e+01	2.3837	-8.078825	0.000438	4.381695	0.742279	0.000044
 242	2.3980e+01	2.3917	-8.037276	0.000418	4.176943	0.707593	0.000042
 243	2.4079e+01	2.4053	-7.999393	0.000381	3.808389	0.645159	0.000038
 244	2.4178e+01	2.4131	-7.958251	0.000414	4.135993	0.700656	0.000041
 245	2.4278e+01	2.4224	-7.913444	0.000450	4.504547	0.763091	0.000045
 246	2.4378e+01	2.4317	-7.879227	0.000344	3.439836	0.582724	0.000034
 247	2.4477e+01	2.4419	-7.839715	0.000397	3.972191	0.672907	0.000040
 248	2.4576e+01	2.4520	-7.795314	0.000446	4.463596	0.756154	0.000045
 249	2.4676e+01	2.4649	-7.757432	0.000381	3.808389	0.645159	0.000038
 250	2.4776e+01	2.4737	-7.718734	0.000389	3.890290	0.659033	0.000039
 251	2.4875e+01	2.4851	-7.680036	0.000389	3.890290	0.659033	0.000039
 252	2.4974e+01	2.4949	-7.640524	0.000397	3.972191	0.672907	0.000040
 253	2.5074e+01	2.5027	-7.600605	0.000401	4.013142	0.679845	0.000040
 254	2.5174e+01	2.5126	-7.561092	0.000397	3.972191	0.672907	0.000040
 255	2.5273e+01	2.5224	-7.522395	0.000389	3.890290	0.659033	0.000039
 256	2.5372e+01	2.5350	-7.482068	0.000405	4.054092	0.686782	0.000041
 257	2.5472e+01	2.5401	-7.445407	0.000369	3.685538	0.624347	0.000037
 258	2.5572e+01	2.5529	-7.402636	0.000430	4.299794	0.728405	0.000043
 259	2.5671e+01	2.5620	-7.360680	0.000422	4.217894	0.714531	0.000042
 260	2.5770e+01	2.5744	-7.326870	0.000340	3.398885	0.575787	0.000034
 261	2.5870e+01	2.5823	-7.281248	0.000459	4.586447	0.776965	0.000046
 262	2.5970e+01	2.5931	-7.247439	0.000340	3.398885	0.575787	0.000034
 263	2.6069e+01	2.6048	-7.206704	0.000410	4.095042	0.693719	0.000041
 264	2.6169e+01	2.6153	-7.168822	0.000381	3.808389	0.645159	0.000038
 265	2.6268e+01	2.6222	-7.130531	0.000385	3.849340	0.652096	0.000038
 266	2.6367e+01	2.6340	-7.084909	0.000459	4.586447	0.776965	0.000046
 267	2.6467e+01	2.6440	-7.047433	0.000377	3.767439	0.638221	0.000038
 268	2.6567e+01	2.6531	-7.006699	0.000410	4.095042	0.693719	0.000041
 269	2.6666e+01	2.6614	-6.965965	0.000410	4.095042	0.693719	0.000041
 270	2.6765e+01	2.6743	-6.928082	0.000381	3.808389	0.645159	0.000038
 271	2.6865e+01	2.6807	-6.886126	0.000422	4.217894	0.714531	0.000042
 272	2.6965e+01	2.6929	-6.846206	0.000401	4.013142	0.679845	0.000040
 273	2.7064e+01	2.7026	-6.800584	0.000459	4.586447	0.776965	0.000046
 274	2.7163e+01	2.7114	-6.766367	0.000344	3.439836	0.582724	0.000034
 275	2.7263e+01	2.7213	-6.723596	0.000430	4.299794	0.728405	0.000043
 276	2.7363e+01	2.7307	-6.686935	0.000369	3.685538	0.624347	0.000037
 277	2.7462e+01	2.7401	-6.648645	0.000385	3.849340	0.652096	0.000038
 278	2.7561e+01	2.7506	-6.609133	0.000397	3.972191	0.672907	0.000040
 279	2.7661e+01	2.7627	-6.566769	0.000426	4.258844	0.721468	0.000043
 280	2.7761e+01	2.7703	-6.526035	0.000410	4.095042	0.693719	0.000041
 281	2.7860e+01	2.7833	-6.487337	0.000389	3.890290	0.659033	0.000039
 282	2.7959e+01	2.7907	-6.446196	0.000414	4.135993	0.700656	0.000041
 283	2.8059e+01	2.8026	-6.409128	0.000373	3.726489	0.631284	0.000037
 284	2.8159e+01	2.8135	-6.367986	0.000414	4.135993	0.700656	0.000041
 285	2.8258e+01	2.8210	-6.329696	0.000385	3.849340	0.652096	0.000038
 286	2.8358e+01	2.8327	-6.288147	0.000418	4.176943	0.707593	0.000042
 287	2.8457e+01	2.8408	-6.253116	0.000352	3.521736	0.596598	0.000035
 288	2.8556e+01	2.8503	-6.216455	0.000369	3.685538	0.624347	0.000037
 289	2.8656e+01	2.8609	-6.177350	0.000393	3.931241	0.665970	0.000039
 290	2.8756e+01	2.8732	-6.135394	0.000422	4.217894	0.714531	0.000042
 291	2.8855e+01	2.8829	-6.101177	0.000344	3.439836	0.582724	0.000034
 292	2.8954e+01	2.8912	-6.063701	0.000377	3.767439	0.638221	0.000038
 293	2.9054e+01	2.9012	-6.026633	0.000373	3.726489	0.631284	0.000037
 294	2.9154e+01	2.9107	-5.989158	0.000377	3.767439	0.638221	0.000038
 295	2.9253e+01	2.9234	-5.951275	0.000381	3.808389	0.645159	0.000038
 296	2.9352e+01	2.9311	-5.914614	0.000369	3.685538	0.624347	0.000037
 297	2.9452e+01	2.9446	-5.878360	0.000364	3.644588	0.617410	0.000036
 298	2.9552e+01	2.9477	-5.843736	0.000348	3.480786	0.589661	0.000035
 299	2.9651e+01	2.9615	-5.801373	0.000426	4.258844	0.721468	0.000043
 300	2.9750e+01	2.9716	-5.765119	0.000364	3.644588	0.617410	0.000036
 301	2.9850e+01	2.9813	-5.730088	0.000352	3.521736	0.596598	0.000035
 302	2.9950e+01	2.9948	-5.691797	0.000385	3.849340	0.652096	0.000038
 303	3.0049e+01	3.0005	-5.661247	0.000307	3.071282	0.520289	0.000031
 304	3.0148e+01	3.0119	-5.624586	0.000369	3.685538	0.624347	0.000037
 305	3.0248e+01	3.0193	-5.592406	0.000324	3.235083	0.548038	0.000032
 306	3.0348e+01	3.0312	-5.556560	0.000360	3.603637	0.610473	0.000036
 307	3.0447e+01	3.0425	-5.523158	0.000336	3.357935	0.568850	0.000034
 308	3.0547e+01	3.0518	-5.489348	0.000340	3.398885	0.575787	0.000034
 309	3.0646e+01	3.0605	-5.450243	0.000393	3.931241	0.665970	0.000039
 310	3.0745e+01	3.0695	-5.417249	0.000332	3.316984	0.561912	0.000033
 311	3.0845e+01	3.0827	-5.382624	0.000348	3.480786	0.589661	0.000035
 312	3.0945e+01	3.0910	-5.348408	0.000344	3.439836	0.582724	0.000034
 313	3.1044e+01	3.0991	-5.314191	0.000344	3.439836	0.582724	0.000034
 314	3.1143e+01	3.1091	-5.276308	0.000381	3.808389	0.645159	0.000038
 315	3.1243e+01	3.1245	-5.246165	0.000303	3.030331	0.513352	0.000030
 316	3.1343e+01	3.1316	-5.211541	0.000348	3.480786	0.589661	0.000035
 317	3.1442e+01	3.1405	-5.179361	0.000324	3.235083	0.548038	0.000032
 318	3.1541e+01	3.1511	-5.143107	0.000364	3.644588	0.617410	0.000036
 319	3.1641e+01	3.1591	-5.111334	0.000319	3.194133	0.541101	0.000032
 320	3.1741e+01	3.1707	-5.077932	0.000336	3.357935	0.568850	0.000034
 321	3.1840e+01	3.1821	-5.044530	0.000336	3.357935	0.568850	0.000034
 322	3.1939e+01	3.1906	-5.010313	0.000344	3.439836	0.582724	0.000034
 323	3.2039e+01	3.2006	-4.976504	0.000340	3.398885	0.575787	0.000034
 324	3.2139e+01	3.2101	-4.939843	0.000369	3.685538	0.624347	0.000037
 325	3.2238e+01	3.2178	-4.908070	0.000319	3.194133	0.541101	0.000032
 326	3.2337e+01	3.2282	-4.871410	0.000369	3.685538	0.624347	0.000037
 327	3.2437e+01	3.2388	-4.835563	0.000360	3.603637	0.610473	0.000036
 328	3.2536e+01	3.2507	-4.797681	0.000381	3.808389	0.645159	0.000038
 329	3.2636e+01	3.2610	-4.764278	0.000336	3.357935	0.568850	0.000034
 330	3.2736e+01	3.2691	-4.733728	0.000307	3.071282	0.520289	0.000031
 331	3.2835e+01	3.2836	-4.693401	0.000405	4.054092	0.686782	0.000041
 332	3.2934e+01	3.2893	-4.659184	0.000344	3.439836	0.582724	0.000034
 333	3.3034e+01	3.3013	-4.623338	0.000360	3.603637	0.610473	0.000036
 334	3.3133e+01	3.3107	-4.582196	0.000414	4.135993	0.700656	0.000041
 335	3.3233e+01	3.3203	-4.553275	0.000291	2.907480	0.492540	0.000029
 336	3.3333e+01	3.3309	-4.516207	0.000373	3.726489	0.631284	0.000037
 337	3.3432e+01	3.3392	-4.481175	0.000352	3.521736	0.596598	0.000035
 338	3.3532e+01	3.3532	-4.443700	0.000377	3.767439	0.638221	0.000038
 339	3.3631e+01	3.3600	-4.411520	0.000324	3.235083	0.548038	0.000032
 340	3.3730e+01	3.3668	-4.375674	0.000360	3.603637	0.610473	0.000036
 341	3.3830e+01	3.3770	-4.338606	0.000373	3.726489	0.631284	0.000037
 342	3.3929e+01	3.3870	-4.304796	0.000340	3.398885	0.575787	0.000034
 343	3.4029e+01	3.3984	-4.269357	0.000356	3.562687	0.603535	0.000036
 344	3.4129e+01	3.4085	-4.229845	0.000397	3.972191	0.672907	0.000040
 345	3.4228e+01	3.4190	-4.193184	0.000369	3.685538	0.624347	0.000037
 346	3.4328e+01	3.4290	-4.158560	0.000348	3.480786	0.589661	0.000035
 347	3.4427e+01	3.4371	-4.121492	0.000373	3.726489	0.631284	0.000037
 348	3.4526e+01	3.4484	-4.086868	0.000348	3.480786	0.589661	0.000035
 349	3.4626e+01	3.4552	-4.055095	0.000319	3.194133	0.541101	0.000032
 350	3.4725e+01	3.4664	-4.021693	0.000336	3.357935	0.568850	0.000034
 351	3.4825e+01	3.4808	-3.983403	0.000385	3.849340	0.652096	0.000038
 352	3.4925e+01	3.4901	-3.946335	0.000373	3.726489	0.631284	0.000037
 353	3.5024e+01	3.4994	-3.915377	0.000311	3.112232	0.527226	0.000031
 354	3.5123e+01	3.5079	-3.885641	0.000299	2.989381	0.506415	0.000030
 355	3.5223e+01	3.5207	-3.848165	0.000377	3.767439	0.638221	0.000038
 356	3.5322e+01	3.5265	-3.814763	0.000336	3.357935	0.568850	0.000034
 357	3.5422e+01	3.5387	-3.783398	0.000315	3.153183	0.534164	0.000032
 358	3.5522e+01	3.5494	-3.748366	0.000352	3.521736	0.596598	0.000035
 359	3.5621e+01	3.5619	-3.711705	0.000369	3.685538	0.624347	0.000037
 360	3.5721e+01	3.5665	-3.676674	0.000352	3.521736	0.596598	0.000035
 361	3.5820e+01	3.5759	-3.640420	0.000364	3.644588	0.617410	0.000036
 362	3.5919e+01	3.5878	-3.605389	0.000352	3.521736	0.596598	0.000035
 363	3.6019e+01	3.5990	-3.573616	0.000319	3.194133	0.541101	0.000032
 364	3.6118e+01	3.6057	-3.538177	0.000356	3.562687	0.603535	0.000036
 365	3.6218e+01	3.6175	-3.506405	0.000319	3.194133	0.541101	0.000032
 366	3.6318e+01	3.6278	-3.469337	0.000373	3.726489	0.631284	0.000037
 367	3.6417e+01	3.6368	-3.436749	0.000328	3.276034	0.554975	0.000033
 368	3.6517e+01	3.6486	-3.409457	0.000274	2.743678	0.464792	0.000027
 369	3.6616e+01	3.6579	-3.371574	0.000381	3.808389	0.645159	0.000038
 370	3.6715e+01	3.6701	-3.336135	0.000356	3.562687	0.603535	0.000036
 371	3.6815e+01	3.6781	-3.302733	0.000336	3.357935	0.568850	0.000034
 372	3.6914e+01	3.6916	-3.262814	0.000401	4.013142	0.679845	0.000040
 373	3.7014e+01	3.6973	-3.233078	0.000299	2.989381	0.506415	0.000030
 374	3.7114e+01	3.7103	-3.192751	0.000405	4.054092	0.686782	0.000041
 375	3.7213e+01	3.7196	-3.157719	0.000352	3.521736	0.596598	0.000035
 376	3.7313e+01	3.7264	-3.119429	0.000385	3.849340	0.652096	0.000038
 377	3.7412e+01	3.7391	-3.086435	0.000332	3.316984	0.561912	0.000033
 378	3.7511e+01	3.7472	-3.049774	0.000369	3.685538	0.624347	0.000037
 379	3.7611e+01	3.7579	-3.015150	0.000348	3.480786	0.589661	0.000035
 380	3.7711e+01	3.7655	-2.982155	0.000332	3.316984	0.561912	0.000033
 381	3.7810e+01	3.7791	-2.945494	0.000369	3.685538	0.624347	0.000037
 382	3.7910e+01	3.7877	-2.909241	0.000364	3.644588	0.617410	0.000036
 383	3.8009e+01	3.7978	-2.876653	0.000328	3.276034	0.554975	0.000033
 384	3.8108e+01	3.8065	-2.839992	0.000369	3.685538	0.624347	0.000037
 385	3.8208e+01	3.8185	-2.800887	0.000393	3.931241	0.665970	0.000039
 386	3.8307e+01	3.8292	-2.764227	0.000369	3.685538	0.624347	0.000037
 387	3.8407e+01	3.8384	-2.728380	0.000360	3.603637	0.610473	0.000036
 388	3.8507e+01	3.8459	-2.690905	0.000377	3.767439	0.638221	0.000038
 389	3.8606e+01	3.8552	-2.654244	0.000369	3.685538	0.624347	0.000037
 390	3.8706e+01	3.8661	-2.615954	0.000385	3.849340	0.652096	0.000038
 391	3.8805e+01	3.8789	-2.579700	0.000364	3.644588	0.617410	0.000036
 392	3.8904e+01	3.8854	-2.538151	0.000418	4.176943	0.707593	0.000042
 393	3.9004e+01	3.8979	-2.500269	0.000381	3.808389	0.645159	0.000038
 394	3.9103e+01	3.9036	-2.464830	0.000356	3.562687	0.603535	0.000036
 395	3.9203e+01	3.9146	-2.425725	0.000393	3.931241	0.665970	0.000039
 396	3.9303e+01	3.9242	-2.390286	0.000356	3.562687	0.603535	0.000036
 397	3.9402e+01	3.9379	-2.351996	0.000385	3.849340	0.652096	0.000038
 398	3.9502e+01	3.9453	-2.313706	0.000385	3.849340	0.652096	0.000038
 399	3.9601e+01	3.9571	-2.273379	0.000405	4.054092	0.686782	0.000041
 400	3.9700e+01	3.9654	-2.233867	0.000397	3.972191	0.672907	0.000040
 401	3.9800e+01	3.9764	-2.198428	0.000356	3.562687	0.603535	0.000036
 402	3.9900e+01	3.9871	-2.159730	0.000389	3.890290	0.659033	0.000039
 403	3.9999e+01	3.9947	-2.123884	0.000360	3.603637	0.610473	0.000036
 404	4.0099e+01	4.0044	-2.085187	0.000389	3.890290	0.659033	0.000039
 405	4.0198e+01	4.0159	-2.045674	0.000397	3.972191	0.672907	0.000040
 406	4.0297e+01	4.0267	-2.011050	0.000348	3.480786	0.589661	0.000035
 407	4.0397e+01	4.0379	-1.972353	0.000389	3.890290	0.659033	0.000039
 408	4.0496e+01	4.0476	-1.930804	0.000418	4.176943	0.707593	0.000042
 409	4.0596e+01	4.0549	-1.895772	0.000352	3.521736	0.596598	0.000035
 410	4.0696e+01	4.0656	-1.863592	0.000324	3.235083	0.548038	0.000032
 411	4.0795e+01	4.0797	-1.823673	0.000401	4.013142	0.679845	0.000040
 412	4.0895e+01	4.0862	-1.791085	0.000328	3.276034	0.554975	0.000033
 413	4.0994e+01	4.0923	-1.754017	0.000373	3.726489	0.631284	0.000037
 414	4.1093e+01	4.1073	-1.715727	0.000385	3.849340	0.652096	0.000038
 415	4.1193e+01	4.1132	-1.682732	0.000332	3.316984	0.561912	0.000033
 416	4.1292e+01	4.1231	-1.647701	0.000352	3.521736	0.596598	0.000035
 417	4.1392e+01	4.1386	-1.613484	0.000344	3.439836	0.582724	0.000034
 418	4.1492e+01	4.1470	-1.576823	0.000369	3.685538	0.624347	0.000037
 419	4.1591e+01	4.1558	-1.542199	0.000348	3.480786	0.589661	0.000035
 420	4.1691e+01	4.1671	-1.509204	0.000332	3.316984	0.561912	0.000033
 421	4.1790e+01	4.1761	-1.470914	0.000385	3.849340	0.652096	0.000038
 422	4.1889e+01	4.1848	-1.441993	0.000291	2.907480	0.492540	0.000029
 423	4.1989e+01	4.1975	-1.400851	0.000414	4.135993	0.700656	0.000041
 424	4.2089e+01	4.2039	-1.366227	0.000348	3.480786	0.589661	0.000035
 425	4.2188e+01	4.2165	-1.329973	0.000364	3.644588	0.617410	0.000036
 426	4.2288e+01	4.2252	-1.296979	0.000332	3.316984	0.561912	0.000033
 427	4.2387e+01	4.2364	-1.261133	0.000360	3.603637	0.610473	0.000036
 428	4.2486e+01	4.2442	-1.227730	0.000336	3.357935	0.568850	0.000034
 429	4.2586e+01	4.2539	-1.191884	0.000360	3.603637	0.610473	0.000036
 430	4.2685e+01	4.2637	-1.158482	0.000336	3.357935	0.568850	0.000034
 431	4.2785e+01	4.2730	-1.126709	0.000319	3.194133	0.541101	0.000032
 432	4.2885e+01	4.2822	-1.091271	0.000356	3.562687	0.603535	0.000036
 433	4.2984e+01	4.2958	-1.054203	0.000373	3.726489	0.631284	0.000037
 434	4.3084e+01	4.3053	-1.017542	0.000369	3.685538	0.624347	0.000037
 435	4.3183e+01	4.3151	-0.984140	0.000336	3.357935	0.568850	0.000034
 436	4.3282e+01	4.3249	-0.947886	0.000364	3.644588	0.617410	0.000036
 437	4.3382e+01	4.3362	-0.910411	0.000377	3.767439	0.638221	0.000038
 438	4.3481e+01	4.3417	-0.874564	0.000360	3.603637	0.610473	0.000036
 439	4.3581e+01	4.3525	-0.834645	0.000401	4.013142	0.679845	0.000040
 440	4.3681e+01	4.3652	-0.800021	0.000348	3.480786	0.589661	0.000035
 441	4.3780e+01	4.3731	-0.768248	0.000319	3.194133	0.541101	0.000032
 442	4.3880e+01	4.3858	-0.733217	0.000352	3.521736	0.596598	0.000035
 443	4.3979e+01	4.3946	-0.693704	0.000397	3.972191	0.672907	0.000040
 444	4.4078e+01	4.4056	-0.665190	0.000287	2.866530	0.485603	0.000029
 445	4.4178e+01	4.4151	-0.628530	0.000369	3.685538	0.624347	0.000037
 446	4.4278e+01	4.4209	-0.593091	0.000356	3.562687	0.603535	0.000036
 447	4.4377e+01	4.4305	-0.555615	0.000377	3.767439	0.638221	0.000038
 448	4.4477e+01	4.4431	-0.518954	0.000369	3.685538	0.624347	0.000037
 449	4.4576e+01	4.4550	-0.484330	0.000348	3.480786	0.589661	0.000035
 450	4.4675e+01	4.4631	-0.448077	0.000364	3.644588	0.617410	0.000036
 451	4.4775e+01	4.4754	-0.411009	0.000373	3.726489	0.631284	0.000037
 452	4.4874e+01	4.4821	-0.380458	0.000307	3.071282	0.520289	0.000031
 453	4.4974e+01	4.4978	-0.344612	0.000360	3.603637	0.610473	0.000036
 454	4.5074e+01	4.5043	-0.309988	0.000348	3.480786	0.589661	0.000035
 455	4.5173e+01	4.5132	-0.275364	0.000348	3.480786	0.589661	0.000035
 456	4.5273e+01	4.5271	-0.243998	0.000315	3.153183	0.534164	0.000032
 457	4.5372e+01	4.5359	-0.213040	0.000311	3.112232	0.527226	0.000031
 458	4.5471e+01	4.5449	-0.176787	0.000364	3.644588	0.617410	0.000036
 459	4.5571e+01	4.5539	-0.140941	0.000360	3.603637	0.610473	0.000036
 460	4.5670e+01	4.5644	-0.109168	0.000319	3.194133	0.541101	0.000032
 461	4.5770e+01	4.5753	-0.080654	0.000287	2.866530	0.485603	0.000029
 462	4.5870e+01	4.5843	-0.047252	0.000336	3.357935	0.568850	0.000034
 463	4.5969e+01	4.5937	-0.012628	0.000348	3.480786	0.589661	0.000035
 464	4.6069e+01	4.6017	0.022811	0.000356	3.562687	0.603535	0.000036
 465	4.6168e+01	4.6117	0.057028	0.000344	3.439836	0.582724	0.000034
 466	4.6267e+01	4.6244	0.083913	0.000270	2.702728	0.457855	0.000027
 467	4.6367e+01	4.6327	0.116907	0.000332	3.316984	0.561912	0.000033
 468	4.6467e+01	4.6427	0.152753	0.000360	3.603637	0.610473	0.000036
 469	4.6566e+01	4.6505	0.183711	0.000311	3.112232	0.527226	0.000031
 470	4.6666e+01	4.6618	0.214670	0.000311	3.112232	0.527226	0.000031
 471	4.6765e+01	4.6722	0.246850	0.000324	3.235083	0.548038	0.000032
 472	4.6864e+01	4.6822	0.279844	0.000332	3.316984	0.561912	0.000033
 473	4.6964e+01	4.6926	0.304692	0.000250	2.497976	0.423169	0.000025
 474	4.7063e+01	4.7060	0.335650	0.000311	3.112232	0.527226	0.000031
 475	4.7163e+01	4.7137	0.368238	0.000328	3.276034	0.554975	0.000033
 476	4.7263e+01	4.7221	0.398788	0.000307	3.071282	0.520289	0.000031
 477	4.7362e+01	4.7308	0.425673	0.000270	2.702728	0.457855	0.000027
 478	4.7462e+01	4.7466	0.455002	0.000295	2.948430	0.499478	0.000029
 479	4.7561e+01	4.7525	0.488404	0.000336	3.357935	0.568850	0.000034
 480	4.7660e+01	4.7646	0.516510	0.000283	2.825579	0.478666	0.000028
 481	4.7760e+01	4.7732	0.548690	0.000324	3.235083	0.548038	0.000032
 482	4.7859e+01	4.7810	0.580056	0.000315	3.153183	0.534164	0.000032
 483	4.7959e+01	4.7906	0.610199	0.000303	3.030331	0.513352	0.000030
 484	4.8059e+01	4.8016	0.637491	0.000274	2.743678	0.464792	0.000027
 485	4.8158e+01	4.8138	0.666005	0.000287	2.866530	0.485603	0.000029
 486	4.8258e+01	4.8238	0.700222	0.000344	3.439836	0.582724	0.000034
 487	4.8357e+01	4.8328	0.725884	0.000258	2.579877	0.437043	0.000026
 488	4.8456e+01	4.8404	0.756435	0.000307	3.071282	0.520289	0.000031
 489	4.8556e+01	4.8525	0.782912	0.000266	2.661778	0.450917	0.000027
 490	4.8656e+01	4.8626	0.813870	0.000311	3.112232	0.527226	0.000031
 491	4.8755e+01	4.8757	0.845643	0.000319	3.194133	0.541101	0.000032
 492	4.8855e+01	4.8846	0.877823	0.000324	3.235083	0.548038	0.000032
 493	4.8954e+01	4.8956	0.908781	0.000311	3.112232	0.527226	0.000031
 494	4.9053e+01	4.9012	0.937703	0.000291	2.907480	0.492540	0.000029
 495	4.9153e+01	4.9114	0.967846	0.000303	3.030331	0.513352	0.000030
 496	4.9252e+01	4.9220	0.999211	0.000315	3.153183	0.534164	0.000032
 497	4.9352e+01	4.9310	1.031391	0.000324	3.235083	0.548038	0.000032
 498	4.9452e+01	4.9416	1.063164	0.000319	3.194133	0.541101	0.000032
 499	4.9551e+01	4.9514	1.096159	0.000332	3.316984	0.561912	0.000033
 500	4.9651e+01	4.9599	1.125895	0.000299	2.989381	0.506415	0.000030
 501	4.9750e+01	4.9718	1.160112	0.000344	3.439836	0.582724	0.000034
 502	4.9849e+01	4.9810	1.187404	0.000274	2.743678	0.464792	0.000027
 503	4.9949e+01	4.9931	1.223250	0.000360	3.603637	0.610473	0.000036
 504	5.0048e+01	5.0028	1.250134	0.000270	2.702728	0.457855	0.000027
 505	5.0148e+01	5.0105	1.282314	0.000324	3.235083	0.548038	0.000032
 506	5.0248e+01	5.0213	1.317346	0.000352	3.521736	0.596598	0.000035
 507	5.0347e+01	5.0291	1.347897	0.000307	3.071282	0.520289	0.000031
 508	5.0447e+01	5.0381	1.381706	0.000340	3.398885	0.575787	0.000034
 509	5.0546e+01	5.0497	1.408183	0.000266	2.661778	0.450917	0.000027
 510	5.0645e+01	5.0600	1.438734	0.000307	3.071282	0.520289	0.000031
 511	5.0745e+01	5.0685	1.473358	0.000348	3.480786	0.589661	0.000035
 512	5.0844e+01	5.0806	1.504723	0.000315	3.153183	0.534164	0.000032
 513	5.0944e+01	5.0893	1.538940	0.000344	3.439836	0.582724	0.000034
 514	5.1044e+01	5.0994	1.568676	0.000299	2.989381	0.506415	0.000030
 515	5.1143e+01	5.1091	1.599227	0.000307	3.071282	0.520289	0.000031
 516	5.1242e+01	5.1196	1.630592	0.000315	3.153183	0.534164	0.000032
 517	5.1342e+01	5.1308	1.662365	0.000319	3.194133	0.541101	0.000032
 518	5.1441e+01	5.1379	1.695360	0.000332	3.316984	0.561912	0.000033
 519	5.1541e+01	5.1481	1.727540	0.000324	3.235083	0.548038	0.000032
 520	5.1641e+01	5.1592	1.755239	0.000278	2.784629	0.471729	0.000028
 521	5.1740e+01	5.1684	1.782124	0.000270	2.702728	0.457855	0.000027
 522	5.1840e+01	5.1795	1.811452	0.000295	2.948430	0.499478	0.000029
 523	5.1939e+01	5.1899	1.842818	0.000315	3.153183	0.534164	0.000032
 524	5.2038e+01	5.2026	1.868073	0.000254	2.538926	0.430106	0.000025
 525	5.2138e+01	5.2105	1.899438	0.000315	3.153183	0.534164	0.000032
 526	5.2237e+01	5.2212	1.934877	0.000356	3.562687	0.603535	0.000036
 527	5.2337e+01	5.2316	1.961762	0.000270	2.702728	0.457855	0.000027
 528	5.2437e+01	5.2404	1.996386	0.000348	3.480786	0.589661	0.000035
 529	5.2536e+01	5.2492	2.026122	0.000299	2.989381	0.506415	0.000030
 530	5.2636e+01	5.2610	2.056673	0.000307	3.071282	0.520289	0.000031
 531	5.2735e+01	5.2712	2.083964	0.000274	2.743678	0.464792	0.000027
 532	5.2834e+01	5.2785	2.113700	0.000299	2.989381	0.506415	0.000030
 533	5.2934e+01	5.2903	2.148325	0.000348	3.480786	0.589661	0.000035
 534	5.3033e+01	5.2990	2.173987	0.000258	2.579877	0.437043	0.000026
 535	5.3133e+01	5.3130	2.202909	0.000291	2.907480	0.492540	0.000029
 536	5.3233e+01	5.3194	2.239569	0.000369	3.685538	0.624347	0.000037
 537	5.3332e+01	5.3277	2.266047	0.000266	2.661778	0.450917	0.000027
 538	5.3431e+01	5.3419	2.298227	0.000324	3.235083	0.548038	0.000032
 539	5.3531e+01	5.3503	2.329999	0.000319	3.194133	0.541101	0.000032
 540	5.3630e+01	5.3568	2.359735	0.000299	2.989381	0.506415	0.000030
 541	5.3730e+01	5.3683	2.391508	0.000319	3.194133	0.541101	0.000032
 542	5.3830e+01	5.3793	2.426540	0.000352	3.521736	0.596598	0.000035
 543	5.3929e+01	5.3873	2.454646	0.000283	2.825579	0.478666	0.000028
 544	5.4029e+01	5.3997	2.488863	0.000344	3.439836	0.582724	0.000034
 545	5.4128e+01	5.4102	2.519821	0.000311	3.112232	0.527226	0.000031
 546	5.4227e+01	5.4191	2.554445	0.000348	3.480786	0.589661	0.000035
 547	5.4327e+01	5.4298	2.586625	0.000324	3.235083	0.548038	0.000032
 548	5.4426e+01	5.4397	2.620435	0.000340	3.398885	0.575787	0.000034
 549	5.4526e+01	5.4473	2.648134	0.000278	2.784629	0.471729	0.000028
 550	5.4626e+01	5.4554	2.681129	0.000332	3.316984	0.561912	0.000033
 551	5.4725e+01	5.4665	2.715753	0.000348	3.480786	0.589661	0.000035
 552	5.4825e+01	5.4772	2.747526	0.000319	3.194133	0.541101	0.000032
 553	5.4924e+01	5.4882	2.778891	0.000315	3.153183	0.534164	0.000032
 554	5.5023e+01	5.4980	2.813922	0.000352	3.521736	0.596598	0.000035
 555	5.5123e+01	5.5083	2.843658	0.000299	2.989381	0.506415	0.000030
 556	5.5222e+01	5.5199	2.880727	0.000373	3.726489	0.631284	0.000037
 557	5.5322e+01	5.5276	2.913721	0.000332	3.316984	0.561912	0.000033
 558	5.5422e+01	5.5404	2.948345	0.000348	3.480786	0.589661	0.000035
 559	5.5521e+01	5.5489	2.984599	0.000364	3.644588	0.617410	0.000036
 560	5.5620e+01	5.5555	3.015150	0.000307	3.071282	0.520289	0.000031
 561	5.5720e+01	5.5676	3.054254	0.000393	3.931241	0.665970	0.000039
 562	5.5819e+01	5.5804	3.085212	0.000311	3.112232	0.527226	0.000031
 563	5.5919e+01	5.5874	3.119022	0.000340	3.398885	0.575787	0.000034
 564	5.6019e+01	5.5993	3.152831	0.000340	3.398885	0.575787	0.000034
 565	5.6118e+01	5.6084	3.186233	0.000336	3.357935	0.568850	0.000034
 566	5.6218e+01	5.6152	3.220858	0.000348	3.480786	0.589661	0.000035
 567	5.6317e+01	5.6277	3.256704	0.000360	3.603637	0.610473	0.000036
 568	5.6416e+01	5.6384	3.290920	0.000344	3.439836	0.582724	0.000034
 569	5.6516e+01	5.6484	3.325952	0.000352	3.521736	0.596598	0.000035
 570	5.6615e+01	5.6567	3.358539	0.000328	3.276034	0.554975	0.000033
 571	5.6715e+01	5.6676	3.394793	0.000364	3.644588	0.617410	0.000036
 572	5.6815e+01	5.6799	3.431454	0.000369	3.685538	0.624347	0.000037
 573	5.6914e+01	5.6872	3.462004	0.000307	3.071282	0.520289	0.000031
 574	5.7014e+01	5.6963	3.497036	0.000352	3.521736	0.596598	0.000035
 575	5.7113e+01	5.7087	3.527994	0.000311	3.112232	0.527226	0.000031
 576	5.7212e+01	5.7172	3.563025	0.000352	3.521736	0.596598	0.000035
 577	5.7312e+01	5.7276	3.595205	0.000324	3.235083	0.548038	0.000032
 578	5.7411e+01	5.7378	3.629829	0.000348	3.480786	0.589661	0.000035
 579	5.7511e+01	5.7475	3.659973	0.000303	3.030331	0.513352	0.000030
 580	5.7611e+01	5.7571	3.692968	0.000332	3.316984	0.561912	0.000033
 581	5.7710e+01	5.7648	3.725555	0.000328	3.276034	0.554975	0.000033
 582	5.7809e+01	5.7764	3.757735	0.000324	3.235083	0.548038	0.000032
 583	5.7909e+01	5.7838	3.789915	0.000324	3.235083	0.548038	0.000032
 584	5.8008e+01	5.7948	3.822095	0.000324	3.235083	0.548038	0.000032
 585	5.8108e+01	5.8082	3.850202	0.000283	2.825579	0.478666	0.000028
 586	5.8208e+01	5.8144	3.884826	0.000348	3.480786	0.589661	0.000035
 587	5.8307e+01	5.8259	3.915377	0.000307	3.071282	0.520289	0.000031
 588	5.8407e+01	5.8382	3.948779	0.000336	3.357935	0.568850	0.000034
 589	5.8506e+01	5.8462	3.980144	0.000315	3.153183	0.534164	0.000032
 590	5.8605e+01	5.8557	4.009473	0.000295	2.948430	0.499478	0.000029
 591	5.8705e+01	5.8645	4.042060	0.000328	3.276034	0.554975	0.000033
 592	5.8804e+01	5.8775	4.077499	0.000356	3.562687	0.603535	0.000036
 593	5.8904e+01	5.8874	4.106013	0.000287	2.866530	0.485603	0.000029
 594	5.9004e+01	5.8959	4.136156	0.000303	3.030331	0.513352	0.000030
 595	5.9103e+01	5.9038	4.165892	0.000299	2.989381	0.506415	0.000030
 596	5.9203e+01	5.9150	4.196443	0.000307	3.071282	0.520289	0.000031
 597	5.9302e+01	5.9264	4.230660	0.000344	3.439836	0.582724	0.000034
 598	5.9401e+01	5.9364	4.257544	0.000270	2.702728	0.457855	0.000027
 599	5.9501e+01	5.9451	4.292576	0.000352	3.521736	0.596598	0.000035
 600	5.9600e+01	5.9569	4.323941	0.000315	3.153183	0.534164	0.000032
 601	5.9700e+01	5.9664	4.356529	0.000328	3.276034	0.554975	0.000033
 602	5.9800e+01	5.9753	4.390338	0.000340	3.398885	0.575787	0.000034
 603	5.9899e+01	5.9869	4.420889	0.000307	3.071282	0.520289	0.000031
 604	5.9998e+01	5.9978	4.453069	0.000324	3.235083	0.548038	0.000032
 605	6.0098e+01	6.0079	4.488508	0.000356	3.562687	0.603535	0.000036
 606	6.0197e+01	6.0177	4.517429	0.000291	2.907480	0.492540	0.000029
 607	6.0297e+01	6.0268	4.554090	0.000369	3.685538	0.624347	0.000037
 608	6.0397e+01	6.0387	4.585862	0.000319	3.194133	0.541101	0.000032
 609	6.0496e+01	6.0464	4.618857	0.000332	3.316984	0.561912	0.000033
 610	6.0596e+01	6.0555	4.649815	0.000311	3.112232	0.527226	0.000031
 611	6.0695e+01	6.0697	4.681181	0.000315	3.153183	0.534164	0.000032
 612	6.0794e+01	6.0767	4.712139	0.000311	3.112232	0.527226	0.000031
 613	6.0894e+01	6.0848	4.745133	0.000332	3.316984	0.561912	0.000033
 614	6.0993e+01	6.0960	4.778535	0.000336	3.357935	0.568850	0.000034
 615	6.1093e+01	6.1047	4.809494	0.000311	3.112232	0.527226	0.000031
 616	6.1193e+01	6.1140	4.844932	0.000356	3.562687	0.603535	0.000036
 617	6.1292e+01	6.1251	4.873039	0.000283	2.825579	0.478666	0.000028
 618	6.1392e+01	6.1346	4.906848	0.000340	3.398885	0.575787	0.000034
 619	6.1491e+01	6.1452	4.938214	0.000315	3.153183	0.534164	0.000032
 620	6.1590e+01	6.1541	4.972838	0.000348	3.480786	0.589661	0.000035
 621	6.1690e+01	6.1631	5.002981	0.000303	3.030331	0.513352	0.000030
 622	6.1789e+01	6.1749	5.032717	0.000299	2.989381	0.506415	0.000030
 623	6.1889e+01	6.1849	5.064490	0.000319	3.194133	0.541101	0.000032
 624	6.1989e+01	6.1941	5.095041	0.000307	3.071282	0.520289	0.000031
 625	6.2088e+01	6.2043	5.123555	0.000287	2.866530	0.485603	0.000029
 626	6.2188e+01	6.2154	5.152476	0.000291	2.907480	0.492540	0.000029
 627	6.2287e+01	6.2257	5.181805	0.000295	2.948430	0.499478	0.000029
 628	6.2386e+01	6.2362	5.212763	0.000311	3.112232	0.527226	0.000031
 629	6.2486e+01	6.2472	5.241684	0.000291	2.907480	0.492540	0.000029
 630	6.2586e+01	6.2557	5.269383	0.000278	2.784629	0.471729	0.000028
 631	6.2685e+01	6.2646	5.301563	0.000324	3.235083	0.548038	0.000032
 632	6.2785e+01	6.2719	5.331707	0.000303	3.030331	0.513352	0.000030
 633	6.2884e+01	6.2872	5.361443	0.000299	2.989381	0.506415	0.000030
 634	6.2983e+01	6.2959	5.390364	0.000291	2.907480	0.492540	0.000029
 635	6.3083e+01	6.3038	5.419693	0.000295	2.948430	0.499478	0.000029
 636	6.3182e+01	6.3156	5.448614	0.000291	2.907480	0.492540	0.000029
 637	6.3282e+01	6.3221	5.479572	0.000311	3.112232	0.527226	0.000031
 638	6.3382e+01	6.3369	5.508493	0.000291	2.907480	0.492540	0.000029
 639	6.3481e+01	6.3454	5.533749	0.000254	2.538926	0.430106	0.000025
 640	6.3581e+01	6.3560	5.559411	0.000258	2.579877	0.437043	0.000026
 641	6.3680e+01	6.3641	5.586296	0.000270	2.702728	0.457855	0.000027
 642	6.3779e+01	6.3705	5.614810	0.000287	2.866530	0.485603	0.000029
 643	6.3879e+01	6.3853	5.640472	0.000258	2.579877	0.437043	0.000026
 644	6.3978e+01	6.3923	5.668172	0.000278	2.784629	0.471729	0.000028
 645	6.4078e+01	6.4011	5.693019	0.000250	2.497976	0.423169	0.000025
 646	6.4177e+01	6.4147	5.719904	0.000270	2.702728	0.457855	0.000027
 647	6.4277e+01	6.4242	5.754121	0.000344	3.439836	0.582724	0.000034
 648	6.4376e+01	6.4338	5.778969	0.000250	2.497976	0.423169	0.000025
 649	6.4476e+01	6.4446	5.805853	0.000270	2.702728	0.457855	0.000027
 650	6.4576e+01	6.4529	5.831109	0.000254	2.538926	0.430106	0.000025
 651	6.4675e+01	6.4649	5.860845	0.000299	2.989381	0.506415	0.000030
 652	6.4775e+01	6.4715	5.886507	0.000258	2.579877	0.437043	0.000026
 653	6.4874e+01	6.4823	5.911355	0.000250	2.497976	0.423169	0.000025
 654	6.4974e+01	6.4931	5.936203	0.000250	2.497976	0.423169	0.000025
 655	6.5073e+01	6.5047	5.966346	0.000303	3.030331	0.513352	0.000030
 656	6.5172e+01	6.5137	5.994046	0.000278	2.784629	0.471729	0.000028
 657	6.5272e+01	6.5273	6.019301	0.000254	2.538926	0.430106	0.000025
 658	6.5371e+01	6.5322	6.049444	0.000303	3.030331	0.513352	0.000030
 659	6.5471e+01	6.5432	6.073885	0.000246	2.457025	0.416231	0.000025
 660	6.5570e+01	6.5527	6.099955	0.000262	2.620827	0.443980	0.000026
 661	6.5670e+01	6.5618	6.130913	0.000311	3.112232	0.527226	0.000031
 662	6.5769e+01	6.5744	6.159834	0.000291	2.907480	0.492540	0.000029
 663	6.5869e+01	6.5842	6.184275	0.000246	2.457025	0.416231	0.000025
 664	6.5969e+01	6.5927	6.217269	0.000332	3.316984	0.561912	0.000033
 665	6.6068e+01	6.6018	6.244969	0.000278	2.784629	0.471729	0.000028
 666	6.6168e+01	6.6119	6.273483	0.000287	2.866530	0.485603	0.000029
 667	6.6267e+01	6.6221	6.302404	0.000291	2.907480	0.492540	0.000029
 668	6.6367e+01	6.6357	6.327659	0.000254	2.538926	0.430106	0.000025
 669	6.6466e+01	6.6423	6.359432	0.000319	3.194133	0.541101	0.000032
 670	6.6566e+01	6.6515	6.385909	0.000266	2.661778	0.450917	0.000027
 671	6.6665e+01	6.6619	6.415238	0.000295	2.948430	0.499478	0.000029
 672	6.6764e+01	6.6714	6.447825	0.000328	3.276034	0.554975	0.000033
 673	6.6864e+01	6.6805	6.474303	0.000266	2.661778	0.450917	0.000027
 674	6.6963e+01	6.6927	6.502816	0.000287	2.866530	0.485603	0.000029
 675	6.7063e+01	6.7037	6.530108	0.000274	2.743678	0.464792	0.000027
 676	6.7162e+01	6.7126	6.559437	0.000295	2.948430	0.499478	0.000029
 677	6.7262e+01	6.7242	6.588358	0.000291	2.907480	0.492540	0.000029
 678	6.7362e+01	6.7321	6.616465	0.000283	2.825579	0.478666	0.000028
 679	6.7461e+01	6.7412	6.648238	0.000319	3.194133	0.541101	0.000032
 680	6.7561e+01	6.7516	6.675530	0.000274	2.743678	0.464792	0.000027
 681	6.7660e+01	6.7623	6.708117	0.000328	3.276034	0.554975	0.000033
 682	6.7760e+01	6.7718	6.733780	0.000258	2.579877	0.437043	0.000026
 683	6.7859e+01	6.7828	6.763108	0.000295	2.948430	0.499478	0.000029
 684	6.7959e+01	6.7934	6.790400	0.000274	2.743678	0.464792	0.000027
 685	6.8058e+01	6.8016	6.820951	0.000307	3.071282	0.520289	0.000031
 686	6.8157e+01	6.8140	6.847428	0.000266	2.661778	0.450917	0.000027
 687	6.8257e+01	6.8227	6.878794	0.000315	3.153183	0.534164	0.000032
 688	6.8356e+01	6.8311	6.901605	0.000229	2.293224	0.388483	0.000023
 689	6.8456e+01	6.8432	6.930526	0.000291	2.907480	0.492540	0.000029
 690	6.8555e+01	6.8534	6.957003	0.000266	2.661778	0.450917	0.000027
 691	6.8655e+01	6.8655	6.984295	0.000274	2.743678	0.464792	0.000027
 692	6.8754e+01	6.8737	7.012402	0.000283	2.825579	0.478666	0.000028
 693	6.8854e+01	6.8816	7.039694	0.000274	2.743678	0.464792	0.000027
 694	6.8954e+01	6.8896	7.069837	0.000303	3.030331	0.513352	0.000030
 695	6.9053e+01	6.9024	7.101203	0.000315	3.153183	0.534164	0.000032
 696	6.9153e+01	6.9097	7.126865	0.000258	2.579877	0.437043	0.000026
 697	6.9252e+01	6.9238	7.154972	0.000283	2.825579	0.478666	0.000028
 698	6.9352e+01	6.9296	7.181857	0.000270	2.702728	0.457855	0.000027
 699	6.9451e+01	6.9439	7.207519	0.000258	2.579877	0.437043	0.000026
 700	6.9550e+01	6.9524	7.231960	0.000246	2.457025	0.416231	0.000025
 701	6.9650e+01	6.9619	7.262918	0.000311	3.112232	0.527226	0.000031
 702	6.9749e+01	6.9720	7.288173	0.000254	2.538926	0.430106	0.000025
 703	6.9849e+01	6.9802	7.318724	0.000307	3.071282	0.520289	0.000031
 704	6.9948e+01	6.9880	7.347645	0.000291	2.907480	0.492540	0.000029
 705	7.0048e+01	7.0012	7.373715	0.000262	2.620827	0.443980	0.000026
 706	7.0147e+01	7.0086	7.404266	0.000307	3.071282	0.520289	0.000031
 707	7.0247e+01	7.0216	7.431965	0.000278	2.784629	0.471729	0.000028
 708	7.0347e+01	7.0335	7.457220	0.000254	2.538926	0.430106	0.000025
 709	7.0446e+01	7.0410	7.492252	0.000352	3.521736	0.596598	0.000035
 710	7.0546e+01	7.0521	7.520358	0.000283	2.825579	0.478666	0.000028
 711	7.0645e+01	7.0613	7.554168	0.000340	3.398885	0.575787	0.000034
 712	7.0745e+01	7.0680	7.582682	0.000287	2.866530	0.485603	0.000029
 713	7.0844e+01	7.0808	7.612825	0.000303	3.030331	0.513352	0.000030
 714	7.0944e+01	7.0934	7.642154	0.000295	2.948430	0.499478	0.000029
 715	7.1043e+01	7.1003	7.671890	0.000299	2.989381	0.506415	0.000030
 716	7.1142e+01	7.1087	7.699996	0.000283	2.825579	0.478666	0.000028
 717	7.1242e+01	7.1218	7.729732	0.000299	2.989381	0.506415	0.000030
 718	7.1341e+01	7.1319	7.754580	0.000250	2.497976	0.423169	0.000025
 719	7.1441e+01	7.1404	7.788390	0.000340	3.398885	0.575787	0.000034
 720	7.1540e+01	7.1505	7.818533	0.000303	3.030331	0.513352	0.000030
 721	7.1640e+01	7.1621	7.852342	0.000340	3.398885	0.575787	0.000034
 722	7.1740e+01	7.1705	7.882486	0.000303	3.030331	0.513352	0.000030
 723	7.1839e+01	7.1813	7.911407	0.000291	2.907480	0.492540	0.000029
 724	7.1939e+01	7.1898	7.945216	0.000340	3.398885	0.575787	0.000034
 725	7.2038e+01	7.1987	7.979026	0.000340	3.398885	0.575787	0.000034
 726	7.2138e+01	7.2090	8.008762	0.000299	2.989381	0.506415	0.000030
 727	7.2237e+01	7.2196	8.043386	0.000348	3.480786	0.589661	0.000035
 728	7.2337e+01	7.2286	8.071900	0.000287	2.866530	0.485603	0.000029
 729	7.2436e+01	7.2392	8.108561	0.000369	3.685538	0.624347	0.000037
 730	7.2535e+01	7.2481	8.138704	0.000303	3.030331	0.513352	0.000030
 731	7.2635e+01	7.2610	8.170884	0.000324	3.235083	0.548038	0.000032
 732	7.2734e+01	7.2719	8.201435	0.000307	3.071282	0.520289	0.000031
 733	7.2834e+01	7.2790	8.234430	0.000332	3.316984	0.561912	0.000033
 734	7.2933e+01	7.2900	8.267832	0.000336	3.357935	0.568850	0.000034
 735	7.3033e+01	7.2991	8.298790	0.000311	3.112232	0.527226	0.000031
 736	7.3132e+01	7.3089	8.331377	0.000328	3.276034	0.554975	0.000033
 737	7.3232e+01	7.3213	8.367223	0.000360	3.603637	0.610473	0.000036
 738	7.3332e+01	7.3277	8.398181	0.000311	3.112232	0.527226	0.000031
 739	7.3431e+01	7.3390	8.431176	0.000332	3.316984	0.561912	0.000033
 740	7.3531e+01	7.3483	8.465800	0.000348	3.480786	0.589661	0.000035
 741	7.3630e+01	7.3589	8.497573	0.000319	3.194133	0.541101	0.000032
 742	7.3730e+01	7.3698	8.527309	0.000299	2.989381	0.506415	0.000030
 743	7.3829e+01	7.3769	8.557452	0.000303	3.030331	0.513352	0.000030
 744	7.3928e+01	7.3888	8.588818	0.000315	3.153183	0.534164	0.000032
 745	7.4028e+01	7.3975	8.620183	0.000315	3.153183	0.534164	0.000032
 746	7.4127e+01	7.4075	8.651141	0.000311	3.112232	0.527226	0.000031
 747	7.4227e+01	7.4175	8.682506	0.000315	3.153183	0.534164	0.000032
 748	7.4326e+01	7.4288	8.710206	0.000278	2.784629	0.471729	0.000028
 749	7.4426e+01	7.4374	8.742793	0.000328	3.276034	0.554975	0.000033
 750	7.4525e+01	7.4476	8.770492	0.000278	2.784629	0.471729	0.000028
 751	7.4625e+01	7.4585	8.799414	0.000291	2.907480	0.492540	0.000029
 752	7.4725e+01	7.4686	8.830779	0.000315	3.153183	0.534164	0.000032
 753	7.4824e+01	7.4773	8.862552	0.000319	3.194133	0.541101	0.000032
 754	7.4924e+01	7.4879	8.889844	0.000274	2.743678	0.464792	0.000027
 755	7.5023e+01	7.4969	8.919580	0.000299	2.989381	0.506415	0.000030
 756	7.5123e+01	7.5136	8.952167	0.000328	3.276034	0.554975	0.000033
 757	7.5222e+01	7.5187	8.984347	0.000324	3.235083	0.548038	0.000032
 758	7.5322e+01	7.5282	9.009603	0.000254	2.538926	0.430106	0.000025
 759	7.5421e+01	7.5391	9.041783	0.000324	3.235083	0.548038	0.000032
 760	7.5520e+01	7.5503	9.072741	0.000311	3.112232	0.527226	0.000031
 761	7.5620e+01	7.5581	9.101255	0.000287	2.866530	0.485603	0.000029
 762	7.5719e+01	7.5663	9.130176	0.000291	2.907480	0.492540	0.000029
 763	7.5819e+01	7.5778	9.159912	0.000299	2.989381	0.506415	0.000030
 764	7.5918e+01	7.5886	9.192907	0.000332	3.316984	0.561912	0.000033
 765	7.6018e+01	7.5972	9.224272	0.000315	3.153183	0.534164	0.000032
 766	7.6118e+01	7.6035	9.249527	0.000254	2.538926	0.430106	0.000025
 767	7.6217e+01	7.6165	9.283337	0.000340	3.398885	0.575787	0.000034
 768	7.6317e+01	7.6273	9.311036	0.000278	2.784629	0.471729	0.000028
 769	7.6416e+01	7.6385	9.338328	0.000274	2.743678	0.464792	0.000027
 770	7.6516e+01	7.6461	9.369286	0.000311	3.112232	0.527226	0.000031
 771	7.6615e+01	7.6574	9.398615	0.000295	2.948430	0.499478	0.000029
 772	7.6715e+01	7.6672	9.434053	0.000356	3.562687	0.603535	0.000036
 773	7.6814e+01	7.6774	9.465012	0.000311	3.112232	0.527226	0.000031
 774	7.6913e+01	7.6875	9.500043	0.000352	3.521736	0.596598	0.000035
 775	7.7013e+01	7.6969	9.531001	0.000311	3.112232	0.527226	0.000031
 776	7.7112e+01	7.7048	9.562366	0.000315	3.153183	0.534164	0.000032
 777	7.7212e+01	7.7149	9.591695	0.000295	2.948430	0.499478	0.000029
 778	7.7311e+01	7.7261	9.623468	0.000319	3.194133	0.541101	0.000032
 779	7.7411e+01	7.7363	9.652796	0.000295	2.948430	0.499478	0.000029
 780	7.7510e+01	7.7470	9.682125	0.000295	2.948430	0.499478	0.000029
 781	7.7610e+01	7.7581	9.715120	0.000332	3.316984	0.561912	0.000033
 782	7.7710e+01	7.7702	9.745263	0.000303	3.030331	0.513352	0.000030
 783	7.7809e+01	7.7779	9.777443	0.000324	3.235083	0.548038	0.000032
 784	7.7909e+01	7.7858	9.810031	0.000328	3.276034	0.554975	0.000033
 785	7.8008e+01	7.7982	9.841396	0.000315	3.153183	0.534164	0.000032
 786	7.8108e+01	7.8052	9.874798	0.000336	3.357935	0.568850	0.000034
 787	7.8207e+01	7.8199	9.904127	0.000295	2.948430	0.499478	0.000029
 788	7.8306e+01	7.8258	9.932233	0.000283	2.825579	0.478666	0.000028
 789	7.8406e+01	7.8381	9.966858	0.000348	3.480786	0.589661	0.000035
 790	7.8505e+01	7.8451	9.991705	0.000250	2.497976	0.423169	0.000025
 791	7.8605e+01	7.8583	10.023071	0.000315	3.153183	0.534164	0.000032
 792	7.8704e+01	7.8655	10.053214	0.000303	3.030331	0.513352	0.000030
 793	7.8804e+01	7.8764	10.084580	0.000315	3.153183	0.534164	0.000032
 794	7.8903e+01	7.8873	10.111871	0.000274	2.743678	0.464792	0.000027
 795	7.9003e+01	7.8974	10.138756	0.000270	2.702728	0.457855	0.000027
 796	7.9103e+01	7.9094	10.168492	0.000299	2.989381	0.506415	0.000030
 797	7.9202e+01	7.9162	10.201080	0.000328	3.276034	0.554975	0.000033
 798	7.9302e+01	7.9270	10.226335	0.000254	2.538926	0.430106	0.000025
 799	7.9401e+01	7.9367	10.257293	0.000311	3.112232	0.527226	0.000031
 800	7.9501e+01	7.9450	10.285807	0.000287	2.866530	0.485603	0.000029
 801	7.9600e+01	7.9565	10.312691	0.000270	2.702728	0.457855	0.000027
 802	7.9700e+01	7.9688	10.346908	0.000344	3.439836	0.582724	0.000034
 803	7.9799e+01	7.9771	10.375422	0.000287	2.866530	0.485603	0.000029
 804	7.9898e+01	7.9874	10.401899	0.000266	2.661778	0.450917	0.000027
 805	7.9998e+01	7.9965	10.430821	0.000291	2.907480	0.492540	0.000029
 806	8.0097e+01	8.0034	10.460557	0.000299	2.989381	0.506415	0.000030
 807	8.0197e+01	8.0164	10.489071	0.000287	2.866530	0.485603	0.000029
 808	8.0296e+01	8.0254	10.516363	0.000274	2.743678	0.464792	0.000027
 809	8.0396e+01	8.0371	10.540803	0.000246	2.457025	0.416231	0.000025
 810	8.0496e+01	8.0451	10.566873	0.000262	2.620827	0.443980	0.000026
 811	8.0595e+01	8.0552	10.596609	0.000299	2.989381	0.506415	0.000030
 812	8.0695e+01	8.0675	10.625530	0.000291	2.907480	0.492540	0.000029
 813	8.0794e+01	8.0743	10.653637	0.000283	2.825579	0.478666	0.000028
 814	8.0894e+01	8.0813	10.678892	0.000254	2.538926	0.430106	0.000025
 815	8.0993e+01	8.0941	10.704555	0.000258	2.579877	0.437043	0.000026
 816	8.1093e+01	8.1037	10.735106	0.000307	3.071282	0.520289	0.000031
 817	8.1192e+01	8.1139	10.764434	0.000295	2.948430	0.499478	0.000029
 818	8.1291e+01	8.1246	10.790097	0.000258	2.579877	0.437043	0.000026
 819	8.1391e+01	8.1348	10.814945	0.000250	2.497976	0.423169	0.000025
 820	8.1490e+01	8.1428	10.846310	0.000315	3.153183	0.534164	0.000032
 821	8.1590e+01	8.1538	10.872787	0.000266	2.661778	0.450917	0.000027
 822	8.1689e+01	8.1638	10.903338	0.000307	3.071282	0.520289	0.000031
 823	8.1789e+01	8.1719	10.927779	0.000246	2.457025	0.416231	0.000025
 824	8.1888e+01	8.1824	10.953849	0.000262	2.620827	0.443980	0.000026
 825	8.1988e+01	8.1979	10.983992	0.000303	3.030331	0.513352	0.000030
 826	8.2088e+01	8.2053	11.010469	0.000266	2.661778	0.450917	0.000027
 827	8.2187e+01	8.2162	11.038983	0.000287	2.866530	0.485603	0.000029
 828	8.2287e+01	8.2217	11.069534	0.000307	3.071282	0.520289	0.000031
 829	8.2386e+01	8.2355	11.096418	0.000270	2.702728	0.457855	0.000027
 830	8.2486e+01	8.2442	11.128599	0.000324	3.235083	0.548038	0.000032
 831	8.2585e+01	8.2533	11.156705	0.000283	2.825579	0.478666	0.000028
 832	8.2684e+01	8.2623	11.185219	0.000287	2.866530	0.485603	0.000029
 833	8.2784e+01	8.2771	11.216992	0.000319	3.194133	0.541101	0.000032
 834	8.2883e+01	8.2861	11.249579	0.000328	3.276034	0.554975	0.000033
 835	8.2983e+01	8.2935	11.277279	0.000278	2.784629	0.471729	0.000028
 836	8.3082e+01	8.3057	11.306607	0.000295	2.948430	0.499478	0.000029
 837	8.3182e+01	8.3172	11.335121	0.000287	2.866530	0.485603	0.000029
 838	8.3281e+01	8.3208	11.368116	0.000332	3.316984	0.561912	0.000033
 839	8.3381e+01	8.3352	11.397037	0.000291	2.907480	0.492540	0.000029
 840	8.3481e+01	8.3438	11.429625	0.000328	3.276034	0.554975	0.000033
 841	8.3580e+01	8.3535	11.457731	0.000283	2.825579	0.478666	0.000028
 842	8.3680e+01	8.3624	11.487467	0.000299	2.989381	0.506415	0.000030
 843	8.3779e+01	8.3740	11.518018	0.000307	3.071282	0.520289	0.000031
 844	8.3879e+01	8.3844	11.553457	0.000356	3.562687	0.603535	0.000036
 845	8.3978e+01	8.3936	11.583193	0.000299	2.989381	0.506415	0.000030
 846	8.4078e+01	8.4033	11.613336	0.000303	3.030331	0.513352	0.000030
 847	8.4177e+01	8.4162	11.642665	0.000295	2.948430	0.499478	0.000029
 848	8.4276e+01	8.4235	11.674030	0.000315	3.153183	0.534164	0.000032
 849	8.4376e+01	8.4326	11.704174	0.000303	3.030331	0.513352	0.000030
 850	8.4475e+01	8.4467	11.739612	0.000356	3.562687	0.603535	0.000036
 851	8.4575e+01	8.4544	11.770978	0.000315	3.153183	0.534164	0.000032
 852	8.4674e+01	8.4637	11.802750	0.000319	3.194133	0.541101	0.000032
 853	8.4774e+01	8.4737	11.831264	0.000287	2.866530	0.485603	0.000029
 854	8.4874e+01	8.4824	11.864259	0.000332	3.316984	0.561912	0.000033
 855	8.4973e+01	8.4942	11.894403	0.000303	3.030331	0.513352	0.000030
 856	8.5073e+01	8.5035	11.921694	0.000274	2.743678	0.464792	0.000027
 857	8.5172e+01	8.5115	11.953060	0.000315	3.153183	0.534164	0.000032
 858	8.5272e+01	8.5216	11.983203	0.000303	3.030331	0.513352	0.000030
 859	8.5371e+01	8.5371	12.014569	0.000315	3.153183	0.534164	0.000032
 860	8.5471e+01	8.5438	12.042675	0.000283	2.825579	0.478666	0.000028
 861	8.5570e+01	8.5531	12.077707	0.000352	3.521736	0.596598	0.000035
 862	8.5669e+01	8.5627	12.108257	0.000307	3.071282	0.520289	0.000031
 863	8.5769e+01	8.5712	12.145326	0.000373	3.726489	0.631284	0.000037
 864	8.5868e+01	8.5822	12.179542	0.000344	3.439836	0.582724	0.000034
 865	8.5968e+01	8.5909	12.211315	0.000319	3.194133	0.541101	0.000032
 866	8.6067e+01	8.6028	12.237792	0.000266	2.661778	0.450917	0.000027
 867	8.6167e+01	8.6157	12.270380	0.000328	3.276034	0.554975	0.000033
 868	8.6266e+01	8.6211	12.299301	0.000291	2.907480	0.492540	0.000029
 869	8.6366e+01	8.6288	12.330666	0.000315	3.153183	0.534164	0.000032
 870	8.6466e+01	8.6411	12.362032	0.000315	3.153183	0.534164	0.000032
 871	8.6565e+01	8.6545	12.394619	0.000328	3.276034	0.554975	0.000033
 872	8.6665e+01	8.6628	12.428021	0.000336	3.357935	0.568850	0.000034
 873	8.6764e+01	8.6716	12.459794	0.000319	3.194133	0.541101	0.000032
 874	8.6864e+01	8.6841	12.492789	0.000332	3.316984	0.561912	0.000033
 875	8.6963e+01	8.6917	12.526598	0.000340	3.398885	0.575787	0.000034
 876	8.7063e+01	8.7038	12.557964	0.000315	3.153183	0.534164	0.000032
 877	8.7162e+01	8.7122	12.592180	0.000344	3.439836	0.582724	0.000034
 878	8.7261e+01	8.7218	12.630878	0.000389	3.890290	0.659033	0.000039
 879	8.7361e+01	8.7318	12.663058	0.000324	3.235083	0.548038	0.000032
 880	8.7460e+01	8.7443	12.698904	0.000360	3.603637	0.610473	0.000036
 881	8.7560e+01	8.7518	12.733121	0.000344	3.439836	0.582724	0.000034
 882	8.7659e+01	8.7601	12.767338	0.000344	3.439836	0.582724	0.000034
 883	8.7759e+01	8.7714	12.801962	0.000348	3.480786	0.589661	0.000035
 884	8.7859e+01	8.7818	12.831698	0.000299	2.989381	0.506415	0.000030
 885	8.7958e+01	8.7928	12.865914	0.000344	3.439836	0.582724	0.000034
 886	8.8058e+01	8.8020	12.902168	0.000364	3.644588	0.617410	0.000036
 887	8.8157e+01	8.8110	12.934348	0.000324	3.235083	0.548038	0.000032
 888	8.8257e+01	8.8221	12.972231	0.000381	3.808389	0.645159	0.000038
 889	8.8356e+01	8.8308	13.004818	0.000328	3.276034	0.554975	0.000033
 890	8.8456e+01	8.8379	13.042294	0.000377	3.767439	0.638221	0.000038
 891	8.8555e+01	8.8505	13.076103	0.000340	3.398885	0.575787	0.000034
 892	8.8654e+01	8.8612	13.116023	0.000401	4.013142	0.679845	0.000040
 893	8.8754e+01	8.8704	13.151869	0.000360	3.603637	0.610473	0.000036
 894	8.8853e+01	8.8833	13.190567	0.000389	3.890290	0.659033	0.000039
 895	8.8953e+01	8.8916	13.230486	0.000401	4.013142	0.679845	0.000040
 896	8.9052e+01	8.8996	13.266740	0.000364	3.644588	0.617410	0.000036
 897	8.9152e+01	8.9100	13.307881	0.000414	4.135993	0.700656	0.000041
 898	8.9251e+01	8.9175	13.346986	0.000393	3.931241	0.665970	0.000039
 899	8.9351e+01	8.9292	13.382832	0.000360	3.603637	0.610473	0.000036
 900	8.9451e+01	8.9393	13.419900	0.000373	3.726489	0.631284	0.000037
 901	8.9550e+01	8.9526	13.459413	0.000397	3.972191	0.672907	0.000040
 902	8.9650e+01	8.9582	13.500962	0.000418	4.176943	0.707593	0.000042
 903	8.9749e+01	8.9703	13.540881	0.000401	4.013142	0.679845	0.000040
 904	8.9849e+01	8.9799	13.580801	0.000401	4.013142	0.679845	0.000040
 905	8.9948e+01	8.9875	13.621535	0.000410	4.095042	0.693719	0.000041
 906	9.0047e+01	9.0015	13.663491	0.000422	4.217894	0.714531	0.000042
 907	9.0147e+01	9.0097	13.701781	0.000385	3.849340	0.652096	0.000038
 908	9.0246e+01	9.0186	13.744960	0.000434	4.340745	0.735342	0.000043
 909	9.0346e+01	9.0293	13.786509	0.000418	4.176943	0.707593	0.000042
 910	9.0445e+01	9.0401	13.826021	0.000397	3.972191	0.672907	0.000040
 911	9.0545e+01	9.0485	13.863496	0.000377	3.767439	0.638221	0.000038
 912	9.0644e+01	9.0595	13.903823	0.000405	4.054092	0.686782	0.000041
 913	9.0744e+01	9.0704	13.938855	0.000352	3.521736	0.596598	0.000035
 914	9.0844e+01	9.0791	13.973072	0.000344	3.439836	0.582724	0.000034
 915	9.0943e+01	9.0897	14.015843	0.000430	4.299794	0.728405	0.000043
 916	9.1043e+01	9.0992	14.052503	0.000369	3.685538	0.624347	0.000037
 917	9.1142e+01	9.1070	14.089979	0.000377	3.767439	0.638221	0.000038
 918	9.1242e+01	9.1193	14.130306	0.000405	4.054092	0.686782	0.000041
 919	9.1341e+01	9.1309	14.167374	0.000373	3.726489	0.631284	0.000037
 920	9.1441e+01	9.1406	14.206479	0.000393	3.931241	0.665970	0.000039
 921	9.1540e+01	9.1480	14.241510	0.000352	3.521736	0.596598	0.000035
 922	9.1639e+01	9.1587	14.280615	0.000393	3.931241	0.665970	0.000039
 923	9.1739e+01	9.1691	14.320127	0.000397	3.972191	0.672907	0.000040
 924	9.1838e+01	9.1792	14.358010	0.000381	3.808389	0.645159	0.000038
 925	9.1938e+01	9.1862	14.395893	0.000381	3.808389	0.645159	0.000038
 926	9.2037e+01	9.1975	14.437442	0.000418	4.176943	0.707593	0.000042
 927	9.2137e+01	9.2081	14.474103	0.000369	3.685538	0.624347	0.000037
 928	9.2237e+01	9.2163	14.514022	0.000401	4.013142	0.679845	0.000040
 929	9.2336e+01	9.2304	14.553942	0.000401	4.013142	0.679845	0.000040
 930	9.2436e+01	9.2399	14.591418	0.000377	3.767439	0.638221	0.000038
 931	9.2535e+01	9.2468	14.630522	0.000393	3.931241	0.665970	0.000039
 932	9.2635e+01	9.2593	14.669627	0.000393	3.931241	0.665970	0.000039
 933	9.2734e+01	9.2678	14.711991	0.000426	4.258844	0.721468	0.000043
 934	9.2834e+01	9.2811	14.755984	0.000442	4.422646	0.749216	0.000044
 935	9.2933e+01	9.2876	14.796718	0.000410	4.095042	0.693719	0.000041
 936	9.3032e+01	9.2974	14.833379	0.000369	3.685538	0.624347	0.000037
 937	9.3132e+01	9.3091	14.875335	0.000422	4.217894	0.714531	0.000042
 938	9.3231e+01	9.3182	14.915255	0.000401	4.013142	0.679845	0.000040
 939	9.3331e+01	9.3303	14.962914	0.000479	4.791200	0.811651	0.000048
 940	9.3430e+01	9.3359	15.004056	0.000414	4.135993	0.700656	0.000041
 941	9.3530e+01	9.3488	15.048456	0.000446	4.463596	0.756154	0.000045
 942	9.3629e+01	9.3587	15.090820	0.000426	4.258844	0.721468	0.000043
 943	9.3729e+01	9.3671	15.132776	0.000422	4.217894	0.714531	0.000042
 944	9.3829e+01	9.3807	15.178805	0.000463	4.627398	0.783902	0.000046
 945	9.3928e+01	9.3907	15.222391	0.000438	4.381695	0.742279	0.000044
 946	9.4028e+01	9.3964	15.266384	0.000442	4.422646	0.749216	0.000044
 947	9.4127e+01	9.4055	15.307933	0.000418	4.176943	0.707593	0.000042
 948	9.4227e+01	9.4170	15.357629	0.000500	4.995952	0.846337	0.000050
 949	9.4326e+01	9.4280	15.406917	0.000496	4.955001	0.839400	0.000050
 950	9.4425e+01	9.4389	15.453354	0.000467	4.668348	0.790840	0.000047
 951	9.4525e+01	9.4474	15.500199	0.000471	4.709299	0.797777	0.000047
 952	9.4624e+01	9.4592	15.544192	0.000442	4.422646	0.749216	0.000044
 953	9.4724e+01	9.4669	15.586555	0.000426	4.258844	0.721468	0.000043
 954	9.4823e+01	9.4751	15.638288	0.000520	5.200704	0.881023	0.000052
 955	9.4923e+01	9.4874	15.680244	0.000422	4.217894	0.714531	0.000042
 956	9.5022e+01	9.4930	15.723422	0.000434	4.340745	0.735342	0.000043
 957	9.5122e+01	9.5072	15.769045	0.000459	4.586447	0.776965	0.000046
 958	9.5222e+01	9.5170	15.814260	0.000455	4.545497	0.770028	0.000045
 959	9.5321e+01	9.5264	15.859068	0.000450	4.504547	0.763091	0.000045
 960	9.5421e+01	9.5374	15.900616	0.000418	4.176943	0.707593	0.000042
 961	9.5520e+01	9.5467	15.941351	0.000410	4.095042	0.693719	0.000041
 962	9.5620e+01	9.5567	15.985344	0.000442	4.422646	0.749216	0.000044
 963	9.5719e+01	9.5669	16.028115	0.000430	4.299794	0.728405	0.000043
 964	9.5819e+01	9.5768	16.074552	0.000467	4.668348	0.790840	0.000047
 965	9.5918e+01	9.5869	16.118952	0.000446	4.463596	0.756154	0.000045
 966	9.6017e+01	9.5980	16.160094	0.000414	4.135993	0.700656	0.000041
 967	9.6117e+01	9.6069	16.210604	0.000508	5.077853	0.860212	0.000051
 968	9.6216e+01	9.6176	16.255412	0.000450	4.504547	0.763091	0.000045
 969	9.6316e+01	9.6267	16.301442	0.000463	4.627398	0.783902	0.000046
 970	9.6415e+01	9.6345	16.352359	0.000512	5.118803	0.867149	0.000051
 971	9.6515e+01	9.6453	16.400833	0.000487	4.873100	0.825526	0.000049
 972	9.6615e+01	9.6568	16.450936	0.000504	5.036902	0.853274	0.000050
 973	9.6714e+01	9.6651	16.499410	0.000487	4.873100	0.825526	0.000049
 974	9.6814e+01	9.6739	16.547069	0.000479	4.791200	0.811651	0.000048
 975	9.6913e+01	9.6879	16.594321	0.000475	4.750249	0.804714	0.000047
 976	9.7013e+01	9.6985	16.640758	0.000467	4.668348	0.790840	0.000047
 977	9.7112e+01	9.7077	16.684344	0.000438	4.381695	0.742279	0.000044
 978	9.7212e+01	9.7144	16.733225	0.000491	4.914051	0.832463	0.000049
 979	9.7311e+01	9.7267	16.784957	0.000520	5.200704	0.881023	0.000052
 980	9.7410e+01	9.7365	16.828950	0.000442	4.422646	0.749216	0.000044
 981	9.7510e+01	9.7440	16.879053	0.000504	5.036902	0.853274	0.000050
 982	9.7609e+01	9.7559	16.927120	0.000483	4.832150	0.818588	0.000048
 983	9.7709e+01	9.7638	16.973964	0.000471	4.709299	0.797777	0.000047
 984	9.7808e+01	9.7719	17.019994	0.000463	4.627398	0.783902	0.000046
 985	9.7908e+01	9.7839	17.062357	0.000426	4.258844	0.721468	0.000043
 986	9.8007e+01	9.7977	17.103092	0.000410	4.095042	0.693719	0.000041
 987	9.8107e+01	9.8051	17.147085	0.000442	4.422646	0.749216	0.000044
 988	9.8207e+01	9.8147	17.189856	0.000430	4.299794	0.728405	0.000043
 989	9.8306e+01	9.8265	17.232627	0.000430	4.299794	0.728405	0.000043
 990	9.8406e+01	9.8342	17.272139	0.000397	3.972191	0.672907	0.000040
 991	9.8505e+01	9.8462	17.314910	0.000430	4.299794	0.728405	0.000043
 992	9.8605e+01	9.8547	17.356866	0.000422	4.217894	0.714531	0.000042
 993	9.8704e+01	9.8640	17.395971	0.000393	3.931241	0.665970	0.000039
 994	9.8803e+01	9.8743	17.434261	0.000385	3.849340	0.652096	0.000038
 995	9.8903e+01	9.8853	17.482735	0.000487	4.873100	0.825526	0.000049
 996	9.9002e+01	9.8950	17.528357	0.000459	4.586447	0.776965	0.000046
 997	9.9102e+01	9.9029	17.573980	0.000459	4.586447	0.776965	0.000046
 998	9.9201e+01	9.9162	17.617158	0.000434	4.340745	0.735342	0.000043
 999	9.9301e+01	9.9238	17.667261	0.000504	5.036902	0.853274	0.000050
1000	9.9400e+01	9.9355	17.714106	0.000471	4.709299	0.797777	0.000047
1001	9.9500e+01	9.9433	17.761357	0.000475	4.750249	0.804714	0.000047
1002	9.9600e+01	9.9590	17.811053	0.000500	4.995952	0.846337	0.000050
1003	9.9699e+01	9.9641	17.856675	0.000459	4.586447	0.776965	0.000046
1004	9.9799e+01	9.9734	17.904335	0.000479	4.791200	0.811651	0.000048
1005	9.9898e+01	9.9854	17.956067	0.000520	5.200704	0.881023	0.000052
1006	9.9998e+01	9.9939	18.003726	0.000479	4.791200	0.811651	0.000048
1007	1.0010e+02	9.9854	18.008207	-0.000045	-0.450455	-0.076309	0.000005
1008	1.0020e+02	9.9768	18.013095	-0.000049	-0.491405	-0.083246	0.000005
1009	1.0030e+02	9.9622	18.019205	-0.000061	-0.614256	-0.104058	0.000006
1010	1.0040e+02	9.9542	18.026130	-0.000070	-0.696157	-0.117932	0.000007
1011	1.0050e+02	9.9441	18.030203	-0.000041	-0.409504	-0.069372	0.000004
1012	1.0059e+02	9.9365	18.033055	-0.000029	-0.286653	-0.048560	0.000003
1013	1.0069e+02	9.9245	18.031425	0.000016	0.163802	0.027749	-0.000002
1014	1.0079e+02	9.9146	18.036721	-0.000053	-0.532356	-0.090183	0.000005
1015	1.0089e+02	9.9043	18.044460	-0.000078	-0.778058	-0.131807	0.000008
1016	1.0099e+02	9.8940	18.044460	-0.000000	-0.000000	-0.000000	0.000000
1017	1.0109e+02	9.8840	18.048534	-0.000041	-0.409504	-0.069372	0.000004
1018	1.0119e+02	9.8745	18.044868	0.000037	0.368554	0.062435	-0.000004
1019	1.0129e+02	9.8663	18.042831	0.000020	0.204752	0.034686	-0.000002
1020	1.0139e+02	9.8543	18.044053	-0.000012	-0.122851	-0.020812	0.000001
1021	1.0149e+02	9.8486	18.044460	-0.000004	-0.040950	-0.006937	0.000000
1022	1.0159e+02	9.8348	18.037536	0.000070	0.696157	0.117932	-0.000007
1023	1.0169e+02	9.8242	18.031833	0.000057	0.573306	0.097121	-0.000006
1024	1.0179e+02	9.8184	18.028167	0.000037	0.368554	0.062435	-0.000004
1025	1.0189e+02	9.8054	18.024093	0.000041	0.409504	0.069372	-0.000004
1026	1.0199e+02	9.7950	18.019205	0.000049	0.491405	0.083246	-0.000005
1027	1.0209e+02	9.7878	18.012280	0.000070	0.696157	0.117932	-0.000007
1028	1.0219e+02	9.7739	18.011058	0.000012	0.122851	0.020812	-0.000001
1029	1.0229e+02	9.7620	18.009836	0.000012	0.122851	0.020812	-0.000001
1030	1.0239e+02	9.7541	18.006577	0.000033	0.327603	0.055498	-0.000003
1031	1.0248e+02	9.7485	18.003319	0.000033	0.327603	0.055498	-0.000003
1032	1.0258e+02	9.7363	17.997209	0.000061	0.614256	0.104058	-0.000006
1033	1.0268e+02	9.7255	17.993950	0.000033	0.327603	0.055498	-0.000003
1034	1.0278e+02	9.7168	17.991506	0.000025	0.245703	0.041623	-0.000002
1035	1.0288e+02	9.7060	17.984581	0.000070	0.696157	0.117932	-0.000007
1036	1.0298e+02	9.6981	17.980100	0.000045	0.450455	0.076309	-0.000005
1037	1.0308e+02	9.6860	17.981322	-0.000012	-0.122851	-0.020812	0.000001
1038	1.0318e+02	9.6729	17.974397	0.000070	0.696157	0.117932	-0.000007
1039	1.0328e+02	9.6643	17.972768	0.000016	0.163802	0.027749	-0.000002
1040	1.0338e+02	9.6553	17.968287	0.000045	0.450455	0.076309	-0.000005
1041	1.0348e+02	9.6436	17.966658	0.000016	0.163802	0.027749	-0.000002
1042	1.0358e+02	9.6371	17.957289	0.000094	0.941860	0.159555	-0.000009
1043	1.0368e+02	9.6296	17.954845	0.000025	0.245703	0.041623	-0.000002
1044	1.0378e+02	9.6163	17.945883	0.000090	0.900909	0.152618	-0.000009
1045	1.0388e+02	9.6082	17.943032	0.000029	0.286653	0.048560	-0.000003
1046	1.0398e+02	9.5967	17.936922	0.000061	0.614256	0.104058	-0.000006
1047	1.0408e+02	9.5886	17.937737	-0.000008	-0.081901	-0.013874	0.000001
1048	1.0418e+02	9.5777	17.933663	0.000041	0.409504	0.069372	-0.000004
1049	1.0428e+02	9.5663	17.930404	0.000033	0.327603	0.055498	-0.000003
1050	1.0438e+02	9.5557	17.929182	0.000012	0.122851	0.020812	-0.000001
1051	1.0447e+02	9.5428	17.925516	0.000037	0.368554	0.062435	-0.000004
1052	1.0457e+02	9.5358	17.922258	0.000033	0.327603	0.055498	-0.000003
1053	1.0467e+02	9.5264	17.920221	0.000020	0.204752	0.034686	-0.000002
1054	1.0477e+02	9.5168	17.914925	0.000053	0.532356	0.090183	-0.000005
1055	1.0487e+02	9.5080	17.911259	0.000037	0.368554	0.062435	-0.000004
1056	1.0497e+02	9.4981	17.905149	0.000061	0.614256	0.104058	-0.000006
1057	1.0507e+02	9.4857	17.904335	0.000008	0.081901	0.013874	-0.000001
1058	1.0517e+02	9.4775	17.903520	0.000008	0.081901	0.013874	-0.000001
1059	1.0527e+02	9.4687	17.897410	0.000061	0.614256	0.104058	-0.000006
1060	1.0537e+02	9.4574	17.898224	-0.000008	-0.081901	-0.013874	0.000001
1061	1.0547e+02	9.4460	17.885597	0.000127	1.269463	0.215053	-0.000013
1062	1.0557e+02	9.4398	17.885189	0.000004	0.040950	0.006937	-0.000000
1063	1.0567e+02	9.4257	17.877043	0.000082	0.819008	0.138744	-0.000008
1064	1.0577e+02	9.4162	17.876228	0.000008	0.081901	0.013874	-0.000001
1065	1.0587e+02	9.4083	17.867266	0.000090	0.900909	0.152618	-0.000009
1066	1.0597e+02	9.4012	17.859934	0.000074	0.737108	0.124869	-0.000007
1067	1.0607e+02	9.3888	17.853824	0.000061	0.614256	0.104058	-0.000006
1068	1.0617e+02	9.3768	17.846492	0.000074	0.737108	0.124869	-0.000007
1069	1.0627e+02	9.3684	17.841604	0.000049	0.491405	0.083246	-0.000005
1070	1.0637e+02	9.3587	17.830606	0.000111	1.105661	0.187304	-0.000011
1071	1.0647e+02	9.3485	17.831420	-0.000008	-0.081901	-0.013874	0.000001
1072	1.0656e+02	9.3378	17.828976	0.000025	0.245703	0.041623	-0.000002
1073	1.0666e+02	9.3301	17.816349	0.000127	1.269463	0.215053	-0.000013
1074	1.0676e+02	9.3182	17.811053	0.000053	0.532356	0.090183	-0.000005
1075	1.0686e+02	9.3083	17.804943	0.000061	0.614256	0.104058	-0.000006
1076	1.0696e+02	9.2996	17.800055	0.000049	0.491405	0.083246	-0.000005
1077	1.0706e+02	9.2884	17.792315	0.000078	0.778058	0.131807	-0.000008
1078	1.0716e+02	9.2823	17.781724	0.000106	1.064711	0.180367	-0.000011
1079	1.0726e+02	9.2706	17.777244	0.000045	0.450455	0.076309	-0.000005
1080	1.0736e+02	9.2578	17.769911	0.000074	0.737108	0.124869	-0.000007
1081	1.0746e+02	9.2496	17.757691	0.000123	1.228513	0.208116	-0.000012
1082	1.0756e+02	9.2386	17.748730	0.000090	0.900909	0.152618	-0.000009
1083	1.0766e+02	9.2286	17.745064	0.000037	0.368554	0.062435	-0.000004
1084	1.0776e+02	9.2181	17.734880	0.000102	1.023761	0.173430	-0.000010
1085	1.0786e+02	9.2078	17.723067	0.000119	1.187562	0.201178	-0.000012
1086	1.0796e+02	9.2010	17.716957	0.000061	0.614256	0.104058	-0.000006
1087	1.0806e+02	9.1897	17.706366	0.000106	1.064711	0.180367	-0.000011
1088	1.0816e+02	9.1787	17.696182	0.000102	1.023761	0.173430	-0.000010
1089	1.0826e+02	9.1702	17.688850	0.000074	0.737108	0.124869	-0.000007
1090	1.0836e+02	9.1595	17.673779	0.000152	1.515166	0.256676	-0.000015
1091	1.0845e+02	9.1518	17.667668	0.000061	0.614256	0.104058	-0.000006
1092	1.0855e+02	9.1412	17.657892	0.000098	0.982810	0.166493	-0.000010
1093	1.0865e+02	9.1309	17.648931	0.000090	0.900909	0.152618	-0.000009
1094	1.0875e+02	9.1193	17.639155	0.000098	0.982810	0.166493	-0.000010
1095	1.0885e+02	9.1114	17.626120	0.000131	1.310414	0.221990	-0.000013
1096	1.0895e+02	9.1006	17.610641	0.000156	1.556116	0.263613	-0.000016
1097	1.0905e+02	9.0894	17.598420	0.000123	1.228513	0.208116	-0.000012
1098	1.0915e+02	9.0774	17.586607	0.000119	1.187562	0.201178	-0.000012
1099	1.0925e+02	9.0687	17.572350	0.000143	1.433265	0.242802	-0.000014
1100	1.0935e+02	9.0590	17.560945	0.000115	1.146612	0.194241	-0.000011
1101	1.0945e+02	9.0463	17.546280	0.000147	1.474215	0.249739	-0.000015
1102	1.0955e+02	9.0394	17.536912	0.000094	0.941860	0.159555	-0.000009
1103	1.0965e+02	9.0327	17.524691	0.000123	1.228513	0.208116	-0.000012
1104	1.0975e+02	9.0234	17.510027	0.000147	1.474215	0.249739	-0.000015
1105	1.0985e+02	9.0089	17.499436	0.000106	1.064711	0.180367	-0.000011
1106	1.0995e+02	9.0002	17.486808	0.000127	1.269463	0.215053	-0.000013
1107	1.1005e+02	8.9901	17.474181	0.000127	1.269463	0.215053	-0.000013
1108	1.1015e+02	8.9796	17.462775	0.000115	1.146612	0.194241	-0.000011
1109	1.1025e+02	8.9698	17.447704	0.000152	1.515166	0.256676	-0.000015
1110	1.1035e+02	8.9587	17.436298	0.000115	1.146612	0.194241	-0.000011
1111	1.1044e+02	8.9505	17.421226	0.000152	1.515166	0.256676	-0.000015
1112	1.1054e+02	8.9397	17.408599	0.000127	1.269463	0.215053	-0.000013
1113	1.1064e+02	8.9299	17.392712	0.000160	1.597067	0.270550	-0.000016
1114	1.1074e+02	8.9178	17.375604	0.000172	1.719918	0.291362	-0.000017
1115	1.1084e+02	8.9111	17.362162	0.000135	1.351364	0.228927	-0.000014
1116	1.1094e+02	8.8989	17.347090	0.000152	1.515166	0.256676	-0.000015
1117	1.1104e+02	8.8909	17.330796	0.000164	1.638017	0.277488	-0.000016
1118	1.1114e+02	8.8804	17.316947	0.000139	1.392314	0.235864	-0.000014
1119	1.1124e+02	8.8696	17.297801	0.000192	1.924670	0.326048	-0.000019
1120	1.1134e+02	8.8593	17.283544	0.000143	1.433265	0.242802	-0.000014
1121	1.1144e+02	8.8501	17.267251	0.000164	1.638017	0.277488	-0.000016
1122	1.1154e+02	8.8392	17.249735	0.000176	1.760868	0.298299	-0.000018
1123	1.1164e+02	8.8342	17.233849	0.000160	1.597067	0.270550	-0.000016
1124	1.1174e+02	8.8195	17.215111	0.000188	1.883719	0.319111	-0.000019
1125	1.1184e+02	8.8103	17.195151	0.000201	2.006571	0.339922	-0.000020
1126	1.1194e+02	8.8012	17.175191	0.000201	2.006571	0.339922	-0.000020
1127	1.1204e+02	8.7915	17.157676	0.000176	1.760868	0.298299	-0.000018
1128	1.1214e+02	8.7811	17.136494	0.000213	2.129422	0.360734	-0.000021
1129	1.1224e+02	8.7720	17.111239	0.000254	2.538926	0.430106	-0.000025
1130	1.1234e+02	8.7607	17.094945	0.000164	1.638017	0.277488	-0.000016
1131	1.1244e+02	8.7519	17.071726	0.000233	2.334174	0.395420	-0.000023
1132	1.1253e+02	8.7418	17.054618	0.000172	1.719918	0.291362	-0.000017
1133	1.1263e+02	8.7332	17.031399	0.000233	2.334174	0.395420	-0.000023
1134	1.1273e+02	8.7218	17.012254	0.000192	1.924670	0.326048	-0.000019
1135	1.1283e+02	8.7124	16.989443	0.000229	2.293224	0.388483	-0.000023
1136	1.1293e+02	8.7041	16.970705	0.000188	1.883719	0.319111	-0.000019
1137	1.1303e+02	8.6941	16.952375	0.000184	1.842769	0.312174	-0.000018
1138	1.1313e+02	8.6838	16.928749	0.000238	2.375125	0.402357	-0.000024
1139	1.1323e+02	8.6708	16.905938	0.000229	2.293224	0.388483	-0.000023
1140	1.1333e+02	8.6642	16.886793	0.000192	1.924670	0.326048	-0.000019
1141	1.1343e+02	8.6523	16.858686	0.000283	2.825579	0.478666	-0.000028
1142	1.1353e+02	8.6432	16.840356	0.000184	1.842769	0.312174	-0.000018
1143	1.1363e+02	8.6298	16.814286	0.000262	2.620827	0.443980	-0.000026
1144	1.1373e+02	8.6230	16.792697	0.000217	2.170372	0.367671	-0.000022
1145	1.1383e+02	8.6135	16.769478	0.000233	2.334174	0.395420	-0.000023
1146	1.1393e+02	8.6050	16.745852	0.000238	2.375125	0.402357	-0.000024
1147	1.1403e+02	8.5947	16.721004	0.000250	2.497976	0.423169	-0.000025
1148	1.1413e+02	8.5840	16.692898	0.000283	2.825579	0.478666	-0.000028
1149	1.1423e+02	8.5715	16.676197	0.000168	1.678967	0.284425	-0.000017
1150	1.1433e+02	8.5621	16.648905	0.000274	2.743678	0.464792	-0.000027
1151	1.1442e+02	8.5530	16.628945	0.000201	2.006571	0.339922	-0.000020
1152	1.1452e+02	8.5445	16.600431	0.000287	2.866530	0.485603	-0.000029
1153	1.1462e+02	8.5319	16.578842	0.000217	2.170372	0.367671	-0.000022
1154	1.1472e+02	8.5227	16.553994	0.000250	2.497976	0.423169	-0.000025
1155	1.1482e+02	8.5148	16.527924	0.000262	2.620827	0.443980	-0.000026
1156	1.1492e+02	8.5049	16.505113	0.000229	2.293224	0.388483	-0.000023
1157	1.1502e+02	8.4943	16.478228	0.000270	2.702728	0.457855	-0.000027
1158	1.1512e+02	8.4855	16.451751	0.000266	2.661778	0.450917	-0.000027
1159	1.1522e+02	8.4753	16.426496	0.000254	2.538926	0.430106	-0.000025
1160	1.1532e+02	8.4631	16.399611	0.000270	2.702728	0.457855	-0.000027
1161	1.1542e+02	8.4498	16.374763	0.000250	2.497976	0.423169	-0.000025
1162	1.1552e+02	8.4420	16.351952	0.000229	2.293224	0.388483	-0.000023
1163	1.1562e+02	8.4327	16.327511	0.000246	2.457025	0.416231	-0.000025
1164	1.1572e+02	8.4239	16.305108	0.000225	2.252273	0.381545	-0.000023
1165	1.1582e+02	8.4121	16.283111	0.000221	2.211323	0.374608	-0.000022
1166	1.1592e+02	8.4034	16.263559	0.000197	1.965620	0.332985	-0.000020
1167	1.1602e+02	8.3965	16.236267	0.000274	2.743678	0.464792	-0.000027
1168	1.1612e+02	8.3844	16.211826	0.000246	2.457025	0.416231	-0.000025
1169	1.1622e+02	8.3752	16.188608	0.000233	2.334174	0.395420	-0.000023
1170	1.1632e+02	8.3645	16.166611	0.000221	2.211323	0.374608	-0.000022
1171	1.1642e+02	8.3540	16.146244	0.000205	2.047521	0.346859	-0.000020
1172	1.1651e+02	8.3420	16.118137	0.000283	2.825579	0.478666	-0.000028
1173	1.1661e+02	8.3331	16.096956	0.000213	2.129422	0.360734	-0.000021
1174	1.1671e+02	8.3233	16.067220	0.000299	2.989381	0.506415	-0.000030
1175	1.1681e+02	8.3143	16.047667	0.000197	1.965620	0.332985	-0.000020
1176	1.1691e+02	8.3058	16.022005	0.000258	2.579877	0.437043	-0.000026
1177	1.1701e+02	8.2939	16.001230	0.000209	2.088472	0.353797	-0.000021
1178	1.1711e+02	8.2836	15.973938	0.000274	2.743678	0.464792	-0.000027
1179	1.1721e+02	8.2754	15.952756	0.000213	2.129422	0.360734	-0.000021
1180	1.1731e+02	8.2635	15.927501	0.000254	2.538926	0.430106	-0.000025
1181	1.1741e+02	8.2534	15.903875	0.000238	2.375125	0.402357	-0.000024
1182	1.1751e+02	8.2446	15.883508	0.000205	2.047521	0.346859	-0.000020
1183	1.1761e+02	8.2374	15.858253	0.000254	2.538926	0.430106	-0.000025
1184	1.1771e+02	8.2248	15.834220	0.000242	2.416075	0.409294	-0.000024
1185	1.1781e+02	8.2143	15.811408	0.000229	2.293224	0.388483	-0.000023
1186	1.1791e+02	8.2065	15.785339	0.000262	2.620827	0.443980	-0.000026
1187	1.1801e+02	8.1966	15.759676	0.000258	2.579877	0.437043	-0.000026
1188	1.1811e+02	8.1857	15.738902	0.000209	2.088472	0.353797	-0.000021
1189	1.1821e+02	8.1741	15.709573	0.000295	2.948430	0.499478	-0.000029
1190	1.1831e+02	8.1641	15.688391	0.000213	2.129422	0.360734	-0.000021
1191	1.1841e+02	8.1546	15.659877	0.000287	2.866530	0.485603	-0.000029
1192	1.1850e+02	8.1443	15.632178	0.000278	2.784629	0.471729	-0.000028
1193	1.1860e+02	8.1351	15.611403	0.000209	2.088472	0.353797	-0.000021
1194	1.1870e+02	8.1236	15.582889	0.000287	2.866530	0.485603	-0.000029
1195	1.1880e+02	8.1161	15.560485	0.000225	2.252273	0.381545	-0.000023
1196	1.1890e+02	8.1070	15.534008	0.000266	2.661778	0.450917	-0.000027
1197	1.1900e+02	8.0930	15.510790	0.000233	2.334174	0.395420	-0.000023
1198	1.1910e+02	8.0827	15.487978	0.000229	2.293224	0.388483	-0.000023
1199	1.1920e+02	8.0740	15.461909	0.000262	2.620827	0.443980	-0.000026
1200	1.1930e+02	8.0647	15.437061	0.000250	2.497976	0.423169	-0.000025
1201	1.1940e+02	8.0544	15.408139	0.000291	2.907480	0.492540	-0.000029
1202	1.1950e+02	8.0454	15.382884	0.000254	2.538926	0.430106	-0.000025
1203	1.1960e+02	8.0378	15.355592	0.000274	2.743678	0.464792	-0.000027
1204	1.1970e+02	8.0256	15.334003	0.000217	2.170372	0.367671	-0.000022
1205	1.1980e+02	8.0186	15.303860	0.000303	3.030331	0.513352	-0.000030
1206	1.1990e+02	8.0051	15.280234	0.000238	2.375125	0.402357	-0.000024
1207	1.2000e+02	7.9975	15.253757	0.000266	2.661778	0.450917	-0.000027
1208	1.2010e+02	7.9858	15.229316	0.000246	2.457025	0.416231	-0.000025
1209	1.2020e+02	7.9755	15.204875	0.000246	2.457025	0.416231	-0.000025
1210	1.2030e+02	7.9646	15.181657	0.000233	2.334174	0.395420	-0.000023
1211	1.2039e+02	7.9552	15.157216	0.000246	2.457025	0.416231	-0.000025
1212	1.2049e+02	7.9451	15.131554	0.000258	2.579877	0.437043	-0.000026
1213	1.2059e+02	7.9346	15.111187	0.000205	2.047521	0.346859	-0.000020
1214	1.2069e+02	7.9224	15.087968	0.000233	2.334174	0.395420	-0.000023
1215	1.2079e+02	7.9163	15.061898	0.000262	2.620827	0.443980	-0.000026
1216	1.2089e+02	7.9057	15.039087	0.000229	2.293224	0.388483	-0.000023
1217	1.2099e+02	7.8963	15.018313	0.000209	2.088472	0.353797	-0.000021
1218	1.2109e+02	7.8887	14.993465	0.000250	2.497976	0.423169	-0.000025
1219	1.2119e+02	7.8782	14.970653	0.000229	2.293224	0.388483	-0.000023
1220	1.2129e+02	7.8667	14.946213	0.000246	2.457025	0.416231	-0.000025
1221	1.2139e+02	7.8574	14.920143	0.000262	2.620827	0.443980	-0.000026
1222	1.2149e+02	7.8458	14.895702	0.000246	2.457025	0.416231	-0.000025
1223	1.2159e+02	7.8362	14.873299	0.000225	2.252273	0.381545	-0.000023
1224	1.2169e+02	7.8233	14.851709	0.000217	2.170372	0.367671	-0.000022
1225	1.2179e+02	7.8167	14.828491	0.000233	2.334174	0.395420	-0.000023
1226	1.2189e+02	7.8069	14.809346	0.000192	1.924670	0.326048	-0.000019
1227	1.2199e+02	7.7954	14.782869	0.000266	2.661778	0.450917	-0.000027
1228	1.2209e+02	7.7863	14.761279	0.000217	2.170372	0.367671	-0.000022
1229	1.2219e+02	7.7763	14.741727	0.000197	1.965620	0.332985	-0.000020
1230	1.2229e+02	7.7680	14.718916	0.000229	2.293224	0.388483	-0.000023
1231	1.2239e+02	7.7584	14.698956	0.000201	2.006571	0.339922	-0.000020
1232	1.2248e+02	7.7461	14.678589	0.000205	2.047521	0.346859	-0.000020
1233	1.2258e+02	7.7385	14.654556	0.000242	2.416075	0.409294	-0.000024
1234	1.2268e+02	7.7288	14.632152	0.000225	2.252273	0.381545	-0.000023
1235	1.2278e+02	7.7161	14.609748	0.000225	2.252273	0.381545	-0.000023
1236	1.2288e+02	7.7054	14.588973	0.000209	2.088472	0.353797	-0.000021
1237	1.2298e+02	7.6986	14.565755	0.000233	2.334174	0.395420	-0.000023
1238	1.2308e+02	7.6870	14.543351	0.000225	2.252273	0.381545	-0.000023
1239	1.2318e+02	7.6745	14.520947	0.000225	2.252273	0.381545	-0.000023
1240	1.2328e+02	7.6632	14.501802	0.000192	1.924670	0.326048	-0.000019
1241	1.2338e+02	7.6594	14.480620	0.000213	2.129422	0.360734	-0.000021
1242	1.2348e+02	7.6465	14.456994	0.000238	2.375125	0.402357	-0.000024
1243	1.2358e+02	7.6376	14.432554	0.000246	2.457025	0.416231	-0.000025
1244	1.2368e+02	7.6287	14.415038	0.000176	1.760868	0.298299	-0.000018
1245	1.2378e+02	7.6201	14.393856	0.000213	2.129422	0.360734	-0.000021
1246	1.2388e+02	7.6054	14.366972	0.000270	2.702728	0.457855	-0.000027
1247	1.2398e+02	7.5965	14.343753	0.000233	2.334174	0.395420	-0.000023
1248	1.2408e+02	7.5881	14.322164	0.000217	2.170372	0.367671	-0.000022
1249	1.2418e+02	7.5782	14.298946	0.000233	2.334174	0.395420	-0.000023
1250	1.2428e+02	7.5654	14.274912	0.000242	2.416075	0.409294	-0.000024
1251	1.2438e+02	7.5594	14.251287	0.000238	2.375125	0.402357	-0.000024
1252	1.2447e+02	7.5489	14.226031	0.000254	2.538926	0.430106	-0.000025
1253	1.2457e+02	7.5388	14.203220	0.000229	2.293224	0.388483	-0.000023
1254	1.2467e+02	7.5281	14.176335	0.000270	2.702728	0.457855	-0.000027
1255	1.2477e+02	7.5179	14.154339	0.000221	2.211323	0.374608	-0.000022
1256	1.2487e+02	7.5085	14.128269	0.000262	2.620827	0.443980	-0.000026
1257	1.2497e+02	7.4974	14.106273	0.000221	2.211323	0.374608	-0.000022
1258	1.2507e+02	7.4893	14.083869	0.000225	2.252273	0.381545	-0.000023
1259	1.2517e+02	7.4782	14.056577	0.000274	2.743678	0.464792	-0.000027
1260	1.2527e+02	7.4690	14.034173	0.000225	2.252273	0.381545	-0.000023
1261	1.2537e+02	7.4567	14.008103	0.000262	2.620827	0.443980	-0.000026
1262	1.2547e+02	7.4480	13.983255	0.000250	2.497976	0.423169	-0.000025
1263	1.2557e+02	7.4355	13.959629	0.000238	2.375125	0.402357	-0.000024
1264	1.2567e+02	7.4283	13.937225	0.000225	2.252273	0.381545	-0.000023
1265	1.2577e+02	7.4181	13.908304	0.000291	2.907480	0.492540	-0.000029
1266	1.2587e+02	7.4106	13.883864	0.000246	2.457025	0.416231	-0.000025
1267	1.2597e+02	7.3994	13.857386	0.000266	2.661778	0.450917	-0.000027
1268	1.2607e+02	7.3881	13.835390	0.000221	2.211323	0.374608	-0.000022
1269	1.2617e+02	7.3812	13.808505	0.000270	2.702728	0.457855	-0.000027
1270	1.2627e+02	7.3675	13.784879	0.000238	2.375125	0.402357	-0.000024
1271	1.2636e+02	7.3559	13.760031	0.000250	2.497976	0.423169	-0.000025
1272	1.2646e+02	7.3528	13.736406	0.000238	2.375125	0.402357	-0.000024
1273	1.2656e+02	7.3379	13.710336	0.000262	2.620827	0.443980	-0.000026
1274	1.2666e+02	7.3296	13.689154	0.000213	2.129422	0.360734	-0.000021
1275	1.2676e+02	7.3203	13.667157	0.000221	2.211323	0.374608	-0.000022
1276	1.2686e+02	7.3084	13.639051	0.000283	2.825579	0.478666	-0.000028
1277	1.2696e+02	7.3027	13.619906	0.000192	1.924670	0.326048	-0.000019
1278	1.2706e+02	7.2894	13.592206	0.000278	2.784629	0.471729	-0.000028
1279	1.2716e+02	7.2779	13.569395	0.000229	2.293224	0.388483	-0.000023
1280	1.2726e+02	7.2706	13.542918	0.000266	2.661778	0.450917	-0.000027
1281	1.2736e+02	7.2585	13.522551	0.000205	2.047521	0.346859	-0.000020
1282	1.2746e+02	7.2490	13.494037	0.000287	2.866530	0.485603	-0.000029
1283	1.2756e+02	7.2401	13.472855	0.000213	2.129422	0.360734	-0.000021
1284	1.2766e+02	7.2305	13.445970	0.000270	2.702728	0.457855	-0.000027
1285	1.2776e+02	7.2218	13.426825	0.000192	1.924670	0.326048	-0.000019
1286	1.2786e+02	7.2097	13.401570	0.000254	2.538926	0.430106	-0.000025
1287	1.2796e+02	7.1986	13.377537	0.000242	2.416075	0.409294	-0.000024
1288	1.2806e+02	7.1896	13.354318	0.000233	2.334174	0.395420	-0.000023
1289	1.2816e+02	7.1806	13.327434	0.000270	2.702728	0.457855	-0.000027
1290	1.2826e+02	7.1702	13.302178	0.000254	2.538926	0.430106	-0.000025
1291	1.2835e+02	7.1602	13.281404	0.000209	2.088472	0.353797	-0.000021
1292	1.2845e+02	7.1494	13.251261	0.000303	3.030331	0.513352	-0.000030
1293	1.2855e+02	7.1416	13.224376	0.000270	2.702728	0.457855	-0.000027
1294	1.2865e+02	7.1301	13.196677	0.000278	2.784629	0.471729	-0.000028
1295	1.2875e+02	7.1174	13.175495	0.000213	2.129422	0.360734	-0.000021
1296	1.2885e+02	7.1085	13.149018	0.000266	2.661778	0.450917	-0.000027
1297	1.2895e+02	7.1013	13.119689	0.000295	2.948430	0.499478	-0.000029
1298	1.2905e+02	7.0907	13.092804	0.000270	2.702728	0.457855	-0.000027
1299	1.2915e+02	7.0811	13.068771	0.000242	2.416075	0.409294	-0.000024
1300	1.2925e+02	7.0704	13.043516	0.000254	2.538926	0.430106	-0.000025
1301	1.2935e+02	7.0595	13.013780	0.000299	2.989381	0.506415	-0.000030
1302	1.2945e+02	7.0508	12.988525	0.000254	2.538926	0.430106	-0.000025
1303	1.2955e+02	7.0441	12.957974	0.000307	3.071282	0.520289	-0.000031
1304	1.2965e+02	7.0286	12.934348	0.000238	2.375125	0.402357	-0.000024
1305	1.2975e+02	7.0199	12.910722	0.000238	2.375125	0.402357	-0.000024
1306	1.2985e+02	7.0117	12.880579	0.000303	3.030331	0.513352	-0.000030
1307	1.2995e+02	6.9994	12.854509	0.000262	2.620827	0.443980	-0.000026
1308	1.3005e+02	6.9912	12.824366	0.000303	3.030331	0.513352	-0.000030
1309	1.3015e+02	6.9840	12.795037	0.000295	2.948430	0.499478	-0.000029
1310	1.3025e+02	6.9711	12.764894	0.000303	3.030331	0.513352	-0.000030
1311	1.3034e+02	6.9601	12.735565	0.000295	2.948430	0.499478	-0.000029
1312	1.3044e+02	6.9495	12.709902	0.000258	2.579877	0.437043	-0.000026
1313	1.3054e+02	6.9411	12.680981	0.000291	2.907480	0.492540	-0.000029
1314	1.3064e+02	6.9317	12.652467	0.000287	2.866530	0.485603	-0.000029
1315	1.3074e+02	6.9241	12.621509	0.000311	3.112232	0.527226	-0.000031
1316	1.3084e+02	6.9113	12.592588	0.000291	2.907480	0.492540	-0.000029
1317	1.3094e+02	6.9017	12.560408	0.000324	3.235083	0.548038	-0.000032
1318	1.3104e+02	6.8897	12.533930	0.000266	2.661778	0.450917	-0.000027
1319	1.3114e+02	6.8799	12.505824	0.000283	2.825579	0.478666	-0.000028
1320	1.3124e+02	6.8728	12.475680	0.000303	3.030331	0.513352	-0.000030
1321	1.3134e+02	6.8607	12.443500	0.000324	3.235083	0.548038	-0.000032
1322	1.3144e+02	6.8517	12.415394	0.000283	2.825579	0.478666	-0.000028
1323	1.3154e+02	6.8392	12.384436	0.000311	3.112232	0.527226	-0.000031
1324	1.3164e+02	6.8348	12.352663	0.000319	3.194133	0.541101	-0.000032
1325	1.3174e+02	6.8214	12.325371	0.000274	2.743678	0.464792	-0.000027
1326	1.3184e+02	6.8110	12.291969	0.000336	3.357935	0.568850	-0.000034
1327	1.3194e+02	6.8026	12.266306	0.000258	2.579877	0.437043	-0.000026
1328	1.3204e+02	6.7934	12.234534	0.000319	3.194133	0.541101	-0.000032
1329	1.3214e+02	6.7827	12.200317	0.000344	3.439836	0.582724	-0.000034
1330	1.3224e+02	6.7729	12.177506	0.000229	2.293224	0.388483	-0.000023
1331	1.3234e+02	6.7625	12.148584	0.000291	2.907480	0.492540	-0.000029
1332	1.3243e+02	6.7516	12.117219	0.000315	3.153183	0.534164	-0.000032
1333	1.3253e+02	6.7423	12.094000	0.000233	2.334174	0.395420	-0.000023
1334	1.3263e+02	6.7312	12.063450	0.000307	3.071282	0.520289	-0.000031
1335	1.3273e+02	6.7207	12.036158	0.000274	2.743678	0.464792	-0.000027
1336	1.3283e+02	6.7123	12.011310	0.000250	2.497976	0.423169	-0.000025
1337	1.3293e+02	6.7020	11.981574	0.000299	2.989381	0.506415	-0.000030
1338	1.3303e+02	6.6912	11.952652	0.000291	2.907480	0.492540	-0.000029
1339	1.3313e+02	6.6817	11.925768	0.000270	2.702728	0.457855	-0.000027
1340	1.3323e+02	6.6743	11.896439	0.000295	2.948430	0.499478	-0.000029
1341	1.3333e+02	6.6608	11.865889	0.000307	3.071282	0.520289	-0.000031
1342	1.3343e+02	6.6520	11.839004	0.000270	2.702728	0.457855	-0.000027
1343	1.3353e+02	6.6422	11.812119	0.000270	2.702728	0.457855	-0.000027
1344	1.3363e+02	6.6338	11.781976	0.000303	3.030331	0.513352	-0.000030
1345	1.3373e+02	6.6240	11.752240	0.000299	2.989381	0.506415	-0.000030
1346	1.3383e+02	6.6132	11.726577	0.000258	2.579877	0.437043	-0.000026
1347	1.3393e+02	6.6016	11.701729	0.000250	2.497976	0.423169	-0.000025
1348	1.3403e+02	6.5926	11.673215	0.000287	2.866530	0.485603	-0.000029
1349	1.3413e+02	6.5842	11.645109	0.000283	2.825579	0.478666	-0.000028
1350	1.3423e+02	6.5740	11.618224	0.000270	2.702728	0.457855	-0.000027
1351	1.3432e+02	6.5652	11.592562	0.000258	2.579877	0.437043	-0.000026
1352	1.3442e+02	6.5530	11.559567	0.000332	3.316984	0.561912	-0.000033
1353	1.3452e+02	6.5432	11.535126	0.000246	2.457025	0.416231	-0.000025
1354	1.3462e+02	6.5334	11.504983	0.000303	3.030331	0.513352	-0.000030
1355	1.3472e+02	6.5215	11.478098	0.000270	2.702728	0.457855	-0.000027
1356	1.3482e+02	6.5159	11.448362	0.000299	2.989381	0.506415	-0.000030
1357	1.3492e+02	6.5039	11.420256	0.000283	2.825579	0.478666	-0.000028
1358	1.3502e+02	6.4909	11.392149	0.000283	2.825579	0.478666	-0.000028
1359	1.3512e+02	6.4838	11.358747	0.000336	3.357935	0.568850	-0.000034
1360	1.3522e+02	6.4749	11.330640	0.000283	2.825579	0.478666	-0.000028
1361	1.3532e+02	6.4642	11.298053	0.000328	3.276034	0.554975	-0.000033
1362	1.3542e+02	6.4523	11.266688	0.000315	3.153183	0.534164	-0.000032
1363	1.3552e+02	6.4449	11.239803	0.000270	2.702728	0.457855	-0.000027
1364	1.3562e+02	6.4359	11.210882	0.000291	2.907480	0.492540	-0.000029
1365	1.3572e+02	6.4251	11.186848	0.000242	2.416075	0.409294	-0.000024
1366	1.3582e+02	6.4129	11.155483	0.000315	3.153183	0.534164	-0.000032
1367	1.3592e+02	6.4030	11.127376	0.000283	2.825579	0.478666	-0.000028
1368	1.3602e+02	6.3926	11.100492	0.000270	2.702728	0.457855	-0.000027
1369	1.3612e+02	6.3851	11.066275	0.000344	3.439836	0.582724	-0.000034
1370	1.3622e+02	6.3702	11.036946	0.000295	2.948430	0.499478	-0.000029
1371	1.3631e+02	6.3624	11.008840	0.000283	2.825579	0.478666	-0.000028
1372	1.3641e+02	6.3538	10.981955	0.000270	2.702728	0.457855	-0.000027
1373	1.3651e+02	6.3428	10.951812	0.000303	3.030331	0.513352	-0.000030
1374	1.3661e+02	6.3356	10.922483	0.000295	2.948430	0.499478	-0.000029
1375	1.3671e+02	6.3253	10.891118	0.000315	3.153183	0.534164	-0.000032
1376	1.3681e+02	6.3136	10.863419	0.000278	2.784629	0.471729	-0.000028
1377	1.3691e+02	6.3039	10.834497	0.000291	2.907480	0.492540	-0.000029
1378	1.3701e+02	6.2941	10.810464	0.000242	2.416075	0.409294	-0.000024
1379	1.3711e+02	6.2862	10.781543	0.000291	2.907480	0.492540	-0.000029
1380	1.3721e+02	6.2725	10.755880	0.000258	2.579877	0.437043	-0.000026
1381	1.3731e+02	6.2643	10.728995	0.000270	2.702728	0.457855	-0.000027
1382	1.3741e+02	6.2565	10.700481	0.000287	2.866530	0.485603	-0.000029
1383	1.3751e+02	6.2462	10.672782	0.000278	2.784629	0.471729	-0.000028
1384	1.3761e+02	6.2337	10.646305	0.000266	2.661778	0.450917	-0.000027
1385	1.3771e+02	6.2256	10.620642	0.000258	2.579877	0.437043	-0.000026
1386	1.3781e+02	6.2179	10.589684	0.000311	3.112232	0.527226	-0.000031
1387	1.3791e+02	6.2043	10.563207	0.000266	2.661778	0.450917	-0.000027
1388	1.3801e+02	6.1948	10.535100	0.000283	2.825579	0.478666	-0.000028
1389	1.3811e+02	6.1854	10.509845	0.000254	2.538926	0.430106	-0.000025
1390	1.3821e+02	6.1739	10.480924	0.000291	2.907480	0.492540	-0.000029
1391	1.3831e+02	6.1628	10.455261	0.000258	2.579877	0.437043	-0.000026
1392	1.3840e+02	6.1517	10.427155	0.000283	2.825579	0.478666	-0.000028
1393	1.3850e+02	6.1446	10.399863	0.000274	2.743678	0.464792	-0.000027
1394	1.3860e+02	6.1358	10.372978	0.000270	2.702728	0.457855	-0.000027
1395	1.3870e+02	6.1242	10.350167	0.000229	2.293224	0.388483	-0.000023
1396	1.3880e+02	6.1138	10.328985	0.000213	2.129422	0.360734	-0.000021
1397	1.3890e+02	6.1092	10.301693	0.000274	2.743678	0.464792	-0.000027
1398	1.3900e+02	6.0961	10.274809	0.000270	2.702728	0.457855	-0.000027
1399	1.3910e+02	6.0853	10.249961	0.000250	2.497976	0.423169	-0.000025
1400	1.3920e+02	6.0748	10.227149	0.000229	2.293224	0.388483	-0.000023
1401	1.3930e+02	6.0680	10.201080	0.000262	2.620827	0.443980	-0.000026
1402	1.3940e+02	6.0549	10.176232	0.000250	2.497976	0.423169	-0.000025
1403	1.3950e+02	6.0450	10.148532	0.000278	2.784629	0.471729	-0.000028
1404	1.3960e+02	6.0357	10.122462	0.000262	2.620827	0.443980	-0.000026
1405	1.3970e+02	6.0260	10.099651	0.000229	2.293224	0.388483	-0.000023
1406	1.3980e+02	6.0137	10.073174	0.000266	2.661778	0.450917	-0.000027
1407	1.3990e+02	6.0082	10.047104	0.000262	2.620827	0.443980	-0.000026
1408	1.4000e+02	5.9968	10.024293	0.000229	2.293224	0.388483	-0.000023
1409	1.4010e+02	5.9880	9.995779	0.000287	2.866530	0.485603	-0.000029
1410	1.4020e+02	5.9759	9.971746	0.000242	2.416075	0.409294	-0.000024
1411	1.4029e+02	5.9707	9.946490	0.000254	2.538926	0.430106	-0.000025
1412	1.4039e+02	5.9562	9.921235	0.000254	2.538926	0.430106	-0.000025
1413	1.4049e+02	5.9496	9.894758	0.000266	2.661778	0.450917	-0.000027
1414	1.4059e+02	5.9375	9.870317	0.000246	2.457025	0.416231	-0.000025
1415	1.4069e+02	5.9258	9.844247	0.000262	2.620827	0.443980	-0.000026
1416	1.4079e+02	5.9184	9.814511	0.000299	2.989381	0.506415	-0.000030
1417	1.4089e+02	5.9069	9.792108	0.000225	2.252273	0.381545	-0.000023
1418	1.4099e+02	5.8961	9.763594	0.000287	2.866530	0.485603	-0.000029
1419	1.4109e+02	5.8862	9.732636	0.000311	3.112232	0.527226	-0.000031
1420	1.4119e+02	5.8779	9.706158	0.000266	2.661778	0.450917	-0.000027
1421	1.4129e+02	5.8669	9.677644	0.000287	2.866530	0.485603	-0.000029
1422	1.4139e+02	5.8558	9.648316	0.000295	2.948430	0.499478	-0.000029
1423	1.4149e+02	5.8488	9.619802	0.000287	2.866530	0.485603	-0.000029
1424	1.4159e+02	5.8355	9.590473	0.000295	2.948430	0.499478	-0.000029
1425	1.4169e+02	5.8263	9.568069	0.000225	2.252273	0.381545	-0.000023
1426	1.4179e+02	5.8189	9.538741	0.000295	2.948430	0.499478	-0.000029
1427	1.4189e+02	5.8092	9.507782	0.000311	3.112232	0.527226	-0.000031
1428	1.4199e+02	5.7973	9.484157	0.000238	2.375125	0.402357	-0.000024
1429	1.4209e+02	5.7854	9.456457	0.000278	2.784629	0.471729	-0.000028
1430	1.4219e+02	5.7781	9.426721	0.000299	2.989381	0.506415	-0.000030
1431	1.4228e+02	5.7692	9.399837	0.000270	2.702728	0.457855	-0.000027
1432	1.4238e+02	5.7574	9.368064	0.000319	3.194133	0.541101	-0.000032
1433	1.4248e+02	5.7485	9.343623	0.000246	2.457025	0.416231	-0.000025
1434	1.4258e+02	5.7397	9.313073	0.000307	3.071282	0.520289	-0.000031
1435	1.4268e+02	5.7305	9.284559	0.000287	2.866530	0.485603	-0.000029
1436	1.4278e+02	5.7180	9.258489	0.000262	2.620827	0.443980	-0.000026
1437	1.4288e+02	5.7069	9.225901	0.000328	3.276034	0.554975	-0.000033
1438	1.4298e+02	5.6979	9.202276	0.000238	2.375125	0.402357	-0.000024
1439	1.4308e+02	5.6861	9.172132	0.000303	3.030331	0.513352	-0.000030
1440	1.4318e+02	5.6773	9.146470	0.000258	2.579877	0.437043	-0.000026
1441	1.4328e+02	5.6673	9.115512	0.000311	3.112232	0.527226	-0.000031
1442	1.4338e+02	5.6591	9.089034	0.000266	2.661778	0.450917	-0.000027
1443	1.4348e+02	5.6475	9.063779	0.000254	2.538926	0.430106	-0.000025
1444	1.4358e+02	5.6384	9.037709	0.000262	2.620827	0.443980	-0.000026
1445	1.4368e+02	5.6276	9.010825	0.000270	2.702728	0.457855	-0.000027
1446	1.4378e+02	5.6173	8.985569	0.000254	2.538926	0.430106	-0.000025
1447	1.4388e+02	5.6101	8.957055	0.000287	2.866530	0.485603	-0.000029
1448	1.4398e+02	5.5975	8.930985	0.000262	2.620827	0.443980	-0.000026
1449	1.4408e+02	5.5898	8.900842	0.000303	3.030331	0.513352	-0.000030
1450	1.4418e+02	5.5766	8.873143	0.000278	2.784629	0.471729	-0.000028
1451	1.4428e+02	5.5682	8.841370	0.000319	3.194133	0.541101	-0.000032
1452	1.4437e+02	5.5570	8.814893	0.000266	2.661778	0.450917	-0.000027
1453	1.4447e+02	5.5479	8.789230	0.000258	2.579877	0.437043	-0.000026
1454	1.4457e+02	5.5386	8.765604	0.000238	2.375125	0.402357	-0.000024
1455	1.4467e+02	5.5294	8.736276	0.000295	2.948430	0.499478	-0.000029
1456	1.4477e+02	5.5187	8.708984	0.000274	2.743678	0.464792	-0.000027
1457	1.4487e+02	5.5096	8.681692	0.000274	2.743678	0.464792	-0.000027
1458	1.4497e+02	5.4992	8.652770	0.000291	2.907480	0.492540	-0.000029
1459	1.4507e+02	5.4861	8.625479	0.000274	2.743678	0.464792	-0.000027
1460	1.4517e+02	5.4742	8.593298	0.000324	3.235083	0.548038	-0.000032
1461	1.4527e+02	5.4671	8.563562	0.000299	2.989381	0.506415	-0.000030
1462	1.4537e+02	5.4568	8.532197	0.000315	3.153183	0.534164	-0.000032
1463	1.4547e+02	5.4479	8.507757	0.000246	2.457025	0.416231	-0.000025
1464	1.4557e+02	5.4366	8.472725	0.000352	3.521736	0.596598	-0.000035
1465	1.4567e+02	5.4322	8.442174	0.000307	3.071282	0.520289	-0.000031
1466	1.4577e+02	5.4194	8.412846	0.000295	2.948430	0.499478	-0.000029
1467	1.4587e+02	5.4089	8.382702	0.000303	3.030331	0.513352	-0.000030
1468	1.4597e+02	5.3996	8.355410	0.000274	2.743678	0.464792	-0.000027
1469	1.4607e+02	5.3864	8.322823	0.000328	3.276034	0.554975	-0.000033
1470	1.4617e+02	5.3804	8.294309	0.000287	2.866530	0.485603	-0.000029
1471	1.4626e+02	5.3701	8.263351	0.000311	3.112232	0.527226	-0.000031
1472	1.4636e+02	5.3570	8.231986	0.000315	3.153183	0.534164	-0.000032
1473	1.4646e+02	5.3509	8.201028	0.000311	3.112232	0.527226	-0.000031
1474	1.4656e+02	5.3396	8.169662	0.000315	3.153183	0.534164	-0.000032
1475	1.4666e+02	5.3319	8.141148	0.000287	2.866530	0.485603	-0.000029
1476	1.4676e+02	5.3182	8.106524	0.000348	3.480786	0.589661	-0.000035
1477	1.4686e+02	5.3111	8.073937	0.000328	3.276034	0.554975	-0.000033
1478	1.4696e+02	5.3013	8.044201	0.000299	2.989381	0.506415	-0.000030
1479	1.4706e+02	5.2898	8.013650	0.000307	3.071282	0.520289	-0.000031
1480	1.4716e+02	5.2798	7.979433	0.000344	3.439836	0.582724	-0.000034
1481	1.4726e+02	5.2694	7.946846	0.000328	3.276034	0.554975	-0.000033
1482	1.4736e+02	5.2602	7.912629	0.000344	3.439836	0.582724	-0.000034
1483	1.4746e+02	5.2493	7.878412	0.000344	3.439836	0.582724	-0.000034
1484	1.4756e+02	5.2386	7.845418	0.000332	3.316984	0.561912	-0.000033
1485	1.4766e+02	5.2302	7.812830	0.000328	3.276034	0.554975	-0.000033
1486	1.4776e+02	5.2186	7.778206	0.000348	3.480786	0.589661	-0.000035
1487	1.4786e+02	5.2096	7.745619	0.000328	3.276034	0.554975	-0.000033
1488	1.4796e+02	5.1977	7.714661	0.000311	3.112232	0.527226	-0.000031
1489	1.4806e+02	5.1910	7.683703	0.000311	3.112232	0.527226	-0.000031
1490	1.4816e+02	5.1784	7.649486	0.000344	3.439836	0.582724	-0.000034
1491	1.4825e+02	5.1694	7.616084	0.000336	3.357935	0.568850	-0.000034
1492	1.4835e+02	5.1638	7.579423	0.000369	3.685538	0.624347	-0.000037
1493	1.4845e+02	5.1514	7.550502	0.000291	2.907480	0.492540	-0.000029
1494	1.4855e+02	5.1427	7.512211	0.000385	3.849340	0.652096	-0.000038
1495	1.4865e+02	5.1299	7.481253	0.000311	3.112232	0.527226	-0.000031
1496	1.4875e+02	5.1223	7.448259	0.000332	3.316984	0.561912	-0.000033
1497	1.4885e+02	5.1129	7.416078	0.000324	3.235083	0.548038	-0.000032
1498	1.4895e+02	5.1019	7.384713	0.000315	3.153183	0.534164	-0.000032
1499	1.4905e+02	5.0907	7.350496	0.000344	3.439836	0.582724	-0.000034
1500	1.4915e+02	5.0808	7.321982	0.000287	2.866530	0.485603	-0.000029
1501	1.4925e+02	5.0732	7.293061	0.000291	2.907480	0.492540	-0.000029
1502	1.4935e+02	5.0614	7.258844	0.000344	3.439836	0.582724	-0.000034
1503	1.4945e+02	5.0509	7.225850	0.000332	3.316984	0.561912	-0.000033
1504	1.4955e+02	5.0404	7.195299	0.000307	3.071282	0.520289	-0.000031
1505	1.4965e+02	5.0311	7.165155	0.000303	3.030331	0.513352	-0.000030
1506	1.4975e+02	5.0185	7.131753	0.000336	3.357935	0.568850	-0.000034
1507	1.4985e+02	5.0115	7.100795	0.000311	3.112232	0.527226	-0.000031
1508	1.4995e+02	5.0007	7.068208	0.000328	3.276034	0.554975	-0.000033
1509	1.5005e+02	4.9918	7.038065	0.000303	3.030331	0.513352	-0.000030
1510	1.5015e+02	4.9798	7.005477	0.000328	3.276034	0.554975	-0.000033
1511	1.5025e+02	4.9702	6.973704	0.000319	3.194133	0.541101	-0.000032
1512	1.5034e+02	4.9612	6.942339	0.000315	3.153183	0.534164	-0.000032
1513	1.5044e+02	4.9501	6.913418	0.000291	2.907480	0.492540	-0.000029
1514	1.5054e+02	4.9395	6.879608	0.000340	3.398885	0.575787	-0.000034
1515	1.5064e+02	4.9307	6.849058	0.000307	3.071282	0.520289	-0.000031
1516	1.5074e+02	4.9209	6.815656	0.000336	3.357935	0.568850	-0.000034
1517	1.5084e+02	4.9123	6.788364	0.000274	2.743678	0.464792	-0.000027
1518	1.5094e+02	4.9010	6.755776	0.000328	3.276034	0.554975	-0.000033
1519	1.5104e+02	4.8928	6.724818	0.000311	3.112232	0.527226	-0.000031
1520	1.5114e+02	4.8825	6.691009	0.000340	3.398885	0.575787	-0.000034
1521	1.5124e+02	4.8742	6.660458	0.000307	3.071282	0.520289	-0.000031
1522	1.5134e+02	4.8600	6.626241	0.000344	3.439836	0.582724	-0.000034
1523	1.5144e+02	4.8528	6.599357	0.000270	2.702728	0.457855	-0.000027
1524	1.5154e+02	4.8417	6.565955	0.000336	3.357935	0.568850	-0.000034
1525	1.5164e+02	4.8322	6.531738	0.000344	3.439836	0.582724	-0.000034
1526	1.5174e+02	4.8228	6.497114	0.000348	3.480786	0.589661	-0.000035
1527	1.5184e+02	4.8119	6.464119	0.000332	3.316984	0.561912	-0.000033
1528	1.5194e+02	4.8022	6.430717	0.000336	3.357935	0.568850	-0.000034
1529	1.5204e+02	4.7913	6.397722	0.000332	3.316984	0.561912	-0.000033
1530	1.5214e+02	4.7808	6.363913	0.000340	3.398885	0.575787	-0.000034
1531	1.5224e+02	4.7712	6.332955	0.000311	3.112232	0.527226	-0.000031
1532	1.5233e+02	4.7624	6.304033	0.000291	2.907480	0.492540	-0.000029
1533	1.5243e+02	4.7533	6.270631	0.000336	3.357935	0.568850	-0.000034
1534	1.5253e+02	4.7411	6.237229	0.000336	3.357935	0.568850	-0.000034
1535	1.5263e+02	4.7334	6.203420	0.000340	3.398885	0.575787	-0.000034
1536	1.5273e+02	4.7222	6.168796	0.000348	3.480786	0.589661	-0.000035
1537	1.5283e+02	4.7120	6.136616	0.000324	3.235083	0.548038	-0.000032
1538	1.5293e+02	4.7021	6.102806	0.000340	3.398885	0.575787	-0.000034
1539	1.5303e+02	4.6935	6.070219	0.000328	3.276034	0.554975	-0.000033
1540	1.5313e+02	4.6807	6.039668	0.000307	3.071282	0.520289	-0.000031
1541	1.5323e+02	4.6720	6.003415	0.000364	3.644588	0.617410	-0.000036
1542	1.5333e+02	4.6629	5.967568	0.000360	3.603637	0.610473	-0.000036
1543	1.5343e+02	4.6526	5.939462	0.000283	2.825579	0.478666	-0.000028
1544	1.5353e+02	4.6471	5.908504	0.000311	3.112232	0.527226	-0.000031
1545	1.5363e+02	4.6319	5.873880	0.000348	3.480786	0.589661	-0.000035
1546	1.5373e+02	4.6272	5.846180	0.000278	2.784629	0.471729	-0.000028
1547	1.5383e+02	4.6122	5.814815	0.000315	3.153183	0.534164	-0.000032
1548	1.5393e+02	4.6044	5.781005	0.000340	3.398885	0.575787	-0.000034
1549	1.5403e+02	4.5931	5.749640	0.000315	3.153183	0.534164	-0.000032
1550	1.5413e+02	4.5818	5.717867	0.000319	3.194133	0.541101	-0.000032
1551	1.5422e+02	4.5736	5.693834	0.000242	2.416075	0.409294	-0.000024
1552	1.5432e+02	4.5627	5.657581	0.000364	3.644588	0.617410	-0.000036
1553	1.5442e+02	4.5524	5.629474	0.000283	2.825579	0.478666	-0.000028
1554	1.5452e+02	4.5441	5.593628	0.000360	3.603637	0.610473	-0.000036
1555	1.5462e+02	4.5341	5.563892	0.000299	2.989381	0.506415	-0.000030
1556	1.5472e+02	4.5228	5.537007	0.000270	2.702728	0.457855	-0.000027
1557	1.5482e+02	4.5113	5.504420	0.000328	3.276034	0.554975	-0.000033
1558	1.5492e+02	4.5036	5.471425	0.000332	3.316984	0.561912	-0.000033
1559	1.5502e+02	4.4930	5.444133	0.000274	2.743678	0.464792	-0.000027
1560	1.5512e+02	4.4811	5.411953	0.000324	3.235083	0.548038	-0.000032
1561	1.5522e+02	4.4739	5.380588	0.000315	3.153183	0.534164	-0.000032
1562	1.5532e+02	4.4632	5.351259	0.000295	2.948430	0.499478	-0.000029
1563	1.5542e+02	4.4530	5.325597	0.000258	2.579877	0.437043	-0.000026
1564	1.5552e+02	4.4413	5.292602	0.000332	3.316984	0.561912	-0.000033
1565	1.5562e+02	4.4326	5.264495	0.000283	2.825579	0.478666	-0.000028
1566	1.5572e+02	4.4262	5.235166	0.000295	2.948430	0.499478	-0.000029
1567	1.5582e+02	4.4135	5.208282	0.000270	2.702728	0.457855	-0.000027
1568	1.5592e+02	4.4050	5.178139	0.000303	3.030331	0.513352	-0.000030
1569	1.5602e+02	4.3941	5.148810	0.000295	2.948430	0.499478	-0.000029
1570	1.5612e+02	4.3855	5.119889	0.000291	2.907480	0.492540	-0.000029
1571	1.5622e+02	4.3736	5.092189	0.000278	2.784629	0.471729	-0.000028
1572	1.5631e+02	4.3651	5.063268	0.000291	2.907480	0.492540	-0.000029
1573	1.5641e+02	4.3539	5.033532	0.000299	2.989381	0.506415	-0.000030
1574	1.5651e+02	4.3438	5.002574	0.000311	3.112232	0.527226	-0.000031
1575	1.5661e+02	4.3372	4.972023	0.000307	3.071282	0.520289	-0.000031
1576	1.5671e+02	4.3224	4.946768	0.000254	2.538926	0.430106	-0.000025
1577	1.5681e+02	4.3127	4.916217	0.000307	3.071282	0.520289	-0.000031
1578	1.5691e+02	4.3045	4.887703	0.000287	2.866530	0.485603	-0.000029
1579	1.5701e+02	4.2930	4.859597	0.000283	2.825579	0.478666	-0.000028
1580	1.5711e+02	4.2823	4.826195	0.000336	3.357935	0.568850	-0.000034
1581	1.5721e+02	4.2757	4.797681	0.000287	2.866530	0.485603	-0.000029
1582	1.5731e+02	4.2612	4.765501	0.000324	3.235083	0.548038	-0.000032
1583	1.5741e+02	4.2535	4.737801	0.000278	2.784629	0.471729	-0.000028
1584	1.5751e+02	4.2448	4.702770	0.000352	3.521736	0.596598	-0.000035
1585	1.5761e+02	4.2334	4.672626	0.000303	3.030331	0.513352	-0.000030
1586	1.5771e+02	4.2265	4.642483	0.000303	3.030331	0.513352	-0.000030
1587	1.5781e+02	4.2158	4.613969	0.000287	2.866530	0.485603	-0.000029
1588	1.5791e+02	4.2039	4.581789	0.000324	3.235083	0.548038	-0.000032
1589	1.5801e+02	4.1936	4.546350	0.000356	3.562687	0.603535	-0.000036
1590	1.5811e+02	4.1835	4.512948	0.000336	3.357935	0.568850	-0.000034
1591	1.5821e+02	4.1745	4.488100	0.000250	2.497976	0.423169	-0.000025
1592	1.5830e+02	4.1674	4.452661	0.000356	3.562687	0.603535	-0.000036
1593	1.5840e+02	4.1558	4.422111	0.000307	3.071282	0.520289	-0.000031
1594	1.5850e+02	4.1482	4.394411	0.000278	2.784629	0.471729	-0.000028
1595	1.5860e+02	4.1341	4.357343	0.000373	3.726489	0.631284	-0.000037
1596	1.5870e+02	4.1245	4.326793	0.000307	3.071282	0.520289	-0.000031
1597	1.5880e+02	4.1180	4.292576	0.000344	3.439836	0.582724	-0.000034
1598	1.5890e+02	4.1053	4.263654	0.000291	2.907480	0.492540	-0.000029
1599	1.5900e+02	4.0960	4.227401	0.000364	3.644588	0.617410	-0.000036
1600	1.5910e+02	4.0862	4.197665	0.000299	2.989381	0.506415	-0.000030
1601	1.5920e+02	4.0765	4.160597	0.000373	3.726489	0.631284	-0.000037
1602	1.5930e+02	4.0676	4.132490	0.000283	2.825579	0.478666	-0.000028
1603	1.5940e+02	4.0551	4.101125	0.000315	3.153183	0.534164	-0.000032
1604	1.5950e+02	4.0453	4.063242	0.000381	3.808389	0.645159	-0.000038
1605	1.5960e+02	4.0326	4.034321	0.000291	2.907480	0.492540	-0.000029
1606	1.5970e+02	4.0289	4.002955	0.000315	3.153183	0.534164	-0.000032
1607	1.5980e+02	4.0154	3.972812	0.000303	3.030331	0.513352	-0.000030
1608	1.5990e+02	4.0085	3.943483	0.000295	2.948430	0.499478	-0.000029
1609	1.6000e+02	3.9959	3.911303	0.000324	3.235083	0.548038	-0.000032
1610	1.6010e+02	3.9864	3.878716	0.000328	3.276034	0.554975	-0.000033
1611	1.6019e+02	3.9759	3.850609	0.000283	2.825579	0.478666	-0.000028
1612	1.6029e+02	3.9651	3.816392	0.000344	3.439836	0.582724	-0.000034
1613	1.6039e+02	3.9576	3.785842	0.000307	3.071282	0.520289	-0.000031
1614	1.6049e+02	3.9468	3.755291	0.000307	3.071282	0.520289	-0.000031
1615	1.6059e+02	3.9381	3.718630	0.000369	3.685538	0.624347	-0.000037
1616	1.6069e+02	3.9223	3.687672	0.000311	3.112232	0.527226	-0.000031
1617	1.6079e+02	3.9159	3.657936	0.000299	2.989381	0.506415	-0.000030
1618	1.6089e+02	3.9068	3.624941	0.000332	3.316984	0.561912	-0.000033
1619	1.6099e+02	3.8973	3.596835	0.000283	2.825579	0.478666	-0.000028
1620	1.6109e+02	3.8856	3.560989	0.000360	3.603637	0.610473	-0.000036
1621	1.6119e+02	3.8746	3.532067	0.000291	2.907480	0.492540	-0.000029
1622	1.6129e+02	3.8676	3.504368	0.000278	2.784629	0.471729	-0.000028
1623	1.6139e+02	3.8577	3.474225	0.000303	3.030331	0.513352	-0.000030
1624	1.6149e+02	3.8480	3.439193	0.000352	3.521736	0.596598	-0.000035
1625	1.6159e+02	3.8383	3.404569	0.000348	3.480786	0.589661	-0.000035
1626	1.6169e+02	3.8265	3.375648	0.000291	2.907480	0.492540	-0.000029
1627	1.6179e+02	3.8159	3.337765	0.000381	3.808389	0.645159	-0.000038
1628	1.6189e+02	3.8071	3.305992	0.000319	3.194133	0.541101	-0.000032
1629	1.6199e+02	3.7955	3.271368	0.000348	3.480786	0.589661	-0.000035
1630	1.6209e+02	3.7874	3.236744	0.000348	3.480786	0.589661	-0.000035
1631	1.6219e+02	3.7756	3.205786	0.000311	3.112232	0.527226	-0.000031
1632	1.6228e+02	3.7675	3.171162	0.000348	3.480786	0.589661	-0.000035
1633	1.6238e+02	3.7598	3.134094	0.000373	3.726489	0.631284	-0.000037
1634	1.6248e+02	3.7481	3.105987	0.000283	2.825579	0.478666	-0.000028
1635	1.6258e+02	3.7364	3.067289	0.000389	3.890290	0.659033	-0.000039
1636	1.6268e+02	3.7273	3.031443	0.000360	3.603637	0.610473	-0.000036
1637	1.6278e+02	3.7177	3.000078	0.000315	3.153183	0.534164	-0.000032
1638	1.6288e+02	3.7073	2.963417	0.000369	3.685538	0.624347	-0.000037
1639	1.6298e+02	3.6970	2.931237	0.000324	3.235083	0.548038	-0.000032
1640	1.6308e+02	3.6848	2.897020	0.000344	3.439836	0.582724	-0.000034
1641	1.6318e+02	3.6771	2.858730	0.000385	3.849340	0.652096	-0.000038
1642	1.6328e+02	3.6655	2.824513	0.000344	3.439836	0.582724	-0.000034
1643	1.6338e+02	3.6556	2.790704	0.000340	3.398885	0.575787	-0.000034
1644	1.6348e+02	3.6503	2.753636	0.000373	3.726489	0.631284	-0.000037
1645	1.6358e+02	3.6365	2.718604	0.000352	3.521736	0.596598	-0.000035
1646	1.6368e+02	3.6277	2.679499	0.000393	3.931241	0.665970	-0.000039
1647	1.6378e+02	3.6172	2.642838	0.000369	3.685538	0.624347	-0.000037
1648	1.6388e+02	3.6077	2.611066	0.000319	3.194133	0.541101	-0.000032
1649	1.6398e+02	3.5976	2.569924	0.000414	4.135993	0.700656	-0.000041
1650	1.6408e+02	3.5885	2.533263	0.000369	3.685538	0.624347	-0.000037
1651	1.6418e+02	3.5780	2.494566	0.000389	3.890290	0.659033	-0.000039
1652	1.6427e+02	3.5685	2.458720	0.000360	3.603637	0.610473	-0.000036
1653	1.6437e+02	3.5606	2.422059	0.000369	3.685538	0.624347	-0.000037
1654	1.6447e+02	3.5481	2.380917	0.000414	4.135993	0.700656	-0.000041
1655	1.6457e+02	3.5400	2.346700	0.000344	3.439836	0.582724	-0.000034
1656	1.6467e+02	3.5302	2.310854	0.000360	3.603637	0.610473	-0.000036
1657	1.6477e+02	3.5194	2.269713	0.000414	4.135993	0.700656	-0.000041
1658	1.6487e+02	3.5094	2.233459	0.000364	3.644588	0.617410	-0.000036
1659	1.6497e+02	3.4980	2.195576	0.000381	3.808389	0.645159	-0.000038
1660	1.6507e+02	3.4888	2.156064	0.000397	3.972191	0.672907	-0.000040
1661	1.6517e+02	3.4797	2.121033	0.000352	3.521736	0.596598	-0.000035
1662	1.6527e+02	3.4695	2.080706	0.000405	4.054092	0.686782	-0.000041
1663	1.6537e+02	3.4591	2.047711	0.000332	3.316984	0.561912	-0.000033
1664	1.6547e+02	3.4506	2.009421	0.000385	3.849340	0.652096	-0.000038
1665	1.6557e+02	3.4392	1.970723	0.000389	3.890290	0.659033	-0.000039
1666	1.6567e+02	3.4255	1.932433	0.000385	3.849340	0.652096	-0.000038
1667	1.6577e+02	3.4216	1.899031	0.000336	3.357935	0.568850	-0.000034
1668	1.6587e+02	3.4118	1.861963	0.000373	3.726489	0.631284	-0.000037
1669	1.6597e+02	3.4001	1.823265	0.000389	3.890290	0.659033	-0.000039
1670	1.6607e+02	3.3894	1.786604	0.000369	3.685538	0.624347	-0.000037
1671	1.6616e+02	3.3804	1.751980	0.000348	3.480786	0.589661	-0.000035
1672	1.6626e+02	3.3694	1.719393	0.000328	3.276034	0.554975	-0.000033
1673	1.6636e+02	3.3584	1.683139	0.000364	3.644588	0.617410	-0.000036
1674	1.6646e+02	3.3490	1.646886	0.000364	3.644588	0.617410	-0.000036
1675	1.6656e+02	3.3418	1.609003	0.000381	3.808389	0.645159	-0.000038
1676	1.6666e+02	3.3276	1.574786	0.000344	3.439836	0.582724	-0.000034
1677	1.6676e+02	3.3182	1.540162	0.000348	3.480786	0.589661	-0.000035
1678	1.6686e+02	3.3109	1.501465	0.000389	3.890290	0.659033	-0.000039
1679	1.6696e+02	3.3014	1.466026	0.000356	3.562687	0.603535	-0.000036
1680	1.6706e+02	3.2881	1.431402	0.000348	3.480786	0.589661	-0.000035
1681	1.6716e+02	3.2824	1.395556	0.000360	3.603637	0.610473	-0.000036
1682	1.6726e+02	3.2707	1.354007	0.000418	4.176943	0.707593	-0.000042
1683	1.6736e+02	3.2600	1.321827	0.000324	3.235083	0.548038	-0.000032
1684	1.6746e+02	3.2487	1.284351	0.000377	3.767439	0.638221	-0.000038
1685	1.6756e+02	3.2404	1.252171	0.000324	3.235083	0.548038	-0.000032
1686	1.6766e+02	3.2290	1.217140	0.000352	3.521736	0.596598	-0.000035
1687	1.6776e+02	3.2220	1.176813	0.000405	4.054092	0.686782	-0.000041
1688	1.6786e+02	3.2077	1.143411	0.000336	3.357935	0.568850	-0.000034
1689	1.6796e+02	3.2006	1.104306	0.000393	3.931241	0.665970	-0.000039
1690	1.6806e+02	3.1879	1.068460	0.000360	3.603637	0.610473	-0.000036
1691	1.6816e+02	3.1817	1.033428	0.000352	3.521736	0.596598	-0.000035
1692	1.6825e+02	3.1690	0.994323	0.000393	3.931241	0.665970	-0.000039
1693	1.6835e+02	3.1618	0.955626	0.000389	3.890290	0.659033	-0.000039
1694	1.6845e+02	3.1508	0.917743	0.000381	3.808389	0.645159	-0.000038
1695	1.6855e+02	3.1386	0.880675	0.000373	3.726489	0.631284	-0.000037
1696	1.6865e+02	3.1292	0.844014	0.000369	3.685538	0.624347	-0.000037
1697	1.6875e+02	3.1190	0.806131	0.000381	3.808389	0.645159	-0.000038
1698	1.6885e+02	3.1113	0.770692	0.000356	3.562687	0.603535	-0.000036
1699	1.6895e+02	3.1020	0.733217	0.000377	3.767439	0.638221	-0.000038
1700	1.6905e+02	3.0900	0.695741	0.000377	3.767439	0.638221	-0.000038
1701	1.6915e+02	3.0813	0.660710	0.000352	3.521736	0.596598	-0.000035
1702	1.6925e+02	3.0715	0.622012	0.000389	3.890290	0.659033	-0.000039
1703	1.6935e+02	3.0599	0.583722	0.000385	3.849340	0.652096	-0.000038
1704	1.6945e+02	3.0518	0.544210	0.000397	3.972191	0.672907	-0.000040
1705	1.6955e+02	3.0424	0.507549	0.000369	3.685538	0.624347	-0.000037
1706	1.6965e+02	3.0276	0.469259	0.000385	3.849340	0.652096	-0.000038
1707	1.6975e+02	3.0193	0.428932	0.000405	4.054092	0.686782	-0.000041
1708	1.6985e+02	3.0110	0.395530	0.000336	3.357935	0.568850	-0.000034
1709	1.6995e+02	3.0004	0.354795	0.000410	4.095042	0.693719	-0.000041
1710	1.7005e+02	2.9921	0.314876	0.000401	4.013142	0.679845	-0.000040
1711	1.7015e+02	2.9786	0.283103	0.000319	3.194133	0.541101	-0.000032
1712	1.7024e+02	2.9724	0.245220	0.000381	3.808389	0.645159	-0.000038
1713	1.7034e+02	2.9618	0.209781	0.000356	3.562687	0.603535	-0.000036
1714	1.7044e+02	2.9503	0.173121	0.000369	3.685538	0.624347	-0.000037
1715	1.7054e+02	2.9407	0.136052	0.000373	3.726489	0.631284	-0.000037
1716	1.7064e+02	2.9307	0.098984	0.000373	3.726489	0.631284	-0.000037
1717	1.7074e+02	2.9217	0.067619	0.000315	3.153183	0.534164	-0.000032
1718	1.7084e+02	2.9110	0.027699	0.000401	4.013142	0.679845	-0.000040
1719	1.7094e+02	2.9029	-0.005295	0.000332	3.316984	0.561912	-0.000033
1720	1.7104e+02	2.8918	-0.039512	0.000344	3.439836	0.582724	-0.000034
1721	1.7114e+02	2.8834	-0.076580	0.000373	3.726489	0.631284	-0.000037
1722	1.7124e+02	2.8719	-0.112834	0.000364	3.644588	0.617410	-0.000036
1723	1.7134e+02	2.8626	-0.149495	0.000369	3.685538	0.624347	-0.000037
1724	1.7144e+02	2.8544	-0.186970	0.000377	3.767439	0.638221	-0.000038
1725	1.7154e+02	2.8420	-0.222816	0.000360	3.603637	0.610473	-0.000036
1726	1.7164e+02	2.8311	-0.259070	0.000364	3.644588	0.617410	-0.000036
1727	1.7174e+02	2.8199	-0.292472	0.000336	3.357935	0.568850	-0.000034
1728	1.7184e+02	2.8136	-0.328318	0.000360	3.603637	0.610473	-0.000036
1729	1.7194e+02	2.8011	-0.361720	0.000336	3.357935	0.568850	-0.000034
1730	1.7204e+02	2.7920	-0.396344	0.000348	3.480786	0.589661	-0.000035
1731	1.7213e+02	2.7833	-0.426895	0.000307	3.071282	0.520289	-0.000031
1732	1.7223e+02	2.7719	-0.463148	0.000364	3.644588	0.617410	-0.000036
1733	1.7233e+02	2.7630	-0.491662	0.000287	2.866530	0.485603	-0.000029
1734	1.7243e+02	2.7509	-0.526287	0.000348	3.480786	0.589661	-0.000035
1735	1.7253e+02	2.7432	-0.564984	0.000389	3.890290	0.659033	-0.000039
1736	1.7263e+02	2.7296	-0.597164	0.000324	3.235083	0.548038	-0.000032
1737	1.7273e+02	2.7213	-0.632196	0.000352	3.521736	0.596598	-0.000035
1738	1.7283e+02	2.7106	-0.668856	0.000369	3.685538	0.624347	-0.000037
1739	1.7293e+02	2.7056	-0.701037	0.000324	3.235083	0.548038	-0.000032
1740	1.7303e+02	2.6923	-0.738919	0.000381	3.808389	0.645159	-0.000038
1741	1.7313e+02	2.6811	-0.770285	0.000315	3.153183	0.534164	-0.000032
1742	1.7323e+02	2.6713	-0.805316	0.000352	3.521736	0.596598	-0.000035
1743	1.7333e+02	2.6586	-0.835867	0.000307	3.071282	0.520289	-0.000031
1744	1.7343e+02	2.6525	-0.875786	0.000401	4.013142	0.679845	-0.000040
1745	1.7353e+02	2.6431	-0.905522	0.000299	2.989381	0.506415	-0.000030
1746	1.7363e+02	2.6320	-0.938925	0.000336	3.357935	0.568850	-0.000034
1747	1.7373e+02	2.6226	-0.973956	0.000352	3.521736	0.596598	-0.000035
1748	1.7383e+02	2.6142	-1.009395	0.000356	3.562687	0.603535	-0.000036
1749	1.7393e+02	2.6001	-1.044834	0.000356	3.562687	0.603535	-0.000036
1750	1.7403e+02	2.5938	-1.081087	0.000364	3.644588	0.617410	-0.000036
1751	1.7413e+02	2.5822	-1.116119	0.000352	3.521736	0.596598	-0.000035
1752	1.7422e+02	2.5721	-1.154001	0.000381	3.808389	0.645159	-0.000038
1753	1.7432e+02	2.5634	-1.189848	0.000360	3.603637	0.610473	-0.000036
1754	1.7442e+02	2.5528	-1.224064	0.000344	3.439836	0.582724	-0.000034
1755	1.7452e+02	2.5430	-1.264391	0.000405	4.054092	0.686782	-0.000041
1756	1.7462e+02	2.5317	-1.298201	0.000340	3.398885	0.575787	-0.000034
1757	1.7472e+02	2.5243	-1.336898	0.000389	3.890290	0.659033	-0.000039
1758	1.7482e+02	2.5113	-1.369893	0.000332	3.316984	0.561912	-0.000033
1759	1.7492e+02	2.5043	-1.405739	0.000360	3.603637	0.610473	-0.000036
1760	1.7502e+02	2.4937	-1.445659	0.000401	4.013142	0.679845	-0.000040
1761	1.7512e+02	2.4851	-1.479061	0.000336	3.357935	0.568850	-0.000034
1762	1.7522e+02	2.4747	-1.516944	0.000381	3.808389	0.645159	-0.000038
1763	1.7532e+02	2.4615	-1.557678	0.000410	4.095042	0.693719	-0.000041
1764	1.7542e+02	2.4525	-1.589451	0.000319	3.194133	0.541101	-0.000032
1765	1.7552e+02	2.4432	-1.630592	0.000414	4.135993	0.700656	-0.000041
1766	1.7562e+02	2.4337	-1.668068	0.000377	3.767439	0.638221	-0.000038
1767	1.7572e+02	2.4255	-1.699433	0.000315	3.153183	0.534164	-0.000032
1768	1.7582e+02	2.4133	-1.743019	0.000438	4.381695	0.742279	-0.000044
1769	1.7592e+02	2.4026	-1.776828	0.000340	3.398885	0.575787	-0.000034
1770	1.7602e+02	2.3936	-1.813896	0.000373	3.726489	0.631284	-0.000037
1771	1.7612e+02	2.3830	-1.854631	0.000410	4.095042	0.693719	-0.000041
1772	1.7621e+02	2.3739	-1.890884	0.000364	3.644588	0.617410	-0.000036
1773	1.7631e+02	2.3620	-1.929582	0.000389	3.890290	0.659033	-0.000039
1774	1.7641e+02	2.3547	-1.968279	0.000389	3.890290	0.659033	-0.000039
1775	1.7651e+02	2.3457	-2.004125	0.000360	3.603637	0.610473	-0.000036
1776	1.7661e+02	2.3330	-2.039564	0.000356	3.562687	0.603535	-0.000036
1777	1.7671e+02	2.3242	-2.078262	0.000389	3.890290	0.659033	-0.000039
1778	1.7681e+02	2.3135	-2.110034	0.000319	3.194133	0.541101	-0.000032
1779	1.7691e+02	2.3048	-2.150361	0.000405	4.054092	0.686782	-0.000041
1780	1.7701e+02	2.2932	-2.184171	0.000340	3.398885	0.575787	-0.000034
1781	1.7711e+02	2.2834	-2.218795	0.000348	3.480786	0.589661	-0.000035
1782	1.7721e+02	2.2721	-2.257492	0.000389	3.890290	0.659033	-0.000039
1783	1.7731e+02	2.2627	-2.299449	0.000422	4.217894	0.714531	-0.000042
1784	1.7741e+02	2.2544	-2.336517	0.000373	3.726489	0.631284	-0.000037
1785	1.7751e+02	2.2461	-2.373178	0.000369	3.685538	0.624347	-0.000037
1786	1.7761e+02	2.2360	-2.411061	0.000381	3.808389	0.645159	-0.000038
1787	1.7771e+02	2.2276	-2.447314	0.000364	3.644588	0.617410	-0.000036
1788	1.7781e+02	2.2153	-2.481938	0.000348	3.480786	0.589661	-0.000035
1789	1.7791e+02	2.2048	-2.515340	0.000336	3.357935	0.568850	-0.000034
1790	1.7801e+02	2.1931	-2.553630	0.000385	3.849340	0.652096	-0.000038
1791	1.7810e+02	2.1868	-2.589477	0.000360	3.603637	0.610473	-0.000036
1792	1.7820e+02	2.1758	-2.628989	0.000397	3.972191	0.672907	-0.000040
1793	1.7830e+02	2.1642	-2.669723	0.000410	4.095042	0.693719	-0.000041
1794	1.7840e+02	2.1577	-2.703125	0.000336	3.357935	0.568850	-0.000034
1795	1.7850e+02	2.1445	-2.736120	0.000332	3.316984	0.561912	-0.000033
1796	1.7860e+02	2.1387	-2.780113	0.000442	4.422646	0.749216	-0.000044
1797	1.7870e+02	2.1278	-2.824921	0.000450	4.504547	0.763091	-0.000045
1798	1.7880e+02	2.1171	-2.859545	0.000348	3.480786	0.589661	-0.000035
1799	1.7890e+02	2.1070	-2.903538	0.000442	4.422646	0.749216	-0.000044
1800	1.7900e+02	2.0942	-2.939791	0.000364	3.644588	0.617410	-0.000036
1801	1.7910e+02	2.0849	-2.980525	0.000410	4.095042	0.693719	-0.000041
1802	1.7920e+02	2.0773	-3.021260	0.000410	4.095042	0.693719	-0.000041
1803	1.7930e+02	2.0653	-3.058328	0.000373	3.726489	0.631284	-0.000037
1804	1.7940e+02	2.0596	-3.098655	0.000405	4.054092	0.686782	-0.000041
1805	1.7950e+02	2.0478	-3.138574	0.000401	4.013142	0.679845	-0.000040
1806	1.7960e+02	2.0364	-3.180531	0.000422	4.217894	0.714531	-0.000042
1807	1.7970e+02	2.0239	-3.220858	0.000405	4.054092	0.686782	-0.000041
1808	1.7980e+02	2.0143	-3.256704	0.000360	3.603637	0.610473	-0.000036
1809	1.7990e+02	2.0041	-3.299882	0.000434	4.340745	0.735342	-0.000043
1810	1.8000e+02	1.9987	-3.341024	0.000414	4.135993	0.700656	-0.000041
1811	1.8009e+02	1.9837	-3.384202	0.000434	4.340745	0.735342	-0.000043
1812	1.8019e+02	1.9750	-3.421677	0.000377	3.767439	0.638221	-0.000038
1813	1.8029e+02	1.9677	-3.466892	0.000455	4.545497	0.770028	-0.000045
1814	1.8039e+02	1.9560	-3.509256	0.000426	4.258844	0.721468	-0.000043
1815	1.8049e+02	1.9464	-3.550805	0.000418	4.176943	0.707593	-0.000042
1816	1.8059e+02	1.9373	-3.593983	0.000434	4.340745	0.735342	-0.000043
1817	1.8069e+02	1.9267	-3.640013	0.000463	4.627398	0.783902	-0.000046
1818	1.8079e+02	1.9156	-3.680340	0.000405	4.054092	0.686782	-0.000041
1819	1.8089e+02	1.9054	-3.723926	0.000438	4.381695	0.742279	-0.000044
1820	1.8099e+02	1.8967	-3.764660	0.000410	4.095042	0.693719	-0.000041
1821	1.8109e+02	1.8862	-3.805801	0.000414	4.135993	0.700656	-0.000041
1822	1.8119e+02	1.8793	-3.846943	0.000414	4.135993	0.700656	-0.000041
1823	1.8129e+02	1.8657	-3.888492	0.000418	4.176943	0.707593	-0.000042
1824	1.8139e+02	1.8549	-3.934114	0.000459	4.586447	0.776965	-0.000046
1825	1.8149e+02	1.8465	-3.980551	0.000467	4.668348	0.790840	-0.000047
1826	1.8159e+02	1.8369	-4.022915	0.000426	4.258844	0.721468	-0.000043
1827	1.8169e+02	1.8275	-4.066501	0.000438	4.381695	0.742279	-0.000044
1828	1.8179e+02	1.8188	-4.110901	0.000446	4.463596	0.756154	-0.000045
1829	1.8189e+02	1.8040	-4.155301	0.000446	4.463596	0.756154	-0.000045
1830	1.8199e+02	1.7983	-4.198480	0.000434	4.340745	0.735342	-0.000043
1831	1.8209e+02	1.7866	-4.237177	0.000389	3.890290	0.659033	-0.000039
1832	1.8218e+02	1.7766	-4.282392	0.000455	4.545497	0.770028	-0.000045
1833	1.8228e+02	1.7677	-4.324349	0.000422	4.217894	0.714531	-0.000042
1834	1.8238e+02	1.7574	-4.363453	0.000393	3.931241	0.665970	-0.000039
1835	1.8248e+02	1.7450	-4.405410	0.000422	4.217894	0.714531	-0.000042
1836	1.8258e+02	1.7397	-4.444922	0.000397	3.972191	0.672907	-0.000040
1837	1.8268e+02	1.7294	-4.489322	0.000446	4.463596	0.756154	-0.000045
1838	1.8278e+02	1.7177	-4.536574	0.000475	4.750249	0.804714	-0.000047
1839	1.8288e+02	1.7073	-4.571198	0.000348	3.480786	0.589661	-0.000035
1840	1.8298e+02	1.6975	-4.616006	0.000450	4.504547	0.763091	-0.000045
1841	1.8308e+02	1.6893	-4.655518	0.000397	3.972191	0.672907	-0.000040
1842	1.8318e+02	1.6759	-4.700326	0.000450	4.504547	0.763091	-0.000045
1843	1.8328e+02	1.6656	-4.741467	0.000414	4.135993	0.700656	-0.000041
1844	1.8338e+02	1.6564	-4.780980	0.000397	3.972191	0.672907	-0.000040
1845	1.8348e+02	1.6450	-4.825787	0.000450	4.504547	0.763091	-0.000045
1846	1.8358e+02	1.6381	-4.863263	0.000377	3.767439	0.638221	-0.000038
1847	1.8368e+02	1.6282	-4.907256	0.000442	4.422646	0.749216	-0.000044
1848	1.8378e+02	1.6158	-4.953693	0.000467	4.668348	0.790840	-0.000047
1849	1.8388e+02	1.6052	-4.994834	0.000414	4.135993	0.700656	-0.000041
1850	1.8398e+02	1.5971	-5.034347	0.000397	3.972191	0.672907	-0.000040
1851	1.8407e+02	1.5885	-5.074674	0.000405	4.054092	0.686782	-0.000041
1852	1.8417e+02	1.5768	-5.112556	0.000381	3.808389	0.645159	-0.000038
1853	1.8427e+02	1.5701	-5.158586	0.000463	4.627398	0.783902	-0.000046
1854	1.8437e+02	1.5582	-5.197284	0.000389	3.890290	0.659033	-0.000039
1855	1.8447e+02	1.5486	-5.242091	0.000450	4.504547	0.763091	-0.000045
1856	1.8457e+02	1.5404	-5.279567	0.000377	3.767439	0.638221	-0.000038
1857	1.8467e+02	1.5263	-5.326411	0.000471	4.709299	0.797777	-0.000047
1858	1.8477e+02	1.5176	-5.367145	0.000410	4.095042	0.693719	-0.000041
1859	1.8487e+02	1.5081	-5.408287	0.000414	4.135993	0.700656	-0.000041
1860	1.8497e+02	1.4998	-5.453095	0.000450	4.504547	0.763091	-0.000045
1861	1.8507e+02	1.4901	-5.495051	0.000422	4.217894	0.714531	-0.000042
1862	1.8517e+02	1.4758	-5.538637	0.000438	4.381695	0.742279	-0.000044
1863	1.8527e+02	1.4684	-5.585888	0.000475	4.750249	0.804714	-0.000047
1864	1.8537e+02	1.4597	-5.629067	0.000434	4.340745	0.735342	-0.000043
1865	1.8547e+02	1.4487	-5.672652	0.000438	4.381695	0.742279	-0.000044
1866	1.8557e+02	1.4378	-5.716645	0.000442	4.422646	0.749216	-0.000044
1867	1.8567e+02	1.4289	-5.756972	0.000405	4.054092	0.686782	-0.000041
1868	1.8577e+02	1.4176	-5.796077	0.000393	3.931241	0.665970	-0.000039
1869	1.8587e+02	1.4115	-5.838848	0.000430	4.299794	0.728405	-0.000043
1870	1.8597e+02	1.4007	-5.885693	0.000471	4.709299	0.797777	-0.000047
1871	1.8606e+02	1.3865	-5.927241	0.000418	4.176943	0.707593	-0.000042
1872	1.8616e+02	1.3809	-5.976937	0.000500	4.995952	0.846337	-0.000050
1873	1.8626e+02	1.3673	-6.018894	0.000422	4.217894	0.714531	-0.000042
1874	1.8636e+02	1.3576	-6.060442	0.000418	4.176943	0.707593	-0.000042
1875	1.8646e+02	1.3477	-6.107694	0.000475	4.750249	0.804714	-0.000047
1876	1.8656e+02	1.3386	-6.150465	0.000430	4.299794	0.728405	-0.000043
1877	1.8666e+02	1.3296	-6.190385	0.000401	4.013142	0.679845	-0.000040
1878	1.8676e+02	1.3177	-6.232748	0.000426	4.258844	0.721468	-0.000043
1879	1.8686e+02	1.3097	-6.274297	0.000418	4.176943	0.707593	-0.000042
1880	1.8696e+02	1.2993	-6.318698	0.000446	4.463596	0.756154	-0.000045
1881	1.8706e+02	1.2884	-6.358210	0.000397	3.972191	0.672907	-0.000040
1882	1.8716e+02	1.2797	-6.399759	0.000418	4.176943	0.707593	-0.000042
1883	1.8726e+02	1.2739	-6.442122	0.000426	4.258844	0.721468	-0.000043
1884	1.8736e+02	1.2610	-6.484486	0.000426	4.258844	0.721468	-0.000043
1885	1.8746e+02	1.2501	-6.525628	0.000414	4.135993	0.700656	-0.000041
1886	1.8756e+02	1.2405	-6.566769	0.000414	4.135993	0.700656	-0.000041
1887	1.8766e+02	1.2299	-6.604652	0.000381	3.808389	0.645159	-0.000038
1888	1.8776e+02	1.2206	-6.653126	0.000487	4.873100	0.825526	-0.000049
1889	1.8786e+02	1.2091	-6.689787	0.000369	3.685538	0.624347	-0.000037
1890	1.8796e+02	1.2003	-6.735002	0.000455	4.545497	0.770028	-0.000045
1891	1.8806e+02	1.1889	-6.777365	0.000426	4.258844	0.721468	-0.000043
1892	1.8815e+02	1.1796	-6.813619	0.000364	3.644588	0.617410	-0.000036
1893	1.8825e+02	1.1687	-6.858019	0.000446	4.463596	0.756154	-0.000045
1894	1.8835e+02	1.1612	-6.898753	0.000410	4.095042	0.693719	-0.000041
1895	1.8845e+02	1.1505	-6.939080	0.000405	4.054092	0.686782	-0.000041
1896	1.8855e+02	1.1388	-6.978185	0.000393	3.931241	0.665970	-0.000039
1897	1.8865e+02	1.1311	-7.020142	0.000422	4.217894	0.714531	-0.000042
1898	1.8875e+02	1.1205	-7.062505	0.000426	4.258844	0.721468	-0.000043
1899	1.8885e+02	1.1084	-7.098351	0.000360	3.603637	0.610473	-0.000036
1900	1.8895e+02	1.1023	-7.136234	0.000381	3.808389	0.645159	-0.000038
1901	1.8905e+02	1.0926	-7.175339	0.000393	3.931241	0.665970	-0.000039
1902	1.8915e+02	1.0802	-7.217703	0.000426	4.258844	0.721468	-0.000043
1903	1.8925e+02	1.0728	-7.260066	0.000426	4.258844	0.721468	-0.000043
1904	1.8935e+02	1.0613	-7.296320	0.000364	3.644588	0.617410	-0.000036
1905	1.8945e+02	1.0519	-7.341127	0.000450	4.504547	0.763091	-0.000045
1906	1.8955e+02	1.0411	-7.379010	0.000381	3.808389	0.645159	-0.000038
1907	1.8965e+02	1.0311	-7.418115	0.000393	3.931241	0.665970	-0.000039
1908	1.8975e+02	1.0189	-7.460071	0.000422	4.217894	0.714531	-0.000042
1909	1.8985e+02	1.0109	-7.499176	0.000393	3.931241	0.665970	-0.000039
1910	1.8995e+02	1.0035	-7.539911	0.000410	4.095042	0.693719	-0.000041
1911	1.9004e+02	0.9915	-7.578201	0.000385	3.849340	0.652096	-0.000038
1912	1.9014e+02	0.9825	-7.616898	0.000389	3.890290	0.659033	-0.000039
1913	1.9024e+02	0.9718	-7.656818	0.000401	4.013142	0.679845	-0.000040
1914	1.9034e+02	0.9583	-7.697960	0.000414	4.135993	0.700656	-0.000041
1915	1.9044e+02	0.9515	-7.738286	0.000405	4.054092	0.686782	-0.000041
1916	1.9054e+02	0.9396	-7.778613	0.000405	4.054092	0.686782	-0.000041
1917	1.9064e+02	0.9330	-7.819348	0.000410	4.095042	0.693719	-0.000041
1918	1.9074e+02	0.9237	-7.864155	0.000450	4.504547	0.763091	-0.000045
1919	1.9084e+02	0.9091	-7.907741	0.000438	4.381695	0.742279	-0.000044
1920	1.9094e+02	0.8984	-7.950105	0.000426	4.258844	0.721468	-0.000043
1921	1.9104e+02	0.8931	-7.989617	0.000397	3.972191	0.672907	-0.000040
1922	1.9114e+02	0.8841	-8.029944	0.000405	4.054092	0.686782	-0.000041
1923	1.9124e+02	0.8735	-8.074344	0.000446	4.463596	0.756154	-0.000045
1924	1.9134e+02	0.8618	-8.117930	0.000438	4.381695	0.742279	-0.000044
1925	1.9144e+02	0.8527	-8.158664	0.000410	4.095042	0.693719	-0.000041
1926	1.9154e+02	0.8459	-8.200620	0.000422	4.217894	0.714531	-0.000042
1927	1.9164e+02	0.8327	-8.246650	0.000463	4.627398	0.783902	-0.000046
1928	1.9174e+02	0.8233	-8.287384	0.000410	4.095042	0.693719	-0.000041
1929	1.9184e+02	0.8126	-8.328933	0.000418	4.176943	0.707593	-0.000042
1930	1.9194e+02	0.8022	-8.372519	0.000438	4.381695	0.742279	-0.000044
1931	1.9203e+02	0.7915	-8.417734	0.000455	4.545497	0.770028	-0.000045
1932	1.9213e+02	0.7819	-8.459690	0.000422	4.217894	0.714531	-0.000042
1933	1.9223e+02	0.7702	-8.502054	0.000426	4.258844	0.721468	-0.000043
1934	1.9233e+02	0.7637	-8.544010	0.000422	4.217894	0.714531	-0.000042
1935	1.9243e+02	0.7525	-8.588410	0.000446	4.463596	0.756154	-0.000045
1936	1.9253e+02	0.7421	-8.631589	0.000434	4.340745	0.735342	-0.000043
1937	1.9263e+02	0.7334	-8.675174	0.000438	4.381695	0.742279	-0.000044
1938	1.9273e+02	0.7240	-8.717538	0.000426	4.258844	0.721468	-0.000043
1939	1.9283e+02	0.7108	-8.758272	0.000410	4.095042	0.693719	-0.000041
1940	1.9293e+02	0.7025	-8.804709	0.000467	4.668348	0.790840	-0.000047
1941	1.9303e+02	0.6928	-8.848702	0.000442	4.422646	0.749216	-0.000044
1942	1.9313e+02	0.6844	-8.890659	0.000422	4.217894	0.714531	-0.000042
1943	1.9323e+02	0.6729	-8.934244	0.000438	4.381695	0.742279	-0.000044
1944	1.9333e+02	0.6641	-8.977422	0.000434	4.340745	0.735342	-0.000043
1945	1.9343e+02	0.6529	-9.016527	0.000393	3.931241	0.665970	-0.000039
1946	1.9353e+02	0.6432	-9.058484	0.000422	4.217894	0.714531	-0.000042
1947	1.9363e+02	0.6323	-9.098403	0.000401	4.013142	0.679845	-0.000040
1948	1.9373e+02	0.6219	-9.140767	0.000426	4.258844	0.721468	-0.000043
1949	1.9383e+02	0.6133	-9.186797	0.000463	4.627398	0.783902	-0.000046
1950	1.9393e+02	0.6033	-9.226716	0.000401	4.013142	0.679845	-0.000040
1951	1.9403e+02	0.5944	-9.272746	0.000463	4.627398	0.783902	-0.000046
1952	1.9412e+02	0.5831	-9.317146	0.000446	4.463596	0.756154	-0.000045
1953	1.9422e+02	0.5721	-9.359917	0.000430	4.299794	0.728405	-0.000043
1954	1.9432e+02	0.5646	-9.401873	0.000422	4.217894	0.714531	-0.000042
1955	1.9442e+02	0.5521	-9.443830	0.000422	4.217894	0.714531	-0.000042
1956	1.9452e+02	0.5466	-9.480898	0.000373	3.726489	0.631284	-0.000037
1957	1.9462e+02	0.5347	-9.524076	0.000434	4.340745	0.735342	-0.000043
1958	1.9472e+02	0.5211	-9.570106	0.000463	4.627398	0.783902	-0.000046
1959	1.9482e+02	0.5126	-9.611248	0.000414	4.135993	0.700656	-0.000041
1960	1.9492e+02	0.5020	-9.654018	0.000430	4.299794	0.728405	-0.000043
1961	1.9502e+02	0.4954	-9.698419	0.000446	4.463596	0.756154	-0.000045
1962	1.9512e+02	0.4839	-9.746485	0.000483	4.832150	0.818588	-0.000048
1963	1.9522e+02	0.4728	-9.788442	0.000422	4.217894	0.714531	-0.000042
1964	1.9532e+02	0.4620	-9.834064	0.000459	4.586447	0.776965	-0.000046
1965	1.9542e+02	0.4540	-9.877650	0.000438	4.381695	0.742279	-0.000044
1966	1.9552e+02	0.4422	-9.922050	0.000446	4.463596	0.756154	-0.000045
1967	1.9562e+02	0.4339	-9.966043	0.000442	4.422646	0.749216	-0.000044
1968	1.9572e+02	0.4247	-10.015331	0.000496	4.955001	0.839400	-0.000050
1969	1.9582e+02	0.4140	-10.058917	0.000438	4.381695	0.742279	-0.000044
1970	1.9592e+02	0.4040	-10.109020	0.000504	5.036902	0.853274	-0.000050
1971	1.9601e+02	0.3941	-10.149347	0.000405	4.054092	0.686782	-0.000041
1972	1.9611e+02	0.3828	-10.194969	0.000459	4.586447	0.776965	-0.000046
1973	1.9621e+02	0.3728	-10.240999	0.000463	4.627398	0.783902	-0.000046
1974	1.9631e+02	0.3651	-10.290288	0.000496	4.955001	0.839400	-0.000050
1975	1.9641e+02	0.3522	-10.333873	0.000438	4.381695	0.742279	-0.000044
1976	1.9651e+02	0.3433	-10.380310	0.000467	4.668348	0.790840	-0.000047
1977	1.9661e+02	0.3336	-10.423489	0.000434	4.340745	0.735342	-0.000043
1978	1.9671e+02	0.3254	-10.474406	0.000512	5.118803	0.867149	-0.000051
1979	1.9681e+02	0.3131	-10.519621	0.000455	4.545497	0.770028	-0.000045
1980	1.9691e+02	0.3045	-10.563207	0.000438	4.381695	0.742279	-0.000044
1981	1.9701e+02	0.2921	-10.611681	0.000487	4.873100	0.825526	-0.000049
1982	1.9711e+02	0.2832	-10.665043	0.000536	5.364505	0.908772	-0.000054
1983	1.9721e+02	0.2701	-10.710665	0.000459	4.586447	0.776965	-0.000046
1984	1.9731e+02	0.2626	-10.761990	0.000516	5.159753	0.874086	-0.000052
1985	1.9741e+02	0.2547	-10.809649	0.000479	4.791200	0.811651	-0.000048
1986	1.9751e+02	0.2441	-10.855272	0.000459	4.586447	0.776965	-0.000046
1987	1.9761e+02	0.2364	-10.902523	0.000475	4.750249	0.804714	-0.000047
1988	1.9771e+02	0.2234	-10.954663	0.000524	5.241654	0.887960	-0.000052
1989	1.9781e+02	0.2165	-10.997842	0.000434	4.340745	0.735342	-0.000043
1990	1.9791e+02	0.2040	-11.044686	0.000471	4.709299	0.797777	-0.000047
1991	1.9800e+02	0.1922	-11.092345	0.000479	4.791200	0.811651	-0.000048
1992	1.9810e+02	0.1833	-11.146114	0.000541	5.405456	0.915709	-0.000054
1993	1.9820e+02	0.1721	-11.189293	0.000434	4.340745	0.735342	-0.000043
1994	1.9830e+02	0.1664	-11.242247	0.000532	5.323555	0.901835	-0.000053
1995	1.9840e+02	0.1565	-11.294387	0.000524	5.241654	0.887960	-0.000052
1996	1.9850e+02	0.1479	-11.343268	0.000491	4.914051	0.832463	-0.000049
1997	1.9860e+02	0.1359	-11.390927	0.000479	4.791200	0.811651	-0.000048
1998	1.9870e+02	0.1239	-11.438994	0.000483	4.832150	0.818588	-0.000048
1999	1.9880e+02	0.1148	-11.484616	0.000459	4.586447	0.776965	-0.000046
2000	1.9890e+02	0.1042	-11.534719	0.000504	5.036902	0.853274	-0.000050
2001	1.9900e+02	0.0973	-11.579934	0.000455	4.545497	0.770028	-0.000045
2002	1.9910e+02	0.0863	-11.629630	0.000500	4.995952	0.846337	-0.000050
2003	1.9920e+02	0.0741	-11.678511	0.000491	4.914051	0.832463	-0.000049
2004	1.9930e+02	0.0631	-11.724541	0.000463	4.627398	0.783902	-0.000046
2005	1.9940e+02	0.0580	-11.770570	0.000463	4.627398	0.783902	-0.000046
2006	1.9950e+02	0.0467	-11.814971	0.000446	4.463596	0.756154	-0.000045
2007	1.9960e+02	0.0354	-11.864666	0.000500	4.995952	0.846337	-0.000050
2008	1.9970e+02	0.0227	-11.908252	0.000438	4.381695	0.742279	-0.000044
2009	1.9980e+02	0.0148	-11.955504	0.000475	4.750249	0.804714	-0.000047
2010	1.9990e+02	0.0061	-12.002756	0.000475	4.750249	0.804714	-0.000047
2011	2.0000e+02	-0.0019	-12.050822	0.000475	4.750249	0.804714	-0.000048

PMax (uC/cm2):	3.60e+01
Pr (uC/cm2):	5.99e+00
-Pr (uC/cm2):	0.00e+00
PLoss (uC/cm2):	0.00e+00
C (Max-Eff) (nF):	3.61e-01
K (Eff):	6.11e+02
Vert. (+/-Pr) Shift (uC/cm2):	2.99e+00
Offset (uC/cm2):	1.80e+01

A (Loop Area - uC/cm2·Volts):	-5.90e-02



Hysteresis Version: 5.48.1 - Radiant Technologies, Inc., 1999 - 9/12/24

