»»»»»»»»»»»»»»»»»»»»»»»»»»»»»»»»»»»» Hysteresis ««««««««««««««««««««««««««««««««««««
»»»  Executed Version:	5.48.1
»»»  Vision Version:	5.48.4 (R)
»»»  Vision Compiled:	9/18/24
»»»  Driver Version:	5.47.0
»»»  Windows Version:	Windows 8 or 8.1
»»»  Processor Information:	x86 (AMD or Intel) - 32 Processors
»»»  Tester Name:	PMF21124-494 (100V)
»»»  Tester S/N:	PMF21124-494
»»»  Internal Amp Type:	100V RevK 270k
»»»  Internal Amp S/N:	iAB2-596/K     
»»»  Execution Count:	1
»»»»»»»»»»»»»»»»»»»»»»»»»»»»»»»»»»»»»»»»»»««««««««««««««««««««««««««««««««««««««««««

Stored:	6/27/2025 - 12:13:48
Configured:	06/27/25 11:23:28 AM
Executed:	06/27/25 12:13:10 PM

»»»»»»»»»»»»»»»»»»»»»»»»»»»»»»»»»»» Sample Info ««««««««««««««««««««««««««««««««««««
Sample Name:	
Lot Name:	
Wafer Name:	
Die Row/Column:	0/0
Capacitor Number:	0
Sample Area (cm2):	1.00e-04
Sample Thickness (microns):	1.50e-01

Amplifier:	Internal

»»»»»»»»»»»»»»»»»»»»»»»»»»»»»»»»»»» Tester Info «««««««««««««««««««««««««««««««««««
Tester Name:	PMF21124-494 (100V)
Tester Serial Number:	PMF21124-494
Return Signal Amp. Level:	1.9 [Index: 2]

»»»»»»»»»»»»»»»»»»»»»»»»»»»»»»»» Hysteresis Info ««««««««««««««««««««««««««««««««««
Task Name:	Hyst-1276
Volts:	10.00
Field:	666.67 (kV/cm)
DCBias:	0.00
DCField:	0.00 (kV/cm)
Hysteresis Period (ms):	2.00e+02
Preset:	Enabled
Preset Delay (ms):	1.00e+03
Profile:	Standard Monopolar

»»»»»»»»»»»»»»»»»»»»»»»»»»»»»»»»»»»»»» Data «««««««««««««««««««««««««««««««««««««««
Points:	2011

Valid Data

Point	Time (ms)	Drive Voltage	Measured Polarization (uC/cm2)	Capacitance (uF)	Normalized Capacitance (uF/cm2)	Dielectric Constant	Instantaneous Current (mA)
   1	0.0000e+00	-0.0025	-19.224939	0.000442	4.423540	0.749368	0.000044
   2	9.9500e-02	0.0026	-19.180946	0.000442	4.423540	0.749368	0.000044
   3	1.9900e-01	0.0183	-19.130843	0.000504	5.037921	0.853447	0.000050
   4	2.9850e-01	0.0270	-19.087257	0.000438	4.382582	0.742429	0.000044
   5	3.9800e-01	0.0348	-19.040413	0.000471	4.710251	0.797938	0.000047
   6	4.9750e-01	0.0452	-18.989495	0.000512	5.119838	0.867324	0.000051
   7	5.9700e-01	0.0562	-18.943058	0.000467	4.669293	0.791000	0.000047
   8	6.9650e-01	0.0673	-18.889696	0.000537	5.365591	0.908956	0.000054
   9	7.9600e-01	0.0733	-18.848555	0.000414	4.136829	0.700798	0.000041
  10	8.9550e-01	0.0876	-18.793563	0.000553	5.529425	0.936710	0.000055
  11	9.9500e-01	0.0951	-18.743460	0.000504	5.037921	0.853447	0.000050
  12	1.0945e+00	0.1051	-18.694579	0.000492	4.915045	0.832631	0.000049
  13	1.1940e+00	0.1163	-18.646920	0.000479	4.792169	0.811815	0.000048
  14	1.2935e+00	0.1254	-18.593558	0.000537	5.365591	0.908956	0.000054
  15	1.3930e+00	0.1334	-18.543455	0.000504	5.037921	0.853447	0.000050
  16	1.4925e+00	0.1431	-18.492537	0.000512	5.119838	0.867324	0.000051
  17	1.5920e+00	0.1564	-18.445285	0.000475	4.751210	0.804877	0.000047
  18	1.6915e+00	0.1656	-18.392738	0.000528	5.283673	0.895078	0.000053
  19	1.7910e+00	0.1754	-18.345079	0.000479	4.792169	0.811815	0.000048
  20	1.8905e+00	0.1856	-18.294161	0.000512	5.119838	0.867324	0.000051
  21	1.9900e+00	0.1955	-18.241614	0.000528	5.283673	0.895078	0.000053
  22	2.0895e+00	0.2048	-18.194770	0.000471	4.710251	0.797938	0.000047
  23	2.1890e+00	0.2155	-18.141815	0.000532	5.324632	0.902017	0.000053
  24	2.2885e+00	0.2240	-18.086009	0.000561	5.611343	0.950587	0.000056
  25	2.3880e+00	0.2348	-18.033462	0.000528	5.283673	0.895078	0.000053
  26	2.4875e+00	0.2486	-17.982952	0.000508	5.078880	0.860386	0.000051
  27	2.5870e+00	0.2551	-17.927553	0.000557	5.570384	0.943649	0.000056
  28	2.6865e+00	0.2637	-17.875821	0.000520	5.201756	0.881201	0.000052
  29	2.7860e+00	0.2738	-17.830606	0.000455	4.546416	0.770184	0.000045
  30	2.8855e+00	0.2852	-17.775207	0.000557	5.570384	0.943649	0.000056
  31	2.9850e+00	0.2933	-17.725511	0.000500	4.996962	0.846508	0.000050
  32	3.0845e+00	0.3037	-17.674593	0.000512	5.119838	0.867324	0.000051
  33	3.1840e+00	0.3149	-17.622861	0.000520	5.201756	0.881201	0.000052
  34	3.2835e+00	0.3255	-17.571943	0.000512	5.119838	0.867324	0.000051
  35	3.3830e+00	0.3350	-17.523062	0.000492	4.915045	0.832631	0.000049
  36	3.4825e+00	0.3431	-17.472144	0.000512	5.119838	0.867324	0.000051
  37	3.5820e+00	0.3539	-17.422448	0.000500	4.996962	0.846508	0.000050
  38	3.6815e+00	0.3613	-17.366642	0.000561	5.611343	0.950587	0.000056
  39	3.7810e+00	0.3725	-17.321835	0.000451	4.505458	0.763245	0.000045
  40	3.8805e+00	0.3850	-17.271324	0.000508	5.078880	0.860386	0.000051
  41	3.9800e+00	0.3951	-17.216740	0.000549	5.488467	0.929771	0.000055
  42	4.0795e+00	0.4030	-17.173562	0.000434	4.341623	0.735491	0.000043
  43	4.1790e+00	0.4160	-17.119385	0.000545	5.447508	0.922833	0.000054
  44	4.2785e+00	0.4237	-17.076614	0.000430	4.300664	0.728552	0.000043
  45	4.3780e+00	0.4342	-17.026919	0.000500	4.996962	0.846508	0.000050
  46	4.4775e+00	0.4443	-16.981296	0.000459	4.587375	0.777122	0.000046
  47	4.5770e+00	0.4553	-16.925898	0.000557	5.570384	0.943649	0.000056
  48	4.6765e+00	0.4667	-16.879868	0.000463	4.628334	0.784061	0.000046
  49	4.7760e+00	0.4723	-16.832209	0.000479	4.792169	0.811815	0.000048
  50	4.8755e+00	0.4825	-16.786179	0.000463	4.628334	0.784061	0.000046
  51	4.9750e+00	0.4924	-16.736891	0.000496	4.956004	0.839570	0.000050
  52	5.0745e+00	0.5064	-16.689639	0.000475	4.751210	0.804877	0.000047
  53	5.1740e+00	0.5141	-16.643202	0.000467	4.669293	0.791000	0.000047
  54	5.2735e+00	0.5207	-16.595136	0.000483	4.833127	0.818754	0.000048
  55	5.3730e+00	0.5333	-16.548291	0.000471	4.710251	0.797938	0.000047
  56	5.4725e+00	0.5422	-16.500632	0.000479	4.792169	0.811815	0.000048
  57	5.5720e+00	0.5539	-16.450936	0.000500	4.996962	0.846508	0.000050
  58	5.6715e+00	0.5618	-16.405721	0.000455	4.546416	0.770184	0.000045
  59	5.7710e+00	0.5741	-16.359284	0.000467	4.669293	0.791000	0.000047
  60	5.8705e+00	0.5827	-16.312440	0.000471	4.710251	0.797938	0.000047
  61	5.9700e+00	0.5935	-16.263559	0.000492	4.915045	0.832631	0.000049
  62	6.0695e+00	0.6051	-16.218344	0.000455	4.546416	0.770184	0.000045
  63	6.1690e+00	0.6123	-16.172314	0.000463	4.628334	0.784061	0.000046
  64	6.2685e+00	0.6217	-16.123840	0.000487	4.874086	0.825693	0.000049
  65	6.3680e+00	0.6318	-16.078625	0.000455	4.546416	0.770184	0.000045
  66	6.4675e+00	0.6424	-16.030151	0.000487	4.874086	0.825693	0.000049
  67	6.5670e+00	0.6524	-15.988602	0.000418	4.177788	0.707736	0.000042
  68	6.6665e+00	0.6611	-15.940129	0.000487	4.874086	0.825693	0.000049
  69	6.7660e+00	0.6741	-15.894099	0.000463	4.628334	0.784061	0.000046
  70	6.8655e+00	0.6840	-15.846847	0.000475	4.751210	0.804877	0.000047
  71	6.9650e+00	0.6920	-15.798781	0.000483	4.833127	0.818754	0.000048
  72	7.0645e+00	0.7007	-15.756010	0.000430	4.300664	0.728552	0.000043
  73	7.1640e+00	0.7134	-15.707943	0.000483	4.833127	0.818754	0.000048
  74	7.2635e+00	0.7213	-15.660692	0.000475	4.751210	0.804877	0.000047
  75	7.3630e+00	0.7327	-15.616699	0.000442	4.423540	0.749368	0.000044
  76	7.4625e+00	0.7447	-15.562930	0.000541	5.406549	0.915894	0.000054
  77	7.5620e+00	0.7538	-15.522195	0.000410	4.095871	0.693859	0.000041
  78	7.6615e+00	0.7607	-15.479832	0.000426	4.259706	0.721614	0.000043
  79	7.7610e+00	0.7721	-15.432173	0.000479	4.792169	0.811815	0.000048
  80	7.8605e+00	0.7821	-15.388587	0.000438	4.382582	0.742429	0.000044
  81	7.9600e+00	0.7909	-15.342965	0.000459	4.587375	0.777122	0.000046
  82	8.0595e+00	0.8025	-15.295305	0.000479	4.792169	0.811815	0.000048
  83	8.1590e+00	0.8139	-15.246017	0.000496	4.956004	0.839570	0.000050
  84	8.2585e+00	0.8192	-15.203246	0.000430	4.300664	0.728552	0.000043
  85	8.3580e+00	0.8311	-15.158438	0.000451	4.505458	0.763245	0.000045
  86	8.4575e+00	0.8408	-15.110779	0.000479	4.792169	0.811815	0.000048
  87	8.5570e+00	0.8515	-15.063528	0.000475	4.751210	0.804877	0.000047
  88	8.6565e+00	0.8621	-15.018720	0.000451	4.505458	0.763245	0.000045
  89	8.7560e+00	0.8729	-14.973505	0.000455	4.546416	0.770184	0.000045
  90	8.8555e+00	0.8803	-14.926253	0.000475	4.751210	0.804877	0.000047
  91	8.9550e+00	0.8926	-14.879816	0.000467	4.669293	0.791000	0.000047
  92	9.0545e+00	0.9008	-14.839896	0.000401	4.013953	0.679982	0.000040
  93	9.1540e+00	0.9128	-14.788571	0.000516	5.160797	0.874263	0.000052
  94	9.2535e+00	0.9214	-14.749874	0.000389	3.891077	0.659166	0.000039
  95	9.3530e+00	0.9303	-14.703437	0.000467	4.669293	0.791000	0.000047
  96	9.4525e+00	0.9415	-14.659036	0.000446	4.464499	0.756307	0.000045
  97	9.5520e+00	0.9510	-14.617487	0.000418	4.177788	0.707736	0.000042
  98	9.6515e+00	0.9594	-14.574716	0.000430	4.300664	0.728552	0.000043
  99	9.7510e+00	0.9689	-14.527465	0.000475	4.751210	0.804877	0.000047
 100	9.8505e+00	0.9811	-14.486323	0.000414	4.136829	0.700798	0.000041
 101	9.9500e+00	0.9898	-14.440293	0.000463	4.628334	0.784061	0.000046
 102	1.0050e+01	0.9995	-14.393856	0.000467	4.669293	0.791000	0.000047
 103	1.0149e+01	1.0095	-14.352307	0.000418	4.177788	0.707736	0.000042
 104	1.0248e+01	1.0219	-14.303834	0.000487	4.874086	0.825693	0.000049
 105	1.0348e+01	1.0331	-14.260655	0.000434	4.341623	0.735491	0.000043
 106	1.0447e+01	1.0397	-14.219106	0.000418	4.177788	0.707736	0.000042
 107	1.0547e+01	1.0513	-14.175928	0.000434	4.341623	0.735491	0.000043
 108	1.0646e+01	1.0596	-14.137231	0.000389	3.891077	0.659166	0.000039
 109	1.0746e+01	1.0688	-14.088349	0.000492	4.915045	0.832631	0.000049
 110	1.0845e+01	1.0821	-14.049652	0.000389	3.891077	0.659166	0.000039
 111	1.0945e+01	1.0909	-14.007696	0.000422	4.218747	0.714675	0.000042
 112	1.1044e+01	1.1019	-13.968591	0.000393	3.932036	0.666105	0.000039
 113	1.1144e+01	1.1086	-13.922968	0.000459	4.587375	0.777122	0.000046
 114	1.1243e+01	1.1209	-13.881012	0.000422	4.218747	0.714675	0.000042
 115	1.1343e+01	1.1286	-13.834982	0.000463	4.628334	0.784061	0.000046
 116	1.1443e+01	1.1391	-13.788953	0.000463	4.628334	0.784061	0.000046
 117	1.1542e+01	1.1489	-13.747811	0.000414	4.136829	0.700798	0.000041
 118	1.1642e+01	1.1596	-13.702596	0.000455	4.546416	0.770184	0.000045
 119	1.1741e+01	1.1718	-13.658196	0.000446	4.464499	0.756307	0.000045
 120	1.1841e+01	1.1817	-13.615017	0.000434	4.341623	0.735491	0.000043
 121	1.1940e+01	1.1893	-13.572246	0.000430	4.300664	0.728552	0.000043
 122	1.2040e+01	1.2001	-13.526217	0.000463	4.628334	0.784061	0.000046
 123	1.2139e+01	1.2095	-13.480594	0.000459	4.587375	0.777122	0.000046
 124	1.2239e+01	1.2210	-13.437416	0.000434	4.341623	0.735491	0.000043
 125	1.2338e+01	1.2303	-13.393016	0.000446	4.464499	0.756307	0.000045
 126	1.2438e+01	1.2405	-13.349023	0.000442	4.423540	0.749368	0.000044
 127	1.2537e+01	1.2495	-13.301771	0.000475	4.751210	0.804877	0.000047
 128	1.2636e+01	1.2627	-13.257778	0.000442	4.423540	0.749368	0.000044
 129	1.2736e+01	1.2691	-13.217044	0.000410	4.095871	0.693859	0.000041
 130	1.2835e+01	1.2797	-13.171014	0.000463	4.628334	0.784061	0.000046
 131	1.2935e+01	1.2917	-13.121726	0.000496	4.956004	0.839570	0.000050
 132	1.3034e+01	1.3000	-13.076511	0.000455	4.546416	0.770184	0.000045
 133	1.3134e+01	1.3086	-13.030888	0.000459	4.587375	0.777122	0.000046
 134	1.3233e+01	1.3165	-12.982414	0.000487	4.874086	0.825693	0.000049
 135	1.3333e+01	1.3304	-12.935163	0.000475	4.751210	0.804877	0.000047
 136	1.3432e+01	1.3381	-12.886282	0.000492	4.915045	0.832631	0.000049
 137	1.3532e+01	1.3476	-12.841881	0.000446	4.464499	0.756307	0.000045
 138	1.3632e+01	1.3600	-12.795444	0.000467	4.669293	0.791000	0.000047
 139	1.3731e+01	1.3680	-12.744526	0.000512	5.119838	0.867324	0.000051
 140	1.3831e+01	1.3786	-12.703385	0.000414	4.136829	0.700798	0.000041
 141	1.3930e+01	1.3908	-12.652874	0.000508	5.078880	0.860386	0.000051
 142	1.4030e+01	1.4002	-12.604401	0.000487	4.874086	0.825693	0.000049
 143	1.4129e+01	1.4098	-12.558778	0.000459	4.587375	0.777122	0.000046
 144	1.4229e+01	1.4177	-12.513156	0.000459	4.587375	0.777122	0.000046
 145	1.4328e+01	1.4298	-12.467533	0.000459	4.587375	0.777122	0.000046
 146	1.4428e+01	1.4382	-12.419060	0.000487	4.874086	0.825693	0.000049
 147	1.4527e+01	1.4516	-12.372215	0.000471	4.710251	0.797938	0.000047
 148	1.4627e+01	1.4581	-12.320483	0.000520	5.201756	0.881201	0.000052
 149	1.4726e+01	1.4686	-12.273231	0.000475	4.751210	0.804877	0.000047
 150	1.4825e+01	1.4785	-12.228016	0.000455	4.546416	0.770184	0.000045
 151	1.4925e+01	1.4867	-12.178320	0.000500	4.996962	0.846508	0.000050
 152	1.5024e+01	1.4990	-12.128624	0.000500	4.996962	0.846508	0.000050
 153	1.5124e+01	1.5073	-12.080965	0.000479	4.792169	0.811815	0.000048
 154	1.5223e+01	1.5179	-12.032899	0.000483	4.833127	0.818754	0.000048
 155	1.5323e+01	1.5290	-11.988091	0.000451	4.505458	0.763245	0.000045
 156	1.5422e+01	1.5368	-11.942469	0.000459	4.587375	0.777122	0.000046
 157	1.5522e+01	1.5460	-11.893588	0.000492	4.915045	0.832631	0.000049
 158	1.5621e+01	1.5585	-11.845521	0.000483	4.833127	0.818754	0.000048
 159	1.5721e+01	1.5655	-11.799084	0.000467	4.669293	0.791000	0.000047
 160	1.5820e+01	1.5789	-11.751425	0.000479	4.792169	0.811815	0.000048
 161	1.5920e+01	1.5882	-11.701729	0.000500	4.996962	0.846508	0.000050
 162	1.6020e+01	1.5976	-11.654070	0.000479	4.792169	0.811815	0.000048
 163	1.6119e+01	1.6060	-11.606819	0.000475	4.751210	0.804877	0.000047
 164	1.6218e+01	1.6177	-11.559160	0.000479	4.792169	0.811815	0.000048
 165	1.6318e+01	1.6255	-11.507834	0.000516	5.160797	0.874263	0.000052
 166	1.6418e+01	1.6370	-11.462212	0.000459	4.587375	0.777122	0.000046
 167	1.6517e+01	1.6488	-11.411294	0.000512	5.119838	0.867324	0.000051
 168	1.6616e+01	1.6556	-11.365265	0.000463	4.628334	0.784061	0.000046
 169	1.6716e+01	1.6670	-11.315569	0.000500	4.996962	0.846508	0.000050
 170	1.6816e+01	1.6787	-11.271168	0.000446	4.464499	0.756307	0.000045
 171	1.6915e+01	1.6839	-11.226768	0.000446	4.464499	0.756307	0.000045
 172	1.7015e+01	1.6975	-11.175443	0.000516	5.160797	0.874263	0.000052
 173	1.7114e+01	1.7081	-11.125340	0.000504	5.037921	0.853447	0.000050
 174	1.7213e+01	1.7170	-11.082161	0.000434	4.341623	0.735491	0.000043
 175	1.7313e+01	1.7276	-11.032873	0.000496	4.956004	0.839570	0.000050
 176	1.7413e+01	1.7366	-10.985214	0.000479	4.792169	0.811815	0.000048
 177	1.7512e+01	1.7442	-10.938370	0.000471	4.710251	0.797938	0.000047
 178	1.7611e+01	1.7547	-10.887044	0.000516	5.160797	0.874263	0.000052
 179	1.7711e+01	1.7673	-10.840607	0.000467	4.669293	0.791000	0.000047
 180	1.7811e+01	1.7783	-10.787245	0.000537	5.365591	0.908956	0.000054
 181	1.7910e+01	1.7862	-10.742438	0.000451	4.505458	0.763245	0.000045
 182	1.8009e+01	1.7953	-10.693149	0.000496	4.956004	0.839570	0.000050
 183	1.8109e+01	1.8052	-10.638565	0.000549	5.488467	0.929771	0.000055
 184	1.8209e+01	1.8189	-10.591721	0.000471	4.710251	0.797938	0.000047
 185	1.8308e+01	1.8260	-10.540803	0.000512	5.119838	0.867324	0.000051
 186	1.8407e+01	1.8359	-10.491922	0.000492	4.915045	0.832631	0.000049
 187	1.8507e+01	1.8472	-10.445485	0.000467	4.669293	0.791000	0.000047
 188	1.8607e+01	1.8565	-10.395382	0.000504	5.037921	0.853447	0.000050
 189	1.8706e+01	1.8661	-10.349760	0.000459	4.587375	0.777122	0.000046
 190	1.8805e+01	1.8768	-10.297620	0.000524	5.242714	0.888140	0.000052
 191	1.8905e+01	1.8859	-10.244665	0.000532	5.324632	0.902017	0.000053
 192	1.9005e+01	1.8967	-10.197006	0.000479	4.792169	0.811815	0.000048
 193	1.9104e+01	1.9066	-10.148532	0.000487	4.874086	0.825693	0.000049
 194	1.9203e+01	1.9168	-10.096800	0.000520	5.201756	0.881201	0.000052
 195	1.9303e+01	1.9265	-10.043438	0.000537	5.365591	0.908956	0.000054
 196	1.9402e+01	1.9367	-9.989669	0.000541	5.406549	0.915894	0.000054
 197	1.9502e+01	1.9456	-9.942010	0.000479	4.792169	0.811815	0.000048
 198	1.9602e+01	1.9546	-9.895980	0.000463	4.628334	0.784061	0.000046
 199	1.9701e+01	1.9656	-9.849136	0.000471	4.710251	0.797938	0.000047
 200	1.9800e+01	1.9762	-9.799847	0.000496	4.956004	0.839570	0.000050
 201	1.9900e+01	1.9854	-9.747707	0.000524	5.242714	0.888140	0.000052
 202	2.0000e+01	1.9955	-9.697604	0.000504	5.037921	0.853447	0.000050
 203	2.0099e+01	2.0031	-9.654833	0.000430	4.300664	0.728552	0.000043
 204	2.0198e+01	2.0181	-9.606359	0.000487	4.874086	0.825693	0.000049
 205	2.0298e+01	2.0242	-9.555849	0.000508	5.078880	0.860386	0.000051
 206	2.0398e+01	2.0385	-9.509005	0.000471	4.710251	0.797938	0.000047
 207	2.0497e+01	2.0466	-9.463382	0.000459	4.587375	0.777122	0.000046
 208	2.0596e+01	2.0530	-9.412057	0.000516	5.160797	0.874263	0.000052
 209	2.0696e+01	2.0647	-9.368879	0.000434	4.341623	0.735491	0.000043
 210	2.0796e+01	2.0732	-9.316739	0.000524	5.242714	0.888140	0.000052
 211	2.0895e+01	2.0849	-9.268672	0.000483	4.833127	0.818754	0.000048
 212	2.0994e+01	2.0950	-9.227123	0.000418	4.177788	0.707736	0.000042
 213	2.1094e+01	2.1058	-9.177835	0.000496	4.956004	0.839570	0.000050
 214	2.1194e+01	2.1167	-9.135879	0.000422	4.218747	0.714675	0.000042
 215	2.1293e+01	2.1234	-9.087812	0.000483	4.833127	0.818754	0.000048
 216	2.1392e+01	2.1337	-9.046263	0.000418	4.177788	0.707736	0.000042
 217	2.1492e+01	2.1475	-8.999826	0.000467	4.669293	0.791000	0.000047
 218	2.1591e+01	2.1548	-8.956241	0.000438	4.382582	0.742429	0.000044
 219	2.1691e+01	2.1678	-8.906952	0.000496	4.956004	0.839570	0.000050
 220	2.1791e+01	2.1754	-8.863367	0.000438	4.382582	0.742429	0.000044
 221	2.1890e+01	2.1848	-8.818559	0.000451	4.505458	0.763245	0.000045
 222	2.1989e+01	2.1937	-8.773344	0.000455	4.546416	0.770184	0.000045
 223	2.2089e+01	2.2063	-8.728536	0.000451	4.505458	0.763245	0.000045
 224	2.2189e+01	2.2128	-8.685358	0.000434	4.341623	0.735491	0.000043
 225	2.2288e+01	2.2221	-8.640958	0.000446	4.464499	0.756307	0.000045
 226	2.2387e+01	2.2334	-8.599816	0.000414	4.136829	0.700798	0.000041
 227	2.2487e+01	2.2485	-8.552564	0.000475	4.751210	0.804877	0.000047
 228	2.2587e+01	2.2558	-8.509386	0.000434	4.341623	0.735491	0.000043
 229	2.2686e+01	2.2654	-8.462949	0.000467	4.669293	0.791000	0.000047
 230	2.2785e+01	2.2736	-8.423029	0.000401	4.013953	0.679982	0.000040
 231	2.2885e+01	2.2860	-8.375778	0.000475	4.751210	0.804877	0.000047
 232	2.2985e+01	2.2987	-8.334636	0.000414	4.136829	0.700798	0.000041
 233	2.3084e+01	2.3021	-8.291865	0.000430	4.300664	0.728552	0.000043
 234	2.3183e+01	2.3157	-8.246650	0.000455	4.546416	0.770184	0.000045
 235	2.3283e+01	2.3248	-8.204694	0.000422	4.218747	0.714675	0.000042
 236	2.3383e+01	2.3340	-8.159071	0.000459	4.587375	0.777122	0.000046
 237	2.3482e+01	2.3428	-8.116708	0.000426	4.259706	0.721614	0.000043
 238	2.3581e+01	2.3537	-8.074344	0.000426	4.259706	0.721614	0.000043
 239	2.3681e+01	2.3635	-8.030758	0.000438	4.382582	0.742429	0.000044
 240	2.3780e+01	2.3728	-7.990839	0.000401	4.013953	0.679982	0.000040
 241	2.3880e+01	2.3833	-7.941550	0.000496	4.956004	0.839570	0.000050
 242	2.3980e+01	2.3935	-7.902445	0.000393	3.932036	0.666105	0.000039
 243	2.4079e+01	2.4047	-7.861304	0.000414	4.136829	0.700798	0.000041
 244	2.4178e+01	2.4146	-7.819755	0.000418	4.177788	0.707736	0.000042
 245	2.4278e+01	2.4232	-7.774947	0.000451	4.505458	0.763245	0.000045
 246	2.4378e+01	2.4332	-7.732584	0.000426	4.259706	0.721614	0.000043
 247	2.4477e+01	2.4447	-7.693479	0.000393	3.932036	0.666105	0.000039
 248	2.4576e+01	2.4529	-7.651115	0.000426	4.259706	0.721614	0.000043
 249	2.4676e+01	2.4615	-7.609159	0.000422	4.218747	0.714675	0.000042
 250	2.4776e+01	2.4752	-7.565573	0.000438	4.382582	0.742429	0.000044
 251	2.4875e+01	2.4813	-7.525246	0.000405	4.054912	0.686921	0.000041
 252	2.4974e+01	2.4944	-7.484512	0.000410	4.095871	0.693859	0.000041
 253	2.5074e+01	2.5042	-7.436853	0.000479	4.792169	0.811815	0.000048
 254	2.5174e+01	2.5111	-7.398970	0.000381	3.809160	0.645289	0.000038
 255	2.5273e+01	2.5222	-7.356199	0.000430	4.300664	0.728552	0.000043
 256	2.5372e+01	2.5327	-7.312613	0.000438	4.382582	0.742429	0.000044
 257	2.5472e+01	2.5414	-7.271065	0.000418	4.177788	0.707736	0.000042
 258	2.5572e+01	2.5546	-7.228294	0.000430	4.300664	0.728552	0.000043
 259	2.5671e+01	2.5625	-7.184708	0.000438	4.382582	0.742429	0.000044
 260	2.5770e+01	2.5704	-7.146010	0.000389	3.891077	0.659166	0.000039
 261	2.5870e+01	2.5845	-7.104054	0.000422	4.218747	0.714675	0.000042
 262	2.5970e+01	2.5950	-7.064542	0.000397	3.972995	0.673044	0.000040
 263	2.6069e+01	2.6028	-7.024622	0.000401	4.013953	0.679982	0.000040
 264	2.6169e+01	2.6119	-6.984703	0.000401	4.013953	0.679982	0.000040
 265	2.6268e+01	2.6243	-6.946820	0.000381	3.809160	0.645289	0.000038
 266	2.6367e+01	2.6311	-6.904456	0.000426	4.259706	0.721614	0.000043
 267	2.6467e+01	2.6421	-6.868203	0.000365	3.645325	0.617535	0.000036
 268	2.6567e+01	2.6539	-6.823802	0.000446	4.464499	0.756307	0.000045
 269	2.6666e+01	2.6616	-6.785512	0.000385	3.850118	0.652228	0.000038
 270	2.6765e+01	2.6730	-6.745185	0.000405	4.054912	0.686921	0.000041
 271	2.6865e+01	2.6809	-6.704451	0.000410	4.095871	0.693859	0.000041
 272	2.6965e+01	2.6970	-6.665754	0.000389	3.891077	0.659166	0.000039
 273	2.7064e+01	2.7009	-6.623797	0.000422	4.218747	0.714675	0.000042
 274	2.7163e+01	2.7117	-6.585914	0.000381	3.809160	0.645289	0.000038
 275	2.7263e+01	2.7216	-6.546809	0.000393	3.932036	0.666105	0.000039
 276	2.7363e+01	2.7328	-6.507297	0.000397	3.972995	0.673044	0.000040
 277	2.7462e+01	2.7422	-6.473488	0.000340	3.399573	0.575903	0.000034
 278	2.7561e+01	2.7528	-6.430310	0.000434	4.341623	0.735491	0.000043
 279	2.7661e+01	2.7633	-6.394871	0.000356	3.563408	0.603658	0.000036
 280	2.7761e+01	2.7702	-6.358210	0.000369	3.686284	0.624473	0.000037
 281	2.7860e+01	2.7820	-6.319920	0.000385	3.850118	0.652228	0.000038
 282	2.7959e+01	2.7945	-6.279593	0.000405	4.054912	0.686921	0.000041
 283	2.8059e+01	2.8009	-6.241303	0.000385	3.850118	0.652228	0.000038
 284	2.8159e+01	2.8135	-6.198532	0.000430	4.300664	0.728552	0.000043
 285	2.8258e+01	2.8206	-6.159834	0.000389	3.891077	0.659166	0.000039
 286	2.8358e+01	2.8324	-6.117878	0.000422	4.218747	0.714675	0.000042
 287	2.8457e+01	2.8422	-6.079995	0.000381	3.809160	0.645289	0.000038
 288	2.8556e+01	2.8505	-6.038853	0.000414	4.136829	0.700798	0.000041
 289	2.8656e+01	2.8602	-5.999748	0.000393	3.932036	0.666105	0.000039
 290	2.8756e+01	2.8715	-5.959422	0.000405	4.054912	0.686921	0.000041
 291	2.8855e+01	2.8808	-5.920724	0.000389	3.891077	0.659166	0.000039
 292	2.8954e+01	2.8892	-5.878768	0.000422	4.218747	0.714675	0.000042
 293	2.9054e+01	2.9009	-5.841700	0.000373	3.727242	0.631412	0.000037
 294	2.9154e+01	2.9122	-5.799743	0.000422	4.218747	0.714675	0.000042
 295	2.9253e+01	2.9200	-5.759416	0.000405	4.054912	0.686921	0.000041
 296	2.9352e+01	2.9321	-5.720719	0.000389	3.891077	0.659166	0.000039
 297	2.9452e+01	2.9417	-5.676726	0.000442	4.423540	0.749368	0.000044
 298	2.9552e+01	2.9503	-5.637214	0.000397	3.972995	0.673044	0.000040
 299	2.9651e+01	2.9632	-5.594443	0.000430	4.300664	0.728552	0.000043
 300	2.9750e+01	2.9744	-5.552079	0.000426	4.259706	0.721614	0.000043
 301	2.9850e+01	2.9797	-5.511345	0.000410	4.095871	0.693859	0.000041
 302	2.9950e+01	2.9894	-5.468981	0.000426	4.259706	0.721614	0.000043
 303	3.0049e+01	3.0022	-5.427025	0.000422	4.218747	0.714675	0.000042
 304	3.0148e+01	3.0102	-5.385476	0.000418	4.177788	0.707736	0.000042
 305	3.0248e+01	3.0190	-5.341483	0.000442	4.423540	0.749368	0.000044
 306	3.0348e+01	3.0302	-5.297897	0.000438	4.382582	0.742429	0.000044
 307	3.0447e+01	3.0399	-5.252682	0.000455	4.546416	0.770184	0.000045
 308	3.0547e+01	3.0534	-5.211541	0.000414	4.136829	0.700798	0.000041
 309	3.0646e+01	3.0618	-5.169177	0.000426	4.259706	0.721614	0.000043
 310	3.0745e+01	3.0718	-5.124369	0.000451	4.505458	0.763245	0.000045
 311	3.0845e+01	3.0779	-5.086486	0.000381	3.809160	0.645289	0.000038
 312	3.0945e+01	3.0898	-5.045752	0.000410	4.095871	0.693859	0.000041
 313	3.1044e+01	3.0993	-5.001352	0.000446	4.464499	0.756307	0.000045
 314	3.1143e+01	3.1133	-4.956137	0.000455	4.546416	0.770184	0.000045
 315	3.1243e+01	3.1195	-4.917847	0.000385	3.850118	0.652228	0.000038
 316	3.1343e+01	3.1279	-4.872224	0.000459	4.587375	0.777122	0.000046
 317	3.1442e+01	3.1422	-4.828231	0.000442	4.423540	0.749368	0.000044
 318	3.1541e+01	3.1496	-4.785460	0.000430	4.300664	0.728552	0.000043
 319	3.1641e+01	3.1609	-4.742689	0.000430	4.300664	0.728552	0.000043
 320	3.1741e+01	3.1702	-4.701548	0.000414	4.136829	0.700798	0.000041
 321	3.1840e+01	3.1771	-4.659999	0.000418	4.177788	0.707736	0.000042
 322	3.1939e+01	3.1895	-4.618450	0.000418	4.177788	0.707736	0.000042
 323	3.2039e+01	3.2005	-4.574457	0.000442	4.423540	0.749368	0.000044
 324	3.2139e+01	3.2085	-4.529649	0.000451	4.505458	0.763245	0.000045
 325	3.2238e+01	3.2186	-4.488508	0.000414	4.136829	0.700798	0.000041
 326	3.2337e+01	3.2330	-4.443293	0.000455	4.546416	0.770184	0.000045
 327	3.2437e+01	3.2378	-4.401744	0.000418	4.177788	0.707736	0.000042
 328	3.2536e+01	3.2505	-4.356529	0.000455	4.546416	0.770184	0.000045
 329	3.2636e+01	3.2596	-4.314572	0.000422	4.218747	0.714675	0.000042
 330	3.2736e+01	3.2702	-4.273431	0.000414	4.136829	0.700798	0.000041
 331	3.2835e+01	3.2794	-4.229438	0.000442	4.423540	0.749368	0.000044
 332	3.2934e+01	3.2864	-4.188703	0.000410	4.095871	0.693859	0.000041
 333	3.3034e+01	3.2996	-4.143488	0.000455	4.546416	0.770184	0.000045
 334	3.3133e+01	3.3111	-4.098681	0.000451	4.505458	0.763245	0.000045
 335	3.3233e+01	3.3205	-4.054688	0.000442	4.423540	0.749368	0.000044
 336	3.3333e+01	3.3309	-4.014361	0.000405	4.054912	0.686921	0.000041
 337	3.3432e+01	3.3404	-3.974034	0.000405	4.054912	0.686921	0.000041
 338	3.3532e+01	3.3493	-3.928412	0.000459	4.587375	0.777122	0.000046
 339	3.3631e+01	3.3568	-3.886048	0.000426	4.259706	0.721614	0.000043
 340	3.3730e+01	3.3669	-3.843277	0.000430	4.300664	0.728552	0.000043
 341	3.3830e+01	3.3773	-3.800506	0.000430	4.300664	0.728552	0.000043
 342	3.3929e+01	3.3904	-3.760586	0.000401	4.013953	0.679982	0.000040
 343	3.4029e+01	3.4008	-3.719037	0.000418	4.177788	0.707736	0.000042
 344	3.4129e+01	3.4078	-3.671378	0.000479	4.792169	0.811815	0.000048
 345	3.4228e+01	3.4208	-3.627793	0.000438	4.382582	0.742429	0.000044
 346	3.4328e+01	3.4326	-3.582985	0.000451	4.505458	0.763245	0.000045
 347	3.4427e+01	3.4389	-3.538992	0.000442	4.423540	0.749368	0.000044
 348	3.4526e+01	3.4478	-3.496628	0.000426	4.259706	0.721614	0.000043
 349	3.4626e+01	3.4592	-3.453857	0.000430	4.300664	0.728552	0.000043
 350	3.4725e+01	3.4688	-3.405791	0.000483	4.833127	0.818754	0.000048
 351	3.4825e+01	3.4753	-3.363835	0.000422	4.218747	0.714675	0.000042
 352	3.4925e+01	3.4888	-3.321471	0.000426	4.259706	0.721614	0.000043
 353	3.5024e+01	3.4964	-3.277886	0.000438	4.382582	0.742429	0.000044
 354	3.5123e+01	3.5090	-3.231856	0.000463	4.628334	0.784061	0.000046
 355	3.5223e+01	3.5195	-3.191529	0.000405	4.054912	0.686921	0.000041
 356	3.5322e+01	3.5281	-3.144277	0.000475	4.751210	0.804877	0.000047
 357	3.5422e+01	3.5375	-3.101914	0.000426	4.259706	0.721614	0.000043
 358	3.5522e+01	3.5480	-3.057921	0.000442	4.423540	0.749368	0.000044
 359	3.5621e+01	3.5596	-3.008632	0.000496	4.956004	0.839570	0.000050
 360	3.5721e+01	3.5704	-2.965861	0.000430	4.300664	0.728552	0.000043
 361	3.5820e+01	3.5793	-2.919017	0.000471	4.710251	0.797938	0.000047
 362	3.5919e+01	3.5912	-2.870136	0.000492	4.915045	0.832631	0.000049
 363	3.6019e+01	3.5998	-2.828179	0.000422	4.218747	0.714675	0.000042
 364	3.6118e+01	3.6095	-2.778891	0.000496	4.956004	0.839570	0.000050
 365	3.6218e+01	3.6187	-2.737342	0.000418	4.177788	0.707736	0.000042
 366	3.6318e+01	3.6275	-2.694571	0.000430	4.300664	0.728552	0.000043
 367	3.6417e+01	3.6385	-2.654244	0.000405	4.054912	0.686921	0.000041
 368	3.6517e+01	3.6471	-2.610658	0.000438	4.382582	0.742429	0.000044
 369	3.6616e+01	3.6576	-2.564221	0.000467	4.669293	0.791000	0.000047
 370	3.6715e+01	3.6689	-2.525524	0.000389	3.891077	0.659166	0.000039
 371	3.6815e+01	3.6770	-2.479494	0.000463	4.628334	0.784061	0.000046
 372	3.6914e+01	3.6887	-2.436723	0.000430	4.300664	0.728552	0.000043
 373	3.7014e+01	3.6984	-2.393545	0.000434	4.341623	0.735491	0.000043
 374	3.7114e+01	3.7075	-2.347922	0.000459	4.587375	0.777122	0.000046
 375	3.7213e+01	3.7185	-2.306374	0.000418	4.177788	0.707736	0.000042
 376	3.7313e+01	3.7254	-2.264010	0.000426	4.259706	0.721614	0.000043
 377	3.7412e+01	3.7380	-2.224905	0.000393	3.932036	0.666105	0.000039
 378	3.7511e+01	3.7469	-2.181727	0.000434	4.341623	0.735491	0.000043
 379	3.7611e+01	3.7591	-2.141400	0.000405	4.054912	0.686921	0.000041
 380	3.7711e+01	3.7661	-2.098221	0.000434	4.341623	0.735491	0.000043
 381	3.7810e+01	3.7790	-2.060339	0.000381	3.809160	0.645289	0.000038
 382	3.7910e+01	3.7874	-2.022048	0.000385	3.850118	0.652228	0.000038
 383	3.8009e+01	3.7941	-1.982129	0.000401	4.013953	0.679982	0.000040
 384	3.8108e+01	3.8065	-1.943431	0.000389	3.891077	0.659166	0.000039
 385	3.8208e+01	3.8142	-1.901475	0.000422	4.218747	0.714675	0.000042
 386	3.8307e+01	3.8265	-1.860741	0.000410	4.095871	0.693859	0.000041
 387	3.8407e+01	3.8358	-1.821636	0.000393	3.932036	0.666105	0.000039
 388	3.8507e+01	3.8452	-1.782124	0.000397	3.972995	0.673044	0.000040
 389	3.8606e+01	3.8567	-1.740982	0.000414	4.136829	0.700798	0.000041
 390	3.8706e+01	3.8634	-1.704729	0.000365	3.645325	0.617535	0.000036
 391	3.8805e+01	3.8760	-1.666031	0.000389	3.891077	0.659166	0.000039
 392	3.8904e+01	3.8860	-1.626111	0.000401	4.013953	0.679982	0.000040
 393	3.9004e+01	3.8982	-1.583340	0.000430	4.300664	0.728552	0.000043
 394	3.9103e+01	3.9097	-1.548309	0.000352	3.522449	0.596719	0.000035
 395	3.9203e+01	3.9159	-1.506760	0.000418	4.177788	0.707736	0.000042
 396	3.9303e+01	3.9254	-1.471321	0.000356	3.563408	0.603658	0.000036
 397	3.9402e+01	3.9367	-1.428550	0.000430	4.300664	0.728552	0.000043
 398	3.9502e+01	3.9460	-1.391889	0.000369	3.686284	0.624473	0.000037
 399	3.9601e+01	3.9568	-1.352377	0.000397	3.972995	0.673044	0.000040
 400	3.9700e+01	3.9674	-1.312865	0.000397	3.972995	0.673044	0.000040
 401	3.9800e+01	3.9733	-1.280278	0.000328	3.276697	0.555087	0.000033
 402	3.9900e+01	3.9877	-1.239951	0.000405	4.054912	0.686921	0.000041
 403	3.9999e+01	3.9982	-1.202475	0.000377	3.768201	0.638351	0.000038
 404	4.0099e+01	4.0075	-1.165814	0.000369	3.686284	0.624473	0.000037
 405	4.0198e+01	4.0130	-1.128746	0.000373	3.727242	0.631412	0.000037
 406	4.0297e+01	4.0251	-1.085975	0.000430	4.300664	0.728552	0.000043
 407	4.0397e+01	4.0352	-1.049314	0.000369	3.686284	0.624473	0.000037
 408	4.0496e+01	4.0456	-1.012246	0.000373	3.727242	0.631412	0.000037
 409	4.0596e+01	4.0572	-0.971105	0.000414	4.136829	0.700798	0.000041
 410	4.0696e+01	4.0638	-0.935258	0.000360	3.604366	0.610596	0.000036
 411	4.0795e+01	4.0739	-0.897376	0.000381	3.809160	0.645289	0.000038
 412	4.0895e+01	4.0833	-0.863159	0.000344	3.440531	0.582842	0.000034
 413	4.0994e+01	4.0934	-0.825276	0.000381	3.809160	0.645289	0.000038
 414	4.1093e+01	4.1047	-0.786171	0.000393	3.932036	0.666105	0.000039
 415	4.1193e+01	4.1154	-0.753176	0.000332	3.317655	0.562026	0.000033
 416	4.1292e+01	4.1248	-0.714479	0.000389	3.891077	0.659166	0.000039
 417	4.1392e+01	4.1351	-0.677411	0.000373	3.727242	0.631412	0.000037
 418	4.1492e+01	4.1424	-0.641565	0.000360	3.604366	0.610596	0.000036
 419	4.1591e+01	4.1554	-0.604496	0.000373	3.727242	0.631412	0.000037
 420	4.1691e+01	4.1666	-0.568243	0.000365	3.645325	0.617535	0.000036
 421	4.1790e+01	4.1773	-0.528731	0.000397	3.972995	0.673044	0.000040
 422	4.1889e+01	4.1859	-0.493292	0.000356	3.563408	0.603658	0.000036
 423	4.1989e+01	4.1952	-0.452965	0.000405	4.054912	0.686921	0.000041
 424	4.2089e+01	4.2052	-0.420378	0.000328	3.276697	0.555087	0.000033
 425	4.2188e+01	4.2144	-0.383717	0.000369	3.686284	0.624473	0.000037
 426	4.2288e+01	4.2257	-0.347463	0.000365	3.645325	0.617535	0.000036
 427	4.2387e+01	4.2336	-0.307544	0.000401	4.013953	0.679982	0.000040
 428	4.2486e+01	4.2443	-0.271697	0.000360	3.604366	0.610596	0.000036
 429	4.2586e+01	4.2584	-0.237073	0.000348	3.481490	0.589780	0.000035
 430	4.2685e+01	4.2640	-0.202042	0.000352	3.522449	0.596719	0.000035
 431	4.2785e+01	4.2747	-0.167010	0.000352	3.522449	0.596719	0.000035
 432	4.2885e+01	4.2869	-0.134423	0.000328	3.276697	0.555087	0.000033
 433	4.2984e+01	4.2950	-0.100614	0.000340	3.399573	0.575903	0.000034
 434	4.3084e+01	4.3053	-0.064360	0.000365	3.645325	0.617535	0.000036
 435	4.3183e+01	4.3136	-0.028514	0.000360	3.604366	0.610596	0.000036
 436	4.3282e+01	4.3246	0.006925	0.000356	3.563408	0.603658	0.000036
 437	4.3382e+01	4.3336	0.041549	0.000348	3.481490	0.589780	0.000035
 438	4.3481e+01	4.3456	0.081061	0.000397	3.972995	0.673044	0.000040
 439	4.3581e+01	4.3551	0.117722	0.000369	3.686284	0.624473	0.000037
 440	4.3681e+01	4.3645	0.153161	0.000356	3.563408	0.603658	0.000036
 441	4.3780e+01	4.3747	0.183711	0.000307	3.071903	0.520394	0.000031
 442	4.3880e+01	4.3877	0.214262	0.000307	3.071903	0.520394	0.000031
 443	4.3979e+01	4.3922	0.250923	0.000369	3.686284	0.624473	0.000037
 444	4.4078e+01	4.4032	0.286362	0.000356	3.563408	0.603658	0.000036
 445	4.4178e+01	4.4149	0.312024	0.000258	2.580399	0.437131	0.000026
 446	4.4278e+01	4.4247	0.347463	0.000356	3.563408	0.603658	0.000036
 447	4.4377e+01	4.4341	0.378829	0.000315	3.153820	0.534272	0.000032
 448	4.4477e+01	4.4420	0.414267	0.000356	3.563408	0.603658	0.000036
 449	4.4576e+01	4.4552	0.448891	0.000348	3.481490	0.589780	0.000035
 450	4.4675e+01	4.4642	0.481072	0.000324	3.235738	0.548149	0.000032
 451	4.4775e+01	4.4720	0.515696	0.000348	3.481490	0.589780	0.000035
 452	4.4874e+01	4.4854	0.552356	0.000369	3.686284	0.624473	0.000037
 453	4.4974e+01	4.4949	0.583722	0.000315	3.153820	0.534272	0.000032
 454	4.5074e+01	4.5027	0.622012	0.000385	3.850118	0.652228	0.000038
 455	4.5173e+01	4.5142	0.656636	0.000348	3.481490	0.589780	0.000035
 456	4.5273e+01	4.5251	0.692075	0.000356	3.563408	0.603658	0.000036
 457	4.5372e+01	4.5337	0.722626	0.000307	3.071903	0.520394	0.000031
 458	4.5471e+01	4.5440	0.762545	0.000401	4.013953	0.679982	0.000040
 459	4.5571e+01	4.5535	0.797169	0.000348	3.481490	0.589780	0.000035
 460	4.5670e+01	4.5621	0.828535	0.000315	3.153820	0.534272	0.000032
 461	4.5770e+01	4.5696	0.866418	0.000381	3.809160	0.645289	0.000038
 462	4.5870e+01	4.5815	0.900227	0.000340	3.399573	0.575903	0.000034
 463	4.5969e+01	4.5919	0.937703	0.000377	3.768201	0.638351	0.000038
 464	4.6069e+01	4.6044	0.977622	0.000401	4.013953	0.679982	0.000040
 465	4.6168e+01	4.6124	1.009395	0.000319	3.194779	0.541210	0.000032
 466	4.6267e+01	4.6237	1.049722	0.000405	4.054912	0.686921	0.000041
 467	4.6367e+01	4.6329	1.083124	0.000336	3.358614	0.568965	0.000034
 468	4.6467e+01	4.6438	1.119785	0.000369	3.686284	0.624473	0.000037
 469	4.6566e+01	4.6511	1.160926	0.000414	4.136829	0.700798	0.000041
 470	4.6666e+01	4.6624	1.198809	0.000381	3.809160	0.645289	0.000038
 471	4.6765e+01	4.6714	1.233026	0.000344	3.440531	0.582842	0.000034
 472	4.6864e+01	4.6825	1.272538	0.000397	3.972995	0.673044	0.000040
 473	4.6964e+01	4.6912	1.311643	0.000393	3.932036	0.666105	0.000039
 474	4.7063e+01	4.7038	1.349526	0.000381	3.809160	0.645289	0.000038
 475	4.7163e+01	4.7149	1.383335	0.000340	3.399573	0.575903	0.000034
 476	4.7263e+01	4.7251	1.422440	0.000393	3.932036	0.666105	0.000039
 477	4.7362e+01	4.7325	1.460323	0.000381	3.809160	0.645289	0.000038
 478	4.7462e+01	4.7447	1.496169	0.000360	3.604366	0.610596	0.000036
 479	4.7561e+01	4.7550	1.534459	0.000385	3.850118	0.652228	0.000038
 480	4.7660e+01	4.7628	1.568676	0.000344	3.440531	0.582842	0.000034
 481	4.7760e+01	4.7708	1.609003	0.000405	4.054912	0.686921	0.000041
 482	4.7859e+01	4.7828	1.646886	0.000381	3.809160	0.645289	0.000038
 483	4.7959e+01	4.7924	1.686398	0.000397	3.972995	0.673044	0.000040
 484	4.8059e+01	4.8048	1.722652	0.000365	3.645325	0.617535	0.000036
 485	4.8158e+01	4.8113	1.760942	0.000385	3.850118	0.652228	0.000038
 486	4.8258e+01	4.8208	1.801269	0.000405	4.054912	0.686921	0.000041
 487	4.8357e+01	4.8339	1.835486	0.000344	3.440531	0.582842	0.000034
 488	4.8456e+01	4.8412	1.878257	0.000430	4.300664	0.728552	0.000043
 489	4.8556e+01	4.8534	1.915732	0.000377	3.768201	0.638351	0.000038
 490	4.8656e+01	4.8614	1.951986	0.000365	3.645325	0.617535	0.000036
 491	4.8755e+01	4.8701	1.990276	0.000385	3.850118	0.652228	0.000038
 492	4.8855e+01	4.8808	2.025307	0.000352	3.522449	0.596719	0.000035
 493	4.8954e+01	4.8916	2.065634	0.000405	4.054912	0.686921	0.000041
 494	4.9053e+01	4.9038	2.100666	0.000352	3.522449	0.596719	0.000035
 495	4.9153e+01	4.9084	2.144659	0.000442	4.423540	0.749368	0.000044
 496	4.9252e+01	4.9217	2.181727	0.000373	3.727242	0.631412	0.000037
 497	4.9352e+01	4.9317	2.219610	0.000381	3.809160	0.645289	0.000038
 498	4.9452e+01	4.9403	2.258714	0.000393	3.932036	0.666105	0.000039
 499	4.9551e+01	4.9516	2.293746	0.000352	3.522449	0.596719	0.000035
 500	4.9651e+01	4.9584	2.333258	0.000397	3.972995	0.673044	0.000040
 501	4.9750e+01	4.9705	2.372363	0.000393	3.932036	0.666105	0.000039
 502	4.9849e+01	4.9821	2.411061	0.000389	3.891077	0.659166	0.000039
 503	4.9949e+01	4.9902	2.450573	0.000397	3.972995	0.673044	0.000040
 504	5.0048e+01	4.9993	2.486826	0.000365	3.645325	0.617535	0.000036
 505	5.0148e+01	5.0112	2.527968	0.000414	4.136829	0.700798	0.000041
 506	5.0248e+01	5.0191	2.566665	0.000389	3.891077	0.659166	0.000039
 507	5.0347e+01	5.0295	2.599253	0.000328	3.276697	0.555087	0.000033
 508	5.0447e+01	5.0401	2.639987	0.000410	4.095871	0.693859	0.000041
 509	5.0546e+01	5.0527	2.677055	0.000373	3.727242	0.631412	0.000037
 510	5.0645e+01	5.0587	2.714531	0.000377	3.768201	0.638351	0.000038
 511	5.0745e+01	5.0697	2.751599	0.000373	3.727242	0.631412	0.000037
 512	5.0844e+01	5.0805	2.789074	0.000377	3.768201	0.638351	0.000038
 513	5.0944e+01	5.0912	2.830216	0.000414	4.136829	0.700798	0.000041
 514	5.1044e+01	5.0979	2.872172	0.000422	4.218747	0.714675	0.000042
 515	5.1143e+01	5.1099	2.908833	0.000369	3.686284	0.624473	0.000037
 516	5.1242e+01	5.1191	2.947938	0.000393	3.932036	0.666105	0.000039
 517	5.1342e+01	5.1298	2.987043	0.000393	3.932036	0.666105	0.000039
 518	5.1441e+01	5.1383	3.029407	0.000426	4.259706	0.721614	0.000043
 519	5.1541e+01	5.1517	3.069326	0.000401	4.013953	0.679982	0.000040
 520	5.1641e+01	5.1608	3.108838	0.000397	3.972995	0.673044	0.000040
 521	5.1740e+01	5.1694	3.146721	0.000381	3.809160	0.645289	0.000038
 522	5.1840e+01	5.1812	3.183382	0.000369	3.686284	0.624473	0.000037
 523	5.1939e+01	5.1916	3.222894	0.000397	3.972995	0.673044	0.000040
 524	5.2038e+01	5.2001	3.263629	0.000410	4.095871	0.693859	0.000041
 525	5.2138e+01	5.2126	3.303548	0.000401	4.013953	0.679982	0.000040
 526	5.2237e+01	5.2215	3.344282	0.000410	4.095871	0.693859	0.000041
 527	5.2337e+01	5.2335	3.385831	0.000418	4.177788	0.707736	0.000042
 528	5.2437e+01	5.2395	3.426973	0.000414	4.136829	0.700798	0.000041
 529	5.2536e+01	5.2491	3.470151	0.000434	4.341623	0.735491	0.000043
 530	5.2636e+01	5.2569	3.508034	0.000381	3.809160	0.645289	0.000038
 531	5.2735e+01	5.2726	3.551212	0.000434	4.341623	0.735491	0.000043
 532	5.2834e+01	5.2779	3.589095	0.000381	3.809160	0.645289	0.000038
 533	5.2934e+01	5.2888	3.629015	0.000401	4.013953	0.679982	0.000040
 534	5.3033e+01	5.2991	3.668934	0.000401	4.013953	0.679982	0.000040
 535	5.3133e+01	5.3078	3.706817	0.000381	3.809160	0.645289	0.000038
 536	5.3233e+01	5.3185	3.747959	0.000414	4.136829	0.700798	0.000041
 537	5.3332e+01	5.3280	3.783805	0.000360	3.604366	0.610596	0.000036
 538	5.3431e+01	5.3398	3.824132	0.000405	4.054912	0.686921	0.000041
 539	5.3531e+01	5.3491	3.862422	0.000385	3.850118	0.652228	0.000038
 540	5.3630e+01	5.3611	3.901934	0.000397	3.972995	0.673044	0.000040
 541	5.3730e+01	5.3675	3.939817	0.000381	3.809160	0.645289	0.000038
 542	5.3830e+01	5.3812	3.975256	0.000356	3.563408	0.603658	0.000036
 543	5.3929e+01	5.3884	4.014361	0.000393	3.932036	0.666105	0.000039
 544	5.4029e+01	5.3997	4.054688	0.000405	4.054912	0.686921	0.000041
 545	5.4128e+01	5.4104	4.092571	0.000381	3.809160	0.645289	0.000038
 546	5.4227e+01	5.4177	4.126787	0.000344	3.440531	0.582842	0.000034
 547	5.4327e+01	5.4314	4.165485	0.000389	3.891077	0.659166	0.000039
 548	5.4426e+01	5.4375	4.200516	0.000352	3.522449	0.596719	0.000035
 549	5.4526e+01	5.4484	4.233104	0.000328	3.276697	0.555087	0.000033
 550	5.4626e+01	5.4560	4.273838	0.000410	4.095871	0.693859	0.000041
 551	5.4725e+01	5.4687	4.308055	0.000344	3.440531	0.582842	0.000034
 552	5.4825e+01	5.4784	4.346345	0.000385	3.850118	0.652228	0.000038
 553	5.4924e+01	5.4896	4.378525	0.000324	3.235738	0.548149	0.000032
 554	5.5023e+01	5.4971	4.416001	0.000377	3.768201	0.638351	0.000038
 555	5.5123e+01	5.5078	4.451032	0.000352	3.522449	0.596719	0.000035
 556	5.5222e+01	5.5195	4.484434	0.000336	3.358614	0.568965	0.000034
 557	5.5322e+01	5.5291	4.519873	0.000356	3.563408	0.603658	0.000036
 558	5.5422e+01	5.5408	4.553682	0.000340	3.399573	0.575903	0.000034
 559	5.5521e+01	5.5461	4.586270	0.000328	3.276697	0.555087	0.000033
 560	5.5620e+01	5.5596	4.623745	0.000377	3.768201	0.638351	0.000038
 561	5.5720e+01	5.5703	4.662443	0.000389	3.891077	0.659166	0.000039
 562	5.5819e+01	5.5776	4.694216	0.000319	3.194779	0.541210	0.000032
 563	5.5919e+01	5.5886	4.731284	0.000373	3.727242	0.631412	0.000037
 564	5.6019e+01	5.6003	4.764278	0.000332	3.317655	0.562026	0.000033
 565	5.6118e+01	5.6084	4.799717	0.000356	3.563408	0.603658	0.000036
 566	5.6218e+01	5.6170	4.833934	0.000344	3.440531	0.582842	0.000034
 567	5.6317e+01	5.6263	4.868558	0.000348	3.481490	0.589780	0.000035
 568	5.6416e+01	5.6380	4.902775	0.000344	3.440531	0.582842	0.000034
 569	5.6516e+01	5.6501	4.934955	0.000324	3.235738	0.548149	0.000032
 570	5.6615e+01	5.6551	4.962654	0.000279	2.785192	0.471824	0.000028
 571	5.6715e+01	5.6667	5.002574	0.000401	4.013953	0.679982	0.000040
 572	5.6815e+01	5.6759	5.039642	0.000373	3.727242	0.631412	0.000037
 573	5.6914e+01	5.6858	5.067749	0.000283	2.826151	0.478763	0.000028
 574	5.7014e+01	5.6963	5.103187	0.000356	3.563408	0.603658	0.000036
 575	5.7113e+01	5.7085	5.139441	0.000365	3.645325	0.617535	0.000036
 576	5.7212e+01	5.7189	5.172843	0.000336	3.358614	0.568965	0.000034
 577	5.7312e+01	5.7273	5.202986	0.000303	3.030944	0.513456	0.000030
 578	5.7411e+01	5.7406	5.235981	0.000332	3.317655	0.562026	0.000033
 579	5.7511e+01	5.7464	5.271827	0.000360	3.604366	0.610596	0.000036
 580	5.7611e+01	5.7558	5.301563	0.000299	2.989986	0.506517	0.000030
 581	5.7710e+01	5.7732	5.335373	0.000340	3.399573	0.575903	0.000034
 582	5.7809e+01	5.7787	5.366331	0.000311	3.112862	0.527333	0.000031
 583	5.7909e+01	5.7871	5.400955	0.000348	3.481490	0.589780	0.000035
 584	5.8008e+01	5.7976	5.438023	0.000373	3.727242	0.631412	0.000037
 585	5.8108e+01	5.8042	5.464908	0.000270	2.703275	0.457947	0.000027
 586	5.8208e+01	5.8176	5.500754	0.000360	3.604366	0.610596	0.000036
 587	5.8307e+01	5.8276	5.530082	0.000295	2.949027	0.499579	0.000029
 588	5.8407e+01	5.8358	5.565521	0.000356	3.563408	0.603658	0.000036
 589	5.8506e+01	5.8450	5.598109	0.000328	3.276697	0.555087	0.000033
 590	5.8605e+01	5.8575	5.632733	0.000348	3.481490	0.589780	0.000035
 591	5.8705e+01	5.8651	5.664506	0.000319	3.194779	0.541210	0.000032
 592	5.8804e+01	5.8749	5.700352	0.000360	3.604366	0.610596	0.000036
 593	5.8904e+01	5.8880	5.735790	0.000356	3.563408	0.603658	0.000036
 594	5.9004e+01	5.8965	5.767971	0.000324	3.235738	0.548149	0.000032
 595	5.9103e+01	5.9055	5.796077	0.000283	2.826151	0.478763	0.000028
 596	5.9203e+01	5.9159	5.827035	0.000311	3.112862	0.527333	0.000031
 597	5.9302e+01	5.9272	5.862474	0.000356	3.563408	0.603658	0.000036
 598	5.9401e+01	5.9368	5.890581	0.000283	2.826151	0.478763	0.000028
 599	5.9501e+01	5.9463	5.921946	0.000315	3.153820	0.534272	0.000032
 600	5.9600e+01	5.9557	5.947201	0.000254	2.539440	0.430193	0.000025
 601	5.9700e+01	5.9645	5.980603	0.000336	3.358614	0.568965	0.000034
 602	5.9800e+01	5.9768	6.015635	0.000352	3.522449	0.596719	0.000035
 603	5.9899e+01	5.9893	6.045371	0.000299	2.989986	0.506517	0.000030
 604	5.9998e+01	5.9977	6.076329	0.000311	3.112862	0.527333	0.000031
 605	6.0098e+01	6.0053	6.108509	0.000324	3.235738	0.548149	0.000032
 606	6.0197e+01	6.0145	6.141096	0.000328	3.276697	0.555087	0.000033
 607	6.0297e+01	6.0256	6.173276	0.000324	3.235738	0.548149	0.000032
 608	6.0397e+01	6.0352	6.205049	0.000319	3.194779	0.541210	0.000032
 609	6.0496e+01	6.0442	6.231119	0.000262	2.621357	0.444070	0.000026
 610	6.0596e+01	6.0567	6.261262	0.000303	3.030944	0.513456	0.000030
 611	6.0695e+01	6.0686	6.290998	0.000299	2.989986	0.506517	0.000030
 612	6.0794e+01	6.0769	6.319105	0.000283	2.826151	0.478763	0.000028
 613	6.0894e+01	6.0854	6.344768	0.000258	2.580399	0.437131	0.000026
 614	6.0993e+01	6.0928	6.373282	0.000287	2.867109	0.485701	0.000029
 615	6.1093e+01	6.1037	6.401796	0.000287	2.867109	0.485701	0.000029
 616	6.1193e+01	6.1160	6.438456	0.000369	3.686284	0.624473	0.000037
 617	6.1292e+01	6.1259	6.466156	0.000279	2.785192	0.471824	0.000028
 618	6.1392e+01	6.1332	6.498336	0.000324	3.235738	0.548149	0.000032
 619	6.1491e+01	6.1436	6.527664	0.000295	2.949027	0.499579	0.000029
 620	6.1590e+01	6.1547	6.561881	0.000344	3.440531	0.582842	0.000034
 621	6.1690e+01	6.1684	6.592432	0.000307	3.071903	0.520394	0.000031
 622	6.1789e+01	6.1779	6.620946	0.000287	2.867109	0.485701	0.000029
 623	6.1889e+01	6.1828	6.654348	0.000336	3.358614	0.568965	0.000034
 624	6.1989e+01	6.1945	6.684084	0.000299	2.989986	0.506517	0.000030
 625	6.2088e+01	6.2078	6.712191	0.000283	2.826151	0.478763	0.000028
 626	6.2188e+01	6.2167	6.741519	0.000295	2.949027	0.499579	0.000029
 627	6.2287e+01	6.2247	6.773292	0.000319	3.194779	0.541210	0.000032
 628	6.2386e+01	6.2347	6.808323	0.000352	3.522449	0.596719	0.000035
 629	6.2486e+01	6.2466	6.841318	0.000332	3.317655	0.562026	0.000033
 630	6.2586e+01	6.2562	6.875535	0.000344	3.440531	0.582842	0.000034
 631	6.2685e+01	6.2653	6.906086	0.000307	3.071903	0.520394	0.000031
 632	6.2785e+01	6.2739	6.941524	0.000356	3.563408	0.603658	0.000036
 633	6.2884e+01	6.2849	6.973704	0.000324	3.235738	0.548149	0.000032
 634	6.2983e+01	6.2920	7.001404	0.000279	2.785192	0.471824	0.000028
 635	6.3083e+01	6.3058	7.037250	0.000360	3.604366	0.610596	0.000036
 636	6.3182e+01	6.3146	7.067393	0.000303	3.030944	0.513456	0.000030
 637	6.3282e+01	6.3238	7.104054	0.000369	3.686284	0.624473	0.000037
 638	6.3382e+01	6.3348	7.138271	0.000344	3.440531	0.582842	0.000034
 639	6.3481e+01	6.3415	7.170044	0.000319	3.194779	0.541210	0.000032
 640	6.3581e+01	6.3531	7.205075	0.000352	3.522449	0.596719	0.000035
 641	6.3680e+01	6.3628	7.238884	0.000340	3.399573	0.575903	0.000034
 642	6.3779e+01	6.3705	7.274323	0.000356	3.563408	0.603658	0.000036
 643	6.3879e+01	6.3840	7.308133	0.000340	3.399573	0.575903	0.000034
 644	6.3978e+01	6.3933	7.342349	0.000344	3.440531	0.582842	0.000034
 645	6.4078e+01	6.4004	7.374122	0.000319	3.194779	0.541210	0.000032
 646	6.4177e+01	6.4158	7.405080	0.000311	3.112862	0.527333	0.000031
 647	6.4277e+01	6.4220	7.441334	0.000365	3.645325	0.617535	0.000036
 648	6.4376e+01	6.4335	7.473921	0.000328	3.276697	0.555087	0.000033
 649	6.4476e+01	6.4424	7.508953	0.000352	3.522449	0.596719	0.000035
 650	6.4576e+01	6.4555	7.547650	0.000389	3.891077	0.659166	0.000039
 651	6.4675e+01	6.4620	7.583089	0.000356	3.563408	0.603658	0.000036
 652	6.4775e+01	6.4738	7.612825	0.000299	2.989986	0.506517	0.000030
 653	6.4874e+01	6.4825	7.646227	0.000336	3.358614	0.568965	0.000034
 654	6.4974e+01	6.4912	7.684110	0.000381	3.809160	0.645289	0.000038
 655	6.5073e+01	6.5041	7.717919	0.000340	3.399573	0.575903	0.000034
 656	6.5172e+01	6.5118	7.753765	0.000360	3.604366	0.610596	0.000036
 657	6.5272e+01	6.5249	7.787982	0.000344	3.440531	0.582842	0.000034
 658	6.5371e+01	6.5340	7.818533	0.000307	3.071903	0.520394	0.000031
 659	6.5471e+01	6.5440	7.853564	0.000352	3.522449	0.596719	0.000035
 660	6.5570e+01	6.5539	7.885337	0.000319	3.194779	0.541210	0.000032
 661	6.5670e+01	6.5614	7.924442	0.000393	3.932036	0.666105	0.000039
 662	6.5769e+01	6.5737	7.957844	0.000336	3.358614	0.568965	0.000034
 663	6.5869e+01	6.5801	7.994098	0.000365	3.645325	0.617535	0.000036
 664	6.5969e+01	6.5934	8.030351	0.000365	3.645325	0.617535	0.000036
 665	6.6068e+01	6.6021	8.064160	0.000340	3.399573	0.575903	0.000034
 666	6.6168e+01	6.6122	8.097563	0.000336	3.358614	0.568965	0.000034
 667	6.6267e+01	6.6236	8.131779	0.000344	3.440531	0.582842	0.000034
 668	6.6367e+01	6.6314	8.166811	0.000352	3.522449	0.596719	0.000035
 669	6.6466e+01	6.6431	8.205508	0.000389	3.891077	0.659166	0.000039
 670	6.6566e+01	6.6518	8.238503	0.000332	3.317655	0.562026	0.000033
 671	6.6665e+01	6.6600	8.278015	0.000397	3.972995	0.673044	0.000040
 672	6.6764e+01	6.6714	8.308566	0.000307	3.071903	0.520394	0.000031
 673	6.6864e+01	6.6817	8.339117	0.000307	3.071903	0.520394	0.000031
 674	6.6963e+01	6.6949	8.374963	0.000360	3.604366	0.610596	0.000036
 675	6.7063e+01	6.7015	8.412438	0.000377	3.768201	0.638351	0.000038
 676	6.7162e+01	6.7110	8.443396	0.000311	3.112862	0.527333	0.000031
 677	6.7262e+01	6.7225	8.480872	0.000377	3.768201	0.638351	0.000038
 678	6.7362e+01	6.7310	8.517125	0.000365	3.645325	0.617535	0.000036
 679	6.7461e+01	6.7432	8.546861	0.000299	2.989986	0.506517	0.000030
 680	6.7561e+01	6.7538	8.584337	0.000377	3.768201	0.638351	0.000038
 681	6.7660e+01	6.7616	8.623849	0.000397	3.972995	0.673044	0.000040
 682	6.7760e+01	6.7727	8.659288	0.000356	3.563408	0.603658	0.000036
 683	6.7859e+01	6.7818	8.693912	0.000348	3.481490	0.589780	0.000035
 684	6.7959e+01	6.7942	8.730573	0.000369	3.686284	0.624473	0.000037
 685	6.8058e+01	6.8037	8.768863	0.000385	3.850118	0.652228	0.000038
 686	6.8157e+01	6.8118	8.806339	0.000377	3.768201	0.638351	0.000038
 687	6.8257e+01	6.8206	8.838926	0.000328	3.276697	0.555087	0.000033
 688	6.8356e+01	6.8314	8.874772	0.000360	3.604366	0.610596	0.000036
 689	6.8456e+01	6.8417	8.914692	0.000401	4.013953	0.679982	0.000040
 690	6.8555e+01	6.8495	8.945650	0.000311	3.112862	0.527333	0.000031
 691	6.8655e+01	6.8617	8.983940	0.000385	3.850118	0.652228	0.000038
 692	6.8754e+01	6.8703	9.022230	0.000385	3.850118	0.652228	0.000038
 693	6.8854e+01	6.8810	9.055632	0.000336	3.358614	0.568965	0.000034
 694	6.8954e+01	6.8916	9.094737	0.000393	3.932036	0.666105	0.000039
 695	6.9053e+01	6.9019	9.135064	0.000405	4.054912	0.686921	0.000041
 696	6.9153e+01	6.9134	9.167651	0.000328	3.276697	0.555087	0.000033
 697	6.9252e+01	6.9205	9.206756	0.000393	3.932036	0.666105	0.000039
 698	6.9352e+01	6.9314	9.246676	0.000401	4.013953	0.679982	0.000040
 699	6.9451e+01	6.9410	9.283337	0.000369	3.686284	0.624473	0.000037
 700	6.9550e+01	6.9488	9.321627	0.000385	3.850118	0.652228	0.000038
 701	6.9650e+01	6.9624	9.357880	0.000365	3.645325	0.617535	0.000036
 702	6.9749e+01	6.9689	9.389653	0.000319	3.194779	0.541210	0.000032
 703	6.9849e+01	6.9839	9.424685	0.000352	3.522449	0.596719	0.000035
 704	6.9948e+01	6.9903	9.462160	0.000377	3.768201	0.638351	0.000038
 705	7.0048e+01	7.0031	9.497599	0.000356	3.563408	0.603658	0.000036
 706	7.0147e+01	7.0107	9.533445	0.000360	3.604366	0.610596	0.000036
 707	7.0247e+01	7.0196	9.567255	0.000340	3.399573	0.575903	0.000034
 708	7.0347e+01	7.0287	9.603915	0.000369	3.686284	0.624473	0.000037
 709	7.0446e+01	7.0387	9.643020	0.000393	3.932036	0.666105	0.000039
 710	7.0546e+01	7.0498	9.671534	0.000287	2.867109	0.485701	0.000029
 711	7.0645e+01	7.0611	9.711046	0.000397	3.972995	0.673044	0.000040
 712	7.0745e+01	7.0699	9.743634	0.000328	3.276697	0.555087	0.000033
 713	7.0844e+01	7.0815	9.778258	0.000348	3.481490	0.589780	0.000035
 714	7.0944e+01	7.0889	9.809216	0.000311	3.112862	0.527333	0.000031
 715	7.1043e+01	7.0991	9.848321	0.000393	3.932036	0.666105	0.000039
 716	7.1142e+01	7.1096	9.881723	0.000336	3.358614	0.568965	0.000034
 717	7.1242e+01	7.1232	9.913903	0.000324	3.235738	0.548149	0.000032
 718	7.1341e+01	7.1279	9.944046	0.000303	3.030944	0.513456	0.000030
 719	7.1441e+01	7.1397	9.975819	0.000319	3.194779	0.541210	0.000032
 720	7.1540e+01	7.1514	10.007592	0.000319	3.194779	0.541210	0.000032
 721	7.1640e+01	7.1587	10.040994	0.000336	3.358614	0.568965	0.000034
 722	7.1740e+01	7.1694	10.071137	0.000303	3.030944	0.513456	0.000030
 723	7.1839e+01	7.1803	10.102910	0.000319	3.194779	0.541210	0.000032
 724	7.1939e+01	7.1918	10.135497	0.000328	3.276697	0.555087	0.000033
 725	7.2038e+01	7.2002	10.169307	0.000340	3.399573	0.575903	0.000034
 726	7.2138e+01	7.2084	10.201487	0.000324	3.235738	0.548149	0.000032
 727	7.2237e+01	7.2201	10.232038	0.000307	3.071903	0.520394	0.000031
 728	7.2337e+01	7.2277	10.264625	0.000328	3.276697	0.555087	0.000033
 729	7.2436e+01	7.2413	10.298434	0.000340	3.399573	0.575903	0.000034
 730	7.2535e+01	7.2486	10.330207	0.000319	3.194779	0.541210	0.000032
 731	7.2635e+01	7.2592	10.361980	0.000319	3.194779	0.541210	0.000032
 732	7.2734e+01	7.2683	10.391308	0.000295	2.949027	0.499579	0.000029
 733	7.2834e+01	7.2805	10.423081	0.000319	3.194779	0.541210	0.000032
 734	7.2933e+01	7.2894	10.453632	0.000307	3.071903	0.520394	0.000031
 735	7.3033e+01	7.2985	10.482553	0.000291	2.908068	0.492640	0.000029
 736	7.3132e+01	7.3075	10.515141	0.000328	3.276697	0.555087	0.000033
 737	7.3232e+01	7.3185	10.550172	0.000352	3.522449	0.596719	0.000035
 738	7.3332e+01	7.3296	10.577057	0.000270	2.703275	0.457947	0.000027
 739	7.3431e+01	7.3370	10.611273	0.000344	3.440531	0.582842	0.000034
 740	7.3531e+01	7.3498	10.642232	0.000311	3.112862	0.527333	0.000031
 741	7.3630e+01	7.3600	10.671968	0.000299	2.989986	0.506517	0.000030
 742	7.3730e+01	7.3711	10.703740	0.000319	3.194779	0.541210	0.000032
 743	7.3829e+01	7.3788	10.731847	0.000283	2.826151	0.478763	0.000028
 744	7.3928e+01	7.3885	10.762805	0.000311	3.112862	0.527333	0.000031
 745	7.4028e+01	7.3971	10.793763	0.000311	3.112862	0.527333	0.000031
 746	7.4127e+01	7.4108	10.825943	0.000324	3.235738	0.548149	0.000032
 747	7.4227e+01	7.4181	10.857308	0.000315	3.153820	0.534272	0.000032
 748	7.4326e+01	7.4297	10.887452	0.000303	3.030944	0.513456	0.000030
 749	7.4426e+01	7.4363	10.917188	0.000299	2.989986	0.506517	0.000030
 750	7.4525e+01	7.4474	10.944072	0.000270	2.703275	0.457947	0.000027
 751	7.4625e+01	7.4586	10.975845	0.000319	3.194779	0.541210	0.000032
 752	7.4725e+01	7.4719	11.005988	0.000303	3.030944	0.513456	0.000030
 753	7.4824e+01	7.4773	11.037354	0.000315	3.153820	0.534272	0.000032
 754	7.4924e+01	7.4889	11.065868	0.000287	2.867109	0.485701	0.000029
 755	7.5023e+01	7.4986	11.097233	0.000315	3.153820	0.534272	0.000032
 756	7.5123e+01	7.5064	11.128191	0.000311	3.112862	0.527333	0.000031
 757	7.5222e+01	7.5190	11.158335	0.000303	3.030944	0.513456	0.000030
 758	7.5322e+01	7.5274	11.187663	0.000295	2.949027	0.499579	0.000029
 759	7.5421e+01	7.5364	11.215770	0.000283	2.826151	0.478763	0.000028
 760	7.5520e+01	7.5484	11.247950	0.000324	3.235738	0.548149	0.000032
 761	7.5620e+01	7.5594	11.279315	0.000315	3.153820	0.534272	0.000032
 762	7.5719e+01	7.5675	11.311903	0.000328	3.276697	0.555087	0.000033
 763	7.5819e+01	7.5753	11.337565	0.000258	2.580399	0.437131	0.000026
 764	7.5918e+01	7.5872	11.366079	0.000287	2.867109	0.485701	0.000029
 765	7.6018e+01	7.6002	11.390927	0.000250	2.498481	0.423254	0.000025
 766	7.6118e+01	7.6054	11.421070	0.000303	3.030944	0.513456	0.000030
 767	7.6217e+01	7.6173	11.451621	0.000307	3.071903	0.520394	0.000031
 768	7.6317e+01	7.6273	11.481764	0.000303	3.030944	0.513456	0.000030
 769	7.6416e+01	7.6356	11.508242	0.000266	2.662316	0.451009	0.000027
 770	7.6516e+01	7.6469	11.537163	0.000291	2.908068	0.492640	0.000029
 771	7.6615e+01	7.6576	11.564455	0.000274	2.744233	0.464886	0.000027
 772	7.6715e+01	7.6662	11.597042	0.000328	3.276697	0.555087	0.000033
 773	7.6814e+01	7.6792	11.623520	0.000266	2.662316	0.451009	0.000027
 774	7.6913e+01	7.6858	11.653256	0.000299	2.989986	0.506517	0.000030
 775	7.7013e+01	7.6981	11.681362	0.000283	2.826151	0.478763	0.000028
 776	7.7112e+01	7.7100	11.708654	0.000274	2.744233	0.464886	0.000027
 777	7.7212e+01	7.7148	11.733910	0.000254	2.539440	0.430193	0.000025
 778	7.7311e+01	7.7237	11.762831	0.000291	2.908068	0.492640	0.000029
 779	7.7411e+01	7.7386	11.788493	0.000258	2.580399	0.437131	0.000026
 780	7.7510e+01	7.7476	11.812119	0.000238	2.375605	0.402438	0.000024
 781	7.7610e+01	7.7557	11.836967	0.000250	2.498481	0.423254	0.000025
 782	7.7710e+01	7.7673	11.865481	0.000287	2.867109	0.485701	0.000029
 783	7.7809e+01	7.7789	11.893180	0.000279	2.785192	0.471824	0.000028
 784	7.7909e+01	7.7874	11.923324	0.000303	3.030944	0.513456	0.000030
 785	7.8008e+01	7.7947	11.951430	0.000283	2.826151	0.478763	0.000028
 786	7.8108e+01	7.8068	11.979537	0.000283	2.826151	0.478763	0.000028
 787	7.8207e+01	7.8161	12.009273	0.000299	2.989986	0.506517	0.000030
 788	7.8306e+01	7.8266	12.041453	0.000324	3.235738	0.548149	0.000032
 789	7.8406e+01	7.8348	12.071597	0.000303	3.030944	0.513456	0.000030
 790	7.8505e+01	7.8474	12.094408	0.000229	2.293688	0.388561	0.000023
 791	7.8605e+01	7.8553	12.123736	0.000295	2.949027	0.499579	0.000029
 792	7.8704e+01	7.8652	12.152250	0.000287	2.867109	0.485701	0.000029
 793	7.8804e+01	7.8752	12.182801	0.000307	3.071903	0.520394	0.000031
 794	7.8903e+01	7.8841	12.205612	0.000229	2.293688	0.388561	0.000023
 795	7.9003e+01	7.8941	12.239422	0.000340	3.399573	0.575903	0.000034
 796	7.9103e+01	7.9053	12.267121	0.000279	2.785192	0.471824	0.000028
 797	7.9202e+01	7.9163	12.296857	0.000299	2.989986	0.506517	0.000030
 798	7.9302e+01	7.9253	12.329852	0.000332	3.317655	0.562026	0.000033
 799	7.9401e+01	7.9349	12.355514	0.000258	2.580399	0.437131	0.000026
 800	7.9501e+01	7.9453	12.388916	0.000336	3.358614	0.568965	0.000034
 801	7.9600e+01	7.9568	12.418652	0.000299	2.989986	0.506517	0.000030
 802	7.9700e+01	7.9668	12.451647	0.000332	3.317655	0.562026	0.000033
 803	7.9799e+01	7.9755	12.481383	0.000299	2.989986	0.506517	0.000030
 804	7.9898e+01	7.9866	12.512748	0.000315	3.153820	0.534272	0.000032
 805	7.9998e+01	7.9973	12.546965	0.000344	3.440531	0.582842	0.000034
 806	8.0097e+01	8.0072	12.578331	0.000315	3.153820	0.534272	0.000032
 807	8.0197e+01	8.0169	12.609696	0.000315	3.153820	0.534272	0.000032
 808	8.0296e+01	8.0242	12.637803	0.000283	2.826151	0.478763	0.000028
 809	8.0396e+01	8.0338	12.670390	0.000328	3.276697	0.555087	0.000033
 810	8.0496e+01	8.0462	12.705422	0.000352	3.522449	0.596719	0.000035
 811	8.0595e+01	8.0566	12.737602	0.000324	3.235738	0.548149	0.000032
 812	8.0695e+01	8.0643	12.771411	0.000340	3.399573	0.575903	0.000034
 813	8.0794e+01	8.0762	12.801554	0.000303	3.030944	0.513456	0.000030
 814	8.0894e+01	8.0850	12.836178	0.000348	3.481490	0.589780	0.000035
 815	8.0993e+01	8.0957	12.866729	0.000307	3.071903	0.520394	0.000031
 816	8.1093e+01	8.1049	12.898502	0.000319	3.194779	0.541210	0.000032
 817	8.1192e+01	8.1156	12.932719	0.000344	3.440531	0.582842	0.000034
 818	8.1291e+01	8.1261	12.966528	0.000340	3.399573	0.575903	0.000034
 819	8.1391e+01	8.1367	12.995449	0.000291	2.908068	0.492640	0.000029
 820	8.1490e+01	8.1447	13.026815	0.000315	3.153820	0.534272	0.000032
 821	8.1590e+01	8.1538	13.064290	0.000377	3.768201	0.638351	0.000038
 822	8.1689e+01	8.1663	13.096470	0.000324	3.235738	0.548149	0.000032
 823	8.1789e+01	8.1756	13.125392	0.000291	2.908068	0.492640	0.000029
 824	8.1888e+01	8.1841	13.161645	0.000365	3.645325	0.617535	0.000036
 825	8.1988e+01	8.1955	13.193418	0.000319	3.194779	0.541210	0.000032
 826	8.2088e+01	8.2045	13.224376	0.000311	3.112862	0.527333	0.000031
 827	8.2187e+01	8.2137	13.258593	0.000344	3.440531	0.582842	0.000034
 828	8.2287e+01	8.2249	13.289143	0.000307	3.071903	0.520394	0.000031
 829	8.2386e+01	8.2331	13.322953	0.000340	3.399573	0.575903	0.000034
 830	8.2486e+01	8.2464	13.351874	0.000291	2.908068	0.492640	0.000029
 831	8.2585e+01	8.2537	13.386906	0.000352	3.522449	0.596719	0.000035
 832	8.2684e+01	8.2647	13.421937	0.000352	3.522449	0.596719	0.000035
 833	8.2784e+01	8.2742	13.457783	0.000360	3.604366	0.610596	0.000036
 834	8.2883e+01	8.2855	13.490778	0.000332	3.317655	0.562026	0.000033
 835	8.2983e+01	8.2944	13.525809	0.000352	3.522449	0.596719	0.000035
 836	8.3082e+01	8.3015	13.557175	0.000315	3.153820	0.534272	0.000032
 837	8.3182e+01	8.3154	13.590577	0.000336	3.358614	0.568965	0.000034
 838	8.3281e+01	8.3218	13.621535	0.000311	3.112862	0.527333	0.000031
 839	8.3381e+01	8.3327	13.658603	0.000373	3.727242	0.631412	0.000037
 840	8.3481e+01	8.3448	13.688746	0.000303	3.030944	0.513456	0.000030
 841	8.3580e+01	8.3536	13.724593	0.000360	3.604366	0.610596	0.000036
 842	8.3680e+01	8.3654	13.754329	0.000299	2.989986	0.506517	0.000030
 843	8.3779e+01	8.3737	13.789360	0.000352	3.522449	0.596719	0.000035
 844	8.3879e+01	8.3850	13.820725	0.000315	3.153820	0.534272	0.000032
 845	8.3978e+01	8.3936	13.853313	0.000328	3.276697	0.555087	0.000033
 846	8.4078e+01	8.4061	13.889566	0.000365	3.645325	0.617535	0.000036
 847	8.4177e+01	8.4118	13.920524	0.000311	3.112862	0.527333	0.000031
 848	8.4276e+01	8.4238	13.958815	0.000385	3.850118	0.652228	0.000038
 849	8.4376e+01	8.4326	13.993439	0.000348	3.481490	0.589780	0.000035
 850	8.4475e+01	8.4460	14.029692	0.000365	3.645325	0.617535	0.000036
 851	8.4575e+01	8.4534	14.065131	0.000356	3.563408	0.603658	0.000036
 852	8.4674e+01	8.4629	14.096904	0.000319	3.194779	0.541210	0.000032
 853	8.4774e+01	8.4740	14.133157	0.000365	3.645325	0.617535	0.000036
 854	8.4874e+01	8.4827	14.169818	0.000369	3.686284	0.624473	0.000037
 855	8.4973e+01	8.4931	14.205257	0.000356	3.563408	0.603658	0.000036
 856	8.5073e+01	8.5028	14.236215	0.000311	3.112862	0.527333	0.000031
 857	8.5172e+01	8.5117	14.272061	0.000360	3.604366	0.610596	0.000036
 858	8.5272e+01	8.5220	14.304241	0.000324	3.235738	0.548149	0.000032
 859	8.5371e+01	8.5336	14.340902	0.000369	3.686284	0.624473	0.000037
 860	8.5471e+01	8.5407	14.380007	0.000393	3.932036	0.666105	0.000039
 861	8.5570e+01	8.5522	14.417890	0.000381	3.809160	0.645289	0.000038
 862	8.5669e+01	8.5616	14.449662	0.000319	3.194779	0.541210	0.000032
 863	8.5769e+01	8.5727	14.489989	0.000405	4.054912	0.686921	0.000041
 864	8.5868e+01	8.5835	14.526650	0.000369	3.686284	0.624473	0.000037
 865	8.5968e+01	8.5934	14.562089	0.000356	3.563408	0.603658	0.000036
 866	8.6067e+01	8.6032	14.599564	0.000377	3.768201	0.638351	0.000038
 867	8.6167e+01	8.6126	14.637855	0.000385	3.850118	0.652228	0.000038
 868	8.6266e+01	8.6240	14.674108	0.000365	3.645325	0.617535	0.000036
 869	8.6366e+01	8.6328	14.705473	0.000315	3.153820	0.534272	0.000032
 870	8.6466e+01	8.6413	14.741727	0.000365	3.645325	0.617535	0.000036
 871	8.6565e+01	8.6524	14.774314	0.000328	3.276697	0.555087	0.000033
 872	8.6665e+01	8.6647	14.807309	0.000332	3.317655	0.562026	0.000033
 873	8.6764e+01	8.6741	14.844785	0.000377	3.768201	0.638351	0.000038
 874	8.6864e+01	8.6812	14.878187	0.000336	3.358614	0.568965	0.000034
 875	8.6963e+01	8.6915	14.916477	0.000385	3.850118	0.652228	0.000038
 876	8.7063e+01	8.7043	14.948250	0.000319	3.194779	0.541210	0.000032
 877	8.7162e+01	8.7118	14.984910	0.000369	3.686284	0.624473	0.000037
 878	8.7261e+01	8.7234	15.018720	0.000340	3.399573	0.575903	0.000034
 879	8.7361e+01	8.7333	15.055381	0.000369	3.686284	0.624473	0.000037
 880	8.7460e+01	8.7408	15.086746	0.000315	3.153820	0.534272	0.000032
 881	8.7560e+01	8.7488	15.118519	0.000319	3.194779	0.541210	0.000032
 882	8.7659e+01	8.7646	15.153550	0.000352	3.522449	0.596719	0.000035
 883	8.7759e+01	8.7762	15.186138	0.000328	3.276697	0.555087	0.000033
 884	8.7859e+01	8.7806	15.221576	0.000356	3.563408	0.603658	0.000036
 885	8.7958e+01	8.7923	15.250498	0.000291	2.908068	0.492640	0.000029
 886	8.8058e+01	8.8013	15.281048	0.000307	3.071903	0.520394	0.000031
 887	8.8157e+01	8.8107	15.315265	0.000344	3.440531	0.582842	0.000034
 888	8.8257e+01	8.8208	15.343372	0.000283	2.826151	0.478763	0.000028
 889	8.8356e+01	8.8300	15.377996	0.000348	3.481490	0.589780	0.000035
 890	8.8456e+01	8.8400	15.408954	0.000311	3.112862	0.527333	0.000031
 891	8.8555e+01	8.8509	15.444393	0.000356	3.563408	0.603658	0.000036
 892	8.8654e+01	8.8595	15.474536	0.000303	3.030944	0.513456	0.000030
 893	8.8754e+01	8.8702	15.504272	0.000299	2.989986	0.506517	0.000030
 894	8.8853e+01	8.8795	15.539304	0.000352	3.522449	0.596719	0.000035
 895	8.8953e+01	8.8903	15.571484	0.000324	3.235738	0.548149	0.000032
 896	8.9052e+01	8.9041	15.600812	0.000295	2.949027	0.499579	0.000029
 897	8.9152e+01	8.9103	15.632585	0.000319	3.194779	0.541210	0.000032
 898	8.9251e+01	8.9209	15.663950	0.000315	3.153820	0.534272	0.000032
 899	8.9351e+01	8.9272	15.697760	0.000340	3.399573	0.575903	0.000034
 900	8.9451e+01	8.9426	15.729125	0.000315	3.153820	0.534272	0.000032
 901	8.9550e+01	8.9503	15.758861	0.000299	2.989986	0.506517	0.000030
 902	8.9650e+01	8.9603	15.791041	0.000324	3.235738	0.548149	0.000032
 903	8.9749e+01	8.9713	15.824036	0.000332	3.317655	0.562026	0.000033
 904	8.9849e+01	8.9800	15.852550	0.000287	2.867109	0.485701	0.000029
 905	8.9948e+01	8.9917	15.881064	0.000287	2.867109	0.485701	0.000029
 906	9.0047e+01	9.0012	15.914059	0.000332	3.317655	0.562026	0.000033
 907	9.0147e+01	9.0088	15.947054	0.000332	3.317655	0.562026	0.000033
 908	9.0246e+01	9.0195	15.975568	0.000287	2.867109	0.485701	0.000029
 909	9.0346e+01	9.0314	16.010599	0.000352	3.522449	0.596719	0.000035
 910	9.0445e+01	9.0414	16.044001	0.000336	3.358614	0.568965	0.000034
 911	9.0545e+01	9.0505	16.074552	0.000307	3.071903	0.520394	0.000031
 912	9.0644e+01	9.0585	16.105917	0.000315	3.153820	0.534272	0.000032
 913	9.0744e+01	9.0692	16.138505	0.000328	3.276697	0.555087	0.000033
 914	9.0844e+01	9.0771	16.168648	0.000303	3.030944	0.513456	0.000030
 915	9.0943e+01	9.0913	16.196755	0.000283	2.826151	0.478763	0.000028
 916	9.1043e+01	9.0985	16.229342	0.000328	3.276697	0.555087	0.000033
 917	9.1142e+01	9.1093	16.259485	0.000303	3.030944	0.513456	0.000030
 918	9.1242e+01	9.1212	16.285963	0.000266	2.662316	0.451009	0.000027
 919	9.1341e+01	9.1300	16.318143	0.000324	3.235738	0.548149	0.000032
 920	9.1441e+01	9.1390	16.351545	0.000336	3.358614	0.568965	0.000034
 921	9.1540e+01	9.1504	16.382503	0.000311	3.112862	0.527333	0.000031
 922	9.1639e+01	9.1589	16.413868	0.000315	3.153820	0.534272	0.000032
 923	9.1739e+01	9.1682	16.442382	0.000287	2.867109	0.485701	0.000029
 924	9.1838e+01	9.1785	16.477414	0.000352	3.522449	0.596719	0.000035
 925	9.1938e+01	9.1876	16.509186	0.000319	3.194779	0.541210	0.000032
 926	9.2037e+01	9.1965	16.540552	0.000315	3.153820	0.534272	0.000032
 927	9.2137e+01	9.2078	16.573546	0.000332	3.317655	0.562026	0.000033
 928	9.2237e+01	9.2181	16.604912	0.000315	3.153820	0.534272	0.000032
 929	9.2336e+01	9.2268	16.633833	0.000291	2.908068	0.492640	0.000029
 930	9.2436e+01	9.2387	16.666013	0.000324	3.235738	0.548149	0.000032
 931	9.2535e+01	9.2480	16.694527	0.000287	2.867109	0.485701	0.000029
 932	9.2635e+01	9.2561	16.727115	0.000328	3.276697	0.555087	0.000033
 933	9.2734e+01	9.2678	16.754814	0.000279	2.785192	0.471824	0.000028
 934	9.2834e+01	9.2799	16.783328	0.000287	2.867109	0.485701	0.000029
 935	9.2933e+01	9.2888	16.812656	0.000295	2.949027	0.499579	0.000029
 936	9.3032e+01	9.2983	16.843615	0.000311	3.112862	0.527333	0.000031
 937	9.3132e+01	9.3085	16.871314	0.000279	2.785192	0.471824	0.000028
 938	9.3231e+01	9.3171	16.899420	0.000283	2.826151	0.478763	0.000028
 939	9.3331e+01	9.3288	16.932415	0.000332	3.317655	0.562026	0.000033
 940	9.3430e+01	9.3389	16.966225	0.000340	3.399573	0.575903	0.000034
 941	9.3530e+01	9.3494	16.995146	0.000291	2.908068	0.492640	0.000029
 942	9.3629e+01	9.3560	17.028955	0.000340	3.399573	0.575903	0.000034
 943	9.3729e+01	9.3684	17.057469	0.000287	2.867109	0.485701	0.000029
 944	9.3829e+01	9.3789	17.087613	0.000303	3.030944	0.513456	0.000030
 945	9.3928e+01	9.3861	17.114497	0.000270	2.703275	0.457947	0.000027
 946	9.4028e+01	9.3977	17.141382	0.000270	2.703275	0.457947	0.000027
 947	9.4127e+01	9.4092	17.169489	0.000283	2.826151	0.478763	0.000028
 948	9.4227e+01	9.4174	17.200039	0.000307	3.071903	0.520394	0.000031
 949	9.4326e+01	9.4273	17.227331	0.000274	2.744233	0.464886	0.000027
 950	9.4425e+01	9.4395	17.256660	0.000295	2.949027	0.499579	0.000029
 951	9.4525e+01	9.4470	17.284766	0.000283	2.826151	0.478763	0.000028
 952	9.4624e+01	9.4587	17.317761	0.000332	3.317655	0.562026	0.000033
 953	9.4724e+01	9.4678	17.349127	0.000315	3.153820	0.534272	0.000032
 954	9.4823e+01	9.4751	17.378048	0.000291	2.908068	0.492640	0.000029
 955	9.4923e+01	9.4856	17.410635	0.000328	3.276697	0.555087	0.000033
 956	9.5022e+01	9.4971	17.439557	0.000291	2.908068	0.492640	0.000029
 957	9.5122e+01	9.5084	17.473773	0.000344	3.440531	0.582842	0.000034
 958	9.5222e+01	9.5153	17.504731	0.000311	3.112862	0.527333	0.000031
 959	9.5321e+01	9.5270	17.535282	0.000307	3.071903	0.520394	0.000031
 960	9.5421e+01	9.5380	17.567870	0.000328	3.276697	0.555087	0.000033
 961	9.5520e+01	9.5508	17.600457	0.000328	3.276697	0.555087	0.000033
 962	9.5620e+01	9.5547	17.632637	0.000324	3.235738	0.548149	0.000032
 963	9.5719e+01	9.5669	17.663595	0.000311	3.112862	0.527333	0.000031
 964	9.5819e+01	9.5776	17.697404	0.000340	3.399573	0.575903	0.000034
 965	9.5918e+01	9.5880	17.728770	0.000315	3.153820	0.534272	0.000032
 966	9.6017e+01	9.6004	17.762172	0.000336	3.358614	0.568965	0.000034
 967	9.6117e+01	9.6045	17.794352	0.000324	3.235738	0.548149	0.000032
 968	9.6216e+01	9.6174	17.830606	0.000365	3.645325	0.617535	0.000036
 969	9.6316e+01	9.6267	17.863193	0.000328	3.276697	0.555087	0.000033
 970	9.6415e+01	9.6389	17.898632	0.000356	3.563408	0.603658	0.000036
 971	9.6515e+01	9.6478	17.932034	0.000336	3.358614	0.568965	0.000034
 972	9.6615e+01	9.6558	17.965436	0.000336	3.358614	0.568965	0.000034
 973	9.6714e+01	9.6656	18.001282	0.000360	3.604366	0.610596	0.000036
 974	9.6814e+01	9.6755	18.034684	0.000336	3.358614	0.568965	0.000034
 975	9.6913e+01	9.6869	18.074196	0.000397	3.972995	0.673044	0.000040
 976	9.7013e+01	9.6949	18.108006	0.000340	3.399573	0.575903	0.000034
 977	9.7112e+01	9.7046	18.141001	0.000332	3.317655	0.562026	0.000033
 978	9.7212e+01	9.7188	18.179291	0.000385	3.850118	0.652228	0.000038
 979	9.7311e+01	9.7285	18.217988	0.000389	3.891077	0.659166	0.000039
 980	9.7410e+01	9.7348	18.252205	0.000344	3.440531	0.582842	0.000034
 981	9.7510e+01	9.7461	18.288051	0.000360	3.604366	0.610596	0.000036
 982	9.7609e+01	9.7549	18.323083	0.000352	3.522449	0.596719	0.000035
 983	9.7709e+01	9.7672	18.356892	0.000340	3.399573	0.575903	0.000034
 984	9.7808e+01	9.7736	18.396404	0.000397	3.972995	0.673044	0.000040
 985	9.7908e+01	9.7858	18.433065	0.000369	3.686284	0.624473	0.000037
 986	9.8007e+01	9.7952	18.466875	0.000340	3.399573	0.575903	0.000034
 987	9.8107e+01	9.8047	18.507201	0.000405	4.054912	0.686921	0.000041
 988	9.8207e+01	9.8157	18.542233	0.000352	3.522449	0.596719	0.000035
 989	9.8306e+01	9.8254	18.582153	0.000401	4.013953	0.679982	0.000040
 990	9.8406e+01	9.8361	18.617999	0.000360	3.604366	0.610596	0.000036
 991	9.8505e+01	9.8444	18.655882	0.000381	3.809160	0.645289	0.000038
 992	9.8605e+01	9.8541	18.692542	0.000369	3.686284	0.624473	0.000037
 993	9.8704e+01	9.8633	18.725944	0.000336	3.358614	0.568965	0.000034
 994	9.8803e+01	9.8768	18.764235	0.000385	3.850118	0.652228	0.000038
 995	9.8903e+01	9.8849	18.802932	0.000389	3.891077	0.659166	0.000039
 996	9.9002e+01	9.8962	18.839186	0.000365	3.645325	0.617535	0.000036
 997	9.9102e+01	9.9039	18.880327	0.000414	4.136829	0.700798	0.000041
 998	9.9201e+01	9.9123	18.912507	0.000324	3.235738	0.548149	0.000032
 999	9.9301e+01	9.9255	18.953649	0.000414	4.136829	0.700798	0.000041
1000	9.9400e+01	9.9334	18.990310	0.000369	3.686284	0.624473	0.000037
1001	9.9500e+01	9.9434	19.033081	0.000430	4.300664	0.728552	0.000043
1002	9.9600e+01	9.9554	19.070964	0.000381	3.809160	0.645289	0.000038
1003	9.9699e+01	9.9636	19.109661	0.000389	3.891077	0.659166	0.000039
1004	9.9799e+01	9.9756	19.147951	0.000385	3.850118	0.652228	0.000038
1005	9.9898e+01	9.9854	19.189500	0.000418	4.177788	0.707736	0.000042
1006	9.9998e+01	9.9915	19.224939	0.000356	3.563408	0.603658	0.000036
1007	1.0010e+02	9.9844	19.213533	0.000115	1.146844	0.194281	-0.000011
1008	1.0020e+02	9.9756	19.203757	0.000098	0.983009	0.166526	-0.000010
1009	1.0030e+02	9.9641	19.186649	0.000172	1.720266	0.291421	-0.000017
1010	1.0040e+02	9.9543	19.176058	0.000106	1.064926	0.180403	-0.000011
1011	1.0050e+02	9.9438	19.159357	0.000168	1.679307	0.284482	-0.000017
1012	1.0059e+02	9.9365	19.146729	0.000127	1.269720	0.215096	-0.000013
1013	1.0069e+02	9.9255	19.134509	0.000123	1.228761	0.208158	-0.000012
1014	1.0079e+02	9.9149	19.118623	0.000160	1.597390	0.270605	-0.000016
1015	1.0089e+02	9.9060	19.110068	0.000086	0.860133	0.145710	-0.000009
1016	1.0099e+02	9.8952	19.096626	0.000135	1.351637	0.228974	-0.000014
1017	1.0109e+02	9.8829	19.081962	0.000147	1.474513	0.249789	-0.000015
1018	1.0119e+02	9.8756	19.068927	0.000131	1.310679	0.222035	-0.000013
1019	1.0129e+02	9.8650	19.059151	0.000098	0.983009	0.166526	-0.000010
1020	1.0139e+02	9.8508	19.046930	0.000123	1.228761	0.208158	-0.000012
1021	1.0149e+02	9.8447	19.032673	0.000143	1.433555	0.242851	-0.000014
1022	1.0159e+02	9.8359	19.017194	0.000156	1.556431	0.263667	-0.000016
1023	1.0169e+02	9.8256	19.000901	0.000164	1.638348	0.277544	-0.000016
1024	1.0179e+02	9.8138	18.988680	0.000123	1.228761	0.208158	-0.000012
1025	1.0189e+02	9.8053	18.974016	0.000147	1.474513	0.249789	-0.000015
1026	1.0199e+02	9.7962	18.958944	0.000152	1.515472	0.256728	-0.000015
1027	1.0209e+02	9.7861	18.947946	0.000111	1.105885	0.187342	-0.000011
1028	1.0219e+02	9.7754	18.932060	0.000160	1.597390	0.270605	-0.000016
1029	1.0229e+02	9.7650	18.920247	0.000119	1.187803	0.201219	-0.000012
1030	1.0239e+02	9.7565	18.904360	0.000160	1.597390	0.270605	-0.000016
1031	1.0248e+02	9.7443	18.888881	0.000156	1.556431	0.263667	-0.000016
1032	1.0258e+02	9.7363	18.880327	0.000086	0.860133	0.145710	-0.000009
1033	1.0268e+02	9.7254	18.865256	0.000152	1.515472	0.256728	-0.000015
1034	1.0278e+02	9.7152	18.847740	0.000176	1.761224	0.298359	-0.000018
1035	1.0288e+02	9.7073	18.834705	0.000131	1.310679	0.222035	-0.000013
1036	1.0298e+02	9.6952	18.817189	0.000176	1.761224	0.298359	-0.000018
1037	1.0308e+02	9.6869	18.802117	0.000152	1.515472	0.256728	-0.000015
1038	1.0318e+02	9.6769	18.785824	0.000164	1.638348	0.277544	-0.000016
1039	1.0328e+02	9.6675	18.770345	0.000156	1.556431	0.263667	-0.000016
1040	1.0338e+02	9.6554	18.749163	0.000213	2.129853	0.360807	-0.000021
1041	1.0348e+02	9.6441	18.734091	0.000152	1.515472	0.256728	-0.000015
1042	1.0358e+02	9.6375	18.719427	0.000147	1.474513	0.249789	-0.000015
1043	1.0368e+02	9.6270	18.701504	0.000180	1.802183	0.305298	-0.000018
1044	1.0378e+02	9.6170	18.681137	0.000205	2.047935	0.346930	-0.000020
1045	1.0388e+02	9.6045	18.668102	0.000131	1.310679	0.222035	-0.000013
1046	1.0398e+02	9.5965	18.645291	0.000229	2.293688	0.388561	-0.000023
1047	1.0408e+02	9.5863	18.628590	0.000168	1.679307	0.284482	-0.000017
1048	1.0418e+02	9.5758	18.608222	0.000205	2.047935	0.346930	-0.000020
1049	1.0428e+02	9.5654	18.587855	0.000205	2.047935	0.346930	-0.000020
1050	1.0438e+02	9.5564	18.567896	0.000201	2.006977	0.339991	-0.000020
1051	1.0447e+02	9.5444	18.547528	0.000205	2.047935	0.346930	-0.000020
1052	1.0457e+02	9.5386	18.527976	0.000197	1.966018	0.333052	-0.000020
1053	1.0467e+02	9.5267	18.512497	0.000156	1.556431	0.263667	-0.000016
1054	1.0477e+02	9.5174	18.484798	0.000279	2.785192	0.471824	-0.000028
1055	1.0487e+02	9.5060	18.464838	0.000201	2.006977	0.339991	-0.000020
1056	1.0497e+02	9.4979	18.446915	0.000180	1.802183	0.305298	-0.000018
1057	1.0507e+02	9.4862	18.422067	0.000250	2.498481	0.423254	-0.000025
1058	1.0517e+02	9.4776	18.402922	0.000193	1.925059	0.326114	-0.000019
1059	1.0527e+02	9.4678	18.379703	0.000233	2.334646	0.395500	-0.000023
1060	1.0537e+02	9.4550	18.355670	0.000242	2.416564	0.409377	-0.000024
1061	1.0547e+02	9.4471	18.337747	0.000180	1.802183	0.305298	-0.000018
1062	1.0557e+02	9.4385	18.318602	0.000193	1.925059	0.326114	-0.000019
1063	1.0567e+02	9.4272	18.290903	0.000279	2.785192	0.471824	-0.000028
1064	1.0577e+02	9.4176	18.270535	0.000205	2.047935	0.346930	-0.000020
1065	1.0587e+02	9.4086	18.250983	0.000197	1.966018	0.333052	-0.000020
1066	1.0597e+02	9.3954	18.225728	0.000254	2.539440	0.430193	-0.000025
1067	1.0607e+02	9.3862	18.201695	0.000242	2.416564	0.409377	-0.000024
1068	1.0617e+02	9.3751	18.181327	0.000205	2.047935	0.346930	-0.000020
1069	1.0627e+02	9.3709	18.155665	0.000258	2.580399	0.437131	-0.000026
1070	1.0637e+02	9.3573	18.133668	0.000221	2.211770	0.374684	-0.000022
1071	1.0647e+02	9.3488	18.109228	0.000246	2.457522	0.416316	-0.000025
1072	1.0656e+02	9.3359	18.083973	0.000254	2.539440	0.430193	-0.000025
1073	1.0666e+02	9.3275	18.058310	0.000258	2.580399	0.437131	-0.000026
1074	1.0676e+02	9.3158	18.032647	0.000258	2.580399	0.437131	-0.000026
1075	1.0686e+02	9.3095	18.017983	0.000147	1.474513	0.249789	-0.000015
1076	1.0696e+02	9.2963	17.987025	0.000311	3.112862	0.527333	-0.000031
1077	1.0706e+02	9.2880	17.964214	0.000229	2.293688	0.388561	-0.000023
1078	1.0716e+02	9.2785	17.940588	0.000238	2.375605	0.402438	-0.000024
1079	1.0726e+02	9.2696	17.915740	0.000250	2.498481	0.423254	-0.000025
1080	1.0736e+02	9.2590	17.892522	0.000233	2.334646	0.395500	-0.000023
1081	1.0746e+02	9.2493	17.865637	0.000270	2.703275	0.457947	-0.000027
1082	1.0756e+02	9.2365	17.842418	0.000233	2.334646	0.395500	-0.000023
1083	1.0766e+02	9.2285	17.816756	0.000258	2.580399	0.437131	-0.000026
1084	1.0776e+02	9.2155	17.789871	0.000270	2.703275	0.457947	-0.000027
1085	1.0786e+02	9.2094	17.763801	0.000262	2.621357	0.444070	-0.000026
1086	1.0796e+02	9.1946	17.738953	0.000250	2.498481	0.423254	-0.000025
1087	1.0806e+02	9.1867	17.712884	0.000262	2.621357	0.444070	-0.000026
1088	1.0816e+02	9.1779	17.689258	0.000238	2.375605	0.402438	-0.000024
1089	1.0826e+02	9.1717	17.661151	0.000283	2.826151	0.478763	-0.000028
1090	1.0836e+02	9.1608	17.637932	0.000233	2.334646	0.395500	-0.000023
1091	1.0845e+02	9.1505	17.613492	0.000246	2.457522	0.416316	-0.000025
1092	1.0855e+02	9.1370	17.591088	0.000225	2.252729	0.381623	-0.000023
1093	1.0865e+02	9.1301	17.565426	0.000258	2.580399	0.437131	-0.000026
1094	1.0875e+02	9.1187	17.536912	0.000287	2.867109	0.485701	-0.000029
1095	1.0885e+02	9.1102	17.514100	0.000229	2.293688	0.388561	-0.000023
1096	1.0895e+02	9.0997	17.487216	0.000270	2.703275	0.457947	-0.000027
1097	1.0905e+02	9.0894	17.461553	0.000258	2.580399	0.437131	-0.000026
1098	1.0915e+02	9.0778	17.433039	0.000287	2.867109	0.485701	-0.000029
1099	1.0925e+02	9.0704	17.404933	0.000283	2.826151	0.478763	-0.000028
1100	1.0935e+02	9.0604	17.380085	0.000250	2.498481	0.423254	-0.000025
1101	1.0945e+02	9.0501	17.349127	0.000311	3.112862	0.527333	-0.000031
1102	1.0955e+02	9.0393	17.321835	0.000274	2.744233	0.464886	-0.000027
1103	1.0965e+02	9.0301	17.290877	0.000311	3.112862	0.527333	-0.000031
1104	1.0975e+02	9.0188	17.261548	0.000295	2.949027	0.499579	-0.000029
1105	1.0985e+02	9.0096	17.240773	0.000209	2.088894	0.353868	-0.000021
1106	1.0995e+02	9.0004	17.211445	0.000295	2.949027	0.499579	-0.000029
1107	1.1005e+02	8.9893	17.186597	0.000250	2.498481	0.423254	-0.000025
1108	1.1015e+02	8.9800	17.157268	0.000295	2.949027	0.499579	-0.000029
1109	1.1025e+02	8.9709	17.128347	0.000291	2.908068	0.492640	-0.000029
1110	1.1035e+02	8.9624	17.100648	0.000279	2.785192	0.471824	-0.000028
1111	1.1044e+02	8.9484	17.070504	0.000303	3.030944	0.513456	-0.000030
1112	1.1054e+02	8.9429	17.042805	0.000279	2.785192	0.471824	-0.000028
1113	1.1064e+02	8.9301	17.015920	0.000270	2.703275	0.457947	-0.000027
1114	1.1074e+02	8.9209	16.979667	0.000365	3.645325	0.617535	-0.000036
1115	1.1084e+02	8.9104	16.951153	0.000287	2.867109	0.485701	-0.000029
1116	1.1094e+02	8.9001	16.920195	0.000311	3.112862	0.527333	-0.000031
1117	1.1104e+02	8.8894	16.890052	0.000303	3.030944	0.513456	-0.000030
1118	1.1114e+02	8.8787	16.865204	0.000250	2.498481	0.423254	-0.000025
1119	1.1124e+02	8.8683	16.834653	0.000307	3.071903	0.520394	-0.000031
1120	1.1134e+02	8.8626	16.806546	0.000283	2.826151	0.478763	-0.000028
1121	1.1144e+02	8.8502	16.780069	0.000266	2.662316	0.451009	-0.000027
1122	1.1154e+02	8.8428	16.752777	0.000274	2.744233	0.464886	-0.000027
1123	1.1164e+02	8.8326	16.724263	0.000287	2.867109	0.485701	-0.000029
1124	1.1174e+02	8.8220	16.696564	0.000279	2.785192	0.471824	-0.000028
1125	1.1184e+02	8.8143	16.666420	0.000303	3.030944	0.513456	-0.000030
1126	1.1194e+02	8.8013	16.639129	0.000274	2.744233	0.464886	-0.000027
1127	1.1204e+02	8.7909	16.610615	0.000287	2.867109	0.485701	-0.000029
1128	1.1214e+02	8.7850	16.583730	0.000270	2.703275	0.457947	-0.000027
1129	1.1224e+02	8.7695	16.556031	0.000279	2.785192	0.471824	-0.000028
1130	1.1234e+02	8.7611	16.523851	0.000324	3.235738	0.548149	-0.000032
1131	1.1244e+02	8.7521	16.499410	0.000246	2.457522	0.416316	-0.000025
1132	1.1253e+02	8.7428	16.468859	0.000307	3.071903	0.520394	-0.000031
1133	1.1263e+02	8.7326	16.441567	0.000274	2.744233	0.464886	-0.000027
1134	1.1273e+02	8.7212	16.415497	0.000262	2.621357	0.444070	-0.000026
1135	1.1283e+02	8.7115	16.393094	0.000225	2.252729	0.381623	-0.000023
1136	1.1293e+02	8.7026	16.368246	0.000250	2.498481	0.423254	-0.000025
1137	1.1303e+02	8.6926	16.340954	0.000274	2.744233	0.464886	-0.000027
1138	1.1313e+02	8.6826	16.314069	0.000270	2.703275	0.457947	-0.000027
1139	1.1323e+02	8.6710	16.288407	0.000258	2.580399	0.437131	-0.000026
1140	1.1333e+02	8.6621	16.262744	0.000258	2.580399	0.437131	-0.000026
1141	1.1343e+02	8.6529	16.237489	0.000254	2.539440	0.430193	-0.000025
1142	1.1353e+02	8.6420	16.209789	0.000279	2.785192	0.471824	-0.000028
1143	1.1363e+02	8.6318	16.186164	0.000238	2.375605	0.402438	-0.000024
1144	1.1373e+02	8.6241	16.161316	0.000250	2.498481	0.423254	-0.000025
1145	1.1383e+02	8.6114	16.134838	0.000266	2.662316	0.451009	-0.000027
1146	1.1393e+02	8.6065	16.108361	0.000266	2.662316	0.451009	-0.000027
1147	1.1403e+02	8.5925	16.082699	0.000258	2.580399	0.437131	-0.000026
1148	1.1413e+02	8.5830	16.054999	0.000279	2.785192	0.471824	-0.000028
1149	1.1423e+02	8.5745	16.031781	0.000233	2.334646	0.395500	-0.000023
1150	1.1433e+02	8.5622	16.009377	0.000225	2.252729	0.381623	-0.000023
1151	1.1442e+02	8.5526	15.981270	0.000283	2.826151	0.478763	-0.000028
1152	1.1452e+02	8.5431	15.956015	0.000254	2.539440	0.430193	-0.000025
1153	1.1462e+02	8.5340	15.931575	0.000246	2.457522	0.416316	-0.000025
1154	1.1472e+02	8.5244	15.906319	0.000254	2.539440	0.430193	-0.000025
1155	1.1482e+02	8.5137	15.879027	0.000274	2.744233	0.464886	-0.000027
1156	1.1492e+02	8.5026	15.854587	0.000246	2.457522	0.416316	-0.000025
1157	1.1502e+02	8.4927	15.833405	0.000213	2.129853	0.360807	-0.000021
1158	1.1512e+02	8.4827	15.805706	0.000279	2.785192	0.471824	-0.000028
1159	1.1522e+02	8.4730	15.778821	0.000270	2.703275	0.457947	-0.000027
1160	1.1532e+02	8.4637	15.758047	0.000209	2.088894	0.353868	-0.000021
1161	1.1542e+02	8.4530	15.727903	0.000303	3.030944	0.513456	-0.000030
1162	1.1552e+02	8.4440	15.703055	0.000250	2.498481	0.423254	-0.000025
1163	1.1562e+02	8.4341	15.677393	0.000258	2.580399	0.437131	-0.000026
1164	1.1572e+02	8.4232	15.651730	0.000258	2.580399	0.437131	-0.000026
1165	1.1582e+02	8.4131	15.624438	0.000274	2.744233	0.464886	-0.000027
1166	1.1592e+02	8.4045	15.606108	0.000184	1.843142	0.312237	-0.000018
1167	1.1602e+02	8.3960	15.578409	0.000279	2.785192	0.471824	-0.000028
1168	1.1612e+02	8.3854	15.555190	0.000233	2.334646	0.395500	-0.000023
1169	1.1622e+02	8.3775	15.530342	0.000250	2.498481	0.423254	-0.000025
1170	1.1632e+02	8.3620	15.503050	0.000274	2.744233	0.464886	-0.000027
1171	1.1642e+02	8.3555	15.479424	0.000238	2.375605	0.402438	-0.000024
1172	1.1651e+02	8.3447	15.456206	0.000233	2.334646	0.395500	-0.000023
1173	1.1661e+02	8.3344	15.431358	0.000250	2.498481	0.423254	-0.000025
1174	1.1671e+02	8.3234	15.400807	0.000307	3.071903	0.520394	-0.000031
1175	1.1681e+02	8.3131	15.381662	0.000193	1.925059	0.326114	-0.000019
1176	1.1691e+02	8.3062	15.353963	0.000279	2.785192	0.471824	-0.000028
1177	1.1701e+02	8.2929	15.329522	0.000246	2.457522	0.416316	-0.000025
1178	1.1711e+02	8.2851	15.303860	0.000258	2.580399	0.437131	-0.000026
1179	1.1721e+02	8.2730	15.278604	0.000254	2.539440	0.430193	-0.000025
1180	1.1731e+02	8.2661	15.251312	0.000274	2.744233	0.464886	-0.000027
1181	1.1741e+02	8.2544	15.227279	0.000242	2.416564	0.409377	-0.000024
1182	1.1751e+02	8.2455	15.198765	0.000287	2.867109	0.485701	-0.000029
1183	1.1761e+02	8.2339	15.175547	0.000233	2.334646	0.395500	-0.000023
1184	1.1771e+02	8.2262	15.153958	0.000217	2.170811	0.367745	-0.000022
1185	1.1781e+02	8.2139	15.133590	0.000205	2.047935	0.346930	-0.000020
1186	1.1791e+02	8.2036	15.110372	0.000233	2.334646	0.395500	-0.000023
1187	1.1801e+02	8.1969	15.084709	0.000258	2.580399	0.437131	-0.000026
1188	1.1811e+02	8.1848	15.063120	0.000217	2.170811	0.367745	-0.000022
1189	1.1821e+02	8.1747	15.037050	0.000262	2.621357	0.444070	-0.000026
1190	1.1831e+02	8.1641	15.014239	0.000229	2.293688	0.388561	-0.000023
1191	1.1841e+02	8.1548	14.988577	0.000258	2.580399	0.437131	-0.000026
1192	1.1850e+02	8.1435	14.962507	0.000262	2.621357	0.444070	-0.000026
1193	1.1860e+02	8.1363	14.938473	0.000242	2.416564	0.409377	-0.000024
1194	1.1870e+02	8.1272	14.916477	0.000221	2.211770	0.374684	-0.000022
1195	1.1880e+02	8.1168	14.894480	0.000221	2.211770	0.374684	-0.000022
1196	1.1890e+02	8.1037	14.873706	0.000209	2.088894	0.353868	-0.000021
1197	1.1900e+02	8.0968	14.848858	0.000250	2.498481	0.423254	-0.000025
1198	1.1910e+02	8.0836	14.826454	0.000225	2.252729	0.381623	-0.000023
1199	1.1920e+02	8.0775	14.804050	0.000225	2.252729	0.381623	-0.000023
1200	1.1930e+02	8.0666	14.785313	0.000188	1.884101	0.319175	-0.000019
1201	1.1940e+02	8.0542	14.757206	0.000283	2.826151	0.478763	-0.000028
1202	1.1950e+02	8.0447	14.736839	0.000205	2.047935	0.346930	-0.000020
1203	1.1960e+02	8.0350	14.713213	0.000238	2.375605	0.402438	-0.000024
1204	1.1970e+02	8.0254	14.687958	0.000254	2.539440	0.430193	-0.000025
1205	1.1980e+02	8.0151	14.663925	0.000242	2.416564	0.409377	-0.000024
1206	1.1990e+02	8.0051	14.637447	0.000266	2.662316	0.451009	-0.000027
1207	1.2000e+02	7.9920	14.610970	0.000266	2.662316	0.451009	-0.000027
1208	1.2010e+02	7.9843	14.591010	0.000201	2.006977	0.339991	-0.000020
1209	1.2020e+02	7.9743	14.565755	0.000254	2.539440	0.430193	-0.000025
1210	1.2030e+02	7.9670	14.543351	0.000225	2.252729	0.381623	-0.000023
1211	1.2039e+02	7.9549	14.517689	0.000258	2.580399	0.437131	-0.000026
1212	1.2049e+02	7.9480	14.492433	0.000254	2.539440	0.430193	-0.000025
1213	1.2059e+02	7.9358	14.465956	0.000266	2.662316	0.451009	-0.000027
1214	1.2069e+02	7.9241	14.437849	0.000283	2.826151	0.478763	-0.000028
1215	1.2079e+02	7.9134	14.413409	0.000246	2.457522	0.416316	-0.000025
1216	1.2089e+02	7.9070	14.387339	0.000262	2.621357	0.444070	-0.000026
1217	1.2099e+02	7.8952	14.359640	0.000279	2.785192	0.471824	-0.000028
1218	1.2109e+02	7.8843	14.334384	0.000254	2.539440	0.430193	-0.000025
1219	1.2119e+02	7.8755	14.304241	0.000303	3.030944	0.513456	-0.000030
1220	1.2129e+02	7.8674	14.276949	0.000274	2.744233	0.464886	-0.000027
1221	1.2139e+02	7.8551	14.249657	0.000274	2.744233	0.464886	-0.000027
1222	1.2149e+02	7.8439	14.221958	0.000279	2.785192	0.471824	-0.000028
1223	1.2159e+02	7.8345	14.193037	0.000291	2.908068	0.492640	-0.000029
1224	1.2169e+02	7.8258	14.166967	0.000262	2.621357	0.444070	-0.000026
1225	1.2179e+02	7.8149	14.138860	0.000283	2.826151	0.478763	-0.000028
1226	1.2189e+02	7.8078	14.108309	0.000307	3.071903	0.520394	-0.000031
1227	1.2199e+02	7.7953	14.083461	0.000250	2.498481	0.423254	-0.000025
1228	1.2209e+02	7.7877	14.053318	0.000303	3.030944	0.513456	-0.000030
1229	1.2219e+02	7.7744	14.023989	0.000295	2.949027	0.499579	-0.000029
1230	1.2229e+02	7.7691	13.995068	0.000291	2.908068	0.492640	-0.000029
1231	1.2239e+02	7.7574	13.968183	0.000270	2.703275	0.457947	-0.000027
1232	1.2248e+02	7.7443	13.941706	0.000266	2.662316	0.451009	-0.000027
1233	1.2258e+02	7.7364	13.912785	0.000291	2.908068	0.492640	-0.000029
1234	1.2268e+02	7.7264	13.883456	0.000295	2.949027	0.499579	-0.000029
1235	1.2278e+02	7.7181	13.852498	0.000311	3.112862	0.527333	-0.000031
1236	1.2288e+02	7.7073	13.824392	0.000283	2.826151	0.478763	-0.000028
1237	1.2298e+02	7.6970	13.791397	0.000332	3.317655	0.562026	-0.000033
1238	1.2308e+02	7.6883	13.764512	0.000270	2.703275	0.457947	-0.000027
1239	1.2318e+02	7.6786	13.736406	0.000283	2.826151	0.478763	-0.000028
1240	1.2328e+02	7.6678	13.706262	0.000303	3.030944	0.513456	-0.000030
1241	1.2338e+02	7.6579	13.675304	0.000311	3.112862	0.527333	-0.000031
1242	1.2348e+02	7.6476	13.643939	0.000315	3.153820	0.534272	-0.000032
1243	1.2358e+02	7.6379	13.615017	0.000291	2.908068	0.492640	-0.000029
1244	1.2368e+02	7.6267	13.588948	0.000262	2.621357	0.444070	-0.000026
1245	1.2378e+02	7.6186	13.561656	0.000274	2.744233	0.464886	-0.000027
1246	1.2388e+02	7.6067	13.528253	0.000336	3.358614	0.568965	-0.000034
1247	1.2398e+02	7.5961	13.501369	0.000270	2.703275	0.457947	-0.000027
1248	1.2408e+02	7.5883	13.467559	0.000340	3.399573	0.575903	-0.000034
1249	1.2418e+02	7.5784	13.441490	0.000262	2.621357	0.444070	-0.000026
1250	1.2428e+02	7.5677	13.408902	0.000328	3.276697	0.555087	-0.000033
1251	1.2438e+02	7.5539	13.379166	0.000299	2.989986	0.506517	-0.000030
1252	1.2447e+02	7.5493	13.345764	0.000336	3.358614	0.568965	-0.000034
1253	1.2457e+02	7.5382	13.318879	0.000270	2.703275	0.457947	-0.000027
1254	1.2467e+02	7.5293	13.285885	0.000332	3.317655	0.562026	-0.000033
1255	1.2477e+02	7.5191	13.252075	0.000340	3.399573	0.575903	-0.000034
1256	1.2487e+02	7.5092	13.225191	0.000270	2.703275	0.457947	-0.000027
1257	1.2497e+02	7.4976	13.193011	0.000324	3.235738	0.548149	-0.000032
1258	1.2507e+02	7.4893	13.164904	0.000283	2.826151	0.478763	-0.000028
1259	1.2517e+02	7.4764	13.130687	0.000344	3.440531	0.582842	-0.000034
1260	1.2527e+02	7.4680	13.104210	0.000266	2.662316	0.451009	-0.000027
1261	1.2537e+02	7.4589	13.074474	0.000299	2.989986	0.506517	-0.000030
1262	1.2547e+02	7.4483	13.041072	0.000336	3.358614	0.568965	-0.000034
1263	1.2557e+02	7.4400	13.012965	0.000283	2.826151	0.478763	-0.000028
1264	1.2567e+02	7.4302	12.985266	0.000279	2.785192	0.471824	-0.000028
1265	1.2577e+02	7.4170	12.949420	0.000360	3.604366	0.610596	-0.000036
1266	1.2587e+02	7.4080	12.918054	0.000315	3.153820	0.534272	-0.000032
1267	1.2597e+02	7.3959	12.882208	0.000360	3.604366	0.610596	-0.000036
1268	1.2607e+02	7.3907	12.856953	0.000254	2.539440	0.430193	-0.000025
1269	1.2617e+02	7.3779	12.823144	0.000340	3.399573	0.575903	-0.000034
1270	1.2627e+02	7.3687	12.787705	0.000356	3.563408	0.603658	-0.000036
1271	1.2636e+02	7.3574	12.757154	0.000307	3.071903	0.520394	-0.000031
1272	1.2646e+02	7.3493	12.725381	0.000319	3.194779	0.541210	-0.000032
1273	1.2656e+02	7.3382	12.690350	0.000352	3.522449	0.596719	-0.000035
1274	1.2666e+02	7.3281	12.660614	0.000299	2.989986	0.506517	-0.000030
1275	1.2676e+02	7.3212	12.630470	0.000303	3.030944	0.513456	-0.000030
1276	1.2686e+02	7.3084	12.597068	0.000336	3.358614	0.568965	-0.000034
1277	1.2696e+02	7.2997	12.563666	0.000336	3.358614	0.568965	-0.000034
1278	1.2706e+02	7.2881	12.533116	0.000307	3.071903	0.520394	-0.000031
1279	1.2716e+02	7.2776	12.497269	0.000360	3.604366	0.610596	-0.000036
1280	1.2726e+02	7.2653	12.463053	0.000344	3.440531	0.582842	-0.000034
1281	1.2736e+02	7.2582	12.429243	0.000340	3.399573	0.575903	-0.000034
1282	1.2746e+02	7.2494	12.394212	0.000352	3.522449	0.596719	-0.000035
1283	1.2756e+02	7.2406	12.362032	0.000324	3.235738	0.548149	-0.000032
1284	1.2766e+02	7.2298	12.322520	0.000397	3.972995	0.673044	-0.000040
1285	1.2776e+02	7.2186	12.293191	0.000295	2.949027	0.499579	-0.000029
1286	1.2786e+02	7.2092	12.255715	0.000377	3.768201	0.638351	-0.000038
1287	1.2796e+02	7.1969	12.223943	0.000319	3.194779	0.541210	-0.000032
1288	1.2806e+02	7.1868	12.194614	0.000295	2.949027	0.499579	-0.000029
1289	1.2816e+02	7.1782	12.161212	0.000336	3.358614	0.568965	-0.000034
1290	1.2826e+02	7.1697	12.128624	0.000328	3.276697	0.555087	-0.000033
1291	1.2835e+02	7.1604	12.096444	0.000324	3.235738	0.548149	-0.000032
1292	1.2845e+02	7.1499	12.065486	0.000311	3.112862	0.527333	-0.000031
1293	1.2855e+02	7.1395	12.030862	0.000348	3.481490	0.589780	-0.000035
1294	1.2865e+02	7.1307	11.996645	0.000344	3.440531	0.582842	-0.000034
1295	1.2875e+02	7.1197	11.964465	0.000324	3.235738	0.548149	-0.000032
1296	1.2885e+02	7.1125	11.932693	0.000319	3.194779	0.541210	-0.000032
1297	1.2895e+02	7.0997	11.901327	0.000315	3.153820	0.534272	-0.000032
1298	1.2905e+02	7.0902	11.868740	0.000328	3.276697	0.555087	-0.000033
1299	1.2915e+02	7.0782	11.838597	0.000303	3.030944	0.513456	-0.000030
1300	1.2925e+02	7.0724	11.803158	0.000356	3.563408	0.603658	-0.000036
1301	1.2935e+02	7.0595	11.774236	0.000291	2.908068	0.492640	-0.000029
1302	1.2945e+02	7.0473	11.746944	0.000274	2.744233	0.464886	-0.000027
1303	1.2955e+02	7.0396	11.715986	0.000311	3.112862	0.527333	-0.000031
1304	1.2965e+02	7.0275	11.685028	0.000311	3.112862	0.527333	-0.000031
1305	1.2975e+02	7.0181	11.652034	0.000332	3.317655	0.562026	-0.000033
1306	1.2985e+02	7.0119	11.623520	0.000287	2.867109	0.485701	-0.000029
1307	1.2995e+02	6.9997	11.595820	0.000279	2.785192	0.471824	-0.000028
1308	1.3005e+02	6.9943	11.565677	0.000303	3.030944	0.513456	-0.000030
1309	1.3015e+02	6.9807	11.537163	0.000287	2.867109	0.485701	-0.000029
1310	1.3025e+02	6.9692	11.507834	0.000295	2.949027	0.499579	-0.000029
1311	1.3034e+02	6.9599	11.477691	0.000303	3.030944	0.513456	-0.000030
1312	1.3044e+02	6.9495	11.448362	0.000295	2.949027	0.499579	-0.000029
1313	1.3054e+02	6.9419	11.419441	0.000291	2.908068	0.492640	-0.000029
1314	1.3064e+02	6.9321	11.390520	0.000291	2.908068	0.492640	-0.000029
1315	1.3074e+02	6.9213	11.355896	0.000348	3.481490	0.589780	-0.000035
1316	1.3084e+02	6.9096	11.327382	0.000287	2.867109	0.485701	-0.000029
1317	1.3094e+02	6.9006	11.297646	0.000299	2.989986	0.506517	-0.000030
1318	1.3104e+02	6.8899	11.268317	0.000295	2.949027	0.499579	-0.000029
1319	1.3114e+02	6.8792	11.241432	0.000270	2.703275	0.457947	-0.000027
1320	1.3124e+02	6.8704	11.210882	0.000307	3.071903	0.520394	-0.000031
1321	1.3134e+02	6.8618	11.185219	0.000258	2.580399	0.437131	-0.000026
1322	1.3144e+02	6.8502	11.151817	0.000336	3.358614	0.568965	-0.000034
1323	1.3154e+02	6.8418	11.126154	0.000258	2.580399	0.437131	-0.000026
1324	1.3164e+02	6.8311	11.096826	0.000295	2.949027	0.499579	-0.000029
1325	1.3174e+02	6.8240	11.068719	0.000283	2.826151	0.478763	-0.000028
1326	1.3184e+02	6.8118	11.038576	0.000303	3.030944	0.513456	-0.000030
1327	1.3194e+02	6.8029	11.012506	0.000262	2.621357	0.444070	-0.000026
1328	1.3204e+02	6.7921	10.983992	0.000287	2.867109	0.485701	-0.000029
1329	1.3214e+02	6.7828	10.948960	0.000352	3.522449	0.596719	-0.000035
1330	1.3224e+02	6.7712	10.922483	0.000266	2.662316	0.451009	-0.000027
1331	1.3234e+02	6.7616	10.892747	0.000299	2.989986	0.506517	-0.000030
1332	1.3243e+02	6.7513	10.861382	0.000315	3.153820	0.534272	-0.000032
1333	1.3253e+02	6.7408	10.834090	0.000274	2.744233	0.464886	-0.000027
1334	1.3263e+02	6.7303	10.803946	0.000303	3.030944	0.513456	-0.000030
1335	1.3273e+02	6.7223	10.777062	0.000270	2.703275	0.457947	-0.000027
1336	1.3283e+02	6.7126	10.747326	0.000299	2.989986	0.506517	-0.000030
1337	1.3293e+02	6.7016	10.719219	0.000283	2.826151	0.478763	-0.000028
1338	1.3303e+02	6.6912	10.693964	0.000254	2.539440	0.430193	-0.000025
1339	1.3313e+02	6.6846	10.661377	0.000328	3.276697	0.555087	-0.000033
1340	1.3323e+02	6.6735	10.636121	0.000254	2.539440	0.430193	-0.000025
1341	1.3333e+02	6.6637	10.607200	0.000291	2.908068	0.492640	-0.000029
1342	1.3343e+02	6.6509	10.577871	0.000295	2.949027	0.499579	-0.000029
1343	1.3353e+02	6.6434	10.550987	0.000270	2.703275	0.457947	-0.000027
1344	1.3363e+02	6.6309	10.515141	0.000360	3.604366	0.610596	-0.000036
1345	1.3373e+02	6.6209	10.486627	0.000287	2.867109	0.485701	-0.000029
1346	1.3383e+02	6.6106	10.457705	0.000291	2.908068	0.492640	-0.000029
1347	1.3393e+02	6.6007	10.430821	0.000270	2.703275	0.457947	-0.000027
1348	1.3403e+02	6.5925	10.405158	0.000258	2.580399	0.437131	-0.000026
1349	1.3413e+02	6.5826	10.371349	0.000340	3.399573	0.575903	-0.000034
1350	1.3423e+02	6.5755	10.347315	0.000242	2.416564	0.409377	-0.000024
1351	1.3432e+02	6.5614	10.315543	0.000319	3.194779	0.541210	-0.000032
1352	1.3442e+02	6.5488	10.286214	0.000295	2.949027	0.499579	-0.000029
1353	1.3452e+02	6.5459	10.261774	0.000246	2.457522	0.416316	-0.000025
1354	1.3462e+02	6.5319	10.234889	0.000270	2.703275	0.457947	-0.000027
1355	1.3472e+02	6.5217	10.211263	0.000238	2.375605	0.402438	-0.000024
1356	1.3482e+02	6.5145	10.184378	0.000270	2.703275	0.457947	-0.000027
1357	1.3492e+02	6.5023	10.155457	0.000291	2.908068	0.492640	-0.000029
1358	1.3502e+02	6.4904	10.126128	0.000295	2.949027	0.499579	-0.000029
1359	1.3512e+02	6.4834	10.097615	0.000287	2.867109	0.485701	-0.000029
1360	1.3522e+02	6.4701	10.068693	0.000291	2.908068	0.492640	-0.000029
1361	1.3532e+02	6.4620	10.043438	0.000254	2.539440	0.430193	-0.000025
1362	1.3542e+02	6.4539	10.012480	0.000311	3.112862	0.527333	-0.000031
1363	1.3552e+02	6.4436	9.988447	0.000242	2.416564	0.409377	-0.000024
1364	1.3562e+02	6.4341	9.960747	0.000279	2.785192	0.471824	-0.000028
1365	1.3572e+02	6.4257	9.936714	0.000242	2.416564	0.409377	-0.000024
1366	1.3582e+02	6.4138	9.910644	0.000262	2.621357	0.444070	-0.000026
1367	1.3592e+02	6.4018	9.887426	0.000233	2.334646	0.395500	-0.000023
1368	1.3602e+02	6.3982	9.863393	0.000242	2.416564	0.409377	-0.000024
1369	1.3612e+02	6.3839	9.829176	0.000344	3.440531	0.582842	-0.000034
1370	1.3622e+02	6.3726	9.805143	0.000242	2.416564	0.409377	-0.000024
1371	1.3631e+02	6.3656	9.776629	0.000287	2.867109	0.485701	-0.000029
1372	1.3641e+02	6.3548	9.746893	0.000299	2.989986	0.506517	-0.000030
1373	1.3651e+02	6.3448	9.719601	0.000274	2.744233	0.464886	-0.000027
1374	1.3661e+02	6.3355	9.691494	0.000283	2.826151	0.478763	-0.000028
1375	1.3671e+02	6.3249	9.665424	0.000262	2.621357	0.444070	-0.000026
1376	1.3681e+02	6.3122	9.634873	0.000307	3.071903	0.520394	-0.000031
1377	1.3691e+02	6.3009	9.608396	0.000266	2.662316	0.451009	-0.000027
1378	1.3701e+02	6.2936	9.582326	0.000262	2.621357	0.444070	-0.000026
1379	1.3711e+02	6.2911	9.550553	0.000319	3.194779	0.541210	-0.000032
1380	1.3721e+02	6.2733	9.527742	0.000229	2.293688	0.388561	-0.000023
1381	1.3731e+02	6.2684	9.496377	0.000315	3.153820	0.534272	-0.000032
1382	1.3741e+02	6.2542	9.466641	0.000299	2.989986	0.506517	-0.000030
1383	1.3751e+02	6.2446	9.434053	0.000328	3.276697	0.555087	-0.000033
1384	1.3761e+02	6.2339	9.405540	0.000287	2.867109	0.485701	-0.000029
1385	1.3771e+02	6.2262	9.373359	0.000324	3.235738	0.548149	-0.000032
1386	1.3781e+02	6.2154	9.342809	0.000307	3.071903	0.520394	-0.000031
1387	1.3791e+02	6.2041	9.312665	0.000303	3.030944	0.513456	-0.000030
1388	1.3801e+02	6.1961	9.281300	0.000315	3.153820	0.534272	-0.000032
1389	1.3811e+02	6.1842	9.250342	0.000311	3.112862	0.527333	-0.000031
1390	1.3821e+02	6.1749	9.219384	0.000311	3.112862	0.527333	-0.000031
1391	1.3831e+02	6.1654	9.183945	0.000356	3.563408	0.603658	-0.000036
1392	1.3840e+02	6.1547	9.153802	0.000303	3.030944	0.513456	-0.000030
1393	1.3850e+02	6.1443	9.121622	0.000324	3.235738	0.548149	-0.000032
1394	1.3860e+02	6.1341	9.090664	0.000311	3.112862	0.527333	-0.000031
1395	1.3870e+02	6.1262	9.060113	0.000307	3.071903	0.520394	-0.000031
1396	1.3880e+02	6.1144	9.025489	0.000348	3.481490	0.589780	-0.000035
1397	1.3890e+02	6.1047	8.995346	0.000303	3.030944	0.513456	-0.000030
1398	1.3900e+02	6.0940	8.963573	0.000319	3.194779	0.541210	-0.000032
1399	1.3910e+02	6.0845	8.931800	0.000319	3.194779	0.541210	-0.000032
1400	1.3920e+02	6.0758	8.897583	0.000344	3.440531	0.582842	-0.000034
1401	1.3930e+02	6.0668	8.865811	0.000319	3.194779	0.541210	-0.000032
1402	1.3940e+02	6.0583	8.835260	0.000307	3.071903	0.520394	-0.000031
1403	1.3950e+02	6.0449	8.803080	0.000324	3.235738	0.548149	-0.000032
1404	1.3960e+02	6.0342	8.765197	0.000381	3.809160	0.645289	-0.000038
1405	1.3970e+02	6.0249	8.730573	0.000348	3.481490	0.589780	-0.000035
1406	1.3980e+02	6.0119	8.700430	0.000303	3.030944	0.513456	-0.000030
1407	1.3990e+02	6.0043	8.666213	0.000344	3.440531	0.582842	-0.000034
1408	1.4000e+02	5.9962	8.634033	0.000324	3.235738	0.548149	-0.000032
1409	1.4010e+02	5.9841	8.601445	0.000328	3.276697	0.555087	-0.000033
1410	1.4020e+02	5.9728	8.567636	0.000340	3.399573	0.575903	-0.000034
1411	1.4029e+02	5.9692	8.534234	0.000336	3.358614	0.568965	-0.000034
1412	1.4039e+02	5.9564	8.501646	0.000328	3.276697	0.555087	-0.000033
1413	1.4049e+02	5.9487	8.469466	0.000324	3.235738	0.548149	-0.000032
1414	1.4059e+02	5.9350	8.436472	0.000332	3.317655	0.562026	-0.000033
1415	1.4069e+02	5.9269	8.404292	0.000324	3.235738	0.548149	-0.000032
1416	1.4079e+02	5.9166	8.370075	0.000344	3.440531	0.582842	-0.000034
1417	1.4089e+02	5.9051	8.334636	0.000356	3.563408	0.603658	-0.000036
1418	1.4099e+02	5.8965	8.300419	0.000344	3.440531	0.582842	-0.000034
1419	1.4109e+02	5.8855	8.265388	0.000352	3.522449	0.596719	-0.000035
1420	1.4119e+02	5.8767	8.230764	0.000348	3.481490	0.589780	-0.000035
1421	1.4129e+02	5.8657	8.195325	0.000356	3.563408	0.603658	-0.000036
1422	1.4139e+02	5.8575	8.161108	0.000344	3.440531	0.582842	-0.000034
1423	1.4149e+02	5.8463	8.129335	0.000319	3.194779	0.541210	-0.000032
1424	1.4159e+02	5.8365	8.093489	0.000360	3.604366	0.610596	-0.000036
1425	1.4169e+02	5.8282	8.060087	0.000336	3.358614	0.568965	-0.000034
1426	1.4179e+02	5.8167	8.027500	0.000328	3.276697	0.555087	-0.000033
1427	1.4189e+02	5.8041	7.994912	0.000328	3.276697	0.555087	-0.000033
1428	1.4199e+02	5.8009	7.961103	0.000340	3.399573	0.575903	-0.000034
1429	1.4209e+02	5.7859	7.921998	0.000393	3.932036	0.666105	-0.000039
1430	1.4219e+02	5.7764	7.891447	0.000307	3.071903	0.520394	-0.000031
1431	1.4228e+02	5.7688	7.859267	0.000324	3.235738	0.548149	-0.000032
1432	1.4238e+02	5.7551	7.819755	0.000397	3.972995	0.673044	-0.000040
1433	1.4248e+02	5.7495	7.785538	0.000344	3.440531	0.582842	-0.000034
1434	1.4258e+02	5.7388	7.750914	0.000348	3.481490	0.589780	-0.000035
1435	1.4268e+02	5.7271	7.718327	0.000328	3.276697	0.555087	-0.000033
1436	1.4278e+02	5.7198	7.677592	0.000410	4.095871	0.693859	-0.000041
1437	1.4288e+02	5.7073	7.643783	0.000340	3.399573	0.575903	-0.000034
1438	1.4298e+02	5.6982	7.603456	0.000405	4.054912	0.686921	-0.000041
1439	1.4308e+02	5.6871	7.566388	0.000373	3.727242	0.631412	-0.000037
1440	1.4318e+02	5.6759	7.532578	0.000340	3.399573	0.575903	-0.000034
1441	1.4328e+02	5.6673	7.500398	0.000324	3.235738	0.548149	-0.000032
1442	1.4338e+02	5.6570	7.459257	0.000414	4.136829	0.700798	-0.000041
1443	1.4348e+02	5.6467	7.429113	0.000303	3.030944	0.513456	-0.000030
1444	1.4358e+02	5.6387	7.392860	0.000365	3.645325	0.617535	-0.000036
1445	1.4368e+02	5.6263	7.357014	0.000360	3.604366	0.610596	-0.000036
1446	1.4378e+02	5.6202	7.317502	0.000397	3.972995	0.673044	-0.000040
1447	1.4388e+02	5.6114	7.281655	0.000360	3.604366	0.610596	-0.000036
1448	1.4398e+02	5.5965	7.243773	0.000381	3.809160	0.645289	-0.000038
1449	1.4408e+02	5.5889	7.206704	0.000373	3.727242	0.631412	-0.000037
1450	1.4418e+02	5.5795	7.166785	0.000401	4.013953	0.679982	-0.000040
1451	1.4428e+02	5.5697	7.128495	0.000385	3.850118	0.652228	-0.000038
1452	1.4437e+02	5.5588	7.087760	0.000410	4.095871	0.693859	-0.000041
1453	1.4447e+02	5.5495	7.051914	0.000360	3.604366	0.610596	-0.000036
1454	1.4457e+02	5.5369	7.015661	0.000365	3.645325	0.617535	-0.000036
1455	1.4467e+02	5.5288	6.979000	0.000369	3.686284	0.624473	-0.000037
1456	1.4477e+02	5.5193	6.942339	0.000369	3.686284	0.624473	-0.000037
1457	1.4487e+02	5.5085	6.906086	0.000365	3.645325	0.617535	-0.000036
1458	1.4497e+02	5.4998	6.870647	0.000356	3.563408	0.603658	-0.000036
1459	1.4507e+02	5.4867	6.835615	0.000352	3.522449	0.596719	-0.000035
1460	1.4517e+02	5.4786	6.799362	0.000365	3.645325	0.617535	-0.000036
1461	1.4527e+02	5.4690	6.765552	0.000340	3.399573	0.575903	-0.000034
1462	1.4537e+02	5.4589	6.726448	0.000393	3.932036	0.666105	-0.000039
1463	1.4547e+02	5.4488	6.693045	0.000336	3.358614	0.568965	-0.000034
1464	1.4557e+02	5.4362	6.655163	0.000381	3.809160	0.645289	-0.000038
1465	1.4567e+02	5.4284	6.618502	0.000369	3.686284	0.624473	-0.000037
1466	1.4577e+02	5.4177	6.582656	0.000360	3.604366	0.610596	-0.000036
1467	1.4587e+02	5.4104	6.547624	0.000352	3.522449	0.596719	-0.000035
1468	1.4597e+02	5.4000	6.513407	0.000344	3.440531	0.582842	-0.000034
1469	1.4607e+02	5.3869	6.477154	0.000365	3.645325	0.617535	-0.000036
1470	1.4617e+02	5.3803	6.442937	0.000344	3.440531	0.582842	-0.000034
1471	1.4626e+02	5.3703	6.411164	0.000319	3.194779	0.541210	-0.000032
1472	1.4636e+02	5.3593	6.374504	0.000369	3.686284	0.624473	-0.000037
1473	1.4646e+02	5.3477	6.342324	0.000324	3.235738	0.548149	-0.000032
1474	1.4656e+02	5.3395	6.306477	0.000360	3.604366	0.610596	-0.000036
1475	1.4666e+02	5.3307	6.278371	0.000283	2.826151	0.478763	-0.000028
1476	1.4676e+02	5.3191	6.240895	0.000377	3.768201	0.638351	-0.000038
1477	1.4686e+02	5.3103	6.210345	0.000307	3.071903	0.520394	-0.000031
1478	1.4696e+02	5.2996	6.177350	0.000332	3.317655	0.562026	-0.000033
1479	1.4706e+02	5.2897	6.141911	0.000356	3.563408	0.603658	-0.000036
1480	1.4716e+02	5.2783	6.106065	0.000360	3.604366	0.610596	-0.000036
1481	1.4726e+02	5.2699	6.070219	0.000360	3.604366	0.610596	-0.000036
1482	1.4736e+02	5.2586	6.041297	0.000291	2.908068	0.492640	-0.000029
1483	1.4746e+02	5.2483	6.004229	0.000373	3.727242	0.631412	-0.000037
1484	1.4756e+02	5.2375	5.972049	0.000324	3.235738	0.548149	-0.000032
1485	1.4766e+02	5.2302	5.938240	0.000340	3.399573	0.575903	-0.000034
1486	1.4776e+02	5.2229	5.908911	0.000295	2.949027	0.499579	-0.000029
1487	1.4786e+02	5.2094	5.871843	0.000373	3.727242	0.631412	-0.000037
1488	1.4796e+02	5.2004	5.841292	0.000307	3.071903	0.520394	-0.000031
1489	1.4806e+02	5.1909	5.809112	0.000324	3.235738	0.548149	-0.000032
1490	1.4816e+02	5.1804	5.775303	0.000340	3.399573	0.575903	-0.000034
1491	1.4825e+02	5.1714	5.745159	0.000303	3.030944	0.513456	-0.000030
1492	1.4835e+02	5.1604	5.712979	0.000324	3.235738	0.548149	-0.000032
1493	1.4845e+02	5.1501	5.678355	0.000348	3.481490	0.589780	-0.000035
1494	1.4855e+02	5.1402	5.650249	0.000283	2.826151	0.478763	-0.000028
1495	1.4865e+02	5.1273	5.613995	0.000365	3.645325	0.617535	-0.000036
1496	1.4875e+02	5.1186	5.577742	0.000365	3.645325	0.617535	-0.000036
1497	1.4885e+02	5.1096	5.546784	0.000311	3.112862	0.527333	-0.000031
1498	1.4895e+02	5.1002	5.512974	0.000340	3.399573	0.575903	-0.000034
1499	1.4905e+02	5.0896	5.477535	0.000356	3.563408	0.603658	-0.000036
1500	1.4915e+02	5.0799	5.446170	0.000315	3.153820	0.534272	-0.000032
1501	1.4925e+02	5.0689	5.418063	0.000283	2.826151	0.478763	-0.000028
1502	1.4935e+02	5.0588	5.379773	0.000385	3.850118	0.652228	-0.000038
1503	1.4945e+02	5.0515	5.351666	0.000283	2.826151	0.478763	-0.000028
1504	1.4955e+02	5.0393	5.315820	0.000360	3.604366	0.610596	-0.000036
1505	1.4965e+02	5.0310	5.289750	0.000262	2.621357	0.444070	-0.000026
1506	1.4975e+02	5.0204	5.252275	0.000377	3.768201	0.638351	-0.000038
1507	1.4985e+02	5.0103	5.222132	0.000303	3.030944	0.513456	-0.000030
1508	1.4995e+02	5.0028	5.191173	0.000311	3.112862	0.527333	-0.000031
1509	1.5005e+02	4.9917	5.156957	0.000344	3.440531	0.582842	-0.000034
1510	1.5015e+02	4.9799	5.122740	0.000344	3.440531	0.582842	-0.000034
1511	1.5025e+02	4.9708	5.089338	0.000336	3.358614	0.568965	-0.000034
1512	1.5034e+02	4.9639	5.057972	0.000315	3.153820	0.534272	-0.000032
1513	1.5044e+02	4.9522	5.021719	0.000365	3.645325	0.617535	-0.000036
1514	1.5054e+02	4.9432	4.989946	0.000319	3.194779	0.541210	-0.000032
1515	1.5064e+02	4.9299	4.954915	0.000352	3.522449	0.596719	-0.000035
1516	1.5074e+02	4.9212	4.922327	0.000328	3.276697	0.555087	-0.000033
1517	1.5084e+02	4.9108	4.894221	0.000283	2.826151	0.478763	-0.000028
1518	1.5094e+02	4.9009	4.861226	0.000332	3.317655	0.562026	-0.000033
1519	1.5104e+02	4.8934	4.830675	0.000307	3.071903	0.520394	-0.000031
1520	1.5114e+02	4.8812	4.794829	0.000360	3.604366	0.610596	-0.000036
1521	1.5124e+02	4.8711	4.767945	0.000270	2.703275	0.457947	-0.000027
1522	1.5134e+02	4.8600	4.740653	0.000274	2.744233	0.464886	-0.000027
1523	1.5144e+02	4.8517	4.706028	0.000348	3.481490	0.589780	-0.000035
1524	1.5154e+02	4.8403	4.671812	0.000344	3.440531	0.582842	-0.000034
1525	1.5164e+02	4.8328	4.641668	0.000303	3.030944	0.513456	-0.000030
1526	1.5174e+02	4.8223	4.609896	0.000319	3.194779	0.541210	-0.000032
1527	1.5184e+02	4.8082	4.576901	0.000332	3.317655	0.562026	-0.000033
1528	1.5194e+02	4.8019	4.545943	0.000311	3.112862	0.527333	-0.000031
1529	1.5204e+02	4.7918	4.514577	0.000315	3.153820	0.534272	-0.000032
1530	1.5214e+02	4.7822	4.485656	0.000291	2.908068	0.492640	-0.000029
1531	1.5224e+02	4.7713	4.454698	0.000311	3.112862	0.527333	-0.000031
1532	1.5233e+02	4.7613	4.426184	0.000287	2.867109	0.485701	-0.000029
1533	1.5243e+02	4.7527	4.398485	0.000279	2.785192	0.471824	-0.000028
1534	1.5253e+02	4.7430	4.362639	0.000360	3.604366	0.610596	-0.000036
1535	1.5263e+02	4.7326	4.333310	0.000295	2.949027	0.499579	-0.000029
1536	1.5273e+02	4.7224	4.307647	0.000258	2.580399	0.437131	-0.000026
1537	1.5283e+02	4.7108	4.273431	0.000344	3.440531	0.582842	-0.000034
1538	1.5293e+02	4.7041	4.241251	0.000324	3.235738	0.548149	-0.000032
1539	1.5303e+02	4.6939	4.207849	0.000336	3.358614	0.568965	-0.000034
1540	1.5313e+02	4.6819	4.172817	0.000352	3.522449	0.596719	-0.000035
1541	1.5323e+02	4.6727	4.145525	0.000274	2.744233	0.464886	-0.000027
1542	1.5333e+02	4.6637	4.107235	0.000385	3.850118	0.652228	-0.000038
1543	1.5343e+02	4.6542	4.076684	0.000307	3.071903	0.520394	-0.000031
1544	1.5353e+02	4.6420	4.046134	0.000307	3.071903	0.520394	-0.000031
1545	1.5363e+02	4.6316	4.020064	0.000262	2.621357	0.444070	-0.000026
1546	1.5373e+02	4.6226	3.982995	0.000373	3.727242	0.631412	-0.000037
1547	1.5383e+02	4.6095	3.946742	0.000365	3.645325	0.617535	-0.000036
1548	1.5393e+02	4.6021	3.918228	0.000287	2.867109	0.485701	-0.000029
1549	1.5403e+02	4.5911	3.881567	0.000369	3.686284	0.624473	-0.000037
1550	1.5413e+02	4.5834	3.846128	0.000356	3.563408	0.603658	-0.000036
1551	1.5422e+02	4.5721	3.812319	0.000340	3.399573	0.575903	-0.000034
1552	1.5432e+02	4.5621	3.781768	0.000307	3.071903	0.520394	-0.000031
1553	1.5442e+02	4.5557	3.743071	0.000389	3.891077	0.659166	-0.000039
1554	1.5452e+02	4.5428	3.709669	0.000336	3.358614	0.568965	-0.000034
1555	1.5462e+02	4.5340	3.672600	0.000373	3.727242	0.631412	-0.000037
1556	1.5472e+02	4.5226	3.636347	0.000365	3.645325	0.617535	-0.000036
1557	1.5482e+02	4.5113	3.602130	0.000344	3.440531	0.582842	-0.000034
1558	1.5492e+02	4.5051	3.565877	0.000365	3.645325	0.617535	-0.000036
1559	1.5502e+02	4.4939	3.531660	0.000344	3.440531	0.582842	-0.000034
1560	1.5512e+02	4.4836	3.490518	0.000414	4.136829	0.700798	-0.000041
1561	1.5522e+02	4.4744	3.459968	0.000307	3.071903	0.520394	-0.000031
1562	1.5532e+02	4.4638	3.424121	0.000360	3.604366	0.610596	-0.000036
1563	1.5542e+02	4.4554	3.386646	0.000377	3.768201	0.638351	-0.000038
1564	1.5552e+02	4.4459	3.352429	0.000344	3.440531	0.582842	-0.000034
1565	1.5562e+02	4.4343	3.314139	0.000385	3.850118	0.652228	-0.000038
1566	1.5572e+02	4.4268	3.277478	0.000369	3.686284	0.624473	-0.000037
1567	1.5582e+02	4.4126	3.241225	0.000365	3.645325	0.617535	-0.000036
1568	1.5592e+02	4.4025	3.205786	0.000356	3.563408	0.603658	-0.000036
1569	1.5602e+02	4.3940	3.169940	0.000360	3.604366	0.610596	-0.000036
1570	1.5612e+02	4.3841	3.129205	0.000410	4.095871	0.693859	-0.000041
1571	1.5622e+02	4.3751	3.096211	0.000332	3.317655	0.562026	-0.000033
1572	1.5631e+02	4.3675	3.057513	0.000389	3.891077	0.659166	-0.000039
1573	1.5641e+02	4.3542	3.018001	0.000397	3.972995	0.673044	-0.000040
1574	1.5651e+02	4.3433	2.980933	0.000373	3.727242	0.631412	-0.000037
1575	1.5661e+02	4.3346	2.945901	0.000352	3.522449	0.596719	-0.000035
1576	1.5671e+02	4.3227	2.907611	0.000385	3.850118	0.652228	-0.000038
1577	1.5681e+02	4.3165	2.868506	0.000393	3.932036	0.666105	-0.000039
1578	1.5691e+02	4.3040	2.833475	0.000352	3.522449	0.596719	-0.000035
1579	1.5701e+02	4.2950	2.795999	0.000377	3.768201	0.638351	-0.000038
1580	1.5711e+02	4.2852	2.754450	0.000418	4.177788	0.707736	-0.000042
1581	1.5721e+02	4.2736	2.719826	0.000348	3.481490	0.589780	-0.000035
1582	1.5731e+02	4.2648	2.681943	0.000381	3.809160	0.645289	-0.000038
1583	1.5741e+02	4.2548	2.645283	0.000369	3.686284	0.624473	-0.000037
1584	1.5751e+02	4.2467	2.604956	0.000405	4.054912	0.686921	-0.000041
1585	1.5761e+02	4.2324	2.566258	0.000389	3.891077	0.659166	-0.000039
1586	1.5771e+02	4.2281	2.527153	0.000393	3.932036	0.666105	-0.000039
1587	1.5781e+02	4.2165	2.488863	0.000385	3.850118	0.652228	-0.000038
1588	1.5791e+02	4.2049	2.453424	0.000356	3.563408	0.603658	-0.000036
1589	1.5801e+02	4.1953	2.410653	0.000430	4.300664	0.728552	-0.000043
1590	1.5811e+02	4.1827	2.371956	0.000389	3.891077	0.659166	-0.000039
1591	1.5821e+02	4.1764	2.336924	0.000352	3.522449	0.596719	-0.000035
1592	1.5830e+02	4.1633	2.294968	0.000422	4.218747	0.714675	-0.000042
1593	1.5840e+02	4.1552	2.259122	0.000360	3.604366	0.610596	-0.000036
1594	1.5850e+02	4.1459	2.216758	0.000426	4.259706	0.721614	-0.000043
1595	1.5860e+02	4.1383	2.184578	0.000324	3.235738	0.548149	-0.000032
1596	1.5870e+02	4.1250	2.142622	0.000422	4.218747	0.714675	-0.000042
1597	1.5880e+02	4.1141	2.103924	0.000389	3.891077	0.659166	-0.000039
1598	1.5890e+02	4.1066	2.067263	0.000369	3.686284	0.624473	-0.000037
1599	1.5900e+02	4.0946	2.025715	0.000418	4.177788	0.707736	-0.000042
1600	1.5910e+02	4.0832	1.984166	0.000418	4.177788	0.707736	-0.000042
1601	1.5920e+02	4.0755	1.948727	0.000356	3.563408	0.603658	-0.000036
1602	1.5930e+02	4.0656	1.909622	0.000393	3.932036	0.666105	-0.000039
1603	1.5940e+02	4.0548	1.865629	0.000442	4.423540	0.749368	-0.000044
1604	1.5950e+02	4.0479	1.824895	0.000410	4.095871	0.693859	-0.000041
1605	1.5960e+02	4.0370	1.784160	0.000410	4.095871	0.693859	-0.000041
1606	1.5970e+02	4.0256	1.745055	0.000393	3.932036	0.666105	-0.000039
1607	1.5980e+02	4.0167	1.701062	0.000442	4.423540	0.749368	-0.000044
1608	1.5990e+02	4.0049	1.663180	0.000381	3.809160	0.645289	-0.000038
1609	1.6000e+02	3.9954	1.622038	0.000414	4.136829	0.700798	-0.000041
1610	1.6010e+02	3.9851	1.584970	0.000373	3.727242	0.631412	-0.000037
1611	1.6019e+02	3.9783	1.545050	0.000401	4.013953	0.679982	-0.000040
1612	1.6029e+02	3.9680	1.503094	0.000422	4.218747	0.714675	-0.000042
1613	1.6039e+02	3.9559	1.460730	0.000426	4.259706	0.721614	-0.000043
1614	1.6049e+02	3.9449	1.418774	0.000422	4.218747	0.714675	-0.000042
1615	1.6059e+02	3.9337	1.376410	0.000426	4.259706	0.721614	-0.000043
1616	1.6069e+02	3.9281	1.333232	0.000434	4.341623	0.735491	-0.000043
1617	1.6079e+02	3.9156	1.288832	0.000446	4.464499	0.756307	-0.000045
1618	1.6089e+02	3.9084	1.246876	0.000422	4.218747	0.714675	-0.000042
1619	1.6099e+02	3.8969	1.203697	0.000434	4.341623	0.735491	-0.000043
1620	1.6109e+02	3.8905	1.164185	0.000397	3.972995	0.673044	-0.000040
1621	1.6119e+02	3.8775	1.121821	0.000426	4.259706	0.721614	-0.000043
1622	1.6129e+02	3.8680	1.080680	0.000414	4.136829	0.700798	-0.000041
1623	1.6139e+02	3.8589	1.041982	0.000389	3.891077	0.659166	-0.000039
1624	1.6149e+02	3.8436	0.997989	0.000442	4.423540	0.749368	-0.000044
1625	1.6159e+02	3.8366	0.959292	0.000389	3.891077	0.659166	-0.000039
1626	1.6169e+02	3.8270	0.918965	0.000405	4.054912	0.686921	-0.000041
1627	1.6179e+02	3.8174	0.876194	0.000430	4.300664	0.728552	-0.000043
1628	1.6189e+02	3.8062	0.835052	0.000414	4.136829	0.700798	-0.000041
1629	1.6199e+02	3.7981	0.795133	0.000401	4.013953	0.679982	-0.000040
1630	1.6209e+02	3.7868	0.754806	0.000405	4.054912	0.686921	-0.000041
1631	1.6219e+02	3.7772	0.715294	0.000397	3.972995	0.673044	-0.000040
1632	1.6228e+02	3.7649	0.673337	0.000422	4.218747	0.714675	-0.000042
1633	1.6238e+02	3.7563	0.633825	0.000397	3.972995	0.673044	-0.000040
1634	1.6248e+02	3.7435	0.591461	0.000426	4.259706	0.721614	-0.000043
1635	1.6258e+02	3.7372	0.549912	0.000418	4.177788	0.707736	-0.000042
1636	1.6268e+02	3.7278	0.513252	0.000369	3.686284	0.624473	-0.000037
1637	1.6278e+02	3.7188	0.475369	0.000381	3.809160	0.645289	-0.000038
1638	1.6288e+02	3.7069	0.436264	0.000393	3.932036	0.666105	-0.000039
1639	1.6298e+02	3.6961	0.402047	0.000344	3.440531	0.582842	-0.000034
1640	1.6308e+02	3.6877	0.358869	0.000434	4.341623	0.735491	-0.000043
1641	1.6318e+02	3.6840	0.317727	0.000414	4.136829	0.700798	-0.000041
1642	1.6328e+02	3.6654	0.281066	0.000369	3.686284	0.624473	-0.000037
1643	1.6338e+02	3.6591	0.244406	0.000369	3.686284	0.624473	-0.000037
1644	1.6348e+02	3.6471	0.202857	0.000418	4.177788	0.707736	-0.000042
1645	1.6358e+02	3.6407	0.167825	0.000352	3.522449	0.596719	-0.000035
1646	1.6368e+02	3.6270	0.130350	0.000377	3.768201	0.638351	-0.000038
1647	1.6378e+02	3.6163	0.094911	0.000356	3.563408	0.603658	-0.000036
1648	1.6388e+02	3.6045	0.050510	0.000446	4.464499	0.756307	-0.000045
1649	1.6398e+02	3.5961	0.015479	0.000352	3.522449	0.596719	-0.000035
1650	1.6408e+02	3.5880	-0.025255	0.000410	4.095871	0.693859	-0.000041
1651	1.6418e+02	3.5791	-0.063953	0.000389	3.891077	0.659166	-0.000039
1652	1.6427e+02	3.5670	-0.098577	0.000348	3.481490	0.589780	-0.000035
1653	1.6437e+02	3.5554	-0.137274	0.000389	3.891077	0.659166	-0.000039
1654	1.6447e+02	3.5479	-0.177194	0.000401	4.013953	0.679982	-0.000040
1655	1.6457e+02	3.5397	-0.213855	0.000369	3.686284	0.624473	-0.000037
1656	1.6467e+02	3.5275	-0.253774	0.000401	4.013953	0.679982	-0.000040
1657	1.6477e+02	3.5184	-0.288399	0.000348	3.481490	0.589780	-0.000035
1658	1.6487e+02	3.5078	-0.325059	0.000369	3.686284	0.624473	-0.000037
1659	1.6497e+02	3.4982	-0.362942	0.000381	3.809160	0.645289	-0.000038
1660	1.6507e+02	3.4904	-0.396752	0.000340	3.399573	0.575903	-0.000034
1661	1.6517e+02	3.4814	-0.441152	0.000446	4.464499	0.756307	-0.000045
1662	1.6527e+02	3.4668	-0.478627	0.000377	3.768201	0.638351	-0.000038
1663	1.6537e+02	3.4580	-0.513252	0.000348	3.481490	0.589780	-0.000035
1664	1.6547e+02	3.4495	-0.556837	0.000438	4.382582	0.742429	-0.000044
1665	1.6557e+02	3.4394	-0.591869	0.000352	3.522449	0.596719	-0.000035
1666	1.6567e+02	3.4289	-0.628937	0.000373	3.727242	0.631412	-0.000037
1667	1.6577e+02	3.4204	-0.668449	0.000397	3.972995	0.673044	-0.000040
1668	1.6587e+02	3.4097	-0.703888	0.000356	3.563408	0.603658	-0.000036
1669	1.6597e+02	3.3985	-0.742178	0.000385	3.850118	0.652228	-0.000038
1670	1.6607e+02	3.3896	-0.779654	0.000377	3.768201	0.638351	-0.000038
1671	1.6616e+02	3.3800	-0.817129	0.000377	3.768201	0.638351	-0.000038
1672	1.6626e+02	3.3695	-0.854197	0.000373	3.727242	0.631412	-0.000037
1673	1.6636e+02	3.3608	-0.893302	0.000393	3.932036	0.666105	-0.000039
1674	1.6646e+02	3.3492	-0.927519	0.000344	3.440531	0.582842	-0.000034
1675	1.6656e+02	3.3382	-0.969475	0.000422	4.218747	0.714675	-0.000042
1676	1.6666e+02	3.3271	-1.003285	0.000340	3.399573	0.575903	-0.000034
1677	1.6676e+02	3.3222	-1.041982	0.000389	3.891077	0.659166	-0.000039
1678	1.6686e+02	3.3077	-1.079050	0.000373	3.727242	0.631412	-0.000037
1679	1.6696e+02	3.2999	-1.119377	0.000405	4.054912	0.686921	-0.000041
1680	1.6706e+02	3.2909	-1.161741	0.000426	4.259706	0.721614	-0.000043
1681	1.6716e+02	3.2806	-1.197587	0.000360	3.604366	0.610596	-0.000036
1682	1.6726e+02	3.2697	-1.234655	0.000373	3.727242	0.631412	-0.000037
1683	1.6736e+02	3.2610	-1.272538	0.000381	3.809160	0.645289	-0.000038
1684	1.6746e+02	3.2503	-1.312458	0.000401	4.013953	0.679982	-0.000040
1685	1.6756e+02	3.2391	-1.345860	0.000336	3.358614	0.568965	-0.000034
1686	1.6766e+02	3.2293	-1.380077	0.000344	3.440531	0.582842	-0.000034
1687	1.6776e+02	3.2192	-1.417959	0.000381	3.809160	0.645289	-0.000038
1688	1.6786e+02	3.2086	-1.456657	0.000389	3.891077	0.659166	-0.000039
1689	1.6796e+02	3.2014	-1.491281	0.000348	3.481490	0.589780	-0.000035
1690	1.6806e+02	3.1921	-1.528757	0.000377	3.768201	0.638351	-0.000038
1691	1.6816e+02	3.1790	-1.564603	0.000360	3.604366	0.610596	-0.000036
1692	1.6825e+02	3.1696	-1.604115	0.000397	3.972995	0.673044	-0.000040
1693	1.6835e+02	3.1564	-1.639554	0.000356	3.563408	0.603658	-0.000036
1694	1.6845e+02	3.1509	-1.681510	0.000422	4.218747	0.714675	-0.000042
1695	1.6855e+02	3.1399	-1.717356	0.000360	3.604366	0.610596	-0.000036
1696	1.6865e+02	3.1314	-1.756868	0.000397	3.972995	0.673044	-0.000040
1697	1.6875e+02	3.1188	-1.789048	0.000324	3.235738	0.548149	-0.000032
1698	1.6885e+02	3.1116	-1.821636	0.000328	3.276697	0.555087	-0.000033
1699	1.6895e+02	3.1005	-1.856260	0.000348	3.481490	0.589780	-0.000035
1700	1.6905e+02	3.0904	-1.894143	0.000381	3.809160	0.645289	-0.000038
1701	1.6915e+02	3.0811	-1.924286	0.000303	3.030944	0.513456	-0.000030
1702	1.6925e+02	3.0703	-1.967465	0.000434	4.341623	0.735491	-0.000043
1703	1.6935e+02	3.0613	-1.997608	0.000303	3.030944	0.513456	-0.000030
1704	1.6945e+02	3.0495	-2.033861	0.000365	3.645325	0.617535	-0.000036
1705	1.6955e+02	3.0409	-2.072966	0.000393	3.932036	0.666105	-0.000039
1706	1.6965e+02	3.0297	-2.109220	0.000365	3.645325	0.617535	-0.000036
1707	1.6975e+02	3.0222	-2.145881	0.000369	3.686284	0.624473	-0.000037
1708	1.6985e+02	3.0121	-2.183356	0.000377	3.768201	0.638351	-0.000038
1709	1.6995e+02	3.0011	-2.224090	0.000410	4.095871	0.693859	-0.000041
1710	1.7005e+02	2.9896	-2.259529	0.000356	3.563408	0.603658	-0.000036
1711	1.7015e+02	2.9790	-2.297412	0.000381	3.809160	0.645289	-0.000038
1712	1.7024e+02	2.9713	-2.336517	0.000393	3.932036	0.666105	-0.000039
1713	1.7034e+02	2.9604	-2.372770	0.000365	3.645325	0.617535	-0.000036
1714	1.7044e+02	2.9493	-2.415134	0.000426	4.259706	0.721614	-0.000043
1715	1.7054e+02	2.9444	-2.447314	0.000324	3.235738	0.548149	-0.000032
1716	1.7064e+02	2.9302	-2.486012	0.000389	3.891077	0.659166	-0.000039
1717	1.7074e+02	2.9197	-2.526746	0.000410	4.095871	0.693859	-0.000041
1718	1.7084e+02	2.9140	-2.566258	0.000397	3.972995	0.673044	-0.000040
1719	1.7094e+02	2.8986	-2.604956	0.000389	3.891077	0.659166	-0.000039
1720	1.7104e+02	2.8913	-2.646912	0.000422	4.218747	0.714675	-0.000042
1721	1.7114e+02	2.8828	-2.686017	0.000393	3.932036	0.666105	-0.000039
1722	1.7124e+02	2.8707	-2.727566	0.000418	4.177788	0.707736	-0.000042
1723	1.7134e+02	2.8626	-2.767078	0.000397	3.972995	0.673044	-0.000040
1724	1.7144e+02	2.8541	-2.811886	0.000451	4.505458	0.763245	-0.000045
1725	1.7154e+02	2.8403	-2.852213	0.000405	4.054912	0.686921	-0.000041
1726	1.7164e+02	2.8333	-2.890910	0.000389	3.891077	0.659166	-0.000039
1727	1.7174e+02	2.8212	-2.934496	0.000438	4.382582	0.742429	-0.000044
1728	1.7184e+02	2.8121	-2.976859	0.000426	4.259706	0.721614	-0.000043
1729	1.7194e+02	2.8030	-3.015150	0.000385	3.850118	0.652228	-0.000038
1730	1.7204e+02	2.7911	-3.056699	0.000418	4.177788	0.707736	-0.000042
1731	1.7213e+02	2.7836	-3.101914	0.000455	4.546416	0.770184	-0.000045
1732	1.7223e+02	2.7709	-3.143870	0.000422	4.218747	0.714675	-0.000042
1733	1.7233e+02	2.7594	-3.183382	0.000397	3.972995	0.673044	-0.000040
1734	1.7243e+02	2.7509	-3.224524	0.000414	4.136829	0.700798	-0.000041
1735	1.7253e+02	2.7412	-3.269739	0.000455	4.546416	0.770184	-0.000045
1736	1.7263e+02	2.7346	-3.310066	0.000405	4.054912	0.686921	-0.000041
1737	1.7273e+02	2.7208	-3.352837	0.000430	4.300664	0.728552	-0.000043
1738	1.7283e+02	2.7106	-3.398052	0.000455	4.546416	0.770184	-0.000045
1739	1.7293e+02	2.7034	-3.437564	0.000397	3.972995	0.673044	-0.000040
1740	1.7303e+02	2.6900	-3.480742	0.000434	4.341623	0.735491	-0.000043
1741	1.7313e+02	2.6836	-3.527586	0.000471	4.710251	0.797938	-0.000047
1742	1.7323e+02	2.6730	-3.571987	0.000446	4.464499	0.756307	-0.000045
1743	1.7333e+02	2.6633	-3.611092	0.000393	3.932036	0.666105	-0.000039
1744	1.7343e+02	2.6515	-3.657529	0.000467	4.669293	0.791000	-0.000047
1745	1.7353e+02	2.6420	-3.698670	0.000414	4.136829	0.700798	-0.000041
1746	1.7363e+02	2.6329	-3.741441	0.000430	4.300664	0.728552	-0.000043
1747	1.7373e+02	2.6211	-3.785842	0.000446	4.464499	0.756307	-0.000045
1748	1.7383e+02	2.6129	-3.828613	0.000430	4.300664	0.728552	-0.000043
1749	1.7393e+02	2.6031	-3.869347	0.000410	4.095871	0.693859	-0.000041
1750	1.7403e+02	2.5924	-3.916599	0.000475	4.751210	0.804877	-0.000047
1751	1.7413e+02	2.5832	-3.956926	0.000405	4.054912	0.686921	-0.000041
1752	1.7422e+02	2.5708	-4.004992	0.000483	4.833127	0.818754	-0.000048
1753	1.7432e+02	2.5620	-4.048985	0.000442	4.423540	0.749368	-0.000044
1754	1.7442e+02	2.5529	-4.092163	0.000434	4.341623	0.735491	-0.000043
1755	1.7452e+02	2.5453	-4.141044	0.000492	4.915045	0.832631	-0.000049
1756	1.7462e+02	2.5336	-4.184630	0.000438	4.382582	0.742429	-0.000044
1757	1.7472e+02	2.5219	-4.225772	0.000414	4.136829	0.700798	-0.000041
1758	1.7482e+02	2.5137	-4.265284	0.000397	3.972995	0.673044	-0.000040
1759	1.7492e+02	2.5024	-4.311314	0.000463	4.628334	0.784061	-0.000046
1760	1.7502e+02	2.4952	-4.354492	0.000434	4.341623	0.735491	-0.000043
1761	1.7512e+02	2.4831	-4.400929	0.000467	4.669293	0.791000	-0.000047
1762	1.7522e+02	2.4745	-4.442885	0.000422	4.218747	0.714675	-0.000042
1763	1.7532e+02	2.4620	-4.486878	0.000442	4.423540	0.749368	-0.000044
1764	1.7542e+02	2.4545	-4.528834	0.000422	4.218747	0.714675	-0.000042
1765	1.7552e+02	2.4427	-4.576086	0.000475	4.751210	0.804877	-0.000047
1766	1.7562e+02	2.4345	-4.620487	0.000446	4.464499	0.756307	-0.000045
1767	1.7572e+02	2.4236	-4.667331	0.000471	4.710251	0.797938	-0.000047
1768	1.7582e+02	2.4180	-4.712953	0.000459	4.587375	0.777122	-0.000046
1769	1.7592e+02	2.4030	-4.760205	0.000475	4.751210	0.804877	-0.000047
1770	1.7602e+02	2.3936	-4.803383	0.000434	4.341623	0.735491	-0.000043
1771	1.7612e+02	2.3855	-4.849820	0.000467	4.669293	0.791000	-0.000047
1772	1.7621e+02	2.3739	-4.893813	0.000442	4.423540	0.749368	-0.000044
1773	1.7631e+02	2.3628	-4.948805	0.000553	5.529425	0.936710	-0.000055
1774	1.7641e+02	2.3550	-4.991983	0.000434	4.341623	0.735491	-0.000043
1775	1.7651e+02	2.3431	-5.039235	0.000475	4.751210	0.804877	-0.000047
1776	1.7661e+02	2.3355	-5.080376	0.000414	4.136829	0.700798	-0.000041
1777	1.7671e+02	2.3248	-5.131294	0.000512	5.119838	0.867324	-0.000051
1778	1.7681e+02	2.3139	-5.175694	0.000446	4.464499	0.756307	-0.000045
1779	1.7691e+02	2.3029	-5.222132	0.000467	4.669293	0.791000	-0.000047
1780	1.7701e+02	2.2948	-5.268976	0.000471	4.710251	0.797938	-0.000047
1781	1.7711e+02	2.2858	-5.316635	0.000479	4.792169	0.811815	-0.000048
1782	1.7721e+02	2.2747	-5.367145	0.000508	5.078880	0.860386	-0.000051
1783	1.7731e+02	2.2654	-5.413583	0.000467	4.669293	0.791000	-0.000047
1784	1.7741e+02	2.2546	-5.460020	0.000467	4.669293	0.791000	-0.000047
1785	1.7751e+02	2.2437	-5.510530	0.000508	5.078880	0.860386	-0.000051
1786	1.7761e+02	2.2342	-5.559411	0.000492	4.915045	0.832631	-0.000049
1787	1.7771e+02	2.2265	-5.608292	0.000492	4.915045	0.832631	-0.000049
1788	1.7781e+02	2.2155	-5.656359	0.000483	4.833127	0.818754	-0.000048
1789	1.7791e+02	2.2047	-5.705240	0.000492	4.915045	0.832631	-0.000049
1790	1.7801e+02	2.1933	-5.753714	0.000487	4.874086	0.825693	-0.000049
1791	1.7810e+02	2.1848	-5.794040	0.000405	4.054912	0.686921	-0.000041
1792	1.7820e+02	2.1746	-5.842514	0.000487	4.874086	0.825693	-0.000049
1793	1.7830e+02	2.1637	-5.892617	0.000504	5.037921	0.853447	-0.000050
1794	1.7840e+02	2.1564	-5.937425	0.000451	4.505458	0.763245	-0.000045
1795	1.7850e+02	2.1453	-5.982233	0.000451	4.505458	0.763245	-0.000045
1796	1.7860e+02	2.1343	-6.031114	0.000492	4.915045	0.832631	-0.000049
1797	1.7870e+02	2.1239	-6.078366	0.000475	4.751210	0.804877	-0.000047
1798	1.7880e+02	2.1152	-6.125210	0.000471	4.710251	0.797938	-0.000047
1799	1.7890e+02	2.1056	-6.170832	0.000459	4.587375	0.777122	-0.000046
1800	1.7900e+02	2.0966	-6.218491	0.000479	4.792169	0.811815	-0.000048
1801	1.7910e+02	2.0878	-6.262484	0.000442	4.423540	0.749368	-0.000044
1802	1.7920e+02	2.0743	-6.312180	0.000500	4.996962	0.846508	-0.000050
1803	1.7930e+02	2.0638	-6.356581	0.000446	4.464499	0.756307	-0.000045
1804	1.7940e+02	2.0586	-6.400574	0.000442	4.423540	0.749368	-0.000044
1805	1.7950e+02	2.0451	-6.446196	0.000459	4.587375	0.777122	-0.000046
1806	1.7960e+02	2.0340	-6.488560	0.000426	4.259706	0.721614	-0.000043
1807	1.7970e+02	2.0269	-6.537441	0.000492	4.915045	0.832631	-0.000049
1808	1.7980e+02	2.0142	-6.583878	0.000467	4.669293	0.791000	-0.000047
1809	1.7990e+02	2.0086	-6.624612	0.000410	4.095871	0.693859	-0.000041
1810	1.8000e+02	1.9974	-6.671864	0.000475	4.751210	0.804877	-0.000047
1811	1.8009e+02	1.9849	-6.717893	0.000463	4.628334	0.784061	-0.000046
1812	1.8019e+02	1.9730	-6.761479	0.000438	4.382582	0.742429	-0.000044
1813	1.8029e+02	1.9640	-6.804657	0.000434	4.341623	0.735491	-0.000043
1814	1.8039e+02	1.9567	-6.847428	0.000430	4.300664	0.728552	-0.000043
1815	1.8049e+02	1.9456	-6.890607	0.000434	4.341623	0.735491	-0.000043
1816	1.8059e+02	1.9386	-6.934600	0.000442	4.423540	0.749368	-0.000044
1817	1.8069e+02	1.9265	-6.981851	0.000475	4.751210	0.804877	-0.000047
1818	1.8079e+02	1.9178	-7.031547	0.000500	4.996962	0.846508	-0.000050
1819	1.8089e+02	1.9065	-7.071874	0.000405	4.054912	0.686921	-0.000041
1820	1.8099e+02	1.8953	-7.117904	0.000463	4.628334	0.784061	-0.000046
1821	1.8109e+02	1.8883	-7.160675	0.000430	4.300664	0.728552	-0.000043
1822	1.8119e+02	1.8800	-7.202631	0.000422	4.218747	0.714675	-0.000042
1823	1.8129e+02	1.8653	-7.248253	0.000459	4.587375	0.777122	-0.000046
1824	1.8139e+02	1.8572	-7.291024	0.000430	4.300664	0.728552	-0.000043
1825	1.8149e+02	1.8459	-7.335832	0.000451	4.505458	0.763245	-0.000045
1826	1.8159e+02	1.8369	-7.372493	0.000369	3.686284	0.624473	-0.000037
1827	1.8169e+02	1.8271	-7.418115	0.000459	4.587375	0.777122	-0.000046
1828	1.8179e+02	1.8166	-7.466182	0.000483	4.833127	0.818754	-0.000048
1829	1.8189e+02	1.8052	-7.510175	0.000442	4.423540	0.749368	-0.000044
1830	1.8199e+02	1.7968	-7.554982	0.000451	4.505458	0.763245	-0.000045
1831	1.8209e+02	1.7870	-7.598975	0.000442	4.423540	0.749368	-0.000044
1832	1.8218e+02	1.7782	-7.642154	0.000434	4.341623	0.735491	-0.000043
1833	1.8228e+02	1.7676	-7.688183	0.000463	4.628334	0.784061	-0.000046
1834	1.8238e+02	1.7589	-7.733398	0.000455	4.546416	0.770184	-0.000045
1835	1.8248e+02	1.7454	-7.776984	0.000438	4.382582	0.742429	-0.000044
1836	1.8258e+02	1.7371	-7.819348	0.000426	4.259706	0.721614	-0.000043
1837	1.8268e+02	1.7281	-7.864155	0.000451	4.505458	0.763245	-0.000045
1838	1.8278e+02	1.7155	-7.908148	0.000442	4.423540	0.749368	-0.000044
1839	1.8288e+02	1.7095	-7.946846	0.000389	3.891077	0.659166	-0.000039
1840	1.8298e+02	1.6977	-7.996949	0.000504	5.037921	0.853447	-0.000050
1841	1.8308e+02	1.6872	-8.042164	0.000455	4.546416	0.770184	-0.000045
1842	1.8318e+02	1.6763	-8.083713	0.000418	4.177788	0.707736	-0.000042
1843	1.8328e+02	1.6652	-8.128113	0.000446	4.464499	0.756307	-0.000045
1844	1.8338e+02	1.6566	-8.171699	0.000438	4.382582	0.742429	-0.000044
1845	1.8348e+02	1.6492	-8.216099	0.000446	4.464499	0.756307	-0.000045
1846	1.8358e+02	1.6355	-8.262536	0.000467	4.669293	0.791000	-0.000047
1847	1.8368e+02	1.6265	-8.303271	0.000410	4.095871	0.693859	-0.000041
1848	1.8378e+02	1.6174	-8.351744	0.000487	4.874086	0.825693	-0.000049
1849	1.8388e+02	1.6075	-8.396145	0.000446	4.464499	0.756307	-0.000045
1850	1.8398e+02	1.5984	-8.439730	0.000438	4.382582	0.742429	-0.000044
1851	1.8407e+02	1.5874	-8.482909	0.000434	4.341623	0.735491	-0.000043
1852	1.8417e+02	1.5745	-8.531790	0.000492	4.915045	0.832631	-0.000049
1853	1.8427e+02	1.5698	-8.568451	0.000369	3.686284	0.624473	-0.000037
1854	1.8437e+02	1.5611	-8.611222	0.000430	4.300664	0.728552	-0.000043
1855	1.8447e+02	1.5480	-8.654400	0.000434	4.341623	0.735491	-0.000043
1856	1.8457e+02	1.5409	-8.695949	0.000418	4.177788	0.707736	-0.000042
1857	1.8467e+02	1.5269	-8.740349	0.000446	4.464499	0.756307	-0.000045
1858	1.8477e+02	1.5182	-8.782713	0.000426	4.259706	0.721614	-0.000043
1859	1.8487e+02	1.5096	-8.828335	0.000459	4.587375	0.777122	-0.000046
1860	1.8497e+02	1.4993	-8.870699	0.000426	4.259706	0.721614	-0.000043
1861	1.8507e+02	1.4914	-8.916321	0.000459	4.587375	0.777122	-0.000046
1862	1.8517e+02	1.4786	-8.961129	0.000451	4.505458	0.763245	-0.000045
1863	1.8527e+02	1.4658	-9.003900	0.000430	4.300664	0.728552	-0.000043
1864	1.8537e+02	1.4562	-9.047485	0.000438	4.382582	0.742429	-0.000044
1865	1.8547e+02	1.4449	-9.089442	0.000422	4.218747	0.714675	-0.000042
1866	1.8557e+02	1.4375	-9.129769	0.000405	4.054912	0.686921	-0.000041
1867	1.8567e+02	1.4283	-9.168873	0.000393	3.932036	0.666105	-0.000039
1868	1.8577e+02	1.4164	-9.212052	0.000434	4.341623	0.735491	-0.000043
1869	1.8587e+02	1.4099	-9.257267	0.000455	4.546416	0.770184	-0.000045
1870	1.8597e+02	1.3988	-9.293928	0.000369	3.686284	0.624473	-0.000037
1871	1.8606e+02	1.3900	-9.336291	0.000426	4.259706	0.721614	-0.000043
1872	1.8616e+02	1.3800	-9.377433	0.000414	4.136829	0.700798	-0.000041
1873	1.8626e+02	1.3692	-9.425907	0.000487	4.874086	0.825693	-0.000049
1874	1.8636e+02	1.3551	-9.469900	0.000442	4.423540	0.749368	-0.000044
1875	1.8646e+02	1.3497	-9.517151	0.000475	4.751210	0.804877	-0.000047
1876	1.8656e+02	1.3396	-9.557071	0.000401	4.013953	0.679982	-0.000040
1877	1.8666e+02	1.3282	-9.602693	0.000459	4.587375	0.777122	-0.000046
1878	1.8676e+02	1.3187	-9.646686	0.000442	4.423540	0.749368	-0.000044
1879	1.8686e+02	1.3095	-9.691901	0.000455	4.546416	0.770184	-0.000045
1880	1.8696e+02	1.2978	-9.733858	0.000422	4.218747	0.714675	-0.000042
1881	1.8706e+02	1.2889	-9.774999	0.000414	4.136829	0.700798	-0.000041
1882	1.8716e+02	1.2772	-9.819400	0.000446	4.464499	0.756307	-0.000045
1883	1.8726e+02	1.2695	-9.869503	0.000504	5.037921	0.853447	-0.000050
1884	1.8736e+02	1.2585	-9.911459	0.000422	4.218747	0.714675	-0.000042
1885	1.8746e+02	1.2493	-9.957081	0.000459	4.587375	0.777122	-0.000046
1886	1.8756e+02	1.2402	-10.000260	0.000434	4.341623	0.735491	-0.000043
1887	1.8766e+02	1.2304	-10.054436	0.000545	5.447508	0.922833	-0.000054
1888	1.8776e+02	1.2206	-10.099244	0.000451	4.505458	0.763245	-0.000045
1889	1.8786e+02	1.2096	-10.147310	0.000483	4.833127	0.818754	-0.000048
1890	1.8796e+02	1.1977	-10.190896	0.000438	4.382582	0.742429	-0.000044
1891	1.8806e+02	1.1888	-10.238962	0.000483	4.833127	0.818754	-0.000048
1892	1.8815e+02	1.1800	-10.285399	0.000467	4.669293	0.791000	-0.000047
1893	1.8825e+02	1.1710	-10.333466	0.000483	4.833127	0.818754	-0.000048
1894	1.8835e+02	1.1614	-10.380718	0.000475	4.751210	0.804877	-0.000047
1895	1.8845e+02	1.1499	-10.434487	0.000541	5.406549	0.915894	-0.000054
1896	1.8855e+02	1.1432	-10.478887	0.000446	4.464499	0.756307	-0.000045
1897	1.8865e+02	1.1309	-10.527361	0.000487	4.874086	0.825693	-0.000049
1898	1.8875e+02	1.1194	-10.572169	0.000451	4.505458	0.763245	-0.000045
1899	1.8885e+02	1.1128	-10.621457	0.000496	4.956004	0.839570	-0.000050
1900	1.8895e+02	1.1010	-10.671560	0.000504	5.037921	0.853447	-0.000050
1901	1.8905e+02	1.0937	-10.718405	0.000471	4.710251	0.797938	-0.000047
1902	1.8915e+02	1.0836	-10.764434	0.000463	4.628334	0.784061	-0.000046
1903	1.8925e+02	1.0690	-10.818203	0.000541	5.406549	0.915894	-0.000054
1904	1.8935e+02	1.0609	-10.866270	0.000483	4.833127	0.818754	-0.000048
1905	1.8945e+02	1.0500	-10.918410	0.000524	5.242714	0.888140	-0.000052
1906	1.8955e+02	1.0406	-10.964032	0.000459	4.587375	0.777122	-0.000046
1907	1.8965e+02	1.0313	-11.010877	0.000471	4.710251	0.797938	-0.000047
1908	1.8975e+02	1.0207	-11.065053	0.000545	5.447508	0.922833	-0.000054
1909	1.8985e+02	1.0109	-11.113527	0.000487	4.874086	0.825693	-0.000049
1910	1.8995e+02	1.0014	-11.166074	0.000528	5.283673	0.895078	-0.000053
1911	1.9004e+02	0.9921	-11.213733	0.000479	4.792169	0.811815	-0.000048
1912	1.9014e+02	0.9876	-11.262614	0.000492	4.915045	0.832631	-0.000049
1913	1.9024e+02	0.9715	-11.311903	0.000496	4.956004	0.839570	-0.000050
1914	1.9034e+02	0.9630	-11.358747	0.000471	4.710251	0.797938	-0.000047
1915	1.9044e+02	0.9496	-11.410480	0.000520	5.201756	0.881201	-0.000052
1916	1.9054e+02	0.9443	-11.461805	0.000516	5.160797	0.874263	-0.000052
1917	1.9064e+02	0.9293	-11.513130	0.000516	5.160797	0.874263	-0.000052
1918	1.9074e+02	0.9206	-11.558345	0.000455	4.546416	0.770184	-0.000045
1919	1.9084e+02	0.9123	-11.611707	0.000537	5.365591	0.908956	-0.000054
1920	1.9094e+02	0.9014	-11.665476	0.000541	5.406549	0.915894	-0.000054
1921	1.9104e+02	0.8923	-11.715986	0.000508	5.078880	0.860386	-0.000051
1922	1.9114e+02	0.8795	-11.764868	0.000492	4.915045	0.832631	-0.000049
1923	1.9124e+02	0.8701	-11.820266	0.000557	5.570384	0.943649	-0.000056
1924	1.9134e+02	0.8624	-11.864259	0.000442	4.423540	0.749368	-0.000044
1925	1.9144e+02	0.8506	-11.917621	0.000537	5.365591	0.908956	-0.000054
1926	1.9154e+02	0.8379	-11.968946	0.000516	5.160797	0.874263	-0.000052
1927	1.9164e+02	0.8299	-12.023937	0.000553	5.529425	0.936710	-0.000055
1928	1.9174e+02	0.8230	-12.070374	0.000467	4.669293	0.791000	-0.000047
1929	1.9184e+02	0.8119	-12.116812	0.000467	4.669293	0.791000	-0.000047
1930	1.9194e+02	0.8035	-12.170581	0.000541	5.406549	0.915894	-0.000054
1931	1.9203e+02	0.7905	-12.219055	0.000487	4.874086	0.825693	-0.000049
1932	1.9213e+02	0.7806	-12.272009	0.000532	5.324632	0.902017	-0.000053
1933	1.9223e+02	0.7705	-12.324964	0.000532	5.324632	0.902017	-0.000053
1934	1.9233e+02	0.7626	-12.375881	0.000512	5.119838	0.867324	-0.000051
1935	1.9243e+02	0.7504	-12.428021	0.000524	5.242714	0.888140	-0.000052
1936	1.9253e+02	0.7408	-12.476902	0.000492	4.915045	0.832631	-0.000049
1937	1.9263e+02	0.7320	-12.529450	0.000528	5.283673	0.895078	-0.000053
1938	1.9273e+02	0.7231	-12.586477	0.000573	5.734219	0.971403	-0.000057
1939	1.9283e+02	0.7140	-12.637395	0.000512	5.119838	0.867324	-0.000051
1940	1.9293e+02	0.7016	-12.691979	0.000549	5.488467	0.929771	-0.000055
1941	1.9303e+02	0.6931	-12.746563	0.000549	5.488467	0.929771	-0.000055
1942	1.9313e+02	0.6802	-12.796259	0.000500	4.996962	0.846508	-0.000050
1943	1.9323e+02	0.6705	-12.847991	0.000520	5.201756	0.881201	-0.000052
1944	1.9333e+02	0.6632	-12.900539	0.000528	5.283673	0.895078	-0.000053
1945	1.9343e+02	0.6531	-12.952678	0.000524	5.242714	0.888140	-0.000052
1946	1.9353e+02	0.6436	-13.006040	0.000537	5.365591	0.908956	-0.000054
1947	1.9363e+02	0.6354	-13.058180	0.000524	5.242714	0.888140	-0.000052
1948	1.9373e+02	0.6191	-13.115208	0.000573	5.734219	0.971403	-0.000057
1949	1.9383e+02	0.6158	-13.170607	0.000557	5.570384	0.943649	-0.000056
1950	1.9393e+02	0.6030	-13.224376	0.000541	5.406549	0.915894	-0.000054
1951	1.9403e+02	0.5936	-13.275294	0.000512	5.119838	0.867324	-0.000051
1952	1.9412e+02	0.5829	-13.335173	0.000602	6.020930	1.019973	-0.000060
1953	1.9422e+02	0.5735	-13.388128	0.000532	5.324632	0.902017	-0.000053
1954	1.9432e+02	0.5634	-13.443526	0.000557	5.570384	0.943649	-0.000056
1955	1.9442e+02	0.5541	-13.496888	0.000537	5.365591	0.908956	-0.000054
1956	1.9452e+02	0.5442	-13.553101	0.000565	5.652302	0.957526	-0.000056
1957	1.9462e+02	0.5351	-13.606463	0.000537	5.365591	0.908956	-0.000054
1958	1.9472e+02	0.5219	-13.663084	0.000569	5.693260	0.964464	-0.000057
1959	1.9482e+02	0.5116	-13.709114	0.000463	4.628334	0.784061	-0.000046
1960	1.9492e+02	0.5046	-13.763697	0.000549	5.488467	0.929771	-0.000055
1961	1.9502e+02	0.4923	-13.814208	0.000508	5.078880	0.860386	-0.000051
1962	1.9512e+02	0.4827	-13.870829	0.000569	5.693260	0.964464	-0.000057
1963	1.9522e+02	0.4733	-13.923376	0.000528	5.283673	0.895078	-0.000053
1964	1.9532e+02	0.4622	-13.980404	0.000573	5.734219	0.971403	-0.000057
1965	1.9542e+02	0.4540	-14.032136	0.000520	5.201756	0.881201	-0.000052
1966	1.9552e+02	0.4440	-14.085905	0.000541	5.406549	0.915894	-0.000054
1967	1.9562e+02	0.4352	-14.140082	0.000545	5.447508	0.922833	-0.000054
1968	1.9572e+02	0.4234	-14.190185	0.000504	5.037921	0.853447	-0.000050
1969	1.9582e+02	0.4153	-14.240288	0.000504	5.037921	0.853447	-0.000050
1970	1.9592e+02	0.4030	-14.297316	0.000573	5.734219	0.971403	-0.000057
1971	1.9601e+02	0.3947	-14.348641	0.000516	5.160797	0.874263	-0.000052
1972	1.9611e+02	0.3837	-14.396300	0.000479	4.792169	0.811815	-0.000048
1973	1.9621e+02	0.3732	-14.448848	0.000528	5.283673	0.895078	-0.000053
1974	1.9631e+02	0.3622	-14.498543	0.000500	4.996962	0.846508	-0.000050
1975	1.9641e+02	0.3535	-14.548647	0.000504	5.037921	0.853447	-0.000050
1976	1.9651e+02	0.3420	-14.605675	0.000573	5.734219	0.971403	-0.000057
1977	1.9661e+02	0.3349	-14.651704	0.000463	4.628334	0.784061	-0.000046
1978	1.9671e+02	0.3255	-14.702622	0.000512	5.119838	0.867324	-0.000051
1979	1.9681e+02	0.3169	-14.752725	0.000504	5.037921	0.853447	-0.000050
1980	1.9691e+02	0.3040	-14.802828	0.000504	5.037921	0.853447	-0.000050
1981	1.9701e+02	0.2930	-14.853746	0.000512	5.119838	0.867324	-0.000051
1982	1.9711e+02	0.2811	-14.904257	0.000508	5.078880	0.860386	-0.000051
1983	1.9721e+02	0.2738	-14.957618	0.000537	5.365591	0.908956	-0.000054
1984	1.9731e+02	0.2647	-15.003241	0.000459	4.587375	0.777122	-0.000046
1985	1.9741e+02	0.2518	-15.056603	0.000537	5.365591	0.908956	-0.000054
1986	1.9751e+02	0.2438	-15.109150	0.000528	5.283673	0.895078	-0.000053
1987	1.9761e+02	0.2355	-15.158846	0.000500	4.996962	0.846508	-0.000050
1988	1.9771e+02	0.2235	-15.209356	0.000508	5.078880	0.860386	-0.000051
1989	1.9781e+02	0.2137	-15.258237	0.000492	4.915045	0.832631	-0.000049
1990	1.9791e+02	0.2054	-15.306711	0.000487	4.874086	0.825693	-0.000049
1991	1.9800e+02	0.1940	-15.354777	0.000483	4.833127	0.818754	-0.000048
1992	1.9810e+02	0.1835	-15.406917	0.000524	5.242714	0.888140	-0.000052
1993	1.9820e+02	0.1754	-15.458650	0.000520	5.201756	0.881201	-0.000052
1994	1.9830e+02	0.1624	-15.503458	0.000451	4.505458	0.763245	-0.000045
1995	1.9840e+02	0.1563	-15.558041	0.000549	5.488467	0.929771	-0.000055
1996	1.9850e+02	0.1460	-15.609367	0.000516	5.160797	0.874263	-0.000052
1997	1.9860e+02	0.1338	-15.655396	0.000463	4.628334	0.784061	-0.000046
1998	1.9870e+02	0.1237	-15.705499	0.000504	5.037921	0.853447	-0.000050
1999	1.9880e+02	0.1140	-15.757639	0.000524	5.242714	0.888140	-0.000052
2000	1.9890e+02	0.1064	-15.810594	0.000532	5.324632	0.902017	-0.000053
2001	1.9900e+02	0.0966	-15.857031	0.000467	4.669293	0.791000	-0.000047
2002	1.9910e+02	0.0848	-15.910800	0.000541	5.406549	0.915894	-0.000054
2003	1.9920e+02	0.0742	-15.959681	0.000492	4.915045	0.832631	-0.000049
2004	1.9930e+02	0.0665	-16.009377	0.000500	4.996962	0.846508	-0.000050
2005	1.9940e+02	0.0545	-16.061517	0.000524	5.242714	0.888140	-0.000052
2006	1.9950e+02	0.0448	-16.108361	0.000471	4.710251	0.797938	-0.000047
2007	1.9960e+02	0.0361	-16.157242	0.000492	4.915045	0.832631	-0.000049
2008	1.9970e+02	0.0245	-16.207345	0.000504	5.037921	0.853447	-0.000050
2009	1.9980e+02	0.0212	-16.255819	0.000487	4.874086	0.825693	-0.000049
2010	1.9990e+02	0.0052	-16.307144	0.000516	5.160797	0.874263	-0.000052
2011	2.0000e+02	-0.0044	-16.354396	0.000516	5.160797	0.874263	-0.000047

PMax (uC/cm2):	3.85e+01
Pr (uC/cm2):	2.88e+00
-Pr (uC/cm2):	0.00e+00
PLoss (uC/cm2):	0.00e+00
C (Max-Eff) (nF):	3.85e-01
K (Eff):	6.52e+02
Vert. (+/-Pr) Shift (uC/cm2):	1.44e+00
Offset (uC/cm2):	1.92e+01

A (Loop Area - uC/cm2·Volts):	-2.81e-02



Hysteresis Version: 5.48.1 - Radiant Technologies, Inc., 1999 - 9/12/24

