»»»»»»»»»»»»»»»»»»»»»»»»»»»»»»»»»»»» Hysteresis ««««««««««««««««««««««««««««««««««««
»»»  Executed Version:	5.48.1
»»»  Vision Version:	5.48.4 (R)
»»»  Vision Compiled:	9/18/24
»»»  Driver Version:	5.47.0
»»»  Windows Version:	Windows 8 or 8.1
»»»  Processor Information:	x86 (AMD or Intel) - 32 Processors
»»»  Tester Name:	PMF21124-494 (100V)
»»»  Tester S/N:	PMF21124-494
»»»  Internal Amp Type:	100V RevK 270k
»»»  Internal Amp S/N:	iAB2-596/K     
»»»  Execution Count:	1
»»»»»»»»»»»»»»»»»»»»»»»»»»»»»»»»»»»»»»»»»»««««««««««««««««««««««««««««««««««««««««««

Stored:	6/27/2025 - 13:55:47
Configured:	06/27/25 11:23:28 AM
Executed:	06/27/25 01:55:11 PM

»»»»»»»»»»»»»»»»»»»»»»»»»»»»»»»»»»» Sample Info ««««««««««««««««««««««««««««««««««««
Sample Name:	
Lot Name:	
Wafer Name:	
Die Row/Column:	0/0
Capacitor Number:	0
Sample Area (cm2):	1.00e-04
Sample Thickness (microns):	1.50e-01

Amplifier:	Internal

»»»»»»»»»»»»»»»»»»»»»»»»»»»»»»»»»»» Tester Info «««««««««««««««««««««««««««««««««««
Tester Name:	PMF21124-494 (100V)
Tester Serial Number:	PMF21124-494
Return Signal Amp. Level:	1.9 [Index: 2]

»»»»»»»»»»»»»»»»»»»»»»»»»»»»»»»» Hysteresis Info ««««««««««««««««««««««««««««««««««
Task Name:	Hyst-1276
Volts:	10.00
Field:	666.67 (kV/cm)
DCBias:	0.00
DCField:	0.00 (kV/cm)
Hysteresis Period (ms):	2.00e+02
Preset:	Enabled
Preset Delay (ms):	1.00e+03
Profile:	Standard Monopolar

»»»»»»»»»»»»»»»»»»»»»»»»»»»»»»»»»»»»»» Data «««««««««««««««««««««««««««««««««««««««
Points:	2011

Valid Data

Point	Time (ms)	Drive Voltage	Measured Polarization (uC/cm2)	Capacitance (uF)	Normalized Capacitance (uF/cm2)	Dielectric Constant	Instantaneous Current (mA)
   1	0.0000e+00	-0.0028	-20.606238	0.000352	3.521535	0.596564	0.000035
   2	9.9500e-02	0.0064	-20.571206	0.000352	3.521535	0.596564	0.000035
   3	1.9900e-01	0.0157	-20.533731	0.000377	3.767223	0.638185	0.000038
   4	2.9850e-01	0.0259	-20.498699	0.000352	3.521535	0.596564	0.000035
   5	3.9800e-01	0.0337	-20.458372	0.000405	4.053860	0.686742	0.000041
   6	4.9750e-01	0.0440	-20.424156	0.000344	3.439639	0.582691	0.000034
   7	5.9700e-01	0.0544	-20.385051	0.000393	3.931016	0.665932	0.000039
   8	6.9650e-01	0.0654	-20.350019	0.000352	3.521535	0.596564	0.000035
   9	7.9600e-01	0.0753	-20.305619	0.000446	4.463341	0.756110	0.000045
  10	8.9550e-01	0.0867	-20.264885	0.000409	4.094808	0.693679	0.000041
  11	9.9500e-01	0.0932	-20.225372	0.000397	3.971964	0.672869	0.000040
  12	1.0945e+00	0.1035	-20.185860	0.000397	3.971964	0.672869	0.000040
  13	1.1940e+00	0.1137	-20.151643	0.000344	3.439639	0.582691	0.000034
  14	1.2935e+00	0.1272	-20.112538	0.000393	3.931016	0.665932	0.000039
  15	1.3930e+00	0.1358	-20.077914	0.000348	3.480587	0.589627	0.000035
  16	1.4925e+00	0.1432	-20.039624	0.000385	3.849119	0.652058	0.000038
  17	1.5920e+00	0.1549	-20.001741	0.000381	3.808171	0.645122	0.000038
  18	1.6915e+00	0.1664	-19.964673	0.000373	3.726275	0.631248	0.000037
  19	1.7910e+00	0.1772	-19.925161	0.000397	3.971964	0.672869	0.000040
  20	1.8905e+00	0.1864	-19.889722	0.000356	3.562483	0.603501	0.000036
  21	1.9900e+00	0.1968	-19.846951	0.000430	4.299548	0.728363	0.000043
  22	2.0895e+00	0.2039	-19.811105	0.000360	3.603431	0.610438	0.000036
  23	2.1890e+00	0.2142	-19.772407	0.000389	3.890068	0.658995	0.000039
  24	2.2885e+00	0.2233	-19.731673	0.000409	4.094808	0.693679	0.000041
  25	2.3880e+00	0.2348	-19.690124	0.000418	4.176704	0.707553	0.000042
  26	2.4875e+00	0.2440	-19.649390	0.000409	4.094808	0.693679	0.000041
  27	2.5870e+00	0.2521	-19.613544	0.000360	3.603431	0.610438	0.000036
  28	2.6865e+00	0.2634	-19.573217	0.000405	4.053860	0.686742	0.000041
  29	2.7860e+00	0.2739	-19.538185	0.000352	3.521535	0.596564	0.000035
  30	2.8855e+00	0.2803	-19.496637	0.000418	4.176704	0.707553	0.000042
  31	2.9850e+00	0.2947	-19.452236	0.000446	4.463341	0.756110	0.000045
  32	3.0845e+00	0.3041	-19.414761	0.000377	3.767223	0.638185	0.000038
  33	3.1840e+00	0.3152	-19.375248	0.000397	3.971964	0.672869	0.000040
  34	3.2835e+00	0.3261	-19.336551	0.000389	3.890068	0.658995	0.000039
  35	3.3830e+00	0.3352	-19.293780	0.000430	4.299548	0.728363	0.000043
  36	3.4825e+00	0.3428	-19.252638	0.000414	4.135756	0.700616	0.000041
  37	3.5820e+00	0.3530	-19.210682	0.000422	4.217652	0.714490	0.000042
  38	3.6815e+00	0.3631	-19.169133	0.000418	4.176704	0.707553	0.000042
  39	3.7810e+00	0.3737	-19.129214	0.000401	4.012912	0.679806	0.000040
  40	3.8805e+00	0.3827	-19.081962	0.000475	4.749977	0.804668	0.000047
  41	3.9800e+00	0.3943	-19.042857	0.000393	3.931016	0.665932	0.000039
  42	4.0795e+00	0.4016	-18.996420	0.000467	4.668081	0.790794	0.000047
  43	4.1790e+00	0.4121	-18.956500	0.000401	4.012912	0.679806	0.000040
  44	4.2785e+00	0.4233	-18.915359	0.000414	4.135756	0.700616	0.000041
  45	4.3780e+00	0.4357	-18.867700	0.000479	4.790925	0.811605	0.000048
  46	4.4775e+00	0.4440	-18.826965	0.000409	4.094808	0.693679	0.000041
  47	4.5770e+00	0.4528	-18.786638	0.000405	4.053860	0.686742	0.000041
  48	4.6765e+00	0.4667	-18.739794	0.000471	4.709029	0.797731	0.000047
  49	4.7760e+00	0.4726	-18.700282	0.000397	3.971964	0.672869	0.000040
  50	4.8755e+00	0.4836	-18.654252	0.000463	4.627133	0.783858	0.000046
  51	4.9750e+00	0.4932	-18.611481	0.000430	4.299548	0.728363	0.000043
  52	5.0745e+00	0.5054	-18.569525	0.000422	4.217652	0.714490	0.000042
  53	5.1740e+00	0.5132	-18.527976	0.000418	4.176704	0.707553	0.000042
  54	5.2735e+00	0.5218	-18.486020	0.000422	4.217652	0.714490	0.000042
  55	5.3730e+00	0.5312	-18.437953	0.000483	4.831873	0.818542	0.000048
  56	5.4725e+00	0.5457	-18.391109	0.000471	4.709029	0.797731	0.000047
  57	5.5720e+00	0.5549	-18.349153	0.000422	4.217652	0.714490	0.000042
  58	5.6715e+00	0.5637	-18.306382	0.000430	4.299548	0.728363	0.000043
  59	5.7710e+00	0.5725	-18.264833	0.000418	4.176704	0.707553	0.000042
  60	5.8705e+00	0.5827	-18.219618	0.000455	4.545237	0.769984	0.000045
  61	5.9700e+00	0.5938	-18.176032	0.000438	4.381445	0.742237	0.000044
  62	6.0695e+00	0.6025	-18.127558	0.000487	4.872821	0.825478	0.000049
  63	6.1690e+00	0.6118	-18.090897	0.000369	3.685327	0.624311	0.000037
  64	6.2685e+00	0.6212	-18.048534	0.000426	4.258600	0.721426	0.000043
  65	6.3680e+00	0.6348	-18.002911	0.000459	4.586185	0.776921	0.000046
  66	6.4675e+00	0.6433	-17.960140	0.000430	4.299548	0.728363	0.000043
  67	6.5670e+00	0.6529	-17.919814	0.000405	4.053860	0.686742	0.000041
  68	6.6665e+00	0.6640	-17.872969	0.000471	4.709029	0.797731	0.000047
  69	6.7660e+00	0.6725	-17.828161	0.000450	4.504289	0.763047	0.000045
  70	6.8655e+00	0.6819	-17.783354	0.000450	4.504289	0.763047	0.000045
  71	6.9650e+00	0.6922	-17.738139	0.000455	4.545237	0.769984	0.000045
  72	7.0645e+00	0.7039	-17.692924	0.000455	4.545237	0.769984	0.000045
  73	7.1640e+00	0.7111	-17.648931	0.000442	4.422393	0.749174	0.000044
  74	7.2635e+00	0.7223	-17.604123	0.000450	4.504289	0.763047	0.000045
  75	7.3630e+00	0.7314	-17.563796	0.000405	4.053860	0.686742	0.000041
  76	7.4625e+00	0.7426	-17.516952	0.000471	4.709029	0.797731	0.000047
  77	7.5620e+00	0.7510	-17.474181	0.000430	4.299548	0.728363	0.000043
  78	7.6615e+00	0.7629	-17.432632	0.000418	4.176704	0.707553	0.000042
  79	7.7610e+00	0.7710	-17.390676	0.000422	4.217652	0.714490	0.000042
  80	7.8605e+00	0.7780	-17.343016	0.000479	4.790925	0.811605	0.000048
  81	7.9600e+00	0.7890	-17.296579	0.000467	4.668081	0.790794	0.000047
  82	8.0595e+00	0.8015	-17.252586	0.000442	4.422393	0.749174	0.000044
  83	8.1590e+00	0.8118	-17.210223	0.000426	4.258600	0.721426	0.000043
  84	8.2585e+00	0.8241	-17.167859	0.000426	4.258600	0.721426	0.000043
  85	8.3580e+00	0.8311	-17.116127	0.000520	5.200406	0.880973	0.000052
  86	8.4575e+00	0.8440	-17.069282	0.000471	4.709029	0.797731	0.000047
  87	8.5570e+00	0.8533	-17.025289	0.000442	4.422393	0.749174	0.000044
  88	8.6565e+00	0.8609	-16.977630	0.000479	4.790925	0.811605	0.000048
  89	8.7560e+00	0.8743	-16.934859	0.000430	4.299548	0.728363	0.000043
  90	8.8555e+00	0.8810	-16.889237	0.000459	4.586185	0.776921	0.000046
  91	8.9550e+00	0.8927	-16.842392	0.000471	4.709029	0.797731	0.000047
  92	9.0545e+00	0.8994	-16.796770	0.000459	4.586185	0.776921	0.000046
  93	9.1540e+00	0.9111	-16.749926	0.000471	4.709029	0.797731	0.000047
  94	9.2535e+00	0.9220	-16.708784	0.000414	4.135756	0.700616	0.000041
  95	9.3530e+00	0.9312	-16.660718	0.000483	4.831873	0.818542	0.000048
  96	9.4525e+00	0.9422	-16.614688	0.000463	4.627133	0.783858	0.000046
  97	9.5520e+00	0.9516	-16.565807	0.000491	4.913770	0.832415	0.000049
  98	9.6515e+00	0.9615	-16.524665	0.000414	4.135756	0.700616	0.000041
  99	9.7510e+00	0.9708	-16.477414	0.000475	4.749977	0.804668	0.000047
 100	9.8505e+00	0.9798	-16.428940	0.000487	4.872821	0.825478	0.000049
 101	9.9500e+00	0.9893	-16.382910	0.000463	4.627133	0.783858	0.000046
 102	1.0050e+01	1.0020	-16.334844	0.000483	4.831873	0.818542	0.000048
 103	1.0149e+01	1.0136	-16.291258	0.000438	4.381445	0.742237	0.000044
 104	1.0248e+01	1.0226	-16.240748	0.000508	5.077562	0.860162	0.000051
 105	1.0348e+01	1.0323	-16.200013	0.000409	4.094808	0.693679	0.000041
 106	1.0447e+01	1.0408	-16.156428	0.000438	4.381445	0.742237	0.000044
 107	1.0547e+01	1.0490	-16.109176	0.000475	4.749977	0.804668	0.000047
 108	1.0646e+01	1.0635	-16.067220	0.000422	4.217652	0.714490	0.000042
 109	1.0746e+01	1.0733	-16.023227	0.000442	4.422393	0.749174	0.000044
 110	1.0845e+01	1.0822	-15.977604	0.000459	4.586185	0.776921	0.000046
 111	1.0945e+01	1.0892	-15.934019	0.000438	4.381445	0.742237	0.000044
 112	1.1044e+01	1.1008	-15.889211	0.000450	4.504289	0.763047	0.000045
 113	1.1144e+01	1.1098	-15.844403	0.000450	4.504289	0.763047	0.000045
 114	1.1243e+01	1.1221	-15.798781	0.000459	4.586185	0.776921	0.000046
 115	1.1343e+01	1.1307	-15.753566	0.000455	4.545237	0.769984	0.000045
 116	1.1443e+01	1.1404	-15.706721	0.000471	4.709029	0.797731	0.000047
 117	1.1542e+01	1.1495	-15.666802	0.000401	4.012912	0.679806	0.000040
 118	1.1642e+01	1.1597	-15.623216	0.000438	4.381445	0.742237	0.000044
 119	1.1741e+01	1.1684	-15.582889	0.000405	4.053860	0.686742	0.000041
 120	1.1841e+01	1.1811	-15.539711	0.000434	4.340496	0.735300	0.000043
 121	1.1940e+01	1.1913	-15.494903	0.000450	4.504289	0.763047	0.000045
 122	1.2040e+01	1.2014	-15.455391	0.000397	3.971964	0.672869	0.000040
 123	1.2139e+01	1.2109	-15.414657	0.000409	4.094808	0.693679	0.000041
 124	1.2239e+01	1.2183	-15.373108	0.000418	4.176704	0.707553	0.000042
 125	1.2338e+01	1.2293	-15.329930	0.000434	4.340496	0.735300	0.000043
 126	1.2438e+01	1.2404	-15.282678	0.000475	4.749977	0.804668	0.000047
 127	1.2537e+01	1.2478	-15.248054	0.000348	3.480587	0.589627	0.000035
 128	1.2636e+01	1.2592	-15.206912	0.000414	4.135756	0.700616	0.000041
 129	1.2736e+01	1.2653	-15.163734	0.000434	4.340496	0.735300	0.000043
 130	1.2835e+01	1.2781	-15.125444	0.000385	3.849119	0.652058	0.000038
 131	1.2935e+01	1.2884	-15.081858	0.000438	4.381445	0.742237	0.000044
 132	1.3034e+01	1.2989	-15.042753	0.000393	3.931016	0.665932	0.000039
 133	1.3134e+01	1.3080	-14.998760	0.000442	4.422393	0.749174	0.000044
 134	1.3233e+01	1.3168	-14.960063	0.000389	3.890068	0.658995	0.000039
 135	1.3333e+01	1.3280	-14.919328	0.000409	4.094808	0.693679	0.000041
 136	1.3432e+01	1.3380	-14.875743	0.000438	4.381445	0.742237	0.000044
 137	1.3532e+01	1.3473	-14.843155	0.000328	3.275846	0.554943	0.000033
 138	1.3632e+01	1.3596	-14.795903	0.000475	4.749977	0.804668	0.000047
 139	1.3731e+01	1.3695	-14.754355	0.000418	4.176704	0.707553	0.000042
 140	1.3831e+01	1.3783	-14.719730	0.000348	3.480587	0.589627	0.000035
 141	1.3930e+01	1.3888	-14.679404	0.000405	4.053860	0.686742	0.000041
 142	1.4030e+01	1.3960	-14.635003	0.000446	4.463341	0.756110	0.000045
 143	1.4129e+01	1.4065	-14.598342	0.000369	3.685327	0.624311	0.000037
 144	1.4229e+01	1.4180	-14.559645	0.000389	3.890068	0.658995	0.000039
 145	1.4328e+01	1.4287	-14.521355	0.000385	3.849119	0.652058	0.000038
 146	1.4428e+01	1.4368	-14.478176	0.000434	4.340496	0.735300	0.000043
 147	1.4527e+01	1.4503	-14.437849	0.000405	4.053860	0.686742	0.000041
 148	1.4627e+01	1.4599	-14.396300	0.000418	4.176704	0.707553	0.000042
 149	1.4726e+01	1.4697	-14.359640	0.000369	3.685327	0.624311	0.000037
 150	1.4825e+01	1.4809	-14.317683	0.000422	4.217652	0.714490	0.000042
 151	1.4925e+01	1.4885	-14.278171	0.000397	3.971964	0.672869	0.000040
 152	1.5024e+01	1.4971	-14.237030	0.000414	4.135756	0.700616	0.000041
 153	1.5124e+01	1.5083	-14.204035	0.000332	3.316794	0.561880	0.000033
 154	1.5223e+01	1.5155	-14.163708	0.000405	4.053860	0.686742	0.000041
 155	1.5323e+01	1.5295	-14.122566	0.000414	4.135756	0.700616	0.000041
 156	1.5422e+01	1.5382	-14.083461	0.000393	3.931016	0.665932	0.000039
 157	1.5522e+01	1.5514	-14.043949	0.000397	3.971964	0.672869	0.000040
 158	1.5621e+01	1.5564	-14.006066	0.000381	3.808171	0.645122	0.000038
 159	1.5721e+01	1.5666	-13.969405	0.000369	3.685327	0.624311	0.000037
 160	1.5820e+01	1.5786	-13.928264	0.000414	4.135756	0.700616	0.000041
 161	1.5920e+01	1.5899	-13.888752	0.000397	3.971964	0.672869	0.000040
 162	1.6020e+01	1.5993	-13.845981	0.000430	4.299548	0.728363	0.000043
 163	1.6119e+01	1.6046	-13.809727	0.000364	3.644379	0.617375	0.000036
 164	1.6218e+01	1.6167	-13.772252	0.000377	3.767223	0.638185	0.000038
 165	1.6318e+01	1.6318	-13.729073	0.000434	4.340496	0.735300	0.000043
 166	1.6418e+01	1.6389	-13.693227	0.000360	3.603431	0.610438	0.000036
 167	1.6517e+01	1.6462	-13.662269	0.000311	3.112054	0.527196	0.000031
 168	1.6616e+01	1.6552	-13.619498	0.000430	4.299548	0.728363	0.000043
 169	1.6716e+01	1.6674	-13.583245	0.000364	3.644379	0.617375	0.000036
 170	1.6816e+01	1.6778	-13.548213	0.000352	3.521535	0.596564	0.000035
 171	1.6915e+01	1.6872	-13.511960	0.000364	3.644379	0.617375	0.000036
 172	1.7015e+01	1.6980	-13.476521	0.000356	3.562483	0.603501	0.000036
 173	1.7114e+01	1.7065	-13.435379	0.000414	4.135756	0.700616	0.000041
 174	1.7213e+01	1.7191	-13.400755	0.000348	3.480587	0.589627	0.000035
 175	1.7313e+01	1.7265	-13.360428	0.000405	4.053860	0.686742	0.000041
 176	1.7413e+01	1.7399	-13.322545	0.000381	3.808171	0.645122	0.000038
 177	1.7512e+01	1.7453	-13.289551	0.000332	3.316794	0.561880	0.000033
 178	1.7611e+01	1.7564	-13.248816	0.000409	4.094808	0.693679	0.000041
 179	1.7711e+01	1.7668	-13.208897	0.000401	4.012912	0.679806	0.000040
 180	1.7811e+01	1.7780	-13.175087	0.000340	3.398691	0.575754	0.000034
 181	1.7910e+01	1.7867	-13.139649	0.000356	3.562483	0.603501	0.000036
 182	1.8009e+01	1.7987	-13.101358	0.000385	3.849119	0.652058	0.000038
 183	1.8109e+01	1.8073	-13.069586	0.000319	3.193950	0.541070	0.000032
 184	1.8209e+01	1.8166	-13.034962	0.000348	3.480587	0.589627	0.000035
 185	1.8308e+01	1.8263	-12.997079	0.000381	3.808171	0.645122	0.000038
 186	1.8407e+01	1.8361	-12.961233	0.000360	3.603431	0.610438	0.000036
 187	1.8507e+01	1.8470	-12.927423	0.000340	3.398691	0.575754	0.000034
 188	1.8607e+01	1.8567	-12.895650	0.000319	3.193950	0.541070	0.000032
 189	1.8706e+01	1.8630	-12.852472	0.000434	4.340496	0.735300	0.000043
 190	1.8805e+01	1.8754	-12.818663	0.000340	3.398691	0.575754	0.000034
 191	1.8905e+01	1.8842	-12.783224	0.000356	3.562483	0.603501	0.000036
 192	1.9005e+01	1.8967	-12.743712	0.000397	3.971964	0.672869	0.000040
 193	1.9104e+01	1.9054	-12.705422	0.000385	3.849119	0.652058	0.000038
 194	1.9203e+01	1.9147	-12.668353	0.000373	3.726275	0.631248	0.000037
 195	1.9303e+01	1.9257	-12.632507	0.000360	3.603431	0.610438	0.000036
 196	1.9402e+01	1.9355	-12.593810	0.000389	3.890068	0.658995	0.000039
 197	1.9502e+01	1.9501	-12.559186	0.000348	3.480587	0.589627	0.000035
 198	1.9602e+01	1.9585	-12.528228	0.000311	3.112054	0.527196	0.000031
 199	1.9701e+01	1.9640	-12.484235	0.000442	4.422393	0.749174	0.000044
 200	1.9800e+01	1.9743	-12.447981	0.000364	3.644379	0.617375	0.000036
 201	1.9900e+01	1.9859	-12.412542	0.000356	3.562483	0.603501	0.000036
 202	2.0000e+01	1.9947	-12.374252	0.000385	3.849119	0.652058	0.000038
 203	2.0099e+01	2.0041	-12.336369	0.000381	3.808171	0.645122	0.000038
 204	2.0198e+01	2.0180	-12.295635	0.000409	4.094808	0.693679	0.000041
 205	2.0298e+01	2.0255	-12.254901	0.000409	4.094808	0.693679	0.000041
 206	2.0398e+01	2.0364	-12.219055	0.000360	3.603431	0.610438	0.000036
 207	2.0497e+01	2.0449	-12.174247	0.000450	4.504289	0.763047	0.000045
 208	2.0596e+01	2.0552	-12.137586	0.000369	3.685327	0.624311	0.000037
 209	2.0696e+01	2.0672	-12.096852	0.000409	4.094808	0.693679	0.000041
 210	2.0796e+01	2.0737	-12.059784	0.000373	3.726275	0.631248	0.000037
 211	2.0895e+01	2.0876	-12.014976	0.000450	4.504289	0.763047	0.000045
 212	2.0994e+01	2.0950	-11.978315	0.000369	3.685327	0.624311	0.000037
 213	2.1094e+01	2.1050	-11.932693	0.000459	4.586185	0.776921	0.000046
 214	2.1194e+01	2.1151	-11.898883	0.000340	3.398691	0.575754	0.000034
 215	2.1293e+01	2.1240	-11.858149	0.000409	4.094808	0.693679	0.000041
 216	2.1392e+01	2.1377	-11.819859	0.000385	3.849119	0.652058	0.000038
 217	2.1492e+01	2.1484	-11.777088	0.000430	4.299548	0.728363	0.000043
 218	2.1591e+01	2.1555	-11.740020	0.000373	3.726275	0.631248	0.000037
 219	2.1691e+01	2.1658	-11.700507	0.000397	3.971964	0.672869	0.000040
 220	2.1791e+01	2.1725	-11.659366	0.000414	4.135756	0.700616	0.000041
 221	2.1890e+01	2.1851	-11.620668	0.000389	3.890068	0.658995	0.000039
 222	2.1989e+01	2.1909	-11.580341	0.000405	4.053860	0.686742	0.000041
 223	2.2089e+01	2.2050	-11.538385	0.000422	4.217652	0.714490	0.000042
 224	2.2189e+01	2.2158	-11.498873	0.000397	3.971964	0.672869	0.000040
 225	2.2288e+01	2.2235	-11.460583	0.000385	3.849119	0.652058	0.000038
 226	2.2387e+01	2.2357	-11.419441	0.000414	4.135756	0.700616	0.000041
 227	2.2487e+01	2.2447	-11.377077	0.000426	4.258600	0.721426	0.000043
 228	2.2587e+01	2.2524	-11.337565	0.000397	3.971964	0.672869	0.000040
 229	2.2686e+01	2.2632	-11.299682	0.000381	3.808171	0.645122	0.000038
 230	2.2785e+01	2.2739	-11.258133	0.000418	4.176704	0.707553	0.000042
 231	2.2885e+01	2.2846	-11.214955	0.000434	4.340496	0.735300	0.000043
 232	2.2985e+01	2.2958	-11.178702	0.000364	3.644379	0.617375	0.000036
 233	2.3084e+01	2.3038	-11.141226	0.000377	3.767223	0.638185	0.000038
 234	2.3183e+01	2.3128	-11.098455	0.000430	4.299548	0.728363	0.000043
 235	2.3283e+01	2.3243	-11.056906	0.000418	4.176704	0.707553	0.000042
 236	2.3383e+01	2.3347	-11.019023	0.000381	3.808171	0.645122	0.000038
 237	2.3482e+01	2.3447	-10.981141	0.000381	3.808171	0.645122	0.000038
 238	2.3581e+01	2.3548	-10.937148	0.000442	4.422393	0.749174	0.000044
 239	2.3681e+01	2.3651	-10.898450	0.000389	3.890068	0.658995	0.000039
 240	2.3780e+01	2.3748	-10.852420	0.000463	4.627133	0.783858	0.000046
 241	2.3880e+01	2.3856	-10.812908	0.000397	3.971964	0.672869	0.000040
 242	2.3980e+01	2.3956	-10.778284	0.000348	3.480587	0.589627	0.000035
 243	2.4079e+01	2.4036	-10.734291	0.000442	4.422393	0.749174	0.000044
 244	2.4178e+01	2.4135	-10.693964	0.000405	4.053860	0.686742	0.000041
 245	2.4278e+01	2.4232	-10.656488	0.000377	3.767223	0.638185	0.000038
 246	2.4378e+01	2.4339	-10.614125	0.000426	4.258600	0.721426	0.000043
 247	2.4477e+01	2.4450	-10.575835	0.000385	3.849119	0.652058	0.000038
 248	2.4576e+01	2.4554	-10.534693	0.000414	4.135756	0.700616	0.000041
 249	2.4676e+01	2.4645	-10.498847	0.000360	3.603431	0.610438	0.000036
 250	2.4776e+01	2.4712	-10.455669	0.000434	4.340496	0.735300	0.000043
 251	2.4875e+01	2.4833	-10.413305	0.000426	4.258600	0.721426	0.000043
 252	2.4974e+01	2.4922	-10.366053	0.000475	4.749977	0.804668	0.000047
 253	2.5074e+01	2.5040	-10.324912	0.000414	4.135756	0.700616	0.000041
 254	2.5174e+01	2.5128	-10.287436	0.000377	3.767223	0.638185	0.000038
 255	2.5273e+01	2.5219	-10.246295	0.000414	4.135756	0.700616	0.000041
 256	2.5372e+01	2.5354	-10.202302	0.000442	4.422393	0.749174	0.000044
 257	2.5472e+01	2.5459	-10.161567	0.000409	4.094808	0.693679	0.000041
 258	2.5572e+01	2.5517	-10.119611	0.000422	4.217652	0.714490	0.000042
 259	2.5671e+01	2.5618	-10.078469	0.000414	4.135756	0.700616	0.000041
 260	2.5770e+01	2.5708	-10.040587	0.000381	3.808171	0.645122	0.000038
 261	2.5870e+01	2.5816	-9.997816	0.000430	4.299548	0.728363	0.000043
 262	2.5970e+01	2.5930	-9.954230	0.000438	4.381445	0.742237	0.000044
 263	2.6069e+01	2.6006	-9.913903	0.000405	4.053860	0.686742	0.000041
 264	2.6169e+01	2.6122	-9.871947	0.000422	4.217652	0.714490	0.000042
 265	2.6268e+01	2.6229	-9.829176	0.000430	4.299548	0.728363	0.000043
 266	2.6367e+01	2.6315	-9.787627	0.000418	4.176704	0.707553	0.000042
 267	2.6467e+01	2.6427	-9.746485	0.000414	4.135756	0.700616	0.000041
 268	2.6567e+01	2.6518	-9.702085	0.000446	4.463341	0.756110	0.000045
 269	2.6666e+01	2.6640	-9.657277	0.000450	4.504289	0.763047	0.000045
 270	2.6765e+01	2.6707	-9.618580	0.000389	3.890068	0.658995	0.000039
 271	2.6865e+01	2.6820	-9.577438	0.000414	4.135756	0.700616	0.000041
 272	2.6965e+01	2.6948	-9.535482	0.000422	4.217652	0.714490	0.000042
 273	2.7064e+01	2.7026	-9.495155	0.000405	4.053860	0.686742	0.000041
 274	2.7163e+01	2.7119	-9.457272	0.000381	3.808171	0.645122	0.000038
 275	2.7263e+01	2.7224	-9.414094	0.000434	4.340496	0.735300	0.000043
 276	2.7363e+01	2.7319	-9.377840	0.000364	3.644379	0.617375	0.000036
 277	2.7462e+01	2.7396	-9.334662	0.000434	4.340496	0.735300	0.000043
 278	2.7561e+01	2.7506	-9.293520	0.000414	4.135756	0.700616	0.000041
 279	2.7661e+01	2.7647	-9.253601	0.000401	4.012912	0.679806	0.000040
 280	2.7761e+01	2.7726	-9.215311	0.000385	3.849119	0.652058	0.000038
 281	2.7860e+01	2.7814	-9.172540	0.000430	4.299548	0.728363	0.000043
 282	2.7959e+01	2.7927	-9.134657	0.000381	3.808171	0.645122	0.000038
 283	2.8059e+01	2.8019	-9.092293	0.000426	4.258600	0.721426	0.000043
 284	2.8159e+01	2.8149	-9.053596	0.000389	3.890068	0.658995	0.000039
 285	2.8258e+01	2.8193	-9.013269	0.000405	4.053860	0.686742	0.000041
 286	2.8358e+01	2.8320	-8.975793	0.000377	3.767223	0.638185	0.000038
 287	2.8457e+01	2.8387	-8.941169	0.000348	3.480587	0.589627	0.000035
 288	2.8556e+01	2.8516	-8.900842	0.000405	4.053860	0.686742	0.000041
 289	2.8656e+01	2.8619	-8.861330	0.000397	3.971964	0.672869	0.000040
 290	2.8756e+01	2.8713	-8.828335	0.000332	3.316794	0.561880	0.000033
 291	2.8855e+01	2.8811	-8.790045	0.000385	3.849119	0.652058	0.000038
 292	2.8954e+01	2.8912	-8.752977	0.000373	3.726275	0.631248	0.000037
 293	2.9054e+01	2.9026	-8.714687	0.000385	3.849119	0.652058	0.000038
 294	2.9154e+01	2.9091	-8.675989	0.000389	3.890068	0.658995	0.000039
 295	2.9253e+01	2.9203	-8.639328	0.000369	3.685327	0.624311	0.000037
 296	2.9352e+01	2.9305	-8.599001	0.000405	4.053860	0.686742	0.000041
 297	2.9452e+01	2.9415	-8.565192	0.000340	3.398691	0.575754	0.000034
 298	2.9552e+01	2.9522	-8.528124	0.000373	3.726275	0.631248	0.000037
 299	2.9651e+01	2.9620	-8.489833	0.000385	3.849119	0.652058	0.000038
 300	2.9750e+01	2.9720	-8.452765	0.000373	3.726275	0.631248	0.000037
 301	2.9850e+01	2.9814	-8.417326	0.000356	3.562483	0.603501	0.000036
 302	2.9950e+01	2.9897	-8.381073	0.000364	3.644379	0.617375	0.000036
 303	3.0049e+01	3.0012	-8.342375	0.000389	3.890068	0.658995	0.000039
 304	3.0148e+01	3.0116	-8.309788	0.000328	3.275846	0.554943	0.000033
 305	3.0248e+01	3.0218	-8.271498	0.000385	3.849119	0.652058	0.000038
 306	3.0348e+01	3.0319	-8.236874	0.000348	3.480587	0.589627	0.000035
 307	3.0447e+01	3.0416	-8.200620	0.000364	3.644379	0.617375	0.000036
 308	3.0547e+01	3.0502	-8.168848	0.000319	3.193950	0.541070	0.000032
 309	3.0646e+01	3.0610	-8.131779	0.000373	3.726275	0.631248	0.000037
 310	3.0745e+01	3.0720	-8.099192	0.000328	3.275846	0.554943	0.000033
 311	3.0845e+01	3.0825	-8.061309	0.000381	3.808171	0.645122	0.000038
 312	3.0945e+01	3.0895	-8.027500	0.000340	3.398691	0.575754	0.000034
 313	3.1044e+01	3.0994	-7.989209	0.000385	3.849119	0.652058	0.000038
 314	3.1143e+01	3.1083	-7.954178	0.000352	3.521535	0.596564	0.000035
 315	3.1243e+01	3.1190	-7.922405	0.000319	3.193950	0.541070	0.000032
 316	3.1343e+01	3.1332	-7.883708	0.000389	3.890068	0.658995	0.000039
 317	3.1442e+01	3.1411	-7.847454	0.000364	3.644379	0.617375	0.000036
 318	3.1541e+01	3.1496	-7.813237	0.000344	3.439639	0.582691	0.000034
 319	3.1641e+01	3.1609	-7.780243	0.000332	3.316794	0.561880	0.000033
 320	3.1741e+01	3.1689	-7.742360	0.000381	3.808171	0.645122	0.000038
 321	3.1840e+01	3.1800	-7.709772	0.000328	3.275846	0.554943	0.000033
 322	3.1939e+01	3.1892	-7.677185	0.000328	3.275846	0.554943	0.000033
 323	3.2039e+01	3.1983	-7.640932	0.000364	3.644379	0.617375	0.000036
 324	3.2139e+01	3.2088	-7.604678	0.000364	3.644379	0.617375	0.000036
 325	3.2238e+01	3.2214	-7.574942	0.000299	2.989210	0.506386	0.000030
 326	3.2337e+01	3.2311	-7.539911	0.000352	3.521535	0.596564	0.000035
 327	3.2437e+01	3.2381	-7.504879	0.000352	3.521535	0.596564	0.000035
 328	3.2536e+01	3.2479	-7.471477	0.000336	3.357743	0.568817	0.000034
 329	3.2636e+01	3.2574	-7.434816	0.000369	3.685327	0.624311	0.000037
 330	3.2736e+01	3.2670	-7.403044	0.000319	3.193950	0.541070	0.000032
 331	3.2835e+01	3.2787	-7.363939	0.000393	3.931016	0.665932	0.000039
 332	3.2934e+01	3.2907	-7.333388	0.000307	3.071106	0.520259	0.000031
 333	3.3034e+01	3.2966	-7.294283	0.000393	3.931016	0.665932	0.000039
 334	3.3133e+01	3.3102	-7.262918	0.000315	3.153002	0.534133	0.000032
 335	3.3233e+01	3.3192	-7.229923	0.000332	3.316794	0.561880	0.000033
 336	3.3333e+01	3.3302	-7.198150	0.000319	3.193950	0.541070	0.000032
 337	3.3432e+01	3.3415	-7.169636	0.000287	2.866366	0.485575	0.000029
 338	3.3532e+01	3.3494	-7.135827	0.000340	3.398691	0.575754	0.000034
 339	3.3631e+01	3.3570	-7.104461	0.000315	3.153002	0.534133	0.000032
 340	3.3730e+01	3.3671	-7.074725	0.000299	2.989210	0.506386	0.000030
 341	3.3830e+01	3.3772	-7.038879	0.000360	3.603431	0.610438	0.000036
 342	3.3929e+01	3.3909	-7.007921	0.000311	3.112054	0.527196	0.000031
 343	3.4029e+01	3.3997	-6.970446	0.000377	3.767223	0.638185	0.000038
 344	3.4129e+01	3.4109	-6.935414	0.000352	3.521535	0.596564	0.000035
 345	3.4228e+01	3.4180	-6.909344	0.000262	2.620677	0.443955	0.000026
 346	3.4328e+01	3.4330	-6.875535	0.000340	3.398691	0.575754	0.000034
 347	3.4427e+01	3.4383	-6.842133	0.000336	3.357743	0.568817	0.000034
 348	3.4526e+01	3.4493	-6.807916	0.000344	3.439639	0.582691	0.000034
 349	3.4626e+01	3.4568	-6.779809	0.000283	2.825418	0.478639	0.000028
 350	3.4725e+01	3.4699	-6.748851	0.000311	3.112054	0.527196	0.000031
 351	3.4825e+01	3.4779	-6.717079	0.000319	3.193950	0.541070	0.000032
 352	3.4925e+01	3.4898	-6.690601	0.000266	2.661625	0.450892	0.000027
 353	3.5024e+01	3.4994	-6.654755	0.000360	3.603431	0.610438	0.000036
 354	3.5123e+01	3.5086	-6.627056	0.000278	2.784469	0.471702	0.000028
 355	3.5223e+01	3.5169	-6.596505	0.000307	3.071106	0.520259	0.000031
 356	3.5322e+01	3.5269	-6.557808	0.000389	3.890068	0.658995	0.000039
 357	3.5422e+01	3.5390	-6.528479	0.000295	2.948262	0.499449	0.000029
 358	3.5522e+01	3.5474	-6.497521	0.000311	3.112054	0.527196	0.000031
 359	3.5621e+01	3.5589	-6.464119	0.000336	3.357743	0.568817	0.000034
 360	3.5721e+01	3.5703	-6.431939	0.000323	3.234898	0.548007	0.000032
 361	3.5820e+01	3.5751	-6.398537	0.000336	3.357743	0.568817	0.000034
 362	3.5919e+01	3.5887	-6.366357	0.000323	3.234898	0.548007	0.000032
 363	3.6019e+01	3.5984	-6.336621	0.000299	2.989210	0.506386	0.000030
 364	3.6118e+01	3.6076	-6.299960	0.000369	3.685327	0.624311	0.000037
 365	3.6218e+01	3.6170	-6.273075	0.000270	2.702573	0.457828	0.000027
 366	3.6318e+01	3.6301	-6.241303	0.000319	3.193950	0.541070	0.000032
 367	3.6417e+01	3.6369	-6.209530	0.000319	3.193950	0.541070	0.000032
 368	3.6517e+01	3.6463	-6.171240	0.000385	3.849119	0.652058	0.000038
 369	3.6616e+01	3.6592	-6.137838	0.000336	3.357743	0.568817	0.000034
 370	3.6715e+01	3.6670	-6.108916	0.000291	2.907314	0.492512	0.000029
 371	3.6815e+01	3.6784	-6.073070	0.000360	3.603431	0.610438	0.000036
 372	3.6914e+01	3.6884	-6.038853	0.000344	3.439639	0.582691	0.000034
 373	3.7014e+01	3.6968	-6.004229	0.000348	3.480587	0.589627	0.000035
 374	3.7114e+01	3.7090	-5.965532	0.000389	3.890068	0.658995	0.000039
 375	3.7213e+01	3.7189	-5.931315	0.000344	3.439639	0.582691	0.000034
 376	3.7313e+01	3.7286	-5.900357	0.000311	3.112054	0.527196	0.000031
 377	3.7412e+01	3.7380	-5.868584	0.000319	3.193950	0.541070	0.000032
 378	3.7511e+01	3.7463	-5.830701	0.000381	3.808171	0.645122	0.000038
 379	3.7611e+01	3.7550	-5.791189	0.000397	3.971964	0.672869	0.000040
 380	3.7711e+01	3.7682	-5.759824	0.000315	3.153002	0.534133	0.000032
 381	3.7810e+01	3.7760	-5.723570	0.000364	3.644379	0.617375	0.000036
 382	3.7910e+01	3.7878	-5.690983	0.000328	3.275846	0.554943	0.000033
 383	3.8009e+01	3.7981	-5.653915	0.000373	3.726275	0.631248	0.000037
 384	3.8108e+01	3.8082	-5.616439	0.000377	3.767223	0.638185	0.000038
 385	3.8208e+01	3.8174	-5.583037	0.000336	3.357743	0.568817	0.000034
 386	3.8307e+01	3.8277	-5.548413	0.000348	3.480587	0.589627	0.000035
 387	3.8407e+01	3.8337	-5.514603	0.000340	3.398691	0.575754	0.000034
 388	3.8507e+01	3.8482	-5.476313	0.000385	3.849119	0.652058	0.000038
 389	3.8606e+01	3.8577	-5.440060	0.000364	3.644379	0.617375	0.000036
 390	3.8706e+01	3.8689	-5.405843	0.000344	3.439639	0.582691	0.000034
 391	3.8805e+01	3.8770	-5.369590	0.000364	3.644379	0.617375	0.000036
 392	3.8904e+01	3.8860	-5.334965	0.000348	3.480587	0.589627	0.000035
 393	3.9004e+01	3.8940	-5.295453	0.000397	3.971964	0.672869	0.000040
 394	3.9103e+01	3.9078	-5.264495	0.000311	3.112054	0.527196	0.000031
 395	3.9203e+01	3.9146	-5.228242	0.000364	3.644379	0.617375	0.000036
 396	3.9303e+01	3.9269	-5.190359	0.000381	3.808171	0.645122	0.000038
 397	3.9402e+01	3.9375	-5.155327	0.000352	3.521535	0.596564	0.000035
 398	3.9502e+01	3.9473	-5.118259	0.000373	3.726275	0.631248	0.000037
 399	3.9601e+01	3.9546	-5.085264	0.000332	3.316794	0.561880	0.000033
 400	3.9700e+01	3.9666	-5.048604	0.000369	3.685327	0.624311	0.000037
 401	3.9800e+01	3.9754	-5.014387	0.000344	3.439639	0.582691	0.000034
 402	3.9900e+01	3.9848	-4.978948	0.000356	3.562483	0.603501	0.000036
 403	3.9999e+01	3.9969	-4.939436	0.000397	3.971964	0.672869	0.000040
 404	4.0099e+01	4.0059	-4.904812	0.000348	3.480587	0.589627	0.000035
 405	4.0198e+01	4.0155	-4.873039	0.000319	3.193950	0.541070	0.000032
 406	4.0297e+01	4.0259	-4.833527	0.000397	3.971964	0.672869	0.000040
 407	4.0397e+01	4.0369	-4.799717	0.000340	3.398691	0.575754	0.000034
 408	4.0496e+01	4.0469	-4.763464	0.000364	3.644379	0.617375	0.000036
 409	4.0596e+01	4.0546	-4.725581	0.000381	3.808171	0.645122	0.000038
 410	4.0696e+01	4.0649	-4.692586	0.000332	3.316794	0.561880	0.000033
 411	4.0795e+01	4.0759	-4.655111	0.000377	3.767223	0.638185	0.000038
 412	4.0895e+01	4.0891	-4.622116	0.000332	3.316794	0.561880	0.000033
 413	4.0994e+01	4.0965	-4.581382	0.000409	4.094808	0.693679	0.000041
 414	4.1093e+01	4.1053	-4.547165	0.000344	3.439639	0.582691	0.000034
 415	4.1193e+01	4.1152	-4.512541	0.000348	3.480587	0.589627	0.000035
 416	4.1292e+01	4.1233	-4.476695	0.000360	3.603431	0.610438	0.000036
 417	4.1392e+01	4.1330	-4.443293	0.000336	3.357743	0.568817	0.000034
 418	4.1492e+01	4.1451	-4.402558	0.000409	4.094808	0.693679	0.000041
 419	4.1591e+01	4.1576	-4.367119	0.000356	3.562483	0.603501	0.000036
 420	4.1691e+01	4.1628	-4.327200	0.000401	4.012912	0.679806	0.000040
 421	4.1790e+01	4.1764	-4.288910	0.000385	3.849119	0.652058	0.000038
 422	4.1889e+01	4.1810	-4.254693	0.000344	3.439639	0.582691	0.000034
 423	4.1989e+01	4.1946	-4.216403	0.000385	3.849119	0.652058	0.000038
 424	4.2089e+01	4.2040	-4.175668	0.000409	4.094808	0.693679	0.000041
 425	4.2188e+01	4.2150	-4.136971	0.000389	3.890068	0.658995	0.000039
 426	4.2288e+01	4.2239	-4.102347	0.000348	3.480587	0.589627	0.000035
 427	4.2387e+01	4.2316	-4.065279	0.000373	3.726275	0.631248	0.000037
 428	4.2486e+01	4.2409	-4.031877	0.000336	3.357743	0.568817	0.000034
 429	4.2586e+01	4.2529	-3.993586	0.000385	3.849119	0.652058	0.000038
 430	4.2685e+01	4.2645	-3.952852	0.000409	4.094808	0.693679	0.000041
 431	4.2785e+01	4.2748	-3.919450	0.000336	3.357743	0.568817	0.000034
 432	4.2885e+01	4.2835	-3.878716	0.000409	4.094808	0.693679	0.000041
 433	4.2984e+01	4.2954	-3.842462	0.000364	3.644379	0.617375	0.000036
 434	4.3084e+01	4.3039	-3.801728	0.000409	4.094808	0.693679	0.000041
 435	4.3183e+01	4.3147	-3.762623	0.000393	3.931016	0.665932	0.000039
 436	4.3282e+01	4.3272	-3.724740	0.000381	3.808171	0.645122	0.000038
 437	4.3382e+01	4.3355	-3.687672	0.000373	3.726275	0.631248	0.000037
 438	4.3481e+01	4.3430	-3.647753	0.000401	4.012912	0.679806	0.000040
 439	4.3581e+01	4.3526	-3.613128	0.000348	3.480587	0.589627	0.000035
 440	4.3681e+01	4.3662	-3.578504	0.000348	3.480587	0.589627	0.000035
 441	4.3780e+01	4.3737	-3.542251	0.000364	3.644379	0.617375	0.000036
 442	4.3880e+01	4.3862	-3.506812	0.000356	3.562483	0.603501	0.000036
 443	4.3979e+01	4.3943	-3.469744	0.000373	3.726275	0.631248	0.000037
 444	4.4078e+01	4.4025	-3.435527	0.000344	3.439639	0.582691	0.000034
 445	4.4178e+01	4.4151	-3.399274	0.000364	3.644379	0.617375	0.000036
 446	4.4278e+01	4.4212	-3.364242	0.000352	3.521535	0.596564	0.000035
 447	4.4377e+01	4.4306	-3.327989	0.000364	3.644379	0.617375	0.000036
 448	4.4477e+01	4.4455	-3.292143	0.000360	3.603431	0.610438	0.000036
 449	4.4576e+01	4.4551	-3.256296	0.000360	3.603431	0.610438	0.000036
 450	4.4675e+01	4.4624	-3.220858	0.000356	3.562483	0.603501	0.000036
 451	4.4775e+01	4.4738	-3.181345	0.000397	3.971964	0.672869	0.000040
 452	4.4874e+01	4.4823	-3.149165	0.000323	3.234898	0.548007	0.000032
 453	4.4974e+01	4.4935	-3.116171	0.000332	3.316794	0.561880	0.000033
 454	4.5074e+01	4.5027	-3.079510	0.000369	3.685327	0.624311	0.000037
 455	4.5173e+01	4.5138	-3.048144	0.000315	3.153002	0.534133	0.000032
 456	4.5273e+01	4.5226	-3.013520	0.000348	3.480587	0.589627	0.000035
 457	4.5372e+01	4.5325	-2.979711	0.000340	3.398691	0.575754	0.000034
 458	4.5471e+01	4.5425	-2.948345	0.000315	3.153002	0.534133	0.000032
 459	4.5571e+01	4.5524	-2.914536	0.000340	3.398691	0.575754	0.000034
 460	4.5670e+01	4.5670	-2.879504	0.000352	3.521535	0.596564	0.000035
 461	4.5770e+01	4.5730	-2.846510	0.000332	3.316794	0.561880	0.000033
 462	4.5870e+01	4.5844	-2.811071	0.000356	3.562483	0.603501	0.000036
 463	4.5969e+01	4.5921	-2.778076	0.000332	3.316794	0.561880	0.000033
 464	4.6069e+01	4.6015	-2.745081	0.000332	3.316794	0.561880	0.000033
 465	4.6168e+01	4.6137	-2.713716	0.000315	3.153002	0.534133	0.000032
 466	4.6267e+01	4.6201	-2.678685	0.000352	3.521535	0.596564	0.000035
 467	4.6367e+01	4.6291	-2.648541	0.000303	3.030158	0.513323	0.000030
 468	4.6467e+01	4.6436	-2.615954	0.000328	3.275846	0.554943	0.000033
 469	4.6566e+01	4.6537	-2.583366	0.000328	3.275846	0.554943	0.000033
 470	4.6666e+01	4.6621	-2.550372	0.000332	3.316794	0.561880	0.000033
 471	4.6765e+01	4.6732	-2.517784	0.000328	3.275846	0.554943	0.000033
 472	4.6864e+01	4.6799	-2.485604	0.000323	3.234898	0.548007	0.000032
 473	4.6964e+01	4.6933	-2.456276	0.000295	2.948262	0.499449	0.000029
 474	4.7063e+01	4.7015	-2.423688	0.000328	3.275846	0.554943	0.000033
 475	4.7163e+01	4.7112	-2.391101	0.000328	3.275846	0.554943	0.000033
 476	4.7263e+01	4.7210	-2.358106	0.000332	3.316794	0.561880	0.000033
 477	4.7362e+01	4.7308	-2.329999	0.000283	2.825418	0.478639	0.000028
 478	4.7462e+01	4.7419	-2.297819	0.000323	3.234898	0.548007	0.000032
 479	4.7561e+01	4.7546	-2.266047	0.000319	3.193950	0.541070	0.000032
 480	4.7660e+01	4.7657	-2.234274	0.000319	3.193950	0.541070	0.000032
 481	4.7760e+01	4.7704	-2.204945	0.000295	2.948262	0.499449	0.000029
 482	4.7859e+01	4.7800	-2.172358	0.000328	3.275846	0.554943	0.000033
 483	4.7959e+01	4.7916	-2.137326	0.000352	3.521535	0.596564	0.000035
 484	4.8059e+01	4.8011	-2.105961	0.000315	3.153002	0.534133	0.000032
 485	4.8158e+01	4.8129	-2.076632	0.000295	2.948262	0.499449	0.000029
 486	4.8258e+01	4.8229	-2.045267	0.000315	3.153002	0.534133	0.000032
 487	4.8357e+01	4.8299	-2.015124	0.000303	3.030158	0.513323	0.000030
 488	4.8456e+01	4.8431	-1.983758	0.000315	3.153002	0.534133	0.000032
 489	4.8556e+01	4.8512	-1.955652	0.000283	2.825418	0.478639	0.000028
 490	4.8656e+01	4.8609	-1.924694	0.000311	3.112054	0.527196	0.000031
 491	4.8755e+01	4.8717	-1.895365	0.000295	2.948262	0.499449	0.000029
 492	4.8855e+01	4.8821	-1.864814	0.000307	3.071106	0.520259	0.000031
 493	4.8954e+01	4.8916	-1.833856	0.000311	3.112054	0.527196	0.000031
 494	4.9053e+01	4.9008	-1.804120	0.000299	2.989210	0.506386	0.000030
 495	4.9153e+01	4.9168	-1.770311	0.000340	3.398691	0.575754	0.000034
 496	4.9252e+01	4.9209	-1.741797	0.000287	2.866366	0.485575	0.000029
 497	4.9352e+01	4.9319	-1.712875	0.000291	2.907314	0.492512	0.000029
 498	4.9452e+01	4.9392	-1.679881	0.000332	3.316794	0.561880	0.000033
 499	4.9551e+01	4.9535	-1.646479	0.000336	3.357743	0.568817	0.000034
 500	4.9651e+01	4.9610	-1.618372	0.000283	2.825418	0.478639	0.000028
 501	4.9750e+01	4.9696	-1.585785	0.000328	3.275846	0.554943	0.000033
 502	4.9849e+01	4.9810	-1.559307	0.000266	2.661625	0.450892	0.000027
 503	4.9949e+01	4.9908	-1.530386	0.000291	2.907314	0.492512	0.000029
 504	5.0048e+01	4.9996	-1.505538	0.000250	2.497833	0.423144	0.000025
 505	5.0148e+01	5.0103	-1.474173	0.000315	3.153002	0.534133	0.000032
 506	5.0248e+01	5.0223	-1.448917	0.000254	2.538781	0.430081	0.000025
 507	5.0347e+01	5.0323	-1.417959	0.000311	3.112054	0.527196	0.000031
 508	5.0447e+01	5.0391	-1.389445	0.000287	2.866366	0.485575	0.000029
 509	5.0546e+01	5.0493	-1.359709	0.000299	2.989210	0.506386	0.000030
 510	5.0645e+01	5.0611	-1.332825	0.000270	2.702573	0.457828	0.000027
 511	5.0745e+01	5.0684	-1.300237	0.000328	3.275846	0.554943	0.000033
 512	5.0844e+01	5.0799	-1.273760	0.000266	2.661625	0.450892	0.000027
 513	5.0944e+01	5.0907	-1.241580	0.000323	3.234898	0.548007	0.000032
 514	5.1044e+01	5.1005	-1.216732	0.000250	2.497833	0.423144	0.000025
 515	5.1143e+01	5.1109	-1.188626	0.000283	2.825418	0.478639	0.000028
 516	5.1242e+01	5.1212	-1.161334	0.000274	2.743521	0.464765	0.000027
 517	5.1342e+01	5.1296	-1.135264	0.000262	2.620677	0.443955	0.000026
 518	5.1441e+01	5.1443	-1.107157	0.000283	2.825418	0.478639	0.000028
 519	5.1541e+01	5.1510	-1.076606	0.000307	3.071106	0.520259	0.000031
 520	5.1641e+01	5.1594	-1.050944	0.000258	2.579729	0.437018	0.000026
 521	5.1740e+01	5.1723	-1.021615	0.000295	2.948262	0.499449	0.000029
 522	5.1840e+01	5.1762	-0.997582	0.000242	2.415937	0.409271	0.000024
 523	5.1939e+01	5.1888	-0.967846	0.000299	2.989210	0.506386	0.000030
 524	5.2038e+01	5.2000	-0.939739	0.000283	2.825418	0.478639	0.000028
 525	5.2138e+01	5.2103	-0.911633	0.000283	2.825418	0.478639	0.000028
 526	5.2237e+01	5.2209	-0.879453	0.000323	3.234898	0.548007	0.000032
 527	5.2337e+01	5.2285	-0.853383	0.000262	2.620677	0.443955	0.000026
 528	5.2437e+01	5.2404	-0.822017	0.000315	3.153002	0.534133	0.000032
 529	5.2536e+01	5.2490	-0.793503	0.000287	2.866366	0.485575	0.000029
 530	5.2636e+01	5.2588	-0.768248	0.000254	2.538781	0.430081	0.000025
 531	5.2735e+01	5.2688	-0.736883	0.000315	3.153002	0.534133	0.000032
 532	5.2834e+01	5.2792	-0.713664	0.000233	2.334041	0.395397	0.000023
 533	5.2934e+01	5.2888	-0.681484	0.000323	3.234898	0.548007	0.000032
 534	5.3033e+01	5.2973	-0.651341	0.000303	3.030158	0.513323	0.000030
 535	5.3133e+01	5.3081	-0.621197	0.000303	3.030158	0.513323	0.000030
 536	5.3233e+01	5.3188	-0.593091	0.000283	2.825418	0.478639	0.000028
 537	5.3332e+01	5.3288	-0.562133	0.000311	3.112054	0.527196	0.000031
 538	5.3431e+01	5.3378	-0.534841	0.000274	2.743521	0.464765	0.000027
 539	5.3531e+01	5.3545	-0.503475	0.000315	3.153002	0.534133	0.000032
 540	5.3630e+01	5.3573	-0.470888	0.000328	3.275846	0.554943	0.000033
 541	5.3730e+01	5.3686	-0.436671	0.000344	3.439639	0.582691	0.000034
 542	5.3830e+01	5.3798	-0.404491	0.000323	3.234898	0.548007	0.000032
 543	5.3929e+01	5.3873	-0.373126	0.000315	3.153002	0.534133	0.000032
 544	5.4029e+01	5.3991	-0.344612	0.000287	2.866366	0.485575	0.000029
 545	5.4128e+01	5.4075	-0.314468	0.000303	3.030158	0.513323	0.000030
 546	5.4227e+01	5.4202	-0.283510	0.000311	3.112054	0.527196	0.000031
 547	5.4327e+01	5.4287	-0.249294	0.000344	3.439639	0.582691	0.000034
 548	5.4426e+01	5.4372	-0.217928	0.000315	3.153002	0.534133	0.000032
 549	5.4526e+01	5.4476	-0.185341	0.000328	3.275846	0.554943	0.000033
 550	5.4626e+01	5.4581	-0.151939	0.000336	3.357743	0.568817	0.000034
 551	5.4725e+01	5.4688	-0.121388	0.000307	3.071106	0.520259	0.000031
 552	5.4825e+01	5.4772	-0.089615	0.000319	3.193950	0.541070	0.000032
 553	5.4924e+01	5.4864	-0.057435	0.000323	3.234898	0.548007	0.000032
 554	5.5023e+01	5.4983	-0.025255	0.000323	3.234898	0.548007	0.000032
 555	5.5123e+01	5.5074	0.005295	0.000307	3.071106	0.520259	0.000031
 556	5.5222e+01	5.5171	0.037068	0.000319	3.193950	0.541070	0.000032
 557	5.5322e+01	5.5282	0.070470	0.000336	3.357743	0.568817	0.000034
 558	5.5422e+01	5.5398	0.103465	0.000332	3.316794	0.561880	0.000033
 559	5.5521e+01	5.5489	0.136867	0.000336	3.357743	0.568817	0.000034
 560	5.5620e+01	5.5553	0.169047	0.000323	3.234898	0.548007	0.000032
 561	5.5720e+01	5.5666	0.204486	0.000356	3.562483	0.603501	0.000036
 562	5.5819e+01	5.5817	0.235851	0.000315	3.153002	0.534133	0.000032
 563	5.5919e+01	5.5878	0.265995	0.000303	3.030158	0.513323	0.000030
 564	5.6019e+01	5.5976	0.300211	0.000344	3.439639	0.582691	0.000034
 565	5.6118e+01	5.6104	0.330762	0.000307	3.071106	0.520259	0.000031
 566	5.6218e+01	5.6165	0.362128	0.000315	3.153002	0.534133	0.000032
 567	5.6317e+01	5.6277	0.395530	0.000336	3.357743	0.568817	0.000034
 568	5.6416e+01	5.6374	0.424044	0.000287	2.866366	0.485575	0.000029
 569	5.6516e+01	5.6494	0.457446	0.000336	3.357743	0.568817	0.000034
 570	5.6615e+01	5.6568	0.490033	0.000328	3.275846	0.554943	0.000033
 571	5.6715e+01	5.6683	0.527101	0.000373	3.726275	0.631248	0.000037
 572	5.6815e+01	5.6782	0.558059	0.000311	3.112054	0.527196	0.000031
 573	5.6914e+01	5.6873	0.589832	0.000319	3.193950	0.541070	0.000032
 574	5.7014e+01	5.7009	0.624049	0.000344	3.439639	0.582691	0.000034
 575	5.7113e+01	5.7070	0.659080	0.000352	3.521535	0.596564	0.000035
 576	5.7212e+01	5.7178	0.691260	0.000323	3.234898	0.548007	0.000032
 577	5.7312e+01	5.7262	0.724255	0.000332	3.316794	0.561880	0.000033
 578	5.7411e+01	5.7373	0.754806	0.000307	3.071106	0.520259	0.000031
 579	5.7511e+01	5.7500	0.788208	0.000336	3.357743	0.568817	0.000034
 580	5.7611e+01	5.7603	0.816722	0.000287	2.866366	0.485575	0.000029
 581	5.7710e+01	5.7659	0.852568	0.000360	3.603431	0.610438	0.000036
 582	5.7809e+01	5.7773	0.885563	0.000332	3.316794	0.561880	0.000033
 583	5.7909e+01	5.7887	0.918150	0.000328	3.275846	0.554943	0.000033
 584	5.8008e+01	5.7967	0.948701	0.000307	3.071106	0.520259	0.000031
 585	5.8108e+01	5.8031	0.980474	0.000319	3.193950	0.541070	0.000032
 586	5.8208e+01	5.8182	1.014690	0.000344	3.439639	0.582691	0.000034
 587	5.8307e+01	5.8291	1.050536	0.000360	3.603431	0.610438	0.000036
 588	5.8407e+01	5.8373	1.087605	0.000373	3.726275	0.631248	0.000037
 589	5.8506e+01	5.8474	1.123451	0.000360	3.603431	0.610438	0.000036
 590	5.8605e+01	5.8547	1.157260	0.000340	3.398691	0.575754	0.000034
 591	5.8705e+01	5.8646	1.193921	0.000369	3.685327	0.624311	0.000037
 592	5.8804e+01	5.8749	1.228138	0.000344	3.439639	0.582691	0.000034
 593	5.8904e+01	5.8862	1.260318	0.000323	3.234898	0.548007	0.000032
 594	5.9004e+01	5.8964	1.293313	0.000332	3.316794	0.561880	0.000033
 595	5.9103e+01	5.9055	1.328751	0.000356	3.562483	0.603501	0.000036
 596	5.9203e+01	5.9179	1.362561	0.000340	3.398691	0.575754	0.000034
 597	5.9302e+01	5.9249	1.395556	0.000332	3.316794	0.561880	0.000033
 598	5.9401e+01	5.9339	1.430587	0.000352	3.521535	0.596564	0.000035
 599	5.9501e+01	5.9478	1.464804	0.000344	3.439639	0.582691	0.000034
 600	5.9600e+01	5.9544	1.500243	0.000356	3.562483	0.603501	0.000036
 601	5.9700e+01	5.9670	1.533645	0.000336	3.357743	0.568817	0.000034
 602	5.9800e+01	5.9768	1.572342	0.000389	3.890068	0.658995	0.000039
 603	5.9899e+01	5.9859	1.605337	0.000332	3.316794	0.561880	0.000033
 604	5.9998e+01	5.9972	1.640776	0.000356	3.562483	0.603501	0.000036
 605	6.0098e+01	6.0047	1.677844	0.000373	3.726275	0.631248	0.000037
 606	6.0197e+01	6.0149	1.711246	0.000336	3.357743	0.568817	0.000034
 607	6.0297e+01	6.0265	1.744241	0.000332	3.316794	0.561880	0.000033
 608	6.0397e+01	6.0368	1.779272	0.000352	3.521535	0.596564	0.000035
 609	6.0496e+01	6.0470	1.809008	0.000299	2.989210	0.506386	0.000030
 610	6.0596e+01	6.0555	1.849335	0.000405	4.053860	0.686742	0.000041
 611	6.0695e+01	6.0635	1.874183	0.000250	2.497833	0.423144	0.000025
 612	6.0794e+01	6.0755	1.907178	0.000332	3.316794	0.561880	0.000033
 613	6.0894e+01	6.0855	1.942209	0.000352	3.521535	0.596564	0.000035
 614	6.0993e+01	6.0932	1.977241	0.000352	3.521535	0.596564	0.000035
 615	6.1093e+01	6.1030	2.010643	0.000336	3.357743	0.568817	0.000034
 616	6.1193e+01	6.1160	2.044045	0.000336	3.357743	0.568817	0.000034
 617	6.1292e+01	6.1254	2.077854	0.000340	3.398691	0.575754	0.000034
 618	6.1392e+01	6.1343	2.111256	0.000336	3.357743	0.568817	0.000034
 619	6.1491e+01	6.1446	2.143029	0.000319	3.193950	0.541070	0.000032
 620	6.1590e+01	6.1565	2.177653	0.000348	3.480587	0.589627	0.000035
 621	6.1690e+01	6.1643	2.209833	0.000323	3.234898	0.548007	0.000032
 622	6.1789e+01	6.1753	2.240384	0.000307	3.071106	0.520259	0.000031
 623	6.1889e+01	6.1857	2.268898	0.000287	2.866366	0.485575	0.000029
 624	6.1989e+01	6.1951	2.300671	0.000319	3.193950	0.541070	0.000032
 625	6.2088e+01	6.2043	2.329999	0.000295	2.948262	0.499449	0.000029
 626	6.2188e+01	6.2107	2.364216	0.000344	3.439639	0.582691	0.000034
 627	6.2287e+01	6.2243	2.391915	0.000278	2.784469	0.471702	0.000028
 628	6.2386e+01	6.2336	2.421244	0.000295	2.948262	0.499449	0.000029
 629	6.2486e+01	6.2440	2.453832	0.000328	3.275846	0.554943	0.000033
 630	6.2586e+01	6.2528	2.481531	0.000278	2.784469	0.471702	0.000028
 631	6.2685e+01	6.2673	2.517377	0.000360	3.603431	0.610438	0.000036
 632	6.2785e+01	6.2756	2.547113	0.000299	2.989210	0.506386	0.000030
 633	6.2884e+01	6.2833	2.576442	0.000295	2.948262	0.499449	0.000029
 634	6.2983e+01	6.2951	2.604548	0.000283	2.825418	0.478639	0.000028
 635	6.3083e+01	6.3038	2.631026	0.000266	2.661625	0.450892	0.000027
 636	6.3182e+01	6.3184	2.665650	0.000348	3.480587	0.589627	0.000035
 637	6.3282e+01	6.3253	2.694571	0.000291	2.907314	0.492512	0.000029
 638	6.3382e+01	6.3341	2.723085	0.000287	2.866366	0.485575	0.000029
 639	6.3481e+01	6.3439	2.750784	0.000278	2.784469	0.471702	0.000028
 640	6.3581e+01	6.3531	2.787038	0.000364	3.644379	0.617375	0.000036
 641	6.3680e+01	6.3631	2.813922	0.000270	2.702573	0.457828	0.000027
 642	6.3779e+01	6.3750	2.843251	0.000295	2.948262	0.499449	0.000029
 643	6.3879e+01	6.3837	2.870543	0.000274	2.743521	0.464765	0.000027
 644	6.3978e+01	6.3949	2.895798	0.000254	2.538781	0.430081	0.000025
 645	6.4078e+01	6.4046	2.926349	0.000307	3.071106	0.520259	0.000031
 646	6.4177e+01	6.4126	2.953233	0.000270	2.702573	0.457828	0.000027
 647	6.4277e+01	6.4227	2.986636	0.000336	3.357743	0.568817	0.000034
 648	6.4376e+01	6.4336	3.013928	0.000274	2.743521	0.464765	0.000027
 649	6.4476e+01	6.4449	3.043664	0.000299	2.989210	0.506386	0.000030
 650	6.4576e+01	6.4554	3.072992	0.000295	2.948262	0.499449	0.000029
 651	6.4675e+01	6.4631	3.103136	0.000303	3.030158	0.513323	0.000030
 652	6.4775e+01	6.4739	3.129613	0.000266	2.661625	0.450892	0.000027
 653	6.4874e+01	6.4822	3.163422	0.000340	3.398691	0.575754	0.000034
 654	6.4974e+01	6.4967	3.193158	0.000299	2.989210	0.506386	0.000030
 655	6.5073e+01	6.5029	3.220043	0.000270	2.702573	0.457828	0.000027
 656	6.5172e+01	6.5116	3.246113	0.000262	2.620677	0.443955	0.000026
 657	6.5272e+01	6.5237	3.273405	0.000274	2.743521	0.464765	0.000027
 658	6.5371e+01	6.5343	3.300289	0.000270	2.702573	0.457828	0.000027
 659	6.5471e+01	6.5405	3.331247	0.000311	3.112054	0.527196	0.000031
 660	6.5570e+01	6.5516	3.360576	0.000295	2.948262	0.499449	0.000029
 661	6.5670e+01	6.5606	3.386239	0.000258	2.579729	0.437018	0.000026
 662	6.5769e+01	6.5704	3.420863	0.000348	3.480587	0.589627	0.000035
 663	6.5869e+01	6.5839	3.446525	0.000258	2.579729	0.437018	0.000026
 664	6.5969e+01	6.5936	3.475854	0.000295	2.948262	0.499449	0.000029
 665	6.6068e+01	6.6019	3.503146	0.000274	2.743521	0.464765	0.000027
 666	6.6168e+01	6.6103	3.532475	0.000295	2.948262	0.499449	0.000029
 667	6.6267e+01	6.6198	3.561396	0.000291	2.907314	0.492512	0.000029
 668	6.6367e+01	6.6335	3.587466	0.000262	2.620677	0.443955	0.000026
 669	6.6466e+01	6.6432	3.618017	0.000307	3.071106	0.520259	0.000031
 670	6.6566e+01	6.6505	3.642457	0.000246	2.456885	0.416208	0.000025
 671	6.6665e+01	6.6631	3.668934	0.000266	2.661625	0.450892	0.000027
 672	6.6764e+01	6.6719	3.698263	0.000295	2.948262	0.499449	0.000029
 673	6.6864e+01	6.6826	3.721482	0.000233	2.334041	0.395397	0.000023
 674	6.6963e+01	6.6936	3.745515	0.000242	2.415937	0.409271	0.000024
 675	6.7063e+01	6.7026	3.777695	0.000323	3.234898	0.548007	0.000032
 676	6.7162e+01	6.7120	3.799691	0.000221	2.211196	0.374587	0.000022
 677	6.7262e+01	6.7211	3.830649	0.000311	3.112054	0.527196	0.000031
 678	6.7362e+01	6.7334	3.854683	0.000242	2.415937	0.409271	0.000024
 679	6.7461e+01	6.7401	3.888492	0.000340	3.398691	0.575754	0.000034
 680	6.7561e+01	6.7532	3.910896	0.000225	2.252144	0.381524	0.000023
 681	6.7660e+01	6.7611	3.942669	0.000319	3.193950	0.541070	0.000032
 682	6.7760e+01	6.7706	3.966294	0.000237	2.374989	0.402334	0.000024
 683	6.7859e+01	6.7805	3.989513	0.000233	2.334041	0.395397	0.000023
 684	6.7959e+01	6.7892	4.015583	0.000262	2.620677	0.443955	0.000026
 685	6.8058e+01	6.7994	4.042467	0.000270	2.702573	0.457828	0.000027
 686	6.8157e+01	6.8116	4.066093	0.000237	2.374989	0.402334	0.000024
 687	6.8257e+01	6.8219	4.094607	0.000287	2.866366	0.485575	0.000029
 688	6.8356e+01	6.8310	4.117826	0.000233	2.334041	0.395397	0.000023
 689	6.8456e+01	6.8401	4.144710	0.000270	2.702573	0.457828	0.000027
 690	6.8555e+01	6.8491	4.173224	0.000287	2.866366	0.485575	0.000029
 691	6.8655e+01	6.8633	4.197258	0.000242	2.415937	0.409271	0.000024
 692	6.8754e+01	6.8697	4.225772	0.000287	2.866366	0.485575	0.000029
 693	6.8854e+01	6.8810	4.253471	0.000278	2.784469	0.471702	0.000028
 694	6.8954e+01	6.8881	4.283614	0.000303	3.030158	0.513323	0.000030
 695	6.9053e+01	6.9012	4.308462	0.000250	2.497833	0.423144	0.000025
 696	6.9153e+01	6.9094	4.335754	0.000274	2.743521	0.464765	0.000027
 697	6.9252e+01	6.9194	4.364268	0.000287	2.866366	0.485575	0.000029
 698	6.9352e+01	6.9308	4.387487	0.000233	2.334041	0.395397	0.000023
 699	6.9451e+01	6.9411	4.416001	0.000287	2.866366	0.485575	0.000029
 700	6.9550e+01	6.9496	4.442071	0.000262	2.620677	0.443955	0.000026
 701	6.9650e+01	6.9588	4.468548	0.000266	2.661625	0.450892	0.000027
 702	6.9749e+01	6.9738	4.499506	0.000311	3.112054	0.527196	0.000031
 703	6.9849e+01	6.9833	4.528427	0.000291	2.907314	0.492512	0.000029
 704	6.9948e+01	6.9891	4.553275	0.000250	2.497833	0.423144	0.000025
 705	7.0048e+01	7.0002	4.583826	0.000307	3.071106	0.520259	0.000031
 706	7.0147e+01	7.0113	4.617228	0.000336	3.357743	0.568817	0.000034
 707	7.0247e+01	7.0251	4.640854	0.000237	2.374989	0.402334	0.000024
 708	7.0347e+01	7.0276	4.672626	0.000319	3.193950	0.541070	0.000032
 709	7.0446e+01	7.0394	4.703584	0.000311	3.112054	0.527196	0.000031
 710	7.0546e+01	7.0496	4.732098	0.000287	2.866366	0.485575	0.000029
 711	7.0645e+01	7.0586	4.766315	0.000344	3.439639	0.582691	0.000034
 712	7.0745e+01	7.0685	4.793607	0.000274	2.743521	0.464765	0.000027
 713	7.0844e+01	7.0788	4.827009	0.000336	3.357743	0.568817	0.000034
 714	7.0944e+01	7.0936	4.853079	0.000262	2.620677	0.443955	0.000026
 715	7.1043e+01	7.1011	4.886889	0.000340	3.398691	0.575754	0.000034
 716	7.1142e+01	7.1105	4.915810	0.000291	2.907314	0.492512	0.000029
 717	7.1242e+01	7.1192	4.948805	0.000332	3.316794	0.561880	0.000033
 718	7.1341e+01	7.1316	4.978948	0.000303	3.030158	0.513323	0.000030
 719	7.1441e+01	7.1400	5.009091	0.000303	3.030158	0.513323	0.000030
 720	7.1540e+01	7.1480	5.036791	0.000278	2.784469	0.471702	0.000028
 721	7.1640e+01	7.1587	5.068971	0.000323	3.234898	0.548007	0.000032
 722	7.1740e+01	7.1700	5.100336	0.000315	3.153002	0.534133	0.000032
 723	7.1839e+01	7.1785	5.131294	0.000311	3.112054	0.527196	0.000031
 724	7.1939e+01	7.1902	5.164696	0.000336	3.357743	0.568817	0.000034
 725	7.2038e+01	7.1974	5.194840	0.000303	3.030158	0.513323	0.000030
 726	7.2138e+01	7.2106	5.226612	0.000319	3.193950	0.541070	0.000032
 727	7.2237e+01	7.2186	5.257978	0.000315	3.153002	0.534133	0.000032
 728	7.2337e+01	7.2293	5.286899	0.000291	2.907314	0.492512	0.000029
 729	7.2436e+01	7.2383	5.321523	0.000348	3.480587	0.589627	0.000035
 730	7.2535e+01	7.2485	5.354518	0.000332	3.316794	0.561880	0.000033
 731	7.2635e+01	7.2581	5.386698	0.000323	3.234898	0.548007	0.000032
 732	7.2734e+01	7.2653	5.414397	0.000278	2.784469	0.471702	0.000028
 733	7.2834e+01	7.2796	5.444948	0.000307	3.071106	0.520259	0.000031
 734	7.2933e+01	7.2867	5.477128	0.000323	3.234898	0.548007	0.000032
 735	7.3033e+01	7.2979	5.511752	0.000348	3.480587	0.589627	0.000035
 736	7.3132e+01	7.3077	5.539044	0.000274	2.743521	0.464765	0.000027
 737	7.3232e+01	7.3205	5.574075	0.000352	3.521535	0.596564	0.000035
 738	7.3332e+01	7.3257	5.602589	0.000287	2.866366	0.485575	0.000029
 739	7.3431e+01	7.3404	5.634362	0.000319	3.193950	0.541070	0.000032
 740	7.3531e+01	7.3489	5.671023	0.000369	3.685327	0.624311	0.000037
 741	7.3630e+01	7.3599	5.701166	0.000303	3.030158	0.513323	0.000030
 742	7.3730e+01	7.3672	5.735383	0.000344	3.439639	0.582691	0.000034
 743	7.3829e+01	7.3801	5.766341	0.000311	3.112054	0.527196	0.000031
 744	7.3928e+01	7.3869	5.800965	0.000348	3.480587	0.589627	0.000035
 745	7.4028e+01	7.3988	5.828665	0.000278	2.784469	0.471702	0.000028
 746	7.4127e+01	7.4078	5.861659	0.000332	3.316794	0.561880	0.000033
 747	7.4227e+01	7.4181	5.894247	0.000328	3.275846	0.554943	0.000033
 748	7.4326e+01	7.4275	5.926834	0.000328	3.275846	0.554943	0.000033
 749	7.4426e+01	7.4374	5.955348	0.000287	2.866366	0.485575	0.000029
 750	7.4525e+01	7.4470	5.987528	0.000323	3.234898	0.548007	0.000032
 751	7.4625e+01	7.4575	6.017672	0.000303	3.030158	0.513323	0.000030
 752	7.4725e+01	7.4731	6.053518	0.000360	3.603431	0.610438	0.000036
 753	7.4824e+01	7.4763	6.081624	0.000283	2.825418	0.478639	0.000028
 754	7.4924e+01	7.4879	6.121137	0.000397	3.971964	0.672869	0.000040
 755	7.5023e+01	7.4961	6.158205	0.000373	3.726275	0.631248	0.000037
 756	7.5123e+01	7.5063	6.193236	0.000352	3.521535	0.596564	0.000035
 757	7.5222e+01	7.5150	6.227046	0.000340	3.398691	0.575754	0.000034
 758	7.5322e+01	7.5272	6.260040	0.000332	3.316794	0.561880	0.000033
 759	7.5421e+01	7.5367	6.293850	0.000340	3.398691	0.575754	0.000034
 760	7.5520e+01	7.5447	6.323993	0.000303	3.030158	0.513323	0.000030
 761	7.5620e+01	7.5580	6.360247	0.000364	3.644379	0.617375	0.000036
 762	7.5719e+01	7.5660	6.392427	0.000323	3.234898	0.548007	0.000032
 763	7.5819e+01	7.5773	6.425014	0.000328	3.275846	0.554943	0.000033
 764	7.5918e+01	7.5903	6.460860	0.000360	3.603431	0.610438	0.000036
 765	7.6018e+01	7.5957	6.495484	0.000348	3.480587	0.589627	0.000035
 766	7.6118e+01	7.6089	6.529701	0.000344	3.439639	0.582691	0.000034
 767	7.6217e+01	7.6191	6.565140	0.000356	3.562483	0.603501	0.000036
 768	7.6317e+01	7.6258	6.601801	0.000369	3.685327	0.624311	0.000037
 769	7.6416e+01	7.6369	6.638054	0.000364	3.644379	0.617375	0.000036
 770	7.6516e+01	7.6452	6.673086	0.000352	3.521535	0.596564	0.000035
 771	7.6615e+01	7.6589	6.709747	0.000369	3.685327	0.624311	0.000037
 772	7.6715e+01	7.6661	6.747222	0.000377	3.767223	0.638185	0.000038
 773	7.6814e+01	7.6759	6.776958	0.000299	2.989210	0.506386	0.000030
 774	7.6913e+01	7.6862	6.811582	0.000348	3.480587	0.589627	0.000035
 775	7.7013e+01	7.6959	6.846206	0.000348	3.480587	0.589627	0.000035
 776	7.7112e+01	7.7067	6.877164	0.000311	3.112054	0.527196	0.000031
 777	7.7212e+01	7.7176	6.912603	0.000356	3.562483	0.603501	0.000036
 778	7.7311e+01	7.7271	6.944376	0.000319	3.193950	0.541070	0.000032
 779	7.7411e+01	7.7377	6.976556	0.000323	3.234898	0.548007	0.000032
 780	7.7510e+01	7.7453	7.007921	0.000315	3.153002	0.534133	0.000032
 781	7.7610e+01	7.7570	7.046619	0.000389	3.890068	0.658995	0.000039
 782	7.7710e+01	7.7667	7.084094	0.000377	3.767223	0.638185	0.000038
 783	7.7809e+01	7.7774	7.117496	0.000336	3.357743	0.568817	0.000034
 784	7.7909e+01	7.7857	7.150491	0.000332	3.316794	0.561880	0.000033
 785	7.8008e+01	7.7970	7.184301	0.000340	3.398691	0.575754	0.000034
 786	7.8108e+01	7.8064	7.216481	0.000323	3.234898	0.548007	0.000032
 787	7.8207e+01	7.8158	7.251512	0.000352	3.521535	0.596564	0.000035
 788	7.8306e+01	7.8236	7.280841	0.000295	2.948262	0.499449	0.000029
 789	7.8406e+01	7.8381	7.315465	0.000348	3.480587	0.589627	0.000035
 790	7.8505e+01	7.8443	7.346016	0.000307	3.071106	0.520259	0.000031
 791	7.8605e+01	7.8550	7.378603	0.000328	3.275846	0.554943	0.000033
 792	7.8704e+01	7.8625	7.411190	0.000328	3.275846	0.554943	0.000033
 793	7.8804e+01	7.8762	7.443778	0.000328	3.275846	0.554943	0.000033
 794	7.8903e+01	7.8862	7.473921	0.000303	3.030158	0.513323	0.000030
 795	7.9003e+01	7.8970	7.502842	0.000291	2.907314	0.492512	0.000029
 796	7.9103e+01	7.9068	7.536652	0.000340	3.398691	0.575754	0.000034
 797	7.9202e+01	7.9150	7.568017	0.000315	3.153002	0.534133	0.000032
 798	7.9302e+01	7.9248	7.598975	0.000311	3.112054	0.527196	0.000031
 799	7.9401e+01	7.9371	7.631155	0.000323	3.234898	0.548007	0.000032
 800	7.9501e+01	7.9456	7.661706	0.000307	3.071106	0.520259	0.000031
 801	7.9600e+01	7.9555	7.694293	0.000328	3.275846	0.554943	0.000033
 802	7.9700e+01	7.9646	7.726066	0.000319	3.193950	0.541070	0.000032
 803	7.9799e+01	7.9758	7.758654	0.000328	3.275846	0.554943	0.000033
 804	7.9898e+01	7.9844	7.788390	0.000299	2.989210	0.506386	0.000030
 805	7.9998e+01	7.9959	7.820570	0.000323	3.234898	0.548007	0.000032
 806	8.0097e+01	8.0087	7.850306	0.000299	2.989210	0.506386	0.000030
 807	8.0197e+01	8.0151	7.881671	0.000315	3.153002	0.534133	0.000032
 808	8.0296e+01	8.0240	7.912222	0.000307	3.071106	0.520259	0.000031
 809	8.0396e+01	8.0371	7.944809	0.000328	3.275846	0.554943	0.000033
 810	8.0496e+01	8.0438	7.974545	0.000299	2.989210	0.506386	0.000030
 811	8.0595e+01	8.0546	8.005503	0.000311	3.112054	0.527196	0.000031
 812	8.0695e+01	8.0634	8.036461	0.000311	3.112054	0.527196	0.000031
 813	8.0794e+01	8.0745	8.069049	0.000328	3.275846	0.554943	0.000033
 814	8.0894e+01	8.0842	8.098785	0.000299	2.989210	0.506386	0.000030
 815	8.0993e+01	8.0939	8.128928	0.000303	3.030158	0.513323	0.000030
 816	8.1093e+01	8.1055	8.163145	0.000344	3.439639	0.582691	0.000034
 817	8.1192e+01	8.1177	8.197769	0.000348	3.480587	0.589627	0.000035
 818	8.1291e+01	8.1221	8.225061	0.000274	2.743521	0.464765	0.000027
 819	8.1391e+01	8.1326	8.257648	0.000328	3.275846	0.554943	0.000033
 820	8.1490e+01	8.1435	8.293902	0.000364	3.644379	0.617375	0.000036
 821	8.1590e+01	8.1555	8.323230	0.000295	2.948262	0.499449	0.000029
 822	8.1689e+01	8.1607	8.353374	0.000303	3.030158	0.513323	0.000030
 823	8.1789e+01	8.1750	8.383110	0.000299	2.989210	0.506386	0.000030
 824	8.1888e+01	8.1844	8.414068	0.000311	3.112054	0.527196	0.000031
 825	8.1988e+01	8.1943	8.444211	0.000303	3.030158	0.513323	0.000030
 826	8.2088e+01	8.2041	8.475576	0.000315	3.153002	0.534133	0.000032
 827	8.2187e+01	8.2140	8.507349	0.000319	3.193950	0.541070	0.000032
 828	8.2287e+01	8.2256	8.544010	0.000369	3.685327	0.624311	0.000037
 829	8.2386e+01	8.2331	8.572931	0.000291	2.907314	0.492512	0.000029
 830	8.2486e+01	8.2435	8.606333	0.000336	3.357743	0.568817	0.000034
 831	8.2585e+01	8.2529	8.639328	0.000332	3.316794	0.561880	0.000033
 832	8.2684e+01	8.2617	8.671101	0.000319	3.193950	0.541070	0.000032
 833	8.2784e+01	8.2722	8.703688	0.000328	3.275846	0.554943	0.000033
 834	8.2883e+01	8.2843	8.735054	0.000315	3.153002	0.534133	0.000032
 835	8.2983e+01	8.2959	8.767234	0.000323	3.234898	0.548007	0.000032
 836	8.3082e+01	8.3008	8.799414	0.000323	3.234898	0.548007	0.000032
 837	8.3182e+01	8.3151	8.831594	0.000323	3.234898	0.548007	0.000032
 838	8.3281e+01	8.3239	8.860108	0.000287	2.866366	0.485575	0.000029
 839	8.3381e+01	8.3326	8.889844	0.000299	2.989210	0.506386	0.000030
 840	8.3481e+01	8.3424	8.921209	0.000315	3.153002	0.534133	0.000032
 841	8.3580e+01	8.3529	8.954204	0.000332	3.316794	0.561880	0.000033
 842	8.3680e+01	8.3636	8.981903	0.000278	2.784469	0.471702	0.000028
 843	8.3779e+01	8.3750	9.013676	0.000319	3.193950	0.541070	0.000032
 844	8.3879e+01	8.3838	9.047893	0.000344	3.439639	0.582691	0.000034
 845	8.3978e+01	8.3921	9.078036	0.000303	3.030158	0.513323	0.000030
 846	8.4078e+01	8.4041	9.110216	0.000323	3.234898	0.548007	0.000032
 847	8.4177e+01	8.4125	9.144840	0.000348	3.480587	0.589627	0.000035
 848	8.4276e+01	8.4251	9.174984	0.000303	3.030158	0.513323	0.000030
 849	8.4376e+01	8.4326	9.206349	0.000315	3.153002	0.534133	0.000032
 850	8.4475e+01	8.4429	9.236085	0.000299	2.989210	0.506386	0.000030
 851	8.4575e+01	8.4534	9.266636	0.000307	3.071106	0.520259	0.000031
 852	8.4674e+01	8.4638	9.294742	0.000283	2.825418	0.478639	0.000028
 853	8.4774e+01	8.4722	9.330181	0.000356	3.562483	0.603501	0.000036
 854	8.4874e+01	8.4816	9.359917	0.000299	2.989210	0.506386	0.000030
 855	8.4973e+01	8.4924	9.391283	0.000315	3.153002	0.534133	0.000032
 856	8.5073e+01	8.5026	9.421833	0.000307	3.071106	0.520259	0.000031
 857	8.5172e+01	8.5132	9.457272	0.000356	3.562483	0.603501	0.000036
 858	8.5272e+01	8.5233	9.489045	0.000319	3.193950	0.541070	0.000032
 859	8.5371e+01	8.5339	9.521632	0.000328	3.275846	0.554943	0.000033
 860	8.5471e+01	8.5409	9.555849	0.000344	3.439639	0.582691	0.000034
 861	8.5570e+01	8.5506	9.590880	0.000352	3.521535	0.596564	0.000035
 862	8.5669e+01	8.5627	9.627949	0.000373	3.726275	0.631248	0.000037
 863	8.5769e+01	8.5737	9.663387	0.000356	3.562483	0.603501	0.000036
 864	8.5868e+01	8.5825	9.692716	0.000295	2.948262	0.499449	0.000029
 865	8.5968e+01	8.5922	9.728562	0.000360	3.603431	0.610438	0.000036
 866	8.6067e+01	8.6032	9.759928	0.000315	3.153002	0.534133	0.000032
 867	8.6167e+01	8.6135	9.794552	0.000348	3.480587	0.589627	0.000035
 868	8.6266e+01	8.6189	9.830398	0.000360	3.603431	0.610438	0.000036
 869	8.6366e+01	8.6328	9.862578	0.000323	3.234898	0.548007	0.000032
 870	8.6466e+01	8.6414	9.902905	0.000405	4.053860	0.686742	0.000041
 871	8.6565e+01	8.6514	9.939973	0.000373	3.726275	0.631248	0.000037
 872	8.6665e+01	8.6617	9.977448	0.000377	3.767223	0.638185	0.000038
 873	8.6764e+01	8.6709	10.013295	0.000360	3.603431	0.610438	0.000036
 874	8.6864e+01	8.6844	10.054436	0.000414	4.135756	0.700616	0.000041
 875	8.6963e+01	8.6915	10.094763	0.000405	4.053860	0.686742	0.000041
 876	8.7063e+01	8.7034	10.135090	0.000405	4.053860	0.686742	0.000041
 877	8.7162e+01	8.7122	10.172158	0.000373	3.726275	0.631248	0.000037
 878	8.7261e+01	8.7222	10.209634	0.000377	3.767223	0.638185	0.000038
 879	8.7361e+01	8.7326	10.254849	0.000455	4.545237	0.769984	0.000045
 880	8.7460e+01	8.7405	10.291917	0.000373	3.726275	0.631248	0.000037
 881	8.7560e+01	8.7520	10.333059	0.000414	4.135756	0.700616	0.000041
 882	8.7659e+01	8.7631	10.373385	0.000405	4.053860	0.686742	0.000041
 883	8.7759e+01	8.7711	10.412083	0.000389	3.890068	0.658995	0.000039
 884	8.7859e+01	8.7817	10.456076	0.000442	4.422393	0.749174	0.000044
 885	8.7958e+01	8.7909	10.498032	0.000422	4.217652	0.714490	0.000042
 886	8.8058e+01	8.8026	10.539581	0.000418	4.176704	0.707553	0.000042
 887	8.8157e+01	8.8117	10.582352	0.000430	4.299548	0.728363	0.000043
 888	8.8257e+01	8.8242	10.626752	0.000446	4.463341	0.756110	0.000045
 889	8.8356e+01	8.8289	10.665857	0.000393	3.931016	0.665932	0.000039
 890	8.8456e+01	8.8428	10.710665	0.000450	4.504289	0.763047	0.000045
 891	8.8555e+01	8.8519	10.755473	0.000450	4.504289	0.763047	0.000045
 892	8.8654e+01	8.8599	10.800688	0.000455	4.545237	0.769984	0.000045
 893	8.8754e+01	8.8736	10.843051	0.000426	4.258600	0.721426	0.000043
 894	8.8853e+01	8.8801	10.885822	0.000430	4.299548	0.728363	0.000043
 895	8.8953e+01	8.8916	10.932667	0.000471	4.709029	0.797731	0.000047
 896	8.9052e+01	8.8989	10.974623	0.000422	4.217652	0.714490	0.000042
 897	8.9152e+01	8.9111	11.021467	0.000471	4.709029	0.797731	0.000047
 898	8.9251e+01	8.9201	11.063424	0.000422	4.217652	0.714490	0.000042
 899	8.9351e+01	8.9310	11.111897	0.000487	4.872821	0.825478	0.000049
 900	8.9451e+01	8.9369	11.159557	0.000479	4.790925	0.811605	0.000048
 901	8.9550e+01	8.9551	11.201920	0.000426	4.258600	0.721426	0.000043
 902	8.9650e+01	8.9593	11.249987	0.000483	4.831873	0.818542	0.000048
 903	8.9749e+01	8.9724	11.296424	0.000467	4.668081	0.790794	0.000047
 904	8.9849e+01	8.9819	11.341231	0.000450	4.504289	0.763047	0.000045
 905	8.9948e+01	8.9917	11.388483	0.000475	4.749977	0.804668	0.000047
 906	9.0047e+01	8.9997	11.436549	0.000483	4.831873	0.818542	0.000048
 907	9.0147e+01	9.0109	11.481764	0.000455	4.545237	0.769984	0.000045
 908	9.0246e+01	9.0179	11.528202	0.000467	4.668081	0.790794	0.000047
 909	9.0346e+01	9.0287	11.577897	0.000500	4.995666	0.846289	0.000050
 910	9.0445e+01	9.0394	11.628815	0.000512	5.118510	0.867099	0.000051
 911	9.0545e+01	9.0494	11.674030	0.000455	4.545237	0.769984	0.000045
 912	9.0644e+01	9.0578	11.721689	0.000479	4.790925	0.811605	0.000048
 913	9.0744e+01	9.0666	11.767719	0.000463	4.627133	0.783858	0.000046
 914	9.0844e+01	9.0794	11.817415	0.000500	4.995666	0.846289	0.000050
 915	9.0943e+01	9.0897	11.870369	0.000532	5.323250	0.901783	0.000053
 916	9.1043e+01	9.0967	11.918843	0.000487	4.872821	0.825478	0.000049
 917	9.1142e+01	9.1090	11.969761	0.000512	5.118510	0.867099	0.000051
 918	9.1242e+01	9.1174	12.018642	0.000491	4.913770	0.832415	0.000049
 919	9.1341e+01	9.1287	12.069560	0.000512	5.118510	0.867099	0.000051
 920	9.1441e+01	9.1409	12.122514	0.000532	5.323250	0.901783	0.000053
 921	9.1540e+01	9.1471	12.175876	0.000536	5.364198	0.908720	0.000054
 922	9.1639e+01	9.1593	12.228831	0.000532	5.323250	0.901783	0.000053
 923	9.1739e+01	9.1680	12.284229	0.000557	5.568939	0.943404	0.000056
 924	9.1838e+01	9.1766	12.338406	0.000545	5.446095	0.922593	0.000054
 925	9.1938e+01	9.1871	12.395026	0.000569	5.691783	0.964214	0.000057
 926	9.2037e+01	9.1992	12.449203	0.000545	5.446095	0.922593	0.000054
 927	9.2137e+01	9.2044	12.499714	0.000508	5.077562	0.860162	0.000051
 928	9.2237e+01	9.2188	12.552261	0.000528	5.282302	0.894846	0.000053
 929	9.2336e+01	9.2267	12.605623	0.000536	5.364198	0.908720	0.000054
 930	9.2436e+01	9.2358	12.664687	0.000594	5.937472	1.005835	0.000059
 931	9.2535e+01	9.2489	12.720493	0.000561	5.609887	0.950341	0.000056
 932	9.2635e+01	9.2593	12.779151	0.000590	5.896523	0.998898	0.000059
 933	9.2734e+01	9.2676	12.839845	0.000610	6.101264	1.033582	0.000061
 934	9.2834e+01	9.2773	12.896058	0.000565	5.650835	0.957277	0.000056
 935	9.2933e+01	9.2883	12.955123	0.000594	5.937472	1.005835	0.000059
 936	9.3032e+01	9.2951	13.015817	0.000610	6.101264	1.033582	0.000061
 937	9.3132e+01	9.3084	13.074474	0.000590	5.896523	0.998898	0.000059
 938	9.3231e+01	9.3140	13.137612	0.000635	6.346952	1.075203	0.000063
 939	9.3331e+01	9.3281	13.194233	0.000569	5.691783	0.964214	0.000057
 940	9.3430e+01	9.3374	13.254519	0.000606	6.060316	1.026645	0.000061
 941	9.3530e+01	9.3494	13.309511	0.000553	5.527991	0.936467	0.000055
 942	9.3629e+01	9.3576	13.372241	0.000631	6.306004	1.068266	0.000063
 943	9.3729e+01	9.3674	13.432528	0.000606	6.060316	1.026645	0.000061
 944	9.3829e+01	9.3768	13.489556	0.000573	5.732731	0.971151	0.000057
 945	9.3928e+01	9.3866	13.546991	0.000577	5.773679	0.978088	0.000058
 946	9.4028e+01	9.3976	13.610944	0.000643	6.428849	1.089076	0.000064
 947	9.4127e+01	9.4077	13.669601	0.000590	5.896523	0.998898	0.000059
 948	9.4227e+01	9.4199	13.730295	0.000610	6.101264	1.033582	0.000061
 949	9.4326e+01	9.4290	13.793433	0.000635	6.346952	1.075203	0.000063
 950	9.4425e+01	9.4371	13.853313	0.000602	6.019368	1.019708	0.000060
 951	9.4525e+01	9.4464	13.917673	0.000647	6.469797	1.096013	0.000065
 952	9.4624e+01	9.4558	13.982033	0.000647	6.469797	1.096013	0.000065
 953	9.4724e+01	9.4656	14.039876	0.000581	5.814627	0.985025	0.000058
 954	9.4823e+01	9.4764	14.102606	0.000631	6.306004	1.068266	0.000063
 955	9.4923e+01	9.4854	14.167374	0.000651	6.510745	1.102950	0.000065
 956	9.5022e+01	9.4942	14.232549	0.000655	6.551693	1.109887	0.000066
 957	9.5122e+01	9.5068	14.293650	0.000614	6.142212	1.040519	0.000061
 958	9.5222e+01	9.5170	14.355159	0.000618	6.183160	1.047456	0.000062
 959	9.5321e+01	9.5251	14.421963	0.000672	6.715485	1.137634	0.000067
 960	9.5421e+01	9.5380	14.483879	0.000622	6.224108	1.054392	0.000062
 961	9.5520e+01	9.5468	14.548647	0.000651	6.510745	1.102950	0.000065
 962	9.5620e+01	9.5584	14.610970	0.000627	6.265056	1.061329	0.000063
 963	9.5719e+01	9.5679	14.676145	0.000655	6.551693	1.109887	0.000066
 964	9.5819e+01	9.5767	14.743356	0.000676	6.756433	1.144571	0.000068
 965	9.5918e+01	9.5891	14.810568	0.000676	6.756433	1.144571	0.000068
 966	9.6017e+01	9.5947	14.871669	0.000614	6.142212	1.040519	0.000061
 967	9.6117e+01	9.6045	14.942139	0.000708	7.084018	1.200065	0.000071
 968	9.6216e+01	9.6155	15.010980	0.000692	6.920225	1.172318	0.000069
 969	9.6316e+01	9.6252	15.076970	0.000663	6.633589	1.123760	0.000066
 970	9.6415e+01	9.6342	15.143367	0.000667	6.674537	1.130697	0.000067
 971	9.6515e+01	9.6469	15.213430	0.000704	7.043070	1.193128	0.000070
 972	9.6615e+01	9.6570	15.284307	0.000712	7.124966	1.207002	0.000071
 973	9.6714e+01	9.6662	15.351519	0.000676	6.756433	1.144571	0.000068
 974	9.6814e+01	9.6754	15.420767	0.000696	6.961174	1.179255	0.000070
 975	9.6913e+01	9.6861	15.492052	0.000717	7.165914	1.213939	0.000072
 976	9.7013e+01	9.6957	15.563337	0.000717	7.165914	1.213939	0.000072
 977	9.7112e+01	9.7070	15.635844	0.000729	7.288758	1.234749	0.000073
 978	9.7212e+01	9.7153	15.706314	0.000708	7.084018	1.200065	0.000071
 979	9.7311e+01	9.7272	15.780043	0.000741	7.411602	1.255559	0.000074
 980	9.7410e+01	9.7376	15.855401	0.000758	7.575395	1.283307	0.000076
 981	9.7510e+01	9.7461	15.927501	0.000725	7.247810	1.227812	0.000072
 982	9.7609e+01	9.7559	16.002859	0.000758	7.575395	1.283307	0.000076
 983	9.7709e+01	9.7663	16.072515	0.000700	7.002122	1.186192	0.000070
 984	9.7808e+01	9.7741	16.146651	0.000745	7.452551	1.262496	0.000075
 985	9.7908e+01	9.7833	16.219566	0.000733	7.329706	1.241686	0.000073
 986	9.8007e+01	9.7966	16.296553	0.000774	7.739187	1.311054	0.000077
 987	9.8107e+01	9.8051	16.379651	0.000835	8.353408	1.415106	0.000084
 988	9.8207e+01	9.8163	16.458268	0.000790	7.902979	1.338801	0.000079
 989	9.8306e+01	9.8230	16.539330	0.000815	8.148668	1.380422	0.000081
 990	9.8406e+01	9.8350	16.625279	0.000864	8.640045	1.463663	0.000086
 991	9.8505e+01	9.8450	16.707969	0.000831	8.312460	1.408169	0.000083
 992	9.8605e+01	9.8560	16.800436	0.000930	9.295214	1.574652	0.000093
 993	9.8704e+01	9.8627	16.887607	0.000876	8.762889	1.484474	0.000088
 994	9.8803e+01	9.8746	16.967039	0.000798	7.984876	1.352675	0.000080
 995	9.8903e+01	9.8832	17.059913	0.000934	9.336162	1.581589	0.000093
 996	9.9002e+01	9.8918	17.154010	0.000946	9.459006	1.602399	0.000095
 997	9.9102e+01	9.9038	17.241996	0.000884	8.844785	1.498347	0.000088
 998	9.9201e+01	9.9158	17.325501	0.000839	8.394356	1.422042	0.000084
 999	9.9301e+01	9.9237	17.409413	0.000844	8.435304	1.428979	0.000084
1000	9.9400e+01	9.9344	17.500658	0.000917	9.172370	1.553842	0.000092
1001	9.9500e+01	9.9451	17.590273	0.000901	9.008578	1.526094	0.000090
1002	9.9600e+01	9.9544	17.684777	0.000950	9.499954	1.609336	0.000095
1003	9.9699e+01	9.9643	17.778873	0.000946	9.459006	1.602399	0.000095
1004	9.9799e+01	9.9756	17.874191	0.000958	9.581851	1.623209	0.000096
1005	9.9898e+01	9.9836	17.967473	0.000938	9.377110	1.588525	0.000094
1006	9.9998e+01	9.9932	18.058310	0.000913	9.131422	1.546905	0.000091
1007	1.0010e+02	9.9854	18.114523	-0.000565	-5.650835	-0.957277	0.000056
1008	1.0020e+02	9.9722	18.160960	-0.000467	-4.668081	-0.790794	0.000047
1009	1.0030e+02	9.9640	18.216766	-0.000561	-5.609887	-0.950341	0.000056
1010	1.0040e+02	9.9539	18.265647	-0.000491	-4.913770	-0.832415	0.000049
1011	1.0050e+02	9.9451	18.310455	-0.000450	-4.504289	-0.763047	0.000045
1012	1.0059e+02	9.9355	18.354448	-0.000442	-4.422393	-0.749174	0.000044
1013	1.0069e+02	9.9240	18.398848	-0.000446	-4.463341	-0.756110	0.000045
1014	1.0079e+02	9.9134	18.447322	-0.000487	-4.872821	-0.825478	0.000049
1015	1.0089e+02	9.9033	18.492944	-0.000459	-4.586185	-0.776921	0.000046
1016	1.0099e+02	9.8939	18.537345	-0.000446	-4.463341	-0.756110	0.000045
1017	1.0109e+02	9.8840	18.586226	-0.000491	-4.913770	-0.832415	0.000049
1018	1.0119e+02	9.8758	18.622887	-0.000369	-3.685327	-0.624311	0.000037
1019	1.0129e+02	9.8635	18.666472	-0.000438	-4.381445	-0.742237	0.000044
1020	1.0139e+02	9.8575	18.701911	-0.000356	-3.562483	-0.603501	0.000036
1021	1.0149e+02	9.8450	18.741016	-0.000393	-3.931016	-0.665932	0.000039
1022	1.0159e+02	9.8334	18.777677	-0.000369	-3.685327	-0.624311	0.000037
1023	1.0169e+02	9.8242	18.816782	-0.000393	-3.931016	-0.665932	0.000039
1024	1.0179e+02	9.8145	18.853035	-0.000364	-3.644379	-0.617375	0.000036
1025	1.0189e+02	9.8059	18.893362	-0.000405	-4.053860	-0.686742	0.000041
1026	1.0199e+02	9.7956	18.930023	-0.000369	-3.685327	-0.624311	0.000037
1027	1.0209e+02	9.7846	18.966684	-0.000369	-3.685327	-0.624311	0.000037
1028	1.0219e+02	9.7765	19.000901	-0.000344	-3.439639	-0.582691	0.000034
1029	1.0229e+02	9.7645	19.033488	-0.000328	-3.275846	-0.554943	0.000033
1030	1.0239e+02	9.7546	19.068112	-0.000348	-3.480587	-0.589627	0.000035
1031	1.0248e+02	9.7433	19.104773	-0.000369	-3.685327	-0.624311	0.000037
1032	1.0258e+02	9.7346	19.139397	-0.000348	-3.480587	-0.589627	0.000035
1033	1.0268e+02	9.7236	19.169133	-0.000299	-2.989210	-0.506386	0.000030
1034	1.0278e+02	9.7168	19.199684	-0.000307	-3.071106	-0.520259	0.000031
1035	1.0288e+02	9.7070	19.231864	-0.000323	-3.234898	-0.548007	0.000032
1036	1.0298e+02	9.6973	19.258341	-0.000266	-2.661625	-0.450892	0.000027
1037	1.0308e+02	9.6875	19.290521	-0.000323	-3.234898	-0.548007	0.000032
1038	1.0318e+02	9.6753	19.319035	-0.000287	-2.866366	-0.485575	0.000029
1039	1.0328e+02	9.6638	19.349993	-0.000311	-3.112054	-0.527196	0.000031
1040	1.0338e+02	9.6558	19.380544	-0.000307	-3.071106	-0.520259	0.000031
1041	1.0348e+02	9.6453	19.406614	-0.000262	-2.620677	-0.443955	0.000026
1042	1.0358e+02	9.6380	19.435943	-0.000295	-2.948262	-0.499449	0.000029
1043	1.0368e+02	9.6266	19.462827	-0.000270	-2.702573	-0.457828	0.000027
1044	1.0378e+02	9.6153	19.483194	-0.000205	-2.047404	-0.346840	0.000020
1045	1.0388e+02	9.6072	19.512523	-0.000295	-2.948262	-0.499449	0.000029
1046	1.0398e+02	9.5937	19.536149	-0.000237	-2.374989	-0.402334	0.000024
1047	1.0408e+02	9.5892	19.560182	-0.000242	-2.415937	-0.409271	0.000024
1048	1.0418e+02	9.5755	19.591547	-0.000315	-3.153002	-0.534133	0.000032
1049	1.0428e+02	9.5681	19.614359	-0.000229	-2.293092	-0.388460	0.000023
1050	1.0438e+02	9.5570	19.637984	-0.000237	-2.374989	-0.402334	0.000024
1051	1.0447e+02	9.5471	19.663647	-0.000258	-2.579729	-0.437018	0.000026
1052	1.0457e+02	9.5390	19.687273	-0.000237	-2.374989	-0.402334	0.000024
1053	1.0467e+02	9.5267	19.707233	-0.000201	-2.006456	-0.339903	0.000020
1054	1.0477e+02	9.5151	19.735339	-0.000283	-2.825418	-0.478639	0.000028
1055	1.0487e+02	9.5068	19.758150	-0.000229	-2.293092	-0.388460	0.000023
1056	1.0497e+02	9.4971	19.780554	-0.000225	-2.252144	-0.381524	0.000023
1057	1.0507e+02	9.4873	19.803365	-0.000229	-2.293092	-0.388460	0.000023
1058	1.0517e+02	9.4758	19.826991	-0.000237	-2.374989	-0.402334	0.000024
1059	1.0527e+02	9.4678	19.847766	-0.000209	-2.088352	-0.353776	0.000021
1060	1.0537e+02	9.4567	19.869355	-0.000217	-2.170248	-0.367650	0.000022
1061	1.0547e+02	9.4474	19.888500	-0.000192	-1.924560	-0.326029	0.000019
1062	1.0557e+02	9.4379	19.914163	-0.000258	-2.579729	-0.437018	0.000026
1063	1.0567e+02	9.4254	19.935752	-0.000217	-2.170248	-0.367650	0.000022
1064	1.0577e+02	9.4157	19.956526	-0.000209	-2.088352	-0.353776	0.000021
1065	1.0587e+02	9.4069	19.973227	-0.000168	-1.678871	-0.284408	0.000017
1066	1.0597e+02	9.3973	19.992372	-0.000192	-1.924560	-0.326029	0.000019
1067	1.0607e+02	9.3887	20.010703	-0.000184	-1.842664	-0.312156	0.000018
1068	1.0617e+02	9.3781	20.029441	-0.000188	-1.883612	-0.319092	0.000019
1069	1.0627e+02	9.3677	20.047364	-0.000180	-1.801716	-0.305219	0.000018
1070	1.0637e+02	9.3568	20.067323	-0.000201	-2.006456	-0.339903	0.000020
1071	1.0647e+02	9.3497	20.088098	-0.000209	-2.088352	-0.353776	0.000021
1072	1.0656e+02	9.3370	20.106428	-0.000184	-1.842664	-0.312156	0.000018
1073	1.0666e+02	9.3270	20.126795	-0.000205	-2.047404	-0.346840	0.000020
1074	1.0676e+02	9.3152	20.143904	-0.000172	-1.719819	-0.291345	0.000017
1075	1.0686e+02	9.3115	20.159790	-0.000160	-1.596975	-0.270535	0.000016
1076	1.0696e+02	9.2987	20.179750	-0.000201	-2.006456	-0.339903	0.000020
1077	1.0706e+02	9.2876	20.200117	-0.000205	-2.047404	-0.346840	0.000020
1078	1.0716e+02	9.2767	20.213559	-0.000135	-1.351287	-0.228914	0.000014
1079	1.0726e+02	9.2665	20.226187	-0.000127	-1.269390	-0.215041	0.000013
1080	1.0736e+02	9.2603	20.244110	-0.000180	-1.801716	-0.305219	0.000018
1081	1.0746e+02	9.2458	20.258367	-0.000143	-1.433183	-0.242788	0.000014
1082	1.0756e+02	9.2416	20.276290	-0.000180	-1.801716	-0.305219	0.000018
1083	1.0766e+02	9.2276	20.290140	-0.000139	-1.392235	-0.235851	0.000014
1084	1.0776e+02	9.2169	20.299916	-0.000098	-0.982754	-0.166483	0.000010
1085	1.0786e+02	9.2071	20.314173	-0.000143	-1.433183	-0.242788	0.000014
1086	1.0796e+02	9.1984	20.327615	-0.000135	-1.351287	-0.228914	0.000014
1087	1.0806e+02	9.1865	20.339021	-0.000115	-1.146546	-0.194230	0.000011
1088	1.0816e+02	9.1776	20.352871	-0.000139	-1.392235	-0.235851	0.000014
1089	1.0826e+02	9.1688	20.366313	-0.000135	-1.351287	-0.228914	0.000014
1090	1.0836e+02	9.1577	20.376904	-0.000106	-1.064650	-0.180357	0.000011
1091	1.0845e+02	9.1519	20.391568	-0.000147	-1.474131	-0.249725	0.000015
1092	1.0855e+02	9.1366	20.405825	-0.000143	-1.433183	-0.242788	0.000014
1093	1.0865e+02	9.1264	20.417231	-0.000115	-1.146546	-0.194230	0.000011
1094	1.0875e+02	9.1187	20.429451	-0.000123	-1.228442	-0.208104	0.000012
1095	1.0885e+02	9.1077	20.440857	-0.000115	-1.146546	-0.194230	0.000011
1096	1.0895e+02	9.0988	20.450633	-0.000098	-0.982754	-0.166483	0.000010
1097	1.0905e+02	9.0887	20.459187	-0.000086	-0.859910	-0.145673	0.000009
1098	1.0915e+02	9.0775	20.469371	-0.000102	-1.023702	-0.173420	0.000010
1099	1.0925e+02	9.0686	20.479147	-0.000098	-0.982754	-0.166483	0.000010
1100	1.0935e+02	9.0592	20.486072	-0.000070	-0.696117	-0.117925	0.000007
1101	1.0945e+02	9.0491	20.496255	-0.000102	-1.023702	-0.173420	0.000010
1102	1.0955e+02	9.0422	20.507661	-0.000115	-1.146546	-0.194230	0.000011
1103	1.0965e+02	9.0311	20.519881	-0.000123	-1.228442	-0.208104	0.000012
1104	1.0975e+02	9.0192	20.524769	-0.000049	-0.491377	-0.083242	0.000005
1105	1.0985e+02	9.0075	20.534953	-0.000102	-1.023702	-0.173420	0.000010
1106	1.0995e+02	9.0002	20.547173	-0.000123	-1.228442	-0.208104	0.000012
1107	1.1005e+02	8.9893	20.551246	-0.000041	-0.409481	-0.069368	0.000004
1108	1.1015e+02	8.9781	20.556542	-0.000053	-0.532325	-0.090178	0.000005
1109	1.1025e+02	8.9700	20.562652	-0.000061	-0.614221	-0.104052	0.000006
1110	1.1035e+02	8.9585	20.569577	-0.000070	-0.696117	-0.117925	0.000007
1111	1.1044e+02	8.9487	20.572836	-0.000033	-0.327585	-0.055494	0.000003
1112	1.1054e+02	8.9404	20.579353	-0.000066	-0.655169	-0.110989	0.000007
1113	1.1064e+02	8.9287	20.583834	-0.000045	-0.450429	-0.076305	0.000005
1114	1.1074e+02	8.9210	20.586278	-0.000025	-0.245688	-0.041621	0.000002
1115	1.1084e+02	8.9101	20.588315	-0.000020	-0.204740	-0.034684	0.000002
1116	1.1094e+02	8.9014	20.589944	-0.000016	-0.163792	-0.027747	0.000002
1117	1.1104e+02	8.8898	20.596461	-0.000066	-0.655169	-0.110989	0.000007
1118	1.1114e+02	8.8803	20.598091	-0.000016	-0.163792	-0.027747	0.000002
1119	1.1124e+02	8.8721	20.604608	-0.000066	-0.655169	-0.110989	0.000007
1120	1.1134e+02	8.8632	20.601757	0.000029	0.286637	0.048558	-0.000003
1121	1.1144e+02	8.8507	20.604608	-0.000029	-0.286637	-0.048558	0.000003
1122	1.1154e+02	8.8379	20.606238	-0.000016	-0.163792	-0.027747	0.000002
1123	1.1164e+02	8.8309	20.601350	0.000049	0.491377	0.083242	-0.000005
1124	1.1174e+02	8.8220	20.594832	0.000066	0.655169	0.110989	-0.000007
1125	1.1184e+02	8.8136	20.591573	0.000033	0.327585	0.055494	-0.000003
1126	1.1194e+02	8.8013	20.590759	0.000008	0.081896	0.013874	-0.000001
1127	1.1204e+02	8.7919	20.587907	0.000029	0.286637	0.048558	-0.000003
1128	1.1214e+02	8.7798	20.581797	0.000061	0.614221	0.104052	-0.000006
1129	1.1224e+02	8.7733	20.574872	0.000070	0.696117	0.117925	-0.000007
1130	1.1234e+02	8.7610	20.571614	0.000033	0.327585	0.055494	-0.000003
1131	1.1244e+02	8.7518	20.563467	0.000082	0.818962	0.138736	-0.000008
1132	1.1253e+02	8.7418	20.560208	0.000033	0.327585	0.055494	-0.000003
1133	1.1263e+02	8.7311	20.554098	0.000061	0.614221	0.104052	-0.000006
1134	1.1273e+02	8.7222	20.544729	0.000094	0.941806	0.159546	-0.000009
1135	1.1283e+02	8.7131	20.542285	0.000025	0.245688	0.041621	-0.000002
1136	1.1293e+02	8.7000	20.531694	0.000106	1.064650	0.180357	-0.000011
1137	1.1303e+02	8.6919	20.528435	0.000033	0.327585	0.055494	-0.000003
1138	1.1313e+02	8.6819	20.519474	0.000090	0.900858	0.152609	-0.000009
1139	1.1323e+02	8.6751	20.509697	0.000098	0.982754	0.166483	-0.000010
1140	1.1333e+02	8.6637	20.504402	0.000053	0.532325	0.090178	-0.000005
1141	1.1343e+02	8.6536	20.493404	0.000111	1.105598	0.187293	-0.000011
1142	1.1353e+02	8.6406	20.485257	0.000082	0.818962	0.138736	-0.000008
1143	1.1363e+02	8.6312	20.473037	0.000123	1.228442	0.208104	-0.000012
1144	1.1373e+02	8.6230	20.463260	0.000098	0.982754	0.166483	-0.000010
1145	1.1383e+02	8.6135	20.456336	0.000070	0.696117	0.117925	-0.000007
1146	1.1393e+02	8.6008	20.446559	0.000098	0.982754	0.166483	-0.000010
1147	1.1403e+02	8.5954	20.434339	0.000123	1.228442	0.208104	-0.000012
1148	1.1413e+02	8.5815	20.426600	0.000078	0.778014	0.131799	-0.000008
1149	1.1423e+02	8.5715	20.415194	0.000115	1.146546	0.194230	-0.000011
1150	1.1433e+02	8.5638	20.401344	0.000139	1.392235	0.235851	-0.000014
1151	1.1442e+02	8.5516	20.386273	0.000152	1.515079	0.256661	-0.000015
1152	1.1452e+02	8.5410	20.376904	0.000094	0.941806	0.159546	-0.000009
1153	1.1462e+02	8.5285	20.362239	0.000147	1.474131	0.249725	-0.000015
1154	1.1472e+02	8.5213	20.352056	0.000102	1.023702	0.173420	-0.000010
1155	1.1482e+02	8.5144	20.339021	0.000131	1.310339	0.221977	-0.000013
1156	1.1492e+02	8.5014	20.326801	0.000123	1.228442	0.208104	-0.000012
1157	1.1502e+02	8.4919	20.314580	0.000123	1.228442	0.208104	-0.000012
1158	1.1512e+02	8.4821	20.295843	0.000188	1.883612	0.319092	-0.000019
1159	1.1522e+02	8.4759	20.285659	0.000102	1.023702	0.173420	-0.000010
1160	1.1532e+02	8.4620	20.271809	0.000139	1.392235	0.235851	-0.000014
1161	1.1542e+02	8.4521	20.254294	0.000176	1.760767	0.298282	-0.000018
1162	1.1552e+02	8.4430	20.239222	0.000152	1.515079	0.256661	-0.000015
1163	1.1562e+02	8.4326	20.222114	0.000172	1.719819	0.291345	-0.000017
1164	1.1572e+02	8.4257	20.203376	0.000188	1.883612	0.319092	-0.000019
1165	1.1582e+02	8.4139	20.191156	0.000123	1.228442	0.208104	-0.000012
1166	1.1592e+02	8.4033	20.175269	0.000160	1.596975	0.270535	-0.000016
1167	1.1602e+02	8.3917	20.157346	0.000180	1.801716	0.305219	-0.000018
1168	1.1612e+02	8.3826	20.141460	0.000160	1.596975	0.270535	-0.000016
1169	1.1622e+02	8.3723	20.127610	0.000139	1.392235	0.235851	-0.000014
1170	1.1632e+02	8.3624	20.110094	0.000176	1.760767	0.298282	-0.000018
1171	1.1642e+02	8.3530	20.092986	0.000172	1.719819	0.291345	-0.000017
1172	1.1651e+02	8.3440	20.075470	0.000176	1.760767	0.298282	-0.000018
1173	1.1661e+02	8.3334	20.053881	0.000217	2.170248	0.367650	-0.000022
1174	1.1671e+02	8.3228	20.030255	0.000237	2.374989	0.402334	-0.000024
1175	1.1681e+02	8.3131	20.013147	0.000172	1.719819	0.291345	-0.000017
1176	1.1691e+02	8.3026	19.992780	0.000205	2.047404	0.346840	-0.000020
1177	1.1701e+02	8.2935	19.974857	0.000180	1.801716	0.305219	-0.000018
1178	1.1711e+02	8.2822	19.954082	0.000209	2.088352	0.353776	-0.000021
1179	1.1721e+02	8.2755	19.937789	0.000164	1.637923	0.277472	-0.000016
1180	1.1731e+02	8.2633	19.921087	0.000168	1.678871	0.284408	-0.000017
1181	1.1741e+02	8.2526	19.900313	0.000209	2.088352	0.353776	-0.000021
1182	1.1751e+02	8.2429	19.881168	0.000192	1.924560	0.326029	-0.000019
1183	1.1761e+02	8.2339	19.858764	0.000225	2.252144	0.381524	-0.000023
1184	1.1771e+02	8.2218	19.838397	0.000205	2.047404	0.346840	-0.000020
1185	1.1781e+02	8.2152	19.817622	0.000209	2.088352	0.353776	-0.000021
1186	1.1791e+02	8.2026	19.794404	0.000233	2.334041	0.395397	-0.000023
1187	1.1801e+02	8.1931	19.772000	0.000225	2.252144	0.381524	-0.000023
1188	1.1811e+02	8.1848	19.753670	0.000184	1.842664	0.312156	-0.000018
1189	1.1821e+02	8.1760	19.730859	0.000229	2.293092	0.388460	-0.000023
1190	1.1831e+02	8.1651	19.706011	0.000250	2.497833	0.423144	-0.000025
1191	1.1841e+02	8.1536	19.683199	0.000229	2.293092	0.388460	-0.000023
1192	1.1850e+02	8.1424	19.662425	0.000209	2.088352	0.353776	-0.000021
1193	1.1860e+02	8.1348	19.641243	0.000213	2.129300	0.360713	-0.000021
1194	1.1870e+02	8.1239	19.620061	0.000213	2.129300	0.360713	-0.000021
1195	1.1880e+02	8.1133	19.600102	0.000201	2.006456	0.339903	-0.000020
1196	1.1890e+02	8.1071	19.576883	0.000233	2.334041	0.395397	-0.000023
1197	1.1900e+02	8.0928	19.554887	0.000221	2.211196	0.374587	-0.000022
1198	1.1910e+02	8.0865	19.534927	0.000201	2.006456	0.339903	-0.000020
1199	1.1920e+02	8.0746	19.512930	0.000221	2.211196	0.374587	-0.000022
1200	1.1930e+02	8.0664	19.490934	0.000221	2.211196	0.374587	-0.000022
1201	1.1940e+02	8.0545	19.471381	0.000197	1.965508	0.332966	-0.000020
1202	1.1950e+02	8.0453	19.443682	0.000278	2.784469	0.471702	-0.000028
1203	1.1960e+02	8.0363	19.422908	0.000209	2.088352	0.353776	-0.000021
1204	1.1970e+02	8.0262	19.403762	0.000192	1.924560	0.326029	-0.000019
1205	1.1980e+02	8.0148	19.375656	0.000283	2.825418	0.478639	-0.000028
1206	1.1990e+02	8.0043	19.358955	0.000168	1.678871	0.284408	-0.000017
1207	1.2000e+02	7.9949	19.341032	0.000180	1.801716	0.305219	-0.000018
1208	1.2010e+02	7.9847	19.319035	0.000221	2.211196	0.374587	-0.000022
1209	1.2020e+02	7.9752	19.301519	0.000176	1.760767	0.298282	-0.000018
1210	1.2030e+02	7.9663	19.281967	0.000197	1.965508	0.332966	-0.000020
1211	1.2039e+02	7.9542	19.259563	0.000225	2.252144	0.381524	-0.000023
1212	1.2049e+02	7.9434	19.240011	0.000197	1.965508	0.332966	-0.000020
1213	1.2059e+02	7.9350	19.222902	0.000172	1.719819	0.291345	-0.000017
1214	1.2069e+02	7.9265	19.200906	0.000221	2.211196	0.374587	-0.000022
1215	1.2079e+02	7.9163	19.183390	0.000176	1.760767	0.298282	-0.000018
1216	1.2089e+02	7.9053	19.165874	0.000176	1.760767	0.298282	-0.000018
1217	1.2099e+02	7.8957	19.141841	0.000242	2.415937	0.409271	-0.000024
1218	1.2109e+02	7.8864	19.122696	0.000192	1.924560	0.326029	-0.000019
1219	1.2119e+02	7.8748	19.104366	0.000184	1.842664	0.312156	-0.000018
1220	1.2129e+02	7.8647	19.086850	0.000176	1.760767	0.298282	-0.000018
1221	1.2139e+02	7.8542	19.064446	0.000225	2.252144	0.381524	-0.000023
1222	1.2149e+02	7.8442	19.042450	0.000221	2.211196	0.374587	-0.000022
1223	1.2159e+02	7.8357	19.025749	0.000168	1.678871	0.284408	-0.000017
1224	1.2169e+02	7.8271	19.000493	0.000254	2.538781	0.430081	-0.000025
1225	1.2179e+02	7.8167	18.986644	0.000139	1.392235	0.235851	-0.000014
1226	1.2189e+02	7.8033	18.965869	0.000209	2.088352	0.353776	-0.000021
1227	1.2199e+02	7.7980	18.943873	0.000221	2.211196	0.374587	-0.000022
1228	1.2209e+02	7.7872	18.924320	0.000197	1.965508	0.332966	-0.000020
1229	1.2219e+02	7.7774	18.907619	0.000168	1.678871	0.284408	-0.000017
1230	1.2229e+02	7.7653	18.888881	0.000188	1.883612	0.319092	-0.000019
1231	1.2239e+02	7.7560	18.866478	0.000225	2.252144	0.381524	-0.000023
1232	1.2248e+02	7.7474	18.843259	0.000233	2.334041	0.395397	-0.000023
1233	1.2258e+02	7.7359	18.823299	0.000201	2.006456	0.339903	-0.000020
1234	1.2268e+02	7.7246	18.807006	0.000164	1.637923	0.277472	-0.000016
1235	1.2278e+02	7.7176	18.786231	0.000209	2.088352	0.353776	-0.000021
1236	1.2288e+02	7.7075	18.765457	0.000209	2.088352	0.353776	-0.000021
1237	1.2298e+02	7.6935	18.736128	0.000295	2.948262	0.499449	-0.000029
1238	1.2308e+02	7.6849	18.723500	0.000127	1.269390	0.215041	-0.000013
1239	1.2318e+02	7.6740	18.702319	0.000213	2.129300	0.360713	-0.000021
1240	1.2328e+02	7.6682	18.680322	0.000221	2.211196	0.374587	-0.000022
1241	1.2338e+02	7.6557	18.657511	0.000229	2.293092	0.388460	-0.000023
1242	1.2348e+02	7.6484	18.639995	0.000176	1.760767	0.298282	-0.000018
1243	1.2358e+02	7.6389	18.620850	0.000192	1.924560	0.326029	-0.000019
1244	1.2368e+02	7.6264	18.604556	0.000164	1.637923	0.277472	-0.000016
1245	1.2378e+02	7.6176	18.578486	0.000262	2.620677	0.443955	-0.000026
1246	1.2388e+02	7.6087	18.560563	0.000180	1.801716	0.305219	-0.000018
1247	1.2398e+02	7.5952	18.537345	0.000233	2.334041	0.395397	-0.000023
1248	1.2408e+02	7.5879	18.518607	0.000188	1.883612	0.319092	-0.000019
1249	1.2418e+02	7.5749	18.496203	0.000225	2.252144	0.381524	-0.000023
1250	1.2428e+02	7.5676	18.480317	0.000160	1.596975	0.270535	-0.000016
1251	1.2438e+02	7.5574	18.454654	0.000258	2.579729	0.437018	-0.000026
1252	1.2447e+02	7.5506	18.433065	0.000217	2.170248	0.367650	-0.000022
1253	1.2457e+02	7.5388	18.414327	0.000188	1.883612	0.319092	-0.000019
1254	1.2467e+02	7.5277	18.389479	0.000250	2.497833	0.423144	-0.000025
1255	1.2477e+02	7.5173	18.369112	0.000205	2.047404	0.346840	-0.000020
1256	1.2487e+02	7.5057	18.350375	0.000188	1.883612	0.319092	-0.000019
1257	1.2497e+02	7.4964	18.332044	0.000184	1.842664	0.312156	-0.000018
1258	1.2507e+02	7.4902	18.314121	0.000180	1.801716	0.305219	-0.000018
1259	1.2517e+02	7.4789	18.296605	0.000176	1.760767	0.298282	-0.000018
1260	1.2527e+02	7.4725	18.272980	0.000237	2.374989	0.402334	-0.000024
1261	1.2537e+02	7.4577	18.254649	0.000184	1.842664	0.312156	-0.000018
1262	1.2547e+02	7.4480	18.235504	0.000192	1.924560	0.326029	-0.000019
1263	1.2557e+02	7.4371	18.214322	0.000213	2.129300	0.360713	-0.000021
1264	1.2567e+02	7.4284	18.193548	0.000209	2.088352	0.353776	-0.000021
1265	1.2577e+02	7.4187	18.176847	0.000168	1.678871	0.284408	-0.000017
1266	1.2587e+02	7.4060	18.150369	0.000266	2.661625	0.450892	-0.000027
1267	1.2597e+02	7.3984	18.129595	0.000209	2.088352	0.353776	-0.000021
1268	1.2607e+02	7.3868	18.113709	0.000160	1.596975	0.270535	-0.000016
1269	1.2617e+02	7.3788	18.092527	0.000213	2.129300	0.360713	-0.000021
1270	1.2627e+02	7.3688	18.071345	0.000213	2.129300	0.360713	-0.000021
1271	1.2636e+02	7.3602	18.056681	0.000147	1.474131	0.249725	-0.000015
1272	1.2646e+02	7.3468	18.034277	0.000225	2.252144	0.381524	-0.000023
1273	1.2656e+02	7.3392	18.017576	0.000168	1.678871	0.284408	-0.000017
1274	1.2666e+02	7.3310	17.998431	0.000192	1.924560	0.326029	-0.000019
1275	1.2676e+02	7.3183	17.978471	0.000201	2.006456	0.339903	-0.000020
1276	1.2686e+02	7.3083	17.957289	0.000213	2.129300	0.360713	-0.000021
1277	1.2696e+02	7.2981	17.936922	0.000205	2.047404	0.346840	-0.000020
1278	1.2706e+02	7.2895	17.918999	0.000180	1.801716	0.305219	-0.000018
1279	1.2716e+02	7.2811	17.893336	0.000258	2.579729	0.437018	-0.000026
1280	1.2726e+02	7.2683	17.869710	0.000237	2.374989	0.402334	-0.000024
1281	1.2736e+02	7.2577	17.848529	0.000213	2.129300	0.360713	-0.000021
1282	1.2746e+02	7.2493	17.824903	0.000237	2.374989	0.402334	-0.000024
1283	1.2756e+02	7.2417	17.799647	0.000254	2.538781	0.430081	-0.000025
1284	1.2766e+02	7.2272	17.780095	0.000197	1.965508	0.332966	-0.000020
1285	1.2776e+02	7.2210	17.760543	0.000197	1.965508	0.332966	-0.000020
1286	1.2786e+02	7.2090	17.741805	0.000188	1.883612	0.319092	-0.000019
1287	1.2796e+02	7.1990	17.716142	0.000258	2.579729	0.437018	-0.000026
1288	1.2806e+02	7.1880	17.695775	0.000205	2.047404	0.346840	-0.000020
1289	1.2816e+02	7.1792	17.670927	0.000250	2.497833	0.423144	-0.000025
1290	1.2826e+02	7.1711	17.651375	0.000197	1.965508	0.332966	-0.000020
1291	1.2835e+02	7.1603	17.619602	0.000319	3.193950	0.541070	-0.000032
1292	1.2845e+02	7.1505	17.597606	0.000221	2.211196	0.374587	-0.000022
1293	1.2855e+02	7.1389	17.571128	0.000266	2.661625	0.450892	-0.000027
1294	1.2865e+02	7.1279	17.549539	0.000217	2.170248	0.367650	-0.000022
1295	1.2875e+02	7.1185	17.525506	0.000242	2.415937	0.409271	-0.000024
1296	1.2885e+02	7.1078	17.499029	0.000266	2.661625	0.450892	-0.000027
1297	1.2895e+02	7.0972	17.476625	0.000225	2.252144	0.381524	-0.000023
1298	1.2905e+02	7.0883	17.453406	0.000233	2.334041	0.395397	-0.000023
1299	1.2915e+02	7.0812	17.423263	0.000303	3.030158	0.513323	-0.000030
1300	1.2925e+02	7.0705	17.398008	0.000254	2.538781	0.430081	-0.000025
1301	1.2935e+02	7.0586	17.377641	0.000205	2.047404	0.346840	-0.000020
1302	1.2945e+02	7.0480	17.351978	0.000258	2.579729	0.437018	-0.000026
1303	1.2955e+02	7.0415	17.322649	0.000295	2.948262	0.499449	-0.000029
1304	1.2965e+02	7.0303	17.299838	0.000229	2.293092	0.388460	-0.000023
1305	1.2975e+02	7.0202	17.271324	0.000287	2.866366	0.485575	-0.000029
1306	1.2985e+02	7.0115	17.245662	0.000258	2.579729	0.437018	-0.000026
1307	1.2995e+02	7.0018	17.217555	0.000283	2.825418	0.478639	-0.000028
1308	1.3005e+02	6.9884	17.193522	0.000242	2.415937	0.409271	-0.000024
1309	1.3015e+02	6.9802	17.167452	0.000262	2.620677	0.443955	-0.000026
1310	1.3025e+02	6.9693	17.144233	0.000233	2.334041	0.395397	-0.000023
1311	1.3034e+02	6.9601	17.116941	0.000274	2.743521	0.464765	-0.000027
1312	1.3044e+02	6.9527	17.087205	0.000299	2.989210	0.506386	-0.000030
1313	1.3054e+02	6.9386	17.061950	0.000254	2.538781	0.430081	-0.000025
1314	1.3064e+02	6.9302	17.030585	0.000315	3.153002	0.534133	-0.000032
1315	1.3074e+02	6.9244	17.001256	0.000295	2.948262	0.499449	-0.000029
1316	1.3084e+02	6.9106	16.977630	0.000237	2.374989	0.402334	-0.000024
1317	1.3094e+02	6.8995	16.950338	0.000274	2.743521	0.464765	-0.000027
1318	1.3104e+02	6.8897	16.924676	0.000258	2.579729	0.437018	-0.000026
1319	1.3114e+02	6.8819	16.899013	0.000258	2.579729	0.437018	-0.000026
1320	1.3124e+02	6.8786	16.868055	0.000311	3.112054	0.527196	-0.000031
1321	1.3134e+02	6.8618	16.842392	0.000258	2.579729	0.437018	-0.000026
1322	1.3144e+02	6.8511	16.812249	0.000303	3.030158	0.513323	-0.000030
1323	1.3154e+02	6.8394	16.789031	0.000233	2.334041	0.395397	-0.000023
1324	1.3164e+02	6.8311	16.764590	0.000246	2.456885	0.416208	-0.000025
1325	1.3174e+02	6.8197	16.731595	0.000332	3.316794	0.561880	-0.000033
1326	1.3184e+02	6.8108	16.704303	0.000274	2.743521	0.464765	-0.000027
1327	1.3194e+02	6.8014	16.674567	0.000299	2.989210	0.506386	-0.000030
1328	1.3204e+02	6.7892	16.647275	0.000274	2.743521	0.464765	-0.000027
1329	1.3214e+02	6.7816	16.619983	0.000274	2.743521	0.464765	-0.000027
1330	1.3224e+02	6.7695	16.593506	0.000266	2.661625	0.450892	-0.000027
1331	1.3234e+02	6.7628	16.563363	0.000303	3.030158	0.513323	-0.000030
1332	1.3243e+02	6.7504	16.538108	0.000254	2.538781	0.430081	-0.000025
1333	1.3253e+02	6.7410	16.510001	0.000283	2.825418	0.478639	-0.000028
1334	1.3263e+02	6.7306	16.481894	0.000283	2.825418	0.478639	-0.000028
1335	1.3273e+02	6.7236	16.452973	0.000291	2.907314	0.492512	-0.000029
1336	1.3283e+02	6.7128	16.426903	0.000262	2.620677	0.443955	-0.000026
1337	1.3293e+02	6.7006	16.397167	0.000299	2.989210	0.506386	-0.000030
1338	1.3303e+02	6.6924	16.365394	0.000319	3.193950	0.541070	-0.000032
1339	1.3313e+02	6.6851	16.340954	0.000246	2.456885	0.416208	-0.000025
1340	1.3323e+02	6.6737	16.309181	0.000319	3.193950	0.541070	-0.000032
1341	1.3333e+02	6.6621	16.277408	0.000319	3.193950	0.541070	-0.000032
1342	1.3343e+02	6.6512	16.248894	0.000287	2.866366	0.485575	-0.000029
1343	1.3353e+02	6.6415	16.217122	0.000319	3.193950	0.541070	-0.000032
1344	1.3363e+02	6.6311	16.184127	0.000332	3.316794	0.561880	-0.000033
1345	1.3373e+02	6.6219	16.155613	0.000287	2.866366	0.485575	-0.000029
1346	1.3383e+02	6.6138	16.126692	0.000291	2.907314	0.492512	-0.000029
1347	1.3393e+02	6.6035	16.097770	0.000291	2.907314	0.492512	-0.000029
1348	1.3403e+02	6.5914	16.068034	0.000299	2.989210	0.506386	-0.000030
1349	1.3413e+02	6.5837	16.041150	0.000270	2.702573	0.457828	-0.000027
1350	1.3423e+02	6.5705	16.009784	0.000315	3.153002	0.534133	-0.000032
1351	1.3432e+02	6.5626	15.981678	0.000283	2.825418	0.478639	-0.000028
1352	1.3442e+02	6.5532	15.948683	0.000332	3.316794	0.561880	-0.000033
1353	1.3452e+02	6.5418	15.917318	0.000315	3.153002	0.534133	-0.000032
1354	1.3462e+02	6.5336	15.883508	0.000340	3.398691	0.575754	-0.000034
1355	1.3472e+02	6.5209	15.852957	0.000307	3.071106	0.520259	-0.000031
1356	1.3482e+02	6.5126	15.821592	0.000315	3.153002	0.534133	-0.000032
1357	1.3492e+02	6.5032	15.790634	0.000311	3.112054	0.527196	-0.000031
1358	1.3502e+02	6.4912	15.760083	0.000307	3.071106	0.520259	-0.000031
1359	1.3512e+02	6.4823	15.725867	0.000344	3.439639	0.582691	-0.000034
1360	1.3522e+02	6.4748	15.696945	0.000291	2.907314	0.492512	-0.000029
1361	1.3532e+02	6.4626	15.667617	0.000295	2.948262	0.499449	-0.000029
1362	1.3542e+02	6.4547	15.631770	0.000360	3.603431	0.610438	-0.000036
1363	1.3552e+02	6.4455	15.606923	0.000250	2.497833	0.423144	-0.000025
1364	1.3562e+02	6.4327	15.576779	0.000303	3.030158	0.513323	-0.000030
1365	1.3572e+02	6.4209	15.547451	0.000295	2.948262	0.499449	-0.000029
1366	1.3582e+02	6.4140	15.516085	0.000315	3.153002	0.534133	-0.000032
1367	1.3592e+02	6.4031	15.485127	0.000311	3.112054	0.527196	-0.000031
1368	1.3602e+02	6.3938	15.453354	0.000319	3.193950	0.541070	-0.000032
1369	1.3612e+02	6.3836	15.428099	0.000254	2.538781	0.430081	-0.000025
1370	1.3622e+02	6.3715	15.395104	0.000332	3.316794	0.561880	-0.000033
1371	1.3631e+02	6.3647	15.364554	0.000307	3.071106	0.520259	-0.000031
1372	1.3641e+02	6.3552	15.336854	0.000278	2.784469	0.471702	-0.000028
1373	1.3651e+02	6.3443	15.304267	0.000328	3.275846	0.554943	-0.000033
1374	1.3661e+02	6.3335	15.276975	0.000274	2.743521	0.464765	-0.000027
1375	1.3671e+02	6.3256	15.251720	0.000254	2.538781	0.430081	-0.000025
1376	1.3681e+02	6.3103	15.218725	0.000332	3.316794	0.561880	-0.000033
1377	1.3691e+02	6.3015	15.191840	0.000270	2.702573	0.457828	-0.000027
1378	1.3701e+02	6.2954	15.165771	0.000262	2.620677	0.443955	-0.000026
1379	1.3711e+02	6.2858	15.136849	0.000291	2.907314	0.492512	-0.000029
1380	1.3721e+02	6.2737	15.112816	0.000242	2.415937	0.409271	-0.000024
1381	1.3731e+02	6.2659	15.085117	0.000278	2.784469	0.471702	-0.000028
1382	1.3741e+02	6.2527	15.053751	0.000315	3.153002	0.534133	-0.000032
1383	1.3751e+02	6.2475	15.029718	0.000242	2.415937	0.409271	-0.000024
1384	1.3761e+02	6.2371	15.000797	0.000291	2.907314	0.492512	-0.000029
1385	1.3771e+02	6.2228	14.978800	0.000221	2.211196	0.374587	-0.000022
1386	1.3781e+02	6.2150	14.947435	0.000315	3.153002	0.534133	-0.000032
1387	1.3791e+02	6.2048	14.920958	0.000266	2.661625	0.450892	-0.000027
1388	1.3801e+02	6.1926	14.895702	0.000254	2.538781	0.430081	-0.000025
1389	1.3811e+02	6.1831	14.867596	0.000283	2.825418	0.478639	-0.000028
1390	1.3821e+02	6.1752	14.839489	0.000283	2.825418	0.478639	-0.000028
1391	1.3831e+02	6.1645	14.810975	0.000287	2.866366	0.485575	-0.000029
1392	1.3840e+02	6.1549	14.785313	0.000258	2.579729	0.437018	-0.000026
1393	1.3850e+02	6.1434	14.758021	0.000274	2.743521	0.464765	-0.000027
1394	1.3860e+02	6.1353	14.731543	0.000266	2.661625	0.450892	-0.000027
1395	1.3870e+02	6.1256	14.706695	0.000250	2.497833	0.423144	-0.000025
1396	1.3880e+02	6.1140	14.677367	0.000295	2.948262	0.499449	-0.000029
1397	1.3890e+02	6.1074	14.654148	0.000233	2.334041	0.395397	-0.000023
1398	1.3900e+02	6.0967	14.626856	0.000274	2.743521	0.464765	-0.000027
1399	1.3910e+02	6.0854	14.601194	0.000258	2.579729	0.437018	-0.000026
1400	1.3920e+02	6.0789	14.575124	0.000262	2.620677	0.443955	-0.000026
1401	1.3930e+02	6.0645	14.546610	0.000287	2.866366	0.485575	-0.000029
1402	1.3940e+02	6.0567	14.518096	0.000287	2.866366	0.485575	-0.000029
1403	1.3950e+02	6.0485	14.493655	0.000246	2.456885	0.416208	-0.000025
1404	1.3960e+02	6.0348	14.463105	0.000307	3.071106	0.520259	-0.000031
1405	1.3970e+02	6.0247	14.435813	0.000274	2.743521	0.464765	-0.000027
1406	1.3980e+02	6.0143	14.409743	0.000262	2.620677	0.443955	-0.000026
1407	1.3990e+02	6.0046	14.387746	0.000221	2.211196	0.374587	-0.000022
1408	1.4000e+02	5.9972	14.356788	0.000311	3.112054	0.527196	-0.000031
1409	1.4010e+02	5.9872	14.332755	0.000242	2.415937	0.409271	-0.000024
1410	1.4020e+02	5.9763	14.307092	0.000258	2.579729	0.437018	-0.000026
1411	1.4029e+02	5.9646	14.283059	0.000242	2.415937	0.409271	-0.000024
1412	1.4039e+02	5.9549	14.255767	0.000274	2.743521	0.464765	-0.000027
1413	1.4049e+02	5.9473	14.227661	0.000283	2.825418	0.478639	-0.000028
1414	1.4059e+02	5.9351	14.199147	0.000287	2.866366	0.485575	-0.000029
1415	1.4069e+02	5.9280	14.172669	0.000266	2.661625	0.450892	-0.000027
1416	1.4079e+02	5.9142	14.146192	0.000266	2.661625	0.450892	-0.000027
1417	1.4089e+02	5.9075	14.120937	0.000254	2.538781	0.430081	-0.000025
1418	1.4099e+02	5.8936	14.092830	0.000283	2.825418	0.478639	-0.000028
1419	1.4109e+02	5.8878	14.068797	0.000242	2.415937	0.409271	-0.000024
1420	1.4119e+02	5.8773	14.039468	0.000295	2.948262	0.499449	-0.000029
1421	1.4129e+02	5.8656	14.013398	0.000262	2.620677	0.443955	-0.000026
1422	1.4139e+02	5.8555	13.990587	0.000229	2.293092	0.388460	-0.000023
1423	1.4149e+02	5.8517	13.963703	0.000270	2.702573	0.457828	-0.000027
1424	1.4159e+02	5.8364	13.940077	0.000237	2.374989	0.402334	-0.000024
1425	1.4169e+02	5.8260	13.914822	0.000254	2.538781	0.430081	-0.000025
1426	1.4179e+02	5.8175	13.892010	0.000229	2.293092	0.388460	-0.000023
1427	1.4189e+02	5.8071	13.863904	0.000283	2.825418	0.478639	-0.000028
1428	1.4199e+02	5.7983	13.841093	0.000229	2.293092	0.388460	-0.000023
1429	1.4209e+02	5.7873	13.815430	0.000258	2.579729	0.437018	-0.000026
1430	1.4219e+02	5.7754	13.790582	0.000250	2.497833	0.423144	-0.000025
1431	1.4228e+02	5.7668	13.765327	0.000254	2.538781	0.430081	-0.000025
1432	1.4238e+02	5.7601	13.739257	0.000262	2.620677	0.443955	-0.000026
1433	1.4248e+02	5.7488	13.714816	0.000246	2.456885	0.416208	-0.000025
1434	1.4258e+02	5.7352	13.687932	0.000270	2.702573	0.457828	-0.000027
1435	1.4268e+02	5.7285	13.663084	0.000250	2.497833	0.423144	-0.000025
1436	1.4278e+02	5.7169	13.638643	0.000246	2.456885	0.416208	-0.000025
1437	1.4288e+02	5.7058	13.615017	0.000237	2.374989	0.402334	-0.000024
1438	1.4298e+02	5.6958	13.586911	0.000283	2.825418	0.478639	-0.000028
1439	1.4308e+02	5.6844	13.566544	0.000205	2.047404	0.346840	-0.000020
1440	1.4318e+02	5.6767	13.542510	0.000242	2.415937	0.409271	-0.000024
1441	1.4328e+02	5.6692	13.520921	0.000217	2.170248	0.367650	-0.000022
1442	1.4338e+02	5.6550	13.496481	0.000246	2.456885	0.416208	-0.000025
1443	1.4348e+02	5.6490	13.474484	0.000221	2.211196	0.374587	-0.000022
1444	1.4358e+02	5.6353	13.443934	0.000307	3.071106	0.520259	-0.000031
1445	1.4368e+02	5.6297	13.417049	0.000270	2.702573	0.457828	-0.000027
1446	1.4378e+02	5.6155	13.391386	0.000258	2.579729	0.437018	-0.000026
1447	1.4388e+02	5.6089	13.364502	0.000270	2.702573	0.457828	-0.000027
1448	1.4398e+02	5.5958	13.336395	0.000283	2.825418	0.478639	-0.000028
1449	1.4408e+02	5.5865	13.311955	0.000246	2.456885	0.416208	-0.000025
1450	1.4418e+02	5.5795	13.285070	0.000270	2.702573	0.457828	-0.000027
1451	1.4428e+02	5.5688	13.258185	0.000270	2.702573	0.457828	-0.000027
1452	1.4437e+02	5.5592	13.232930	0.000254	2.538781	0.430081	-0.000025
1453	1.4447e+02	5.5492	13.210526	0.000225	2.252144	0.381524	-0.000023
1454	1.4457e+02	5.5399	13.181605	0.000291	2.907314	0.492512	-0.000029
1455	1.4467e+02	5.5302	13.154720	0.000270	2.702573	0.457828	-0.000027
1456	1.4477e+02	5.5190	13.130280	0.000246	2.456885	0.416208	-0.000025
1457	1.4487e+02	5.5100	13.101766	0.000287	2.866366	0.485575	-0.000029
1458	1.4497e+02	5.5009	13.072030	0.000299	2.989210	0.506386	-0.000030
1459	1.4507e+02	5.4883	13.043516	0.000287	2.866366	0.485575	-0.000029
1460	1.4517e+02	5.4762	13.014595	0.000291	2.907314	0.492512	-0.000029
1461	1.4527e+02	5.4694	12.984859	0.000299	2.989210	0.506386	-0.000030
1462	1.4537e+02	5.4583	12.958789	0.000262	2.620677	0.443955	-0.000026
1463	1.4547e+02	5.4489	12.928238	0.000307	3.071106	0.520259	-0.000031
1464	1.4557e+02	5.4395	12.898909	0.000295	2.948262	0.499449	-0.000029
1465	1.4567e+02	5.4298	12.869581	0.000295	2.948262	0.499449	-0.000029
1466	1.4577e+02	5.4177	12.842696	0.000270	2.702573	0.457828	-0.000027
1467	1.4587e+02	5.4069	12.813367	0.000295	2.948262	0.499449	-0.000029
1468	1.4597e+02	5.3986	12.784446	0.000291	2.907314	0.492512	-0.000029
1469	1.4607e+02	5.3889	12.752673	0.000319	3.193950	0.541070	-0.000032
1470	1.4617e+02	5.3747	12.724974	0.000278	2.784469	0.471702	-0.000028
1471	1.4626e+02	5.3689	12.697682	0.000274	2.743521	0.464765	-0.000027
1472	1.4636e+02	5.3567	12.662243	0.000356	3.562483	0.603501	-0.000036
1473	1.4646e+02	5.3498	12.636988	0.000254	2.538781	0.430081	-0.000025
1474	1.4656e+02	5.3391	12.607659	0.000295	2.948262	0.499449	-0.000029
1475	1.4666e+02	5.3273	12.579145	0.000287	2.866366	0.485575	-0.000029
1476	1.4676e+02	5.3199	12.548595	0.000307	3.071106	0.520259	-0.000031
1477	1.4686e+02	5.3075	12.513971	0.000348	3.480587	0.589627	-0.000035
1478	1.4696e+02	5.2991	12.485049	0.000291	2.907314	0.492512	-0.000029
1479	1.4706e+02	5.2892	12.452462	0.000328	3.275846	0.554943	-0.000033
1480	1.4716e+02	5.2809	12.419060	0.000336	3.357743	0.568817	-0.000034
1481	1.4726e+02	5.2695	12.387287	0.000319	3.193950	0.541070	-0.000032
1482	1.4736e+02	5.2563	12.360810	0.000266	2.661625	0.450892	-0.000027
1483	1.4746e+02	5.2484	12.329852	0.000311	3.112054	0.527196	-0.000031
1484	1.4756e+02	5.2389	12.297672	0.000323	3.234898	0.548007	-0.000032
1485	1.4766e+02	5.2306	12.268343	0.000295	2.948262	0.499449	-0.000029
1486	1.4776e+02	5.2215	12.236163	0.000323	3.234898	0.548007	-0.000032
1487	1.4786e+02	5.2114	12.207242	0.000291	2.907314	0.492512	-0.000029
1488	1.4796e+02	5.2000	12.177506	0.000299	2.989210	0.506386	-0.000030
1489	1.4806e+02	5.1916	12.143289	0.000344	3.439639	0.582691	-0.000034
1490	1.4816e+02	5.1781	12.112738	0.000307	3.071106	0.520259	-0.000031
1491	1.4825e+02	5.1702	12.079336	0.000336	3.357743	0.568817	-0.000034
1492	1.4835e+02	5.1590	12.052451	0.000270	2.702573	0.457828	-0.000027
1493	1.4845e+02	5.1485	12.020679	0.000319	3.193950	0.541070	-0.000032
1494	1.4855e+02	5.1382	11.985240	0.000356	3.562483	0.603501	-0.000036
1495	1.4865e+02	5.1289	11.954689	0.000307	3.071106	0.520259	-0.000031
1496	1.4875e+02	5.1200	11.922509	0.000323	3.234898	0.548007	-0.000032
1497	1.4885e+02	5.1080	11.890736	0.000319	3.193950	0.541070	-0.000032
1498	1.4895e+02	5.0983	11.860186	0.000307	3.071106	0.520259	-0.000031
1499	1.4905e+02	5.0889	11.829228	0.000311	3.112054	0.527196	-0.000031
1500	1.4915e+02	5.0812	11.795418	0.000340	3.398691	0.575754	-0.000034
1501	1.4925e+02	5.0674	11.764053	0.000315	3.153002	0.534133	-0.000032
1502	1.4935e+02	5.0608	11.732688	0.000315	3.153002	0.534133	-0.000032
1503	1.4945e+02	5.0506	11.700915	0.000319	3.193950	0.541070	-0.000032
1504	1.4955e+02	5.0408	11.667920	0.000332	3.316794	0.561880	-0.000033
1505	1.4965e+02	5.0341	11.636147	0.000319	3.193950	0.541070	-0.000032
1506	1.4975e+02	5.0198	11.605189	0.000311	3.112054	0.527196	-0.000031
1507	1.4985e+02	5.0115	11.570973	0.000344	3.439639	0.582691	-0.000034
1508	1.4995e+02	4.9995	11.538385	0.000328	3.275846	0.554943	-0.000033
1509	1.5005e+02	4.9914	11.502539	0.000360	3.603431	0.610438	-0.000036
1510	1.5015e+02	4.9790	11.469544	0.000332	3.316794	0.561880	-0.000033
1511	1.5025e+02	4.9700	11.435327	0.000344	3.439639	0.582691	-0.000034
1512	1.5034e+02	4.9651	11.403555	0.000319	3.193950	0.541070	-0.000032
1513	1.5044e+02	4.9516	11.368523	0.000352	3.521535	0.596564	-0.000035
1514	1.5054e+02	4.9412	11.335121	0.000336	3.357743	0.568817	-0.000034
1515	1.5064e+02	4.9305	11.303756	0.000315	3.153002	0.534133	-0.000032
1516	1.5074e+02	4.9217	11.267910	0.000360	3.603431	0.610438	-0.000036
1517	1.5084e+02	4.9139	11.234915	0.000332	3.316794	0.561880	-0.000033
1518	1.5094e+02	4.9050	11.202735	0.000323	3.234898	0.548007	-0.000032
1519	1.5104e+02	4.8920	11.164445	0.000385	3.849119	0.652058	-0.000038
1520	1.5114e+02	4.8833	11.130228	0.000344	3.439639	0.582691	-0.000034
1521	1.5124e+02	4.8705	11.096418	0.000340	3.398691	0.575754	-0.000034
1522	1.5134e+02	4.8623	11.060165	0.000364	3.644379	0.617375	-0.000036
1523	1.5144e+02	4.8525	11.027578	0.000328	3.275846	0.554943	-0.000033
1524	1.5154e+02	4.8418	10.988065	0.000397	3.971964	0.672869	-0.000040
1525	1.5164e+02	4.8350	10.953849	0.000344	3.439639	0.582691	-0.000034
1526	1.5174e+02	4.8209	10.922483	0.000315	3.153002	0.534133	-0.000032
1527	1.5184e+02	4.8113	10.884193	0.000385	3.849119	0.652058	-0.000038
1528	1.5194e+02	4.8035	10.854864	0.000295	2.948262	0.499449	-0.000029
1529	1.5204e+02	4.7919	10.820240	0.000348	3.480587	0.589627	-0.000035
1530	1.5214e+02	4.7816	10.783987	0.000364	3.644379	0.617375	-0.000036
1531	1.5224e+02	4.7723	10.752214	0.000319	3.193950	0.541070	-0.000032
1532	1.5233e+02	4.7601	10.716775	0.000356	3.562483	0.603501	-0.000036
1533	1.5243e+02	4.7515	10.687447	0.000295	2.948262	0.499449	-0.000029
1534	1.5253e+02	4.7425	10.649971	0.000377	3.767223	0.638185	-0.000038
1535	1.5263e+02	4.7340	10.614532	0.000356	3.562483	0.603501	-0.000036
1536	1.5273e+02	4.7219	10.583982	0.000307	3.071106	0.520259	-0.000031
1537	1.5283e+02	4.7115	10.548543	0.000356	3.562483	0.603501	-0.000036
1538	1.5293e+02	4.7021	10.513104	0.000356	3.562483	0.603501	-0.000036
1539	1.5303e+02	4.6964	10.478887	0.000344	3.439639	0.582691	-0.000034
1540	1.5313e+02	4.6851	10.447522	0.000315	3.153002	0.534133	-0.000032
1541	1.5323e+02	4.6717	10.415749	0.000319	3.193950	0.541070	-0.000032
1542	1.5333e+02	4.6598	10.382754	0.000332	3.316794	0.561880	-0.000033
1543	1.5343e+02	4.6545	10.353426	0.000295	2.948262	0.499449	-0.000029
1544	1.5353e+02	4.6427	10.317579	0.000360	3.603431	0.610438	-0.000036
1545	1.5363e+02	4.6319	10.287436	0.000303	3.030158	0.513323	-0.000030
1546	1.5373e+02	4.6202	10.257293	0.000303	3.030158	0.513323	-0.000030
1547	1.5383e+02	4.6095	10.226742	0.000307	3.071106	0.520259	-0.000031
1548	1.5393e+02	4.6042	10.192118	0.000348	3.480587	0.589627	-0.000035
1549	1.5403e+02	4.5963	10.164011	0.000283	2.825418	0.478639	-0.000028
1550	1.5413e+02	4.5827	10.135905	0.000283	2.825418	0.478639	-0.000028
1551	1.5422e+02	4.5719	10.104947	0.000311	3.112054	0.527196	-0.000031
1552	1.5432e+02	4.5638	10.075618	0.000295	2.948262	0.499449	-0.000029
1553	1.5442e+02	4.5504	10.040994	0.000348	3.480587	0.589627	-0.000035
1554	1.5452e+02	4.5406	10.013702	0.000274	2.743521	0.464765	-0.000027
1555	1.5462e+02	4.5332	9.977856	0.000360	3.603431	0.610438	-0.000036
1556	1.5472e+02	4.5213	9.945676	0.000323	3.234898	0.548007	-0.000032
1557	1.5482e+02	4.5131	9.915940	0.000299	2.989210	0.506386	-0.000030
1558	1.5492e+02	4.5013	9.887018	0.000291	2.907314	0.492512	-0.000029
1559	1.5502e+02	4.4942	9.853209	0.000340	3.398691	0.575754	-0.000034
1560	1.5512e+02	4.4860	9.823880	0.000295	2.948262	0.499449	-0.000029
1561	1.5522e+02	4.4715	9.794552	0.000295	2.948262	0.499449	-0.000029
1562	1.5532e+02	4.4642	9.767260	0.000274	2.743521	0.464765	-0.000027
1563	1.5542e+02	4.4544	9.736302	0.000311	3.112054	0.527196	-0.000031
1564	1.5552e+02	4.4430	9.704122	0.000323	3.234898	0.548007	-0.000032
1565	1.5562e+02	4.4339	9.673978	0.000303	3.030158	0.513323	-0.000030
1566	1.5572e+02	4.4248	9.641798	0.000323	3.234898	0.548007	-0.000032
1567	1.5582e+02	4.4107	9.613284	0.000287	2.866366	0.485575	-0.000029
1568	1.5592e+02	4.4053	9.587622	0.000258	2.579729	0.437018	-0.000026
1569	1.5602e+02	4.3940	9.552590	0.000352	3.521535	0.596564	-0.000035
1570	1.5612e+02	4.3862	9.522039	0.000307	3.071106	0.520259	-0.000031
1571	1.5622e+02	4.3753	9.490267	0.000319	3.193950	0.541070	-0.000032
1572	1.5631e+02	4.3648	9.460531	0.000299	2.989210	0.506386	-0.000030
1573	1.5641e+02	4.3548	9.428758	0.000319	3.193950	0.541070	-0.000032
1574	1.5651e+02	4.3427	9.399837	0.000291	2.907314	0.492512	-0.000029
1575	1.5661e+02	4.3320	9.366027	0.000340	3.398691	0.575754	-0.000034
1576	1.5671e+02	4.3246	9.336699	0.000295	2.948262	0.499449	-0.000029
1577	1.5681e+02	4.3118	9.308185	0.000287	2.866366	0.485575	-0.000029
1578	1.5691e+02	4.3037	9.282522	0.000258	2.579729	0.437018	-0.000026
1579	1.5701e+02	4.2947	9.250749	0.000319	3.193950	0.541070	-0.000032
1580	1.5711e+02	4.2841	9.217347	0.000336	3.357743	0.568817	-0.000034
1581	1.5721e+02	4.2735	9.190463	0.000270	2.702573	0.457828	-0.000027
1582	1.5731e+02	4.2639	9.155839	0.000348	3.480587	0.589627	-0.000035
1583	1.5741e+02	4.2556	9.128139	0.000278	2.784469	0.471702	-0.000028
1584	1.5751e+02	4.2466	9.100847	0.000274	2.743521	0.464765	-0.000027
1585	1.5761e+02	4.2370	9.068260	0.000328	3.275846	0.554943	-0.000033
1586	1.5771e+02	4.2249	9.036080	0.000323	3.234898	0.548007	-0.000032
1587	1.5781e+02	4.2142	9.002678	0.000336	3.357743	0.568817	-0.000034
1588	1.5791e+02	4.2048	8.973349	0.000295	2.948262	0.499449	-0.000029
1589	1.5801e+02	4.1951	8.948094	0.000254	2.538781	0.430081	-0.000025
1590	1.5811e+02	4.1848	8.917136	0.000311	3.112054	0.527196	-0.000031
1591	1.5821e+02	4.1740	8.887400	0.000299	2.989210	0.506386	-0.000030
1592	1.5830e+02	4.1640	8.862552	0.000250	2.497833	0.423144	-0.000025
1593	1.5840e+02	4.1541	8.832409	0.000303	3.030158	0.513323	-0.000030
1594	1.5850e+02	4.1479	8.803487	0.000291	2.907314	0.492512	-0.000029
1595	1.5860e+02	4.1352	8.772529	0.000311	3.112054	0.527196	-0.000031
1596	1.5870e+02	4.1242	8.745237	0.000274	2.743521	0.464765	-0.000027
1597	1.5880e+02	4.1163	8.715094	0.000303	3.030158	0.513323	-0.000030
1598	1.5890e+02	4.1039	8.689024	0.000262	2.620677	0.443955	-0.000026
1599	1.5900e+02	4.0950	8.658473	0.000307	3.071106	0.520259	-0.000031
1600	1.5910e+02	4.0845	8.627515	0.000311	3.112054	0.527196	-0.000031
1601	1.5920e+02	4.0762	8.596150	0.000315	3.153002	0.534133	-0.000032
1602	1.5930e+02	4.0672	8.570080	0.000262	2.620677	0.443955	-0.000026
1603	1.5940e+02	4.0539	8.541973	0.000283	2.825418	0.478639	-0.000028
1604	1.5950e+02	4.0446	8.515496	0.000266	2.661625	0.450892	-0.000027
1605	1.5960e+02	4.0357	8.486167	0.000295	2.948262	0.499449	-0.000029
1606	1.5970e+02	4.0256	8.459690	0.000266	2.661625	0.450892	-0.000027
1607	1.5980e+02	4.0160	8.431991	0.000278	2.784469	0.471702	-0.000028
1608	1.5990e+02	4.0076	8.404699	0.000274	2.743521	0.464765	-0.000027
1609	1.6000e+02	3.9945	8.376592	0.000283	2.825418	0.478639	-0.000028
1610	1.6010e+02	3.9843	8.347264	0.000295	2.948262	0.499449	-0.000029
1611	1.6019e+02	3.9762	8.314676	0.000328	3.275846	0.554943	-0.000033
1612	1.6029e+02	3.9671	8.286570	0.000283	2.825418	0.478639	-0.000028
1613	1.6039e+02	3.9541	8.257648	0.000291	2.907314	0.492512	-0.000029
1614	1.6049e+02	3.9462	8.226690	0.000311	3.112054	0.527196	-0.000031
1615	1.6059e+02	3.9332	8.194917	0.000319	3.193950	0.541070	-0.000032
1616	1.6069e+02	3.9254	8.162330	0.000328	3.275846	0.554943	-0.000033
1617	1.6079e+02	3.9141	8.133816	0.000287	2.866366	0.485575	-0.000029
1618	1.6089e+02	3.9041	8.104080	0.000299	2.989210	0.506386	-0.000030
1619	1.6099e+02	3.8961	8.074751	0.000295	2.948262	0.499449	-0.000029
1620	1.6109e+02	3.8851	8.044201	0.000307	3.071106	0.520259	-0.000031
1621	1.6119e+02	3.8783	8.013243	0.000311	3.112054	0.527196	-0.000031
1622	1.6129e+02	3.8650	7.985543	0.000278	2.784469	0.471702	-0.000028
1623	1.6139e+02	3.8564	7.954178	0.000315	3.153002	0.534133	-0.000032
1624	1.6149e+02	3.8482	7.924442	0.000299	2.989210	0.506386	-0.000030
1625	1.6159e+02	3.8360	7.889818	0.000348	3.480587	0.589627	-0.000035
1626	1.6169e+02	3.8274	7.857638	0.000323	3.234898	0.548007	-0.000032
1627	1.6179e+02	3.8161	7.825050	0.000328	3.275846	0.554943	-0.000033
1628	1.6189e+02	3.8047	7.794500	0.000307	3.071106	0.520259	-0.000031
1629	1.6199e+02	3.7952	7.759468	0.000352	3.521535	0.596564	-0.000035
1630	1.6209e+02	3.7887	7.726066	0.000336	3.357743	0.568817	-0.000034
1631	1.6219e+02	3.7791	7.693479	0.000328	3.275846	0.554943	-0.000033
1632	1.6228e+02	3.7688	7.661706	0.000319	3.193950	0.541070	-0.000032
1633	1.6238e+02	3.7569	7.634007	0.000278	2.784469	0.471702	-0.000028
1634	1.6248e+02	3.7453	7.595309	0.000389	3.890068	0.658995	-0.000039
1635	1.6258e+02	3.7359	7.564351	0.000311	3.112054	0.527196	-0.000031
1636	1.6268e+02	3.7281	7.534208	0.000303	3.030158	0.513323	-0.000030
1637	1.6278e+02	3.7192	7.496732	0.000377	3.767223	0.638185	-0.000038
1638	1.6288e+02	3.7075	7.464552	0.000323	3.234898	0.548007	-0.000032
1639	1.6298e+02	3.6964	7.427891	0.000369	3.685327	0.624311	-0.000037
1640	1.6308e+02	3.6893	7.396526	0.000315	3.153002	0.534133	-0.000032
1641	1.6318e+02	3.6758	7.363124	0.000336	3.357743	0.568817	-0.000034
1642	1.6328e+02	3.6674	7.329722	0.000336	3.357743	0.568817	-0.000034
1643	1.6338e+02	3.6578	7.297949	0.000319	3.193950	0.541070	-0.000032
1644	1.6348e+02	3.6498	7.261288	0.000369	3.685327	0.624311	-0.000037
1645	1.6358e+02	3.6390	7.226664	0.000348	3.480587	0.589627	-0.000035
1646	1.6368e+02	3.6297	7.192040	0.000348	3.480587	0.589627	-0.000035
1647	1.6378e+02	3.6169	7.153343	0.000389	3.890068	0.658995	-0.000039
1648	1.6388e+02	3.6105	7.118718	0.000348	3.480587	0.589627	-0.000035
1649	1.6398e+02	3.5968	7.082058	0.000369	3.685327	0.624311	-0.000037
1650	1.6408e+02	3.5863	7.047433	0.000348	3.480587	0.589627	-0.000035
1651	1.6418e+02	3.5754	7.013217	0.000344	3.439639	0.582691	-0.000034
1652	1.6427e+02	3.5664	6.977778	0.000356	3.562483	0.603501	-0.000036
1653	1.6437e+02	3.5577	6.943154	0.000348	3.480587	0.589627	-0.000035
1654	1.6447e+02	3.5491	6.911381	0.000319	3.193950	0.541070	-0.000032
1655	1.6457e+02	3.5380	6.875942	0.000356	3.562483	0.603501	-0.000036
1656	1.6467e+02	3.5265	6.840096	0.000360	3.603431	0.610438	-0.000036
1657	1.6477e+02	3.5185	6.804250	0.000360	3.603431	0.610438	-0.000036
1658	1.6487e+02	3.5095	6.769626	0.000348	3.480587	0.589627	-0.000035
1659	1.6497e+02	3.4994	6.737853	0.000319	3.193950	0.541070	-0.000032
1660	1.6507e+02	3.4865	6.699563	0.000385	3.849119	0.652058	-0.000038
1661	1.6517e+02	3.4793	6.659643	0.000401	4.012912	0.679806	-0.000040
1662	1.6527e+02	3.4676	6.626241	0.000336	3.357743	0.568817	-0.000034
1663	1.6537e+02	3.4582	6.587544	0.000389	3.890068	0.658995	-0.000039
1664	1.6547e+02	3.4496	6.556178	0.000315	3.153002	0.534133	-0.000032
1665	1.6557e+02	3.4367	6.518296	0.000381	3.808171	0.645122	-0.000038
1666	1.6567e+02	3.4286	6.482857	0.000356	3.562483	0.603501	-0.000036
1667	1.6577e+02	3.4190	6.444974	0.000381	3.808171	0.645122	-0.000038
1668	1.6587e+02	3.4073	6.411979	0.000332	3.316794	0.561880	-0.000033
1669	1.6597e+02	3.3956	6.377762	0.000344	3.439639	0.582691	-0.000034
1670	1.6607e+02	3.3904	6.337843	0.000401	4.012912	0.679806	-0.000040
1671	1.6616e+02	3.3789	6.306070	0.000319	3.193950	0.541070	-0.000032
1672	1.6626e+02	3.3697	6.270224	0.000360	3.603431	0.610438	-0.000036
1673	1.6636e+02	3.3579	6.232341	0.000381	3.808171	0.645122	-0.000038
1674	1.6646e+02	3.3466	6.194458	0.000381	3.808171	0.645122	-0.000038
1675	1.6656e+02	3.3383	6.155353	0.000393	3.931016	0.665932	-0.000039
1676	1.6666e+02	3.3305	6.112990	0.000426	4.258600	0.721426	-0.000043
1677	1.6676e+02	3.3207	6.077144	0.000360	3.603431	0.610438	-0.000036
1678	1.6686e+02	3.3088	6.038039	0.000393	3.931016	0.665932	-0.000039
1679	1.6696e+02	3.3009	5.997712	0.000405	4.053860	0.686742	-0.000041
1680	1.6706e+02	3.2896	5.962273	0.000356	3.562483	0.603501	-0.000036
1681	1.6716e+02	3.2819	5.927649	0.000348	3.480587	0.589627	-0.000035
1682	1.6726e+02	3.2695	5.886915	0.000409	4.094808	0.693679	-0.000041
1683	1.6736e+02	3.2596	5.853105	0.000340	3.398691	0.575754	-0.000034
1684	1.6746e+02	3.2504	5.815222	0.000381	3.808171	0.645122	-0.000038
1685	1.6756e+02	3.2393	5.776117	0.000393	3.931016	0.665932	-0.000039
1686	1.6766e+02	3.2304	5.737827	0.000385	3.849119	0.652058	-0.000038
1687	1.6776e+02	3.2191	5.692612	0.000455	4.545237	0.769984	-0.000045
1688	1.6786e+02	3.2095	5.659617	0.000332	3.316794	0.561880	-0.000033
1689	1.6796e+02	3.2001	5.617254	0.000426	4.258600	0.721426	-0.000043
1690	1.6806e+02	3.1909	5.581000	0.000364	3.644379	0.617375	-0.000036
1691	1.6816e+02	3.1802	5.537822	0.000434	4.340496	0.735300	-0.000043
1692	1.6825e+02	3.1680	5.497902	0.000401	4.012912	0.679806	-0.000040
1693	1.6835e+02	3.1640	5.458390	0.000397	3.971964	0.672869	-0.000040
1694	1.6845e+02	3.1495	5.423359	0.000352	3.521535	0.596564	-0.000035
1695	1.6855e+02	3.1405	5.380995	0.000426	4.258600	0.721426	-0.000043
1696	1.6865e+02	3.1310	5.344742	0.000364	3.644379	0.617375	-0.000036
1697	1.6875e+02	3.1223	5.305637	0.000393	3.931016	0.665932	-0.000039
1698	1.6885e+02	3.1117	5.268161	0.000377	3.767223	0.638185	-0.000038
1699	1.6895e+02	3.1002	5.228649	0.000397	3.971964	0.672869	-0.000040
1700	1.6905e+02	3.0915	5.189544	0.000393	3.931016	0.665932	-0.000039
1701	1.6915e+02	3.0801	5.150439	0.000393	3.931016	0.665932	-0.000039
1702	1.6925e+02	3.0697	5.115408	0.000352	3.521535	0.596564	-0.000035
1703	1.6935e+02	3.0602	5.079562	0.000360	3.603431	0.610438	-0.000036
1704	1.6945e+02	3.0501	5.038013	0.000418	4.176704	0.707553	-0.000042
1705	1.6955e+02	3.0424	5.000130	0.000381	3.808171	0.645122	-0.000038
1706	1.6965e+02	3.0293	4.961025	0.000393	3.931016	0.665932	-0.000039
1707	1.6975e+02	3.0206	4.925586	0.000356	3.562483	0.603501	-0.000036
1708	1.6985e+02	3.0102	4.886074	0.000397	3.971964	0.672869	-0.000040
1709	1.6995e+02	3.0007	4.846562	0.000397	3.971964	0.672869	-0.000040
1710	1.7005e+02	2.9935	4.810308	0.000364	3.644379	0.617375	-0.000036
1711	1.7015e+02	2.9793	4.775684	0.000348	3.480587	0.589627	-0.000035
1712	1.7024e+02	2.9708	4.739431	0.000364	3.644379	0.617375	-0.000036
1713	1.7034e+02	2.9595	4.708880	0.000307	3.071106	0.520259	-0.000031
1714	1.7044e+02	2.9511	4.669368	0.000397	3.971964	0.672869	-0.000040
1715	1.7054e+02	2.9409	4.635151	0.000344	3.439639	0.582691	-0.000034
1716	1.7064e+02	2.9321	4.601749	0.000336	3.357743	0.568817	-0.000034
1717	1.7074e+02	2.9222	4.561015	0.000409	4.094808	0.693679	-0.000041
1718	1.7084e+02	2.9122	4.524761	0.000364	3.644379	0.617375	-0.000036
1719	1.7094e+02	2.9005	4.492174	0.000328	3.275846	0.554943	-0.000033
1720	1.7104e+02	2.8902	4.453069	0.000393	3.931016	0.665932	-0.000039
1721	1.7114e+02	2.8801	4.421703	0.000315	3.153002	0.534133	-0.000032
1722	1.7124e+02	2.8753	4.387894	0.000340	3.398691	0.575754	-0.000034
1723	1.7134e+02	2.8621	4.350826	0.000373	3.726275	0.631248	-0.000037
1724	1.7144e+02	2.8523	4.314572	0.000364	3.644379	0.617375	-0.000036
1725	1.7154e+02	2.8391	4.273838	0.000409	4.094808	0.693679	-0.000041
1726	1.7164e+02	2.8347	4.241658	0.000323	3.234898	0.548007	-0.000032
1727	1.7174e+02	2.8228	4.206219	0.000356	3.562483	0.603501	-0.000036
1728	1.7184e+02	2.8117	4.172410	0.000340	3.398691	0.575754	-0.000034
1729	1.7194e+02	2.8008	4.141452	0.000311	3.112054	0.527196	-0.000031
1730	1.7204e+02	2.7914	4.106420	0.000352	3.521535	0.596564	-0.000035
1731	1.7213e+02	2.7843	4.069759	0.000369	3.685327	0.624311	-0.000037
1732	1.7223e+02	2.7704	4.035135	0.000348	3.480587	0.589627	-0.000035
1733	1.7233e+02	2.7647	3.998474	0.000369	3.685327	0.624311	-0.000037
1734	1.7243e+02	2.7499	3.965480	0.000332	3.316794	0.561880	-0.000033
1735	1.7253e+02	2.7417	3.927190	0.000385	3.849119	0.652058	-0.000038
1736	1.7263e+02	2.7309	3.892565	0.000348	3.480587	0.589627	-0.000035
1737	1.7273e+02	2.7225	3.855497	0.000373	3.726275	0.631248	-0.000037
1738	1.7283e+02	2.7110	3.819651	0.000360	3.603431	0.610438	-0.000036
1739	1.7293e+02	2.7022	3.785434	0.000344	3.439639	0.582691	-0.000034
1740	1.7303e+02	2.6913	3.748366	0.000373	3.726275	0.631248	-0.000037
1741	1.7313e+02	2.6820	3.713335	0.000352	3.521535	0.596564	-0.000035
1742	1.7323e+02	2.6715	3.675452	0.000381	3.808171	0.645122	-0.000038
1743	1.7333e+02	2.6600	3.642457	0.000332	3.316794	0.561880	-0.000033
1744	1.7343e+02	2.6531	3.612314	0.000303	3.030158	0.513323	-0.000030
1745	1.7353e+02	2.6413	3.574838	0.000377	3.767223	0.638185	-0.000038
1746	1.7363e+02	2.6344	3.541843	0.000332	3.316794	0.561880	-0.000033
1747	1.7373e+02	2.6233	3.506812	0.000352	3.521535	0.596564	-0.000035
1748	1.7383e+02	2.6141	3.470151	0.000369	3.685327	0.624311	-0.000037
1749	1.7393e+02	2.6027	3.437564	0.000328	3.275846	0.554943	-0.000033
1750	1.7403e+02	2.5916	3.400496	0.000373	3.726275	0.631248	-0.000037
1751	1.7413e+02	2.5842	3.365057	0.000356	3.562483	0.603501	-0.000036
1752	1.7422e+02	2.5739	3.325545	0.000397	3.971964	0.672869	-0.000040
1753	1.7432e+02	2.5631	3.294994	0.000307	3.071106	0.520259	-0.000031
1754	1.7442e+02	2.5515	3.258333	0.000369	3.685327	0.624311	-0.000037
1755	1.7452e+02	2.5422	3.221672	0.000369	3.685327	0.624311	-0.000037
1756	1.7462e+02	2.5335	3.188270	0.000336	3.357743	0.568817	-0.000034
1757	1.7472e+02	2.5211	3.155275	0.000332	3.316794	0.561880	-0.000033
1758	1.7482e+02	2.5121	3.120651	0.000348	3.480587	0.589627	-0.000035
1759	1.7492e+02	2.5051	3.090915	0.000299	2.989210	0.506386	-0.000030
1760	1.7502e+02	2.4937	3.053032	0.000381	3.808171	0.645122	-0.000038
1761	1.7512e+02	2.4845	3.022889	0.000303	3.030158	0.513323	-0.000030
1762	1.7522e+02	2.4733	2.989487	0.000336	3.357743	0.568817	-0.000034
1763	1.7532e+02	2.4647	2.951604	0.000381	3.808171	0.645122	-0.000038
1764	1.7542e+02	2.4535	2.924312	0.000274	2.743521	0.464765	-0.000027
1765	1.7552e+02	2.4471	2.884393	0.000401	4.012912	0.679806	-0.000040
1766	1.7562e+02	2.4339	2.852213	0.000323	3.234898	0.548007	-0.000032
1767	1.7572e+02	2.4209	2.817996	0.000344	3.439639	0.582691	-0.000034
1768	1.7582e+02	2.4133	2.780520	0.000377	3.767223	0.638185	-0.000038
1769	1.7592e+02	2.4010	2.748748	0.000319	3.193950	0.541070	-0.000032
1770	1.7602e+02	2.3934	2.714123	0.000348	3.480587	0.589627	-0.000035
1771	1.7612e+02	2.3834	2.682758	0.000315	3.153002	0.534133	-0.000032
1772	1.7621e+02	2.3713	2.648949	0.000340	3.398691	0.575754	-0.000034
1773	1.7631e+02	2.3637	2.617176	0.000319	3.193950	0.541070	-0.000032
1774	1.7641e+02	2.3523	2.584181	0.000332	3.316794	0.561880	-0.000033
1775	1.7651e+02	2.3423	2.549557	0.000348	3.480587	0.589627	-0.000035
1776	1.7661e+02	2.3332	2.517377	0.000323	3.234898	0.548007	-0.000032
1777	1.7671e+02	2.3228	2.485604	0.000319	3.193950	0.541070	-0.000032
1778	1.7681e+02	2.3135	2.450165	0.000356	3.562483	0.603501	-0.000036
1779	1.7691e+02	2.3038	2.416763	0.000336	3.357743	0.568817	-0.000034
1780	1.7701e+02	2.2945	2.378473	0.000385	3.849119	0.652058	-0.000038
1781	1.7711e+02	2.2842	2.344664	0.000340	3.398691	0.575754	-0.000034
1782	1.7721e+02	2.2733	2.308410	0.000364	3.644379	0.617375	-0.000036
1783	1.7731e+02	2.2630	2.271749	0.000369	3.685327	0.624311	-0.000037
1784	1.7741e+02	2.2549	2.233459	0.000385	3.849119	0.652058	-0.000038
1785	1.7751e+02	2.2447	2.200464	0.000332	3.316794	0.561880	-0.000033
1786	1.7761e+02	2.2337	2.165840	0.000348	3.480587	0.589627	-0.000035
1787	1.7771e+02	2.2247	2.132438	0.000336	3.357743	0.568817	-0.000034
1788	1.7781e+02	2.2145	2.096592	0.000360	3.603431	0.610438	-0.000036
1789	1.7791e+02	2.2049	2.061561	0.000352	3.521535	0.596564	-0.000035
1790	1.7801e+02	2.1935	2.024085	0.000377	3.767223	0.638185	-0.000038
1791	1.7810e+02	2.1834	1.989054	0.000352	3.521535	0.596564	-0.000035
1792	1.7820e+02	2.1741	1.952800	0.000364	3.644379	0.617375	-0.000036
1793	1.7830e+02	2.1644	1.915732	0.000373	3.726275	0.631248	-0.000037
1794	1.7840e+02	2.1541	1.877442	0.000385	3.849119	0.652058	-0.000038
1795	1.7850e+02	2.1472	1.838337	0.000393	3.931016	0.665932	-0.000039
1796	1.7860e+02	2.1363	1.800861	0.000377	3.767223	0.638185	-0.000038
1797	1.7870e+02	2.1247	1.764608	0.000364	3.644379	0.617375	-0.000036
1798	1.7880e+02	2.1151	1.724688	0.000401	4.012912	0.679806	-0.000040
1799	1.7890e+02	2.1042	1.689250	0.000356	3.562483	0.603501	-0.000036
1800	1.7900e+02	2.0942	1.651367	0.000381	3.808171	0.645122	-0.000038
1801	1.7910e+02	2.0862	1.611447	0.000401	4.012912	0.679806	-0.000040
1802	1.7920e+02	2.0755	1.575601	0.000360	3.603431	0.610438	-0.000036
1803	1.7930e+02	2.0623	1.533645	0.000422	4.217652	0.714490	-0.000042
1804	1.7940e+02	2.0544	1.496984	0.000369	3.685327	0.624311	-0.000037
1805	1.7950e+02	2.0491	1.455842	0.000414	4.135756	0.700616	-0.000041
1806	1.7960e+02	2.0365	1.415515	0.000405	4.053860	0.686742	-0.000041
1807	1.7970e+02	2.0243	1.378855	0.000369	3.685327	0.624311	-0.000037
1808	1.7980e+02	2.0123	1.338120	0.000409	4.094808	0.693679	-0.000041
1809	1.7990e+02	2.0063	1.299830	0.000385	3.849119	0.652058	-0.000038
1810	1.8000e+02	1.9968	1.260318	0.000397	3.971964	0.672869	-0.000040
1811	1.8009e+02	1.9913	1.218769	0.000418	4.176704	0.707553	-0.000042
1812	1.8019e+02	1.9778	1.176813	0.000422	4.217652	0.714490	-0.000042
1813	1.8029e+02	1.9659	1.136078	0.000409	4.094808	0.693679	-0.000041
1814	1.8039e+02	1.9544	1.098196	0.000381	3.808171	0.645122	-0.000038
1815	1.8049e+02	1.9439	1.057869	0.000405	4.053860	0.686742	-0.000041
1816	1.8059e+02	1.9352	1.019986	0.000381	3.808171	0.645122	-0.000038
1817	1.8069e+02	1.9274	0.980881	0.000393	3.931016	0.665932	-0.000039
1818	1.8079e+02	1.9131	0.932814	0.000483	4.831873	0.818542	-0.000048
1819	1.8089e+02	1.9054	0.894524	0.000385	3.849119	0.652058	-0.000038
1820	1.8099e+02	1.8960	0.858678	0.000360	3.603431	0.610438	-0.000036
1821	1.8109e+02	1.8862	0.816314	0.000426	4.258600	0.721426	-0.000043
1822	1.8119e+02	1.8741	0.774766	0.000418	4.176704	0.707553	-0.000042
1823	1.8129e+02	1.8659	0.734031	0.000409	4.094808	0.693679	-0.000041
1824	1.8139e+02	1.8563	0.692890	0.000414	4.135756	0.700616	-0.000041
1825	1.8149e+02	1.8452	0.651341	0.000418	4.176704	0.707553	-0.000042
1826	1.8159e+02	1.8348	0.613865	0.000377	3.767223	0.638185	-0.000038
1827	1.8169e+02	1.8269	0.571094	0.000430	4.299548	0.728363	-0.000043
1828	1.8179e+02	1.8143	0.528731	0.000426	4.258600	0.721426	-0.000043
1829	1.8189e+02	1.8050	0.486774	0.000422	4.217652	0.714490	-0.000042
1830	1.8199e+02	1.7972	0.443189	0.000438	4.381445	0.742237	-0.000044
1831	1.8209e+02	1.7881	0.401232	0.000422	4.217652	0.714490	-0.000042
1832	1.8218e+02	1.7759	0.364572	0.000369	3.685327	0.624311	-0.000037
1833	1.8228e+02	1.7672	0.324245	0.000405	4.053860	0.686742	-0.000041
1834	1.8238e+02	1.7574	0.276993	0.000475	4.749977	0.804668	-0.000047
1835	1.8248e+02	1.7451	0.237888	0.000393	3.931016	0.665932	-0.000039
1836	1.8258e+02	1.7375	0.197561	0.000405	4.053860	0.686742	-0.000041
1837	1.8268e+02	1.7262	0.156420	0.000414	4.135756	0.700616	-0.000041
1838	1.8278e+02	1.7170	0.114056	0.000426	4.258600	0.721426	-0.000043
1839	1.8288e+02	1.7117	0.073322	0.000409	4.094808	0.693679	-0.000041
1840	1.8298e+02	1.6953	0.030958	0.000426	4.258600	0.721426	-0.000043
1841	1.8308e+02	1.6866	-0.011813	0.000430	4.299548	0.728363	-0.000043
1842	1.8318e+02	1.6755	-0.056621	0.000450	4.504289	0.763047	-0.000045
1843	1.8328e+02	1.6689	-0.103465	0.000471	4.709029	0.797731	-0.000047
1844	1.8338e+02	1.6563	-0.148273	0.000450	4.504289	0.763047	-0.000045
1845	1.8348e+02	1.6463	-0.189414	0.000414	4.135756	0.700616	-0.000041
1846	1.8358e+02	1.6409	-0.235037	0.000459	4.586185	0.776921	-0.000046
1847	1.8368e+02	1.6262	-0.279030	0.000442	4.422393	0.749174	-0.000044
1848	1.8378e+02	1.6186	-0.320986	0.000422	4.217652	0.714490	-0.000042
1849	1.8388e+02	1.6074	-0.364979	0.000442	4.422393	0.749174	-0.000044
1850	1.8398e+02	1.5985	-0.409787	0.000450	4.504289	0.763047	-0.000045
1851	1.8407e+02	1.5864	-0.448484	0.000389	3.890068	0.658995	-0.000039
1852	1.8417e+02	1.5765	-0.494514	0.000463	4.627133	0.783858	-0.000046
1853	1.8427e+02	1.5681	-0.539322	0.000450	4.504289	0.763047	-0.000045
1854	1.8437e+02	1.5574	-0.582500	0.000434	4.340496	0.735300	-0.000043
1855	1.8447e+02	1.5470	-0.628122	0.000459	4.586185	0.776921	-0.000046
1856	1.8457e+02	1.5385	-0.673337	0.000455	4.545237	0.769984	-0.000045
1857	1.8467e+02	1.5270	-0.717738	0.000446	4.463341	0.756110	-0.000045
1858	1.8477e+02	1.5182	-0.762953	0.000455	4.545237	0.769984	-0.000045
1859	1.8487e+02	1.5077	-0.808575	0.000459	4.586185	0.776921	-0.000046
1860	1.8497e+02	1.4983	-0.858678	0.000504	5.036614	0.853225	-0.000050
1861	1.8507e+02	1.4855	-0.902671	0.000442	4.422393	0.749174	-0.000044
1862	1.8517e+02	1.4790	-0.946664	0.000442	4.422393	0.749174	-0.000044
1863	1.8527e+02	1.4680	-0.988213	0.000418	4.176704	0.707553	-0.000042
1864	1.8537e+02	1.4572	-1.031799	0.000438	4.381445	0.742237	-0.000044
1865	1.8547e+02	1.4470	-1.076199	0.000446	4.463341	0.756110	-0.000045
1866	1.8557e+02	1.4389	-1.122229	0.000463	4.627133	0.783858	-0.000046
1867	1.8567e+02	1.4284	-1.162148	0.000401	4.012912	0.679806	-0.000040
1868	1.8577e+02	1.4193	-1.210215	0.000483	4.831873	0.818542	-0.000048
1869	1.8587e+02	1.4080	-1.253800	0.000438	4.381445	0.742237	-0.000044
1870	1.8597e+02	1.3962	-1.298608	0.000450	4.504289	0.763047	-0.000045
1871	1.8606e+02	1.3882	-1.343416	0.000450	4.504289	0.763047	-0.000045
1872	1.8616e+02	1.3772	-1.389038	0.000459	4.586185	0.776921	-0.000046
1873	1.8626e+02	1.3673	-1.433438	0.000446	4.463341	0.756110	-0.000045
1874	1.8636e+02	1.3573	-1.473358	0.000401	4.012912	0.679806	-0.000040
1875	1.8646e+02	1.3501	-1.522646	0.000495	4.954718	0.839352	-0.000050
1876	1.8656e+02	1.3375	-1.560937	0.000385	3.849119	0.652058	-0.000038
1877	1.8666e+02	1.3299	-1.606152	0.000455	4.545237	0.769984	-0.000045
1878	1.8676e+02	1.3185	-1.647701	0.000418	4.176704	0.707553	-0.000042
1879	1.8686e+02	1.3099	-1.687620	0.000401	4.012912	0.679806	-0.000040
1880	1.8696e+02	1.2980	-1.732835	0.000455	4.545237	0.769984	-0.000045
1881	1.8706e+02	1.2894	-1.772347	0.000397	3.971964	0.672869	-0.000040
1882	1.8716e+02	1.2793	-1.815526	0.000434	4.340496	0.735300	-0.000043
1883	1.8726e+02	1.2685	-1.855853	0.000405	4.053860	0.686742	-0.000041
1884	1.8736e+02	1.2617	-1.896587	0.000409	4.094808	0.693679	-0.000041
1885	1.8746e+02	1.2499	-1.937729	0.000414	4.135756	0.700616	-0.000041
1886	1.8756e+02	1.2404	-1.976426	0.000389	3.890068	0.658995	-0.000039
1887	1.8766e+02	1.2289	-2.018382	0.000422	4.217652	0.714490	-0.000042
1888	1.8776e+02	1.2214	-2.063190	0.000450	4.504289	0.763047	-0.000045
1889	1.8786e+02	1.2103	-2.101480	0.000385	3.849119	0.652058	-0.000038
1890	1.8796e+02	1.2009	-2.145473	0.000442	4.422393	0.749174	-0.000044
1891	1.8806e+02	1.1898	-2.184171	0.000389	3.890068	0.658995	-0.000039
1892	1.8815e+02	1.1816	-2.226534	0.000426	4.258600	0.721426	-0.000043
1893	1.8825e+02	1.1677	-2.271342	0.000450	4.504289	0.763047	-0.000045
1894	1.8835e+02	1.1599	-2.309632	0.000385	3.849119	0.652058	-0.000038
1895	1.8845e+02	1.1501	-2.349552	0.000401	4.012912	0.679806	-0.000040
1896	1.8855e+02	1.1399	-2.391508	0.000422	4.217652	0.714490	-0.000042
1897	1.8865e+02	1.1296	-2.432650	0.000414	4.135756	0.700616	-0.000041
1898	1.8875e+02	1.1220	-2.473384	0.000409	4.094808	0.693679	-0.000041
1899	1.8885e+02	1.1102	-2.516155	0.000430	4.299548	0.728363	-0.000043
1900	1.8895e+02	1.0990	-2.556889	0.000409	4.094808	0.693679	-0.000041
1901	1.8905e+02	1.0957	-2.595587	0.000389	3.890068	0.658995	-0.000039
1902	1.8915e+02	1.0793	-2.639580	0.000442	4.422393	0.749174	-0.000044
1903	1.8925e+02	1.0684	-2.677870	0.000385	3.849119	0.652058	-0.000038
1904	1.8935e+02	1.0577	-2.725529	0.000479	4.790925	0.811605	-0.000048
1905	1.8945e+02	1.0513	-2.767078	0.000418	4.176704	0.707553	-0.000042
1906	1.8955e+02	1.0376	-2.806590	0.000397	3.971964	0.672869	-0.000040
1907	1.8965e+02	1.0332	-2.850991	0.000446	4.463341	0.756110	-0.000045
1908	1.8975e+02	1.0198	-2.891725	0.000409	4.094808	0.693679	-0.000041
1909	1.8985e+02	1.0115	-2.932052	0.000405	4.053860	0.686742	-0.000041
1910	1.8995e+02	1.0012	-2.971971	0.000401	4.012912	0.679806	-0.000040
1911	1.9004e+02	0.9891	-3.013928	0.000422	4.217652	0.714490	-0.000042
1912	1.9014e+02	0.9830	-3.053440	0.000397	3.971964	0.672869	-0.000040
1913	1.9024e+02	0.9725	-3.095803	0.000426	4.258600	0.721426	-0.000043
1914	1.9034e+02	0.9596	-3.136130	0.000405	4.053860	0.686742	-0.000041
1915	1.9044e+02	0.9528	-3.180123	0.000442	4.422393	0.749174	-0.000044
1916	1.9054e+02	0.9377	-3.218006	0.000381	3.808171	0.645122	-0.000038
1917	1.9064e+02	0.9304	-3.259962	0.000422	4.217652	0.714490	-0.000042
1918	1.9074e+02	0.9189	-3.299882	0.000401	4.012912	0.679806	-0.000040
1919	1.9084e+02	0.9133	-3.339394	0.000397	3.971964	0.672869	-0.000040
1920	1.9094e+02	0.9008	-3.383795	0.000446	4.463341	0.756110	-0.000045
1921	1.9104e+02	0.8923	-3.426158	0.000426	4.258600	0.721426	-0.000043
1922	1.9114e+02	0.8808	-3.469337	0.000434	4.340496	0.735300	-0.000043
1923	1.9124e+02	0.8715	-3.510478	0.000414	4.135756	0.700616	-0.000041
1924	1.9134e+02	0.8611	-3.552434	0.000422	4.217652	0.714490	-0.000042
1925	1.9144e+02	0.8505	-3.590725	0.000385	3.849119	0.652058	-0.000038
1926	1.9154e+02	0.8422	-3.629422	0.000389	3.890068	0.658995	-0.000039
1927	1.9164e+02	0.8308	-3.672193	0.000430	4.299548	0.728363	-0.000043
1928	1.9174e+02	0.8195	-3.711705	0.000397	3.971964	0.672869	-0.000040
1929	1.9184e+02	0.8127	-3.748366	0.000369	3.685327	0.624311	-0.000037
1930	1.9194e+02	0.8017	-3.788693	0.000405	4.053860	0.686742	-0.000041
1931	1.9203e+02	0.7924	-3.830242	0.000418	4.176704	0.707553	-0.000042
1932	1.9213e+02	0.7823	-3.870569	0.000405	4.053860	0.686742	-0.000041
1933	1.9223e+02	0.7722	-3.912118	0.000418	4.176704	0.707553	-0.000042
1934	1.9233e+02	0.7636	-3.951223	0.000393	3.931016	0.665932	-0.000039
1935	1.9243e+02	0.7542	-3.994808	0.000438	4.381445	0.742237	-0.000044
1936	1.9253e+02	0.7410	-4.033506	0.000389	3.890068	0.658995	-0.000039
1937	1.9263e+02	0.7310	-4.074648	0.000414	4.135756	0.700616	-0.000041
1938	1.9273e+02	0.7207	-4.111308	0.000369	3.685327	0.624311	-0.000037
1939	1.9283e+02	0.7131	-4.149599	0.000385	3.849119	0.652058	-0.000038
1940	1.9293e+02	0.7035	-4.191555	0.000422	4.217652	0.714490	-0.000042
1941	1.9303e+02	0.6924	-4.232696	0.000414	4.135756	0.700616	-0.000041
1942	1.9313e+02	0.6817	-4.271394	0.000389	3.890068	0.658995	-0.000039
1943	1.9323e+02	0.6724	-4.308462	0.000373	3.726275	0.631248	-0.000037
1944	1.9333e+02	0.6610	-4.350418	0.000422	4.217652	0.714490	-0.000042
1945	1.9343e+02	0.6516	-4.391560	0.000414	4.135756	0.700616	-0.000041
1946	1.9353e+02	0.6454	-4.430665	0.000393	3.931016	0.665932	-0.000039
1947	1.9363e+02	0.6333	-4.470585	0.000401	4.012912	0.679806	-0.000040
1948	1.9373e+02	0.6207	-4.517429	0.000471	4.709029	0.797731	-0.000047
1949	1.9383e+02	0.6124	-4.556941	0.000397	3.971964	0.672869	-0.000040
1950	1.9393e+02	0.6043	-4.597268	0.000405	4.053860	0.686742	-0.000041
1951	1.9403e+02	0.5919	-4.642076	0.000450	4.504289	0.763047	-0.000045
1952	1.9412e+02	0.5801	-4.683625	0.000418	4.176704	0.707553	-0.000042
1953	1.9422e+02	0.5711	-4.720693	0.000373	3.726275	0.631248	-0.000037
1954	1.9432e+02	0.5634	-4.763871	0.000434	4.340496	0.735300	-0.000043
1955	1.9442e+02	0.5534	-4.805013	0.000414	4.135756	0.700616	-0.000041
1956	1.9452e+02	0.5415	-4.846154	0.000414	4.135756	0.700616	-0.000041
1957	1.9462e+02	0.5322	-4.889740	0.000438	4.381445	0.742237	-0.000044
1958	1.9472e+02	0.5229	-4.931696	0.000422	4.217652	0.714490	-0.000042
1959	1.9482e+02	0.5139	-4.976911	0.000455	4.545237	0.769984	-0.000045
1960	1.9492e+02	0.5022	-5.018868	0.000422	4.217652	0.714490	-0.000042
1961	1.9502e+02	0.4942	-5.063675	0.000450	4.504289	0.763047	-0.000045
1962	1.9512e+02	0.4825	-5.106854	0.000434	4.340496	0.735300	-0.000043
1963	1.9522e+02	0.4709	-5.151661	0.000450	4.504289	0.763047	-0.000045
1964	1.9532e+02	0.4626	-5.196469	0.000450	4.504289	0.763047	-0.000045
1965	1.9542e+02	0.4532	-5.242499	0.000463	4.627133	0.783858	-0.000046
1966	1.9552e+02	0.4420	-5.284048	0.000418	4.176704	0.707553	-0.000042
1967	1.9562e+02	0.4367	-5.328855	0.000450	4.504289	0.763047	-0.000045
1968	1.9572e+02	0.4230	-5.376107	0.000475	4.749977	0.804668	-0.000047
1969	1.9582e+02	0.4126	-5.420507	0.000446	4.463341	0.756110	-0.000045
1970	1.9592e+02	0.4033	-5.463686	0.000434	4.340496	0.735300	-0.000043
1971	1.9601e+02	0.3952	-5.506864	0.000434	4.340496	0.735300	-0.000043
1972	1.9611e+02	0.3827	-5.557782	0.000512	5.118510	0.867099	-0.000051
1973	1.9621e+02	0.3725	-5.603811	0.000463	4.627133	0.783858	-0.000046
1974	1.9631e+02	0.3594	-5.645360	0.000418	4.176704	0.707553	-0.000042
1975	1.9641e+02	0.3537	-5.690168	0.000450	4.504289	0.763047	-0.000045
1976	1.9651e+02	0.3449	-5.735790	0.000459	4.586185	0.776921	-0.000046
1977	1.9661e+02	0.3358	-5.784264	0.000487	4.872821	0.825478	-0.000049
1978	1.9671e+02	0.3246	-5.829479	0.000455	4.545237	0.769984	-0.000045
1979	1.9681e+02	0.3134	-5.876731	0.000475	4.749977	0.804668	-0.000047
1980	1.9691e+02	0.3024	-5.921131	0.000446	4.463341	0.756110	-0.000045
1981	1.9701e+02	0.2956	-5.967161	0.000463	4.627133	0.783858	-0.000046
1982	1.9711e+02	0.2851	-6.014413	0.000475	4.749977	0.804668	-0.000047
1983	1.9721e+02	0.2774	-6.061665	0.000475	4.749977	0.804668	-0.000047
1984	1.9731e+02	0.2629	-6.108509	0.000471	4.709029	0.797731	-0.000047
1985	1.9741e+02	0.2544	-6.154946	0.000467	4.668081	0.790794	-0.000047
1986	1.9751e+02	0.2445	-6.199754	0.000450	4.504289	0.763047	-0.000045
1987	1.9761e+02	0.2373	-6.248635	0.000491	4.913770	0.832415	-0.000049
1988	1.9771e+02	0.2245	-6.296701	0.000483	4.831873	0.818542	-0.000048
1989	1.9781e+02	0.2137	-6.341101	0.000446	4.463341	0.756110	-0.000045
1990	1.9791e+02	0.2054	-6.389983	0.000491	4.913770	0.832415	-0.000049
1991	1.9800e+02	0.1956	-6.435605	0.000459	4.586185	0.776921	-0.000046
1992	1.9810e+02	0.1865	-6.478376	0.000430	4.299548	0.728363	-0.000043
1993	1.9820e+02	0.1747	-6.530516	0.000524	5.241354	0.887909	-0.000052
1994	1.9830e+02	0.1649	-6.577360	0.000471	4.709029	0.797731	-0.000047
1995	1.9840e+02	0.1572	-6.629500	0.000524	5.241354	0.887909	-0.000052
1996	1.9850e+02	0.1474	-6.674715	0.000455	4.545237	0.769984	-0.000045
1997	1.9860e+02	0.1337	-6.724411	0.000500	4.995666	0.846289	-0.000050
1998	1.9870e+02	0.1251	-6.771663	0.000475	4.749977	0.804668	-0.000047
1999	1.9880e+02	0.1138	-6.817285	0.000459	4.586185	0.776921	-0.000046
2000	1.9890e+02	0.1068	-6.864537	0.000475	4.749977	0.804668	-0.000047
2001	1.9900e+02	0.0949	-6.911788	0.000475	4.749977	0.804668	-0.000047
2002	1.9910e+02	0.0871	-6.960262	0.000487	4.872821	0.825478	-0.000049
2003	1.9920e+02	0.0729	-7.006699	0.000467	4.668081	0.790794	-0.000047
2004	1.9930e+02	0.0655	-7.054358	0.000479	4.790925	0.811605	-0.000048
2005	1.9940e+02	0.0554	-7.104054	0.000500	4.995666	0.846289	-0.000050
2006	1.9950e+02	0.0447	-7.150084	0.000463	4.627133	0.783858	-0.000046
2007	1.9960e+02	0.0403	-7.198965	0.000491	4.913770	0.832415	-0.000049
2008	1.9970e+02	0.0256	-7.249068	0.000504	5.036614	0.853225	-0.000050
2009	1.9980e+02	0.0162	-7.298356	0.000495	4.954718	0.839352	-0.000050
2010	1.9990e+02	0.0065	-7.348052	0.000500	4.995666	0.846289	-0.000050
2011	2.0000e+02	-0.0058	-7.398563	0.000500	4.995666	0.846289	-0.000051

PMax (uC/cm2):	3.86e+01
Pr (uC/cm2):	1.32e+01
-Pr (uC/cm2):	0.00e+00
PLoss (uC/cm2):	0.00e+00
C (Max-Eff) (nF):	3.87e-01
K (Eff):	6.55e+02
Vert. (+/-Pr) Shift (uC/cm2):	6.60e+00
Offset (uC/cm2):	2.06e+01

A (Loop Area - uC/cm2·Volts):	-8.06e-02



Hysteresis Version: 5.48.1 - Radiant Technologies, Inc., 1999 - 9/12/24

