»»»»»»»»»»»»»»»»»»»»»»»»»»»»»»»»»»»» Hysteresis ««««««««««««««««««««««««««««««««««««
»»»  Executed Version:	5.48.1
»»»  Vision Version:	5.48.4 (R)
»»»  Vision Compiled:	9/18/24
»»»  Driver Version:	5.47.0
»»»  Windows Version:	Windows 8 or 8.1
»»»  Processor Information:	x86 (AMD or Intel) - 32 Processors
»»»  Tester Name:	PMF21124-494 (100V)
»»»  Tester S/N:	PMF21124-494
»»»  Internal Amp Type:	100V RevK 270k
»»»  Internal Amp S/N:	iAB2-596/K     
»»»  Execution Count:	1
»»»»»»»»»»»»»»»»»»»»»»»»»»»»»»»»»»»»»»»»»»««««««««««««««««««««««««««««««««««««««««««

Stored:	6/27/2025 - 12:22:29
Configured:	06/27/25 11:23:28 AM
Executed:	06/27/25 12:22:00 PM

»»»»»»»»»»»»»»»»»»»»»»»»»»»»»»»»»»» Sample Info ««««««««««««««««««««««««««««««««««««
Sample Name:	
Lot Name:	
Wafer Name:	
Die Row/Column:	0/0
Capacitor Number:	0
Sample Area (cm2):	1.00e-04
Sample Thickness (microns):	1.50e-01

Amplifier:	Internal

»»»»»»»»»»»»»»»»»»»»»»»»»»»»»»»»»»» Tester Info «««««««««««««««««««««««««««««««««««
Tester Name:	PMF21124-494 (100V)
Tester Serial Number:	PMF21124-494
Return Signal Amp. Level:	1.9 [Index: 2]

»»»»»»»»»»»»»»»»»»»»»»»»»»»»»»»» Hysteresis Info ««««««««««««««««««««««««««««««««««
Task Name:	Hyst-1276
Volts:	10.00
Field:	666.67 (kV/cm)
DCBias:	0.00
DCField:	0.00 (kV/cm)
Hysteresis Period (ms):	2.00e+02
Preset:	Enabled
Preset Delay (ms):	1.00e+03
Profile:	Standard Monopolar

»»»»»»»»»»»»»»»»»»»»»»»»»»»»»»»»»»»»»» Data «««««««««««««««««««««««««««««««««««««««
Points:	2011

Valid Data

Point	Time (ms)	Drive Voltage	Measured Polarization (uC/cm2)	Capacitance (uF)	Normalized Capacitance (uF/cm2)	Dielectric Constant	Instantaneous Current (mA)
   1	0.0000e+00	-0.0028	-15.996749	0.000348	3.481530	0.589787	0.000035
   2	9.9500e-02	0.0054	-15.962125	0.000348	3.481530	0.589787	0.000035
   3	1.9900e-01	0.0181	-15.918947	0.000434	4.341673	0.735499	0.000043
   4	2.9850e-01	0.0244	-15.877805	0.000414	4.136877	0.700806	0.000041
   5	3.9800e-01	0.0360	-15.837478	0.000405	4.054958	0.686929	0.000041
   6	4.9750e-01	0.0459	-15.797966	0.000397	3.973040	0.673051	0.000040
   7	5.9700e-01	0.0536	-15.757639	0.000405	4.054958	0.686929	0.000041
   8	6.9650e-01	0.0653	-15.714054	0.000438	4.382632	0.742438	0.000044
   9	7.9600e-01	0.0764	-15.675763	0.000385	3.850163	0.652235	0.000038
  10	8.9550e-01	0.0876	-15.638288	0.000377	3.768244	0.638358	0.000038
  11	9.9500e-01	0.0949	-15.596739	0.000418	4.177836	0.707745	0.000042
  12	1.0945e+00	0.1050	-15.561707	0.000352	3.522489	0.596726	0.000035
  13	1.1940e+00	0.1132	-15.514456	0.000475	4.751264	0.804886	0.000047
  14	1.2935e+00	0.1254	-15.486756	0.000279	2.785224	0.471830	0.000028
  15	1.3930e+00	0.1358	-15.443985	0.000430	4.300713	0.728561	0.000043
  16	1.4925e+00	0.1456	-15.400400	0.000438	4.382632	0.742438	0.000044
  17	1.5920e+00	0.1543	-15.361702	0.000389	3.891122	0.659174	0.000039
  18	1.6915e+00	0.1659	-15.324634	0.000373	3.727285	0.631419	0.000037
  19	1.7910e+00	0.1737	-15.283493	0.000414	4.136877	0.700806	0.000041
  20	1.8905e+00	0.1844	-15.243166	0.000405	4.054958	0.686929	0.000041
  21	1.9900e+00	0.1938	-15.197543	0.000459	4.587428	0.777131	0.000046
  22	2.0895e+00	0.2059	-15.159253	0.000385	3.850163	0.652235	0.000038
  23	2.1890e+00	0.2135	-15.115667	0.000438	4.382632	0.742438	0.000044
  24	2.2885e+00	0.2237	-15.081043	0.000348	3.481530	0.589787	0.000035
  25	2.3880e+00	0.2372	-15.039902	0.000414	4.136877	0.700806	0.000041
  26	2.4875e+00	0.2453	-14.996316	0.000438	4.382632	0.742438	0.000044
  27	2.5870e+00	0.2538	-14.959248	0.000373	3.727285	0.631419	0.000037
  28	2.6865e+00	0.2661	-14.916884	0.000426	4.259754	0.721622	0.000043
  29	2.7860e+00	0.2744	-14.879816	0.000373	3.727285	0.631419	0.000037
  30	2.8855e+00	0.2831	-14.840304	0.000397	3.973040	0.673051	0.000040
  31	2.9850e+00	0.2917	-14.792645	0.000479	4.792224	0.811825	0.000048
  32	3.0845e+00	0.3040	-14.749874	0.000430	4.300713	0.728561	0.000043
  33	3.1840e+00	0.3144	-14.714435	0.000356	3.563448	0.603664	0.000036
  34	3.2835e+00	0.3239	-14.665961	0.000487	4.874142	0.825702	0.000049
  35	3.3830e+00	0.3348	-14.624412	0.000418	4.177836	0.707745	0.000042
  36	3.4825e+00	0.3453	-14.581641	0.000430	4.300713	0.728561	0.000043
  37	3.5820e+00	0.3549	-14.539278	0.000426	4.259754	0.721622	0.000043
  38	3.6815e+00	0.3636	-14.496099	0.000434	4.341673	0.735499	0.000043
  39	3.7810e+00	0.3724	-14.459031	0.000373	3.727285	0.631419	0.000037
  40	3.8805e+00	0.3810	-14.417890	0.000414	4.136877	0.700806	0.000041
  41	3.9800e+00	0.3960	-14.375933	0.000422	4.218795	0.714683	0.000042
  42	4.0795e+00	0.4035	-14.336828	0.000393	3.932081	0.666113	0.000039
  43	4.1790e+00	0.4135	-14.290799	0.000463	4.628387	0.784070	0.000046
  44	4.2785e+00	0.4262	-14.252101	0.000389	3.891122	0.659174	0.000039
  45	4.3780e+00	0.4360	-14.204442	0.000479	4.792224	0.811825	0.000048
  46	4.4775e+00	0.4437	-14.170633	0.000340	3.399612	0.575910	0.000034
  47	4.5770e+00	0.4534	-14.127862	0.000430	4.300713	0.728561	0.000043
  48	4.6765e+00	0.4640	-14.087535	0.000405	4.054958	0.686929	0.000041
  49	4.7760e+00	0.4753	-14.043949	0.000438	4.382632	0.742438	0.000044
  50	4.8755e+00	0.4845	-14.007288	0.000369	3.686326	0.624481	0.000037
  51	4.9750e+00	0.4963	-13.964517	0.000430	4.300713	0.728561	0.000043
  52	5.0745e+00	0.5018	-13.922154	0.000426	4.259754	0.721622	0.000043
  53	5.1740e+00	0.5123	-13.884678	0.000377	3.768244	0.638358	0.000038
  54	5.2735e+00	0.5228	-13.842315	0.000426	4.259754	0.721622	0.000043
  55	5.3730e+00	0.5364	-13.801988	0.000405	4.054958	0.686929	0.000041
  56	5.4725e+00	0.5417	-13.759217	0.000430	4.300713	0.728561	0.000043
  57	5.5720e+00	0.5542	-13.720112	0.000393	3.932081	0.666113	0.000039
  58	5.6715e+00	0.5619	-13.677748	0.000426	4.259754	0.721622	0.000043
  59	5.7710e+00	0.5731	-13.635792	0.000422	4.218795	0.714683	0.000042
  60	5.8705e+00	0.5814	-13.598724	0.000373	3.727285	0.631419	0.000037
  61	5.9700e+00	0.5927	-13.558397	0.000405	4.054958	0.686929	0.000041
  62	6.0695e+00	0.6047	-13.517663	0.000410	4.095918	0.693867	0.000041
  63	6.1690e+00	0.6161	-13.476521	0.000414	4.136877	0.700806	0.000041
  64	6.2685e+00	0.6239	-13.435379	0.000414	4.136877	0.700806	0.000041
  65	6.3680e+00	0.6313	-13.392201	0.000434	4.341673	0.735499	0.000043
  66	6.4675e+00	0.6428	-13.353096	0.000393	3.932081	0.666113	0.000039
  67	6.5670e+00	0.6533	-13.314399	0.000389	3.891122	0.659174	0.000039
  68	6.6665e+00	0.6597	-13.269998	0.000446	4.464550	0.756315	0.000045
  69	6.7660e+00	0.6709	-13.232523	0.000377	3.768244	0.638358	0.000038
  70	6.8655e+00	0.6831	-13.188122	0.000446	4.464550	0.756315	0.000045
  71	6.9650e+00	0.6952	-13.148203	0.000401	4.013999	0.679990	0.000040
  72	7.0645e+00	0.7032	-13.109098	0.000393	3.932081	0.666113	0.000039
  73	7.1640e+00	0.7121	-13.067956	0.000414	4.136877	0.700806	0.000041
  74	7.2635e+00	0.7240	-13.030481	0.000377	3.768244	0.638358	0.000038
  75	7.3630e+00	0.7309	-12.989339	0.000414	4.136877	0.700806	0.000041
  76	7.4625e+00	0.7421	-12.949420	0.000401	4.013999	0.679990	0.000040
  77	7.5620e+00	0.7500	-12.910722	0.000389	3.891122	0.659174	0.000039
  78	7.6615e+00	0.7623	-12.869988	0.000410	4.095918	0.693867	0.000041
  79	7.7610e+00	0.7744	-12.826402	0.000438	4.382632	0.742438	0.000044
  80	7.8605e+00	0.7806	-12.791371	0.000352	3.522489	0.596726	0.000035
  81	7.9600e+00	0.7918	-12.749415	0.000422	4.218795	0.714683	0.000042
  82	8.0595e+00	0.8017	-12.705829	0.000438	4.382632	0.742438	0.000044
  83	8.1590e+00	0.8147	-12.667131	0.000389	3.891122	0.659174	0.000039
  84	8.2585e+00	0.8193	-12.628434	0.000389	3.891122	0.659174	0.000039
  85	8.3580e+00	0.8331	-12.586477	0.000422	4.218795	0.714683	0.000042
  86	8.4575e+00	0.8435	-12.544521	0.000422	4.218795	0.714683	0.000042
  87	8.5570e+00	0.8519	-12.507860	0.000369	3.686326	0.624481	0.000037
  88	8.6565e+00	0.8591	-12.466311	0.000418	4.177836	0.707745	0.000042
  89	8.7560e+00	0.8695	-12.425170	0.000414	4.136877	0.700806	0.000041
  90	8.8555e+00	0.8823	-12.387287	0.000381	3.809203	0.645297	0.000038
  91	8.9550e+00	0.8893	-12.347775	0.000397	3.973040	0.673051	0.000040
  92	9.0545e+00	0.9005	-12.303782	0.000442	4.423591	0.749377	0.000044
  93	9.1540e+00	0.9107	-12.265899	0.000381	3.809203	0.645297	0.000038
  94	9.2535e+00	0.9233	-12.225979	0.000401	4.013999	0.679990	0.000040
  95	9.3530e+00	0.9322	-12.182394	0.000438	4.382632	0.742438	0.000044
  96	9.4525e+00	0.9422	-12.142881	0.000397	3.973040	0.673051	0.000040
  97	9.5520e+00	0.9531	-12.098888	0.000442	4.423591	0.749377	0.000044
  98	9.6515e+00	0.9646	-12.062635	0.000365	3.645367	0.617542	0.000036
  99	9.7510e+00	0.9718	-12.020271	0.000426	4.259754	0.721622	0.000043
 100	9.8505e+00	0.9812	-11.977093	0.000434	4.341673	0.735499	0.000043
 101	9.9500e+00	0.9898	-11.939210	0.000381	3.809203	0.645297	0.000038
 102	1.0050e+01	1.0001	-11.896439	0.000430	4.300713	0.728561	0.000043
 103	1.0149e+01	1.0101	-11.856520	0.000401	4.013999	0.679990	0.000040
 104	1.0248e+01	1.0197	-11.816193	0.000405	4.054958	0.686929	0.000041
 105	1.0348e+01	1.0297	-11.779532	0.000369	3.686326	0.624481	0.000037
 106	1.0447e+01	1.0432	-11.739205	0.000405	4.054958	0.686929	0.000041
 107	1.0547e+01	1.0517	-11.701322	0.000381	3.809203	0.645297	0.000038
 108	1.0646e+01	1.0586	-11.663439	0.000381	3.809203	0.645297	0.000038
 109	1.0746e+01	1.0704	-11.618224	0.000455	4.546469	0.770193	0.000045
 110	1.0845e+01	1.0820	-11.573824	0.000446	4.464550	0.756315	0.000045
 111	1.0945e+01	1.0923	-11.539607	0.000344	3.440571	0.582848	0.000034
 112	1.1044e+01	1.0986	-11.496836	0.000430	4.300713	0.728561	0.000043
 113	1.1144e+01	1.1086	-11.459768	0.000373	3.727285	0.631419	0.000037
 114	1.1243e+01	1.1208	-11.419848	0.000401	4.013999	0.679990	0.000040
 115	1.1343e+01	1.1285	-11.383188	0.000369	3.686326	0.624481	0.000037
 116	1.1443e+01	1.1435	-11.342861	0.000405	4.054958	0.686929	0.000041
 117	1.1542e+01	1.1490	-11.309051	0.000340	3.399612	0.575910	0.000034
 118	1.1642e+01	1.1608	-11.271168	0.000381	3.809203	0.645297	0.000038
 119	1.1741e+01	1.1707	-11.234100	0.000373	3.727285	0.631419	0.000037
 120	1.1841e+01	1.1819	-11.197439	0.000369	3.686326	0.624481	0.000037
 121	1.1940e+01	1.1919	-11.159149	0.000385	3.850163	0.652235	0.000038
 122	1.2040e+01	1.1988	-11.120859	0.000385	3.850163	0.652235	0.000038
 123	1.2139e+01	1.2092	-11.075644	0.000455	4.546469	0.770193	0.000045
 124	1.2239e+01	1.2212	-11.039798	0.000360	3.604407	0.610603	0.000036
 125	1.2338e+01	1.2279	-11.002730	0.000373	3.727285	0.631419	0.000037
 126	1.2438e+01	1.2417	-10.961995	0.000410	4.095918	0.693867	0.000041
 127	1.2537e+01	1.2490	-10.923705	0.000385	3.850163	0.652235	0.000038
 128	1.2636e+01	1.2582	-10.885415	0.000385	3.850163	0.652235	0.000038
 129	1.2736e+01	1.2691	-10.849569	0.000360	3.604407	0.610603	0.000036
 130	1.2835e+01	1.2794	-10.809649	0.000401	4.013999	0.679990	0.000040
 131	1.2935e+01	1.2891	-10.767286	0.000426	4.259754	0.721622	0.000043
 132	1.3034e+01	1.2986	-10.735513	0.000319	3.194816	0.541216	0.000032
 133	1.3134e+01	1.3077	-10.689891	0.000459	4.587428	0.777131	0.000046
 134	1.3233e+01	1.3177	-10.653230	0.000369	3.686326	0.624481	0.000037
 135	1.3333e+01	1.3278	-10.612495	0.000410	4.095918	0.693867	0.000041
 136	1.3432e+01	1.3382	-10.575835	0.000369	3.686326	0.624481	0.000037
 137	1.3532e+01	1.3464	-10.540396	0.000356	3.563448	0.603664	0.000036
 138	1.3632e+01	1.3590	-10.500884	0.000397	3.973040	0.673051	0.000040
 139	1.3731e+01	1.3681	-10.463001	0.000381	3.809203	0.645297	0.000038
 140	1.3831e+01	1.3799	-10.422674	0.000405	4.054958	0.686929	0.000041
 141	1.3930e+01	1.3897	-10.380310	0.000426	4.259754	0.721622	0.000043
 142	1.4030e+01	1.3992	-10.346093	0.000344	3.440571	0.582848	0.000034
 143	1.4129e+01	1.4084	-10.304137	0.000422	4.218795	0.714683	0.000042
 144	1.4229e+01	1.4179	-10.267476	0.000369	3.686326	0.624481	0.000037
 145	1.4328e+01	1.4307	-10.226742	0.000410	4.095918	0.693867	0.000041
 146	1.4428e+01	1.4400	-10.190896	0.000360	3.604407	0.610603	0.000036
 147	1.4527e+01	1.4488	-10.151791	0.000393	3.932081	0.666113	0.000039
 148	1.4627e+01	1.4577	-10.111464	0.000405	4.054958	0.686929	0.000041
 149	1.4726e+01	1.4680	-10.071137	0.000405	4.054958	0.686929	0.000041
 150	1.4825e+01	1.4774	-10.035291	0.000360	3.604407	0.610603	0.000036
 151	1.4925e+01	1.4898	-10.000260	0.000352	3.522489	0.596726	0.000035
 152	1.5024e+01	1.4983	-9.962784	0.000377	3.768244	0.638358	0.000038
 153	1.5124e+01	1.5047	-9.922457	0.000405	4.054958	0.686929	0.000041
 154	1.5223e+01	1.5179	-9.885389	0.000373	3.727285	0.631419	0.000037
 155	1.5323e+01	1.5266	-9.848321	0.000373	3.727285	0.631419	0.000037
 156	1.5422e+01	1.5366	-9.805957	0.000426	4.259754	0.721622	0.000043
 157	1.5522e+01	1.5456	-9.766445	0.000397	3.973040	0.673051	0.000040
 158	1.5621e+01	1.5578	-9.731006	0.000356	3.563448	0.603664	0.000036
 159	1.5721e+01	1.5675	-9.688643	0.000426	4.259754	0.721622	0.000043
 160	1.5820e+01	1.5776	-9.650760	0.000381	3.809203	0.645297	0.000038
 161	1.5920e+01	1.5899	-9.616950	0.000340	3.399612	0.575910	0.000034
 162	1.6020e+01	1.5957	-9.570921	0.000463	4.628387	0.784070	0.000046
 163	1.6119e+01	1.6076	-9.537111	0.000340	3.399612	0.575910	0.000034
 164	1.6218e+01	1.6171	-9.498006	0.000393	3.932081	0.666113	0.000039
 165	1.6318e+01	1.6273	-9.460531	0.000377	3.768244	0.638358	0.000038
 166	1.6418e+01	1.6376	-9.421833	0.000389	3.891122	0.659174	0.000039
 167	1.6517e+01	1.6457	-9.384358	0.000377	3.768244	0.638358	0.000038
 168	1.6616e+01	1.6573	-9.346475	0.000381	3.809203	0.645297	0.000038
 169	1.6716e+01	1.6667	-9.308999	0.000377	3.768244	0.638358	0.000038
 170	1.6816e+01	1.6747	-9.273153	0.000360	3.604407	0.610603	0.000036
 171	1.6915e+01	1.6897	-9.233234	0.000401	4.013999	0.679990	0.000040
 172	1.7015e+01	1.6984	-9.193314	0.000401	4.013999	0.679990	0.000040
 173	1.7114e+01	1.7077	-9.155431	0.000381	3.809203	0.645297	0.000038
 174	1.7213e+01	1.7147	-9.117141	0.000385	3.850163	0.652235	0.000038
 175	1.7313e+01	1.7276	-9.078443	0.000389	3.891122	0.659174	0.000039
 176	1.7413e+01	1.7359	-9.036080	0.000426	4.259754	0.721622	0.000043
 177	1.7512e+01	1.7454	-9.003085	0.000332	3.317693	0.562032	0.000033
 178	1.7611e+01	1.7574	-8.965610	0.000377	3.768244	0.638358	0.000038
 179	1.7711e+01	1.7695	-8.928541	0.000373	3.727285	0.631419	0.000037
 180	1.7811e+01	1.7765	-8.891066	0.000377	3.768244	0.638358	0.000038
 181	1.7910e+01	1.7865	-8.856849	0.000344	3.440571	0.582848	0.000034
 182	1.8009e+01	1.7985	-8.821410	0.000356	3.563448	0.603664	0.000036
 183	1.8109e+01	1.8104	-8.785157	0.000365	3.645367	0.617542	0.000036
 184	1.8209e+01	1.8163	-8.748903	0.000365	3.645367	0.617542	0.000036
 185	1.8308e+01	1.8276	-8.712242	0.000369	3.686326	0.624481	0.000037
 186	1.8407e+01	1.8365	-8.674767	0.000377	3.768244	0.638358	0.000038
 187	1.8507e+01	1.8484	-8.636884	0.000381	3.809203	0.645297	0.000038
 188	1.8607e+01	1.8540	-8.598187	0.000389	3.891122	0.659174	0.000039
 189	1.8706e+01	1.8668	-8.557860	0.000405	4.054958	0.686929	0.000041
 190	1.8805e+01	1.8771	-8.519569	0.000385	3.850163	0.652235	0.000038
 191	1.8905e+01	1.8860	-8.481687	0.000381	3.809203	0.645297	0.000038
 192	1.9005e+01	1.8955	-8.445026	0.000369	3.686326	0.624481	0.000037
 193	1.9104e+01	1.9048	-8.410402	0.000348	3.481530	0.589787	0.000035
 194	1.9203e+01	1.9166	-8.372111	0.000385	3.850163	0.652235	0.000038
 195	1.9303e+01	1.9243	-8.340746	0.000315	3.153857	0.534278	0.000032
 196	1.9402e+01	1.9351	-8.298382	0.000426	4.259754	0.721622	0.000043
 197	1.9502e+01	1.9454	-8.257648	0.000410	4.095918	0.693867	0.000041
 198	1.9602e+01	1.9553	-8.223839	0.000340	3.399612	0.575910	0.000034
 199	1.9701e+01	1.9627	-8.187178	0.000369	3.686326	0.624481	0.000037
 200	1.9800e+01	1.9736	-8.145629	0.000418	4.177836	0.707745	0.000042
 201	1.9900e+01	1.9884	-8.107746	0.000381	3.809203	0.645297	0.000038
 202	2.0000e+01	1.9975	-8.066605	0.000414	4.136877	0.700806	0.000041
 203	2.0099e+01	2.0078	-8.027092	0.000397	3.973040	0.673051	0.000040
 204	2.0198e+01	2.0142	-7.989617	0.000377	3.768244	0.638358	0.000038
 205	2.0298e+01	2.0249	-7.950105	0.000397	3.973040	0.673051	0.000040
 206	2.0398e+01	2.0338	-7.911814	0.000385	3.850163	0.652235	0.000038
 207	2.0497e+01	2.0476	-7.873932	0.000381	3.809203	0.645297	0.000038
 208	2.0596e+01	2.0561	-7.838900	0.000352	3.522489	0.596726	0.000035
 209	2.0696e+01	2.0643	-7.798573	0.000405	4.054958	0.686929	0.000041
 210	2.0796e+01	2.0731	-7.758246	0.000405	4.054958	0.686929	0.000041
 211	2.0895e+01	2.0853	-7.724437	0.000340	3.399612	0.575910	0.000034
 212	2.0994e+01	2.0949	-7.687776	0.000369	3.686326	0.624481	0.000037
 213	2.1094e+01	2.1046	-7.649486	0.000385	3.850163	0.652235	0.000038
 214	2.1194e+01	2.1170	-7.612010	0.000377	3.768244	0.638358	0.000038
 215	2.1293e+01	2.1252	-7.575349	0.000369	3.686326	0.624481	0.000037
 216	2.1392e+01	2.1382	-7.537059	0.000385	3.850163	0.652235	0.000038
 217	2.1492e+01	2.1447	-7.501213	0.000360	3.604407	0.610603	0.000036
 218	2.1591e+01	2.1549	-7.461294	0.000401	4.013999	0.679990	0.000040
 219	2.1691e+01	2.1645	-7.431150	0.000303	3.030979	0.513462	0.000030
 220	2.1791e+01	2.1777	-7.388379	0.000430	4.300713	0.728561	0.000043
 221	2.1890e+01	2.1848	-7.354977	0.000336	3.358652	0.568971	0.000034
 222	2.1989e+01	2.1951	-7.318316	0.000369	3.686326	0.624481	0.000037
 223	2.2089e+01	2.2047	-7.277582	0.000410	4.095918	0.693867	0.000041
 224	2.2189e+01	2.2151	-7.244587	0.000332	3.317693	0.562032	0.000033
 225	2.2288e+01	2.2235	-7.205075	0.000397	3.973040	0.673051	0.000040
 226	2.2387e+01	2.2343	-7.169229	0.000360	3.604407	0.610603	0.000036
 227	2.2487e+01	2.2448	-7.132161	0.000373	3.727285	0.631419	0.000037
 228	2.2587e+01	2.2567	-7.093463	0.000389	3.891122	0.659174	0.000039
 229	2.2686e+01	2.2628	-7.056802	0.000369	3.686326	0.624481	0.000037
 230	2.2785e+01	2.2736	-7.023400	0.000336	3.358652	0.568971	0.000034
 231	2.2885e+01	2.2825	-6.985517	0.000381	3.809203	0.645297	0.000038
 232	2.2985e+01	2.2940	-6.947635	0.000381	3.809203	0.645297	0.000038
 233	2.3084e+01	2.3035	-6.909752	0.000381	3.809203	0.645297	0.000038
 234	2.3183e+01	2.3142	-6.872684	0.000373	3.727285	0.631419	0.000037
 235	2.3283e+01	2.3214	-6.836023	0.000369	3.686326	0.624481	0.000037
 236	2.3383e+01	2.3348	-6.798547	0.000377	3.768244	0.638358	0.000038
 237	2.3482e+01	2.3438	-6.760257	0.000385	3.850163	0.652235	0.000038
 238	2.3581e+01	2.3551	-6.728077	0.000324	3.235775	0.548155	0.000032
 239	2.3681e+01	2.3637	-6.688972	0.000393	3.932081	0.666113	0.000039
 240	2.3780e+01	2.3740	-6.654348	0.000348	3.481530	0.589787	0.000035
 241	2.3880e+01	2.3840	-6.617280	0.000373	3.727285	0.631419	0.000037
 242	2.3980e+01	2.3927	-6.578990	0.000385	3.850163	0.652235	0.000038
 243	2.4079e+01	2.4024	-6.545180	0.000340	3.399612	0.575910	0.000034
 244	2.4178e+01	2.4133	-6.507297	0.000381	3.809203	0.645297	0.000038
 245	2.4278e+01	2.4242	-6.475525	0.000319	3.194816	0.541216	0.000032
 246	2.4378e+01	2.4356	-6.433976	0.000418	4.177836	0.707745	0.000042
 247	2.4477e+01	2.4441	-6.400981	0.000332	3.317693	0.562032	0.000033
 248	2.4576e+01	2.4518	-6.365135	0.000360	3.604407	0.610603	0.000036
 249	2.4676e+01	2.4623	-6.327252	0.000381	3.809203	0.645297	0.000038
 250	2.4776e+01	2.4779	-6.293442	0.000340	3.399612	0.575910	0.000034
 251	2.4875e+01	2.4860	-6.253930	0.000397	3.973040	0.673051	0.000040
 252	2.4974e+01	2.4935	-6.218899	0.000352	3.522489	0.596726	0.000035
 253	2.5074e+01	2.5046	-6.181831	0.000373	3.727285	0.631419	0.000037
 254	2.5174e+01	2.5133	-6.151687	0.000303	3.030979	0.513462	0.000030
 255	2.5273e+01	2.5239	-6.112990	0.000389	3.891122	0.659174	0.000039
 256	2.5372e+01	2.5323	-6.078366	0.000348	3.481530	0.589787	0.000035
 257	2.5472e+01	2.5417	-6.042927	0.000356	3.563448	0.603664	0.000036
 258	2.5572e+01	2.5517	-6.004637	0.000385	3.850163	0.652235	0.000038
 259	2.5671e+01	2.5640	-5.972049	0.000328	3.276734	0.555094	0.000033
 260	2.5770e+01	2.5732	-5.932130	0.000401	4.013999	0.679990	0.000040
 261	2.5870e+01	2.5806	-5.897505	0.000348	3.481530	0.589787	0.000035
 262	2.5970e+01	2.5909	-5.861659	0.000360	3.604407	0.610603	0.000036
 263	2.6069e+01	2.6033	-5.821740	0.000401	4.013999	0.679990	0.000040
 264	2.6169e+01	2.6109	-5.785079	0.000369	3.686326	0.624481	0.000037
 265	2.6268e+01	2.6211	-5.751269	0.000340	3.399612	0.575910	0.000034
 266	2.6367e+01	2.6340	-5.712165	0.000393	3.932081	0.666113	0.000039
 267	2.6467e+01	2.6427	-5.677133	0.000352	3.522489	0.596726	0.000035
 268	2.6567e+01	2.6502	-5.639658	0.000377	3.768244	0.638358	0.000038
 269	2.6666e+01	2.6627	-5.600145	0.000397	3.973040	0.673051	0.000040
 270	2.6765e+01	2.6704	-5.567151	0.000332	3.317693	0.562032	0.000033
 271	2.6865e+01	2.6803	-5.532119	0.000352	3.522489	0.596726	0.000035
 272	2.6965e+01	2.6919	-5.494644	0.000377	3.768244	0.638358	0.000038
 273	2.7064e+01	2.7029	-5.462871	0.000319	3.194816	0.541216	0.000032
 274	2.7163e+01	2.7146	-5.425803	0.000373	3.727285	0.631419	0.000037
 275	2.7263e+01	2.7239	-5.389549	0.000365	3.645367	0.617542	0.000036
 276	2.7363e+01	2.7283	-5.352481	0.000373	3.727285	0.631419	0.000037
 277	2.7462e+01	2.7433	-5.320301	0.000324	3.235775	0.548155	0.000032
 278	2.7561e+01	2.7518	-5.279159	0.000414	4.136877	0.700806	0.000041
 279	2.7661e+01	2.7618	-5.245350	0.000340	3.399612	0.575910	0.000034
 280	2.7761e+01	2.7711	-5.210319	0.000352	3.522489	0.596726	0.000035
 281	2.7860e+01	2.7811	-5.176916	0.000336	3.358652	0.568971	0.000034
 282	2.7959e+01	2.7917	-5.143514	0.000336	3.358652	0.568971	0.000034
 283	2.8059e+01	2.8029	-5.107261	0.000365	3.645367	0.617542	0.000036
 284	2.8159e+01	2.8106	-5.074266	0.000332	3.317693	0.562032	0.000033
 285	2.8258e+01	2.8234	-5.045752	0.000287	2.867142	0.485707	0.000029
 286	2.8358e+01	2.8334	-5.006647	0.000393	3.932081	0.666113	0.000039
 287	2.8457e+01	2.8392	-4.977726	0.000291	2.908101	0.492646	0.000029
 288	2.8556e+01	2.8509	-4.939843	0.000381	3.809203	0.645297	0.000038
 289	2.8656e+01	2.8630	-4.909292	0.000307	3.071938	0.520400	0.000031
 290	2.8756e+01	2.8742	-4.871410	0.000381	3.809203	0.645297	0.000038
 291	2.8855e+01	2.8843	-4.837193	0.000344	3.440571	0.582848	0.000034
 292	2.8954e+01	2.8935	-4.804605	0.000328	3.276734	0.555094	0.000033
 293	2.9054e+01	2.9002	-4.765501	0.000393	3.932081	0.666113	0.000039
 294	2.9154e+01	2.9107	-4.734542	0.000311	3.112897	0.527339	0.000031
 295	2.9253e+01	2.9225	-4.699918	0.000348	3.481530	0.589787	0.000035
 296	2.9352e+01	2.9330	-4.662850	0.000373	3.727285	0.631419	0.000037
 297	2.9452e+01	2.9409	-4.630263	0.000328	3.276734	0.555094	0.000033
 298	2.9552e+01	2.9488	-4.593195	0.000373	3.727285	0.631419	0.000037
 299	2.9651e+01	2.9624	-4.560200	0.000332	3.317693	0.562032	0.000033
 300	2.9750e+01	2.9742	-4.527612	0.000328	3.276734	0.555094	0.000033
 301	2.9850e+01	2.9797	-4.490952	0.000369	3.686326	0.624481	0.000037
 302	2.9950e+01	2.9904	-4.456328	0.000348	3.481530	0.589787	0.000035
 303	3.0049e+01	3.0020	-4.422518	0.000340	3.399612	0.575910	0.000034
 304	3.0148e+01	3.0112	-4.383006	0.000397	3.973040	0.673051	0.000040
 305	3.0248e+01	3.0199	-4.352455	0.000307	3.071938	0.520400	0.000031
 306	3.0348e+01	3.0311	-4.317016	0.000356	3.563448	0.603664	0.000036
 307	3.0447e+01	3.0411	-4.281578	0.000356	3.563448	0.603664	0.000036
 308	3.0547e+01	3.0505	-4.248175	0.000336	3.358652	0.568971	0.000034
 309	3.0646e+01	3.0576	-4.215181	0.000332	3.317693	0.562032	0.000033
 310	3.0745e+01	3.0704	-4.178520	0.000369	3.686326	0.624481	0.000037
 311	3.0845e+01	3.0804	-4.146747	0.000319	3.194816	0.541216	0.000032
 312	3.0945e+01	3.0887	-4.110901	0.000360	3.604407	0.610603	0.000036
 313	3.1044e+01	3.1002	-4.077092	0.000340	3.399612	0.575910	0.000034
 314	3.1143e+01	3.1113	-4.040838	0.000365	3.645367	0.617542	0.000036
 315	3.1243e+01	3.1200	-4.009065	0.000319	3.194816	0.541216	0.000032
 316	3.1343e+01	3.1330	-3.974441	0.000348	3.481530	0.589787	0.000035
 317	3.1442e+01	3.1406	-3.939002	0.000356	3.563448	0.603664	0.000036
 318	3.1541e+01	3.1490	-3.907637	0.000315	3.153857	0.534278	0.000032
 319	3.1641e+01	3.1631	-3.874642	0.000332	3.317693	0.562032	0.000033
 320	3.1741e+01	3.1705	-3.838796	0.000360	3.604407	0.610603	0.000036
 321	3.1840e+01	3.1807	-3.805394	0.000336	3.358652	0.568971	0.000034
 322	3.1939e+01	3.1896	-3.774436	0.000311	3.112897	0.527339	0.000031
 323	3.2039e+01	3.2014	-3.738997	0.000356	3.563448	0.603664	0.000036
 324	3.2139e+01	3.2108	-3.703151	0.000360	3.604407	0.610603	0.000036
 325	3.2238e+01	3.2172	-3.666898	0.000365	3.645367	0.617542	0.000036
 326	3.2337e+01	3.2316	-3.632681	0.000344	3.440571	0.582848	0.000034
 327	3.2437e+01	3.2399	-3.599686	0.000332	3.317693	0.562032	0.000033
 328	3.2536e+01	3.2508	-3.564655	0.000352	3.522489	0.596726	0.000035
 329	3.2636e+01	3.2609	-3.528809	0.000360	3.604407	0.610603	0.000036
 330	3.2736e+01	3.2689	-3.497850	0.000311	3.112897	0.527339	0.000031
 331	3.2835e+01	3.2788	-3.461597	0.000365	3.645367	0.617542	0.000036
 332	3.2934e+01	3.2887	-3.428195	0.000336	3.358652	0.568971	0.000034
 333	3.3034e+01	3.2995	-3.399274	0.000291	2.908101	0.492646	0.000029
 334	3.3133e+01	3.3068	-3.360169	0.000393	3.932081	0.666113	0.000039
 335	3.3233e+01	3.3190	-3.326767	0.000336	3.358652	0.568971	0.000034
 336	3.3333e+01	3.3297	-3.292550	0.000344	3.440571	0.582848	0.000034
 337	3.3432e+01	3.3379	-3.257926	0.000348	3.481530	0.589787	0.000035
 338	3.3532e+01	3.3468	-3.224116	0.000340	3.399612	0.575910	0.000034
 339	3.3631e+01	3.3593	-3.190307	0.000340	3.399612	0.575910	0.000034
 340	3.3730e+01	3.3665	-3.157719	0.000328	3.276734	0.555094	0.000033
 341	3.3830e+01	3.3787	-3.121466	0.000365	3.645367	0.617542	0.000036
 342	3.3929e+01	3.3874	-3.088471	0.000332	3.317693	0.562032	0.000033
 343	3.4029e+01	3.3993	-3.054662	0.000340	3.399612	0.575910	0.000034
 344	3.4129e+01	3.4077	-3.018816	0.000360	3.604407	0.610603	0.000036
 345	3.4228e+01	3.4174	-2.985414	0.000336	3.358652	0.568971	0.000034
 346	3.4328e+01	3.4254	-2.953641	0.000319	3.194816	0.541216	0.000032
 347	3.4427e+01	3.4402	-2.925534	0.000283	2.826183	0.478768	0.000028
 348	3.4526e+01	3.4502	-2.889688	0.000360	3.604407	0.610603	0.000036
 349	3.4626e+01	3.4594	-2.856286	0.000336	3.358652	0.568971	0.000034
 350	3.4725e+01	3.4687	-2.824921	0.000315	3.153857	0.534278	0.000032
 351	3.4825e+01	3.4783	-2.793555	0.000315	3.153857	0.534278	0.000032
 352	3.4925e+01	3.4863	-2.762190	0.000315	3.153857	0.534278	0.000032
 353	3.5024e+01	3.4949	-2.731639	0.000307	3.071938	0.520400	0.000031
 354	3.5123e+01	3.5108	-2.699052	0.000328	3.276734	0.555094	0.000033
 355	3.5223e+01	3.5168	-2.659132	0.000401	4.013999	0.679990	0.000040
 356	3.5322e+01	3.5276	-2.628581	0.000307	3.071938	0.520400	0.000031
 357	3.5422e+01	3.5390	-2.592328	0.000365	3.645367	0.617542	0.000036
 358	3.5522e+01	3.5479	-2.559333	0.000332	3.317693	0.562032	0.000033
 359	3.5621e+01	3.5614	-2.524302	0.000352	3.522489	0.596726	0.000035
 360	3.5721e+01	3.5683	-2.497417	0.000270	2.703306	0.457952	0.000027
 361	3.5820e+01	3.5781	-2.462386	0.000352	3.522489	0.596726	0.000035
 362	3.5919e+01	3.5873	-2.428169	0.000344	3.440571	0.582848	0.000034
 363	3.6019e+01	3.5997	-2.395582	0.000328	3.276734	0.555094	0.000033
 364	3.6118e+01	3.6097	-2.363809	0.000319	3.194816	0.541216	0.000032
 365	3.6218e+01	3.6185	-2.329592	0.000344	3.440571	0.582848	0.000034
 366	3.6318e+01	3.6290	-2.292524	0.000373	3.727285	0.631419	0.000037
 367	3.6417e+01	3.6379	-2.258307	0.000344	3.440571	0.582848	0.000034
 368	3.6517e+01	3.6483	-2.223683	0.000348	3.481530	0.589787	0.000035
 369	3.6616e+01	3.6594	-2.189059	0.000348	3.481530	0.589787	0.000035
 370	3.6715e+01	3.6665	-2.152398	0.000369	3.686326	0.624481	0.000037
 371	3.6815e+01	3.6810	-2.116552	0.000360	3.604407	0.610603	0.000036
 372	3.6914e+01	3.6884	-2.083964	0.000328	3.276734	0.555094	0.000033
 373	3.7014e+01	3.6968	-2.051377	0.000328	3.276734	0.555094	0.000033
 374	3.7114e+01	3.7054	-2.016346	0.000352	3.522489	0.596726	0.000035
 375	3.7213e+01	3.7196	-1.984166	0.000324	3.235775	0.548155	0.000032
 376	3.7313e+01	3.7287	-1.948727	0.000356	3.563448	0.603664	0.000036
 377	3.7412e+01	3.7327	-1.917361	0.000315	3.153857	0.534278	0.000032
 378	3.7511e+01	3.7497	-1.881515	0.000360	3.604407	0.610603	0.000036
 379	3.7611e+01	3.7580	-1.847298	0.000344	3.440571	0.582848	0.000034
 380	3.7711e+01	3.7659	-1.817562	0.000299	2.990020	0.506523	0.000030
 381	3.7810e+01	3.7762	-1.785382	0.000324	3.235775	0.548155	0.000032
 382	3.7910e+01	3.7859	-1.752795	0.000328	3.276734	0.555094	0.000033
 383	3.8009e+01	3.7978	-1.716949	0.000360	3.604407	0.610603	0.000036
 384	3.8108e+01	3.8060	-1.686806	0.000303	3.030979	0.513462	0.000030
 385	3.8208e+01	3.8165	-1.652996	0.000340	3.399612	0.575910	0.000034
 386	3.8307e+01	3.8270	-1.619594	0.000336	3.358652	0.568971	0.000034
 387	3.8407e+01	3.8373	-1.583748	0.000360	3.604407	0.610603	0.000036
 388	3.8507e+01	3.8467	-1.553197	0.000307	3.071938	0.520400	0.000031
 389	3.8606e+01	3.8589	-1.516536	0.000369	3.686326	0.624481	0.000037
 390	3.8706e+01	3.8687	-1.488837	0.000279	2.785224	0.471830	0.000028
 391	3.8805e+01	3.8809	-1.452991	0.000360	3.604407	0.610603	0.000036
 392	3.8904e+01	3.8866	-1.421626	0.000315	3.153857	0.534278	0.000032
 393	3.9004e+01	3.8966	-1.387816	0.000340	3.399612	0.575910	0.000034
 394	3.9103e+01	3.9063	-1.355229	0.000328	3.276734	0.555094	0.000033
 395	3.9203e+01	3.9173	-1.323049	0.000324	3.235775	0.548155	0.000032
 396	3.9303e+01	3.9240	-1.288832	0.000344	3.440571	0.582848	0.000034
 397	3.9402e+01	3.9358	-1.259503	0.000295	2.949061	0.499584	0.000029
 398	3.9502e+01	3.9478	-1.225694	0.000340	3.399612	0.575910	0.000034
 399	3.9601e+01	3.9564	-1.190255	0.000356	3.563448	0.603664	0.000036
 400	3.9700e+01	3.9638	-1.158890	0.000315	3.153857	0.534278	0.000032
 401	3.9800e+01	3.9747	-1.126709	0.000324	3.235775	0.548155	0.000032
 402	3.9900e+01	3.9848	-1.092493	0.000344	3.440571	0.582848	0.000034
 403	3.9999e+01	3.9953	-1.057461	0.000352	3.522489	0.596726	0.000035
 404	4.0099e+01	4.0032	-1.024059	0.000336	3.358652	0.568971	0.000034
 405	4.0198e+01	4.0140	-0.991879	0.000324	3.235775	0.548155	0.000032
 406	4.0297e+01	4.0246	-0.960921	0.000311	3.112897	0.527339	0.000031
 407	4.0397e+01	4.0368	-0.930370	0.000307	3.071938	0.520400	0.000031
 408	4.0496e+01	4.0440	-0.895746	0.000348	3.481530	0.589787	0.000035
 409	4.0596e+01	4.0544	-0.865196	0.000307	3.071938	0.520400	0.000031
 410	4.0696e+01	4.0647	-0.833423	0.000319	3.194816	0.541216	0.000032
 411	4.0795e+01	4.0759	-0.796762	0.000369	3.686326	0.624481	0.000037
 412	4.0895e+01	4.0862	-0.765397	0.000315	3.153857	0.534278	0.000032
 413	4.0994e+01	4.0954	-0.732402	0.000332	3.317693	0.562032	0.000033
 414	4.1093e+01	4.1037	-0.702666	0.000299	2.990020	0.506523	0.000030
 415	4.1193e+01	4.1139	-0.672115	0.000307	3.071938	0.520400	0.000031
 416	4.1292e+01	4.1256	-0.639935	0.000324	3.235775	0.548155	0.000032
 417	4.1392e+01	4.1341	-0.607348	0.000328	3.276734	0.555094	0.000033
 418	4.1492e+01	4.1451	-0.574760	0.000328	3.276734	0.555094	0.000033
 419	4.1591e+01	4.1588	-0.539729	0.000352	3.522489	0.596726	0.000035
 420	4.1691e+01	4.1668	-0.505919	0.000340	3.399612	0.575910	0.000034
 421	4.1790e+01	4.1776	-0.474554	0.000315	3.153857	0.534278	0.000032
 422	4.1889e+01	4.1841	-0.443596	0.000311	3.112897	0.527339	0.000031
 423	4.1989e+01	4.1954	-0.417526	0.000262	2.621387	0.444075	0.000026
 424	4.2089e+01	4.2061	-0.380865	0.000369	3.686326	0.624481	0.000037
 425	4.2188e+01	4.2147	-0.349500	0.000315	3.153857	0.534278	0.000032
 426	4.2288e+01	4.2236	-0.318542	0.000311	3.112897	0.527339	0.000031
 427	4.2387e+01	4.2342	-0.283103	0.000356	3.563448	0.603664	0.000036
 428	4.2486e+01	4.2455	-0.252960	0.000303	3.030979	0.513462	0.000030
 429	4.2586e+01	4.2554	-0.220780	0.000324	3.235775	0.548155	0.000032
 430	4.2685e+01	4.2609	-0.187378	0.000336	3.358652	0.568971	0.000034
 431	4.2785e+01	4.2741	-0.154383	0.000332	3.317693	0.562032	0.000033
 432	4.2885e+01	4.2844	-0.120981	0.000336	3.358652	0.568971	0.000034
 433	4.2984e+01	4.2930	-0.087171	0.000340	3.399612	0.575910	0.000034
 434	4.3084e+01	4.3039	-0.049696	0.000377	3.768244	0.638358	0.000038
 435	4.3183e+01	4.3153	-0.016294	0.000336	3.358652	0.568971	0.000034
 436	4.3282e+01	4.3243	0.013035	0.000295	2.949061	0.499584	0.000029
 437	4.3382e+01	4.3356	0.046844	0.000340	3.399612	0.575910	0.000034
 438	4.3481e+01	4.3459	0.075766	0.000291	2.908101	0.492646	0.000029
 439	4.3581e+01	4.3522	0.109982	0.000344	3.440571	0.582848	0.000034
 440	4.3681e+01	4.3630	0.138904	0.000291	2.908101	0.492646	0.000029
 441	4.3780e+01	4.3764	0.171899	0.000332	3.317693	0.562032	0.000033
 442	4.3880e+01	4.3852	0.200820	0.000291	2.908101	0.492646	0.000029
 443	4.3979e+01	4.3940	0.231371	0.000307	3.071938	0.520400	0.000031
 444	4.4078e+01	4.4052	0.266809	0.000356	3.563448	0.603664	0.000036
 445	4.4178e+01	4.4129	0.299397	0.000328	3.276734	0.555094	0.000033
 446	4.4278e+01	4.4225	0.331984	0.000328	3.276734	0.555094	0.000033
 447	4.4377e+01	4.4335	0.363757	0.000319	3.194816	0.541216	0.000032
 448	4.4477e+01	4.4431	0.394715	0.000311	3.112897	0.527339	0.000031
 449	4.4576e+01	4.4572	0.425673	0.000311	3.112897	0.527339	0.000031
 450	4.4675e+01	4.4634	0.454594	0.000291	2.908101	0.492646	0.000029
 451	4.4775e+01	4.4753	0.485552	0.000311	3.112897	0.527339	0.000031
 452	4.4874e+01	4.4827	0.514474	0.000291	2.908101	0.492646	0.000029
 453	4.4974e+01	4.4933	0.543802	0.000295	2.949061	0.499584	0.000029
 454	4.5074e+01	4.5026	0.575168	0.000315	3.153857	0.534278	0.000032
 455	4.5173e+01	4.5119	0.600423	0.000254	2.539469	0.430198	0.000025
 456	4.5273e+01	4.5235	0.634640	0.000344	3.440571	0.582848	0.000034
 457	4.5372e+01	4.5336	0.664376	0.000299	2.990020	0.506523	0.000030
 458	4.5471e+01	4.5422	0.696963	0.000328	3.276734	0.555094	0.000033
 459	4.5571e+01	4.5509	0.729143	0.000324	3.235775	0.548155	0.000032
 460	4.5670e+01	4.5650	0.758472	0.000295	2.949061	0.499584	0.000029
 461	4.5770e+01	4.5727	0.790652	0.000324	3.235775	0.548155	0.000032
 462	4.5870e+01	4.5815	0.817537	0.000270	2.703306	0.457952	0.000027
 463	4.5969e+01	4.5948	0.850531	0.000332	3.317693	0.562032	0.000033
 464	4.6069e+01	4.6022	0.880267	0.000299	2.990020	0.506523	0.000030
 465	4.6168e+01	4.6105	0.914077	0.000340	3.399612	0.575910	0.000034
 466	4.6267e+01	4.6209	0.944627	0.000307	3.071938	0.520400	0.000031
 467	4.6367e+01	4.6296	0.973956	0.000295	2.949061	0.499584	0.000029
 468	4.6467e+01	4.6415	1.006543	0.000328	3.276734	0.555094	0.000033
 469	4.6566e+01	4.6530	1.035465	0.000291	2.908101	0.492646	0.000029
 470	4.6666e+01	4.6631	1.067237	0.000319	3.194816	0.541216	0.000032
 471	4.6765e+01	4.6725	1.098196	0.000311	3.112897	0.527339	0.000031
 472	4.6864e+01	4.6837	1.127524	0.000295	2.949061	0.499584	0.000029
 473	4.6964e+01	4.6900	1.162148	0.000348	3.481530	0.589787	0.000035
 474	4.7063e+01	4.7022	1.192699	0.000307	3.071938	0.520400	0.000031
 475	4.7163e+01	4.7140	1.219176	0.000266	2.662346	0.451014	0.000027
 476	4.7263e+01	4.7236	1.252578	0.000336	3.358652	0.568971	0.000034
 477	4.7362e+01	4.7321	1.281907	0.000295	2.949061	0.499584	0.000029
 478	4.7462e+01	4.7417	1.312458	0.000307	3.071938	0.520400	0.000031
 479	4.7561e+01	4.7541	1.346674	0.000344	3.440571	0.582848	0.000034
 480	4.7660e+01	4.7625	1.375188	0.000287	2.867142	0.485707	0.000029
 481	4.7760e+01	4.7729	1.409405	0.000344	3.440571	0.582848	0.000034
 482	4.7859e+01	4.7803	1.436697	0.000274	2.744265	0.464891	0.000027
 483	4.7959e+01	4.7920	1.468877	0.000324	3.235775	0.548155	0.000032
 484	4.8059e+01	4.7987	1.502279	0.000336	3.358652	0.568971	0.000034
 485	4.8158e+01	4.8118	1.529571	0.000274	2.744265	0.464891	0.000027
 486	4.8258e+01	4.8225	1.560122	0.000307	3.071938	0.520400	0.000031
 487	4.8357e+01	4.8326	1.587414	0.000274	2.744265	0.464891	0.000027
 488	4.8456e+01	4.8409	1.618372	0.000311	3.112897	0.527339	0.000031
 489	4.8556e+01	4.8537	1.650145	0.000319	3.194816	0.541216	0.000032
 490	4.8656e+01	4.8650	1.683547	0.000336	3.358652	0.568971	0.000034
 491	4.8755e+01	4.8700	1.710839	0.000274	2.744265	0.464891	0.000027
 492	4.8855e+01	4.8843	1.743833	0.000332	3.317693	0.562032	0.000033
 493	4.8954e+01	4.8931	1.773569	0.000299	2.990020	0.506523	0.000030
 494	4.9053e+01	4.9018	1.807379	0.000340	3.399612	0.575910	0.000034
 495	4.9153e+01	4.9129	1.835893	0.000287	2.867142	0.485707	0.000029
 496	4.9252e+01	4.9230	1.867666	0.000319	3.194816	0.541216	0.000032
 497	4.9352e+01	4.9305	1.899438	0.000319	3.194816	0.541216	0.000032
 498	4.9452e+01	4.9409	1.928360	0.000291	2.908101	0.492646	0.000029
 499	4.9551e+01	4.9522	1.959318	0.000311	3.112897	0.527339	0.000031
 500	4.9651e+01	4.9609	1.989054	0.000299	2.990020	0.506523	0.000030
 501	4.9750e+01	4.9702	2.019604	0.000307	3.071938	0.520400	0.000031
 502	4.9849e+01	4.9798	2.048118	0.000287	2.867142	0.485707	0.000029
 503	4.9949e+01	4.9936	2.079891	0.000319	3.194816	0.541216	0.000032
 504	5.0048e+01	5.0002	2.108405	0.000287	2.867142	0.485707	0.000029
 505	5.0148e+01	5.0114	2.140585	0.000324	3.235775	0.548155	0.000032
 506	5.0248e+01	5.0228	2.173173	0.000328	3.276734	0.555094	0.000033
 507	5.0347e+01	5.0304	2.202909	0.000299	2.990020	0.506523	0.000030
 508	5.0447e+01	5.0381	2.233459	0.000307	3.071938	0.520400	0.000031
 509	5.0546e+01	5.0505	2.262788	0.000295	2.949061	0.499584	0.000029
 510	5.0645e+01	5.0600	2.292931	0.000303	3.030979	0.513462	0.000030
 511	5.0745e+01	5.0687	2.327148	0.000344	3.440571	0.582848	0.000034
 512	5.0844e+01	5.0784	2.355662	0.000287	2.867142	0.485707	0.000029
 513	5.0944e+01	5.0909	2.386620	0.000311	3.112897	0.527339	0.000031
 514	5.1044e+01	5.1015	2.412283	0.000258	2.580428	0.437136	0.000026
 515	5.1143e+01	5.1096	2.442019	0.000299	2.990020	0.506523	0.000030
 516	5.1242e+01	5.1195	2.469718	0.000279	2.785224	0.471830	0.000028
 517	5.1342e+01	5.1313	2.495380	0.000258	2.580428	0.437136	0.000026
 518	5.1441e+01	5.1414	2.527561	0.000324	3.235775	0.548155	0.000032
 519	5.1541e+01	5.1501	2.556482	0.000291	2.908101	0.492646	0.000029
 520	5.1641e+01	5.1587	2.582552	0.000262	2.621387	0.444075	0.000026
 521	5.1740e+01	5.1688	2.614324	0.000319	3.194816	0.541216	0.000032
 522	5.1840e+01	5.1807	2.644468	0.000303	3.030979	0.513462	0.000030
 523	5.1939e+01	5.1919	2.673797	0.000295	2.949061	0.499584	0.000029
 524	5.2038e+01	5.1990	2.710865	0.000373	3.727285	0.631419	0.000037
 525	5.2138e+01	5.2071	2.736935	0.000262	2.621387	0.444075	0.000026
 526	5.2237e+01	5.2201	2.769115	0.000324	3.235775	0.548155	0.000032
 527	5.2337e+01	5.2295	2.796407	0.000274	2.744265	0.464891	0.000027
 528	5.2437e+01	5.2387	2.825735	0.000295	2.949061	0.499584	0.000029
 529	5.2536e+01	5.2493	2.855064	0.000295	2.949061	0.499584	0.000029
 530	5.2636e+01	5.2589	2.886429	0.000315	3.153857	0.534278	0.000032
 531	5.2735e+01	5.2699	2.917387	0.000311	3.112897	0.527339	0.000031
 532	5.2834e+01	5.2785	2.947123	0.000299	2.990020	0.506523	0.000030
 533	5.2934e+01	5.2908	2.976859	0.000299	2.990020	0.506523	0.000030
 534	5.3033e+01	5.2987	3.008632	0.000319	3.194816	0.541216	0.000032
 535	5.3133e+01	5.3082	3.042442	0.000340	3.399612	0.575910	0.000034
 536	5.3233e+01	5.3170	3.072178	0.000299	2.990020	0.506523	0.000030
 537	5.3332e+01	5.3266	3.101914	0.000299	2.990020	0.506523	0.000030
 538	5.3431e+01	5.3381	3.138574	0.000369	3.686326	0.624481	0.000037
 539	5.3531e+01	5.3503	3.169125	0.000307	3.071938	0.520400	0.000031
 540	5.3630e+01	5.3565	3.198046	0.000291	2.908101	0.492646	0.000029
 541	5.3730e+01	5.3695	3.231448	0.000336	3.358652	0.568971	0.000034
 542	5.3830e+01	5.3785	3.257926	0.000266	2.662346	0.451014	0.000027
 543	5.3929e+01	5.3875	3.288476	0.000307	3.071938	0.520400	0.000031
 544	5.4029e+01	5.3983	3.320249	0.000319	3.194816	0.541216	0.000032
 545	5.4128e+01	5.4092	3.349170	0.000291	2.908101	0.492646	0.000029
 546	5.4227e+01	5.4199	3.381351	0.000324	3.235775	0.548155	0.000032
 547	5.4327e+01	5.4308	3.409050	0.000279	2.785224	0.471830	0.000028
 548	5.4426e+01	5.4386	3.440415	0.000315	3.153857	0.534278	0.000032
 549	5.4526e+01	5.4510	3.470151	0.000299	2.990020	0.506523	0.000030
 550	5.4626e+01	5.4583	3.501924	0.000319	3.194816	0.541216	0.000032
 551	5.4725e+01	5.4687	3.531253	0.000295	2.949061	0.499584	0.000029
 552	5.4825e+01	5.4787	3.563840	0.000328	3.276734	0.555094	0.000033
 553	5.4924e+01	5.4888	3.589910	0.000262	2.621387	0.444075	0.000026
 554	5.5023e+01	5.4988	3.620053	0.000303	3.030979	0.513462	0.000030
 555	5.5123e+01	5.5098	3.649789	0.000299	2.990020	0.506523	0.000030
 556	5.5222e+01	5.5154	3.680747	0.000311	3.112897	0.527339	0.000031
 557	5.5322e+01	5.5276	3.709261	0.000287	2.867142	0.485707	0.000029
 558	5.5422e+01	5.5370	3.741441	0.000324	3.235775	0.548155	0.000032
 559	5.5521e+01	5.5496	3.770363	0.000291	2.908101	0.492646	0.000029
 560	5.5620e+01	5.5587	3.798469	0.000283	2.826183	0.478768	0.000028
 561	5.5720e+01	5.5669	3.828205	0.000299	2.990020	0.506523	0.000030
 562	5.5819e+01	5.5780	3.855497	0.000274	2.744265	0.464891	0.000027
 563	5.5919e+01	5.5868	3.885233	0.000299	2.990020	0.506523	0.000030
 564	5.6019e+01	5.5965	3.915377	0.000303	3.030979	0.513462	0.000030
 565	5.6118e+01	5.6074	3.948371	0.000332	3.317693	0.562032	0.000033
 566	5.6218e+01	5.6193	3.976071	0.000279	2.785224	0.471830	0.000028
 567	5.6317e+01	5.6299	4.007029	0.000311	3.112897	0.527339	0.000031
 568	5.6416e+01	5.6377	4.037987	0.000311	3.112897	0.527339	0.000031
 569	5.6516e+01	5.6470	4.066908	0.000291	2.908101	0.492646	0.000029
 570	5.6615e+01	5.6592	4.096644	0.000299	2.990020	0.506523	0.000030
 571	5.6715e+01	5.6664	4.126380	0.000299	2.990020	0.506523	0.000030
 572	5.6815e+01	5.6765	4.153672	0.000274	2.744265	0.464891	0.000027
 573	5.6914e+01	5.6858	4.186667	0.000332	3.317693	0.562032	0.000033
 574	5.7014e+01	5.6976	4.215995	0.000295	2.949061	0.499584	0.000029
 575	5.7113e+01	5.7070	4.241658	0.000258	2.580428	0.437136	0.000026
 576	5.7212e+01	5.7163	4.273431	0.000319	3.194816	0.541216	0.000032
 577	5.7312e+01	5.7282	4.301537	0.000283	2.826183	0.478768	0.000028
 578	5.7411e+01	5.7371	4.330051	0.000287	2.867142	0.485707	0.000029
 579	5.7511e+01	5.7485	4.360602	0.000307	3.071938	0.520400	0.000031
 580	5.7611e+01	5.7549	4.387079	0.000266	2.662346	0.451014	0.000027
 581	5.7710e+01	5.7668	4.418037	0.000311	3.112897	0.527339	0.000031
 582	5.7809e+01	5.7771	4.448181	0.000303	3.030979	0.513462	0.000030
 583	5.7909e+01	5.7888	4.473436	0.000254	2.539469	0.430198	0.000025
 584	5.8008e+01	5.7960	4.506023	0.000328	3.276734	0.555094	0.000033
 585	5.8108e+01	5.8057	4.535759	0.000299	2.990020	0.506523	0.000030
 586	5.8208e+01	5.8157	4.565088	0.000295	2.949061	0.499584	0.000029
 587	5.8307e+01	5.8294	4.590343	0.000254	2.539469	0.430198	0.000025
 588	5.8407e+01	5.8348	4.624560	0.000344	3.440571	0.582848	0.000034
 589	5.8506e+01	5.8465	4.653074	0.000287	2.867142	0.485707	0.000029
 590	5.8605e+01	5.8587	4.682810	0.000299	2.990020	0.506523	0.000030
 591	5.8705e+01	5.8663	4.711731	0.000291	2.908101	0.492646	0.000029
 592	5.8804e+01	5.8765	4.738616	0.000270	2.703306	0.457952	0.000027
 593	5.8904e+01	5.8860	4.769167	0.000307	3.071938	0.520400	0.000031
 594	5.9004e+01	5.8953	4.795644	0.000266	2.662346	0.451014	0.000027
 595	5.9103e+01	5.9066	4.825787	0.000303	3.030979	0.513462	0.000030
 596	5.9203e+01	5.9191	4.854301	0.000287	2.867142	0.485707	0.000029
 597	5.9302e+01	5.9274	4.885259	0.000311	3.112897	0.527339	0.000031
 598	5.9401e+01	5.9373	4.914588	0.000295	2.949061	0.499584	0.000029
 599	5.9501e+01	5.9449	4.943917	0.000295	2.949061	0.499584	0.000029
 600	5.9600e+01	5.9559	4.976097	0.000324	3.235775	0.548155	0.000032
 601	5.9700e+01	5.9649	5.005833	0.000299	2.990020	0.506523	0.000030
 602	5.9800e+01	5.9777	5.038420	0.000328	3.276734	0.555094	0.000033
 603	5.9899e+01	5.9854	5.069378	0.000311	3.112897	0.527339	0.000031
 604	5.9998e+01	5.9951	5.099521	0.000303	3.030979	0.513462	0.000030
 605	6.0098e+01	6.0064	5.125184	0.000258	2.580428	0.437136	0.000026
 606	6.0197e+01	6.0177	5.156142	0.000311	3.112897	0.527339	0.000031
 607	6.0297e+01	6.0278	5.183841	0.000279	2.785224	0.471830	0.000028
 608	6.0397e+01	6.0360	5.209911	0.000262	2.621387	0.444075	0.000026
 609	6.0496e+01	6.0470	5.238018	0.000283	2.826183	0.478768	0.000028
 610	6.0596e+01	6.0564	5.265310	0.000274	2.744265	0.464891	0.000027
 611	6.0695e+01	6.0651	5.297897	0.000328	3.276734	0.555094	0.000033
 612	6.0794e+01	6.0755	5.326819	0.000291	2.908101	0.492646	0.000029
 613	6.0894e+01	6.0850	5.357777	0.000311	3.112897	0.527339	0.000031
 614	6.0993e+01	6.0963	5.386291	0.000287	2.867142	0.485707	0.000029
 615	6.1093e+01	6.1060	5.413175	0.000270	2.703306	0.457952	0.000027
 616	6.1193e+01	6.1144	5.441282	0.000283	2.826183	0.478768	0.000028
 617	6.1292e+01	6.1239	5.469388	0.000283	2.826183	0.478768	0.000028
 618	6.1392e+01	6.1337	5.494644	0.000254	2.539469	0.430198	0.000025
 619	6.1491e+01	6.1459	5.525194	0.000307	3.071938	0.520400	0.000031
 620	6.1590e+01	6.1559	5.554116	0.000291	2.908101	0.492646	0.000029
 621	6.1690e+01	6.1651	5.577334	0.000233	2.334673	0.395504	0.000023
 622	6.1789e+01	6.1749	5.602589	0.000254	2.539469	0.430198	0.000025
 623	6.1889e+01	6.1852	5.632325	0.000299	2.990020	0.506523	0.000030
 624	6.1989e+01	6.1929	5.663283	0.000311	3.112897	0.527339	0.000031
 625	6.2088e+01	6.2035	5.684465	0.000213	2.129877	0.360811	0.000021
 626	6.2188e+01	6.2155	5.716645	0.000324	3.235775	0.548155	0.000032
 627	6.2287e+01	6.2258	5.744752	0.000283	2.826183	0.478768	0.000028
 628	6.2386e+01	6.2337	5.771637	0.000270	2.703306	0.457952	0.000027
 629	6.2486e+01	6.2435	5.799743	0.000283	2.826183	0.478768	0.000028
 630	6.2586e+01	6.2573	5.829072	0.000295	2.949061	0.499584	0.000029
 631	6.2685e+01	6.2637	5.858808	0.000299	2.990020	0.506523	0.000030
 632	6.2785e+01	6.2743	5.884470	0.000258	2.580428	0.437136	0.000026
 633	6.2884e+01	6.2840	5.912984	0.000287	2.867142	0.485707	0.000029
 634	6.2983e+01	6.2934	5.939462	0.000266	2.662346	0.451014	0.000027
 635	6.3083e+01	6.3033	5.970012	0.000307	3.071938	0.520400	0.000031
 636	6.3182e+01	6.3149	5.997712	0.000279	2.785224	0.471830	0.000028
 637	6.3282e+01	6.3247	6.024189	0.000266	2.662346	0.451014	0.000027
 638	6.3382e+01	6.3345	6.051074	0.000270	2.703306	0.457952	0.000027
 639	6.3481e+01	6.3427	6.081624	0.000307	3.071938	0.520400	0.000031
 640	6.3581e+01	6.3519	6.109731	0.000283	2.826183	0.478768	0.000028
 641	6.3680e+01	6.3638	6.139060	0.000295	2.949061	0.499584	0.000029
 642	6.3779e+01	6.3747	6.164315	0.000254	2.539469	0.430198	0.000025
 643	6.3879e+01	6.3838	6.190792	0.000266	2.662346	0.451014	0.000027
 644	6.3978e+01	6.3931	6.221750	0.000311	3.112897	0.527339	0.000031
 645	6.4078e+01	6.4027	6.248227	0.000266	2.662346	0.451014	0.000027
 646	6.4177e+01	6.4155	6.278371	0.000303	3.030979	0.513462	0.000030
 647	6.4277e+01	6.4222	6.304848	0.000266	2.662346	0.451014	0.000027
 648	6.4376e+01	6.4314	6.336213	0.000315	3.153857	0.534278	0.000032
 649	6.4476e+01	6.4429	6.362691	0.000266	2.662346	0.451014	0.000027
 650	6.4576e+01	6.4541	6.387131	0.000246	2.457551	0.416320	0.000025
 651	6.4675e+01	6.4605	6.418089	0.000311	3.112897	0.527339	0.000031
 652	6.4775e+01	6.4729	6.444159	0.000262	2.621387	0.444075	0.000026
 653	6.4874e+01	6.4834	6.471451	0.000274	2.744265	0.464891	0.000027
 654	6.4974e+01	6.4918	6.496299	0.000250	2.498510	0.423259	0.000025
 655	6.5073e+01	6.5044	6.531738	0.000356	3.563448	0.603664	0.000036
 656	6.5172e+01	6.5186	6.555364	0.000238	2.375632	0.402443	0.000024
 657	6.5272e+01	6.5234	6.584692	0.000295	2.949061	0.499584	0.000029
 658	6.5371e+01	6.5322	6.610355	0.000258	2.580428	0.437136	0.000026
 659	6.5471e+01	6.5424	6.638869	0.000287	2.867142	0.485707	0.000029
 660	6.5570e+01	6.5508	6.667790	0.000291	2.908101	0.492646	0.000029
 661	6.5670e+01	6.5626	6.698341	0.000307	3.071938	0.520400	0.000031
 662	6.5769e+01	6.5737	6.725226	0.000270	2.703306	0.457952	0.000027
 663	6.5869e+01	6.5832	6.753740	0.000287	2.867142	0.485707	0.000029
 664	6.5969e+01	6.5931	6.779809	0.000262	2.621387	0.444075	0.000026
 665	6.6068e+01	6.6033	6.810360	0.000307	3.071938	0.520400	0.000031
 666	6.6168e+01	6.6138	6.834393	0.000242	2.416591	0.409382	0.000024
 667	6.6267e+01	6.6235	6.866573	0.000324	3.235775	0.548155	0.000032
 668	6.6367e+01	6.6323	6.892236	0.000258	2.580428	0.437136	0.000026
 669	6.6466e+01	6.6406	6.919935	0.000279	2.785224	0.471830	0.000028
 670	6.6566e+01	6.6531	6.945598	0.000258	2.580428	0.437136	0.000026
 671	6.6665e+01	6.6582	6.973704	0.000283	2.826183	0.478768	0.000028
 672	6.6764e+01	6.6736	7.004255	0.000307	3.071938	0.520400	0.000031
 673	6.6864e+01	6.6814	7.033176	0.000291	2.908101	0.492646	0.000029
 674	6.6963e+01	6.6930	7.058839	0.000258	2.580428	0.437136	0.000026
 675	6.7063e+01	6.7017	7.086131	0.000274	2.744265	0.464891	0.000027
 676	6.7162e+01	6.7110	7.115052	0.000291	2.908101	0.492646	0.000029
 677	6.7262e+01	6.7210	7.143159	0.000283	2.826183	0.478768	0.000028
 678	6.7362e+01	6.7330	7.172080	0.000291	2.908101	0.492646	0.000029
 679	6.7461e+01	6.7434	7.200594	0.000287	2.867142	0.485707	0.000029
 680	6.7561e+01	6.7509	7.227886	0.000274	2.744265	0.464891	0.000027
 681	6.7660e+01	6.7581	7.253956	0.000262	2.621387	0.444075	0.000026
 682	6.7760e+01	6.7696	7.277582	0.000238	2.375632	0.402443	0.000024
 683	6.7859e+01	6.7813	7.306096	0.000287	2.867142	0.485707	0.000029
 684	6.7959e+01	6.7927	7.335832	0.000299	2.990020	0.506523	0.000030
 685	6.8058e+01	6.8023	7.354162	0.000184	1.843163	0.312240	0.000018
 686	6.8157e+01	6.8115	7.385528	0.000315	3.153857	0.534278	0.000032
 687	6.8257e+01	6.8215	7.407932	0.000225	2.252755	0.381627	0.000023
 688	6.8356e+01	6.8319	7.434816	0.000270	2.703306	0.457952	0.000027
 689	6.8456e+01	6.8414	7.462516	0.000279	2.785224	0.471830	0.000028
 690	6.8555e+01	6.8543	7.494696	0.000324	3.235775	0.548155	0.000032
 691	6.8655e+01	6.8609	7.519544	0.000250	2.498510	0.423259	0.000025
 692	6.8754e+01	6.8716	7.552131	0.000328	3.276734	0.555094	0.000033
 693	6.8854e+01	6.8829	7.577793	0.000258	2.580428	0.437136	0.000026
 694	6.8954e+01	6.8919	7.604271	0.000266	2.662346	0.451014	0.000027
 695	6.9053e+01	6.9019	7.634414	0.000303	3.030979	0.513462	0.000030
 696	6.9153e+01	6.9118	7.658040	0.000238	2.375632	0.402443	0.000024
 697	6.9252e+01	6.9222	7.686147	0.000283	2.826183	0.478768	0.000028
 698	6.9352e+01	6.9308	7.710180	0.000242	2.416591	0.409382	0.000024
 699	6.9451e+01	6.9431	7.738286	0.000283	2.826183	0.478768	0.000028
 700	6.9550e+01	6.9469	7.764356	0.000262	2.621387	0.444075	0.000026
 701	6.9650e+01	6.9600	7.797351	0.000332	3.317693	0.562032	0.000033
 702	6.9749e+01	6.9707	7.823421	0.000262	2.621387	0.444075	0.000026
 703	6.9849e+01	6.9817	7.855194	0.000319	3.194816	0.541216	0.000032
 704	6.9948e+01	6.9909	7.882486	0.000274	2.744265	0.464891	0.000027
 705	7.0048e+01	6.9996	7.915073	0.000328	3.276734	0.555094	0.000033
 706	7.0147e+01	7.0119	7.940328	0.000254	2.539469	0.430198	0.000025
 707	7.0247e+01	7.0208	7.969250	0.000291	2.908101	0.492646	0.000029
 708	7.0347e+01	7.0300	8.001837	0.000328	3.276734	0.555094	0.000033
 709	7.0446e+01	7.0410	8.027907	0.000262	2.621387	0.444075	0.000026
 710	7.0546e+01	7.0480	8.058050	0.000303	3.030979	0.513462	0.000030
 711	7.0645e+01	7.0601	8.083713	0.000258	2.580428	0.437136	0.000026
 712	7.0745e+01	7.0727	8.111820	0.000283	2.826183	0.478768	0.000028
 713	7.0844e+01	7.0826	8.136667	0.000250	2.498510	0.423259	0.000025
 714	7.0944e+01	7.0921	8.166811	0.000303	3.030979	0.513462	0.000030
 715	7.1043e+01	7.0996	8.196547	0.000299	2.990020	0.506523	0.000030
 716	7.1142e+01	7.1094	8.221395	0.000250	2.498510	0.423259	0.000025
 717	7.1242e+01	7.1194	8.247872	0.000266	2.662346	0.451014	0.000027
 718	7.1341e+01	7.1249	8.274349	0.000266	2.662346	0.451014	0.000027
 719	7.1441e+01	7.1389	8.303678	0.000295	2.949061	0.499584	0.000029
 720	7.1540e+01	7.1499	8.330155	0.000266	2.662346	0.451014	0.000027
 721	7.1640e+01	7.1592	8.356632	0.000266	2.662346	0.451014	0.000027
 722	7.1740e+01	7.1706	8.386776	0.000303	3.030979	0.513462	0.000030
 723	7.1839e+01	7.1791	8.416104	0.000295	2.949061	0.499584	0.000029
 724	7.1939e+01	7.1908	8.442989	0.000270	2.703306	0.457952	0.000027
 725	7.2038e+01	7.1990	8.472318	0.000295	2.949061	0.499584	0.000029
 726	7.2138e+01	7.2095	8.496351	0.000242	2.416591	0.409382	0.000024
 727	7.2237e+01	7.2204	8.523236	0.000270	2.703306	0.457952	0.000027
 728	7.2337e+01	7.2299	8.552564	0.000295	2.949061	0.499584	0.000029
 729	7.2436e+01	7.2412	8.575375	0.000229	2.293714	0.388566	0.000023
 730	7.2535e+01	7.2485	8.605111	0.000299	2.990020	0.506523	0.000030
 731	7.2635e+01	7.2607	8.634440	0.000295	2.949061	0.499584	0.000029
 732	7.2734e+01	7.2674	8.658066	0.000238	2.375632	0.402443	0.000024
 733	7.2834e+01	7.2780	8.684136	0.000262	2.621387	0.444075	0.000026
 734	7.2933e+01	7.2892	8.712650	0.000287	2.867142	0.485707	0.000029
 735	7.3033e+01	7.3001	8.741164	0.000287	2.867142	0.485707	0.000029
 736	7.3132e+01	7.3096	8.765604	0.000246	2.457551	0.416320	0.000025
 737	7.3232e+01	7.3209	8.796970	0.000315	3.153857	0.534278	0.000032
 738	7.3332e+01	7.3284	8.822632	0.000258	2.580428	0.437136	0.000026
 739	7.3431e+01	7.3371	8.851554	0.000291	2.908101	0.492646	0.000029
 740	7.3531e+01	7.3501	8.883326	0.000319	3.194816	0.541216	0.000032
 741	7.3630e+01	7.3615	8.909396	0.000262	2.621387	0.444075	0.000026
 742	7.3730e+01	7.3687	8.935059	0.000258	2.580428	0.437136	0.000026
 743	7.3829e+01	7.3791	8.957870	0.000229	2.293714	0.388566	0.000023
 744	7.3928e+01	7.3882	8.987199	0.000295	2.949061	0.499584	0.000029
 745	7.4028e+01	7.3968	9.012454	0.000254	2.539469	0.430198	0.000025
 746	7.4127e+01	7.4077	9.036895	0.000246	2.457551	0.416320	0.000025
 747	7.4227e+01	7.4166	9.067853	0.000311	3.112897	0.527339	0.000031
 748	7.4326e+01	7.4290	9.095552	0.000279	2.785224	0.471830	0.000028
 749	7.4426e+01	7.4378	9.124473	0.000291	2.908101	0.492646	0.000029
 750	7.4525e+01	7.4508	9.147284	0.000229	2.293714	0.388566	0.000023
 751	7.4625e+01	7.4569	9.173354	0.000262	2.621387	0.444075	0.000026
 752	7.4725e+01	7.4666	9.201868	0.000287	2.867142	0.485707	0.000029
 753	7.4824e+01	7.4777	9.233234	0.000315	3.153857	0.534278	0.000032
 754	7.4924e+01	7.4882	9.258489	0.000254	2.539469	0.430198	0.000025
 755	7.5023e+01	7.4998	9.286595	0.000283	2.826183	0.478768	0.000028
 756	7.5123e+01	7.5082	9.310221	0.000238	2.375632	0.402443	0.000024
 757	7.5222e+01	7.5160	9.336699	0.000266	2.662346	0.451014	0.000027
 758	7.5322e+01	7.5249	9.365620	0.000291	2.908101	0.492646	0.000029
 759	7.5421e+01	7.5391	9.390060	0.000246	2.457551	0.416320	0.000025
 760	7.5520e+01	7.5494	9.414908	0.000250	2.498510	0.423259	0.000025
 761	7.5620e+01	7.5591	9.442200	0.000274	2.744265	0.464891	0.000027
 762	7.5719e+01	7.5696	9.470307	0.000283	2.826183	0.478768	0.000028
 763	7.5819e+01	7.5771	9.497599	0.000274	2.744265	0.464891	0.000027
 764	7.5918e+01	7.5865	9.527335	0.000299	2.990020	0.506523	0.000030
 765	7.6018e+01	7.5994	9.551775	0.000246	2.457551	0.416320	0.000025
 766	7.6118e+01	7.6066	9.580697	0.000291	2.908101	0.492646	0.000029
 767	7.6217e+01	7.6169	9.610025	0.000295	2.949061	0.499584	0.000029
 768	7.6317e+01	7.6263	9.637725	0.000279	2.785224	0.471830	0.000028
 769	7.6416e+01	7.6371	9.665424	0.000279	2.785224	0.471830	0.000028
 770	7.6516e+01	7.6476	9.693531	0.000283	2.826183	0.478768	0.000028
 771	7.6615e+01	7.6582	9.722859	0.000295	2.949061	0.499584	0.000029
 772	7.6715e+01	7.6649	9.749744	0.000270	2.703306	0.457952	0.000027
 773	7.6814e+01	7.6768	9.773370	0.000238	2.375632	0.402443	0.000024
 774	7.6913e+01	7.6858	9.799440	0.000262	2.621387	0.444075	0.000026
 775	7.7013e+01	7.6965	9.825510	0.000262	2.621387	0.444075	0.000026
 776	7.7112e+01	7.7058	9.851987	0.000266	2.662346	0.451014	0.000027
 777	7.7212e+01	7.7178	9.880501	0.000287	2.867142	0.485707	0.000029
 778	7.7311e+01	7.7257	9.906164	0.000258	2.580428	0.437136	0.000026
 779	7.7411e+01	7.7363	9.935492	0.000295	2.949061	0.499584	0.000029
 780	7.7510e+01	7.7444	9.960747	0.000254	2.539469	0.430198	0.000025
 781	7.7610e+01	7.7588	9.987632	0.000270	2.703306	0.457952	0.000027
 782	7.7710e+01	7.7679	10.017368	0.000299	2.990020	0.506523	0.000030
 783	7.7809e+01	7.7750	10.043031	0.000258	2.580428	0.437136	0.000026
 784	7.7909e+01	7.7866	10.070323	0.000274	2.744265	0.464891	0.000027
 785	7.8008e+01	7.7944	10.092319	0.000221	2.211796	0.374688	0.000022
 786	7.8108e+01	7.8078	10.118389	0.000262	2.621387	0.444075	0.000026
 787	7.8207e+01	7.8164	10.142830	0.000246	2.457551	0.416320	0.000025
 788	7.8306e+01	7.8257	10.168492	0.000258	2.580428	0.437136	0.000026
 789	7.8406e+01	7.8391	10.193340	0.000250	2.498510	0.423259	0.000025
 790	7.8505e+01	7.8420	10.217781	0.000246	2.457551	0.416320	0.000025
 791	7.8605e+01	7.8555	10.248331	0.000307	3.071938	0.520400	0.000031
 792	7.8704e+01	7.8677	10.271550	0.000233	2.334673	0.395504	0.000023
 793	7.8804e+01	7.8785	10.298027	0.000266	2.662346	0.451014	0.000027
 794	7.8903e+01	7.8883	10.321246	0.000233	2.334673	0.395504	0.000023
 795	7.9003e+01	7.8923	10.349352	0.000283	2.826183	0.478768	0.000028
 796	7.9103e+01	7.9053	10.372978	0.000238	2.375632	0.402443	0.000024
 797	7.9202e+01	7.9154	10.401085	0.000283	2.826183	0.478768	0.000028
 798	7.9302e+01	7.9248	10.427155	0.000262	2.621387	0.444075	0.000026
 799	7.9401e+01	7.9360	10.452817	0.000258	2.580428	0.437136	0.000026
 800	7.9501e+01	7.9455	10.479294	0.000266	2.662346	0.451014	0.000027
 801	7.9600e+01	7.9581	10.508623	0.000295	2.949061	0.499584	0.000029
 802	7.9700e+01	7.9658	10.529805	0.000213	2.129877	0.360811	0.000021
 803	7.9799e+01	7.9738	10.557912	0.000283	2.826183	0.478768	0.000028
 804	7.9898e+01	7.9858	10.581130	0.000233	2.334673	0.395504	0.000023
 805	7.9998e+01	7.9937	10.608422	0.000274	2.744265	0.464891	0.000027
 806	8.0097e+01	8.0039	10.633677	0.000254	2.539469	0.430198	0.000025
 807	8.0197e+01	8.0127	10.660969	0.000274	2.744265	0.464891	0.000027
 808	8.0296e+01	8.0257	10.688261	0.000274	2.744265	0.464891	0.000027
 809	8.0396e+01	8.0339	10.715553	0.000274	2.744265	0.464891	0.000027
 810	8.0496e+01	8.0450	10.742845	0.000274	2.744265	0.464891	0.000027
 811	8.0595e+01	8.0564	10.770544	0.000279	2.785224	0.471830	0.000028
 812	8.0695e+01	8.0643	10.795392	0.000250	2.498510	0.423259	0.000025
 813	8.0794e+01	8.0750	10.823092	0.000279	2.785224	0.471830	0.000028
 814	8.0894e+01	8.0844	10.845903	0.000229	2.293714	0.388566	0.000023
 815	8.0993e+01	8.0974	10.874009	0.000283	2.826183	0.478768	0.000028
 816	8.1093e+01	8.1030	10.900079	0.000262	2.621387	0.444075	0.000026
 817	8.1192e+01	8.1143	10.928593	0.000287	2.867142	0.485707	0.000029
 818	8.1291e+01	8.1242	10.953849	0.000254	2.539469	0.430198	0.000025
 819	8.1391e+01	8.1396	10.977882	0.000242	2.416591	0.409382	0.000024
 820	8.1490e+01	8.1455	11.004766	0.000270	2.703306	0.457952	0.000027
 821	8.1590e+01	8.1543	11.027985	0.000233	2.334673	0.395504	0.000023
 822	8.1689e+01	8.1638	11.055684	0.000279	2.785224	0.471830	0.000028
 823	8.1789e+01	8.1750	11.080125	0.000246	2.457551	0.416320	0.000025
 824	8.1888e+01	8.1847	11.109046	0.000291	2.908101	0.492646	0.000029
 825	8.1988e+01	8.1953	11.133487	0.000246	2.457551	0.416320	0.000025
 826	8.2088e+01	8.2063	11.159964	0.000266	2.662346	0.451014	0.000027
 827	8.2187e+01	8.2143	11.185626	0.000258	2.580428	0.437136	0.000026
 828	8.2287e+01	8.2242	11.212104	0.000266	2.662346	0.451014	0.000027
 829	8.2386e+01	8.2328	11.240618	0.000287	2.867142	0.485707	0.000029
 830	8.2486e+01	8.2432	11.267910	0.000274	2.744265	0.464891	0.000027
 831	8.2585e+01	8.2541	11.293980	0.000262	2.621387	0.444075	0.000026
 832	8.2684e+01	8.2642	11.320050	0.000262	2.621387	0.444075	0.000026
 833	8.2784e+01	8.2769	11.350600	0.000307	3.071938	0.520400	0.000031
 834	8.2883e+01	8.2819	11.374226	0.000238	2.375632	0.402443	0.000024
 835	8.2983e+01	8.2959	11.397445	0.000233	2.334673	0.395504	0.000023
 836	8.3082e+01	8.3022	11.424329	0.000270	2.703306	0.457952	0.000027
 837	8.3182e+01	8.3126	11.454065	0.000299	2.990020	0.506523	0.000030
 838	8.3281e+01	8.3224	11.473210	0.000193	1.925081	0.326118	0.000019
 839	8.3381e+01	8.3341	11.503761	0.000307	3.071938	0.520400	0.000031
 840	8.3481e+01	8.3427	11.529016	0.000254	2.539469	0.430198	0.000025
 841	8.3580e+01	8.3521	11.553457	0.000246	2.457551	0.416320	0.000025
 842	8.3680e+01	8.3633	11.580341	0.000270	2.703306	0.457952	0.000027
 843	8.3779e+01	8.3729	11.606819	0.000266	2.662346	0.451014	0.000027
 844	8.3879e+01	8.3830	11.638999	0.000324	3.235775	0.548155	0.000032
 845	8.3978e+01	8.3928	11.662625	0.000238	2.375632	0.402443	0.000024
 846	8.4078e+01	8.4033	11.690324	0.000279	2.785224	0.471830	0.000028
 847	8.4177e+01	8.4144	11.713542	0.000233	2.334673	0.395504	0.000023
 848	8.4276e+01	8.4236	11.742871	0.000295	2.949061	0.499584	0.000029
 849	8.4376e+01	8.4326	11.767312	0.000246	2.457551	0.416320	0.000025
 850	8.4475e+01	8.4425	11.791752	0.000246	2.457551	0.416320	0.000025
 851	8.4575e+01	8.4528	11.817822	0.000262	2.621387	0.444075	0.000026
 852	8.4674e+01	8.4583	11.842263	0.000246	2.457551	0.416320	0.000025
 853	8.4774e+01	8.4734	11.863037	0.000209	2.088918	0.353872	0.000021
 854	8.4874e+01	8.4830	11.886256	0.000233	2.334673	0.395504	0.000023
 855	8.4973e+01	8.4937	11.912326	0.000262	2.621387	0.444075	0.000026
 856	8.5073e+01	8.5038	11.938803	0.000266	2.662346	0.451014	0.000027
 857	8.5172e+01	8.5129	11.966502	0.000279	2.785224	0.471830	0.000028
 858	8.5272e+01	8.5209	11.992979	0.000266	2.662346	0.451014	0.000027
 859	8.5371e+01	8.5323	12.021493	0.000287	2.867142	0.485707	0.000029
 860	8.5471e+01	8.5422	12.047563	0.000262	2.621387	0.444075	0.000026
 861	8.5570e+01	8.5525	12.074855	0.000274	2.744265	0.464891	0.000027
 862	8.5669e+01	8.5639	12.100925	0.000262	2.621387	0.444075	0.000026
 863	8.5769e+01	8.5705	12.128217	0.000274	2.744265	0.464891	0.000027
 864	8.5868e+01	8.5827	12.153880	0.000258	2.580428	0.437136	0.000026
 865	8.5968e+01	8.5959	12.177506	0.000238	2.375632	0.402443	0.000024
 866	8.6067e+01	8.6023	12.202353	0.000250	2.498510	0.423259	0.000025
 867	8.6167e+01	8.6124	12.229238	0.000270	2.703306	0.457952	0.000027
 868	8.6266e+01	8.6223	12.254901	0.000258	2.580428	0.437136	0.000026
 869	8.6366e+01	8.6330	12.287895	0.000332	3.317693	0.562032	0.000033
 870	8.6466e+01	8.6411	12.312336	0.000246	2.457551	0.416320	0.000025
 871	8.6565e+01	8.6541	12.340035	0.000279	2.785224	0.471830	0.000028
 872	8.6665e+01	8.6636	12.367735	0.000279	2.785224	0.471830	0.000028
 873	8.6764e+01	8.6731	12.397878	0.000303	3.030979	0.513462	0.000030
 874	8.6864e+01	8.6837	12.427207	0.000295	2.949061	0.499584	0.000029
 875	8.6963e+01	8.6926	12.454499	0.000274	2.744265	0.464891	0.000027
 876	8.7063e+01	8.7012	12.482198	0.000279	2.785224	0.471830	0.000028
 877	8.7162e+01	8.7105	12.506638	0.000246	2.457551	0.416320	0.000025
 878	8.7261e+01	8.7200	12.535560	0.000291	2.908101	0.492646	0.000029
 879	8.7361e+01	8.7318	12.561630	0.000262	2.621387	0.444075	0.000026
 880	8.7460e+01	8.7422	12.588514	0.000270	2.703306	0.457952	0.000027
 881	8.7560e+01	8.7515	12.614991	0.000266	2.662346	0.451014	0.000027
 882	8.7659e+01	8.7622	12.643505	0.000287	2.867142	0.485707	0.000029
 883	8.7759e+01	8.7723	12.669575	0.000262	2.621387	0.444075	0.000026
 884	8.7859e+01	8.7832	12.692387	0.000229	2.293714	0.388566	0.000023
 885	8.7958e+01	8.7918	12.721715	0.000295	2.949061	0.499584	0.000029
 886	8.8058e+01	8.8001	12.746156	0.000246	2.457551	0.416320	0.000025
 887	8.8157e+01	8.8116	12.775484	0.000295	2.949061	0.499584	0.000029
 888	8.8257e+01	8.8210	12.799110	0.000238	2.375632	0.402443	0.000024
 889	8.8356e+01	8.8314	12.824773	0.000258	2.580428	0.437136	0.000026
 890	8.8456e+01	8.8403	12.852472	0.000279	2.785224	0.471830	0.000028
 891	8.8555e+01	8.8530	12.878949	0.000266	2.662346	0.451014	0.000027
 892	8.8654e+01	8.8589	12.904205	0.000254	2.539469	0.430198	0.000025
 893	8.8754e+01	8.8691	12.932311	0.000283	2.826183	0.478768	0.000028
 894	8.8853e+01	8.8811	12.959196	0.000270	2.703306	0.457952	0.000027
 895	8.8953e+01	8.8920	12.986488	0.000274	2.744265	0.464891	0.000027
 896	8.9052e+01	8.9004	13.011743	0.000254	2.539469	0.430198	0.000025
 897	8.9152e+01	8.9111	13.038628	0.000270	2.703306	0.457952	0.000027
 898	8.9251e+01	8.9175	13.064698	0.000262	2.621387	0.444075	0.000026
 899	8.9351e+01	8.9327	13.091582	0.000270	2.703306	0.457952	0.000027
 900	8.9451e+01	8.9404	13.119282	0.000279	2.785224	0.471830	0.000028
 901	8.9550e+01	8.9509	13.141685	0.000225	2.252755	0.381627	0.000023
 902	8.9650e+01	8.9577	13.168977	0.000274	2.744265	0.464891	0.000027
 903	8.9749e+01	8.9697	13.199121	0.000303	3.030979	0.513462	0.000030
 904	8.9849e+01	8.9795	13.224783	0.000258	2.580428	0.437136	0.000026
 905	8.9948e+01	8.9879	13.254519	0.000299	2.990020	0.506523	0.000030
 906	9.0047e+01	8.9982	13.277330	0.000229	2.293714	0.388566	0.000023
 907	9.0147e+01	9.0107	13.308288	0.000311	3.112897	0.527339	0.000031
 908	9.0246e+01	9.0186	13.335988	0.000279	2.785224	0.471830	0.000028
 909	9.0346e+01	9.0332	13.362465	0.000266	2.662346	0.451014	0.000027
 910	9.0445e+01	9.0421	13.384462	0.000221	2.211796	0.374688	0.000022
 911	9.0545e+01	9.0511	13.413383	0.000291	2.908101	0.492646	0.000029
 912	9.0644e+01	9.0597	13.437823	0.000246	2.457551	0.416320	0.000025
 913	9.0744e+01	9.0675	13.465115	0.000274	2.744265	0.464891	0.000027
 914	9.0844e+01	9.0784	13.488741	0.000238	2.375632	0.402443	0.000024
 915	9.0943e+01	9.0894	13.516441	0.000279	2.785224	0.471830	0.000028
 916	9.1043e+01	9.0973	13.546177	0.000299	2.990020	0.506523	0.000030
 917	9.1142e+01	9.1091	13.572246	0.000262	2.621387	0.444075	0.000026
 918	9.1242e+01	9.1168	13.599946	0.000279	2.785224	0.471830	0.000028
 919	9.1341e+01	9.1284	13.625608	0.000258	2.580428	0.437136	0.000026
 920	9.1441e+01	9.1406	13.651271	0.000258	2.580428	0.437136	0.000026
 921	9.1540e+01	9.1491	13.676526	0.000254	2.539469	0.430198	0.000025
 922	9.1639e+01	9.1598	13.705855	0.000295	2.949061	0.499584	0.000029
 923	9.1739e+01	9.1678	13.734369	0.000287	2.867142	0.485707	0.000029
 924	9.1838e+01	9.1799	13.758402	0.000242	2.416591	0.409382	0.000024
 925	9.1938e+01	9.1888	13.785287	0.000270	2.703306	0.457952	0.000027
 926	9.2037e+01	9.1980	13.812579	0.000274	2.744265	0.464891	0.000027
 927	9.2137e+01	9.2102	13.836204	0.000238	2.375632	0.402443	0.000024
 928	9.2237e+01	9.2190	13.862682	0.000266	2.662346	0.451014	0.000027
 929	9.2336e+01	9.2285	13.889566	0.000270	2.703306	0.457952	0.000027
 930	9.2436e+01	9.2387	13.919302	0.000299	2.990020	0.506523	0.000030
 931	9.2535e+01	9.2510	13.944965	0.000258	2.580428	0.437136	0.000026
 932	9.2635e+01	9.2590	13.976330	0.000315	3.153857	0.534278	0.000032
 933	9.2734e+01	9.2682	13.998327	0.000221	2.211796	0.374688	0.000022
 934	9.2834e+01	9.2786	14.027655	0.000295	2.949061	0.499584	0.000029
 935	9.2933e+01	9.2860	14.057799	0.000303	3.030979	0.513462	0.000030
 936	9.3032e+01	9.2975	14.087942	0.000303	3.030979	0.513462	0.000030
 937	9.3132e+01	9.3074	14.114827	0.000270	2.703306	0.457952	0.000027
 938	9.3231e+01	9.3150	14.144970	0.000303	3.030979	0.513462	0.000030
 939	9.3331e+01	9.3282	14.171855	0.000270	2.703306	0.457952	0.000027
 940	9.3430e+01	9.3378	14.201183	0.000295	2.949061	0.499584	0.000029
 941	9.3530e+01	9.3476	14.225624	0.000246	2.457551	0.416320	0.000025
 942	9.3629e+01	9.3604	14.252509	0.000270	2.703306	0.457952	0.000027
 943	9.3729e+01	9.3685	14.278986	0.000266	2.662346	0.451014	0.000027
 944	9.3829e+01	9.3799	14.300982	0.000221	2.211796	0.374688	0.000022
 945	9.3928e+01	9.3896	14.329089	0.000283	2.826183	0.478768	0.000028
 946	9.4028e+01	9.3973	14.357196	0.000283	2.826183	0.478768	0.000028
 947	9.4127e+01	9.4076	14.384080	0.000270	2.703306	0.457952	0.000027
 948	9.4227e+01	9.4184	14.416668	0.000328	3.276734	0.555094	0.000033
 949	9.4326e+01	9.4279	14.440701	0.000242	2.416591	0.409382	0.000024
 950	9.4425e+01	9.4365	14.471251	0.000307	3.071938	0.520400	0.000031
 951	9.4525e+01	9.4495	14.497321	0.000262	2.621387	0.444075	0.000026
 952	9.4624e+01	9.4593	14.522984	0.000258	2.580428	0.437136	0.000026
 953	9.4724e+01	9.4678	14.547832	0.000250	2.498510	0.423259	0.000025
 954	9.4823e+01	9.4775	14.575124	0.000274	2.744265	0.464891	0.000027
 955	9.4923e+01	9.4873	14.596306	0.000213	2.129877	0.360811	0.000021
 956	9.5022e+01	9.4971	14.624005	0.000279	2.785224	0.471830	0.000028
 957	9.5122e+01	9.5050	14.649668	0.000258	2.580428	0.437136	0.000026
 958	9.5222e+01	9.5166	14.676959	0.000274	2.744265	0.464891	0.000027
 959	9.5321e+01	9.5255	14.700178	0.000233	2.334673	0.395504	0.000023
 960	9.5421e+01	9.5389	14.727063	0.000270	2.703306	0.457952	0.000027
 961	9.5520e+01	9.5496	14.755984	0.000291	2.908101	0.492646	0.000029
 962	9.5620e+01	9.5558	14.784091	0.000283	2.826183	0.478768	0.000028
 963	9.5719e+01	9.5663	14.807309	0.000233	2.334673	0.395504	0.000023
 964	9.5819e+01	9.5773	14.831342	0.000242	2.416591	0.409382	0.000024
 965	9.5918e+01	9.5868	14.862708	0.000315	3.153857	0.534278	0.000032
 966	9.6017e+01	9.5978	14.888778	0.000262	2.621387	0.444075	0.000026
 967	9.6117e+01	9.6062	14.917699	0.000291	2.908101	0.492646	0.000029
 968	9.6216e+01	9.6170	14.942139	0.000246	2.457551	0.416320	0.000025
 969	9.6316e+01	9.6247	14.970246	0.000283	2.826183	0.478768	0.000028
 970	9.6415e+01	9.6371	14.999575	0.000295	2.949061	0.499584	0.000029
 971	9.6515e+01	9.6490	15.028903	0.000295	2.949061	0.499584	0.000029
 972	9.6615e+01	9.6570	15.052937	0.000242	2.416591	0.409382	0.000024
 973	9.6714e+01	9.6655	15.081451	0.000287	2.867142	0.485707	0.000029
 974	9.6814e+01	9.6784	15.103854	0.000225	2.252755	0.381627	0.000023
 975	9.6913e+01	9.6863	15.135627	0.000319	3.194816	0.541216	0.000032
 976	9.7013e+01	9.6979	15.162512	0.000270	2.703306	0.457952	0.000027
 977	9.7112e+01	9.7046	15.194285	0.000319	3.194816	0.541216	0.000032
 978	9.7212e+01	9.7168	15.217096	0.000229	2.293714	0.388566	0.000023
 979	9.7311e+01	9.7242	15.244388	0.000274	2.744265	0.464891	0.000027
 980	9.7410e+01	9.7334	15.274124	0.000299	2.990020	0.506523	0.000030
 981	9.7510e+01	9.7470	15.301823	0.000279	2.785224	0.471830	0.000028
 982	9.7609e+01	9.7559	15.332374	0.000307	3.071938	0.520400	0.000031
 983	9.7709e+01	9.7668	15.357629	0.000254	2.539469	0.430198	0.000025
 984	9.7808e+01	9.7791	15.383699	0.000262	2.621387	0.444075	0.000026
 985	9.7908e+01	9.7840	15.415879	0.000324	3.235775	0.548155	0.000032
 986	9.8007e+01	9.7961	15.439097	0.000233	2.334673	0.395504	0.000023
 987	9.8107e+01	9.8071	15.468019	0.000291	2.908101	0.492646	0.000029
 988	9.8207e+01	9.8147	15.495718	0.000279	2.785224	0.471830	0.000028
 989	9.8306e+01	9.8258	15.521381	0.000258	2.580428	0.437136	0.000026
 990	9.8406e+01	9.8353	15.548265	0.000270	2.703306	0.457952	0.000027
 991	9.8505e+01	9.8459	15.576779	0.000287	2.867142	0.485707	0.000029
 992	9.8605e+01	9.8548	15.603256	0.000266	2.662346	0.451014	0.000027
 993	9.8704e+01	9.8657	15.633400	0.000303	3.030979	0.513462	0.000030
 994	9.8803e+01	9.8739	15.662321	0.000291	2.908101	0.492646	0.000029
 995	9.8903e+01	9.8853	15.689613	0.000274	2.744265	0.464891	0.000027
 996	9.9002e+01	9.8959	15.718942	0.000295	2.949061	0.499584	0.000029
 997	9.9102e+01	9.9031	15.748678	0.000299	2.990020	0.506523	0.000030
 998	9.9201e+01	9.9161	15.775155	0.000266	2.662346	0.451014	0.000027
 999	9.9301e+01	9.9247	15.804076	0.000291	2.908101	0.492646	0.000029
1000	9.9400e+01	9.9342	15.835849	0.000319	3.194816	0.541216	0.000032
1001	9.9500e+01	9.9439	15.858660	0.000229	2.293714	0.388566	0.000023
1002	9.9600e+01	9.9536	15.887174	0.000287	2.867142	0.485707	0.000029
1003	9.9699e+01	9.9667	15.914466	0.000274	2.744265	0.464891	0.000027
1004	9.9799e+01	9.9750	15.940943	0.000266	2.662346	0.451014	0.000027
1005	9.9898e+01	9.9860	15.971901	0.000311	3.112897	0.527339	0.000031
1006	9.9998e+01	9.9934	15.996749	0.000250	2.498510	0.423259	0.000025
1007	1.0010e+02	9.9842	15.985751	0.000111	1.105898	0.187344	-0.000011
1008	1.0020e+02	9.9763	15.971087	0.000147	1.474530	0.249792	-0.000015
1009	1.0030e+02	9.9641	15.956015	0.000152	1.515490	0.256731	-0.000015
1010	1.0040e+02	9.9539	15.938907	0.000172	1.720285	0.291424	-0.000017
1011	1.0050e+02	9.9483	15.925057	0.000139	1.392612	0.235915	-0.000014
1012	1.0059e+02	9.9342	15.910800	0.000143	1.433571	0.242854	-0.000014
1013	1.0069e+02	9.9232	15.898172	0.000127	1.269734	0.215099	-0.000013
1014	1.0079e+02	9.9158	15.878213	0.000201	2.007000	0.339995	-0.000020
1015	1.0089e+02	9.9048	15.865992	0.000123	1.228775	0.208160	-0.000012
1016	1.0099e+02	9.8962	15.846440	0.000197	1.966040	0.333056	-0.000020
1017	1.0109e+02	9.8833	15.828517	0.000180	1.802204	0.305302	-0.000018
1018	1.0119e+02	9.8769	15.810186	0.000184	1.843163	0.312240	-0.000018
1019	1.0129e+02	9.8657	15.791856	0.000184	1.843163	0.312240	-0.000018
1020	1.0139e+02	9.8537	15.777192	0.000147	1.474530	0.249792	-0.000015
1021	1.0149e+02	9.8457	15.758454	0.000188	1.884122	0.319179	-0.000019
1022	1.0159e+02	9.8364	15.738494	0.000201	2.007000	0.339995	-0.000020
1023	1.0169e+02	9.8280	15.720571	0.000180	1.802204	0.305302	-0.000018
1024	1.0179e+02	9.8155	15.699797	0.000209	2.088918	0.353872	-0.000021
1025	1.0189e+02	9.8032	15.684725	0.000152	1.515490	0.256731	-0.000015
1026	1.0199e+02	9.7937	15.668431	0.000164	1.638367	0.277547	-0.000016
1027	1.0209e+02	9.7868	15.653360	0.000152	1.515490	0.256731	-0.000015
1028	1.0219e+02	9.7745	15.635029	0.000184	1.843163	0.312240	-0.000018
1029	1.0229e+02	9.7657	15.616291	0.000188	1.884122	0.319179	-0.000019
1030	1.0239e+02	9.7549	15.599998	0.000164	1.638367	0.277547	-0.000016
1031	1.0248e+02	9.7464	15.578409	0.000217	2.170836	0.367750	-0.000022
1032	1.0258e+02	9.7347	15.565781	0.000127	1.269734	0.215099	-0.000013
1033	1.0268e+02	9.7253	15.545006	0.000209	2.088918	0.353872	-0.000021
1034	1.0278e+02	9.7168	15.523010	0.000221	2.211796	0.374688	-0.000022
1035	1.0288e+02	9.7071	15.506716	0.000164	1.638367	0.277547	-0.000016
1036	1.0298e+02	9.6948	15.490015	0.000168	1.679326	0.284486	-0.000017
1037	1.0308e+02	9.6857	15.476166	0.000139	1.392612	0.235915	-0.000014
1038	1.0318e+02	9.6765	15.459465	0.000168	1.679326	0.284486	-0.000017
1039	1.0328e+02	9.6658	15.442763	0.000168	1.679326	0.284486	-0.000017
1040	1.0338e+02	9.6582	15.427284	0.000156	1.556449	0.263670	-0.000016
1041	1.0348e+02	9.6462	15.412213	0.000152	1.515490	0.256731	-0.000015
1042	1.0358e+02	9.6375	15.393475	0.000188	1.884122	0.319179	-0.000019
1043	1.0368e+02	9.6259	15.371071	0.000225	2.252755	0.381627	-0.000023
1044	1.0378e+02	9.6149	15.355592	0.000156	1.556449	0.263670	-0.000016
1045	1.0388e+02	9.6088	15.337262	0.000184	1.843163	0.312240	-0.000018
1046	1.0398e+02	9.5974	15.314451	0.000229	2.293714	0.388566	-0.000023
1047	1.0408e+02	9.5855	15.300194	0.000143	1.433571	0.242854	-0.000014
1048	1.0418e+02	9.5776	15.283493	0.000168	1.679326	0.284486	-0.000017
1049	1.0428e+02	9.5679	15.262311	0.000213	2.129877	0.360811	-0.000021
1050	1.0438e+02	9.5563	15.243573	0.000188	1.884122	0.319179	-0.000019
1051	1.0447e+02	9.5476	15.226872	0.000168	1.679326	0.284486	-0.000017
1052	1.0457e+02	9.5392	15.206097	0.000209	2.088918	0.353872	-0.000021
1053	1.0467e+02	9.5264	15.187360	0.000188	1.884122	0.319179	-0.000019
1054	1.0477e+02	9.5184	15.164956	0.000225	2.252755	0.381627	-0.000023
1055	1.0487e+02	9.5084	15.147440	0.000176	1.761245	0.298363	-0.000018
1056	1.0497e+02	9.4971	15.131554	0.000160	1.597408	0.270608	-0.000016
1057	1.0507e+02	9.4870	15.111187	0.000205	2.047959	0.346934	-0.000020
1058	1.0517e+02	9.4741	15.093264	0.000180	1.802204	0.305302	-0.000018
1059	1.0527e+02	9.4678	15.073304	0.000201	2.007000	0.339995	-0.000020
1060	1.0537e+02	9.4550	15.054159	0.000193	1.925081	0.326118	-0.000019
1061	1.0547e+02	9.4471	15.032570	0.000217	2.170836	0.367750	-0.000022
1062	1.0557e+02	9.4379	15.015868	0.000168	1.679326	0.284486	-0.000017
1063	1.0567e+02	9.4263	14.991021	0.000250	2.498510	0.423259	-0.000025
1064	1.0577e+02	9.4173	14.974320	0.000168	1.679326	0.284486	-0.000017
1065	1.0587e+02	9.4062	14.955174	0.000193	1.925081	0.326118	-0.000019
1066	1.0597e+02	9.3977	14.934807	0.000205	2.047959	0.346934	-0.000020
1067	1.0607e+02	9.3884	14.912403	0.000225	2.252755	0.381627	-0.000023
1068	1.0617e+02	9.3774	14.892444	0.000201	2.007000	0.339995	-0.000020
1069	1.0627e+02	9.3656	14.870855	0.000217	2.170836	0.367750	-0.000022
1070	1.0637e+02	9.3579	14.854968	0.000160	1.597408	0.270608	-0.000016
1071	1.0647e+02	9.3475	14.835416	0.000197	1.966040	0.333056	-0.000020
1072	1.0656e+02	9.3359	14.815863	0.000197	1.966040	0.333056	-0.000020
1073	1.0666e+02	9.3275	14.794274	0.000217	2.170836	0.367750	-0.000022
1074	1.0676e+02	9.3164	14.776758	0.000176	1.761245	0.298363	-0.000018
1075	1.0686e+02	9.3092	14.758428	0.000184	1.843163	0.312240	-0.000018
1076	1.0696e+02	9.2977	14.734395	0.000242	2.416591	0.409382	-0.000024
1077	1.0706e+02	9.2905	14.716472	0.000180	1.802204	0.305302	-0.000018
1078	1.0716e+02	9.2767	14.699363	0.000172	1.720285	0.291424	-0.000017
1079	1.0726e+02	9.2691	14.674515	0.000250	2.498510	0.423259	-0.000025
1080	1.0736e+02	9.2580	14.652519	0.000221	2.211796	0.374688	-0.000022
1081	1.0746e+02	9.2472	14.633374	0.000193	1.925081	0.326118	-0.000019
1082	1.0756e+02	9.2403	14.616265	0.000172	1.720285	0.291424	-0.000017
1083	1.0766e+02	9.2291	14.593862	0.000225	2.252755	0.381627	-0.000023
1084	1.0776e+02	9.2207	14.569421	0.000246	2.457551	0.416320	-0.000025
1085	1.0786e+02	9.2091	14.546203	0.000233	2.334673	0.395504	-0.000023
1086	1.0796e+02	9.2002	14.531131	0.000152	1.515490	0.256731	-0.000015
1087	1.0806e+02	9.1908	14.510764	0.000205	2.047959	0.346934	-0.000020
1088	1.0816e+02	9.1791	14.491211	0.000197	1.966040	0.333056	-0.000020
1089	1.0826e+02	9.1691	14.467993	0.000233	2.334673	0.395504	-0.000023
1090	1.0836e+02	9.1591	14.448440	0.000197	1.966040	0.333056	-0.000020
1091	1.0845e+02	9.1492	14.429295	0.000193	1.925081	0.326118	-0.000019
1092	1.0855e+02	9.1393	14.407299	0.000221	2.211796	0.374688	-0.000022
1093	1.0865e+02	9.1279	14.386524	0.000209	2.088918	0.353872	-0.000021
1094	1.0875e+02	9.1179	14.360454	0.000262	2.621387	0.444075	-0.000026
1095	1.0885e+02	9.1073	14.341717	0.000188	1.884122	0.319179	-0.000019
1096	1.0895e+02	9.0984	14.319720	0.000221	2.211796	0.374688	-0.000022
1097	1.0905e+02	9.0884	14.300982	0.000188	1.884122	0.319179	-0.000019
1098	1.0915e+02	9.0778	14.281430	0.000197	1.966040	0.333056	-0.000020
1099	1.0925e+02	9.0684	14.261470	0.000201	2.007000	0.339995	-0.000020
1100	1.0935e+02	9.0584	14.239474	0.000221	2.211796	0.374688	-0.000022
1101	1.0945e+02	9.0509	14.217884	0.000217	2.170836	0.367750	-0.000022
1102	1.0955e+02	9.0395	14.202405	0.000156	1.556449	0.263670	-0.000016
1103	1.0965e+02	9.0295	14.179187	0.000233	2.334673	0.395504	-0.000023
1104	1.0975e+02	9.0201	14.159227	0.000201	2.007000	0.339995	-0.000020
1105	1.0985e+02	9.0102	14.139675	0.000197	1.966040	0.333056	-0.000020
1106	1.0995e+02	8.9978	14.120530	0.000193	1.925081	0.326118	-0.000019
1107	1.1005e+02	8.9899	14.100570	0.000201	2.007000	0.339995	-0.000020
1108	1.1015e+02	8.9813	14.078166	0.000225	2.252755	0.381627	-0.000023
1109	1.1025e+02	8.9706	14.059836	0.000184	1.843163	0.312240	-0.000018
1110	1.1035e+02	8.9612	14.036210	0.000238	2.375632	0.402443	-0.000024
1111	1.1044e+02	8.9507	14.012991	0.000233	2.334673	0.395504	-0.000023
1112	1.1054e+02	8.9417	13.993439	0.000197	1.966040	0.333056	-0.000020
1113	1.1064e+02	8.9307	13.969813	0.000238	2.375632	0.402443	-0.000024
1114	1.1074e+02	8.9233	13.946187	0.000238	2.375632	0.402443	-0.000024
1115	1.1084e+02	8.9120	13.929079	0.000172	1.720285	0.291424	-0.000017
1116	1.1094e+02	8.9017	13.907489	0.000217	2.170836	0.367750	-0.000022
1117	1.1104e+02	8.8904	13.887937	0.000197	1.966040	0.333056	-0.000020
1118	1.1114e+02	8.8806	13.867162	0.000209	2.088918	0.353872	-0.000021
1119	1.1124e+02	8.8690	13.841907	0.000254	2.539469	0.430198	-0.000025
1120	1.1134e+02	8.8638	13.819503	0.000225	2.252755	0.381627	-0.000023
1121	1.1144e+02	8.8503	13.795063	0.000246	2.457551	0.416320	-0.000025
1122	1.1154e+02	8.8428	13.769808	0.000254	2.539469	0.430198	-0.000025
1123	1.1164e+02	8.8287	13.752292	0.000176	1.761245	0.298363	-0.000018
1124	1.1174e+02	8.8212	13.726222	0.000262	2.621387	0.444075	-0.000026
1125	1.1184e+02	8.8113	13.700152	0.000262	2.621387	0.444075	-0.000026
1126	1.1194e+02	8.8027	13.681822	0.000184	1.843163	0.312240	-0.000018
1127	1.1204e+02	8.7927	13.657381	0.000246	2.457551	0.416320	-0.000025
1128	1.1214e+02	8.7806	13.634163	0.000233	2.334673	0.395504	-0.000023
1129	1.1224e+02	8.7695	13.612981	0.000213	2.129877	0.360811	-0.000021
1130	1.1234e+02	8.7623	13.590577	0.000225	2.252755	0.381627	-0.000023
1131	1.1244e+02	8.7522	13.568173	0.000225	2.252755	0.381627	-0.000023
1132	1.1253e+02	8.7409	13.546584	0.000217	2.170836	0.367750	-0.000022
1133	1.1263e+02	8.7329	13.524180	0.000225	2.252755	0.381627	-0.000023
1134	1.1273e+02	8.7204	13.500554	0.000238	2.375632	0.402443	-0.000024
1135	1.1283e+02	8.7110	13.479780	0.000209	2.088918	0.353872	-0.000021
1136	1.1293e+02	8.7009	13.453710	0.000262	2.621387	0.444075	-0.000026
1137	1.1303e+02	8.6930	13.432528	0.000213	2.129877	0.360811	-0.000021
1138	1.1313e+02	8.6838	13.411754	0.000209	2.088918	0.353872	-0.000021
1139	1.1323e+02	8.6719	13.389757	0.000221	2.211796	0.374688	-0.000022
1140	1.1333e+02	8.6633	13.369390	0.000205	2.047959	0.346934	-0.000020
1141	1.1343e+02	8.6536	13.346171	0.000233	2.334673	0.395504	-0.000023
1142	1.1353e+02	8.6426	13.321323	0.000250	2.498510	0.423259	-0.000025
1143	1.1363e+02	8.6294	13.300956	0.000205	2.047959	0.346934	-0.000020
1144	1.1373e+02	8.6230	13.278552	0.000225	2.252755	0.381627	-0.000023
1145	1.1383e+02	8.6121	13.255334	0.000233	2.334673	0.395504	-0.000023
1146	1.1393e+02	8.6073	13.232930	0.000225	2.252755	0.381627	-0.000023
1147	1.1403e+02	8.5931	13.210934	0.000221	2.211796	0.374688	-0.000022
1148	1.1413e+02	8.5833	13.186900	0.000242	2.416591	0.409382	-0.000024
1149	1.1423e+02	8.5719	13.166533	0.000205	2.047959	0.346934	-0.000020
1150	1.1433e+02	8.5625	13.144129	0.000225	2.252755	0.381627	-0.000023
1151	1.1442e+02	8.5508	13.116023	0.000283	2.826183	0.478768	-0.000028
1152	1.1452e+02	8.5429	13.098507	0.000176	1.761245	0.298363	-0.000018
1153	1.1462e+02	8.5328	13.076103	0.000225	2.252755	0.381627	-0.000023
1154	1.1472e+02	8.5231	13.051663	0.000246	2.457551	0.416320	-0.000025
1155	1.1482e+02	8.5117	13.028852	0.000229	2.293714	0.388566	-0.000023
1156	1.1492e+02	8.5021	13.006855	0.000221	2.211796	0.374688	-0.000022
1157	1.1502e+02	8.4919	12.979563	0.000274	2.744265	0.464891	-0.000027
1158	1.1512e+02	8.4854	12.959603	0.000201	2.007000	0.339995	-0.000020
1159	1.1522e+02	8.4723	12.933941	0.000258	2.580428	0.437136	-0.000026
1160	1.1532e+02	8.4624	12.912352	0.000217	2.170836	0.367750	-0.000022
1161	1.1542e+02	8.4509	12.889948	0.000225	2.252755	0.381627	-0.000023
1162	1.1552e+02	8.4445	12.869173	0.000209	2.088918	0.353872	-0.000021
1163	1.1562e+02	8.4357	12.845955	0.000233	2.334673	0.395504	-0.000023
1164	1.1572e+02	8.4222	12.821921	0.000242	2.416591	0.409382	-0.000024
1165	1.1582e+02	8.4136	12.800740	0.000213	2.129877	0.360811	-0.000021
1166	1.1592e+02	8.4040	12.775892	0.000250	2.498510	0.423259	-0.000025
1167	1.1602e+02	8.3927	12.757154	0.000188	1.884122	0.319179	-0.000019
1168	1.1612e+02	8.3840	12.736380	0.000209	2.088918	0.353872	-0.000021
1169	1.1622e+02	8.3734	12.710310	0.000262	2.621387	0.444075	-0.000026
1170	1.1632e+02	8.3655	12.687091	0.000233	2.334673	0.395504	-0.000023
1171	1.1642e+02	8.3537	12.663465	0.000238	2.375632	0.402443	-0.000024
1172	1.1651e+02	8.3428	12.637803	0.000258	2.580428	0.437136	-0.000026
1173	1.1661e+02	8.3334	12.619472	0.000184	1.843163	0.312240	-0.000018
1174	1.1671e+02	8.3239	12.593402	0.000262	2.621387	0.444075	-0.000026
1175	1.1681e+02	8.3155	12.573443	0.000201	2.007000	0.339995	-0.000020
1176	1.1691e+02	8.3035	12.551446	0.000221	2.211796	0.374688	-0.000022
1177	1.1701e+02	8.2967	12.526191	0.000254	2.539469	0.430198	-0.000025
1178	1.1711e+02	8.2834	12.504194	0.000221	2.211796	0.374688	-0.000022
1179	1.1721e+02	8.2720	12.485864	0.000184	1.843163	0.312240	-0.000018
1180	1.1731e+02	8.2645	12.456943	0.000291	2.908101	0.492646	-0.000029
1181	1.1741e+02	8.2508	12.436168	0.000209	2.088918	0.353872	-0.000021
1182	1.1751e+02	8.2430	12.414986	0.000213	2.129877	0.360811	-0.000021
1183	1.1761e+02	8.2349	12.388509	0.000266	2.662346	0.451014	-0.000027
1184	1.1771e+02	8.2233	12.367327	0.000213	2.129877	0.360811	-0.000021
1185	1.1781e+02	8.2142	12.343701	0.000238	2.375632	0.402443	-0.000024
1186	1.1791e+02	8.2035	12.318446	0.000254	2.539469	0.430198	-0.000025
1187	1.1801e+02	8.1944	12.291561	0.000270	2.703306	0.457952	-0.000027
1188	1.1811e+02	8.1843	12.263862	0.000279	2.785224	0.471830	-0.000028
1189	1.1821e+02	8.1763	12.240644	0.000233	2.334673	0.395504	-0.000023
1190	1.1831e+02	8.1643	12.219055	0.000217	2.170836	0.367750	-0.000022
1191	1.1841e+02	8.1546	12.193392	0.000258	2.580428	0.437136	-0.000026
1192	1.1850e+02	8.1460	12.168951	0.000246	2.457551	0.416320	-0.000025
1193	1.1860e+02	8.1329	12.148177	0.000209	2.088918	0.353872	-0.000021
1194	1.1870e+02	8.1277	12.127810	0.000205	2.047959	0.346934	-0.000020
1195	1.1880e+02	8.1167	12.104999	0.000229	2.293714	0.388566	-0.000023
1196	1.1890e+02	8.1060	12.078521	0.000266	2.662346	0.451014	-0.000027
1197	1.1900e+02	8.0957	12.054488	0.000242	2.416591	0.409382	-0.000024
1198	1.1910e+02	8.0832	12.033306	0.000213	2.129877	0.360811	-0.000021
1199	1.1920e+02	8.0744	12.008051	0.000254	2.539469	0.430198	-0.000025
1200	1.1930e+02	8.0648	11.984425	0.000238	2.375632	0.402443	-0.000024
1201	1.1940e+02	8.0558	11.955911	0.000287	2.867142	0.485707	-0.000029
1202	1.1950e+02	8.0450	11.935951	0.000201	2.007000	0.339995	-0.000020
1203	1.1960e+02	8.0386	11.913140	0.000229	2.293714	0.388566	-0.000023
1204	1.1970e+02	8.0242	11.889922	0.000233	2.334673	0.395504	-0.000023
1205	1.1980e+02	8.0152	11.866703	0.000233	2.334673	0.395504	-0.000023
1206	1.1990e+02	8.0048	11.845929	0.000209	2.088918	0.353872	-0.000021
1207	1.2000e+02	7.9967	11.825562	0.000205	2.047959	0.346934	-0.000020
1208	1.2010e+02	7.9850	11.803565	0.000221	2.211796	0.374688	-0.000022
1209	1.2020e+02	7.9737	11.781976	0.000217	2.170836	0.367750	-0.000022
1210	1.2030e+02	7.9673	11.760387	0.000217	2.170836	0.367750	-0.000022
1211	1.2039e+02	7.9557	11.734317	0.000262	2.621387	0.444075	-0.000026
1212	1.2049e+02	7.9470	11.712728	0.000217	2.170836	0.367750	-0.000022
1213	1.2059e+02	7.9357	11.687472	0.000254	2.539469	0.430198	-0.000025
1214	1.2069e+02	7.9272	11.669142	0.000184	1.843163	0.312240	-0.000018
1215	1.2079e+02	7.9159	11.646331	0.000229	2.293714	0.388566	-0.000023
1216	1.2089e+02	7.9054	11.622298	0.000242	2.416591	0.409382	-0.000024
1217	1.2099e+02	7.8970	11.598672	0.000238	2.375632	0.402443	-0.000024
1218	1.2109e+02	7.8857	11.578305	0.000205	2.047959	0.346934	-0.000020
1219	1.2119e+02	7.8752	11.552642	0.000258	2.580428	0.437136	-0.000026
1220	1.2129e+02	7.8652	11.530238	0.000225	2.252755	0.381627	-0.000023
1221	1.2139e+02	7.8542	11.507020	0.000233	2.334673	0.395504	-0.000023
1222	1.2149e+02	7.8440	11.478913	0.000283	2.826183	0.478768	-0.000028
1223	1.2159e+02	7.8387	11.460175	0.000188	1.884122	0.319179	-0.000019
1224	1.2169e+02	7.8248	11.433698	0.000266	2.662346	0.451014	-0.000027
1225	1.2179e+02	7.8159	11.408850	0.000250	2.498510	0.423259	-0.000025
1226	1.2189e+02	7.8052	11.386039	0.000229	2.293714	0.388566	-0.000023
1227	1.2199e+02	7.7979	11.364450	0.000217	2.170836	0.367750	-0.000022
1228	1.2209e+02	7.7872	11.341231	0.000233	2.334673	0.395504	-0.000023
1229	1.2219e+02	7.7737	11.314347	0.000270	2.703306	0.457952	-0.000027
1230	1.2229e+02	7.7668	11.293165	0.000213	2.129877	0.360811	-0.000021
1231	1.2239e+02	7.7558	11.266280	0.000270	2.703306	0.457952	-0.000027
1232	1.2248e+02	7.7490	11.244691	0.000217	2.170836	0.367750	-0.000022
1233	1.2258e+02	7.7380	11.220251	0.000246	2.457551	0.416320	-0.000025
1234	1.2268e+02	7.7258	11.194181	0.000262	2.621387	0.444075	-0.000026
1235	1.2278e+02	7.7175	11.170147	0.000242	2.416591	0.409382	-0.000024
1236	1.2288e+02	7.7065	11.148151	0.000221	2.211796	0.374688	-0.000022
1237	1.2298e+02	7.6962	11.123710	0.000246	2.457551	0.416320	-0.000025
1238	1.2308e+02	7.6859	11.098455	0.000254	2.539469	0.430198	-0.000025
1239	1.2318e+02	7.6768	11.074829	0.000238	2.375632	0.402443	-0.000024
1240	1.2328e+02	7.6675	11.052018	0.000229	2.293714	0.388566	-0.000023
1241	1.2338e+02	7.6554	11.031651	0.000205	2.047959	0.346934	-0.000020
1242	1.2348e+02	7.6482	11.007618	0.000242	2.416591	0.409382	-0.000024
1243	1.2358e+02	7.6405	10.981141	0.000266	2.662346	0.451014	-0.000027
1244	1.2368e+02	7.6260	10.959959	0.000213	2.129877	0.360811	-0.000021
1245	1.2378e+02	7.6180	10.937962	0.000221	2.211796	0.374688	-0.000022
1246	1.2388e+02	7.6081	10.911485	0.000266	2.662346	0.451014	-0.000027
1247	1.2398e+02	7.5999	10.882971	0.000287	2.867142	0.485707	-0.000029
1248	1.2408e+02	7.5871	10.860567	0.000225	2.252755	0.381627	-0.000023
1249	1.2418e+02	7.5768	10.832053	0.000287	2.867142	0.485707	-0.000029
1250	1.2428e+02	7.5665	10.810057	0.000221	2.211796	0.374688	-0.000022
1251	1.2438e+02	7.5587	10.784801	0.000254	2.539469	0.430198	-0.000025
1252	1.2447e+02	7.5478	10.762398	0.000225	2.252755	0.381627	-0.000023
1253	1.2457e+02	7.5383	10.742438	0.000201	2.007000	0.339995	-0.000020
1254	1.2467e+02	7.5308	10.714738	0.000279	2.785224	0.471830	-0.000028
1255	1.2477e+02	7.5179	10.692335	0.000225	2.252755	0.381627	-0.000023
1256	1.2487e+02	7.5082	10.665857	0.000266	2.662346	0.451014	-0.000027
1257	1.2497e+02	7.5000	10.644268	0.000217	2.170836	0.367750	-0.000022
1258	1.2507e+02	7.4892	10.621457	0.000229	2.293714	0.388566	-0.000023
1259	1.2517e+02	7.4781	10.591721	0.000299	2.990020	0.506523	-0.000030
1260	1.2527e+02	7.4687	10.570539	0.000213	2.129877	0.360811	-0.000021
1261	1.2537e+02	7.4590	10.544469	0.000262	2.621387	0.444075	-0.000026
1262	1.2547e+02	7.4471	10.518399	0.000262	2.621387	0.444075	-0.000026
1263	1.2557e+02	7.4395	10.492737	0.000258	2.580428	0.437136	-0.000026
1264	1.2567e+02	7.4281	10.469111	0.000238	2.375632	0.402443	-0.000024
1265	1.2577e+02	7.4187	10.445078	0.000242	2.416591	0.409382	-0.000024
1266	1.2587e+02	7.4087	10.421859	0.000233	2.334673	0.395504	-0.000023
1267	1.2597e+02	7.3987	10.397826	0.000242	2.416591	0.409382	-0.000024
1268	1.2607e+02	7.3895	10.375422	0.000225	2.252755	0.381627	-0.000023
1269	1.2617e+02	7.3800	10.349352	0.000262	2.621387	0.444075	-0.000026
1270	1.2627e+02	7.3708	10.328170	0.000213	2.129877	0.360811	-0.000021
1271	1.2636e+02	7.3559	10.309840	0.000184	1.843163	0.312240	-0.000018
1272	1.2646e+02	7.3494	10.284585	0.000254	2.539469	0.430198	-0.000025
1273	1.2656e+02	7.3373	10.259330	0.000254	2.539469	0.430198	-0.000025
1274	1.2666e+02	7.3268	10.236518	0.000229	2.293714	0.388566	-0.000023
1275	1.2676e+02	7.3202	10.212892	0.000238	2.375632	0.402443	-0.000024
1276	1.2686e+02	7.3092	10.186008	0.000270	2.703306	0.457952	-0.000027
1277	1.2696e+02	7.3014	10.160753	0.000254	2.539469	0.430198	-0.000025
1278	1.2706e+02	7.2881	10.135090	0.000258	2.580428	0.437136	-0.000026
1279	1.2716e+02	7.2803	10.109835	0.000254	2.539469	0.430198	-0.000025
1280	1.2726e+02	7.2683	10.082543	0.000274	2.744265	0.464891	-0.000027
1281	1.2736e+02	7.2610	10.058917	0.000238	2.375632	0.402443	-0.000024
1282	1.2746e+02	7.2497	10.033254	0.000258	2.580428	0.437136	-0.000026
1283	1.2756e+02	7.2392	10.012480	0.000209	2.088918	0.353872	-0.000021
1284	1.2766e+02	7.2291	9.990483	0.000221	2.211796	0.374688	-0.000022
1285	1.2776e+02	7.2181	9.963191	0.000274	2.744265	0.464891	-0.000027
1286	1.2786e+02	7.2097	9.939973	0.000233	2.334673	0.395504	-0.000023
1287	1.2796e+02	7.2012	9.915125	0.000250	2.498510	0.423259	-0.000025
1288	1.2806e+02	7.1893	9.887018	0.000283	2.826183	0.478768	-0.000028
1289	1.2816e+02	7.1803	9.858912	0.000283	2.826183	0.478768	-0.000028
1290	1.2826e+02	7.1700	9.831212	0.000279	2.785224	0.471830	-0.000028
1291	1.2835e+02	7.1600	9.805550	0.000258	2.580428	0.437136	-0.000026
1292	1.2845e+02	7.1497	9.776629	0.000291	2.908101	0.492646	-0.000029
1293	1.2855e+02	7.1402	9.752595	0.000242	2.416591	0.409382	-0.000024
1294	1.2865e+02	7.1304	9.724896	0.000279	2.785224	0.471830	-0.000028
1295	1.2875e+02	7.1208	9.702085	0.000229	2.293714	0.388566	-0.000023
1296	1.2885e+02	7.1088	9.674793	0.000274	2.744265	0.464891	-0.000027
1297	1.2895e+02	7.1004	9.650760	0.000242	2.416591	0.409382	-0.000024
1298	1.2905e+02	7.0885	9.625097	0.000258	2.580428	0.437136	-0.000026
1299	1.2915e+02	7.0811	9.598620	0.000266	2.662346	0.451014	-0.000027
1300	1.2925e+02	7.0728	9.572550	0.000262	2.621387	0.444075	-0.000026
1301	1.2935e+02	7.0612	9.548109	0.000246	2.457551	0.416320	-0.000025
1302	1.2945e+02	7.0509	9.522039	0.000262	2.621387	0.444075	-0.000026
1303	1.2955e+02	7.0412	9.501672	0.000205	2.047959	0.346934	-0.000020
1304	1.2965e+02	7.0325	9.469492	0.000324	3.235775	0.548155	-0.000032
1305	1.2975e+02	7.0203	9.447496	0.000221	2.211796	0.374688	-0.000022
1306	1.2985e+02	7.0108	9.419797	0.000279	2.785224	0.471830	-0.000028
1307	1.2995e+02	7.0012	9.395763	0.000242	2.416591	0.409382	-0.000024
1308	1.3005e+02	6.9922	9.368879	0.000270	2.703306	0.457952	-0.000027
1309	1.3015e+02	6.9797	9.344031	0.000250	2.498510	0.423259	-0.000025
1310	1.3025e+02	6.9707	9.320405	0.000238	2.375632	0.402443	-0.000024
1311	1.3034e+02	6.9589	9.291076	0.000295	2.949061	0.499584	-0.000029
1312	1.3044e+02	6.9510	9.266636	0.000246	2.457551	0.416320	-0.000025
1313	1.3054e+02	6.9418	9.241380	0.000254	2.539469	0.430198	-0.000025
1314	1.3064e+02	6.9308	9.217347	0.000242	2.416591	0.409382	-0.000024
1315	1.3074e+02	6.9196	9.192907	0.000246	2.457551	0.416320	-0.000025
1316	1.3084e+02	6.9122	9.167244	0.000258	2.580428	0.437136	-0.000026
1317	1.3094e+02	6.8999	9.140360	0.000270	2.703306	0.457952	-0.000027
1318	1.3104e+02	6.8917	9.116734	0.000238	2.375632	0.402443	-0.000024
1319	1.3114e+02	6.8826	9.091071	0.000258	2.580428	0.437136	-0.000026
1320	1.3124e+02	6.8730	9.065001	0.000262	2.621387	0.444075	-0.000026
1321	1.3134e+02	6.8604	9.038931	0.000262	2.621387	0.444075	-0.000026
1322	1.3144e+02	6.8501	9.012047	0.000270	2.703306	0.457952	-0.000027
1323	1.3154e+02	6.8409	8.988013	0.000242	2.416591	0.409382	-0.000024
1324	1.3164e+02	6.8331	8.958685	0.000295	2.949061	0.499584	-0.000029
1325	1.3174e+02	6.8215	8.929356	0.000295	2.949061	0.499584	-0.000029
1326	1.3184e+02	6.8104	8.905730	0.000238	2.375632	0.402443	-0.000024
1327	1.3194e+02	6.8018	8.876809	0.000291	2.908101	0.492646	-0.000029
1328	1.3204e+02	6.7928	8.854812	0.000221	2.211796	0.374688	-0.000022
1329	1.3214e+02	6.7800	8.829150	0.000258	2.580428	0.437136	-0.000026
1330	1.3224e+02	6.7702	8.804709	0.000246	2.457551	0.416320	-0.000025
1331	1.3234e+02	6.7660	8.777417	0.000274	2.744265	0.464891	-0.000027
1332	1.3243e+02	6.7519	8.752569	0.000250	2.498510	0.423259	-0.000025
1333	1.3253e+02	6.7406	8.727314	0.000254	2.539469	0.430198	-0.000025
1334	1.3263e+02	6.7324	8.702874	0.000246	2.457551	0.416320	-0.000025
1335	1.3273e+02	6.7241	8.675989	0.000270	2.703306	0.457952	-0.000027
1336	1.3283e+02	6.7121	8.650734	0.000254	2.539469	0.430198	-0.000025
1337	1.3293e+02	6.7016	8.628737	0.000221	2.211796	0.374688	-0.000022
1338	1.3303e+02	6.6936	8.597372	0.000315	3.153857	0.534278	-0.000032
1339	1.3313e+02	6.6820	8.571709	0.000258	2.580428	0.437136	-0.000026
1340	1.3323e+02	6.6724	8.543195	0.000287	2.867142	0.485707	-0.000029
1341	1.3333e+02	6.6608	8.522421	0.000209	2.088918	0.353872	-0.000021
1342	1.3343e+02	6.6518	8.495944	0.000266	2.662346	0.451014	-0.000027
1343	1.3353e+02	6.6427	8.472725	0.000233	2.334673	0.395504	-0.000023
1344	1.3363e+02	6.6343	8.445433	0.000274	2.744265	0.464891	-0.000027
1345	1.3373e+02	6.6235	8.417734	0.000279	2.785224	0.471830	-0.000028
1346	1.3383e+02	6.6121	8.394108	0.000238	2.375632	0.402443	-0.000024
1347	1.3393e+02	6.6042	8.370075	0.000242	2.416591	0.409382	-0.000024
1348	1.3403e+02	6.5927	8.341968	0.000283	2.826183	0.478768	-0.000028
1349	1.3413e+02	6.5817	8.313454	0.000287	2.867142	0.485707	-0.000029
1350	1.3423e+02	6.5723	8.290236	0.000233	2.334673	0.395504	-0.000023
1351	1.3432e+02	6.5612	8.264166	0.000262	2.621387	0.444075	-0.000026
1352	1.3442e+02	6.5498	8.234837	0.000295	2.949061	0.499584	-0.000029
1353	1.3452e+02	6.5440	8.207952	0.000270	2.703306	0.457952	-0.000027
1354	1.3462e+02	6.5321	8.181475	0.000266	2.662346	0.451014	-0.000027
1355	1.3472e+02	6.5224	8.151332	0.000303	3.030979	0.513462	-0.000030
1356	1.3482e+02	6.5130	8.121188	0.000303	3.030979	0.513462	-0.000030
1357	1.3492e+02	6.5049	8.094711	0.000266	2.662346	0.451014	-0.000027
1358	1.3502e+02	6.4942	8.065790	0.000291	2.908101	0.492646	-0.000029
1359	1.3512e+02	6.4846	8.040127	0.000258	2.580428	0.437136	-0.000026
1360	1.3522e+02	6.4723	8.017316	0.000229	2.293714	0.388566	-0.000023
1361	1.3532e+02	6.4623	7.989617	0.000279	2.785224	0.471830	-0.000028
1362	1.3542e+02	6.4530	7.966398	0.000233	2.334673	0.395504	-0.000023
1363	1.3552e+02	6.4439	7.941958	0.000246	2.457551	0.416320	-0.000025
1364	1.3562e+02	6.4342	7.915888	0.000262	2.621387	0.444075	-0.000026
1365	1.3572e+02	6.4240	7.889818	0.000262	2.621387	0.444075	-0.000026
1366	1.3582e+02	6.4141	7.859675	0.000303	3.030979	0.513462	-0.000030
1367	1.3592e+02	6.4010	7.832383	0.000274	2.744265	0.464891	-0.000027
1368	1.3602e+02	6.3921	7.805091	0.000274	2.744265	0.464891	-0.000027
1369	1.3612e+02	6.3826	7.778613	0.000266	2.662346	0.451014	-0.000027
1370	1.3622e+02	6.3754	7.749285	0.000295	2.949061	0.499584	-0.000029
1371	1.3631e+02	6.3641	7.725251	0.000242	2.416591	0.409382	-0.000024
1372	1.3641e+02	6.3531	7.700811	0.000246	2.457551	0.416320	-0.000025
1373	1.3651e+02	6.3428	7.678814	0.000221	2.211796	0.374688	-0.000022
1374	1.3661e+02	6.3338	7.653967	0.000250	2.498510	0.423259	-0.000025
1375	1.3671e+02	6.3248	7.631970	0.000221	2.211796	0.374688	-0.000022
1376	1.3681e+02	6.3143	7.604678	0.000274	2.744265	0.464891	-0.000027
1377	1.3691e+02	6.3045	7.578608	0.000262	2.621387	0.444075	-0.000026
1378	1.3701e+02	6.2952	7.554168	0.000246	2.457551	0.416320	-0.000025
1379	1.3711e+02	6.2835	7.530134	0.000242	2.416591	0.409382	-0.000024
1380	1.3721e+02	6.2762	7.505694	0.000246	2.457551	0.416320	-0.000025
1381	1.3731e+02	6.2658	7.481253	0.000246	2.457551	0.416320	-0.000025
1382	1.3741e+02	6.2563	7.451517	0.000299	2.990020	0.506523	-0.000030
1383	1.3751e+02	6.2428	7.428299	0.000233	2.334673	0.395504	-0.000023
1384	1.3761e+02	6.2350	7.401007	0.000274	2.744265	0.464891	-0.000027
1385	1.3771e+02	6.2251	7.373308	0.000279	2.785224	0.471830	-0.000028
1386	1.3781e+02	6.2148	7.348867	0.000246	2.457551	0.416320	-0.000025
1387	1.3791e+02	6.2032	7.321982	0.000270	2.703306	0.457952	-0.000027
1388	1.3801e+02	6.1964	7.294283	0.000279	2.785224	0.471830	-0.000028
1389	1.3811e+02	6.1860	7.265769	0.000287	2.867142	0.485707	-0.000029
1390	1.3821e+02	6.1751	7.242143	0.000238	2.375632	0.402443	-0.000024
1391	1.3831e+02	6.1654	7.214037	0.000283	2.826183	0.478768	-0.000028
1392	1.3840e+02	6.1538	7.185930	0.000283	2.826183	0.478768	-0.000028
1393	1.3850e+02	6.1451	7.160267	0.000258	2.580428	0.437136	-0.000026
1394	1.3860e+02	6.1355	7.134605	0.000258	2.580428	0.437136	-0.000026
1395	1.3870e+02	6.1277	7.109350	0.000254	2.539469	0.430198	-0.000025
1396	1.3880e+02	6.1141	7.083280	0.000262	2.621387	0.444075	-0.000026
1397	1.3890e+02	6.1047	7.055988	0.000274	2.744265	0.464891	-0.000027
1398	1.3900e+02	6.0918	7.027474	0.000287	2.867142	0.485707	-0.000029
1399	1.3910e+02	6.0848	7.005477	0.000221	2.211796	0.374688	-0.000022
1400	1.3920e+02	6.0754	6.975334	0.000303	3.030979	0.513462	-0.000030
1401	1.3930e+02	6.0664	6.948857	0.000266	2.662346	0.451014	-0.000027
1402	1.3940e+02	6.0545	6.919121	0.000299	2.990020	0.506523	-0.000030
1403	1.3950e+02	6.0461	6.898346	0.000209	2.088918	0.353872	-0.000021
1404	1.3960e+02	6.0352	6.867388	0.000311	3.112897	0.527339	-0.000031
1405	1.3970e+02	6.0275	6.840096	0.000274	2.744265	0.464891	-0.000027
1406	1.3980e+02	6.0166	6.816063	0.000242	2.416591	0.409382	-0.000024
1407	1.3990e+02	6.0056	6.789178	0.000270	2.703306	0.457952	-0.000027
1408	1.4000e+02	5.9945	6.759442	0.000299	2.990020	0.506523	-0.000030
1409	1.4010e+02	5.9853	6.732150	0.000274	2.744265	0.464891	-0.000027
1410	1.4020e+02	5.9780	6.710154	0.000221	2.211796	0.374688	-0.000022
1411	1.4029e+02	5.9664	6.681640	0.000287	2.867142	0.485707	-0.000029
1412	1.4039e+02	5.9556	6.654348	0.000274	2.744265	0.464891	-0.000027
1413	1.4049e+02	5.9464	6.629907	0.000246	2.457551	0.416320	-0.000025
1414	1.4059e+02	5.9383	6.598949	0.000311	3.112897	0.527339	-0.000031
1415	1.4069e+02	5.9243	6.572879	0.000262	2.621387	0.444075	-0.000026
1416	1.4079e+02	5.9180	6.546402	0.000266	2.662346	0.451014	-0.000027
1417	1.4089e+02	5.9054	6.517481	0.000291	2.908101	0.492646	-0.000029
1418	1.4099e+02	5.8958	6.488967	0.000287	2.867142	0.485707	-0.000029
1419	1.4109e+02	5.8842	6.463304	0.000258	2.580428	0.437136	-0.000026
1420	1.4119e+02	5.8775	6.436827	0.000266	2.662346	0.451014	-0.000027
1421	1.4129e+02	5.8665	6.407498	0.000295	2.949061	0.499584	-0.000029
1422	1.4139e+02	5.8571	6.379799	0.000279	2.785224	0.471830	-0.000028
1423	1.4149e+02	5.8462	6.355766	0.000242	2.416591	0.409382	-0.000024
1424	1.4159e+02	5.8379	6.326845	0.000291	2.908101	0.492646	-0.000029
1425	1.4169e+02	5.8281	6.299960	0.000270	2.703306	0.457952	-0.000027
1426	1.4179e+02	5.8167	6.273483	0.000266	2.662346	0.451014	-0.000027
1427	1.4189e+02	5.8083	6.243747	0.000299	2.990020	0.506523	-0.000030
1428	1.4199e+02	5.7963	6.216047	0.000279	2.785224	0.471830	-0.000028
1429	1.4209e+02	5.7867	6.191199	0.000250	2.498510	0.423259	-0.000025
1430	1.4219e+02	5.7788	6.161056	0.000303	3.030979	0.513462	-0.000030
1431	1.4228e+02	5.7658	6.133357	0.000279	2.785224	0.471830	-0.000028
1432	1.4238e+02	5.7586	6.106880	0.000266	2.662346	0.451014	-0.000027
1433	1.4248e+02	5.7471	6.077551	0.000295	2.949061	0.499584	-0.000029
1434	1.4258e+02	5.7375	6.051481	0.000262	2.621387	0.444075	-0.000026
1435	1.4268e+02	5.7269	6.023782	0.000279	2.785224	0.471830	-0.000028
1436	1.4278e+02	5.7169	5.999748	0.000242	2.416591	0.409382	-0.000024
1437	1.4288e+02	5.7080	5.972864	0.000270	2.703306	0.457952	-0.000027
1438	1.4298e+02	5.6985	5.946794	0.000262	2.621387	0.444075	-0.000026
1439	1.4308e+02	5.6861	5.923575	0.000233	2.334673	0.395504	-0.000023
1440	1.4318e+02	5.6777	5.895876	0.000279	2.785224	0.471830	-0.000028
1441	1.4328e+02	5.6698	5.870214	0.000258	2.580428	0.437136	-0.000026
1442	1.4338e+02	5.6577	5.842922	0.000274	2.744265	0.464891	-0.000027
1443	1.4348e+02	5.6499	5.818074	0.000250	2.498510	0.423259	-0.000025
1444	1.4358e+02	5.6373	5.786708	0.000315	3.153857	0.534278	-0.000032
1445	1.4368e+02	5.6274	5.757380	0.000295	2.949061	0.499584	-0.000029
1446	1.4378e+02	5.6192	5.729273	0.000283	2.826183	0.478768	-0.000028
1447	1.4388e+02	5.6094	5.702796	0.000266	2.662346	0.451014	-0.000027
1448	1.4398e+02	5.6004	5.675096	0.000279	2.785224	0.471830	-0.000028
1449	1.4408e+02	5.5886	5.646175	0.000291	2.908101	0.492646	-0.000029
1450	1.4418e+02	5.5779	5.620513	0.000258	2.580428	0.437136	-0.000026
1451	1.4428e+02	5.5669	5.596887	0.000238	2.375632	0.402443	-0.000024
1452	1.4437e+02	5.5581	5.565929	0.000311	3.112897	0.527339	-0.000031
1453	1.4447e+02	5.5489	5.538229	0.000279	2.785224	0.471830	-0.000028
1454	1.4457e+02	5.5357	5.508901	0.000295	2.949061	0.499584	-0.000029
1455	1.4467e+02	5.5296	5.482016	0.000270	2.703306	0.457952	-0.000027
1456	1.4477e+02	5.5163	5.449021	0.000332	3.317693	0.562032	-0.000033
1457	1.4487e+02	5.5109	5.417656	0.000315	3.153857	0.534278	-0.000032
1458	1.4497e+02	5.4992	5.390771	0.000270	2.703306	0.457952	-0.000027
1459	1.4507e+02	5.4913	5.359406	0.000315	3.153857	0.534278	-0.000032
1460	1.4517e+02	5.4800	5.330892	0.000287	2.867142	0.485707	-0.000029
1461	1.4527e+02	5.4695	5.305637	0.000254	2.539469	0.430198	-0.000025
1462	1.4537e+02	5.4568	5.272235	0.000336	3.358652	0.568971	-0.000034
1463	1.4547e+02	5.4486	5.244128	0.000283	2.826183	0.478768	-0.000028
1464	1.4557e+02	5.4395	5.216836	0.000274	2.744265	0.464891	-0.000027
1465	1.4567e+02	5.4284	5.186693	0.000303	3.030979	0.513462	-0.000030
1466	1.4577e+02	5.4147	5.155735	0.000311	3.112897	0.527339	-0.000031
1467	1.4587e+02	5.4098	5.129257	0.000266	2.662346	0.451014	-0.000027
1468	1.4597e+02	5.3976	5.102373	0.000270	2.703306	0.457952	-0.000027
1469	1.4607e+02	5.3886	5.072229	0.000303	3.030979	0.513462	-0.000030
1470	1.4617e+02	5.3783	5.042901	0.000295	2.949061	0.499584	-0.000029
1471	1.4626e+02	5.3695	5.019275	0.000238	2.375632	0.402443	-0.000024
1472	1.4636e+02	5.3590	4.989132	0.000303	3.030979	0.513462	-0.000030
1473	1.4646e+02	5.3498	4.958581	0.000307	3.071938	0.520400	-0.000031
1474	1.4656e+02	5.3352	4.932918	0.000258	2.580428	0.437136	-0.000026
1475	1.4666e+02	5.3307	4.902775	0.000303	3.030979	0.513462	-0.000030
1476	1.4676e+02	5.3151	4.873854	0.000291	2.908101	0.492646	-0.000029
1477	1.4686e+02	5.3121	4.846969	0.000270	2.703306	0.457952	-0.000027
1478	1.4696e+02	5.3006	4.816826	0.000303	3.030979	0.513462	-0.000030
1479	1.4706e+02	5.2892	4.788312	0.000287	2.867142	0.485707	-0.000029
1480	1.4716e+02	5.2783	4.758168	0.000303	3.030979	0.513462	-0.000030
1481	1.4726e+02	5.2701	4.732913	0.000254	2.539469	0.430198	-0.000025
1482	1.4736e+02	5.2578	4.702770	0.000303	3.030979	0.513462	-0.000030
1483	1.4746e+02	5.2503	4.673034	0.000299	2.990020	0.506523	-0.000030
1484	1.4756e+02	5.2405	4.645334	0.000279	2.785224	0.471830	-0.000028
1485	1.4766e+02	5.2293	4.616820	0.000287	2.867142	0.485707	-0.000029
1486	1.4776e+02	5.2192	4.590343	0.000266	2.662346	0.451014	-0.000027
1487	1.4786e+02	5.2085	4.562644	0.000279	2.785224	0.471830	-0.000028
1488	1.4796e+02	5.2018	4.533315	0.000295	2.949061	0.499584	-0.000029
1489	1.4806e+02	5.1897	4.501543	0.000319	3.194816	0.541216	-0.000032
1490	1.4816e+02	5.1785	4.473436	0.000283	2.826183	0.478768	-0.000028
1491	1.4825e+02	5.1710	4.446959	0.000266	2.662346	0.451014	-0.000027
1492	1.4835e+02	5.1604	4.417223	0.000299	2.990020	0.506523	-0.000030
1493	1.4845e+02	5.1516	4.384228	0.000332	3.317693	0.562032	-0.000033
1494	1.4855e+02	5.1416	4.351233	0.000332	3.317693	0.562032	-0.000033
1495	1.4865e+02	5.1299	4.328829	0.000225	2.252755	0.381627	-0.000023
1496	1.4875e+02	5.1200	4.297871	0.000311	3.112897	0.527339	-0.000031
1497	1.4885e+02	5.1128	4.268543	0.000295	2.949061	0.499584	-0.000029
1498	1.4895e+02	5.1019	4.242065	0.000266	2.662346	0.451014	-0.000027
1499	1.4905e+02	5.0906	4.214366	0.000279	2.785224	0.471830	-0.000028
1500	1.4915e+02	5.0769	4.184223	0.000303	3.030979	0.513462	-0.000030
1501	1.4925e+02	5.0703	4.155709	0.000287	2.867142	0.485707	-0.000029
1502	1.4935e+02	5.0632	4.128824	0.000270	2.703306	0.457952	-0.000027
1503	1.4945e+02	5.0494	4.099903	0.000291	2.908101	0.492646	-0.000029
1504	1.4955e+02	5.0420	4.071389	0.000287	2.867142	0.485707	-0.000029
1505	1.4965e+02	5.0320	4.042467	0.000291	2.908101	0.492646	-0.000029
1506	1.4975e+02	5.0220	4.012731	0.000299	2.990020	0.506523	-0.000030
1507	1.4985e+02	5.0100	3.985032	0.000279	2.785224	0.471830	-0.000028
1508	1.4995e+02	5.0039	3.953667	0.000315	3.153857	0.534278	-0.000032
1509	1.5005e+02	4.9908	3.923931	0.000299	2.990020	0.506523	-0.000030
1510	1.5015e+02	4.9789	3.890936	0.000332	3.317693	0.562032	-0.000033
1511	1.5025e+02	4.9711	3.866088	0.000250	2.498510	0.423259	-0.000025
1512	1.5034e+02	4.9606	3.835945	0.000303	3.030979	0.513462	-0.000030
1513	1.5044e+02	4.9493	3.812319	0.000238	2.375632	0.402443	-0.000024
1514	1.5054e+02	4.9414	3.782583	0.000299	2.990020	0.506523	-0.000030
1515	1.5064e+02	4.9316	3.753662	0.000291	2.908101	0.492646	-0.000029
1516	1.5074e+02	4.9241	3.723518	0.000303	3.030979	0.513462	-0.000030
1517	1.5084e+02	4.9123	3.695412	0.000283	2.826183	0.478768	-0.000028
1518	1.5094e+02	4.9026	3.666490	0.000291	2.908101	0.492646	-0.000029
1519	1.5104e+02	4.8895	3.632681	0.000340	3.399612	0.575910	-0.000034
1520	1.5114e+02	4.8817	3.604574	0.000283	2.826183	0.478768	-0.000028
1521	1.5124e+02	4.8736	3.573616	0.000311	3.112897	0.527339	-0.000031
1522	1.5134e+02	4.8591	3.541029	0.000328	3.276734	0.555094	-0.000033
1523	1.5144e+02	4.8550	3.510478	0.000307	3.071938	0.520400	-0.000031
1524	1.5154e+02	4.8425	3.479520	0.000311	3.112897	0.527339	-0.000031
1525	1.5164e+02	4.8299	3.450599	0.000291	2.908101	0.492646	-0.000029
1526	1.5174e+02	4.8219	3.415160	0.000356	3.563448	0.603664	-0.000036
1527	1.5184e+02	4.8139	3.388683	0.000266	2.662346	0.451014	-0.000027
1528	1.5194e+02	4.8025	3.358132	0.000307	3.071938	0.520400	-0.000031
1529	1.5204e+02	4.7923	3.332469	0.000258	2.580428	0.437136	-0.000026
1530	1.5214e+02	4.7834	3.303141	0.000295	2.949061	0.499584	-0.000029
1531	1.5224e+02	4.7710	3.277886	0.000254	2.539469	0.430198	-0.000025
1532	1.5233e+02	4.7613	3.245705	0.000324	3.235775	0.548155	-0.000032
1533	1.5243e+02	4.7537	3.215969	0.000299	2.990020	0.506523	-0.000030
1534	1.5253e+02	4.7404	3.185011	0.000311	3.112897	0.527339	-0.000031
1535	1.5263e+02	4.7295	3.154053	0.000311	3.112897	0.527339	-0.000031
1536	1.5273e+02	4.7249	3.124317	0.000299	2.990020	0.506523	-0.000030
1537	1.5283e+02	4.7124	3.092952	0.000315	3.153857	0.534278	-0.000032
1538	1.5293e+02	4.7016	3.066475	0.000266	2.662346	0.451014	-0.000027
1539	1.5303e+02	4.6932	3.037146	0.000295	2.949061	0.499584	-0.000029
1540	1.5313e+02	4.6826	3.008225	0.000291	2.908101	0.492646	-0.000029
1541	1.5323e+02	4.6734	2.981747	0.000266	2.662346	0.451014	-0.000027
1542	1.5333e+02	4.6633	2.953641	0.000283	2.826183	0.478768	-0.000028
1543	1.5343e+02	4.6539	2.923905	0.000299	2.990020	0.506523	-0.000030
1544	1.5353e+02	4.6407	2.899057	0.000250	2.498510	0.423259	-0.000025
1545	1.5363e+02	4.6304	2.868914	0.000303	3.030979	0.513462	-0.000030
1546	1.5373e+02	4.6241	2.838363	0.000307	3.071938	0.520400	-0.000031
1547	1.5383e+02	4.6143	2.807405	0.000311	3.112897	0.527339	-0.000031
1548	1.5393e+02	4.6018	2.779706	0.000279	2.785224	0.471830	-0.000028
1549	1.5403e+02	4.5937	2.752414	0.000274	2.744265	0.464891	-0.000027
1550	1.5413e+02	4.5803	2.722270	0.000303	3.030979	0.513462	-0.000030
1551	1.5422e+02	4.5725	2.692534	0.000299	2.990020	0.506523	-0.000030
1552	1.5432e+02	4.5614	2.661984	0.000307	3.071938	0.520400	-0.000031
1553	1.5442e+02	4.5519	2.637543	0.000246	2.457551	0.416320	-0.000025
1554	1.5452e+02	4.5395	2.602104	0.000356	3.563448	0.603664	-0.000036
1555	1.5462e+02	4.5333	2.573183	0.000291	2.908101	0.492646	-0.000029
1556	1.5472e+02	4.5266	2.543854	0.000295	2.949061	0.499584	-0.000029
1557	1.5482e+02	4.5141	2.515748	0.000283	2.826183	0.478768	-0.000028
1558	1.5492e+02	4.5039	2.483975	0.000319	3.194816	0.541216	-0.000032
1559	1.5502e+02	4.4939	2.455054	0.000291	2.908101	0.492646	-0.000029
1560	1.5512e+02	4.4827	2.423688	0.000315	3.153857	0.534278	-0.000032
1561	1.5522e+02	4.4743	2.393545	0.000303	3.030979	0.513462	-0.000030
1562	1.5532e+02	4.4630	2.362587	0.000311	3.112897	0.527339	-0.000031
1563	1.5542e+02	4.4541	2.335702	0.000270	2.703306	0.457952	-0.000027
1564	1.5552e+02	4.4444	2.303522	0.000324	3.235775	0.548155	-0.000032
1565	1.5562e+02	4.4342	2.272971	0.000307	3.071938	0.520400	-0.000031
1566	1.5572e+02	4.4228	2.244865	0.000283	2.826183	0.478768	-0.000028
1567	1.5582e+02	4.4149	2.216758	0.000283	2.826183	0.478768	-0.000028
1568	1.5592e+02	4.4037	2.183356	0.000336	3.358652	0.568971	-0.000034
1569	1.5602e+02	4.3948	2.155249	0.000283	2.826183	0.478768	-0.000028
1570	1.5612e+02	4.3820	2.122662	0.000328	3.276734	0.555094	-0.000033
1571	1.5622e+02	4.3750	2.098629	0.000242	2.416591	0.409382	-0.000024
1572	1.5631e+02	4.3626	2.060746	0.000381	3.809203	0.645297	-0.000038
1573	1.5641e+02	4.3542	2.033861	0.000270	2.703306	0.457952	-0.000027
1574	1.5651e+02	4.3435	2.005755	0.000283	2.826183	0.478768	-0.000028
1575	1.5661e+02	4.3322	1.974389	0.000315	3.153857	0.534278	-0.000032
1576	1.5671e+02	4.3224	1.945875	0.000287	2.867142	0.485707	-0.000029
1577	1.5681e+02	4.3137	1.914510	0.000315	3.153857	0.534278	-0.000032
1578	1.5691e+02	4.3070	1.889255	0.000254	2.539469	0.430198	-0.000025
1579	1.5701e+02	4.2939	1.855445	0.000340	3.399612	0.575910	-0.000034
1580	1.5711e+02	4.2837	1.822858	0.000328	3.276734	0.555094	-0.000033
1581	1.5721e+02	4.2740	1.793122	0.000299	2.990020	0.506523	-0.000030
1582	1.5731e+02	4.2644	1.765015	0.000283	2.826183	0.478768	-0.000028
1583	1.5741e+02	4.2537	1.734465	0.000307	3.071938	0.520400	-0.000031
1584	1.5751e+02	4.2446	1.702692	0.000319	3.194816	0.541216	-0.000032
1585	1.5761e+02	4.2342	1.672956	0.000299	2.990020	0.506523	-0.000030
1586	1.5771e+02	4.2245	1.638332	0.000348	3.481530	0.589787	-0.000035
1587	1.5781e+02	4.2124	1.604522	0.000340	3.399612	0.575910	-0.000034
1588	1.5791e+02	4.2062	1.578452	0.000262	2.621387	0.444075	-0.000026
1589	1.5801e+02	4.1947	1.546272	0.000324	3.235775	0.548155	-0.000032
1590	1.5811e+02	4.1842	1.514907	0.000315	3.153857	0.534278	-0.000032
1591	1.5821e+02	4.1785	1.488837	0.000262	2.621387	0.444075	-0.000026
1592	1.5830e+02	4.1663	1.459916	0.000291	2.908101	0.492646	-0.000029
1593	1.5840e+02	4.1548	1.427736	0.000324	3.235775	0.548155	-0.000032
1594	1.5850e+02	4.1445	1.395148	0.000328	3.276734	0.555094	-0.000033
1595	1.5860e+02	4.1348	1.365820	0.000295	2.949061	0.499584	-0.000029
1596	1.5870e+02	4.1232	1.334047	0.000319	3.194816	0.541216	-0.000032
1597	1.5880e+02	4.1153	1.297793	0.000365	3.645367	0.617542	-0.000036
1598	1.5890e+02	4.1041	1.270094	0.000279	2.785224	0.471830	-0.000028
1599	1.5900e+02	4.0945	1.237099	0.000332	3.317693	0.562032	-0.000033
1600	1.5910e+02	4.0845	1.203697	0.000336	3.358652	0.568971	-0.000034
1601	1.5920e+02	4.0768	1.175183	0.000287	2.867142	0.485707	-0.000029
1602	1.5930e+02	4.0660	1.147077	0.000283	2.826183	0.478768	-0.000028
1603	1.5940e+02	4.0563	1.119785	0.000274	2.744265	0.464891	-0.000027
1604	1.5950e+02	4.0469	1.086383	0.000336	3.358652	0.568971	-0.000034
1605	1.5960e+02	4.0349	1.055425	0.000311	3.112897	0.527339	-0.000031
1606	1.5970e+02	4.0254	1.028540	0.000270	2.703306	0.457952	-0.000027
1607	1.5980e+02	4.0141	1.001248	0.000274	2.744265	0.464891	-0.000027
1608	1.5990e+02	4.0035	0.967846	0.000336	3.358652	0.568971	-0.000034
1609	1.6000e+02	3.9958	0.939739	0.000283	2.826183	0.478768	-0.000028
1610	1.6010e+02	3.9857	0.910411	0.000295	2.949061	0.499584	-0.000029
1611	1.6019e+02	3.9765	0.876194	0.000344	3.440571	0.582848	-0.000034
1612	1.6029e+02	3.9671	0.847273	0.000291	2.908101	0.492646	-0.000029
1613	1.6039e+02	3.9565	0.815092	0.000324	3.235775	0.548155	-0.000032
1614	1.6049e+02	3.9446	0.781690	0.000336	3.358652	0.568971	-0.000034
1615	1.6059e+02	3.9358	0.748696	0.000332	3.317693	0.562032	-0.000033
1616	1.6069e+02	3.9234	0.715701	0.000332	3.317693	0.562032	-0.000033
1617	1.6079e+02	3.9129	0.686780	0.000291	2.908101	0.492646	-0.000029
1618	1.6089e+02	3.9063	0.657044	0.000299	2.990020	0.506523	-0.000030
1619	1.6099e+02	3.8952	0.626900	0.000303	3.030979	0.513462	-0.000030
1620	1.6109e+02	3.8845	0.595535	0.000315	3.153857	0.534278	-0.000032
1621	1.6119e+02	3.8757	0.562947	0.000328	3.276734	0.555094	-0.000033
1622	1.6129e+02	3.8673	0.529138	0.000340	3.399612	0.575910	-0.000034
1623	1.6139e+02	3.8580	0.499402	0.000299	2.990020	0.506523	-0.000030
1624	1.6149e+02	3.8444	0.465185	0.000344	3.440571	0.582848	-0.000034
1625	1.6159e+02	3.8367	0.430968	0.000344	3.440571	0.582848	-0.000034
1626	1.6169e+02	3.8270	0.397974	0.000332	3.317693	0.562032	-0.000033
1627	1.6179e+02	3.8211	0.365386	0.000328	3.276734	0.555094	-0.000033
1628	1.6189e+02	3.8023	0.330355	0.000352	3.522489	0.596726	-0.000035
1629	1.6199e+02	3.7981	0.299804	0.000307	3.071938	0.520400	-0.000031
1630	1.6209e+02	3.7862	0.268439	0.000315	3.153857	0.534278	-0.000032
1631	1.6219e+02	3.7761	0.235037	0.000336	3.358652	0.568971	-0.000034
1632	1.6228e+02	3.7673	0.202857	0.000324	3.235775	0.548155	-0.000032
1633	1.6238e+02	3.7586	0.171491	0.000315	3.153857	0.534278	-0.000032
1634	1.6248e+02	3.7444	0.140533	0.000311	3.112897	0.527339	-0.000031
1635	1.6258e+02	3.7402	0.103465	0.000373	3.727285	0.631419	-0.000037
1636	1.6268e+02	3.7261	0.073729	0.000299	2.990020	0.506523	-0.000030
1637	1.6278e+02	3.7176	0.042364	0.000315	3.153857	0.534278	-0.000032
1638	1.6288e+02	3.7071	0.010998	0.000315	3.153857	0.534278	-0.000032
1639	1.6298e+02	3.6963	-0.023626	0.000348	3.481530	0.589787	-0.000035
1640	1.6308e+02	3.6890	-0.055399	0.000319	3.194816	0.541216	-0.000032
1641	1.6318e+02	3.6811	-0.088393	0.000332	3.317693	0.562032	-0.000033
1642	1.6328e+02	3.6683	-0.117722	0.000295	2.949061	0.499584	-0.000029
1643	1.6338e+02	3.6575	-0.150309	0.000328	3.276734	0.555094	-0.000033
1644	1.6348e+02	3.6517	-0.183304	0.000332	3.317693	0.562032	-0.000033
1645	1.6358e+02	3.6361	-0.214262	0.000311	3.112897	0.527339	-0.000031
1646	1.6368e+02	3.6294	-0.248479	0.000344	3.440571	0.582848	-0.000034
1647	1.6378e+02	3.6162	-0.279030	0.000307	3.071938	0.520400	-0.000031
1648	1.6388e+02	3.6105	-0.309988	0.000311	3.112897	0.527339	-0.000031
1649	1.6398e+02	3.5989	-0.344612	0.000348	3.481530	0.589787	-0.000035
1650	1.6408e+02	3.5889	-0.377199	0.000328	3.276734	0.555094	-0.000033
1651	1.6418e+02	3.5808	-0.408157	0.000311	3.112897	0.527339	-0.000031
1652	1.6427e+02	3.5680	-0.440745	0.000328	3.276734	0.555094	-0.000033
1653	1.6437e+02	3.5537	-0.470073	0.000295	2.949061	0.499584	-0.000029
1654	1.6447e+02	3.5483	-0.504697	0.000348	3.481530	0.589787	-0.000035
1655	1.6457e+02	3.5368	-0.538914	0.000344	3.440571	0.582848	-0.000034
1656	1.6467e+02	3.5291	-0.572724	0.000340	3.399612	0.575910	-0.000034
1657	1.6477e+02	3.5189	-0.601645	0.000291	2.908101	0.492646	-0.000029
1658	1.6487e+02	3.5085	-0.638306	0.000369	3.686326	0.624481	-0.000037
1659	1.6497e+02	3.4972	-0.670486	0.000324	3.235775	0.548155	-0.000032
1660	1.6507e+02	3.4908	-0.703888	0.000336	3.358652	0.568971	-0.000034
1661	1.6517e+02	3.4801	-0.736475	0.000328	3.276734	0.555094	-0.000033
1662	1.6527e+02	3.4682	-0.768655	0.000324	3.235775	0.548155	-0.000032
1663	1.6537e+02	3.4582	-0.803687	0.000352	3.522489	0.596726	-0.000035
1664	1.6547e+02	3.4481	-0.831386	0.000279	2.785224	0.471830	-0.000028
1665	1.6557e+02	3.4386	-0.865603	0.000344	3.440571	0.582848	-0.000034
1666	1.6567e+02	3.4287	-0.898598	0.000332	3.317693	0.562032	-0.000033
1667	1.6577e+02	3.4182	-0.932407	0.000340	3.399612	0.575910	-0.000034
1668	1.6587e+02	3.4109	-0.963772	0.000315	3.153857	0.534278	-0.000032
1669	1.6597e+02	3.3990	-0.995953	0.000324	3.235775	0.548155	-0.000032
1670	1.6607e+02	3.3883	-1.030169	0.000344	3.440571	0.582848	-0.000034
1671	1.6616e+02	3.3802	-1.060313	0.000303	3.030979	0.513462	-0.000030
1672	1.6626e+02	3.3719	-1.095751	0.000356	3.563448	0.603664	-0.000036
1673	1.6636e+02	3.3579	-1.127117	0.000315	3.153857	0.534278	-0.000032
1674	1.6646e+02	3.3493	-1.162963	0.000360	3.604407	0.610603	-0.000036
1675	1.6656e+02	3.3375	-1.195143	0.000324	3.235775	0.548155	-0.000032
1676	1.6666e+02	3.3282	-1.225694	0.000307	3.071938	0.520400	-0.000031
1677	1.6676e+02	3.3212	-1.260725	0.000352	3.522489	0.596726	-0.000035
1678	1.6686e+02	3.3092	-1.292498	0.000319	3.194816	0.541216	-0.000032
1679	1.6696e+02	3.2980	-1.326715	0.000344	3.440571	0.582848	-0.000034
1680	1.6706e+02	3.2894	-1.360117	0.000336	3.358652	0.568971	-0.000034
1681	1.6716e+02	3.2790	-1.388631	0.000287	2.867142	0.485707	-0.000029
1682	1.6726e+02	3.2693	-1.426514	0.000381	3.809203	0.645297	-0.000038
1683	1.6736e+02	3.2656	-1.455435	0.000291	2.908101	0.492646	-0.000029
1684	1.6746e+02	3.2471	-1.487615	0.000324	3.235775	0.548155	-0.000032
1685	1.6756e+02	3.2424	-1.525091	0.000377	3.768244	0.638358	-0.000038
1686	1.6766e+02	3.2296	-1.558085	0.000332	3.317693	0.562032	-0.000033
1687	1.6776e+02	3.2199	-1.593117	0.000352	3.522489	0.596726	-0.000035
1688	1.6786e+02	3.2088	-1.623667	0.000307	3.071938	0.520400	-0.000031
1689	1.6796e+02	3.2008	-1.661550	0.000381	3.809203	0.645297	-0.000038
1690	1.6806e+02	3.1904	-1.694545	0.000332	3.317693	0.562032	-0.000033
1691	1.6816e+02	3.1819	-1.732835	0.000385	3.850163	0.652235	-0.000038
1692	1.6825e+02	3.1684	-1.767459	0.000348	3.481530	0.589787	-0.000035
1693	1.6835e+02	3.1646	-1.798417	0.000311	3.112897	0.527339	-0.000031
1694	1.6845e+02	3.1483	-1.837115	0.000389	3.891122	0.659174	-0.000039
1695	1.6855e+02	3.1390	-1.866036	0.000291	2.908101	0.492646	-0.000029
1696	1.6865e+02	3.1307	-1.897809	0.000319	3.194816	0.541216	-0.000032
1697	1.6875e+02	3.1217	-1.932840	0.000352	3.522489	0.596726	-0.000035
1698	1.6885e+02	3.1112	-1.965835	0.000332	3.317693	0.562032	-0.000033
1699	1.6895e+02	3.1001	-1.996793	0.000311	3.112897	0.527339	-0.000031
1700	1.6905e+02	3.0886	-2.035898	0.000393	3.932081	0.666113	-0.000039
1701	1.6915e+02	3.0824	-2.066041	0.000303	3.030979	0.513462	-0.000030
1702	1.6925e+02	3.0695	-2.100258	0.000344	3.440571	0.582848	-0.000034
1703	1.6935e+02	3.0602	-2.134475	0.000344	3.440571	0.582848	-0.000034
1704	1.6945e+02	3.0505	-2.167062	0.000328	3.276734	0.555094	-0.000033
1705	1.6955e+02	3.0428	-2.204538	0.000377	3.768244	0.638358	-0.000038
1706	1.6965e+02	3.0320	-2.233052	0.000287	2.867142	0.485707	-0.000029
1707	1.6975e+02	3.0212	-2.268491	0.000356	3.563448	0.603664	-0.000036
1708	1.6985e+02	3.0116	-2.297819	0.000295	2.949061	0.499584	-0.000029
1709	1.6995e+02	3.0032	-2.331221	0.000336	3.358652	0.568971	-0.000034
1710	1.7005e+02	2.9902	-2.364216	0.000332	3.317693	0.562032	-0.000033
1711	1.7015e+02	2.9806	-2.395174	0.000311	3.112897	0.527339	-0.000031
1712	1.7024e+02	2.9723	-2.429391	0.000344	3.440571	0.582848	-0.000034
1713	1.7034e+02	2.9602	-2.460349	0.000311	3.112897	0.527339	-0.000031
1714	1.7044e+02	2.9515	-2.494158	0.000340	3.399612	0.575910	-0.000034
1715	1.7054e+02	2.9399	-2.528375	0.000344	3.440571	0.582848	-0.000034
1716	1.7064e+02	2.9317	-2.562592	0.000344	3.440571	0.582848	-0.000034
1717	1.7074e+02	2.9206	-2.593143	0.000307	3.071938	0.520400	-0.000031
1718	1.7084e+02	2.9126	-2.629396	0.000365	3.645367	0.617542	-0.000036
1719	1.7094e+02	2.9020	-2.660762	0.000315	3.153857	0.534278	-0.000032
1720	1.7104e+02	2.8928	-2.697422	0.000369	3.686326	0.624481	-0.000037
1721	1.7114e+02	2.8830	-2.730010	0.000328	3.276734	0.555094	-0.000033
1722	1.7124e+02	2.8715	-2.758524	0.000287	2.867142	0.485707	-0.000029
1723	1.7134e+02	2.8626	-2.797629	0.000393	3.932081	0.666113	-0.000039
1724	1.7144e+02	2.8522	-2.832660	0.000352	3.522489	0.596726	-0.000035
1725	1.7154e+02	2.8416	-2.865248	0.000328	3.276734	0.555094	-0.000033
1726	1.7164e+02	2.8294	-2.901908	0.000369	3.686326	0.624481	-0.000037
1727	1.7174e+02	2.8229	-2.933681	0.000319	3.194816	0.541216	-0.000032
1728	1.7184e+02	2.8098	-2.965454	0.000319	3.194816	0.541216	-0.000032
1729	1.7194e+02	2.8047	-3.001707	0.000365	3.645367	0.617542	-0.000036
1730	1.7204e+02	2.7917	-3.035109	0.000336	3.358652	0.568971	-0.000034
1731	1.7213e+02	2.7811	-3.070548	0.000356	3.563448	0.603664	-0.000036
1732	1.7223e+02	2.7714	-3.105580	0.000352	3.522489	0.596726	-0.000035
1733	1.7233e+02	2.7605	-3.138167	0.000328	3.276734	0.555094	-0.000033
1734	1.7243e+02	2.7561	-3.176050	0.000381	3.809203	0.645297	-0.000038
1735	1.7253e+02	2.7419	-3.208637	0.000328	3.276734	0.555094	-0.000033
1736	1.7263e+02	2.7316	-3.240817	0.000324	3.235775	0.548155	-0.000032
1737	1.7273e+02	2.7267	-3.277478	0.000369	3.686326	0.624481	-0.000037
1738	1.7283e+02	2.7125	-3.312102	0.000348	3.481530	0.589787	-0.000035
1739	1.7293e+02	2.7001	-3.347134	0.000352	3.522489	0.596726	-0.000035
1740	1.7303e+02	2.6918	-3.379314	0.000324	3.235775	0.548155	-0.000032
1741	1.7313e+02	2.6832	-3.413531	0.000344	3.440571	0.582848	-0.000034
1742	1.7323e+02	2.6736	-3.448155	0.000348	3.481530	0.589787	-0.000035
1743	1.7333e+02	2.6599	-3.485223	0.000373	3.727285	0.631419	-0.000037
1744	1.7343e+02	2.6538	-3.517403	0.000324	3.235775	0.548155	-0.000032
1745	1.7353e+02	2.6427	-3.551212	0.000340	3.399612	0.575910	-0.000034
1746	1.7363e+02	2.6331	-3.582170	0.000311	3.112897	0.527339	-0.000031
1747	1.7373e+02	2.6215	-3.622090	0.000401	4.013999	0.679990	-0.000040
1748	1.7383e+02	2.6133	-3.656307	0.000344	3.440571	0.582848	-0.000034
1749	1.7393e+02	2.6036	-3.689301	0.000332	3.317693	0.562032	-0.000033
1750	1.7403e+02	2.5924	-3.723518	0.000344	3.440571	0.582848	-0.000034
1751	1.7413e+02	2.5849	-3.758957	0.000356	3.563448	0.603664	-0.000036
1752	1.7422e+02	2.5754	-3.798062	0.000393	3.932081	0.666113	-0.000039
1753	1.7432e+02	2.5629	-3.831057	0.000332	3.317693	0.562032	-0.000033
1754	1.7442e+02	2.5512	-3.867310	0.000365	3.645367	0.617542	-0.000036
1755	1.7452e+02	2.5414	-3.901527	0.000344	3.440571	0.582848	-0.000034
1756	1.7462e+02	2.5340	-3.942261	0.000410	4.095918	0.693867	-0.000041
1757	1.7472e+02	2.5220	-3.969553	0.000274	2.744265	0.464891	-0.000027
1758	1.7482e+02	2.5119	-4.008251	0.000389	3.891122	0.659174	-0.000039
1759	1.7492e+02	2.5046	-4.041245	0.000332	3.317693	0.562032	-0.000033
1760	1.7502e+02	2.4950	-4.073018	0.000319	3.194816	0.541216	-0.000032
1761	1.7512e+02	2.4837	-4.109679	0.000369	3.686326	0.624481	-0.000037
1762	1.7522e+02	2.4710	-4.147969	0.000385	3.850163	0.652235	-0.000038
1763	1.7532e+02	2.4635	-4.183408	0.000356	3.563448	0.603664	-0.000036
1764	1.7542e+02	2.4537	-4.215995	0.000328	3.276734	0.555094	-0.000033
1765	1.7552e+02	2.4446	-4.256322	0.000405	4.054958	0.686929	-0.000041
1766	1.7562e+02	2.4339	-4.291354	0.000352	3.522489	0.596726	-0.000035
1767	1.7572e+02	2.4226	-4.325571	0.000344	3.440571	0.582848	-0.000034
1768	1.7582e+02	2.4152	-4.357751	0.000324	3.235775	0.548155	-0.000032
1769	1.7592e+02	2.4073	-4.395226	0.000377	3.768244	0.638358	-0.000038
1770	1.7602e+02	2.3949	-4.427406	0.000324	3.235775	0.548155	-0.000032
1771	1.7612e+02	2.3849	-4.462845	0.000356	3.563448	0.603664	-0.000036
1772	1.7621e+02	2.3762	-4.498284	0.000356	3.563448	0.603664	-0.000036
1773	1.7631e+02	2.3643	-4.534945	0.000369	3.686326	0.624481	-0.000037
1774	1.7641e+02	2.3570	-4.566717	0.000319	3.194816	0.541216	-0.000032
1775	1.7651e+02	2.3423	-4.601341	0.000348	3.481530	0.589787	-0.000035
1776	1.7661e+02	2.3369	-4.635151	0.000340	3.399612	0.575910	-0.000034
1777	1.7671e+02	2.3234	-4.668960	0.000340	3.399612	0.575910	-0.000034
1778	1.7681e+02	2.3150	-4.709695	0.000410	4.095918	0.693867	-0.000041
1779	1.7691e+02	2.3037	-4.742689	0.000332	3.317693	0.562032	-0.000033
1780	1.7701e+02	2.2955	-4.780165	0.000377	3.768244	0.638358	-0.000038
1781	1.7711e+02	2.2849	-4.816418	0.000365	3.645367	0.617542	-0.000036
1782	1.7721e+02	2.2741	-4.853079	0.000369	3.686326	0.624481	-0.000037
1783	1.7731e+02	2.2629	-4.886074	0.000332	3.317693	0.562032	-0.000033
1784	1.7741e+02	2.2544	-4.920698	0.000348	3.481530	0.589787	-0.000035
1785	1.7751e+02	2.2472	-4.960618	0.000401	4.013999	0.679990	-0.000040
1786	1.7761e+02	2.2355	-4.991576	0.000311	3.112897	0.527339	-0.000031
1787	1.7771e+02	2.2246	-5.028236	0.000369	3.686326	0.624481	-0.000037
1788	1.7781e+02	2.2141	-5.061639	0.000336	3.358652	0.568971	-0.000034
1789	1.7791e+02	2.2036	-5.104817	0.000434	4.341673	0.735499	-0.000043
1790	1.7801e+02	2.1909	-5.140663	0.000360	3.604407	0.610603	-0.000036
1791	1.7810e+02	2.1839	-5.175694	0.000352	3.522489	0.596726	-0.000035
1792	1.7820e+02	2.1749	-5.212763	0.000373	3.727285	0.631419	-0.000037
1793	1.7830e+02	2.1648	-5.254312	0.000418	4.177836	0.707745	-0.000042
1794	1.7840e+02	2.1583	-5.293416	0.000393	3.932081	0.666113	-0.000039
1795	1.7850e+02	2.1461	-5.328855	0.000356	3.563448	0.603664	-0.000036
1796	1.7860e+02	2.1346	-5.369997	0.000414	4.136877	0.700806	-0.000041
1797	1.7870e+02	2.1265	-5.405028	0.000352	3.522489	0.596726	-0.000035
1798	1.7880e+02	2.1118	-5.443319	0.000385	3.850163	0.652235	-0.000038
1799	1.7890e+02	2.1056	-5.477535	0.000344	3.440571	0.582848	-0.000034
1800	1.7900e+02	2.0962	-5.518677	0.000414	4.136877	0.700806	-0.000041
1801	1.7910e+02	2.0859	-5.550857	0.000324	3.235775	0.548155	-0.000032
1802	1.7920e+02	2.0750	-5.590777	0.000401	4.013999	0.679990	-0.000040
1803	1.7930e+02	2.0679	-5.627437	0.000369	3.686326	0.624481	-0.000037
1804	1.7940e+02	2.0552	-5.662061	0.000348	3.481530	0.589787	-0.000035
1805	1.7950e+02	2.0451	-5.699944	0.000381	3.809203	0.645297	-0.000038
1806	1.7960e+02	2.0336	-5.732532	0.000328	3.276734	0.555094	-0.000033
1807	1.7970e+02	2.0248	-5.774081	0.000418	4.177836	0.707745	-0.000042
1808	1.7980e+02	2.0155	-5.810334	0.000365	3.645367	0.617542	-0.000036
1809	1.7990e+02	2.0068	-5.847810	0.000377	3.768244	0.638358	-0.000038
1810	1.8000e+02	1.9948	-5.885285	0.000377	3.768244	0.638358	-0.000038
1811	1.8009e+02	1.9894	-5.923983	0.000389	3.891122	0.659174	-0.000039
1812	1.8019e+02	1.9778	-5.957792	0.000340	3.399612	0.575910	-0.000034
1813	1.8029e+02	1.9653	-5.998119	0.000405	4.054958	0.686929	-0.000041
1814	1.8039e+02	1.9563	-6.033965	0.000360	3.604407	0.610603	-0.000036
1815	1.8049e+02	1.9458	-6.074699	0.000410	4.095918	0.693867	-0.000041
1816	1.8059e+02	1.9357	-6.109324	0.000348	3.481530	0.589787	-0.000035
1817	1.8069e+02	1.9273	-6.145984	0.000369	3.686326	0.624481	-0.000037
1818	1.8079e+02	1.9161	-6.181831	0.000360	3.604407	0.610603	-0.000036
1819	1.8089e+02	1.9050	-6.223380	0.000418	4.177836	0.707745	-0.000042
1820	1.8099e+02	1.8955	-6.259633	0.000365	3.645367	0.617542	-0.000036
1821	1.8109e+02	1.8841	-6.293035	0.000336	3.358652	0.568971	-0.000034
1822	1.8119e+02	1.8755	-6.332140	0.000393	3.932081	0.666113	-0.000039
1823	1.8129e+02	1.8645	-6.369615	0.000377	3.768244	0.638358	-0.000038
1824	1.8139e+02	1.8569	-6.409942	0.000405	4.054958	0.686929	-0.000041
1825	1.8149e+02	1.8450	-6.446196	0.000365	3.645367	0.617542	-0.000036
1826	1.8159e+02	1.8373	-6.482042	0.000360	3.604407	0.610603	-0.000036
1827	1.8169e+02	1.8229	-6.520332	0.000385	3.850163	0.652235	-0.000038
1828	1.8179e+02	1.8150	-6.560659	0.000405	4.054958	0.686929	-0.000041
1829	1.8189e+02	1.8078	-6.598949	0.000385	3.850163	0.652235	-0.000038
1830	1.8199e+02	1.7954	-6.633981	0.000352	3.522489	0.596726	-0.000035
1831	1.8209e+02	1.7884	-6.672678	0.000389	3.891122	0.659174	-0.000039
1832	1.8218e+02	1.7788	-6.711783	0.000393	3.932081	0.666113	-0.000039
1833	1.8228e+02	1.7657	-6.747629	0.000360	3.604407	0.610603	-0.000036
1834	1.8238e+02	1.7570	-6.783476	0.000360	3.604407	0.610603	-0.000036
1835	1.8248e+02	1.7466	-6.821358	0.000381	3.809203	0.645297	-0.000038
1836	1.8258e+02	1.7378	-6.857612	0.000365	3.645367	0.617542	-0.000036
1837	1.8268e+02	1.7287	-6.901605	0.000442	4.423591	0.749377	-0.000044
1838	1.8278e+02	1.7179	-6.933785	0.000324	3.235775	0.548155	-0.000032
1839	1.8288e+02	1.7078	-6.972075	0.000385	3.850163	0.652235	-0.000038
1840	1.8298e+02	1.6959	-7.013624	0.000418	4.177836	0.707745	-0.000042
1841	1.8308e+02	1.6849	-7.047026	0.000336	3.358652	0.568971	-0.000034
1842	1.8318e+02	1.6756	-7.088982	0.000422	4.218795	0.714683	-0.000042
1843	1.8328e+02	1.6685	-7.126865	0.000381	3.809203	0.645297	-0.000038
1844	1.8338e+02	1.6566	-7.162711	0.000360	3.604407	0.610603	-0.000036
1845	1.8348e+02	1.6467	-7.202631	0.000401	4.013999	0.679990	-0.000040
1846	1.8358e+02	1.6383	-7.241736	0.000393	3.932081	0.666113	-0.000039
1847	1.8368e+02	1.6275	-7.277989	0.000365	3.645367	0.617542	-0.000036
1848	1.8378e+02	1.6148	-7.315058	0.000373	3.727285	0.631419	-0.000037
1849	1.8388e+02	1.6056	-7.354977	0.000401	4.013999	0.679990	-0.000040
1850	1.8398e+02	1.5945	-7.389194	0.000344	3.440571	0.582848	-0.000034
1851	1.8407e+02	1.5877	-7.429521	0.000405	4.054958	0.686929	-0.000041
1852	1.8417e+02	1.5771	-7.464960	0.000356	3.563448	0.603664	-0.000036
1853	1.8427e+02	1.5684	-7.507323	0.000426	4.259754	0.721622	-0.000043
1854	1.8437e+02	1.5569	-7.548057	0.000410	4.095918	0.693867	-0.000041
1855	1.8447e+02	1.5485	-7.585533	0.000377	3.768244	0.638358	-0.000038
1856	1.8457e+02	1.5371	-7.625860	0.000405	4.054958	0.686929	-0.000041
1857	1.8467e+02	1.5281	-7.666594	0.000410	4.095918	0.693867	-0.000041
1858	1.8477e+02	1.5176	-7.708550	0.000422	4.218795	0.714683	-0.000042
1859	1.8487e+02	1.5066	-7.746026	0.000377	3.768244	0.638358	-0.000038
1860	1.8497e+02	1.4973	-7.785946	0.000401	4.013999	0.679990	-0.000040
1861	1.8507e+02	1.4860	-7.826272	0.000405	4.054958	0.686929	-0.000041
1862	1.8517e+02	1.4754	-7.862933	0.000369	3.686326	0.624481	-0.000037
1863	1.8527e+02	1.4660	-7.906112	0.000434	4.341673	0.735499	-0.000043
1864	1.8537e+02	1.4625	-7.943180	0.000373	3.727285	0.631419	-0.000037
1865	1.8547e+02	1.4471	-7.981877	0.000389	3.891122	0.659174	-0.000039
1866	1.8557e+02	1.4378	-8.017316	0.000356	3.563448	0.603664	-0.000036
1867	1.8567e+02	1.4309	-8.056014	0.000389	3.891122	0.659174	-0.000039
1868	1.8577e+02	1.4190	-8.095933	0.000401	4.013999	0.679990	-0.000040
1869	1.8587e+02	1.4090	-8.136667	0.000410	4.095918	0.693867	-0.000041
1870	1.8597e+02	1.3997	-8.174958	0.000385	3.850163	0.652235	-0.000038
1871	1.8606e+02	1.3869	-8.212841	0.000381	3.809203	0.645297	-0.000038
1872	1.8616e+02	1.3795	-8.250316	0.000377	3.768244	0.638358	-0.000038
1873	1.8626e+02	1.3673	-8.292680	0.000426	4.259754	0.721622	-0.000043
1874	1.8636e+02	1.3599	-8.331377	0.000389	3.891122	0.659174	-0.000039
1875	1.8646e+02	1.3510	-8.370075	0.000389	3.891122	0.659174	-0.000039
1876	1.8656e+02	1.3378	-8.405106	0.000352	3.522489	0.596726	-0.000035
1877	1.8666e+02	1.3284	-8.445026	0.000401	4.013999	0.679990	-0.000040
1878	1.8676e+02	1.3190	-8.481279	0.000365	3.645367	0.617542	-0.000036
1879	1.8686e+02	1.3065	-8.516718	0.000356	3.563448	0.603664	-0.000036
1880	1.8696e+02	1.2974	-8.556638	0.000401	4.013999	0.679990	-0.000040
1881	1.8706e+02	1.2927	-8.593706	0.000373	3.727285	0.631419	-0.000037
1882	1.8716e+02	1.2786	-8.632403	0.000389	3.891122	0.659174	-0.000039
1883	1.8726e+02	1.2691	-8.673138	0.000410	4.095918	0.693867	-0.000041
1884	1.8736e+02	1.2615	-8.711428	0.000385	3.850163	0.652235	-0.000038
1885	1.8746e+02	1.2504	-8.746459	0.000352	3.522489	0.596726	-0.000035
1886	1.8756e+02	1.2405	-8.784342	0.000381	3.809203	0.645297	-0.000038
1887	1.8766e+02	1.2289	-8.821818	0.000377	3.768244	0.638358	-0.000038
1888	1.8776e+02	1.2195	-8.863774	0.000422	4.218795	0.714683	-0.000042
1889	1.8786e+02	1.2116	-8.906138	0.000426	4.259754	0.721622	-0.000043
1890	1.8796e+02	1.1998	-8.946464	0.000405	4.054958	0.686929	-0.000041
1891	1.8806e+02	1.1914	-8.984755	0.000385	3.850163	0.652235	-0.000038
1892	1.8815e+02	1.1815	-9.021415	0.000369	3.686326	0.624481	-0.000037
1893	1.8825e+02	1.1685	-9.065816	0.000446	4.464550	0.756315	-0.000045
1894	1.8835e+02	1.1596	-9.100440	0.000348	3.481530	0.589787	-0.000035
1895	1.8845e+02	1.1510	-9.140360	0.000401	4.013999	0.679990	-0.000040
1896	1.8855e+02	1.1410	-9.182723	0.000426	4.259754	0.721622	-0.000043
1897	1.8865e+02	1.1307	-9.221013	0.000385	3.850163	0.652235	-0.000038
1898	1.8875e+02	1.1217	-9.260118	0.000393	3.932081	0.666113	-0.000039
1899	1.8885e+02	1.1120	-9.298816	0.000389	3.891122	0.659174	-0.000039
1900	1.8895e+02	1.1043	-9.337513	0.000389	3.891122	0.659174	-0.000039
1901	1.8905e+02	1.0909	-9.377840	0.000405	4.054958	0.686929	-0.000041
1902	1.8915e+02	1.0805	-9.420204	0.000426	4.259754	0.721622	-0.000043
1903	1.8925e+02	1.0709	-9.462975	0.000430	4.300713	0.728561	-0.000043
1904	1.8935e+02	1.0622	-9.496784	0.000340	3.399612	0.575910	-0.000034
1905	1.8945e+02	1.0510	-9.544036	0.000475	4.751264	0.804886	-0.000047
1906	1.8955e+02	1.0412	-9.579882	0.000360	3.604407	0.610603	-0.000036
1907	1.8965e+02	1.0313	-9.622653	0.000430	4.300713	0.728561	-0.000043
1908	1.8975e+02	1.0239	-9.660129	0.000377	3.768244	0.638358	-0.000038
1909	1.8985e+02	1.0127	-9.698826	0.000389	3.891122	0.659174	-0.000039
1910	1.8995e+02	1.0001	-9.740375	0.000418	4.177836	0.707745	-0.000042
1911	1.9004e+02	0.9931	-9.780702	0.000405	4.054958	0.686929	-0.000041
1912	1.9014e+02	0.9804	-9.819807	0.000393	3.932081	0.666113	-0.000039
1913	1.9024e+02	0.9736	-9.860948	0.000414	4.136877	0.700806	-0.000041
1914	1.9034e+02	0.9633	-9.900868	0.000401	4.013999	0.679990	-0.000040
1915	1.9044e+02	0.9504	-9.942010	0.000414	4.136877	0.700806	-0.000041
1916	1.9054e+02	0.9425	-9.982744	0.000410	4.095918	0.693867	-0.000041
1917	1.9064e+02	0.9343	-10.019405	0.000369	3.686326	0.624481	-0.000037
1918	1.9074e+02	0.9229	-10.067471	0.000483	4.833183	0.818763	-0.000048
1919	1.9084e+02	0.9106	-10.104947	0.000377	3.768244	0.638358	-0.000038
1920	1.9094e+02	0.9021	-10.147310	0.000426	4.259754	0.721622	-0.000043
1921	1.9104e+02	0.8932	-10.187230	0.000401	4.013999	0.679990	-0.000040
1922	1.9114e+02	0.8813	-10.231223	0.000442	4.423591	0.749377	-0.000044
1923	1.9124e+02	0.8725	-10.273179	0.000422	4.218795	0.714683	-0.000042
1924	1.9134e+02	0.8588	-10.309025	0.000360	3.604407	0.610603	-0.000036
1925	1.9144e+02	0.8522	-10.347723	0.000389	3.891122	0.659174	-0.000039
1926	1.9154e+02	0.8426	-10.388050	0.000405	4.054958	0.686929	-0.000041
1927	1.9164e+02	0.8318	-10.434079	0.000463	4.628387	0.784070	-0.000046
1928	1.9174e+02	0.8220	-10.470740	0.000369	3.686326	0.624481	-0.000037
1929	1.9184e+02	0.8126	-10.513104	0.000426	4.259754	0.721622	-0.000043
1930	1.9194e+02	0.8009	-10.555468	0.000426	4.259754	0.721622	-0.000043
1931	1.9203e+02	0.7925	-10.596202	0.000410	4.095918	0.693867	-0.000041
1932	1.9213e+02	0.7813	-10.640195	0.000442	4.423591	0.749377	-0.000044
1933	1.9223e+02	0.7678	-10.677670	0.000377	3.768244	0.638358	-0.000038
1934	1.9233e+02	0.7618	-10.722885	0.000455	4.546469	0.770193	-0.000045
1935	1.9243e+02	0.7515	-10.763212	0.000405	4.054958	0.686929	-0.000041
1936	1.9253e+02	0.7407	-10.804761	0.000418	4.177836	0.707745	-0.000042
1937	1.9263e+02	0.7330	-10.847532	0.000430	4.300713	0.728561	-0.000043
1938	1.9273e+02	0.7240	-10.886230	0.000389	3.891122	0.659174	-0.000039
1939	1.9283e+02	0.7119	-10.927371	0.000414	4.136877	0.700806	-0.000041
1940	1.9293e+02	0.7045	-10.968513	0.000414	4.136877	0.700806	-0.000041
1941	1.9303e+02	0.6935	-11.003952	0.000356	3.563448	0.603664	-0.000036
1942	1.9313e+02	0.6833	-11.042649	0.000389	3.891122	0.659174	-0.000039
1943	1.9323e+02	0.6744	-11.085420	0.000430	4.300713	0.728561	-0.000043
1944	1.9333e+02	0.6621	-11.123710	0.000385	3.850163	0.652235	-0.000038
1945	1.9343e+02	0.6526	-11.165259	0.000418	4.177836	0.707745	-0.000042
1946	1.9353e+02	0.6426	-11.210067	0.000451	4.505509	0.763254	-0.000045
1947	1.9363e+02	0.6336	-11.250394	0.000405	4.054958	0.686929	-0.000041
1948	1.9373e+02	0.6213	-11.294387	0.000442	4.423591	0.749377	-0.000044
1949	1.9383e+02	0.6116	-11.340417	0.000463	4.628387	0.784070	-0.000046
1950	1.9393e+02	0.6053	-11.376670	0.000365	3.645367	0.617542	-0.000036
1951	1.9403e+02	0.5909	-11.419034	0.000426	4.259754	0.721622	-0.000043
1952	1.9412e+02	0.5835	-11.458139	0.000393	3.932081	0.666113	-0.000039
1953	1.9422e+02	0.5729	-11.500095	0.000422	4.218795	0.714683	-0.000042
1954	1.9432e+02	0.5624	-11.546125	0.000463	4.628387	0.784070	-0.000046
1955	1.9442e+02	0.5536	-11.586452	0.000405	4.054958	0.686929	-0.000041
1956	1.9452e+02	0.5417	-11.625556	0.000393	3.932081	0.666113	-0.000039
1957	1.9462e+02	0.5376	-11.667513	0.000422	4.218795	0.714683	-0.000042
1958	1.9472e+02	0.5244	-11.713950	0.000467	4.669346	0.791009	-0.000047
1959	1.9482e+02	0.5141	-11.757943	0.000442	4.423591	0.749377	-0.000044
1960	1.9492e+02	0.5022	-11.805194	0.000475	4.751264	0.804886	-0.000047
1961	1.9502e+02	0.4919	-11.844707	0.000397	3.973040	0.673051	-0.000040
1962	1.9512e+02	0.4859	-11.889514	0.000451	4.505509	0.763254	-0.000045
1963	1.9522e+02	0.4733	-11.934322	0.000451	4.505509	0.763254	-0.000045
1964	1.9532e+02	0.4632	-11.977908	0.000438	4.382632	0.742438	-0.000044
1965	1.9542e+02	0.4554	-12.021493	0.000438	4.382632	0.742438	-0.000044
1966	1.9552e+02	0.4450	-12.061413	0.000401	4.013999	0.679990	-0.000040
1967	1.9562e+02	0.4333	-12.108257	0.000471	4.710305	0.797947	-0.000047
1968	1.9572e+02	0.4260	-12.149806	0.000418	4.177836	0.707745	-0.000042
1969	1.9582e+02	0.4128	-12.192170	0.000426	4.259754	0.721622	-0.000043
1970	1.9592e+02	0.4031	-12.234534	0.000426	4.259754	0.721622	-0.000043
1971	1.9601e+02	0.3925	-12.278527	0.000442	4.423591	0.749377	-0.000044
1972	1.9611e+02	0.3846	-12.324556	0.000463	4.628387	0.784070	-0.000046
1973	1.9621e+02	0.3744	-12.362846	0.000385	3.850163	0.652235	-0.000038
1974	1.9631e+02	0.3636	-12.406839	0.000442	4.423591	0.749377	-0.000044
1975	1.9641e+02	0.3521	-12.450018	0.000434	4.341673	0.735499	-0.000043
1976	1.9651e+02	0.3440	-12.492789	0.000430	4.300713	0.728561	-0.000043
1977	1.9661e+02	0.3340	-12.537596	0.000451	4.505509	0.763254	-0.000045
1978	1.9671e+02	0.3225	-12.579145	0.000418	4.177836	0.707745	-0.000042
1979	1.9681e+02	0.3152	-12.623138	0.000442	4.423591	0.749377	-0.000044
1980	1.9691e+02	0.3015	-12.663873	0.000410	4.095918	0.693867	-0.000041
1981	1.9701e+02	0.2911	-12.711939	0.000483	4.833183	0.818763	-0.000048
1982	1.9711e+02	0.2900	-12.753895	0.000422	4.218795	0.714683	-0.000042
1983	1.9721e+02	0.2735	-12.797888	0.000442	4.423591	0.749377	-0.000044
1984	1.9731e+02	0.2663	-12.839437	0.000418	4.177836	0.707745	-0.000042
1985	1.9741e+02	0.2551	-12.882616	0.000434	4.341673	0.735499	-0.000043
1986	1.9751e+02	0.2428	-12.927016	0.000446	4.464550	0.756315	-0.000045
1987	1.9761e+02	0.2371	-12.970602	0.000438	4.382632	0.742438	-0.000044
1988	1.9771e+02	0.2241	-13.013372	0.000430	4.300713	0.728561	-0.000043
1989	1.9781e+02	0.2126	-13.054514	0.000414	4.136877	0.700806	-0.000041
1990	1.9791e+02	0.2056	-13.097692	0.000434	4.341673	0.735499	-0.000043
1991	1.9800e+02	0.1966	-13.140463	0.000430	4.300713	0.728561	-0.000043
1992	1.9810e+02	0.1866	-13.189344	0.000492	4.915101	0.832641	-0.000049
1993	1.9820e+02	0.1772	-13.232523	0.000434	4.341673	0.735499	-0.000043
1994	1.9830e+02	0.1669	-13.276923	0.000446	4.464550	0.756315	-0.000045
1995	1.9840e+02	0.1550	-13.320916	0.000442	4.423591	0.749377	-0.000044
1996	1.9850e+02	0.1473	-13.366946	0.000463	4.628387	0.784070	-0.000046
1997	1.9860e+02	0.1363	-13.412568	0.000459	4.587428	0.777131	-0.000046
1998	1.9870e+02	0.1231	-13.452488	0.000401	4.013999	0.679990	-0.000040
1999	1.9880e+02	0.1172	-13.496481	0.000442	4.423591	0.749377	-0.000044
2000	1.9890e+02	0.1064	-13.540881	0.000446	4.464550	0.756315	-0.000045
2001	1.9900e+02	0.0938	-13.582837	0.000422	4.218795	0.714683	-0.000042
2002	1.9910e+02	0.0845	-13.624794	0.000422	4.218795	0.714683	-0.000042
2003	1.9920e+02	0.0743	-13.671231	0.000467	4.669346	0.791009	-0.000047
2004	1.9930e+02	0.0639	-13.714002	0.000430	4.300713	0.728561	-0.000043
2005	1.9940e+02	0.0537	-13.754329	0.000405	4.054958	0.686929	-0.000041
2006	1.9950e+02	0.0448	-13.801173	0.000471	4.710305	0.797947	-0.000047
2007	1.9960e+02	0.0357	-13.848017	0.000471	4.710305	0.797947	-0.000047
2008	1.9970e+02	0.0238	-13.890381	0.000426	4.259754	0.721622	-0.000043
2009	1.9980e+02	0.0128	-13.932745	0.000426	4.259754	0.721622	-0.000043
2010	1.9990e+02	0.0065	-13.978774	0.000463	4.628387	0.784070	-0.000046
2011	2.0000e+02	0.0001	-14.020731	0.000463	4.628387	0.784070	-0.000042

PMax (uC/cm2):	3.20e+01
Pr (uC/cm2):	1.97e+00
-Pr (uC/cm2):	0.00e+00
PLoss (uC/cm2):	0.00e+00
C (Max-Eff) (nF):	3.20e-01
K (Eff):	5.42e+02
Vert. (+/-Pr) Shift (uC/cm2):	9.87e-01
Offset (uC/cm2):	1.60e+01

A (Loop Area - uC/cm2·Volts):	-1.97e-02



Hysteresis Version: 5.48.1 - Radiant Technologies, Inc., 1999 - 9/12/24

