»»»»»»»»»»»»»»»»»»»»»»»»»»»»»»»»»»»» Hysteresis ««««««««««««««««««««««««««««««««««««
»»»  Executed Version:	5.48.1
»»»  Vision Version:	5.48.4 (R)
»»»  Vision Compiled:	9/18/24
»»»  Driver Version:	5.47.0
»»»  Windows Version:	Windows 8 or 8.1
»»»  Processor Information:	x86 (AMD or Intel) - 32 Processors
»»»  Tester Name:	PMF21124-494 (100V)
»»»  Tester S/N:	PMF21124-494
»»»  Internal Amp Type:	100V RevK 270k
»»»  Internal Amp S/N:	iAB2-596/K     
»»»  Execution Count:	1
»»»»»»»»»»»»»»»»»»»»»»»»»»»»»»»»»»»»»»»»»»««««««««««««««««««««««««««««««««««««««««««

Stored:	6/27/2025 - 12:25:49
Configured:	06/27/25 11:23:28 AM
Executed:	06/27/25 12:25:19 PM

»»»»»»»»»»»»»»»»»»»»»»»»»»»»»»»»»»» Sample Info ««««««««««««««««««««««««««««««««««««
Sample Name:	
Lot Name:	
Wafer Name:	
Die Row/Column:	0/0
Capacitor Number:	0
Sample Area (cm2):	1.00e-04
Sample Thickness (microns):	1.50e-01

Amplifier:	Internal

»»»»»»»»»»»»»»»»»»»»»»»»»»»»»»»»»»» Tester Info «««««««««««««««««««««««««««««««««««
Tester Name:	PMF21124-494 (100V)
Tester Serial Number:	PMF21124-494
Return Signal Amp. Level:	1.9 [Index: 2]

»»»»»»»»»»»»»»»»»»»»»»»»»»»»»»»» Hysteresis Info ««««««««««««««««««««««««««««««««««
Task Name:	Hyst-1276
Volts:	10.00
Field:	666.67 (kV/cm)
DCBias:	0.00
DCField:	0.00 (kV/cm)
Hysteresis Period (ms):	2.00e+02
Preset:	Enabled
Preset Delay (ms):	1.00e+03
Profile:	Standard Monopolar

»»»»»»»»»»»»»»»»»»»»»»»»»»»»»»»»»»»»»» Data «««««««««««««««««««««««««««««««««««««««
Points:	2011

Valid Data

Point	Time (ms)	Drive Voltage	Measured Polarization (uC/cm2)	Capacitance (uF)	Normalized Capacitance (uF/cm2)	Dielectric Constant	Instantaneous Current (mA)
   1	0.0000e+00	-0.0024	-15.837682	0.000397	3.971312	0.672758	0.000040
   2	9.9500e-02	0.0054	-15.798170	0.000397	3.971312	0.672758	0.000040
   3	1.9900e-01	0.0159	-15.758250	0.000401	4.012254	0.679694	0.000040
   4	2.9850e-01	0.0260	-15.721182	0.000373	3.725664	0.631145	0.000037
   5	3.9800e-01	0.0347	-15.681670	0.000397	3.971312	0.672758	0.000040
   6	4.9750e-01	0.0446	-15.636048	0.000459	4.585433	0.776793	0.000046
   7	5.9700e-01	0.0562	-15.598572	0.000377	3.766605	0.638080	0.000038
   8	6.9650e-01	0.0667	-15.558652	0.000401	4.012254	0.679694	0.000040
   9	7.9600e-01	0.0754	-15.521584	0.000373	3.725664	0.631145	0.000037
  10	8.9550e-01	0.0852	-15.476777	0.000450	4.503550	0.762922	0.000045
  11	9.9500e-01	0.0957	-15.438079	0.000389	3.889429	0.658887	0.000039
  12	1.0945e+00	0.1057	-15.394901	0.000434	4.339784	0.735179	0.000043
  13	1.1940e+00	0.1148	-15.353759	0.000414	4.135078	0.700501	0.000041
  14	1.2935e+00	0.1242	-15.315876	0.000381	3.807547	0.645016	0.000038
  15	1.3930e+00	0.1328	-15.274735	0.000414	4.135078	0.700501	0.000041
  16	1.4925e+00	0.1454	-15.233186	0.000418	4.176019	0.707437	0.000042
  17	1.5920e+00	0.1563	-15.194081	0.000393	3.930371	0.665823	0.000039
  18	1.6915e+00	0.1653	-15.153754	0.000405	4.053195	0.686630	0.000041
  19	1.7910e+00	0.1764	-15.111390	0.000426	4.257902	0.721308	0.000043
  20	1.8905e+00	0.1857	-15.072693	0.000389	3.889429	0.658887	0.000039
  21	1.9900e+00	0.1935	-15.025441	0.000475	4.749198	0.804536	0.000047
  22	2.0895e+00	0.2023	-14.988780	0.000368	3.684723	0.624209	0.000037
  23	2.1890e+00	0.2112	-14.948046	0.000409	4.094136	0.693565	0.000041
  24	2.2885e+00	0.2251	-14.904053	0.000442	4.421667	0.749051	0.000044
  25	2.3880e+00	0.2338	-14.868207	0.000360	3.602840	0.610338	0.000036
  26	2.4875e+00	0.2473	-14.821770	0.000467	4.667315	0.790665	0.000047
  27	2.5870e+00	0.2548	-14.786331	0.000356	3.561899	0.603402	0.000036
  28	2.6865e+00	0.2635	-14.742745	0.000438	4.380726	0.742115	0.000044
  29	2.7860e+00	0.2740	-14.706899	0.000360	3.602840	0.610338	0.000036
  30	2.8855e+00	0.2834	-14.664536	0.000426	4.257902	0.721308	0.000043
  31	2.9850e+00	0.2930	-14.623394	0.000414	4.135078	0.700501	0.000041
  32	3.0845e+00	0.3063	-14.583067	0.000405	4.053195	0.686630	0.000041
  33	3.1840e+00	0.3158	-14.543555	0.000397	3.971312	0.672758	0.000040
  34	3.2835e+00	0.3230	-14.504043	0.000397	3.971312	0.672758	0.000040
  35	3.3830e+00	0.3353	-14.460457	0.000438	4.380726	0.742115	0.000044
  36	3.4825e+00	0.3417	-14.421759	0.000389	3.889429	0.658887	0.000039
  37	3.5820e+00	0.3545	-14.381025	0.000409	4.094136	0.693565	0.000041
  38	3.6815e+00	0.3635	-14.336217	0.000450	4.503550	0.762922	0.000045
  39	3.7810e+00	0.3726	-14.300779	0.000356	3.561899	0.603402	0.000036
  40	3.8805e+00	0.3824	-14.259230	0.000418	4.176019	0.707437	0.000042
  41	3.9800e+00	0.3931	-14.216051	0.000434	4.339784	0.735179	0.000043
  42	4.0795e+00	0.4046	-14.177354	0.000389	3.889429	0.658887	0.000039
  43	4.1790e+00	0.4119	-14.135805	0.000418	4.176019	0.707437	0.000042
  44	4.2785e+00	0.4228	-14.101181	0.000348	3.480016	0.589531	0.000035
  45	4.3780e+00	0.4333	-14.055966	0.000454	4.544491	0.769858	0.000045
  46	4.4775e+00	0.4433	-14.018898	0.000373	3.725664	0.631145	0.000037
  47	4.5770e+00	0.4530	-13.976127	0.000430	4.298843	0.728244	0.000043
  48	4.6765e+00	0.4647	-13.935800	0.000405	4.053195	0.686630	0.000041
  49	4.7760e+00	0.4752	-13.895880	0.000401	4.012254	0.679694	0.000040
  50	4.8755e+00	0.4852	-13.854331	0.000418	4.176019	0.707437	0.000042
  51	4.9750e+00	0.4929	-13.811968	0.000426	4.257902	0.721308	0.000043
  52	5.0745e+00	0.5029	-13.767567	0.000446	4.462608	0.755986	0.000045
  53	5.1740e+00	0.5134	-13.726018	0.000418	4.176019	0.707437	0.000042
  54	5.2735e+00	0.5228	-13.683655	0.000426	4.257902	0.721308	0.000043
  55	5.3730e+00	0.5344	-13.644142	0.000397	3.971312	0.672758	0.000040
  56	5.4725e+00	0.5436	-13.606260	0.000381	3.807547	0.645016	0.000038
  57	5.5720e+00	0.5517	-13.565118	0.000414	4.135078	0.700501	0.000041
  58	5.6715e+00	0.5631	-13.524384	0.000409	4.094136	0.693565	0.000041
  59	5.7710e+00	0.5696	-13.488538	0.000360	3.602840	0.610338	0.000036
  60	5.8705e+00	0.5847	-13.447803	0.000409	4.094136	0.693565	0.000041
  61	5.9700e+00	0.5923	-13.406662	0.000414	4.135078	0.700501	0.000041
  62	6.0695e+00	0.6046	-13.361039	0.000459	4.585433	0.776793	0.000046
  63	6.1690e+00	0.6123	-13.326008	0.000352	3.520957	0.596466	0.000035
  64	6.2685e+00	0.6214	-13.284866	0.000414	4.135078	0.700501	0.000041
  65	6.3680e+00	0.6326	-13.244539	0.000405	4.053195	0.686630	0.000041
  66	6.4675e+00	0.6428	-13.205435	0.000393	3.930371	0.665823	0.000039
  67	6.5670e+00	0.6531	-13.169181	0.000364	3.643781	0.617273	0.000036
  68	6.6665e+00	0.6636	-13.124781	0.000446	4.462608	0.755986	0.000045
  69	6.7660e+00	0.6692	-13.084861	0.000401	4.012254	0.679694	0.000040
  70	6.8655e+00	0.6800	-13.051052	0.000340	3.398133	0.575659	0.000034
  71	6.9650e+00	0.6968	-13.013984	0.000373	3.725664	0.631145	0.000037
  72	7.0645e+00	0.7020	-12.972027	0.000422	4.216960	0.714372	0.000042
  73	7.1640e+00	0.7112	-12.932922	0.000393	3.930371	0.665823	0.000039
  74	7.2635e+00	0.7224	-12.895039	0.000381	3.807547	0.645016	0.000038
  75	7.3630e+00	0.7320	-12.855120	0.000401	4.012254	0.679694	0.000040
  76	7.4625e+00	0.7436	-12.815200	0.000401	4.012254	0.679694	0.000040
  77	7.5620e+00	0.7508	-12.778540	0.000368	3.684723	0.624209	0.000037
  78	7.6615e+00	0.7630	-12.737805	0.000409	4.094136	0.693565	0.000041
  79	7.7610e+00	0.7767	-12.699108	0.000389	3.889429	0.658887	0.000039
  80	7.8605e+00	0.7827	-12.661632	0.000377	3.766605	0.638080	0.000038
  81	7.9600e+00	0.7903	-12.621305	0.000405	4.053195	0.686630	0.000041
  82	8.0595e+00	0.8000	-12.582200	0.000393	3.930371	0.665823	0.000039
  83	8.1590e+00	0.8142	-12.539837	0.000426	4.257902	0.721308	0.000043
  84	8.2585e+00	0.8208	-12.501547	0.000385	3.848488	0.651952	0.000038
  85	8.3580e+00	0.8311	-12.461220	0.000405	4.053195	0.686630	0.000041
  86	8.4575e+00	0.8430	-12.418041	0.000434	4.339784	0.735179	0.000043
  87	8.5570e+00	0.8508	-12.383825	0.000344	3.439074	0.582595	0.000034
  88	8.6565e+00	0.8593	-12.343905	0.000401	4.012254	0.679694	0.000040
  89	8.7560e+00	0.8716	-12.301134	0.000430	4.298843	0.728244	0.000043
  90	8.8555e+00	0.8820	-12.263659	0.000377	3.766605	0.638080	0.000038
  91	8.9550e+00	0.8901	-12.226998	0.000368	3.684723	0.624209	0.000037
  92	9.0545e+00	0.9003	-12.185856	0.000414	4.135078	0.700501	0.000041
  93	9.1540e+00	0.9116	-12.146751	0.000393	3.930371	0.665823	0.000039
  94	9.2535e+00	0.9248	-12.104795	0.000422	4.216960	0.714372	0.000042
  95	9.3530e+00	0.9309	-12.070171	0.000348	3.480016	0.589531	0.000035
  96	9.4525e+00	0.9412	-12.028622	0.000418	4.176019	0.707437	0.000042
  97	9.5520e+00	0.9502	-11.992368	0.000364	3.643781	0.617273	0.000036
  98	9.6515e+00	0.9600	-11.950819	0.000418	4.176019	0.707437	0.000042
  99	9.7510e+00	0.9725	-11.910493	0.000405	4.053195	0.686630	0.000041
 100	9.8505e+00	0.9822	-11.876683	0.000340	3.398133	0.575659	0.000034
 101	9.9500e+00	0.9878	-11.833912	0.000430	4.298843	0.728244	0.000043
 102	1.0050e+01	0.9986	-11.796029	0.000381	3.807547	0.645016	0.000038
 103	1.0149e+01	1.0105	-11.754480	0.000418	4.176019	0.707437	0.000042
 104	1.0248e+01	1.0207	-11.719856	0.000348	3.480016	0.589531	0.000035
 105	1.0348e+01	1.0294	-11.680751	0.000393	3.930371	0.665823	0.000039
 106	1.0447e+01	1.0393	-11.644905	0.000360	3.602840	0.610338	0.000036
 107	1.0547e+01	1.0522	-11.602134	0.000430	4.298843	0.728244	0.000043
 108	1.0646e+01	1.0593	-11.564659	0.000377	3.766605	0.638080	0.000038
 109	1.0746e+01	1.0755	-11.524332	0.000405	4.053195	0.686630	0.000041
 110	1.0845e+01	1.0806	-11.482376	0.000422	4.216960	0.714372	0.000042
 111	1.0945e+01	1.0901	-11.447751	0.000348	3.480016	0.589531	0.000035
 112	1.1044e+01	1.0966	-11.404980	0.000430	4.298843	0.728244	0.000043
 113	1.1144e+01	1.1137	-11.365876	0.000393	3.930371	0.665823	0.000039
 114	1.1243e+01	1.1184	-11.325956	0.000401	4.012254	0.679694	0.000040
 115	1.1343e+01	1.1289	-11.289295	0.000368	3.684723	0.624209	0.000037
 116	1.1443e+01	1.1380	-11.246932	0.000426	4.257902	0.721308	0.000043
 117	1.1542e+01	1.1504	-11.214344	0.000328	3.275309	0.554852	0.000033
 118	1.1642e+01	1.1633	-11.173203	0.000414	4.135078	0.700501	0.000041
 119	1.1741e+01	1.1696	-11.135727	0.000377	3.766605	0.638080	0.000038
 120	1.1841e+01	1.1808	-11.092141	0.000438	4.380726	0.742115	0.000044
 121	1.1940e+01	1.1887	-11.055888	0.000364	3.643781	0.617273	0.000036
 122	1.2040e+01	1.1996	-11.018412	0.000377	3.766605	0.638080	0.000038
 123	1.2139e+01	1.2132	-10.982159	0.000364	3.643781	0.617273	0.000036
 124	1.2239e+01	1.2241	-10.941425	0.000409	4.094136	0.693565	0.000041
 125	1.2338e+01	1.2312	-10.903949	0.000377	3.766605	0.638080	0.000038
 126	1.2438e+01	1.2402	-10.864437	0.000397	3.971312	0.672758	0.000040
 127	1.2537e+01	1.2485	-10.823295	0.000414	4.135078	0.700501	0.000041
 128	1.2636e+01	1.2588	-10.785412	0.000381	3.807547	0.645016	0.000038
 129	1.2736e+01	1.2674	-10.748344	0.000373	3.725664	0.631145	0.000037
 130	1.2835e+01	1.2795	-10.708425	0.000401	4.012254	0.679694	0.000040
 131	1.2935e+01	1.2885	-10.670542	0.000381	3.807547	0.645016	0.000038
 132	1.3034e+01	1.2995	-10.640398	0.000303	3.029661	0.513238	0.000030
 133	1.3134e+01	1.3102	-10.599257	0.000414	4.135078	0.700501	0.000041
 134	1.3233e+01	1.3172	-10.559337	0.000401	4.012254	0.679694	0.000040
 135	1.3333e+01	1.3295	-10.527157	0.000323	3.234368	0.547917	0.000032
 136	1.3432e+01	1.3393	-10.488052	0.000393	3.930371	0.665823	0.000039
 137	1.3532e+01	1.3459	-10.450984	0.000373	3.725664	0.631145	0.000037
 138	1.3632e+01	1.3601	-10.415138	0.000360	3.602840	0.610338	0.000036
 139	1.3731e+01	1.3683	-10.376440	0.000389	3.889429	0.658887	0.000039
 140	1.3831e+01	1.3790	-10.334484	0.000422	4.216960	0.714372	0.000042
 141	1.3930e+01	1.3885	-10.299453	0.000352	3.520957	0.596466	0.000035
 142	1.4030e+01	1.3970	-10.259941	0.000397	3.971312	0.672758	0.000040
 143	1.4129e+01	1.4113	-10.222872	0.000373	3.725664	0.631145	0.000037
 144	1.4229e+01	1.4168	-10.185804	0.000373	3.725664	0.631145	0.000037
 145	1.4328e+01	1.4298	-10.150365	0.000356	3.561899	0.603402	0.000036
 146	1.4428e+01	1.4367	-10.107594	0.000430	4.298843	0.728244	0.000043
 147	1.4527e+01	1.4487	-10.072156	0.000356	3.561899	0.603402	0.000036
 148	1.4627e+01	1.4581	-10.030199	0.000422	4.216960	0.714372	0.000042
 149	1.4726e+01	1.4657	-9.996797	0.000336	3.357192	0.568724	0.000034
 150	1.4825e+01	1.4787	-9.958100	0.000389	3.889429	0.658887	0.000039
 151	1.4925e+01	1.4865	-9.919809	0.000385	3.848488	0.651952	0.000038
 152	1.5024e+01	1.4956	-9.876631	0.000434	4.339784	0.735179	0.000043
 153	1.5124e+01	1.5096	-9.842414	0.000344	3.439074	0.582595	0.000034
 154	1.5223e+01	1.5199	-9.798421	0.000442	4.421667	0.749051	0.000044
 155	1.5323e+01	1.5280	-9.759724	0.000389	3.889429	0.658887	0.000039
 156	1.5422e+01	1.5358	-9.723063	0.000368	3.684723	0.624209	0.000037
 157	1.5522e+01	1.5493	-9.678255	0.000450	4.503550	0.762922	0.000045
 158	1.5621e+01	1.5585	-9.642817	0.000356	3.561899	0.603402	0.000036
 159	1.5721e+01	1.5691	-9.605341	0.000377	3.766605	0.638080	0.000038
 160	1.5820e+01	1.5806	-9.565829	0.000397	3.971312	0.672758	0.000040
 161	1.5920e+01	1.5888	-9.527946	0.000381	3.807547	0.645016	0.000038
 162	1.6020e+01	1.5992	-9.490470	0.000377	3.766605	0.638080	0.000038
 163	1.6119e+01	1.6080	-9.452180	0.000385	3.848488	0.651952	0.000038
 164	1.6218e+01	1.6152	-9.417149	0.000352	3.520957	0.596466	0.000035
 165	1.6318e+01	1.6259	-9.376415	0.000409	4.094136	0.693565	0.000041
 166	1.6418e+01	1.6388	-9.336495	0.000401	4.012254	0.679694	0.000040
 167	1.6517e+01	1.6457	-9.301056	0.000356	3.561899	0.603402	0.000036
 168	1.6616e+01	1.6569	-9.266839	0.000344	3.439074	0.582595	0.000034
 169	1.6716e+01	1.6662	-9.227734	0.000393	3.930371	0.665823	0.000039
 170	1.6816e+01	1.6767	-9.192296	0.000356	3.561899	0.603402	0.000036
 171	1.6915e+01	1.6869	-9.148710	0.000438	4.380726	0.742115	0.000044
 172	1.7015e+01	1.6958	-9.114086	0.000348	3.480016	0.589531	0.000035
 173	1.7114e+01	1.7085	-9.076203	0.000381	3.807547	0.645016	0.000038
 174	1.7213e+01	1.7144	-9.037098	0.000393	3.930371	0.665823	0.000039
 175	1.7313e+01	1.7258	-9.003696	0.000336	3.357192	0.568724	0.000034
 176	1.7413e+01	1.7355	-8.961740	0.000422	4.216960	0.714372	0.000042
 177	1.7512e+01	1.7464	-8.923450	0.000385	3.848488	0.651952	0.000038
 178	1.7611e+01	1.7561	-8.888011	0.000356	3.561899	0.603402	0.000036
 179	1.7711e+01	1.7675	-8.852165	0.000360	3.602840	0.610338	0.000036
 180	1.7811e+01	1.7774	-8.815911	0.000364	3.643781	0.617273	0.000036
 181	1.7910e+01	1.7866	-8.775584	0.000405	4.053195	0.686630	0.000041
 182	1.8009e+01	1.7957	-8.741367	0.000344	3.439074	0.582595	0.000034
 183	1.8109e+01	1.8069	-8.701855	0.000397	3.971312	0.672758	0.000040
 184	1.8209e+01	1.8144	-8.666009	0.000360	3.602840	0.610338	0.000036
 185	1.8308e+01	1.8269	-8.624053	0.000422	4.216960	0.714372	0.000042
 186	1.8407e+01	1.8367	-8.588207	0.000360	3.602840	0.610338	0.000036
 187	1.8507e+01	1.8456	-8.551546	0.000368	3.684723	0.624209	0.000037
 188	1.8607e+01	1.8552	-8.512441	0.000393	3.930371	0.665823	0.000039
 189	1.8706e+01	1.8635	-8.477817	0.000348	3.480016	0.589531	0.000035
 190	1.8805e+01	1.8743	-8.438305	0.000397	3.971312	0.672758	0.000040
 191	1.8905e+01	1.8874	-8.403681	0.000348	3.480016	0.589531	0.000035
 192	1.9005e+01	1.8951	-8.362539	0.000414	4.135078	0.700501	0.000041
 193	1.9104e+01	1.9044	-8.329137	0.000336	3.357192	0.568724	0.000034
 194	1.9203e+01	1.9154	-8.294920	0.000344	3.439074	0.582595	0.000034
 195	1.9303e+01	1.9233	-8.258259	0.000368	3.684723	0.624209	0.000037
 196	1.9402e+01	1.9376	-8.215896	0.000426	4.257902	0.721308	0.000043
 197	1.9502e+01	1.9485	-8.184123	0.000319	3.193426	0.540981	0.000032
 198	1.9602e+01	1.9540	-8.144611	0.000397	3.971312	0.672758	0.000040
 199	1.9701e+01	1.9660	-8.108765	0.000360	3.602840	0.610338	0.000036
 200	1.9800e+01	1.9775	-8.070882	0.000381	3.807547	0.645016	0.000038
 201	1.9900e+01	1.9868	-8.032999	0.000381	3.807547	0.645016	0.000038
 202	2.0000e+01	1.9958	-7.995931	0.000373	3.725664	0.631145	0.000037
 203	2.0099e+01	2.0064	-7.960899	0.000352	3.520957	0.596466	0.000035
 204	2.0198e+01	2.0157	-7.926682	0.000344	3.439074	0.582595	0.000034
 205	2.0298e+01	2.0257	-7.887985	0.000389	3.889429	0.658887	0.000039
 206	2.0398e+01	2.0359	-7.854583	0.000336	3.357192	0.568724	0.000034
 207	2.0497e+01	2.0439	-7.814663	0.000401	4.012254	0.679694	0.000040
 208	2.0596e+01	2.0547	-7.780446	0.000344	3.439074	0.582595	0.000034
 209	2.0696e+01	2.0645	-7.741342	0.000393	3.930371	0.665823	0.000039
 210	2.0796e+01	2.0755	-7.703459	0.000381	3.807547	0.645016	0.000038
 211	2.0895e+01	2.0879	-7.672501	0.000311	3.111544	0.527110	0.000031
 212	2.0994e+01	2.0982	-7.632174	0.000405	4.053195	0.686630	0.000041
 213	2.1094e+01	2.1030	-7.596735	0.000356	3.561899	0.603402	0.000036
 214	2.1194e+01	2.1159	-7.556815	0.000401	4.012254	0.679694	0.000040
 215	2.1293e+01	2.1252	-7.520969	0.000360	3.602840	0.610338	0.000036
 216	2.1392e+01	2.1349	-7.484308	0.000368	3.684723	0.624209	0.000037
 217	2.1492e+01	2.1457	-7.447240	0.000373	3.725664	0.631145	0.000037
 218	2.1591e+01	2.1556	-7.410987	0.000364	3.643781	0.617273	0.000036
 219	2.1691e+01	2.1650	-7.373511	0.000377	3.766605	0.638080	0.000038
 220	2.1791e+01	2.1754	-7.333592	0.000401	4.012254	0.679694	0.000040
 221	2.1890e+01	2.1858	-7.294894	0.000389	3.889429	0.658887	0.000039
 222	2.1989e+01	2.1925	-7.259455	0.000356	3.561899	0.603402	0.000036
 223	2.2089e+01	2.2044	-7.221165	0.000385	3.848488	0.651952	0.000038
 224	2.2189e+01	2.2131	-7.186541	0.000348	3.480016	0.589531	0.000035
 225	2.2288e+01	2.2260	-7.153546	0.000332	3.316250	0.561788	0.000033
 226	2.2387e+01	2.2337	-7.114441	0.000393	3.930371	0.665823	0.000039
 227	2.2487e+01	2.2462	-7.083483	0.000311	3.111544	0.527110	0.000031
 228	2.2587e+01	2.2533	-7.044378	0.000393	3.930371	0.665823	0.000039
 229	2.2686e+01	2.2640	-7.010976	0.000336	3.357192	0.568724	0.000034
 230	2.2785e+01	2.2740	-6.969835	0.000414	4.135078	0.700501	0.000041
 231	2.2885e+01	2.2831	-6.932767	0.000373	3.725664	0.631145	0.000037
 232	2.2985e+01	2.2891	-6.899364	0.000336	3.357192	0.568724	0.000034
 233	2.3084e+01	2.3040	-6.864740	0.000348	3.480016	0.589531	0.000035
 234	2.3183e+01	2.3159	-6.826857	0.000381	3.807547	0.645016	0.000038
 235	2.3283e+01	2.3220	-6.796714	0.000303	3.029661	0.513238	0.000030
 236	2.3383e+01	2.3353	-6.758424	0.000385	3.848488	0.651952	0.000038
 237	2.3482e+01	2.3454	-6.723800	0.000348	3.480016	0.589531	0.000035
 238	2.3581e+01	2.3542	-6.690398	0.000336	3.357192	0.568724	0.000034
 239	2.3681e+01	2.3629	-6.657810	0.000328	3.275309	0.554852	0.000033
 240	2.3780e+01	2.3744	-6.619927	0.000381	3.807547	0.645016	0.000038
 241	2.3880e+01	2.3830	-6.585711	0.000344	3.439074	0.582595	0.000034
 242	2.3980e+01	2.3929	-6.553938	0.000319	3.193426	0.540981	0.000032
 243	2.4079e+01	2.4056	-6.516462	0.000377	3.766605	0.638080	0.000038
 244	2.4178e+01	2.4149	-6.482653	0.000340	3.398133	0.575659	0.000034
 245	2.4278e+01	2.4252	-6.448436	0.000344	3.439074	0.582595	0.000034
 246	2.4378e+01	2.4392	-6.412183	0.000364	3.643781	0.617273	0.000036
 247	2.4477e+01	2.4454	-6.374300	0.000381	3.807547	0.645016	0.000038
 248	2.4576e+01	2.4522	-6.338454	0.000360	3.602840	0.610338	0.000036
 249	2.4676e+01	2.4657	-6.303015	0.000356	3.561899	0.603402	0.000036
 250	2.4776e+01	2.4738	-6.268391	0.000348	3.480016	0.589531	0.000035
 251	2.4875e+01	2.4847	-6.235396	0.000332	3.316250	0.561788	0.000033
 252	2.4974e+01	2.4938	-6.197513	0.000381	3.807547	0.645016	0.000038
 253	2.5074e+01	2.5028	-6.162889	0.000348	3.480016	0.589531	0.000035
 254	2.5174e+01	2.5140	-6.126228	0.000368	3.684723	0.624209	0.000037
 255	2.5273e+01	2.5238	-6.093234	0.000332	3.316250	0.561788	0.000033
 256	2.5372e+01	2.5356	-6.058609	0.000348	3.480016	0.589531	0.000035
 257	2.5472e+01	2.5427	-6.022763	0.000360	3.602840	0.610338	0.000036
 258	2.5572e+01	2.5517	-5.988139	0.000348	3.480016	0.589531	0.000035
 259	2.5671e+01	2.5640	-5.955959	0.000323	3.234368	0.547917	0.000032
 260	2.5770e+01	2.5713	-5.919706	0.000364	3.643781	0.617273	0.000036
 261	2.5870e+01	2.5819	-5.883045	0.000368	3.684723	0.624209	0.000037
 262	2.5970e+01	2.5903	-5.847606	0.000356	3.561899	0.603402	0.000036
 263	2.6069e+01	2.6046	-5.812167	0.000356	3.561899	0.603402	0.000036
 264	2.6169e+01	2.6148	-5.777543	0.000348	3.480016	0.589531	0.000035
 265	2.6268e+01	2.6244	-5.743326	0.000344	3.439074	0.582595	0.000034
 266	2.6367e+01	2.6365	-5.710739	0.000328	3.275309	0.554852	0.000033
 267	2.6467e+01	2.6420	-5.672041	0.000389	3.889429	0.658887	0.000039
 268	2.6567e+01	2.6526	-5.636195	0.000360	3.602840	0.610338	0.000036
 269	2.6666e+01	2.6640	-5.602386	0.000340	3.398133	0.575659	0.000034
 270	2.6765e+01	2.6714	-5.566947	0.000356	3.561899	0.603402	0.000036
 271	2.6865e+01	2.6803	-5.532730	0.000344	3.439074	0.582595	0.000034
 272	2.6965e+01	2.6931	-5.503809	0.000291	2.906837	0.492431	0.000029
 273	2.7064e+01	2.7007	-5.466333	0.000377	3.766605	0.638080	0.000038
 274	2.7163e+01	2.7129	-5.431709	0.000348	3.480016	0.589531	0.000035
 275	2.7263e+01	2.7233	-5.396270	0.000356	3.561899	0.603402	0.000036
 276	2.7363e+01	2.7331	-5.356351	0.000401	4.012254	0.679694	0.000040
 277	2.7462e+01	2.7421	-5.328652	0.000278	2.784013	0.471625	0.000028
 278	2.7561e+01	2.7522	-5.289139	0.000397	3.971312	0.672758	0.000040
 279	2.7661e+01	2.7608	-5.254515	0.000348	3.480016	0.589531	0.000035
 280	2.7761e+01	2.7709	-5.220706	0.000340	3.398133	0.575659	0.000034
 281	2.7860e+01	2.7820	-5.186082	0.000348	3.480016	0.589531	0.000035
 282	2.7959e+01	2.7895	-5.153087	0.000332	3.316250	0.561788	0.000033
 283	2.8059e+01	2.8024	-5.116019	0.000373	3.725664	0.631145	0.000037
 284	2.8159e+01	2.8126	-5.079358	0.000368	3.684723	0.624209	0.000037
 285	2.8258e+01	2.8217	-5.046363	0.000332	3.316250	0.561788	0.000033
 286	2.8358e+01	2.8333	-5.010517	0.000360	3.602840	0.610338	0.000036
 287	2.8457e+01	2.8394	-4.978744	0.000319	3.193426	0.540981	0.000032
 288	2.8556e+01	2.8493	-4.940047	0.000389	3.889429	0.658887	0.000039
 289	2.8656e+01	2.8627	-4.907459	0.000328	3.275309	0.554852	0.000033
 290	2.8756e+01	2.8701	-4.875279	0.000323	3.234368	0.547917	0.000032
 291	2.8855e+01	2.8812	-4.839026	0.000364	3.643781	0.617273	0.000036
 292	2.8954e+01	2.8903	-4.804402	0.000348	3.480016	0.589531	0.000035
 293	2.9054e+01	2.9002	-4.769778	0.000348	3.480016	0.589531	0.000035
 294	2.9154e+01	2.9108	-4.736783	0.000332	3.316250	0.561788	0.000033
 295	2.9253e+01	2.9215	-4.698493	0.000385	3.848488	0.651952	0.000038
 296	2.9352e+01	2.9316	-4.663869	0.000348	3.480016	0.589531	0.000035
 297	2.9452e+01	2.9420	-4.627615	0.000364	3.643781	0.617273	0.000036
 298	2.9552e+01	2.9529	-4.594620	0.000332	3.316250	0.561788	0.000033
 299	2.9651e+01	2.9621	-4.562033	0.000328	3.275309	0.554852	0.000033
 300	2.9750e+01	2.9704	-4.530260	0.000319	3.193426	0.540981	0.000032
 301	2.9850e+01	2.9805	-4.496043	0.000344	3.439074	0.582595	0.000034
 302	2.9950e+01	2.9897	-4.464271	0.000319	3.193426	0.540981	0.000032
 303	3.0049e+01	3.0009	-4.430054	0.000344	3.439074	0.582595	0.000034
 304	3.0148e+01	3.0094	-4.398281	0.000319	3.193426	0.540981	0.000032
 305	3.0248e+01	3.0228	-4.365694	0.000328	3.275309	0.554852	0.000033
 306	3.0348e+01	3.0303	-4.332292	0.000336	3.357192	0.568724	0.000034
 307	3.0447e+01	3.0437	-4.302556	0.000299	2.988719	0.506303	0.000030
 308	3.0547e+01	3.0494	-4.264673	0.000381	3.807547	0.645016	0.000038
 309	3.0646e+01	3.0595	-4.228012	0.000368	3.684723	0.624209	0.000037
 310	3.0745e+01	3.0703	-4.196239	0.000319	3.193426	0.540981	0.000032
 311	3.0845e+01	3.0801	-4.161208	0.000352	3.520957	0.596466	0.000035
 312	3.0945e+01	3.0912	-4.126584	0.000348	3.480016	0.589531	0.000035
 313	3.1044e+01	3.0997	-4.092367	0.000344	3.439074	0.582595	0.000034
 314	3.1143e+01	3.1106	-4.059780	0.000328	3.275309	0.554852	0.000033
 315	3.1243e+01	3.1207	-4.024748	0.000352	3.520957	0.596466	0.000035
 316	3.1343e+01	3.1300	-3.994605	0.000303	3.029661	0.513238	0.000030
 317	3.1442e+01	3.1393	-3.958351	0.000364	3.643781	0.617273	0.000036
 318	3.1541e+01	3.1481	-3.924542	0.000340	3.398133	0.575659	0.000034
 319	3.1641e+01	3.1594	-3.886252	0.000385	3.848488	0.651952	0.000038
 320	3.1741e+01	3.1699	-3.852035	0.000344	3.439074	0.582595	0.000034
 321	3.1840e+01	3.1802	-3.815374	0.000368	3.684723	0.624209	0.000037
 322	3.1939e+01	3.1907	-3.781565	0.000340	3.398133	0.575659	0.000034
 323	3.2039e+01	3.2021	-3.746940	0.000348	3.480016	0.589531	0.000035
 324	3.2139e+01	3.2100	-3.709058	0.000381	3.807547	0.645016	0.000038
 325	3.2238e+01	3.2184	-3.675248	0.000340	3.398133	0.575659	0.000034
 326	3.2337e+01	3.2314	-3.640624	0.000348	3.480016	0.589531	0.000035
 327	3.2437e+01	3.2391	-3.608444	0.000323	3.234368	0.547917	0.000032
 328	3.2536e+01	3.2497	-3.574227	0.000344	3.439074	0.582595	0.000034
 329	3.2636e+01	3.2594	-3.540010	0.000344	3.439074	0.582595	0.000034
 330	3.2736e+01	3.2723	-3.505794	0.000344	3.439074	0.582595	0.000034
 331	3.2835e+01	3.2817	-3.470355	0.000356	3.561899	0.603402	0.000036
 332	3.2934e+01	3.2879	-3.437767	0.000328	3.275309	0.554852	0.000033
 333	3.3034e+01	3.2999	-3.405180	0.000328	3.275309	0.554852	0.000033
 334	3.3133e+01	3.3077	-3.368112	0.000373	3.725664	0.631145	0.000037
 335	3.3233e+01	3.3205	-3.337969	0.000303	3.029661	0.513238	0.000030
 336	3.3333e+01	3.3291	-3.302122	0.000360	3.602840	0.610338	0.000036
 337	3.3432e+01	3.3387	-3.266684	0.000356	3.561899	0.603402	0.000036
 338	3.3532e+01	3.3484	-3.236133	0.000307	3.070602	0.520174	0.000031
 339	3.3631e+01	3.3583	-3.200694	0.000356	3.561899	0.603402	0.000036
 340	3.3730e+01	3.3701	-3.166477	0.000344	3.439074	0.582595	0.000034
 341	3.3830e+01	3.3800	-3.135927	0.000307	3.070602	0.520174	0.000031
 342	3.3929e+01	3.3875	-3.101710	0.000344	3.439074	0.582595	0.000034
 343	3.4029e+01	3.3977	-3.067900	0.000340	3.398133	0.575659	0.000034
 344	3.4129e+01	3.4101	-3.032869	0.000352	3.520957	0.596466	0.000035
 345	3.4228e+01	3.4193	-2.994579	0.000385	3.848488	0.651952	0.000038
 346	3.4328e+01	3.4315	-2.964028	0.000307	3.070602	0.520174	0.000031
 347	3.4427e+01	3.4406	-2.929404	0.000348	3.480016	0.589531	0.000035
 348	3.4526e+01	3.4467	-2.899261	0.000303	3.029661	0.513238	0.000030
 349	3.4626e+01	3.4588	-2.869117	0.000303	3.029661	0.513238	0.000030
 350	3.4725e+01	3.4689	-2.829605	0.000397	3.971312	0.672758	0.000040
 351	3.4825e+01	3.4786	-2.797832	0.000319	3.193426	0.540981	0.000032
 352	3.4925e+01	3.4899	-2.768504	0.000295	2.947778	0.499367	0.000029
 353	3.5024e+01	3.4973	-2.729806	0.000389	3.889429	0.658887	0.000039
 354	3.5123e+01	3.5075	-2.698033	0.000319	3.193426	0.540981	0.000032
 355	3.5223e+01	3.5188	-2.664224	0.000340	3.398133	0.575659	0.000034
 356	3.5322e+01	3.5257	-2.632044	0.000323	3.234368	0.547917	0.000032
 357	3.5422e+01	3.5374	-2.598234	0.000340	3.398133	0.575659	0.000034
 358	3.5522e+01	3.5495	-2.561166	0.000373	3.725664	0.631145	0.000037
 359	3.5621e+01	3.5576	-2.528986	0.000323	3.234368	0.547917	0.000032
 360	3.5721e+01	3.5681	-2.500472	0.000287	2.865895	0.485496	0.000029
 361	3.5820e+01	3.5810	-2.463811	0.000368	3.684723	0.624209	0.000037
 362	3.5919e+01	3.5870	-2.432853	0.000311	3.111544	0.527110	0.000031
 363	3.6019e+01	3.6004	-2.397415	0.000356	3.561899	0.603402	0.000036
 364	3.6118e+01	3.6077	-2.368493	0.000291	2.906837	0.492431	0.000029
 365	3.6218e+01	3.6162	-2.336313	0.000323	3.234368	0.547917	0.000032
 366	3.6318e+01	3.6279	-2.302504	0.000340	3.398133	0.575659	0.000034
 367	3.6417e+01	3.6375	-2.268694	0.000340	3.398133	0.575659	0.000034
 368	3.6517e+01	3.6483	-2.232848	0.000360	3.602840	0.610338	0.000036
 369	3.6616e+01	3.6578	-2.197817	0.000352	3.520957	0.596466	0.000035
 370	3.6715e+01	3.6681	-2.167266	0.000307	3.070602	0.520174	0.000031
 371	3.6815e+01	3.6764	-2.134679	0.000328	3.275309	0.554852	0.000033
 372	3.6914e+01	3.6874	-2.103313	0.000315	3.152485	0.534045	0.000032
 373	3.7014e+01	3.6983	-2.067874	0.000356	3.561899	0.603402	0.000036
 374	3.7114e+01	3.7067	-2.037731	0.000303	3.029661	0.513238	0.000030
 375	3.7213e+01	3.7179	-2.001070	0.000368	3.684723	0.624209	0.000037
 376	3.7313e+01	3.7246	-1.970927	0.000303	3.029661	0.513238	0.000030
 377	3.7412e+01	3.7362	-1.938747	0.000323	3.234368	0.547917	0.000032
 378	3.7511e+01	3.7481	-1.906159	0.000328	3.275309	0.554852	0.000033
 379	3.7611e+01	3.7600	-1.872757	0.000336	3.357192	0.568724	0.000034
 380	3.7711e+01	3.7660	-1.841392	0.000315	3.152485	0.534045	0.000032
 381	3.7810e+01	3.7780	-1.807990	0.000336	3.357192	0.568724	0.000034
 382	3.7910e+01	3.7865	-1.778254	0.000299	2.988719	0.506303	0.000030
 383	3.8009e+01	3.7942	-1.743630	0.000348	3.480016	0.589531	0.000035
 384	3.8108e+01	3.8093	-1.709413	0.000344	3.439074	0.582595	0.000034
 385	3.8208e+01	3.8145	-1.677233	0.000323	3.234368	0.547917	0.000032
 386	3.8307e+01	3.8268	-1.643424	0.000340	3.398133	0.575659	0.000034
 387	3.8407e+01	3.8377	-1.609207	0.000344	3.439074	0.582595	0.000034
 388	3.8507e+01	3.8450	-1.574175	0.000352	3.520957	0.596466	0.000035
 389	3.8606e+01	3.8543	-1.537922	0.000364	3.643781	0.617273	0.000036
 390	3.8706e+01	3.8686	-1.503705	0.000344	3.439074	0.582595	0.000034
 391	3.8805e+01	3.8759	-1.476413	0.000274	2.743071	0.464689	0.000027
 392	3.8904e+01	3.8866	-1.440974	0.000356	3.561899	0.603402	0.000036
 393	3.9004e+01	3.8992	-1.411238	0.000299	2.988719	0.506303	0.000030
 394	3.9103e+01	3.9071	-1.381910	0.000295	2.947778	0.499367	0.000029
 395	3.9203e+01	3.9152	-1.343212	0.000389	3.889429	0.658887	0.000039
 396	3.9303e+01	3.9271	-1.314698	0.000287	2.865895	0.485496	0.000029
 397	3.9402e+01	3.9364	-1.282111	0.000328	3.275309	0.554852	0.000033
 398	3.9502e+01	3.9435	-1.247487	0.000348	3.480016	0.589531	0.000035
 399	3.9601e+01	3.9552	-1.215714	0.000319	3.193426	0.540981	0.000032
 400	3.9700e+01	3.9642	-1.180275	0.000356	3.561899	0.603402	0.000036
 401	3.9800e+01	3.9745	-1.148910	0.000315	3.152485	0.534045	0.000032
 402	3.9900e+01	3.9855	-1.117544	0.000315	3.152485	0.534045	0.000032
 403	3.9999e+01	3.9936	-1.089845	0.000278	2.784013	0.471625	0.000028
 404	4.0099e+01	4.0079	-1.057665	0.000323	3.234368	0.547917	0.000032
 405	4.0198e+01	4.0141	-1.025485	0.000323	3.234368	0.547917	0.000032
 406	4.0297e+01	4.0244	-0.996156	0.000295	2.947778	0.499367	0.000029
 407	4.0397e+01	4.0337	-0.964791	0.000315	3.152485	0.534045	0.000032
 408	4.0496e+01	4.0429	-0.934240	0.000307	3.070602	0.520174	0.000031
 409	4.0596e+01	4.0557	-0.904504	0.000299	2.988719	0.506303	0.000030
 410	4.0696e+01	4.0639	-0.872731	0.000319	3.193426	0.540981	0.000032
 411	4.0795e+01	4.0745	-0.841366	0.000315	3.152485	0.534045	0.000032
 412	4.0895e+01	4.0858	-0.811223	0.000303	3.029661	0.513238	0.000030
 413	4.0994e+01	4.0950	-0.778635	0.000328	3.275309	0.554852	0.000033
 414	4.1093e+01	4.1070	-0.745233	0.000336	3.357192	0.568724	0.000034
 415	4.1193e+01	4.1158	-0.711016	0.000344	3.439074	0.582595	0.000034
 416	4.1292e+01	4.1252	-0.682502	0.000287	2.865895	0.485496	0.000029
 417	4.1392e+01	4.1378	-0.651544	0.000311	3.111544	0.527110	0.000031
 418	4.1492e+01	4.1453	-0.619772	0.000319	3.193426	0.540981	0.000032
 419	4.1591e+01	4.1534	-0.585555	0.000344	3.439074	0.582595	0.000034
 420	4.1691e+01	4.1657	-0.557041	0.000287	2.865895	0.485496	0.000029
 421	4.1790e+01	4.1772	-0.526083	0.000311	3.111544	0.527110	0.000031
 422	4.1889e+01	4.1880	-0.493088	0.000332	3.316250	0.561788	0.000033
 423	4.1989e+01	4.1958	-0.462537	0.000307	3.070602	0.520174	0.000031
 424	4.2089e+01	4.2066	-0.426691	0.000360	3.602840	0.610338	0.000036
 425	4.2188e+01	4.2159	-0.398177	0.000287	2.865895	0.485496	0.000029
 426	4.2288e+01	4.2240	-0.367219	0.000311	3.111544	0.527110	0.000031
 427	4.2387e+01	4.2334	-0.335854	0.000315	3.152485	0.534045	0.000032
 428	4.2486e+01	4.2449	-0.300822	0.000352	3.520957	0.596466	0.000035
 429	4.2586e+01	4.2551	-0.273531	0.000274	2.743071	0.464689	0.000027
 430	4.2685e+01	4.2646	-0.236462	0.000373	3.725664	0.631145	0.000037
 431	4.2785e+01	4.2762	-0.207134	0.000295	2.947778	0.499367	0.000029
 432	4.2885e+01	4.2834	-0.176583	0.000307	3.070602	0.520174	0.000031
 433	4.2984e+01	4.2948	-0.142366	0.000344	3.439074	0.582595	0.000034
 434	4.3084e+01	4.3067	-0.110594	0.000319	3.193426	0.540981	0.000032
 435	4.3183e+01	4.3136	-0.080043	0.000307	3.070602	0.520174	0.000031
 436	4.3282e+01	4.3243	-0.049085	0.000311	3.111544	0.527110	0.000031
 437	4.3382e+01	4.3347	-0.020978	0.000282	2.824954	0.478560	0.000028
 438	4.3481e+01	4.3430	0.012831	0.000340	3.398133	0.575659	0.000034
 439	4.3581e+01	4.3547	0.042160	0.000295	2.947778	0.499367	0.000029
 440	4.3681e+01	4.3638	0.072711	0.000307	3.070602	0.520174	0.000031
 441	4.3780e+01	4.3755	0.101632	0.000291	2.906837	0.492431	0.000029
 442	4.3880e+01	4.3790	0.133405	0.000319	3.193426	0.540981	0.000032
 443	4.3979e+01	4.3941	0.166399	0.000332	3.316250	0.561788	0.000033
 444	4.4078e+01	4.4024	0.199802	0.000336	3.357192	0.568724	0.000034
 445	4.4178e+01	4.4133	0.232389	0.000328	3.275309	0.554852	0.000033
 446	4.4278e+01	4.4259	0.264162	0.000319	3.193426	0.540981	0.000032
 447	4.4377e+01	4.4335	0.296749	0.000328	3.275309	0.554852	0.000033
 448	4.4477e+01	4.4401	0.325670	0.000291	2.906837	0.492431	0.000029
 449	4.4576e+01	4.4534	0.355814	0.000303	3.029661	0.513238	0.000030
 450	4.4675e+01	4.4648	0.384735	0.000291	2.906837	0.492431	0.000029
 451	4.4775e+01	4.4743	0.417730	0.000332	3.316250	0.561788	0.000033
 452	4.4874e+01	4.4831	0.451947	0.000344	3.439074	0.582595	0.000034
 453	4.4974e+01	4.4910	0.480053	0.000282	2.824954	0.478560	0.000028
 454	4.5074e+01	4.5036	0.513863	0.000340	3.398133	0.575659	0.000034
 455	4.5173e+01	4.5136	0.545228	0.000315	3.152485	0.534045	0.000032
 456	4.5273e+01	4.5226	0.571705	0.000266	2.661189	0.450818	0.000027
 457	4.5372e+01	4.5334	0.606737	0.000352	3.520957	0.596466	0.000035
 458	4.5471e+01	4.5434	0.636880	0.000303	3.029661	0.513238	0.000030
 459	4.5571e+01	4.5528	0.671097	0.000344	3.439074	0.582595	0.000034
 460	4.5670e+01	4.5629	0.696759	0.000258	2.579306	0.436946	0.000026
 461	4.5770e+01	4.5721	0.730569	0.000340	3.398133	0.575659	0.000034
 462	4.5870e+01	4.5837	0.765193	0.000348	3.480016	0.589531	0.000035
 463	4.5969e+01	4.5939	0.794929	0.000299	2.988719	0.506303	0.000030
 464	4.6069e+01	4.6029	0.827516	0.000328	3.275309	0.554852	0.000033
 465	4.6168e+01	4.6107	0.857660	0.000303	3.029661	0.513238	0.000030
 466	4.6267e+01	4.6189	0.889025	0.000315	3.152485	0.534045	0.000032
 467	4.6367e+01	4.6310	0.915910	0.000270	2.702130	0.457753	0.000027
 468	4.6467e+01	4.6403	0.945646	0.000299	2.988719	0.506303	0.000030
 469	4.6566e+01	4.6534	0.977418	0.000319	3.193426	0.540981	0.000032
 470	4.6666e+01	4.6609	1.004710	0.000274	2.743071	0.464689	0.000027
 471	4.6765e+01	4.6740	1.032817	0.000282	2.824954	0.478560	0.000028
 472	4.6864e+01	4.6824	1.064590	0.000319	3.193426	0.540981	0.000032
 473	4.6964e+01	4.6908	1.092289	0.000278	2.784013	0.471625	0.000028
 474	4.7063e+01	4.7010	1.124876	0.000328	3.275309	0.554852	0.000033
 475	4.7163e+01	4.7122	1.156649	0.000319	3.193426	0.540981	0.000032
 476	4.7263e+01	4.7221	1.187200	0.000307	3.070602	0.520174	0.000031
 477	4.7362e+01	4.7329	1.217751	0.000307	3.070602	0.520174	0.000031
 478	4.7462e+01	4.7430	1.247079	0.000295	2.947778	0.499367	0.000029
 479	4.7561e+01	4.7521	1.281296	0.000344	3.439074	0.582595	0.000034
 480	4.7660e+01	4.7620	1.312254	0.000311	3.111544	0.527110	0.000031
 481	4.7760e+01	4.7713	1.338731	0.000266	2.661189	0.450818	0.000027
 482	4.7859e+01	4.7794	1.372133	0.000336	3.357192	0.568724	0.000034
 483	4.7959e+01	4.7942	1.399425	0.000274	2.743071	0.464689	0.000027
 484	4.8059e+01	4.8024	1.432827	0.000336	3.357192	0.568724	0.000034
 485	4.8158e+01	4.8129	1.460119	0.000274	2.743071	0.464689	0.000027
 486	4.8258e+01	4.8217	1.493929	0.000340	3.398133	0.575659	0.000034
 487	4.8357e+01	4.8321	1.522035	0.000282	2.824954	0.478560	0.000028
 488	4.8456e+01	4.8421	1.558289	0.000364	3.643781	0.617273	0.000036
 489	4.8556e+01	4.8540	1.590876	0.000328	3.275309	0.554852	0.000033
 490	4.8656e+01	4.8608	1.624686	0.000340	3.398133	0.575659	0.000034
 491	4.8755e+01	4.8694	1.654014	0.000295	2.947778	0.499367	0.000029
 492	4.8855e+01	4.8800	1.688231	0.000344	3.439074	0.582595	0.000034
 493	4.8954e+01	4.8901	1.722041	0.000340	3.398133	0.575659	0.000034
 494	4.9053e+01	4.9021	1.748518	0.000266	2.661189	0.450818	0.000027
 495	4.9153e+01	4.9108	1.783549	0.000352	3.520957	0.596466	0.000035
 496	4.9252e+01	4.9222	1.812471	0.000291	2.906837	0.492431	0.000029
 497	4.9352e+01	4.9332	1.840170	0.000278	2.784013	0.471625	0.000028
 498	4.9452e+01	4.9420	1.873165	0.000332	3.316250	0.561788	0.000033
 499	4.9551e+01	4.9532	1.903308	0.000303	3.029661	0.513238	0.000030
 500	4.9651e+01	4.9614	1.935081	0.000319	3.193426	0.540981	0.000032
 501	4.9750e+01	4.9702	1.965631	0.000307	3.070602	0.520174	0.000031
 502	4.9849e+01	4.9793	1.995367	0.000299	2.988719	0.506303	0.000030
 503	4.9949e+01	4.9908	2.026733	0.000315	3.152485	0.534045	0.000032
 504	5.0048e+01	5.0005	2.057284	0.000307	3.070602	0.520174	0.000031
 505	5.0148e+01	5.0084	2.087427	0.000303	3.029661	0.513238	0.000030
 506	5.0248e+01	5.0222	2.122051	0.000348	3.480016	0.589531	0.000035
 507	5.0347e+01	5.0306	2.147306	0.000254	2.538364	0.430011	0.000025
 508	5.0447e+01	5.0397	2.179894	0.000328	3.275309	0.554852	0.000033
 509	5.0546e+01	5.0505	2.207593	0.000278	2.784013	0.471625	0.000028
 510	5.0645e+01	5.0607	2.241402	0.000340	3.398133	0.575659	0.000034
 511	5.0745e+01	5.0672	2.268694	0.000274	2.743071	0.464689	0.000027
 512	5.0844e+01	5.0808	2.302911	0.000344	3.439074	0.582595	0.000034
 513	5.0944e+01	5.0915	2.331018	0.000282	2.824954	0.478560	0.000028
 514	5.1044e+01	5.1006	2.360754	0.000299	2.988719	0.506303	0.000030
 515	5.1143e+01	5.1097	2.390490	0.000299	2.988719	0.506303	0.000030
 516	5.1242e+01	5.1208	2.418189	0.000278	2.784013	0.471625	0.000028
 517	5.1342e+01	5.1337	2.452406	0.000344	3.439074	0.582595	0.000034
 518	5.1441e+01	5.1412	2.478883	0.000266	2.661189	0.450818	0.000027
 519	5.1541e+01	5.1476	2.510248	0.000315	3.152485	0.534045	0.000032
 520	5.1641e+01	5.1598	2.538762	0.000287	2.865895	0.485496	0.000029
 521	5.1740e+01	5.1703	2.568498	0.000299	2.988719	0.506303	0.000030
 522	5.1840e+01	5.1786	2.602715	0.000344	3.439074	0.582595	0.000034
 523	5.1939e+01	5.1900	2.634895	0.000323	3.234368	0.547917	0.000032
 524	5.2038e+01	5.2014	2.669112	0.000344	3.439074	0.582595	0.000034
 525	5.2138e+01	5.2090	2.696404	0.000274	2.743071	0.464689	0.000027
 526	5.2237e+01	5.2213	2.728177	0.000319	3.193426	0.540981	0.000032
 527	5.2337e+01	5.2308	2.757505	0.000295	2.947778	0.499367	0.000029
 528	5.2437e+01	5.2389	2.782353	0.000250	2.497423	0.423075	0.000025
 529	5.2536e+01	5.2515	2.814533	0.000323	3.234368	0.547917	0.000032
 530	5.2636e+01	5.2621	2.844677	0.000303	3.029661	0.513238	0.000030
 531	5.2735e+01	5.2677	2.874820	0.000303	3.029661	0.513238	0.000030
 532	5.2834e+01	5.2795	2.904963	0.000303	3.029661	0.513238	0.000030
 533	5.2934e+01	5.2927	2.932663	0.000278	2.784013	0.471625	0.000028
 534	5.3033e+01	5.2995	2.965657	0.000332	3.316250	0.561788	0.000033
 535	5.3133e+01	5.3107	2.994579	0.000291	2.906837	0.492431	0.000029
 536	5.3233e+01	5.3170	3.024315	0.000299	2.988719	0.506303	0.000030
 537	5.3332e+01	5.3294	3.052421	0.000282	2.824954	0.478560	0.000028
 538	5.3431e+01	5.3414	3.081343	0.000291	2.906837	0.492431	0.000029
 539	5.3531e+01	5.3471	3.115560	0.000344	3.439074	0.582595	0.000034
 540	5.3630e+01	5.3598	3.144481	0.000291	2.906837	0.492431	0.000029
 541	5.3730e+01	5.3731	3.174624	0.000303	3.029661	0.513238	0.000030
 542	5.3830e+01	5.3826	3.203545	0.000291	2.906837	0.492431	0.000029
 543	5.3929e+01	5.3872	3.236948	0.000336	3.357192	0.568724	0.000034
 544	5.4029e+01	5.3982	3.263018	0.000262	2.620247	0.443882	0.000026
 545	5.4128e+01	5.4095	3.291939	0.000291	2.906837	0.492431	0.000029
 546	5.4227e+01	5.4192	3.317601	0.000258	2.579306	0.436946	0.000026
 547	5.4327e+01	5.4273	3.350596	0.000332	3.316250	0.561788	0.000033
 548	5.4426e+01	5.4388	3.381554	0.000311	3.111544	0.527110	0.000031
 549	5.4526e+01	5.4488	3.411290	0.000299	2.988719	0.506303	0.000030
 550	5.4626e+01	5.4562	3.441026	0.000299	2.988719	0.506303	0.000030
 551	5.4725e+01	5.4696	3.471984	0.000311	3.111544	0.527110	0.000031
 552	5.4825e+01	5.4766	3.502942	0.000311	3.111544	0.527110	0.000031
 553	5.4924e+01	5.4899	3.532271	0.000295	2.947778	0.499367	0.000029
 554	5.5023e+01	5.4993	3.566080	0.000340	3.398133	0.575659	0.000034
 555	5.5123e+01	5.5075	3.597038	0.000311	3.111544	0.527110	0.000031
 556	5.5222e+01	5.5196	3.623516	0.000266	2.661189	0.450818	0.000027
 557	5.5322e+01	5.5296	3.657325	0.000340	3.398133	0.575659	0.000034
 558	5.5422e+01	5.5420	3.689913	0.000328	3.275309	0.554852	0.000033
 559	5.5521e+01	5.5464	3.714353	0.000246	2.456482	0.416139	0.000025
 560	5.5620e+01	5.5575	3.743274	0.000291	2.906837	0.492431	0.000029
 561	5.5720e+01	5.5659	3.771788	0.000287	2.865895	0.485496	0.000029
 562	5.5819e+01	5.5788	3.803154	0.000315	3.152485	0.534045	0.000032
 563	5.5919e+01	5.5860	3.827187	0.000242	2.415540	0.409204	0.000024
 564	5.6019e+01	5.5990	3.860996	0.000340	3.398133	0.575659	0.000034
 565	5.6118e+01	5.6091	3.893584	0.000328	3.275309	0.554852	0.000033
 566	5.6218e+01	5.6172	3.921283	0.000278	2.784013	0.471625	0.000028
 567	5.6317e+01	5.6298	3.954685	0.000336	3.357192	0.568724	0.000034
 568	5.6416e+01	5.6362	3.979940	0.000254	2.538364	0.430011	0.000025
 569	5.6516e+01	5.6467	4.010491	0.000307	3.070602	0.520174	0.000031
 570	5.6615e+01	5.6580	4.036154	0.000258	2.579306	0.436946	0.000026
 571	5.6715e+01	5.6676	4.066297	0.000303	3.029661	0.513238	0.000030
 572	5.6815e+01	5.6769	4.092367	0.000262	2.620247	0.443882	0.000026
 573	5.6914e+01	5.6858	4.120474	0.000282	2.824954	0.478560	0.000028
 574	5.7014e+01	5.6988	4.146951	0.000266	2.661189	0.450818	0.000027
 575	5.7113e+01	5.7080	4.177094	0.000303	3.029661	0.513238	0.000030
 576	5.7212e+01	5.7175	4.206830	0.000299	2.988719	0.506303	0.000030
 577	5.7312e+01	5.7270	4.231271	0.000246	2.456482	0.416139	0.000025
 578	5.7411e+01	5.7368	4.263043	0.000319	3.193426	0.540981	0.000032
 579	5.7511e+01	5.7485	4.292372	0.000295	2.947778	0.499367	0.000029
 580	5.7611e+01	5.7594	4.319664	0.000274	2.743071	0.464689	0.000027
 581	5.7710e+01	5.7655	4.348993	0.000295	2.947778	0.499367	0.000029
 582	5.7809e+01	5.7767	4.377507	0.000287	2.865895	0.485496	0.000029
 583	5.7909e+01	5.7856	4.403984	0.000266	2.661189	0.450818	0.000027
 584	5.8008e+01	5.7986	4.434127	0.000303	3.029661	0.513238	0.000030
 585	5.8108e+01	5.8079	4.461012	0.000270	2.702130	0.457753	0.000027
 586	5.8208e+01	5.8149	4.493192	0.000323	3.234368	0.547917	0.000032
 587	5.8307e+01	5.8259	4.520484	0.000274	2.743071	0.464689	0.000027
 588	5.8407e+01	5.8370	4.550220	0.000299	2.988719	0.506303	0.000030
 589	5.8506e+01	5.8474	4.580363	0.000303	3.029661	0.513238	0.000030
 590	5.8605e+01	5.8560	4.607655	0.000274	2.743071	0.464689	0.000027
 591	5.8705e+01	5.8656	4.637799	0.000303	3.029661	0.513238	0.000030
 592	5.8804e+01	5.8723	4.666720	0.000291	2.906837	0.492431	0.000029
 593	5.8904e+01	5.8882	4.693197	0.000266	2.661189	0.450818	0.000027
 594	5.9004e+01	5.8971	4.722526	0.000295	2.947778	0.499367	0.000029
 595	5.9103e+01	5.9091	4.751447	0.000291	2.906837	0.492431	0.000029
 596	5.9203e+01	5.9164	4.777517	0.000262	2.620247	0.443882	0.000026
 597	5.9302e+01	5.9286	4.808475	0.000311	3.111544	0.527110	0.000031
 598	5.9401e+01	5.9350	4.835360	0.000270	2.702130	0.457753	0.000027
 599	5.9501e+01	5.9452	4.867947	0.000328	3.275309	0.554852	0.000033
 600	5.9600e+01	5.9570	4.897276	0.000295	2.947778	0.499367	0.000029
 601	5.9700e+01	5.9676	4.925790	0.000287	2.865895	0.485496	0.000029
 602	5.9800e+01	5.9786	4.955933	0.000303	3.029661	0.513238	0.000030
 603	5.9899e+01	5.9864	4.982818	0.000270	2.702130	0.457753	0.000027
 604	5.9998e+01	5.9914	5.010110	0.000274	2.743071	0.464689	0.000027
 605	6.0098e+01	6.0053	5.041882	0.000319	3.193426	0.540981	0.000032
 606	6.0197e+01	6.0154	5.066323	0.000246	2.456482	0.416139	0.000025
 607	6.0297e+01	6.0264	5.096059	0.000299	2.988719	0.506303	0.000030
 608	6.0397e+01	6.0363	5.122944	0.000270	2.702130	0.457753	0.000027
 609	6.0496e+01	6.0445	5.152680	0.000299	2.988719	0.506303	0.000030
 610	6.0596e+01	6.0549	5.181601	0.000291	2.906837	0.492431	0.000029
 611	6.0695e+01	6.0645	5.207264	0.000258	2.579306	0.436946	0.000026
 612	6.0794e+01	6.0758	5.240258	0.000332	3.316250	0.561788	0.000033
 613	6.0894e+01	6.0870	5.271624	0.000315	3.152485	0.534045	0.000032
 614	6.0993e+01	6.0938	5.296879	0.000254	2.538364	0.430011	0.000025
 615	6.1093e+01	6.1069	5.323763	0.000270	2.702130	0.457753	0.000027
 616	6.1193e+01	6.1153	5.354314	0.000307	3.070602	0.520174	0.000031
 617	6.1292e+01	6.1260	5.383235	0.000291	2.906837	0.492431	0.000029
 618	6.1392e+01	6.1332	5.410935	0.000278	2.784013	0.471625	0.000028
 619	6.1491e+01	6.1443	5.438634	0.000278	2.784013	0.471625	0.000028
 620	6.1590e+01	6.1533	5.466333	0.000278	2.784013	0.471625	0.000028
 621	6.1690e+01	6.1649	5.495662	0.000295	2.947778	0.499367	0.000029
 622	6.1789e+01	6.1754	5.523769	0.000282	2.824954	0.478560	0.000028
 623	6.1889e+01	6.1843	5.552690	0.000291	2.906837	0.492431	0.000029
 624	6.1989e+01	6.1956	5.577945	0.000254	2.538364	0.430011	0.000025
 625	6.2088e+01	6.2038	5.610125	0.000323	3.234368	0.547917	0.000032
 626	6.2188e+01	6.2141	5.640676	0.000307	3.070602	0.520174	0.000031
 627	6.2287e+01	6.2261	5.667561	0.000270	2.702130	0.457753	0.000027
 628	6.2386e+01	6.2331	5.696075	0.000287	2.865895	0.485496	0.000029
 629	6.2486e+01	6.2464	5.726625	0.000307	3.070602	0.520174	0.000031
 630	6.2586e+01	6.2572	5.753103	0.000266	2.661189	0.450818	0.000027
 631	6.2685e+01	6.2634	5.779172	0.000262	2.620247	0.443882	0.000026
 632	6.2785e+01	6.2755	5.807279	0.000282	2.824954	0.478560	0.000028
 633	6.2884e+01	6.2856	5.836200	0.000291	2.906837	0.492431	0.000029
 634	6.2983e+01	6.2965	5.865529	0.000295	2.947778	0.499367	0.000029
 635	6.3083e+01	6.3033	5.890377	0.000250	2.497423	0.423075	0.000025
 636	6.3182e+01	6.3120	5.917262	0.000270	2.702130	0.457753	0.000027
 637	6.3282e+01	6.3219	5.944554	0.000274	2.743071	0.464689	0.000027
 638	6.3382e+01	6.3342	5.973475	0.000291	2.906837	0.492431	0.000029
 639	6.3481e+01	6.3430	5.999545	0.000262	2.620247	0.443882	0.000026
 640	6.3581e+01	6.3539	6.026837	0.000274	2.743071	0.464689	0.000027
 641	6.3680e+01	6.3654	6.053314	0.000266	2.661189	0.450818	0.000027
 642	6.3779e+01	6.3770	6.082235	0.000291	2.906837	0.492431	0.000029
 643	6.3879e+01	6.3827	6.111564	0.000295	2.947778	0.499367	0.000029
 644	6.3978e+01	6.3941	6.141300	0.000299	2.988719	0.506303	0.000030
 645	6.4078e+01	6.4066	6.168185	0.000270	2.702130	0.457753	0.000027
 646	6.4177e+01	6.4156	6.195884	0.000278	2.784013	0.471625	0.000028
 647	6.4277e+01	6.4243	6.226435	0.000307	3.070602	0.520174	0.000031
 648	6.4376e+01	6.4318	6.249246	0.000229	2.292716	0.388397	0.000023
 649	6.4476e+01	6.4440	6.279796	0.000307	3.070602	0.520174	0.000031
 650	6.4576e+01	6.4523	6.305459	0.000258	2.579306	0.436946	0.000026
 651	6.4675e+01	6.4602	6.333566	0.000282	2.824954	0.478560	0.000028
 652	6.4775e+01	6.4682	6.360858	0.000274	2.743071	0.464689	0.000027
 653	6.4874e+01	6.4824	6.389372	0.000287	2.865895	0.485496	0.000029
 654	6.4974e+01	6.4954	6.419108	0.000299	2.988719	0.506303	0.000030
 655	6.5073e+01	6.5078	6.451695	0.000328	3.275309	0.554852	0.000033
 656	6.5172e+01	6.5118	6.480209	0.000287	2.865895	0.485496	0.000029
 657	6.5272e+01	6.5220	6.511167	0.000311	3.111544	0.527110	0.000031
 658	6.5371e+01	6.5325	6.538459	0.000274	2.743071	0.464689	0.000027
 659	6.5471e+01	6.5392	6.567788	0.000295	2.947778	0.499367	0.000029
 660	6.5570e+01	6.5502	6.595080	0.000274	2.743071	0.464689	0.000027
 661	6.5670e+01	6.5644	6.626445	0.000315	3.152485	0.534045	0.000032
 662	6.5769e+01	6.5731	6.652922	0.000266	2.661189	0.450818	0.000027
 663	6.5869e+01	6.5857	6.684288	0.000315	3.152485	0.534045	0.000032
 664	6.5969e+01	6.5932	6.713616	0.000295	2.947778	0.499367	0.000029
 665	6.6068e+01	6.5992	6.742130	0.000287	2.865895	0.485496	0.000029
 666	6.6168e+01	6.6122	6.769015	0.000270	2.702130	0.457753	0.000027
 667	6.6267e+01	6.6213	6.796307	0.000274	2.743071	0.464689	0.000027
 668	6.6367e+01	6.6335	6.824821	0.000287	2.865895	0.485496	0.000029
 669	6.6466e+01	6.6415	6.850483	0.000258	2.579306	0.436946	0.000026
 670	6.6566e+01	6.6531	6.880627	0.000303	3.029661	0.513238	0.000030
 671	6.6665e+01	6.6647	6.910770	0.000303	3.029661	0.513238	0.000030
 672	6.6764e+01	6.6717	6.936433	0.000258	2.579306	0.436946	0.000026
 673	6.6864e+01	6.6770	6.960059	0.000237	2.374599	0.402268	0.000024
 674	6.6963e+01	6.6904	6.988572	0.000287	2.865895	0.485496	0.000029
 675	6.7063e+01	6.7016	7.024011	0.000356	3.561899	0.603402	0.000036
 676	6.7162e+01	6.7127	7.048859	0.000250	2.497423	0.423075	0.000025
 677	6.7262e+01	6.7204	7.080632	0.000319	3.193426	0.540981	0.000032
 678	6.7362e+01	6.7316	7.107109	0.000266	2.661189	0.450818	0.000027
 679	6.7461e+01	6.7426	7.132772	0.000258	2.579306	0.436946	0.000026
 680	6.7561e+01	6.7504	7.161693	0.000291	2.906837	0.492431	0.000029
 681	6.7660e+01	6.7620	7.189392	0.000278	2.784013	0.471625	0.000028
 682	6.7760e+01	6.7739	7.218314	0.000291	2.906837	0.492431	0.000029
 683	6.7859e+01	6.7815	7.242754	0.000246	2.456482	0.416139	0.000025
 684	6.7959e+01	6.7907	7.270861	0.000282	2.824954	0.478560	0.000028
 685	6.8058e+01	6.8011	7.298968	0.000282	2.824954	0.478560	0.000028
 686	6.8157e+01	6.8124	7.325037	0.000262	2.620247	0.443882	0.000026
 687	6.8257e+01	6.8220	7.350700	0.000258	2.579306	0.436946	0.000026
 688	6.8356e+01	6.8304	7.382473	0.000319	3.193426	0.540981	0.000032
 689	6.8456e+01	6.8429	7.411394	0.000291	2.906837	0.492431	0.000029
 690	6.8555e+01	6.8488	7.440723	0.000295	2.947778	0.499367	0.000029
 691	6.8655e+01	6.8604	7.468015	0.000274	2.743071	0.464689	0.000027
 692	6.8754e+01	6.8724	7.498973	0.000311	3.111544	0.527110	0.000031
 693	6.8854e+01	6.8815	7.525450	0.000266	2.661189	0.450818	0.000027
 694	6.8954e+01	6.8893	7.551520	0.000262	2.620247	0.443882	0.000026
 695	6.9053e+01	6.9006	7.577997	0.000266	2.661189	0.450818	0.000027
 696	6.9153e+01	6.9125	7.604474	0.000266	2.661189	0.450818	0.000027
 697	6.9252e+01	6.9189	7.633803	0.000295	2.947778	0.499367	0.000029
 698	6.9352e+01	6.9300	7.663946	0.000303	3.029661	0.513238	0.000030
 699	6.9451e+01	6.9409	7.687165	0.000233	2.333658	0.395332	0.000023
 700	6.9550e+01	6.9501	7.714864	0.000278	2.784013	0.471625	0.000028
 701	6.9650e+01	6.9630	7.742156	0.000274	2.743071	0.464689	0.000027
 702	6.9749e+01	6.9690	7.770263	0.000282	2.824954	0.478560	0.000028
 703	6.9849e+01	6.9842	7.797555	0.000274	2.743071	0.464689	0.000027
 704	6.9948e+01	6.9889	7.828105	0.000307	3.070602	0.520174	0.000031
 705	7.0048e+01	6.9990	7.854990	0.000270	2.702130	0.457753	0.000027
 706	7.0147e+01	7.0117	7.881467	0.000266	2.661189	0.450818	0.000027
 707	7.0247e+01	7.0208	7.910796	0.000295	2.947778	0.499367	0.000029
 708	7.0347e+01	7.0306	7.933200	0.000225	2.251775	0.381461	0.000023
 709	7.0446e+01	7.0403	7.963343	0.000303	3.029661	0.513238	0.000030
 710	7.0546e+01	7.0550	7.988191	0.000250	2.497423	0.423075	0.000025
 711	7.0645e+01	7.0583	8.016298	0.000282	2.824954	0.478560	0.000028
 712	7.0745e+01	7.0701	8.044404	0.000282	2.824954	0.478560	0.000028
 713	7.0844e+01	7.0801	8.072511	0.000282	2.824954	0.478560	0.000028
 714	7.0944e+01	7.0880	8.097359	0.000250	2.497423	0.423075	0.000025
 715	7.1043e+01	7.0983	8.122614	0.000254	2.538364	0.430011	0.000025
 716	7.1142e+01	7.1107	8.154387	0.000319	3.193426	0.540981	0.000032
 717	7.1242e+01	7.1207	8.183716	0.000295	2.947778	0.499367	0.000029
 718	7.1341e+01	7.1265	8.212230	0.000287	2.865895	0.485496	0.000029
 719	7.1441e+01	7.1395	8.239114	0.000270	2.702130	0.457753	0.000027
 720	7.1540e+01	7.1507	8.267221	0.000282	2.824954	0.478560	0.000028
 721	7.1640e+01	7.1607	8.293698	0.000266	2.661189	0.450818	0.000027
 722	7.1740e+01	7.1716	8.328729	0.000352	3.520957	0.596466	0.000035
 723	7.1839e+01	7.1784	8.355614	0.000270	2.702130	0.457753	0.000027
 724	7.1939e+01	7.1909	8.384128	0.000287	2.865895	0.485496	0.000029
 725	7.2038e+01	7.2005	8.408976	0.000250	2.497423	0.423075	0.000025
 726	7.2138e+01	7.2098	8.435453	0.000266	2.661189	0.450818	0.000027
 727	7.2237e+01	7.2200	8.466004	0.000307	3.070602	0.520174	0.000031
 728	7.2337e+01	7.2286	8.489222	0.000233	2.333658	0.395332	0.000023
 729	7.2436e+01	7.2395	8.513663	0.000246	2.456482	0.416139	0.000025
 730	7.2535e+01	7.2485	8.539733	0.000262	2.620247	0.443882	0.000026
 731	7.2635e+01	7.2575	8.570284	0.000307	3.070602	0.520174	0.000031
 732	7.2734e+01	7.2681	8.599205	0.000291	2.906837	0.492431	0.000029
 733	7.2834e+01	7.2771	8.625275	0.000262	2.620247	0.443882	0.000026
 734	7.2933e+01	7.2900	8.652974	0.000278	2.784013	0.471625	0.000028
 735	7.3033e+01	7.2965	8.679044	0.000262	2.620247	0.443882	0.000026
 736	7.3132e+01	7.3105	8.709187	0.000303	3.029661	0.513238	0.000030
 737	7.3232e+01	7.3182	8.734443	0.000254	2.538364	0.430011	0.000025
 738	7.3332e+01	7.3300	8.754402	0.000201	2.006127	0.339847	0.000020
 739	7.3431e+01	7.3409	8.784546	0.000303	3.029661	0.513238	0.000030
 740	7.3531e+01	7.3490	8.808172	0.000237	2.374599	0.402268	0.000024
 741	7.3630e+01	7.3603	8.837908	0.000299	2.988719	0.506303	0.000030
 742	7.3730e+01	7.3695	8.861534	0.000237	2.374599	0.402268	0.000024
 743	7.3829e+01	7.3797	8.887603	0.000262	2.620247	0.443882	0.000026
 744	7.3928e+01	7.3879	8.911637	0.000242	2.415540	0.409204	0.000024
 745	7.4028e+01	7.3975	8.938114	0.000266	2.661189	0.450818	0.000027
 746	7.4127e+01	7.4074	8.966221	0.000282	2.824954	0.478560	0.000028
 747	7.4227e+01	7.4214	8.995549	0.000295	2.947778	0.499367	0.000029
 748	7.4326e+01	7.4316	9.019582	0.000242	2.415540	0.409204	0.000024
 749	7.4426e+01	7.4394	9.048504	0.000291	2.906837	0.492431	0.000029
 750	7.4525e+01	7.4483	9.073759	0.000254	2.538364	0.430011	0.000025
 751	7.4625e+01	7.4564	9.102273	0.000287	2.865895	0.485496	0.000029
 752	7.4725e+01	7.4696	9.127121	0.000250	2.497423	0.423075	0.000025
 753	7.4824e+01	7.4809	9.152376	0.000254	2.538364	0.430011	0.000025
 754	7.4924e+01	7.4874	9.180483	0.000282	2.824954	0.478560	0.000028
 755	7.5023e+01	7.4971	9.207367	0.000270	2.702130	0.457753	0.000027
 756	7.5123e+01	7.5076	9.229771	0.000225	2.251775	0.381461	0.000023
 757	7.5222e+01	7.5179	9.258693	0.000291	2.906837	0.492431	0.000029
 758	7.5322e+01	7.5278	9.284762	0.000262	2.620247	0.443882	0.000026
 759	7.5421e+01	7.5397	9.311240	0.000266	2.661189	0.450818	0.000027
 760	7.5520e+01	7.5469	9.337310	0.000262	2.620247	0.443882	0.000026
 761	7.5620e+01	7.5594	9.364194	0.000270	2.702130	0.457753	0.000027
 762	7.5719e+01	7.5671	9.391079	0.000270	2.702130	0.457753	0.000027
 763	7.5819e+01	7.5765	9.416334	0.000254	2.538364	0.430011	0.000025
 764	7.5918e+01	7.5892	9.442404	0.000262	2.620247	0.443882	0.000026
 765	7.6018e+01	7.5977	9.468474	0.000262	2.620247	0.443882	0.000026
 766	7.6118e+01	7.6064	9.499432	0.000311	3.111544	0.527110	0.000031
 767	7.6217e+01	7.6160	9.521836	0.000225	2.251775	0.381461	0.000023
 768	7.6317e+01	7.6279	9.556460	0.000348	3.480016	0.589531	0.000035
 769	7.6416e+01	7.6373	9.580493	0.000242	2.415540	0.409204	0.000024
 770	7.6516e+01	7.6472	9.607378	0.000270	2.702130	0.457753	0.000027
 771	7.6615e+01	7.6563	9.633855	0.000266	2.661189	0.450818	0.000027
 772	7.6715e+01	7.6674	9.662776	0.000291	2.906837	0.492431	0.000029
 773	7.6814e+01	7.6752	9.684365	0.000217	2.169892	0.367590	0.000022
 774	7.6913e+01	7.6891	9.707584	0.000233	2.333658	0.395332	0.000023
 775	7.7013e+01	7.6981	9.732839	0.000254	2.538364	0.430011	0.000025
 776	7.7112e+01	7.7069	9.760539	0.000278	2.784013	0.471625	0.000028
 777	7.7212e+01	7.7168	9.789053	0.000287	2.865895	0.485496	0.000029
 778	7.7311e+01	7.7270	9.815122	0.000262	2.620247	0.443882	0.000026
 779	7.7411e+01	7.7378	9.841192	0.000262	2.620247	0.443882	0.000026
 780	7.7510e+01	7.7445	9.868077	0.000270	2.702130	0.457753	0.000027
 781	7.7610e+01	7.7555	9.895776	0.000278	2.784013	0.471625	0.000028
 782	7.7710e+01	7.7654	9.922661	0.000270	2.702130	0.457753	0.000027
 783	7.7809e+01	7.7808	9.945472	0.000229	2.292716	0.388397	0.000023
 784	7.7909e+01	7.7852	9.975208	0.000299	2.988719	0.506303	0.000030
 785	7.8008e+01	7.7973	10.004537	0.000295	2.947778	0.499367	0.000029
 786	7.8108e+01	7.8041	10.031829	0.000274	2.743071	0.464689	0.000027
 787	7.8207e+01	7.8146	10.056269	0.000246	2.456482	0.416139	0.000025
 788	7.8306e+01	7.8271	10.081524	0.000254	2.538364	0.430011	0.000025
 789	7.8406e+01	7.8355	10.110038	0.000287	2.865895	0.485496	0.000029
 790	7.8505e+01	7.8431	10.135701	0.000258	2.579306	0.436946	0.000026
 791	7.8605e+01	7.8535	10.159734	0.000242	2.415540	0.409204	0.000024
 792	7.8704e+01	7.8654	10.190285	0.000307	3.070602	0.520174	0.000031
 793	7.8804e+01	7.8753	10.216355	0.000262	2.620247	0.443882	0.000026
 794	7.8903e+01	7.8857	10.239166	0.000229	2.292716	0.388397	0.000023
 795	7.9003e+01	7.8932	10.268902	0.000299	2.988719	0.506303	0.000030
 796	7.9103e+01	7.9075	10.294972	0.000262	2.620247	0.443882	0.000026
 797	7.9202e+01	7.9158	10.323079	0.000282	2.824954	0.478560	0.000028
 798	7.9302e+01	7.9254	10.353222	0.000303	3.029661	0.513238	0.000030
 799	7.9401e+01	7.9349	10.375626	0.000225	2.251775	0.381461	0.000023
 800	7.9501e+01	7.9455	10.402918	0.000274	2.743071	0.464689	0.000027
 801	7.9600e+01	7.9565	10.424507	0.000217	2.169892	0.367590	0.000022
 802	7.9700e+01	7.9633	10.452614	0.000282	2.824954	0.478560	0.000028
 803	7.9799e+01	7.9747	10.475832	0.000233	2.333658	0.395332	0.000023
 804	7.9898e+01	7.9853	10.501087	0.000254	2.538364	0.430011	0.000025
 805	7.9998e+01	7.9968	10.526750	0.000258	2.579306	0.436946	0.000026
 806	8.0097e+01	8.0051	10.551598	0.000250	2.497423	0.423075	0.000025
 807	8.0197e+01	8.0152	10.577668	0.000262	2.620247	0.443882	0.000026
 808	8.0296e+01	8.0261	10.601701	0.000242	2.415540	0.409204	0.000024
 809	8.0396e+01	8.0341	10.625734	0.000242	2.415540	0.409204	0.000024
 810	8.0496e+01	8.0459	10.653026	0.000274	2.743071	0.464689	0.000027
 811	8.0595e+01	8.0543	10.683169	0.000303	3.029661	0.513238	0.000030
 812	8.0695e+01	8.0640	10.709647	0.000266	2.661189	0.450818	0.000027
 813	8.0794e+01	8.0757	10.736531	0.000270	2.702130	0.457753	0.000027
 814	8.0894e+01	8.0839	10.762194	0.000258	2.579306	0.436946	0.000026
 815	8.0993e+01	8.0945	10.789893	0.000278	2.784013	0.471625	0.000028
 816	8.1093e+01	8.1057	10.813519	0.000237	2.374599	0.402268	0.000024
 817	8.1192e+01	8.1171	10.837960	0.000246	2.456482	0.416139	0.000025
 818	8.1291e+01	8.1245	10.864844	0.000270	2.702130	0.457753	0.000027
 819	8.1391e+01	8.1335	10.893766	0.000291	2.906837	0.492431	0.000029
 820	8.1490e+01	8.1440	10.917799	0.000242	2.415540	0.409204	0.000024
 821	8.1590e+01	8.1548	10.944276	0.000266	2.661189	0.450818	0.000027
 822	8.1689e+01	8.1641	10.976863	0.000328	3.275309	0.554852	0.000033
 823	8.1789e+01	8.1759	10.999675	0.000229	2.292716	0.388397	0.000023
 824	8.1888e+01	8.1836	11.031447	0.000319	3.193426	0.540981	0.000032
 825	8.1988e+01	8.1934	11.055481	0.000242	2.415540	0.409204	0.000024
 826	8.2088e+01	8.2031	11.083180	0.000278	2.784013	0.471625	0.000028
 827	8.2187e+01	8.2140	11.112916	0.000299	2.988719	0.506303	0.000030
 828	8.2287e+01	8.2230	11.137356	0.000246	2.456482	0.416139	0.000025
 829	8.2386e+01	8.2373	11.165870	0.000287	2.865895	0.485496	0.000029
 830	8.2486e+01	8.2463	11.193162	0.000274	2.743071	0.464689	0.000027
 831	8.2585e+01	8.2546	11.215973	0.000229	2.292716	0.388397	0.000023
 832	8.2684e+01	8.2645	11.244895	0.000291	2.906837	0.492431	0.000029
 833	8.2784e+01	8.2740	11.274631	0.000299	2.988719	0.506303	0.000030
 834	8.2883e+01	8.2829	11.298257	0.000237	2.374599	0.402268	0.000024
 835	8.2983e+01	8.2931	11.321883	0.000237	2.374599	0.402268	0.000024
 836	8.3082e+01	8.3036	11.352026	0.000303	3.029661	0.513238	0.000030
 837	8.3182e+01	8.3160	11.378096	0.000262	2.620247	0.443882	0.000026
 838	8.3281e+01	8.3215	11.402944	0.000250	2.497423	0.423075	0.000025
 839	8.3381e+01	8.3337	11.429421	0.000266	2.661189	0.450818	0.000027
 840	8.3481e+01	8.3416	11.455898	0.000266	2.661189	0.450818	0.000027
 841	8.3580e+01	8.3577	11.481153	0.000254	2.538364	0.430011	0.000025
 842	8.3680e+01	8.3636	11.508853	0.000278	2.784013	0.471625	0.000028
 843	8.3779e+01	8.3744	11.534108	0.000254	2.538364	0.430011	0.000025
 844	8.3879e+01	8.3814	11.564251	0.000303	3.029661	0.513238	0.000030
 845	8.3978e+01	8.3945	11.590729	0.000266	2.661189	0.450818	0.000027
 846	8.4078e+01	8.4014	11.615984	0.000254	2.538364	0.430011	0.000025
 847	8.4177e+01	8.4115	11.644905	0.000291	2.906837	0.492431	0.000029
 848	8.4276e+01	8.4213	11.671382	0.000266	2.661189	0.450818	0.000027
 849	8.4376e+01	8.4375	11.695823	0.000246	2.456482	0.416139	0.000025
 850	8.4475e+01	8.4409	11.719449	0.000237	2.374599	0.402268	0.000024
 851	8.4575e+01	8.4528	11.747963	0.000287	2.865895	0.485496	0.000029
 852	8.4674e+01	8.4616	11.771589	0.000237	2.374599	0.402268	0.000024
 853	8.4774e+01	8.4741	11.799695	0.000282	2.824954	0.478560	0.000028
 854	8.4874e+01	8.4839	11.824951	0.000254	2.538364	0.430011	0.000025
 855	8.4973e+01	8.4912	11.852243	0.000274	2.743071	0.464689	0.000027
 856	8.5073e+01	8.5038	11.877090	0.000250	2.497423	0.423075	0.000025
 857	8.5172e+01	8.5111	11.906826	0.000299	2.988719	0.506303	0.000030
 858	8.5272e+01	8.5227	11.931674	0.000250	2.497423	0.423075	0.000025
 859	8.5371e+01	8.5323	11.959374	0.000278	2.784013	0.471625	0.000028
 860	8.5471e+01	8.5443	11.987073	0.000278	2.784013	0.471625	0.000028
 861	8.5570e+01	8.5513	12.012736	0.000258	2.579306	0.436946	0.000026
 862	8.5669e+01	8.5619	12.035139	0.000225	2.251775	0.381461	0.000023
 863	8.5769e+01	8.5718	12.063653	0.000287	2.865895	0.485496	0.000029
 864	8.5868e+01	8.5811	12.087279	0.000237	2.374599	0.402268	0.000024
 865	8.5968e+01	8.5919	12.116608	0.000295	2.947778	0.499367	0.000029
 866	8.6067e+01	8.6015	12.141048	0.000246	2.456482	0.416139	0.000025
 867	8.6167e+01	8.6102	12.169155	0.000282	2.824954	0.478560	0.000028
 868	8.6266e+01	8.6233	12.196040	0.000270	2.702130	0.457753	0.000027
 869	8.6366e+01	8.6325	12.219258	0.000233	2.333658	0.395332	0.000023
 870	8.6466e+01	8.6433	12.247772	0.000287	2.865895	0.485496	0.000029
 871	8.6565e+01	8.6513	12.270991	0.000233	2.333658	0.395332	0.000023
 872	8.6665e+01	8.6613	12.298690	0.000278	2.784013	0.471625	0.000028
 873	8.6764e+01	8.6710	12.328833	0.000303	3.029661	0.513238	0.000030
 874	8.6864e+01	8.6807	12.349608	0.000209	2.088009	0.353718	0.000021
 875	8.6963e+01	8.6921	12.380973	0.000315	3.152485	0.534045	0.000032
 876	8.7063e+01	8.7041	12.403784	0.000229	2.292716	0.388397	0.000023
 877	8.7162e+01	8.7130	12.429040	0.000254	2.538364	0.430011	0.000025
 878	8.7261e+01	8.7218	12.453073	0.000242	2.415540	0.409204	0.000024
 879	8.7361e+01	8.7308	12.479957	0.000270	2.702130	0.457753	0.000027
 880	8.7460e+01	8.7411	12.506435	0.000266	2.661189	0.450818	0.000027
 881	8.7560e+01	8.7527	12.533727	0.000274	2.743071	0.464689	0.000027
 882	8.7659e+01	8.7598	12.559389	0.000258	2.579306	0.436946	0.000026
 883	8.7759e+01	8.7708	12.584237	0.000250	2.497423	0.423075	0.000025
 884	8.7859e+01	8.7823	12.610714	0.000266	2.661189	0.450818	0.000027
 885	8.7958e+01	8.7925	12.636377	0.000258	2.579306	0.436946	0.000026
 886	8.8058e+01	8.7979	12.665298	0.000291	2.906837	0.492431	0.000029
 887	8.8157e+01	8.8111	12.688517	0.000233	2.333658	0.395332	0.000023
 888	8.8257e+01	8.8212	12.719067	0.000307	3.070602	0.520174	0.000031
 889	8.8356e+01	8.8276	12.745952	0.000270	2.702130	0.457753	0.000027
 890	8.8456e+01	8.8433	12.775688	0.000299	2.988719	0.506303	0.000030
 891	8.8555e+01	8.8477	12.802165	0.000266	2.661189	0.450818	0.000027
 892	8.8654e+01	8.8586	12.829050	0.000270	2.702130	0.457753	0.000027
 893	8.8754e+01	8.8721	12.854713	0.000258	2.579306	0.436946	0.000026
 894	8.8853e+01	8.8779	12.882412	0.000278	2.784013	0.471625	0.000028
 895	8.8953e+01	8.8897	12.905223	0.000229	2.292716	0.388397	0.000023
 896	8.9052e+01	8.9017	12.931700	0.000266	2.661189	0.450818	0.000027
 897	8.9152e+01	8.9087	12.955326	0.000237	2.374599	0.402268	0.000024
 898	8.9251e+01	8.9190	12.978545	0.000233	2.333658	0.395332	0.000023
 899	8.9351e+01	8.9286	13.009503	0.000311	3.111544	0.527110	0.000031
 900	8.9451e+01	8.9404	13.033536	0.000242	2.415540	0.409204	0.000024
 901	8.9550e+01	8.9478	13.062865	0.000295	2.947778	0.499367	0.000029
 902	8.9650e+01	8.9579	13.087305	0.000246	2.456482	0.416139	0.000025
 903	8.9749e+01	8.9725	13.114597	0.000274	2.743071	0.464689	0.000027
 904	8.9849e+01	8.9801	13.140260	0.000258	2.579306	0.436946	0.000026
 905	8.9948e+01	8.9922	13.167144	0.000270	2.702130	0.457753	0.000027
 906	9.0047e+01	9.0002	13.191585	0.000246	2.456482	0.416139	0.000025
 907	9.0147e+01	9.0112	13.214803	0.000233	2.333658	0.395332	0.000023
 908	9.0246e+01	9.0202	13.238022	0.000233	2.333658	0.395332	0.000023
 909	9.0346e+01	9.0295	13.266129	0.000282	2.824954	0.478560	0.000028
 910	9.0445e+01	9.0405	13.290976	0.000250	2.497423	0.423075	0.000025
 911	9.0545e+01	9.0479	13.316639	0.000258	2.579306	0.436946	0.000026
 912	9.0644e+01	9.0566	13.339450	0.000229	2.292716	0.388397	0.000023
 913	9.0744e+01	9.0680	13.367964	0.000287	2.865895	0.485496	0.000029
 914	9.0844e+01	9.0797	13.389553	0.000217	2.169892	0.367590	0.000022
 915	9.0943e+01	9.0895	13.416438	0.000270	2.702130	0.457753	0.000027
 916	9.1043e+01	9.1003	13.442915	0.000266	2.661189	0.450818	0.000027
 917	9.1142e+01	9.1094	13.466541	0.000237	2.374599	0.402268	0.000024
 918	9.1242e+01	9.1187	13.497906	0.000315	3.152485	0.534045	0.000032
 919	9.1341e+01	9.1300	13.520310	0.000225	2.251775	0.381461	0.000023
 920	9.1441e+01	9.1406	13.546380	0.000262	2.620247	0.443882	0.000026
 921	9.1540e+01	9.1479	13.572450	0.000262	2.620247	0.443882	0.000026
 922	9.1639e+01	9.1584	13.598113	0.000258	2.579306	0.436946	0.000026
 923	9.1739e+01	9.1685	13.622553	0.000246	2.456482	0.416139	0.000025
 924	9.1838e+01	9.1787	13.649031	0.000266	2.661189	0.450818	0.000027
 925	9.1938e+01	9.1883	13.677545	0.000287	2.865895	0.485496	0.000029
 926	9.2037e+01	9.1976	13.704022	0.000266	2.661189	0.450818	0.000027
 927	9.2137e+01	9.2090	13.730906	0.000270	2.702130	0.457753	0.000027
 928	9.2237e+01	9.2155	13.755347	0.000246	2.456482	0.416139	0.000025
 929	9.2336e+01	9.2274	13.783454	0.000282	2.824954	0.478560	0.000028
 930	9.2436e+01	9.2400	13.805450	0.000221	2.210834	0.374525	0.000022
 931	9.2535e+01	9.2493	13.832742	0.000274	2.743071	0.464689	0.000027
 932	9.2635e+01	9.2578	13.858405	0.000258	2.579306	0.436946	0.000026
 933	9.2734e+01	9.2701	13.887326	0.000291	2.906837	0.492431	0.000029
 934	9.2834e+01	9.2794	13.913396	0.000262	2.620247	0.443882	0.000026
 935	9.2933e+01	9.2875	13.937429	0.000242	2.415540	0.409204	0.000024
 936	9.3032e+01	9.2979	13.966350	0.000291	2.906837	0.492431	0.000029
 937	9.3132e+01	9.3091	13.994050	0.000278	2.784013	0.471625	0.000028
 938	9.3231e+01	9.3165	14.018898	0.000250	2.497423	0.423075	0.000025
 939	9.3331e+01	9.3280	14.044153	0.000254	2.538364	0.430011	0.000025
 940	9.3430e+01	9.3336	14.069408	0.000254	2.538364	0.430011	0.000025
 941	9.3530e+01	9.3481	14.093034	0.000237	2.374599	0.402268	0.000024
 942	9.3629e+01	9.3565	14.117882	0.000250	2.497423	0.423075	0.000025
 943	9.3729e+01	9.3671	14.145581	0.000278	2.784013	0.471625	0.000028
 944	9.3829e+01	9.3788	14.171244	0.000258	2.579306	0.436946	0.000026
 945	9.3928e+01	9.3872	14.198536	0.000274	2.743071	0.464689	0.000027
 946	9.4028e+01	9.3980	14.222976	0.000246	2.456482	0.416139	0.000025
 947	9.4127e+01	9.4099	14.250675	0.000278	2.784013	0.471625	0.000028
 948	9.4227e+01	9.4166	14.277967	0.000274	2.743071	0.464689	0.000027
 949	9.4326e+01	9.4263	14.306074	0.000282	2.824954	0.478560	0.000028
 950	9.4425e+01	9.4389	14.336217	0.000303	3.029661	0.513238	0.000030
 951	9.4525e+01	9.4489	14.359029	0.000229	2.292716	0.388397	0.000023
 952	9.4624e+01	9.4568	14.385913	0.000270	2.702130	0.457753	0.000027
 953	9.4724e+01	9.4648	14.411576	0.000258	2.579306	0.436946	0.000026
 954	9.4823e+01	9.4764	14.438053	0.000266	2.661189	0.450818	0.000027
 955	9.4923e+01	9.4874	14.464530	0.000266	2.661189	0.450818	0.000027
 956	9.5022e+01	9.4971	14.491822	0.000274	2.743071	0.464689	0.000027
 957	9.5122e+01	9.5068	14.515041	0.000233	2.333658	0.395332	0.000023
 958	9.5222e+01	9.5159	14.542740	0.000278	2.784013	0.471625	0.000028
 959	9.5321e+01	9.5271	14.570847	0.000282	2.824954	0.478560	0.000028
 960	9.5421e+01	9.5351	14.594880	0.000242	2.415540	0.409204	0.000024
 961	9.5520e+01	9.5484	14.618913	0.000242	2.415540	0.409204	0.000024
 962	9.5620e+01	9.5540	14.648242	0.000295	2.947778	0.499367	0.000029
 963	9.5719e+01	9.5667	14.675534	0.000274	2.743071	0.464689	0.000027
 964	9.5819e+01	9.5762	14.702011	0.000266	2.661189	0.450818	0.000027
 965	9.5918e+01	9.5905	14.730932	0.000291	2.906837	0.492431	0.000029
 966	9.6017e+01	9.5947	14.755780	0.000250	2.497423	0.423075	0.000025
 967	9.6117e+01	9.6056	14.784702	0.000291	2.906837	0.492431	0.000029
 968	9.6216e+01	9.6162	14.807920	0.000233	2.333658	0.395332	0.000023
 969	9.6316e+01	9.6247	14.834397	0.000266	2.661189	0.450818	0.000027
 970	9.6415e+01	9.6338	14.859245	0.000250	2.497423	0.423075	0.000025
 971	9.6515e+01	9.6461	14.885723	0.000266	2.661189	0.450818	0.000027
 972	9.6615e+01	9.6573	14.908534	0.000229	2.292716	0.388397	0.000023
 973	9.6714e+01	9.6664	14.936640	0.000282	2.824954	0.478560	0.000028
 974	9.6814e+01	9.6766	14.959859	0.000233	2.333658	0.395332	0.000023
 975	9.6913e+01	9.6843	14.987558	0.000278	2.784013	0.471625	0.000028
 976	9.7013e+01	9.6958	15.014850	0.000274	2.743071	0.464689	0.000027
 977	9.7112e+01	9.7048	15.042142	0.000274	2.743071	0.464689	0.000027
 978	9.7212e+01	9.7156	15.069027	0.000270	2.702130	0.457753	0.000027
 979	9.7311e+01	9.7271	15.095911	0.000270	2.702130	0.457753	0.000027
 980	9.7410e+01	9.7416	15.122796	0.000270	2.702130	0.457753	0.000027
 981	9.7510e+01	9.7453	15.148458	0.000258	2.579306	0.436946	0.000026
 982	9.7609e+01	9.7540	15.176565	0.000282	2.824954	0.478560	0.000028
 983	9.7709e+01	9.7656	15.201006	0.000246	2.456482	0.416139	0.000025
 984	9.7808e+01	9.7739	15.229112	0.000282	2.824954	0.478560	0.000028
 985	9.7908e+01	9.7864	15.252738	0.000237	2.374599	0.402268	0.000024
 986	9.8007e+01	9.7952	15.280437	0.000278	2.784013	0.471625	0.000028
 987	9.8107e+01	9.8071	15.310173	0.000299	2.988719	0.506303	0.000030
 988	9.8207e+01	9.8161	15.337465	0.000274	2.743071	0.464689	0.000027
 989	9.8306e+01	9.8251	15.364757	0.000274	2.743071	0.464689	0.000027
 990	9.8406e+01	9.8344	15.393679	0.000291	2.906837	0.492431	0.000029
 991	9.8505e+01	9.8441	15.421785	0.000282	2.824954	0.478560	0.000028
 992	9.8605e+01	9.8527	15.450299	0.000287	2.865895	0.485496	0.000029
 993	9.8704e+01	9.8645	15.479221	0.000291	2.906837	0.492431	0.000029
 994	9.8803e+01	9.8733	15.504883	0.000258	2.579306	0.436946	0.000026
 995	9.8903e+01	9.8859	15.535027	0.000303	3.029661	0.513238	0.000030
 996	9.9002e+01	9.8962	15.564355	0.000295	2.947778	0.499367	0.000029
 997	9.9102e+01	9.9056	15.592055	0.000278	2.784013	0.471625	0.000028
 998	9.9201e+01	9.9133	15.619346	0.000274	2.743071	0.464689	0.000027
 999	9.9301e+01	9.9250	15.646638	0.000274	2.743071	0.464689	0.000027
1000	9.9400e+01	9.9342	15.676374	0.000299	2.988719	0.506303	0.000030
1001	9.9500e+01	9.9442	15.703259	0.000270	2.702130	0.457753	0.000027
1002	9.9600e+01	9.9529	15.728922	0.000258	2.579306	0.436946	0.000026
1003	9.9699e+01	9.9648	15.759472	0.000307	3.070602	0.520174	0.000031
1004	9.9799e+01	9.9746	15.784320	0.000250	2.497423	0.423075	0.000025
1005	9.9898e+01	9.9857	15.809983	0.000258	2.579306	0.436946	0.000026
1006	9.9998e+01	9.9957	15.837682	0.000278	2.784013	0.471625	0.000028
1007	1.0010e+02	9.9854	15.817315	0.000205	2.047068	0.346783	-0.000020
1008	1.0020e+02	9.9756	15.804280	0.000131	1.310124	0.221941	-0.000013
1009	1.0030e+02	9.9637	15.787579	0.000168	1.678596	0.284362	-0.000017
1010	1.0040e+02	9.9561	15.770471	0.000172	1.719537	0.291297	-0.000017
1011	1.0050e+02	9.9416	15.757028	0.000135	1.351065	0.228877	-0.000014
1012	1.0059e+02	9.9344	15.737476	0.000197	1.965185	0.332911	-0.000020
1013	1.0069e+02	9.9228	15.725256	0.000123	1.228241	0.208070	-0.000012
1014	1.0079e+02	9.9158	15.706925	0.000184	1.842361	0.312104	-0.000018
1015	1.0089e+02	9.9060	15.689409	0.000176	1.760479	0.298233	-0.000018
1016	1.0099e+02	9.8950	15.669857	0.000197	1.965185	0.332911	-0.000020
1017	1.0109e+02	9.8846	15.656415	0.000135	1.351065	0.228877	-0.000014
1018	1.0119e+02	9.8745	15.636048	0.000205	2.047068	0.346783	-0.000020
1019	1.0129e+02	9.8657	15.620568	0.000156	1.555772	0.263555	-0.000016
1020	1.0139e+02	9.8553	15.601423	0.000192	1.924244	0.325976	-0.000019
1021	1.0149e+02	9.8447	15.580649	0.000209	2.088009	0.353718	-0.000021
1022	1.0159e+02	9.8370	15.565170	0.000156	1.555772	0.263555	-0.000016
1023	1.0169e+02	9.8242	15.545617	0.000197	1.965185	0.332911	-0.000020
1024	1.0179e+02	9.8151	15.531360	0.000143	1.432948	0.242748	-0.000014
1025	1.0189e+02	9.8067	15.513030	0.000184	1.842361	0.312104	-0.000018
1026	1.0199e+02	9.7950	15.494700	0.000184	1.842361	0.312104	-0.000018
1027	1.0209e+02	9.7852	15.479628	0.000151	1.514830	0.256619	-0.000015
1028	1.0219e+02	9.7762	15.459668	0.000201	2.006127	0.339847	-0.000020
1029	1.0229e+02	9.7645	15.438894	0.000209	2.088009	0.353718	-0.000021
1030	1.0239e+02	9.7546	15.422193	0.000168	1.678596	0.284362	-0.000017
1031	1.0248e+02	9.7472	15.402233	0.000201	2.006127	0.339847	-0.000020
1032	1.0258e+02	9.7364	15.381051	0.000213	2.128951	0.360654	-0.000021
1033	1.0268e+02	9.7269	15.361499	0.000197	1.965185	0.332911	-0.000020
1034	1.0278e+02	9.7150	15.343168	0.000184	1.842361	0.312104	-0.000018
1035	1.0288e+02	9.7070	15.323616	0.000197	1.965185	0.332911	-0.000020
1036	1.0298e+02	9.6948	15.304471	0.000192	1.924244	0.325976	-0.000019
1037	1.0308e+02	9.6857	15.286955	0.000176	1.760479	0.298233	-0.000018
1038	1.0318e+02	9.6759	15.267810	0.000192	1.924244	0.325976	-0.000019
1039	1.0328e+02	9.6650	15.245406	0.000225	2.251775	0.381461	-0.000023
1040	1.0338e+02	9.6582	15.227483	0.000180	1.801420	0.305169	-0.000018
1041	1.0348e+02	9.6467	15.209153	0.000184	1.842361	0.312104	-0.000018
1042	1.0358e+02	9.6363	15.188378	0.000209	2.088009	0.353718	-0.000021
1043	1.0368e+02	9.6293	15.169233	0.000192	1.924244	0.325976	-0.000019
1044	1.0378e+02	9.6181	15.150495	0.000188	1.883303	0.319040	-0.000019
1045	1.0388e+02	9.6082	15.128499	0.000221	2.210834	0.374525	-0.000022
1046	1.0398e+02	9.5972	15.108539	0.000201	2.006127	0.339847	-0.000020
1047	1.0408e+02	9.5864	15.090616	0.000180	1.801420	0.305169	-0.000018
1048	1.0418e+02	9.5766	15.066175	0.000246	2.456482	0.416139	-0.000025
1049	1.0428e+02	9.5692	15.049474	0.000168	1.678596	0.284362	-0.000017
1050	1.0438e+02	9.5566	15.031551	0.000180	1.801420	0.305169	-0.000018
1051	1.0447e+02	9.5444	15.014035	0.000176	1.760479	0.298233	-0.000018
1052	1.0457e+02	9.5356	14.992854	0.000213	2.128951	0.360654	-0.000021
1053	1.0467e+02	9.5264	14.975338	0.000176	1.760479	0.298233	-0.000018
1054	1.0477e+02	9.5155	14.952527	0.000229	2.292716	0.388397	-0.000023
1055	1.0487e+02	9.5068	14.936233	0.000164	1.637654	0.277426	-0.000016
1056	1.0497e+02	9.4979	14.914644	0.000217	2.169892	0.367590	-0.000022
1057	1.0507e+02	9.4873	14.897128	0.000176	1.760479	0.298233	-0.000018
1058	1.0517e+02	9.4733	14.879205	0.000180	1.801420	0.305169	-0.000018
1059	1.0527e+02	9.4656	14.858838	0.000205	2.047068	0.346783	-0.000020
1060	1.0537e+02	9.4580	14.840100	0.000188	1.883303	0.319040	-0.000019
1061	1.0547e+02	9.4458	14.822584	0.000176	1.760479	0.298233	-0.000018
1062	1.0557e+02	9.4404	14.798959	0.000237	2.374599	0.402268	-0.000024
1063	1.0567e+02	9.4270	14.777369	0.000217	2.169892	0.367590	-0.000022
1064	1.0577e+02	9.4147	14.756595	0.000209	2.088009	0.353718	-0.000021
1065	1.0587e+02	9.4061	14.736228	0.000205	2.047068	0.346783	-0.000020
1066	1.0597e+02	9.3974	14.714639	0.000217	2.169892	0.367590	-0.000022
1067	1.0607e+02	9.3880	14.696308	0.000184	1.842361	0.312104	-0.000018
1068	1.0617e+02	9.3803	14.676756	0.000197	1.965185	0.332911	-0.000020
1069	1.0627e+02	9.3665	14.659240	0.000176	1.760479	0.298233	-0.000018
1070	1.0637e+02	9.3612	14.637244	0.000221	2.210834	0.374525	-0.000022
1071	1.0647e+02	9.3464	14.615654	0.000217	2.169892	0.367590	-0.000022
1072	1.0656e+02	9.3375	14.587955	0.000278	2.784013	0.471625	-0.000028
1073	1.0666e+02	9.3295	14.572883	0.000151	1.514830	0.256619	-0.000015
1074	1.0676e+02	9.3195	14.548443	0.000246	2.456482	0.416139	-0.000025
1075	1.0686e+02	9.3092	14.526446	0.000221	2.210834	0.374525	-0.000022
1076	1.0696e+02	9.2958	14.502413	0.000242	2.415540	0.409204	-0.000024
1077	1.0706e+02	9.2898	14.481639	0.000209	2.088009	0.353718	-0.000021
1078	1.0716e+02	9.2786	14.457198	0.000246	2.456482	0.416139	-0.000025
1079	1.0726e+02	9.2705	14.437238	0.000201	2.006127	0.339847	-0.000020
1080	1.0736e+02	9.2593	14.416871	0.000205	2.047068	0.346783	-0.000020
1081	1.0746e+02	9.2481	14.394467	0.000225	2.251775	0.381461	-0.000023
1082	1.0756e+02	9.2391	14.370842	0.000237	2.374599	0.402268	-0.000024
1083	1.0766e+02	9.2264	14.354141	0.000168	1.678596	0.284362	-0.000017
1084	1.0776e+02	9.2191	14.326441	0.000278	2.784013	0.471625	-0.000028
1085	1.0786e+02	9.2106	14.308518	0.000180	1.801420	0.305169	-0.000018
1086	1.0796e+02	9.1988	14.287744	0.000209	2.088009	0.353718	-0.000021
1087	1.0806e+02	9.1882	14.263303	0.000246	2.456482	0.416139	-0.000025
1088	1.0816e+02	9.1756	14.241307	0.000221	2.210834	0.374525	-0.000022
1089	1.0826e+02	9.1703	14.224198	0.000172	1.719537	0.291297	-0.000017
1090	1.0836e+02	9.1577	14.200572	0.000237	2.374599	0.402268	-0.000024
1091	1.0845e+02	9.1502	14.178576	0.000221	2.210834	0.374525	-0.000022
1092	1.0855e+02	9.1396	14.158616	0.000201	2.006127	0.339847	-0.000020
1093	1.0865e+02	9.1281	14.136620	0.000221	2.210834	0.374525	-0.000022
1094	1.0875e+02	9.1164	14.114623	0.000221	2.210834	0.374525	-0.000022
1095	1.0885e+02	9.1080	14.091812	0.000229	2.292716	0.388397	-0.000023
1096	1.0895e+02	9.0981	14.071445	0.000205	2.047068	0.346783	-0.000020
1097	1.0905e+02	9.0894	14.047004	0.000246	2.456482	0.416139	-0.000025
1098	1.0915e+02	9.0820	14.026230	0.000209	2.088009	0.353718	-0.000021
1099	1.0925e+02	9.0702	14.004641	0.000217	2.169892	0.367590	-0.000022
1100	1.0935e+02	9.0597	13.985088	0.000197	1.965185	0.332911	-0.000020
1101	1.0945e+02	9.0479	13.960648	0.000246	2.456482	0.416139	-0.000025
1102	1.0955e+02	9.0400	13.941502	0.000192	1.924244	0.325976	-0.000019
1103	1.0965e+02	9.0302	13.919913	0.000217	2.169892	0.367590	-0.000022
1104	1.0975e+02	9.0198	13.897102	0.000229	2.292716	0.388397	-0.000023
1105	1.0985e+02	9.0094	13.873476	0.000237	2.374599	0.402268	-0.000024
1106	1.0995e+02	8.9993	13.855961	0.000176	1.760479	0.298233	-0.000018
1107	1.1005e+02	8.9904	13.834779	0.000213	2.128951	0.360654	-0.000021
1108	1.1015e+02	8.9801	13.810338	0.000246	2.456482	0.416139	-0.000025
1109	1.1025e+02	8.9676	13.784676	0.000258	2.579306	0.436946	-0.000026
1110	1.1035e+02	8.9605	13.765123	0.000197	1.965185	0.332911	-0.000020
1111	1.1044e+02	8.9504	13.737831	0.000274	2.743071	0.464689	-0.000027
1112	1.1054e+02	8.9399	13.717464	0.000205	2.047068	0.346783	-0.000020
1113	1.1064e+02	8.9301	13.695060	0.000225	2.251775	0.381461	-0.000023
1114	1.1074e+02	8.9222	13.675508	0.000197	1.965185	0.332911	-0.000020
1115	1.1084e+02	8.9114	13.655955	0.000197	1.965185	0.332911	-0.000020
1116	1.1094e+02	8.9006	13.633552	0.000225	2.251775	0.381461	-0.000023
1117	1.1104e+02	8.8867	13.608296	0.000254	2.538364	0.430011	-0.000025
1118	1.1114e+02	8.8797	13.586300	0.000221	2.210834	0.374525	-0.000022
1119	1.1124e+02	8.8698	13.566747	0.000197	1.965185	0.332911	-0.000020
1120	1.1134e+02	8.8611	13.546380	0.000205	2.047068	0.346783	-0.000020
1121	1.1144e+02	8.8514	13.523569	0.000229	2.292716	0.388397	-0.000023
1122	1.1154e+02	8.8405	13.498314	0.000254	2.538364	0.430011	-0.000025
1123	1.1164e+02	8.8323	13.476725	0.000217	2.169892	0.367590	-0.000022
1124	1.1174e+02	8.8232	13.457987	0.000188	1.883303	0.319040	-0.000019
1125	1.1184e+02	8.8135	13.431917	0.000262	2.620247	0.443882	-0.000026
1126	1.1194e+02	8.7989	13.408698	0.000233	2.333658	0.395332	-0.000023
1127	1.1204e+02	8.7923	13.388331	0.000205	2.047068	0.346783	-0.000020
1128	1.1214e+02	8.7826	13.364705	0.000237	2.374599	0.402268	-0.000024
1129	1.1224e+02	8.7720	13.343116	0.000217	2.169892	0.367590	-0.000022
1130	1.1234e+02	8.7617	13.321934	0.000213	2.128951	0.360654	-0.000021
1131	1.1244e+02	8.7487	13.299531	0.000225	2.251775	0.381461	-0.000023
1132	1.1253e+02	8.7421	13.278349	0.000213	2.128951	0.360654	-0.000021
1133	1.1263e+02	8.7354	13.257167	0.000213	2.128951	0.360654	-0.000021
1134	1.1273e+02	8.7215	13.235985	0.000213	2.128951	0.360654	-0.000021
1135	1.1283e+02	8.7128	13.212767	0.000233	2.333658	0.395332	-0.000023
1136	1.1293e+02	8.7025	13.189548	0.000233	2.333658	0.395332	-0.000023
1137	1.1303e+02	8.6917	13.165515	0.000242	2.415540	0.409204	-0.000024
1138	1.1313e+02	8.6826	13.139038	0.000266	2.661189	0.450818	-0.000027
1139	1.1323e+02	8.6719	13.117449	0.000217	2.169892	0.367590	-0.000022
1140	1.1333e+02	8.6606	13.091379	0.000262	2.620247	0.443882	-0.000026
1141	1.1343e+02	8.6523	13.068567	0.000229	2.292716	0.388397	-0.000023
1142	1.1353e+02	8.6426	13.046571	0.000221	2.210834	0.374525	-0.000022
1143	1.1363e+02	8.6301	13.020094	0.000266	2.661189	0.450818	-0.000027
1144	1.1373e+02	8.6227	12.997282	0.000229	2.292716	0.388397	-0.000023
1145	1.1383e+02	8.6139	12.976915	0.000205	2.047068	0.346783	-0.000020
1146	1.1393e+02	8.6028	12.951660	0.000254	2.538364	0.430011	-0.000025
1147	1.1403e+02	8.5944	12.934552	0.000172	1.719537	0.291297	-0.000017
1148	1.1413e+02	8.5825	12.911333	0.000233	2.333658	0.395332	-0.000023
1149	1.1423e+02	8.5742	12.887300	0.000242	2.415540	0.409204	-0.000024
1150	1.1433e+02	8.5624	12.863267	0.000242	2.415540	0.409204	-0.000024
1151	1.1442e+02	8.5529	12.842492	0.000209	2.088009	0.353718	-0.000021
1152	1.1452e+02	8.5425	12.815608	0.000270	2.702130	0.457753	-0.000027
1153	1.1462e+02	8.5325	12.790760	0.000250	2.497423	0.423075	-0.000025
1154	1.1472e+02	8.5230	12.771207	0.000197	1.965185	0.332911	-0.000020
1155	1.1482e+02	8.5107	12.750026	0.000213	2.128951	0.360654	-0.000021
1156	1.1492e+02	8.5014	12.728844	0.000213	2.128951	0.360654	-0.000021
1157	1.1502e+02	8.4940	12.707255	0.000217	2.169892	0.367590	-0.000022
1158	1.1512e+02	8.4797	12.684036	0.000233	2.333658	0.395332	-0.000023
1159	1.1522e+02	8.4739	12.664076	0.000201	2.006127	0.339847	-0.000020
1160	1.1532e+02	8.4614	12.640450	0.000237	2.374599	0.402268	-0.000024
1161	1.1542e+02	8.4540	12.619269	0.000213	2.128951	0.360654	-0.000021
1162	1.1552e+02	8.4457	12.598087	0.000213	2.128951	0.360654	-0.000021
1163	1.1562e+02	8.4338	12.575683	0.000225	2.251775	0.381461	-0.000023
1164	1.1572e+02	8.4224	12.553279	0.000225	2.251775	0.381461	-0.000023
1165	1.1582e+02	8.4116	12.532505	0.000209	2.088009	0.353718	-0.000021
1166	1.1592e+02	8.4040	12.507249	0.000254	2.538364	0.430011	-0.000025
1167	1.1602e+02	8.3949	12.483624	0.000237	2.374599	0.402268	-0.000024
1168	1.1612e+02	8.3838	12.466108	0.000176	1.760479	0.298233	-0.000018
1169	1.1622e+02	8.3743	12.443297	0.000229	2.292716	0.388397	-0.000023
1170	1.1632e+02	8.3614	12.420078	0.000233	2.333658	0.395332	-0.000023
1171	1.1642e+02	8.3545	12.396452	0.000237	2.374599	0.402268	-0.000024
1172	1.1651e+02	8.3459	12.371197	0.000254	2.538364	0.430011	-0.000025
1173	1.1661e+02	8.3318	12.348386	0.000229	2.292716	0.388397	-0.000023
1174	1.1671e+02	8.3245	12.324760	0.000237	2.374599	0.402268	-0.000024
1175	1.1681e+02	8.3157	12.303171	0.000217	2.169892	0.367590	-0.000022
1176	1.1691e+02	8.3044	12.279952	0.000233	2.333658	0.395332	-0.000023
1177	1.1701e+02	8.2980	12.254697	0.000254	2.538364	0.430011	-0.000025
1178	1.1711e+02	8.2838	12.231071	0.000237	2.374599	0.402268	-0.000024
1179	1.1721e+02	8.2732	12.206631	0.000246	2.456482	0.416139	-0.000025
1180	1.1731e+02	8.2639	12.187893	0.000188	1.883303	0.319040	-0.000019
1181	1.1741e+02	8.2542	12.163452	0.000246	2.456482	0.416139	-0.000025
1182	1.1751e+02	8.2443	12.140641	0.000229	2.292716	0.388397	-0.000023
1183	1.1761e+02	8.2349	12.115386	0.000254	2.538364	0.430011	-0.000025
1184	1.1771e+02	8.2231	12.094611	0.000209	2.088009	0.353718	-0.000021
1185	1.1781e+02	8.2149	12.068541	0.000262	2.620247	0.443882	-0.000026
1186	1.1791e+02	8.2047	12.047767	0.000209	2.088009	0.353718	-0.000021
1187	1.1801e+02	8.1934	12.023734	0.000242	2.415540	0.409204	-0.000024
1188	1.1811e+02	8.1849	11.998886	0.000250	2.497423	0.423075	-0.000025
1189	1.1821e+02	8.1753	11.979333	0.000197	1.965185	0.332911	-0.000020
1190	1.1831e+02	8.1641	11.953264	0.000262	2.620247	0.443882	-0.000026
1191	1.1841e+02	8.1556	11.927194	0.000262	2.620247	0.443882	-0.000026
1192	1.1850e+02	8.1445	11.908048	0.000192	1.924244	0.325976	-0.000019
1193	1.1860e+02	8.1348	11.887274	0.000209	2.088009	0.353718	-0.000021
1194	1.1870e+02	8.1262	11.863648	0.000237	2.374599	0.402268	-0.000024
1195	1.1880e+02	8.1168	11.838800	0.000250	2.497423	0.423075	-0.000025
1196	1.1890e+02	8.1039	11.813952	0.000250	2.497423	0.423075	-0.000025
1197	1.1900e+02	8.0988	11.792771	0.000213	2.128951	0.360654	-0.000021
1198	1.1910e+02	8.0853	11.767923	0.000250	2.497423	0.423075	-0.000025
1199	1.1920e+02	8.0756	11.738187	0.000299	2.988719	0.506303	-0.000030
1200	1.1930e+02	8.0629	11.719449	0.000188	1.883303	0.319040	-0.000019
1201	1.1940e+02	8.0551	11.692972	0.000266	2.661189	0.450818	-0.000027
1202	1.1950e+02	8.0471	11.671790	0.000213	2.128951	0.360654	-0.000021
1203	1.1960e+02	8.0344	11.648571	0.000233	2.333658	0.395332	-0.000023
1204	1.1970e+02	8.0241	11.625760	0.000229	2.292716	0.388397	-0.000023
1205	1.1980e+02	8.0158	11.597653	0.000282	2.824954	0.478560	-0.000028
1206	1.1990e+02	8.0071	11.577286	0.000205	2.047068	0.346783	-0.000020
1207	1.2000e+02	7.9958	11.550809	0.000266	2.661189	0.450818	-0.000027
1208	1.2010e+02	7.9858	11.527183	0.000237	2.374599	0.402268	-0.000024
1209	1.2020e+02	7.9742	11.508038	0.000192	1.924244	0.325976	-0.000019
1210	1.2030e+02	7.9680	11.484005	0.000242	2.415540	0.409204	-0.000024
1211	1.2039e+02	7.9573	11.458750	0.000254	2.538364	0.430011	-0.000025
1212	1.2049e+02	7.9472	11.432272	0.000266	2.661189	0.450818	-0.000027
1213	1.2059e+02	7.9348	11.409869	0.000225	2.251775	0.381461	-0.000023
1214	1.2069e+02	7.9248	11.381355	0.000287	2.865895	0.485496	-0.000029
1215	1.2079e+02	7.9165	11.360987	0.000205	2.047068	0.346783	-0.000020
1216	1.2089e+02	7.9078	11.339398	0.000217	2.169892	0.367590	-0.000022
1217	1.2099e+02	7.8956	11.311699	0.000278	2.784013	0.471625	-0.000028
1218	1.2109e+02	7.8863	11.287666	0.000242	2.415540	0.409204	-0.000024
1219	1.2119e+02	7.8765	11.266077	0.000217	2.169892	0.367590	-0.000022
1220	1.2129e+02	7.8669	11.242043	0.000242	2.415540	0.409204	-0.000024
1221	1.2139e+02	7.8578	11.215159	0.000270	2.702130	0.457753	-0.000027
1222	1.2149e+02	7.8468	11.196828	0.000184	1.842361	0.312104	-0.000018
1223	1.2159e+02	7.8343	11.174832	0.000221	2.210834	0.374525	-0.000022
1224	1.2169e+02	7.8284	11.153650	0.000213	2.128951	0.360654	-0.000021
1225	1.2179e+02	7.8143	11.125136	0.000287	2.865895	0.485496	-0.000029
1226	1.2189e+02	7.8101	11.104769	0.000205	2.047068	0.346783	-0.000020
1227	1.2199e+02	7.7965	11.081958	0.000229	2.292716	0.388397	-0.000023
1228	1.2209e+02	7.7871	11.061591	0.000205	2.047068	0.346783	-0.000020
1229	1.2219e+02	7.7742	11.035521	0.000262	2.620247	0.443882	-0.000026
1230	1.2229e+02	7.7673	11.009043	0.000266	2.661189	0.450818	-0.000027
1231	1.2239e+02	7.7567	10.985010	0.000242	2.415540	0.409204	-0.000024
1232	1.2248e+02	7.7451	10.955682	0.000295	2.947778	0.499367	-0.000029
1233	1.2258e+02	7.7375	10.934500	0.000213	2.128951	0.360654	-0.000021
1234	1.2268e+02	7.7261	10.911281	0.000233	2.333658	0.395332	-0.000023
1235	1.2278e+02	7.7177	10.890914	0.000205	2.047068	0.346783	-0.000020
1236	1.2288e+02	7.7057	10.864030	0.000270	2.702130	0.457753	-0.000027
1237	1.2298e+02	7.6953	10.840404	0.000237	2.374599	0.402268	-0.000024
1238	1.2308e+02	7.6849	10.815148	0.000254	2.538364	0.430011	-0.000025
1239	1.2318e+02	7.6787	10.788671	0.000266	2.661189	0.450818	-0.000027
1240	1.2328e+02	7.6692	10.763823	0.000250	2.497423	0.423075	-0.000025
1241	1.2338e+02	7.6559	10.738161	0.000258	2.579306	0.436946	-0.000026
1242	1.2348e+02	7.6482	10.712091	0.000262	2.620247	0.443882	-0.000026
1243	1.2358e+02	7.6335	10.688058	0.000242	2.415540	0.409204	-0.000024
1244	1.2368e+02	7.6287	10.662802	0.000254	2.538364	0.430011	-0.000025
1245	1.2378e+02	7.6173	10.639176	0.000237	2.374599	0.402268	-0.000024
1246	1.2388e+02	7.6090	10.611070	0.000282	2.824954	0.478560	-0.000028
1247	1.2398e+02	7.5997	10.585407	0.000258	2.579306	0.436946	-0.000026
1248	1.2408e+02	7.5886	10.563818	0.000217	2.169892	0.367590	-0.000022
1249	1.2418e+02	7.5784	10.535711	0.000282	2.824954	0.478560	-0.000028
1250	1.2428e+02	7.5650	10.509641	0.000262	2.620247	0.443882	-0.000026
1251	1.2438e+02	7.5587	10.484386	0.000254	2.538364	0.430011	-0.000025
1252	1.2447e+02	7.5468	10.460353	0.000242	2.415540	0.409204	-0.000024
1253	1.2457e+02	7.5373	10.435098	0.000254	2.538364	0.430011	-0.000025
1254	1.2467e+02	7.5282	10.410657	0.000246	2.456482	0.416139	-0.000025
1255	1.2477e+02	7.5158	10.386624	0.000242	2.415540	0.409204	-0.000024
1256	1.2487e+02	7.5064	10.363813	0.000229	2.292716	0.388397	-0.000023
1257	1.2497e+02	7.4988	10.339372	0.000246	2.456482	0.416139	-0.000025
1258	1.2507e+02	7.4881	10.312895	0.000266	2.661189	0.450818	-0.000027
1259	1.2517e+02	7.4791	10.289269	0.000237	2.374599	0.402268	-0.000024
1260	1.2527e+02	7.4697	10.259941	0.000295	2.947778	0.499367	-0.000029
1261	1.2537e+02	7.4562	10.236315	0.000237	2.374599	0.402268	-0.000024
1262	1.2547e+02	7.4502	10.210652	0.000258	2.579306	0.436946	-0.000026
1263	1.2557e+02	7.4377	10.188248	0.000225	2.251775	0.381461	-0.000023
1264	1.2567e+02	7.4294	10.165030	0.000233	2.333658	0.395332	-0.000023
1265	1.2577e+02	7.4197	10.140182	0.000250	2.497423	0.423075	-0.000025
1266	1.2587e+02	7.4086	10.112890	0.000274	2.743071	0.464689	-0.000027
1267	1.2597e+02	7.3985	10.088857	0.000242	2.415540	0.409204	-0.000024
1268	1.2607e+02	7.3891	10.063601	0.000254	2.538364	0.430011	-0.000025
1269	1.2617e+02	7.3791	10.040790	0.000229	2.292716	0.388397	-0.000023
1270	1.2627e+02	7.3656	10.011462	0.000295	2.947778	0.499367	-0.000029
1271	1.2636e+02	7.3584	9.991094	0.000205	2.047068	0.346783	-0.000020
1272	1.2646e+02	7.3483	9.962988	0.000282	2.824954	0.478560	-0.000028
1273	1.2656e+02	7.3376	9.938140	0.000250	2.497423	0.423075	-0.000025
1274	1.2666e+02	7.3275	9.912477	0.000258	2.579306	0.436946	-0.000026
1275	1.2676e+02	7.3179	9.888037	0.000246	2.456482	0.416139	-0.000025
1276	1.2686e+02	7.3092	9.862374	0.000258	2.579306	0.436946	-0.000026
1277	1.2696e+02	7.2984	9.836712	0.000258	2.579306	0.436946	-0.000026
1278	1.2706e+02	7.2915	9.810642	0.000262	2.620247	0.443882	-0.000026
1279	1.2716e+02	7.2817	9.787423	0.000233	2.333658	0.395332	-0.000023
1280	1.2726e+02	7.2698	9.758909	0.000287	2.865895	0.485496	-0.000029
1281	1.2736e+02	7.2578	9.738949	0.000201	2.006127	0.339847	-0.000020
1282	1.2746e+02	7.2492	9.711250	0.000278	2.784013	0.471625	-0.000028
1283	1.2756e+02	7.2388	9.685995	0.000254	2.538364	0.430011	-0.000025
1284	1.2766e+02	7.2289	9.658703	0.000274	2.743071	0.464689	-0.000027
1285	1.2776e+02	7.2182	9.637114	0.000217	2.169892	0.367590	-0.000022
1286	1.2786e+02	7.2119	9.613895	0.000233	2.333658	0.395332	-0.000023
1287	1.2796e+02	7.2009	9.584974	0.000291	2.906837	0.492431	-0.000029
1288	1.2806e+02	7.1897	9.562570	0.000225	2.251775	0.381461	-0.000023
1289	1.2816e+02	7.1782	9.537722	0.000250	2.497423	0.423075	-0.000025
1290	1.2826e+02	7.1690	9.510023	0.000278	2.784013	0.471625	-0.000028
1291	1.2835e+02	7.1609	9.481509	0.000287	2.865895	0.485496	-0.000029
1292	1.2845e+02	7.1503	9.457883	0.000237	2.374599	0.402268	-0.000024
1293	1.2855e+02	7.1404	9.433850	0.000242	2.415540	0.409204	-0.000024
1294	1.2865e+02	7.1290	9.409409	0.000246	2.456482	0.416139	-0.000025
1295	1.2875e+02	7.1227	9.384969	0.000246	2.456482	0.416139	-0.000025
1296	1.2885e+02	7.1111	9.356047	0.000291	2.906837	0.492431	-0.000029
1297	1.2895e+02	7.1015	9.332014	0.000242	2.415540	0.409204	-0.000024
1298	1.2905e+02	7.0901	9.308796	0.000233	2.333658	0.395332	-0.000023
1299	1.2915e+02	7.0806	9.285577	0.000233	2.333658	0.395332	-0.000023
1300	1.2925e+02	7.0724	9.260729	0.000250	2.497423	0.423075	-0.000025
1301	1.2935e+02	7.0641	9.232623	0.000282	2.824954	0.478560	-0.000028
1302	1.2945e+02	7.0509	9.204109	0.000287	2.865895	0.485496	-0.000029
1303	1.2955e+02	7.0391	9.178853	0.000254	2.538364	0.430011	-0.000025
1304	1.2965e+02	7.0323	9.153191	0.000258	2.579306	0.436946	-0.000026
1305	1.2975e+02	7.0173	9.129158	0.000242	2.415540	0.409204	-0.000024
1306	1.2985e+02	7.0110	9.103088	0.000262	2.620247	0.443882	-0.000026
1307	1.2995e+02	6.9995	9.077425	0.000258	2.579306	0.436946	-0.000026
1308	1.3005e+02	6.9888	9.048096	0.000295	2.947778	0.499367	-0.000029
1309	1.3015e+02	6.9796	9.020397	0.000278	2.784013	0.471625	-0.000028
1310	1.3025e+02	6.9666	8.991883	0.000287	2.865895	0.485496	-0.000029
1311	1.3034e+02	6.9608	8.967035	0.000250	2.497423	0.423075	-0.000025
1312	1.3044e+02	6.9531	8.940151	0.000270	2.702130	0.457753	-0.000027
1313	1.3054e+02	6.9396	8.919376	0.000209	2.088009	0.353718	-0.000021
1314	1.3064e+02	6.9301	8.890048	0.000295	2.947778	0.499367	-0.000029
1315	1.3074e+02	6.9199	8.870495	0.000197	1.965185	0.332911	-0.000020
1316	1.3084e+02	6.9082	8.841574	0.000291	2.906837	0.492431	-0.000029
1317	1.3094e+02	6.9024	8.815911	0.000258	2.579306	0.436946	-0.000026
1318	1.3104e+02	6.8930	8.791063	0.000250	2.497423	0.423075	-0.000025
1319	1.3114e+02	6.8809	8.766215	0.000250	2.497423	0.423075	-0.000025
1320	1.3124e+02	6.8687	8.737701	0.000287	2.865895	0.485496	-0.000029
1321	1.3134e+02	6.8590	8.710409	0.000274	2.743071	0.464689	-0.000027
1322	1.3144e+02	6.8533	8.684747	0.000258	2.579306	0.436946	-0.000026
1323	1.3154e+02	6.8426	8.660714	0.000242	2.415540	0.409204	-0.000024
1324	1.3164e+02	6.8328	8.635458	0.000254	2.538364	0.430011	-0.000025
1325	1.3174e+02	6.8224	8.613462	0.000221	2.210834	0.374525	-0.000022
1326	1.3184e+02	6.8104	8.586577	0.000270	2.702130	0.457753	-0.000027
1327	1.3194e+02	6.8005	8.564581	0.000221	2.210834	0.374525	-0.000022
1328	1.3204e+02	6.7922	8.540548	0.000242	2.415540	0.409204	-0.000024
1329	1.3214e+02	6.7798	8.516514	0.000242	2.415540	0.409204	-0.000024
1330	1.3224e+02	6.7725	8.495740	0.000209	2.088009	0.353718	-0.000021
1331	1.3234e+02	6.7593	8.466819	0.000291	2.906837	0.492431	-0.000029
1332	1.3243e+02	6.7522	8.436675	0.000303	3.029661	0.513238	-0.000030
1333	1.3253e+02	6.7417	8.413864	0.000229	2.292716	0.388397	-0.000023
1334	1.3263e+02	6.7310	8.388201	0.000258	2.579306	0.436946	-0.000026
1335	1.3273e+02	6.7239	8.364168	0.000242	2.415540	0.409204	-0.000024
1336	1.3283e+02	6.7071	8.339320	0.000250	2.497423	0.423075	-0.000025
1337	1.3293e+02	6.7042	8.310399	0.000291	2.906837	0.492431	-0.000029
1338	1.3303e+02	6.6895	8.284329	0.000262	2.620247	0.443882	-0.000026
1339	1.3313e+02	6.6833	8.261111	0.000233	2.333658	0.395332	-0.000023
1340	1.3323e+02	6.6695	8.235041	0.000262	2.620247	0.443882	-0.000026
1341	1.3333e+02	6.6619	8.206934	0.000282	2.824954	0.478560	-0.000028
1342	1.3343e+02	6.6518	8.178827	0.000282	2.824954	0.478560	-0.000028
1343	1.3353e+02	6.6414	8.155202	0.000237	2.374599	0.402268	-0.000024
1344	1.3363e+02	6.6336	8.129539	0.000258	2.579306	0.436946	-0.000026
1345	1.3373e+02	6.6236	8.103469	0.000262	2.620247	0.443882	-0.000026
1346	1.3383e+02	6.6146	8.077806	0.000258	2.579306	0.436946	-0.000026
1347	1.3393e+02	6.6015	8.053773	0.000242	2.415540	0.409204	-0.000024
1348	1.3403e+02	6.5936	8.026481	0.000274	2.743071	0.464689	-0.000027
1349	1.3413e+02	6.5810	8.000819	0.000258	2.579306	0.436946	-0.000026
1350	1.3423e+02	6.5727	7.975563	0.000254	2.538364	0.430011	-0.000025
1351	1.3432e+02	6.5609	7.949901	0.000258	2.579306	0.436946	-0.000026
1352	1.3442e+02	6.5517	7.920980	0.000291	2.906837	0.492431	-0.000029
1353	1.3452e+02	6.5406	7.895317	0.000258	2.579306	0.436946	-0.000026
1354	1.3462e+02	6.5334	7.871284	0.000242	2.415540	0.409204	-0.000024
1355	1.3472e+02	6.5234	7.844399	0.000270	2.702130	0.457753	-0.000027
1356	1.3482e+02	6.5151	7.819144	0.000254	2.538364	0.430011	-0.000025
1357	1.3492e+02	6.5040	7.792667	0.000266	2.661189	0.450818	-0.000027
1358	1.3502e+02	6.4931	7.763745	0.000291	2.906837	0.492431	-0.000029
1359	1.3512e+02	6.4822	7.739712	0.000242	2.415540	0.409204	-0.000024
1360	1.3522e+02	6.4712	7.712828	0.000270	2.702130	0.457753	-0.000027
1361	1.3532e+02	6.4622	7.685128	0.000278	2.784013	0.471625	-0.000028
1362	1.3542e+02	6.4526	7.661095	0.000242	2.415540	0.409204	-0.000024
1363	1.3552e+02	6.4425	7.639506	0.000217	2.169892	0.367590	-0.000022
1364	1.3562e+02	6.4312	7.610992	0.000287	2.865895	0.485496	-0.000029
1365	1.3572e+02	6.4223	7.582478	0.000287	2.865895	0.485496	-0.000029
1366	1.3582e+02	6.4137	7.556001	0.000266	2.661189	0.450818	-0.000027
1367	1.3592e+02	6.4034	7.528709	0.000274	2.743071	0.464689	-0.000027
1368	1.3602e+02	6.3934	7.499380	0.000295	2.947778	0.499367	-0.000029
1369	1.3612e+02	6.3835	7.476162	0.000233	2.333658	0.395332	-0.000023
1370	1.3622e+02	6.3723	7.448870	0.000274	2.743071	0.464689	-0.000027
1371	1.3631e+02	6.3601	7.423614	0.000254	2.538364	0.430011	-0.000025
1372	1.3641e+02	6.3549	7.390620	0.000332	3.316250	0.561788	-0.000033
1373	1.3651e+02	6.3453	7.368623	0.000221	2.210834	0.374525	-0.000022
1374	1.3661e+02	6.3341	7.344183	0.000246	2.456482	0.416139	-0.000025
1375	1.3671e+02	6.3260	7.318113	0.000262	2.620247	0.443882	-0.000026
1376	1.3681e+02	6.3130	7.290413	0.000278	2.784013	0.471625	-0.000028
1377	1.3691e+02	6.3037	7.263529	0.000270	2.702130	0.457753	-0.000027
1378	1.3701e+02	6.2940	7.241125	0.000225	2.251775	0.381461	-0.000023
1379	1.3711e+02	6.2821	7.210982	0.000303	3.029661	0.513238	-0.000030
1380	1.3721e+02	6.2737	7.187356	0.000237	2.374599	0.402268	-0.000024
1381	1.3731e+02	6.2647	7.158027	0.000295	2.947778	0.499367	-0.000029
1382	1.3741e+02	6.2556	7.131957	0.000262	2.620247	0.443882	-0.000026
1383	1.3751e+02	6.2435	7.103850	0.000282	2.824954	0.478560	-0.000028
1384	1.3761e+02	6.2331	7.077373	0.000266	2.661189	0.450818	-0.000027
1385	1.3771e+02	6.2267	7.050489	0.000270	2.702130	0.457753	-0.000027
1386	1.3781e+02	6.2139	7.027270	0.000233	2.333658	0.395332	-0.000023
1387	1.3791e+02	6.2045	6.996312	0.000311	3.111544	0.527110	-0.000031
1388	1.3801e+02	6.1974	6.975538	0.000209	2.088009	0.353718	-0.000021
1389	1.3811e+02	6.1851	6.948246	0.000274	2.743071	0.464689	-0.000027
1390	1.3821e+02	6.1773	6.923398	0.000250	2.497423	0.423075	-0.000025
1391	1.3831e+02	6.1654	6.894884	0.000287	2.865895	0.485496	-0.000029
1392	1.3840e+02	6.1564	6.870850	0.000242	2.415540	0.409204	-0.000024
1393	1.3850e+02	6.1465	6.843151	0.000278	2.784013	0.471625	-0.000028
1394	1.3860e+02	6.1358	6.816674	0.000266	2.661189	0.450818	-0.000027
1395	1.3870e+02	6.1270	6.796307	0.000205	2.047068	0.346783	-0.000020
1396	1.3880e+02	6.1160	6.762905	0.000336	3.357192	0.568724	-0.000034
1397	1.3890e+02	6.1053	6.735613	0.000274	2.743071	0.464689	-0.000027
1398	1.3900e+02	6.0950	6.708728	0.000270	2.702130	0.457753	-0.000027
1399	1.3910e+02	6.0859	6.684288	0.000246	2.456482	0.416139	-0.000025
1400	1.3920e+02	6.0744	6.656996	0.000274	2.743071	0.464689	-0.000027
1401	1.3930e+02	6.0642	6.626852	0.000303	3.029661	0.513238	-0.000030
1402	1.3940e+02	6.0561	6.601190	0.000258	2.579306	0.436946	-0.000026
1403	1.3950e+02	6.0438	6.573083	0.000282	2.824954	0.478560	-0.000028
1404	1.3960e+02	6.0368	6.549865	0.000233	2.333658	0.395332	-0.000023
1405	1.3970e+02	6.0249	6.523795	0.000262	2.620247	0.443882	-0.000026
1406	1.3980e+02	6.0134	6.491615	0.000323	3.234368	0.547917	-0.000032
1407	1.3990e+02	6.0053	6.464323	0.000274	2.743071	0.464689	-0.000027
1408	1.4000e+02	5.9954	6.434994	0.000295	2.947778	0.499367	-0.000029
1409	1.4010e+02	5.9873	6.408517	0.000266	2.661189	0.450818	-0.000027
1410	1.4020e+02	5.9759	6.376744	0.000319	3.193426	0.540981	-0.000032
1411	1.4029e+02	5.9653	6.352303	0.000246	2.456482	0.416139	-0.000025
1412	1.4039e+02	5.9580	6.325826	0.000266	2.661189	0.450818	-0.000027
1413	1.4049e+02	5.9478	6.295275	0.000307	3.070602	0.520174	-0.000031
1414	1.4059e+02	5.9341	6.266761	0.000287	2.865895	0.485496	-0.000029
1415	1.4069e+02	5.9261	6.235803	0.000311	3.111544	0.527110	-0.000031
1416	1.4079e+02	5.9164	6.213807	0.000221	2.210834	0.374525	-0.000022
1417	1.4089e+02	5.9052	6.182442	0.000315	3.152485	0.534045	-0.000032
1418	1.4099e+02	5.8950	6.158001	0.000246	2.456482	0.416139	-0.000025
1419	1.4109e+02	5.8881	6.126636	0.000315	3.152485	0.534045	-0.000032
1420	1.4119e+02	5.8776	6.098122	0.000287	2.865895	0.485496	-0.000029
1421	1.4129e+02	5.8648	6.072866	0.000254	2.538364	0.430011	-0.000025
1422	1.4139e+02	5.8541	6.042723	0.000303	3.029661	0.513238	-0.000030
1423	1.4149e+02	5.8466	6.014616	0.000282	2.824954	0.478560	-0.000028
1424	1.4159e+02	5.8360	5.988954	0.000258	2.579306	0.436946	-0.000026
1425	1.4169e+02	5.8262	5.961255	0.000278	2.784013	0.471625	-0.000028
1426	1.4179e+02	5.8184	5.932741	0.000287	2.865895	0.485496	-0.000029
1427	1.4189e+02	5.8074	5.907078	0.000258	2.579306	0.436946	-0.000026
1428	1.4199e+02	5.7960	5.877749	0.000295	2.947778	0.499367	-0.000029
1429	1.4209e+02	5.7865	5.850050	0.000278	2.784013	0.471625	-0.000028
1430	1.4219e+02	5.7783	5.820721	0.000295	2.947778	0.499367	-0.000029
1431	1.4228e+02	5.7677	5.791800	0.000291	2.906837	0.492431	-0.000029
1432	1.4238e+02	5.7583	5.764508	0.000274	2.743071	0.464689	-0.000027
1433	1.4248e+02	5.7476	5.740068	0.000246	2.456482	0.416139	-0.000025
1434	1.4258e+02	5.7381	5.710332	0.000299	2.988719	0.506303	-0.000030
1435	1.4268e+02	5.7284	5.684669	0.000258	2.579306	0.436946	-0.000026
1436	1.4278e+02	5.7170	5.659006	0.000258	2.579306	0.436946	-0.000026
1437	1.4288e+02	5.7101	5.628048	0.000311	3.111544	0.527110	-0.000031
1438	1.4298e+02	5.6962	5.600756	0.000274	2.743071	0.464689	-0.000027
1439	1.4308e+02	5.6864	5.574279	0.000266	2.661189	0.450818	-0.000027
1440	1.4318e+02	5.6780	5.544950	0.000295	2.947778	0.499367	-0.000029
1441	1.4328e+02	5.6681	5.518881	0.000262	2.620247	0.443882	-0.000026
1442	1.4338e+02	5.6564	5.488737	0.000303	3.029661	0.513238	-0.000030
1443	1.4348e+02	5.6492	5.456150	0.000328	3.275309	0.554852	-0.000033
1444	1.4358e+02	5.6391	5.428043	0.000282	2.824954	0.478560	-0.000028
1445	1.4368e+02	5.6271	5.403603	0.000246	2.456482	0.416139	-0.000025
1446	1.4378e+02	5.6191	5.373867	0.000299	2.988719	0.506303	-0.000030
1447	1.4388e+02	5.6089	5.345760	0.000282	2.824954	0.478560	-0.000028
1448	1.4398e+02	5.5981	5.316839	0.000291	2.906837	0.492431	-0.000029
1449	1.4408e+02	5.5872	5.287510	0.000295	2.947778	0.499367	-0.000029
1450	1.4418e+02	5.5798	5.263477	0.000242	2.415540	0.409204	-0.000024
1451	1.4428e+02	5.5687	5.239036	0.000246	2.456482	0.416139	-0.000025
1452	1.4437e+02	5.5582	5.206449	0.000328	3.275309	0.554852	-0.000033
1453	1.4447e+02	5.5488	5.177528	0.000291	2.906837	0.492431	-0.000029
1454	1.4457e+02	5.5367	5.154716	0.000229	2.292716	0.388397	-0.000023
1455	1.4467e+02	5.5302	5.126202	0.000287	2.865895	0.485496	-0.000029
1456	1.4477e+02	5.5198	5.098096	0.000282	2.824954	0.478560	-0.000028
1457	1.4487e+02	5.5061	5.065508	0.000328	3.275309	0.554852	-0.000033
1458	1.4497e+02	5.4981	5.034958	0.000307	3.070602	0.520174	-0.000031
1459	1.4507e+02	5.4910	5.012961	0.000221	2.210834	0.374525	-0.000022
1460	1.4517e+02	5.4797	4.982818	0.000303	3.029661	0.513238	-0.000030
1461	1.4527e+02	5.4693	4.952674	0.000303	3.029661	0.513238	-0.000030
1462	1.4537e+02	5.4590	4.927827	0.000250	2.497423	0.423075	-0.000025
1463	1.4547e+02	5.4485	4.897276	0.000307	3.070602	0.520174	-0.000031
1464	1.4557e+02	5.4372	4.870391	0.000270	2.702130	0.457753	-0.000027
1465	1.4567e+02	5.4270	4.840655	0.000299	2.988719	0.506303	-0.000030
1466	1.4577e+02	5.4205	4.816215	0.000246	2.456482	0.416139	-0.000025
1467	1.4587e+02	5.4081	4.789330	0.000270	2.702130	0.457753	-0.000027
1468	1.4597e+02	5.4006	4.760409	0.000291	2.906837	0.492431	-0.000029
1469	1.4607e+02	5.3887	4.732709	0.000278	2.784013	0.471625	-0.000028
1470	1.4617e+02	5.3790	4.700529	0.000323	3.234368	0.547917	-0.000032
1471	1.4626e+02	5.3674	4.669164	0.000315	3.152485	0.534045	-0.000032
1472	1.4636e+02	5.3570	4.645131	0.000242	2.415540	0.409204	-0.000024
1473	1.4646e+02	5.3497	4.610914	0.000344	3.439074	0.582595	-0.000034
1474	1.4656e+02	5.3394	4.584844	0.000262	2.620247	0.443882	-0.000026
1475	1.4666e+02	5.3292	4.550220	0.000348	3.480016	0.589531	-0.000035
1476	1.4676e+02	5.3208	4.521299	0.000291	2.906837	0.492431	-0.000029
1477	1.4686e+02	5.3097	4.493192	0.000282	2.824954	0.478560	-0.000028
1478	1.4696e+02	5.2991	4.461827	0.000315	3.152485	0.534045	-0.000032
1479	1.4706e+02	5.2930	4.433313	0.000287	2.865895	0.485496	-0.000029
1480	1.4716e+02	5.2812	4.403984	0.000295	2.947778	0.499367	-0.000029
1481	1.4726e+02	5.2706	4.381987	0.000221	2.210834	0.374525	-0.000022
1482	1.4736e+02	5.2578	4.352659	0.000295	2.947778	0.499367	-0.000029
1483	1.4746e+02	5.2508	4.324145	0.000287	2.865895	0.485496	-0.000029
1484	1.4756e+02	5.2377	4.291150	0.000332	3.316250	0.561788	-0.000033
1485	1.4766e+02	5.2289	4.265488	0.000258	2.579306	0.436946	-0.000026
1486	1.4776e+02	5.2201	4.233307	0.000323	3.234368	0.547917	-0.000032
1487	1.4786e+02	5.2113	4.206423	0.000270	2.702130	0.457753	-0.000027
1488	1.4796e+02	5.1995	4.178724	0.000278	2.784013	0.471625	-0.000028
1489	1.4806e+02	5.1889	4.148988	0.000299	2.988719	0.506303	-0.000030
1490	1.4816e+02	5.1792	4.121288	0.000278	2.784013	0.471625	-0.000028
1491	1.4825e+02	5.1714	4.095218	0.000262	2.620247	0.443882	-0.000026
1492	1.4835e+02	5.1592	4.067112	0.000282	2.824954	0.478560	-0.000028
1493	1.4845e+02	5.1507	4.036561	0.000307	3.070602	0.520174	-0.000031
1494	1.4855e+02	5.1389	4.007232	0.000295	2.947778	0.499367	-0.000029
1495	1.4865e+02	5.1290	3.983606	0.000237	2.374599	0.402268	-0.000024
1496	1.4875e+02	5.1188	3.955093	0.000287	2.865895	0.485496	-0.000029
1497	1.4885e+02	5.1109	3.931467	0.000237	2.374599	0.402268	-0.000024
1498	1.4895e+02	5.0986	3.902953	0.000287	2.865895	0.485496	-0.000029
1499	1.4905e+02	5.0912	3.871995	0.000311	3.111544	0.527110	-0.000031
1500	1.4915e+02	5.0802	3.845925	0.000262	2.620247	0.443882	-0.000026
1501	1.4925e+02	5.0710	3.814967	0.000311	3.111544	0.527110	-0.000031
1502	1.4935e+02	5.0600	3.787675	0.000274	2.743071	0.464689	-0.000027
1503	1.4945e+02	5.0486	3.758753	0.000291	2.906837	0.492431	-0.000029
1504	1.4955e+02	5.0404	3.731054	0.000278	2.784013	0.471625	-0.000028
1505	1.4965e+02	5.0329	3.703762	0.000274	2.743071	0.464689	-0.000027
1506	1.4975e+02	5.0208	3.673619	0.000303	3.029661	0.513238	-0.000030
1507	1.4985e+02	5.0109	3.646327	0.000274	2.743071	0.464689	-0.000027
1508	1.4995e+02	5.0024	3.614961	0.000315	3.152485	0.534045	-0.000032
1509	1.5005e+02	4.9910	3.586447	0.000287	2.865895	0.485496	-0.000029
1510	1.5015e+02	4.9792	3.559156	0.000274	2.743071	0.464689	-0.000027
1511	1.5025e+02	4.9720	3.531864	0.000274	2.743071	0.464689	-0.000027
1512	1.5034e+02	4.9615	3.497647	0.000344	3.439074	0.582595	-0.000034
1513	1.5044e+02	4.9499	3.472799	0.000250	2.497423	0.423075	-0.000025
1514	1.5054e+02	4.9407	3.442656	0.000303	3.029661	0.513238	-0.000030
1515	1.5064e+02	4.9310	3.411290	0.000315	3.152485	0.534045	-0.000032
1516	1.5074e+02	4.9221	3.384813	0.000266	2.661189	0.450818	-0.000027
1517	1.5084e+02	4.9105	3.355484	0.000295	2.947778	0.499367	-0.000029
1518	1.5094e+02	4.9014	3.326156	0.000295	2.947778	0.499367	-0.000029
1519	1.5104e+02	4.8908	3.299678	0.000266	2.661189	0.450818	-0.000027
1520	1.5114e+02	4.8800	3.268313	0.000315	3.152485	0.534045	-0.000032
1521	1.5124e+02	4.8731	3.237762	0.000307	3.070602	0.520174	-0.000031
1522	1.5134e+02	4.8619	3.208841	0.000291	2.906837	0.492431	-0.000029
1523	1.5144e+02	4.8525	3.177883	0.000311	3.111544	0.527110	-0.000031
1524	1.5154e+02	4.8415	3.150184	0.000278	2.784013	0.471625	-0.000028
1525	1.5164e+02	4.8336	3.118411	0.000319	3.193426	0.540981	-0.000032
1526	1.5174e+02	4.8242	3.090304	0.000282	2.824954	0.478560	-0.000028
1527	1.5184e+02	4.8132	3.060568	0.000299	2.988719	0.506303	-0.000030
1528	1.5194e+02	4.8016	3.035720	0.000250	2.497423	0.423075	-0.000025
1529	1.5204e+02	4.7937	3.005577	0.000303	3.029661	0.513238	-0.000030
1530	1.5214e+02	4.7825	2.977878	0.000278	2.784013	0.471625	-0.000028
1531	1.5224e+02	4.7729	2.944476	0.000336	3.357192	0.568724	-0.000034
1532	1.5233e+02	4.7616	2.920035	0.000246	2.456482	0.416139	-0.000025
1533	1.5243e+02	4.7520	2.885004	0.000352	3.520957	0.596466	-0.000035
1534	1.5253e+02	4.7438	2.859748	0.000254	2.538364	0.430011	-0.000025
1535	1.5263e+02	4.7343	2.830827	0.000291	2.906837	0.492431	-0.000029
1536	1.5273e+02	4.7225	2.802313	0.000287	2.865895	0.485496	-0.000029
1537	1.5283e+02	4.7120	2.766874	0.000356	3.561899	0.603402	-0.000036
1538	1.5293e+02	4.7016	2.737138	0.000299	2.988719	0.506303	-0.000030
1539	1.5303e+02	4.6929	2.706995	0.000303	3.029661	0.513238	-0.000030
1540	1.5313e+02	4.6833	2.679296	0.000278	2.784013	0.471625	-0.000028
1541	1.5323e+02	4.6719	2.649152	0.000303	3.029661	0.513238	-0.000030
1542	1.5333e+02	4.6603	2.621046	0.000282	2.824954	0.478560	-0.000028
1543	1.5343e+02	4.6530	2.590902	0.000303	3.029661	0.513238	-0.000030
1544	1.5353e+02	4.6420	2.561574	0.000295	2.947778	0.499367	-0.000029
1545	1.5363e+02	4.6311	2.529801	0.000319	3.193426	0.540981	-0.000032
1546	1.5373e+02	4.6206	2.504138	0.000258	2.579306	0.436946	-0.000026
1547	1.5383e+02	4.6111	2.471144	0.000332	3.316250	0.561788	-0.000033
1548	1.5393e+02	4.6014	2.441408	0.000299	2.988719	0.506303	-0.000030
1549	1.5403e+02	4.5897	2.410857	0.000307	3.070602	0.520174	-0.000031
1550	1.5413e+02	4.5842	2.383565	0.000274	2.743071	0.464689	-0.000027
1551	1.5422e+02	4.5745	2.351792	0.000319	3.193426	0.540981	-0.000032
1552	1.5432e+02	4.5615	2.320834	0.000311	3.111544	0.527110	-0.000031
1553	1.5442e+02	4.5538	2.293950	0.000270	2.702130	0.457753	-0.000027
1554	1.5452e+02	4.5422	2.260140	0.000340	3.398133	0.575659	-0.000034
1555	1.5462e+02	4.5323	2.234070	0.000262	2.620247	0.443882	-0.000026
1556	1.5472e+02	4.5214	2.204742	0.000295	2.947778	0.499367	-0.000029
1557	1.5482e+02	4.5129	2.176228	0.000287	2.865895	0.485496	-0.000029
1558	1.5492e+02	4.5042	2.147714	0.000287	2.865895	0.485496	-0.000029
1559	1.5502e+02	4.4929	2.120422	0.000274	2.743071	0.464689	-0.000027
1560	1.5512e+02	4.4837	2.089871	0.000307	3.070602	0.520174	-0.000031
1561	1.5522e+02	4.4767	2.058913	0.000311	3.111544	0.527110	-0.000031
1562	1.5532e+02	4.4622	2.029584	0.000295	2.947778	0.499367	-0.000029
1563	1.5542e+02	4.4514	2.000256	0.000295	2.947778	0.499367	-0.000029
1564	1.5552e+02	4.4447	1.970927	0.000295	2.947778	0.499367	-0.000029
1565	1.5562e+02	4.4335	1.942006	0.000291	2.906837	0.492431	-0.000029
1566	1.5572e+02	4.4276	1.911048	0.000311	3.111544	0.527110	-0.000031
1567	1.5582e+02	4.4135	1.876423	0.000348	3.480016	0.589531	-0.000035
1568	1.5592e+02	4.4035	1.849946	0.000266	2.661189	0.450818	-0.000027
1569	1.5602e+02	4.3920	1.818581	0.000315	3.152485	0.534045	-0.000032
1570	1.5612e+02	4.3823	1.790474	0.000282	2.824954	0.478560	-0.000028
1571	1.5622e+02	4.3763	1.763182	0.000274	2.743071	0.464689	-0.000027
1572	1.5631e+02	4.3636	1.727743	0.000356	3.561899	0.603402	-0.000036
1573	1.5641e+02	4.3538	1.698007	0.000299	2.988719	0.506303	-0.000030
1574	1.5651e+02	4.3435	1.670715	0.000274	2.743071	0.464689	-0.000027
1575	1.5661e+02	4.3330	1.637721	0.000332	3.316250	0.561788	-0.000033
1576	1.5671e+02	4.3250	1.603504	0.000344	3.439074	0.582595	-0.000034
1577	1.5681e+02	4.3151	1.574175	0.000295	2.947778	0.499367	-0.000029
1578	1.5691e+02	4.3060	1.537514	0.000368	3.684723	0.624209	-0.000037
1579	1.5701e+02	4.2934	1.509408	0.000282	2.824954	0.478560	-0.000028
1580	1.5711e+02	4.2834	1.477228	0.000323	3.234368	0.547917	-0.000032
1581	1.5721e+02	4.2764	1.444233	0.000332	3.316250	0.561788	-0.000033
1582	1.5731e+02	4.2650	1.416126	0.000282	2.824954	0.478560	-0.000028
1583	1.5741e+02	4.2559	1.384354	0.000319	3.193426	0.540981	-0.000032
1584	1.5751e+02	4.2467	1.351359	0.000332	3.316250	0.561788	-0.000033
1585	1.5761e+02	4.2332	1.319586	0.000319	3.193426	0.540981	-0.000032
1586	1.5771e+02	4.2226	1.290258	0.000295	2.947778	0.499367	-0.000029
1587	1.5781e+02	4.2135	1.258892	0.000315	3.152485	0.534045	-0.000032
1588	1.5791e+02	4.2056	1.227119	0.000319	3.193426	0.540981	-0.000032
1589	1.5801e+02	4.1947	1.197791	0.000295	2.947778	0.499367	-0.000029
1590	1.5811e+02	4.1833	1.166018	0.000319	3.193426	0.540981	-0.000032
1591	1.5821e+02	4.1737	1.134653	0.000315	3.152485	0.534045	-0.000032
1592	1.5830e+02	4.1662	1.100843	0.000340	3.398133	0.575659	-0.000034
1593	1.5840e+02	4.1555	1.073959	0.000270	2.702130	0.457753	-0.000027
1594	1.5850e+02	4.1451	1.045037	0.000291	2.906837	0.492431	-0.000029
1595	1.5860e+02	4.1335	1.009191	0.000360	3.602840	0.610338	-0.000036
1596	1.5870e+02	4.1241	0.981492	0.000278	2.784013	0.471625	-0.000028
1597	1.5880e+02	4.1141	0.950534	0.000311	3.111544	0.527110	-0.000031
1598	1.5890e+02	4.1065	0.919168	0.000315	3.152485	0.534045	-0.000032
1599	1.5900e+02	4.0971	0.885766	0.000336	3.357192	0.568724	-0.000034
1600	1.5910e+02	4.0882	0.857252	0.000287	2.865895	0.485496	-0.000029
1601	1.5920e+02	4.0752	0.824665	0.000328	3.275309	0.554852	-0.000033
1602	1.5930e+02	4.0645	0.793300	0.000315	3.152485	0.534045	-0.000032
1603	1.5940e+02	4.0585	0.759898	0.000336	3.357192	0.568724	-0.000034
1604	1.5950e+02	4.0459	0.730162	0.000299	2.988719	0.506303	-0.000030
1605	1.5960e+02	4.0358	0.699611	0.000307	3.070602	0.520174	-0.000031
1606	1.5970e+02	4.0282	0.671097	0.000287	2.865895	0.485496	-0.000029
1607	1.5980e+02	4.0197	0.638917	0.000323	3.234368	0.547917	-0.000032
1608	1.5990e+02	4.0037	0.608773	0.000303	3.029661	0.513238	-0.000030
1609	1.6000e+02	3.9944	0.576186	0.000328	3.275309	0.554852	-0.000033
1610	1.6010e+02	3.9857	0.543599	0.000328	3.275309	0.554852	-0.000033
1611	1.6019e+02	3.9748	0.510604	0.000332	3.316250	0.561788	-0.000033
1612	1.6029e+02	3.9683	0.479239	0.000315	3.152485	0.534045	-0.000032
1613	1.6039e+02	3.9562	0.446244	0.000332	3.316250	0.561788	-0.000033
1614	1.6049e+02	3.9439	0.415693	0.000307	3.070602	0.520174	-0.000031
1615	1.6059e+02	3.9363	0.381069	0.000348	3.480016	0.589531	-0.000035
1616	1.6069e+02	3.9249	0.358258	0.000229	2.292716	0.388397	-0.000023
1617	1.6079e+02	3.9147	0.321597	0.000368	3.684723	0.624209	-0.000037
1618	1.6089e+02	3.9057	0.287788	0.000340	3.398133	0.575659	-0.000034
1619	1.6099e+02	3.8995	0.259274	0.000287	2.865895	0.485496	-0.000029
1620	1.6109e+02	3.8868	0.232389	0.000270	2.702130	0.457753	-0.000027
1621	1.6119e+02	3.8747	0.201431	0.000311	3.111544	0.527110	-0.000031
1622	1.6129e+02	3.8679	0.166807	0.000348	3.480016	0.589531	-0.000035
1623	1.6139e+02	3.8533	0.134219	0.000328	3.275309	0.554852	-0.000033
1624	1.6149e+02	3.8464	0.104483	0.000299	2.988719	0.506303	-0.000030
1625	1.6159e+02	3.8354	0.070267	0.000344	3.439074	0.582595	-0.000034
1626	1.6169e+02	3.8274	0.040531	0.000299	2.988719	0.506303	-0.000030
1627	1.6179e+02	3.8171	0.008758	0.000319	3.193426	0.540981	-0.000032
1628	1.6189e+02	3.8055	-0.027496	0.000364	3.643781	0.617273	-0.000036
1629	1.6199e+02	3.7974	-0.058046	0.000307	3.070602	0.520174	-0.000031
1630	1.6209e+02	3.7846	-0.088597	0.000307	3.070602	0.520174	-0.000031
1631	1.6219e+02	3.7766	-0.113445	0.000250	2.497423	0.423075	-0.000025
1632	1.6228e+02	3.7653	-0.148884	0.000356	3.561899	0.603402	-0.000036
1633	1.6238e+02	3.7568	-0.178620	0.000299	2.988719	0.506303	-0.000030
1634	1.6248e+02	3.7458	-0.209578	0.000311	3.111544	0.527110	-0.000031
1635	1.6258e+02	3.7395	-0.245424	0.000360	3.602840	0.610338	-0.000036
1636	1.6268e+02	3.7267	-0.271494	0.000262	2.620247	0.443882	-0.000026
1637	1.6278e+02	3.7176	-0.305711	0.000344	3.439074	0.582595	-0.000034
1638	1.6288e+02	3.7060	-0.335854	0.000303	3.029661	0.513238	-0.000030
1639	1.6298e+02	3.6988	-0.371700	0.000360	3.602840	0.610338	-0.000036
1640	1.6308e+02	3.6875	-0.407139	0.000356	3.561899	0.603402	-0.000036
1641	1.6318e+02	3.6791	-0.439319	0.000323	3.234368	0.547917	-0.000032
1642	1.6328e+02	3.6677	-0.474350	0.000352	3.520957	0.596466	-0.000035
1643	1.6338e+02	3.6588	-0.501642	0.000274	2.743071	0.464689	-0.000027
1644	1.6348e+02	3.6504	-0.536266	0.000348	3.480016	0.589531	-0.000035
1645	1.6358e+02	3.6404	-0.568854	0.000328	3.275309	0.554852	-0.000033
1646	1.6368e+02	3.6288	-0.601849	0.000332	3.316250	0.561788	-0.000033
1647	1.6378e+02	3.6168	-0.631992	0.000303	3.029661	0.513238	-0.000030
1648	1.6388e+02	3.6108	-0.666209	0.000344	3.439074	0.582595	-0.000034
1649	1.6398e+02	3.5961	-0.696352	0.000303	3.029661	0.513238	-0.000030
1650	1.6408e+02	3.5878	-0.729347	0.000332	3.316250	0.561788	-0.000033
1651	1.6418e+02	3.5765	-0.759898	0.000307	3.070602	0.520174	-0.000031
1652	1.6427e+02	3.5688	-0.795336	0.000356	3.561899	0.603402	-0.000036
1653	1.6437e+02	3.5583	-0.828738	0.000336	3.357192	0.568724	-0.000034
1654	1.6447e+02	3.5496	-0.860918	0.000323	3.234368	0.547917	-0.000032
1655	1.6457e+02	3.5381	-0.894321	0.000336	3.357192	0.568724	-0.000034
1656	1.6467e+02	3.5282	-0.926501	0.000323	3.234368	0.547917	-0.000032
1657	1.6477e+02	3.5187	-0.957866	0.000315	3.152485	0.534045	-0.000032
1658	1.6487e+02	3.5071	-0.991268	0.000336	3.357192	0.568724	-0.000034
1659	1.6497e+02	3.5001	-1.019375	0.000282	2.824954	0.478560	-0.000028
1660	1.6507e+02	3.4879	-1.049518	0.000303	3.029661	0.513238	-0.000030
1661	1.6517e+02	3.4793	-1.080069	0.000307	3.070602	0.520174	-0.000031
1662	1.6527e+02	3.4675	-1.111841	0.000319	3.193426	0.540981	-0.000032
1663	1.6537e+02	3.4605	-1.141170	0.000295	2.947778	0.499367	-0.000029
1664	1.6547e+02	3.4484	-1.171721	0.000307	3.070602	0.520174	-0.000031
1665	1.6557e+02	3.4380	-1.205938	0.000344	3.439074	0.582595	-0.000034
1666	1.6567e+02	3.4276	-1.236896	0.000311	3.111544	0.527110	-0.000031
1667	1.6577e+02	3.4184	-1.271112	0.000344	3.439074	0.582595	-0.000034
1668	1.6587e+02	3.4121	-1.301256	0.000303	3.029661	0.513238	-0.000030
1669	1.6597e+02	3.3989	-1.331806	0.000307	3.070602	0.520174	-0.000031
1670	1.6607e+02	3.3891	-1.369282	0.000377	3.766605	0.638080	-0.000038
1671	1.6616e+02	3.3779	-1.399833	0.000307	3.070602	0.520174	-0.000031
1672	1.6626e+02	3.3690	-1.430791	0.000311	3.111544	0.527110	-0.000031
1673	1.6636e+02	3.3585	-1.465822	0.000352	3.520957	0.596466	-0.000035
1674	1.6646e+02	3.3509	-1.492299	0.000266	2.661189	0.450818	-0.000027
1675	1.6656e+02	3.3392	-1.526516	0.000344	3.439074	0.582595	-0.000034
1676	1.6666e+02	3.3308	-1.560733	0.000344	3.439074	0.582595	-0.000034
1677	1.6676e+02	3.3210	-1.594542	0.000340	3.398133	0.575659	-0.000034
1678	1.6686e+02	3.3079	-1.627537	0.000332	3.316250	0.561788	-0.000033
1679	1.6696e+02	3.2993	-1.656458	0.000291	2.906837	0.492431	-0.000029
1680	1.6706e+02	3.2889	-1.692712	0.000364	3.643781	0.617273	-0.000036
1681	1.6716e+02	3.2827	-1.724892	0.000323	3.234368	0.547917	-0.000032
1682	1.6726e+02	3.2689	-1.754628	0.000299	2.988719	0.506303	-0.000030
1683	1.6736e+02	3.2594	-1.788845	0.000344	3.439074	0.582595	-0.000034
1684	1.6746e+02	3.2485	-1.820618	0.000319	3.193426	0.540981	-0.000032
1685	1.6756e+02	3.2397	-1.855242	0.000348	3.480016	0.589531	-0.000035
1686	1.6766e+02	3.2329	-1.887014	0.000319	3.193426	0.540981	-0.000032
1687	1.6776e+02	3.2209	-1.918380	0.000315	3.152485	0.534045	-0.000032
1688	1.6786e+02	3.2096	-1.953411	0.000352	3.520957	0.596466	-0.000035
1689	1.6796e+02	3.1992	-1.984777	0.000315	3.152485	0.534045	-0.000032
1690	1.6806e+02	3.1893	-2.020623	0.000360	3.602840	0.610338	-0.000036
1691	1.6816e+02	3.1803	-2.049951	0.000295	2.947778	0.499367	-0.000029
1692	1.6825e+02	3.1700	-2.084576	0.000348	3.480016	0.589531	-0.000035
1693	1.6835e+02	3.1608	-2.119200	0.000348	3.480016	0.589531	-0.000035
1694	1.6845e+02	3.1485	-2.148936	0.000299	2.988719	0.506303	-0.000030
1695	1.6855e+02	3.1423	-2.181116	0.000323	3.234368	0.547917	-0.000032
1696	1.6865e+02	3.1292	-2.213703	0.000328	3.275309	0.554852	-0.000033
1697	1.6875e+02	3.1200	-2.248327	0.000348	3.480016	0.589531	-0.000035
1698	1.6885e+02	3.1117	-2.279285	0.000311	3.111544	0.527110	-0.000031
1699	1.6895e+02	3.0997	-2.312687	0.000336	3.357192	0.568724	-0.000034
1700	1.6905e+02	3.0910	-2.348533	0.000360	3.602840	0.610338	-0.000036
1701	1.6915e+02	3.0798	-2.383158	0.000348	3.480016	0.589531	-0.000035
1702	1.6925e+02	3.0714	-2.416560	0.000336	3.357192	0.568724	-0.000034
1703	1.6935e+02	3.0627	-2.444666	0.000282	2.824954	0.478560	-0.000028
1704	1.6945e+02	3.0503	-2.482549	0.000381	3.807547	0.645016	-0.000038
1705	1.6955e+02	3.0399	-2.517988	0.000356	3.561899	0.603402	-0.000036
1706	1.6965e+02	3.0314	-2.546095	0.000282	2.824954	0.478560	-0.000028
1707	1.6975e+02	3.0207	-2.583977	0.000381	3.807547	0.645016	-0.000038
1708	1.6985e+02	3.0104	-2.614121	0.000303	3.029661	0.513238	-0.000030
1709	1.6995e+02	3.0033	-2.647930	0.000340	3.398133	0.575659	-0.000034
1710	1.7005e+02	2.9956	-2.683369	0.000356	3.561899	0.603402	-0.000036
1711	1.7015e+02	2.9823	-2.715956	0.000328	3.275309	0.554852	-0.000033
1712	1.7024e+02	2.9704	-2.747729	0.000319	3.193426	0.540981	-0.000032
1713	1.7034e+02	2.9620	-2.780724	0.000332	3.316250	0.561788	-0.000033
1714	1.7044e+02	2.9496	-2.820643	0.000401	4.012254	0.679694	-0.000040
1715	1.7054e+02	2.9403	-2.850380	0.000299	2.988719	0.506303	-0.000030
1716	1.7064e+02	2.9307	-2.884189	0.000340	3.398133	0.575659	-0.000034
1717	1.7074e+02	2.9203	-2.918813	0.000348	3.480016	0.589531	-0.000035
1718	1.7084e+02	2.9129	-2.955067	0.000364	3.643781	0.617273	-0.000036
1719	1.7094e+02	2.9006	-2.983988	0.000291	2.906837	0.492431	-0.000029
1720	1.7104e+02	2.8895	-3.019427	0.000356	3.561899	0.603402	-0.000036
1721	1.7114e+02	2.8828	-3.056495	0.000373	3.725664	0.631145	-0.000037
1722	1.7124e+02	2.8710	-3.086638	0.000303	3.029661	0.513238	-0.000030
1723	1.7134e+02	2.8616	-3.120448	0.000340	3.398133	0.575659	-0.000034
1724	1.7144e+02	2.8531	-3.155479	0.000352	3.520957	0.596466	-0.000035
1725	1.7154e+02	2.8404	-3.187252	0.000319	3.193426	0.540981	-0.000032
1726	1.7164e+02	2.8316	-3.216580	0.000295	2.947778	0.499367	-0.000029
1727	1.7174e+02	2.8210	-3.250390	0.000340	3.398133	0.575659	-0.000034
1728	1.7184e+02	2.8112	-3.285014	0.000348	3.480016	0.589531	-0.000035
1729	1.7194e+02	2.8017	-3.313528	0.000287	2.865895	0.485496	-0.000029
1730	1.7204e+02	2.7914	-3.351003	0.000377	3.766605	0.638080	-0.000038
1731	1.7213e+02	2.7819	-3.382369	0.000315	3.152485	0.534045	-0.000032
1732	1.7223e+02	2.7710	-3.419437	0.000373	3.725664	0.631145	-0.000037
1733	1.7233e+02	2.7605	-3.454061	0.000348	3.480016	0.589531	-0.000035
1734	1.7243e+02	2.7518	-3.488685	0.000348	3.480016	0.589531	-0.000035
1735	1.7253e+02	2.7411	-3.524531	0.000360	3.602840	0.610338	-0.000036
1736	1.7263e+02	2.7312	-3.557119	0.000328	3.275309	0.554852	-0.000033
1737	1.7273e+02	2.7239	-3.589706	0.000328	3.275309	0.554852	-0.000033
1738	1.7283e+02	2.7138	-3.623516	0.000340	3.398133	0.575659	-0.000034
1739	1.7293e+02	2.7025	-3.654066	0.000307	3.070602	0.520174	-0.000031
1740	1.7303e+02	2.6918	-3.690320	0.000364	3.643781	0.617273	-0.000036
1741	1.7313e+02	2.6819	-3.725759	0.000356	3.561899	0.603402	-0.000036
1742	1.7323e+02	2.6714	-3.764864	0.000393	3.930371	0.665823	-0.000039
1743	1.7333e+02	2.6638	-3.799488	0.000348	3.480016	0.589531	-0.000035
1744	1.7343e+02	2.6528	-3.833704	0.000344	3.439074	0.582595	-0.000034
1745	1.7353e+02	2.6417	-3.869958	0.000364	3.643781	0.617273	-0.000036
1746	1.7363e+02	2.6325	-3.906211	0.000364	3.643781	0.617273	-0.000036
1747	1.7373e+02	2.6205	-3.946131	0.000401	4.012254	0.679694	-0.000040
1748	1.7383e+02	2.6144	-3.981570	0.000356	3.561899	0.603402	-0.000036
1749	1.7393e+02	2.6026	-4.016194	0.000348	3.480016	0.589531	-0.000035
1750	1.7403e+02	2.5941	-4.046745	0.000307	3.070602	0.520174	-0.000031
1751	1.7413e+02	2.5826	-4.084220	0.000377	3.766605	0.638080	-0.000038
1752	1.7422e+02	2.5734	-4.122103	0.000381	3.807547	0.645016	-0.000038
1753	1.7432e+02	2.5645	-4.156320	0.000344	3.439074	0.582595	-0.000034
1754	1.7442e+02	2.5518	-4.191351	0.000352	3.520957	0.596466	-0.000035
1755	1.7452e+02	2.5437	-4.223124	0.000319	3.193426	0.540981	-0.000032
1756	1.7462e+02	2.5317	-4.260192	0.000373	3.725664	0.631145	-0.000037
1757	1.7472e+02	2.5264	-4.290335	0.000303	3.029661	0.513238	-0.000030
1758	1.7482e+02	2.5119	-4.325774	0.000356	3.561899	0.603402	-0.000036
1759	1.7492e+02	2.5030	-4.363657	0.000381	3.807547	0.645016	-0.000038
1760	1.7502e+02	2.4973	-4.397059	0.000336	3.357192	0.568724	-0.000034
1761	1.7512e+02	2.4857	-4.430869	0.000340	3.398133	0.575659	-0.000034
1762	1.7522e+02	2.4741	-4.470788	0.000401	4.012254	0.679694	-0.000040
1763	1.7532e+02	2.4615	-4.503783	0.000332	3.316250	0.561788	-0.000033
1764	1.7542e+02	2.4537	-4.539222	0.000356	3.561899	0.603402	-0.000036
1765	1.7552e+02	2.4422	-4.576290	0.000373	3.725664	0.631145	-0.000037
1766	1.7562e+02	2.4325	-4.612543	0.000364	3.643781	0.617273	-0.000036
1767	1.7572e+02	2.4238	-4.646353	0.000340	3.398133	0.575659	-0.000034
1768	1.7582e+02	2.4143	-4.680162	0.000340	3.398133	0.575659	-0.000034
1769	1.7592e+02	2.4019	-4.719674	0.000397	3.971312	0.672758	-0.000040
1770	1.7602e+02	2.3940	-4.752262	0.000328	3.275309	0.554852	-0.000033
1771	1.7612e+02	2.3843	-4.784035	0.000319	3.193426	0.540981	-0.000032
1772	1.7621e+02	2.3749	-4.819473	0.000356	3.561899	0.603402	-0.000036
1773	1.7631e+02	2.3634	-4.858986	0.000397	3.971312	0.672758	-0.000040
1774	1.7641e+02	2.3547	-4.888314	0.000295	2.947778	0.499367	-0.000029
1775	1.7651e+02	2.3438	-4.926197	0.000381	3.807547	0.645016	-0.000038
1776	1.7661e+02	2.3370	-4.966931	0.000409	4.094136	0.693565	-0.000041
1777	1.7671e+02	2.3263	-4.997482	0.000307	3.070602	0.520174	-0.000031
1778	1.7681e+02	2.3138	-5.036994	0.000397	3.971312	0.672758	-0.000040
1779	1.7691e+02	2.3040	-5.071618	0.000348	3.480016	0.589531	-0.000035
1780	1.7701e+02	2.2951	-5.109501	0.000381	3.807547	0.645016	-0.000038
1781	1.7711e+02	2.2825	-5.142496	0.000332	3.316250	0.561788	-0.000033
1782	1.7721e+02	2.2731	-5.183230	0.000409	4.094136	0.693565	-0.000041
1783	1.7731e+02	2.2641	-5.215818	0.000328	3.275309	0.554852	-0.000033
1784	1.7741e+02	2.2547	-5.250442	0.000348	3.480016	0.589531	-0.000035
1785	1.7751e+02	2.2466	-5.283029	0.000328	3.275309	0.554852	-0.000033
1786	1.7761e+02	2.2333	-5.318468	0.000356	3.561899	0.603402	-0.000036
1787	1.7771e+02	2.2253	-5.356351	0.000381	3.807547	0.645016	-0.000038
1788	1.7781e+02	2.2158	-5.389346	0.000332	3.316250	0.561788	-0.000033
1789	1.7791e+02	2.2068	-5.426006	0.000368	3.684723	0.624209	-0.000037
1790	1.7801e+02	2.1913	-5.464704	0.000389	3.889429	0.658887	-0.000039
1791	1.7810e+02	2.1824	-5.500143	0.000356	3.561899	0.603402	-0.000036
1792	1.7820e+02	2.1750	-5.537211	0.000373	3.725664	0.631145	-0.000037
1793	1.7830e+02	2.1664	-5.572650	0.000356	3.561899	0.603402	-0.000036
1794	1.7840e+02	2.1542	-5.609311	0.000368	3.684723	0.624209	-0.000037
1795	1.7850e+02	2.1473	-5.645564	0.000364	3.643781	0.617273	-0.000036
1796	1.7860e+02	2.1357	-5.681003	0.000356	3.561899	0.603402	-0.000036
1797	1.7870e+02	2.1252	-5.714812	0.000340	3.398133	0.575659	-0.000034
1798	1.7880e+02	2.1151	-5.752288	0.000377	3.766605	0.638080	-0.000038
1799	1.7890e+02	2.1045	-5.788134	0.000360	3.602840	0.610338	-0.000036
1800	1.7900e+02	2.0936	-5.826017	0.000381	3.807547	0.645016	-0.000038
1801	1.7910e+02	2.0886	-5.855753	0.000299	2.988719	0.506303	-0.000030
1802	1.7920e+02	2.0758	-5.895265	0.000397	3.971312	0.672758	-0.000040
1803	1.7930e+02	2.0641	-5.931519	0.000364	3.643781	0.617273	-0.000036
1804	1.7940e+02	2.0553	-5.968994	0.000377	3.766605	0.638080	-0.000038
1805	1.7950e+02	2.0481	-6.003618	0.000348	3.480016	0.589531	-0.000035
1806	1.7960e+02	2.0350	-6.036613	0.000332	3.316250	0.561788	-0.000033
1807	1.7970e+02	2.0254	-6.078162	0.000418	4.176019	0.707437	-0.000042
1808	1.7980e+02	2.0147	-6.115637	0.000377	3.766605	0.638080	-0.000038
1809	1.7990e+02	2.0049	-6.152706	0.000373	3.725664	0.631145	-0.000037
1810	1.8000e+02	1.9958	-6.191403	0.000389	3.889429	0.658887	-0.000039
1811	1.8009e+02	1.9874	-6.229693	0.000385	3.848488	0.651952	-0.000038
1812	1.8019e+02	1.9747	-6.266354	0.000368	3.684723	0.624209	-0.000037
1813	1.8029e+02	1.9662	-6.307088	0.000409	4.094136	0.693565	-0.000041
1814	1.8039e+02	1.9550	-6.344157	0.000373	3.725664	0.631145	-0.000037
1815	1.8049e+02	1.9463	-6.376337	0.000323	3.234368	0.547917	-0.000032
1816	1.8059e+02	1.9378	-6.412183	0.000360	3.602840	0.610338	-0.000036
1817	1.8069e+02	1.9256	-6.448436	0.000364	3.643781	0.617273	-0.000036
1818	1.8079e+02	1.9112	-6.487948	0.000397	3.971312	0.672758	-0.000040
1819	1.8089e+02	1.9079	-6.521758	0.000340	3.398133	0.575659	-0.000034
1820	1.8099e+02	1.8958	-6.560048	0.000385	3.848488	0.651952	-0.000038
1821	1.8109e+02	1.8839	-6.599153	0.000393	3.930371	0.665823	-0.000039
1822	1.8119e+02	1.8758	-6.634999	0.000360	3.602840	0.610338	-0.000036
1823	1.8129e+02	1.8670	-6.671660	0.000368	3.684723	0.624209	-0.000037
1824	1.8139e+02	1.8586	-6.707099	0.000356	3.561899	0.603402	-0.000036
1825	1.8149e+02	1.8450	-6.747833	0.000409	4.094136	0.693565	-0.000041
1826	1.8159e+02	1.8354	-6.780013	0.000323	3.234368	0.547917	-0.000032
1827	1.8169e+02	1.8268	-6.814637	0.000348	3.480016	0.589531	-0.000035
1828	1.8179e+02	1.8150	-6.854149	0.000397	3.971312	0.672758	-0.000040
1829	1.8189e+02	1.8066	-6.887552	0.000336	3.357192	0.568724	-0.000034
1830	1.8199e+02	1.7961	-6.922583	0.000352	3.520957	0.596466	-0.000035
1831	1.8209e+02	1.7883	-6.957207	0.000348	3.480016	0.589531	-0.000035
1832	1.8218e+02	1.7779	-6.991017	0.000340	3.398133	0.575659	-0.000034
1833	1.8228e+02	1.7668	-7.028899	0.000381	3.807547	0.645016	-0.000038
1834	1.8238e+02	1.7583	-7.066375	0.000377	3.766605	0.638080	-0.000038
1835	1.8248e+02	1.7489	-7.105480	0.000393	3.930371	0.665823	-0.000039
1836	1.8258e+02	1.7361	-7.140919	0.000356	3.561899	0.603402	-0.000036
1837	1.8268e+02	1.7256	-7.175135	0.000344	3.439074	0.582595	-0.000034
1838	1.8278e+02	1.7162	-7.211389	0.000364	3.643781	0.617273	-0.000036
1839	1.8288e+02	1.7057	-7.248457	0.000373	3.725664	0.631145	-0.000037
1840	1.8298e+02	1.6947	-7.286340	0.000381	3.807547	0.645016	-0.000038
1841	1.8308e+02	1.6882	-7.325037	0.000389	3.889429	0.658887	-0.000039
1842	1.8318e+02	1.6779	-7.362920	0.000381	3.807547	0.645016	-0.000038
1843	1.8328e+02	1.6669	-7.402025	0.000393	3.930371	0.665823	-0.000039
1844	1.8338e+02	1.6576	-7.435427	0.000336	3.357192	0.568724	-0.000034
1845	1.8348e+02	1.6459	-7.477384	0.000422	4.216960	0.714372	-0.000042
1846	1.8358e+02	1.6372	-7.511193	0.000340	3.398133	0.575659	-0.000034
1847	1.8368e+02	1.6264	-7.549891	0.000389	3.889429	0.658887	-0.000039
1848	1.8378e+02	1.6158	-7.586551	0.000368	3.684723	0.624209	-0.000037
1849	1.8388e+02	1.6080	-7.626878	0.000405	4.053195	0.686630	-0.000041
1850	1.8398e+02	1.5978	-7.663539	0.000368	3.684723	0.624209	-0.000037
1851	1.8407e+02	1.5852	-7.696941	0.000336	3.357192	0.568724	-0.000034
1852	1.8417e+02	1.5795	-7.732787	0.000360	3.602840	0.610338	-0.000036
1853	1.8427e+02	1.5702	-7.775966	0.000434	4.339784	0.735179	-0.000043
1854	1.8437e+02	1.5591	-7.813441	0.000377	3.766605	0.638080	-0.000038
1855	1.8447e+02	1.5466	-7.847658	0.000344	3.439074	0.582595	-0.000034
1856	1.8457e+02	1.5398	-7.890022	0.000426	4.257902	0.721308	-0.000043
1857	1.8467e+02	1.5313	-7.927090	0.000373	3.725664	0.631145	-0.000037
1858	1.8477e+02	1.5199	-7.962936	0.000360	3.602840	0.610338	-0.000036
1859	1.8487e+02	1.5063	-7.999189	0.000364	3.643781	0.617273	-0.000036
1860	1.8497e+02	1.4960	-8.039109	0.000401	4.012254	0.679694	-0.000040
1861	1.8507e+02	1.4872	-8.073733	0.000348	3.480016	0.589531	-0.000035
1862	1.8517e+02	1.4787	-8.110394	0.000368	3.684723	0.624209	-0.000037
1863	1.8527e+02	1.4648	-8.151128	0.000409	4.094136	0.693565	-0.000041
1864	1.8537e+02	1.4594	-8.189011	0.000381	3.807547	0.645016	-0.000038
1865	1.8547e+02	1.4469	-8.225672	0.000368	3.684723	0.624209	-0.000037
1866	1.8557e+02	1.4380	-8.263962	0.000385	3.848488	0.651952	-0.000038
1867	1.8567e+02	1.4309	-8.303882	0.000401	4.012254	0.679694	-0.000040
1868	1.8577e+02	1.4217	-8.339320	0.000356	3.561899	0.603402	-0.000036
1869	1.8587e+02	1.4093	-8.377203	0.000381	3.807547	0.645016	-0.000038
1870	1.8597e+02	1.3977	-8.419567	0.000426	4.257902	0.721308	-0.000043
1871	1.8606e+02	1.3903	-8.453376	0.000340	3.398133	0.575659	-0.000034
1872	1.8616e+02	1.3792	-8.494925	0.000418	4.176019	0.707437	-0.000042
1873	1.8626e+02	1.3677	-8.536067	0.000414	4.135078	0.700501	-0.000041
1874	1.8636e+02	1.3589	-8.573950	0.000381	3.807547	0.645016	-0.000038
1875	1.8646e+02	1.3495	-8.610611	0.000368	3.684723	0.624209	-0.000037
1876	1.8656e+02	1.3377	-8.647679	0.000373	3.725664	0.631145	-0.000037
1877	1.8666e+02	1.3291	-8.682710	0.000352	3.520957	0.596466	-0.000035
1878	1.8676e+02	1.3216	-8.725074	0.000426	4.257902	0.721308	-0.000043
1879	1.8686e+02	1.3079	-8.764586	0.000397	3.971312	0.672758	-0.000040
1880	1.8696e+02	1.3023	-8.801247	0.000368	3.684723	0.624209	-0.000037
1881	1.8706e+02	1.2874	-8.837093	0.000360	3.602840	0.610338	-0.000036
1882	1.8716e+02	1.2798	-8.881493	0.000446	4.462608	0.755986	-0.000045
1883	1.8726e+02	1.2682	-8.914895	0.000336	3.357192	0.568724	-0.000034
1884	1.8736e+02	1.2606	-8.959296	0.000446	4.462608	0.755986	-0.000045
1885	1.8746e+02	1.2501	-8.997993	0.000389	3.889429	0.658887	-0.000039
1886	1.8756e+02	1.2405	-9.033025	0.000352	3.520957	0.596466	-0.000035
1887	1.8766e+02	1.2313	-9.072130	0.000393	3.930371	0.665823	-0.000039
1888	1.8776e+02	1.2198	-9.110012	0.000381	3.807547	0.645016	-0.000038
1889	1.8786e+02	1.2099	-9.147895	0.000381	3.807547	0.645016	-0.000038
1890	1.8796e+02	1.2009	-9.191074	0.000434	4.339784	0.735179	-0.000043
1891	1.8806e+02	1.1908	-9.221217	0.000303	3.029661	0.513238	-0.000030
1892	1.8815e+02	1.1816	-9.263173	0.000422	4.216960	0.714372	-0.000042
1893	1.8825e+02	1.1703	-9.299834	0.000368	3.684723	0.624209	-0.000037
1894	1.8835e+02	1.1618	-9.337310	0.000377	3.766605	0.638080	-0.000038
1895	1.8845e+02	1.1514	-9.375192	0.000381	3.807547	0.645016	-0.000038
1896	1.8855e+02	1.1407	-9.415519	0.000405	4.053195	0.686630	-0.000041
1897	1.8865e+02	1.1304	-9.450144	0.000348	3.480016	0.589531	-0.000035
1898	1.8875e+02	1.1206	-9.492100	0.000422	4.216960	0.714372	-0.000042
1899	1.8885e+02	1.1095	-9.530390	0.000385	3.848488	0.651952	-0.000038
1900	1.8895e+02	1.1002	-9.568680	0.000385	3.848488	0.651952	-0.000038
1901	1.8905e+02	1.0902	-9.611451	0.000430	4.298843	0.728244	-0.000043
1902	1.8915e+02	1.0796	-9.655037	0.000438	4.380726	0.742115	-0.000044
1903	1.8925e+02	1.0706	-9.691698	0.000368	3.684723	0.624209	-0.000037
1904	1.8935e+02	1.0591	-9.732025	0.000405	4.053195	0.686630	-0.000041
1905	1.8945e+02	1.0484	-9.766241	0.000344	3.439074	0.582595	-0.000034
1906	1.8955e+02	1.0396	-9.806161	0.000401	4.012254	0.679694	-0.000040
1907	1.8965e+02	1.0304	-9.846488	0.000405	4.053195	0.686630	-0.000041
1908	1.8975e+02	1.0203	-9.883963	0.000377	3.766605	0.638080	-0.000038
1909	1.8985e+02	1.0109	-9.927142	0.000434	4.339784	0.735179	-0.000043
1910	1.8995e+02	1.0030	-9.971135	0.000442	4.421667	0.749051	-0.000044
1911	1.9004e+02	0.9921	-10.007388	0.000364	3.643781	0.617273	-0.000036
1912	1.9014e+02	0.9791	-10.050159	0.000430	4.298843	0.728244	-0.000043
1913	1.9024e+02	0.9686	-10.090486	0.000405	4.053195	0.686630	-0.000041
1914	1.9034e+02	0.9631	-10.133257	0.000430	4.298843	0.728244	-0.000043
1915	1.9044e+02	0.9524	-10.169510	0.000364	3.643781	0.617273	-0.000036
1916	1.9054e+02	0.9422	-10.214725	0.000454	4.544491	0.769858	-0.000045
1917	1.9064e+02	0.9296	-10.254645	0.000401	4.012254	0.679694	-0.000040
1918	1.9074e+02	0.9200	-10.292935	0.000385	3.848488	0.651952	-0.000038
1919	1.9084e+02	0.9105	-10.335299	0.000426	4.257902	0.721308	-0.000043
1920	1.9094e+02	0.9011	-10.375218	0.000401	4.012254	0.679694	-0.000040
1921	1.9104e+02	0.8905	-10.419619	0.000446	4.462608	0.755986	-0.000045
1922	1.9114e+02	0.8811	-10.454650	0.000352	3.520957	0.596466	-0.000035
1923	1.9124e+02	0.8700	-10.497829	0.000434	4.339784	0.735179	-0.000043
1924	1.9134e+02	0.8601	-10.536119	0.000385	3.848488	0.651952	-0.000038
1925	1.9144e+02	0.8510	-10.575631	0.000397	3.971312	0.672758	-0.000040
1926	1.9154e+02	0.8397	-10.618402	0.000430	4.298843	0.728244	-0.000043
1927	1.9164e+02	0.8335	-10.658729	0.000405	4.053195	0.686630	-0.000041
1928	1.9174e+02	0.8216	-10.699056	0.000405	4.053195	0.686630	-0.000041
1929	1.9184e+02	0.8115	-10.740605	0.000418	4.176019	0.707437	-0.000042
1930	1.9194e+02	0.8017	-10.781746	0.000414	4.135078	0.700501	-0.000041
1931	1.9203e+02	0.7960	-10.820037	0.000385	3.848488	0.651952	-0.000038
1932	1.9213e+02	0.7822	-10.862807	0.000430	4.298843	0.728244	-0.000043
1933	1.9223e+02	0.7715	-10.907208	0.000446	4.462608	0.755986	-0.000045
1934	1.9233e+02	0.7609	-10.947127	0.000401	4.012254	0.679694	-0.000040
1935	1.9243e+02	0.7528	-10.986640	0.000397	3.971312	0.672758	-0.000040
1936	1.9253e+02	0.7385	-11.026152	0.000397	3.971312	0.672758	-0.000040
1937	1.9263e+02	0.7296	-11.066886	0.000409	4.094136	0.693565	-0.000041
1938	1.9273e+02	0.7235	-11.110472	0.000438	4.380726	0.742115	-0.000044
1939	1.9283e+02	0.7100	-11.148355	0.000381	3.807547	0.645016	-0.000038
1940	1.9293e+02	0.7021	-11.188274	0.000401	4.012254	0.679694	-0.000040
1941	1.9303e+02	0.6900	-11.228194	0.000401	4.012254	0.679694	-0.000040
1942	1.9313e+02	0.6841	-11.272187	0.000442	4.421667	0.749051	-0.000044
1943	1.9323e+02	0.6697	-11.310477	0.000385	3.848488	0.651952	-0.000038
1944	1.9333e+02	0.6629	-11.350804	0.000405	4.053195	0.686630	-0.000041
1945	1.9343e+02	0.6489	-11.397241	0.000467	4.667315	0.790665	-0.000047
1946	1.9353e+02	0.6448	-11.435124	0.000381	3.807547	0.645016	-0.000038
1947	1.9363e+02	0.6332	-11.475043	0.000401	4.012254	0.679694	-0.000040
1948	1.9373e+02	0.6204	-11.519851	0.000450	4.503550	0.762922	-0.000045
1949	1.9383e+02	0.6118	-11.561807	0.000422	4.216960	0.714372	-0.000042
1950	1.9393e+02	0.6032	-11.598875	0.000373	3.725664	0.631145	-0.000037
1951	1.9403e+02	0.5917	-11.642054	0.000434	4.339784	0.735179	-0.000043
1952	1.9412e+02	0.5831	-11.683195	0.000414	4.135078	0.700501	-0.000041
1953	1.9422e+02	0.5749	-11.721078	0.000381	3.807547	0.645016	-0.000038
1954	1.9432e+02	0.5635	-11.764664	0.000438	4.380726	0.742115	-0.000044
1955	1.9442e+02	0.5528	-11.806213	0.000418	4.176019	0.707437	-0.000042
1956	1.9452e+02	0.5441	-11.844096	0.000381	3.807547	0.645016	-0.000038
1957	1.9462e+02	0.5314	-11.888903	0.000450	4.503550	0.762922	-0.000045
1958	1.9472e+02	0.5219	-11.928823	0.000401	4.012254	0.679694	-0.000040
1959	1.9482e+02	0.5145	-11.971187	0.000426	4.257902	0.721308	-0.000043
1960	1.9492e+02	0.5045	-12.012736	0.000418	4.176019	0.707437	-0.000042
1961	1.9502e+02	0.4945	-12.056321	0.000438	4.380726	0.742115	-0.000044
1962	1.9512e+02	0.4836	-12.098277	0.000422	4.216960	0.714372	-0.000042
1963	1.9522e+02	0.4773	-12.136975	0.000389	3.889429	0.658887	-0.000039
1964	1.9532e+02	0.4602	-12.179746	0.000430	4.298843	0.728244	-0.000043
1965	1.9542e+02	0.4527	-12.220073	0.000405	4.053195	0.686630	-0.000041
1966	1.9552e+02	0.4453	-12.264881	0.000450	4.503550	0.762922	-0.000045
1967	1.9562e+02	0.4324	-12.303578	0.000389	3.889429	0.658887	-0.000039
1968	1.9572e+02	0.4239	-12.347164	0.000438	4.380726	0.742115	-0.000044
1969	1.9582e+02	0.4137	-12.390749	0.000438	4.380726	0.742115	-0.000044
1970	1.9592e+02	0.4031	-12.429447	0.000389	3.889429	0.658887	-0.000039
1971	1.9601e+02	0.3943	-12.471403	0.000422	4.216960	0.714372	-0.000042
1972	1.9611e+02	0.3833	-12.512952	0.000418	4.176019	0.707437	-0.000042
1973	1.9621e+02	0.3754	-12.559389	0.000467	4.667315	0.790665	-0.000047
1974	1.9631e+02	0.3627	-12.596865	0.000377	3.766605	0.638080	-0.000038
1975	1.9641e+02	0.3531	-12.645746	0.000491	4.912963	0.832279	-0.000049
1976	1.9651e+02	0.3429	-12.683629	0.000381	3.807547	0.645016	-0.000038
1977	1.9661e+02	0.3343	-12.730473	0.000471	4.708257	0.797600	-0.000047
1978	1.9671e+02	0.3228	-12.767541	0.000373	3.725664	0.631145	-0.000037
1979	1.9681e+02	0.3144	-12.817237	0.000499	4.994846	0.846150	-0.000050
1980	1.9691e+02	0.3054	-12.863674	0.000467	4.667315	0.790665	-0.000047
1981	1.9701e+02	0.2956	-12.903186	0.000397	3.971312	0.672758	-0.000040
1982	1.9711e+02	0.2848	-12.945957	0.000430	4.298843	0.728244	-0.000043
1983	1.9721e+02	0.2739	-12.988728	0.000430	4.298843	0.728244	-0.000043
1984	1.9731e+02	0.2630	-13.024982	0.000364	3.643781	0.617273	-0.000036
1985	1.9741e+02	0.2551	-13.071826	0.000471	4.708257	0.797600	-0.000047
1986	1.9751e+02	0.2444	-13.112153	0.000405	4.053195	0.686630	-0.000041
1987	1.9761e+02	0.2350	-13.153702	0.000418	4.176019	0.707437	-0.000042
1988	1.9771e+02	0.2240	-13.200139	0.000467	4.667315	0.790665	-0.000047
1989	1.9781e+02	0.2133	-13.241688	0.000418	4.176019	0.707437	-0.000042
1990	1.9791e+02	0.2036	-13.286088	0.000446	4.462608	0.755986	-0.000045
1991	1.9800e+02	0.1937	-13.329674	0.000438	4.380726	0.742115	-0.000044
1992	1.9810e+02	0.1864	-13.369594	0.000401	4.012254	0.679694	-0.000040
1993	1.9820e+02	0.1756	-13.416031	0.000467	4.667315	0.790665	-0.000047
1994	1.9830e+02	0.1635	-13.446989	0.000311	3.111544	0.527110	-0.000031
1995	1.9840e+02	0.1527	-13.497906	0.000512	5.117670	0.866957	-0.000051
1996	1.9850e+02	0.1447	-13.537011	0.000393	3.930371	0.665823	-0.000039
1997	1.9860e+02	0.1339	-13.573672	0.000368	3.684723	0.624209	-0.000037
1998	1.9870e+02	0.1286	-13.621739	0.000483	4.831081	0.818407	-0.000048
1999	1.9880e+02	0.1166	-13.658399	0.000368	3.684723	0.624209	-0.000037
2000	1.9890e+02	0.1046	-13.700763	0.000426	4.257902	0.721308	-0.000043
2001	1.9900e+02	0.0962	-13.745163	0.000446	4.462608	0.755986	-0.000045
2002	1.9910e+02	0.0851	-13.789971	0.000450	4.503550	0.762922	-0.000045
2003	1.9920e+02	0.0757	-13.833149	0.000434	4.339784	0.735179	-0.000043
2004	1.9930e+02	0.0615	-13.873476	0.000405	4.053195	0.686630	-0.000041
2005	1.9940e+02	0.0526	-13.915433	0.000422	4.216960	0.714372	-0.000042
2006	1.9950e+02	0.0459	-13.954945	0.000397	3.971312	0.672758	-0.000040
2007	1.9960e+02	0.0359	-14.003419	0.000487	4.872022	0.825343	-0.000049
2008	1.9970e+02	0.0240	-14.042523	0.000393	3.930371	0.665823	-0.000039
2009	1.9980e+02	0.0130	-14.084887	0.000426	4.257902	0.721308	-0.000043
2010	1.9990e+02	0.0040	-14.134176	0.000495	4.953905	0.839214	-0.000050
2011	2.0000e+02	-0.0044	-14.173280	0.000495	4.953905	0.839214	-0.000039

PMax (uC/cm2):	3.17e+01
Pr (uC/cm2):	1.67e+00
-Pr (uC/cm2):	0.00e+00
PLoss (uC/cm2):	0.00e+00
C (Max-Eff) (nF):	3.17e-01
K (Eff):	5.37e+02
Vert. (+/-Pr) Shift (uC/cm2):	8.33e-01
Offset (uC/cm2):	1.58e+01

A (Loop Area - uC/cm2·Volts):	-1.66e-02



Hysteresis Version: 5.48.1 - Radiant Technologies, Inc., 1999 - 9/12/24

