»»»»»»»»»»»»»»»»»»»»»»»»»»»»»»»»»»»» Hysteresis ««««««««««««««««««««««««««««««««««««
»»»  Executed Version:	5.48.1
»»»  Vision Version:	5.48.4 (R)
»»»  Vision Compiled:	9/18/24
»»»  Driver Version:	5.47.0
»»»  Windows Version:	Windows 8 or 8.1
»»»  Processor Information:	x86 (AMD or Intel) - 32 Processors
»»»  Tester Name:	PMF21124-494 (100V)
»»»  Tester S/N:	PMF21124-494
»»»  Internal Amp Type:	100V RevK 270k
»»»  Internal Amp S/N:	iAB2-596/K     
»»»  Execution Count:	1
»»»»»»»»»»»»»»»»»»»»»»»»»»»»»»»»»»»»»»»»»»««««««««««««««««««««««««««««««««««««««««««

Stored:	6/27/2025 - 12:29:37
Configured:	06/27/25 11:23:28 AM
Executed:	06/27/25 12:29:03 PM

»»»»»»»»»»»»»»»»»»»»»»»»»»»»»»»»»»» Sample Info ««««««««««««««««««««««««««««««««««««
Sample Name:	
Lot Name:	
Wafer Name:	
Die Row/Column:	0/0
Capacitor Number:	0
Sample Area (cm2):	1.00e-04
Sample Thickness (microns):	1.50e-01

Amplifier:	Internal

»»»»»»»»»»»»»»»»»»»»»»»»»»»»»»»»»»» Tester Info «««««««««««««««««««««««««««««««««««
Tester Name:	PMF21124-494 (100V)
Tester Serial Number:	PMF21124-494
Return Signal Amp. Level:	1.9 [Index: 2]

»»»»»»»»»»»»»»»»»»»»»»»»»»»»»»»» Hysteresis Info ««««««««««««««««««««««««««««««««««
Task Name:	Hyst-1276
Volts:	10.00
Field:	666.67 (kV/cm)
DCBias:	0.00
DCField:	0.00 (kV/cm)
Hysteresis Period (ms):	2.00e+02
Preset:	Enabled
Preset Delay (ms):	1.00e+03
Profile:	Standard Monopolar

»»»»»»»»»»»»»»»»»»»»»»»»»»»»»»»»»»»»»» Data «««««««««««««««««««««««««««««««««««««««
Points:	2011

Valid Data

Point	Time (ms)	Drive Voltage	Measured Polarization (uC/cm2)	Capacitance (uF)	Normalized Capacitance (uF/cm2)	Dielectric Constant	Instantaneous Current (mA)
   1	0.0000e+00	-0.0034	-14.362491	0.000389	3.890988	0.659151	0.000039
   2	9.9500e-02	0.0069	-14.323793	0.000389	3.890988	0.659151	0.000039
   3	1.9900e-01	0.0181	-14.289984	0.000340	3.399495	0.575890	0.000034
   4	2.9850e-01	0.0218	-14.253731	0.000365	3.645241	0.617521	0.000036
   5	3.9800e-01	0.0327	-14.221958	0.000319	3.194706	0.541198	0.000032
   6	4.9750e-01	0.0421	-14.186519	0.000356	3.563326	0.603644	0.000036
   7	5.9700e-01	0.0564	-14.158005	0.000287	2.867044	0.485690	0.000029
   8	6.9650e-01	0.0644	-14.119308	0.000389	3.890988	0.659151	0.000039
   9	7.9600e-01	0.0745	-14.089979	0.000295	2.948959	0.499567	0.000029
  10	8.9550e-01	0.0850	-14.056577	0.000336	3.358537	0.568952	0.000034
  11	9.9500e-01	0.0969	-14.020731	0.000360	3.604284	0.610582	0.000036
  12	1.0945e+00	0.1061	-13.988958	0.000319	3.194706	0.541198	0.000032
  13	1.1940e+00	0.1128	-13.952704	0.000365	3.645241	0.617521	0.000036
  14	1.2935e+00	0.1247	-13.918080	0.000348	3.481410	0.589767	0.000035
  15	1.3930e+00	0.1360	-13.884678	0.000336	3.358537	0.568952	0.000034
  16	1.4925e+00	0.1440	-13.850054	0.000348	3.481410	0.589767	0.000035
  17	1.5920e+00	0.1535	-13.820318	0.000299	2.989917	0.506506	0.000030
  18	1.6915e+00	0.1667	-13.780806	0.000397	3.972904	0.673028	0.000040
  19	1.7910e+00	0.1778	-13.750663	0.000303	3.030875	0.513444	0.000030
  20	1.8905e+00	0.1838	-13.716853	0.000340	3.399495	0.575890	0.000034
  21	1.9900e+00	0.1949	-13.678970	0.000381	3.809073	0.645274	0.000038
  22	2.0895e+00	0.2069	-13.648012	0.000311	3.112790	0.527321	0.000031
  23	2.1890e+00	0.2148	-13.615832	0.000324	3.235664	0.548136	0.000032
  24	2.2885e+00	0.2237	-13.585281	0.000307	3.071833	0.520383	0.000031
  25	2.3880e+00	0.2368	-13.547806	0.000377	3.768115	0.638336	0.000038
  26	2.4875e+00	0.2429	-13.512774	0.000352	3.522368	0.596705	0.000035
  27	2.5870e+00	0.2557	-13.474484	0.000385	3.850030	0.652213	0.000038
  28	2.6865e+00	0.2656	-13.440267	0.000344	3.440453	0.582828	0.000034
  29	2.7860e+00	0.2737	-13.405236	0.000352	3.522368	0.596705	0.000035
  30	2.8855e+00	0.2849	-13.367353	0.000381	3.809073	0.645274	0.000038
  31	2.9850e+00	0.2977	-13.327026	0.000405	4.054819	0.686905	0.000041
  32	3.0845e+00	0.3040	-13.294846	0.000324	3.235664	0.548136	0.000032
  33	3.1840e+00	0.3159	-13.254927	0.000401	4.013861	0.679967	0.000040
  34	3.2835e+00	0.3255	-13.219895	0.000352	3.522368	0.596705	0.000035
  35	3.3830e+00	0.3339	-13.183234	0.000369	3.686199	0.624459	0.000037
  36	3.4825e+00	0.3442	-13.151869	0.000315	3.153748	0.534259	0.000032
  37	3.5820e+00	0.3534	-13.109505	0.000426	4.259608	0.721597	0.000043
  38	3.6815e+00	0.3649	-13.074474	0.000352	3.522368	0.596705	0.000035
  39	3.7810e+00	0.3754	-13.037813	0.000369	3.686199	0.624459	0.000037
  40	3.8805e+00	0.3825	-13.004004	0.000340	3.399495	0.575890	0.000034
  41	3.9800e+00	0.3935	-12.964491	0.000397	3.972904	0.673028	0.000040
  42	4.0795e+00	0.4049	-12.925387	0.000393	3.931946	0.666090	0.000039
  43	4.1790e+00	0.4133	-12.891577	0.000340	3.399495	0.575890	0.000034
  44	4.2785e+00	0.4218	-12.853287	0.000385	3.850030	0.652213	0.000038
  45	4.3780e+00	0.4338	-12.817033	0.000365	3.645241	0.617521	0.000036
  46	4.4775e+00	0.4430	-12.779965	0.000373	3.727157	0.631397	0.000037
  47	4.5770e+00	0.4580	-12.743712	0.000365	3.645241	0.617521	0.000036
  48	4.6765e+00	0.4637	-12.704607	0.000393	3.931946	0.666090	0.000039
  49	4.7760e+00	0.4725	-12.665909	0.000389	3.890988	0.659151	0.000039
  50	4.8755e+00	0.4839	-12.632507	0.000336	3.358537	0.568952	0.000034
  51	4.9750e+00	0.4928	-12.595032	0.000377	3.768115	0.638336	0.000038
  52	5.0745e+00	0.5021	-12.555112	0.000401	4.013861	0.679967	0.000040
  53	5.1740e+00	0.5131	-12.520895	0.000344	3.440453	0.582828	0.000034
  54	5.2735e+00	0.5238	-12.483012	0.000381	3.809073	0.645274	0.000038
  55	5.3730e+00	0.5341	-12.446352	0.000369	3.686199	0.624459	0.000037
  56	5.4725e+00	0.5422	-12.409283	0.000373	3.727157	0.631397	0.000037
  57	5.5720e+00	0.5517	-12.370993	0.000385	3.850030	0.652213	0.000038
  58	5.6715e+00	0.5627	-12.333110	0.000381	3.809073	0.645274	0.000038
  59	5.7710e+00	0.5720	-12.296857	0.000365	3.645241	0.617521	0.000036
  60	5.8705e+00	0.5840	-12.260196	0.000369	3.686199	0.624459	0.000037
  61	5.9700e+00	0.5921	-12.214166	0.000463	4.628228	0.784043	0.000046
  62	6.0695e+00	0.6045	-12.180764	0.000336	3.358537	0.568952	0.000034
  63	6.1690e+00	0.6142	-12.139215	0.000418	4.177692	0.707720	0.000042
  64	6.2685e+00	0.6237	-12.100518	0.000389	3.890988	0.659151	0.000039
  65	6.3680e+00	0.6326	-12.060598	0.000401	4.013861	0.679967	0.000040
  66	6.4675e+00	0.6431	-12.019049	0.000418	4.177692	0.707720	0.000042
  67	6.5670e+00	0.6534	-11.982796	0.000365	3.645241	0.617521	0.000036
  68	6.6665e+00	0.6625	-11.946950	0.000360	3.604284	0.610582	0.000036
  69	6.7660e+00	0.6731	-11.906215	0.000410	4.095777	0.693843	0.000041
  70	6.8655e+00	0.6818	-11.867518	0.000389	3.890988	0.659151	0.000039
  71	6.9650e+00	0.6955	-11.828006	0.000397	3.972904	0.673028	0.000040
  72	7.0645e+00	0.7005	-11.789715	0.000385	3.850030	0.652213	0.000038
  73	7.1640e+00	0.7090	-11.747759	0.000422	4.218650	0.714659	0.000042
  74	7.2635e+00	0.7200	-11.708654	0.000393	3.931946	0.666090	0.000039
  75	7.3630e+00	0.7339	-11.672401	0.000365	3.645241	0.617521	0.000036
  76	7.4625e+00	0.7420	-11.633296	0.000393	3.931946	0.666090	0.000039
  77	7.5620e+00	0.7523	-11.596228	0.000373	3.727157	0.631397	0.000037
  78	7.6615e+00	0.7623	-11.556308	0.000401	4.013861	0.679967	0.000040
  79	7.7610e+00	0.7696	-11.519647	0.000369	3.686199	0.624459	0.000037
  80	7.8605e+00	0.7795	-11.482172	0.000377	3.768115	0.638336	0.000038
  81	7.9600e+00	0.7943	-11.447140	0.000352	3.522368	0.596705	0.000035
  82	8.0595e+00	0.8015	-11.407628	0.000397	3.972904	0.673028	0.000040
  83	8.1590e+00	0.8138	-11.367709	0.000401	4.013861	0.679967	0.000040
  84	8.2585e+00	0.8217	-11.336751	0.000311	3.112790	0.527321	0.000031
  85	8.3580e+00	0.8290	-11.302126	0.000348	3.481410	0.589767	0.000035
  86	8.4575e+00	0.8412	-11.263429	0.000389	3.890988	0.659151	0.000039
  87	8.5570e+00	0.8532	-11.225546	0.000381	3.809073	0.645274	0.000038
  88	8.6565e+00	0.8678	-11.192959	0.000328	3.276622	0.555075	0.000033
  89	8.7560e+00	0.8706	-11.155483	0.000377	3.768115	0.638336	0.000038
  90	8.8555e+00	0.8840	-11.118415	0.000373	3.727157	0.631397	0.000037
  91	8.9550e+00	0.8917	-11.084606	0.000340	3.399495	0.575890	0.000034
  92	9.0545e+00	0.9033	-11.047537	0.000373	3.727157	0.631397	0.000037
  93	9.1540e+00	0.9133	-11.008432	0.000393	3.931946	0.666090	0.000039
  94	9.2535e+00	0.9232	-10.969735	0.000389	3.890988	0.659151	0.000039
  95	9.3530e+00	0.9321	-10.931445	0.000385	3.850030	0.652213	0.000038
  96	9.4525e+00	0.9418	-10.896006	0.000356	3.563326	0.603644	0.000036
  97	9.5520e+00	0.9502	-10.854457	0.000418	4.177692	0.707720	0.000042
  98	9.6515e+00	0.9605	-10.817796	0.000369	3.686199	0.624459	0.000037
  99	9.7510e+00	0.9711	-10.786838	0.000311	3.112790	0.527321	0.000031
 100	9.8505e+00	0.9834	-10.746919	0.000401	4.013861	0.679967	0.000040
 101	9.9500e+00	0.9899	-10.710258	0.000369	3.686199	0.624459	0.000037
 102	1.0050e+01	1.0023	-10.676041	0.000344	3.440453	0.582828	0.000034
 103	1.0149e+01	1.0104	-10.635714	0.000405	4.054819	0.686905	0.000041
 104	1.0248e+01	1.0220	-10.594572	0.000414	4.136735	0.700782	0.000041
 105	1.0348e+01	1.0306	-10.555875	0.000389	3.890988	0.659151	0.000039
 106	1.0447e+01	1.0384	-10.521251	0.000348	3.481410	0.589767	0.000035
 107	1.0547e+01	1.0511	-10.489478	0.000319	3.194706	0.541198	0.000032
 108	1.0646e+01	1.0602	-10.447522	0.000422	4.218650	0.714659	0.000042
 109	1.0746e+01	1.0719	-10.412898	0.000348	3.481410	0.589767	0.000035
 110	1.0845e+01	1.0807	-10.378681	0.000344	3.440453	0.582828	0.000034
 111	1.0945e+01	1.0921	-10.339983	0.000389	3.890988	0.659151	0.000039
 112	1.1044e+01	1.1020	-10.302915	0.000373	3.727157	0.631397	0.000037
 113	1.1144e+01	1.1112	-10.271957	0.000311	3.112790	0.527321	0.000031
 114	1.1243e+01	1.1184	-10.236518	0.000356	3.563326	0.603644	0.000036
 115	1.1343e+01	1.1314	-10.206375	0.000303	3.030875	0.513444	0.000030
 116	1.1443e+01	1.1417	-10.171344	0.000352	3.522368	0.596705	0.000035
 117	1.1542e+01	1.1491	-10.134683	0.000369	3.686199	0.624459	0.000037
 118	1.1642e+01	1.1622	-10.101688	0.000332	3.317579	0.562013	0.000033
 119	1.1741e+01	1.1697	-10.069101	0.000328	3.276622	0.555075	0.000033
 120	1.1841e+01	1.1840	-10.032847	0.000365	3.645241	0.617521	0.000036
 121	1.1940e+01	1.1877	-9.999445	0.000336	3.358537	0.568952	0.000034
 122	1.2040e+01	1.2012	-9.968894	0.000307	3.071833	0.520383	0.000031
 123	1.2139e+01	1.2079	-9.929382	0.000397	3.972904	0.673028	0.000040
 124	1.2239e+01	1.2200	-9.895165	0.000344	3.440453	0.582828	0.000034
 125	1.2338e+01	1.2310	-9.866651	0.000287	2.867044	0.485690	0.000029
 126	1.2438e+01	1.2411	-9.827546	0.000393	3.931946	0.666090	0.000039
 127	1.2537e+01	1.2518	-9.795774	0.000319	3.194706	0.541198	0.000032
 128	1.2636e+01	1.2568	-9.765223	0.000307	3.071833	0.520383	0.000031
 129	1.2736e+01	1.2674	-9.738746	0.000266	2.662255	0.450998	0.000027
 130	1.2835e+01	1.2783	-9.699233	0.000397	3.972904	0.673028	0.000040
 131	1.2935e+01	1.2891	-9.666646	0.000328	3.276622	0.555075	0.000033
 132	1.3034e+01	1.3008	-9.635688	0.000311	3.112790	0.527321	0.000031
 133	1.3134e+01	1.3097	-9.600249	0.000356	3.563326	0.603644	0.000036
 134	1.3233e+01	1.3184	-9.566440	0.000340	3.399495	0.575890	0.000034
 135	1.3333e+01	1.3284	-9.534260	0.000324	3.235664	0.548136	0.000032
 136	1.3432e+01	1.3373	-9.499228	0.000352	3.522368	0.596705	0.000035
 137	1.3532e+01	1.3493	-9.468270	0.000311	3.112790	0.527321	0.000031
 138	1.3632e+01	1.3569	-9.434461	0.000340	3.399495	0.575890	0.000034
 139	1.3731e+01	1.3689	-9.403095	0.000315	3.153748	0.534259	0.000032
 140	1.3831e+01	1.3773	-9.370508	0.000328	3.276622	0.555075	0.000033
 141	1.3930e+01	1.3883	-9.339550	0.000311	3.112790	0.527321	0.000031
 142	1.4030e+01	1.3976	-9.304519	0.000352	3.522368	0.596705	0.000035
 143	1.4129e+01	1.4068	-9.276005	0.000287	2.867044	0.485690	0.000029
 144	1.4229e+01	1.4187	-9.245047	0.000311	3.112790	0.527321	0.000031
 145	1.4328e+01	1.4272	-9.213681	0.000315	3.153748	0.534259	0.000032
 146	1.4428e+01	1.4381	-9.186797	0.000270	2.703213	0.457937	0.000027
 147	1.4527e+01	1.4495	-9.152987	0.000340	3.399495	0.575890	0.000034
 148	1.4627e+01	1.4582	-9.123658	0.000295	2.948959	0.499567	0.000029
 149	1.4726e+01	1.4673	-9.097589	0.000262	2.621297	0.444060	0.000026
 150	1.4825e+01	1.4792	-9.066223	0.000315	3.153748	0.534259	0.000032
 151	1.4925e+01	1.4896	-9.032821	0.000336	3.358537	0.568952	0.000034
 152	1.5024e+01	1.4986	-9.000641	0.000324	3.235664	0.548136	0.000032
 153	1.5124e+01	1.5072	-8.972127	0.000287	2.867044	0.485690	0.000029
 154	1.5223e+01	1.5160	-8.940762	0.000315	3.153748	0.534259	0.000032
 155	1.5323e+01	1.5265	-8.911840	0.000291	2.908002	0.492629	0.000029
 156	1.5422e+01	1.5392	-8.884141	0.000279	2.785128	0.471814	0.000028
 157	1.5522e+01	1.5513	-8.849517	0.000348	3.481410	0.589767	0.000035
 158	1.5621e+01	1.5607	-8.822225	0.000274	2.744171	0.464875	0.000027
 159	1.5721e+01	1.5649	-8.789638	0.000328	3.276622	0.555075	0.000033
 160	1.5820e+01	1.5773	-8.760716	0.000291	2.908002	0.492629	0.000029
 161	1.5920e+01	1.5894	-8.725685	0.000352	3.522368	0.596705	0.000035
 162	1.6020e+01	1.5985	-8.693912	0.000319	3.194706	0.541198	0.000032
 163	1.6119e+01	1.6074	-8.664583	0.000295	2.948959	0.499567	0.000029
 164	1.6218e+01	1.6199	-8.636069	0.000287	2.867044	0.485690	0.000029
 165	1.6318e+01	1.6249	-8.600631	0.000356	3.563326	0.603644	0.000036
 166	1.6418e+01	1.6349	-8.566821	0.000340	3.399495	0.575890	0.000034
 167	1.6517e+01	1.6503	-8.537900	0.000291	2.908002	0.492629	0.000029
 168	1.6616e+01	1.6570	-8.502868	0.000352	3.522368	0.596705	0.000035
 169	1.6716e+01	1.6666	-8.469874	0.000332	3.317579	0.562013	0.000033
 170	1.6816e+01	1.6772	-8.437286	0.000328	3.276622	0.555075	0.000033
 171	1.6915e+01	1.6867	-8.403069	0.000344	3.440453	0.582828	0.000034
 172	1.7015e+01	1.6961	-8.372519	0.000307	3.071833	0.520383	0.000031
 173	1.7114e+01	1.7066	-8.338709	0.000340	3.399495	0.575890	0.000034
 174	1.7213e+01	1.7174	-8.310195	0.000287	2.867044	0.485690	0.000029
 175	1.7313e+01	1.7276	-8.275164	0.000352	3.522368	0.596705	0.000035
 176	1.7413e+01	1.7381	-8.242984	0.000324	3.235664	0.548136	0.000032
 177	1.7512e+01	1.7474	-8.214470	0.000287	2.867044	0.485690	0.000029
 178	1.7611e+01	1.7545	-8.185956	0.000287	2.867044	0.485690	0.000029
 179	1.7711e+01	1.7670	-8.153776	0.000324	3.235664	0.548136	0.000032
 180	1.7811e+01	1.7766	-8.123225	0.000307	3.071833	0.520383	0.000031
 181	1.7910e+01	1.7869	-8.091860	0.000315	3.153748	0.534259	0.000032
 182	1.8009e+01	1.7978	-8.060902	0.000311	3.112790	0.527321	0.000031
 183	1.8109e+01	1.8056	-8.028314	0.000328	3.276622	0.555075	0.000033
 184	1.8209e+01	1.8162	-7.996949	0.000315	3.153748	0.534259	0.000032
 185	1.8308e+01	1.8254	-7.966398	0.000307	3.071833	0.520383	0.000031
 186	1.8407e+01	1.8363	-7.935848	0.000307	3.071833	0.520383	0.000031
 187	1.8507e+01	1.8462	-7.903668	0.000324	3.235664	0.548136	0.000032
 188	1.8607e+01	1.8585	-7.871895	0.000319	3.194706	0.541198	0.000032
 189	1.8706e+01	1.8654	-7.843381	0.000287	2.867044	0.485690	0.000029
 190	1.8805e+01	1.8786	-7.815274	0.000283	2.826086	0.478752	0.000028
 191	1.8905e+01	1.8867	-7.781057	0.000344	3.440453	0.582828	0.000034
 192	1.9005e+01	1.8967	-7.755395	0.000258	2.580339	0.437121	0.000026
 193	1.9104e+01	1.9060	-7.719956	0.000356	3.563326	0.603644	0.000036
 194	1.9203e+01	1.9141	-7.690220	0.000299	2.989917	0.506506	0.000030
 195	1.9303e+01	1.9257	-7.658447	0.000319	3.194706	0.541198	0.000032
 196	1.9402e+01	1.9389	-7.620564	0.000381	3.809073	0.645274	0.000038
 197	1.9502e+01	1.9444	-7.590421	0.000303	3.030875	0.513444	0.000030
 198	1.9602e+01	1.9531	-7.557834	0.000328	3.276622	0.555075	0.000033
 199	1.9701e+01	1.9665	-7.528098	0.000299	2.989917	0.506506	0.000030
 200	1.9800e+01	1.9776	-7.489807	0.000385	3.850030	0.652213	0.000038
 201	1.9900e+01	1.9860	-7.456813	0.000332	3.317579	0.562013	0.000033
 202	2.0000e+01	1.9966	-7.423818	0.000332	3.317579	0.562013	0.000033
 203	2.0099e+01	2.0055	-7.391638	0.000324	3.235664	0.548136	0.000032
 204	2.0198e+01	2.0140	-7.357014	0.000348	3.481410	0.589767	0.000035
 205	2.0298e+01	2.0267	-7.324426	0.000328	3.276622	0.555075	0.000033
 206	2.0398e+01	2.0361	-7.288173	0.000365	3.645241	0.617521	0.000036
 207	2.0497e+01	2.0440	-7.254363	0.000340	3.399495	0.575890	0.000034
 208	2.0596e+01	2.0588	-7.220961	0.000336	3.358537	0.568952	0.000034
 209	2.0696e+01	2.0638	-7.190411	0.000307	3.071833	0.520383	0.000031
 210	2.0796e+01	2.0763	-7.152528	0.000381	3.809073	0.645274	0.000038
 211	2.0895e+01	2.0853	-7.117496	0.000352	3.522368	0.596705	0.000035
 212	2.0994e+01	2.0951	-7.090204	0.000274	2.744171	0.464875	0.000027
 213	2.1094e+01	2.1084	-7.054358	0.000360	3.604284	0.610582	0.000036
 214	2.1194e+01	2.1172	-7.017697	0.000369	3.686199	0.624459	0.000037
 215	2.1293e+01	2.1238	-6.987147	0.000307	3.071833	0.520383	0.000031
 216	2.1392e+01	2.1336	-6.953745	0.000336	3.358537	0.568952	0.000034
 217	2.1492e+01	2.1448	-6.918306	0.000356	3.563326	0.603644	0.000036
 218	2.1591e+01	2.1548	-6.883682	0.000348	3.481410	0.589767	0.000035
 219	2.1691e+01	2.1630	-6.851909	0.000319	3.194706	0.541198	0.000032
 220	2.1791e+01	2.1772	-6.816878	0.000352	3.522368	0.596705	0.000035
 221	2.1890e+01	2.1853	-6.783476	0.000336	3.358537	0.568952	0.000034
 222	2.1989e+01	2.1951	-6.750481	0.000332	3.317579	0.562013	0.000033
 223	2.2089e+01	2.2061	-6.717893	0.000328	3.276622	0.555075	0.000033
 224	2.2189e+01	2.2132	-6.684084	0.000340	3.399495	0.575890	0.000034
 225	2.2288e+01	2.2233	-6.650274	0.000340	3.399495	0.575890	0.000034
 226	2.2387e+01	2.2334	-6.610355	0.000401	4.013861	0.679967	0.000040
 227	2.2487e+01	2.2456	-6.575731	0.000348	3.481410	0.589767	0.000035
 228	2.2587e+01	2.2536	-6.538255	0.000377	3.768115	0.638336	0.000038
 229	2.2686e+01	2.2649	-6.506075	0.000324	3.235664	0.548136	0.000032
 230	2.2785e+01	2.2752	-6.467378	0.000389	3.890988	0.659151	0.000039
 231	2.2885e+01	2.2857	-6.431124	0.000365	3.645241	0.617521	0.000036
 232	2.2985e+01	2.2941	-6.399351	0.000319	3.194706	0.541198	0.000032
 233	2.3084e+01	2.3019	-6.362691	0.000369	3.686199	0.624459	0.000037
 234	2.3183e+01	2.3153	-6.328881	0.000340	3.399495	0.575890	0.000034
 235	2.3283e+01	2.3228	-6.290998	0.000381	3.809073	0.645274	0.000038
 236	2.3383e+01	2.3318	-6.252301	0.000389	3.890988	0.659151	0.000039
 237	2.3482e+01	2.3431	-6.218899	0.000336	3.358537	0.568952	0.000034
 238	2.3581e+01	2.3557	-6.179794	0.000393	3.931946	0.666090	0.000039
 239	2.3681e+01	2.3649	-6.147206	0.000328	3.276622	0.555075	0.000033
 240	2.3780e+01	2.3737	-6.111768	0.000356	3.563326	0.603644	0.000036
 241	2.3880e+01	2.3833	-6.075514	0.000365	3.645241	0.617521	0.000036
 242	2.3980e+01	2.3933	-6.040483	0.000352	3.522368	0.596705	0.000035
 243	2.4079e+01	2.4063	-6.004229	0.000365	3.645241	0.617521	0.000036
 244	2.4178e+01	2.4132	-5.967568	0.000369	3.686199	0.624459	0.000037
 245	2.4278e+01	2.4209	-5.933759	0.000340	3.399495	0.575890	0.000034
 246	2.4378e+01	2.4335	-5.902801	0.000311	3.112790	0.527321	0.000031
 247	2.4477e+01	2.4450	-5.868991	0.000340	3.399495	0.575890	0.000034
 248	2.4576e+01	2.4515	-5.834775	0.000344	3.440453	0.582828	0.000034
 249	2.4676e+01	2.4637	-5.797299	0.000377	3.768115	0.638336	0.000038
 250	2.4776e+01	2.4768	-5.763490	0.000340	3.399495	0.575890	0.000034
 251	2.4875e+01	2.4834	-5.730902	0.000328	3.276622	0.555075	0.000033
 252	2.4974e+01	2.4947	-5.699130	0.000319	3.194706	0.541198	0.000032
 253	2.5074e+01	2.5039	-5.669394	0.000299	2.989917	0.506506	0.000030
 254	2.5174e+01	2.5138	-5.633140	0.000365	3.645241	0.617521	0.000036
 255	2.5273e+01	2.5232	-5.606256	0.000270	2.703213	0.457937	0.000027
 256	2.5372e+01	2.5329	-5.565521	0.000410	4.095777	0.693843	0.000041
 257	2.5472e+01	2.5420	-5.537007	0.000287	2.867044	0.485690	0.000029
 258	2.5572e+01	2.5568	-5.501976	0.000352	3.522368	0.596705	0.000035
 259	2.5671e+01	2.5627	-5.466944	0.000352	3.522368	0.596705	0.000035
 260	2.5770e+01	2.5704	-5.434764	0.000324	3.235664	0.548136	0.000032
 261	2.5870e+01	2.5822	-5.399326	0.000356	3.563326	0.603644	0.000036
 262	2.5970e+01	2.5920	-5.365923	0.000336	3.358537	0.568952	0.000034
 263	2.6069e+01	2.6012	-5.333336	0.000328	3.276622	0.555075	0.000033
 264	2.6169e+01	2.6118	-5.295453	0.000381	3.809073	0.645274	0.000038
 265	2.6268e+01	2.6242	-5.262458	0.000332	3.317579	0.562013	0.000033
 266	2.6367e+01	2.6301	-5.227020	0.000356	3.563326	0.603644	0.000036
 267	2.6467e+01	2.6443	-5.198913	0.000283	2.826086	0.478752	0.000028
 268	2.6567e+01	2.6485	-5.163474	0.000356	3.563326	0.603644	0.000036
 269	2.6666e+01	2.6608	-5.130072	0.000336	3.358537	0.568952	0.000034
 270	2.6765e+01	2.6743	-5.095448	0.000348	3.481410	0.589767	0.000035
 271	2.6865e+01	2.6829	-5.062046	0.000336	3.358537	0.568952	0.000034
 272	2.6965e+01	2.6922	-5.026607	0.000356	3.563326	0.603644	0.000036
 273	2.7064e+01	2.7013	-4.990354	0.000365	3.645241	0.617521	0.000036
 274	2.7163e+01	2.7135	-4.956137	0.000344	3.440453	0.582828	0.000034
 275	2.7263e+01	2.7222	-4.922735	0.000336	3.358537	0.568952	0.000034
 276	2.7363e+01	2.7329	-4.888111	0.000348	3.481410	0.589767	0.000035
 277	2.7462e+01	2.7428	-4.857967	0.000303	3.030875	0.513444	0.000030
 278	2.7561e+01	2.7519	-4.822936	0.000352	3.522368	0.596705	0.000035
 279	2.7661e+01	2.7612	-4.791570	0.000315	3.153748	0.534259	0.000032
 280	2.7761e+01	2.7721	-4.762649	0.000291	2.908002	0.492629	0.000029
 281	2.7860e+01	2.7827	-4.732098	0.000307	3.071833	0.520383	0.000031
 282	2.7959e+01	2.7917	-4.700733	0.000315	3.153748	0.534259	0.000032
 283	2.8059e+01	2.8025	-4.668960	0.000319	3.194706	0.541198	0.000032
 284	2.8159e+01	2.8137	-4.638817	0.000303	3.030875	0.513444	0.000030
 285	2.8258e+01	2.8246	-4.610710	0.000283	2.826086	0.478752	0.000028
 286	2.8358e+01	2.8321	-4.577308	0.000336	3.358537	0.568952	0.000034
 287	2.8457e+01	2.8421	-4.545536	0.000319	3.194706	0.541198	0.000032
 288	2.8556e+01	2.8510	-4.515392	0.000303	3.030875	0.513444	0.000030
 289	2.8656e+01	2.8638	-4.482397	0.000332	3.317579	0.562013	0.000033
 290	2.8756e+01	2.8716	-4.454698	0.000279	2.785128	0.471814	0.000028
 291	2.8855e+01	2.8835	-4.424147	0.000307	3.071833	0.520383	0.000031
 292	2.8954e+01	2.8928	-4.394411	0.000299	2.989917	0.506506	0.000030
 293	2.9054e+01	2.9009	-4.362231	0.000324	3.235664	0.548136	0.000032
 294	2.9154e+01	2.9099	-4.331273	0.000311	3.112790	0.527321	0.000031
 295	2.9253e+01	2.9195	-4.302759	0.000287	2.867044	0.485690	0.000029
 296	2.9352e+01	2.9314	-4.268135	0.000348	3.481410	0.589767	0.000035
 297	2.9452e+01	2.9421	-4.240843	0.000274	2.744171	0.464875	0.000027
 298	2.9552e+01	2.9509	-4.208256	0.000328	3.276622	0.555075	0.000033
 299	2.9651e+01	2.9625	-4.180149	0.000283	2.826086	0.478752	0.000028
 300	2.9750e+01	2.9710	-4.149599	0.000307	3.071833	0.520383	0.000031
 301	2.9850e+01	2.9815	-4.122307	0.000274	2.744171	0.464875	0.000027
 302	2.9950e+01	2.9914	-4.093793	0.000287	2.867044	0.485690	0.000029
 303	3.0049e+01	3.0005	-4.059983	0.000340	3.399495	0.575890	0.000034
 304	3.0148e+01	3.0106	-4.030655	0.000295	2.948959	0.499567	0.000029
 305	3.0248e+01	3.0197	-4.004177	0.000266	2.662255	0.450998	0.000027
 306	3.0348e+01	3.0315	-3.970775	0.000336	3.358537	0.568952	0.000034
 307	3.0447e+01	3.0402	-3.943891	0.000270	2.703213	0.457937	0.000027
 308	3.0547e+01	3.0503	-3.914969	0.000291	2.908002	0.492629	0.000029
 309	3.0646e+01	3.0635	-3.885233	0.000299	2.989917	0.506506	0.000030
 310	3.0745e+01	3.0711	-3.857127	0.000283	2.826086	0.478752	0.000028
 311	3.0845e+01	3.0798	-3.830649	0.000266	2.662255	0.450998	0.000027
 312	3.0945e+01	3.0932	-3.802543	0.000283	2.826086	0.478752	0.000028
 313	3.1044e+01	3.1026	-3.777695	0.000250	2.498424	0.423244	0.000025
 314	3.1143e+01	3.1119	-3.747144	0.000307	3.071833	0.520383	0.000031
 315	3.1243e+01	3.1181	-3.724740	0.000225	2.252677	0.381614	0.000023
 316	3.1343e+01	3.1341	-3.699078	0.000258	2.580339	0.437121	0.000026
 317	3.1442e+01	3.1382	-3.664861	0.000344	3.440453	0.582828	0.000034
 318	3.1541e+01	3.1499	-3.641642	0.000233	2.334593	0.395491	0.000023
 319	3.1641e+01	3.1613	-3.607018	0.000348	3.481410	0.589767	0.000035
 320	3.1741e+01	3.1712	-3.581763	0.000254	2.539382	0.430183	0.000025
 321	3.1840e+01	3.1797	-3.558952	0.000229	2.293635	0.388552	0.000023
 322	3.1939e+01	3.1909	-3.530031	0.000291	2.908002	0.492629	0.000029
 323	3.2039e+01	3.1981	-3.502331	0.000279	2.785128	0.471814	0.000028
 324	3.2139e+01	3.2099	-3.478298	0.000242	2.416508	0.409368	0.000024
 325	3.2238e+01	3.2201	-3.451413	0.000270	2.703213	0.457937	0.000027
 326	3.2337e+01	3.2291	-3.419641	0.000319	3.194706	0.541198	0.000032
 327	3.2437e+01	3.2391	-3.393978	0.000258	2.580339	0.437121	0.000026
 328	3.2536e+01	3.2470	-3.365464	0.000287	2.867044	0.485690	0.000029
 329	3.2636e+01	3.2583	-3.340209	0.000254	2.539382	0.430183	0.000025
 330	3.2736e+01	3.2689	-3.307622	0.000328	3.276622	0.555075	0.000033
 331	3.2835e+01	3.2798	-3.280330	0.000274	2.744171	0.464875	0.000027
 332	3.2934e+01	3.2890	-3.251816	0.000287	2.867044	0.485690	0.000029
 333	3.3034e+01	3.3006	-3.222894	0.000291	2.908002	0.492629	0.000029
 334	3.3133e+01	3.3099	-3.192344	0.000307	3.071833	0.520383	0.000031
 335	3.3233e+01	3.3180	-3.160978	0.000315	3.153748	0.534259	0.000032
 336	3.3333e+01	3.3289	-3.135316	0.000258	2.580339	0.437121	0.000026
 337	3.3432e+01	3.3383	-3.104765	0.000307	3.071833	0.520383	0.000031
 338	3.3532e+01	3.3478	-3.077473	0.000274	2.744171	0.464875	0.000027
 339	3.3631e+01	3.3610	-3.043256	0.000344	3.440453	0.582828	0.000034
 340	3.3730e+01	3.3706	-3.014742	0.000287	2.867044	0.485690	0.000029
 341	3.3830e+01	3.3769	-2.987858	0.000270	2.703213	0.457937	0.000027
 342	3.3929e+01	3.3887	-2.960566	0.000274	2.744171	0.464875	0.000027
 343	3.4029e+01	3.4000	-2.928793	0.000319	3.194706	0.541198	0.000032
 344	3.4129e+01	3.4116	-2.902723	0.000262	2.621297	0.444060	0.000026
 345	3.4228e+01	3.4190	-2.873802	0.000291	2.908002	0.492629	0.000029
 346	3.4328e+01	3.4290	-2.848139	0.000258	2.580339	0.437121	0.000026
 347	3.4427e+01	3.4386	-2.820032	0.000283	2.826086	0.478752	0.000028
 348	3.4526e+01	3.4480	-2.793963	0.000262	2.621297	0.444060	0.000026
 349	3.4626e+01	3.4564	-2.767893	0.000262	2.621297	0.444060	0.000026
 350	3.4725e+01	3.4689	-2.737342	0.000307	3.071833	0.520383	0.000031
 351	3.4825e+01	3.4776	-2.705569	0.000319	3.194706	0.541198	0.000032
 352	3.4925e+01	3.4880	-2.677463	0.000283	2.826086	0.478752	0.000028
 353	3.5024e+01	3.5001	-2.658725	0.000188	1.884057	0.319168	0.000019
 354	3.5123e+01	3.5104	-2.623693	0.000352	3.522368	0.596705	0.000035
 355	3.5223e+01	3.5181	-2.594365	0.000295	2.948959	0.499567	0.000029
 356	3.5322e+01	3.5279	-2.569517	0.000250	2.498424	0.423244	0.000025
 357	3.5422e+01	3.5387	-2.543040	0.000266	2.662255	0.450998	0.000027
 358	3.5522e+01	3.5509	-2.515748	0.000274	2.744171	0.464875	0.000027
 359	3.5621e+01	3.5595	-2.486012	0.000299	2.989917	0.506506	0.000030
 360	3.5721e+01	3.5662	-2.459942	0.000262	2.621297	0.444060	0.000026
 361	3.5820e+01	3.5775	-2.432242	0.000279	2.785128	0.471814	0.000028
 362	3.5919e+01	3.5869	-2.400062	0.000324	3.235664	0.548136	0.000032
 363	3.6019e+01	3.5995	-2.369104	0.000311	3.112790	0.527321	0.000031
 364	3.6118e+01	3.6067	-2.339776	0.000295	2.948959	0.499567	0.000029
 365	3.6218e+01	3.6167	-2.307188	0.000328	3.276622	0.555075	0.000033
 366	3.6318e+01	3.6294	-2.279489	0.000279	2.785128	0.471814	0.000028
 367	3.6417e+01	3.6385	-2.249346	0.000303	3.030875	0.513444	0.000030
 368	3.6517e+01	3.6465	-2.218795	0.000307	3.071833	0.520383	0.000031
 369	3.6616e+01	3.6576	-2.187022	0.000319	3.194706	0.541198	0.000032
 370	3.6715e+01	3.6687	-2.159323	0.000279	2.785128	0.471814	0.000028
 371	3.6815e+01	3.6781	-2.129180	0.000303	3.030875	0.513444	0.000030
 372	3.6914e+01	3.6854	-2.099036	0.000303	3.030875	0.513444	0.000030
 373	3.7014e+01	3.7001	-2.064819	0.000344	3.440453	0.582828	0.000034
 374	3.7114e+01	3.7067	-2.037527	0.000274	2.744171	0.464875	0.000027
 375	3.7213e+01	3.7182	-2.005347	0.000324	3.235664	0.548136	0.000032
 376	3.7313e+01	3.7259	-1.971945	0.000336	3.358537	0.568952	0.000034
 377	3.7412e+01	3.7387	-1.942617	0.000295	2.948959	0.499567	0.000029
 378	3.7511e+01	3.7500	-1.912473	0.000303	3.030875	0.513444	0.000030
 379	3.7611e+01	3.7566	-1.881515	0.000311	3.112790	0.527321	0.000031
 380	3.7711e+01	3.7655	-1.851372	0.000303	3.030875	0.513444	0.000030
 381	3.7810e+01	3.7764	-1.819192	0.000324	3.235664	0.548136	0.000032
 382	3.7910e+01	3.7888	-1.793529	0.000258	2.580339	0.437121	0.000026
 383	3.8009e+01	3.7944	-1.760535	0.000332	3.317579	0.562013	0.000033
 384	3.8108e+01	3.8052	-1.727132	0.000336	3.358537	0.568952	0.000034
 385	3.8208e+01	3.8203	-1.699026	0.000283	2.826086	0.478752	0.000028
 386	3.8307e+01	3.8255	-1.667253	0.000319	3.194706	0.541198	0.000032
 387	3.8407e+01	3.8357	-1.639146	0.000283	2.826086	0.478752	0.000028
 388	3.8507e+01	3.8451	-1.609818	0.000295	2.948959	0.499567	0.000029
 389	3.8606e+01	3.8567	-1.576008	0.000340	3.399495	0.575890	0.000034
 390	3.8706e+01	3.8677	-1.547902	0.000283	2.826086	0.478752	0.000028
 391	3.8805e+01	3.8778	-1.518980	0.000291	2.908002	0.492629	0.000029
 392	3.8904e+01	3.8892	-1.483542	0.000356	3.563326	0.603644	0.000036
 393	3.9004e+01	3.8961	-1.452176	0.000315	3.153748	0.534259	0.000032
 394	3.9103e+01	3.9063	-1.422033	0.000303	3.030875	0.513444	0.000030
 395	3.9203e+01	3.9135	-1.387001	0.000352	3.522368	0.596705	0.000035
 396	3.9303e+01	3.9238	-1.355636	0.000315	3.153748	0.534259	0.000032
 397	3.9402e+01	3.9373	-1.317753	0.000381	3.809073	0.645274	0.000038
 398	3.9502e+01	3.9459	-1.287202	0.000307	3.071833	0.520383	0.000031
 399	3.9601e+01	3.9565	-1.249320	0.000381	3.809073	0.645274	0.000038
 400	3.9700e+01	3.9663	-1.222028	0.000274	2.744171	0.464875	0.000027
 401	3.9800e+01	3.9754	-1.186589	0.000356	3.563326	0.603644	0.000036
 402	3.9900e+01	3.9887	-1.156446	0.000303	3.030875	0.513444	0.000030
 403	3.9999e+01	3.9965	-1.126302	0.000303	3.030875	0.513444	0.000030
 404	4.0099e+01	4.0054	-1.088827	0.000377	3.768115	0.638336	0.000038
 405	4.0198e+01	4.0155	-1.054203	0.000348	3.481410	0.589767	0.000035
 406	4.0297e+01	4.0268	-1.022837	0.000315	3.153748	0.534259	0.000032
 407	4.0397e+01	4.0352	-0.990657	0.000324	3.235664	0.548136	0.000032
 408	4.0496e+01	4.0459	-0.959292	0.000315	3.153748	0.534259	0.000032
 409	4.0596e+01	4.0568	-0.922631	0.000369	3.686199	0.624459	0.000037
 410	4.0696e+01	4.0652	-0.892895	0.000299	2.989917	0.506506	0.000030
 411	4.0795e+01	4.0749	-0.859085	0.000340	3.399495	0.575890	0.000034
 412	4.0895e+01	4.0865	-0.829757	0.000295	2.948959	0.499567	0.000029
 413	4.0994e+01	4.0963	-0.800021	0.000299	2.989917	0.506506	0.000030
 414	4.1093e+01	4.1039	-0.766211	0.000340	3.399495	0.575890	0.000034
 415	4.1193e+01	4.1150	-0.736475	0.000299	2.989917	0.506506	0.000030
 416	4.1292e+01	4.1224	-0.706332	0.000303	3.030875	0.513444	0.000030
 417	4.1392e+01	4.1349	-0.676189	0.000303	3.030875	0.513444	0.000030
 418	4.1492e+01	4.1454	-0.645638	0.000307	3.071833	0.520383	0.000031
 419	4.1591e+01	4.1546	-0.613051	0.000328	3.276622	0.555075	0.000033
 420	4.1691e+01	4.1659	-0.582093	0.000311	3.112790	0.527321	0.000031
 421	4.1790e+01	4.1745	-0.555615	0.000266	2.662255	0.450998	0.000027
 422	4.1889e+01	4.1860	-0.521806	0.000340	3.399495	0.575890	0.000034
 423	4.1989e+01	4.1946	-0.492070	0.000299	2.989917	0.506506	0.000030
 424	4.2089e+01	4.2054	-0.463556	0.000287	2.867044	0.485690	0.000029
 425	4.2188e+01	4.2132	-0.435449	0.000283	2.826086	0.478752	0.000028
 426	4.2288e+01	4.2286	-0.403676	0.000319	3.194706	0.541198	0.000032
 427	4.2387e+01	4.2317	-0.373940	0.000299	2.989917	0.506506	0.000030
 428	4.2486e+01	4.2490	-0.338502	0.000356	3.563326	0.603644	0.000036
 429	4.2586e+01	4.2564	-0.307136	0.000315	3.153748	0.534259	0.000032
 430	4.2685e+01	4.2663	-0.279030	0.000283	2.826086	0.478752	0.000028
 431	4.2785e+01	4.2742	-0.246850	0.000324	3.235664	0.548136	0.000032
 432	4.2885e+01	4.2852	-0.213447	0.000336	3.358537	0.568952	0.000034
 433	4.2984e+01	4.2977	-0.180860	0.000328	3.276622	0.555075	0.000033
 434	4.3084e+01	4.3039	-0.151939	0.000291	2.908002	0.492629	0.000029
 435	4.3183e+01	4.3159	-0.121795	0.000303	3.030875	0.513444	0.000030
 436	4.3282e+01	4.3250	-0.092467	0.000295	2.948959	0.499567	0.000029
 437	4.3382e+01	4.3362	-0.061509	0.000311	3.112790	0.527321	0.000031
 438	4.3481e+01	4.3455	-0.028107	0.000336	3.358537	0.568952	0.000034
 439	4.3581e+01	4.3555	0.002851	0.000311	3.112790	0.527321	0.000031
 440	4.3681e+01	4.3650	0.033402	0.000307	3.071833	0.520383	0.000031
 441	4.3780e+01	4.3780	0.067619	0.000344	3.440453	0.582828	0.000034
 442	4.3880e+01	4.3853	0.096948	0.000295	2.948959	0.499567	0.000029
 443	4.3979e+01	4.3954	0.125054	0.000283	2.826086	0.478752	0.000028
 444	4.4078e+01	4.4036	0.159678	0.000348	3.481410	0.589767	0.000035
 445	4.4178e+01	4.4144	0.189822	0.000303	3.030875	0.513444	0.000030
 446	4.4278e+01	4.4234	0.215892	0.000262	2.621297	0.444060	0.000026
 447	4.4377e+01	4.4324	0.246035	0.000303	3.030875	0.513444	0.000030
 448	4.4477e+01	4.4438	0.275364	0.000295	2.948959	0.499567	0.000029
 449	4.4576e+01	4.4536	0.301026	0.000258	2.580339	0.437121	0.000026
 450	4.4675e+01	4.4625	0.329540	0.000287	2.867044	0.485690	0.000029
 451	4.4775e+01	4.4748	0.359276	0.000299	2.989917	0.506506	0.000030
 452	4.4874e+01	4.4812	0.384531	0.000254	2.539382	0.430183	0.000025
 453	4.4974e+01	4.4939	0.416304	0.000319	3.194706	0.541198	0.000032
 454	4.5074e+01	4.5025	0.443596	0.000274	2.744171	0.464875	0.000027
 455	4.5173e+01	4.5161	0.468851	0.000254	2.539382	0.430183	0.000025
 456	4.5273e+01	4.5208	0.496958	0.000283	2.826086	0.478752	0.000028
 457	4.5372e+01	4.5340	0.525472	0.000287	2.867044	0.485690	0.000029
 458	4.5471e+01	4.5422	0.553986	0.000287	2.867044	0.485690	0.000029
 459	4.5571e+01	4.5541	0.586166	0.000324	3.235664	0.548136	0.000032
 460	4.5670e+01	4.5635	0.607755	0.000217	2.170762	0.367737	0.000022
 461	4.5770e+01	4.5737	0.637084	0.000295	2.948959	0.499567	0.000029
 462	4.5870e+01	4.5829	0.663154	0.000262	2.621297	0.444060	0.000026
 463	4.5969e+01	4.5898	0.688409	0.000254	2.539382	0.430183	0.000025
 464	4.6069e+01	4.6037	0.716516	0.000283	2.826086	0.478752	0.000028
 465	4.6168e+01	4.6104	0.746252	0.000299	2.989917	0.506506	0.000030
 466	4.6267e+01	4.6204	0.769877	0.000238	2.375551	0.402429	0.000024
 467	4.6367e+01	4.6355	0.798799	0.000291	2.908002	0.492629	0.000029
 468	4.6467e+01	4.6453	0.828535	0.000299	2.989917	0.506506	0.000030
 469	4.6566e+01	4.6528	0.856641	0.000283	2.826086	0.478752	0.000028
 470	4.6666e+01	4.6633	0.880267	0.000238	2.375551	0.402429	0.000024
 471	4.6765e+01	4.6737	0.909596	0.000295	2.948959	0.499567	0.000029
 472	4.6864e+01	4.6851	0.938517	0.000291	2.908002	0.492629	0.000029
 473	4.6964e+01	4.6944	0.963772	0.000254	2.539382	0.430183	0.000025
 474	4.7063e+01	4.7005	0.990250	0.000266	2.662255	0.450998	0.000027
 475	4.7163e+01	4.7124	1.015098	0.000250	2.498424	0.423244	0.000025
 476	4.7263e+01	4.7227	1.041168	0.000262	2.621297	0.444060	0.000026
 477	4.7362e+01	4.7330	1.066423	0.000254	2.539382	0.430183	0.000025
 478	4.7462e+01	4.7419	1.092085	0.000258	2.580339	0.437121	0.000026
 479	4.7561e+01	4.7527	1.117341	0.000254	2.539382	0.430183	0.000025
 480	4.7660e+01	4.7622	1.141374	0.000242	2.416508	0.409368	0.000024
 481	4.7760e+01	4.7741	1.167851	0.000266	2.662255	0.450998	0.000027
 482	4.7859e+01	4.7823	1.188218	0.000205	2.047888	0.346922	0.000020
 483	4.7959e+01	4.7944	1.213066	0.000250	2.498424	0.423244	0.000025
 484	4.8059e+01	4.7997	1.239136	0.000262	2.621297	0.444060	0.000026
 485	4.8158e+01	4.8107	1.267243	0.000283	2.826086	0.478752	0.000028
 486	4.8258e+01	4.8237	1.288832	0.000217	2.170762	0.367737	0.000022
 487	4.8357e+01	4.8331	1.315716	0.000270	2.703213	0.457937	0.000027
 488	4.8456e+01	4.8418	1.338528	0.000229	2.293635	0.388552	0.000023
 489	4.8556e+01	4.8522	1.361746	0.000233	2.334593	0.395491	0.000023
 490	4.8656e+01	4.8616	1.388631	0.000270	2.703213	0.457937	0.000027
 491	4.8755e+01	4.8734	1.412257	0.000238	2.375551	0.402429	0.000024
 492	4.8855e+01	4.8800	1.437105	0.000250	2.498424	0.423244	0.000025
 493	4.8954e+01	4.8913	1.459916	0.000229	2.293635	0.388552	0.000023
 494	4.9053e+01	4.9015	1.485578	0.000258	2.580339	0.437121	0.000026
 495	4.9153e+01	4.9101	1.509611	0.000242	2.416508	0.409368	0.000024
 496	4.9252e+01	4.9212	1.535274	0.000258	2.580339	0.437121	0.000026
 497	4.9352e+01	4.9354	1.556456	0.000213	2.129804	0.360799	0.000021
 498	4.9452e+01	4.9407	1.589451	0.000332	3.317579	0.562013	0.000033
 499	4.9551e+01	4.9525	1.613891	0.000246	2.457466	0.416306	0.000025
 500	4.9651e+01	4.9615	1.642813	0.000291	2.908002	0.492629	0.000029
 501	4.9750e+01	4.9703	1.667660	0.000250	2.498424	0.423244	0.000025
 502	4.9849e+01	4.9815	1.692508	0.000250	2.498424	0.423244	0.000025
 503	4.9949e+01	4.9915	1.721837	0.000295	2.948959	0.499567	0.000029
 504	5.0048e+01	4.9993	1.751166	0.000295	2.948959	0.499567	0.000029
 505	5.0148e+01	5.0106	1.776421	0.000254	2.539382	0.430183	0.000025
 506	5.0248e+01	5.0225	1.801269	0.000250	2.498424	0.423244	0.000025
 507	5.0347e+01	5.0311	1.826117	0.000250	2.498424	0.423244	0.000025
 508	5.0447e+01	5.0422	1.855445	0.000295	2.948959	0.499567	0.000029
 509	5.0546e+01	5.0494	1.880701	0.000254	2.539382	0.430183	0.000025
 510	5.0645e+01	5.0562	1.904326	0.000238	2.375551	0.402429	0.000024
 511	5.0745e+01	5.0712	1.932026	0.000279	2.785128	0.471814	0.000028
 512	5.0844e+01	5.0828	1.952393	0.000205	2.047888	0.346922	0.000020
 513	5.0944e+01	5.0899	1.981722	0.000295	2.948959	0.499567	0.000029
 514	5.1044e+01	5.1012	2.005755	0.000242	2.416508	0.409368	0.000024
 515	5.1143e+01	5.1112	2.032232	0.000266	2.662255	0.450998	0.000027
 516	5.1242e+01	5.1206	2.053414	0.000213	2.129804	0.360799	0.000021
 517	5.1342e+01	5.1275	2.076632	0.000233	2.334593	0.395491	0.000023
 518	5.1441e+01	5.1412	2.103110	0.000266	2.662255	0.450998	0.000027
 519	5.1541e+01	5.1493	2.133253	0.000303	3.030875	0.513444	0.000030
 520	5.1641e+01	5.1589	2.158508	0.000254	2.539382	0.430183	0.000025
 521	5.1740e+01	5.1682	2.180912	0.000225	2.252677	0.381614	0.000023
 522	5.1840e+01	5.1805	2.206982	0.000262	2.621297	0.444060	0.000026
 523	5.1939e+01	5.1904	2.231830	0.000250	2.498424	0.423244	0.000025
 524	5.2038e+01	5.2003	2.254234	0.000225	2.252677	0.381614	0.000023
 525	5.2138e+01	5.2093	2.281933	0.000279	2.785128	0.471814	0.000028
 526	5.2237e+01	5.2203	2.304337	0.000225	2.252677	0.381614	0.000023
 527	5.2337e+01	5.2296	2.330407	0.000262	2.621297	0.444060	0.000026
 528	5.2437e+01	5.2416	2.358513	0.000283	2.826086	0.478752	0.000028
 529	5.2536e+01	5.2482	2.385805	0.000274	2.744171	0.464875	0.000027
 530	5.2636e+01	5.2593	2.409839	0.000242	2.416508	0.409368	0.000024
 531	5.2735e+01	5.2715	2.441611	0.000319	3.194706	0.541198	0.000032
 532	5.2834e+01	5.2822	2.467274	0.000258	2.580339	0.437121	0.000026
 533	5.2934e+01	5.2895	2.492936	0.000258	2.580339	0.437121	0.000026
 534	5.3033e+01	5.3017	2.522265	0.000295	2.948959	0.499567	0.000029
 535	5.3133e+01	5.3092	2.548742	0.000266	2.662255	0.450998	0.000027
 536	5.3233e+01	5.3175	2.580108	0.000315	3.153748	0.534259	0.000032
 537	5.3332e+01	5.3284	2.605770	0.000258	2.580339	0.437121	0.000026
 538	5.3431e+01	5.3387	2.631026	0.000254	2.539382	0.430183	0.000025
 539	5.3531e+01	5.3495	2.660354	0.000295	2.948959	0.499567	0.000029
 540	5.3630e+01	5.3582	2.690090	0.000299	2.989917	0.506506	0.000030
 541	5.3730e+01	5.3692	2.714938	0.000250	2.498424	0.423244	0.000025
 542	5.3830e+01	5.3773	2.742637	0.000279	2.785128	0.471814	0.000028
 543	5.3929e+01	5.3893	2.771151	0.000287	2.867044	0.485690	0.000029
 544	5.4029e+01	5.3985	2.802517	0.000315	3.153748	0.534259	0.000032
 545	5.4128e+01	5.4093	2.828179	0.000258	2.580339	0.437121	0.000026
 546	5.4227e+01	5.4191	2.855471	0.000274	2.744171	0.464875	0.000027
 547	5.4327e+01	5.4298	2.886022	0.000307	3.071833	0.520383	0.000031
 548	5.4426e+01	5.4400	2.914129	0.000283	2.826086	0.478752	0.000028
 549	5.4526e+01	5.4498	2.941828	0.000279	2.785128	0.471814	0.000028
 550	5.4626e+01	5.4597	2.971971	0.000303	3.030875	0.513444	0.000030
 551	5.4725e+01	5.4697	3.001300	0.000295	2.948959	0.499567	0.000029
 552	5.4825e+01	5.4806	3.026555	0.000254	2.539382	0.430183	0.000025
 553	5.4924e+01	5.4888	3.052625	0.000262	2.621297	0.444060	0.000026
 554	5.5023e+01	5.4986	3.081546	0.000291	2.908002	0.492629	0.000029
 555	5.5123e+01	5.5077	3.111282	0.000299	2.989917	0.506506	0.000030
 556	5.5222e+01	5.5209	3.138982	0.000279	2.785128	0.471814	0.000028
 557	5.5322e+01	5.5298	3.168718	0.000299	2.989917	0.506506	0.000030
 558	5.5422e+01	5.5379	3.197639	0.000291	2.908002	0.492629	0.000029
 559	5.5521e+01	5.5498	3.226153	0.000287	2.867044	0.485690	0.000029
 560	5.5620e+01	5.5589	3.249779	0.000238	2.375551	0.402429	0.000024
 561	5.5720e+01	5.5669	3.283588	0.000340	3.399495	0.575890	0.000034
 562	5.5819e+01	5.5784	3.311695	0.000283	2.826086	0.478752	0.000028
 563	5.5919e+01	5.5865	3.343875	0.000324	3.235664	0.548136	0.000032
 564	5.6019e+01	5.5966	3.374426	0.000307	3.071833	0.520383	0.000031
 565	5.6118e+01	5.6081	3.403347	0.000291	2.908002	0.492629	0.000029
 566	5.6218e+01	5.6194	3.437971	0.000348	3.481410	0.589767	0.000035
 567	5.6317e+01	5.6258	3.466078	0.000283	2.826086	0.478752	0.000028
 568	5.6416e+01	5.6394	3.496221	0.000303	3.030875	0.513444	0.000030
 569	5.6516e+01	5.6496	3.523920	0.000279	2.785128	0.471814	0.000028
 570	5.6615e+01	5.6548	3.557323	0.000336	3.358537	0.568952	0.000034
 571	5.6715e+01	5.6673	3.590317	0.000332	3.317579	0.562013	0.000033
 572	5.6815e+01	5.6796	3.617609	0.000274	2.744171	0.464875	0.000027
 573	5.6914e+01	5.6844	3.646123	0.000287	2.867044	0.485690	0.000029
 574	5.7014e+01	5.6996	3.678303	0.000324	3.235664	0.548136	0.000032
 575	5.7113e+01	5.7069	3.705188	0.000270	2.703213	0.457937	0.000027
 576	5.7212e+01	5.7157	3.739405	0.000344	3.440453	0.582828	0.000034
 577	5.7312e+01	5.7265	3.769548	0.000303	3.030875	0.513444	0.000030
 578	5.7411e+01	5.7368	3.798469	0.000291	2.908002	0.492629	0.000029
 579	5.7511e+01	5.7485	3.829427	0.000311	3.112790	0.527321	0.000031
 580	5.7611e+01	5.7555	3.856719	0.000274	2.744171	0.464875	0.000027
 581	5.7710e+01	5.7652	3.887677	0.000311	3.112790	0.527321	0.000031
 582	5.7809e+01	5.7748	3.915784	0.000283	2.826086	0.478752	0.000028
 583	5.7909e+01	5.7862	3.943891	0.000283	2.826086	0.478752	0.000028
 584	5.8008e+01	5.7990	3.967109	0.000233	2.334593	0.395491	0.000023
 585	5.8108e+01	5.8080	3.996845	0.000299	2.989917	0.506506	0.000030
 586	5.8208e+01	5.8156	4.026581	0.000299	2.989917	0.506506	0.000030
 587	5.8307e+01	5.8257	4.052244	0.000258	2.580339	0.437121	0.000026
 588	5.8407e+01	5.8382	4.080350	0.000283	2.826086	0.478752	0.000028
 589	5.8506e+01	5.8465	4.110901	0.000307	3.071833	0.520383	0.000031
 590	5.8605e+01	5.8569	4.136156	0.000254	2.539382	0.430183	0.000025
 591	5.8705e+01	5.8662	4.163448	0.000274	2.744171	0.464875	0.000027
 592	5.8804e+01	5.8797	4.192370	0.000291	2.908002	0.492629	0.000029
 593	5.8904e+01	5.8871	4.223328	0.000311	3.112790	0.527321	0.000031
 594	5.9004e+01	5.8997	4.246953	0.000238	2.375551	0.402429	0.000024
 595	5.9103e+01	5.9035	4.278319	0.000315	3.153748	0.534259	0.000032
 596	5.9203e+01	5.9158	4.307647	0.000295	2.948959	0.499567	0.000029
 597	5.9302e+01	5.9246	4.336161	0.000287	2.867044	0.485690	0.000029
 598	5.9401e+01	5.9379	4.367119	0.000311	3.112790	0.527321	0.000031
 599	5.9501e+01	5.9476	4.396856	0.000299	2.989917	0.506506	0.000030
 600	5.9600e+01	5.9551	4.423333	0.000266	2.662255	0.450998	0.000027
 601	5.9700e+01	5.9662	4.454698	0.000315	3.153748	0.534259	0.000032
 602	5.9800e+01	5.9769	4.480361	0.000258	2.580339	0.437121	0.000026
 603	5.9899e+01	5.9849	4.511726	0.000315	3.153748	0.534259	0.000032
 604	5.9998e+01	5.9956	4.533723	0.000221	2.211720	0.374675	0.000022
 605	6.0098e+01	6.0090	4.564681	0.000311	3.112790	0.527321	0.000031
 606	6.0197e+01	6.0150	4.595231	0.000307	3.071833	0.520383	0.000031
 607	6.0297e+01	6.0267	4.625782	0.000307	3.071833	0.520383	0.000031
 608	6.0397e+01	6.0369	4.653074	0.000274	2.744171	0.464875	0.000027
 609	6.0496e+01	6.0460	4.681181	0.000283	2.826086	0.478752	0.000028
 610	6.0596e+01	6.0544	4.708880	0.000279	2.785128	0.471814	0.000028
 611	6.0695e+01	6.0657	4.739023	0.000303	3.030875	0.513444	0.000030
 612	6.0794e+01	6.0760	4.765908	0.000270	2.703213	0.457937	0.000027
 613	6.0894e+01	6.0841	4.791570	0.000258	2.580339	0.437121	0.000026
 614	6.0993e+01	6.0938	4.818048	0.000266	2.662255	0.450998	0.000027
 615	6.1093e+01	6.1040	4.846154	0.000283	2.826086	0.478752	0.000028
 616	6.1193e+01	6.1144	4.871002	0.000250	2.498424	0.423244	0.000025
 617	6.1292e+01	6.1262	4.895443	0.000246	2.457466	0.416306	0.000025
 618	6.1392e+01	6.1329	4.921513	0.000262	2.621297	0.444060	0.000026
 619	6.1491e+01	6.1446	4.950434	0.000291	2.908002	0.492629	0.000029
 620	6.1590e+01	6.1555	4.974467	0.000242	2.416508	0.409368	0.000024
 621	6.1690e+01	6.1670	5.000130	0.000258	2.580339	0.437121	0.000026
 622	6.1789e+01	6.1762	5.028236	0.000283	2.826086	0.478752	0.000028
 623	6.1889e+01	6.1866	5.050640	0.000225	2.252677	0.381614	0.000023
 624	6.1989e+01	6.1951	5.078340	0.000279	2.785128	0.471814	0.000028
 625	6.2088e+01	6.2038	5.103187	0.000250	2.498424	0.423244	0.000025
 626	6.2188e+01	6.2133	5.125184	0.000221	2.211720	0.374675	0.000022
 627	6.2287e+01	6.2241	5.154920	0.000299	2.989917	0.506506	0.000030
 628	6.2386e+01	6.2356	5.175694	0.000209	2.088846	0.353860	0.000021
 629	6.2486e+01	6.2420	5.202986	0.000274	2.744171	0.464875	0.000027
 630	6.2586e+01	6.2553	5.230278	0.000274	2.744171	0.464875	0.000027
 631	6.2685e+01	6.2643	5.255126	0.000250	2.498424	0.423244	0.000025
 632	6.2785e+01	6.2766	5.275901	0.000209	2.088846	0.353860	0.000021
 633	6.2884e+01	6.2866	5.305637	0.000299	2.989917	0.506506	0.000030
 634	6.2983e+01	6.2950	5.330892	0.000254	2.539382	0.430183	0.000025
 635	6.3083e+01	6.3023	5.350852	0.000201	2.006931	0.339983	0.000020
 636	6.3182e+01	6.3131	5.378144	0.000274	2.744171	0.464875	0.000027
 637	6.3282e+01	6.3245	5.403806	0.000258	2.580339	0.437121	0.000026
 638	6.3382e+01	6.3342	5.427839	0.000242	2.416508	0.409368	0.000024
 639	6.3481e+01	6.3425	5.451873	0.000242	2.416508	0.409368	0.000024
 640	6.3581e+01	6.3541	5.475091	0.000233	2.334593	0.395491	0.000023
 641	6.3680e+01	6.3634	5.501569	0.000266	2.662255	0.450998	0.000027
 642	6.3779e+01	6.3731	5.523565	0.000221	2.211720	0.374675	0.000022
 643	6.3879e+01	6.3834	5.547598	0.000242	2.416508	0.409368	0.000024
 644	6.3978e+01	6.3943	5.570817	0.000233	2.334593	0.395491	0.000023
 645	6.4078e+01	6.4046	5.594035	0.000233	2.334593	0.395491	0.000023
 646	6.4177e+01	6.4112	5.619698	0.000258	2.580339	0.437121	0.000026
 647	6.4277e+01	6.4231	5.641287	0.000217	2.170762	0.367737	0.000022
 648	6.4376e+01	6.4332	5.660432	0.000193	1.925015	0.326106	0.000019
 649	6.4476e+01	6.4448	5.685280	0.000250	2.498424	0.423244	0.000025
 650	6.4576e+01	6.4520	5.705647	0.000205	2.047888	0.346922	0.000020
 651	6.4675e+01	6.4623	5.726829	0.000213	2.129804	0.360799	0.000021
 652	6.4775e+01	6.4750	5.748825	0.000221	2.211720	0.374675	0.000022
 653	6.4874e+01	6.4821	5.769600	0.000209	2.088846	0.353860	0.000021
 654	6.4974e+01	6.4931	5.796485	0.000270	2.703213	0.457937	0.000027
 655	6.5073e+01	6.5022	5.820925	0.000246	2.457466	0.416306	0.000025
 656	6.5172e+01	6.5115	5.844551	0.000238	2.375551	0.402429	0.000024
 657	6.5272e+01	6.5243	5.863289	0.000188	1.884057	0.319168	0.000019
 658	6.5371e+01	6.5327	5.885285	0.000221	2.211720	0.374675	0.000022
 659	6.5471e+01	6.5444	5.904023	0.000188	1.884057	0.319168	0.000019
 660	6.5570e+01	6.5536	5.926019	0.000221	2.211720	0.374675	0.000022
 661	6.5670e+01	6.5606	5.951682	0.000258	2.580339	0.437121	0.000026
 662	6.5769e+01	6.5723	5.974086	0.000225	2.252677	0.381614	0.000023
 663	6.5869e+01	6.5821	6.000563	0.000266	2.662255	0.450998	0.000027
 664	6.5969e+01	6.5937	6.020116	0.000197	1.965973	0.333045	0.000020
 665	6.6068e+01	6.6055	6.047000	0.000270	2.703213	0.457937	0.000027
 666	6.6168e+01	6.6130	6.065738	0.000188	1.884057	0.319168	0.000019
 667	6.6267e+01	6.6222	6.094252	0.000287	2.867044	0.485690	0.000029
 668	6.6367e+01	6.6326	6.114212	0.000201	2.006931	0.339983	0.000020
 669	6.6466e+01	6.6418	6.140282	0.000262	2.621297	0.444060	0.000026
 670	6.6566e+01	6.6530	6.164315	0.000242	2.416508	0.409368	0.000024
 671	6.6665e+01	6.6619	6.192829	0.000287	2.867044	0.485690	0.000029
 672	6.6764e+01	6.6708	6.217677	0.000250	2.498424	0.423244	0.000025
 673	6.6864e+01	6.6839	6.240081	0.000225	2.252677	0.381614	0.000023
 674	6.6963e+01	6.6882	6.266965	0.000270	2.703213	0.457937	0.000027
 675	6.7063e+01	6.7031	6.287740	0.000209	2.088846	0.353860	0.000021
 676	6.7162e+01	6.7109	6.312588	0.000250	2.498424	0.423244	0.000025
 677	6.7262e+01	6.7214	6.339879	0.000274	2.744171	0.464875	0.000027
 678	6.7362e+01	6.7295	6.361061	0.000213	2.129804	0.360799	0.000021
 679	6.7461e+01	6.7436	6.383872	0.000229	2.293635	0.388552	0.000023
 680	6.7561e+01	6.7500	6.402610	0.000188	1.884057	0.319168	0.000019
 681	6.7660e+01	6.7611	6.431124	0.000287	2.867044	0.485690	0.000029
 682	6.7760e+01	6.7725	6.452306	0.000213	2.129804	0.360799	0.000021
 683	6.7859e+01	6.7822	6.474710	0.000225	2.252677	0.381614	0.000023
 684	6.7959e+01	6.7910	6.495484	0.000209	2.088846	0.353860	0.000021
 685	6.8058e+01	6.8029	6.519925	0.000246	2.457466	0.416306	0.000025
 686	6.8157e+01	6.8112	6.541921	0.000221	2.211720	0.374675	0.000022
 687	6.8257e+01	6.8201	6.566362	0.000246	2.457466	0.416306	0.000025
 688	6.8356e+01	6.8284	6.588766	0.000225	2.252677	0.381614	0.000023
 689	6.8456e+01	6.8439	6.612392	0.000238	2.375551	0.402429	0.000024
 690	6.8555e+01	6.8542	6.633166	0.000209	2.088846	0.353860	0.000021
 691	6.8655e+01	6.8614	6.657199	0.000242	2.416508	0.409368	0.000024
 692	6.8754e+01	6.8708	6.682455	0.000254	2.539382	0.430183	0.000025
 693	6.8854e+01	6.8846	6.703636	0.000213	2.129804	0.360799	0.000021
 694	6.8954e+01	6.8940	6.728484	0.000250	2.498424	0.423244	0.000025
 695	6.9053e+01	6.9060	6.751295	0.000229	2.293635	0.388552	0.000023
 696	6.9153e+01	6.9128	6.774107	0.000229	2.293635	0.388552	0.000023
 697	6.9252e+01	6.9209	6.797325	0.000233	2.334593	0.395491	0.000023
 698	6.9352e+01	6.9314	6.823802	0.000266	2.662255	0.450998	0.000027
 699	6.9451e+01	6.9424	6.850687	0.000270	2.703213	0.457937	0.000027
 700	6.9550e+01	6.9494	6.873091	0.000225	2.252677	0.381614	0.000023
 701	6.9650e+01	6.9621	6.899568	0.000266	2.662255	0.450998	0.000027
 702	6.9749e+01	6.9718	6.927267	0.000279	2.785128	0.471814	0.000028
 703	6.9849e+01	6.9802	6.954559	0.000274	2.744171	0.464875	0.000027
 704	6.9948e+01	6.9900	6.978593	0.000242	2.416508	0.409368	0.000024
 705	7.0048e+01	6.9995	7.001404	0.000229	2.293635	0.388552	0.000023
 706	7.0147e+01	7.0094	7.028696	0.000274	2.744171	0.464875	0.000027
 707	7.0247e+01	7.0199	7.053544	0.000250	2.498424	0.423244	0.000025
 708	7.0347e+01	7.0303	7.082872	0.000295	2.948959	0.499567	0.000029
 709	7.0446e+01	7.0354	7.108535	0.000258	2.580339	0.437121	0.000026
 710	7.0546e+01	7.0489	7.131753	0.000233	2.334593	0.395491	0.000023
 711	7.0645e+01	7.0599	7.159045	0.000274	2.744171	0.464875	0.000027
 712	7.0745e+01	7.0692	7.186745	0.000279	2.785128	0.471814	0.000028
 713	7.0844e+01	7.0801	7.212000	0.000254	2.539382	0.430183	0.000025
 714	7.0944e+01	7.0899	7.240107	0.000283	2.826086	0.478752	0.000028
 715	7.1043e+01	7.0998	7.264954	0.000250	2.498424	0.423244	0.000025
 716	7.1142e+01	7.1085	7.288173	0.000233	2.334593	0.395491	0.000023
 717	7.1242e+01	7.1212	7.315872	0.000279	2.785128	0.471814	0.000028
 718	7.1341e+01	7.1325	7.342757	0.000270	2.703213	0.457937	0.000027
 719	7.1441e+01	7.1380	7.368012	0.000254	2.539382	0.430183	0.000025
 720	7.1540e+01	7.1478	7.396119	0.000283	2.826086	0.478752	0.000028
 721	7.1640e+01	7.1608	7.418115	0.000221	2.211720	0.374675	0.000022
 722	7.1740e+01	7.1681	7.445407	0.000274	2.744171	0.464875	0.000027
 723	7.1839e+01	7.1826	7.470662	0.000254	2.539382	0.430183	0.000025
 724	7.1939e+01	7.1909	7.499991	0.000295	2.948959	0.499567	0.000029
 725	7.2038e+01	7.1996	7.523210	0.000233	2.334593	0.395491	0.000023
 726	7.2138e+01	7.2088	7.553353	0.000303	3.030875	0.513444	0.000030
 727	7.2237e+01	7.2209	7.582274	0.000291	2.908002	0.492629	0.000029
 728	7.2337e+01	7.2290	7.605900	0.000238	2.375551	0.402429	0.000024
 729	7.2436e+01	7.2413	7.631155	0.000254	2.539382	0.430183	0.000025
 730	7.2535e+01	7.2478	7.660891	0.000299	2.989917	0.506506	0.000030
 731	7.2635e+01	7.2583	7.691035	0.000303	3.030875	0.513444	0.000030
 732	7.2734e+01	7.2707	7.719141	0.000283	2.826086	0.478752	0.000028
 733	7.2834e+01	7.2790	7.749285	0.000303	3.030875	0.513444	0.000030
 734	7.2933e+01	7.2863	7.776577	0.000274	2.744171	0.464875	0.000027
 735	7.3033e+01	7.2968	7.805091	0.000287	2.867044	0.485690	0.000029
 736	7.3132e+01	7.3113	7.833197	0.000283	2.826086	0.478752	0.000028
 737	7.3232e+01	7.3220	7.865377	0.000324	3.235664	0.548136	0.000032
 738	7.3332e+01	7.3282	7.888596	0.000233	2.334593	0.395491	0.000023
 739	7.3431e+01	7.3378	7.915480	0.000270	2.703213	0.457937	0.000027
 740	7.3531e+01	7.3469	7.946031	0.000307	3.071833	0.520383	0.000031
 741	7.3630e+01	7.3621	7.974952	0.000291	2.908002	0.492629	0.000029
 742	7.3730e+01	7.3682	8.005096	0.000303	3.030875	0.513444	0.000030
 743	7.3829e+01	7.3790	8.031166	0.000262	2.621297	0.444060	0.000026
 744	7.3928e+01	7.3877	8.058865	0.000279	2.785128	0.471814	0.000028
 745	7.4028e+01	7.3990	8.086564	0.000279	2.785128	0.471814	0.000028
 746	7.4127e+01	7.4093	8.114671	0.000283	2.826086	0.478752	0.000028
 747	7.4227e+01	7.4187	8.144000	0.000295	2.948959	0.499567	0.000029
 748	7.4326e+01	7.4310	8.171699	0.000279	2.785128	0.471814	0.000028
 749	7.4426e+01	7.4396	8.194917	0.000233	2.334593	0.395491	0.000023
 750	7.4525e+01	7.4493	8.223431	0.000287	2.867044	0.485690	0.000029
 751	7.4625e+01	7.4589	8.251945	0.000287	2.867044	0.485690	0.000029
 752	7.4725e+01	7.4690	8.276386	0.000246	2.457466	0.416306	0.000025
 753	7.4824e+01	7.4782	8.301641	0.000254	2.539382	0.430183	0.000025
 754	7.4924e+01	7.4878	8.326082	0.000246	2.457466	0.416306	0.000025
 755	7.5023e+01	7.4988	8.351337	0.000254	2.539382	0.430183	0.000025
 756	7.5123e+01	7.5098	8.376185	0.000250	2.498424	0.423244	0.000025
 757	7.5222e+01	7.5195	8.404292	0.000283	2.826086	0.478752	0.000028
 758	7.5322e+01	7.5260	8.430361	0.000262	2.621297	0.444060	0.000026
 759	7.5421e+01	7.5391	8.457246	0.000270	2.703213	0.457937	0.000027
 760	7.5520e+01	7.5459	8.481279	0.000242	2.416508	0.409368	0.000024
 761	7.5620e+01	7.5612	8.508571	0.000274	2.744171	0.464875	0.000027
 762	7.5719e+01	7.5677	8.537900	0.000295	2.948959	0.499567	0.000029
 763	7.5819e+01	7.5785	8.568451	0.000307	3.071833	0.520383	0.000031
 764	7.5918e+01	7.5875	8.586374	0.000180	1.802142	0.305291	0.000018
 765	7.6018e+01	7.5977	8.618146	0.000319	3.194706	0.541198	0.000032
 766	7.6118e+01	7.6077	8.642587	0.000246	2.457466	0.416306	0.000025
 767	7.6217e+01	7.6160	8.671508	0.000291	2.908002	0.492629	0.000029
 768	7.6317e+01	7.6270	8.695134	0.000238	2.375551	0.402429	0.000024
 769	7.6416e+01	7.6383	8.726499	0.000315	3.153748	0.534259	0.000032
 770	7.6516e+01	7.6467	8.750125	0.000238	2.375551	0.402429	0.000024
 771	7.6615e+01	7.6553	8.775381	0.000254	2.539382	0.430183	0.000025
 772	7.6715e+01	7.6676	8.803080	0.000279	2.785128	0.471814	0.000028
 773	7.6814e+01	7.6759	8.832409	0.000295	2.948959	0.499567	0.000029
 774	7.6913e+01	7.6910	8.858478	0.000262	2.621297	0.444060	0.000026
 775	7.7013e+01	7.6978	8.883734	0.000254	2.539382	0.430183	0.000025
 776	7.7112e+01	7.7081	8.911840	0.000283	2.826086	0.478752	0.000028
 777	7.7212e+01	7.7153	8.939540	0.000279	2.785128	0.471814	0.000028
 778	7.7311e+01	7.7273	8.968868	0.000295	2.948959	0.499567	0.000029
 779	7.7411e+01	7.7363	8.989235	0.000205	2.047888	0.346922	0.000020
 780	7.7510e+01	7.7469	9.013676	0.000246	2.457466	0.416306	0.000025
 781	7.7610e+01	7.7553	9.043412	0.000299	2.989917	0.506506	0.000030
 782	7.7710e+01	7.7686	9.066631	0.000233	2.334593	0.395491	0.000023
 783	7.7809e+01	7.7744	9.086998	0.000205	2.047888	0.346922	0.000020
 784	7.7909e+01	7.7878	9.119585	0.000328	3.276622	0.555075	0.000033
 785	7.8008e+01	7.7989	9.141582	0.000221	2.211720	0.374675	0.000022
 786	7.8108e+01	7.8046	9.162356	0.000209	2.088846	0.353860	0.000021
 787	7.8207e+01	7.8164	9.187204	0.000250	2.498424	0.423244	0.000025
 788	7.8306e+01	7.8259	9.208386	0.000213	2.129804	0.360799	0.000021
 789	7.8406e+01	7.8374	9.234048	0.000258	2.580339	0.437121	0.000026
 790	7.8505e+01	7.8470	9.260118	0.000262	2.621297	0.444060	0.000026
 791	7.8605e+01	7.8555	9.283337	0.000233	2.334593	0.395491	0.000023
 792	7.8704e+01	7.8662	9.307777	0.000246	2.457466	0.416306	0.000025
 793	7.8804e+01	7.8765	9.327330	0.000197	1.965973	0.333045	0.000020
 794	7.8903e+01	7.8873	9.354214	0.000270	2.703213	0.457937	0.000027
 795	7.9003e+01	7.8967	9.375396	0.000213	2.129804	0.360799	0.000021
 796	7.9103e+01	7.9057	9.402281	0.000270	2.703213	0.457937	0.000027
 797	7.9202e+01	7.9158	9.420611	0.000184	1.843100	0.312230	0.000018
 798	7.9302e+01	7.9248	9.449125	0.000287	2.867044	0.485690	0.000029
 799	7.9401e+01	7.9346	9.471529	0.000225	2.252677	0.381614	0.000023
 800	7.9501e+01	7.9454	9.493933	0.000225	2.252677	0.381614	0.000023
 801	7.9600e+01	7.9570	9.518781	0.000250	2.498424	0.423244	0.000025
 802	7.9700e+01	7.9671	9.543221	0.000246	2.457466	0.416306	0.000025
 803	7.9799e+01	7.9754	9.563588	0.000205	2.047888	0.346922	0.000020
 804	7.9898e+01	7.9850	9.585585	0.000221	2.211720	0.374675	0.000022
 805	7.9998e+01	7.9945	9.612062	0.000266	2.662255	0.450998	0.000027
 806	8.0097e+01	8.0045	9.635281	0.000233	2.334593	0.395491	0.000023
 807	8.0197e+01	8.0148	9.656463	0.000213	2.129804	0.360799	0.000021
 808	8.0296e+01	8.0278	9.680903	0.000246	2.457466	0.416306	0.000025
 809	8.0396e+01	8.0359	9.702492	0.000217	2.170762	0.367737	0.000022
 810	8.0496e+01	8.0470	9.723267	0.000209	2.088846	0.353860	0.000021
 811	8.0595e+01	8.0545	9.749744	0.000266	2.662255	0.450998	0.000027
 812	8.0695e+01	8.0695	9.772148	0.000225	2.252677	0.381614	0.000023
 813	8.0794e+01	8.0754	9.788034	0.000160	1.597353	0.270599	0.000016
 814	8.0894e+01	8.0824	9.812067	0.000242	2.416508	0.409368	0.000024
 815	8.0993e+01	8.0937	9.827954	0.000160	1.597353	0.270599	0.000016
 816	8.1093e+01	8.1060	9.848321	0.000205	2.047888	0.346922	0.000020
 817	8.1192e+01	8.1175	9.869910	0.000217	2.170762	0.367737	0.000022
 818	8.1291e+01	8.1255	9.890684	0.000209	2.088846	0.353860	0.000021
 819	8.1391e+01	8.1351	9.912274	0.000217	2.170762	0.367737	0.000022
 820	8.1490e+01	8.1428	9.932641	0.000205	2.047888	0.346922	0.000020
 821	8.1590e+01	8.1523	9.955452	0.000229	2.293635	0.388552	0.000023
 822	8.1689e+01	8.1620	9.977448	0.000221	2.211720	0.374675	0.000022
 823	8.1789e+01	8.1721	9.995779	0.000184	1.843100	0.312230	0.000018
 824	8.1888e+01	8.1845	10.019405	0.000238	2.375551	0.402429	0.000024
 825	8.1988e+01	8.1920	10.038550	0.000193	1.925015	0.326106	0.000019
 826	8.2088e+01	8.2052	10.059732	0.000213	2.129804	0.360799	0.000021
 827	8.2187e+01	8.2163	10.082543	0.000229	2.293635	0.388552	0.000023
 828	8.2287e+01	8.2236	10.099244	0.000168	1.679269	0.284476	0.000017
 829	8.2386e+01	8.2366	10.122462	0.000233	2.334593	0.395491	0.000023
 830	8.2486e+01	8.2450	10.137534	0.000152	1.515437	0.256722	0.000015
 831	8.2585e+01	8.2535	10.160753	0.000233	2.334593	0.395491	0.000023
 832	8.2684e+01	8.2627	10.184378	0.000238	2.375551	0.402429	0.000024
 833	8.2784e+01	8.2721	10.205968	0.000217	2.170762	0.367737	0.000022
 834	8.2883e+01	8.2848	10.229593	0.000238	2.375551	0.402429	0.000024
 835	8.2983e+01	8.2959	10.250775	0.000213	2.129804	0.360799	0.000021
 836	8.3082e+01	8.3038	10.275216	0.000246	2.457466	0.416306	0.000025
 837	8.3182e+01	8.3141	10.301693	0.000266	2.662255	0.450998	0.000027
 838	8.3281e+01	8.3258	10.322060	0.000205	2.047888	0.346922	0.000020
 839	8.3381e+01	8.3325	10.346908	0.000250	2.498424	0.423244	0.000025
 840	8.3481e+01	8.3447	10.372571	0.000258	2.580339	0.437121	0.000026
 841	8.3580e+01	8.3548	10.392938	0.000205	2.047888	0.346922	0.000020
 842	8.3680e+01	8.3637	10.417786	0.000250	2.498424	0.423244	0.000025
 843	8.3779e+01	8.3759	10.438968	0.000213	2.129804	0.360799	0.000021
 844	8.3879e+01	8.3841	10.461779	0.000229	2.293635	0.388552	0.000023
 845	8.3978e+01	8.3930	10.482146	0.000205	2.047888	0.346922	0.000020
 846	8.4078e+01	8.4039	10.502106	0.000201	2.006931	0.339983	0.000020
 847	8.4177e+01	8.4132	10.524102	0.000221	2.211720	0.374675	0.000022
 848	8.4276e+01	8.4241	10.549357	0.000254	2.539382	0.430183	0.000025
 849	8.4376e+01	8.4317	10.566873	0.000176	1.761184	0.298353	0.000018
 850	8.4475e+01	8.4443	10.589277	0.000225	2.252677	0.381614	0.000023
 851	8.4575e+01	8.4534	10.609644	0.000205	2.047888	0.346922	0.000020
 852	8.4674e+01	8.4623	10.630419	0.000209	2.088846	0.353860	0.000021
 853	8.4774e+01	8.4717	10.652008	0.000217	2.170762	0.367737	0.000022
 854	8.4874e+01	8.4827	10.673597	0.000217	2.170762	0.367737	0.000022
 855	8.4973e+01	8.4931	10.698852	0.000254	2.539382	0.430183	0.000025
 856	8.5073e+01	8.5020	10.719627	0.000209	2.088846	0.353860	0.000021
 857	8.5172e+01	8.5141	10.741216	0.000217	2.170762	0.367737	0.000022
 858	8.5272e+01	8.5248	10.761176	0.000201	2.006931	0.339983	0.000020
 859	8.5371e+01	8.5318	10.779913	0.000188	1.884057	0.319168	0.000019
 860	8.5471e+01	8.5406	10.805169	0.000254	2.539382	0.430183	0.000025
 861	8.5570e+01	8.5525	10.825943	0.000209	2.088846	0.353860	0.000021
 862	8.5669e+01	8.5654	10.848347	0.000225	2.252677	0.381614	0.000023
 863	8.5769e+01	8.5712	10.871158	0.000229	2.293635	0.388552	0.000023
 864	8.5868e+01	8.5829	10.892340	0.000213	2.129804	0.360799	0.000021
 865	8.5968e+01	8.5938	10.916373	0.000242	2.416508	0.409368	0.000024
 866	8.6067e+01	8.6030	10.942036	0.000258	2.580339	0.437121	0.000026
 867	8.6167e+01	8.6133	10.966069	0.000242	2.416508	0.409368	0.000024
 868	8.6266e+01	8.6216	10.992139	0.000262	2.621297	0.444060	0.000026
 869	8.6366e+01	8.6343	11.012099	0.000201	2.006931	0.339983	0.000020
 870	8.6466e+01	8.6380	11.042242	0.000303	3.030875	0.513444	0.000030
 871	8.6565e+01	8.6504	11.060980	0.000188	1.884057	0.319168	0.000019
 872	8.6665e+01	8.6618	11.088679	0.000279	2.785128	0.471814	0.000028
 873	8.6764e+01	8.6729	11.113527	0.000250	2.498424	0.423244	0.000025
 874	8.6864e+01	8.6795	11.139189	0.000258	2.580339	0.437121	0.000026
 875	8.6963e+01	8.6918	11.165259	0.000262	2.621297	0.444060	0.000026
 876	8.7063e+01	8.7014	11.186848	0.000217	2.170762	0.367737	0.000022
 877	8.7162e+01	8.7134	11.211289	0.000246	2.457466	0.416306	0.000025
 878	8.7261e+01	8.7224	11.236137	0.000250	2.498424	0.423244	0.000025
 879	8.7361e+01	8.7321	11.261800	0.000258	2.580339	0.437121	0.000026
 880	8.7460e+01	8.7421	11.283796	0.000221	2.211720	0.374675	0.000022
 881	8.7560e+01	8.7524	11.310273	0.000266	2.662255	0.450998	0.000027
 882	8.7659e+01	8.7601	11.337973	0.000279	2.785128	0.471814	0.000028
 883	8.7759e+01	8.7738	11.360784	0.000229	2.293635	0.388552	0.000023
 884	8.7859e+01	8.7810	11.383595	0.000229	2.293635	0.388552	0.000023
 885	8.7958e+01	8.7901	11.410887	0.000274	2.744171	0.464875	0.000027
 886	8.8058e+01	8.8021	11.434920	0.000242	2.416508	0.409368	0.000024
 887	8.8157e+01	8.8117	11.463841	0.000291	2.908002	0.492629	0.000029
 888	8.8257e+01	8.8221	11.485431	0.000217	2.170762	0.367737	0.000022
 889	8.8356e+01	8.8299	11.509056	0.000238	2.375551	0.402429	0.000024
 890	8.8456e+01	8.8406	11.533497	0.000246	2.457466	0.416306	0.000025
 891	8.8555e+01	8.8502	11.557938	0.000246	2.457466	0.416306	0.000025
 892	8.8654e+01	8.8660	11.582378	0.000246	2.457466	0.416306	0.000025
 893	8.8754e+01	8.8702	11.610077	0.000279	2.785128	0.471814	0.000028
 894	8.8853e+01	8.8794	11.636147	0.000262	2.621297	0.444060	0.000026
 895	8.8953e+01	8.8916	11.661810	0.000258	2.580339	0.437121	0.000026
 896	8.9052e+01	8.8985	11.686250	0.000246	2.457466	0.416306	0.000025
 897	8.9152e+01	8.9096	11.713542	0.000274	2.744171	0.464875	0.000027
 898	8.9251e+01	8.9212	11.740834	0.000274	2.744171	0.464875	0.000027
 899	8.9351e+01	8.9322	11.770570	0.000299	2.989917	0.506506	0.000030
 900	8.9451e+01	8.9419	11.798270	0.000279	2.785128	0.471814	0.000028
 901	8.9550e+01	8.9502	11.827191	0.000291	2.908002	0.492629	0.000029
 902	8.9650e+01	8.9590	11.853261	0.000262	2.621297	0.444060	0.000026
 903	8.9749e+01	8.9687	11.882590	0.000295	2.948959	0.499567	0.000029
 904	8.9849e+01	8.9803	11.906215	0.000238	2.375551	0.402429	0.000024
 905	8.9948e+01	8.9893	11.935137	0.000291	2.908002	0.492629	0.000029
 906	9.0047e+01	8.9993	11.963243	0.000283	2.826086	0.478752	0.000028
 907	9.0147e+01	9.0094	11.991757	0.000287	2.867044	0.485690	0.000029
 908	9.0246e+01	9.0210	12.015383	0.000238	2.375551	0.402429	0.000024
 909	9.0346e+01	9.0286	12.047156	0.000319	3.194706	0.541198	0.000032
 910	9.0445e+01	9.0382	12.071189	0.000242	2.416508	0.409368	0.000024
 911	9.0545e+01	9.0479	12.099296	0.000283	2.826086	0.478752	0.000028
 912	9.0644e+01	9.0590	12.124958	0.000258	2.580339	0.437121	0.000026
 913	9.0744e+01	9.0696	12.153880	0.000291	2.908002	0.492629	0.000029
 914	9.0844e+01	9.0783	12.179542	0.000258	2.580339	0.437121	0.000026
 915	9.0943e+01	9.0897	12.209278	0.000299	2.989917	0.506506	0.000030
 916	9.1043e+01	9.0991	12.234941	0.000258	2.580339	0.437121	0.000026
 917	9.1142e+01	9.1113	12.258159	0.000233	2.334593	0.395491	0.000023
 918	9.1242e+01	9.1165	12.284229	0.000262	2.621297	0.444060	0.000026
 919	9.1341e+01	9.1284	12.309485	0.000254	2.539382	0.430183	0.000025
 920	9.1441e+01	9.1383	12.337999	0.000287	2.867044	0.485690	0.000029
 921	9.1540e+01	9.1511	12.357144	0.000193	1.925015	0.326106	0.000019
 922	9.1639e+01	9.1578	12.381177	0.000242	2.416508	0.409368	0.000024
 923	9.1739e+01	9.1700	12.405617	0.000246	2.457466	0.416306	0.000025
 924	9.1838e+01	9.1761	12.432909	0.000274	2.744171	0.464875	0.000027
 925	9.1938e+01	9.1881	12.455721	0.000229	2.293635	0.388552	0.000023
 926	9.2037e+01	9.1980	12.485049	0.000295	2.948959	0.499567	0.000029
 927	9.2137e+01	9.2085	12.509082	0.000242	2.416508	0.409368	0.000024
 928	9.2237e+01	9.2188	12.536374	0.000274	2.744171	0.464875	0.000027
 929	9.2336e+01	9.2274	12.557964	0.000217	2.170762	0.367737	0.000022
 930	9.2436e+01	9.2384	12.587700	0.000299	2.989917	0.506506	0.000030
 931	9.2535e+01	9.2482	12.610511	0.000229	2.293635	0.388552	0.000023
 932	9.2635e+01	9.2603	12.639839	0.000295	2.948959	0.499567	0.000029
 933	9.2734e+01	9.2698	12.671205	0.000315	3.153748	0.534259	0.000032
 934	9.2834e+01	9.2792	12.696867	0.000258	2.580339	0.437121	0.000026
 935	9.2933e+01	9.2871	12.721308	0.000246	2.457466	0.416306	0.000025
 936	9.3032e+01	9.2998	12.746156	0.000250	2.498424	0.423244	0.000025
 937	9.3132e+01	9.3091	12.771818	0.000258	2.580339	0.437121	0.000026
 938	9.3231e+01	9.3192	12.795852	0.000242	2.416508	0.409368	0.000024
 939	9.3331e+01	9.3266	12.823958	0.000283	2.826086	0.478752	0.000028
 940	9.3430e+01	9.3391	12.851250	0.000274	2.744171	0.464875	0.000027
 941	9.3530e+01	9.3469	12.876505	0.000254	2.539382	0.430183	0.000025
 942	9.3629e+01	9.3568	12.905019	0.000287	2.867044	0.485690	0.000029
 943	9.3729e+01	9.3659	12.930682	0.000258	2.580339	0.437121	0.000026
 944	9.3829e+01	9.3783	12.957159	0.000266	2.662255	0.450998	0.000027
 945	9.3928e+01	9.3872	12.984859	0.000279	2.785128	0.471814	0.000028
 946	9.4028e+01	9.3994	13.010114	0.000254	2.539382	0.430183	0.000025
 947	9.4127e+01	9.4080	13.032518	0.000225	2.252677	0.381614	0.000023
 948	9.4227e+01	9.4189	13.058995	0.000266	2.662255	0.450998	0.000027
 949	9.4326e+01	9.4267	13.082213	0.000233	2.334593	0.395491	0.000023
 950	9.4425e+01	9.4353	13.107876	0.000258	2.580339	0.437121	0.000026
 951	9.4525e+01	9.4495	13.131502	0.000238	2.375551	0.402429	0.000024
 952	9.4624e+01	9.4580	13.154313	0.000229	2.293635	0.388552	0.000023
 953	9.4724e+01	9.4684	13.177124	0.000229	2.293635	0.388552	0.000023
 954	9.4823e+01	9.4758	13.203601	0.000266	2.662255	0.450998	0.000027
 955	9.4923e+01	9.4876	13.225191	0.000217	2.170762	0.367737	0.000022
 956	9.5022e+01	9.4974	13.245150	0.000201	2.006931	0.339983	0.000020
 957	9.5122e+01	9.5051	13.274886	0.000299	2.989917	0.506506	0.000030
 958	9.5222e+01	9.5169	13.292402	0.000176	1.761184	0.298353	0.000018
 959	9.5321e+01	9.5267	13.318065	0.000258	2.580339	0.437121	0.000026
 960	9.5421e+01	9.5377	13.340469	0.000225	2.252677	0.381614	0.000023
 961	9.5520e+01	9.5469	13.363280	0.000229	2.293635	0.388552	0.000023
 962	9.5620e+01	9.5573	13.387720	0.000246	2.457466	0.416306	0.000025
 963	9.5719e+01	9.5681	13.411346	0.000238	2.375551	0.402429	0.000024
 964	9.5819e+01	9.5771	13.433343	0.000221	2.211720	0.374675	0.000022
 965	9.5918e+01	9.5868	13.458598	0.000254	2.539382	0.430183	0.000025
 966	9.6017e+01	9.5963	13.480594	0.000221	2.211720	0.374675	0.000022
 967	9.6117e+01	9.6082	13.502998	0.000225	2.252677	0.381614	0.000023
 968	9.6216e+01	9.6167	13.527031	0.000242	2.416508	0.409368	0.000024
 969	9.6316e+01	9.6258	13.551065	0.000242	2.416508	0.409368	0.000024
 970	9.6415e+01	9.6358	13.575098	0.000242	2.416508	0.409368	0.000024
 971	9.6515e+01	9.6461	13.596687	0.000217	2.170762	0.367737	0.000022
 972	9.6615e+01	9.6549	13.619091	0.000225	2.252677	0.381614	0.000023
 973	9.6714e+01	9.6651	13.642309	0.000233	2.334593	0.395491	0.000023
 974	9.6814e+01	9.6744	13.665121	0.000229	2.293635	0.388552	0.000023
 975	9.6913e+01	9.6866	13.686302	0.000213	2.129804	0.360799	0.000021
 976	9.7013e+01	9.6934	13.711150	0.000250	2.498424	0.423244	0.000025
 977	9.7112e+01	9.7057	13.731110	0.000201	2.006931	0.339983	0.000020
 978	9.7212e+01	9.7153	13.754736	0.000238	2.375551	0.402429	0.000024
 979	9.7311e+01	9.7253	13.775510	0.000209	2.088846	0.353860	0.000021
 980	9.7410e+01	9.7375	13.797914	0.000225	2.252677	0.381614	0.000023
 981	9.7510e+01	9.7478	13.820318	0.000225	2.252677	0.381614	0.000023
 982	9.7609e+01	9.7526	13.841907	0.000217	2.170762	0.367737	0.000022
 983	9.7709e+01	9.7675	13.860238	0.000184	1.843100	0.312230	0.000018
 984	9.7808e+01	9.7754	13.883456	0.000233	2.334593	0.395491	0.000023
 985	9.7908e+01	9.7871	13.901787	0.000184	1.843100	0.312230	0.000018
 986	9.8007e+01	9.7957	13.920932	0.000193	1.925015	0.326106	0.000019
 987	9.8107e+01	9.8059	13.943336	0.000225	2.252677	0.381614	0.000023
 988	9.8207e+01	9.8151	13.966147	0.000229	2.293635	0.388552	0.000023
 989	9.8306e+01	9.8243	13.987329	0.000213	2.129804	0.360799	0.000021
 990	9.8406e+01	9.8364	14.008510	0.000213	2.129804	0.360799	0.000021
 991	9.8505e+01	9.8446	14.030100	0.000217	2.170762	0.367737	0.000022
 992	9.8605e+01	9.8548	14.049245	0.000193	1.925015	0.326106	0.000019
 993	9.8704e+01	9.8657	14.065538	0.000164	1.638311	0.277537	0.000016
 994	9.8803e+01	9.8767	14.089572	0.000242	2.416508	0.409368	0.000024
 995	9.8903e+01	9.8844	14.111568	0.000221	2.211720	0.374675	0.000022
 996	9.9002e+01	9.8951	14.133157	0.000217	2.170762	0.367737	0.000022
 997	9.9102e+01	9.9049	14.153932	0.000209	2.088846	0.353860	0.000021
 998	9.9201e+01	9.9146	14.177150	0.000233	2.334593	0.395491	0.000023
 999	9.9301e+01	9.9255	14.197517	0.000205	2.047888	0.346922	0.000020
1000	9.9400e+01	9.9341	14.219921	0.000225	2.252677	0.381614	0.000023
1001	9.9500e+01	9.9442	14.243954	0.000242	2.416508	0.409368	0.000024
1002	9.9600e+01	9.9519	14.263507	0.000197	1.965973	0.333045	0.000020
1003	9.9699e+01	9.9634	14.288355	0.000250	2.498424	0.423244	0.000025
1004	9.9799e+01	9.9744	14.312795	0.000246	2.457466	0.416306	0.000025
1005	9.9898e+01	9.9831	14.337643	0.000250	2.498424	0.423244	0.000025
1006	9.9998e+01	9.9930	14.362491	0.000250	2.498424	0.423244	0.000025
1007	1.0010e+02	9.9833	14.345383	0.000172	1.720226	0.291414	-0.000017
1008	1.0020e+02	9.9757	14.328682	0.000168	1.679269	0.284476	-0.000017
1009	1.0030e+02	9.9658	14.309944	0.000188	1.884057	0.319168	-0.000019
1010	1.0040e+02	9.9543	14.293650	0.000164	1.638311	0.277537	-0.000016
1011	1.0050e+02	9.9429	14.272061	0.000217	2.170762	0.367737	-0.000022
1012	1.0059e+02	9.9332	14.255360	0.000168	1.679269	0.284476	-0.000017
1013	1.0069e+02	9.9231	14.235400	0.000201	2.006931	0.339983	-0.000020
1014	1.0079e+02	9.9136	14.220736	0.000147	1.474480	0.249784	-0.000015
1015	1.0089e+02	9.9033	14.200369	0.000205	2.047888	0.346922	-0.000020
1016	1.0099e+02	9.8935	14.180002	0.000205	2.047888	0.346922	-0.000020
1017	1.0109e+02	9.8828	14.159227	0.000209	2.088846	0.353860	-0.000021
1018	1.0119e+02	9.8743	14.139675	0.000197	1.965973	0.333045	-0.000020
1019	1.0129e+02	9.8639	14.123788	0.000160	1.597353	0.270599	-0.000016
1020	1.0139e+02	9.8563	14.102606	0.000213	2.129804	0.360799	-0.000021
1021	1.0149e+02	9.8456	14.081832	0.000209	2.088846	0.353860	-0.000021
1022	1.0159e+02	9.8341	14.062687	0.000193	1.925015	0.326106	-0.000019
1023	1.0169e+02	9.8249	14.045986	0.000168	1.679269	0.284476	-0.000017
1024	1.0179e+02	9.8151	14.025619	0.000205	2.047888	0.346922	-0.000020
1025	1.0189e+02	9.8056	14.004437	0.000213	2.129804	0.360799	-0.000021
1026	1.0199e+02	9.7955	13.981626	0.000229	2.293635	0.388552	-0.000023
1027	1.0209e+02	9.7852	13.962073	0.000197	1.965973	0.333045	-0.000020
1028	1.0219e+02	9.7773	13.942114	0.000201	2.006931	0.339983	-0.000020
1029	1.0229e+02	9.7641	13.922968	0.000193	1.925015	0.326106	-0.000019
1030	1.0239e+02	9.7559	13.903009	0.000201	2.006931	0.339983	-0.000020
1031	1.0248e+02	9.7474	13.886308	0.000168	1.679269	0.284476	-0.000017
1032	1.0258e+02	9.7379	13.865940	0.000205	2.047888	0.346922	-0.000020
1033	1.0268e+02	9.7268	13.849647	0.000164	1.638311	0.277537	-0.000016
1034	1.0278e+02	9.7192	13.831724	0.000180	1.802142	0.305291	-0.000018
1035	1.0288e+02	9.7070	13.815023	0.000168	1.679269	0.284476	-0.000017
1036	1.0298e+02	9.6960	13.797914	0.000172	1.720226	0.291414	-0.000017
1037	1.0308e+02	9.6875	13.780399	0.000176	1.761184	0.298353	-0.000018
1038	1.0318e+02	9.6742	13.761253	0.000193	1.925015	0.326106	-0.000019
1039	1.0328e+02	9.6643	13.741701	0.000197	1.965973	0.333045	-0.000020
1040	1.0338e+02	9.6564	13.724185	0.000176	1.761184	0.298353	-0.000018
1041	1.0348e+02	9.6461	13.708299	0.000160	1.597353	0.270599	-0.000016
1042	1.0358e+02	9.6363	13.692005	0.000164	1.638311	0.277537	-0.000016
1043	1.0368e+02	9.6265	13.672453	0.000197	1.965973	0.333045	-0.000020
1044	1.0378e+02	9.6143	13.656159	0.000164	1.638311	0.277537	-0.000016
1045	1.0388e+02	9.6069	13.637421	0.000188	1.884057	0.319168	-0.000019
1046	1.0398e+02	9.5972	13.621128	0.000164	1.638311	0.277537	-0.000016
1047	1.0408e+02	9.5874	13.601575	0.000197	1.965973	0.333045	-0.000020
1048	1.0418e+02	9.5766	13.585689	0.000160	1.597353	0.270599	-0.000016
1049	1.0428e+02	9.5656	13.571024	0.000147	1.474480	0.249784	-0.000015
1050	1.0438e+02	9.5547	13.552694	0.000184	1.843100	0.312230	-0.000018
1051	1.0447e+02	9.5460	13.533549	0.000193	1.925015	0.326106	-0.000019
1052	1.0457e+02	9.5365	13.517663	0.000160	1.597353	0.270599	-0.000016
1053	1.0467e+02	9.5255	13.498925	0.000188	1.884057	0.319168	-0.000019
1054	1.0477e+02	9.5175	13.479372	0.000197	1.965973	0.333045	-0.000020
1055	1.0487e+02	9.5078	13.461042	0.000184	1.843100	0.312230	-0.000018
1056	1.0497e+02	9.4971	13.443934	0.000172	1.720226	0.291414	-0.000017
1057	1.0507e+02	9.4862	13.427640	0.000164	1.638311	0.277537	-0.000016
1058	1.0517e+02	9.4796	13.408087	0.000197	1.965973	0.333045	-0.000020
1059	1.0527e+02	9.4684	13.388942	0.000193	1.925015	0.326106	-0.000019
1060	1.0537e+02	9.4558	13.372649	0.000164	1.638311	0.277537	-0.000016
1061	1.0547e+02	9.4463	13.353911	0.000188	1.884057	0.319168	-0.000019
1062	1.0557e+02	9.4348	13.336395	0.000176	1.761184	0.298353	-0.000018
1063	1.0567e+02	9.4233	13.320101	0.000164	1.638311	0.277537	-0.000016
1064	1.0577e+02	9.4144	13.307881	0.000123	1.228733	0.208153	-0.000012
1065	1.0587e+02	9.4067	13.289958	0.000180	1.802142	0.305291	-0.000018
1066	1.0597e+02	9.3988	13.276516	0.000135	1.351606	0.228968	-0.000014
1067	1.0607e+02	9.3862	13.261444	0.000152	1.515437	0.256722	-0.000015
1068	1.0617e+02	9.3787	13.246372	0.000152	1.515437	0.256722	-0.000015
1069	1.0627e+02	9.3669	13.228449	0.000180	1.802142	0.305291	-0.000018
1070	1.0637e+02	9.3591	13.213785	0.000147	1.474480	0.249784	-0.000015
1071	1.0647e+02	9.3470	13.193825	0.000201	2.006931	0.339983	-0.000020
1072	1.0656e+02	9.3387	13.178754	0.000152	1.515437	0.256722	-0.000015
1073	1.0666e+02	9.3268	13.165719	0.000131	1.310649	0.222030	-0.000013
1074	1.0676e+02	9.3199	13.148203	0.000176	1.761184	0.298353	-0.000018
1075	1.0686e+02	9.3050	13.134761	0.000135	1.351606	0.228968	-0.000014
1076	1.0696e+02	9.2969	13.120911	0.000139	1.392564	0.235907	-0.000014
1077	1.0706e+02	9.2914	13.100544	0.000205	2.047888	0.346922	-0.000020
1078	1.0716e+02	9.2779	13.087916	0.000127	1.269691	0.215091	-0.000013
1079	1.0726e+02	9.2707	13.068364	0.000197	1.965973	0.333045	-0.000020
1080	1.0736e+02	9.2566	13.053699	0.000147	1.474480	0.249784	-0.000015
1081	1.0746e+02	9.2481	13.040664	0.000131	1.310649	0.222030	-0.000013
1082	1.0756e+02	9.2389	13.021927	0.000188	1.884057	0.319168	-0.000019
1083	1.0766e+02	9.2295	13.005226	0.000168	1.679269	0.284476	-0.000017
1084	1.0776e+02	9.2175	12.983229	0.000221	2.211720	0.374675	-0.000022
1085	1.0786e+02	9.2074	12.968565	0.000147	1.474480	0.249784	-0.000015
1086	1.0796e+02	9.1992	12.949827	0.000188	1.884057	0.319168	-0.000019
1087	1.0806e+02	9.1895	12.933533	0.000164	1.638311	0.277537	-0.000016
1088	1.0816e+02	9.1813	12.912352	0.000213	2.129804	0.360799	-0.000021
1089	1.0826e+02	9.1690	12.893614	0.000188	1.884057	0.319168	-0.000019
1090	1.0836e+02	9.1592	12.876913	0.000168	1.679269	0.284476	-0.000017
1091	1.0845e+02	9.1478	12.856546	0.000205	2.047888	0.346922	-0.000020
1092	1.0855e+02	9.1390	12.834549	0.000221	2.211720	0.374675	-0.000022
1093	1.0865e+02	9.1281	12.819070	0.000156	1.556395	0.263660	-0.000016
1094	1.0875e+02	9.1173	12.801147	0.000180	1.802142	0.305291	-0.000018
1095	1.0885e+02	9.1089	12.779151	0.000221	2.211720	0.374675	-0.000022
1096	1.0895e+02	9.1022	12.762857	0.000164	1.638311	0.277537	-0.000016
1097	1.0905e+02	9.0869	12.746563	0.000164	1.638311	0.277537	-0.000016
1098	1.0915e+02	9.0784	12.730677	0.000160	1.597353	0.270599	-0.000016
1099	1.0925e+02	9.0698	12.709902	0.000209	2.088846	0.353860	-0.000021
1100	1.0935e+02	9.0603	12.695238	0.000147	1.474480	0.249784	-0.000015
1101	1.0945e+02	9.0527	12.676500	0.000188	1.884057	0.319168	-0.000019
1102	1.0955e+02	9.0393	12.658170	0.000184	1.843100	0.312230	-0.000018
1103	1.0965e+02	9.0285	12.641469	0.000168	1.679269	0.284476	-0.000017
1104	1.0975e+02	9.0189	12.622324	0.000193	1.925015	0.326106	-0.000019
1105	1.0985e+02	9.0089	12.603993	0.000184	1.843100	0.312230	-0.000018
1106	1.0995e+02	8.9980	12.586885	0.000172	1.720226	0.291414	-0.000017
1107	1.1005e+02	8.9911	12.569776	0.000172	1.720226	0.291414	-0.000017
1108	1.1015e+02	8.9795	12.551446	0.000184	1.843100	0.312230	-0.000018
1109	1.1025e+02	8.9707	12.532708	0.000188	1.884057	0.319168	-0.000019
1110	1.1035e+02	8.9594	12.516822	0.000160	1.597353	0.270599	-0.000016
1111	1.1044e+02	8.9502	12.499714	0.000172	1.720226	0.291414	-0.000017
1112	1.1054e+02	8.9398	12.480568	0.000193	1.925015	0.326106	-0.000019
1113	1.1064e+02	8.9282	12.462238	0.000184	1.843100	0.312230	-0.000018
1114	1.1074e+02	8.9198	12.446352	0.000160	1.597353	0.270599	-0.000016
1115	1.1084e+02	8.9099	12.420282	0.000262	2.621297	0.444060	-0.000026
1116	1.1094e+02	8.8992	12.409283	0.000111	1.105860	0.187338	-0.000011
1117	1.1104e+02	8.8919	12.384843	0.000246	2.457466	0.416306	-0.000025
1118	1.1114e+02	8.8819	12.361217	0.000238	2.375551	0.402429	-0.000024
1119	1.1124e+02	8.8708	12.338406	0.000229	2.293635	0.388552	-0.000023
1120	1.1134e+02	8.8623	12.321297	0.000172	1.720226	0.291414	-0.000017
1121	1.1144e+02	8.8505	12.298894	0.000225	2.252677	0.381614	-0.000023
1122	1.1154e+02	8.8391	12.280971	0.000180	1.802142	0.305291	-0.000018
1123	1.1164e+02	8.8287	12.258567	0.000225	2.252677	0.381614	-0.000023
1124	1.1174e+02	8.8216	12.238200	0.000205	2.047888	0.346922	-0.000020
1125	1.1184e+02	8.8110	12.217425	0.000209	2.088846	0.353860	-0.000021
1126	1.1194e+02	8.8027	12.197058	0.000205	2.047888	0.346922	-0.000020
1127	1.1204e+02	8.7924	12.174247	0.000229	2.293635	0.388552	-0.000023
1128	1.1214e+02	8.7798	12.155916	0.000184	1.843100	0.312230	-0.000018
1129	1.1224e+02	8.7708	12.132698	0.000233	2.334593	0.395491	-0.000023
1130	1.1234e+02	8.7615	12.113145	0.000197	1.965973	0.333045	-0.000020
1131	1.1244e+02	8.7500	12.089112	0.000242	2.416508	0.409368	-0.000024
1132	1.1253e+02	8.7402	12.065486	0.000238	2.375551	0.402429	-0.000024
1133	1.1263e+02	8.7319	12.044712	0.000209	2.088846	0.353860	-0.000021
1134	1.1273e+02	8.7194	12.023530	0.000213	2.129804	0.360799	-0.000021
1135	1.1283e+02	8.7109	12.000719	0.000229	2.293635	0.388552	-0.000023
1136	1.1293e+02	8.7000	11.978722	0.000221	2.211720	0.374675	-0.000022
1137	1.1303e+02	8.6928	11.958763	0.000201	2.006931	0.339983	-0.000020
1138	1.1313e+02	8.6835	11.934729	0.000242	2.416508	0.409368	-0.000024
1139	1.1323e+02	8.6707	11.913955	0.000209	2.088846	0.353860	-0.000021
1140	1.1333e+02	8.6604	11.896439	0.000176	1.761184	0.298353	-0.000018
1141	1.1343e+02	8.6511	11.872406	0.000242	2.416508	0.409368	-0.000024
1142	1.1353e+02	8.6423	11.850002	0.000225	2.252677	0.381614	-0.000023
1143	1.1363e+02	8.6320	11.827191	0.000229	2.293635	0.388552	-0.000023
1144	1.1373e+02	8.6207	11.803972	0.000233	2.334593	0.395491	-0.000023
1145	1.1383e+02	8.6129	11.782791	0.000213	2.129804	0.360799	-0.000021
1146	1.1393e+02	8.6060	11.761201	0.000217	2.170762	0.367737	-0.000022
1147	1.1403e+02	8.5916	11.739205	0.000221	2.211720	0.374675	-0.000022
1148	1.1413e+02	8.5822	11.711098	0.000283	2.826086	0.478752	-0.000028
1149	1.1423e+02	8.5722	11.685436	0.000258	2.580339	0.437121	-0.000026
1150	1.1433e+02	8.5632	11.660588	0.000250	2.498424	0.423244	-0.000025
1151	1.1442e+02	8.5519	11.635333	0.000254	2.539382	0.430183	-0.000025
1152	1.1452e+02	8.5416	11.610892	0.000246	2.457466	0.416306	-0.000025
1153	1.1462e+02	8.5342	11.584007	0.000270	2.703213	0.457937	-0.000027
1154	1.1472e+02	8.5211	11.564862	0.000193	1.925015	0.326106	-0.000019
1155	1.1482e+02	8.5147	11.540014	0.000250	2.498424	0.423244	-0.000025
1156	1.1492e+02	8.5023	11.514759	0.000254	2.539382	0.430183	-0.000025
1157	1.1502e+02	8.4946	11.488282	0.000266	2.662255	0.450998	-0.000027
1158	1.1512e+02	8.4830	11.469952	0.000184	1.843100	0.312230	-0.000018
1159	1.1522e+02	8.4732	11.441845	0.000283	2.826086	0.478752	-0.000028
1160	1.1532e+02	8.4638	11.414960	0.000270	2.703213	0.457937	-0.000027
1161	1.1542e+02	8.4540	11.390927	0.000242	2.416508	0.409368	-0.000024
1162	1.1552e+02	8.4427	11.367301	0.000238	2.375551	0.402429	-0.000024
1163	1.1562e+02	8.4332	11.339602	0.000279	2.785128	0.471814	-0.000028
1164	1.1572e+02	8.4217	11.317198	0.000225	2.252677	0.381614	-0.000023
1165	1.1582e+02	8.4122	11.290721	0.000266	2.662255	0.450998	-0.000027
1166	1.1592e+02	8.4064	11.266280	0.000246	2.457466	0.416306	-0.000025
1167	1.1602e+02	8.3955	11.243876	0.000225	2.252677	0.381614	-0.000023
1168	1.1612e+02	8.3863	11.225953	0.000180	1.802142	0.305291	-0.000018
1169	1.1622e+02	8.3740	11.197847	0.000283	2.826086	0.478752	-0.000028
1170	1.1632e+02	8.3646	11.177887	0.000201	2.006931	0.339983	-0.000020
1171	1.1642e+02	8.3520	11.152632	0.000254	2.539382	0.430183	-0.000025
1172	1.1651e+02	8.3432	11.132672	0.000201	2.006931	0.339983	-0.000020
1173	1.1661e+02	8.3332	11.108231	0.000246	2.457466	0.416306	-0.000025
1174	1.1671e+02	8.3228	11.088272	0.000201	2.006931	0.339983	-0.000020
1175	1.1681e+02	8.3125	11.066275	0.000221	2.211720	0.374675	-0.000022
1176	1.1691e+02	8.3034	11.039798	0.000266	2.662255	0.450998	-0.000027
1177	1.1701e+02	8.2935	11.018616	0.000213	2.129804	0.360799	-0.000021
1178	1.1711e+02	8.2874	10.998656	0.000201	2.006931	0.339983	-0.000020
1179	1.1721e+02	8.2739	10.972586	0.000262	2.621297	0.444060	-0.000026
1180	1.1731e+02	8.2632	10.950590	0.000221	2.211720	0.374675	-0.000022
1181	1.1741e+02	8.2533	10.928186	0.000225	2.252677	0.381614	-0.000023
1182	1.1751e+02	8.2413	10.901301	0.000270	2.703213	0.457937	-0.000027
1183	1.1761e+02	8.2365	10.874009	0.000274	2.744171	0.464875	-0.000027
1184	1.1771e+02	8.2230	10.851198	0.000229	2.293635	0.388552	-0.000023
1185	1.1781e+02	8.2151	10.826350	0.000250	2.498424	0.423244	-0.000025
1186	1.1791e+02	8.2040	10.805576	0.000209	2.088846	0.353860	-0.000021
1187	1.1801e+02	8.1941	10.781543	0.000242	2.416508	0.409368	-0.000024
1188	1.1811e+02	8.1837	10.757102	0.000246	2.457466	0.416306	-0.000025
1189	1.1821e+02	8.1743	10.733884	0.000233	2.334593	0.395491	-0.000023
1190	1.1831e+02	8.1659	10.711072	0.000229	2.293635	0.388552	-0.000023
1191	1.1841e+02	8.1567	10.687447	0.000238	2.375551	0.402429	-0.000024
1192	1.1850e+02	8.1435	10.662191	0.000254	2.539382	0.430183	-0.000025
1193	1.1860e+02	8.1340	10.638158	0.000242	2.416508	0.409368	-0.000024
1194	1.1870e+02	8.1268	10.612495	0.000258	2.580339	0.437121	-0.000026
1195	1.1880e+02	8.1152	10.590499	0.000221	2.211720	0.374675	-0.000022
1196	1.1890e+02	8.1057	10.565651	0.000250	2.498424	0.423244	-0.000025
1197	1.1900e+02	8.0958	10.539989	0.000258	2.580339	0.437121	-0.000026
1198	1.1910e+02	8.0845	10.519621	0.000205	2.047888	0.346922	-0.000020
1199	1.1920e+02	8.0746	10.496810	0.000229	2.293635	0.388552	-0.000023
1200	1.1930e+02	8.0634	10.471962	0.000250	2.498424	0.423244	-0.000025
1201	1.1940e+02	8.0558	10.452817	0.000193	1.925015	0.326106	-0.000019
1202	1.1950e+02	8.0470	10.429191	0.000238	2.375551	0.402429	-0.000024
1203	1.1960e+02	8.0353	10.409639	0.000197	1.965973	0.333045	-0.000020
1204	1.1970e+02	8.0264	10.389272	0.000205	2.047888	0.346922	-0.000020
1205	1.1980e+02	8.0177	10.364831	0.000246	2.457466	0.416306	-0.000025
1206	1.1990e+02	8.0054	10.346501	0.000184	1.843100	0.312230	-0.000018
1207	1.2000e+02	7.9945	10.326134	0.000205	2.047888	0.346922	-0.000020
1208	1.2010e+02	7.9867	10.302915	0.000233	2.334593	0.395491	-0.000023
1209	1.2020e+02	7.9750	10.278882	0.000242	2.416508	0.409368	-0.000024
1210	1.2030e+02	7.9671	10.258107	0.000209	2.088846	0.353860	-0.000021
1211	1.2039e+02	7.9581	10.236111	0.000221	2.211720	0.374675	-0.000022
1212	1.2049e+02	7.9456	10.212485	0.000238	2.375551	0.402429	-0.000024
1213	1.2059e+02	7.9385	10.196191	0.000164	1.638311	0.277537	-0.000016
1214	1.2069e+02	7.9237	10.172158	0.000242	2.416508	0.409368	-0.000024
1215	1.2079e+02	7.9175	10.152198	0.000201	2.006931	0.339983	-0.000020
1216	1.2089e+02	7.9040	10.132646	0.000197	1.965973	0.333045	-0.000020
1217	1.2099e+02	7.8932	10.109427	0.000233	2.334593	0.395491	-0.000023
1218	1.2109e+02	7.8860	10.090282	0.000193	1.925015	0.326106	-0.000019
1219	1.2119e+02	7.8754	10.069915	0.000205	2.047888	0.346922	-0.000020
1220	1.2129e+02	7.8677	10.047511	0.000225	2.252677	0.381614	-0.000023
1221	1.2139e+02	7.8578	10.024293	0.000233	2.334593	0.395491	-0.000023
1222	1.2149e+02	7.8469	10.006777	0.000176	1.761184	0.298353	-0.000018
1223	1.2159e+02	7.8381	9.985188	0.000217	2.170762	0.367737	-0.000022
1224	1.2169e+02	7.8285	9.962784	0.000225	2.252677	0.381614	-0.000023
1225	1.2179e+02	7.8146	9.939158	0.000238	2.375551	0.402429	-0.000024
1226	1.2189e+02	7.8064	9.921643	0.000176	1.761184	0.298353	-0.000018
1227	1.2199e+02	7.7972	9.898424	0.000233	2.334593	0.395491	-0.000023
1228	1.2209e+02	7.7856	9.882945	0.000156	1.556395	0.263660	-0.000016
1229	1.2219e+02	7.7775	9.853616	0.000295	2.948959	0.499567	-0.000029
1230	1.2229e+02	7.7644	9.837323	0.000164	1.638311	0.277537	-0.000016
1231	1.2239e+02	7.7561	9.816548	0.000209	2.088846	0.353860	-0.000021
1232	1.2248e+02	7.7456	9.795366	0.000213	2.129804	0.360799	-0.000021
1233	1.2258e+02	7.7399	9.779887	0.000156	1.556395	0.263660	-0.000016
1234	1.2268e+02	7.7274	9.761964	0.000180	1.802142	0.305291	-0.000018
1235	1.2278e+02	7.7151	9.742412	0.000197	1.965973	0.333045	-0.000020
1236	1.2288e+02	7.7084	9.726933	0.000156	1.556395	0.263660	-0.000016
1237	1.2298e+02	7.6953	9.704122	0.000229	2.293635	0.388552	-0.000023
1238	1.2308e+02	7.6862	9.682940	0.000213	2.129804	0.360799	-0.000021
1239	1.2318e+02	7.6779	9.668275	0.000147	1.474480	0.249784	-0.000015
1240	1.2328e+02	7.6642	9.647908	0.000205	2.047888	0.346922	-0.000020
1241	1.2338e+02	7.6565	9.627949	0.000201	2.006931	0.339983	-0.000020
1242	1.2348e+02	7.6458	9.608396	0.000197	1.965973	0.333045	-0.000020
1243	1.2358e+02	7.6379	9.592510	0.000160	1.597353	0.270599	-0.000016
1244	1.2368e+02	7.6270	9.574179	0.000184	1.843100	0.312230	-0.000018
1245	1.2378e+02	7.6159	9.555442	0.000188	1.884057	0.319168	-0.000019
1246	1.2388e+02	7.6054	9.535482	0.000201	2.006931	0.339983	-0.000020
1247	1.2398e+02	7.5980	9.515522	0.000201	2.006931	0.339983	-0.000020
1248	1.2408e+02	7.5882	9.497599	0.000180	1.802142	0.305291	-0.000018
1249	1.2418e+02	7.5796	9.475602	0.000221	2.211720	0.374675	-0.000022
1250	1.2428e+02	7.5694	9.457679	0.000180	1.802142	0.305291	-0.000018
1251	1.2438e+02	7.5564	9.436905	0.000209	2.088846	0.353860	-0.000021
1252	1.2447e+02	7.5488	9.411242	0.000258	2.580339	0.437121	-0.000026
1253	1.2457e+02	7.5391	9.397393	0.000139	1.392564	0.235907	-0.000014
1254	1.2467e+02	7.5282	9.372137	0.000254	2.539382	0.430183	-0.000025
1255	1.2477e+02	7.5184	9.348104	0.000242	2.416508	0.409368	-0.000024
1256	1.2487e+02	7.5050	9.328552	0.000197	1.965973	0.333045	-0.000020
1257	1.2497e+02	7.5004	9.306963	0.000217	2.170762	0.367737	-0.000022
1258	1.2507e+02	7.4867	9.288632	0.000184	1.843100	0.312230	-0.000018
1259	1.2517e+02	7.4749	9.265414	0.000233	2.334593	0.395491	-0.000023
1260	1.2527e+02	7.4704	9.240566	0.000250	2.498424	0.423244	-0.000025
1261	1.2537e+02	7.4575	9.220199	0.000205	2.047888	0.346922	-0.000020
1262	1.2547e+02	7.4491	9.197387	0.000229	2.293635	0.388552	-0.000023
1263	1.2557e+02	7.4375	9.175798	0.000217	2.170762	0.367737	-0.000022
1264	1.2567e+02	7.4293	9.157468	0.000184	1.843100	0.312230	-0.000018
1265	1.2577e+02	7.4193	9.138730	0.000188	1.884057	0.319168	-0.000019
1266	1.2587e+02	7.4089	9.116734	0.000221	2.211720	0.374675	-0.000022
1267	1.2597e+02	7.4006	9.097181	0.000197	1.965973	0.333045	-0.000020
1268	1.2607e+02	7.3896	9.075999	0.000213	2.129804	0.360799	-0.000021
1269	1.2617e+02	7.3804	9.054003	0.000221	2.211720	0.374675	-0.000022
1270	1.2627e+02	7.3682	9.038117	0.000160	1.597353	0.270599	-0.000016
1271	1.2636e+02	7.3574	9.015305	0.000229	2.293635	0.388552	-0.000023
1272	1.2646e+02	7.3483	8.993309	0.000221	2.211720	0.374675	-0.000022
1273	1.2656e+02	7.3391	8.975386	0.000180	1.802142	0.305291	-0.000018
1274	1.2666e+02	7.3278	8.953389	0.000221	2.211720	0.374675	-0.000022
1275	1.2676e+02	7.3181	8.932615	0.000209	2.088846	0.353860	-0.000021
1276	1.2686e+02	7.3080	8.911433	0.000213	2.129804	0.360799	-0.000021
1277	1.2696e+02	7.3009	8.891881	0.000197	1.965973	0.333045	-0.000020
1278	1.2706e+02	7.2909	8.869884	0.000221	2.211720	0.374675	-0.000022
1279	1.2716e+02	7.2799	8.851961	0.000180	1.802142	0.305291	-0.000018
1280	1.2726e+02	7.2692	8.829964	0.000221	2.211720	0.374675	-0.000022
1281	1.2736e+02	7.2592	8.808783	0.000213	2.129804	0.360799	-0.000021
1282	1.2746e+02	7.2492	8.787601	0.000213	2.129804	0.360799	-0.000021
1283	1.2756e+02	7.2400	8.763975	0.000238	2.375551	0.402429	-0.000024
1284	1.2766e+02	7.2285	8.740349	0.000238	2.375551	0.402429	-0.000024
1285	1.2776e+02	7.2198	8.719575	0.000209	2.088846	0.353860	-0.000021
1286	1.2786e+02	7.2070	8.693505	0.000262	2.621297	0.444060	-0.000026
1287	1.2796e+02	7.1997	8.669879	0.000238	2.375551	0.402429	-0.000024
1288	1.2806e+02	7.1896	8.647882	0.000221	2.211720	0.374675	-0.000022
1289	1.2816e+02	7.1777	8.621812	0.000262	2.621297	0.444060	-0.000026
1290	1.2826e+02	7.1700	8.600631	0.000213	2.129804	0.360799	-0.000021
1291	1.2835e+02	7.1587	8.573339	0.000274	2.744171	0.464875	-0.000027
1292	1.2845e+02	7.1484	8.551342	0.000221	2.211720	0.374675	-0.000022
1293	1.2855e+02	7.1393	8.528124	0.000233	2.334593	0.395491	-0.000023
1294	1.2865e+02	7.1328	8.503276	0.000250	2.498424	0.423244	-0.000025
1295	1.2875e+02	7.1204	8.483723	0.000197	1.965973	0.333045	-0.000020
1296	1.2885e+02	7.1102	8.456431	0.000274	2.744171	0.464875	-0.000027
1297	1.2895e+02	7.0983	8.433620	0.000229	2.293635	0.388552	-0.000023
1298	1.2905e+02	7.0903	8.407958	0.000258	2.580339	0.437121	-0.000026
1299	1.2915e+02	7.0786	8.382295	0.000258	2.580339	0.437121	-0.000026
1300	1.2925e+02	7.0708	8.358262	0.000242	2.416508	0.409368	-0.000024
1301	1.2935e+02	7.0588	8.334636	0.000238	2.375551	0.402429	-0.000024
1302	1.2945e+02	7.0488	8.308159	0.000266	2.662255	0.450998	-0.000027
1303	1.2955e+02	7.0393	8.283311	0.000250	2.498424	0.423244	-0.000025
1304	1.2965e+02	7.0290	8.259685	0.000238	2.375551	0.402429	-0.000024
1305	1.2975e+02	7.0213	8.236466	0.000233	2.334593	0.395491	-0.000023
1306	1.2985e+02	7.0110	8.210396	0.000262	2.621297	0.444060	-0.000026
1307	1.2995e+02	7.0020	8.186771	0.000238	2.375551	0.402429	-0.000024
1308	1.3005e+02	6.9897	8.163552	0.000233	2.334593	0.395491	-0.000023
1309	1.3015e+02	6.9800	8.139519	0.000242	2.416508	0.409368	-0.000024
1310	1.3025e+02	6.9689	8.112634	0.000270	2.703213	0.457937	-0.000027
1311	1.3034e+02	6.9609	8.087786	0.000250	2.498424	0.423244	-0.000025
1312	1.3044e+02	6.9494	8.063753	0.000242	2.416508	0.409368	-0.000024
1313	1.3054e+02	6.9442	8.039720	0.000242	2.416508	0.409368	-0.000024
1314	1.3064e+02	6.9299	8.011613	0.000283	2.826086	0.478752	-0.000028
1315	1.3074e+02	6.9231	7.986358	0.000254	2.539382	0.430183	-0.000025
1316	1.3084e+02	6.9127	7.959066	0.000274	2.744171	0.464875	-0.000027
1317	1.3094e+02	6.9013	7.933811	0.000254	2.539382	0.430183	-0.000025
1318	1.3104e+02	6.8913	7.905704	0.000283	2.826086	0.478752	-0.000028
1319	1.3114e+02	6.8806	7.877598	0.000283	2.826086	0.478752	-0.000028
1320	1.3124e+02	6.8690	7.849491	0.000283	2.826086	0.478752	-0.000028
1321	1.3134e+02	6.8629	7.823828	0.000258	2.580339	0.437121	-0.000026
1322	1.3144e+02	6.8481	7.794500	0.000295	2.948959	0.499567	-0.000029
1323	1.3154e+02	6.8402	7.768837	0.000258	2.580339	0.437121	-0.000026
1324	1.3164e+02	6.8311	7.739508	0.000295	2.948959	0.499567	-0.000029
1325	1.3174e+02	6.8215	7.714661	0.000250	2.498424	0.423244	-0.000025
1326	1.3184e+02	6.8115	7.687369	0.000274	2.744171	0.464875	-0.000027
1327	1.3194e+02	6.8005	7.661706	0.000258	2.580339	0.437121	-0.000026
1328	1.3204e+02	6.7912	7.632377	0.000295	2.948959	0.499567	-0.000029
1329	1.3214e+02	6.7822	7.605085	0.000274	2.744171	0.464875	-0.000027
1330	1.3224e+02	6.7725	7.579423	0.000258	2.580339	0.437121	-0.000026
1331	1.3234e+02	6.7617	7.549687	0.000299	2.989917	0.506506	-0.000030
1332	1.3243e+02	6.7507	7.524024	0.000258	2.580339	0.437121	-0.000026
1333	1.3253e+02	6.7420	7.500398	0.000238	2.375551	0.402429	-0.000024
1334	1.3263e+02	6.7342	7.471477	0.000291	2.908002	0.492629	-0.000029
1335	1.3273e+02	6.7223	7.443778	0.000279	2.785128	0.471814	-0.000028
1336	1.3283e+02	6.7093	7.420967	0.000229	2.293635	0.388552	-0.000023
1337	1.3293e+02	6.7019	7.392453	0.000287	2.867044	0.485690	-0.000029
1338	1.3303e+02	6.6915	7.368827	0.000238	2.375551	0.402429	-0.000024
1339	1.3313e+02	6.6799	7.342349	0.000266	2.662255	0.450998	-0.000027
1340	1.3323e+02	6.6725	7.319131	0.000233	2.334593	0.395491	-0.000023
1341	1.3333e+02	6.6625	7.295098	0.000242	2.416508	0.409368	-0.000024
1342	1.3343e+02	6.6504	7.269435	0.000258	2.580339	0.437121	-0.000026
1343	1.3353e+02	6.6420	7.245809	0.000238	2.375551	0.402429	-0.000024
1344	1.3363e+02	6.6318	7.220961	0.000250	2.498424	0.423244	-0.000025
1345	1.3373e+02	6.6228	7.197336	0.000238	2.375551	0.402429	-0.000024
1346	1.3383e+02	6.6119	7.170451	0.000270	2.703213	0.457937	-0.000027
1347	1.3393e+02	6.6036	7.144381	0.000262	2.621297	0.444060	-0.000026
1348	1.3403e+02	6.5967	7.118718	0.000258	2.580339	0.437121	-0.000026
1349	1.3413e+02	6.5832	7.089797	0.000291	2.908002	0.492629	-0.000029
1350	1.3423e+02	6.5737	7.066986	0.000229	2.293635	0.388552	-0.000023
1351	1.3432e+02	6.5639	7.035621	0.000315	3.153748	0.534259	-0.000032
1352	1.3442e+02	6.5524	7.009143	0.000266	2.662255	0.450998	-0.000027
1353	1.3452e+02	6.5424	6.981037	0.000283	2.826086	0.478752	-0.000028
1354	1.3462e+02	6.5320	6.955374	0.000258	2.580339	0.437121	-0.000026
1355	1.3472e+02	6.5221	6.928489	0.000270	2.703213	0.457937	-0.000027
1356	1.3482e+02	6.5134	6.902827	0.000258	2.580339	0.437121	-0.000026
1357	1.3492e+02	6.5050	6.879201	0.000238	2.375551	0.402429	-0.000024
1358	1.3502e+02	6.4925	6.851909	0.000274	2.744171	0.464875	-0.000027
1359	1.3512e+02	6.4854	6.823802	0.000283	2.826086	0.478752	-0.000028
1360	1.3522e+02	6.4742	6.796510	0.000274	2.744171	0.464875	-0.000027
1361	1.3532e+02	6.4622	6.769626	0.000270	2.703213	0.457937	-0.000027
1362	1.3542e+02	6.4523	6.745185	0.000246	2.457466	0.416306	-0.000025
1363	1.3552e+02	6.4437	6.715449	0.000299	2.989917	0.506506	-0.000030
1364	1.3562e+02	6.4329	6.693045	0.000225	2.252677	0.381614	-0.000023
1365	1.3572e+02	6.4239	6.665346	0.000279	2.785128	0.471814	-0.000028
1366	1.3582e+02	6.4153	6.639276	0.000262	2.621297	0.444060	-0.000026
1367	1.3592e+02	6.4017	6.611577	0.000279	2.785128	0.471814	-0.000028
1368	1.3602e+02	6.3937	6.588358	0.000233	2.334593	0.395491	-0.000023
1369	1.3612e+02	6.3833	6.565547	0.000229	2.293635	0.388552	-0.000023
1370	1.3622e+02	6.3741	6.539070	0.000266	2.662255	0.450998	-0.000027
1371	1.3631e+02	6.3615	6.517073	0.000221	2.211720	0.374675	-0.000022
1372	1.3641e+02	6.3548	6.495077	0.000221	2.211720	0.374675	-0.000022
1373	1.3651e+02	6.3430	6.470636	0.000246	2.457466	0.416306	-0.000025
1374	1.3661e+02	6.3317	6.444159	0.000266	2.662255	0.450998	-0.000027
1375	1.3671e+02	6.3223	6.424199	0.000201	2.006931	0.339983	-0.000020
1376	1.3681e+02	6.3132	6.397722	0.000266	2.662255	0.450998	-0.000027
1377	1.3691e+02	6.3062	6.374504	0.000233	2.334593	0.395491	-0.000023
1378	1.3701e+02	6.2953	6.352507	0.000221	2.211720	0.374675	-0.000022
1379	1.3711e+02	6.2835	6.327252	0.000254	2.539382	0.430183	-0.000025
1380	1.3721e+02	6.2742	6.305663	0.000217	2.170762	0.367737	-0.000022
1381	1.3731e+02	6.2663	6.280000	0.000258	2.580339	0.437121	-0.000026
1382	1.3741e+02	6.2541	6.255967	0.000242	2.416508	0.409368	-0.000024
1383	1.3751e+02	6.2443	6.234785	0.000213	2.129804	0.360799	-0.000021
1384	1.3761e+02	6.2351	6.207493	0.000274	2.744171	0.464875	-0.000027
1385	1.3771e+02	6.2260	6.190385	0.000172	1.720226	0.291414	-0.000017
1386	1.3781e+02	6.2158	6.161463	0.000291	2.908002	0.492629	-0.000029
1387	1.3791e+02	6.2060	6.139060	0.000225	2.252677	0.381614	-0.000023
1388	1.3801e+02	6.1971	6.115434	0.000238	2.375551	0.402429	-0.000024
1389	1.3811e+02	6.1837	6.088549	0.000270	2.703213	0.457937	-0.000027
1390	1.3821e+02	6.1761	6.066145	0.000225	2.252677	0.381614	-0.000023
1391	1.3831e+02	6.1657	6.040483	0.000258	2.580339	0.437121	-0.000026
1392	1.3840e+02	6.1553	6.020116	0.000205	2.047888	0.346922	-0.000020
1393	1.3850e+02	6.1463	5.998119	0.000221	2.211720	0.374675	-0.000022
1394	1.3860e+02	6.1366	5.976123	0.000221	2.211720	0.374675	-0.000022
1395	1.3870e+02	6.1255	5.951682	0.000246	2.457466	0.416306	-0.000025
1396	1.3880e+02	6.1175	5.926019	0.000258	2.580339	0.437121	-0.000026
1397	1.3890e+02	6.1060	5.901579	0.000246	2.457466	0.416306	-0.000025
1398	1.3900e+02	6.0955	5.881212	0.000205	2.047888	0.346922	-0.000020
1399	1.3910e+02	6.0867	5.858401	0.000229	2.293635	0.388552	-0.000023
1400	1.3920e+02	6.0760	5.837219	0.000213	2.129804	0.360799	-0.000021
1401	1.3930e+02	6.0678	5.815222	0.000221	2.211720	0.374675	-0.000022
1402	1.3940e+02	6.0563	5.794448	0.000209	2.088846	0.353860	-0.000021
1403	1.3950e+02	6.0459	5.774488	0.000201	2.006931	0.339983	-0.000020
1404	1.3960e+02	6.0342	5.753714	0.000209	2.088846	0.353860	-0.000021
1405	1.3970e+02	6.0254	5.732532	0.000213	2.129804	0.360799	-0.000021
1406	1.3980e+02	6.0152	5.712165	0.000205	2.047888	0.346922	-0.000020
1407	1.3990e+02	6.0061	5.687317	0.000250	2.498424	0.423244	-0.000025
1408	1.4000e+02	5.9949	5.666135	0.000213	2.129804	0.360799	-0.000021
1409	1.4010e+02	5.9866	5.645768	0.000205	2.047888	0.346922	-0.000020
1410	1.4020e+02	5.9766	5.622957	0.000229	2.293635	0.388552	-0.000023
1411	1.4029e+02	5.9661	5.604219	0.000188	1.884057	0.319168	-0.000019
1412	1.4039e+02	5.9569	5.580593	0.000238	2.375551	0.402429	-0.000024
1413	1.4049e+02	5.9452	5.562670	0.000180	1.802142	0.305291	-0.000018
1414	1.4059e+02	5.9334	5.540266	0.000225	2.252677	0.381614	-0.000023
1415	1.4069e+02	5.9244	5.511345	0.000291	2.908002	0.492629	-0.000029
1416	1.4079e+02	5.9170	5.497902	0.000135	1.351606	0.228968	-0.000014
1417	1.4089e+02	5.9060	5.471425	0.000266	2.662255	0.450998	-0.000027
1418	1.4099e+02	5.8967	5.448207	0.000233	2.334593	0.395491	-0.000023
1419	1.4109e+02	5.8874	5.428654	0.000197	1.965973	0.333045	-0.000020
1420	1.4119e+02	5.8787	5.403806	0.000250	2.498424	0.423244	-0.000025
1421	1.4129e+02	5.8654	5.376922	0.000270	2.703213	0.457937	-0.000027
1422	1.4139e+02	5.8569	5.354925	0.000221	2.211720	0.374675	-0.000022
1423	1.4149e+02	5.8474	5.332929	0.000221	2.211720	0.374675	-0.000022
1424	1.4159e+02	5.8375	5.308895	0.000242	2.416508	0.409368	-0.000024
1425	1.4169e+02	5.8274	5.280789	0.000283	2.826086	0.478752	-0.000028
1426	1.4179e+02	5.8172	5.255941	0.000250	2.498424	0.423244	-0.000025
1427	1.4189e+02	5.8057	5.234352	0.000217	2.170762	0.367737	-0.000022
1428	1.4199e+02	5.7946	5.210319	0.000242	2.416508	0.409368	-0.000024
1429	1.4209e+02	5.7850	5.181397	0.000291	2.908002	0.492629	-0.000029
1430	1.4219e+02	5.7781	5.159401	0.000221	2.211720	0.374675	-0.000022
1431	1.4228e+02	5.7647	5.135368	0.000242	2.416508	0.409368	-0.000024
1432	1.4238e+02	5.7581	5.112149	0.000233	2.334593	0.395491	-0.000023
1433	1.4248e+02	5.7494	5.095855	0.000164	1.638311	0.277537	-0.000016
1434	1.4258e+02	5.7365	5.068563	0.000274	2.744171	0.464875	-0.000027
1435	1.4268e+02	5.7259	5.046160	0.000225	2.252677	0.381614	-0.000023
1436	1.4278e+02	5.7205	5.021312	0.000250	2.498424	0.423244	-0.000025
1437	1.4288e+02	5.7080	5.003389	0.000180	1.802142	0.305291	-0.000018
1438	1.4298e+02	5.6968	4.976911	0.000266	2.662255	0.450998	-0.000027
1439	1.4308e+02	5.6881	4.953285	0.000238	2.375551	0.402429	-0.000024
1440	1.4318e+02	5.6771	4.931696	0.000217	2.170762	0.367737	-0.000022
1441	1.4328e+02	5.6698	4.904404	0.000274	2.744171	0.464875	-0.000027
1442	1.4338e+02	5.6561	4.884445	0.000201	2.006931	0.339983	-0.000020
1443	1.4348e+02	5.6486	4.861633	0.000229	2.293635	0.388552	-0.000023
1444	1.4358e+02	5.6404	4.840452	0.000213	2.129804	0.360799	-0.000021
1445	1.4368e+02	5.6281	4.816011	0.000246	2.457466	0.416306	-0.000025
1446	1.4378e+02	5.6194	4.792385	0.000238	2.375551	0.402429	-0.000024
1447	1.4388e+02	5.6069	4.768759	0.000238	2.375551	0.402429	-0.000024
1448	1.4398e+02	5.5982	4.745948	0.000229	2.293635	0.388552	-0.000023
1449	1.4408e+02	5.5870	4.720693	0.000254	2.539382	0.430183	-0.000025
1450	1.4418e+02	5.5776	4.696252	0.000246	2.457466	0.416306	-0.000025
1451	1.4428e+02	5.5698	4.672626	0.000238	2.375551	0.402429	-0.000024
1452	1.4437e+02	5.5579	4.644112	0.000287	2.867044	0.485690	-0.000029
1453	1.4447e+02	5.5474	4.616006	0.000283	2.826086	0.478752	-0.000028
1454	1.4457e+02	5.5399	4.594417	0.000217	2.170762	0.367737	-0.000022
1455	1.4467e+02	5.5291	4.566310	0.000283	2.826086	0.478752	-0.000028
1456	1.4477e+02	5.5166	4.539425	0.000270	2.703213	0.457937	-0.000027
1457	1.4487e+02	5.5090	4.514985	0.000246	2.457466	0.416306	-0.000025
1458	1.4497e+02	5.5016	4.489322	0.000258	2.580339	0.437121	-0.000026
1459	1.4507e+02	5.4893	4.464067	0.000254	2.539382	0.430183	-0.000025
1460	1.4517e+02	5.4807	4.435553	0.000287	2.867044	0.485690	-0.000029
1461	1.4527e+02	5.4693	4.409483	0.000262	2.621297	0.444060	-0.000026
1462	1.4537e+02	5.4571	4.381784	0.000279	2.785128	0.471814	-0.000028
1463	1.4547e+02	5.4469	4.357751	0.000242	2.416508	0.409368	-0.000024
1464	1.4557e+02	5.4388	4.329644	0.000283	2.826086	0.478752	-0.000028
1465	1.4567e+02	5.4285	4.303981	0.000258	2.580339	0.437121	-0.000026
1466	1.4577e+02	5.4183	4.276689	0.000274	2.744171	0.464875	-0.000027
1467	1.4587e+02	5.4116	4.248990	0.000279	2.785128	0.471814	-0.000028
1468	1.4597e+02	5.3967	4.219254	0.000299	2.989917	0.506506	-0.000030
1469	1.4607e+02	5.3925	4.195221	0.000242	2.416508	0.409368	-0.000024
1470	1.4617e+02	5.3790	4.164670	0.000307	3.071833	0.520383	-0.000031
1471	1.4626e+02	5.3687	4.139008	0.000258	2.580339	0.437121	-0.000026
1472	1.4636e+02	5.3574	4.112938	0.000262	2.621297	0.444060	-0.000026
1473	1.4646e+02	5.3526	4.088497	0.000246	2.457466	0.416306	-0.000025
1474	1.4656e+02	5.3393	4.061613	0.000270	2.703213	0.457937	-0.000027
1475	1.4666e+02	5.3301	4.035543	0.000262	2.621297	0.444060	-0.000026
1476	1.4676e+02	5.3179	4.004177	0.000315	3.153748	0.534259	-0.000032
1477	1.4686e+02	5.3124	3.975663	0.000287	2.867044	0.485690	-0.000029
1478	1.4696e+02	5.2988	3.950001	0.000258	2.580339	0.437121	-0.000026
1479	1.4706e+02	5.2902	3.920672	0.000295	2.948959	0.499567	-0.000029
1480	1.4716e+02	5.2776	3.893787	0.000270	2.703213	0.457937	-0.000027
1481	1.4726e+02	5.2694	3.867310	0.000266	2.662255	0.450998	-0.000027
1482	1.4736e+02	5.2624	3.835130	0.000324	3.235664	0.548136	-0.000032
1483	1.4746e+02	5.2529	3.808246	0.000270	2.703213	0.457937	-0.000027
1484	1.4756e+02	5.2393	3.779324	0.000291	2.908002	0.492629	-0.000029
1485	1.4766e+02	5.2315	3.749181	0.000303	3.030875	0.513444	-0.000030
1486	1.4776e+02	5.2187	3.717815	0.000315	3.153748	0.534259	-0.000032
1487	1.4786e+02	5.2071	3.688487	0.000295	2.948959	0.499567	-0.000029
1488	1.4796e+02	5.2018	3.658751	0.000299	2.989917	0.506506	-0.000030
1489	1.4806e+02	5.1897	3.630237	0.000287	2.867044	0.485690	-0.000029
1490	1.4816e+02	5.1804	3.597649	0.000328	3.276622	0.555075	-0.000033
1491	1.4825e+02	5.1736	3.566284	0.000315	3.153748	0.534259	-0.000032
1492	1.4835e+02	5.1613	3.537770	0.000287	2.867044	0.485690	-0.000029
1493	1.4845e+02	5.1507	3.510071	0.000279	2.785128	0.471814	-0.000028
1494	1.4855e+02	5.1417	3.480335	0.000299	2.989917	0.506506	-0.000030
1495	1.4865e+02	5.1311	3.449784	0.000307	3.071833	0.520383	-0.000031
1496	1.4875e+02	5.1163	3.419233	0.000307	3.071833	0.520383	-0.000031
1497	1.4885e+02	5.1124	3.387868	0.000315	3.153748	0.534259	-0.000032
1498	1.4895e+02	5.1001	3.360576	0.000274	2.744171	0.464875	-0.000027
1499	1.4905e+02	5.0915	3.329618	0.000311	3.112790	0.527321	-0.000031
1500	1.4915e+02	5.0791	3.300697	0.000291	2.908002	0.492629	-0.000029
1501	1.4925e+02	5.0688	3.270146	0.000307	3.071833	0.520383	-0.000031
1502	1.4935e+02	5.0594	3.241225	0.000291	2.908002	0.492629	-0.000029
1503	1.4945e+02	5.0512	3.217599	0.000238	2.375551	0.402429	-0.000024
1504	1.4955e+02	5.0404	3.185826	0.000319	3.194706	0.541198	-0.000032
1505	1.4965e+02	5.0323	3.159756	0.000262	2.621297	0.444060	-0.000026
1506	1.4975e+02	5.0203	3.131650	0.000283	2.826086	0.478752	-0.000028
1507	1.4985e+02	5.0105	3.107209	0.000246	2.457466	0.416306	-0.000025
1508	1.4995e+02	5.0019	3.077473	0.000299	2.989917	0.506506	-0.000030
1509	1.5005e+02	4.9911	3.051403	0.000262	2.621297	0.444060	-0.000026
1510	1.5015e+02	4.9805	3.021260	0.000303	3.030875	0.513444	-0.000030
1511	1.5025e+02	4.9708	2.992746	0.000287	2.867044	0.485690	-0.000029
1512	1.5034e+02	4.9609	2.967490	0.000254	2.539382	0.430183	-0.000025
1513	1.5044e+02	4.9496	2.939791	0.000279	2.785128	0.471814	-0.000028
1514	1.5054e+02	4.9426	2.910870	0.000291	2.908002	0.492629	-0.000029
1515	1.5064e+02	4.9323	2.881134	0.000299	2.989917	0.506506	-0.000030
1516	1.5074e+02	4.9227	2.853435	0.000279	2.785128	0.471814	-0.000028
1517	1.5084e+02	4.9108	2.821662	0.000319	3.194706	0.541198	-0.000032
1518	1.5094e+02	4.8995	2.793148	0.000287	2.867044	0.485690	-0.000029
1519	1.5104e+02	4.8907	2.764227	0.000291	2.908002	0.492629	-0.000029
1520	1.5114e+02	4.8839	2.734898	0.000295	2.948959	0.499567	-0.000029
1521	1.5124e+02	4.8736	2.705977	0.000291	2.908002	0.492629	-0.000029
1522	1.5134e+02	4.8596	2.675019	0.000311	3.112790	0.527321	-0.000031
1523	1.5144e+02	4.8532	2.648541	0.000266	2.662255	0.450998	-0.000027
1524	1.5154e+02	4.8414	2.619620	0.000291	2.908002	0.492629	-0.000029
1525	1.5164e+02	4.8335	2.587847	0.000319	3.194706	0.541198	-0.000032
1526	1.5174e+02	4.8231	2.558519	0.000295	2.948959	0.499567	-0.000029
1527	1.5184e+02	4.8101	2.527968	0.000307	3.071833	0.520383	-0.000031
1528	1.5194e+02	4.8023	2.499454	0.000287	2.867044	0.485690	-0.000029
1529	1.5204e+02	4.7945	2.468903	0.000307	3.071833	0.520383	-0.000031
1530	1.5214e+02	4.7817	2.438760	0.000303	3.030875	0.513444	-0.000030
1531	1.5224e+02	4.7727	2.411061	0.000279	2.785128	0.471814	-0.000028
1532	1.5233e+02	4.7616	2.387027	0.000242	2.416508	0.409368	-0.000024
1533	1.5243e+02	4.7499	2.355662	0.000315	3.153748	0.534259	-0.000032
1534	1.5253e+02	4.7421	2.328370	0.000274	2.744171	0.464875	-0.000027
1535	1.5263e+02	4.7318	2.299449	0.000291	2.908002	0.492629	-0.000029
1536	1.5273e+02	4.7216	2.273786	0.000258	2.580339	0.437121	-0.000026
1537	1.5283e+02	4.7132	2.246902	0.000270	2.703213	0.457937	-0.000027
1538	1.5293e+02	4.7015	2.222868	0.000242	2.416508	0.409368	-0.000024
1539	1.5303e+02	4.6902	2.190688	0.000324	3.235664	0.548136	-0.000032
1540	1.5313e+02	4.6841	2.163804	0.000270	2.703213	0.457937	-0.000027
1541	1.5323e+02	4.6704	2.138141	0.000258	2.580339	0.437121	-0.000026
1542	1.5333e+02	4.6620	2.111664	0.000266	2.662255	0.450998	-0.000027
1543	1.5343e+02	4.6555	2.085594	0.000262	2.621297	0.444060	-0.000026
1544	1.5353e+02	4.6433	2.058302	0.000274	2.744171	0.464875	-0.000027
1545	1.5363e+02	4.6310	2.028973	0.000295	2.948959	0.499567	-0.000029
1546	1.5373e+02	4.6246	2.005755	0.000233	2.334593	0.395491	-0.000023
1547	1.5383e+02	4.6142	1.976833	0.000291	2.908002	0.492629	-0.000029
1548	1.5393e+02	4.6011	1.956059	0.000209	2.088846	0.353860	-0.000021
1549	1.5403e+02	4.5914	1.925916	0.000303	3.030875	0.513444	-0.000030
1550	1.5413e+02	4.5806	1.903512	0.000225	2.252677	0.381614	-0.000023
1551	1.5422e+02	4.5734	1.873776	0.000299	2.989917	0.506506	-0.000030
1552	1.5432e+02	4.5623	1.846484	0.000274	2.744171	0.464875	-0.000027
1553	1.5442e+02	4.5545	1.823265	0.000233	2.334593	0.395491	-0.000023
1554	1.5452e+02	4.5432	1.798010	0.000254	2.539382	0.430183	-0.000025
1555	1.5462e+02	4.5367	1.766645	0.000315	3.153748	0.534259	-0.000032
1556	1.5472e+02	4.5249	1.745870	0.000209	2.088846	0.353860	-0.000021
1557	1.5482e+02	4.5124	1.716134	0.000299	2.989917	0.506506	-0.000030
1558	1.5492e+02	4.5023	1.688842	0.000274	2.744171	0.464875	-0.000027
1559	1.5502e+02	4.4918	1.663994	0.000250	2.498424	0.423244	-0.000025
1560	1.5512e+02	4.4845	1.635888	0.000283	2.826086	0.478752	-0.000028
1561	1.5522e+02	4.4766	1.606966	0.000291	2.908002	0.492629	-0.000029
1562	1.5532e+02	4.4637	1.579674	0.000274	2.744171	0.464875	-0.000027
1563	1.5542e+02	4.4529	1.557271	0.000225	2.252677	0.381614	-0.000023
1564	1.5552e+02	4.4424	1.532015	0.000254	2.539382	0.430183	-0.000025
1565	1.5562e+02	4.4337	1.503094	0.000291	2.908002	0.492629	-0.000029
1566	1.5572e+02	4.4233	1.479468	0.000238	2.375551	0.402429	-0.000024
1567	1.5582e+02	4.4148	1.459916	0.000197	1.965973	0.333045	-0.000020
1568	1.5592e+02	4.4033	1.434253	0.000258	2.580339	0.437121	-0.000026
1569	1.5602e+02	4.3948	1.410220	0.000242	2.416508	0.409368	-0.000024
1570	1.5612e+02	4.3850	1.387816	0.000225	2.252677	0.381614	-0.000023
1571	1.5622e+02	4.3743	1.361339	0.000266	2.662255	0.450998	-0.000027
1572	1.5631e+02	4.3630	1.337306	0.000242	2.416508	0.409368	-0.000024
1573	1.5641e+02	4.3537	1.311643	0.000258	2.580339	0.437121	-0.000026
1574	1.5651e+02	4.3435	1.290461	0.000213	2.129804	0.360799	-0.000021
1575	1.5661e+02	4.3346	1.262762	0.000279	2.785128	0.471814	-0.000028
1576	1.5671e+02	4.3246	1.238729	0.000242	2.416508	0.409368	-0.000024
1577	1.5681e+02	4.3179	1.212659	0.000262	2.621297	0.444060	-0.000026
1578	1.5691e+02	4.3042	1.191070	0.000217	2.170762	0.367737	-0.000022
1579	1.5701e+02	4.2951	1.167851	0.000233	2.334593	0.395491	-0.000023
1580	1.5711e+02	4.2835	1.138522	0.000295	2.948959	0.499567	-0.000029
1581	1.5721e+02	4.2786	1.117748	0.000209	2.088846	0.353860	-0.000021
1582	1.5731e+02	4.2657	1.094122	0.000238	2.375551	0.402429	-0.000024
1583	1.5741e+02	4.2555	1.066423	0.000279	2.785128	0.471814	-0.000028
1584	1.5751e+02	4.2437	1.043204	0.000233	2.334593	0.395491	-0.000023
1585	1.5761e+02	4.2339	1.018764	0.000246	2.457466	0.416306	-0.000025
1586	1.5771e+02	4.2270	0.991879	0.000270	2.703213	0.457937	-0.000027
1587	1.5781e+02	4.2144	0.967439	0.000246	2.457466	0.416306	-0.000025
1588	1.5791e+02	4.2037	0.937295	0.000303	3.030875	0.513444	-0.000030
1589	1.5801e+02	4.1940	0.910003	0.000274	2.744171	0.464875	-0.000027
1590	1.5811e+02	4.1850	0.883526	0.000266	2.662255	0.450998	-0.000027
1591	1.5821e+02	4.1757	0.860307	0.000233	2.334593	0.395491	-0.000023
1592	1.5830e+02	4.1637	0.828535	0.000319	3.194706	0.541198	-0.000032
1593	1.5840e+02	4.1560	0.801650	0.000270	2.703213	0.457937	-0.000027
1594	1.5850e+02	4.1436	0.772729	0.000291	2.908002	0.492629	-0.000029
1595	1.5860e+02	4.1344	0.750325	0.000225	2.252677	0.381614	-0.000023
1596	1.5870e+02	4.1228	0.722218	0.000283	2.826086	0.478752	-0.000028
1597	1.5880e+02	4.1145	0.700222	0.000221	2.211720	0.374675	-0.000022
1598	1.5890e+02	4.1085	0.670486	0.000299	2.989917	0.506506	-0.000030
1599	1.5900e+02	4.0952	0.644009	0.000266	2.662255	0.450998	-0.000027
1600	1.5910e+02	4.0874	0.614273	0.000299	2.989917	0.506506	-0.000030
1601	1.5920e+02	4.0752	0.591869	0.000225	2.252677	0.381614	-0.000023
1602	1.5930e+02	4.0644	0.566613	0.000254	2.539382	0.430183	-0.000025
1603	1.5940e+02	4.0574	0.541358	0.000254	2.539382	0.430183	-0.000025
1604	1.5950e+02	4.0452	0.516918	0.000246	2.457466	0.416306	-0.000025
1605	1.5960e+02	4.0346	0.488404	0.000287	2.867044	0.485690	-0.000029
1606	1.5970e+02	4.0259	0.463148	0.000254	2.539382	0.430183	-0.000025
1607	1.5980e+02	4.0159	0.430154	0.000332	3.317579	0.562013	-0.000033
1608	1.5990e+02	4.0082	0.410601	0.000197	1.965973	0.333045	-0.000020
1609	1.6000e+02	3.9957	0.381273	0.000295	2.948959	0.499567	-0.000029
1610	1.6010e+02	3.9858	0.358054	0.000233	2.334593	0.395491	-0.000023
1611	1.6019e+02	3.9787	0.333206	0.000250	2.498424	0.423244	-0.000025
1612	1.6029e+02	3.9675	0.307544	0.000258	2.580339	0.437121	-0.000026
1613	1.6039e+02	3.9550	0.281066	0.000266	2.662255	0.450998	-0.000027
1614	1.6049e+02	3.9465	0.255404	0.000258	2.580339	0.437121	-0.000026
1615	1.6059e+02	3.9379	0.227704	0.000279	2.785128	0.471814	-0.000028
1616	1.6069e+02	3.9265	0.200005	0.000279	2.785128	0.471814	-0.000028
1617	1.6079e+02	3.9183	0.174343	0.000258	2.580339	0.437121	-0.000026
1618	1.6089e+02	3.9055	0.145014	0.000295	2.948959	0.499567	-0.000029
1619	1.6099e+02	3.8961	0.114463	0.000307	3.071833	0.520383	-0.000031
1620	1.6109e+02	3.8854	0.087986	0.000266	2.662255	0.450998	-0.000027
1621	1.6119e+02	3.8793	0.059472	0.000287	2.867044	0.485690	-0.000029
1622	1.6129e+02	3.8696	0.028921	0.000307	3.071833	0.520383	-0.000031
1623	1.6139e+02	3.8558	0.000407	0.000287	2.867044	0.485690	-0.000029
1624	1.6149e+02	3.8457	-0.030143	0.000307	3.071833	0.520383	-0.000031
1625	1.6159e+02	3.8366	-0.055399	0.000254	2.539382	0.430183	-0.000025
1626	1.6169e+02	3.8305	-0.087579	0.000324	3.235664	0.548136	-0.000032
1627	1.6179e+02	3.8174	-0.115685	0.000283	2.826086	0.478752	-0.000028
1628	1.6189e+02	3.8055	-0.145014	0.000295	2.948959	0.499567	-0.000029
1629	1.6199e+02	3.7962	-0.174343	0.000295	2.948959	0.499567	-0.000029
1630	1.6209e+02	3.7868	-0.206523	0.000324	3.235664	0.548136	-0.000032
1631	1.6219e+02	3.7785	-0.232185	0.000258	2.580339	0.437121	-0.000026
1632	1.6228e+02	3.7661	-0.262329	0.000303	3.030875	0.513444	-0.000030
1633	1.6238e+02	3.7572	-0.293287	0.000311	3.112790	0.527321	-0.000031
1634	1.6248e+02	3.7486	-0.322208	0.000291	2.908002	0.492629	-0.000029
1635	1.6258e+02	3.7370	-0.352351	0.000303	3.030875	0.513444	-0.000030
1636	1.6268e+02	3.7288	-0.381273	0.000291	2.908002	0.492629	-0.000029
1637	1.6278e+02	3.7153	-0.413045	0.000319	3.194706	0.541198	-0.000032
1638	1.6288e+02	3.7070	-0.444003	0.000311	3.112790	0.527321	-0.000031
1639	1.6298e+02	3.6971	-0.473332	0.000295	2.948959	0.499567	-0.000029
1640	1.6308e+02	3.6877	-0.504290	0.000311	3.112790	0.527321	-0.000031
1641	1.6318e+02	3.6804	-0.530767	0.000266	2.662255	0.450998	-0.000027
1642	1.6328e+02	3.6670	-0.562540	0.000319	3.194706	0.541198	-0.000032
1643	1.6338e+02	3.6568	-0.589832	0.000274	2.744171	0.464875	-0.000027
1644	1.6348e+02	3.6475	-0.624456	0.000348	3.481410	0.589767	-0.000035
1645	1.6358e+02	3.6385	-0.654192	0.000299	2.989917	0.506506	-0.000030
1646	1.6368e+02	3.6274	-0.681484	0.000274	2.744171	0.464875	-0.000027
1647	1.6378e+02	3.6195	-0.714071	0.000328	3.276622	0.555075	-0.000033
1648	1.6388e+02	3.6080	-0.749510	0.000356	3.563326	0.603644	-0.000036
1649	1.6398e+02	3.5972	-0.780061	0.000307	3.071833	0.520383	-0.000031
1650	1.6408e+02	3.5895	-0.809390	0.000295	2.948959	0.499567	-0.000029
1651	1.6418e+02	3.5799	-0.843199	0.000340	3.399495	0.575890	-0.000034
1652	1.6427e+02	3.5693	-0.880675	0.000377	3.768115	0.638336	-0.000038
1653	1.6437e+02	3.5574	-0.907967	0.000274	2.744171	0.464875	-0.000027
1654	1.6447e+02	3.5506	-0.941776	0.000340	3.399495	0.575890	-0.000034
1655	1.6457e+02	3.5377	-0.975178	0.000336	3.358537	0.568952	-0.000034
1656	1.6467e+02	3.5297	-1.010210	0.000352	3.522368	0.596705	-0.000035
1657	1.6477e+02	3.5180	-1.040760	0.000307	3.071833	0.520383	-0.000031
1658	1.6487e+02	3.5094	-1.075384	0.000348	3.481410	0.589767	-0.000035
1659	1.6497e+02	3.5011	-1.105935	0.000307	3.071833	0.520383	-0.000031
1660	1.6507e+02	3.4858	-1.136893	0.000311	3.112790	0.527321	-0.000031
1661	1.6517e+02	3.4768	-1.171517	0.000348	3.481410	0.589767	-0.000035
1662	1.6527e+02	3.4675	-1.206141	0.000348	3.481410	0.589767	-0.000035
1663	1.6537e+02	3.4621	-1.237507	0.000315	3.153748	0.534259	-0.000032
1664	1.6547e+02	3.4483	-1.271316	0.000340	3.399495	0.575890	-0.000034
1665	1.6557e+02	3.4400	-1.305533	0.000344	3.440453	0.582828	-0.000034
1666	1.6567e+02	3.4268	-1.334047	0.000287	2.867044	0.485690	-0.000029
1667	1.6577e+02	3.4196	-1.368671	0.000348	3.481410	0.589767	-0.000035
1668	1.6587e+02	3.4097	-1.401258	0.000328	3.276622	0.555075	-0.000033
1669	1.6597e+02	3.3994	-1.432624	0.000315	3.153748	0.534259	-0.000032
1670	1.6607e+02	3.3882	-1.463174	0.000307	3.071833	0.520383	-0.000031
1671	1.6616e+02	3.3775	-1.495762	0.000328	3.276622	0.555075	-0.000033
1672	1.6626e+02	3.3717	-1.529571	0.000340	3.399495	0.575890	-0.000034
1673	1.6636e+02	3.3585	-1.560937	0.000315	3.153748	0.534259	-0.000032
1674	1.6646e+02	3.3523	-1.590673	0.000299	2.989917	0.506506	-0.000030
1675	1.6656e+02	3.3392	-1.621631	0.000311	3.112790	0.527321	-0.000031
1676	1.6666e+02	3.3289	-1.650552	0.000291	2.908002	0.492629	-0.000029
1677	1.6676e+02	3.3224	-1.683547	0.000332	3.317579	0.562013	-0.000033
1678	1.6686e+02	3.3104	-1.710024	0.000266	2.662255	0.450998	-0.000027
1679	1.6696e+02	3.2990	-1.745055	0.000352	3.522368	0.596705	-0.000035
1680	1.6706e+02	3.2891	-1.773569	0.000287	2.867044	0.485690	-0.000029
1681	1.6716e+02	3.2786	-1.805750	0.000324	3.235664	0.548136	-0.000032
1682	1.6726e+02	3.2715	-1.836300	0.000307	3.071833	0.520383	-0.000031
1683	1.6736e+02	3.2600	-1.866444	0.000303	3.030875	0.513444	-0.000030
1684	1.6746e+02	3.2510	-1.901068	0.000348	3.481410	0.589767	-0.000035
1685	1.6756e+02	3.2424	-1.938136	0.000373	3.727157	0.631397	-0.000037
1686	1.6766e+02	3.2297	-1.965428	0.000274	2.744171	0.464875	-0.000027
1687	1.6776e+02	3.2180	-2.000867	0.000356	3.563326	0.603644	-0.000036
1688	1.6786e+02	3.2111	-2.031010	0.000303	3.030875	0.513444	-0.000030
1689	1.6796e+02	3.1997	-2.068078	0.000373	3.727157	0.631397	-0.000037
1690	1.6806e+02	3.1884	-2.099851	0.000319	3.194706	0.541198	-0.000032
1691	1.6816e+02	3.1819	-2.127143	0.000274	2.744171	0.464875	-0.000027
1692	1.6825e+02	3.1690	-2.157693	0.000307	3.071833	0.520383	-0.000031
1693	1.6835e+02	3.1616	-2.194354	0.000369	3.686199	0.624459	-0.000037
1694	1.6845e+02	3.1462	-2.224905	0.000307	3.071833	0.520383	-0.000031
1695	1.6855e+02	3.1396	-2.259936	0.000352	3.522368	0.596705	-0.000035
1696	1.6865e+02	3.1319	-2.293746	0.000340	3.399495	0.575890	-0.000034
1697	1.6875e+02	3.1203	-2.325111	0.000315	3.153748	0.534259	-0.000032
1698	1.6885e+02	3.1112	-2.359328	0.000344	3.440453	0.582828	-0.000034
1699	1.6895e+02	3.1001	-2.389064	0.000299	2.989917	0.506506	-0.000030
1700	1.6905e+02	3.0903	-2.420022	0.000311	3.112790	0.527321	-0.000031
1701	1.6915e+02	3.0799	-2.454646	0.000348	3.481410	0.589767	-0.000035
1702	1.6925e+02	3.0687	-2.481531	0.000270	2.703213	0.457937	-0.000027
1703	1.6935e+02	3.0595	-2.510452	0.000291	2.908002	0.492629	-0.000029
1704	1.6945e+02	3.0518	-2.545891	0.000356	3.563326	0.603644	-0.000036
1705	1.6955e+02	3.0395	-2.573183	0.000274	2.744171	0.464875	-0.000027
1706	1.6965e+02	3.0310	-2.604548	0.000315	3.153748	0.534259	-0.000032
1707	1.6975e+02	3.0210	-2.635506	0.000311	3.112790	0.527321	-0.000031
1708	1.6985e+02	3.0099	-2.661169	0.000258	2.580339	0.437121	-0.000026
1709	1.6995e+02	3.0008	-2.694978	0.000340	3.399495	0.575890	-0.000034
1710	1.7005e+02	2.9894	-2.724714	0.000299	2.989917	0.506506	-0.000030
1711	1.7015e+02	2.9800	-2.754450	0.000299	2.989917	0.506506	-0.000030
1712	1.7024e+02	2.9736	-2.784186	0.000299	2.989917	0.506506	-0.000030
1713	1.7034e+02	2.9607	-2.811886	0.000279	2.785128	0.471814	-0.000028
1714	1.7044e+02	2.9507	-2.844473	0.000328	3.276622	0.555075	-0.000033
1715	1.7054e+02	2.9427	-2.874209	0.000299	2.989917	0.506506	-0.000030
1716	1.7064e+02	2.9321	-2.905167	0.000311	3.112790	0.527321	-0.000031
1717	1.7074e+02	2.9204	-2.931644	0.000266	2.662255	0.450998	-0.000027
1718	1.7084e+02	2.9121	-2.960566	0.000291	2.908002	0.492629	-0.000029
1719	1.7094e+02	2.8984	-2.990709	0.000303	3.030875	0.513444	-0.000030
1720	1.7104e+02	2.8911	-3.022074	0.000315	3.153748	0.534259	-0.000032
1721	1.7114e+02	2.8806	-3.050181	0.000283	2.826086	0.478752	-0.000028
1722	1.7124e+02	2.8713	-3.082768	0.000328	3.276622	0.555075	-0.000033
1723	1.7134e+02	2.8638	-3.110468	0.000279	2.785128	0.471814	-0.000028
1724	1.7144e+02	2.8545	-3.143055	0.000328	3.276622	0.555075	-0.000033
1725	1.7154e+02	2.8402	-3.168718	0.000258	2.580339	0.437121	-0.000026
1726	1.7164e+02	2.8301	-3.202934	0.000344	3.440453	0.582828	-0.000034
1727	1.7174e+02	2.8237	-3.228597	0.000258	2.580339	0.437121	-0.000026
1728	1.7184e+02	2.8112	-3.257518	0.000291	2.908002	0.492629	-0.000029
1729	1.7194e+02	2.8022	-3.289291	0.000319	3.194706	0.541198	-0.000032
1730	1.7204e+02	2.7905	-3.319842	0.000307	3.071833	0.520383	-0.000031
1731	1.7213e+02	2.7847	-3.349170	0.000295	2.948959	0.499567	-0.000029
1732	1.7223e+02	2.7719	-3.378906	0.000299	2.989917	0.506506	-0.000030
1733	1.7233e+02	2.7593	-3.404976	0.000262	2.621297	0.444060	-0.000026
1734	1.7243e+02	2.7500	-3.431046	0.000262	2.621297	0.444060	-0.000026
1735	1.7253e+02	2.7428	-3.461597	0.000307	3.071833	0.520383	-0.000031
1736	1.7263e+02	2.7318	-3.487260	0.000258	2.580339	0.437121	-0.000026
1737	1.7273e+02	2.7243	-3.513737	0.000266	2.662255	0.450998	-0.000027
1738	1.7283e+02	2.7120	-3.543880	0.000303	3.030875	0.513444	-0.000030
1739	1.7293e+02	2.7028	-3.568321	0.000246	2.457466	0.416306	-0.000025
1740	1.7303e+02	2.6902	-3.596020	0.000279	2.785128	0.471814	-0.000028
1741	1.7313e+02	2.6820	-3.623719	0.000279	2.785128	0.471814	-0.000028
1742	1.7323e+02	2.6727	-3.655085	0.000315	3.153748	0.534259	-0.000032
1743	1.7333e+02	2.6638	-3.684006	0.000291	2.908002	0.492629	-0.000029
1744	1.7343e+02	2.6513	-3.707632	0.000238	2.375551	0.402429	-0.000024
1745	1.7353e+02	2.6417	-3.741034	0.000336	3.358537	0.568952	-0.000034
1746	1.7363e+02	2.6333	-3.765475	0.000246	2.457466	0.416306	-0.000025
1747	1.7373e+02	2.6222	-3.791137	0.000258	2.580339	0.437121	-0.000026
1748	1.7383e+02	2.6088	-3.820058	0.000291	2.908002	0.492629	-0.000029
1749	1.7393e+02	2.6009	-3.846128	0.000262	2.621297	0.444060	-0.000026
1750	1.7403e+02	2.5926	-3.877494	0.000315	3.153748	0.534259	-0.000032
1751	1.7413e+02	2.5829	-3.903971	0.000266	2.662255	0.450998	-0.000027
1752	1.7422e+02	2.5729	-3.932892	0.000291	2.908002	0.492629	-0.000029
1753	1.7432e+02	2.5634	-3.962221	0.000295	2.948959	0.499567	-0.000029
1754	1.7442e+02	2.5548	-3.989513	0.000274	2.744171	0.464875	-0.000027
1755	1.7452e+02	2.5452	-4.021286	0.000319	3.194706	0.541198	-0.000032
1756	1.7462e+02	2.5323	-4.057132	0.000360	3.604284	0.610582	-0.000036
1757	1.7472e+02	2.5202	-4.080350	0.000233	2.334593	0.395491	-0.000023
1758	1.7482e+02	2.5114	-4.109679	0.000295	2.948959	0.499567	-0.000029
1759	1.7492e+02	2.5060	-4.141044	0.000315	3.153748	0.534259	-0.000032
1760	1.7502e+02	2.4913	-4.174039	0.000332	3.317579	0.562013	-0.000033
1761	1.7512e+02	2.4829	-4.203775	0.000299	2.989917	0.506506	-0.000030
1762	1.7522e+02	2.4743	-4.235955	0.000324	3.235664	0.548136	-0.000032
1763	1.7532e+02	2.4625	-4.264062	0.000283	2.826086	0.478752	-0.000028
1764	1.7542e+02	2.4528	-4.296649	0.000328	3.276622	0.555075	-0.000033
1765	1.7552e+02	2.4430	-4.325978	0.000295	2.948959	0.499567	-0.000029
1766	1.7562e+02	2.4323	-4.353270	0.000274	2.744171	0.464875	-0.000027
1767	1.7572e+02	2.4236	-4.388709	0.000356	3.563326	0.603644	-0.000036
1768	1.7582e+02	2.4165	-4.411927	0.000233	2.334593	0.395491	-0.000023
1769	1.7592e+02	2.4056	-4.440441	0.000287	2.867044	0.485690	-0.000029
1770	1.7602e+02	2.3966	-4.472214	0.000319	3.194706	0.541198	-0.000032
1771	1.7612e+02	2.3832	-4.500728	0.000287	2.867044	0.485690	-0.000029
1772	1.7621e+02	2.3748	-4.534130	0.000336	3.358537	0.568952	-0.000034
1773	1.7631e+02	2.3621	-4.556941	0.000229	2.293635	0.388552	-0.000023
1774	1.7641e+02	2.3531	-4.591565	0.000348	3.481410	0.589767	-0.000035
1775	1.7651e+02	2.3460	-4.620894	0.000295	2.948959	0.499567	-0.000029
1776	1.7661e+02	2.3354	-4.649408	0.000287	2.867044	0.485690	-0.000029
1777	1.7671e+02	2.3235	-4.680366	0.000311	3.112790	0.527321	-0.000031
1778	1.7681e+02	2.3128	-4.712139	0.000319	3.194706	0.541198	-0.000032
1779	1.7691e+02	2.3017	-4.738209	0.000262	2.621297	0.444060	-0.000026
1780	1.7701e+02	2.2932	-4.769574	0.000315	3.153748	0.534259	-0.000032
1781	1.7711e+02	2.2840	-4.794829	0.000254	2.539382	0.430183	-0.000025
1782	1.7721e+02	2.2723	-4.827009	0.000324	3.235664	0.548136	-0.000032
1783	1.7731e+02	2.2638	-4.857967	0.000311	3.112790	0.527321	-0.000031
1784	1.7741e+02	2.2537	-4.886889	0.000291	2.908002	0.492629	-0.000029
1785	1.7751e+02	2.2433	-4.920291	0.000336	3.358537	0.568952	-0.000034
1786	1.7761e+02	2.2364	-4.951656	0.000315	3.153748	0.534259	-0.000032
1787	1.7771e+02	2.2243	-4.984243	0.000328	3.276622	0.555075	-0.000033
1788	1.7781e+02	2.2124	-5.016424	0.000324	3.235664	0.548136	-0.000032
1789	1.7791e+02	2.2052	-5.048196	0.000319	3.194706	0.541198	-0.000032
1790	1.7801e+02	2.1947	-5.084857	0.000369	3.686199	0.624459	-0.000037
1791	1.7810e+02	2.1851	-5.117037	0.000324	3.235664	0.548136	-0.000032
1792	1.7820e+02	2.1736	-5.150847	0.000340	3.399495	0.575890	-0.000034
1793	1.7830e+02	2.1642	-5.181805	0.000311	3.112790	0.527321	-0.000031
1794	1.7840e+02	2.1561	-5.211541	0.000299	2.989917	0.506506	-0.000030
1795	1.7850e+02	2.1458	-5.245757	0.000344	3.440453	0.582828	-0.000034
1796	1.7860e+02	2.1366	-5.278752	0.000332	3.317579	0.562013	-0.000033
1797	1.7870e+02	2.1245	-5.317042	0.000385	3.850030	0.652213	-0.000038
1798	1.7880e+02	2.1176	-5.343520	0.000266	2.662255	0.450998	-0.000027
1799	1.7890e+02	2.1050	-5.378551	0.000352	3.522368	0.596705	-0.000035
1800	1.7900e+02	2.0942	-5.409509	0.000311	3.112790	0.527321	-0.000031
1801	1.7910e+02	2.0884	-5.444541	0.000352	3.522368	0.596705	-0.000035
1802	1.7920e+02	2.0754	-5.478350	0.000340	3.399495	0.575890	-0.000034
1803	1.7930e+02	2.0657	-5.513789	0.000356	3.563326	0.603644	-0.000036
1804	1.7940e+02	2.0571	-5.545154	0.000315	3.153748	0.534259	-0.000032
1805	1.7950e+02	2.0464	-5.580186	0.000352	3.522368	0.596705	-0.000035
1806	1.7960e+02	2.0328	-5.613995	0.000340	3.399495	0.575890	-0.000034
1807	1.7970e+02	2.0264	-5.648212	0.000344	3.440453	0.582828	-0.000034
1808	1.7980e+02	2.0150	-5.683243	0.000352	3.522368	0.596705	-0.000035
1809	1.7990e+02	2.0058	-5.715831	0.000328	3.276622	0.555075	-0.000033
1810	1.8000e+02	1.9990	-5.749640	0.000340	3.399495	0.575890	-0.000034
1811	1.8009e+02	1.9875	-5.783450	0.000340	3.399495	0.575890	-0.000034
1812	1.8019e+02	1.9764	-5.816444	0.000332	3.317579	0.562013	-0.000033
1813	1.8029e+02	1.9671	-5.853512	0.000373	3.727157	0.631397	-0.000037
1814	1.8039e+02	1.9554	-5.885285	0.000319	3.194706	0.541198	-0.000032
1815	1.8049e+02	1.9488	-5.919909	0.000348	3.481410	0.589767	-0.000035
1816	1.8059e+02	1.9382	-5.957385	0.000377	3.768115	0.638336	-0.000038
1817	1.8069e+02	1.9279	-5.988343	0.000311	3.112790	0.527321	-0.000031
1818	1.8079e+02	1.9169	-6.026633	0.000385	3.850030	0.652213	-0.000038
1819	1.8089e+02	1.9076	-6.062887	0.000365	3.645241	0.617521	-0.000036
1820	1.8099e+02	1.8946	-6.101991	0.000393	3.931946	0.666090	-0.000039
1821	1.8109e+02	1.8832	-6.140282	0.000385	3.850030	0.652213	-0.000038
1822	1.8119e+02	1.8764	-6.176942	0.000369	3.686199	0.624459	-0.000037
1823	1.8129e+02	1.8652	-6.212789	0.000360	3.604284	0.610582	-0.000036
1824	1.8139e+02	1.8564	-6.247413	0.000348	3.481410	0.589767	-0.000035
1825	1.8149e+02	1.8479	-6.282852	0.000356	3.563326	0.603644	-0.000036
1826	1.8159e+02	1.8365	-6.318290	0.000356	3.563326	0.603644	-0.000036
1827	1.8169e+02	1.8276	-6.354544	0.000365	3.645241	0.617521	-0.000036
1828	1.8179e+02	1.8166	-6.395685	0.000414	4.136735	0.700782	-0.000041
1829	1.8189e+02	1.8067	-6.429495	0.000340	3.399495	0.575890	-0.000034
1830	1.8199e+02	1.7950	-6.467785	0.000385	3.850030	0.652213	-0.000038
1831	1.8209e+02	1.7870	-6.504039	0.000365	3.645241	0.617521	-0.000036
1832	1.8218e+02	1.7783	-6.539477	0.000356	3.563326	0.603644	-0.000036
1833	1.8228e+02	1.7673	-6.578175	0.000389	3.890988	0.659151	-0.000039
1834	1.8238e+02	1.7590	-6.614428	0.000365	3.645241	0.617521	-0.000036
1835	1.8248e+02	1.7466	-6.652719	0.000385	3.850030	0.652213	-0.000038
1836	1.8258e+02	1.7386	-6.685713	0.000332	3.317579	0.562013	-0.000033
1837	1.8268e+02	1.7289	-6.720745	0.000352	3.522368	0.596705	-0.000035
1838	1.8278e+02	1.7180	-6.754147	0.000336	3.358537	0.568952	-0.000034
1839	1.8288e+02	1.7046	-6.794066	0.000401	4.013861	0.679967	-0.000040
1840	1.8298e+02	1.6982	-6.828691	0.000348	3.481410	0.589767	-0.000035
1841	1.8308e+02	1.6859	-6.864129	0.000356	3.563326	0.603644	-0.000036
1842	1.8318e+02	1.6760	-6.896717	0.000328	3.276622	0.555075	-0.000033
1843	1.8328e+02	1.6696	-6.929711	0.000332	3.317579	0.562013	-0.000033
1844	1.8338e+02	1.6579	-6.964743	0.000352	3.522368	0.596705	-0.000035
1845	1.8348e+02	1.6489	-7.000996	0.000365	3.645241	0.617521	-0.000036
1846	1.8358e+02	1.6383	-7.033991	0.000332	3.317579	0.562013	-0.000033
1847	1.8368e+02	1.6280	-7.068615	0.000348	3.481410	0.589767	-0.000035
1848	1.8378e+02	1.6173	-7.103647	0.000352	3.522368	0.596705	-0.000035
1849	1.8388e+02	1.6066	-7.140715	0.000373	3.727157	0.631397	-0.000037
1850	1.8398e+02	1.5977	-7.178190	0.000377	3.768115	0.638336	-0.000038
1851	1.8407e+02	1.5881	-7.209963	0.000319	3.194706	0.541198	-0.000032
1852	1.8417e+02	1.5744	-7.247439	0.000377	3.768115	0.638336	-0.000038
1853	1.8427e+02	1.5681	-7.283692	0.000365	3.645241	0.617521	-0.000036
1854	1.8437e+02	1.5570	-7.322390	0.000389	3.890988	0.659151	-0.000039
1855	1.8447e+02	1.5474	-7.360273	0.000381	3.809073	0.645274	-0.000038
1856	1.8457e+02	1.5395	-7.395711	0.000356	3.563326	0.603644	-0.000036
1857	1.8467e+02	1.5278	-7.430335	0.000348	3.481410	0.589767	-0.000035
1858	1.8477e+02	1.5154	-7.467811	0.000377	3.768115	0.638336	-0.000038
1859	1.8487e+02	1.5078	-7.506916	0.000393	3.931946	0.666090	-0.000039
1860	1.8497e+02	1.4981	-7.540725	0.000340	3.399495	0.575890	-0.000034
1861	1.8507e+02	1.4877	-7.574942	0.000344	3.440453	0.582828	-0.000034
1862	1.8517e+02	1.4780	-7.613232	0.000385	3.850030	0.652213	-0.000038
1863	1.8527e+02	1.4695	-7.650708	0.000377	3.768115	0.638336	-0.000038
1864	1.8537e+02	1.4565	-7.684517	0.000340	3.399495	0.575890	-0.000034
1865	1.8547e+02	1.4487	-7.721178	0.000369	3.686199	0.624459	-0.000037
1866	1.8557e+02	1.4382	-7.760690	0.000397	3.972904	0.673028	-0.000040
1867	1.8567e+02	1.4288	-7.794907	0.000344	3.440453	0.582828	-0.000034
1868	1.8577e+02	1.4165	-7.831975	0.000373	3.727157	0.631397	-0.000037
1869	1.8587e+02	1.4105	-7.865377	0.000336	3.358537	0.568952	-0.000034
1870	1.8597e+02	1.3972	-7.901631	0.000365	3.645241	0.617521	-0.000036
1871	1.8606e+02	1.3885	-7.935848	0.000344	3.440453	0.582828	-0.000034
1872	1.8616e+02	1.3795	-7.970064	0.000344	3.440453	0.582828	-0.000034
1873	1.8626e+02	1.3671	-8.001837	0.000319	3.194706	0.541198	-0.000032
1874	1.8636e+02	1.3593	-8.036869	0.000352	3.522368	0.596705	-0.000035
1875	1.8646e+02	1.3499	-8.073529	0.000369	3.686199	0.624459	-0.000037
1876	1.8656e+02	1.3408	-8.105709	0.000324	3.235664	0.548136	-0.000032
1877	1.8666e+02	1.3287	-8.141148	0.000356	3.563326	0.603644	-0.000036
1878	1.8676e+02	1.3178	-8.174143	0.000332	3.317579	0.562013	-0.000033
1879	1.8686e+02	1.3077	-8.207952	0.000340	3.399495	0.575890	-0.000034
1880	1.8696e+02	1.2992	-8.241762	0.000340	3.399495	0.575890	-0.000034
1881	1.8706e+02	1.2900	-8.274349	0.000328	3.276622	0.555075	-0.000033
1882	1.8716e+02	1.2791	-8.310603	0.000365	3.645241	0.617521	-0.000036
1883	1.8726e+02	1.2680	-8.344820	0.000344	3.440453	0.582828	-0.000034
1884	1.8736e+02	1.2578	-8.375370	0.000307	3.071833	0.520383	-0.000031
1885	1.8746e+02	1.2490	-8.407143	0.000319	3.194706	0.541198	-0.000032
1886	1.8756e+02	1.2437	-8.441360	0.000344	3.440453	0.582828	-0.000034
1887	1.8766e+02	1.2290	-8.478021	0.000369	3.686199	0.624459	-0.000037
1888	1.8776e+02	1.2193	-8.513052	0.000352	3.522368	0.596705	-0.000035
1889	1.8786e+02	1.2103	-8.540751	0.000279	2.785128	0.471814	-0.000028
1890	1.8796e+02	1.2014	-8.577412	0.000369	3.686199	0.624459	-0.000037
1891	1.8806e+02	1.1902	-8.610000	0.000328	3.276622	0.555075	-0.000033
1892	1.8815e+02	1.1793	-8.643402	0.000336	3.358537	0.568952	-0.000034
1893	1.8825e+02	1.1702	-8.678026	0.000348	3.481410	0.589767	-0.000035
1894	1.8835e+02	1.1610	-8.712242	0.000344	3.440453	0.582828	-0.000034
1895	1.8845e+02	1.1509	-8.746867	0.000348	3.481410	0.589767	-0.000035
1896	1.8855e+02	1.1411	-8.782305	0.000356	3.563326	0.603644	-0.000036
1897	1.8865e+02	1.1302	-8.812449	0.000303	3.030875	0.513444	-0.000030
1898	1.8875e+02	1.1182	-8.845444	0.000332	3.317579	0.562013	-0.000033
1899	1.8885e+02	1.1100	-8.883326	0.000381	3.809073	0.645274	-0.000038
1900	1.8895e+02	1.0966	-8.914692	0.000315	3.153748	0.534259	-0.000032
1901	1.8905e+02	1.0928	-8.944835	0.000303	3.030875	0.513444	-0.000030
1902	1.8915e+02	1.0795	-8.981089	0.000365	3.645241	0.617521	-0.000036
1903	1.8925e+02	1.0709	-9.010417	0.000295	2.948959	0.499567	-0.000029
1904	1.8935e+02	1.0582	-9.040561	0.000303	3.030875	0.513444	-0.000030
1905	1.8945e+02	1.0526	-9.071111	0.000307	3.071833	0.520383	-0.000031
1906	1.8955e+02	1.0413	-9.103699	0.000328	3.276622	0.555075	-0.000033
1907	1.8965e+02	1.0307	-9.137508	0.000340	3.399495	0.575890	-0.000034
1908	1.8975e+02	1.0221	-9.168059	0.000307	3.071833	0.520383	-0.000031
1909	1.8985e+02	1.0087	-9.200239	0.000324	3.235664	0.548136	-0.000032
1910	1.8995e+02	0.9995	-9.232419	0.000324	3.235664	0.548136	-0.000032
1911	1.9004e+02	0.9924	-9.265006	0.000328	3.276622	0.555075	-0.000033
1912	1.9014e+02	0.9817	-9.294335	0.000295	2.948959	0.499567	-0.000029
1913	1.9024e+02	0.9711	-9.329774	0.000356	3.563326	0.603644	-0.000036
1914	1.9034e+02	0.9643	-9.359917	0.000303	3.030875	0.513444	-0.000030
1915	1.9044e+02	0.9510	-9.393727	0.000340	3.399495	0.575890	-0.000034
1916	1.9054e+02	0.9394	-9.426721	0.000332	3.317579	0.562013	-0.000033
1917	1.9064e+02	0.9313	-9.458494	0.000319	3.194706	0.541198	-0.000032
1918	1.9074e+02	0.9202	-9.489452	0.000311	3.112790	0.527321	-0.000031
1919	1.9084e+02	0.9129	-9.519595	0.000303	3.030875	0.513444	-0.000030
1920	1.9094e+02	0.9026	-9.559922	0.000405	4.054819	0.686905	-0.000041
1921	1.9104e+02	0.8926	-9.589251	0.000295	2.948959	0.499567	-0.000029
1922	1.9114e+02	0.8813	-9.624282	0.000352	3.522368	0.596705	-0.000035
1923	1.9124e+02	0.8720	-9.660536	0.000365	3.645241	0.617521	-0.000036
1924	1.9134e+02	0.8634	-9.693123	0.000328	3.276622	0.555075	-0.000033
1925	1.9144e+02	0.8502	-9.730599	0.000377	3.768115	0.638336	-0.000038
1926	1.9154e+02	0.8405	-9.758298	0.000279	2.785128	0.471814	-0.000028
1927	1.9164e+02	0.8352	-9.794959	0.000369	3.686199	0.624459	-0.000037
1928	1.9174e+02	0.8196	-9.832842	0.000381	3.809073	0.645274	-0.000038
1929	1.9184e+02	0.8122	-9.868281	0.000356	3.563326	0.603644	-0.000036
1930	1.9194e+02	0.8014	-9.905349	0.000373	3.727157	0.631397	-0.000037
1931	1.9203e+02	0.7915	-9.937122	0.000319	3.194706	0.541198	-0.000032
1932	1.9213e+02	0.7809	-9.970931	0.000340	3.399495	0.575890	-0.000034
1933	1.9223e+02	0.7700	-10.005555	0.000348	3.481410	0.589767	-0.000035
1934	1.9233e+02	0.7612	-10.038142	0.000328	3.276622	0.555075	-0.000033
1935	1.9243e+02	0.7522	-10.072767	0.000348	3.481410	0.589767	-0.000035
1936	1.9253e+02	0.7423	-10.104947	0.000324	3.235664	0.548136	-0.000032
1937	1.9263e+02	0.7300	-10.140385	0.000356	3.563326	0.603644	-0.000036
1938	1.9273e+02	0.7214	-10.175824	0.000356	3.563326	0.603644	-0.000036
1939	1.9283e+02	0.7114	-10.207190	0.000315	3.153748	0.534259	-0.000032
1940	1.9293e+02	0.7043	-10.245073	0.000381	3.809073	0.645274	-0.000038
1941	1.9303e+02	0.6908	-10.273994	0.000291	2.908002	0.492629	-0.000029
1942	1.9313e+02	0.6807	-10.311877	0.000381	3.809073	0.645274	-0.000038
1943	1.9323e+02	0.6724	-10.345279	0.000336	3.358537	0.568952	-0.000034
1944	1.9333e+02	0.6625	-10.379088	0.000340	3.399495	0.575890	-0.000034
1945	1.9343e+02	0.6505	-10.416156	0.000373	3.727157	0.631397	-0.000037
1946	1.9353e+02	0.6429	-10.447114	0.000311	3.112790	0.527321	-0.000031
1947	1.9363e+02	0.6333	-10.479294	0.000324	3.235664	0.548136	-0.000032
1948	1.9373e+02	0.6229	-10.515548	0.000365	3.645241	0.617521	-0.000036
1949	1.9383e+02	0.6139	-10.548950	0.000336	3.358537	0.568952	-0.000034
1950	1.9393e+02	0.6019	-10.581130	0.000324	3.235664	0.548136	-0.000032
1951	1.9403e+02	0.5939	-10.618606	0.000377	3.768115	0.638336	-0.000038
1952	1.9412e+02	0.5829	-10.654859	0.000365	3.645241	0.617521	-0.000036
1953	1.9422e+02	0.5752	-10.689483	0.000348	3.481410	0.589767	-0.000035
1954	1.9432e+02	0.5605	-10.725737	0.000365	3.645241	0.617521	-0.000036
1955	1.9442e+02	0.5539	-10.763212	0.000377	3.768115	0.638336	-0.000038
1956	1.9452e+02	0.5450	-10.801502	0.000385	3.850030	0.652213	-0.000038
1957	1.9462e+02	0.5330	-10.837756	0.000365	3.645241	0.617521	-0.000036
1958	1.9472e+02	0.5225	-10.876046	0.000385	3.850030	0.652213	-0.000038
1959	1.9482e+02	0.5151	-10.914744	0.000389	3.890988	0.659151	-0.000039
1960	1.9492e+02	0.5024	-10.951812	0.000373	3.727157	0.631397	-0.000037
1961	1.9502e+02	0.4932	-10.989695	0.000381	3.809073	0.645274	-0.000038
1962	1.9512e+02	0.4836	-11.026356	0.000369	3.686199	0.624459	-0.000037
1963	1.9522e+02	0.4735	-11.063424	0.000373	3.727157	0.631397	-0.000037
1964	1.9532e+02	0.4636	-11.101307	0.000381	3.809073	0.645274	-0.000038
1965	1.9542e+02	0.4519	-11.135523	0.000344	3.440453	0.582828	-0.000034
1966	1.9552e+02	0.4416	-11.177072	0.000418	4.177692	0.707720	-0.000042
1967	1.9562e+02	0.4335	-11.210882	0.000340	3.399495	0.575890	-0.000034
1968	1.9572e+02	0.4244	-11.252431	0.000418	4.177692	0.707720	-0.000042
1969	1.9582e+02	0.4147	-11.290313	0.000381	3.809073	0.645274	-0.000038
1970	1.9592e+02	0.4031	-11.331862	0.000418	4.177692	0.707720	-0.000042
1971	1.9601e+02	0.3957	-11.363228	0.000315	3.153748	0.534259	-0.000032
1972	1.9611e+02	0.3849	-11.403147	0.000401	4.013861	0.679967	-0.000040
1973	1.9621e+02	0.3748	-11.443067	0.000401	4.013861	0.679967	-0.000040
1974	1.9631e+02	0.3642	-11.482987	0.000401	4.013861	0.679967	-0.000040
1975	1.9641e+02	0.3539	-11.521277	0.000385	3.850030	0.652213	-0.000038
1976	1.9651e+02	0.3429	-11.559160	0.000381	3.809073	0.645274	-0.000038
1977	1.9661e+02	0.3326	-11.597857	0.000389	3.890988	0.659151	-0.000039
1978	1.9671e+02	0.3243	-11.636962	0.000393	3.931946	0.666090	-0.000039
1979	1.9681e+02	0.3163	-11.676882	0.000401	4.013861	0.679967	-0.000040
1980	1.9691e+02	0.3039	-11.711506	0.000348	3.481410	0.589767	-0.000035
1981	1.9701e+02	0.2937	-11.750611	0.000393	3.931946	0.666090	-0.000039
1982	1.9711e+02	0.2852	-11.791345	0.000410	4.095777	0.693843	-0.000041
1983	1.9721e+02	0.2746	-11.834523	0.000434	4.341524	0.735474	-0.000043
1984	1.9731e+02	0.2644	-11.870777	0.000365	3.645241	0.617521	-0.000036
1985	1.9741e+02	0.2547	-11.911918	0.000414	4.136735	0.700782	-0.000041
1986	1.9751e+02	0.2425	-11.951430	0.000397	3.972904	0.673028	-0.000040
1987	1.9761e+02	0.2395	-11.995423	0.000442	4.423439	0.749351	-0.000044
1988	1.9771e+02	0.2261	-12.036158	0.000410	4.095777	0.693843	-0.000041
1989	1.9781e+02	0.2151	-12.078929	0.000430	4.300566	0.728536	-0.000043
1990	1.9791e+02	0.2052	-12.119663	0.000410	4.095777	0.693843	-0.000041
1991	1.9800e+02	0.1941	-12.161212	0.000418	4.177692	0.707720	-0.000042
1992	1.9810e+02	0.1852	-12.201946	0.000410	4.095777	0.693843	-0.000041
1993	1.9820e+02	0.1744	-12.249198	0.000475	4.751101	0.804858	-0.000047
1994	1.9830e+02	0.1650	-12.282600	0.000336	3.358537	0.568952	-0.000034
1995	1.9840e+02	0.1532	-12.324964	0.000426	4.259608	0.721597	-0.000043
1996	1.9850e+02	0.1454	-12.367735	0.000430	4.300566	0.728536	-0.000043
1997	1.9860e+02	0.1353	-12.410098	0.000426	4.259608	0.721597	-0.000043
1998	1.9870e+02	0.1206	-12.453276	0.000434	4.341524	0.735474	-0.000043
1999	1.9880e+02	0.1153	-12.498084	0.000451	4.505355	0.763228	-0.000045
2000	1.9890e+02	0.1037	-12.532708	0.000348	3.481410	0.589767	-0.000035
2001	1.9900e+02	0.0937	-12.577516	0.000451	4.505355	0.763228	-0.000045
2002	1.9910e+02	0.0845	-12.622731	0.000455	4.546312	0.770166	-0.000045
2003	1.9920e+02	0.0747	-12.658577	0.000360	3.604284	0.610582	-0.000036
2004	1.9930e+02	0.0644	-12.704607	0.000463	4.628228	0.784043	-0.000046
2005	1.9940e+02	0.0538	-12.740860	0.000365	3.645241	0.617521	-0.000036
2006	1.9950e+02	0.0469	-12.780780	0.000401	4.013861	0.679967	-0.000040
2007	1.9960e+02	0.0326	-12.821921	0.000414	4.136735	0.700782	-0.000041
2008	1.9970e+02	0.0266	-12.860619	0.000389	3.890988	0.659151	-0.000039
2009	1.9980e+02	0.0154	-12.897687	0.000373	3.727157	0.631397	-0.000037
2010	1.9990e+02	0.0088	-12.940051	0.000426	4.259608	0.721597	-0.000043
2011	2.0000e+02	-0.0009	-12.974675	0.000426	4.259608	0.721597	-0.000035

PMax (uC/cm2):	2.87e+01
Pr (uC/cm2):	1.37e+00
-Pr (uC/cm2):	0.00e+00
PLoss (uC/cm2):	0.00e+00
C (Max-Eff) (nF):	2.87e-01
K (Eff):	4.87e+02
Vert. (+/-Pr) Shift (uC/cm2):	6.87e-01
Offset (uC/cm2):	1.43e+01

A (Loop Area - uC/cm2·Volts):	-1.36e-02



Hysteresis Version: 5.48.1 - Radiant Technologies, Inc., 1999 - 9/12/24

