»»»»»»»»»»»»»»»»»»»»»»»»»»»»»»»»»»»» Hysteresis ««««««««««««««««««««««««««««««««««««
»»»  Executed Version:	5.48.1
»»»  Vision Version:	5.48.4 (R)
»»»  Vision Compiled:	9/18/24
»»»  Driver Version:	5.47.0
»»»  Windows Version:	Windows 8 or 8.1
»»»  Processor Information:	x86 (AMD or Intel) - 32 Processors
»»»  Tester Name:	PMF21124-494 (100V)
»»»  Tester S/N:	PMF21124-494
»»»  Internal Amp Type:	100V RevK 270k
»»»  Internal Amp S/N:	iAB2-596/K     
»»»  Execution Count:	1
»»»»»»»»»»»»»»»»»»»»»»»»»»»»»»»»»»»»»»»»»»««««««««««««««««««««««««««««««««««««««««««

Stored:	6/27/2025 - 14:16:13
Configured:	06/27/25 11:23:28 AM
Executed:	06/27/25 02:15:34 PM

»»»»»»»»»»»»»»»»»»»»»»»»»»»»»»»»»»» Sample Info ««««««««««««««««««««««««««««««««««««
Sample Name:	
Lot Name:	
Wafer Name:	
Die Row/Column:	0/0
Capacitor Number:	0
Sample Area (cm2):	1.00e-04
Sample Thickness (microns):	1.50e-01

Amplifier:	Internal

»»»»»»»»»»»»»»»»»»»»»»»»»»»»»»»»»»» Tester Info «««««««««««««««««««««««««««««««««««
Tester Name:	PMF21124-494 (100V)
Tester Serial Number:	PMF21124-494
Return Signal Amp. Level:	1.9 [Index: 2]

»»»»»»»»»»»»»»»»»»»»»»»»»»»»»»»» Hysteresis Info ««««««««««««««««««««««««««««««««««
Task Name:	Hyst-1276
Volts:	10.00
Field:	666.67 (kV/cm)
DCBias:	0.00
DCField:	0.00 (kV/cm)
Hysteresis Period (ms):	2.00e+02
Preset:	Enabled
Preset Delay (ms):	1.00e+03
Profile:	Standard Monopolar

»»»»»»»»»»»»»»»»»»»»»»»»»»»»»»»»»»»»»» Data «««««««««««««««««««««««««««««««««««««««
Points:	2011

Valid Data

Point	Time (ms)	Drive Voltage	Measured Polarization (uC/cm2)	Capacitance (uF)	Normalized Capacitance (uF/cm2)	Dielectric Constant	Instantaneous Current (mA)
   1	0.0000e+00	-0.0051	-14.453328	0.000344	3.438746	0.582539	0.000034
   2	9.9500e-02	0.0026	-14.419112	0.000344	3.438746	0.582539	0.000034
   3	1.9900e-01	0.0172	-14.386524	0.000327	3.274997	0.554799	0.000033
   4	2.9850e-01	0.0283	-14.354752	0.000319	3.193122	0.540929	0.000032
   5	3.9800e-01	0.0345	-14.322979	0.000319	3.193122	0.540929	0.000032
   6	4.9750e-01	0.0481	-14.293650	0.000295	2.947497	0.499320	0.000029
   7	5.9700e-01	0.0555	-14.257397	0.000364	3.643434	0.617214	0.000036
   8	6.9650e-01	0.0658	-14.227661	0.000299	2.988434	0.506254	0.000030
   9	7.9600e-01	0.0736	-14.193851	0.000340	3.397809	0.575604	0.000034
  10	8.9550e-01	0.0834	-14.162486	0.000315	3.152184	0.533994	0.000032
  11	9.9500e-01	0.0975	-14.128676	0.000340	3.397809	0.575604	0.000034
  12	1.0945e+00	0.1051	-14.098533	0.000303	3.029372	0.513189	0.000030
  13	1.1940e+00	0.1134	-14.066353	0.000323	3.234059	0.547864	0.000032
  14	1.2935e+00	0.1245	-14.035802	0.000307	3.070309	0.520124	0.000031
  15	1.3930e+00	0.1348	-14.004437	0.000315	3.152184	0.533994	0.000032
  16	1.4925e+00	0.1468	-13.967369	0.000373	3.725309	0.631084	0.000037
  17	1.5920e+00	0.1563	-13.931930	0.000356	3.561559	0.603344	0.000036
  18	1.6915e+00	0.1665	-13.900157	0.000319	3.193122	0.540929	0.000032
  19	1.7910e+00	0.1725	-13.866755	0.000336	3.356872	0.568669	0.000034
  20	1.8905e+00	0.1830	-13.834168	0.000327	3.274997	0.554799	0.000033
  21	1.9900e+00	0.1952	-13.797507	0.000368	3.684371	0.624149	0.000037
  22	2.0895e+00	0.2067	-13.766956	0.000307	3.070309	0.520124	0.000031
  23	2.1890e+00	0.2160	-13.725815	0.000413	4.134683	0.700434	0.000041
  24	2.2885e+00	0.2223	-13.695671	0.000303	3.029372	0.513189	0.000030
  25	2.3880e+00	0.2359	-13.661454	0.000344	3.438746	0.582539	0.000034
  26	2.4875e+00	0.2435	-13.626830	0.000348	3.479684	0.589474	0.000035
  27	2.5870e+00	0.2565	-13.588540	0.000385	3.848121	0.651889	0.000038
  28	2.6865e+00	0.2649	-13.554731	0.000340	3.397809	0.575604	0.000034
  29	2.7860e+00	0.2739	-13.521736	0.000332	3.315934	0.561734	0.000033
  30	2.8855e+00	0.2857	-13.485890	0.000360	3.602496	0.610279	0.000036
  31	2.9850e+00	0.2963	-13.449229	0.000368	3.684371	0.624149	0.000037
  32	3.0845e+00	0.3063	-13.415420	0.000340	3.397809	0.575604	0.000034
  33	3.1840e+00	0.3145	-13.384054	0.000315	3.152184	0.533994	0.000032
  34	3.2835e+00	0.3255	-13.352281	0.000319	3.193122	0.540929	0.000032
  35	3.3830e+00	0.3349	-13.313991	0.000385	3.848121	0.651889	0.000038
  36	3.4825e+00	0.3433	-13.278960	0.000352	3.520621	0.596409	0.000035
  37	3.5820e+00	0.3529	-13.250039	0.000291	2.906560	0.492385	0.000029
  38	3.6815e+00	0.3644	-13.218673	0.000315	3.152184	0.533994	0.000032
  39	3.7810e+00	0.3747	-13.187715	0.000311	3.111247	0.527059	0.000031
  40	3.8805e+00	0.3825	-13.154313	0.000336	3.356872	0.568669	0.000034
  41	3.9800e+00	0.3943	-13.118467	0.000360	3.602496	0.610279	0.000036
  42	4.0795e+00	0.4050	-13.085879	0.000327	3.274997	0.554799	0.000033
  43	4.1790e+00	0.4140	-13.050441	0.000356	3.561559	0.603344	0.000036
  44	4.2785e+00	0.4238	-13.019075	0.000315	3.152184	0.533994	0.000032
  45	4.3780e+00	0.4342	-12.988525	0.000307	3.070309	0.520124	0.000031
  46	4.4775e+00	0.4436	-12.948605	0.000401	4.011871	0.679629	0.000040
  47	4.5770e+00	0.4535	-12.918869	0.000299	2.988434	0.506254	0.000030
  48	4.6765e+00	0.4617	-12.887096	0.000319	3.193122	0.540929	0.000032
  49	4.7760e+00	0.4725	-12.851657	0.000356	3.561559	0.603344	0.000036
  50	4.8755e+00	0.4823	-12.818255	0.000336	3.356872	0.568669	0.000034
  51	4.9750e+00	0.4942	-12.785261	0.000332	3.315934	0.561734	0.000033
  52	5.0745e+00	0.5015	-12.751859	0.000336	3.356872	0.568669	0.000034
  53	5.1740e+00	0.5118	-12.718049	0.000340	3.397809	0.575604	0.000034
  54	5.2735e+00	0.5227	-12.683425	0.000348	3.479684	0.589474	0.000035
  55	5.3730e+00	0.5331	-12.648394	0.000352	3.520621	0.596409	0.000035
  56	5.4725e+00	0.5416	-12.608474	0.000401	4.011871	0.679629	0.000040
  57	5.5720e+00	0.5502	-12.573443	0.000352	3.520621	0.596409	0.000035
  58	5.6715e+00	0.5649	-12.538004	0.000356	3.561559	0.603344	0.000036
  59	5.7710e+00	0.5720	-12.505009	0.000332	3.315934	0.561734	0.000033
  60	5.8705e+00	0.5811	-12.470385	0.000348	3.479684	0.589474	0.000035
  61	5.9700e+00	0.5940	-12.437797	0.000327	3.274997	0.554799	0.000033
  62	6.0695e+00	0.6057	-12.399507	0.000385	3.848121	0.651889	0.000038
  63	6.1690e+00	0.6125	-12.365290	0.000344	3.438746	0.582539	0.000034
  64	6.2685e+00	0.6224	-12.329444	0.000360	3.602496	0.610279	0.000036
  65	6.3680e+00	0.6316	-12.294413	0.000352	3.520621	0.596409	0.000035
  66	6.4675e+00	0.6419	-12.257345	0.000373	3.725309	0.631084	0.000037
  67	6.5670e+00	0.6525	-12.219869	0.000377	3.766246	0.638019	0.000038
  68	6.6665e+00	0.6635	-12.181986	0.000381	3.807184	0.644954	0.000038
  69	6.7660e+00	0.6715	-12.147362	0.000348	3.479684	0.589474	0.000035
  70	6.8655e+00	0.6795	-12.112331	0.000352	3.520621	0.596409	0.000035
  71	6.9650e+00	0.6912	-12.075670	0.000368	3.684371	0.624149	0.000037
  72	7.0645e+00	0.7030	-12.043897	0.000319	3.193122	0.540929	0.000032
  73	7.1640e+00	0.7137	-12.003978	0.000401	4.011871	0.679629	0.000040
  74	7.2635e+00	0.7217	-11.972205	0.000319	3.193122	0.540929	0.000032
  75	7.3630e+00	0.7349	-11.931878	0.000405	4.052808	0.686564	0.000041
  76	7.4625e+00	0.7455	-11.897661	0.000344	3.438746	0.582539	0.000034
  77	7.5620e+00	0.7504	-11.861408	0.000364	3.643434	0.617214	0.000036
  78	7.6615e+00	0.7629	-11.824747	0.000368	3.684371	0.624149	0.000037
  79	7.7610e+00	0.7719	-11.786457	0.000385	3.848121	0.651889	0.000038
  80	7.8605e+00	0.7809	-11.755091	0.000315	3.152184	0.533994	0.000032
  81	7.9600e+00	0.7909	-11.714764	0.000405	4.052808	0.686564	0.000041
  82	8.0595e+00	0.8036	-11.675660	0.000393	3.929996	0.665759	0.000039
  83	8.1590e+00	0.8118	-11.636147	0.000397	3.970933	0.672694	0.000040
  84	8.2585e+00	0.8195	-11.601116	0.000352	3.520621	0.596409	0.000035
  85	8.3580e+00	0.8297	-11.559567	0.000418	4.175621	0.707369	0.000042
  86	8.4575e+00	0.8413	-11.522091	0.000377	3.766246	0.638019	0.000038
  87	8.5570e+00	0.8511	-11.490726	0.000315	3.152184	0.533994	0.000032
  88	8.6565e+00	0.8613	-11.447548	0.000434	4.339371	0.735109	0.000043
  89	8.7560e+00	0.8717	-11.415368	0.000323	3.234059	0.547864	0.000032
  90	8.8555e+00	0.8815	-11.370967	0.000446	4.462183	0.755914	0.000045
  91	8.9550e+00	0.8910	-11.338380	0.000327	3.274997	0.554799	0.000033
  92	9.0545e+00	0.9001	-11.300497	0.000381	3.807184	0.644954	0.000038
  93	9.1540e+00	0.9134	-11.260985	0.000397	3.970933	0.672694	0.000040
  94	9.2535e+00	0.9205	-11.217399	0.000438	4.380308	0.742044	0.000044
  95	9.3530e+00	0.9297	-11.180331	0.000373	3.725309	0.631084	0.000037
  96	9.4525e+00	0.9396	-11.141226	0.000393	3.929996	0.665759	0.000039
  97	9.5520e+00	0.9482	-11.107009	0.000344	3.438746	0.582539	0.000034
  98	9.6515e+00	0.9600	-11.071571	0.000356	3.561559	0.603344	0.000036
  99	9.7510e+00	0.9727	-11.033688	0.000381	3.807184	0.644954	0.000038
 100	9.8505e+00	0.9794	-10.992953	0.000409	4.093746	0.693499	0.000041
 101	9.9500e+00	0.9918	-10.958329	0.000348	3.479684	0.589474	0.000035
 102	1.0050e+01	1.0007	-10.925335	0.000332	3.315934	0.561734	0.000033
 103	1.0149e+01	1.0094	-10.887452	0.000381	3.807184	0.644954	0.000038
 104	1.0248e+01	1.0185	-10.849976	0.000377	3.766246	0.638019	0.000038
 105	1.0348e+01	1.0292	-10.814130	0.000360	3.602496	0.610279	0.000036
 106	1.0447e+01	1.0404	-10.779913	0.000344	3.438746	0.582539	0.000034
 107	1.0547e+01	1.0512	-10.741623	0.000385	3.848121	0.651889	0.000038
 108	1.0646e+01	1.0593	-10.705777	0.000360	3.602496	0.610279	0.000036
 109	1.0746e+01	1.0681	-10.672375	0.000336	3.356872	0.568669	0.000034
 110	1.0845e+01	1.0799	-10.638565	0.000340	3.397809	0.575604	0.000034
 111	1.0945e+01	1.0889	-10.599461	0.000393	3.929996	0.665759	0.000039
 112	1.1044e+01	1.1005	-10.568502	0.000311	3.111247	0.527059	0.000031
 113	1.1144e+01	1.1103	-10.533471	0.000352	3.520621	0.596409	0.000035
 114	1.1243e+01	1.1196	-10.497218	0.000364	3.643434	0.617214	0.000036
 115	1.1343e+01	1.1303	-10.464223	0.000332	3.315934	0.561734	0.000033
 116	1.1443e+01	1.1417	-10.426340	0.000381	3.807184	0.644954	0.000038
 117	1.1542e+01	1.1484	-10.391308	0.000352	3.520621	0.596409	0.000035
 118	1.1642e+01	1.1577	-10.353426	0.000381	3.807184	0.644954	0.000038
 119	1.1741e+01	1.1707	-10.320431	0.000332	3.315934	0.561734	0.000033
 120	1.1841e+01	1.1811	-10.281326	0.000393	3.929996	0.665759	0.000039
 121	1.1940e+01	1.1883	-10.243443	0.000381	3.807184	0.644954	0.000038
 122	1.2040e+01	1.1992	-10.205968	0.000377	3.766246	0.638019	0.000038
 123	1.2139e+01	1.2090	-10.168899	0.000373	3.725309	0.631084	0.000037
 124	1.2239e+01	1.2210	-10.133868	0.000352	3.520621	0.596409	0.000035
 125	1.2338e+01	1.2328	-10.099651	0.000344	3.438746	0.582539	0.000034
 126	1.2438e+01	1.2407	-10.062176	0.000377	3.766246	0.638019	0.000038
 127	1.2537e+01	1.2502	-10.029181	0.000332	3.315934	0.561734	0.000033
 128	1.2636e+01	1.2604	-9.992113	0.000373	3.725309	0.631084	0.000037
 129	1.2736e+01	1.2711	-9.954637	0.000377	3.766246	0.638019	0.000038
 130	1.2835e+01	1.2778	-9.921643	0.000332	3.315934	0.561734	0.000033
 131	1.2935e+01	1.2890	-9.881723	0.000401	4.011871	0.679629	0.000040
 132	1.3034e+01	1.2954	-9.847506	0.000344	3.438746	0.582539	0.000034
 133	1.3134e+01	1.3062	-9.810031	0.000377	3.766246	0.638019	0.000038
 134	1.3233e+01	1.3194	-9.776221	0.000340	3.397809	0.575604	0.000034
 135	1.3333e+01	1.3292	-9.743226	0.000332	3.315934	0.561734	0.000033
 136	1.3432e+01	1.3360	-9.705751	0.000377	3.766246	0.638019	0.000038
 137	1.3532e+01	1.3519	-9.676015	0.000299	2.988434	0.506254	0.000030
 138	1.3632e+01	1.3576	-9.638539	0.000377	3.766246	0.638019	0.000038
 139	1.3731e+01	1.3682	-9.606359	0.000323	3.234059	0.547864	0.000032
 140	1.3831e+01	1.3775	-9.571735	0.000348	3.479684	0.589474	0.000035
 141	1.3930e+01	1.3892	-9.535889	0.000360	3.602496	0.610279	0.000036
 142	1.4030e+01	1.3966	-9.502487	0.000336	3.356872	0.568669	0.000034
 143	1.4129e+01	1.4082	-9.467863	0.000348	3.479684	0.589474	0.000035
 144	1.4229e+01	1.4147	-9.434053	0.000340	3.397809	0.575604	0.000034
 145	1.4328e+01	1.4281	-9.402281	0.000319	3.193122	0.540929	0.000032
 146	1.4428e+01	1.4389	-9.368879	0.000336	3.356872	0.568669	0.000034
 147	1.4527e+01	1.4491	-9.335069	0.000340	3.397809	0.575604	0.000034
 148	1.4627e+01	1.4587	-9.301260	0.000340	3.397809	0.575604	0.000034
 149	1.4726e+01	1.4680	-9.272746	0.000287	2.865622	0.485450	0.000029
 150	1.4825e+01	1.4779	-9.238122	0.000348	3.479684	0.589474	0.000035
 151	1.4925e+01	1.4875	-9.207571	0.000307	3.070309	0.520124	0.000031
 152	1.5024e+01	1.4997	-9.168873	0.000389	3.889059	0.658824	0.000039
 153	1.5124e+01	1.5067	-9.137101	0.000319	3.193122	0.540929	0.000032
 154	1.5223e+01	1.5177	-9.105735	0.000315	3.152184	0.533994	0.000032
 155	1.5323e+01	1.5280	-9.074370	0.000315	3.152184	0.533994	0.000032
 156	1.5422e+01	1.5358	-9.044227	0.000303	3.029372	0.513189	0.000030
 157	1.5522e+01	1.5502	-9.005936	0.000385	3.848121	0.651889	0.000038
 158	1.5621e+01	1.5577	-8.975793	0.000303	3.029372	0.513189	0.000030
 159	1.5721e+01	1.5673	-8.944428	0.000315	3.152184	0.533994	0.000032
 160	1.5820e+01	1.5777	-8.911026	0.000336	3.356872	0.568669	0.000034
 161	1.5920e+01	1.5878	-8.881290	0.000299	2.988434	0.506254	0.000030
 162	1.6020e+01	1.5969	-8.847073	0.000344	3.438746	0.582539	0.000034
 163	1.6119e+01	1.6080	-8.815300	0.000319	3.193122	0.540929	0.000032
 164	1.6218e+01	1.6155	-8.783935	0.000315	3.152184	0.533994	0.000032
 165	1.6318e+01	1.6299	-8.753384	0.000307	3.070309	0.520124	0.000031
 166	1.6418e+01	1.6375	-8.719575	0.000340	3.397809	0.575604	0.000034
 167	1.6517e+01	1.6463	-8.691468	0.000282	2.824685	0.478515	0.000028
 168	1.6616e+01	1.6576	-8.661325	0.000303	3.029372	0.513189	0.000030
 169	1.6716e+01	1.6681	-8.631589	0.000299	2.988434	0.506254	0.000030
 170	1.6816e+01	1.6761	-8.601038	0.000307	3.070309	0.520124	0.000031
 171	1.6915e+01	1.6890	-8.570080	0.000311	3.111247	0.527059	0.000031
 172	1.7015e+01	1.6957	-8.542788	0.000274	2.742810	0.464645	0.000027
 173	1.7114e+01	1.7059	-8.510608	0.000323	3.234059	0.547864	0.000032
 174	1.7213e+01	1.7175	-8.483723	0.000270	2.701872	0.457710	0.000027
 175	1.7313e+01	1.7287	-8.451136	0.000327	3.274997	0.554799	0.000033
 176	1.7413e+01	1.7377	-8.420993	0.000303	3.029372	0.513189	0.000030
 177	1.7512e+01	1.7467	-8.395330	0.000258	2.579060	0.436905	0.000026
 178	1.7611e+01	1.7572	-8.363965	0.000315	3.152184	0.533994	0.000032
 179	1.7711e+01	1.7661	-8.333007	0.000311	3.111247	0.527059	0.000031
 180	1.7811e+01	1.7769	-8.306122	0.000270	2.701872	0.457710	0.000027
 181	1.7910e+01	1.7855	-8.275571	0.000307	3.070309	0.520124	0.000031
 182	1.8009e+01	1.7957	-8.245021	0.000307	3.070309	0.520124	0.000031
 183	1.8109e+01	1.8066	-8.212026	0.000332	3.315934	0.561734	0.000033
 184	1.8209e+01	1.8159	-8.187178	0.000250	2.497185	0.423035	0.000025
 185	1.8308e+01	1.8284	-8.150517	0.000368	3.684371	0.624149	0.000037
 186	1.8407e+01	1.8382	-8.116300	0.000344	3.438746	0.582539	0.000034
 187	1.8507e+01	1.8450	-8.089416	0.000270	2.701872	0.457710	0.000027
 188	1.8607e+01	1.8554	-8.060902	0.000287	2.865622	0.485450	0.000029
 189	1.8706e+01	1.8647	-8.023426	0.000377	3.766246	0.638019	0.000038
 190	1.8805e+01	1.8762	-7.995727	0.000278	2.783747	0.471580	0.000028
 191	1.8905e+01	1.8832	-7.964362	0.000315	3.152184	0.533994	0.000032
 192	1.9005e+01	1.8971	-7.935033	0.000295	2.947497	0.499320	0.000029
 193	1.9104e+01	1.9056	-7.901223	0.000340	3.397809	0.575604	0.000034
 194	1.9203e+01	1.9151	-7.867414	0.000340	3.397809	0.575604	0.000034
 195	1.9303e+01	1.9270	-7.832790	0.000348	3.479684	0.589474	0.000035
 196	1.9402e+01	1.9373	-7.804683	0.000282	2.824685	0.478515	0.000028
 197	1.9502e+01	1.9466	-7.768837	0.000360	3.602496	0.610279	0.000036
 198	1.9602e+01	1.9555	-7.736250	0.000327	3.274997	0.554799	0.000033
 199	1.9701e+01	1.9665	-7.707328	0.000291	2.906560	0.492385	0.000029
 200	1.9800e+01	1.9763	-7.674334	0.000332	3.315934	0.561734	0.000033
 201	1.9900e+01	1.9849	-7.645820	0.000287	2.865622	0.485450	0.000029
 202	2.0000e+01	1.9971	-7.613232	0.000327	3.274997	0.554799	0.000033
 203	2.0099e+01	2.0063	-7.580645	0.000327	3.274997	0.554799	0.000033
 204	2.0198e+01	2.0168	-7.554575	0.000262	2.619997	0.443840	0.000026
 205	2.0298e+01	2.0272	-7.528505	0.000262	2.619997	0.443840	0.000026
 206	2.0398e+01	2.0322	-7.492252	0.000364	3.643434	0.617214	0.000036
 207	2.0497e+01	2.0446	-7.462516	0.000299	2.988434	0.506254	0.000030
 208	2.0596e+01	2.0553	-7.434409	0.000282	2.824685	0.478515	0.000028
 209	2.0696e+01	2.0644	-7.401822	0.000327	3.274997	0.554799	0.000033
 210	2.0796e+01	2.0747	-7.370456	0.000315	3.152184	0.533994	0.000032
 211	2.0895e+01	2.0834	-7.335425	0.000352	3.520621	0.596409	0.000035
 212	2.0994e+01	2.0947	-7.309355	0.000262	2.619997	0.443840	0.000026
 213	2.1094e+01	2.1058	-7.279619	0.000299	2.988434	0.506254	0.000030
 214	2.1194e+01	2.1117	-7.250290	0.000295	2.947497	0.499320	0.000029
 215	2.1293e+01	2.1234	-7.218517	0.000319	3.193122	0.540929	0.000032
 216	2.1392e+01	2.1350	-7.186745	0.000319	3.193122	0.540929	0.000032
 217	2.1492e+01	2.1432	-7.156194	0.000307	3.070309	0.520124	0.000031
 218	2.1591e+01	2.1526	-7.127273	0.000291	2.906560	0.492385	0.000029
 219	2.1691e+01	2.1655	-7.092649	0.000348	3.479684	0.589474	0.000035
 220	2.1791e+01	2.1750	-7.062913	0.000299	2.988434	0.506254	0.000030
 221	2.1890e+01	2.1846	-7.032769	0.000303	3.029372	0.513189	0.000030
 222	2.1989e+01	2.1934	-7.000996	0.000319	3.193122	0.540929	0.000032
 223	2.2089e+01	2.2050	-6.966372	0.000348	3.479684	0.589474	0.000035
 224	2.2189e+01	2.2155	-6.934600	0.000319	3.193122	0.540929	0.000032
 225	2.2288e+01	2.2252	-6.899975	0.000348	3.479684	0.589474	0.000035
 226	2.2387e+01	2.2341	-6.869017	0.000311	3.111247	0.527059	0.000031
 227	2.2487e+01	2.2415	-6.836023	0.000332	3.315934	0.561734	0.000033
 228	2.2587e+01	2.2526	-6.803028	0.000332	3.315934	0.561734	0.000033
 229	2.2686e+01	2.2627	-6.771255	0.000319	3.193122	0.540929	0.000032
 230	2.2785e+01	2.2752	-6.735816	0.000356	3.561559	0.603344	0.000036
 231	2.2885e+01	2.2823	-6.703229	0.000327	3.274997	0.554799	0.000033
 232	2.2985e+01	2.2929	-6.669827	0.000336	3.356872	0.568669	0.000034
 233	2.3084e+01	2.3044	-6.637647	0.000323	3.234059	0.547864	0.000032
 234	2.3183e+01	2.3154	-6.603837	0.000340	3.397809	0.575604	0.000034
 235	2.3283e+01	2.3234	-6.566769	0.000373	3.725309	0.631084	0.000037
 236	2.3383e+01	2.3343	-6.537441	0.000295	2.947497	0.499320	0.000029
 237	2.3482e+01	2.3430	-6.505261	0.000323	3.234059	0.547864	0.000032
 238	2.3581e+01	2.3513	-6.472673	0.000327	3.274997	0.554799	0.000033
 239	2.3681e+01	2.3637	-6.437234	0.000356	3.561559	0.603344	0.000036
 240	2.3780e+01	2.3714	-6.408313	0.000291	2.906560	0.492385	0.000029
 241	2.3880e+01	2.3830	-6.373689	0.000348	3.479684	0.589474	0.000035
 242	2.3980e+01	2.3910	-6.337843	0.000360	3.602496	0.610279	0.000036
 243	2.4079e+01	2.4021	-6.305255	0.000327	3.274997	0.554799	0.000033
 244	2.4178e+01	2.4126	-6.273483	0.000319	3.193122	0.540929	0.000032
 245	2.4278e+01	2.4270	-6.240081	0.000336	3.356872	0.568669	0.000034
 246	2.4378e+01	2.4351	-6.206678	0.000336	3.356872	0.568669	0.000034
 247	2.4477e+01	2.4414	-6.172054	0.000348	3.479684	0.589474	0.000035
 248	2.4576e+01	2.4569	-6.137838	0.000344	3.438746	0.582539	0.000034
 249	2.4676e+01	2.4612	-6.104435	0.000336	3.356872	0.568669	0.000034
 250	2.4776e+01	2.4706	-6.068589	0.000360	3.602496	0.610279	0.000036
 251	2.4875e+01	2.4818	-6.031521	0.000373	3.725309	0.631084	0.000037
 252	2.4974e+01	2.4929	-5.999341	0.000323	3.234059	0.547864	0.000032
 253	2.5074e+01	2.5018	-5.966346	0.000332	3.315934	0.561734	0.000033
 254	2.5174e+01	2.5140	-5.932130	0.000344	3.438746	0.582539	0.000034
 255	2.5273e+01	2.5237	-5.895061	0.000373	3.725309	0.631084	0.000037
 256	2.5372e+01	2.5298	-5.857179	0.000381	3.807184	0.644954	0.000038
 257	2.5472e+01	2.5424	-5.823776	0.000336	3.356872	0.568669	0.000034
 258	2.5572e+01	2.5524	-5.784672	0.000393	3.929996	0.665759	0.000039
 259	2.5671e+01	2.5634	-5.753714	0.000311	3.111247	0.527059	0.000031
 260	2.5770e+01	2.5736	-5.716238	0.000377	3.766246	0.638019	0.000038
 261	2.5870e+01	2.5807	-5.679577	0.000368	3.684371	0.624149	0.000037
 262	2.5970e+01	2.5938	-5.641287	0.000385	3.848121	0.651889	0.000038
 263	2.6069e+01	2.6006	-5.606663	0.000348	3.479684	0.589474	0.000035
 264	2.6169e+01	2.6115	-5.576112	0.000307	3.070309	0.520124	0.000031
 265	2.6268e+01	2.6228	-5.539859	0.000364	3.643434	0.617214	0.000036
 266	2.6367e+01	2.6333	-5.505642	0.000344	3.438746	0.582539	0.000034
 267	2.6467e+01	2.6433	-5.468574	0.000373	3.725309	0.631084	0.000037
 268	2.6567e+01	2.6510	-5.436801	0.000319	3.193122	0.540929	0.000032
 269	2.6666e+01	2.6611	-5.401362	0.000356	3.561559	0.603344	0.000036
 270	2.6765e+01	2.6734	-5.368367	0.000332	3.315934	0.561734	0.000033
 271	2.6865e+01	2.6812	-5.337002	0.000315	3.152184	0.533994	0.000032
 272	2.6965e+01	2.6937	-5.303600	0.000336	3.356872	0.568669	0.000034
 273	2.7064e+01	2.6996	-5.266939	0.000368	3.684371	0.624149	0.000037
 274	2.7163e+01	2.7131	-5.235166	0.000319	3.193122	0.540929	0.000032
 275	2.7263e+01	2.7209	-5.204616	0.000307	3.070309	0.520124	0.000031
 276	2.7363e+01	2.7322	-5.169584	0.000352	3.520621	0.596409	0.000035
 277	2.7462e+01	2.7409	-5.135775	0.000340	3.397809	0.575604	0.000034
 278	2.7561e+01	2.7531	-5.102373	0.000336	3.356872	0.568669	0.000034
 279	2.7661e+01	2.7610	-5.070600	0.000319	3.193122	0.540929	0.000032
 280	2.7761e+01	2.7706	-5.037605	0.000332	3.315934	0.561734	0.000033
 281	2.7860e+01	2.7810	-5.007869	0.000299	2.988434	0.506254	0.000030
 282	2.7959e+01	2.7956	-4.972431	0.000356	3.561559	0.603344	0.000036
 283	2.8059e+01	2.8014	-4.939028	0.000336	3.356872	0.568669	0.000034
 284	2.8159e+01	2.8117	-4.909292	0.000299	2.988434	0.506254	0.000030
 285	2.8258e+01	2.8210	-4.874668	0.000348	3.479684	0.589474	0.000035
 286	2.8358e+01	2.8309	-4.841266	0.000336	3.356872	0.568669	0.000034
 287	2.8457e+01	2.8434	-4.809086	0.000323	3.234059	0.547864	0.000032
 288	2.8556e+01	2.8502	-4.775684	0.000336	3.356872	0.568669	0.000034
 289	2.8656e+01	2.8648	-4.738209	0.000377	3.766246	0.638019	0.000038
 290	2.8756e+01	2.8702	-4.703584	0.000348	3.479684	0.589474	0.000035
 291	2.8855e+01	2.8800	-4.670997	0.000327	3.274997	0.554799	0.000033
 292	2.8954e+01	2.8936	-4.638817	0.000323	3.234059	0.547864	0.000032
 293	2.9054e+01	2.9031	-4.603378	0.000356	3.561559	0.603344	0.000036
 294	2.9154e+01	2.9110	-4.569569	0.000340	3.397809	0.575604	0.000034
 295	2.9253e+01	2.9218	-4.539425	0.000303	3.029372	0.513189	0.000030
 296	2.9352e+01	2.9304	-4.506431	0.000332	3.315934	0.561734	0.000033
 297	2.9452e+01	2.9416	-4.470585	0.000360	3.602496	0.610279	0.000036
 298	2.9552e+01	2.9501	-4.438812	0.000319	3.193122	0.540929	0.000032
 299	2.9651e+01	2.9626	-4.402966	0.000360	3.602496	0.610279	0.000036
 300	2.9750e+01	2.9714	-4.368749	0.000344	3.438746	0.582539	0.000034
 301	2.9850e+01	2.9803	-4.336976	0.000319	3.193122	0.540929	0.000032
 302	2.9950e+01	2.9931	-4.299908	0.000373	3.725309	0.631084	0.000037
 303	3.0049e+01	3.0026	-4.269357	0.000307	3.070309	0.520124	0.000031
 304	3.0148e+01	3.0120	-4.237177	0.000323	3.234059	0.547864	0.000032
 305	3.0248e+01	3.0187	-4.209478	0.000278	2.783747	0.471580	0.000028
 306	3.0348e+01	3.0302	-4.178520	0.000311	3.111247	0.527059	0.000031
 307	3.0447e+01	3.0387	-4.141859	0.000368	3.684371	0.624149	0.000037
 308	3.0547e+01	3.0489	-4.115789	0.000262	2.619997	0.443840	0.000026
 309	3.0646e+01	3.0608	-4.082387	0.000336	3.356872	0.568669	0.000034
 310	3.0745e+01	3.0715	-4.051429	0.000311	3.111247	0.527059	0.000031
 311	3.0845e+01	3.0805	-4.021286	0.000303	3.029372	0.513189	0.000030
 312	3.0945e+01	3.0899	-3.990328	0.000311	3.111247	0.527059	0.000031
 313	3.1044e+01	3.1015	-3.961406	0.000291	2.906560	0.492385	0.000029
 314	3.1143e+01	3.1110	-3.927597	0.000340	3.397809	0.575604	0.000034
 315	3.1243e+01	3.1186	-3.897454	0.000303	3.029372	0.513189	0.000030
 316	3.1343e+01	3.1289	-3.870569	0.000270	2.701872	0.457710	0.000027
 317	3.1442e+01	3.1402	-3.835130	0.000356	3.561559	0.603344	0.000036
 318	3.1541e+01	3.1496	-3.809060	0.000262	2.619997	0.443840	0.000026
 319	3.1641e+01	3.1603	-3.774843	0.000344	3.438746	0.582539	0.000034
 320	3.1741e+01	3.1684	-3.746737	0.000282	2.824685	0.478515	0.000028
 321	3.1840e+01	3.1813	-3.717408	0.000295	2.947497	0.499320	0.000029
 322	3.1939e+01	3.1895	-3.685635	0.000319	3.193122	0.540929	0.000032
 323	3.2039e+01	3.2000	-3.657529	0.000282	2.824685	0.478515	0.000028
 324	3.2139e+01	3.2092	-3.625349	0.000323	3.234059	0.547864	0.000032
 325	3.2238e+01	3.2185	-3.599686	0.000258	2.579060	0.436905	0.000026
 326	3.2337e+01	3.2293	-3.568321	0.000315	3.152184	0.533994	0.000032
 327	3.2437e+01	3.2377	-3.539399	0.000291	2.906560	0.492385	0.000029
 328	3.2536e+01	3.2507	-3.507219	0.000323	3.234059	0.547864	0.000032
 329	3.2636e+01	3.2594	-3.477891	0.000295	2.947497	0.499320	0.000029
 330	3.2736e+01	3.2683	-3.448155	0.000299	2.988434	0.506254	0.000030
 331	3.2835e+01	3.2778	-3.418826	0.000295	2.947497	0.499320	0.000029
 332	3.2934e+01	3.2876	-3.394385	0.000246	2.456247	0.416100	0.000025
 333	3.3034e+01	3.2986	-3.361391	0.000332	3.315934	0.561734	0.000033
 334	3.3133e+01	3.3079	-3.334913	0.000266	2.660935	0.450775	0.000027
 335	3.3233e+01	3.3199	-3.309658	0.000254	2.538122	0.429970	0.000025
 336	3.3333e+01	3.3273	-3.278700	0.000311	3.111247	0.527059	0.000031
 337	3.3432e+01	3.3385	-3.250594	0.000282	2.824685	0.478515	0.000028
 338	3.3532e+01	3.3498	-3.222487	0.000282	2.824685	0.478515	0.000028
 339	3.3631e+01	3.3600	-3.198046	0.000246	2.456247	0.416100	0.000025
 340	3.3730e+01	3.3710	-3.171569	0.000266	2.660935	0.450775	0.000027
 341	3.3830e+01	3.3781	-3.141833	0.000299	2.988434	0.506254	0.000030
 342	3.3929e+01	3.3886	-3.114541	0.000274	2.742810	0.464645	0.000027
 343	3.4029e+01	3.3974	-3.087657	0.000270	2.701872	0.457710	0.000027
 344	3.4129e+01	3.4099	-3.062809	0.000250	2.497185	0.423035	0.000025
 345	3.4228e+01	3.4172	-3.037146	0.000258	2.579060	0.436905	0.000026
 346	3.4328e+01	3.4272	-3.005781	0.000315	3.152184	0.533994	0.000032
 347	3.4427e+01	3.4395	-2.981340	0.000246	2.456247	0.416100	0.000025
 348	3.4526e+01	3.4484	-2.952826	0.000287	2.865622	0.485450	0.000029
 349	3.4626e+01	3.4555	-2.926756	0.000262	2.619997	0.443840	0.000026
 350	3.4725e+01	3.4670	-2.901094	0.000258	2.579060	0.436905	0.000026
 351	3.4825e+01	3.4795	-2.869728	0.000315	3.152184	0.533994	0.000032
 352	3.4925e+01	3.4893	-2.839992	0.000299	2.988434	0.506254	0.000030
 353	3.5024e+01	3.4978	-2.816774	0.000233	2.333435	0.395295	0.000023
 354	3.5123e+01	3.5100	-2.785001	0.000319	3.193122	0.540929	0.000032
 355	3.5223e+01	3.5189	-2.753636	0.000315	3.152184	0.533994	0.000032
 356	3.5322e+01	3.5266	-2.725529	0.000282	2.824685	0.478515	0.000028
 357	3.5422e+01	3.5394	-2.697015	0.000287	2.865622	0.485450	0.000029
 358	3.5522e+01	3.5474	-2.666464	0.000307	3.070309	0.520124	0.000031
 359	3.5621e+01	3.5591	-2.639580	0.000270	2.701872	0.457710	0.000027
 360	3.5721e+01	3.5694	-2.611066	0.000287	2.865622	0.485450	0.000029
 361	3.5820e+01	3.5776	-2.584588	0.000266	2.660935	0.450775	0.000027
 362	3.5919e+01	3.5879	-2.549150	0.000356	3.561559	0.603344	0.000036
 363	3.6019e+01	3.5983	-2.523080	0.000262	2.619997	0.443840	0.000026
 364	3.6118e+01	3.6097	-2.490085	0.000332	3.315934	0.561734	0.000033
 365	3.6218e+01	3.6173	-2.464830	0.000254	2.538122	0.429970	0.000025
 366	3.6318e+01	3.6268	-2.434279	0.000307	3.070309	0.520124	0.000031
 367	3.6417e+01	3.6375	-2.402506	0.000319	3.193122	0.540929	0.000032
 368	3.6517e+01	3.6466	-2.376436	0.000262	2.619997	0.443840	0.000026
 369	3.6616e+01	3.6580	-2.343034	0.000336	3.356872	0.568669	0.000034
 370	3.6715e+01	3.6672	-2.319408	0.000237	2.374373	0.402230	0.000024
 371	3.6815e+01	3.6788	-2.291302	0.000282	2.824685	0.478515	0.000028
 372	3.6914e+01	3.6855	-2.261566	0.000299	2.988434	0.506254	0.000030
 373	3.7014e+01	3.6941	-2.238755	0.000229	2.292498	0.388360	0.000023
 374	3.7114e+01	3.7088	-2.210241	0.000287	2.865622	0.485450	0.000029
 375	3.7213e+01	3.7189	-2.180505	0.000299	2.988434	0.506254	0.000030
 376	3.7313e+01	3.7276	-2.149139	0.000315	3.152184	0.533994	0.000032
 377	3.7412e+01	3.7386	-2.127550	0.000217	2.169685	0.367555	0.000022
 378	3.7511e+01	3.7475	-2.098629	0.000291	2.906560	0.492385	0.000029
 379	3.7611e+01	3.7563	-2.066449	0.000323	3.234059	0.547864	0.000032
 380	3.7711e+01	3.7682	-2.041194	0.000254	2.538122	0.429970	0.000025
 381	3.7810e+01	3.7763	-2.011865	0.000295	2.947497	0.499320	0.000029
 382	3.7910e+01	3.7866	-1.984980	0.000270	2.701872	0.457710	0.000027
 383	3.8009e+01	3.7962	-1.957688	0.000274	2.742810	0.464645	0.000027
 384	3.8108e+01	3.8047	-1.934062	0.000237	2.374373	0.402230	0.000024
 385	3.8208e+01	3.8150	-1.901068	0.000332	3.315934	0.561734	0.000033
 386	3.8307e+01	3.8282	-1.871739	0.000295	2.947497	0.499320	0.000029
 387	3.8407e+01	3.8378	-1.844854	0.000270	2.701872	0.457710	0.000027
 388	3.8507e+01	3.8459	-1.816340	0.000287	2.865622	0.485450	0.000029
 389	3.8606e+01	3.8563	-1.783753	0.000327	3.274997	0.554799	0.000033
 390	3.8706e+01	3.8654	-1.751980	0.000319	3.193122	0.540929	0.000032
 391	3.8805e+01	3.8759	-1.724688	0.000274	2.742810	0.464645	0.000027
 392	3.8904e+01	3.8854	-1.697396	0.000274	2.742810	0.464645	0.000027
 393	3.9004e+01	3.8983	-1.664402	0.000332	3.315934	0.561734	0.000033
 394	3.9103e+01	3.9071	-1.634258	0.000303	3.029372	0.513189	0.000030
 395	3.9203e+01	3.9155	-1.608188	0.000262	2.619997	0.443840	0.000026
 396	3.9303e+01	3.9250	-1.577638	0.000307	3.070309	0.520124	0.000031
 397	3.9402e+01	3.9397	-1.544643	0.000332	3.315934	0.561734	0.000033
 398	3.9502e+01	3.9477	-1.513685	0.000311	3.111247	0.527059	0.000031
 399	3.9601e+01	3.9530	-1.485171	0.000287	2.865622	0.485450	0.000029
 400	3.9700e+01	3.9635	-1.453806	0.000315	3.152184	0.533994	0.000032
 401	3.9800e+01	3.9758	-1.424070	0.000299	2.988434	0.506254	0.000030
 402	3.9900e+01	3.9863	-1.393112	0.000311	3.111247	0.527059	0.000031
 403	3.9999e+01	3.9959	-1.360117	0.000332	3.315934	0.561734	0.000033
 404	4.0099e+01	4.0063	-1.330788	0.000295	2.947497	0.499320	0.000029
 405	4.0198e+01	4.0150	-1.297793	0.000332	3.315934	0.561734	0.000033
 406	4.0297e+01	4.0272	-1.270094	0.000278	2.783747	0.471580	0.000028
 407	4.0397e+01	4.0349	-1.238321	0.000319	3.193122	0.540929	0.000032
 408	4.0496e+01	4.0444	-1.211437	0.000270	2.701872	0.457710	0.000027
 409	4.0596e+01	4.0555	-1.178442	0.000332	3.315934	0.561734	0.000033
 410	4.0696e+01	4.0683	-1.147891	0.000307	3.070309	0.520124	0.000031
 411	4.0795e+01	4.0752	-1.114489	0.000336	3.356872	0.568669	0.000034
 412	4.0895e+01	4.0850	-1.085568	0.000291	2.906560	0.492385	0.000029
 413	4.0994e+01	4.0948	-1.056239	0.000295	2.947497	0.499320	0.000029
 414	4.1093e+01	4.1070	-1.024467	0.000319	3.193122	0.540929	0.000032
 415	4.1193e+01	4.1142	-0.994731	0.000299	2.988434	0.506254	0.000030
 416	4.1292e+01	4.1256	-0.961328	0.000336	3.356872	0.568669	0.000034
 417	4.1392e+01	4.1346	-0.929556	0.000319	3.193122	0.540929	0.000032
 418	4.1492e+01	4.1445	-0.898190	0.000315	3.152184	0.533994	0.000032
 419	4.1591e+01	4.1550	-0.862752	0.000356	3.561559	0.603344	0.000036
 420	4.1691e+01	4.1631	-0.832201	0.000307	3.070309	0.520124	0.000031
 421	4.1790e+01	4.1749	-0.797169	0.000352	3.520621	0.596409	0.000035
 422	4.1889e+01	4.1830	-0.767433	0.000299	2.988434	0.506254	0.000030
 423	4.1989e+01	4.1966	-0.732402	0.000352	3.520621	0.596409	0.000035
 424	4.2089e+01	4.2065	-0.699407	0.000332	3.315934	0.561734	0.000033
 425	4.2188e+01	4.2124	-0.666005	0.000336	3.356872	0.568669	0.000034
 426	4.2288e+01	4.2235	-0.633825	0.000323	3.234059	0.547864	0.000032
 427	4.2387e+01	4.2374	-0.599201	0.000348	3.479684	0.589474	0.000035
 428	4.2486e+01	4.2429	-0.570280	0.000291	2.906560	0.492385	0.000029
 429	4.2586e+01	4.2529	-0.537285	0.000332	3.315934	0.561734	0.000033
 430	4.2685e+01	4.2663	-0.500217	0.000373	3.725309	0.631084	0.000037
 431	4.2785e+01	4.2733	-0.470073	0.000303	3.029372	0.513189	0.000030
 432	4.2885e+01	4.2846	-0.437893	0.000323	3.234059	0.547864	0.000032
 433	4.2984e+01	4.2941	-0.407343	0.000307	3.070309	0.520124	0.000031
 434	4.3084e+01	4.3066	-0.373126	0.000344	3.438746	0.582539	0.000034
 435	4.3183e+01	4.3138	-0.337280	0.000360	3.602496	0.610279	0.000036
 436	4.3282e+01	4.3237	-0.307951	0.000295	2.947497	0.499320	0.000029
 437	4.3382e+01	4.3359	-0.275364	0.000327	3.274997	0.554799	0.000033
 438	4.3481e+01	4.3429	-0.243184	0.000323	3.234059	0.547864	0.000032
 439	4.3581e+01	4.3545	-0.216706	0.000266	2.660935	0.450775	0.000027
 440	4.3681e+01	4.3646	-0.181675	0.000352	3.520621	0.596409	0.000035
 441	4.3780e+01	4.3737	-0.153975	0.000278	2.783747	0.471580	0.000028
 442	4.3880e+01	4.3838	-0.125054	0.000291	2.906560	0.492385	0.000029
 443	4.3979e+01	4.3931	-0.090837	0.000344	3.438746	0.582539	0.000034
 444	4.4078e+01	4.4023	-0.058657	0.000323	3.234059	0.547864	0.000032
 445	4.4178e+01	4.4128	-0.034624	0.000242	2.415310	0.409165	0.000024
 446	4.4278e+01	4.4234	-0.002037	0.000327	3.274997	0.554799	0.000033
 447	4.4377e+01	4.4328	0.026477	0.000287	2.865622	0.485450	0.000029
 448	4.4477e+01	4.4444	0.054584	0.000282	2.824685	0.478515	0.000028
 449	4.4576e+01	4.4547	0.085542	0.000311	3.111247	0.527059	0.000031
 450	4.4675e+01	4.4640	0.116093	0.000307	3.070309	0.520124	0.000031
 451	4.4775e+01	4.4742	0.146643	0.000307	3.070309	0.520124	0.000031
 452	4.4874e+01	4.4862	0.175157	0.000287	2.865622	0.485450	0.000029
 453	4.4974e+01	4.4918	0.208559	0.000336	3.356872	0.568669	0.000034
 454	4.5074e+01	4.5053	0.239925	0.000315	3.152184	0.533994	0.000032
 455	4.5173e+01	4.5148	0.272512	0.000327	3.274997	0.554799	0.000033
 456	4.5273e+01	4.5224	0.300619	0.000282	2.824685	0.478515	0.000028
 457	4.5372e+01	4.5354	0.331577	0.000311	3.111247	0.527059	0.000031
 458	4.5471e+01	4.5434	0.367423	0.000360	3.602496	0.610279	0.000036
 459	4.5571e+01	4.5534	0.398381	0.000311	3.111247	0.527059	0.000031
 460	4.5670e+01	4.5611	0.429339	0.000311	3.111247	0.527059	0.000031
 461	4.5770e+01	4.5716	0.458668	0.000295	2.947497	0.499320	0.000029
 462	4.5870e+01	4.5824	0.487589	0.000291	2.906560	0.492385	0.000029
 463	4.5969e+01	4.5924	0.520584	0.000332	3.315934	0.561734	0.000033
 464	4.6069e+01	4.6027	0.552764	0.000323	3.234059	0.547864	0.000032
 465	4.6168e+01	4.6109	0.585759	0.000332	3.315934	0.561734	0.000033
 466	4.6267e+01	4.6201	0.614273	0.000287	2.865622	0.485450	0.000029
 467	4.6367e+01	4.6316	0.644416	0.000303	3.029372	0.513189	0.000030
 468	4.6467e+01	4.6420	0.678225	0.000340	3.397809	0.575604	0.000034
 469	4.6566e+01	4.6529	0.712442	0.000344	3.438746	0.582539	0.000034
 470	4.6666e+01	4.6619	0.738105	0.000258	2.579060	0.436905	0.000026
 471	4.6765e+01	4.6761	0.768655	0.000307	3.070309	0.520124	0.000031
 472	4.6864e+01	4.6822	0.797169	0.000287	2.865622	0.485450	0.000029
 473	4.6964e+01	4.6907	0.826091	0.000291	2.906560	0.492385	0.000029
 474	4.7063e+01	4.7021	0.855419	0.000295	2.947497	0.499320	0.000029
 475	4.7163e+01	4.7127	0.883526	0.000282	2.824685	0.478515	0.000028
 476	4.7263e+01	4.7208	0.913669	0.000303	3.029372	0.513189	0.000030
 477	4.7362e+01	4.7292	0.938110	0.000246	2.456247	0.416100	0.000025
 478	4.7462e+01	4.7398	0.966217	0.000282	2.824685	0.478515	0.000028
 479	4.7561e+01	4.7523	0.997582	0.000315	3.152184	0.533994	0.000032
 480	4.7660e+01	4.7598	1.022430	0.000250	2.497185	0.423035	0.000025
 481	4.7760e+01	4.7712	1.053795	0.000315	3.152184	0.533994	0.000032
 482	4.7859e+01	4.7814	1.082717	0.000291	2.906560	0.492385	0.000029
 483	4.7959e+01	4.7891	1.108786	0.000262	2.619997	0.443840	0.000026
 484	4.8059e+01	4.8026	1.134856	0.000262	2.619997	0.443840	0.000026
 485	4.8158e+01	4.8118	1.162148	0.000274	2.742810	0.464645	0.000027
 486	4.8258e+01	4.8228	1.194328	0.000323	3.234059	0.547864	0.000032
 487	4.8357e+01	4.8318	1.218362	0.000242	2.415310	0.409165	0.000024
 488	4.8456e+01	4.8421	1.247690	0.000295	2.947497	0.499320	0.000029
 489	4.8556e+01	4.8531	1.274982	0.000274	2.742810	0.464645	0.000027
 490	4.8656e+01	4.8627	1.303496	0.000287	2.865622	0.485450	0.000029
 491	4.8755e+01	4.8743	1.330788	0.000274	2.742810	0.464645	0.000027
 492	4.8855e+01	4.8793	1.358487	0.000278	2.783747	0.471580	0.000028
 493	4.8954e+01	4.8931	1.387816	0.000295	2.947497	0.499320	0.000029
 494	4.9053e+01	4.9026	1.411442	0.000237	2.374373	0.402230	0.000024
 495	4.9153e+01	4.9128	1.438327	0.000270	2.701872	0.457710	0.000027
 496	4.9252e+01	4.9215	1.468470	0.000303	3.029372	0.513189	0.000030
 497	4.9352e+01	4.9284	1.493725	0.000254	2.538122	0.429970	0.000025
 498	4.9452e+01	4.9403	1.522239	0.000287	2.865622	0.485450	0.000029
 499	4.9551e+01	4.9519	1.546272	0.000242	2.415310	0.409165	0.000024
 500	4.9651e+01	4.9593	1.574379	0.000282	2.824685	0.478515	0.000028
 501	4.9750e+01	4.9729	1.598412	0.000242	2.415310	0.409165	0.000024
 502	4.9849e+01	4.9799	1.624075	0.000258	2.579060	0.436905	0.000026
 503	4.9949e+01	4.9928	1.647293	0.000233	2.333435	0.395295	0.000023
 504	5.0048e+01	4.9992	1.677029	0.000299	2.988434	0.506254	0.000030
 505	5.0148e+01	5.0115	1.699840	0.000229	2.292498	0.388360	0.000023
 506	5.0248e+01	5.0198	1.725096	0.000254	2.538122	0.429970	0.000025
 507	5.0347e+01	5.0320	1.750351	0.000254	2.538122	0.429970	0.000025
 508	5.0447e+01	5.0426	1.772755	0.000225	2.251560	0.381425	0.000023
 509	5.0546e+01	5.0481	1.799639	0.000270	2.701872	0.457710	0.000027
 510	5.0645e+01	5.0603	1.822858	0.000233	2.333435	0.395295	0.000023
 511	5.0745e+01	5.0708	1.847706	0.000250	2.497185	0.423035	0.000025
 512	5.0844e+01	5.0811	1.870110	0.000225	2.251560	0.381425	0.000023
 513	5.0944e+01	5.0902	1.894958	0.000250	2.497185	0.423035	0.000025
 514	5.1044e+01	5.0983	1.923064	0.000282	2.824685	0.478515	0.000028
 515	5.1143e+01	5.1102	1.944246	0.000213	2.128748	0.360620	0.000021
 516	5.1242e+01	5.1205	1.971945	0.000278	2.783747	0.471580	0.000028
 517	5.1342e+01	5.1270	1.995164	0.000233	2.333435	0.395295	0.000023
 518	5.1441e+01	5.1425	2.022048	0.000270	2.701872	0.457710	0.000027
 519	5.1541e+01	5.1492	2.045267	0.000233	2.333435	0.395295	0.000023
 520	5.1641e+01	5.1583	2.072966	0.000278	2.783747	0.471580	0.000028
 521	5.1740e+01	5.1698	2.097407	0.000246	2.456247	0.416100	0.000025
 522	5.1840e+01	5.1791	2.123884	0.000266	2.660935	0.450775	0.000027
 523	5.1939e+01	5.1894	2.149954	0.000262	2.619997	0.443840	0.000026
 524	5.2038e+01	5.1992	2.175617	0.000258	2.579060	0.436905	0.000026
 525	5.2138e+01	5.2077	2.203723	0.000282	2.824685	0.478515	0.000028
 526	5.2237e+01	5.2187	2.230608	0.000270	2.701872	0.457710	0.000027
 527	5.2337e+01	5.2306	2.259936	0.000295	2.947497	0.499320	0.000029
 528	5.2437e+01	5.2399	2.285192	0.000254	2.538122	0.429970	0.000025
 529	5.2536e+01	5.2505	2.310854	0.000258	2.579060	0.436905	0.000026
 530	5.2636e+01	5.2555	2.339368	0.000287	2.865622	0.485450	0.000029
 531	5.2735e+01	5.2666	2.365438	0.000262	2.619997	0.443840	0.000026
 532	5.2834e+01	5.2751	2.392730	0.000274	2.742810	0.464645	0.000027
 533	5.2934e+01	5.2862	2.422873	0.000303	3.029372	0.513189	0.000030
 534	5.3033e+01	5.2998	2.448943	0.000262	2.619997	0.443840	0.000026
 535	5.3133e+01	5.3078	2.474606	0.000258	2.579060	0.436905	0.000026
 536	5.3233e+01	5.3185	2.498639	0.000242	2.415310	0.409165	0.000024
 537	5.3332e+01	5.3284	2.525524	0.000270	2.701872	0.457710	0.000027
 538	5.3431e+01	5.3380	2.554852	0.000295	2.947497	0.499320	0.000029
 539	5.3531e+01	5.3499	2.575627	0.000209	2.087810	0.353685	0.000021
 540	5.3630e+01	5.3584	2.600475	0.000250	2.497185	0.423035	0.000025
 541	5.3730e+01	5.3701	2.624915	0.000246	2.456247	0.416100	0.000025
 542	5.3830e+01	5.3799	2.649763	0.000250	2.497185	0.423035	0.000025
 543	5.3929e+01	5.3881	2.678685	0.000291	2.906560	0.492385	0.000029
 544	5.4029e+01	5.4015	2.701496	0.000229	2.292498	0.388360	0.000023
 545	5.4128e+01	5.4065	2.728380	0.000270	2.701872	0.457710	0.000027
 546	5.4227e+01	5.4196	2.755265	0.000270	2.701872	0.457710	0.000027
 547	5.4327e+01	5.4281	2.777669	0.000225	2.251560	0.381425	0.000023
 548	5.4426e+01	5.4388	2.806183	0.000287	2.865622	0.485450	0.000029
 549	5.4526e+01	5.4504	2.831031	0.000250	2.497185	0.423035	0.000025
 550	5.4626e+01	5.4590	2.853842	0.000229	2.292498	0.388360	0.000023
 551	5.4725e+01	5.4671	2.882763	0.000291	2.906560	0.492385	0.000029
 552	5.4825e+01	5.4803	2.907611	0.000250	2.497185	0.423035	0.000025
 553	5.4924e+01	5.4855	2.931237	0.000237	2.374373	0.402230	0.000024
 554	5.5023e+01	5.4984	2.959344	0.000282	2.824685	0.478515	0.000028
 555	5.5123e+01	5.5098	2.981340	0.000221	2.210623	0.374490	0.000022
 556	5.5222e+01	5.5199	3.010669	0.000295	2.947497	0.499320	0.000029
 557	5.5322e+01	5.5299	3.043256	0.000327	3.274997	0.554799	0.000033
 558	5.5422e+01	5.5405	3.070548	0.000274	2.742810	0.464645	0.000027
 559	5.5521e+01	5.5492	3.095396	0.000250	2.497185	0.423035	0.000025
 560	5.5620e+01	5.5568	3.125132	0.000299	2.988434	0.506254	0.000030
 561	5.5720e+01	5.5665	3.152017	0.000270	2.701872	0.457710	0.000027
 562	5.5819e+01	5.5782	3.175643	0.000237	2.374373	0.402230	0.000024
 563	5.5919e+01	5.5891	3.207823	0.000323	3.234059	0.547864	0.000032
 564	5.6019e+01	5.5993	3.234707	0.000270	2.701872	0.457710	0.000027
 565	5.6118e+01	5.6072	3.263221	0.000287	2.865622	0.485450	0.000029
 566	5.6218e+01	5.6171	3.291328	0.000282	2.824685	0.478515	0.000028
 567	5.6317e+01	5.6274	3.316176	0.000250	2.497185	0.423035	0.000025
 568	5.6416e+01	5.6381	3.349578	0.000336	3.356872	0.568669	0.000034
 569	5.6516e+01	5.6494	3.373611	0.000242	2.415310	0.409165	0.000024
 570	5.6615e+01	5.6588	3.400903	0.000274	2.742810	0.464645	0.000027
 571	5.6715e+01	5.6692	3.429417	0.000287	2.865622	0.485450	0.000029
 572	5.6815e+01	5.6785	3.460782	0.000315	3.152184	0.533994	0.000032
 573	5.6914e+01	5.6873	3.487667	0.000270	2.701872	0.457710	0.000027
 574	5.7014e+01	5.6979	3.516996	0.000295	2.947497	0.499320	0.000029
 575	5.7113e+01	5.7075	3.544288	0.000274	2.742810	0.464645	0.000027
 576	5.7212e+01	5.7172	3.575246	0.000311	3.111247	0.527059	0.000031
 577	5.7312e+01	5.7252	3.600501	0.000254	2.538122	0.429970	0.000025
 578	5.7411e+01	5.7369	3.629015	0.000287	2.865622	0.485450	0.000029
 579	5.7511e+01	5.7475	3.653863	0.000250	2.497185	0.423035	0.000025
 580	5.7611e+01	5.7589	3.685228	0.000315	3.152184	0.533994	0.000032
 581	5.7710e+01	5.7675	3.713742	0.000287	2.865622	0.485450	0.000029
 582	5.7809e+01	5.7778	3.742256	0.000287	2.865622	0.485450	0.000029
 583	5.7909e+01	5.7873	3.771585	0.000295	2.947497	0.499320	0.000029
 584	5.8008e+01	5.7978	3.801321	0.000299	2.988434	0.506254	0.000030
 585	5.8108e+01	5.8070	3.827798	0.000266	2.660935	0.450775	0.000027
 586	5.8208e+01	5.8189	3.859571	0.000319	3.193122	0.540929	0.000032
 587	5.8307e+01	5.8249	3.890529	0.000311	3.111247	0.527059	0.000031
 588	5.8407e+01	5.8352	3.923931	0.000336	3.356872	0.568669	0.000034
 589	5.8506e+01	5.8470	3.950815	0.000270	2.701872	0.457710	0.000027
 590	5.8605e+01	5.8562	3.982588	0.000319	3.193122	0.540929	0.000032
 591	5.8705e+01	5.8643	4.011917	0.000295	2.947497	0.499320	0.000029
 592	5.8804e+01	5.8759	4.044912	0.000332	3.315934	0.561734	0.000033
 593	5.8904e+01	5.8866	4.075055	0.000303	3.029372	0.513189	0.000030
 594	5.9004e+01	5.8955	4.102754	0.000278	2.783747	0.471580	0.000028
 595	5.9103e+01	5.9081	4.132083	0.000295	2.947497	0.499320	0.000029
 596	5.9203e+01	5.9136	4.168336	0.000364	3.643434	0.617214	0.000036
 597	5.9302e+01	5.9263	4.198480	0.000303	3.029372	0.513189	0.000030
 598	5.9401e+01	5.9358	4.229438	0.000311	3.111247	0.527059	0.000031
 599	5.9501e+01	5.9481	4.259581	0.000303	3.029372	0.513189	0.000030
 600	5.9600e+01	5.9562	4.288910	0.000295	2.947497	0.499320	0.000029
 601	5.9700e+01	5.9645	4.321090	0.000323	3.234059	0.547864	0.000032
 602	5.9800e+01	5.9762	4.349604	0.000287	2.865622	0.485450	0.000029
 603	5.9899e+01	5.9852	4.378118	0.000287	2.865622	0.485450	0.000029
 604	5.9998e+01	5.9961	4.407446	0.000295	2.947497	0.499320	0.000029
 605	6.0098e+01	6.0067	4.433516	0.000262	2.619997	0.443840	0.000026
 606	6.0197e+01	6.0123	4.464474	0.000311	3.111247	0.527059	0.000031
 607	6.0297e+01	6.0241	4.491766	0.000274	2.742810	0.464645	0.000027
 608	6.0397e+01	6.0339	4.522724	0.000311	3.111247	0.527059	0.000031
 609	6.0496e+01	6.0456	4.550424	0.000278	2.783747	0.471580	0.000028
 610	6.0596e+01	6.0553	4.577308	0.000270	2.701872	0.457710	0.000027
 611	6.0695e+01	6.0656	4.607044	0.000299	2.988434	0.506254	0.000030
 612	6.0794e+01	6.0786	4.637188	0.000303	3.029372	0.513189	0.000030
 613	6.0894e+01	6.0859	4.664072	0.000270	2.701872	0.457710	0.000027
 614	6.0993e+01	6.0958	4.688513	0.000246	2.456247	0.416100	0.000025
 615	6.1093e+01	6.1064	4.717434	0.000291	2.906560	0.492385	0.000029
 616	6.1193e+01	6.1167	4.744319	0.000270	2.701872	0.457710	0.000027
 617	6.1292e+01	6.1239	4.773240	0.000291	2.906560	0.492385	0.000029
 618	6.1392e+01	6.1346	4.799310	0.000262	2.619997	0.443840	0.000026
 619	6.1491e+01	6.1440	4.827824	0.000287	2.865622	0.485450	0.000029
 620	6.1590e+01	6.1533	4.855931	0.000282	2.824685	0.478515	0.000028
 621	6.1690e+01	6.1629	4.884445	0.000287	2.865622	0.485450	0.000029
 622	6.1789e+01	6.1773	4.914588	0.000303	3.029372	0.513189	0.000030
 623	6.1889e+01	6.1871	4.944731	0.000303	3.029372	0.513189	0.000030
 624	6.1989e+01	6.1980	4.975282	0.000307	3.070309	0.520124	0.000031
 625	6.2088e+01	6.2056	5.002981	0.000278	2.783747	0.471580	0.000028
 626	6.2188e+01	6.2147	5.031495	0.000287	2.865622	0.485450	0.000029
 627	6.2287e+01	6.2241	5.061231	0.000299	2.988434	0.506254	0.000030
 628	6.2386e+01	6.2336	5.090153	0.000291	2.906560	0.492385	0.000029
 629	6.2486e+01	6.2421	5.116630	0.000266	2.660935	0.450775	0.000027
 630	6.2586e+01	6.2545	5.148403	0.000319	3.193122	0.540929	0.000032
 631	6.2685e+01	6.2663	5.174065	0.000258	2.579060	0.436905	0.000026
 632	6.2785e+01	6.2702	5.204616	0.000307	3.070309	0.520124	0.000031
 633	6.2884e+01	6.2847	5.234352	0.000299	2.988434	0.506254	0.000030
 634	6.2983e+01	6.2954	5.260422	0.000262	2.619997	0.443840	0.000026
 635	6.3083e+01	6.3058	5.286492	0.000262	2.619997	0.443840	0.000026
 636	6.3182e+01	6.3128	5.318264	0.000319	3.193122	0.540929	0.000032
 637	6.3282e+01	6.3226	5.346778	0.000287	2.865622	0.485450	0.000029
 638	6.3382e+01	6.3361	5.374478	0.000278	2.783747	0.471580	0.000028
 639	6.3481e+01	6.3415	5.399733	0.000254	2.538122	0.429970	0.000025
 640	6.3581e+01	6.3541	5.429876	0.000303	3.029372	0.513189	0.000030
 641	6.3680e+01	6.3628	5.454724	0.000250	2.497185	0.423035	0.000025
 642	6.3779e+01	6.3731	5.482423	0.000278	2.783747	0.471580	0.000028
 643	6.3879e+01	6.3818	5.505642	0.000233	2.333435	0.395295	0.000023
 644	6.3978e+01	6.3929	5.532527	0.000270	2.701872	0.457710	0.000027
 645	6.4078e+01	6.4018	5.559411	0.000270	2.701872	0.457710	0.000027
 646	6.4177e+01	6.4123	5.583852	0.000246	2.456247	0.416100	0.000025
 647	6.4277e+01	6.4225	5.608700	0.000250	2.497185	0.423035	0.000025
 648	6.4376e+01	6.4358	5.638028	0.000295	2.947497	0.499320	0.000029
 649	6.4476e+01	6.4431	5.662469	0.000246	2.456247	0.416100	0.000025
 650	6.4576e+01	6.4538	5.689353	0.000270	2.701872	0.457710	0.000027
 651	6.4675e+01	6.4617	5.716645	0.000274	2.742810	0.464645	0.000027
 652	6.4775e+01	6.4711	5.741493	0.000250	2.497185	0.423035	0.000025
 653	6.4874e+01	6.4837	5.767563	0.000262	2.619997	0.443840	0.000026
 654	6.4974e+01	6.4928	5.792411	0.000250	2.497185	0.423035	0.000025
 655	6.5073e+01	6.5027	5.817666	0.000254	2.538122	0.429970	0.000025
 656	6.5172e+01	6.5131	5.843329	0.000258	2.579060	0.436905	0.000026
 657	6.5272e+01	6.5269	5.867362	0.000242	2.415310	0.409165	0.000024
 658	6.5371e+01	6.5356	5.889359	0.000221	2.210623	0.374490	0.000022
 659	6.5471e+01	6.5423	5.917465	0.000282	2.824685	0.478515	0.000028
 660	6.5570e+01	6.5537	5.943943	0.000266	2.660935	0.450775	0.000027
 661	6.5670e+01	6.5624	5.971234	0.000274	2.742810	0.464645	0.000027
 662	6.5769e+01	6.5725	5.993638	0.000225	2.251560	0.381425	0.000023
 663	6.5869e+01	6.5833	6.016449	0.000229	2.292498	0.388360	0.000023
 664	6.5969e+01	6.5920	6.048222	0.000319	3.193122	0.540929	0.000032
 665	6.6068e+01	6.6009	6.069811	0.000217	2.169685	0.367555	0.000022
 666	6.6168e+01	6.6112	6.091401	0.000217	2.169685	0.367555	0.000022
 667	6.6267e+01	6.6235	6.120322	0.000291	2.906560	0.492385	0.000029
 668	6.6367e+01	6.6326	6.141911	0.000217	2.169685	0.367555	0.000022
 669	6.6466e+01	6.6409	6.167166	0.000254	2.538122	0.429970	0.000025
 670	6.6566e+01	6.6521	6.189570	0.000225	2.251560	0.381425	0.000023
 671	6.6665e+01	6.6628	6.211567	0.000221	2.210623	0.374490	0.000022
 672	6.6764e+01	6.6698	6.233563	0.000221	2.210623	0.374490	0.000022
 673	6.6864e+01	6.6830	6.258411	0.000250	2.497185	0.423035	0.000025
 674	6.6963e+01	6.6924	6.280000	0.000217	2.169685	0.367555	0.000022
 675	6.7063e+01	6.7015	6.299960	0.000201	2.005935	0.339815	0.000020
 676	6.7162e+01	6.7126	6.323993	0.000242	2.415310	0.409165	0.000024
 677	6.7262e+01	6.7236	6.348841	0.000250	2.497185	0.423035	0.000025
 678	6.7362e+01	6.7296	6.369208	0.000205	2.046873	0.346750	0.000020
 679	6.7461e+01	6.7408	6.391205	0.000221	2.210623	0.374490	0.000022
 680	6.7561e+01	6.7509	6.412386	0.000213	2.128748	0.360620	0.000021
 681	6.7660e+01	6.7609	6.435605	0.000233	2.333435	0.395295	0.000023
 682	6.7760e+01	6.7730	6.456787	0.000213	2.128748	0.360620	0.000021
 683	6.7859e+01	6.7825	6.480820	0.000242	2.415310	0.409165	0.000024
 684	6.7959e+01	6.7918	6.503631	0.000229	2.292498	0.388360	0.000023
 685	6.8058e+01	6.8032	6.526442	0.000229	2.292498	0.388360	0.000023
 686	6.8157e+01	6.8127	6.550476	0.000242	2.415310	0.409165	0.000024
 687	6.8257e+01	6.8194	6.576545	0.000262	2.619997	0.443840	0.000026
 688	6.8356e+01	6.8314	6.598542	0.000221	2.210623	0.374490	0.000022
 689	6.8456e+01	6.8403	6.624612	0.000262	2.619997	0.443840	0.000026
 690	6.8555e+01	6.8526	6.643350	0.000188	1.883123	0.319010	0.000019
 691	6.8655e+01	6.8679	6.671456	0.000282	2.824685	0.478515	0.000028
 692	6.8754e+01	6.8701	6.695897	0.000246	2.456247	0.416100	0.000025
 693	6.8854e+01	6.8800	6.720337	0.000246	2.456247	0.416100	0.000025
 694	6.8954e+01	6.8916	6.741519	0.000213	2.128748	0.360620	0.000021
 695	6.9053e+01	6.9019	6.769626	0.000282	2.824685	0.478515	0.000028
 696	6.9153e+01	6.9143	6.794881	0.000254	2.538122	0.429970	0.000025
 697	6.9252e+01	6.9231	6.819729	0.000250	2.497185	0.423035	0.000025
 698	6.9352e+01	6.9316	6.845799	0.000262	2.619997	0.443840	0.000026
 699	6.9451e+01	6.9410	6.870647	0.000250	2.497185	0.423035	0.000025
 700	6.9550e+01	6.9509	6.893051	0.000225	2.251560	0.381425	0.000023
 701	6.9650e+01	6.9626	6.917899	0.000250	2.497185	0.423035	0.000025
 702	6.9749e+01	6.9704	6.946413	0.000287	2.865622	0.485450	0.000029
 703	6.9849e+01	6.9820	6.965558	0.000192	1.924061	0.325945	0.000019
 704	6.9948e+01	6.9885	6.991220	0.000258	2.579060	0.436905	0.000026
 705	7.0048e+01	6.9994	7.012809	0.000217	2.169685	0.367555	0.000022
 706	7.0147e+01	7.0117	7.040916	0.000282	2.824685	0.478515	0.000028
 707	7.0247e+01	7.0183	7.063727	0.000229	2.292498	0.388360	0.000023
 708	7.0347e+01	7.0306	7.085724	0.000221	2.210623	0.374490	0.000022
 709	7.0446e+01	7.0384	7.106905	0.000213	2.128748	0.360620	0.000021
 710	7.0546e+01	7.0493	7.130531	0.000237	2.374373	0.402230	0.000024
 711	7.0645e+01	7.0611	7.156194	0.000258	2.579060	0.436905	0.000026
 712	7.0745e+01	7.0717	7.177376	0.000213	2.128748	0.360620	0.000021
 713	7.0844e+01	7.0840	7.200187	0.000229	2.292498	0.388360	0.000023
 714	7.0944e+01	7.0885	7.225442	0.000254	2.538122	0.429970	0.000025
 715	7.1043e+01	7.1007	7.248661	0.000233	2.333435	0.395295	0.000023
 716	7.1142e+01	7.1107	7.272694	0.000242	2.415310	0.409165	0.000024
 717	7.1242e+01	7.1201	7.297134	0.000246	2.456247	0.416100	0.000025
 718	7.1341e+01	7.1273	7.317502	0.000205	2.046873	0.346750	0.000020
 719	7.1441e+01	7.1388	7.342349	0.000250	2.497185	0.423035	0.000025
 720	7.1540e+01	7.1487	7.366383	0.000242	2.415310	0.409165	0.000024
 721	7.1640e+01	7.1582	7.388379	0.000221	2.210623	0.374490	0.000022
 722	7.1740e+01	7.1705	7.412412	0.000242	2.415310	0.409165	0.000024
 723	7.1839e+01	7.1802	7.436853	0.000246	2.456247	0.416100	0.000025
 724	7.1939e+01	7.1902	7.464552	0.000278	2.783747	0.471580	0.000028
 725	7.2038e+01	7.1986	7.488585	0.000242	2.415310	0.409165	0.000024
 726	7.2138e+01	7.2066	7.515063	0.000266	2.660935	0.450775	0.000027
 727	7.2237e+01	7.2189	7.540725	0.000258	2.579060	0.436905	0.000026
 728	7.2337e+01	7.2289	7.565981	0.000254	2.538122	0.429970	0.000025
 729	7.2436e+01	7.2366	7.593680	0.000278	2.783747	0.471580	0.000028
 730	7.2535e+01	7.2494	7.619342	0.000258	2.579060	0.436905	0.000026
 731	7.2635e+01	7.2594	7.645005	0.000258	2.579060	0.436905	0.000026
 732	7.2734e+01	7.2689	7.666187	0.000213	2.128748	0.360620	0.000021
 733	7.2834e+01	7.2795	7.694701	0.000287	2.865622	0.485450	0.000029
 734	7.2933e+01	7.2891	7.718734	0.000242	2.415310	0.409165	0.000024
 735	7.3033e+01	7.2992	7.746433	0.000278	2.783747	0.471580	0.000028
 736	7.3132e+01	7.3097	7.777391	0.000311	3.111247	0.527059	0.000031
 737	7.3232e+01	7.3202	7.800610	0.000233	2.333435	0.395295	0.000023
 738	7.3332e+01	7.3285	7.825865	0.000254	2.538122	0.429970	0.000025
 739	7.3431e+01	7.3394	7.854786	0.000291	2.906560	0.492385	0.000029
 740	7.3531e+01	7.3493	7.880449	0.000258	2.579060	0.436905	0.000026
 741	7.3630e+01	7.3601	7.905297	0.000250	2.497185	0.423035	0.000025
 742	7.3730e+01	7.3684	7.934218	0.000291	2.906560	0.492385	0.000029
 743	7.3829e+01	7.3806	7.958659	0.000246	2.456247	0.416100	0.000025
 744	7.3928e+01	7.3895	7.983914	0.000254	2.538122	0.429970	0.000025
 745	7.4028e+01	7.3975	8.008355	0.000246	2.456247	0.416100	0.000025
 746	7.4127e+01	7.4091	8.034832	0.000266	2.660935	0.450775	0.000027
 747	7.4227e+01	7.4177	8.062938	0.000282	2.824685	0.478515	0.000028
 748	7.4326e+01	7.4287	8.088194	0.000254	2.538122	0.429970	0.000025
 749	7.4426e+01	7.4380	8.119152	0.000311	3.111247	0.527059	0.000031
 750	7.4525e+01	7.4493	8.138704	0.000196	1.964998	0.332880	0.000020
 751	7.4625e+01	7.4576	8.168440	0.000299	2.988434	0.506254	0.000030
 752	7.4725e+01	7.4707	8.197362	0.000291	2.906560	0.492385	0.000029
 753	7.4824e+01	7.4797	8.225468	0.000282	2.824685	0.478515	0.000028
 754	7.4924e+01	7.4859	8.251945	0.000266	2.660935	0.450775	0.000027
 755	7.5023e+01	7.5000	8.284533	0.000327	3.274997	0.554799	0.000033
 756	7.5123e+01	7.5080	8.310603	0.000262	2.619997	0.443840	0.000026
 757	7.5222e+01	7.5173	8.341153	0.000307	3.070309	0.520124	0.000031
 758	7.5322e+01	7.5269	8.370075	0.000291	2.906560	0.492385	0.000029
 759	7.5421e+01	7.5395	8.399403	0.000295	2.947497	0.499320	0.000029
 760	7.5520e+01	7.5488	8.426288	0.000270	2.701872	0.457710	0.000027
 761	7.5620e+01	7.5576	8.454395	0.000282	2.824685	0.478515	0.000028
 762	7.5719e+01	7.5664	8.483723	0.000295	2.947497	0.499320	0.000029
 763	7.5819e+01	7.5770	8.511015	0.000274	2.742810	0.464645	0.000027
 764	7.5918e+01	7.5856	8.541566	0.000307	3.070309	0.520124	0.000031
 765	7.6018e+01	7.5984	8.569673	0.000282	2.824685	0.478515	0.000028
 766	7.6118e+01	7.6074	8.597372	0.000278	2.783747	0.471580	0.000028
 767	7.6217e+01	7.6166	8.627923	0.000307	3.070309	0.520124	0.000031
 768	7.6317e+01	7.6270	8.654807	0.000270	2.701872	0.457710	0.000027
 769	7.6416e+01	7.6376	8.682099	0.000274	2.742810	0.464645	0.000027
 770	7.6516e+01	7.6445	8.708576	0.000266	2.660935	0.450775	0.000027
 771	7.6615e+01	7.6569	8.736683	0.000282	2.824685	0.478515	0.000028
 772	7.6715e+01	7.6671	8.766826	0.000303	3.029372	0.513189	0.000030
 773	7.6814e+01	7.6732	8.788823	0.000221	2.210623	0.374490	0.000022
 774	7.6913e+01	7.6873	8.817337	0.000287	2.865622	0.485450	0.000029
 775	7.7013e+01	7.6937	8.844629	0.000274	2.742810	0.464645	0.000027
 776	7.7112e+01	7.7062	8.872735	0.000282	2.824685	0.478515	0.000028
 777	7.7212e+01	7.7153	8.897991	0.000254	2.538122	0.429970	0.000025
 778	7.7311e+01	7.7275	8.924061	0.000262	2.619997	0.443840	0.000026
 779	7.7411e+01	7.7411	8.951353	0.000274	2.742810	0.464645	0.000027
 780	7.7510e+01	7.7454	8.974978	0.000237	2.374373	0.402230	0.000024
 781	7.7610e+01	7.7582	9.001863	0.000270	2.701872	0.457710	0.000027
 782	7.7710e+01	7.7644	9.028748	0.000270	2.701872	0.457710	0.000027
 783	7.7809e+01	7.7757	9.052781	0.000242	2.415310	0.409165	0.000024
 784	7.7909e+01	7.7881	9.073963	0.000213	2.128748	0.360620	0.000021
 785	7.8008e+01	7.7950	9.105735	0.000319	3.193122	0.540929	0.000032
 786	7.8108e+01	7.8063	9.130583	0.000250	2.497185	0.423035	0.000025
 787	7.8207e+01	7.8151	9.158283	0.000278	2.783747	0.471580	0.000028
 788	7.8306e+01	7.8249	9.183130	0.000250	2.497185	0.423035	0.000025
 789	7.8406e+01	7.8342	9.210422	0.000274	2.742810	0.464645	0.000027
 790	7.8505e+01	7.8452	9.236085	0.000258	2.579060	0.436905	0.000026
 791	7.8605e+01	7.8580	9.265006	0.000291	2.906560	0.492385	0.000029
 792	7.8704e+01	7.8674	9.297186	0.000323	3.234059	0.547864	0.000032
 793	7.8804e+01	7.8752	9.322442	0.000254	2.538122	0.429970	0.000025
 794	7.8903e+01	7.8857	9.348919	0.000266	2.660935	0.450775	0.000027
 795	7.9003e+01	7.8957	9.377026	0.000282	2.824685	0.478515	0.000028
 796	7.9103e+01	7.9088	9.401059	0.000242	2.415310	0.409165	0.000024
 797	7.9202e+01	7.9182	9.429573	0.000287	2.865622	0.485450	0.000029
 798	7.9302e+01	7.9240	9.453606	0.000242	2.415310	0.409165	0.000024
 799	7.9401e+01	7.9347	9.480491	0.000270	2.701872	0.457710	0.000027
 800	7.9501e+01	7.9450	9.510227	0.000299	2.988434	0.506254	0.000030
 801	7.9600e+01	7.9584	9.537926	0.000278	2.783747	0.471580	0.000028
 802	7.9700e+01	7.9678	9.565625	0.000278	2.783747	0.471580	0.000028
 803	7.9799e+01	7.9755	9.592510	0.000270	2.701872	0.457710	0.000027
 804	7.9898e+01	7.9883	9.617765	0.000254	2.538122	0.429970	0.000025
 805	7.9998e+01	7.9934	9.642206	0.000246	2.456247	0.416100	0.000025
 806	8.0097e+01	8.0030	9.669090	0.000270	2.701872	0.457710	0.000027
 807	8.0197e+01	8.0148	9.694753	0.000258	2.579060	0.436905	0.000026
 808	8.0296e+01	8.0247	9.724081	0.000295	2.947497	0.499320	0.000029
 809	8.0396e+01	8.0360	9.744856	0.000209	2.087810	0.353685	0.000021
 810	8.0496e+01	8.0448	9.768482	0.000237	2.374373	0.402230	0.000024
 811	8.0595e+01	8.0556	9.794959	0.000266	2.660935	0.450775	0.000027
 812	8.0695e+01	8.0655	9.818178	0.000233	2.333435	0.395295	0.000023
 813	8.0794e+01	8.0741	9.840174	0.000221	2.210623	0.374490	0.000022
 814	8.0894e+01	8.0833	9.864615	0.000246	2.456247	0.416100	0.000025
 815	8.0993e+01	8.0953	9.891499	0.000270	2.701872	0.457710	0.000027
 816	8.1093e+01	8.1034	9.915940	0.000246	2.456247	0.416100	0.000025
 817	8.1192e+01	8.1136	9.942824	0.000270	2.701872	0.457710	0.000027
 818	8.1291e+01	8.1285	9.967265	0.000246	2.456247	0.416100	0.000025
 819	8.1391e+01	8.1329	9.986817	0.000196	1.964998	0.332880	0.000020
 820	8.1490e+01	8.1449	10.007184	0.000205	2.046873	0.346750	0.000020
 821	8.1590e+01	8.1533	10.031625	0.000246	2.456247	0.416100	0.000025
 822	8.1689e+01	8.1648	10.056880	0.000254	2.538122	0.429970	0.000025
 823	8.1789e+01	8.1727	10.081728	0.000250	2.497185	0.423035	0.000025
 824	8.1888e+01	8.1860	10.106983	0.000254	2.538122	0.429970	0.000025
 825	8.1988e+01	8.1928	10.129387	0.000225	2.251560	0.381425	0.000023
 826	8.2088e+01	8.2048	10.150976	0.000217	2.169685	0.367555	0.000022
 827	8.2187e+01	8.2154	10.172566	0.000217	2.169685	0.367555	0.000022
 828	8.2287e+01	8.2229	10.198228	0.000258	2.579060	0.436905	0.000026
 829	8.2386e+01	8.2349	10.226742	0.000287	2.865622	0.485450	0.000029
 830	8.2486e+01	8.2431	10.245887	0.000192	1.924061	0.325945	0.000019
 831	8.2585e+01	8.2537	10.271142	0.000254	2.538122	0.429970	0.000025
 832	8.2684e+01	8.2617	10.292732	0.000217	2.169685	0.367555	0.000022
 833	8.2784e+01	8.2741	10.314728	0.000221	2.210623	0.374490	0.000022
 834	8.2883e+01	8.2832	10.339169	0.000246	2.456247	0.416100	0.000025
 835	8.2983e+01	8.2944	10.358721	0.000196	1.964998	0.332880	0.000020
 836	8.3082e+01	8.3039	10.385606	0.000270	2.701872	0.457710	0.000027
 837	8.3182e+01	8.3148	10.403936	0.000184	1.842186	0.312075	0.000018
 838	8.3281e+01	8.3228	10.423896	0.000201	2.005935	0.339815	0.000020
 839	8.3381e+01	8.3350	10.447522	0.000237	2.374373	0.402230	0.000024
 840	8.3481e+01	8.3435	10.466260	0.000188	1.883123	0.319010	0.000019
 841	8.3580e+01	8.3521	10.487441	0.000213	2.128748	0.360620	0.000021
 842	8.3680e+01	8.3633	10.510253	0.000229	2.292498	0.388360	0.000023
 843	8.3779e+01	8.3744	10.529805	0.000196	1.964998	0.332880	0.000020
 844	8.3879e+01	8.3848	10.553023	0.000233	2.333435	0.395295	0.000023
 845	8.3978e+01	8.3936	10.571354	0.000184	1.842186	0.312075	0.000018
 846	8.4078e+01	8.4039	10.588462	0.000172	1.719373	0.291270	0.000017
 847	8.4177e+01	8.4131	10.613718	0.000254	2.538122	0.429970	0.000025
 848	8.4276e+01	8.4251	10.633677	0.000201	2.005935	0.339815	0.000020
 849	8.4376e+01	8.4335	10.651193	0.000176	1.760311	0.298205	0.000018
 850	8.4475e+01	8.4421	10.674412	0.000233	2.333435	0.395295	0.000023
 851	8.4575e+01	8.4538	10.696001	0.000217	2.169685	0.367555	0.000022
 852	8.4674e+01	8.4647	10.717183	0.000213	2.128748	0.360620	0.000021
 853	8.4774e+01	8.4718	10.742845	0.000258	2.579060	0.436905	0.000026
 854	8.4874e+01	8.4814	10.761583	0.000188	1.883123	0.319010	0.000019
 855	8.4973e+01	8.4922	10.786838	0.000254	2.538122	0.429970	0.000025
 856	8.5073e+01	8.5065	10.807205	0.000205	2.046873	0.346750	0.000020
 857	8.5172e+01	8.5139	10.830016	0.000229	2.292498	0.388360	0.000023
 858	8.5272e+01	8.5229	10.854457	0.000246	2.456247	0.416100	0.000025
 859	8.5371e+01	8.5329	10.872787	0.000184	1.842186	0.312075	0.000018
 860	8.5471e+01	8.5440	10.899672	0.000270	2.701872	0.457710	0.000027
 861	8.5570e+01	8.5523	10.922483	0.000229	2.292498	0.388360	0.000023
 862	8.5669e+01	8.5645	10.943665	0.000213	2.128748	0.360620	0.000021
 863	8.5769e+01	8.5735	10.966476	0.000229	2.292498	0.388360	0.000023
 864	8.5868e+01	8.5818	10.987658	0.000213	2.128748	0.360620	0.000021
 865	8.5968e+01	8.5924	11.015765	0.000282	2.824685	0.478515	0.000028
 866	8.6067e+01	8.5991	11.037761	0.000221	2.210623	0.374490	0.000022
 867	8.6167e+01	8.6108	11.065053	0.000274	2.742810	0.464645	0.000027
 868	8.6266e+01	8.6237	11.084606	0.000196	1.964998	0.332880	0.000020
 869	8.6366e+01	8.6316	11.106195	0.000217	2.169685	0.367555	0.000022
 870	8.6466e+01	8.6437	11.129821	0.000237	2.374373	0.402230	0.000024
 871	8.6565e+01	8.6526	11.152632	0.000229	2.292498	0.388360	0.000023
 872	8.6665e+01	8.6607	11.173406	0.000209	2.087810	0.353685	0.000021
 873	8.6764e+01	8.6733	11.195403	0.000221	2.210623	0.374490	0.000022
 874	8.6864e+01	8.6816	11.217807	0.000225	2.251560	0.381425	0.000023
 875	8.6963e+01	8.6915	11.240618	0.000229	2.292498	0.388360	0.000023
 876	8.7063e+01	8.7000	11.260577	0.000201	2.005935	0.339815	0.000020
 877	8.7162e+01	8.7113	11.282574	0.000221	2.210623	0.374490	0.000022
 878	8.7261e+01	8.7214	11.306607	0.000242	2.415310	0.409165	0.000024
 879	8.7361e+01	8.7312	11.328196	0.000217	2.169685	0.367555	0.000022
 880	8.7460e+01	8.7379	11.350193	0.000221	2.210623	0.374490	0.000022
 881	8.7560e+01	8.7524	11.372189	0.000221	2.210623	0.374490	0.000022
 882	8.7659e+01	8.7628	11.390520	0.000184	1.842186	0.312075	0.000018
 883	8.7759e+01	8.7724	11.418626	0.000282	2.824685	0.478515	0.000028
 884	8.7859e+01	8.7830	11.434513	0.000160	1.596561	0.270465	0.000016
 885	8.7958e+01	8.7927	11.457324	0.000229	2.292498	0.388360	0.000023
 886	8.8058e+01	8.8010	11.482987	0.000258	2.579060	0.436905	0.000026
 887	8.8157e+01	8.8099	11.501724	0.000188	1.883123	0.319010	0.000019
 888	8.8257e+01	8.8216	11.524535	0.000229	2.292498	0.388360	0.000023
 889	8.8356e+01	8.8284	11.544903	0.000205	2.046873	0.346750	0.000020
 890	8.8456e+01	8.8383	11.568121	0.000233	2.333435	0.395295	0.000023
 891	8.8555e+01	8.8519	11.590932	0.000229	2.292498	0.388360	0.000023
 892	8.8654e+01	8.8601	11.616188	0.000254	2.538122	0.429970	0.000025
 893	8.8754e+01	8.8708	11.642257	0.000262	2.619997	0.443840	0.000026
 894	8.8853e+01	8.8789	11.665069	0.000229	2.292498	0.388360	0.000023
 895	8.8953e+01	8.8902	11.689917	0.000250	2.497185	0.423035	0.000025
 896	8.9052e+01	8.8982	11.712728	0.000229	2.292498	0.388360	0.000023
 897	8.9152e+01	8.9094	11.737576	0.000250	2.497185	0.423035	0.000025
 898	8.9251e+01	8.9209	11.760387	0.000229	2.292498	0.388360	0.000023
 899	8.9351e+01	8.9307	11.789308	0.000291	2.906560	0.492385	0.000029
 900	8.9451e+01	8.9386	11.812934	0.000237	2.374373	0.402230	0.000024
 901	8.9550e+01	8.9502	11.835745	0.000229	2.292498	0.388360	0.000023
 902	8.9650e+01	8.9600	11.856112	0.000205	2.046873	0.346750	0.000020
 903	8.9749e+01	8.9673	11.885034	0.000291	2.906560	0.492385	0.000029
 904	8.9849e+01	8.9816	11.906623	0.000217	2.169685	0.367555	0.000022
 905	8.9948e+01	8.9893	11.934729	0.000282	2.824685	0.478515	0.000028
 906	9.0047e+01	9.0030	11.959577	0.000250	2.497185	0.423035	0.000025
 907	9.0147e+01	9.0115	11.986055	0.000266	2.660935	0.450775	0.000027
 908	9.0246e+01	9.0195	12.012532	0.000266	2.660935	0.450775	0.000027
 909	9.0346e+01	9.0295	12.034121	0.000217	2.169685	0.367555	0.000022
 910	9.0445e+01	9.0395	12.058562	0.000246	2.456247	0.416100	0.000025
 911	9.0545e+01	9.0491	12.085446	0.000270	2.701872	0.457710	0.000027
 912	9.0644e+01	9.0598	12.108665	0.000233	2.333435	0.395295	0.000023
 913	9.0744e+01	9.0698	12.132698	0.000242	2.415310	0.409165	0.000024
 914	9.0844e+01	9.0790	12.158360	0.000258	2.579060	0.436905	0.000026
 915	9.0943e+01	9.0881	12.181579	0.000233	2.333435	0.395295	0.000023
 916	9.1043e+01	9.0967	12.208464	0.000270	2.701872	0.457710	0.000027
 917	9.1142e+01	9.1086	12.234941	0.000266	2.660935	0.450775	0.000027
 918	9.1242e+01	9.1162	12.256123	0.000213	2.128748	0.360620	0.000021
 919	9.1341e+01	9.1272	12.286266	0.000303	3.029372	0.513189	0.000030
 920	9.1441e+01	9.1396	12.312743	0.000266	2.660935	0.450775	0.000027
 921	9.1540e+01	9.1470	12.340035	0.000274	2.742810	0.464645	0.000027
 922	9.1639e+01	9.1566	12.366105	0.000262	2.619997	0.443840	0.000026
 923	9.1739e+01	9.1676	12.395026	0.000291	2.906560	0.492385	0.000029
 924	9.1838e+01	9.1782	12.423948	0.000291	2.906560	0.492385	0.000029
 925	9.1938e+01	9.1862	12.451240	0.000274	2.742810	0.464645	0.000027
 926	9.2037e+01	9.1978	12.476495	0.000254	2.538122	0.429970	0.000025
 927	9.2137e+01	9.2091	12.502972	0.000266	2.660935	0.450775	0.000027
 928	9.2237e+01	9.2188	12.529857	0.000270	2.701872	0.457710	0.000027
 929	9.2336e+01	9.2267	12.555519	0.000258	2.579060	0.436905	0.000026
 930	9.2436e+01	9.2389	12.586477	0.000311	3.111247	0.527059	0.000031
 931	9.2535e+01	9.2441	12.614177	0.000278	2.783747	0.471580	0.000028
 932	9.2635e+01	9.2578	12.638617	0.000246	2.456247	0.416100	0.000025
 933	9.2734e+01	9.2716	12.665909	0.000274	2.742810	0.464645	0.000027
 934	9.2834e+01	9.2783	12.693609	0.000278	2.783747	0.471580	0.000028
 935	9.2933e+01	9.2896	12.723345	0.000299	2.988434	0.506254	0.000030
 936	9.3032e+01	9.2987	12.748192	0.000250	2.497185	0.423035	0.000025
 937	9.3132e+01	9.3085	12.776706	0.000287	2.865622	0.485450	0.000029
 938	9.3231e+01	9.3182	12.802776	0.000262	2.619997	0.443840	0.000026
 939	9.3331e+01	9.3304	12.831698	0.000291	2.906560	0.492385	0.000029
 940	9.3430e+01	9.3391	12.857360	0.000258	2.579060	0.436905	0.000026
 941	9.3530e+01	9.3472	12.880579	0.000233	2.333435	0.395295	0.000023
 942	9.3629e+01	9.3573	12.902983	0.000225	2.251560	0.381425	0.000023
 943	9.3729e+01	9.3669	12.927423	0.000246	2.456247	0.416100	0.000025
 944	9.3829e+01	9.3769	12.958789	0.000315	3.152184	0.533994	0.000032
 945	9.3928e+01	9.3884	12.979970	0.000213	2.128748	0.360620	0.000021
 946	9.4028e+01	9.3967	13.008484	0.000287	2.865622	0.485450	0.000029
 947	9.4127e+01	9.4080	13.032110	0.000237	2.374373	0.402230	0.000024
 948	9.4227e+01	9.4159	13.057365	0.000254	2.538122	0.429970	0.000025
 949	9.4326e+01	9.4263	13.079769	0.000225	2.251560	0.381425	0.000023
 950	9.4425e+01	9.4385	13.106247	0.000266	2.660935	0.450775	0.000027
 951	9.4525e+01	9.4471	13.129872	0.000237	2.374373	0.402230	0.000024
 952	9.4624e+01	9.4563	13.154720	0.000250	2.497185	0.423035	0.000025
 953	9.4724e+01	9.4669	13.178754	0.000242	2.415310	0.409165	0.000024
 954	9.4823e+01	9.4769	13.204009	0.000254	2.538122	0.429970	0.000025
 955	9.4923e+01	9.4862	13.230079	0.000262	2.619997	0.443840	0.000026
 956	9.5022e+01	9.4958	13.257778	0.000278	2.783747	0.471580	0.000028
 957	9.5122e+01	9.5078	13.280182	0.000225	2.251560	0.381425	0.000023
 958	9.5222e+01	9.5142	13.309511	0.000295	2.947497	0.499320	0.000029
 959	9.5321e+01	9.5255	13.333951	0.000246	2.456247	0.416100	0.000025
 960	9.5421e+01	9.5364	13.359206	0.000254	2.538122	0.429970	0.000025
 961	9.5520e+01	9.5474	13.386498	0.000274	2.742810	0.464645	0.000027
 962	9.5620e+01	9.5569	13.411754	0.000254	2.538122	0.429970	0.000025
 963	9.5719e+01	9.5655	13.437823	0.000262	2.619997	0.443840	0.000026
 964	9.5819e+01	9.5779	13.467967	0.000303	3.029372	0.513189	0.000030
 965	9.5918e+01	9.5850	13.491593	0.000237	2.374373	0.402230	0.000024
 966	9.6017e+01	9.5962	13.515626	0.000242	2.415310	0.409165	0.000024
 967	9.6117e+01	9.6066	13.542103	0.000266	2.660935	0.450775	0.000027
 968	9.6216e+01	9.6191	13.569802	0.000278	2.783747	0.471580	0.000028
 969	9.6316e+01	9.6249	13.596687	0.000270	2.701872	0.457710	0.000027
 970	9.6415e+01	9.6362	13.624386	0.000278	2.783747	0.471580	0.000028
 971	9.6515e+01	9.6475	13.648827	0.000246	2.456247	0.416100	0.000025
 972	9.6615e+01	9.6564	13.675304	0.000266	2.660935	0.450775	0.000027
 973	9.6714e+01	9.6658	13.697301	0.000221	2.210623	0.374490	0.000022
 974	9.6814e+01	9.6771	13.723371	0.000262	2.619997	0.443840	0.000026
 975	9.6913e+01	9.6866	13.748218	0.000250	2.497185	0.423035	0.000025
 976	9.7013e+01	9.6928	13.770622	0.000225	2.251560	0.381425	0.000023
 977	9.7112e+01	9.7041	13.793026	0.000225	2.251560	0.381425	0.000023
 978	9.7212e+01	9.7157	13.816652	0.000237	2.374373	0.402230	0.000024
 979	9.7311e+01	9.7269	13.842722	0.000262	2.619997	0.443840	0.000026
 980	9.7410e+01	9.7349	13.865533	0.000229	2.292498	0.388360	0.000023
 981	9.7510e+01	9.7452	13.891603	0.000262	2.619997	0.443840	0.000026
 982	9.7609e+01	9.7559	13.911970	0.000205	2.046873	0.346750	0.000020
 983	9.7709e+01	9.7638	13.936818	0.000250	2.497185	0.423035	0.000025
 984	9.7808e+01	9.7769	13.959222	0.000225	2.251560	0.381425	0.000023
 985	9.7908e+01	9.7855	13.983662	0.000246	2.456247	0.416100	0.000025
 986	9.8007e+01	9.7949	14.003215	0.000196	1.964998	0.332880	0.000020
 987	9.8107e+01	9.8047	14.029285	0.000262	2.619997	0.443840	0.000026
 988	9.8207e+01	9.8151	14.050467	0.000213	2.128748	0.360620	0.000021
 989	9.8306e+01	9.8248	14.075722	0.000254	2.538122	0.429970	0.000025
 990	9.8406e+01	9.8341	14.098533	0.000229	2.292498	0.388360	0.000023
 991	9.8505e+01	9.8443	14.119715	0.000213	2.128748	0.360620	0.000021
 992	9.8605e+01	9.8560	14.140489	0.000209	2.087810	0.353685	0.000021
 993	9.8704e+01	9.8646	14.165337	0.000250	2.497185	0.423035	0.000025
 994	9.8803e+01	9.8737	14.188148	0.000229	2.292498	0.388360	0.000023
 995	9.8903e+01	9.8840	14.214626	0.000266	2.660935	0.450775	0.000027
 996	9.9002e+01	9.8979	14.234993	0.000205	2.046873	0.346750	0.000020
 997	9.9102e+01	9.9041	14.257804	0.000229	2.292498	0.388360	0.000023
 998	9.9201e+01	9.9146	14.282245	0.000246	2.456247	0.416100	0.000025
 999	9.9301e+01	9.9232	14.303834	0.000217	2.169685	0.367555	0.000022
1000	9.9400e+01	9.9335	14.325830	0.000221	2.210623	0.374490	0.000022
1001	9.9500e+01	9.9420	14.349863	0.000242	2.415310	0.409165	0.000024
1002	9.9600e+01	9.9545	14.366564	0.000168	1.678436	0.284335	0.000017
1003	9.9699e+01	9.9646	14.392227	0.000258	2.579060	0.436905	0.000026
1004	9.9799e+01	9.9725	14.406891	0.000147	1.473748	0.249660	0.000015
1005	9.9898e+01	9.9823	14.432961	0.000262	2.619997	0.443840	0.000026
1006	9.9998e+01	9.9957	14.453328	0.000205	2.046873	0.346750	0.000020
1007	1.0010e+02	9.9854	14.431739	0.000217	2.169685	0.367555	-0.000022
1008	1.0020e+02	9.9751	14.412187	0.000196	1.964998	0.332880	-0.000020
1009	1.0030e+02	9.9647	14.390190	0.000221	2.210623	0.374490	-0.000022
1010	1.0040e+02	9.9538	14.369416	0.000209	2.087810	0.353685	-0.000021
1011	1.0050e+02	9.9432	14.348641	0.000209	2.087810	0.353685	-0.000021
1012	1.0059e+02	9.9341	14.323793	0.000250	2.497185	0.423035	-0.000025
1013	1.0069e+02	9.9244	14.299760	0.000242	2.415310	0.409165	-0.000024
1014	1.0079e+02	9.9137	14.280208	0.000196	1.964998	0.332880	-0.000020
1015	1.0089e+02	9.9061	14.256989	0.000233	2.333435	0.395295	-0.000023
1016	1.0099e+02	9.8955	14.235400	0.000217	2.169685	0.367555	-0.000022
1017	1.0109e+02	9.8862	14.216662	0.000188	1.883123	0.319010	-0.000019
1018	1.0119e+02	9.8762	14.191407	0.000254	2.538122	0.429970	-0.000025
1019	1.0129e+02	9.8633	14.170633	0.000209	2.087810	0.353685	-0.000021
1020	1.0139e+02	9.8524	14.146192	0.000246	2.456247	0.416100	-0.000025
1021	1.0149e+02	9.8462	14.125825	0.000205	2.046873	0.346750	-0.000020
1022	1.0159e+02	9.8374	14.104643	0.000213	2.128748	0.360620	-0.000021
1023	1.0169e+02	9.8252	14.085091	0.000196	1.964998	0.332880	-0.000020
1024	1.0179e+02	9.8147	14.065131	0.000201	2.005935	0.339815	-0.000020
1025	1.0189e+02	9.8026	14.043134	0.000221	2.210623	0.374490	-0.000022
1026	1.0199e+02	9.7950	14.021953	0.000213	2.128748	0.360620	-0.000021
1027	1.0209e+02	9.7855	14.002808	0.000192	1.924061	0.325945	-0.000019
1028	1.0219e+02	9.7754	13.979589	0.000233	2.333435	0.395295	-0.000023
1029	1.0229e+02	9.7638	13.959629	0.000201	2.005935	0.339815	-0.000020
1030	1.0239e+02	9.7534	13.941706	0.000180	1.801248	0.305140	-0.000018
1031	1.0248e+02	9.7461	13.919302	0.000225	2.251560	0.381425	-0.000023
1032	1.0258e+02	9.7392	13.901787	0.000176	1.760311	0.298205	-0.000018
1033	1.0268e+02	9.7266	13.879383	0.000225	2.251560	0.381425	-0.000023
1034	1.0278e+02	9.7150	13.861867	0.000176	1.760311	0.298205	-0.000018
1035	1.0288e+02	9.7052	13.839871	0.000221	2.210623	0.374490	-0.000022
1036	1.0298e+02	9.6973	13.817467	0.000225	2.251560	0.381425	-0.000023
1037	1.0308e+02	9.6844	13.797914	0.000196	1.964998	0.332880	-0.000020
1038	1.0318e+02	9.6761	13.778362	0.000196	1.964998	0.332880	-0.000020
1039	1.0328e+02	9.6657	13.756773	0.000217	2.169685	0.367555	-0.000022
1040	1.0338e+02	9.6558	13.735591	0.000213	2.128748	0.360620	-0.000021
1041	1.0348e+02	9.6454	13.711965	0.000237	2.374373	0.402230	-0.000024
1042	1.0358e+02	9.6341	13.689968	0.000221	2.210623	0.374490	-0.000022
1043	1.0368e+02	9.6271	13.667157	0.000229	2.292498	0.388360	-0.000023
1044	1.0378e+02	9.6167	13.642717	0.000246	2.456247	0.416100	-0.000025
1045	1.0388e+02	9.6033	13.623979	0.000188	1.883123	0.319010	-0.000019
1046	1.0398e+02	9.5987	13.603205	0.000209	2.087810	0.353685	-0.000021
1047	1.0408e+02	9.5884	13.577542	0.000258	2.579060	0.436905	-0.000026
1048	1.0418e+02	9.5766	13.556767	0.000209	2.087810	0.353685	-0.000021
1049	1.0428e+02	9.5657	13.534364	0.000225	2.251560	0.381425	-0.000023
1050	1.0438e+02	9.5569	13.512774	0.000217	2.169685	0.367555	-0.000022
1051	1.0447e+02	9.5465	13.490778	0.000221	2.210623	0.374490	-0.000022
1052	1.0457e+02	9.5374	13.469596	0.000213	2.128748	0.360620	-0.000021
1053	1.0467e+02	9.5264	13.445156	0.000246	2.456247	0.416100	-0.000025
1054	1.0477e+02	9.5197	13.424788	0.000205	2.046873	0.346750	-0.000020
1055	1.0487e+02	9.5071	13.400348	0.000246	2.456247	0.416100	-0.000025
1056	1.0497e+02	9.4961	13.378759	0.000217	2.169685	0.367555	-0.000022
1057	1.0507e+02	9.4888	13.358392	0.000205	2.046873	0.346750	-0.000020
1058	1.0517e+02	9.4751	13.335988	0.000225	2.251560	0.381425	-0.000023
1059	1.0527e+02	9.4679	13.316843	0.000192	1.924061	0.325945	-0.000019
1060	1.0537e+02	9.4547	13.296883	0.000201	2.005935	0.339815	-0.000020
1061	1.0547e+02	9.4482	13.277738	0.000192	1.924061	0.325945	-0.000019
1062	1.0557e+02	9.4361	13.256556	0.000213	2.128748	0.360620	-0.000021
1063	1.0567e+02	9.4264	13.237411	0.000192	1.924061	0.325945	-0.000019
1064	1.0577e+02	9.4168	13.217044	0.000205	2.046873	0.346750	-0.000020
1065	1.0587e+02	9.4067	13.193011	0.000242	2.415310	0.409165	-0.000024
1066	1.0597e+02	9.3982	13.173458	0.000196	1.964998	0.332880	-0.000020
1067	1.0607e+02	9.3884	13.157572	0.000160	1.596561	0.270465	-0.000016
1068	1.0617e+02	9.3788	13.137205	0.000205	2.046873	0.346750	-0.000020
1069	1.0627e+02	9.3681	13.119282	0.000180	1.801248	0.305140	-0.000018
1070	1.0637e+02	9.3555	13.097285	0.000221	2.210623	0.374490	-0.000022
1071	1.0647e+02	9.3479	13.077733	0.000196	1.964998	0.332880	-0.000020
1072	1.0656e+02	9.3359	13.058995	0.000188	1.883123	0.319010	-0.000019
1073	1.0666e+02	9.3266	13.040257	0.000188	1.883123	0.319010	-0.000019
1074	1.0676e+02	9.3164	13.020297	0.000201	2.005935	0.339815	-0.000020
1075	1.0686e+02	9.3079	12.999930	0.000205	2.046873	0.346750	-0.000020
1076	1.0696e+02	9.2980	12.979563	0.000205	2.046873	0.346750	-0.000020
1077	1.0706e+02	9.2872	12.962047	0.000176	1.760311	0.298205	-0.000018
1078	1.0716e+02	9.2793	12.940458	0.000217	2.169685	0.367555	-0.000022
1079	1.0726e+02	9.2683	12.919684	0.000209	2.087810	0.353685	-0.000021
1080	1.0736e+02	9.2590	12.898095	0.000217	2.169685	0.367555	-0.000022
1081	1.0746e+02	9.2487	12.880986	0.000172	1.719373	0.291270	-0.000017
1082	1.0756e+02	9.2371	12.862248	0.000188	1.883123	0.319010	-0.000019
1083	1.0766e+02	9.2301	12.843103	0.000192	1.924061	0.325945	-0.000019
1084	1.0776e+02	9.2170	12.825588	0.000176	1.760311	0.298205	-0.000018
1085	1.0786e+02	9.2085	12.805628	0.000201	2.005935	0.339815	-0.000020
1086	1.0796e+02	9.1992	12.784853	0.000209	2.087810	0.353685	-0.000021
1087	1.0806e+02	9.1895	12.766116	0.000188	1.883123	0.319010	-0.000019
1088	1.0816e+02	9.1797	12.745748	0.000205	2.046873	0.346750	-0.000020
1089	1.0826e+02	9.1695	12.727011	0.000188	1.883123	0.319010	-0.000019
1090	1.0836e+02	9.1578	12.713568	0.000135	1.350936	0.228855	-0.000014
1091	1.0845e+02	9.1504	12.694016	0.000196	1.964998	0.332880	-0.000020
1092	1.0855e+02	9.1394	12.677315	0.000168	1.678436	0.284335	-0.000017
1093	1.0865e+02	9.1280	12.661429	0.000160	1.596561	0.270465	-0.000016
1094	1.0875e+02	9.1215	12.644320	0.000172	1.719373	0.291270	-0.000017
1095	1.0885e+02	9.1101	12.624768	0.000196	1.964998	0.332880	-0.000020
1096	1.0895e+02	9.0992	12.607252	0.000176	1.760311	0.298205	-0.000018
1097	1.0905e+02	9.0869	12.589736	0.000176	1.760311	0.298205	-0.000018
1098	1.0915e+02	9.0779	12.571813	0.000180	1.801248	0.305140	-0.000018
1099	1.0925e+02	9.0692	12.558778	0.000131	1.309999	0.221920	-0.000013
1100	1.0935e+02	9.0584	12.539633	0.000192	1.924061	0.325945	-0.000019
1101	1.0945e+02	9.0488	12.518859	0.000209	2.087810	0.353685	-0.000021
1102	1.0955e+02	9.0393	12.501750	0.000172	1.719373	0.291270	-0.000017
1103	1.0965e+02	9.0311	12.484235	0.000176	1.760311	0.298205	-0.000018
1104	1.0975e+02	9.0186	12.467533	0.000168	1.678436	0.284335	-0.000017
1105	1.0985e+02	9.0088	12.448388	0.000192	1.924061	0.325945	-0.000019
1106	1.0995e+02	8.9990	12.431687	0.000168	1.678436	0.284335	-0.000017
1107	1.1005e+02	8.9899	12.411728	0.000201	2.005935	0.339815	-0.000020
1108	1.1015e+02	8.9795	12.390546	0.000213	2.128748	0.360620	-0.000021
1109	1.1025e+02	8.9697	12.370586	0.000201	2.005935	0.339815	-0.000020
1110	1.1035e+02	8.9587	12.353070	0.000176	1.760311	0.298205	-0.000018
1111	1.1044e+02	8.9487	12.333110	0.000201	2.005935	0.339815	-0.000020
1112	1.1054e+02	8.9380	12.310707	0.000225	2.251560	0.381425	-0.000023
1113	1.1064e+02	8.9294	12.296857	0.000139	1.391874	0.235790	-0.000014
1114	1.1074e+02	8.9210	12.273231	0.000237	2.374373	0.402230	-0.000024
1115	1.1084e+02	8.9075	12.253271	0.000201	2.005935	0.339815	-0.000020
1116	1.1094e+02	8.8972	12.230053	0.000233	2.333435	0.395295	-0.000023
1117	1.1104e+02	8.8910	12.208464	0.000217	2.169685	0.367555	-0.000022
1118	1.1114e+02	8.8792	12.188096	0.000205	2.046873	0.346750	-0.000020
1119	1.1124e+02	8.8696	12.167322	0.000209	2.087810	0.353685	-0.000021
1120	1.1134e+02	8.8593	12.149806	0.000176	1.760311	0.298205	-0.000018
1121	1.1144e+02	8.8481	12.129439	0.000205	2.046873	0.346750	-0.000020
1122	1.1154e+02	8.8428	12.107035	0.000225	2.251560	0.381425	-0.000023
1123	1.1164e+02	8.8293	12.089520	0.000176	1.760311	0.298205	-0.000018
1124	1.1174e+02	8.8193	12.071597	0.000180	1.801248	0.305140	-0.000018
1125	1.1184e+02	8.8113	12.053673	0.000180	1.801248	0.305140	-0.000018
1126	1.1194e+02	8.8023	12.034528	0.000192	1.924061	0.325945	-0.000019
1127	1.1204e+02	8.7927	12.016198	0.000184	1.842186	0.312075	-0.000018
1128	1.1214e+02	8.7818	11.995423	0.000209	2.087810	0.353685	-0.000021
1129	1.1224e+02	8.7733	11.978315	0.000172	1.719373	0.291270	-0.000017
1130	1.1234e+02	8.7625	11.955097	0.000233	2.333435	0.395295	-0.000023
1131	1.1244e+02	8.7520	11.937581	0.000176	1.760311	0.298205	-0.000018
1132	1.1253e+02	8.7428	11.918436	0.000192	1.924061	0.325945	-0.000019
1133	1.1263e+02	8.7322	11.897254	0.000213	2.128748	0.360620	-0.000021
1134	1.1273e+02	8.7213	11.876072	0.000213	2.128748	0.360620	-0.000021
1135	1.1283e+02	8.7114	11.858964	0.000172	1.719373	0.291270	-0.000017
1136	1.1293e+02	8.7012	11.837782	0.000213	2.128748	0.360620	-0.000021
1137	1.1303e+02	8.6930	11.823525	0.000143	1.432811	0.242725	-0.000014
1138	1.1313e+02	8.6831	11.803158	0.000205	2.046873	0.346750	-0.000020
1139	1.1323e+02	8.6731	11.786049	0.000172	1.719373	0.291270	-0.000017
1140	1.1333e+02	8.6613	11.762016	0.000242	2.415310	0.409165	-0.000024
1141	1.1343e+02	8.6531	11.741242	0.000209	2.087810	0.353685	-0.000021
1142	1.1353e+02	8.6414	11.719245	0.000221	2.210623	0.374490	-0.000022
1143	1.1363e+02	8.6316	11.699285	0.000201	2.005935	0.339815	-0.000020
1144	1.1373e+02	8.6221	11.676882	0.000225	2.251560	0.381425	-0.000023
1145	1.1383e+02	8.6105	11.654885	0.000221	2.210623	0.374490	-0.000022
1146	1.1393e+02	8.6024	11.632481	0.000225	2.251560	0.381425	-0.000023
1147	1.1403e+02	8.5938	11.612521	0.000201	2.005935	0.339815	-0.000020
1148	1.1413e+02	8.5810	11.592154	0.000205	2.046873	0.346750	-0.000020
1149	1.1423e+02	8.5755	11.564862	0.000274	2.742810	0.464645	-0.000027
1150	1.1433e+02	8.5637	11.546532	0.000184	1.842186	0.312075	-0.000018
1151	1.1442e+02	8.5525	11.523313	0.000233	2.333435	0.395295	-0.000023
1152	1.1452e+02	8.5419	11.499280	0.000242	2.415310	0.409165	-0.000024
1153	1.1462e+02	8.5333	11.479728	0.000196	1.964998	0.332880	-0.000020
1154	1.1472e+02	8.5224	11.454880	0.000250	2.497185	0.423035	-0.000025
1155	1.1482e+02	8.5118	11.431254	0.000237	2.374373	0.402230	-0.000024
1156	1.1492e+02	8.5036	11.408850	0.000225	2.251560	0.381425	-0.000023
1157	1.1502e+02	8.4936	11.386446	0.000225	2.251560	0.381425	-0.000023
1158	1.1512e+02	8.4814	11.363228	0.000233	2.333435	0.395295	-0.000023
1159	1.1522e+02	8.4742	11.338787	0.000246	2.456247	0.416100	-0.000025
1160	1.1532e+02	8.4620	11.315976	0.000229	2.292498	0.388360	-0.000023
1161	1.1542e+02	8.4504	11.291943	0.000242	2.415310	0.409165	-0.000024
1162	1.1552e+02	8.4411	11.271983	0.000201	2.005935	0.339815	-0.000020
1163	1.1562e+02	8.4326	11.249172	0.000229	2.292498	0.388360	-0.000023
1164	1.1572e+02	8.4236	11.223509	0.000258	2.579060	0.436905	-0.000026
1165	1.1582e+02	8.4131	11.201105	0.000225	2.251560	0.381425	-0.000023
1166	1.1592e+02	8.4027	11.181146	0.000201	2.005935	0.339815	-0.000020
1167	1.1602e+02	8.3929	11.157112	0.000242	2.415310	0.409165	-0.000024
1168	1.1612e+02	8.3839	11.131450	0.000258	2.579060	0.436905	-0.000026
1169	1.1622e+02	8.3731	11.105787	0.000258	2.579060	0.436905	-0.000026
1170	1.1632e+02	8.3659	11.082976	0.000229	2.292498	0.388360	-0.000023
1171	1.1642e+02	8.3548	11.057721	0.000254	2.538122	0.429970	-0.000025
1172	1.1651e+02	8.3418	11.033688	0.000242	2.415310	0.409165	-0.000024
1173	1.1661e+02	8.3329	11.007210	0.000266	2.660935	0.450775	-0.000027
1174	1.1671e+02	8.3217	10.980326	0.000270	2.701872	0.457710	-0.000027
1175	1.1681e+02	8.3146	10.959959	0.000205	2.046873	0.346750	-0.000020
1176	1.1691e+02	8.3026	10.932667	0.000274	2.742810	0.464645	-0.000027
1177	1.1701e+02	8.2935	10.905782	0.000270	2.701872	0.457710	-0.000027
1178	1.1711e+02	8.2845	10.881342	0.000246	2.456247	0.416100	-0.000025
1179	1.1721e+02	8.2764	10.856086	0.000254	2.538122	0.429970	-0.000025
1180	1.1731e+02	8.2660	10.829202	0.000270	2.701872	0.457710	-0.000027
1181	1.1741e+02	8.2508	10.802724	0.000266	2.660935	0.450775	-0.000027
1182	1.1751e+02	8.2448	10.776247	0.000266	2.660935	0.450775	-0.000027
1183	1.1761e+02	8.2324	10.747326	0.000291	2.906560	0.492385	-0.000029
1184	1.1771e+02	8.2232	10.722478	0.000250	2.497185	0.423035	-0.000025
1185	1.1781e+02	8.2147	10.696001	0.000266	2.660935	0.450775	-0.000027
1186	1.1791e+02	8.2072	10.672782	0.000233	2.333435	0.395295	-0.000023
1187	1.1801e+02	8.1944	10.644676	0.000282	2.824685	0.478515	-0.000028
1188	1.1811e+02	8.1837	10.624716	0.000201	2.005935	0.339815	-0.000020
1189	1.1821e+02	8.1766	10.594572	0.000303	3.029372	0.513189	-0.000030
1190	1.1831e+02	8.1657	10.571354	0.000233	2.333435	0.395295	-0.000023
1191	1.1841e+02	8.1513	10.548135	0.000233	2.333435	0.395295	-0.000023
1192	1.1850e+02	8.1482	10.522880	0.000254	2.538122	0.429970	-0.000025
1193	1.1860e+02	8.1338	10.499254	0.000237	2.374373	0.402230	-0.000024
1194	1.1870e+02	8.1266	10.473999	0.000254	2.538122	0.429970	-0.000025
1195	1.1880e+02	8.1122	10.447522	0.000266	2.660935	0.450775	-0.000027
1196	1.1890e+02	8.1055	10.425525	0.000221	2.210623	0.374490	-0.000022
1197	1.1900e+02	8.0959	10.398233	0.000274	2.742810	0.464645	-0.000027
1198	1.1910e+02	8.0873	10.378681	0.000196	1.964998	0.332880	-0.000020
1199	1.1920e+02	8.0747	10.354648	0.000242	2.415310	0.409165	-0.000024
1200	1.1930e+02	8.0665	10.335095	0.000196	1.964998	0.332880	-0.000020
1201	1.1940e+02	8.0540	10.306989	0.000282	2.824685	0.478515	-0.000028
1202	1.1950e+02	8.0492	10.284992	0.000221	2.210623	0.374490	-0.000022
1203	1.1960e+02	8.0334	10.260959	0.000242	2.415310	0.409165	-0.000024
1204	1.1970e+02	8.0260	10.237740	0.000233	2.333435	0.395295	-0.000023
1205	1.1980e+02	8.0151	10.214929	0.000229	2.292498	0.388360	-0.000023
1206	1.1990e+02	8.0047	10.189267	0.000258	2.579060	0.436905	-0.000026
1207	1.2000e+02	7.9958	10.164419	0.000250	2.497185	0.423035	-0.000025
1208	1.2010e+02	7.9861	10.138349	0.000262	2.619997	0.443840	-0.000026
1209	1.2020e+02	7.9771	10.113908	0.000246	2.456247	0.416100	-0.000025
1210	1.2030e+02	7.9665	10.089875	0.000242	2.415310	0.409165	-0.000024
1211	1.2039e+02	7.9544	10.061768	0.000282	2.824685	0.478515	-0.000028
1212	1.2049e+02	7.9459	10.038957	0.000229	2.292498	0.388360	-0.000023
1213	1.2059e+02	7.9347	10.016553	0.000225	2.251560	0.381425	-0.000023
1214	1.2069e+02	7.9228	9.989669	0.000270	2.701872	0.457710	-0.000027
1215	1.2079e+02	7.9162	9.961155	0.000287	2.865622	0.485450	-0.000029
1216	1.2089e+02	7.9058	9.941602	0.000196	1.964998	0.332880	-0.000020
1217	1.2099e+02	7.8941	9.913496	0.000282	2.824685	0.478515	-0.000028
1218	1.2109e+02	7.8861	9.888240	0.000254	2.538122	0.429970	-0.000025
1219	1.2119e+02	7.8760	9.865429	0.000229	2.292498	0.388360	-0.000023
1220	1.2129e+02	7.8662	9.836508	0.000291	2.906560	0.492385	-0.000029
1221	1.2139e+02	7.8580	9.808809	0.000278	2.783747	0.471580	-0.000028
1222	1.2149e+02	7.8481	9.784368	0.000246	2.456247	0.416100	-0.000025
1223	1.2159e+02	7.8362	9.759520	0.000250	2.497185	0.423035	-0.000025
1224	1.2169e+02	7.8290	9.733858	0.000258	2.579060	0.436905	-0.000026
1225	1.2179e+02	7.8165	9.714305	0.000196	1.964998	0.332880	-0.000020
1226	1.2189e+02	7.8068	9.689050	0.000254	2.538122	0.429970	-0.000025
1227	1.2199e+02	7.7961	9.664609	0.000246	2.456247	0.416100	-0.000025
1228	1.2209e+02	7.7871	9.643428	0.000213	2.128748	0.360620	-0.000021
1229	1.2219e+02	7.7767	9.617765	0.000258	2.579060	0.436905	-0.000026
1230	1.2229e+02	7.7686	9.598620	0.000192	1.924061	0.325945	-0.000019
1231	1.2239e+02	7.7570	9.572143	0.000266	2.660935	0.450775	-0.000027
1232	1.2248e+02	7.7480	9.549331	0.000229	2.292498	0.388360	-0.000023
1233	1.2258e+02	7.7374	9.530594	0.000188	1.883123	0.319010	-0.000019
1234	1.2268e+02	7.7240	9.502894	0.000278	2.783747	0.471580	-0.000028
1235	1.2278e+02	7.7175	9.484157	0.000188	1.883123	0.319010	-0.000019
1236	1.2288e+02	7.7082	9.457272	0.000270	2.701872	0.457710	-0.000027
1237	1.2298e+02	7.6965	9.436498	0.000209	2.087810	0.353685	-0.000021
1238	1.2308e+02	7.6891	9.417352	0.000192	1.924061	0.325945	-0.000019
1239	1.2318e+02	7.6781	9.395356	0.000221	2.210623	0.374490	-0.000022
1240	1.2328e+02	7.6677	9.370915	0.000246	2.456247	0.416100	-0.000025
1241	1.2338e+02	7.6576	9.350956	0.000201	2.005935	0.339815	-0.000020
1242	1.2348e+02	7.6466	9.326108	0.000250	2.497185	0.423035	-0.000025
1243	1.2358e+02	7.6355	9.306555	0.000196	1.964998	0.332880	-0.000020
1244	1.2368e+02	7.6265	9.280893	0.000258	2.579060	0.436905	-0.000026
1245	1.2378e+02	7.6182	9.260118	0.000209	2.087810	0.353685	-0.000021
1246	1.2388e+02	7.6052	9.236085	0.000242	2.415310	0.409165	-0.000024
1247	1.2398e+02	7.5977	9.212866	0.000233	2.333435	0.395295	-0.000023
1248	1.2408e+02	7.5863	9.192092	0.000209	2.087810	0.353685	-0.000021
1249	1.2418e+02	7.5785	9.169688	0.000225	2.251560	0.381425	-0.000023
1250	1.2428e+02	7.5674	9.148914	0.000209	2.087810	0.353685	-0.000021
1251	1.2438e+02	7.5615	9.123658	0.000254	2.538122	0.429970	-0.000025
1252	1.2447e+02	7.5468	9.100847	0.000229	2.292498	0.388360	-0.000023
1253	1.2457e+02	7.5391	9.080073	0.000209	2.087810	0.353685	-0.000021
1254	1.2467e+02	7.5278	9.059706	0.000205	2.046873	0.346750	-0.000020
1255	1.2477e+02	7.5169	9.036487	0.000233	2.333435	0.395295	-0.000023
1256	1.2487e+02	7.5122	9.018564	0.000180	1.801248	0.305140	-0.000018
1257	1.2497e+02	7.5002	8.996975	0.000217	2.169685	0.367555	-0.000022
1258	1.2507e+02	7.4876	8.979459	0.000176	1.760311	0.298205	-0.000018
1259	1.2517e+02	7.4796	8.957870	0.000217	2.169685	0.367555	-0.000022
1260	1.2527e+02	7.4673	8.937503	0.000205	2.046873	0.346750	-0.000020
1261	1.2537e+02	7.4593	8.919173	0.000184	1.842186	0.312075	-0.000018
1262	1.2547e+02	7.4492	8.898398	0.000209	2.087810	0.353685	-0.000021
1263	1.2557e+02	7.4393	8.878031	0.000205	2.046873	0.346750	-0.000020
1264	1.2567e+02	7.4284	8.858478	0.000196	1.964998	0.332880	-0.000020
1265	1.2577e+02	7.4182	8.836482	0.000221	2.210623	0.374490	-0.000022
1266	1.2587e+02	7.4072	8.819781	0.000168	1.678436	0.284335	-0.000017
1267	1.2597e+02	7.3977	8.797784	0.000221	2.210623	0.374490	-0.000022
1268	1.2607e+02	7.3926	8.776195	0.000217	2.169685	0.367555	-0.000022
1269	1.2617e+02	7.3781	8.757865	0.000184	1.842186	0.312075	-0.000018
1270	1.2627e+02	7.3700	8.737090	0.000209	2.087810	0.353685	-0.000021
1271	1.2636e+02	7.3598	8.717131	0.000201	2.005935	0.339815	-0.000020
1272	1.2646e+02	7.3492	8.697171	0.000201	2.005935	0.339815	-0.000020
1273	1.2656e+02	7.3394	8.676396	0.000209	2.087810	0.353685	-0.000021
1274	1.2666e+02	7.3261	8.653585	0.000229	2.292498	0.388360	-0.000023
1275	1.2676e+02	7.3217	8.632811	0.000209	2.087810	0.353685	-0.000021
1276	1.2686e+02	7.3075	8.610814	0.000221	2.210623	0.374490	-0.000022
1277	1.2696e+02	7.2961	8.589225	0.000217	2.169685	0.367555	-0.000022
1278	1.2706e+02	7.2903	8.567229	0.000221	2.210623	0.374490	-0.000022
1279	1.2716e+02	7.2770	8.543195	0.000242	2.415310	0.409165	-0.000024
1280	1.2726e+02	7.2691	8.523236	0.000201	2.005935	0.339815	-0.000020
1281	1.2736e+02	7.2617	8.498795	0.000246	2.456247	0.416100	-0.000025
1282	1.2746e+02	7.2480	8.474762	0.000242	2.415310	0.409165	-0.000024
1283	1.2756e+02	7.2395	8.453987	0.000209	2.087810	0.353685	-0.000021
1284	1.2766e+02	7.2279	8.429954	0.000242	2.415310	0.409165	-0.000024
1285	1.2776e+02	7.2197	8.406736	0.000233	2.333435	0.395295	-0.000023
1286	1.2786e+02	7.2080	8.384332	0.000225	2.251560	0.381425	-0.000023
1287	1.2796e+02	7.1997	8.360299	0.000242	2.415310	0.409165	-0.000024
1288	1.2806e+02	7.1884	8.339524	0.000209	2.087810	0.353685	-0.000021
1289	1.2816e+02	7.1802	8.319972	0.000196	1.964998	0.332880	-0.000020
1290	1.2826e+02	7.1705	8.296753	0.000233	2.333435	0.395295	-0.000023
1291	1.2835e+02	7.1598	8.269868	0.000270	2.701872	0.457710	-0.000027
1292	1.2845e+02	7.1496	8.247057	0.000229	2.292498	0.388360	-0.000023
1293	1.2855e+02	7.1395	8.226690	0.000205	2.046873	0.346750	-0.000020
1294	1.2865e+02	7.1300	8.204694	0.000221	2.210623	0.374490	-0.000022
1295	1.2875e+02	7.1219	8.184734	0.000201	2.005935	0.339815	-0.000020
1296	1.2885e+02	7.1105	8.166403	0.000184	1.842186	0.312075	-0.000018
1297	1.2895e+02	7.1001	8.141556	0.000250	2.497185	0.423035	-0.000025
1298	1.2905e+02	7.0921	8.121596	0.000201	2.005935	0.339815	-0.000020
1299	1.2915e+02	7.0803	8.092674	0.000291	2.906560	0.492385	-0.000029
1300	1.2925e+02	7.0693	8.073937	0.000188	1.883123	0.319010	-0.000019
1301	1.2935e+02	7.0594	8.048274	0.000258	2.579060	0.436905	-0.000026
1302	1.2945e+02	7.0485	8.027500	0.000209	2.087810	0.353685	-0.000021
1303	1.2955e+02	7.0412	8.009577	0.000180	1.801248	0.305140	-0.000018
1304	1.2965e+02	7.0300	7.988395	0.000213	2.128748	0.360620	-0.000021
1305	1.2975e+02	7.0229	7.967620	0.000209	2.087810	0.353685	-0.000021
1306	1.2985e+02	7.0107	7.948068	0.000196	1.964998	0.332880	-0.000020
1307	1.2995e+02	7.0009	7.922813	0.000254	2.538122	0.429970	-0.000025
1308	1.3005e+02	6.9888	7.900409	0.000225	2.251560	0.381425	-0.000023
1309	1.3015e+02	6.9824	7.873524	0.000270	2.701872	0.457710	-0.000027
1310	1.3025e+02	6.9738	7.849491	0.000242	2.415310	0.409165	-0.000024
1311	1.3034e+02	6.9588	7.827902	0.000217	2.169685	0.367555	-0.000022
1312	1.3044e+02	6.9482	7.801017	0.000270	2.701872	0.457710	-0.000027
1313	1.3054e+02	6.9419	7.778206	0.000229	2.292498	0.388360	-0.000023
1314	1.3064e+02	6.9296	7.754173	0.000242	2.415310	0.409165	-0.000024
1315	1.3074e+02	6.9206	7.731769	0.000225	2.251560	0.381425	-0.000023
1316	1.3084e+02	6.9110	7.707736	0.000242	2.415310	0.409165	-0.000024
1317	1.3094e+02	6.8996	7.681666	0.000262	2.619997	0.443840	-0.000026
1318	1.3104e+02	6.8897	7.655189	0.000266	2.660935	0.450775	-0.000027
1319	1.3114e+02	6.8813	7.629933	0.000254	2.538122	0.429970	-0.000025
1320	1.3124e+02	6.8710	7.605085	0.000250	2.497185	0.423035	-0.000025
1321	1.3134e+02	6.8609	7.580238	0.000250	2.497185	0.423035	-0.000025
1322	1.3144e+02	6.8519	7.554982	0.000254	2.538122	0.429970	-0.000025
1323	1.3154e+02	6.8426	7.530542	0.000246	2.456247	0.416100	-0.000025
1324	1.3164e+02	6.8301	7.504064	0.000266	2.660935	0.450775	-0.000027
1325	1.3174e+02	6.8213	7.479624	0.000246	2.456247	0.416100	-0.000025
1326	1.3184e+02	6.8115	7.457220	0.000225	2.251560	0.381425	-0.000023
1327	1.3194e+02	6.8014	7.424633	0.000327	3.274997	0.554799	-0.000033
1328	1.3204e+02	6.7913	7.401822	0.000229	2.292498	0.388360	-0.000023
1329	1.3214e+02	6.7825	7.379825	0.000221	2.210623	0.374490	-0.000022
1330	1.3224e+02	6.7732	7.356606	0.000233	2.333435	0.395295	-0.000023
1331	1.3234e+02	6.7628	7.326463	0.000303	3.029372	0.513189	-0.000030
1332	1.3243e+02	6.7516	7.303245	0.000233	2.333435	0.395295	-0.000023
1333	1.3253e+02	6.7397	7.276360	0.000270	2.701872	0.457710	-0.000027
1334	1.3263e+02	6.7336	7.251512	0.000250	2.497185	0.423035	-0.000025
1335	1.3273e+02	6.7225	7.222183	0.000295	2.947497	0.499320	-0.000029
1336	1.3283e+02	6.7123	7.196521	0.000258	2.579060	0.436905	-0.000026
1337	1.3293e+02	6.7024	7.170451	0.000262	2.619997	0.443840	-0.000026
1338	1.3303e+02	6.6908	7.141937	0.000287	2.865622	0.485450	-0.000029
1339	1.3313e+02	6.6824	7.116274	0.000258	2.579060	0.436905	-0.000026
1340	1.3323e+02	6.6734	7.089390	0.000270	2.701872	0.457710	-0.000027
1341	1.3333e+02	6.6602	7.060061	0.000295	2.947497	0.499320	-0.000029
1342	1.3343e+02	6.6512	7.032362	0.000278	2.783747	0.471580	-0.000028
1343	1.3353e+02	6.6421	7.004255	0.000282	2.824685	0.478515	-0.000028
1344	1.3363e+02	6.6333	6.979407	0.000250	2.497185	0.423035	-0.000025
1345	1.3373e+02	6.6268	6.948449	0.000311	3.111247	0.527059	-0.000031
1346	1.3383e+02	6.6099	6.921565	0.000270	2.701872	0.457710	-0.000027
1347	1.3393e+02	6.6016	6.895495	0.000262	2.619997	0.443840	-0.000026
1348	1.3403e+02	6.5913	6.866573	0.000291	2.906560	0.492385	-0.000029
1349	1.3413e+02	6.5789	6.835615	0.000311	3.111247	0.527059	-0.000031
1350	1.3423e+02	6.5731	6.809138	0.000266	2.660935	0.450775	-0.000027
1351	1.3432e+02	6.5627	6.782253	0.000270	2.701872	0.457710	-0.000027
1352	1.3442e+02	6.5524	6.750073	0.000323	3.234059	0.547864	-0.000032
1353	1.3452e+02	6.5447	6.723596	0.000266	2.660935	0.450775	-0.000027
1354	1.3462e+02	6.5314	6.693045	0.000307	3.070309	0.520124	-0.000031
1355	1.3472e+02	6.5222	6.666976	0.000262	2.619997	0.443840	-0.000026
1356	1.3482e+02	6.5142	6.636832	0.000303	3.029372	0.513189	-0.000030
1357	1.3492e+02	6.5032	6.610762	0.000262	2.619997	0.443840	-0.000026
1358	1.3502e+02	6.4948	6.583878	0.000270	2.701872	0.457710	-0.000027
1359	1.3512e+02	6.4817	6.559030	0.000250	2.497185	0.423035	-0.000025
1360	1.3522e+02	6.4733	6.532552	0.000266	2.660935	0.450775	-0.000027
1361	1.3532e+02	6.4662	6.503631	0.000291	2.906560	0.492385	-0.000029
1362	1.3542e+02	6.4510	6.476747	0.000270	2.701872	0.457710	-0.000027
1363	1.3552e+02	6.4465	6.450677	0.000262	2.619997	0.443840	-0.000026
1364	1.3562e+02	6.4333	6.425014	0.000258	2.579060	0.436905	-0.000026
1365	1.3572e+02	6.4228	6.399351	0.000258	2.579060	0.436905	-0.000026
1366	1.3582e+02	6.4123	6.368393	0.000311	3.111247	0.527059	-0.000031
1367	1.3592e+02	6.4031	6.343953	0.000246	2.456247	0.416100	-0.000025
1368	1.3602e+02	6.3927	6.322364	0.000217	2.169685	0.367555	-0.000022
1369	1.3612e+02	6.3834	6.293442	0.000291	2.906560	0.492385	-0.000029
1370	1.3622e+02	6.3722	6.266150	0.000274	2.742810	0.464645	-0.000027
1371	1.3631e+02	6.3656	6.244154	0.000221	2.210623	0.374490	-0.000022
1372	1.3641e+02	6.3542	6.216047	0.000282	2.824685	0.478515	-0.000028
1373	1.3651e+02	6.3433	6.188348	0.000278	2.783747	0.471580	-0.000028
1374	1.3661e+02	6.3358	6.163907	0.000246	2.456247	0.416100	-0.000025
1375	1.3671e+02	6.3247	6.141504	0.000225	2.251560	0.381425	-0.000023
1376	1.3681e+02	6.3160	6.109731	0.000319	3.193122	0.540929	-0.000032
1377	1.3691e+02	6.3014	6.079180	0.000307	3.070309	0.520124	-0.000031
1378	1.3701e+02	6.2920	6.055554	0.000237	2.374373	0.402230	-0.000024
1379	1.3711e+02	6.2847	6.026226	0.000295	2.947497	0.499320	-0.000029
1380	1.3721e+02	6.2719	5.997712	0.000287	2.865622	0.485450	-0.000029
1381	1.3731e+02	6.2659	5.973679	0.000242	2.415310	0.409165	-0.000024
1382	1.3741e+02	6.2524	5.944757	0.000291	2.906560	0.492385	-0.000029
1383	1.3751e+02	6.2440	5.914207	0.000307	3.070309	0.520124	-0.000031
1384	1.3761e+02	6.2331	5.892210	0.000221	2.210623	0.374490	-0.000022
1385	1.3771e+02	6.2240	5.865733	0.000266	2.660935	0.450775	-0.000027
1386	1.3781e+02	6.2161	5.837219	0.000287	2.865622	0.485450	-0.000029
1387	1.3791e+02	6.2030	5.809519	0.000278	2.783747	0.471580	-0.000028
1388	1.3801e+02	6.1948	5.782635	0.000270	2.701872	0.457710	-0.000027
1389	1.3811e+02	6.1857	5.746789	0.000360	3.602496	0.610279	-0.000036
1390	1.3821e+02	6.1749	5.724385	0.000225	2.251560	0.381425	-0.000023
1391	1.3831e+02	6.1654	5.695056	0.000295	2.947497	0.499320	-0.000029
1392	1.3840e+02	6.1550	5.667764	0.000274	2.742810	0.464645	-0.000027
1393	1.3850e+02	6.1437	5.643324	0.000246	2.456247	0.416100	-0.000025
1394	1.3860e+02	6.1362	5.615624	0.000278	2.783747	0.471580	-0.000028
1395	1.3870e+02	6.1239	5.591999	0.000237	2.374373	0.402230	-0.000024
1396	1.3880e+02	6.1152	5.568373	0.000237	2.374373	0.402230	-0.000024
1397	1.3890e+02	6.1044	5.538637	0.000299	2.988434	0.506254	-0.000030
1398	1.3900e+02	6.0954	5.516233	0.000225	2.251560	0.381425	-0.000023
1399	1.3910e+02	6.0851	5.490163	0.000262	2.619997	0.443840	-0.000026
1400	1.3920e+02	6.0754	5.465722	0.000246	2.456247	0.416100	-0.000025
1401	1.3930e+02	6.0622	5.439245	0.000266	2.660935	0.450775	-0.000027
1402	1.3940e+02	6.0573	5.413583	0.000258	2.579060	0.436905	-0.000026
1403	1.3950e+02	6.0484	5.386698	0.000270	2.701872	0.457710	-0.000027
1404	1.3960e+02	6.0344	5.365923	0.000209	2.087810	0.353685	-0.000021
1405	1.3970e+02	6.0258	5.341076	0.000250	2.497185	0.423035	-0.000025
1406	1.3980e+02	6.0172	5.315820	0.000254	2.538122	0.429970	-0.000025
1407	1.3990e+02	6.0081	5.288528	0.000274	2.742810	0.464645	-0.000027
1408	1.4000e+02	5.9963	5.260422	0.000282	2.824685	0.478515	-0.000028
1409	1.4010e+02	5.9843	5.242091	0.000184	1.842186	0.312075	-0.000018
1410	1.4020e+02	5.9778	5.216021	0.000262	2.619997	0.443840	-0.000026
1411	1.4029e+02	5.9683	5.195247	0.000209	2.087810	0.353685	-0.000021
1412	1.4039e+02	5.9560	5.164289	0.000311	3.111247	0.527059	-0.000031
1413	1.4049e+02	5.9451	5.141885	0.000225	2.251560	0.381425	-0.000023
1414	1.4059e+02	5.9365	5.115815	0.000262	2.619997	0.443840	-0.000026
1415	1.4069e+02	5.9270	5.091782	0.000242	2.415310	0.409165	-0.000024
1416	1.4079e+02	5.9196	5.065712	0.000262	2.619997	0.443840	-0.000026
1417	1.4089e+02	5.9050	5.041679	0.000242	2.415310	0.409165	-0.000024
1418	1.4099e+02	5.8978	5.019275	0.000225	2.251560	0.381425	-0.000023
1419	1.4109e+02	5.8871	4.988724	0.000307	3.070309	0.520124	-0.000031
1420	1.4119e+02	5.8761	4.965098	0.000237	2.374373	0.402230	-0.000024
1421	1.4129e+02	5.8667	4.943917	0.000213	2.128748	0.360620	-0.000021
1422	1.4139e+02	5.8550	4.920291	0.000237	2.374373	0.402230	-0.000024
1423	1.4149e+02	5.8463	4.899516	0.000209	2.087810	0.353685	-0.000021
1424	1.4159e+02	5.8350	4.874261	0.000254	2.538122	0.429970	-0.000025
1425	1.4169e+02	5.8270	4.851042	0.000233	2.333435	0.395295	-0.000023
1426	1.4179e+02	5.8173	4.830675	0.000205	2.046873	0.346750	-0.000020
1427	1.4189e+02	5.8083	4.802161	0.000287	2.865622	0.485450	-0.000029
1428	1.4199e+02	5.7960	4.784646	0.000176	1.760311	0.298205	-0.000018
1429	1.4209e+02	5.7876	4.759798	0.000250	2.497185	0.423035	-0.000025
1430	1.4219e+02	5.7781	4.738209	0.000217	2.169685	0.367555	-0.000022
1431	1.4228e+02	5.7693	4.715805	0.000225	2.251560	0.381425	-0.000023
1432	1.4238e+02	5.7584	4.690142	0.000258	2.579060	0.436905	-0.000026
1433	1.4248e+02	5.7493	4.669368	0.000209	2.087810	0.353685	-0.000021
1434	1.4258e+02	5.7393	4.646964	0.000225	2.251560	0.381425	-0.000023
1435	1.4268e+02	5.7267	4.623745	0.000233	2.333435	0.395295	-0.000023
1436	1.4278e+02	5.7169	4.603786	0.000201	2.005935	0.339815	-0.000020
1437	1.4288e+02	5.7080	4.580567	0.000233	2.333435	0.395295	-0.000023
1438	1.4298e+02	5.6952	4.558978	0.000217	2.169685	0.367555	-0.000022
1439	1.4308e+02	5.6874	4.535759	0.000233	2.333435	0.395295	-0.000023
1440	1.4318e+02	5.6772	4.512541	0.000233	2.333435	0.395295	-0.000023
1441	1.4328e+02	5.6680	4.489730	0.000229	2.292498	0.388360	-0.000023
1442	1.4338e+02	5.6573	4.463252	0.000266	2.660935	0.450775	-0.000027
1443	1.4348e+02	5.6470	4.445329	0.000180	1.801248	0.305140	-0.000018
1444	1.4358e+02	5.6379	4.416001	0.000295	2.947497	0.499320	-0.000029
1445	1.4368e+02	5.6293	4.392782	0.000233	2.333435	0.395295	-0.000023
1446	1.4378e+02	5.6142	4.364675	0.000282	2.824685	0.478515	-0.000028
1447	1.4388e+02	5.6066	4.342272	0.000225	2.251560	0.381425	-0.000023
1448	1.4398e+02	5.5972	4.317831	0.000246	2.456247	0.416100	-0.000025
1449	1.4408e+02	5.5895	4.289317	0.000287	2.865622	0.485450	-0.000029
1450	1.4418e+02	5.5778	4.265691	0.000237	2.374373	0.402230	-0.000024
1451	1.4428e+02	5.5676	4.239621	0.000262	2.619997	0.443840	-0.000026
1452	1.4437e+02	5.5601	4.215181	0.000246	2.456247	0.416100	-0.000025
1453	1.4447e+02	5.5474	4.191148	0.000242	2.415310	0.409165	-0.000024
1454	1.4457e+02	5.5367	4.161819	0.000295	2.947497	0.499320	-0.000029
1455	1.4467e+02	5.5282	4.135342	0.000266	2.660935	0.450775	-0.000027
1456	1.4477e+02	5.5177	4.112530	0.000229	2.292498	0.388360	-0.000023
1457	1.4487e+02	5.5080	4.085646	0.000270	2.701872	0.457710	-0.000027
1458	1.4497e+02	5.4974	4.064057	0.000217	2.169685	0.367555	-0.000022
1459	1.4507e+02	5.4903	4.038801	0.000254	2.538122	0.429970	-0.000025
1460	1.4517e+02	5.4798	4.013954	0.000250	2.497185	0.423035	-0.000025
1461	1.4527e+02	5.4688	3.992364	0.000217	2.169685	0.367555	-0.000022
1462	1.4537e+02	5.4577	3.966702	0.000258	2.579060	0.436905	-0.000026
1463	1.4547e+02	5.4492	3.941447	0.000254	2.538122	0.429970	-0.000025
1464	1.4557e+02	5.4392	3.916599	0.000250	2.497185	0.423035	-0.000025
1465	1.4567e+02	5.4298	3.890936	0.000258	2.579060	0.436905	-0.000026
1466	1.4577e+02	5.4186	3.865681	0.000254	2.538122	0.429970	-0.000025
1467	1.4587e+02	5.4078	3.846128	0.000196	1.964998	0.332880	-0.000020
1468	1.4597e+02	5.4016	3.818022	0.000282	2.824685	0.478515	-0.000028
1469	1.4607e+02	5.3884	3.792766	0.000254	2.538122	0.429970	-0.000025
1470	1.4617e+02	5.3770	3.768733	0.000242	2.415310	0.409165	-0.000024
1471	1.4626e+02	5.3711	3.745922	0.000229	2.292498	0.388360	-0.000023
1472	1.4636e+02	5.3600	3.723518	0.000225	2.251560	0.381425	-0.000023
1473	1.4646e+02	5.3494	3.697041	0.000266	2.660935	0.450775	-0.000027
1474	1.4656e+02	5.3387	3.675452	0.000217	2.169685	0.367555	-0.000022
1475	1.4666e+02	5.3298	3.647753	0.000278	2.783747	0.471580	-0.000028
1476	1.4676e+02	5.3191	3.619646	0.000282	2.824685	0.478515	-0.000028
1477	1.4686e+02	5.3107	3.596427	0.000233	2.333435	0.395295	-0.000023
1478	1.4696e+02	5.2990	3.573616	0.000229	2.292498	0.388360	-0.000023
1479	1.4706e+02	5.2890	3.543473	0.000303	3.029372	0.513189	-0.000030
1480	1.4716e+02	5.2785	3.518625	0.000250	2.497185	0.423035	-0.000025
1481	1.4726e+02	5.2693	3.490518	0.000282	2.824685	0.478515	-0.000028
1482	1.4736e+02	5.2594	3.464448	0.000262	2.619997	0.443840	-0.000026
1483	1.4746e+02	5.2518	3.438378	0.000262	2.619997	0.443840	-0.000026
1484	1.4756e+02	5.2377	3.407420	0.000311	3.111247	0.527059	-0.000031
1485	1.4766e+02	5.2303	3.378092	0.000295	2.947497	0.499320	-0.000029
1486	1.4776e+02	5.2184	3.353244	0.000250	2.497185	0.423035	-0.000025
1487	1.4786e+02	5.2093	3.327174	0.000262	2.619997	0.443840	-0.000026
1488	1.4796e+02	5.2015	3.296623	0.000307	3.070309	0.520124	-0.000031
1489	1.4806e+02	5.1897	3.269739	0.000270	2.701872	0.457710	-0.000027
1490	1.4816e+02	5.1802	3.242447	0.000274	2.742810	0.464645	-0.000027
1491	1.4825e+02	5.1727	3.216784	0.000258	2.579060	0.436905	-0.000026
1492	1.4835e+02	5.1603	3.184604	0.000323	3.234059	0.547864	-0.000032
1493	1.4845e+02	5.1510	3.162608	0.000221	2.210623	0.374490	-0.000022
1494	1.4855e+02	5.1392	3.131650	0.000311	3.111247	0.527059	-0.000031
1495	1.4865e+02	5.1284	3.105580	0.000262	2.619997	0.443840	-0.000026
1496	1.4875e+02	5.1214	3.076658	0.000291	2.906560	0.492385	-0.000029
1497	1.4885e+02	5.1097	3.043664	0.000332	3.315934	0.561734	-0.000033
1498	1.4895e+02	5.1011	3.018001	0.000258	2.579060	0.436905	-0.000026
1499	1.4905e+02	5.0922	2.992338	0.000258	2.579060	0.436905	-0.000026
1500	1.4915e+02	5.0830	2.964232	0.000282	2.824685	0.478515	-0.000028
1501	1.4925e+02	5.0719	2.935310	0.000291	2.906560	0.492385	-0.000029
1502	1.4935e+02	5.0600	2.906796	0.000287	2.865622	0.485450	-0.000029
1503	1.4945e+02	5.0491	2.876653	0.000303	3.029372	0.513189	-0.000030
1504	1.4955e+02	5.0414	2.847324	0.000295	2.947497	0.499320	-0.000029
1505	1.4965e+02	5.0322	2.818810	0.000287	2.865622	0.485450	-0.000029
1506	1.4975e+02	5.0198	2.792333	0.000266	2.660935	0.450775	-0.000027
1507	1.4985e+02	5.0089	2.764634	0.000278	2.783747	0.471580	-0.000028
1508	1.4995e+02	4.9991	2.728380	0.000364	3.643434	0.617214	-0.000036
1509	1.5005e+02	4.9928	2.703125	0.000254	2.538122	0.429970	-0.000025
1510	1.5015e+02	4.9822	2.667686	0.000356	3.561559	0.603344	-0.000036
1511	1.5025e+02	4.9720	2.640394	0.000274	2.742810	0.464645	-0.000027
1512	1.5034e+02	4.9607	2.607400	0.000332	3.315934	0.561734	-0.000033
1513	1.5044e+02	4.9526	2.577256	0.000303	3.029372	0.513189	-0.000030
1514	1.5054e+02	4.9404	2.547928	0.000295	2.947497	0.499320	-0.000029
1515	1.5064e+02	4.9307	2.515340	0.000327	3.274997	0.554799	-0.000033
1516	1.5074e+02	4.9220	2.486419	0.000291	2.906560	0.492385	-0.000029
1517	1.5084e+02	4.9079	2.453424	0.000332	3.315934	0.561734	-0.000033
1518	1.5094e+02	4.8992	2.423281	0.000303	3.029372	0.513189	-0.000030
1519	1.5104e+02	4.8898	2.390286	0.000332	3.315934	0.561734	-0.000033
1520	1.5114e+02	4.8809	2.357699	0.000327	3.274997	0.554799	-0.000033
1521	1.5124e+02	4.8711	2.332443	0.000254	2.538122	0.429970	-0.000025
1522	1.5134e+02	4.8606	2.301485	0.000311	3.111247	0.527059	-0.000031
1523	1.5144e+02	4.8525	2.270120	0.000315	3.152184	0.533994	-0.000032
1524	1.5154e+02	4.8417	2.239569	0.000307	3.070309	0.520124	-0.000031
1525	1.5164e+02	4.8283	2.206982	0.000327	3.274997	0.554799	-0.000033
1526	1.5174e+02	4.8198	2.180912	0.000262	2.619997	0.443840	-0.000026
1527	1.5184e+02	4.8100	2.149547	0.000315	3.152184	0.533994	-0.000032
1528	1.5194e+02	4.8029	2.121440	0.000282	2.824685	0.478515	-0.000028
1529	1.5204e+02	4.7909	2.092519	0.000291	2.906560	0.492385	-0.000029
1530	1.5214e+02	4.7823	2.062783	0.000299	2.988434	0.506254	-0.000030
1531	1.5224e+02	4.7729	2.031825	0.000311	3.111247	0.527059	-0.000031
1532	1.5233e+02	4.7633	2.004940	0.000270	2.701872	0.457710	-0.000027
1533	1.5243e+02	4.7545	1.975204	0.000299	2.988434	0.506254	-0.000030
1534	1.5253e+02	4.7411	1.945875	0.000295	2.947497	0.499320	-0.000029
1535	1.5263e+02	4.7313	1.916954	0.000291	2.906560	0.492385	-0.000029
1536	1.5273e+02	4.7233	1.891699	0.000254	2.538122	0.429970	-0.000025
1537	1.5283e+02	4.7112	1.864000	0.000278	2.783747	0.471580	-0.000028
1538	1.5293e+02	4.7031	1.831005	0.000332	3.315934	0.561734	-0.000033
1539	1.5303e+02	4.6915	1.805342	0.000258	2.579060	0.436905	-0.000026
1540	1.5313e+02	4.6838	1.779272	0.000262	2.619997	0.443840	-0.000026
1541	1.5323e+02	4.6733	1.744648	0.000348	3.479684	0.589474	-0.000035
1542	1.5333e+02	4.6605	1.717764	0.000270	2.701872	0.457710	-0.000027
1543	1.5343e+02	4.6526	1.689657	0.000282	2.824685	0.478515	-0.000028
1544	1.5353e+02	4.6412	1.655033	0.000348	3.479684	0.589474	-0.000035
1545	1.5363e+02	4.6309	1.622445	0.000327	3.274997	0.554799	-0.000033
1546	1.5373e+02	4.6240	1.595153	0.000274	2.742810	0.464645	-0.000027
1547	1.5383e+02	4.6116	1.565417	0.000299	2.988434	0.506254	-0.000030
1548	1.5393e+02	4.6014	1.535681	0.000299	2.988434	0.506254	-0.000030
1549	1.5403e+02	4.5943	1.502687	0.000332	3.315934	0.561734	-0.000033
1550	1.5413e+02	4.5836	1.471729	0.000311	3.111247	0.527059	-0.000031
1551	1.5422e+02	4.5728	1.446881	0.000250	2.497185	0.423035	-0.000025
1552	1.5432e+02	4.5622	1.415108	0.000319	3.193122	0.540929	-0.000032
1553	1.5442e+02	4.5528	1.388631	0.000266	2.660935	0.450775	-0.000027
1554	1.5452e+02	4.5411	1.356043	0.000327	3.274997	0.554799	-0.000033
1555	1.5462e+02	4.5339	1.321012	0.000352	3.520621	0.596409	-0.000035
1556	1.5472e+02	4.5245	1.290461	0.000307	3.070309	0.520124	-0.000031
1557	1.5482e+02	4.5138	1.259503	0.000311	3.111247	0.527059	-0.000031
1558	1.5492e+02	4.5033	1.231397	0.000282	2.824685	0.478515	-0.000028
1559	1.5502e+02	4.4918	1.200438	0.000311	3.111247	0.527059	-0.000031
1560	1.5512e+02	4.4839	1.169073	0.000315	3.152184	0.533994	-0.000032
1561	1.5522e+02	4.4706	1.143003	0.000262	2.619997	0.443840	-0.000026
1562	1.5532e+02	4.4653	1.117341	0.000258	2.579060	0.436905	-0.000026
1563	1.5542e+02	4.4561	1.092493	0.000250	2.497185	0.423035	-0.000025
1564	1.5552e+02	4.4414	1.061942	0.000307	3.070309	0.520124	-0.000031
1565	1.5562e+02	4.4350	1.028540	0.000336	3.356872	0.568669	-0.000034
1566	1.5572e+02	4.4247	1.001248	0.000274	2.742810	0.464645	-0.000027
1567	1.5582e+02	4.4120	0.976400	0.000250	2.497185	0.423035	-0.000025
1568	1.5592e+02	4.4040	0.949923	0.000266	2.660935	0.450775	-0.000027
1569	1.5602e+02	4.3935	0.918150	0.000319	3.193122	0.540929	-0.000032
1570	1.5612e+02	4.3845	0.890043	0.000282	2.824685	0.478515	-0.000028
1571	1.5622e+02	4.3783	0.863566	0.000266	2.660935	0.450775	-0.000027
1572	1.5631e+02	4.3623	0.836274	0.000274	2.742810	0.464645	-0.000027
1573	1.5641e+02	4.3554	0.807353	0.000291	2.906560	0.492385	-0.000029
1574	1.5651e+02	4.3468	0.780468	0.000270	2.701872	0.457710	-0.000027
1575	1.5661e+02	4.3318	0.751140	0.000295	2.947497	0.499320	-0.000029
1576	1.5671e+02	4.3246	0.726292	0.000250	2.497185	0.423035	-0.000025
1577	1.5681e+02	4.3140	0.700629	0.000258	2.579060	0.436905	-0.000026
1578	1.5691e+02	4.3039	0.672115	0.000287	2.865622	0.485450	-0.000029
1579	1.5701e+02	4.2947	0.642379	0.000299	2.988434	0.506254	-0.000030
1580	1.5711e+02	4.2841	0.615902	0.000266	2.660935	0.450775	-0.000027
1581	1.5721e+02	4.2739	0.592683	0.000233	2.333435	0.395295	-0.000023
1582	1.5731e+02	4.2669	0.564169	0.000287	2.865622	0.485450	-0.000029
1583	1.5741e+02	4.2541	0.531582	0.000327	3.274997	0.554799	-0.000033
1584	1.5751e+02	4.2448	0.508364	0.000233	2.333435	0.395295	-0.000023
1585	1.5761e+02	4.2344	0.478220	0.000303	3.029372	0.513189	-0.000030
1586	1.5771e+02	4.2227	0.448891	0.000295	2.947497	0.499320	-0.000029
1587	1.5781e+02	4.2149	0.426488	0.000225	2.251560	0.381425	-0.000023
1588	1.5791e+02	4.2062	0.396752	0.000299	2.988434	0.506254	-0.000030
1589	1.5801e+02	4.1935	0.368645	0.000282	2.824685	0.478515	-0.000028
1590	1.5811e+02	4.1846	0.344204	0.000246	2.456247	0.416100	-0.000025
1591	1.5821e+02	4.1738	0.318949	0.000254	2.538122	0.429970	-0.000025
1592	1.5830e+02	4.1653	0.291250	0.000278	2.783747	0.471580	-0.000028
1593	1.5840e+02	4.1553	0.267624	0.000237	2.374373	0.402230	-0.000024
1594	1.5850e+02	4.1444	0.243591	0.000242	2.415310	0.409165	-0.000024
1595	1.5860e+02	4.1325	0.218336	0.000254	2.538122	0.429970	-0.000025
1596	1.5870e+02	4.1229	0.191858	0.000266	2.660935	0.450775	-0.000027
1597	1.5880e+02	4.1148	0.168232	0.000237	2.374373	0.402230	-0.000024
1598	1.5890e+02	4.1045	0.138904	0.000295	2.947497	0.499320	-0.000029
1599	1.5900e+02	4.0950	0.113241	0.000258	2.579060	0.436905	-0.000026
1600	1.5910e+02	4.0850	0.087986	0.000254	2.538122	0.429970	-0.000025
1601	1.5920e+02	4.0743	0.064767	0.000233	2.333435	0.395295	-0.000023
1602	1.5930e+02	4.0643	0.039512	0.000254	2.538122	0.429970	-0.000025
1603	1.5940e+02	4.0567	0.009776	0.000299	2.988434	0.506254	-0.000030
1604	1.5950e+02	4.0456	-0.015072	0.000250	2.497185	0.423035	-0.000025
1605	1.5960e+02	4.0353	-0.037068	0.000221	2.210623	0.374490	-0.000022
1606	1.5970e+02	4.0271	-0.066397	0.000295	2.947497	0.499320	-0.000029
1607	1.5980e+02	4.0157	-0.088393	0.000221	2.210623	0.374490	-0.000022
1608	1.5990e+02	4.0054	-0.117315	0.000291	2.906560	0.492385	-0.000029
1609	1.6000e+02	3.9966	-0.142977	0.000258	2.579060	0.436905	-0.000026
1610	1.6010e+02	3.9841	-0.168640	0.000258	2.579060	0.436905	-0.000026
1611	1.6019e+02	3.9762	-0.195524	0.000270	2.701872	0.457710	-0.000027
1612	1.6029e+02	3.9663	-0.224038	0.000287	2.865622	0.485450	-0.000029
1613	1.6039e+02	3.9556	-0.250923	0.000270	2.701872	0.457710	-0.000027
1614	1.6049e+02	3.9448	-0.278622	0.000278	2.783747	0.471580	-0.000028
1615	1.6059e+02	3.9361	-0.305507	0.000270	2.701872	0.457710	-0.000027
1616	1.6069e+02	3.9250	-0.333614	0.000282	2.824685	0.478515	-0.000028
1617	1.6079e+02	3.9136	-0.361313	0.000278	2.783747	0.471580	-0.000028
1618	1.6089e+02	3.9052	-0.392678	0.000315	3.152184	0.533994	-0.000032
1619	1.6099e+02	3.8951	-0.417119	0.000246	2.456247	0.416100	-0.000025
1620	1.6109e+02	3.8844	-0.449299	0.000323	3.234059	0.547864	-0.000032
1621	1.6119e+02	3.8770	-0.476998	0.000278	2.783747	0.471580	-0.000028
1622	1.6129e+02	3.8662	-0.503883	0.000270	2.701872	0.457710	-0.000027
1623	1.6139e+02	3.8551	-0.530360	0.000266	2.660935	0.450775	-0.000027
1624	1.6149e+02	3.8447	-0.559281	0.000291	2.906560	0.492385	-0.000029
1625	1.6159e+02	3.8372	-0.589017	0.000299	2.988434	0.506254	-0.000030
1626	1.6169e+02	3.8261	-0.615902	0.000270	2.701872	0.457710	-0.000027
1627	1.6179e+02	3.8186	-0.642379	0.000266	2.660935	0.450775	-0.000027
1628	1.6189e+02	3.8068	-0.669264	0.000270	2.701872	0.457710	-0.000027
1629	1.6199e+02	3.7953	-0.693704	0.000246	2.456247	0.416100	-0.000025
1630	1.6209e+02	3.7862	-0.722218	0.000287	2.865622	0.485450	-0.000029
1631	1.6219e+02	3.7776	-0.750325	0.000282	2.824685	0.478515	-0.000028
1632	1.6228e+02	3.7692	-0.775580	0.000254	2.538122	0.429970	-0.000025
1633	1.6238e+02	3.7574	-0.801243	0.000258	2.579060	0.436905	-0.000026
1634	1.6248e+02	3.7466	-0.832201	0.000311	3.111247	0.527059	-0.000031
1635	1.6258e+02	3.7373	-0.860715	0.000287	2.865622	0.485450	-0.000029
1636	1.6268e+02	3.7281	-0.885155	0.000246	2.456247	0.416100	-0.000025
1637	1.6278e+02	3.7180	-0.912855	0.000278	2.783747	0.471580	-0.000028
1638	1.6288e+02	3.7090	-0.938925	0.000262	2.619997	0.443840	-0.000026
1639	1.6298e+02	3.6989	-0.968661	0.000299	2.988434	0.506254	-0.000030
1640	1.6308e+02	3.6858	-0.993508	0.000250	2.497185	0.423035	-0.000025
1641	1.6318e+02	3.6788	-1.019986	0.000266	2.660935	0.450775	-0.000027
1642	1.6328e+02	3.6656	-1.049722	0.000299	2.988434	0.506254	-0.000030
1643	1.6338e+02	3.6567	-1.077014	0.000274	2.742810	0.464645	-0.000027
1644	1.6348e+02	3.6473	-1.104713	0.000278	2.783747	0.471580	-0.000028
1645	1.6358e+02	3.6361	-1.133227	0.000287	2.865622	0.485450	-0.000029
1646	1.6368e+02	3.6272	-1.159297	0.000262	2.619997	0.443840	-0.000026
1647	1.6378e+02	3.6184	-1.194736	0.000356	3.561559	0.603344	-0.000036
1648	1.6388e+02	3.6075	-1.224064	0.000295	2.947497	0.499320	-0.000029
1649	1.6398e+02	3.5981	-1.253800	0.000299	2.988434	0.506254	-0.000030
1650	1.6408e+02	3.5889	-1.282314	0.000287	2.865622	0.485450	-0.000029
1651	1.6418e+02	3.5813	-1.313680	0.000315	3.152184	0.533994	-0.000032
1652	1.6427e+02	3.5672	-1.346674	0.000332	3.315934	0.561734	-0.000033
1653	1.6437e+02	3.5582	-1.371522	0.000250	2.497185	0.423035	-0.000025
1654	1.6447e+02	3.5472	-1.404924	0.000336	3.356872	0.568669	-0.000034
1655	1.6457e+02	3.5364	-1.434660	0.000299	2.988434	0.506254	-0.000030
1656	1.6467e+02	3.5279	-1.465211	0.000307	3.070309	0.520124	-0.000031
1657	1.6477e+02	3.5160	-1.494540	0.000295	2.947497	0.499320	-0.000029
1658	1.6487e+02	3.5125	-1.525905	0.000315	3.152184	0.533994	-0.000032
1659	1.6497e+02	3.5028	-1.554827	0.000291	2.906560	0.492385	-0.000029
1660	1.6507e+02	3.4885	-1.589858	0.000352	3.520621	0.596409	-0.000035
1661	1.6517e+02	3.4779	-1.622853	0.000332	3.315934	0.561734	-0.000033
1662	1.6527e+02	3.4660	-1.649737	0.000270	2.701872	0.457710	-0.000027
1663	1.6537e+02	3.4574	-1.680695	0.000311	3.111247	0.527059	-0.000031
1664	1.6547e+02	3.4486	-1.709617	0.000291	2.906560	0.492385	-0.000029
1665	1.6557e+02	3.4399	-1.742611	0.000332	3.315934	0.561734	-0.000033
1666	1.6567e+02	3.4299	-1.773569	0.000311	3.111247	0.527059	-0.000031
1667	1.6577e+02	3.4182	-1.800454	0.000270	2.701872	0.457710	-0.000027
1668	1.6587e+02	3.4097	-1.833856	0.000336	3.356872	0.568669	-0.000034
1669	1.6597e+02	3.4024	-1.866851	0.000332	3.315934	0.561734	-0.000033
1670	1.6607e+02	3.3892	-1.899846	0.000332	3.315934	0.561734	-0.000033
1671	1.6616e+02	3.3788	-1.929582	0.000299	2.988434	0.506254	-0.000030
1672	1.6626e+02	3.3660	-1.960947	0.000315	3.152184	0.533994	-0.000032
1673	1.6636e+02	3.3587	-1.992312	0.000315	3.152184	0.533994	-0.000032
1674	1.6646e+02	3.3508	-2.024085	0.000319	3.193122	0.540929	-0.000032
1675	1.6656e+02	3.3381	-2.057895	0.000340	3.397809	0.575604	-0.000034
1676	1.6666e+02	3.3311	-2.092926	0.000352	3.520621	0.596409	-0.000035
1677	1.6676e+02	3.3195	-2.123477	0.000307	3.070309	0.520124	-0.000031
1678	1.6686e+02	3.3094	-2.158916	0.000356	3.561559	0.603344	-0.000036
1679	1.6696e+02	3.2999	-2.193540	0.000348	3.479684	0.589474	-0.000035
1680	1.6706e+02	3.2862	-2.230200	0.000368	3.684371	0.624149	-0.000037
1681	1.6716e+02	3.2790	-2.260751	0.000307	3.070309	0.520124	-0.000031
1682	1.6726e+02	3.2689	-2.296190	0.000356	3.561559	0.603344	-0.000036
1683	1.6736e+02	3.2608	-2.326741	0.000307	3.070309	0.520124	-0.000031
1684	1.6746e+02	3.2517	-2.360957	0.000344	3.438746	0.582539	-0.000034
1685	1.6756e+02	3.2384	-2.398026	0.000373	3.725309	0.631084	-0.000037
1686	1.6766e+02	3.2301	-2.429391	0.000315	3.152184	0.533994	-0.000032
1687	1.6776e+02	3.2173	-2.468089	0.000389	3.889059	0.658824	-0.000039
1688	1.6786e+02	3.2117	-2.500269	0.000323	3.234059	0.547864	-0.000032
1689	1.6796e+02	3.1976	-2.532449	0.000323	3.234059	0.547864	-0.000032
1690	1.6806e+02	3.1877	-2.566258	0.000340	3.397809	0.575604	-0.000034
1691	1.6816e+02	3.1827	-2.600475	0.000344	3.438746	0.582539	-0.000034
1692	1.6825e+02	3.1708	-2.631433	0.000311	3.111247	0.527059	-0.000031
1693	1.6835e+02	3.1611	-2.666464	0.000352	3.520621	0.596409	-0.000035
1694	1.6845e+02	3.1506	-2.699459	0.000332	3.315934	0.561734	-0.000033
1695	1.6855e+02	3.1405	-2.727973	0.000287	2.865622	0.485450	-0.000029
1696	1.6865e+02	3.1309	-2.763412	0.000356	3.561559	0.603344	-0.000036
1697	1.6875e+02	3.1196	-2.796814	0.000336	3.356872	0.568669	-0.000034
1698	1.6885e+02	3.1112	-2.825735	0.000291	2.906560	0.492385	-0.000029
1699	1.6895e+02	3.0999	-2.855879	0.000303	3.029372	0.513189	-0.000030
1700	1.6905e+02	3.0904	-2.893761	0.000381	3.807184	0.644954	-0.000038
1701	1.6915e+02	3.0790	-2.923090	0.000295	2.947497	0.499320	-0.000029
1702	1.6925e+02	3.0701	-2.956085	0.000332	3.315934	0.561734	-0.000033
1703	1.6935e+02	3.0638	-2.987043	0.000311	3.111247	0.527059	-0.000031
1704	1.6945e+02	3.0502	-3.013113	0.000262	2.619997	0.443840	-0.000026
1705	1.6955e+02	3.0410	-3.046922	0.000340	3.397809	0.575604	-0.000034
1706	1.6965e+02	3.0303	-3.079510	0.000327	3.274997	0.554799	-0.000033
1707	1.6975e+02	3.0228	-3.112912	0.000336	3.356872	0.568669	-0.000034
1708	1.6985e+02	3.0108	-3.142240	0.000295	2.947497	0.499320	-0.000029
1709	1.6995e+02	3.0004	-3.178494	0.000364	3.643434	0.617214	-0.000036
1710	1.7005e+02	2.9906	-3.206601	0.000282	2.824685	0.478515	-0.000028
1711	1.7015e+02	2.9807	-3.241225	0.000348	3.479684	0.589474	-0.000035
1712	1.7024e+02	2.9706	-3.272997	0.000319	3.193122	0.540929	-0.000032
1713	1.7034e+02	2.9604	-3.307622	0.000348	3.479684	0.589474	-0.000035
1714	1.7044e+02	2.9525	-3.340616	0.000332	3.315934	0.561734	-0.000033
1715	1.7054e+02	2.9382	-3.374833	0.000344	3.438746	0.582539	-0.000034
1716	1.7064e+02	2.9301	-3.411494	0.000368	3.684371	0.624149	-0.000037
1717	1.7074e+02	2.9209	-3.441637	0.000303	3.029372	0.513189	-0.000030
1718	1.7084e+02	2.9116	-3.473817	0.000323	3.234059	0.547864	-0.000032
1719	1.7094e+02	2.9005	-3.508441	0.000348	3.479684	0.589474	-0.000035
1720	1.7104e+02	2.8895	-3.538177	0.000299	2.988434	0.506254	-0.000030
1721	1.7114e+02	2.8799	-3.577282	0.000393	3.929996	0.665759	-0.000039
1722	1.7124e+02	2.8725	-3.607426	0.000303	3.029372	0.513189	-0.000030
1723	1.7134e+02	2.8607	-3.640828	0.000336	3.356872	0.568669	-0.000034
1724	1.7144e+02	2.8542	-3.675044	0.000344	3.438746	0.582539	-0.000034
1725	1.7154e+02	2.8413	-3.710483	0.000356	3.561559	0.603344	-0.000036
1726	1.7164e+02	2.8320	-3.745515	0.000352	3.520621	0.596409	-0.000035
1727	1.7174e+02	2.8225	-3.776065	0.000307	3.070309	0.520124	-0.000031
1728	1.7184e+02	2.8115	-3.811504	0.000356	3.561559	0.603344	-0.000036
1729	1.7194e+02	2.8034	-3.841240	0.000299	2.988434	0.506254	-0.000030
1730	1.7204e+02	2.7935	-3.869754	0.000287	2.865622	0.485450	-0.000029
1731	1.7213e+02	2.7850	-3.899898	0.000303	3.029372	0.513189	-0.000030
1732	1.7223e+02	2.7723	-3.932892	0.000332	3.315934	0.561734	-0.000033
1733	1.7233e+02	2.7618	-3.963443	0.000307	3.070309	0.520124	-0.000031
1734	1.7243e+02	2.7505	-3.998474	0.000352	3.520621	0.596409	-0.000035
1735	1.7253e+02	2.7420	-4.028210	0.000299	2.988434	0.506254	-0.000030
1736	1.7263e+02	2.7325	-4.055095	0.000270	2.701872	0.457710	-0.000027
1737	1.7273e+02	2.7224	-4.088905	0.000340	3.397809	0.575604	-0.000034
1738	1.7283e+02	2.7100	-4.122307	0.000336	3.356872	0.568669	-0.000034
1739	1.7293e+02	2.7005	-4.149191	0.000270	2.701872	0.457710	-0.000027
1740	1.7303e+02	2.6914	-4.183001	0.000340	3.397809	0.575604	-0.000034
1741	1.7313e+02	2.6839	-4.211107	0.000282	2.824685	0.478515	-0.000028
1742	1.7323e+02	2.6725	-4.243695	0.000327	3.274997	0.554799	-0.000033
1743	1.7333e+02	2.6606	-4.270172	0.000266	2.660935	0.450775	-0.000027
1744	1.7343e+02	2.6521	-4.304389	0.000344	3.438746	0.582539	-0.000034
1745	1.7353e+02	2.6424	-4.337383	0.000332	3.315934	0.561734	-0.000033
1746	1.7363e+02	2.6333	-4.363861	0.000266	2.660935	0.450775	-0.000027
1747	1.7373e+02	2.6246	-4.394411	0.000307	3.070309	0.520124	-0.000031
1748	1.7383e+02	2.6141	-4.425369	0.000311	3.111247	0.527059	-0.000031
1749	1.7393e+02	2.6028	-4.453883	0.000287	2.865622	0.485450	-0.000029
1750	1.7403e+02	2.5932	-4.484841	0.000311	3.111247	0.527059	-0.000031
1751	1.7413e+02	2.5833	-4.518244	0.000336	3.356872	0.568669	-0.000034
1752	1.7422e+02	2.5724	-4.547980	0.000299	2.988434	0.506254	-0.000030
1753	1.7432e+02	2.5628	-4.580567	0.000327	3.274997	0.554799	-0.000033
1754	1.7442e+02	2.5532	-4.612340	0.000319	3.193122	0.540929	-0.000032
1755	1.7452e+02	2.5436	-4.641261	0.000291	2.906560	0.492385	-0.000029
1756	1.7462e+02	2.5327	-4.673441	0.000323	3.234059	0.547864	-0.000032
1757	1.7472e+02	2.5235	-4.700326	0.000270	2.701872	0.457710	-0.000027
1758	1.7482e+02	2.5140	-4.728432	0.000282	2.824685	0.478515	-0.000028
1759	1.7492e+02	2.5030	-4.757354	0.000291	2.906560	0.492385	-0.000029
1760	1.7502e+02	2.4921	-4.780980	0.000237	2.374373	0.402230	-0.000024
1761	1.7512e+02	2.4806	-4.813974	0.000332	3.315934	0.561734	-0.000033
1762	1.7522e+02	2.4754	-4.842488	0.000287	2.865622	0.485450	-0.000029
1763	1.7532e+02	2.4630	-4.873446	0.000311	3.111247	0.527059	-0.000031
1764	1.7542e+02	2.4547	-4.899109	0.000258	2.579060	0.436905	-0.000026
1765	1.7552e+02	2.4419	-4.926808	0.000278	2.783747	0.471580	-0.000028
1766	1.7562e+02	2.4308	-4.956952	0.000303	3.029372	0.513189	-0.000030
1767	1.7572e+02	2.4234	-4.986280	0.000295	2.947497	0.499320	-0.000029
1768	1.7582e+02	2.4159	-5.010313	0.000242	2.415310	0.409165	-0.000024
1769	1.7592e+02	2.4041	-5.040049	0.000299	2.988434	0.506254	-0.000030
1770	1.7602e+02	2.3952	-5.071007	0.000311	3.111247	0.527059	-0.000031
1771	1.7612e+02	2.3827	-5.098299	0.000274	2.742810	0.464645	-0.000027
1772	1.7621e+02	2.3735	-5.128035	0.000299	2.988434	0.506254	-0.000030
1773	1.7631e+02	2.3625	-5.157364	0.000295	2.947497	0.499320	-0.000029
1774	1.7641e+02	2.3551	-5.184249	0.000270	2.701872	0.457710	-0.000027
1775	1.7651e+02	2.3466	-5.216429	0.000323	3.234059	0.547864	-0.000032
1776	1.7661e+02	2.3335	-5.242499	0.000262	2.619997	0.443840	-0.000026
1777	1.7671e+02	2.3234	-5.270605	0.000282	2.824685	0.478515	-0.000028
1778	1.7681e+02	2.3134	-5.303193	0.000327	3.274997	0.554799	-0.000033
1779	1.7691e+02	2.3064	-5.337409	0.000344	3.438746	0.582539	-0.000034
1780	1.7701e+02	2.2961	-5.367553	0.000303	3.029372	0.513189	-0.000030
1781	1.7711e+02	2.2844	-5.394845	0.000274	2.742810	0.464645	-0.000027
1782	1.7721e+02	2.2712	-5.428654	0.000340	3.397809	0.575604	-0.000034
1783	1.7731e+02	2.2636	-5.459612	0.000311	3.111247	0.527059	-0.000031
1784	1.7741e+02	2.2536	-5.490570	0.000311	3.111247	0.527059	-0.000031
1785	1.7751e+02	2.2449	-5.518677	0.000282	2.824685	0.478515	-0.000028
1786	1.7761e+02	2.2346	-5.554930	0.000364	3.643434	0.617214	-0.000036
1787	1.7771e+02	2.2226	-5.587518	0.000327	3.274997	0.554799	-0.000033
1788	1.7781e+02	2.2145	-5.615217	0.000278	2.783747	0.471580	-0.000028
1789	1.7791e+02	2.2047	-5.646990	0.000319	3.193122	0.540929	-0.000032
1790	1.7801e+02	2.1962	-5.679577	0.000327	3.274997	0.554799	-0.000033
1791	1.7810e+02	2.1832	-5.711757	0.000323	3.234059	0.547864	-0.000032
1792	1.7820e+02	2.1750	-5.743530	0.000319	3.193122	0.540929	-0.000032
1793	1.7830e+02	2.1653	-5.770822	0.000274	2.742810	0.464645	-0.000027
1794	1.7840e+02	2.1528	-5.804631	0.000340	3.397809	0.575604	-0.000034
1795	1.7850e+02	2.1455	-5.834775	0.000303	3.029372	0.513189	-0.000030
1796	1.7860e+02	2.1330	-5.862881	0.000282	2.824685	0.478515	-0.000028
1797	1.7870e+02	2.1242	-5.891803	0.000291	2.906560	0.492385	-0.000029
1798	1.7880e+02	2.1119	-5.925205	0.000336	3.356872	0.568669	-0.000034
1799	1.7890e+02	2.1049	-5.952497	0.000274	2.742810	0.464645	-0.000027
1800	1.7900e+02	2.0947	-5.981825	0.000295	2.947497	0.499320	-0.000029
1801	1.7910e+02	2.0842	-6.011154	0.000295	2.947497	0.499320	-0.000029
1802	1.7920e+02	2.0771	-6.045371	0.000344	3.438746	0.582539	-0.000034
1803	1.7930e+02	2.0644	-6.077144	0.000319	3.193122	0.540929	-0.000032
1804	1.7940e+02	2.0534	-6.106880	0.000299	2.988434	0.506254	-0.000030
1805	1.7950e+02	2.0457	-6.137023	0.000303	3.029372	0.513189	-0.000030
1806	1.7960e+02	2.0364	-6.167981	0.000311	3.111247	0.527059	-0.000031
1807	1.7970e+02	2.0260	-6.196088	0.000282	2.824685	0.478515	-0.000028
1808	1.7980e+02	2.0130	-6.227860	0.000319	3.193122	0.540929	-0.000032
1809	1.7990e+02	2.0057	-6.260448	0.000327	3.274997	0.554799	-0.000033
1810	1.8000e+02	1.9964	-6.292220	0.000319	3.193122	0.540929	-0.000032
1811	1.8009e+02	1.9870	-6.322771	0.000307	3.070309	0.520124	-0.000031
1812	1.8019e+02	1.9736	-6.354136	0.000315	3.152184	0.533994	-0.000032
1813	1.8029e+02	1.9637	-6.383872	0.000299	2.988434	0.506254	-0.000030
1814	1.8039e+02	1.9543	-6.420941	0.000373	3.725309	0.631084	-0.000037
1815	1.8049e+02	1.9472	-6.452306	0.000315	3.152184	0.533994	-0.000032
1816	1.8059e+02	1.9351	-6.485301	0.000332	3.315934	0.561734	-0.000033
1817	1.8069e+02	1.9278	-6.517481	0.000323	3.234059	0.547864	-0.000032
1818	1.8079e+02	1.9166	-6.554956	0.000377	3.766246	0.638019	-0.000038
1819	1.8089e+02	1.9066	-6.584285	0.000295	2.947497	0.499320	-0.000029
1820	1.8099e+02	1.8966	-6.618502	0.000344	3.438746	0.582539	-0.000034
1821	1.8109e+02	1.8856	-6.650682	0.000323	3.234059	0.547864	-0.000032
1822	1.8119e+02	1.8761	-6.685306	0.000348	3.479684	0.589474	-0.000035
1823	1.8129e+02	1.8688	-6.718708	0.000336	3.356872	0.568669	-0.000034
1824	1.8139e+02	1.8549	-6.751703	0.000332	3.315934	0.561734	-0.000033
1825	1.8149e+02	1.8450	-6.789178	0.000377	3.766246	0.638019	-0.000038
1826	1.8159e+02	1.8370	-6.820951	0.000319	3.193122	0.540929	-0.000032
1827	1.8169e+02	1.8266	-6.857612	0.000368	3.684371	0.624149	-0.000037
1828	1.8179e+02	1.8146	-6.888163	0.000307	3.070309	0.520124	-0.000031
1829	1.8189e+02	1.8076	-6.925638	0.000377	3.766246	0.638019	-0.000038
1830	1.8199e+02	1.7972	-6.958633	0.000332	3.315934	0.561734	-0.000033
1831	1.8209e+02	1.7863	-6.990813	0.000323	3.234059	0.547864	-0.000032
1832	1.8218e+02	1.7774	-7.025844	0.000352	3.520621	0.596409	-0.000035
1833	1.8228e+02	1.7657	-7.066171	0.000405	4.052808	0.686564	-0.000041
1834	1.8238e+02	1.7574	-7.094685	0.000287	2.865622	0.485450	-0.000029
1835	1.8248e+02	1.7487	-7.126458	0.000319	3.193122	0.540929	-0.000032
1836	1.8258e+02	1.7377	-7.164341	0.000381	3.807184	0.644954	-0.000038
1837	1.8268e+02	1.7244	-7.200594	0.000364	3.643434	0.617214	-0.000036
1838	1.8278e+02	1.7200	-7.238070	0.000377	3.766246	0.638019	-0.000038
1839	1.8288e+02	1.7068	-7.270657	0.000327	3.274997	0.554799	-0.000033
1840	1.8298e+02	1.6973	-7.306911	0.000364	3.643434	0.617214	-0.000036
1841	1.8308e+02	1.6863	-7.340720	0.000340	3.397809	0.575604	-0.000034
1842	1.8318e+02	1.6780	-7.375752	0.000352	3.520621	0.596409	-0.000035
1843	1.8328e+02	1.6662	-7.411190	0.000356	3.561559	0.603344	-0.000036
1844	1.8338e+02	1.6562	-7.451110	0.000401	4.011871	0.679629	-0.000040
1845	1.8348e+02	1.6456	-7.488178	0.000373	3.725309	0.631084	-0.000037
1846	1.8358e+02	1.6383	-7.521988	0.000340	3.397809	0.575604	-0.000034
1847	1.8368e+02	1.6298	-7.559870	0.000381	3.807184	0.644954	-0.000038
1848	1.8378e+02	1.6143	-7.598568	0.000389	3.889059	0.658824	-0.000039
1849	1.8388e+02	1.6061	-7.634821	0.000364	3.643434	0.617214	-0.000036
1850	1.8398e+02	1.5968	-7.671482	0.000368	3.684371	0.624149	-0.000037
1851	1.8407e+02	1.5863	-7.708958	0.000377	3.766246	0.638019	-0.000038
1852	1.8417e+02	1.5783	-7.744804	0.000360	3.602496	0.610279	-0.000036
1853	1.8427e+02	1.5667	-7.787982	0.000434	4.339371	0.735109	-0.000043
1854	1.8437e+02	1.5585	-7.821792	0.000340	3.397809	0.575604	-0.000034
1855	1.8447e+02	1.5473	-7.858453	0.000368	3.684371	0.624149	-0.000037
1856	1.8457e+02	1.5385	-7.896743	0.000385	3.848121	0.651889	-0.000038
1857	1.8467e+02	1.5271	-7.934626	0.000381	3.807184	0.644954	-0.000038
1858	1.8477e+02	1.5172	-7.974138	0.000397	3.970933	0.672694	-0.000040
1859	1.8487e+02	1.5101	-8.006318	0.000323	3.234059	0.547864	-0.000032
1860	1.8497e+02	1.4963	-8.043793	0.000377	3.766246	0.638019	-0.000038
1861	1.8507e+02	1.4883	-8.080862	0.000373	3.725309	0.631084	-0.000037
1862	1.8517e+02	1.4771	-8.117930	0.000373	3.725309	0.631084	-0.000037
1863	1.8527e+02	1.4675	-8.148888	0.000311	3.111247	0.527059	-0.000031
1864	1.8537e+02	1.4589	-8.183919	0.000352	3.520621	0.596409	-0.000035
1865	1.8547e+02	1.4477	-8.223431	0.000397	3.970933	0.672694	-0.000040
1866	1.8557e+02	1.4380	-8.259278	0.000360	3.602496	0.610279	-0.000036
1867	1.8567e+02	1.4268	-8.291458	0.000323	3.234059	0.547864	-0.000032
1868	1.8577e+02	1.4179	-8.329748	0.000385	3.848121	0.651889	-0.000038
1869	1.8587e+02	1.4091	-8.364372	0.000348	3.479684	0.589474	-0.000035
1870	1.8597e+02	1.3989	-8.396145	0.000319	3.193122	0.540929	-0.000032
1871	1.8606e+02	1.3869	-8.436879	0.000409	4.093746	0.693499	-0.000041
1872	1.8616e+02	1.3774	-8.468244	0.000315	3.152184	0.533994	-0.000032
1873	1.8626e+02	1.3674	-8.504905	0.000368	3.684371	0.624149	-0.000037
1874	1.8636e+02	1.3588	-8.539529	0.000348	3.479684	0.589474	-0.000035
1875	1.8646e+02	1.3485	-8.575783	0.000364	3.643434	0.617214	-0.000036
1876	1.8656e+02	1.3390	-8.612036	0.000364	3.643434	0.617214	-0.000036
1877	1.8666e+02	1.3277	-8.649104	0.000373	3.725309	0.631084	-0.000037
1878	1.8676e+02	1.3215	-8.686173	0.000373	3.725309	0.631084	-0.000037
1879	1.8686e+02	1.3087	-8.722426	0.000364	3.643434	0.617214	-0.000036
1880	1.8696e+02	1.3004	-8.758680	0.000364	3.643434	0.617214	-0.000036
1881	1.8706e+02	1.2890	-8.792896	0.000344	3.438746	0.582539	-0.000034
1882	1.8716e+02	1.2745	-8.832409	0.000397	3.970933	0.672694	-0.000040
1883	1.8726e+02	1.2688	-8.867847	0.000356	3.561559	0.603344	-0.000036
1884	1.8736e+02	1.2586	-8.904916	0.000373	3.725309	0.631084	-0.000037
1885	1.8746e+02	1.2510	-8.943206	0.000385	3.848121	0.651889	-0.000038
1886	1.8756e+02	1.2405	-8.974164	0.000311	3.111247	0.527059	-0.000031
1887	1.8766e+02	1.2302	-9.011639	0.000377	3.766246	0.638019	-0.000038
1888	1.8776e+02	1.2197	-9.050337	0.000389	3.889059	0.658824	-0.000039
1889	1.8786e+02	1.2096	-9.088220	0.000381	3.807184	0.644954	-0.000038
1890	1.8796e+02	1.1991	-9.124880	0.000368	3.684371	0.624149	-0.000037
1891	1.8806e+02	1.1910	-9.159097	0.000344	3.438746	0.582539	-0.000034
1892	1.8815e+02	1.1790	-9.200646	0.000418	4.175621	0.707369	-0.000042
1893	1.8825e+02	1.1713	-9.236492	0.000360	3.602496	0.610279	-0.000036
1894	1.8835e+02	1.1646	-9.271931	0.000356	3.561559	0.603344	-0.000036
1895	1.8845e+02	1.1510	-9.306148	0.000344	3.438746	0.582539	-0.000034
1896	1.8855e+02	1.1400	-9.340365	0.000344	3.438746	0.582539	-0.000034
1897	1.8865e+02	1.1284	-9.378655	0.000385	3.848121	0.651889	-0.000038
1898	1.8875e+02	1.1195	-9.410020	0.000315	3.152184	0.533994	-0.000032
1899	1.8885e+02	1.1092	-9.445052	0.000352	3.520621	0.596409	-0.000035
1900	1.8895e+02	1.1031	-9.480083	0.000352	3.520621	0.596409	-0.000035
1901	1.8905e+02	1.0906	-9.515115	0.000352	3.520621	0.596409	-0.000035
1902	1.8915e+02	1.0807	-9.553812	0.000389	3.889059	0.658824	-0.000039
1903	1.8925e+02	1.0698	-9.587622	0.000340	3.397809	0.575604	-0.000034
1904	1.8935e+02	1.0597	-9.620616	0.000332	3.315934	0.561734	-0.000033
1905	1.8945e+02	1.0509	-9.658499	0.000381	3.807184	0.644954	-0.000038
1906	1.8955e+02	1.0409	-9.690679	0.000323	3.234059	0.547864	-0.000032
1907	1.8965e+02	1.0287	-9.727747	0.000373	3.725309	0.631084	-0.000037
1908	1.8975e+02	1.0204	-9.758298	0.000307	3.070309	0.520124	-0.000031
1909	1.8985e+02	1.0084	-9.794144	0.000360	3.602496	0.610279	-0.000036
1910	1.8995e+02	1.0017	-9.826732	0.000327	3.274997	0.554799	-0.000033
1911	1.9004e+02	0.9930	-9.861763	0.000352	3.520621	0.596409	-0.000035
1912	1.9014e+02	0.9820	-9.897609	0.000360	3.602496	0.610279	-0.000036
1913	1.9024e+02	0.9689	-9.928975	0.000315	3.152184	0.533994	-0.000032
1914	1.9034e+02	0.9588	-9.959933	0.000311	3.111247	0.527059	-0.000031
1915	1.9044e+02	0.9499	-9.997408	0.000377	3.766246	0.638019	-0.000038
1916	1.9054e+02	0.9399	-10.033254	0.000360	3.602496	0.610279	-0.000036
1917	1.9064e+02	0.9300	-10.067064	0.000340	3.397809	0.575604	-0.000034
1918	1.9074e+02	0.9204	-10.099651	0.000327	3.274997	0.554799	-0.000033
1919	1.9084e+02	0.9098	-10.133868	0.000344	3.438746	0.582539	-0.000034
1920	1.9094e+02	0.8995	-10.171344	0.000377	3.766246	0.638019	-0.000038
1921	1.9104e+02	0.8907	-10.205968	0.000348	3.479684	0.589474	-0.000035
1922	1.9114e+02	0.8836	-10.236111	0.000303	3.029372	0.513189	-0.000030
1923	1.9124e+02	0.8693	-10.276031	0.000401	4.011871	0.679629	-0.000040
1924	1.9134e+02	0.8634	-10.306174	0.000303	3.029372	0.513189	-0.000030
1925	1.9144e+02	0.8495	-10.337539	0.000315	3.152184	0.533994	-0.000032
1926	1.9154e+02	0.8418	-10.372978	0.000356	3.561559	0.603344	-0.000036
1927	1.9164e+02	0.8316	-10.404343	0.000315	3.152184	0.533994	-0.000032
1928	1.9174e+02	0.8218	-10.437338	0.000332	3.315934	0.561734	-0.000033
1929	1.9184e+02	0.8123	-10.469518	0.000323	3.234059	0.547864	-0.000032
1930	1.9194e+02	0.8044	-10.502513	0.000332	3.315934	0.561734	-0.000033
1931	1.9203e+02	0.7938	-10.529805	0.000274	2.742810	0.464645	-0.000027
1932	1.9213e+02	0.7838	-10.565244	0.000356	3.561559	0.603344	-0.000036
1933	1.9223e+02	0.7732	-10.594165	0.000291	2.906560	0.492385	-0.000029
1934	1.9233e+02	0.7619	-10.634085	0.000401	4.011871	0.679629	-0.000040
1935	1.9243e+02	0.7512	-10.662599	0.000287	2.865622	0.485450	-0.000029
1936	1.9253e+02	0.7433	-10.693557	0.000311	3.111247	0.527059	-0.000031
1937	1.9263e+02	0.7314	-10.728181	0.000348	3.479684	0.589474	-0.000035
1938	1.9273e+02	0.7233	-10.757509	0.000295	2.947497	0.499320	-0.000029
1939	1.9283e+02	0.7124	-10.791726	0.000344	3.438746	0.582539	-0.000034
1940	1.9293e+02	0.7008	-10.820648	0.000291	2.906560	0.492385	-0.000029
1941	1.9303e+02	0.6927	-10.856494	0.000360	3.602496	0.610279	-0.000036
1942	1.9313e+02	0.6811	-10.887452	0.000311	3.111247	0.527059	-0.000031
1943	1.9323e+02	0.6699	-10.924113	0.000368	3.684371	0.624149	-0.000037
1944	1.9333e+02	0.6644	-10.955885	0.000319	3.193122	0.540929	-0.000032
1945	1.9343e+02	0.6526	-10.990102	0.000344	3.438746	0.582539	-0.000034
1946	1.9353e+02	0.6439	-11.024726	0.000348	3.479684	0.589474	-0.000035
1947	1.9363e+02	0.6313	-11.054870	0.000303	3.029372	0.513189	-0.000030
1948	1.9373e+02	0.6251	-11.090308	0.000356	3.561559	0.603344	-0.000036
1949	1.9383e+02	0.6130	-11.124932	0.000348	3.479684	0.589474	-0.000035
1950	1.9393e+02	0.6029	-11.154261	0.000295	2.947497	0.499320	-0.000029
1951	1.9403e+02	0.5946	-11.195403	0.000413	4.134683	0.700434	-0.000041
1952	1.9412e+02	0.5825	-11.229619	0.000344	3.438746	0.582539	-0.000034
1953	1.9422e+02	0.5730	-11.263836	0.000344	3.438746	0.582539	-0.000034
1954	1.9432e+02	0.5632	-11.298868	0.000352	3.520621	0.596409	-0.000035
1955	1.9442e+02	0.5546	-11.338787	0.000401	4.011871	0.679629	-0.000040
1956	1.9452e+02	0.5444	-11.368523	0.000299	2.988434	0.506254	-0.000030
1957	1.9462e+02	0.5337	-11.406813	0.000385	3.848121	0.651889	-0.000038
1958	1.9472e+02	0.5212	-11.445918	0.000393	3.929996	0.665759	-0.000039
1959	1.9482e+02	0.5145	-11.479728	0.000340	3.397809	0.575604	-0.000034
1960	1.9492e+02	0.5022	-11.511501	0.000319	3.193122	0.540929	-0.000032
1961	1.9502e+02	0.4947	-11.549383	0.000381	3.807184	0.644954	-0.000038
1962	1.9512e+02	0.4843	-11.582785	0.000336	3.356872	0.568669	-0.000034
1963	1.9522e+02	0.4748	-11.615373	0.000327	3.274997	0.554799	-0.000033
1964	1.9532e+02	0.4676	-11.646738	0.000315	3.152184	0.533994	-0.000032
1965	1.9542e+02	0.4518	-11.683399	0.000368	3.684371	0.624149	-0.000037
1966	1.9552e+02	0.4429	-11.715579	0.000323	3.234059	0.547864	-0.000032
1967	1.9562e+02	0.4337	-11.750611	0.000352	3.520621	0.596409	-0.000035
1968	1.9572e+02	0.4274	-11.789715	0.000393	3.929996	0.665759	-0.000039
1969	1.9582e+02	0.4140	-11.819859	0.000303	3.029372	0.513189	-0.000030
1970	1.9592e+02	0.4013	-11.856112	0.000364	3.643434	0.617214	-0.000036
1971	1.9601e+02	0.3965	-11.891551	0.000356	3.561559	0.603344	-0.000036
1972	1.9611e+02	0.3821	-11.925361	0.000340	3.397809	0.575604	-0.000034
1973	1.9621e+02	0.3738	-11.962836	0.000377	3.766246	0.638019	-0.000038
1974	1.9631e+02	0.3635	-11.991350	0.000287	2.865622	0.485450	-0.000029
1975	1.9641e+02	0.3534	-12.029233	0.000381	3.807184	0.644954	-0.000038
1976	1.9651e+02	0.3445	-12.061006	0.000319	3.193122	0.540929	-0.000032
1977	1.9661e+02	0.3352	-12.094000	0.000332	3.315934	0.561734	-0.000033
1978	1.9671e+02	0.3254	-12.130661	0.000368	3.684371	0.624149	-0.000037
1979	1.9681e+02	0.3157	-12.167322	0.000368	3.684371	0.624149	-0.000037
1980	1.9691e+02	0.3042	-12.203576	0.000364	3.643434	0.617214	-0.000036
1981	1.9701e+02	0.2939	-12.239829	0.000364	3.643434	0.617214	-0.000036
1982	1.9711e+02	0.2891	-12.277305	0.000377	3.766246	0.638019	-0.000038
1983	1.9721e+02	0.2715	-12.316409	0.000393	3.929996	0.665759	-0.000039
1984	1.9731e+02	0.2652	-12.352256	0.000360	3.602496	0.610279	-0.000036
1985	1.9741e+02	0.2541	-12.392582	0.000405	4.052808	0.686564	-0.000041
1986	1.9751e+02	0.2454	-12.425985	0.000336	3.356872	0.568669	-0.000034
1987	1.9761e+02	0.2329	-12.463053	0.000373	3.725309	0.631084	-0.000037
1988	1.9771e+02	0.2258	-12.502565	0.000397	3.970933	0.672694	-0.000040
1989	1.9781e+02	0.2157	-12.537189	0.000348	3.479684	0.589474	-0.000035
1990	1.9791e+02	0.2035	-12.578331	0.000413	4.134683	0.700434	-0.000041
1991	1.9800e+02	0.1945	-12.612547	0.000344	3.438746	0.582539	-0.000034
1992	1.9810e+02	0.1865	-12.650838	0.000385	3.848121	0.651889	-0.000038
1993	1.9820e+02	0.1756	-12.691572	0.000409	4.093746	0.693499	-0.000041
1994	1.9830e+02	0.1646	-12.727825	0.000364	3.643434	0.617214	-0.000036
1995	1.9840e+02	0.1556	-12.768560	0.000409	4.093746	0.693499	-0.000041
1996	1.9850e+02	0.1452	-12.807257	0.000389	3.889059	0.658824	-0.000039
1997	1.9860e+02	0.1347	-12.843918	0.000368	3.684371	0.624149	-0.000037
1998	1.9870e+02	0.1234	-12.876913	0.000332	3.315934	0.561734	-0.000033
1999	1.9880e+02	0.1148	-12.918869	0.000422	4.216558	0.714304	-0.000042
2000	1.9890e+02	0.1051	-12.959196	0.000405	4.052808	0.686564	-0.000041
2001	1.9900e+02	0.0922	-12.998708	0.000397	3.970933	0.672694	-0.000040
2002	1.9910e+02	0.0847	-13.034962	0.000364	3.643434	0.617214	-0.000036
2003	1.9920e+02	0.0760	-13.073659	0.000389	3.889059	0.658824	-0.000039
2004	1.9930e+02	0.0681	-13.114801	0.000413	4.134683	0.700434	-0.000041
2005	1.9940e+02	0.0556	-13.151869	0.000373	3.725309	0.631084	-0.000037
2006	1.9950e+02	0.0448	-13.191381	0.000397	3.970933	0.672694	-0.000040
2007	1.9960e+02	0.0333	-13.231301	0.000401	4.011871	0.679629	-0.000040
2008	1.9970e+02	0.0234	-13.271628	0.000405	4.052808	0.686564	-0.000041
2009	1.9980e+02	0.0148	-13.309103	0.000377	3.766246	0.638019	-0.000038
2010	1.9990e+02	0.0050	-13.353096	0.000442	4.421245	0.748979	-0.000044
2011	2.0000e+02	-0.0037	-13.394238	0.000442	4.421245	0.748979	-0.000041

PMax (uC/cm2):	2.89e+01
Pr (uC/cm2):	1.04e+00
-Pr (uC/cm2):	0.00e+00
PLoss (uC/cm2):	0.00e+00
C (Max-Eff) (nF):	2.89e-01
K (Eff):	4.90e+02
Vert. (+/-Pr) Shift (uC/cm2):	5.18e-01
Offset (uC/cm2):	1.44e+01

A (Loop Area - uC/cm2·Volts):	-1.04e-02



Hysteresis Version: 5.48.1 - Radiant Technologies, Inc., 1999 - 9/12/24

