»»»»»»»»»»»»»»»»»»»»»»»»»»»»»»»»»»»» Hysteresis ««««««««««««««««««««««««««««««««««««
»»»  Executed Version:	5.48.1
»»»  Vision Version:	5.48.4 (R)
»»»  Vision Compiled:	9/18/24
»»»  Driver Version:	5.47.0
»»»  Windows Version:	Windows 8 or 8.1
»»»  Processor Information:	x86 (AMD or Intel) - 32 Processors
»»»  Tester Name:	PMF21124-494 (100V)
»»»  Tester S/N:	PMF21124-494
»»»  Internal Amp Type:	100V RevK 270k
»»»  Internal Amp S/N:	iAB2-596/K     
»»»  Execution Count:	1
»»»»»»»»»»»»»»»»»»»»»»»»»»»»»»»»»»»»»»»»»»««««««««««««««««««««««««««««««««««««««««««

Stored:	6/27/2025 - 14:22:39
Configured:	06/27/25 11:23:28 AM
Executed:	06/27/25 02:22:10 PM

»»»»»»»»»»»»»»»»»»»»»»»»»»»»»»»»»»» Sample Info ««««««««««««««««««««««««««««««««««««
Sample Name:	
Lot Name:	
Wafer Name:	
Die Row/Column:	0/0
Capacitor Number:	0
Sample Area (cm2):	1.00e-04
Sample Thickness (microns):	1.50e-01

Amplifier:	Internal

»»»»»»»»»»»»»»»»»»»»»»»»»»»»»»»»»»» Tester Info «««««««««««««««««««««««««««««««««««
Tester Name:	PMF21124-494 (100V)
Tester Serial Number:	PMF21124-494
Return Signal Amp. Level:	1.9 [Index: 2]

»»»»»»»»»»»»»»»»»»»»»»»»»»»»»»»» Hysteresis Info ««««««««««««««««««««««««««««««««««
Task Name:	Hyst-1276
Volts:	10.00
Field:	666.67 (kV/cm)
DCBias:	0.00
DCField:	0.00 (kV/cm)
Hysteresis Period (ms):	2.00e+02
Preset:	Enabled
Preset Delay (ms):	1.00e+03
Profile:	Standard Monopolar

»»»»»»»»»»»»»»»»»»»»»»»»»»»»»»»»»»»»»» Data «««««««««««««««««««««««««««««««««««««««
Points:	2011

Valid Data

Point	Time (ms)	Drive Voltage	Measured Polarization (uC/cm2)	Capacitance (uF)	Normalized Capacitance (uF/cm2)	Dielectric Constant	Instantaneous Current (mA)
   1	0.0000e+00	-0.0058	-11.585841	0.000205	2.047310	0.346824	0.000020
   2	9.9500e-02	0.0056	-11.565473	0.000205	2.047310	0.346824	0.000020
   3	1.9900e-01	0.0153	-11.538996	0.000266	2.661503	0.450871	0.000027
   4	2.9850e-01	0.0272	-11.517407	0.000217	2.170149	0.367633	0.000022
   5	3.9800e-01	0.0335	-11.496225	0.000213	2.129203	0.360697	0.000021
   6	4.9750e-01	0.0468	-11.475043	0.000213	2.129203	0.360697	0.000021
   7	5.9700e-01	0.0546	-11.451417	0.000237	2.374880	0.402316	0.000024
   8	6.9650e-01	0.0648	-11.423718	0.000278	2.784342	0.471680	0.000028
   9	7.9600e-01	0.0742	-11.402536	0.000213	2.129203	0.360697	0.000021
  10	8.9550e-01	0.0852	-11.376059	0.000266	2.661503	0.450871	0.000027
  11	9.9500e-01	0.0954	-11.353248	0.000229	2.292987	0.388443	0.000023
  12	1.0945e+00	0.1053	-11.327178	0.000262	2.620557	0.443934	0.000026
  13	1.1940e+00	0.1138	-11.300701	0.000266	2.661503	0.450871	0.000027
  14	1.2935e+00	0.1236	-11.279926	0.000209	2.088256	0.353760	0.000021
  15	1.3930e+00	0.1366	-11.255078	0.000250	2.497718	0.423125	0.000025
  16	1.4925e+00	0.1436	-11.232267	0.000229	2.292987	0.388443	0.000023
  17	1.5920e+00	0.1521	-11.207827	0.000246	2.456772	0.416188	0.000025
  18	1.6915e+00	0.1637	-11.183793	0.000242	2.415826	0.409252	0.000024
  19	1.7910e+00	0.1744	-11.159760	0.000242	2.415826	0.409252	0.000024
  20	1.8905e+00	0.1853	-11.134098	0.000258	2.579611	0.436998	0.000026
  21	1.9900e+00	0.1965	-11.108028	0.000262	2.620557	0.443934	0.000026
  22	2.0895e+00	0.2049	-11.085217	0.000229	2.292987	0.388443	0.000023
  23	2.1890e+00	0.2148	-11.063220	0.000221	2.211095	0.374570	0.000022
  24	2.2885e+00	0.2244	-11.035928	0.000274	2.743396	0.464744	0.000027
  25	2.3880e+00	0.2344	-11.010265	0.000258	2.579611	0.436998	0.000026
  26	2.4875e+00	0.2464	-10.983381	0.000270	2.702450	0.457807	0.000027
  27	2.5870e+00	0.2560	-10.955274	0.000283	2.825288	0.478617	0.000028
  28	2.6865e+00	0.2645	-10.932870	0.000225	2.252041	0.381506	0.000023
  29	2.7860e+00	0.2722	-10.907615	0.000254	2.538665	0.430061	0.000025
  30	2.8855e+00	0.2820	-10.880323	0.000274	2.743396	0.464744	0.000027
  31	2.9850e+00	0.2929	-10.854661	0.000258	2.579611	0.436998	0.000026
  32	3.0845e+00	0.3037	-10.833886	0.000209	2.088256	0.353760	0.000021
  33	3.1840e+00	0.3146	-10.811482	0.000225	2.252041	0.381506	0.000023
  34	3.2835e+00	0.3235	-10.787449	0.000242	2.415826	0.409252	0.000024
  35	3.3830e+00	0.3354	-10.765453	0.000221	2.211095	0.374570	0.000022
  36	3.4825e+00	0.3444	-10.741012	0.000246	2.456772	0.416188	0.000025
  37	3.5820e+00	0.3530	-10.721867	0.000192	1.924472	0.326014	0.000019
  38	3.6815e+00	0.3629	-10.696204	0.000258	2.579611	0.436998	0.000026
  39	3.7810e+00	0.3725	-10.674615	0.000217	2.170149	0.367633	0.000022
  40	3.8805e+00	0.3833	-10.647323	0.000274	2.743396	0.464744	0.000027
  41	3.9800e+00	0.3944	-10.620031	0.000274	2.743396	0.464744	0.000027
  42	4.0795e+00	0.4044	-10.597220	0.000229	2.292987	0.388443	0.000023
  43	4.1790e+00	0.4125	-10.576446	0.000209	2.088256	0.353760	0.000021
  44	4.2785e+00	0.4239	-10.552820	0.000237	2.374880	0.402316	0.000024
  45	4.3780e+00	0.4311	-10.527565	0.000254	2.538665	0.430061	0.000025
  46	4.4775e+00	0.4433	-10.508012	0.000197	1.965418	0.332951	0.000020
  47	4.5770e+00	0.4523	-10.483164	0.000250	2.497718	0.423125	0.000025
  48	4.6765e+00	0.4638	-10.461575	0.000217	2.170149	0.367633	0.000022
  49	4.7760e+00	0.4755	-10.434690	0.000270	2.702450	0.457807	0.000027
  50	4.8755e+00	0.4816	-10.416767	0.000180	1.801633	0.305205	0.000018
  51	4.9750e+00	0.4951	-10.387439	0.000295	2.948127	0.499426	0.000029
  52	5.0745e+00	0.5046	-10.362183	0.000254	2.538665	0.430061	0.000025
  53	5.1740e+00	0.5123	-10.336928	0.000254	2.538665	0.430061	0.000025
  54	5.2735e+00	0.5245	-10.313710	0.000233	2.333934	0.395379	0.000023
  55	5.3730e+00	0.5344	-10.284381	0.000295	2.948127	0.499426	0.000029
  56	5.4725e+00	0.5427	-10.257089	0.000274	2.743396	0.464744	0.000027
  57	5.5720e+00	0.5529	-10.228575	0.000287	2.866234	0.485553	0.000029
  58	5.6715e+00	0.5621	-10.200876	0.000278	2.784342	0.471680	0.000028
  59	5.7710e+00	0.5726	-10.171955	0.000291	2.907181	0.492490	0.000029
  60	5.8705e+00	0.5846	-10.146292	0.000258	2.579611	0.436998	0.000026
  61	5.9700e+00	0.5907	-10.119000	0.000274	2.743396	0.464744	0.000027
  62	6.0695e+00	0.6025	-10.090893	0.000283	2.825288	0.478617	0.000028
  63	6.1690e+00	0.6147	-10.063194	0.000278	2.784342	0.471680	0.000028
  64	6.2685e+00	0.6239	-10.034273	0.000291	2.907181	0.492490	0.000029
  65	6.3680e+00	0.6313	-10.006573	0.000278	2.784342	0.471680	0.000028
  66	6.4675e+00	0.6418	-9.980504	0.000262	2.620557	0.443934	0.000026
  67	6.5670e+00	0.6526	-9.951582	0.000291	2.907181	0.492490	0.000029
  68	6.6665e+00	0.6609	-9.920624	0.000311	3.111912	0.527172	0.000031
  69	6.7660e+00	0.6732	-9.891703	0.000291	2.907181	0.492490	0.000029
  70	6.8655e+00	0.6811	-9.868484	0.000233	2.333934	0.395379	0.000023
  71	6.9650e+00	0.6922	-9.836304	0.000323	3.234750	0.547982	0.000032
  72	7.0645e+00	0.7040	-9.812271	0.000242	2.415826	0.409252	0.000024
  73	7.1640e+00	0.7125	-9.778054	0.000344	3.439481	0.582664	0.000034
  74	7.2635e+00	0.7230	-9.753614	0.000246	2.456772	0.416188	0.000025
  75	7.3630e+00	0.7328	-9.725914	0.000278	2.784342	0.471680	0.000028
  76	7.4625e+00	0.7424	-9.700252	0.000258	2.579611	0.436998	0.000026
  77	7.5620e+00	0.7516	-9.676626	0.000237	2.374880	0.402316	0.000024
  78	7.6615e+00	0.7642	-9.649334	0.000274	2.743396	0.464744	0.000027
  79	7.7610e+00	0.7706	-9.624079	0.000254	2.538665	0.430061	0.000025
  80	7.8605e+00	0.7838	-9.600046	0.000242	2.415826	0.409252	0.000024
  81	7.9600e+00	0.7893	-9.568680	0.000315	3.152858	0.534109	0.000032
  82	8.0595e+00	0.8033	-9.540574	0.000283	2.825288	0.478617	0.000028
  83	8.1590e+00	0.8126	-9.514911	0.000258	2.579611	0.436998	0.000026
  84	8.2585e+00	0.8222	-9.488434	0.000266	2.661503	0.450871	0.000027
  85	8.3580e+00	0.8315	-9.462771	0.000258	2.579611	0.436998	0.000026
  86	8.4575e+00	0.8399	-9.438738	0.000242	2.415826	0.409252	0.000024
  87	8.5570e+00	0.8505	-9.409817	0.000291	2.907181	0.492490	0.000029
  88	8.6565e+00	0.8618	-9.386598	0.000233	2.333934	0.395379	0.000023
  89	8.7560e+00	0.8718	-9.357677	0.000291	2.907181	0.492490	0.000029
  90	8.8555e+00	0.8813	-9.331199	0.000266	2.661503	0.450871	0.000027
  91	8.9550e+00	0.8913	-9.305944	0.000254	2.538665	0.430061	0.000025
  92	9.0545e+00	0.9003	-9.279060	0.000270	2.702450	0.457807	0.000027
  93	9.1540e+00	0.9126	-9.254212	0.000250	2.497718	0.423125	0.000025
  94	9.2535e+00	0.9190	-9.225290	0.000291	2.907181	0.492490	0.000029
  95	9.3530e+00	0.9310	-9.199628	0.000258	2.579611	0.436998	0.000026
  96	9.4525e+00	0.9424	-9.176409	0.000233	2.333934	0.395379	0.000023
  97	9.5520e+00	0.9510	-9.151561	0.000250	2.497718	0.423125	0.000025
  98	9.6515e+00	0.9608	-9.123455	0.000283	2.825288	0.478617	0.000028
  99	9.7510e+00	0.9718	-9.099014	0.000246	2.456772	0.416188	0.000025
 100	9.8505e+00	0.9827	-9.071315	0.000278	2.784342	0.471680	0.000028
 101	9.9500e+00	0.9913	-9.045652	0.000258	2.579611	0.436998	0.000026
 102	1.0050e+01	1.0023	-9.021212	0.000246	2.456772	0.416188	0.000025
 103	1.0149e+01	1.0123	-8.990661	0.000307	3.070965	0.520236	0.000031
 104	1.0248e+01	1.0235	-8.966221	0.000246	2.456772	0.416188	0.000025
 105	1.0348e+01	1.0291	-8.939743	0.000266	2.661503	0.450871	0.000027
 106	1.0447e+01	1.0372	-8.917339	0.000225	2.252041	0.381506	0.000023
 107	1.0547e+01	1.0502	-8.892492	0.000250	2.497718	0.423125	0.000025
 108	1.0646e+01	1.0605	-8.863570	0.000291	2.907181	0.492490	0.000029
 109	1.0746e+01	1.0693	-8.837908	0.000258	2.579611	0.436998	0.000026
 110	1.0845e+01	1.0801	-8.814689	0.000233	2.333934	0.395379	0.000023
 111	1.0945e+01	1.0908	-8.788212	0.000266	2.661503	0.450871	0.000027
 112	1.1044e+01	1.1011	-8.763771	0.000246	2.456772	0.416188	0.000025
 113	1.1144e+01	1.1100	-8.742182	0.000217	2.170149	0.367633	0.000022
 114	1.1243e+01	1.1195	-8.709187	0.000332	3.316643	0.561854	0.000033
 115	1.1343e+01	1.1285	-8.685969	0.000233	2.333934	0.395379	0.000023
 116	1.1443e+01	1.1388	-8.658270	0.000278	2.784342	0.471680	0.000028
 117	1.1542e+01	1.1522	-8.632200	0.000262	2.620557	0.443934	0.000026
 118	1.1642e+01	1.1605	-8.603686	0.000287	2.866234	0.485553	0.000029
 119	1.1741e+01	1.1697	-8.576394	0.000274	2.743396	0.464744	0.000027
 120	1.1841e+01	1.1826	-8.547472	0.000291	2.907181	0.492490	0.000029
 121	1.1940e+01	1.1894	-8.523032	0.000246	2.456772	0.416188	0.000025
 122	1.2040e+01	1.2002	-8.494518	0.000287	2.866234	0.485553	0.000029
 123	1.2139e+01	1.2093	-8.467633	0.000270	2.702450	0.457807	0.000027
 124	1.2239e+01	1.2217	-8.443600	0.000242	2.415826	0.409252	0.000024
 125	1.2338e+01	1.2283	-8.413049	0.000307	3.070965	0.520236	0.000031
 126	1.2438e+01	1.2447	-8.385757	0.000274	2.743396	0.464744	0.000027
 127	1.2537e+01	1.2504	-8.360095	0.000258	2.579611	0.436998	0.000026
 128	1.2636e+01	1.2587	-8.335247	0.000250	2.497718	0.423125	0.000025
 129	1.2736e+01	1.2698	-8.306326	0.000291	2.907181	0.492490	0.000029
 130	1.2835e+01	1.2802	-8.276182	0.000303	3.030019	0.513299	0.000030
 131	1.2935e+01	1.2884	-8.249705	0.000266	2.661503	0.450871	0.000027
 132	1.3034e+01	1.3007	-8.221191	0.000287	2.866234	0.485553	0.000029
 133	1.3134e+01	1.3086	-8.196343	0.000250	2.497718	0.423125	0.000025
 134	1.3233e+01	1.3187	-8.171903	0.000246	2.456772	0.416188	0.000025
 135	1.3333e+01	1.3282	-8.142167	0.000299	2.989073	0.506363	0.000030
 136	1.3432e+01	1.3377	-8.120170	0.000221	2.211095	0.374570	0.000022
 137	1.3532e+01	1.3470	-8.093285	0.000270	2.702450	0.457807	0.000027
 138	1.3632e+01	1.3574	-8.070067	0.000233	2.333934	0.395379	0.000023
 139	1.3731e+01	1.3667	-8.044404	0.000258	2.579611	0.436998	0.000026
 140	1.3831e+01	1.3773	-8.024037	0.000205	2.047310	0.346824	0.000020
 141	1.3930e+01	1.3887	-8.000819	0.000233	2.333934	0.395379	0.000023
 142	1.4030e+01	1.3997	-7.977600	0.000233	2.333934	0.395379	0.000023
 143	1.4129e+01	1.4057	-7.954382	0.000233	2.333934	0.395379	0.000023
 144	1.4229e+01	1.4216	-7.932793	0.000217	2.170149	0.367633	0.000022
 145	1.4328e+01	1.4288	-7.909167	0.000237	2.374880	0.402316	0.000024
 146	1.4428e+01	1.4369	-7.882689	0.000266	2.661503	0.450871	0.000027
 147	1.4527e+01	1.4471	-7.861508	0.000213	2.129203	0.360697	0.000021
 148	1.4627e+01	1.4588	-7.838696	0.000229	2.292987	0.388443	0.000023
 149	1.4726e+01	1.4672	-7.818329	0.000205	2.047310	0.346824	0.000020
 150	1.4825e+01	1.4773	-7.793074	0.000254	2.538665	0.430061	0.000025
 151	1.4925e+01	1.4870	-7.770670	0.000225	2.252041	0.381506	0.000023
 152	1.5024e+01	1.4961	-7.746230	0.000246	2.456772	0.416188	0.000025
 153	1.5124e+01	1.5086	-7.727899	0.000184	1.842579	0.312141	0.000018
 154	1.5223e+01	1.5188	-7.703866	0.000242	2.415826	0.409252	0.000024
 155	1.5323e+01	1.5282	-7.681870	0.000221	2.211095	0.374570	0.000022
 156	1.5422e+01	1.5363	-7.659873	0.000221	2.211095	0.374570	0.000022
 157	1.5522e+01	1.5498	-7.635432	0.000246	2.456772	0.416188	0.000025
 158	1.5621e+01	1.5586	-7.612214	0.000233	2.333934	0.395379	0.000023
 159	1.5721e+01	1.5697	-7.590217	0.000221	2.211095	0.374570	0.000022
 160	1.5820e+01	1.5775	-7.564962	0.000254	2.538665	0.430061	0.000025
 161	1.5920e+01	1.5881	-7.536041	0.000291	2.907181	0.492490	0.000029
 162	1.6020e+01	1.5968	-7.514044	0.000221	2.211095	0.374570	0.000022
 163	1.6119e+01	1.6085	-7.490826	0.000233	2.333934	0.395379	0.000023
 164	1.6218e+01	1.6176	-7.462312	0.000287	2.866234	0.485553	0.000029
 165	1.6318e+01	1.6246	-7.442759	0.000197	1.965418	0.332951	0.000020
 166	1.6418e+01	1.6380	-7.410172	0.000328	3.275696	0.554918	0.000033
 167	1.6517e+01	1.6489	-7.391027	0.000192	1.924472	0.326014	0.000019
 168	1.6616e+01	1.6575	-7.364957	0.000262	2.620557	0.443934	0.000026
 169	1.6716e+01	1.6682	-7.339294	0.000258	2.579611	0.436998	0.000026
 170	1.6816e+01	1.6762	-7.318520	0.000209	2.088256	0.353760	0.000021
 171	1.6915e+01	1.6875	-7.293672	0.000250	2.497718	0.423125	0.000025
 172	1.7015e+01	1.6983	-7.271676	0.000221	2.211095	0.374570	0.000022
 173	1.7114e+01	1.7067	-7.246420	0.000254	2.538665	0.430061	0.000025
 174	1.7213e+01	1.7174	-7.222387	0.000242	2.415826	0.409252	0.000024
 175	1.7313e+01	1.7284	-7.199576	0.000229	2.292987	0.388443	0.000023
 176	1.7413e+01	1.7358	-7.173506	0.000262	2.620557	0.443934	0.000026
 177	1.7512e+01	1.7471	-7.144992	0.000287	2.866234	0.485553	0.000029
 178	1.7611e+01	1.7580	-7.126662	0.000184	1.842579	0.312141	0.000018
 179	1.7711e+01	1.7685	-7.098148	0.000287	2.866234	0.485553	0.000029
 180	1.7811e+01	1.7777	-7.070856	0.000274	2.743396	0.464744	0.000027
 181	1.7910e+01	1.7873	-7.047230	0.000237	2.374880	0.402316	0.000024
 182	1.8009e+01	1.7965	-7.022382	0.000250	2.497718	0.423125	0.000025
 183	1.8109e+01	1.8052	-7.000385	0.000221	2.211095	0.374570	0.000022
 184	1.8209e+01	1.8167	-6.974315	0.000262	2.620557	0.443934	0.000026
 185	1.8308e+01	1.8256	-6.947838	0.000266	2.661503	0.450871	0.000027
 186	1.8407e+01	1.8386	-6.924212	0.000237	2.374880	0.402316	0.000024
 187	1.8507e+01	1.8437	-6.895698	0.000287	2.866234	0.485553	0.000029
 188	1.8607e+01	1.8550	-6.875331	0.000205	2.047310	0.346824	0.000020
 189	1.8706e+01	1.8684	-6.850483	0.000250	2.497718	0.423125	0.000025
 190	1.8805e+01	1.8756	-6.824821	0.000258	2.579611	0.436998	0.000026
 191	1.8905e+01	1.8846	-6.799973	0.000250	2.497718	0.423125	0.000025
 192	1.9005e+01	1.8973	-6.773496	0.000266	2.661503	0.450871	0.000027
 193	1.9104e+01	1.9036	-6.747018	0.000266	2.661503	0.450871	0.000027
 194	1.9203e+01	1.9154	-6.720948	0.000262	2.620557	0.443934	0.000026
 195	1.9303e+01	1.9245	-6.698952	0.000221	2.211095	0.374570	0.000022
 196	1.9402e+01	1.9382	-6.667587	0.000315	3.152858	0.534109	0.000032
 197	1.9502e+01	1.9458	-6.643146	0.000246	2.456772	0.416188	0.000025
 198	1.9602e+01	1.9596	-6.619113	0.000242	2.415826	0.409252	0.000024
 199	1.9701e+01	1.9665	-6.598746	0.000205	2.047310	0.346824	0.000020
 200	1.9800e+01	1.9750	-6.571861	0.000270	2.702450	0.457807	0.000027
 201	1.9900e+01	1.9851	-6.548235	0.000237	2.374880	0.402316	0.000024
 202	2.0000e+01	1.9965	-6.526239	0.000221	2.211095	0.374570	0.000022
 203	2.0099e+01	2.0074	-6.506279	0.000201	2.006364	0.339887	0.000020
 204	2.0198e+01	2.0132	-6.478987	0.000274	2.743396	0.464744	0.000027
 205	2.0298e+01	2.0263	-6.457398	0.000217	2.170149	0.367633	0.000022
 206	2.0398e+01	2.0342	-6.434587	0.000229	2.292987	0.388443	0.000023
 207	2.0497e+01	2.0468	-6.405665	0.000291	2.907181	0.492490	0.000029
 208	2.0596e+01	2.0531	-6.386520	0.000192	1.924472	0.326014	0.000019
 209	2.0696e+01	2.0647	-6.360043	0.000266	2.661503	0.450871	0.000027
 210	2.0796e+01	2.0748	-6.331122	0.000291	2.907181	0.492490	0.000029
 211	2.0895e+01	2.0831	-6.311977	0.000192	1.924472	0.326014	0.000019
 212	2.0994e+01	2.0951	-6.291202	0.000209	2.088256	0.353760	0.000021
 213	2.1094e+01	2.1040	-6.267984	0.000233	2.333934	0.395379	0.000023
 214	2.1194e+01	2.1188	-6.245172	0.000229	2.292987	0.388443	0.000023
 215	2.1293e+01	2.1256	-6.219917	0.000254	2.538665	0.430061	0.000025
 216	2.1392e+01	2.1337	-6.199143	0.000209	2.088256	0.353760	0.000021
 217	2.1492e+01	2.1449	-6.175924	0.000233	2.333934	0.395379	0.000023
 218	2.1591e+01	2.1554	-6.149447	0.000266	2.661503	0.450871	0.000027
 219	2.1691e+01	2.1641	-6.127450	0.000221	2.211095	0.374570	0.000022
 220	2.1791e+01	2.1728	-6.101788	0.000258	2.579611	0.436998	0.000026
 221	2.1890e+01	2.1850	-6.072459	0.000295	2.948127	0.499426	0.000029
 222	2.1989e+01	2.1940	-6.045982	0.000266	2.661503	0.450871	0.000027
 223	2.2089e+01	2.2065	-6.019912	0.000262	2.620557	0.443934	0.000026
 224	2.2189e+01	2.2121	-5.992213	0.000278	2.784342	0.471680	0.000028
 225	2.2288e+01	2.2257	-5.967772	0.000246	2.456772	0.416188	0.000025
 226	2.2387e+01	2.2349	-5.937629	0.000303	3.030019	0.513299	0.000030
 227	2.2487e+01	2.2455	-5.910744	0.000270	2.702450	0.457807	0.000027
 228	2.2587e+01	2.2543	-5.881823	0.000291	2.907181	0.492490	0.000029
 229	2.2686e+01	2.2625	-5.854531	0.000274	2.743396	0.464744	0.000027
 230	2.2785e+01	2.2737	-5.825202	0.000295	2.948127	0.499426	0.000029
 231	2.2885e+01	2.2849	-5.798725	0.000266	2.661503	0.450871	0.000027
 232	2.2985e+01	2.2923	-5.771433	0.000274	2.743396	0.464744	0.000027
 233	2.3084e+01	2.3040	-5.742919	0.000287	2.866234	0.485553	0.000029
 234	2.3183e+01	2.3139	-5.719293	0.000237	2.374880	0.402316	0.000024
 235	2.3283e+01	2.3242	-5.685484	0.000340	3.398535	0.575727	0.000034
 236	2.3383e+01	2.3319	-5.657377	0.000283	2.825288	0.478617	0.000028
 237	2.3482e+01	2.3441	-5.628048	0.000295	2.948127	0.499426	0.000029
 238	2.3581e+01	2.3550	-5.601978	0.000262	2.620557	0.443934	0.000026
 239	2.3681e+01	2.3638	-5.575094	0.000270	2.702450	0.457807	0.000027
 240	2.3780e+01	2.3727	-5.544543	0.000307	3.070965	0.520236	0.000031
 241	2.3880e+01	2.3853	-5.518881	0.000258	2.579611	0.436998	0.000026
 242	2.3980e+01	2.3933	-5.494033	0.000250	2.497718	0.423125	0.000025
 243	2.4079e+01	2.4038	-5.466741	0.000274	2.743396	0.464744	0.000027
 244	2.4178e+01	2.4123	-5.437819	0.000291	2.907181	0.492490	0.000029
 245	2.4278e+01	2.4241	-5.413786	0.000242	2.415826	0.409252	0.000024
 246	2.4378e+01	2.4331	-5.386902	0.000270	2.702450	0.457807	0.000027
 247	2.4477e+01	2.4429	-5.361239	0.000258	2.579611	0.436998	0.000026
 248	2.4576e+01	2.4549	-5.335169	0.000262	2.620557	0.443934	0.000026
 249	2.4676e+01	2.4651	-5.309914	0.000254	2.538665	0.430061	0.000025
 250	2.4776e+01	2.4738	-5.282215	0.000278	2.784342	0.471680	0.000028
 251	2.4875e+01	2.4810	-5.258996	0.000233	2.333934	0.395379	0.000023
 252	2.4974e+01	2.4929	-5.231704	0.000274	2.743396	0.464744	0.000027
 253	2.5074e+01	2.5027	-5.202783	0.000291	2.907181	0.492490	0.000029
 254	2.5174e+01	2.5127	-5.179564	0.000233	2.333934	0.395379	0.000023
 255	2.5273e+01	2.5243	-5.151050	0.000287	2.866234	0.485553	0.000029
 256	2.5372e+01	2.5318	-5.123758	0.000274	2.743396	0.464744	0.000027
 257	2.5472e+01	2.5422	-5.100132	0.000237	2.374880	0.402316	0.000024
 258	2.5572e+01	2.5509	-5.074470	0.000258	2.579611	0.436998	0.000026
 259	2.5671e+01	2.5625	-5.048400	0.000262	2.620557	0.443934	0.000026
 260	2.5770e+01	2.5703	-5.023145	0.000254	2.538665	0.430061	0.000025
 261	2.5870e+01	2.5829	-4.996667	0.000266	2.661503	0.450871	0.000027
 262	2.5970e+01	2.5943	-4.971820	0.000250	2.497718	0.423125	0.000025
 263	2.6069e+01	2.6022	-4.946157	0.000258	2.579611	0.436998	0.000026
 264	2.6169e+01	2.6118	-4.920087	0.000262	2.620557	0.443934	0.000026
 265	2.6268e+01	2.6228	-4.898091	0.000221	2.211095	0.374570	0.000022
 266	2.6367e+01	2.6324	-4.870391	0.000278	2.784342	0.471680	0.000028
 267	2.6467e+01	2.6417	-4.845543	0.000250	2.497718	0.423125	0.000025
 268	2.6567e+01	2.6531	-4.819881	0.000258	2.579611	0.436998	0.000026
 269	2.6666e+01	2.6658	-4.793403	0.000266	2.661503	0.450871	0.000027
 270	2.6765e+01	2.6718	-4.767741	0.000258	2.579611	0.436998	0.000026
 271	2.6865e+01	2.6818	-4.740042	0.000278	2.784342	0.471680	0.000028
 272	2.6965e+01	2.6926	-4.711935	0.000283	2.825288	0.478617	0.000028
 273	2.7064e+01	2.7023	-4.687902	0.000242	2.415826	0.409252	0.000024
 274	2.7163e+01	2.7126	-4.662647	0.000254	2.538665	0.430061	0.000025
 275	2.7263e+01	2.7237	-4.638613	0.000242	2.415826	0.409252	0.000024
 276	2.7363e+01	2.7329	-4.615395	0.000233	2.333934	0.395379	0.000023
 277	2.7462e+01	2.7424	-4.590547	0.000250	2.497718	0.423125	0.000025
 278	2.7561e+01	2.7483	-4.564477	0.000262	2.620557	0.443934	0.000026
 279	2.7661e+01	2.7612	-4.539222	0.000254	2.538665	0.430061	0.000025
 280	2.7761e+01	2.7747	-4.513559	0.000258	2.579611	0.436998	0.000026
 281	2.7860e+01	2.7817	-4.492377	0.000213	2.129203	0.360697	0.000021
 282	2.7959e+01	2.7943	-4.462641	0.000299	2.989073	0.506363	0.000030
 283	2.8059e+01	2.8008	-4.435349	0.000274	2.743396	0.464744	0.000027
 284	2.8159e+01	2.8125	-4.410094	0.000254	2.538665	0.430061	0.000025
 285	2.8258e+01	2.8201	-4.385654	0.000246	2.456772	0.416188	0.000025
 286	2.8358e+01	2.8315	-4.354696	0.000311	3.111912	0.527172	0.000031
 287	2.8457e+01	2.8423	-4.333106	0.000217	2.170149	0.367633	0.000022
 288	2.8556e+01	2.8500	-4.299704	0.000336	3.357589	0.568791	0.000034
 289	2.8656e+01	2.8600	-4.273634	0.000262	2.620557	0.443934	0.000026
 290	2.8756e+01	2.8716	-4.248379	0.000254	2.538665	0.430061	0.000025
 291	2.8855e+01	2.8811	-4.221087	0.000274	2.743396	0.464744	0.000027
 292	2.8954e+01	2.8915	-4.198683	0.000225	2.252041	0.381506	0.000023
 293	2.9054e+01	2.9008	-4.174243	0.000246	2.456772	0.416188	0.000025
 294	2.9154e+01	2.9118	-4.146136	0.000283	2.825288	0.478617	0.000028
 295	2.9253e+01	2.9216	-4.118844	0.000274	2.743396	0.464744	0.000027
 296	2.9352e+01	2.9306	-4.091145	0.000278	2.784342	0.471680	0.000028
 297	2.9452e+01	2.9391	-4.063853	0.000274	2.743396	0.464744	0.000027
 298	2.9552e+01	2.9501	-4.036968	0.000270	2.702450	0.457807	0.000027
 299	2.9651e+01	2.9616	-4.008454	0.000287	2.866234	0.485553	0.000029
 300	2.9750e+01	2.9723	-3.979126	0.000295	2.948127	0.499426	0.000029
 301	2.9850e+01	2.9824	-3.955500	0.000237	2.374880	0.402316	0.000024
 302	2.9950e+01	2.9906	-3.934318	0.000213	2.129203	0.360697	0.000021
 303	3.0049e+01	2.9992	-3.904175	0.000303	3.030019	0.513299	0.000030
 304	3.0148e+01	3.0102	-3.884215	0.000201	2.006364	0.339887	0.000020
 305	3.0248e+01	3.0202	-3.858145	0.000262	2.620557	0.443934	0.000026
 306	3.0348e+01	3.0314	-3.832482	0.000258	2.579611	0.436998	0.000026
 307	3.0447e+01	3.0410	-3.811708	0.000209	2.088256	0.353760	0.000021
 308	3.0547e+01	3.0495	-3.786453	0.000254	2.538665	0.430061	0.000025
 309	3.0646e+01	3.0637	-3.767715	0.000188	1.883525	0.319078	0.000019
 310	3.0745e+01	3.0698	-3.744089	0.000237	2.374880	0.402316	0.000024
 311	3.0845e+01	3.0808	-3.720463	0.000237	2.374880	0.402316	0.000024
 312	3.0945e+01	3.0902	-3.702540	0.000180	1.801633	0.305205	0.000018
 313	3.1044e+01	3.0988	-3.676063	0.000266	2.661503	0.450871	0.000027
 314	3.1143e+01	3.1080	-3.652437	0.000237	2.374880	0.402316	0.000024
 315	3.1243e+01	3.1239	-3.630848	0.000217	2.170149	0.367633	0.000022
 316	3.1343e+01	3.1326	-3.605185	0.000258	2.579611	0.436998	0.000026
 317	3.1442e+01	3.1394	-3.585633	0.000197	1.965418	0.332951	0.000020
 318	3.1541e+01	3.1499	-3.563229	0.000225	2.252041	0.381506	0.000023
 319	3.1641e+01	3.1590	-3.544084	0.000192	1.924472	0.326014	0.000019
 320	3.1741e+01	3.1712	-3.521273	0.000229	2.292987	0.388443	0.000023
 321	3.1840e+01	3.1796	-3.497239	0.000242	2.415826	0.409252	0.000024
 322	3.1939e+01	3.1857	-3.476872	0.000205	2.047310	0.346824	0.000020
 323	3.2039e+01	3.2001	-3.454469	0.000225	2.252041	0.381506	0.000023
 324	3.2139e+01	3.2097	-3.435323	0.000192	1.924472	0.326014	0.000019
 325	3.2238e+01	3.2181	-3.408439	0.000270	2.702450	0.457807	0.000027
 326	3.2337e+01	3.2288	-3.387664	0.000209	2.088256	0.353760	0.000021
 327	3.2437e+01	3.2384	-3.363224	0.000246	2.456772	0.416188	0.000025
 328	3.2536e+01	3.2508	-3.340413	0.000229	2.292987	0.388443	0.000023
 329	3.2636e+01	3.2610	-3.313935	0.000266	2.661503	0.450871	0.000027
 330	3.2736e+01	3.2694	-3.294383	0.000197	1.965418	0.332951	0.000020
 331	3.2835e+01	3.2793	-3.268313	0.000262	2.620557	0.443934	0.000026
 332	3.2934e+01	3.2875	-3.246316	0.000221	2.211095	0.374570	0.000022
 333	3.3034e+01	3.2995	-3.221061	0.000254	2.538665	0.430061	0.000025
 334	3.3133e+01	3.3092	-3.194584	0.000266	2.661503	0.450871	0.000027
 335	3.3233e+01	3.3184	-3.169736	0.000250	2.497718	0.423125	0.000025
 336	3.3333e+01	3.3286	-3.150184	0.000197	1.965418	0.332951	0.000020
 337	3.3432e+01	3.3409	-3.127372	0.000229	2.292987	0.388443	0.000023
 338	3.3532e+01	3.3495	-3.104561	0.000229	2.292987	0.388443	0.000023
 339	3.3631e+01	3.3604	-3.079306	0.000254	2.538665	0.430061	0.000025
 340	3.3730e+01	3.3685	-3.054865	0.000246	2.456772	0.416188	0.000025
 341	3.3830e+01	3.3814	-3.033276	0.000217	2.170149	0.367633	0.000022
 342	3.3929e+01	3.3891	-3.007206	0.000262	2.620557	0.443934	0.000026
 343	3.4029e+01	3.3997	-2.985617	0.000217	2.170149	0.367633	0.000022
 344	3.4129e+01	3.4096	-2.959140	0.000266	2.661503	0.450871	0.000027
 345	3.4228e+01	3.4180	-2.931848	0.000274	2.743396	0.464744	0.000027
 346	3.4328e+01	3.4270	-2.911888	0.000201	2.006364	0.339887	0.000020
 347	3.4427e+01	3.4399	-2.890299	0.000217	2.170149	0.367633	0.000022
 348	3.4526e+01	3.4481	-2.863822	0.000266	2.661503	0.450871	0.000027
 349	3.4626e+01	3.4591	-2.837752	0.000262	2.620557	0.443934	0.000026
 350	3.4725e+01	3.4731	-2.816163	0.000217	2.170149	0.367633	0.000022
 351	3.4825e+01	3.4791	-2.795388	0.000209	2.088256	0.353760	0.000021
 352	3.4925e+01	3.4907	-2.767689	0.000278	2.784342	0.471680	0.000028
 353	3.5024e+01	3.4984	-2.740397	0.000274	2.743396	0.464744	0.000027
 354	3.5123e+01	3.5091	-2.720030	0.000205	2.047310	0.346824	0.000020
 355	3.5223e+01	3.5185	-2.696811	0.000233	2.333934	0.395379	0.000023
 356	3.5322e+01	3.5269	-2.673593	0.000233	2.333934	0.395379	0.000023
 357	3.5422e+01	3.5375	-2.649967	0.000237	2.374880	0.402316	0.000024
 358	3.5522e+01	3.5474	-2.622675	0.000274	2.743396	0.464744	0.000027
 359	3.5621e+01	3.5585	-2.600679	0.000221	2.211095	0.374570	0.000022
 360	3.5721e+01	3.5635	-2.572979	0.000278	2.784342	0.471680	0.000028
 361	3.5820e+01	3.5797	-2.549761	0.000233	2.333934	0.395379	0.000023
 362	3.5919e+01	3.5896	-2.522876	0.000270	2.702450	0.457807	0.000027
 363	3.6019e+01	3.5973	-2.500065	0.000229	2.292987	0.388443	0.000023
 364	3.6118e+01	3.6088	-2.473180	0.000270	2.702450	0.457807	0.000027
 365	3.6218e+01	3.6169	-2.449554	0.000237	2.374880	0.402316	0.000024
 366	3.6318e+01	3.6277	-2.427558	0.000221	2.211095	0.374570	0.000022
 367	3.6417e+01	3.6377	-2.407191	0.000205	2.047310	0.346824	0.000020
 368	3.6517e+01	3.6460	-2.384787	0.000225	2.252041	0.381506	0.000023
 369	3.6616e+01	3.6585	-2.357902	0.000270	2.702450	0.457807	0.000027
 370	3.6715e+01	3.6678	-2.336721	0.000213	2.129203	0.360697	0.000021
 371	3.6815e+01	3.6791	-2.314724	0.000221	2.211095	0.374570	0.000022
 372	3.6914e+01	3.6868	-2.297616	0.000172	1.719741	0.291332	0.000017
 373	3.7014e+01	3.6982	-2.270324	0.000274	2.743396	0.464744	0.000027
 374	3.7114e+01	3.7074	-2.250364	0.000201	2.006364	0.339887	0.000020
 375	3.7213e+01	3.7186	-2.224294	0.000262	2.620557	0.443934	0.000026
 376	3.7313e+01	3.7271	-2.201890	0.000225	2.252041	0.381506	0.000023
 377	3.7412e+01	3.7356	-2.177042	0.000250	2.497718	0.423125	0.000025
 378	3.7511e+01	3.7487	-2.155046	0.000221	2.211095	0.374570	0.000022
 379	3.7611e+01	3.7591	-2.131827	0.000233	2.333934	0.395379	0.000023
 380	3.7711e+01	3.7664	-2.111867	0.000201	2.006364	0.339887	0.000020
 381	3.7810e+01	3.7766	-2.093130	0.000188	1.883525	0.319078	0.000019
 382	3.7910e+01	3.7859	-2.068282	0.000250	2.497718	0.423125	0.000025
 383	3.8009e+01	3.7975	-2.044249	0.000242	2.415826	0.409252	0.000024
 384	3.8108e+01	3.8070	-2.025511	0.000188	1.883525	0.319078	0.000019
 385	3.8208e+01	3.8171	-1.999034	0.000266	2.661503	0.450871	0.000027
 386	3.8307e+01	3.8279	-1.979888	0.000192	1.924472	0.326014	0.000019
 387	3.8407e+01	3.8361	-1.955041	0.000250	2.497718	0.423125	0.000025
 388	3.8507e+01	3.8470	-1.926527	0.000287	2.866234	0.485553	0.000029
 389	3.8606e+01	3.8536	-1.901679	0.000250	2.497718	0.423125	0.000025
 390	3.8706e+01	3.8653	-1.877645	0.000242	2.415826	0.409252	0.000024
 391	3.8805e+01	3.8744	-1.853205	0.000246	2.456772	0.416188	0.000025
 392	3.8904e+01	3.8834	-1.825913	0.000274	2.743396	0.464744	0.000027
 393	3.9004e+01	3.8953	-1.799028	0.000270	2.702450	0.457807	0.000027
 394	3.9103e+01	3.9065	-1.771329	0.000278	2.784342	0.471680	0.000028
 395	3.9203e+01	3.9146	-1.745259	0.000262	2.620557	0.443934	0.000026
 396	3.9303e+01	3.9258	-1.715116	0.000303	3.030019	0.513299	0.000030
 397	3.9402e+01	3.9344	-1.688231	0.000270	2.702450	0.457807	0.000027
 398	3.9502e+01	3.9480	-1.665013	0.000233	2.333934	0.395379	0.000023
 399	3.9601e+01	3.9568	-1.635684	0.000295	2.948127	0.499426	0.000029
 400	3.9700e+01	3.9680	-1.610429	0.000254	2.538665	0.430061	0.000025
 401	3.9800e+01	3.9782	-1.585581	0.000250	2.497718	0.423125	0.000025
 402	3.9900e+01	3.9870	-1.557882	0.000278	2.784342	0.471680	0.000028
 403	3.9999e+01	3.9973	-1.529775	0.000283	2.825288	0.478617	0.000028
 404	4.0099e+01	4.0025	-1.503298	0.000266	2.661503	0.450871	0.000027
 405	4.0198e+01	4.0137	-1.474784	0.000287	2.866234	0.485553	0.000029
 406	4.0297e+01	4.0251	-1.447899	0.000270	2.702450	0.457807	0.000027
 407	4.0397e+01	4.0347	-1.422237	0.000258	2.579611	0.436998	0.000026
 408	4.0496e+01	4.0440	-1.395352	0.000270	2.702450	0.457807	0.000027
 409	4.0596e+01	4.0554	-1.368875	0.000266	2.661503	0.450871	0.000027
 410	4.0696e+01	4.0662	-1.343212	0.000258	2.579611	0.436998	0.000026
 411	4.0795e+01	4.0765	-1.317142	0.000262	2.620557	0.443934	0.000026
 412	4.0895e+01	4.0856	-1.291072	0.000262	2.620557	0.443934	0.000026
 413	4.0994e+01	4.0968	-1.270298	0.000209	2.088256	0.353760	0.000021
 414	4.1093e+01	4.1032	-1.240969	0.000295	2.948127	0.499426	0.000029
 415	4.1193e+01	4.1167	-1.218565	0.000225	2.252041	0.381506	0.000023
 416	4.1292e+01	4.1257	-1.191681	0.000270	2.702450	0.457807	0.000027
 417	4.1392e+01	4.1337	-1.168869	0.000229	2.292987	0.388443	0.000023
 418	4.1492e+01	4.1456	-1.146873	0.000221	2.211095	0.374570	0.000022
 419	4.1591e+01	4.1576	-1.117544	0.000295	2.948127	0.499426	0.000029
 420	4.1691e+01	4.1630	-1.091474	0.000262	2.620557	0.443934	0.000026
 421	4.1790e+01	4.1755	-1.068663	0.000229	2.292987	0.388443	0.000023
 422	4.1889e+01	4.1846	-1.042593	0.000262	2.620557	0.443934	0.000026
 423	4.1989e+01	4.1944	-1.016931	0.000258	2.579611	0.436998	0.000026
 424	4.2089e+01	4.2044	-0.994527	0.000225	2.252041	0.381506	0.000023
 425	4.2188e+01	4.2130	-0.968457	0.000262	2.620557	0.443934	0.000026
 426	4.2288e+01	4.2246	-0.941572	0.000270	2.702450	0.457807	0.000027
 427	4.2387e+01	4.2350	-0.916317	0.000254	2.538665	0.430061	0.000025
 428	4.2486e+01	4.2432	-0.893913	0.000225	2.252041	0.381506	0.000023
 429	4.2586e+01	4.2543	-0.870287	0.000237	2.374880	0.402316	0.000024
 430	4.2685e+01	4.2641	-0.847476	0.000229	2.292987	0.388443	0.000023
 431	4.2785e+01	4.2725	-0.818962	0.000287	2.866234	0.485553	0.000029
 432	4.2885e+01	4.2855	-0.796558	0.000225	2.252041	0.381506	0.000023
 433	4.2984e+01	4.2932	-0.770488	0.000262	2.620557	0.443934	0.000026
 434	4.3084e+01	4.3046	-0.746863	0.000237	2.374880	0.402316	0.000024
 435	4.3183e+01	4.3148	-0.722422	0.000246	2.456772	0.416188	0.000025
 436	4.3282e+01	4.3259	-0.701648	0.000209	2.088256	0.353760	0.000021
 437	4.3382e+01	4.3343	-0.674763	0.000270	2.702450	0.457807	0.000027
 438	4.3481e+01	4.3458	-0.647878	0.000270	2.702450	0.457807	0.000027
 439	4.3581e+01	4.3546	-0.624252	0.000237	2.374880	0.402316	0.000024
 440	4.3681e+01	4.3653	-0.603478	0.000209	2.088256	0.353760	0.000021
 441	4.3780e+01	4.3754	-0.575779	0.000278	2.784342	0.471680	0.000028
 442	4.3880e+01	4.3836	-0.552560	0.000233	2.333934	0.395379	0.000023
 443	4.3979e+01	4.3948	-0.531786	0.000209	2.088256	0.353760	0.000021
 444	4.4078e+01	4.4022	-0.504494	0.000274	2.743396	0.464744	0.000027
 445	4.4178e+01	4.4120	-0.483312	0.000213	2.129203	0.360697	0.000021
 446	4.4278e+01	4.4232	-0.457242	0.000262	2.620557	0.443934	0.000026
 447	4.4377e+01	4.4345	-0.436468	0.000209	2.088256	0.353760	0.000021
 448	4.4477e+01	4.4407	-0.411212	0.000254	2.538665	0.430061	0.000025
 449	4.4576e+01	4.4537	-0.384328	0.000270	2.702450	0.457807	0.000027
 450	4.4675e+01	4.4638	-0.363553	0.000209	2.088256	0.353760	0.000021
 451	4.4775e+01	4.4714	-0.333817	0.000299	2.989073	0.506363	0.000030
 452	4.4874e+01	4.4837	-0.312228	0.000217	2.170149	0.367633	0.000022
 453	4.4974e+01	4.4921	-0.280048	0.000323	3.234750	0.547982	0.000032
 454	4.5074e+01	4.5032	-0.258866	0.000213	2.129203	0.360697	0.000021
 455	4.5173e+01	4.5141	-0.231574	0.000274	2.743396	0.464744	0.000027
 456	4.5273e+01	4.5231	-0.207948	0.000237	2.374880	0.402316	0.000024
 457	4.5372e+01	4.5318	-0.182693	0.000254	2.538665	0.430061	0.000025
 458	4.5471e+01	4.5451	-0.156216	0.000266	2.661503	0.450871	0.000027
 459	4.5571e+01	4.5521	-0.135849	0.000205	2.047310	0.346824	0.000020
 460	4.5670e+01	4.5600	-0.106927	0.000291	2.907181	0.492490	0.000029
 461	4.5770e+01	4.5731	-0.079635	0.000274	2.743396	0.464744	0.000027
 462	4.5870e+01	4.5812	-0.057639	0.000221	2.211095	0.374570	0.000022
 463	4.5969e+01	4.5915	-0.029532	0.000283	2.825288	0.478617	0.000028
 464	4.6069e+01	4.6027	-0.002648	0.000270	2.702450	0.457807	0.000027
 465	4.6168e+01	4.6146	0.018941	0.000217	2.170149	0.367633	0.000022
 466	4.6267e+01	4.6203	0.044197	0.000254	2.538665	0.430061	0.000025
 467	4.6367e+01	4.6326	0.074747	0.000307	3.070965	0.520236	0.000031
 468	4.6467e+01	4.6431	0.095522	0.000209	2.088256	0.353760	0.000021
 469	4.6566e+01	4.6515	0.121184	0.000258	2.579611	0.436998	0.000026
 470	4.6666e+01	4.6627	0.144810	0.000237	2.374880	0.402316	0.000024
 471	4.6765e+01	4.6697	0.168436	0.000237	2.374880	0.402316	0.000024
 472	4.6864e+01	4.6816	0.193284	0.000250	2.497718	0.423125	0.000025
 473	4.6964e+01	4.6926	0.216503	0.000233	2.333934	0.395379	0.000023
 474	4.7063e+01	4.7031	0.234833	0.000184	1.842579	0.312141	0.000018
 475	4.7163e+01	4.7124	0.259681	0.000250	2.497718	0.423125	0.000025
 476	4.7263e+01	4.7228	0.281270	0.000217	2.170149	0.367633	0.000022
 477	4.7362e+01	4.7326	0.300008	0.000188	1.883525	0.319078	0.000019
 478	4.7462e+01	4.7425	0.322819	0.000229	2.292987	0.388443	0.000023
 479	4.7561e+01	4.7514	0.344001	0.000213	2.129203	0.360697	0.000021
 480	4.7660e+01	4.7613	0.363146	0.000192	1.924472	0.326014	0.000019
 481	4.7760e+01	4.7718	0.384735	0.000217	2.170149	0.367633	0.000022
 482	4.7859e+01	4.7793	0.402658	0.000180	1.801633	0.305205	0.000018
 483	4.7959e+01	4.7928	0.427506	0.000250	2.497718	0.423125	0.000025
 484	4.8059e+01	4.8025	0.451132	0.000237	2.374880	0.402316	0.000024
 485	4.8158e+01	4.8116	0.471906	0.000209	2.088256	0.353760	0.000021
 486	4.8258e+01	4.8230	0.489422	0.000176	1.760687	0.298268	0.000018
 487	4.8357e+01	4.8299	0.509382	0.000201	2.006364	0.339887	0.000020
 488	4.8456e+01	4.8414	0.530156	0.000209	2.088256	0.353760	0.000021
 489	4.8556e+01	4.8531	0.550931	0.000209	2.088256	0.353760	0.000021
 490	4.8656e+01	4.8620	0.570891	0.000201	2.006364	0.339887	0.000020
 491	4.8755e+01	4.8710	0.592480	0.000217	2.170149	0.367633	0.000022
 492	4.8855e+01	4.8802	0.610810	0.000184	1.842579	0.312141	0.000018
 493	4.8954e+01	4.8939	0.638917	0.000283	2.825288	0.478617	0.000028
 494	4.9053e+01	4.9021	0.657655	0.000188	1.883525	0.319078	0.000019
 495	4.9153e+01	4.9116	0.679651	0.000221	2.211095	0.374570	0.000022
 496	4.9252e+01	4.9239	0.702870	0.000233	2.333934	0.395379	0.000023
 497	4.9352e+01	4.9303	0.724459	0.000217	2.170149	0.367633	0.000022
 498	4.9452e+01	4.9410	0.748492	0.000242	2.415826	0.409252	0.000024
 499	4.9551e+01	4.9513	0.770488	0.000221	2.211095	0.374570	0.000022
 500	4.9651e+01	4.9630	0.791670	0.000213	2.129203	0.360697	0.000021
 501	4.9750e+01	4.9737	0.817333	0.000258	2.579611	0.436998	0.000026
 502	4.9849e+01	4.9826	0.838107	0.000209	2.088256	0.353760	0.000021
 503	4.9949e+01	4.9913	0.860511	0.000225	2.252041	0.381506	0.000023
 504	5.0048e+01	5.0011	0.878842	0.000184	1.842579	0.312141	0.000018
 505	5.0148e+01	5.0101	0.903282	0.000246	2.456772	0.416188	0.000025
 506	5.0248e+01	5.0201	0.926093	0.000229	2.292987	0.388443	0.000023
 507	5.0347e+01	5.0301	0.947275	0.000213	2.129203	0.360697	0.000021
 508	5.0447e+01	5.0394	0.968457	0.000213	2.129203	0.360697	0.000021
 509	5.0546e+01	5.0486	0.990861	0.000225	2.252041	0.381506	0.000023
 510	5.0645e+01	5.0620	1.013672	0.000229	2.292987	0.388443	0.000023
 511	5.0745e+01	5.0703	1.038520	0.000250	2.497718	0.423125	0.000025
 512	5.0844e+01	5.0805	1.058072	0.000197	1.965418	0.332951	0.000020
 513	5.0944e+01	5.0892	1.082513	0.000246	2.456772	0.416188	0.000025
 514	5.1044e+01	5.0989	1.103287	0.000209	2.088256	0.353760	0.000021
 515	5.1143e+01	5.1102	1.126913	0.000237	2.374880	0.402316	0.000024
 516	5.1242e+01	5.1191	1.149317	0.000225	2.252041	0.381506	0.000023
 517	5.1342e+01	5.1299	1.177016	0.000278	2.784342	0.471680	0.000028
 518	5.1441e+01	5.1403	1.196976	0.000201	2.006364	0.339887	0.000020
 519	5.1541e+01	5.1492	1.218158	0.000213	2.129203	0.360697	0.000021
 520	5.1641e+01	5.1597	1.237710	0.000197	1.965418	0.332951	0.000020
 521	5.1740e+01	5.1675	1.262151	0.000246	2.456772	0.416188	0.000025
 522	5.1840e+01	5.1794	1.281703	0.000197	1.965418	0.332951	0.000020
 523	5.1939e+01	5.1888	1.305329	0.000237	2.374880	0.402316	0.000024
 524	5.2038e+01	5.1982	1.332621	0.000274	2.743396	0.464744	0.000027
 525	5.2138e+01	5.2065	1.351359	0.000188	1.883525	0.319078	0.000019
 526	5.2237e+01	5.2203	1.374985	0.000237	2.374880	0.402316	0.000024
 527	5.2337e+01	5.2291	1.402684	0.000278	2.784342	0.471680	0.000028
 528	5.2437e+01	5.2412	1.422644	0.000201	2.006364	0.339887	0.000020
 529	5.2536e+01	5.2473	1.448714	0.000262	2.620557	0.443934	0.000026
 530	5.2636e+01	5.2569	1.471932	0.000233	2.333934	0.395379	0.000023
 531	5.2735e+01	5.2682	1.496780	0.000250	2.497718	0.423125	0.000025
 532	5.2834e+01	5.2772	1.516740	0.000201	2.006364	0.339887	0.000020
 533	5.2934e+01	5.2883	1.539959	0.000233	2.333934	0.395379	0.000023
 534	5.3033e+01	5.2979	1.563584	0.000237	2.374880	0.402316	0.000024
 535	5.3133e+01	5.3088	1.579471	0.000160	1.596902	0.270523	0.000016
 536	5.3233e+01	5.3197	1.601467	0.000221	2.211095	0.374570	0.000022
 537	5.3332e+01	5.3268	1.625500	0.000242	2.415826	0.409252	0.000024
 538	5.3431e+01	5.3388	1.642609	0.000172	1.719741	0.291332	0.000017
 539	5.3531e+01	5.3486	1.667457	0.000250	2.497718	0.423125	0.000025
 540	5.3630e+01	5.3597	1.684158	0.000168	1.678794	0.284395	0.000017
 541	5.3730e+01	5.3688	1.711857	0.000278	2.784342	0.471680	0.000028
 542	5.3830e+01	5.3774	1.730595	0.000188	1.883525	0.319078	0.000019
 543	5.3929e+01	5.3912	1.750555	0.000201	2.006364	0.339887	0.000020
 544	5.4029e+01	5.3974	1.771736	0.000213	2.129203	0.360697	0.000021
 545	5.4128e+01	5.4098	1.792918	0.000213	2.129203	0.360697	0.000021
 546	5.4227e+01	5.4174	1.812878	0.000201	2.006364	0.339887	0.000020
 547	5.4327e+01	5.4278	1.834875	0.000221	2.211095	0.374570	0.000022
 548	5.4426e+01	5.4395	1.856056	0.000213	2.129203	0.360697	0.000021
 549	5.4526e+01	5.4488	1.875609	0.000197	1.965418	0.332951	0.000020
 550	5.4626e+01	5.4598	1.894754	0.000192	1.924472	0.326014	0.000019
 551	5.4725e+01	5.4688	1.921231	0.000266	2.661503	0.450871	0.000027
 552	5.4825e+01	5.4807	1.940376	0.000192	1.924472	0.326014	0.000019
 553	5.4924e+01	5.4910	1.959114	0.000188	1.883525	0.319078	0.000019
 554	5.5023e+01	5.4964	1.983962	0.000250	2.497718	0.423125	0.000025
 555	5.5123e+01	5.5068	2.009624	0.000258	2.579611	0.436998	0.000026
 556	5.5222e+01	5.5181	2.029177	0.000197	1.965418	0.332951	0.000020
 557	5.5322e+01	5.5283	2.056469	0.000274	2.743396	0.464744	0.000027
 558	5.5422e+01	5.5398	2.076429	0.000201	2.006364	0.339887	0.000020
 559	5.5521e+01	5.5495	2.102499	0.000262	2.620557	0.443934	0.000026
 560	5.5620e+01	5.5598	2.133457	0.000311	3.111912	0.527172	0.000031
 561	5.5720e+01	5.5680	2.159527	0.000262	2.620557	0.443934	0.000026
 562	5.5819e+01	5.5758	2.181930	0.000225	2.252041	0.381506	0.000023
 563	5.5919e+01	5.5874	2.205964	0.000242	2.415826	0.409252	0.000024
 564	5.6019e+01	5.5968	2.231626	0.000258	2.579611	0.436998	0.000026
 565	5.6118e+01	5.6072	2.256067	0.000246	2.456772	0.416188	0.000025
 566	5.6218e+01	5.6173	2.282544	0.000266	2.661503	0.450871	0.000027
 567	5.6317e+01	5.6283	2.303318	0.000209	2.088256	0.353760	0.000021
 568	5.6416e+01	5.6376	2.328574	0.000254	2.538665	0.430061	0.000025
 569	5.6516e+01	5.6487	2.355866	0.000274	2.743396	0.464744	0.000027
 570	5.6615e+01	5.6593	2.383972	0.000283	2.825288	0.478617	0.000028
 571	5.6715e+01	5.6686	2.411264	0.000274	2.743396	0.464744	0.000027
 572	5.6815e+01	5.6779	2.437741	0.000266	2.661503	0.450871	0.000027
 573	5.6914e+01	5.6893	2.458516	0.000209	2.088256	0.353760	0.000021
 574	5.7014e+01	5.6963	2.485401	0.000270	2.702450	0.457807	0.000027
 575	5.7113e+01	5.7081	2.510248	0.000250	2.497718	0.423125	0.000025
 576	5.7212e+01	5.7186	2.535096	0.000250	2.497718	0.423125	0.000025
 577	5.7312e+01	5.7276	2.561574	0.000266	2.661503	0.450871	0.000027
 578	5.7411e+01	5.7333	2.586829	0.000254	2.538665	0.430061	0.000025
 579	5.7511e+01	5.7476	2.608418	0.000217	2.170149	0.367633	0.000022
 580	5.7611e+01	5.7552	2.631637	0.000233	2.333934	0.395379	0.000023
 581	5.7710e+01	5.7665	2.655670	0.000242	2.415826	0.409252	0.000024
 582	5.7809e+01	5.7756	2.680518	0.000250	2.497718	0.423125	0.000025
 583	5.7909e+01	5.7877	2.700885	0.000205	2.047310	0.346824	0.000020
 584	5.8008e+01	5.7977	2.724511	0.000237	2.374880	0.402316	0.000024
 585	5.8108e+01	5.8051	2.748544	0.000242	2.415826	0.409252	0.000024
 586	5.8208e+01	5.8172	2.772984	0.000246	2.456772	0.416188	0.000025
 587	5.8307e+01	5.8248	2.796203	0.000233	2.333934	0.395379	0.000023
 588	5.8407e+01	5.8350	2.815755	0.000197	1.965418	0.332951	0.000020
 589	5.8506e+01	5.8433	2.843047	0.000274	2.743396	0.464744	0.000027
 590	5.8605e+01	5.8555	2.871969	0.000291	2.907181	0.492490	0.000029
 591	5.8705e+01	5.8665	2.888262	0.000164	1.637848	0.277459	0.000016
 592	5.8804e+01	5.8762	2.914332	0.000262	2.620557	0.443934	0.000026
 593	5.8904e+01	5.8872	2.937958	0.000237	2.374880	0.402316	0.000024
 594	5.9004e+01	5.8979	2.959547	0.000217	2.170149	0.367633	0.000022
 595	5.9103e+01	5.9056	2.981544	0.000221	2.211095	0.374570	0.000022
 596	5.9203e+01	5.9164	3.006392	0.000250	2.497718	0.423125	0.000025
 597	5.9302e+01	5.9260	3.030832	0.000246	2.456772	0.416188	0.000025
 598	5.9401e+01	5.9376	3.050792	0.000201	2.006364	0.339887	0.000020
 599	5.9501e+01	5.9456	3.075233	0.000246	2.456772	0.416188	0.000025
 600	5.9600e+01	5.9552	3.101710	0.000266	2.661503	0.450871	0.000027
 601	5.9700e+01	5.9675	3.121670	0.000201	2.006364	0.339887	0.000020
 602	5.9800e+01	5.9759	3.144073	0.000225	2.252041	0.381506	0.000023
 603	5.9899e+01	5.9867	3.165255	0.000213	2.129203	0.360697	0.000021
 604	5.9998e+01	5.9945	3.189696	0.000246	2.456772	0.416188	0.000025
 605	6.0098e+01	6.0064	3.211692	0.000221	2.211095	0.374570	0.000022
 606	6.0197e+01	6.0146	3.241428	0.000299	2.989073	0.506363	0.000030
 607	6.0297e+01	6.0244	3.259351	0.000180	1.801633	0.305205	0.000018
 608	6.0397e+01	6.0340	3.284199	0.000250	2.497718	0.423125	0.000025
 609	6.0496e+01	6.0456	3.304159	0.000201	2.006364	0.339887	0.000020
 610	6.0596e+01	6.0564	3.329007	0.000250	2.497718	0.423125	0.000025
 611	6.0695e+01	6.0662	3.347745	0.000188	1.883525	0.319078	0.000019
 612	6.0794e+01	6.0767	3.374222	0.000266	2.661503	0.450871	0.000027
 613	6.0894e+01	6.0844	3.393367	0.000192	1.924472	0.326014	0.000019
 614	6.0993e+01	6.0958	3.416993	0.000237	2.374880	0.402316	0.000024
 615	6.1093e+01	6.1060	3.439804	0.000229	2.292987	0.388443	0.000023
 616	6.1193e+01	6.1127	3.460171	0.000205	2.047310	0.346824	0.000020
 617	6.1292e+01	6.1288	3.484205	0.000242	2.415826	0.409252	0.000024
 618	6.1392e+01	6.1342	3.512718	0.000287	2.866234	0.485553	0.000029
 619	6.1491e+01	6.1463	3.535122	0.000225	2.252041	0.381506	0.000023
 620	6.1590e+01	6.1544	3.557934	0.000229	2.292987	0.388443	0.000023
 621	6.1690e+01	6.1652	3.584818	0.000270	2.702450	0.457807	0.000027
 622	6.1789e+01	6.1756	3.603963	0.000192	1.924472	0.326014	0.000019
 623	6.1889e+01	6.1852	3.629626	0.000258	2.579611	0.436998	0.000026
 624	6.1989e+01	6.1953	3.656918	0.000274	2.743396	0.464744	0.000027
 625	6.2088e+01	6.2026	3.676878	0.000201	2.006364	0.339887	0.000020
 626	6.2188e+01	6.2159	3.700503	0.000237	2.374880	0.402316	0.000024
 627	6.2287e+01	6.2246	3.725759	0.000254	2.538665	0.430061	0.000025
 628	6.2386e+01	6.2374	3.748570	0.000229	2.292987	0.388443	0.000023
 629	6.2486e+01	6.2435	3.773418	0.000250	2.497718	0.423125	0.000025
 630	6.2586e+01	6.2540	3.796229	0.000229	2.292987	0.388443	0.000023
 631	6.2685e+01	6.2630	3.821484	0.000254	2.538665	0.430061	0.000025
 632	6.2785e+01	6.2713	3.846332	0.000250	2.497718	0.423125	0.000025
 633	6.2884e+01	6.2827	3.871995	0.000258	2.579611	0.436998	0.000026
 634	6.2983e+01	6.2965	3.893176	0.000213	2.129203	0.360697	0.000021
 635	6.3083e+01	6.3021	3.917617	0.000246	2.456772	0.416188	0.000025
 636	6.3182e+01	6.3115	3.939613	0.000221	2.211095	0.374570	0.000022
 637	6.3282e+01	6.3227	3.962017	0.000225	2.252041	0.381506	0.000023
 638	6.3382e+01	6.3351	3.985236	0.000233	2.333934	0.395379	0.000023
 639	6.3481e+01	6.3456	4.008454	0.000233	2.333934	0.395379	0.000023
 640	6.3581e+01	6.3526	4.029229	0.000209	2.088256	0.353760	0.000021
 641	6.3680e+01	6.3620	4.050411	0.000213	2.129203	0.360697	0.000021
 642	6.3779e+01	6.3783	4.070370	0.000201	2.006364	0.339887	0.000020
 643	6.3879e+01	6.3854	4.086664	0.000164	1.637848	0.277459	0.000016
 644	6.3978e+01	6.3931	4.107439	0.000209	2.088256	0.353760	0.000021
 645	6.4078e+01	6.4029	4.129435	0.000221	2.211095	0.374570	0.000022
 646	6.4177e+01	6.4117	4.148988	0.000197	1.965418	0.332951	0.000020
 647	6.4277e+01	6.4247	4.168540	0.000197	1.965418	0.332951	0.000020
 648	6.4376e+01	6.4338	4.186463	0.000180	1.801633	0.305205	0.000018
 649	6.4476e+01	6.4423	4.205608	0.000192	1.924472	0.326014	0.000019
 650	6.4576e+01	6.4523	4.226790	0.000213	2.129203	0.360697	0.000021
 651	6.4675e+01	6.4613	4.250416	0.000237	2.374880	0.402316	0.000024
 652	6.4775e+01	6.4717	4.264673	0.000143	1.433117	0.242777	0.000014
 653	6.4874e+01	6.4833	4.285447	0.000209	2.088256	0.353760	0.000021
 654	6.4974e+01	6.4930	4.304185	0.000188	1.883525	0.319078	0.000019
 655	6.5073e+01	6.5028	4.323330	0.000192	1.924472	0.326014	0.000019
 656	6.5172e+01	6.5118	4.341661	0.000184	1.842579	0.312141	0.000018
 657	6.5272e+01	6.5226	4.362842	0.000213	2.129203	0.360697	0.000021
 658	6.5371e+01	6.5360	4.379136	0.000164	1.637848	0.277459	0.000016
 659	6.5471e+01	6.5435	4.399096	0.000201	2.006364	0.339887	0.000020
 660	6.5570e+01	6.5508	4.418648	0.000197	1.965418	0.332951	0.000020
 661	6.5670e+01	6.5633	4.438608	0.000201	2.006364	0.339887	0.000020
 662	6.5769e+01	6.5726	4.459790	0.000213	2.129203	0.360697	0.000021
 663	6.5869e+01	6.5816	4.480972	0.000213	2.129203	0.360697	0.000021
 664	6.5969e+01	6.5945	4.502968	0.000221	2.211095	0.374570	0.000022
 665	6.6068e+01	6.6019	4.524150	0.000213	2.129203	0.360697	0.000021
 666	6.6168e+01	6.6121	4.547369	0.000233	2.333934	0.395379	0.000023
 667	6.6267e+01	6.6224	4.564884	0.000176	1.760687	0.298268	0.000018
 668	6.6367e+01	6.6317	4.588510	0.000237	2.374880	0.402316	0.000024
 669	6.6466e+01	6.6421	4.608877	0.000205	2.047310	0.346824	0.000020
 670	6.6566e+01	6.6529	4.629652	0.000209	2.088256	0.353760	0.000021
 671	6.6665e+01	6.6604	4.652870	0.000233	2.333934	0.395379	0.000023
 672	6.6764e+01	6.6734	4.672015	0.000192	1.924472	0.326014	0.000019
 673	6.6864e+01	6.6819	4.691160	0.000192	1.924472	0.326014	0.000019
 674	6.6963e+01	6.6912	4.712750	0.000217	2.170149	0.367633	0.000022
 675	6.7063e+01	6.7031	4.731487	0.000188	1.883525	0.319078	0.000019
 676	6.7162e+01	6.7144	4.750633	0.000192	1.924472	0.326014	0.000019
 677	6.7262e+01	6.7234	4.775073	0.000246	2.456772	0.416188	0.000025
 678	6.7362e+01	6.7326	4.797070	0.000221	2.211095	0.374570	0.000022
 679	6.7461e+01	6.7398	4.814178	0.000172	1.719741	0.291332	0.000017
 680	6.7561e+01	6.7530	4.836174	0.000221	2.211095	0.374570	0.000022
 681	6.7660e+01	6.7613	4.857764	0.000217	2.170149	0.367633	0.000022
 682	6.7760e+01	6.7681	4.881389	0.000237	2.374880	0.402316	0.000024
 683	6.7859e+01	6.7783	4.903386	0.000221	2.211095	0.374570	0.000022
 684	6.7959e+01	6.7910	4.925382	0.000221	2.211095	0.374570	0.000022
 685	6.8058e+01	6.8029	4.945342	0.000201	2.006364	0.339887	0.000020
 686	6.8157e+01	6.8110	4.966931	0.000217	2.170149	0.367633	0.000022
 687	6.8257e+01	6.8214	4.988113	0.000213	2.129203	0.360697	0.000021
 688	6.8356e+01	6.8314	5.006851	0.000188	1.883525	0.319078	0.000019
 689	6.8456e+01	6.8431	5.030069	0.000233	2.333934	0.395379	0.000023
 690	6.8555e+01	6.8488	5.050029	0.000201	2.006364	0.339887	0.000020
 691	6.8655e+01	6.8598	5.069582	0.000197	1.965418	0.332951	0.000020
 692	6.8754e+01	6.8708	5.092800	0.000233	2.333934	0.395379	0.000023
 693	6.8854e+01	6.8800	5.113982	0.000213	2.129203	0.360697	0.000021
 694	6.8954e+01	6.8877	5.136386	0.000225	2.252041	0.381506	0.000023
 695	6.9053e+01	6.9030	5.161234	0.000250	2.497718	0.423125	0.000025
 696	6.9153e+01	6.9103	5.180786	0.000197	1.965418	0.332951	0.000020
 697	6.9252e+01	6.9210	5.201968	0.000213	2.129203	0.360697	0.000021
 698	6.9352e+01	6.9324	5.224779	0.000229	2.292987	0.388443	0.000023
 699	6.9451e+01	6.9424	5.246368	0.000217	2.170149	0.367633	0.000022
 700	6.9550e+01	6.9511	5.264291	0.000180	1.801633	0.305205	0.000018
 701	6.9650e+01	6.9606	5.291176	0.000270	2.702450	0.457807	0.000027
 702	6.9749e+01	6.9714	5.311136	0.000201	2.006364	0.339887	0.000020
 703	6.9849e+01	6.9807	5.326208	0.000152	1.515010	0.256650	0.000015
 704	6.9948e+01	6.9903	5.345760	0.000197	1.965418	0.332951	0.000020
 705	7.0048e+01	6.9990	5.364905	0.000192	1.924472	0.326014	0.000019
 706	7.0147e+01	7.0098	5.381199	0.000164	1.637848	0.277459	0.000016
 707	7.0247e+01	7.0199	5.405232	0.000242	2.415826	0.409252	0.000024
 708	7.0347e+01	7.0306	5.426821	0.000217	2.170149	0.367633	0.000022
 709	7.0446e+01	7.0400	5.445559	0.000188	1.883525	0.319078	0.000019
 710	7.0546e+01	7.0490	5.465111	0.000197	1.965418	0.332951	0.000020
 711	7.0645e+01	7.0610	5.487108	0.000221	2.211095	0.374570	0.000022
 712	7.0745e+01	7.0696	5.509104	0.000221	2.211095	0.374570	0.000022
 713	7.0844e+01	7.0799	5.527435	0.000184	1.842579	0.312141	0.000018
 714	7.0944e+01	7.0898	5.543728	0.000164	1.637848	0.277459	0.000016
 715	7.1043e+01	7.1014	5.564096	0.000205	2.047310	0.346824	0.000020
 716	7.1142e+01	7.1105	5.582833	0.000188	1.883525	0.319078	0.000019
 717	7.1242e+01	7.1184	5.604015	0.000213	2.129203	0.360697	0.000021
 718	7.1341e+01	7.1291	5.623975	0.000201	2.006364	0.339887	0.000020
 719	7.1441e+01	7.1389	5.644342	0.000205	2.047310	0.346824	0.000020
 720	7.1540e+01	7.1523	5.663080	0.000188	1.883525	0.319078	0.000019
 721	7.1640e+01	7.1613	5.685484	0.000225	2.252041	0.381506	0.000023
 722	7.1740e+01	7.1687	5.703407	0.000180	1.801633	0.305205	0.000018
 723	7.1839e+01	7.1783	5.729477	0.000262	2.620557	0.443934	0.000026
 724	7.1939e+01	7.1893	5.749436	0.000201	2.006364	0.339887	0.000020
 725	7.2038e+01	7.1986	5.771840	0.000225	2.252041	0.381506	0.000023
 726	7.2138e+01	7.2087	5.796281	0.000246	2.456772	0.416188	0.000025
 727	7.2237e+01	7.2193	5.819499	0.000233	2.333934	0.395379	0.000023
 728	7.2337e+01	7.2266	5.840681	0.000213	2.129203	0.360697	0.000021
 729	7.2436e+01	7.2389	5.870010	0.000295	2.948127	0.499426	0.000029
 730	7.2535e+01	7.2520	5.891599	0.000217	2.170149	0.367633	0.000022
 731	7.2635e+01	7.2582	5.916854	0.000254	2.538665	0.430061	0.000025
 732	7.2734e+01	7.2686	5.938443	0.000217	2.170149	0.367633	0.000022
 733	7.2834e+01	7.2787	5.961662	0.000233	2.333934	0.395379	0.000023
 734	7.2933e+01	7.2897	5.984473	0.000229	2.292987	0.388443	0.000023
 735	7.3033e+01	7.2988	6.012172	0.000278	2.784342	0.471680	0.000028
 736	7.3132e+01	7.3103	6.035798	0.000237	2.374880	0.402316	0.000024
 737	7.3232e+01	7.3183	6.059831	0.000242	2.415826	0.409252	0.000024
 738	7.3332e+01	7.3284	6.084679	0.000250	2.497718	0.423125	0.000025
 739	7.3431e+01	7.3379	6.109935	0.000254	2.538665	0.430061	0.000025
 740	7.3531e+01	7.3473	6.136819	0.000270	2.702450	0.457807	0.000027
 741	7.3630e+01	7.3601	6.158001	0.000213	2.129203	0.360697	0.000021
 742	7.3730e+01	7.3692	6.180405	0.000225	2.252041	0.381506	0.000023
 743	7.3829e+01	7.3777	6.201179	0.000209	2.088256	0.353760	0.000021
 744	7.3928e+01	7.3877	6.231323	0.000303	3.030019	0.513299	0.000030
 745	7.4028e+01	7.3975	6.250468	0.000192	1.924472	0.326014	0.000019
 746	7.4127e+01	7.4084	6.274094	0.000237	2.374880	0.402316	0.000024
 747	7.4227e+01	7.4195	6.298127	0.000242	2.415826	0.409252	0.000024
 748	7.4326e+01	7.4268	6.322160	0.000242	2.415826	0.409252	0.000024
 749	7.4426e+01	7.4384	6.339676	0.000176	1.760687	0.298268	0.000018
 750	7.4525e+01	7.4468	6.362080	0.000225	2.252041	0.381506	0.000023
 751	7.4625e+01	7.4561	6.382447	0.000205	2.047310	0.346824	0.000020
 752	7.4725e+01	7.4683	6.404851	0.000225	2.252041	0.381506	0.000023
 753	7.4824e+01	7.4786	6.428476	0.000237	2.374880	0.402316	0.000024
 754	7.4924e+01	7.4859	6.450066	0.000217	2.170149	0.367633	0.000022
 755	7.5023e+01	7.4979	6.473284	0.000233	2.333934	0.395379	0.000023
 756	7.5123e+01	7.5079	6.493651	0.000205	2.047310	0.346824	0.000020
 757	7.5222e+01	7.5207	6.515240	0.000217	2.170149	0.367633	0.000022
 758	7.5322e+01	7.5293	6.540088	0.000250	2.497718	0.423125	0.000025
 759	7.5421e+01	7.5423	6.561270	0.000213	2.129203	0.360697	0.000021
 760	7.5520e+01	7.5489	6.582859	0.000217	2.170149	0.367633	0.000022
 761	7.5620e+01	7.5590	6.605263	0.000225	2.252041	0.381506	0.000023
 762	7.5719e+01	7.5674	6.630518	0.000254	2.538665	0.430061	0.000025
 763	7.5819e+01	7.5762	6.652515	0.000221	2.211095	0.374570	0.000022
 764	7.5918e+01	7.5880	6.672067	0.000197	1.965418	0.332951	0.000020
 765	7.6018e+01	7.5965	6.690805	0.000188	1.883525	0.319078	0.000019
 766	7.6118e+01	7.6066	6.712394	0.000217	2.170149	0.367633	0.000022
 767	7.6217e+01	7.6158	6.733169	0.000209	2.088256	0.353760	0.000021
 768	7.6317e+01	7.6290	6.755980	0.000229	2.292987	0.388443	0.000023
 769	7.6416e+01	7.6344	6.779606	0.000237	2.374880	0.402316	0.000024
 770	7.6516e+01	7.6452	6.800788	0.000213	2.129203	0.360697	0.000021
 771	7.6615e+01	7.6576	6.822377	0.000217	2.170149	0.367633	0.000022
 772	7.6715e+01	7.6661	6.843559	0.000213	2.129203	0.360697	0.000021
 773	7.6814e+01	7.6781	6.869221	0.000258	2.579611	0.436998	0.000026
 774	7.6913e+01	7.6877	6.890403	0.000213	2.129203	0.360697	0.000021
 775	7.7013e+01	7.6988	6.911585	0.000213	2.129203	0.360697	0.000021
 776	7.7112e+01	7.7071	6.931137	0.000197	1.965418	0.332951	0.000020
 777	7.7212e+01	7.7172	6.949060	0.000180	1.801633	0.305205	0.000018
 778	7.7311e+01	7.7248	6.973908	0.000250	2.497718	0.423125	0.000025
 779	7.7411e+01	7.7367	6.994683	0.000209	2.088256	0.353760	0.000021
 780	7.7510e+01	7.7474	7.016679	0.000221	2.211095	0.374570	0.000022
 781	7.7610e+01	7.7563	7.038268	0.000217	2.170149	0.367633	0.000022
 782	7.7710e+01	7.7666	7.055784	0.000176	1.760687	0.298268	0.000018
 783	7.7809e+01	7.7760	7.080225	0.000246	2.456772	0.416188	0.000025
 784	7.7909e+01	7.7855	7.098962	0.000188	1.883525	0.319078	0.000019
 785	7.8008e+01	7.7964	7.120144	0.000213	2.129203	0.360697	0.000021
 786	7.8108e+01	7.8096	7.146621	0.000266	2.661503	0.450871	0.000027
 787	7.8207e+01	7.8149	7.166174	0.000197	1.965418	0.332951	0.000020
 788	7.8306e+01	7.8255	7.192244	0.000262	2.620557	0.443934	0.000026
 789	7.8406e+01	7.8381	7.215055	0.000229	2.292987	0.388443	0.000023
 790	7.8505e+01	7.8443	7.235422	0.000205	2.047310	0.346824	0.000020
 791	7.8605e+01	7.8558	7.264343	0.000291	2.907181	0.492490	0.000029
 792	7.8704e+01	7.8667	7.285525	0.000213	2.129203	0.360697	0.000021
 793	7.8804e+01	7.8765	7.307114	0.000217	2.170149	0.367633	0.000022
 794	7.8903e+01	7.8843	7.325445	0.000184	1.842579	0.312141	0.000018
 795	7.9003e+01	7.8959	7.349478	0.000242	2.415826	0.409252	0.000024
 796	7.9103e+01	7.9046	7.374733	0.000254	2.538665	0.430061	0.000025
 797	7.9202e+01	7.9167	7.395100	0.000205	2.047310	0.346824	0.000020
 798	7.9302e+01	7.9266	7.418726	0.000237	2.374880	0.402316	0.000024
 799	7.9401e+01	7.9324	7.440723	0.000221	2.211095	0.374570	0.000022
 800	7.9501e+01	7.9450	7.459868	0.000192	1.924472	0.326014	0.000019
 801	7.9600e+01	7.9553	7.486752	0.000270	2.702450	0.457807	0.000027
 802	7.9700e+01	7.9655	7.506712	0.000201	2.006364	0.339887	0.000020
 803	7.9799e+01	7.9774	7.530745	0.000242	2.415826	0.409252	0.000024
 804	7.9898e+01	7.9858	7.555186	0.000246	2.456772	0.416188	0.000025
 805	7.9998e+01	7.9942	7.576775	0.000217	2.170149	0.367633	0.000022
 806	8.0097e+01	8.0067	7.595920	0.000192	1.924472	0.326014	0.000019
 807	8.0197e+01	8.0148	7.615880	0.000201	2.006364	0.339887	0.000020
 808	8.0296e+01	8.0262	7.636247	0.000205	2.047310	0.346824	0.000020
 809	8.0396e+01	8.0358	7.653763	0.000176	1.760687	0.298268	0.000018
 810	8.0496e+01	8.0458	7.673315	0.000197	1.965418	0.332951	0.000020
 811	8.0595e+01	8.0552	7.690424	0.000172	1.719741	0.291332	0.000017
 812	8.0695e+01	8.0666	7.709161	0.000188	1.883525	0.319078	0.000019
 813	8.0794e+01	8.0756	7.727085	0.000180	1.801633	0.305205	0.000018
 814	8.0894e+01	8.0832	7.746637	0.000197	1.965418	0.332951	0.000020
 815	8.0993e+01	8.0942	7.764967	0.000184	1.842579	0.312141	0.000018
 816	8.1093e+01	8.1074	7.785335	0.000205	2.047310	0.346824	0.000020
 817	8.1192e+01	8.1158	7.802036	0.000168	1.678794	0.284395	0.000017
 818	8.1291e+01	8.1251	7.819959	0.000180	1.801633	0.305205	0.000018
 819	8.1391e+01	8.1367	7.841140	0.000213	2.129203	0.360697	0.000021
 820	8.1490e+01	8.1463	7.860693	0.000197	1.965418	0.332951	0.000020
 821	8.1590e+01	8.1561	7.875765	0.000152	1.515010	0.256650	0.000015
 822	8.1689e+01	8.1646	7.892466	0.000168	1.678794	0.284395	0.000017
 823	8.1789e+01	8.1735	7.911203	0.000188	1.883525	0.319078	0.000019
 824	8.1888e+01	8.1821	7.927090	0.000160	1.596902	0.270523	0.000016
 825	8.1988e+01	8.1934	7.945827	0.000188	1.883525	0.319078	0.000019
 826	8.2088e+01	8.2029	7.965380	0.000197	1.965418	0.332951	0.000020
 827	8.2187e+01	8.2134	7.980044	0.000147	1.474063	0.249713	0.000015
 828	8.2287e+01	8.2246	8.001633	0.000217	2.170149	0.367633	0.000022
 829	8.2386e+01	8.2386	8.022815	0.000213	2.129203	0.360697	0.000021
 830	8.2486e+01	8.2437	8.040738	0.000180	1.801633	0.305205	0.000018
 831	8.2585e+01	8.2558	8.060698	0.000201	2.006364	0.339887	0.000020
 832	8.2684e+01	8.2632	8.081473	0.000209	2.088256	0.353760	0.000021
 833	8.2784e+01	8.2752	8.101025	0.000197	1.965418	0.332951	0.000020
 834	8.2883e+01	8.2855	8.117726	0.000168	1.678794	0.284395	0.000017
 835	8.2983e+01	8.2990	8.140945	0.000233	2.333934	0.395379	0.000023
 836	8.3082e+01	8.3039	8.159682	0.000188	1.883525	0.319078	0.000019
 837	8.3182e+01	8.3110	8.181271	0.000217	2.170149	0.367633	0.000022
 838	8.3281e+01	8.3219	8.199195	0.000180	1.801633	0.305205	0.000018
 839	8.3381e+01	8.3340	8.220784	0.000217	2.170149	0.367633	0.000022
 840	8.3481e+01	8.3460	8.238707	0.000180	1.801633	0.305205	0.000018
 841	8.3580e+01	8.3542	8.258667	0.000201	2.006364	0.339887	0.000020
 842	8.3680e+01	8.3656	8.274553	0.000160	1.596902	0.270523	0.000016
 843	8.3779e+01	8.3710	8.298586	0.000242	2.415826	0.409252	0.000024
 844	8.3879e+01	8.3835	8.318139	0.000197	1.965418	0.332951	0.000020
 845	8.3978e+01	8.3939	8.336062	0.000180	1.801633	0.305205	0.000018
 846	8.4078e+01	8.4033	8.355207	0.000192	1.924472	0.326014	0.000019
 847	8.4177e+01	8.4131	8.375574	0.000205	2.047310	0.346824	0.000020
 848	8.4276e+01	8.4238	8.399200	0.000237	2.374880	0.402316	0.000024
 849	8.4376e+01	8.4307	8.416715	0.000176	1.760687	0.298268	0.000018
 850	8.4475e+01	8.4430	8.440341	0.000237	2.374880	0.402316	0.000024
 851	8.4575e+01	8.4528	8.455820	0.000156	1.555956	0.263586	0.000016
 852	8.4674e+01	8.4623	8.476595	0.000209	2.088256	0.353760	0.000021
 853	8.4774e+01	8.4717	8.497369	0.000209	2.088256	0.353760	0.000021
 854	8.4874e+01	8.4825	8.517329	0.000201	2.006364	0.339887	0.000020
 855	8.4973e+01	8.4906	8.536882	0.000197	1.965418	0.332951	0.000020
 856	8.5073e+01	8.5010	8.556434	0.000197	1.965418	0.332951	0.000020
 857	8.5172e+01	8.5120	8.576801	0.000205	2.047310	0.346824	0.000020
 858	8.5272e+01	8.5223	8.593502	0.000168	1.678794	0.284395	0.000017
 859	8.5371e+01	8.5325	8.619165	0.000258	2.579611	0.436998	0.000026
 860	8.5471e+01	8.5426	8.636273	0.000172	1.719741	0.291332	0.000017
 861	8.5570e+01	8.5531	8.657048	0.000209	2.088256	0.353760	0.000021
 862	8.5669e+01	8.5617	8.675378	0.000184	1.842579	0.312141	0.000018
 863	8.5769e+01	8.5708	8.697782	0.000225	2.252041	0.381506	0.000023
 864	8.5868e+01	8.5825	8.719371	0.000217	2.170149	0.367633	0.000022
 865	8.5968e+01	8.5923	8.740960	0.000217	2.170149	0.367633	0.000022
 866	8.6067e+01	8.6021	8.762957	0.000221	2.211095	0.374570	0.000022
 867	8.6167e+01	8.6133	8.783324	0.000205	2.047310	0.346824	0.000020
 868	8.6266e+01	8.6219	8.802876	0.000197	1.965418	0.332951	0.000020
 869	8.6366e+01	8.6308	8.822836	0.000201	2.006364	0.339887	0.000020
 870	8.6466e+01	8.6420	8.839944	0.000172	1.719741	0.291332	0.000017
 871	8.6565e+01	8.6533	8.863978	0.000242	2.415826	0.409252	0.000024
 872	8.6665e+01	8.6615	8.877827	0.000139	1.392171	0.235840	0.000014
 873	8.6764e+01	8.6719	8.892492	0.000147	1.474063	0.249713	0.000015
 874	8.6864e+01	8.6816	8.911637	0.000192	1.924472	0.326014	0.000019
 875	8.6963e+01	8.6932	8.932411	0.000209	2.088256	0.353760	0.000021
 876	8.7063e+01	8.7003	8.949520	0.000172	1.719741	0.291332	0.000017
 877	8.7162e+01	8.7137	8.969072	0.000197	1.965418	0.332951	0.000020
 878	8.7261e+01	8.7223	8.986588	0.000176	1.760687	0.298268	0.000018
 879	8.7361e+01	8.7328	9.004918	0.000184	1.842579	0.312141	0.000018
 880	8.7460e+01	8.7411	9.027322	0.000225	2.252041	0.381506	0.000023
 881	8.7560e+01	8.7500	9.045652	0.000184	1.842579	0.312141	0.000018
 882	8.7659e+01	8.7604	9.062761	0.000172	1.719741	0.291332	0.000017
 883	8.7759e+01	8.7707	9.080684	0.000180	1.801633	0.305205	0.000018
 884	8.7859e+01	8.7798	9.097385	0.000168	1.678794	0.284395	0.000017
 885	8.7958e+01	8.7891	9.118974	0.000217	2.170149	0.367633	0.000022
 886	8.8058e+01	8.8010	9.133638	0.000147	1.474063	0.249713	0.000015
 887	8.8157e+01	8.8098	9.151969	0.000184	1.842579	0.312141	0.000018
 888	8.8257e+01	8.8187	9.174373	0.000225	2.252041	0.381506	0.000023
 889	8.8356e+01	8.8301	9.194332	0.000201	2.006364	0.339887	0.000020
 890	8.8456e+01	8.8404	9.210219	0.000160	1.596902	0.270523	0.000016
 891	8.8555e+01	8.8504	9.236696	0.000266	2.661503	0.450871	0.000027
 892	8.8654e+01	8.8604	9.257063	0.000205	2.047310	0.346824	0.000020
 893	8.8754e+01	8.8705	9.277023	0.000201	2.006364	0.339887	0.000020
 894	8.8853e+01	8.8810	9.301463	0.000246	2.456772	0.416188	0.000025
 895	8.8953e+01	8.8898	9.323053	0.000217	2.170149	0.367633	0.000022
 896	8.9052e+01	8.8984	9.346679	0.000237	2.374880	0.402316	0.000024
 897	8.9152e+01	8.9101	9.371934	0.000254	2.538665	0.430061	0.000025
 898	8.9251e+01	8.9188	9.392301	0.000205	2.047310	0.346824	0.000020
 899	8.9351e+01	8.9319	9.413890	0.000217	2.170149	0.367633	0.000022
 900	8.9451e+01	8.9387	9.439145	0.000254	2.538665	0.430061	0.000025
 901	8.9550e+01	8.9489	9.458290	0.000192	1.924472	0.326014	0.000019
 902	8.9650e+01	8.9600	9.485582	0.000274	2.743396	0.464744	0.000027
 903	8.9749e+01	8.9707	9.504727	0.000192	1.924472	0.326014	0.000019
 904	8.9849e+01	8.9807	9.527946	0.000233	2.333934	0.395379	0.000023
 905	8.9948e+01	8.9906	9.549535	0.000217	2.170149	0.367633	0.000022
 906	9.0047e+01	8.9991	9.573568	0.000242	2.415826	0.409252	0.000024
 907	9.0147e+01	9.0077	9.598824	0.000254	2.538665	0.430061	0.000025
 908	9.0246e+01	9.0202	9.620820	0.000221	2.211095	0.374570	0.000022
 909	9.0346e+01	9.0310	9.642002	0.000213	2.129203	0.360697	0.000021
 910	9.0445e+01	9.0417	9.666850	0.000250	2.497718	0.423125	0.000025
 911	9.0545e+01	9.0469	9.690883	0.000242	2.415826	0.409252	0.000024
 912	9.0644e+01	9.0582	9.712472	0.000217	2.170149	0.367633	0.000022
 913	9.0744e+01	9.0688	9.734061	0.000217	2.170149	0.367633	0.000022
 914	9.0844e+01	9.0791	9.756058	0.000221	2.211095	0.374570	0.000022
 915	9.0943e+01	9.0900	9.779276	0.000233	2.333934	0.395379	0.000023
 916	9.1043e+01	9.0981	9.798829	0.000197	1.965418	0.332951	0.000020
 917	9.1142e+01	9.1071	9.820825	0.000221	2.211095	0.374570	0.000022
 918	9.1242e+01	9.1201	9.840785	0.000201	2.006364	0.339887	0.000020
 919	9.1341e+01	9.1286	9.859523	0.000188	1.883525	0.319078	0.000019
 920	9.1441e+01	9.1388	9.883963	0.000246	2.456772	0.416188	0.000025
 921	9.1540e+01	9.1492	9.899850	0.000160	1.596902	0.270523	0.000016
 922	9.1639e+01	9.1568	9.922661	0.000229	2.292987	0.388443	0.000023
 923	9.1739e+01	9.1684	9.946287	0.000237	2.374880	0.402316	0.000024
 924	9.1838e+01	9.1764	9.964210	0.000180	1.801633	0.305205	0.000018
 925	9.1938e+01	9.1872	9.986614	0.000225	2.252041	0.381506	0.000023
 926	9.2037e+01	9.1982	10.009832	0.000233	2.333934	0.395379	0.000023
 927	9.2137e+01	9.2108	10.028163	0.000184	1.842579	0.312141	0.000018
 928	9.2237e+01	9.2163	10.051381	0.000233	2.333934	0.395379	0.000023
 929	9.2336e+01	9.2310	10.068082	0.000168	1.678794	0.284395	0.000017
 930	9.2436e+01	9.2397	10.092523	0.000246	2.456772	0.416188	0.000025
 931	9.2535e+01	9.2493	10.112075	0.000197	1.965418	0.332951	0.000020
 932	9.2635e+01	9.2596	10.132035	0.000201	2.006364	0.339887	0.000020
 933	9.2734e+01	9.2676	10.152809	0.000209	2.088256	0.353760	0.000021
 934	9.2834e+01	9.2798	10.176843	0.000242	2.415826	0.409252	0.000024
 935	9.2933e+01	9.2879	10.194358	0.000176	1.760687	0.298268	0.000018
 936	9.3032e+01	9.2976	10.214725	0.000205	2.047310	0.346824	0.000020
 937	9.3132e+01	9.3079	10.235907	0.000213	2.129203	0.360697	0.000021
 938	9.3231e+01	9.3188	10.254238	0.000184	1.842579	0.312141	0.000018
 939	9.3331e+01	9.3288	10.279086	0.000250	2.497718	0.423125	0.000025
 940	9.3430e+01	9.3388	10.301082	0.000221	2.211095	0.374570	0.000022
 941	9.3530e+01	9.3476	10.319413	0.000184	1.842579	0.312141	0.000018
 942	9.3629e+01	9.3585	10.341002	0.000217	2.170149	0.367633	0.000022
 943	9.3729e+01	9.3661	10.361776	0.000209	2.088256	0.353760	0.000021
 944	9.3829e+01	9.3757	10.382143	0.000205	2.047310	0.346824	0.000020
 945	9.3928e+01	9.3891	10.403732	0.000217	2.170149	0.367633	0.000022
 946	9.4028e+01	9.3954	10.421656	0.000180	1.801633	0.305205	0.000018
 947	9.4127e+01	9.4086	10.442430	0.000209	2.088256	0.353760	0.000021
 948	9.4227e+01	9.4172	10.459538	0.000172	1.719741	0.291332	0.000017
 949	9.4326e+01	9.4265	10.476647	0.000172	1.719741	0.291332	0.000017
 950	9.4425e+01	9.4379	10.501902	0.000254	2.538665	0.430061	0.000025
 951	9.4525e+01	9.4476	10.521862	0.000201	2.006364	0.339887	0.000020
 952	9.4624e+01	9.4580	10.542636	0.000209	2.088256	0.353760	0.000021
 953	9.4724e+01	9.4678	10.562596	0.000201	2.006364	0.339887	0.000020
 954	9.4823e+01	9.4770	10.582556	0.000201	2.006364	0.339887	0.000020
 955	9.4923e+01	9.4862	10.606589	0.000242	2.415826	0.409252	0.000024
 956	9.5022e+01	9.4977	10.629808	0.000233	2.333934	0.395379	0.000023
 957	9.5122e+01	9.5068	10.650989	0.000213	2.129203	0.360697	0.000021
 958	9.5222e+01	9.5179	10.672171	0.000213	2.129203	0.360697	0.000021
 959	9.5321e+01	9.5267	10.695797	0.000237	2.374880	0.402316	0.000024
 960	9.5421e+01	9.5380	10.716164	0.000205	2.047310	0.346824	0.000020
 961	9.5520e+01	9.5474	10.738568	0.000225	2.252041	0.381506	0.000023
 962	9.5620e+01	9.5569	10.756491	0.000180	1.801633	0.305205	0.000018
 963	9.5719e+01	9.5654	10.778488	0.000221	2.211095	0.374570	0.000022
 964	9.5819e+01	9.5752	10.798447	0.000201	2.006364	0.339887	0.000020
 965	9.5918e+01	9.5874	10.822481	0.000242	2.415826	0.409252	0.000024
 966	9.6017e+01	9.5966	10.844884	0.000225	2.252041	0.381506	0.000023
 967	9.6117e+01	9.6060	10.868918	0.000242	2.415826	0.409252	0.000024
 968	9.6216e+01	9.6155	10.888063	0.000192	1.924472	0.326014	0.000019
 969	9.6316e+01	9.6256	10.909245	0.000213	2.129203	0.360697	0.000021
 970	9.6415e+01	9.6339	10.932870	0.000237	2.374880	0.402316	0.000024
 971	9.6515e+01	9.6452	10.952830	0.000201	2.006364	0.339887	0.000020
 972	9.6615e+01	9.6552	10.974419	0.000217	2.170149	0.367633	0.000022
 973	9.6714e+01	9.6656	10.991935	0.000176	1.760687	0.298268	0.000018
 974	9.6814e+01	9.6747	11.012710	0.000209	2.088256	0.353760	0.000021
 975	9.6913e+01	9.6875	11.031855	0.000192	1.924472	0.326014	0.000019
 976	9.7013e+01	9.6973	11.049778	0.000180	1.801633	0.305205	0.000018
 977	9.7112e+01	9.7054	11.068108	0.000184	1.842579	0.312141	0.000018
 978	9.7212e+01	9.7157	11.084402	0.000164	1.637848	0.277459	0.000016
 979	9.7311e+01	9.7254	11.102325	0.000180	1.801633	0.305205	0.000018
 980	9.7410e+01	9.7367	11.117397	0.000152	1.515010	0.256650	0.000015
 981	9.7510e+01	9.7453	11.139393	0.000221	2.211095	0.374570	0.000022
 982	9.7609e+01	9.7553	11.153650	0.000143	1.433117	0.242777	0.000014
 983	9.7709e+01	9.7638	11.174017	0.000205	2.047310	0.346824	0.000020
 984	9.7808e+01	9.7743	11.190718	0.000168	1.678794	0.284395	0.000017
 985	9.7908e+01	9.7858	11.208234	0.000176	1.760687	0.298268	0.000018
 986	9.8007e+01	9.7938	11.226972	0.000188	1.883525	0.319078	0.000019
 987	9.8107e+01	9.8065	11.242858	0.000160	1.596902	0.270523	0.000016
 988	9.8207e+01	9.8183	11.263633	0.000209	2.088256	0.353760	0.000021
 989	9.8306e+01	9.8254	11.277482	0.000139	1.392171	0.235840	0.000014
 990	9.8406e+01	9.8335	11.292554	0.000152	1.515010	0.256650	0.000015
 991	9.8505e+01	9.8450	11.308848	0.000164	1.637848	0.277459	0.000016
 992	9.8605e+01	9.8549	11.328400	0.000197	1.965418	0.332951	0.000020
 993	9.8704e+01	9.8658	11.345916	0.000176	1.760687	0.298268	0.000018
 994	9.8803e+01	9.8743	11.358136	0.000123	1.228386	0.208094	0.000012
 995	9.8903e+01	9.8866	11.377281	0.000192	1.924472	0.326014	0.000019
 996	9.9002e+01	9.8941	11.398870	0.000217	2.170149	0.367633	0.000022
 997	9.9102e+01	9.9042	11.412313	0.000135	1.351225	0.228904	0.000014
 998	9.9201e+01	9.9154	11.433087	0.000209	2.088256	0.353760	0.000021
 999	9.9301e+01	9.9255	11.451825	0.000188	1.883525	0.319078	0.000019
1000	9.9400e+01	9.9343	11.470155	0.000184	1.842579	0.312141	0.000018
1001	9.9500e+01	9.9445	11.489708	0.000197	1.965418	0.332951	0.000020
1002	9.9600e+01	9.9561	11.512112	0.000225	2.252041	0.381506	0.000023
1003	9.9699e+01	9.9646	11.530849	0.000188	1.883525	0.319078	0.000019
1004	9.9799e+01	9.9740	11.547143	0.000164	1.637848	0.277459	0.000016
1005	9.9898e+01	9.9835	11.567510	0.000205	2.047310	0.346824	0.000020
1006	9.9998e+01	9.9931	11.585841	0.000184	1.842579	0.312141	0.000018
1007	1.0010e+02	9.9841	11.571584	0.000143	1.433117	0.242777	-0.000014
1008	1.0020e+02	9.9747	11.558141	0.000135	1.351225	0.228904	-0.000014
1009	1.0030e+02	9.9640	11.543884	0.000143	1.433117	0.242777	-0.000014
1010	1.0040e+02	9.9536	11.528405	0.000156	1.555956	0.263586	-0.000016
1011	1.0050e+02	9.9463	11.515370	0.000131	1.310279	0.221967	-0.000013
1012	1.0059e+02	9.9332	11.501928	0.000135	1.351225	0.228904	-0.000014
1013	1.0069e+02	9.9232	11.486856	0.000152	1.515010	0.256650	-0.000015
1014	1.0079e+02	9.9134	11.470563	0.000164	1.637848	0.277459	-0.000016
1015	1.0089e+02	9.9051	11.457935	0.000127	1.269332	0.215031	-0.000013
1016	1.0099e+02	9.8950	11.447751	0.000102	1.023655	0.173412	-0.000010
1017	1.0109e+02	9.8847	11.428199	0.000197	1.965418	0.332951	-0.000020
1018	1.0119e+02	9.8750	11.418015	0.000102	1.023655	0.173412	-0.000010
1019	1.0129e+02	9.8657	11.400500	0.000176	1.760687	0.298268	-0.000018
1020	1.0139e+02	9.8560	11.387465	0.000131	1.310279	0.221967	-0.000013
1021	1.0149e+02	9.8452	11.369134	0.000184	1.842579	0.312141	-0.000018
1022	1.0159e+02	9.8343	11.359765	0.000094	0.941763	0.159539	-0.000009
1023	1.0169e+02	9.8261	11.341842	0.000180	1.801633	0.305205	-0.000018
1024	1.0179e+02	9.8127	11.325141	0.000168	1.678794	0.284395	-0.000017
1025	1.0189e+02	9.8060	11.309255	0.000160	1.596902	0.270523	-0.000016
1026	1.0199e+02	9.7970	11.293776	0.000156	1.555956	0.263586	-0.000016
1027	1.0209e+02	9.7839	11.281148	0.000127	1.269332	0.215031	-0.000013
1028	1.0219e+02	9.7754	11.265669	0.000156	1.555956	0.263586	-0.000016
1029	1.0229e+02	9.7669	11.250190	0.000156	1.555956	0.263586	-0.000016
1030	1.0239e+02	9.7559	11.236341	0.000139	1.392171	0.235840	-0.000014
1031	1.0248e+02	9.7437	11.222084	0.000143	1.433117	0.242777	-0.000014
1032	1.0258e+02	9.7372	11.206197	0.000160	1.596902	0.270523	-0.000016
1033	1.0268e+02	9.7268	11.193570	0.000127	1.269332	0.215031	-0.000013
1034	1.0278e+02	9.7150	11.179720	0.000139	1.392171	0.235840	-0.000014
1035	1.0288e+02	9.7047	11.166278	0.000135	1.351225	0.228904	-0.000014
1036	1.0298e+02	9.6931	11.145503	0.000209	2.088256	0.353760	-0.000021
1037	1.0308e+02	9.6862	11.130432	0.000152	1.515010	0.256650	-0.000015
1038	1.0318e+02	9.6762	11.113731	0.000168	1.678794	0.284395	-0.000017
1039	1.0328e+02	9.6668	11.094585	0.000192	1.924472	0.326014	-0.000019
1040	1.0338e+02	9.6571	11.078292	0.000164	1.637848	0.277459	-0.000016
1041	1.0348e+02	9.6466	11.059961	0.000184	1.842579	0.312141	-0.000018
1042	1.0358e+02	9.6350	11.042038	0.000180	1.801633	0.305205	-0.000018
1043	1.0368e+02	9.6241	11.022893	0.000192	1.924472	0.326014	-0.000019
1044	1.0378e+02	9.6144	11.009858	0.000131	1.310279	0.221967	-0.000013
1045	1.0388e+02	9.6053	10.992342	0.000176	1.760687	0.298268	-0.000018
1046	1.0398e+02	9.5952	10.970346	0.000221	2.211095	0.374570	-0.000022
1047	1.0408e+02	9.5872	10.957718	0.000127	1.269332	0.215031	-0.000013
1048	1.0418e+02	9.5745	10.939795	0.000180	1.801633	0.305205	-0.000018
1049	1.0428e+02	9.5648	10.922280	0.000176	1.760687	0.298268	-0.000018
1050	1.0438e+02	9.5557	10.905986	0.000164	1.637848	0.277459	-0.000016
1051	1.0447e+02	9.5464	10.883989	0.000221	2.211095	0.374570	-0.000022
1052	1.0457e+02	9.5365	10.869325	0.000147	1.474063	0.249713	-0.000015
1053	1.0467e+02	9.5289	10.851809	0.000176	1.760687	0.298268	-0.000018
1054	1.0477e+02	9.5151	10.831442	0.000205	2.047310	0.346824	-0.000020
1055	1.0487e+02	9.5032	10.817185	0.000143	1.433117	0.242777	-0.000014
1056	1.0497e+02	9.4985	10.802521	0.000147	1.474063	0.249713	-0.000015
1057	1.0507e+02	9.4874	10.785412	0.000172	1.719741	0.291332	-0.000017
1058	1.0517e+02	9.4765	10.767897	0.000176	1.760687	0.298268	-0.000018
1059	1.0527e+02	9.4657	10.749566	0.000184	1.842579	0.312141	-0.000018
1060	1.0537e+02	9.4561	10.738568	0.000111	1.105548	0.187285	-0.000011
1061	1.0547e+02	9.4466	10.726755	0.000119	1.187440	0.201158	-0.000012
1062	1.0557e+02	9.4385	10.713720	0.000131	1.310279	0.221967	-0.000013
1063	1.0567e+02	9.4287	10.698648	0.000152	1.515010	0.256650	-0.000015
1064	1.0577e+02	9.4165	10.683169	0.000156	1.555956	0.263586	-0.000016
1065	1.0587e+02	9.4077	10.672579	0.000106	1.064601	0.180348	-0.000011
1066	1.0597e+02	9.3970	10.658729	0.000139	1.392171	0.235840	-0.000014
1067	1.0607e+02	9.3888	10.646101	0.000127	1.269332	0.215031	-0.000013
1068	1.0617e+02	9.3787	10.629400	0.000168	1.678794	0.284395	-0.000017
1069	1.0627e+02	9.3646	10.617995	0.000115	1.146494	0.194221	-0.000011
1070	1.0637e+02	9.3557	10.603330	0.000147	1.474063	0.249713	-0.000015
1071	1.0647e+02	9.3468	10.590703	0.000127	1.269332	0.215031	-0.000013
1072	1.0656e+02	9.3382	10.576446	0.000143	1.433117	0.242777	-0.000014
1073	1.0666e+02	9.3281	10.562189	0.000143	1.433117	0.242777	-0.000014
1074	1.0676e+02	9.3188	10.549561	0.000127	1.269332	0.215031	-0.000013
1075	1.0686e+02	9.3085	10.539378	0.000102	1.023655	0.173412	-0.000010
1076	1.0696e+02	9.2987	10.525121	0.000143	1.433117	0.242777	-0.000014
1077	1.0706e+02	9.2871	10.508012	0.000172	1.719741	0.291332	-0.000017
1078	1.0716e+02	9.2789	10.497421	0.000106	1.064601	0.180348	-0.000011
1079	1.0726e+02	9.2683	10.480720	0.000168	1.678794	0.284395	-0.000017
1080	1.0736e+02	9.2585	10.469315	0.000115	1.146494	0.194221	-0.000011
1081	1.0746e+02	9.2442	10.452614	0.000168	1.678794	0.284395	-0.000017
1082	1.0756e+02	9.2399	10.435505	0.000172	1.719741	0.291332	-0.000017
1083	1.0766e+02	9.2287	10.422470	0.000131	1.310279	0.221967	-0.000013
1084	1.0776e+02	9.2178	10.403732	0.000188	1.883525	0.319078	-0.000019
1085	1.0786e+02	9.2108	10.391512	0.000123	1.228386	0.208094	-0.000012
1086	1.0796e+02	9.1980	10.371960	0.000197	1.965418	0.332951	-0.000020
1087	1.0806e+02	9.1876	10.361369	0.000106	1.064601	0.180348	-0.000011
1088	1.0816e+02	9.1781	10.343446	0.000180	1.801633	0.305205	-0.000018
1089	1.0826e+02	9.1685	10.325523	0.000180	1.801633	0.305205	-0.000018
1090	1.0836e+02	9.1592	10.309636	0.000160	1.596902	0.270523	-0.000016
1091	1.0845e+02	9.1496	10.292528	0.000172	1.719741	0.291332	-0.000017
1092	1.0855e+02	9.1373	10.282344	0.000102	1.023655	0.173412	-0.000010
1093	1.0865e+02	9.1270	10.264829	0.000176	1.760687	0.298268	-0.000018
1094	1.0875e+02	9.1190	10.245276	0.000197	1.965418	0.332951	-0.000020
1095	1.0885e+02	9.1101	10.232649	0.000127	1.269332	0.215031	-0.000013
1096	1.0895e+02	9.1007	10.217984	0.000147	1.474063	0.249713	-0.000015
1097	1.0905e+02	9.0897	10.200876	0.000172	1.719741	0.291332	-0.000017
1098	1.0915e+02	9.0810	10.184582	0.000164	1.637848	0.277459	-0.000016
1099	1.0925e+02	9.0696	10.167881	0.000168	1.678794	0.284395	-0.000017
1100	1.0935e+02	9.0613	10.152402	0.000156	1.555956	0.263586	-0.000016
1101	1.0945e+02	9.0479	10.134072	0.000184	1.842579	0.312141	-0.000018
1102	1.0955e+02	9.0394	10.120222	0.000139	1.392171	0.235840	-0.000014
1103	1.0965e+02	9.0296	10.101892	0.000184	1.842579	0.312141	-0.000018
1104	1.0975e+02	9.0193	10.085191	0.000168	1.678794	0.284395	-0.000017
1105	1.0985e+02	9.0104	10.068897	0.000164	1.637848	0.277459	-0.000016
1106	1.0995e+02	8.9998	10.056269	0.000127	1.269332	0.215031	-0.000013
1107	1.1005e+02	8.9917	10.039568	0.000168	1.678794	0.284395	-0.000017
1108	1.1015e+02	8.9795	10.022460	0.000172	1.719741	0.291332	-0.000017
1109	1.1025e+02	8.9688	10.006981	0.000156	1.555956	0.263586	-0.000016
1110	1.1035e+02	8.9600	9.991094	0.000160	1.596902	0.270523	-0.000016
1111	1.1044e+02	8.9507	9.974801	0.000164	1.637848	0.277459	-0.000016
1112	1.1054e+02	8.9423	9.957692	0.000172	1.719741	0.291332	-0.000017
1113	1.1064e+02	8.9286	9.939362	0.000184	1.842579	0.312141	-0.000018
1114	1.1074e+02	8.9190	9.919809	0.000197	1.965418	0.332951	-0.000020
1115	1.1084e+02	8.9087	9.902294	0.000176	1.760687	0.298268	-0.000018
1116	1.1094e+02	8.9008	9.886000	0.000164	1.637848	0.277459	-0.000016
1117	1.1104e+02	8.8892	9.872558	0.000135	1.351225	0.228904	-0.000014
1118	1.1114e+02	8.8788	9.853413	0.000192	1.924472	0.326014	-0.000019
1119	1.1124e+02	8.8685	9.834675	0.000188	1.883525	0.319078	-0.000019
1120	1.1134e+02	8.8599	9.820011	0.000147	1.474063	0.249713	-0.000015
1121	1.1144e+02	8.8478	9.806161	0.000139	1.392171	0.235840	-0.000014
1122	1.1154e+02	8.8391	9.789867	0.000164	1.637848	0.277459	-0.000016
1123	1.1164e+02	8.8309	9.777240	0.000127	1.269332	0.215031	-0.000013
1124	1.1174e+02	8.8215	9.759317	0.000180	1.801633	0.305205	-0.000018
1125	1.1184e+02	8.8135	9.744652	0.000147	1.474063	0.249713	-0.000015
1126	1.1194e+02	8.8023	9.730803	0.000139	1.392171	0.235840	-0.000014
1127	1.1204e+02	8.7915	9.717768	0.000131	1.310279	0.221967	-0.000013
1128	1.1214e+02	8.7800	9.697808	0.000201	2.006364	0.339887	-0.000020
1129	1.1224e+02	8.7712	9.681107	0.000168	1.678794	0.284395	-0.000017
1130	1.1234e+02	8.7603	9.666442	0.000147	1.474063	0.249713	-0.000015
1131	1.1244e+02	8.7537	9.650556	0.000160	1.596902	0.270523	-0.000016
1132	1.1253e+02	8.7408	9.635077	0.000156	1.555956	0.263586	-0.000016
1133	1.1263e+02	8.7325	9.625301	0.000098	0.982709	0.166475	-0.000010
1134	1.1273e+02	8.7213	9.605341	0.000201	2.006364	0.339887	-0.000020
1135	1.1283e+02	8.7135	9.590269	0.000152	1.515010	0.256650	-0.000015
1136	1.1293e+02	8.7020	9.576012	0.000143	1.433117	0.242777	-0.000014
1137	1.1303e+02	8.6916	9.561755	0.000143	1.433117	0.242777	-0.000014
1138	1.1313e+02	8.6806	9.543832	0.000180	1.801633	0.305205	-0.000018
1139	1.1323e+02	8.6719	9.527946	0.000160	1.596902	0.270523	-0.000016
1140	1.1333e+02	8.6621	9.508801	0.000192	1.924472	0.326014	-0.000019
1141	1.1343e+02	8.6496	9.492100	0.000168	1.678794	0.284395	-0.000017
1142	1.1353e+02	8.6405	9.473362	0.000188	1.883525	0.319078	-0.000019
1143	1.1363e+02	8.6341	9.455846	0.000176	1.760687	0.298268	-0.000018
1144	1.1373e+02	8.6216	9.435887	0.000201	2.006364	0.339887	-0.000020
1145	1.1383e+02	8.6118	9.414297	0.000217	2.170149	0.367633	-0.000022
1146	1.1393e+02	8.5999	9.396374	0.000180	1.801633	0.305205	-0.000018
1147	1.1403e+02	8.5919	9.374378	0.000221	2.211095	0.374570	-0.000022
1148	1.1413e+02	8.5821	9.356455	0.000180	1.801633	0.305205	-0.000018
1149	1.1423e+02	8.5734	9.333644	0.000229	2.292987	0.388443	-0.000023
1150	1.1433e+02	8.5627	9.316128	0.000176	1.760687	0.298268	-0.000018
1151	1.1442e+02	8.5510	9.299019	0.000172	1.719741	0.291332	-0.000017
1152	1.1452e+02	8.5429	9.278652	0.000205	2.047310	0.346824	-0.000020
1153	1.1462e+02	8.5325	9.257470	0.000213	2.129203	0.360697	-0.000021
1154	1.1472e+02	8.5214	9.237918	0.000197	1.965418	0.332951	-0.000020
1155	1.1482e+02	8.5133	9.217144	0.000209	2.088256	0.353760	-0.000021
1156	1.1492e+02	8.5059	9.194332	0.000229	2.292987	0.388443	-0.000023
1157	1.1502e+02	8.4915	9.178039	0.000164	1.637848	0.277459	-0.000016
1158	1.1512e+02	8.4827	9.154413	0.000237	2.374880	0.402316	-0.000024
1159	1.1522e+02	8.4737	9.133231	0.000213	2.129203	0.360697	-0.000021
1160	1.1532e+02	8.4641	9.110420	0.000229	2.292987	0.388443	-0.000023
1161	1.1542e+02	8.4534	9.094941	0.000156	1.555956	0.263586	-0.000016
1162	1.1552e+02	8.4426	9.073352	0.000217	2.170149	0.367633	-0.000022
1163	1.1562e+02	8.4344	9.055021	0.000184	1.842579	0.312141	-0.000018
1164	1.1572e+02	8.4220	9.035469	0.000197	1.965418	0.332951	-0.000020
1165	1.1582e+02	8.4126	9.012658	0.000229	2.292987	0.388443	-0.000023
1166	1.1592e+02	8.4071	8.996364	0.000164	1.637848	0.277459	-0.000016
1167	1.1602e+02	8.3936	8.980478	0.000160	1.596902	0.270523	-0.000016
1168	1.1612e+02	8.3839	8.958888	0.000217	2.170149	0.367633	-0.000022
1169	1.1622e+02	8.3710	8.941373	0.000176	1.760687	0.298268	-0.000018
1170	1.1632e+02	8.3636	8.923857	0.000176	1.760687	0.298268	-0.000018
1171	1.1642e+02	8.3548	8.906749	0.000172	1.719741	0.291332	-0.000017
1172	1.1651e+02	8.3431	8.888011	0.000188	1.883525	0.319078	-0.000019
1173	1.1661e+02	8.3323	8.866014	0.000221	2.211095	0.374570	-0.000022
1174	1.1671e+02	8.3261	8.850128	0.000160	1.596902	0.270523	-0.000016
1175	1.1681e+02	8.3147	8.826502	0.000237	2.374880	0.402316	-0.000024
1176	1.1691e+02	8.3035	8.810616	0.000160	1.596902	0.270523	-0.000016
1177	1.1701e+02	8.2937	8.789841	0.000209	2.088256	0.353760	-0.000021
1178	1.1711e+02	8.2837	8.769067	0.000209	2.088256	0.353760	-0.000021
1179	1.1721e+02	8.2715	8.748292	0.000209	2.088256	0.353760	-0.000021
1180	1.1731e+02	8.2645	8.733628	0.000147	1.474063	0.249713	-0.000015
1181	1.1741e+02	8.2530	8.713668	0.000201	2.006364	0.339887	-0.000020
1182	1.1751e+02	8.2433	8.695338	0.000184	1.842579	0.312141	-0.000018
1183	1.1761e+02	8.2339	8.680266	0.000152	1.515010	0.256650	-0.000015
1184	1.1771e+02	8.2240	8.658677	0.000217	2.170149	0.367633	-0.000022
1185	1.1781e+02	8.2123	8.640347	0.000184	1.842579	0.312141	-0.000018
1186	1.1791e+02	8.2023	8.619979	0.000205	2.047310	0.346824	-0.000020
1187	1.1801e+02	8.1934	8.605722	0.000143	1.433117	0.242777	-0.000014
1188	1.1811e+02	8.1803	8.584133	0.000217	2.170149	0.367633	-0.000022
1189	1.1821e+02	8.1732	8.568247	0.000160	1.596902	0.270523	-0.000016
1190	1.1831e+02	8.1643	8.546658	0.000217	2.170149	0.367633	-0.000022
1191	1.1841e+02	8.1547	8.527513	0.000192	1.924472	0.326014	-0.000019
1192	1.1850e+02	8.1455	8.508368	0.000192	1.924472	0.326014	-0.000019
1193	1.1860e+02	8.1374	8.490852	0.000176	1.760687	0.298268	-0.000018
1194	1.1870e+02	8.1259	8.472929	0.000180	1.801633	0.305205	-0.000018
1195	1.1880e+02	8.1139	8.455006	0.000180	1.801633	0.305205	-0.000018
1196	1.1890e+02	8.1062	8.436675	0.000184	1.842579	0.312141	-0.000018
1197	1.1900e+02	8.0939	8.419160	0.000176	1.760687	0.298268	-0.000018
1198	1.1910e+02	8.0834	8.401236	0.000180	1.801633	0.305205	-0.000018
1199	1.1920e+02	8.0756	8.381684	0.000197	1.965418	0.332951	-0.000020
1200	1.1930e+02	8.0640	8.366612	0.000152	1.515010	0.256650	-0.000015
1201	1.1940e+02	8.0553	8.349097	0.000176	1.760687	0.298268	-0.000018
1202	1.1950e+02	8.0444	8.329137	0.000201	2.006364	0.339887	-0.000020
1203	1.1960e+02	8.0357	8.308770	0.000205	2.047310	0.346824	-0.000020
1204	1.1970e+02	8.0240	8.290032	0.000188	1.883525	0.319078	-0.000019
1205	1.1980e+02	8.0150	8.271702	0.000184	1.842579	0.312141	-0.000018
1206	1.1990e+02	8.0063	8.249705	0.000221	2.211095	0.374570	-0.000022
1207	1.2000e+02	7.9961	8.227709	0.000221	2.211095	0.374570	-0.000022
1208	1.2010e+02	7.9845	8.208971	0.000188	1.883525	0.319078	-0.000019
1209	1.2020e+02	7.9764	8.185752	0.000233	2.333934	0.395379	-0.000023
1210	1.2030e+02	7.9656	8.167829	0.000180	1.801633	0.305205	-0.000018
1211	1.2039e+02	7.9563	8.147869	0.000201	2.006364	0.339887	-0.000020
1212	1.2049e+02	7.9443	8.128724	0.000192	1.924472	0.326014	-0.000019
1213	1.2059e+02	7.9358	8.108765	0.000201	2.006364	0.339887	-0.000020
1214	1.2069e+02	7.9263	8.092471	0.000164	1.637848	0.277459	-0.000016
1215	1.2079e+02	7.9161	8.069660	0.000229	2.292987	0.388443	-0.000023
1216	1.2089e+02	7.9030	8.048885	0.000209	2.088256	0.353760	-0.000021
1217	1.2099e+02	7.8963	8.028111	0.000209	2.088256	0.353760	-0.000021
1218	1.2109e+02	7.8857	8.005299	0.000229	2.292987	0.388443	-0.000023
1219	1.2119e+02	7.8781	7.985747	0.000197	1.965418	0.332951	-0.000020
1220	1.2129e+02	7.8662	7.964158	0.000217	2.170149	0.367633	-0.000022
1221	1.2139e+02	7.8567	7.944605	0.000197	1.965418	0.332951	-0.000020
1222	1.2149e+02	7.8445	7.925460	0.000192	1.924472	0.326014	-0.000019
1223	1.2159e+02	7.8340	7.908759	0.000168	1.678794	0.284395	-0.000017
1224	1.2169e+02	7.8256	7.887170	0.000217	2.170149	0.367633	-0.000022
1225	1.2179e+02	7.8165	7.872098	0.000152	1.515010	0.256650	-0.000015
1226	1.2189e+02	7.8076	7.849287	0.000229	2.292987	0.388443	-0.000023
1227	1.2199e+02	7.7957	7.834623	0.000147	1.474063	0.249713	-0.000015
1228	1.2209e+02	7.7866	7.817107	0.000176	1.760687	0.298268	-0.000018
1229	1.2219e+02	7.7771	7.803258	0.000139	1.392171	0.235840	-0.000014
1230	1.2229e+02	7.7676	7.788186	0.000152	1.515010	0.256650	-0.000015
1231	1.2239e+02	7.7554	7.768226	0.000201	2.006364	0.339887	-0.000020
1232	1.2248e+02	7.7451	7.754376	0.000139	1.392171	0.235840	-0.000014
1233	1.2258e+02	7.7357	7.736453	0.000180	1.801633	0.305205	-0.000018
1234	1.2268e+02	7.7265	7.720974	0.000156	1.555956	0.263586	-0.000016
1235	1.2278e+02	7.7162	7.704273	0.000168	1.678794	0.284395	-0.000017
1236	1.2288e+02	7.7055	7.685943	0.000184	1.842579	0.312141	-0.000018
1237	1.2298e+02	7.6953	7.672501	0.000135	1.351225	0.228904	-0.000014
1238	1.2308e+02	7.6910	7.653763	0.000188	1.883525	0.319078	-0.000019
1239	1.2318e+02	7.6762	7.640728	0.000131	1.310279	0.221967	-0.000013
1240	1.2328e+02	7.6677	7.626471	0.000143	1.433117	0.242777	-0.000014
1241	1.2338e+02	7.6573	7.608141	0.000184	1.842579	0.312141	-0.000018
1242	1.2348e+02	7.6461	7.594291	0.000139	1.392171	0.235840	-0.000014
1243	1.2358e+02	7.6369	7.579219	0.000152	1.515010	0.256650	-0.000015
1244	1.2368e+02	7.6245	7.564148	0.000152	1.515010	0.256650	-0.000015
1245	1.2378e+02	7.6163	7.543780	0.000205	2.047310	0.346824	-0.000020
1246	1.2388e+02	7.6080	7.530338	0.000135	1.351225	0.228904	-0.000014
1247	1.2398e+02	7.5961	7.511193	0.000192	1.924472	0.326014	-0.000019
1248	1.2408e+02	7.5860	7.495307	0.000160	1.596902	0.270523	-0.000016
1249	1.2418e+02	7.5747	7.477384	0.000180	1.801633	0.305205	-0.000018
1250	1.2428e+02	7.5719	7.459460	0.000180	1.801633	0.305205	-0.000018
1251	1.2438e+02	7.5590	7.441945	0.000176	1.760687	0.298268	-0.000018
1252	1.2447e+02	7.5455	7.421578	0.000205	2.047310	0.346824	-0.000020
1253	1.2457e+02	7.5381	7.404062	0.000176	1.760687	0.298268	-0.000018
1254	1.2467e+02	7.5263	7.387768	0.000164	1.637848	0.277459	-0.000016
1255	1.2477e+02	7.5195	7.371882	0.000160	1.596902	0.270523	-0.000016
1256	1.2487e+02	7.5069	7.351922	0.000201	2.006364	0.339887	-0.000020
1257	1.2497e+02	7.4969	7.331148	0.000209	2.088256	0.353760	-0.000021
1258	1.2507e+02	7.4899	7.314039	0.000172	1.719741	0.291332	-0.000017
1259	1.2517e+02	7.4780	7.298560	0.000156	1.555956	0.263586	-0.000016
1260	1.2527e+02	7.4683	7.279822	0.000188	1.883525	0.319078	-0.000019
1261	1.2537e+02	7.4574	7.263936	0.000160	1.596902	0.270523	-0.000016
1262	1.2547e+02	7.4506	7.241940	0.000221	2.211095	0.374570	-0.000022
1263	1.2557e+02	7.4389	7.224831	0.000172	1.719741	0.291332	-0.000017
1264	1.2567e+02	7.4268	7.206093	0.000188	1.883525	0.319078	-0.000019
1265	1.2577e+02	7.4180	7.191022	0.000152	1.515010	0.256650	-0.000015
1266	1.2587e+02	7.4082	7.172284	0.000188	1.883525	0.319078	-0.000019
1267	1.2597e+02	7.3991	7.152324	0.000201	2.006364	0.339887	-0.000020
1268	1.2607e+02	7.3870	7.133179	0.000192	1.924472	0.326014	-0.000019
1269	1.2617e+02	7.3769	7.115663	0.000176	1.760687	0.298268	-0.000018
1270	1.2627e+02	7.3687	7.094889	0.000209	2.088256	0.353760	-0.000021
1271	1.2636e+02	7.3568	7.080225	0.000147	1.474063	0.249713	-0.000015
1272	1.2646e+02	7.3470	7.058635	0.000217	2.170149	0.367633	-0.000022
1273	1.2656e+02	7.3380	7.041527	0.000172	1.719741	0.291332	-0.000017
1274	1.2666e+02	7.3293	7.021567	0.000201	2.006364	0.339887	-0.000020
1275	1.2676e+02	7.3186	7.004052	0.000176	1.760687	0.298268	-0.000018
1276	1.2686e+02	7.3073	6.984092	0.000201	2.006364	0.339887	-0.000020
1277	1.2696e+02	7.2979	6.965354	0.000188	1.883525	0.319078	-0.000019
1278	1.2706e+02	7.2869	6.947838	0.000176	1.760687	0.298268	-0.000018
1279	1.2716e+02	7.2771	6.928286	0.000197	1.965418	0.332951	-0.000020
1280	1.2726e+02	7.2705	6.906289	0.000221	2.211095	0.374570	-0.000022
1281	1.2736e+02	7.2594	6.888774	0.000176	1.760687	0.298268	-0.000018
1282	1.2746e+02	7.2497	6.873295	0.000156	1.555956	0.263586	-0.000016
1283	1.2756e+02	7.2397	6.852113	0.000213	2.129203	0.360697	-0.000021
1284	1.2766e+02	7.2292	6.828080	0.000242	2.415826	0.409252	-0.000024
1285	1.2776e+02	7.2217	6.813823	0.000143	1.433117	0.242777	-0.000014
1286	1.2786e+02	7.2083	6.793455	0.000205	2.047310	0.346824	-0.000020
1287	1.2796e+02	7.1997	6.776754	0.000168	1.678794	0.284395	-0.000017
1288	1.2806e+02	7.1890	6.759646	0.000172	1.719741	0.291332	-0.000017
1289	1.2816e+02	7.1798	6.741723	0.000180	1.801633	0.305205	-0.000018
1290	1.2826e+02	7.1706	6.725022	0.000168	1.678794	0.284395	-0.000017
1291	1.2835e+02	7.1602	6.709135	0.000160	1.596902	0.270523	-0.000016
1292	1.2845e+02	7.1515	6.689990	0.000192	1.924472	0.326014	-0.000019
1293	1.2855e+02	7.1413	6.672067	0.000180	1.801633	0.305205	-0.000018
1294	1.2865e+02	7.1306	6.654959	0.000172	1.719741	0.291332	-0.000017
1295	1.2875e+02	7.1217	6.634592	0.000205	2.047310	0.346824	-0.000020
1296	1.2885e+02	7.1101	6.619520	0.000152	1.515010	0.256650	-0.000015
1297	1.2895e+02	7.1005	6.598338	0.000213	2.129203	0.360697	-0.000021
1298	1.2905e+02	7.0904	6.587340	0.000111	1.105548	0.187285	-0.000011
1299	1.2915e+02	7.0808	6.566158	0.000213	2.129203	0.360697	-0.000021
1300	1.2925e+02	7.0719	6.545384	0.000209	2.088256	0.353760	-0.000021
1301	1.2935e+02	7.0592	6.529905	0.000156	1.555956	0.263586	-0.000016
1302	1.2945e+02	7.0520	6.514833	0.000152	1.515010	0.256650	-0.000015
1303	1.2955e+02	7.0412	6.498539	0.000164	1.637848	0.277459	-0.000016
1304	1.2965e+02	7.0298	6.479394	0.000192	1.924472	0.326014	-0.000019
1305	1.2975e+02	7.0226	6.460657	0.000188	1.883525	0.319078	-0.000019
1306	1.2985e+02	7.0097	6.440289	0.000205	2.047310	0.346824	-0.000020
1307	1.2995e+02	6.9996	6.421959	0.000184	1.842579	0.312141	-0.000018
1308	1.3005e+02	6.9892	6.404851	0.000172	1.719741	0.291332	-0.000017
1309	1.3015e+02	6.9810	6.385706	0.000192	1.924472	0.326014	-0.000019
1310	1.3025e+02	6.9704	6.365746	0.000201	2.006364	0.339887	-0.000020
1311	1.3034e+02	6.9616	6.342120	0.000237	2.374880	0.402316	-0.000024
1312	1.3044e+02	6.9519	6.319309	0.000229	2.292987	0.388443	-0.000023
1313	1.3054e+02	6.9396	6.298127	0.000213	2.129203	0.360697	-0.000021
1314	1.3064e+02	6.9324	6.278574	0.000197	1.965418	0.332951	-0.000020
1315	1.3074e+02	6.9196	6.255763	0.000229	2.292987	0.388443	-0.000023
1316	1.3084e+02	6.9106	6.234174	0.000217	2.170149	0.367633	-0.000022
1317	1.3094e+02	6.9021	6.210141	0.000242	2.415826	0.409252	-0.000024
1318	1.3104e+02	6.8911	6.190181	0.000201	2.006364	0.339887	-0.000020
1319	1.3114e+02	6.8809	6.166963	0.000233	2.333934	0.395379	-0.000023
1320	1.3124e+02	6.8688	6.145781	0.000213	2.129203	0.360697	-0.000021
1321	1.3134e+02	6.8597	6.123377	0.000225	2.252041	0.381506	-0.000023
1322	1.3144e+02	6.8517	6.100973	0.000225	2.252041	0.381506	-0.000023
1323	1.3154e+02	6.8404	6.078162	0.000229	2.292987	0.388443	-0.000023
1324	1.3164e+02	6.8323	6.058609	0.000197	1.965418	0.332951	-0.000020
1325	1.3174e+02	6.8214	6.034169	0.000246	2.456772	0.416188	-0.000025
1326	1.3184e+02	6.8108	6.010543	0.000237	2.374880	0.402316	-0.000024
1327	1.3194e+02	6.8022	5.985695	0.000250	2.497718	0.423125	-0.000025
1328	1.3204e+02	6.7913	5.968994	0.000168	1.678794	0.284395	-0.000017
1329	1.3214e+02	6.7809	5.943331	0.000258	2.579611	0.436998	-0.000026
1330	1.3224e+02	6.7712	5.921742	0.000217	2.170149	0.367633	-0.000022
1331	1.3234e+02	6.7599	5.902190	0.000197	1.965418	0.332951	-0.000020
1332	1.3243e+02	6.7517	5.882230	0.000201	2.006364	0.339887	-0.000020
1333	1.3253e+02	6.7426	5.861863	0.000205	2.047310	0.346824	-0.000020
1334	1.3263e+02	6.7294	5.837830	0.000242	2.415826	0.409252	-0.000024
1335	1.3273e+02	6.7223	5.817463	0.000205	2.047310	0.346824	-0.000020
1336	1.3283e+02	6.7118	5.798725	0.000188	1.883525	0.319078	-0.000019
1337	1.3293e+02	6.7013	5.778358	0.000205	2.047310	0.346824	-0.000020
1338	1.3303e+02	6.6914	5.755954	0.000225	2.252041	0.381506	-0.000023
1339	1.3313e+02	6.6836	5.735587	0.000205	2.047310	0.346824	-0.000020
1340	1.3323e+02	6.6710	5.716034	0.000197	1.965418	0.332951	-0.000020
1341	1.3333e+02	6.6609	5.694038	0.000221	2.211095	0.374570	-0.000022
1342	1.3343e+02	6.6510	5.669597	0.000246	2.456772	0.416188	-0.000025
1343	1.3353e+02	6.6393	5.650452	0.000192	1.924472	0.326014	-0.000019
1344	1.3363e+02	6.6301	5.627234	0.000233	2.333934	0.395379	-0.000023
1345	1.3373e+02	6.6253	5.609311	0.000180	1.801633	0.305205	-0.000018
1346	1.3383e+02	6.6124	5.589758	0.000197	1.965418	0.332951	-0.000020
1347	1.3393e+02	6.6030	5.567354	0.000225	2.252041	0.381506	-0.000023
1348	1.3403e+02	6.5906	5.547395	0.000201	2.006364	0.339887	-0.000020
1349	1.3413e+02	6.5852	5.525805	0.000217	2.170149	0.367633	-0.000022
1350	1.3423e+02	6.5733	5.505438	0.000205	2.047310	0.346824	-0.000020
1351	1.3432e+02	6.5629	5.485886	0.000197	1.965418	0.332951	-0.000020
1352	1.3442e+02	6.5543	5.463075	0.000229	2.292987	0.388443	-0.000023
1353	1.3452e+02	6.5403	5.440671	0.000225	2.252041	0.381506	-0.000023
1354	1.3462e+02	6.5337	5.427228	0.000135	1.351225	0.228904	-0.000014
1355	1.3472e+02	6.5264	5.403195	0.000242	2.415826	0.409252	-0.000024
1356	1.3482e+02	6.5124	5.381606	0.000217	2.170149	0.367633	-0.000022
1357	1.3492e+02	6.5023	5.360424	0.000213	2.129203	0.360697	-0.000021
1358	1.3502e+02	6.4912	5.342501	0.000180	1.801633	0.305205	-0.000018
1359	1.3512e+02	6.4834	5.318468	0.000242	2.415826	0.409252	-0.000024
1360	1.3522e+02	6.4724	5.300952	0.000176	1.760687	0.298268	-0.000018
1361	1.3532e+02	6.4619	5.282215	0.000188	1.883525	0.319078	-0.000019
1362	1.3542e+02	6.4519	5.256959	0.000254	2.538665	0.430061	-0.000025
1363	1.3552e+02	6.4422	5.239036	0.000180	1.801633	0.305205	-0.000018
1364	1.3562e+02	6.4336	5.218262	0.000209	2.088256	0.353760	-0.000021
1365	1.3572e+02	6.4216	5.203190	0.000152	1.515010	0.256650	-0.000015
1366	1.3582e+02	6.4134	5.180786	0.000225	2.252041	0.381506	-0.000023
1367	1.3592e+02	6.4046	5.160826	0.000201	2.006364	0.339887	-0.000020
1368	1.3602e+02	6.3918	5.140052	0.000209	2.088256	0.353760	-0.000021
1369	1.3612e+02	6.3802	5.120092	0.000201	2.006364	0.339887	-0.000020
1370	1.3622e+02	6.3717	5.100947	0.000192	1.924472	0.326014	-0.000019
1371	1.3631e+02	6.3622	5.083431	0.000176	1.760687	0.298268	-0.000018
1372	1.3641e+02	6.3528	5.058176	0.000254	2.538665	0.430061	-0.000025
1373	1.3651e+02	6.3438	5.034143	0.000242	2.415826	0.409252	-0.000024
1374	1.3661e+02	6.3317	5.012961	0.000213	2.129203	0.360697	-0.000021
1375	1.3671e+02	6.3248	4.989335	0.000237	2.374880	0.402316	-0.000024
1376	1.3681e+02	6.3155	4.968561	0.000209	2.088256	0.353760	-0.000021
1377	1.3691e+02	6.3013	4.945342	0.000233	2.333934	0.395379	-0.000023
1378	1.3701e+02	6.2981	4.923753	0.000217	2.170149	0.367633	-0.000022
1379	1.3711e+02	6.2861	4.902164	0.000217	2.170149	0.367633	-0.000022
1380	1.3721e+02	6.2717	4.881389	0.000209	2.088256	0.353760	-0.000021
1381	1.3731e+02	6.2664	4.862244	0.000192	1.924472	0.326014	-0.000019
1382	1.3741e+02	6.2543	4.839026	0.000233	2.333934	0.395379	-0.000023
1383	1.3751e+02	6.2441	4.814993	0.000242	2.415826	0.409252	-0.000024
1384	1.3761e+02	6.2341	4.792181	0.000229	2.292987	0.388443	-0.000023
1385	1.3771e+02	6.2229	4.770185	0.000221	2.211095	0.374570	-0.000022
1386	1.3781e+02	6.2185	4.748596	0.000217	2.170149	0.367633	-0.000022
1387	1.3791e+02	6.2048	4.726192	0.000225	2.252041	0.381506	-0.000023
1388	1.3801e+02	6.1932	4.702973	0.000233	2.333934	0.395379	-0.000023
1389	1.3811e+02	6.1852	4.682606	0.000205	2.047310	0.346824	-0.000020
1390	1.3821e+02	6.1739	4.659795	0.000229	2.292987	0.388443	-0.000023
1391	1.3831e+02	6.1672	4.639428	0.000205	2.047310	0.346824	-0.000020
1392	1.3840e+02	6.1543	4.619468	0.000201	2.006364	0.339887	-0.000020
1393	1.3850e+02	6.1452	4.599916	0.000197	1.965418	0.332951	-0.000020
1394	1.3860e+02	6.1358	4.580363	0.000197	1.965418	0.332951	-0.000020
1395	1.3870e+02	6.1256	4.559182	0.000213	2.129203	0.360697	-0.000021
1396	1.3880e+02	6.1145	4.539222	0.000201	2.006364	0.339887	-0.000020
1397	1.3890e+02	6.1075	4.524150	0.000152	1.515010	0.256650	-0.000015
1398	1.3900e+02	6.0944	4.508264	0.000160	1.596902	0.270523	-0.000016
1399	1.3910e+02	6.0860	4.488304	0.000201	2.006364	0.339887	-0.000020
1400	1.3920e+02	6.0726	4.471196	0.000172	1.719741	0.291332	-0.000017
1401	1.3930e+02	6.0680	4.452458	0.000188	1.883525	0.319078	-0.000019
1402	1.3940e+02	6.0574	4.433313	0.000192	1.924472	0.326014	-0.000019
1403	1.3950e+02	6.0453	4.414982	0.000184	1.842579	0.312141	-0.000018
1404	1.3960e+02	6.0355	4.396652	0.000184	1.842579	0.312141	-0.000018
1405	1.3970e+02	6.0244	4.379136	0.000176	1.760687	0.298268	-0.000018
1406	1.3980e+02	6.0166	4.360806	0.000184	1.842579	0.312141	-0.000018
1407	1.3990e+02	6.0046	4.342883	0.000180	1.801633	0.305205	-0.000018
1408	1.4000e+02	5.9974	4.325367	0.000176	1.760687	0.298268	-0.000018
1409	1.4010e+02	5.9865	4.307036	0.000184	1.842579	0.312141	-0.000018
1410	1.4020e+02	5.9797	4.290743	0.000164	1.637848	0.277459	-0.000016
1411	1.4029e+02	5.9687	4.270783	0.000201	2.006364	0.339887	-0.000020
1412	1.4039e+02	5.9547	4.255304	0.000156	1.555956	0.263586	-0.000016
1413	1.4049e+02	5.9463	4.239825	0.000156	1.555956	0.263586	-0.000016
1414	1.4059e+02	5.9354	4.217421	0.000225	2.252041	0.381506	-0.000023
1415	1.4069e+02	5.9278	4.201127	0.000164	1.637848	0.277459	-0.000016
1416	1.4079e+02	5.9156	4.180760	0.000205	2.047310	0.346824	-0.000020
1417	1.4089e+02	5.9063	4.162837	0.000180	1.801633	0.305205	-0.000018
1418	1.4099e+02	5.8955	4.139211	0.000237	2.374880	0.402316	-0.000024
1419	1.4109e+02	5.8857	4.119659	0.000197	1.965418	0.332951	-0.000020
1420	1.4119e+02	5.8749	4.099699	0.000201	2.006364	0.339887	-0.000020
1421	1.4129e+02	5.8680	4.082183	0.000176	1.760687	0.298268	-0.000018
1422	1.4139e+02	5.8564	4.059372	0.000229	2.292987	0.388443	-0.000023
1423	1.4149e+02	5.8479	4.039412	0.000201	2.006364	0.339887	-0.000020
1424	1.4159e+02	5.8385	4.021082	0.000184	1.842579	0.312141	-0.000018
1425	1.4169e+02	5.8260	4.001122	0.000201	2.006364	0.339887	-0.000020
1426	1.4179e+02	5.8150	3.981570	0.000197	1.965418	0.332951	-0.000020
1427	1.4189e+02	5.8062	3.962832	0.000188	1.883525	0.319078	-0.000019
1428	1.4199e+02	5.7981	3.942058	0.000209	2.088256	0.353760	-0.000021
1429	1.4209e+02	5.7870	3.923320	0.000188	1.883525	0.319078	-0.000019
1430	1.4219e+02	5.7770	3.907841	0.000156	1.555956	0.263586	-0.000016
1431	1.4228e+02	5.7673	3.882586	0.000254	2.538665	0.430061	-0.000025
1432	1.4238e+02	5.7565	3.859774	0.000229	2.292987	0.388443	-0.000023
1433	1.4248e+02	5.7494	3.842666	0.000172	1.719741	0.291332	-0.000017
1434	1.4258e+02	5.7394	3.820669	0.000221	2.211095	0.374570	-0.000022
1435	1.4268e+02	5.7262	3.803561	0.000172	1.719741	0.291332	-0.000017
1436	1.4278e+02	5.7154	3.781157	0.000225	2.252041	0.381506	-0.000023
1437	1.4288e+02	5.7049	3.757531	0.000237	2.374880	0.402316	-0.000024
1438	1.4298e+02	5.6962	3.740016	0.000176	1.760687	0.298268	-0.000018
1439	1.4308e+02	5.6878	3.719241	0.000209	2.088256	0.353760	-0.000021
1440	1.4318e+02	5.6777	3.698059	0.000213	2.129203	0.360697	-0.000021
1441	1.4328e+02	5.6681	3.678100	0.000201	2.006364	0.339887	-0.000020
1442	1.4338e+02	5.6567	3.661399	0.000168	1.678794	0.284395	-0.000017
1443	1.4348e+02	5.6472	3.638995	0.000225	2.252041	0.381506	-0.000023
1444	1.4358e+02	5.6390	3.619850	0.000192	1.924472	0.326014	-0.000019
1445	1.4368e+02	5.6274	3.597446	0.000225	2.252041	0.381506	-0.000023
1446	1.4378e+02	5.6170	3.575857	0.000217	2.170149	0.367633	-0.000022
1447	1.4388e+02	5.6068	3.559156	0.000168	1.678794	0.284395	-0.000017
1448	1.4398e+02	5.5958	3.536344	0.000229	2.292987	0.388443	-0.000023
1449	1.4408e+02	5.5883	3.512311	0.000242	2.415826	0.409252	-0.000024
1450	1.4418e+02	5.5779	3.493981	0.000184	1.842579	0.312141	-0.000018
1451	1.4428e+02	5.5686	3.473206	0.000209	2.088256	0.353760	-0.000021
1452	1.4437e+02	5.5578	3.451210	0.000221	2.211095	0.374570	-0.000022
1453	1.4447e+02	5.5496	3.429621	0.000217	2.170149	0.367633	-0.000022
1454	1.4457e+02	5.5386	3.411698	0.000180	1.801633	0.305205	-0.000018
1455	1.4467e+02	5.5279	3.387664	0.000242	2.415826	0.409252	-0.000024
1456	1.4477e+02	5.5187	3.372185	0.000156	1.555956	0.263586	-0.000016
1457	1.4487e+02	5.5079	3.350189	0.000221	2.211095	0.374570	-0.000022
1458	1.4497e+02	5.4967	3.333488	0.000168	1.678794	0.284395	-0.000017
1459	1.4507e+02	5.4894	3.311491	0.000221	2.211095	0.374570	-0.000022
1460	1.4517e+02	5.4810	3.295198	0.000164	1.637848	0.277459	-0.000016
1461	1.4527e+02	5.4688	3.272794	0.000225	2.252041	0.381506	-0.000023
1462	1.4537e+02	5.4557	3.256093	0.000168	1.678794	0.284395	-0.000017
1463	1.4547e+02	5.4485	3.234911	0.000213	2.129203	0.360697	-0.000021
1464	1.4557e+02	5.4365	3.214136	0.000209	2.088256	0.353760	-0.000021
1465	1.4567e+02	5.4292	3.192547	0.000217	2.170149	0.367633	-0.000022
1466	1.4577e+02	5.4174	3.174217	0.000184	1.842579	0.312141	-0.000018
1467	1.4587e+02	5.4081	3.155479	0.000188	1.883525	0.319078	-0.000019
1468	1.4597e+02	5.3971	3.137963	0.000176	1.760687	0.298268	-0.000018
1469	1.4607e+02	5.3902	3.115560	0.000225	2.252041	0.381506	-0.000023
1470	1.4617e+02	5.3785	3.099673	0.000160	1.596902	0.270523	-0.000016
1471	1.4626e+02	5.3689	3.079306	0.000205	2.047310	0.346824	-0.000020
1472	1.4636e+02	5.3577	3.061383	0.000180	1.801633	0.305205	-0.000018
1473	1.4646e+02	5.3487	3.038572	0.000229	2.292987	0.388443	-0.000023
1474	1.4656e+02	5.3381	3.017797	0.000209	2.088256	0.353760	-0.000021
1475	1.4666e+02	5.3300	2.997838	0.000201	2.006364	0.339887	-0.000020
1476	1.4676e+02	5.3199	2.977063	0.000209	2.088256	0.353760	-0.000021
1477	1.4686e+02	5.3092	2.954252	0.000229	2.292987	0.388443	-0.000023
1478	1.4696e+02	5.2979	2.933070	0.000213	2.129203	0.360697	-0.000021
1479	1.4706e+02	5.2923	2.909444	0.000237	2.374880	0.402316	-0.000024
1480	1.4716e+02	5.2773	2.884189	0.000254	2.538665	0.430061	-0.000025
1481	1.4726e+02	5.2692	2.860563	0.000237	2.374880	0.402316	-0.000024
1482	1.4736e+02	5.2599	2.832049	0.000287	2.866234	0.485553	-0.000029
1483	1.4746e+02	5.2479	2.813719	0.000184	1.842579	0.312141	-0.000018
1484	1.4756e+02	5.2401	2.787649	0.000262	2.620557	0.443934	-0.000026
1485	1.4766e+02	5.2307	2.764838	0.000229	2.292987	0.388443	-0.000023
1486	1.4776e+02	5.2203	2.743248	0.000217	2.170149	0.367633	-0.000022
1487	1.4786e+02	5.2120	2.717586	0.000258	2.579611	0.436998	-0.000026
1488	1.4796e+02	5.1995	2.695182	0.000225	2.252041	0.381506	-0.000023
1489	1.4806e+02	5.1907	2.673593	0.000217	2.170149	0.367633	-0.000022
1490	1.4816e+02	5.1781	2.648745	0.000250	2.497718	0.423125	-0.000025
1491	1.4825e+02	5.1715	2.622268	0.000266	2.661503	0.450871	-0.000027
1492	1.4835e+02	5.1604	2.595790	0.000266	2.661503	0.450871	-0.000027
1493	1.4845e+02	5.1528	2.570128	0.000258	2.579611	0.436998	-0.000026
1494	1.4855e+02	5.1384	2.549761	0.000205	2.047310	0.346824	-0.000020
1495	1.4865e+02	5.1283	2.522469	0.000274	2.743396	0.464744	-0.000027
1496	1.4875e+02	5.1208	2.496806	0.000258	2.579611	0.436998	-0.000026
1497	1.4885e+02	5.1093	2.475624	0.000213	2.129203	0.360697	-0.000021
1498	1.4895e+02	5.0985	2.452813	0.000229	2.292987	0.388443	-0.000023
1499	1.4905e+02	5.0899	2.430409	0.000225	2.252041	0.381506	-0.000023
1500	1.4915e+02	5.0806	2.405969	0.000246	2.456772	0.416188	-0.000025
1501	1.4925e+02	5.0681	2.383565	0.000225	2.252041	0.381506	-0.000023
1502	1.4935e+02	5.0595	2.360754	0.000229	2.292987	0.388443	-0.000023
1503	1.4945e+02	5.0519	2.337128	0.000237	2.374880	0.402316	-0.000024
1504	1.4955e+02	5.0409	2.313095	0.000242	2.415826	0.409252	-0.000024
1505	1.4965e+02	5.0301	2.293950	0.000192	1.924472	0.326014	-0.000019
1506	1.4975e+02	5.0228	2.273175	0.000209	2.088256	0.353760	-0.000021
1507	1.4985e+02	5.0111	2.251179	0.000221	2.211095	0.374570	-0.000022
1508	1.4995e+02	5.0008	2.223887	0.000274	2.743396	0.464744	-0.000027
1509	1.5005e+02	4.9914	2.204742	0.000192	1.924472	0.326014	-0.000019
1510	1.5015e+02	4.9799	2.180301	0.000246	2.456772	0.416188	-0.000025
1511	1.5025e+02	4.9709	2.156675	0.000237	2.374880	0.402316	-0.000024
1512	1.5034e+02	4.9606	2.135901	0.000209	2.088256	0.353760	-0.000021
1513	1.5044e+02	4.9518	2.112682	0.000233	2.333934	0.395379	-0.000023
1514	1.5054e+02	4.9426	2.088242	0.000246	2.456772	0.416188	-0.000025
1515	1.5064e+02	4.9281	2.064208	0.000242	2.415826	0.409252	-0.000024
1516	1.5074e+02	4.9236	2.045878	0.000184	1.842579	0.312141	-0.000018
1517	1.5084e+02	4.9099	2.023067	0.000229	2.292987	0.388443	-0.000023
1518	1.5094e+02	4.9004	1.996590	0.000266	2.661503	0.450871	-0.000027
1519	1.5104e+02	4.8935	1.975000	0.000217	2.170149	0.367633	-0.000022
1520	1.5114e+02	4.8786	1.955448	0.000197	1.965418	0.332951	-0.000020
1521	1.5124e+02	4.8740	1.930600	0.000250	2.497718	0.423125	-0.000025
1522	1.5134e+02	4.8611	1.912270	0.000184	1.842579	0.312141	-0.000018
1523	1.5144e+02	4.8540	1.886607	0.000258	2.579611	0.436998	-0.000026
1524	1.5154e+02	4.8421	1.867462	0.000192	1.924472	0.326014	-0.000019
1525	1.5164e+02	4.8316	1.841392	0.000262	2.620557	0.443934	-0.000026
1526	1.5174e+02	4.8206	1.819803	0.000217	2.170149	0.367633	-0.000022
1527	1.5184e+02	4.8122	1.795362	0.000246	2.456772	0.416188	-0.000025
1528	1.5194e+02	4.8013	1.774588	0.000209	2.088256	0.353760	-0.000021
1529	1.5204e+02	4.7931	1.752999	0.000217	2.170149	0.367633	-0.000022
1530	1.5214e+02	4.7828	1.730187	0.000229	2.292987	0.388443	-0.000023
1531	1.5224e+02	4.7724	1.710635	0.000197	1.965418	0.332951	-0.000020
1532	1.5233e+02	4.7604	1.687417	0.000233	2.333934	0.395379	-0.000023
1533	1.5243e+02	4.7527	1.666235	0.000213	2.129203	0.360697	-0.000021
1534	1.5253e+02	4.7427	1.643424	0.000229	2.292987	0.388443	-0.000023
1535	1.5263e+02	4.7314	1.623056	0.000205	2.047310	0.346824	-0.000020
1536	1.5273e+02	4.7218	1.599838	0.000233	2.333934	0.395379	-0.000023
1537	1.5283e+02	4.7103	1.579471	0.000205	2.047310	0.346824	-0.000020
1538	1.5293e+02	4.7047	1.552993	0.000266	2.661503	0.450871	-0.000027
1539	1.5303e+02	4.6939	1.530590	0.000225	2.252041	0.381506	-0.000023
1540	1.5313e+02	4.6818	1.505742	0.000250	2.497718	0.423125	-0.000025
1541	1.5323e+02	4.6719	1.484560	0.000213	2.129203	0.360697	-0.000021
1542	1.5333e+02	4.6648	1.458083	0.000266	2.661503	0.450871	-0.000027
1543	1.5343e+02	4.6517	1.436086	0.000221	2.211095	0.374570	-0.000022
1544	1.5353e+02	4.6403	1.407980	0.000283	2.825288	0.478617	-0.000028
1545	1.5363e+02	4.6317	1.386390	0.000217	2.170149	0.367633	-0.000022
1546	1.5373e+02	4.6233	1.361950	0.000246	2.456772	0.416188	-0.000025
1547	1.5383e+02	4.6133	1.338324	0.000237	2.374880	0.402316	-0.000024
1548	1.5393e+02	4.6031	1.317549	0.000209	2.088256	0.353760	-0.000021
1549	1.5403e+02	4.5925	1.293516	0.000242	2.415826	0.409252	-0.000024
1550	1.5413e+02	4.5841	1.269483	0.000242	2.415826	0.409252	-0.000024
1551	1.5422e+02	4.5727	1.243820	0.000258	2.579611	0.436998	-0.000026
1552	1.5432e+02	4.5605	1.221009	0.000229	2.292987	0.388443	-0.000023
1553	1.5442e+02	4.5518	1.194532	0.000266	2.661503	0.450871	-0.000027
1554	1.5452e+02	4.5428	1.170091	0.000246	2.456772	0.416188	-0.000025
1555	1.5462e+02	4.5334	1.148502	0.000217	2.170149	0.367633	-0.000022
1556	1.5472e+02	4.5234	1.121210	0.000274	2.743396	0.464744	-0.000027
1557	1.5482e+02	4.5133	1.095955	0.000254	2.538665	0.430061	-0.000025
1558	1.5492e+02	4.5029	1.075995	0.000201	2.006364	0.339887	-0.000020
1559	1.5502e+02	4.4949	1.049925	0.000262	2.620557	0.443934	-0.000026
1560	1.5512e+02	4.4826	1.032410	0.000176	1.760687	0.298268	-0.000018
1561	1.5522e+02	4.4740	1.008376	0.000242	2.415826	0.409252	-0.000024
1562	1.5532e+02	4.4611	0.988824	0.000197	1.965418	0.332951	-0.000020
1563	1.5542e+02	4.4544	0.968050	0.000209	2.088256	0.353760	-0.000021
1564	1.5552e+02	4.4421	0.946868	0.000213	2.129203	0.360697	-0.000021
1565	1.5562e+02	4.4334	0.924871	0.000221	2.211095	0.374570	-0.000022
1566	1.5572e+02	4.4239	0.909392	0.000156	1.555956	0.263586	-0.000016
1567	1.5582e+02	4.4147	0.886988	0.000225	2.252041	0.381506	-0.000023
1568	1.5592e+02	4.4077	0.870287	0.000168	1.678794	0.284395	-0.000017
1569	1.5602e+02	4.3945	0.845847	0.000246	2.456772	0.416188	-0.000025
1570	1.5612e+02	4.3850	0.828738	0.000172	1.719741	0.291332	-0.000017
1571	1.5622e+02	4.3744	0.810001	0.000188	1.883525	0.319078	-0.000019
1572	1.5631e+02	4.3636	0.790448	0.000197	1.965418	0.332951	-0.000020
1573	1.5641e+02	4.3533	0.769266	0.000213	2.129203	0.360697	-0.000021
1574	1.5651e+02	4.3449	0.750121	0.000192	1.924472	0.326014	-0.000019
1575	1.5661e+02	4.3327	0.727310	0.000229	2.292987	0.388443	-0.000023
1576	1.5671e+02	4.3234	0.709794	0.000176	1.760687	0.298268	-0.000018
1577	1.5681e+02	4.3121	0.689835	0.000201	2.006364	0.339887	-0.000020
1578	1.5691e+02	4.3045	0.673134	0.000168	1.678794	0.284395	-0.000017
1579	1.5701e+02	4.2953	0.653174	0.000201	2.006364	0.339887	-0.000020
1580	1.5711e+02	4.2852	0.633214	0.000201	2.006364	0.339887	-0.000020
1581	1.5721e+02	4.2732	0.610403	0.000229	2.292987	0.388443	-0.000023
1582	1.5731e+02	4.2643	0.587999	0.000225	2.252041	0.381506	-0.000023
1583	1.5741e+02	4.2543	0.569261	0.000188	1.883525	0.319078	-0.000019
1584	1.5751e+02	4.2426	0.544821	0.000246	2.456772	0.416188	-0.000025
1585	1.5761e+02	4.2348	0.528527	0.000164	1.637848	0.277459	-0.000016
1586	1.5771e+02	4.2241	0.504901	0.000237	2.374880	0.402316	-0.000024
1587	1.5781e+02	4.2160	0.481275	0.000237	2.374880	0.402316	-0.000024
1588	1.5791e+02	4.2046	0.459279	0.000221	2.211095	0.374570	-0.000022
1589	1.5801e+02	4.1962	0.432801	0.000266	2.661503	0.450871	-0.000027
1590	1.5811e+02	4.1839	0.418137	0.000147	1.474063	0.249713	-0.000015
1591	1.5821e+02	4.1766	0.392475	0.000258	2.579611	0.436998	-0.000026
1592	1.5830e+02	4.1631	0.372922	0.000197	1.965418	0.332951	-0.000020
1593	1.5840e+02	4.1550	0.355814	0.000172	1.719741	0.291332	-0.000017
1594	1.5850e+02	4.1467	0.328522	0.000274	2.743396	0.464744	-0.000027
1595	1.5860e+02	4.1338	0.308155	0.000205	2.047310	0.346824	-0.000020
1596	1.5870e+02	4.1225	0.286973	0.000213	2.129203	0.360697	-0.000021
1597	1.5880e+02	4.1146	0.264569	0.000225	2.252041	0.381506	-0.000023
1598	1.5890e+02	4.1049	0.240943	0.000237	2.374880	0.402316	-0.000024
1599	1.5900e+02	4.0949	0.218947	0.000221	2.211095	0.374570	-0.000022
1600	1.5910e+02	4.0834	0.196135	0.000229	2.292987	0.388443	-0.000023
1601	1.5920e+02	4.0739	0.175768	0.000205	2.047310	0.346824	-0.000020
1602	1.5930e+02	4.0632	0.152142	0.000237	2.374880	0.402316	-0.000024
1603	1.5940e+02	4.0557	0.132183	0.000201	2.006364	0.339887	-0.000020
1604	1.5950e+02	4.0454	0.106927	0.000254	2.538665	0.430061	-0.000025
1605	1.5960e+02	4.0361	0.084524	0.000225	2.252041	0.381506	-0.000023
1606	1.5970e+02	4.0253	0.065786	0.000188	1.883525	0.319078	-0.000019
1607	1.5980e+02	4.0116	0.040123	0.000258	2.579611	0.436998	-0.000026
1608	1.5990e+02	4.0039	0.018941	0.000213	2.129203	0.360697	-0.000021
1609	1.6000e+02	3.9936	-0.001018	0.000201	2.006364	0.339887	-0.000020
1610	1.6010e+02	3.9867	-0.025459	0.000246	2.456772	0.416188	-0.000025
1611	1.6019e+02	3.9759	-0.045419	0.000201	2.006364	0.339887	-0.000020
1612	1.6029e+02	3.9665	-0.069452	0.000242	2.415826	0.409252	-0.000024
1613	1.6039e+02	3.9557	-0.088597	0.000192	1.924472	0.326014	-0.000019
1614	1.6049e+02	3.9454	-0.116704	0.000283	2.825288	0.478617	-0.000028
1615	1.6059e+02	3.9352	-0.139922	0.000233	2.333934	0.395379	-0.000023
1616	1.6069e+02	3.9266	-0.161104	0.000213	2.129203	0.360697	-0.000021
1617	1.6079e+02	3.9159	-0.180249	0.000192	1.924472	0.326014	-0.000019
1618	1.6089e+02	3.9065	-0.209985	0.000299	2.989073	0.506363	-0.000030
1619	1.6099e+02	3.8958	-0.234426	0.000246	2.456772	0.416188	-0.000025
1620	1.6109e+02	3.8848	-0.256422	0.000221	2.211095	0.374570	-0.000022
1621	1.6119e+02	3.8763	-0.277604	0.000213	2.129203	0.360697	-0.000021
1622	1.6129e+02	3.8664	-0.298378	0.000209	2.088256	0.353760	-0.000021
1623	1.6139e+02	3.8557	-0.319560	0.000213	2.129203	0.360697	-0.000021
1624	1.6149e+02	3.8454	-0.339113	0.000197	1.965418	0.332951	-0.000020
1625	1.6159e+02	3.8371	-0.360702	0.000217	2.170149	0.367633	-0.000022
1626	1.6169e+02	3.8262	-0.383513	0.000229	2.292987	0.388443	-0.000023
1627	1.6179e+02	3.8151	-0.405102	0.000217	2.170149	0.367633	-0.000022
1628	1.6189e+02	3.8071	-0.423433	0.000184	1.842579	0.312141	-0.000018
1629	1.6199e+02	3.7978	-0.445429	0.000221	2.211095	0.374570	-0.000022
1630	1.6209e+02	3.7858	-0.467833	0.000225	2.252041	0.381506	-0.000023
1631	1.6219e+02	3.7759	-0.491866	0.000242	2.415826	0.409252	-0.000024
1632	1.6228e+02	3.7666	-0.509789	0.000180	1.801633	0.305205	-0.000018
1633	1.6238e+02	3.7579	-0.535044	0.000254	2.538665	0.430061	-0.000025
1634	1.6248e+02	3.7483	-0.557448	0.000225	2.252041	0.381506	-0.000023
1635	1.6258e+02	3.7362	-0.578630	0.000213	2.129203	0.360697	-0.000021
1636	1.6268e+02	3.7275	-0.596146	0.000176	1.760687	0.298268	-0.000018
1637	1.6278e+02	3.7172	-0.614476	0.000184	1.842579	0.312141	-0.000018
1638	1.6288e+02	3.7070	-0.642176	0.000278	2.784342	0.471680	-0.000028
1639	1.6298e+02	3.6965	-0.662135	0.000201	2.006364	0.339887	-0.000020
1640	1.6308e+02	3.6870	-0.681280	0.000192	1.924472	0.326014	-0.000019
1641	1.6318e+02	3.6755	-0.705314	0.000242	2.415826	0.409252	-0.000024
1642	1.6328e+02	3.6689	-0.725681	0.000205	2.047310	0.346824	-0.000020
1643	1.6338e+02	3.6581	-0.750121	0.000246	2.456772	0.416188	-0.000025
1644	1.6348e+02	3.6478	-0.774562	0.000246	2.456772	0.416188	-0.000025
1645	1.6358e+02	3.6371	-0.801854	0.000274	2.743396	0.464744	-0.000027
1646	1.6368e+02	3.6276	-0.822221	0.000205	2.047310	0.346824	-0.000020
1647	1.6378e+02	3.6179	-0.848291	0.000262	2.620557	0.443934	-0.000026
1648	1.6388e+02	3.6077	-0.875175	0.000270	2.702450	0.457807	-0.000027
1649	1.6398e+02	3.5971	-0.906134	0.000311	3.111912	0.527172	-0.000031
1650	1.6408e+02	3.5877	-0.926908	0.000209	2.088256	0.353760	-0.000021
1651	1.6418e+02	3.5772	-0.953385	0.000266	2.661503	0.450871	-0.000027
1652	1.6427e+02	3.5691	-0.981085	0.000278	2.784342	0.471680	-0.000028
1653	1.6437e+02	3.5561	-1.003488	0.000225	2.252041	0.381506	-0.000023
1654	1.6447e+02	3.5486	-1.029558	0.000262	2.620557	0.443934	-0.000026
1655	1.6457e+02	3.5397	-1.060109	0.000307	3.070965	0.520236	-0.000031
1656	1.6467e+02	3.5276	-1.082105	0.000221	2.211095	0.374570	-0.000022
1657	1.6477e+02	3.5185	-1.104102	0.000221	2.211095	0.374570	-0.000022
1658	1.6487e+02	3.5075	-1.133431	0.000295	2.948127	0.499426	-0.000029
1659	1.6497e+02	3.4987	-1.161537	0.000283	2.825288	0.478617	-0.000028
1660	1.6507e+02	3.4890	-1.191273	0.000299	2.989073	0.506363	-0.000030
1661	1.6517e+02	3.4807	-1.213677	0.000225	2.252041	0.381506	-0.000023
1662	1.6527e+02	3.4659	-1.243413	0.000299	2.989073	0.506363	-0.000030
1663	1.6537e+02	3.4576	-1.268261	0.000250	2.497718	0.423125	-0.000025
1664	1.6547e+02	3.4484	-1.294331	0.000262	2.620557	0.443934	-0.000026
1665	1.6557e+02	3.4402	-1.317142	0.000229	2.292987	0.388443	-0.000023
1666	1.6567e+02	3.4303	-1.344841	0.000278	2.784342	0.471680	-0.000028
1667	1.6577e+02	3.4196	-1.370097	0.000254	2.538665	0.430061	-0.000025
1668	1.6587e+02	3.4080	-1.394130	0.000242	2.415826	0.409252	-0.000024
1669	1.6597e+02	3.3999	-1.414904	0.000209	2.088256	0.353760	-0.000021
1670	1.6607e+02	3.3865	-1.443011	0.000283	2.825288	0.478617	-0.000028
1671	1.6616e+02	3.3813	-1.465822	0.000229	2.292987	0.388443	-0.000023
1672	1.6626e+02	3.3712	-1.492707	0.000270	2.702450	0.457807	-0.000027
1673	1.6636e+02	3.3569	-1.514703	0.000221	2.211095	0.374570	-0.000022
1674	1.6646e+02	3.3505	-1.535885	0.000213	2.129203	0.360697	-0.000021
1675	1.6656e+02	3.3373	-1.564806	0.000291	2.907181	0.492490	-0.000029
1676	1.6666e+02	3.3297	-1.590469	0.000258	2.579611	0.436998	-0.000026
1677	1.6676e+02	3.3202	-1.616946	0.000266	2.661503	0.450871	-0.000027
1678	1.6686e+02	3.3092	-1.638535	0.000217	2.170149	0.367633	-0.000022
1679	1.6696e+02	3.2983	-1.663791	0.000254	2.538665	0.430061	-0.000025
1680	1.6706e+02	3.2879	-1.691490	0.000278	2.784342	0.471680	-0.000028
1681	1.6716e+02	3.2800	-1.711857	0.000205	2.047310	0.346824	-0.000020
1682	1.6726e+02	3.2694	-1.736705	0.000250	2.497718	0.423125	-0.000025
1683	1.6736e+02	3.2577	-1.761553	0.000250	2.497718	0.423125	-0.000025
1684	1.6746e+02	3.2488	-1.787215	0.000258	2.579611	0.436998	-0.000026
1685	1.6756e+02	3.2394	-1.811249	0.000242	2.415826	0.409252	-0.000024
1686	1.6766e+02	3.2308	-1.835282	0.000242	2.415826	0.409252	-0.000024
1687	1.6776e+02	3.2200	-1.860130	0.000250	2.497718	0.423125	-0.000025
1688	1.6786e+02	3.2099	-1.887422	0.000274	2.743396	0.464744	-0.000027
1689	1.6796e+02	3.1985	-1.906567	0.000192	1.924472	0.326014	-0.000019
1690	1.6806e+02	3.1887	-1.933044	0.000266	2.661503	0.450871	-0.000027
1691	1.6816e+02	3.1823	-1.961151	0.000283	2.825288	0.478617	-0.000028
1692	1.6825e+02	3.1701	-1.986813	0.000258	2.579611	0.436998	-0.000026
1693	1.6835e+02	3.1605	-2.007180	0.000205	2.047310	0.346824	-0.000020
1694	1.6845e+02	3.1513	-2.032436	0.000254	2.538665	0.430061	-0.000025
1695	1.6855e+02	3.1397	-2.057284	0.000250	2.497718	0.423125	-0.000025
1696	1.6865e+02	3.1309	-2.082539	0.000254	2.538665	0.430061	-0.000025
1697	1.6875e+02	3.1180	-2.106572	0.000242	2.415826	0.409252	-0.000024
1698	1.6885e+02	3.1080	-2.131420	0.000250	2.497718	0.423125	-0.000025
1699	1.6895e+02	3.0972	-2.153416	0.000221	2.211095	0.374570	-0.000022
1700	1.6905e+02	3.0895	-2.177857	0.000246	2.456772	0.416188	-0.000025
1701	1.6915e+02	3.0809	-2.202298	0.000246	2.456772	0.416188	-0.000025
1702	1.6925e+02	3.0710	-2.223072	0.000209	2.088256	0.353760	-0.000021
1703	1.6935e+02	3.0611	-2.245883	0.000229	2.292987	0.388443	-0.000023
1704	1.6945e+02	3.0502	-2.271953	0.000262	2.620557	0.443934	-0.000026
1705	1.6955e+02	3.0407	-2.295986	0.000242	2.415826	0.409252	-0.000024
1706	1.6965e+02	3.0298	-2.323278	0.000274	2.743396	0.464744	-0.000027
1707	1.6975e+02	3.0205	-2.351792	0.000287	2.866234	0.485553	-0.000029
1708	1.6985e+02	3.0121	-2.375418	0.000237	2.374880	0.402316	-0.000024
1709	1.6995e+02	3.0010	-2.401488	0.000262	2.620557	0.443934	-0.000026
1710	1.7005e+02	2.9896	-2.428373	0.000270	2.702450	0.457807	-0.000027
1711	1.7015e+02	2.9841	-2.456887	0.000287	2.866234	0.485553	-0.000029
1712	1.7024e+02	2.9702	-2.479290	0.000225	2.252041	0.381506	-0.000023
1713	1.7034e+02	2.9603	-2.508212	0.000291	2.907181	0.492490	-0.000029
1714	1.7044e+02	2.9488	-2.532245	0.000242	2.415826	0.409252	-0.000024
1715	1.7054e+02	2.9406	-2.559537	0.000274	2.743396	0.464744	-0.000027
1716	1.7064e+02	2.9295	-2.583570	0.000242	2.415826	0.409252	-0.000024
1717	1.7074e+02	2.9235	-2.612491	0.000291	2.907181	0.492490	-0.000029
1718	1.7084e+02	2.9103	-2.634081	0.000217	2.170149	0.367633	-0.000022
1719	1.7094e+02	2.9015	-2.658114	0.000242	2.415826	0.409252	-0.000024
1720	1.7104e+02	2.8915	-2.688665	0.000307	3.070965	0.520236	-0.000031
1721	1.7114e+02	2.8832	-2.711068	0.000225	2.252041	0.381506	-0.000023
1722	1.7124e+02	2.8715	-2.740397	0.000295	2.948127	0.499426	-0.000029
1723	1.7134e+02	2.8650	-2.766874	0.000266	2.661503	0.450871	-0.000027
1724	1.7144e+02	2.8510	-2.791315	0.000246	2.456772	0.416188	-0.000025
1725	1.7154e+02	2.8427	-2.820236	0.000291	2.907181	0.492490	-0.000029
1726	1.7164e+02	2.8329	-2.842233	0.000221	2.211095	0.374570	-0.000022
1727	1.7174e+02	2.8194	-2.867081	0.000250	2.497718	0.423125	-0.000025
1728	1.7184e+02	2.8114	-2.889892	0.000229	2.292987	0.388443	-0.000023
1729	1.7194e+02	2.8013	-2.913110	0.000233	2.333934	0.395379	-0.000023
1730	1.7204e+02	2.7917	-2.939180	0.000262	2.620557	0.443934	-0.000026
1731	1.7213e+02	2.7836	-2.961177	0.000221	2.211095	0.374570	-0.000022
1732	1.7223e+02	2.7710	-2.979914	0.000188	1.883525	0.319078	-0.000019
1733	1.7233e+02	2.7619	-3.005170	0.000254	2.538665	0.430061	-0.000025
1734	1.7243e+02	2.7508	-3.025537	0.000205	2.047310	0.346824	-0.000020
1735	1.7253e+02	2.7419	-3.048755	0.000233	2.333934	0.395379	-0.000023
1736	1.7263e+02	2.7345	-3.070752	0.000221	2.211095	0.374570	-0.000022
1737	1.7273e+02	2.7215	-3.089490	0.000188	1.883525	0.319078	-0.000019
1738	1.7283e+02	2.7114	-3.113115	0.000237	2.374880	0.402316	-0.000024
1739	1.7293e+02	2.7029	-3.135519	0.000225	2.252041	0.381506	-0.000023
1740	1.7303e+02	2.6913	-3.160367	0.000250	2.497718	0.423125	-0.000025
1741	1.7313e+02	2.6822	-3.176661	0.000164	1.637848	0.277459	-0.000016
1742	1.7323e+02	2.6703	-3.199879	0.000233	2.333934	0.395379	-0.000023
1743	1.7333e+02	2.6613	-3.222283	0.000225	2.252041	0.381506	-0.000023
1744	1.7343e+02	2.6528	-3.245909	0.000237	2.374880	0.402316	-0.000024
1745	1.7353e+02	2.6418	-3.269535	0.000237	2.374880	0.402316	-0.000024
1746	1.7363e+02	2.6343	-3.288680	0.000192	1.924472	0.326014	-0.000019
1747	1.7373e+02	2.6247	-3.309047	0.000205	2.047310	0.346824	-0.000020
1748	1.7383e+02	2.6113	-3.334302	0.000254	2.538665	0.430061	-0.000025
1749	1.7393e+02	2.6026	-3.357521	0.000233	2.333934	0.395379	-0.000023
1750	1.7403e+02	2.5936	-3.379110	0.000217	2.170149	0.367633	-0.000022
1751	1.7413e+02	2.5823	-3.402329	0.000233	2.333934	0.395379	-0.000023
1752	1.7422e+02	2.5730	-3.427177	0.000250	2.497718	0.423125	-0.000025
1753	1.7432e+02	2.5637	-3.448766	0.000217	2.170149	0.367633	-0.000022
1754	1.7442e+02	2.5505	-3.472799	0.000242	2.415826	0.409252	-0.000024
1755	1.7452e+02	2.5430	-3.500498	0.000278	2.784342	0.471680	-0.000028
1756	1.7462e+02	2.5321	-3.522902	0.000225	2.252041	0.381506	-0.000023
1757	1.7472e+02	2.5234	-3.544491	0.000217	2.170149	0.367633	-0.000022
1758	1.7482e+02	2.5159	-3.568524	0.000242	2.415826	0.409252	-0.000024
1759	1.7492e+02	2.5036	-3.591743	0.000233	2.333934	0.395379	-0.000023
1760	1.7502e+02	2.4930	-3.616591	0.000250	2.497718	0.423125	-0.000025
1761	1.7512e+02	2.4831	-3.642661	0.000262	2.620557	0.443934	-0.000026
1762	1.7522e+02	2.4756	-3.665065	0.000225	2.252041	0.381506	-0.000023
1763	1.7532e+02	2.4618	-3.689505	0.000246	2.456772	0.416188	-0.000025
1764	1.7542e+02	2.4532	-3.707836	0.000184	1.842579	0.312141	-0.000018
1765	1.7552e+02	2.4438	-3.735942	0.000283	2.825288	0.478617	-0.000028
1766	1.7562e+02	2.4342	-3.759975	0.000242	2.415826	0.409252	-0.000024
1767	1.7572e+02	2.4239	-3.788082	0.000283	2.825288	0.478617	-0.000028
1768	1.7582e+02	2.4134	-3.808449	0.000205	2.047310	0.346824	-0.000020
1769	1.7592e+02	2.4006	-3.833704	0.000254	2.538665	0.430061	-0.000025
1770	1.7602e+02	2.3947	-3.858960	0.000254	2.538665	0.430061	-0.000025
1771	1.7612e+02	2.3826	-3.883808	0.000250	2.497718	0.423125	-0.000025
1772	1.7621e+02	2.3737	-3.908655	0.000250	2.497718	0.423125	-0.000025
1773	1.7631e+02	2.3628	-3.933503	0.000250	2.497718	0.423125	-0.000025
1774	1.7641e+02	2.3540	-3.951834	0.000184	1.842579	0.312141	-0.000018
1775	1.7651e+02	2.3461	-3.980755	0.000291	2.907181	0.492490	-0.000029
1776	1.7661e+02	2.3357	-4.003159	0.000225	2.252041	0.381506	-0.000023
1777	1.7671e+02	2.3238	-4.027599	0.000246	2.456772	0.416188	-0.000025
1778	1.7681e+02	2.3109	-4.052855	0.000254	2.538665	0.430061	-0.000025
1779	1.7691e+02	2.3063	-4.076888	0.000242	2.415826	0.409252	-0.000024
1780	1.7701e+02	2.2921	-4.101328	0.000246	2.456772	0.416188	-0.000025
1781	1.7711e+02	2.2813	-4.123732	0.000225	2.252041	0.381506	-0.000023
1782	1.7721e+02	2.2746	-4.154283	0.000307	3.070965	0.520236	-0.000031
1783	1.7731e+02	2.2639	-4.179131	0.000250	2.497718	0.423125	-0.000025
1784	1.7741e+02	2.2546	-4.205201	0.000262	2.620557	0.443934	-0.000026
1785	1.7751e+02	2.2439	-4.229234	0.000242	2.415826	0.409252	-0.000024
1786	1.7761e+02	2.2327	-4.257341	0.000283	2.825288	0.478617	-0.000028
1787	1.7771e+02	2.2263	-4.278522	0.000213	2.129203	0.360697	-0.000021
1788	1.7781e+02	2.2164	-4.304185	0.000258	2.579611	0.436998	-0.000026
1789	1.7791e+02	2.2069	-4.328626	0.000246	2.456772	0.416188	-0.000025
1790	1.7801e+02	2.1931	-4.350622	0.000221	2.211095	0.374570	-0.000022
1791	1.7810e+02	2.1843	-4.379136	0.000287	2.866234	0.485553	-0.000029
1792	1.7820e+02	2.1754	-4.397467	0.000184	1.842579	0.312141	-0.000018
1793	1.7830e+02	2.1629	-4.423129	0.000258	2.579611	0.436998	-0.000026
1794	1.7840e+02	2.1555	-4.446755	0.000237	2.374880	0.402316	-0.000024
1795	1.7850e+02	2.1452	-4.467937	0.000213	2.129203	0.360697	-0.000021
1796	1.7860e+02	2.1352	-4.491970	0.000242	2.415826	0.409252	-0.000024
1797	1.7870e+02	2.1253	-4.514374	0.000225	2.252041	0.381506	-0.000023
1798	1.7880e+02	2.1159	-4.541258	0.000270	2.702450	0.457807	-0.000027
1799	1.7890e+02	2.1045	-4.565699	0.000246	2.456772	0.416188	-0.000025
1800	1.7900e+02	2.0946	-4.588510	0.000229	2.292987	0.388443	-0.000023
1801	1.7910e+02	2.0840	-4.611729	0.000233	2.333934	0.395379	-0.000023
1802	1.7920e+02	2.0771	-4.635762	0.000242	2.415826	0.409252	-0.000024
1803	1.7930e+02	2.0645	-4.660202	0.000246	2.456772	0.416188	-0.000025
1804	1.7940e+02	2.0536	-4.683421	0.000233	2.333934	0.395379	-0.000023
1805	1.7950e+02	2.0436	-4.706640	0.000233	2.333934	0.395379	-0.000023
1806	1.7960e+02	2.0356	-4.728229	0.000217	2.170149	0.367633	-0.000022
1807	1.7970e+02	2.0264	-4.752262	0.000242	2.415826	0.409252	-0.000024
1808	1.7980e+02	2.0177	-4.778739	0.000266	2.661503	0.450871	-0.000027
1809	1.7990e+02	2.0041	-4.802772	0.000242	2.415826	0.409252	-0.000024
1810	1.8000e+02	1.9968	-4.824362	0.000217	2.170149	0.367633	-0.000022
1811	1.8009e+02	1.9862	-4.852468	0.000283	2.825288	0.478617	-0.000028
1812	1.8019e+02	1.9776	-4.878538	0.000262	2.620557	0.443934	-0.000026
1813	1.8029e+02	1.9664	-4.907052	0.000287	2.866234	0.485553	-0.000029
1814	1.8039e+02	1.9543	-4.929863	0.000229	2.292987	0.388443	-0.000023
1815	1.8049e+02	1.9451	-4.962858	0.000332	3.316643	0.561854	-0.000033
1816	1.8059e+02	1.9347	-4.987299	0.000246	2.456772	0.416188	-0.000025
1817	1.8069e+02	1.9253	-5.017849	0.000307	3.070965	0.520236	-0.000031
1818	1.8079e+02	1.9161	-5.045549	0.000278	2.784342	0.471680	-0.000028
1819	1.8089e+02	1.9041	-5.074470	0.000291	2.907181	0.492490	-0.000029
1820	1.8099e+02	1.8946	-5.104613	0.000303	3.030019	0.513299	-0.000030
1821	1.8109e+02	1.8844	-5.128646	0.000242	2.415826	0.409252	-0.000024
1822	1.8119e+02	1.8774	-5.158382	0.000299	2.989073	0.506363	-0.000030
1823	1.8129e+02	1.8650	-5.186489	0.000283	2.825288	0.478617	-0.000028
1824	1.8139e+02	1.8571	-5.214188	0.000278	2.784342	0.471680	-0.000028
1825	1.8149e+02	1.8482	-5.244332	0.000303	3.030019	0.513299	-0.000030
1826	1.8159e+02	1.8365	-5.273253	0.000291	2.907181	0.492490	-0.000029
1827	1.8169e+02	1.8266	-5.299730	0.000266	2.661503	0.450871	-0.000027
1828	1.8179e+02	1.8171	-5.327430	0.000278	2.784342	0.471680	-0.000028
1829	1.8189e+02	1.8067	-5.356351	0.000291	2.907181	0.492490	-0.000029
1830	1.8199e+02	1.7986	-5.386494	0.000303	3.030019	0.513299	-0.000030
1831	1.8209e+02	1.7840	-5.415823	0.000295	2.948127	0.499426	-0.000029
1832	1.8218e+02	1.7764	-5.443522	0.000278	2.784342	0.471680	-0.000028
1833	1.8228e+02	1.7631	-5.469999	0.000266	2.661503	0.450871	-0.000027
1834	1.8238e+02	1.7571	-5.499328	0.000295	2.948127	0.499426	-0.000029
1835	1.8248e+02	1.7467	-5.524176	0.000250	2.497718	0.423125	-0.000025
1836	1.8258e+02	1.7362	-5.548617	0.000246	2.456772	0.416188	-0.000025
1837	1.8268e+02	1.7279	-5.580797	0.000323	3.234750	0.547982	-0.000032
1838	1.8278e+02	1.7158	-5.605237	0.000246	2.456772	0.416188	-0.000025
1839	1.8288e+02	1.7085	-5.630492	0.000254	2.538665	0.430061	-0.000025
1840	1.8298e+02	1.6965	-5.656562	0.000262	2.620557	0.443934	-0.000026
1841	1.8308e+02	1.6849	-5.682225	0.000258	2.579611	0.436998	-0.000026
1842	1.8318e+02	1.6767	-5.713183	0.000311	3.111912	0.527172	-0.000031
1843	1.8328e+02	1.6670	-5.736401	0.000233	2.333934	0.395379	-0.000023
1844	1.8338e+02	1.6563	-5.769396	0.000332	3.316643	0.561854	-0.000033
1845	1.8348e+02	1.6449	-5.794244	0.000250	2.497718	0.423125	-0.000025
1846	1.8358e+02	1.6403	-5.821536	0.000274	2.743396	0.464744	-0.000027
1847	1.8368e+02	1.6259	-5.847199	0.000258	2.579611	0.436998	-0.000026
1848	1.8378e+02	1.6177	-5.872861	0.000258	2.579611	0.436998	-0.000026
1849	1.8388e+02	1.6072	-5.900561	0.000278	2.784342	0.471680	-0.000028
1850	1.8398e+02	1.5987	-5.931111	0.000307	3.070965	0.520236	-0.000031
1851	1.8407e+02	1.5879	-5.954330	0.000233	2.333934	0.395379	-0.000023
1852	1.8417e+02	1.5779	-5.980400	0.000262	2.620557	0.443934	-0.000026
1853	1.8427e+02	1.5670	-6.008506	0.000283	2.825288	0.478617	-0.000028
1854	1.8437e+02	1.5591	-6.031317	0.000229	2.292987	0.388443	-0.000023
1855	1.8447e+02	1.5475	-6.060646	0.000295	2.948127	0.499426	-0.000029
1856	1.8457e+02	1.5380	-6.086716	0.000262	2.620557	0.443934	-0.000026
1857	1.8467e+02	1.5292	-6.116045	0.000295	2.948127	0.499426	-0.000029
1858	1.8477e+02	1.5167	-6.142522	0.000266	2.661503	0.450871	-0.000027
1859	1.8487e+02	1.5061	-6.166555	0.000242	2.415826	0.409252	-0.000024
1860	1.8497e+02	1.5012	-6.199957	0.000336	3.357589	0.568791	-0.000034
1861	1.8507e+02	1.4894	-6.223991	0.000242	2.415826	0.409252	-0.000024
1862	1.8517e+02	1.4778	-6.250060	0.000262	2.620557	0.443934	-0.000026
1863	1.8527e+02	1.4671	-6.274501	0.000246	2.456772	0.416188	-0.000025
1864	1.8537e+02	1.4575	-6.303015	0.000287	2.866234	0.485553	-0.000029
1865	1.8547e+02	1.4467	-6.331936	0.000291	2.907181	0.492490	-0.000029
1866	1.8557e+02	1.4381	-6.357192	0.000254	2.538665	0.430061	-0.000025
1867	1.8567e+02	1.4296	-6.381225	0.000242	2.415826	0.409252	-0.000024
1868	1.8577e+02	1.4195	-6.407702	0.000266	2.661503	0.450871	-0.000027
1869	1.8587e+02	1.4074	-6.435809	0.000283	2.825288	0.478617	-0.000028
1870	1.8597e+02	1.3998	-6.459027	0.000233	2.333934	0.395379	-0.000023
1871	1.8606e+02	1.3902	-6.485097	0.000262	2.620557	0.443934	-0.000026
1872	1.8616e+02	1.3779	-6.510760	0.000258	2.579611	0.436998	-0.000026
1873	1.8626e+02	1.3681	-6.541310	0.000307	3.070965	0.520236	-0.000031
1874	1.8636e+02	1.3596	-6.571046	0.000299	2.989073	0.506363	-0.000030
1875	1.8646e+02	1.3512	-6.592636	0.000217	2.170149	0.367633	-0.000022
1876	1.8656e+02	1.3380	-6.628482	0.000360	3.603266	0.610410	-0.000036
1877	1.8666e+02	1.3282	-6.657403	0.000291	2.907181	0.492490	-0.000029
1878	1.8676e+02	1.3204	-6.685510	0.000283	2.825288	0.478617	-0.000028
1879	1.8686e+02	1.3070	-6.708728	0.000233	2.333934	0.395379	-0.000023
1880	1.8696e+02	1.2962	-6.737242	0.000287	2.866234	0.485553	-0.000029
1881	1.8706e+02	1.2883	-6.768200	0.000311	3.111912	0.527172	-0.000031
1882	1.8716e+02	1.2796	-6.795899	0.000278	2.784342	0.471680	-0.000028
1883	1.8726e+02	1.2691	-6.824821	0.000291	2.907181	0.492490	-0.000029
1884	1.8736e+02	1.2589	-6.850076	0.000254	2.538665	0.430061	-0.000025
1885	1.8746e+02	1.2510	-6.878183	0.000283	2.825288	0.478617	-0.000028
1886	1.8756e+02	1.2394	-6.904660	0.000266	2.661503	0.450871	-0.000027
1887	1.8766e+02	1.2292	-6.934396	0.000299	2.989073	0.506363	-0.000030
1888	1.8776e+02	1.2204	-6.966576	0.000323	3.234750	0.547982	-0.000032
1889	1.8786e+02	1.2101	-6.991017	0.000246	2.456772	0.416188	-0.000025
1890	1.8796e+02	1.1984	-7.021567	0.000307	3.070965	0.520236	-0.000031
1891	1.8806e+02	1.1900	-7.051303	0.000299	2.989073	0.506363	-0.000030
1892	1.8815e+02	1.1803	-7.077373	0.000262	2.620557	0.443934	-0.000026
1893	1.8825e+02	1.1678	-7.107924	0.000307	3.070965	0.520236	-0.000031
1894	1.8835e+02	1.1602	-7.131550	0.000237	2.374880	0.402316	-0.000024
1895	1.8845e+02	1.1506	-7.159249	0.000278	2.784342	0.471680	-0.000028
1896	1.8855e+02	1.1404	-7.184912	0.000258	2.579611	0.436998	-0.000026
1897	1.8865e+02	1.1288	-7.210167	0.000254	2.538665	0.430061	-0.000025
1898	1.8875e+02	1.1195	-7.235829	0.000258	2.579611	0.436998	-0.000026
1899	1.8885e+02	1.1125	-7.260677	0.000250	2.497718	0.423125	-0.000025
1900	1.8895e+02	1.1002	-7.285525	0.000250	2.497718	0.423125	-0.000025
1901	1.8905e+02	1.0905	-7.308744	0.000233	2.333934	0.395379	-0.000023
1902	1.8915e+02	1.0793	-7.331555	0.000229	2.292987	0.388443	-0.000023
1903	1.8925e+02	1.0680	-7.354366	0.000229	2.292987	0.388443	-0.000023
1904	1.8935e+02	1.0595	-7.382065	0.000278	2.784342	0.471680	-0.000028
1905	1.8945e+02	1.0477	-7.406506	0.000246	2.456772	0.416188	-0.000025
1906	1.8955e+02	1.0415	-7.428910	0.000225	2.252041	0.381506	-0.000023
1907	1.8965e+02	1.0304	-7.456202	0.000274	2.743396	0.464744	-0.000027
1908	1.8975e+02	1.0207	-7.485123	0.000291	2.907181	0.492490	-0.000029
1909	1.8985e+02	1.0075	-7.506712	0.000217	2.170149	0.367633	-0.000022
1910	1.8995e+02	0.9998	-7.531153	0.000246	2.456772	0.416188	-0.000025
1911	1.9004e+02	0.9905	-7.551520	0.000205	2.047310	0.346824	-0.000020
1912	1.9014e+02	0.9808	-7.572294	0.000209	2.088256	0.353760	-0.000021
1913	1.9024e+02	0.9692	-7.601623	0.000295	2.948127	0.499426	-0.000029
1914	1.9034e+02	0.9657	-7.622805	0.000213	2.129203	0.360697	-0.000021
1915	1.9044e+02	0.9503	-7.646431	0.000237	2.374880	0.402316	-0.000024
1916	1.9054e+02	0.9427	-7.674537	0.000283	2.825288	0.478617	-0.000028
1917	1.9064e+02	0.9315	-7.700200	0.000258	2.579611	0.436998	-0.000026
1918	1.9074e+02	0.9212	-7.726270	0.000262	2.620557	0.443934	-0.000026
1919	1.9084e+02	0.9082	-7.752747	0.000266	2.661503	0.450871	-0.000027
1920	1.9094e+02	0.9015	-7.776780	0.000242	2.415826	0.409252	-0.000024
1921	1.9104e+02	0.8916	-7.802036	0.000254	2.538665	0.430061	-0.000025
1922	1.9114e+02	0.8826	-7.831772	0.000299	2.989073	0.506363	-0.000030
1923	1.9124e+02	0.8713	-7.857434	0.000258	2.579611	0.436998	-0.000026
1924	1.9134e+02	0.8614	-7.884726	0.000274	2.743396	0.464744	-0.000027
1925	1.9144e+02	0.8504	-7.908352	0.000237	2.374880	0.402316	-0.000024
1926	1.9154e+02	0.8409	-7.932793	0.000246	2.456772	0.416188	-0.000025
1927	1.9164e+02	0.8321	-7.963751	0.000311	3.111912	0.527172	-0.000031
1928	1.9174e+02	0.8204	-7.989820	0.000262	2.620557	0.443934	-0.000026
1929	1.9184e+02	0.8115	-8.012632	0.000229	2.292987	0.388443	-0.000023
1930	1.9194e+02	0.8035	-8.042775	0.000303	3.030019	0.513299	-0.000030
1931	1.9203e+02	0.7906	-8.067216	0.000246	2.456772	0.416188	-0.000025
1932	1.9213e+02	0.7818	-8.091656	0.000246	2.456772	0.416188	-0.000025
1933	1.9223e+02	0.7696	-8.120170	0.000287	2.866234	0.485553	-0.000029
1934	1.9233e+02	0.7635	-8.143796	0.000237	2.374880	0.402316	-0.000024
1935	1.9243e+02	0.7518	-8.176383	0.000328	3.275696	0.554918	-0.000033
1936	1.9253e+02	0.7394	-8.200824	0.000246	2.456772	0.416188	-0.000025
1937	1.9263e+02	0.7330	-8.228523	0.000278	2.784342	0.471680	-0.000028
1938	1.9273e+02	0.7268	-8.252964	0.000246	2.456772	0.416188	-0.000025
1939	1.9283e+02	0.7121	-8.282292	0.000295	2.948127	0.499426	-0.000029
1940	1.9293e+02	0.7034	-8.310399	0.000283	2.825288	0.478617	-0.000028
1941	1.9303e+02	0.6924	-8.332396	0.000221	2.211095	0.374570	-0.000022
1942	1.9313e+02	0.6839	-8.365798	0.000336	3.357589	0.568791	-0.000034
1943	1.9323e+02	0.6711	-8.386979	0.000213	2.129203	0.360697	-0.000021
1944	1.9333e+02	0.6615	-8.413457	0.000266	2.661503	0.450871	-0.000027
1945	1.9343e+02	0.6508	-8.439527	0.000262	2.620557	0.443934	-0.000026
1946	1.9353e+02	0.6435	-8.467226	0.000278	2.784342	0.471680	-0.000028
1947	1.9363e+02	0.6332	-8.493296	0.000262	2.620557	0.443934	-0.000026
1948	1.9373e+02	0.6203	-8.521403	0.000283	2.825288	0.478617	-0.000028
1949	1.9383e+02	0.6127	-8.549916	0.000287	2.866234	0.485553	-0.000029
1950	1.9393e+02	0.6046	-8.579245	0.000295	2.948127	0.499426	-0.000029
1951	1.9403e+02	0.5918	-8.607759	0.000287	2.866234	0.485553	-0.000029
1952	1.9412e+02	0.5826	-8.633829	0.000262	2.620557	0.443934	-0.000026
1953	1.9422e+02	0.5730	-8.663972	0.000303	3.030019	0.513299	-0.000030
1954	1.9432e+02	0.5650	-8.689228	0.000254	2.538665	0.430061	-0.000025
1955	1.9442e+02	0.5515	-8.720186	0.000311	3.111912	0.527172	-0.000031
1956	1.9452e+02	0.5416	-8.745441	0.000254	2.538665	0.430061	-0.000025
1957	1.9462e+02	0.5340	-8.771103	0.000258	2.579611	0.436998	-0.000026
1958	1.9472e+02	0.5238	-8.795951	0.000250	2.497718	0.423125	-0.000025
1959	1.9482e+02	0.5135	-8.821207	0.000254	2.538665	0.430061	-0.000025
1960	1.9492e+02	0.5028	-8.849313	0.000283	2.825288	0.478617	-0.000028
1961	1.9502e+02	0.4935	-8.872532	0.000233	2.333934	0.395379	-0.000023
1962	1.9512e+02	0.4871	-8.903082	0.000307	3.070965	0.520236	-0.000031
1963	1.9522e+02	0.4746	-8.925894	0.000229	2.292987	0.388443	-0.000023
1964	1.9532e+02	0.4632	-8.954815	0.000291	2.907181	0.492490	-0.000029
1965	1.9542e+02	0.4522	-8.978441	0.000237	2.374880	0.402316	-0.000024
1966	1.9552e+02	0.4428	-9.005733	0.000274	2.743396	0.464744	-0.000027
1967	1.9562e+02	0.4330	-9.029359	0.000237	2.374880	0.402316	-0.000024
1968	1.9572e+02	0.4212	-9.059502	0.000303	3.030019	0.513299	-0.000030
1969	1.9582e+02	0.4128	-9.082313	0.000229	2.292987	0.388443	-0.000023
1970	1.9592e+02	0.4004	-9.108790	0.000266	2.661503	0.450871	-0.000027
1971	1.9601e+02	0.3941	-9.138526	0.000299	2.989073	0.506363	-0.000030
1972	1.9611e+02	0.3840	-9.161338	0.000229	2.292987	0.388443	-0.000023
1973	1.9621e+02	0.3749	-9.191074	0.000299	2.989073	0.506363	-0.000030
1974	1.9631e+02	0.3642	-9.214700	0.000237	2.374880	0.402316	-0.000024
1975	1.9641e+02	0.3556	-9.240362	0.000258	2.579611	0.436998	-0.000026
1976	1.9651e+02	0.3434	-9.269691	0.000295	2.948127	0.499426	-0.000029
1977	1.9661e+02	0.3349	-9.294946	0.000254	2.538665	0.430061	-0.000025
1978	1.9671e+02	0.3252	-9.326311	0.000315	3.152858	0.534109	-0.000032
1979	1.9681e+02	0.3137	-9.355640	0.000295	2.948127	0.499426	-0.000029
1980	1.9691e+02	0.3036	-9.380488	0.000250	2.497718	0.423125	-0.000025
1981	1.9701e+02	0.2951	-9.411039	0.000307	3.070965	0.520236	-0.000031
1982	1.9711e+02	0.2883	-9.440367	0.000295	2.948127	0.499426	-0.000029
1983	1.9721e+02	0.2746	-9.472140	0.000319	3.193804	0.541045	-0.000032
1984	1.9731e+02	0.2670	-9.503098	0.000311	3.111912	0.527172	-0.000031
1985	1.9741e+02	0.2535	-9.534056	0.000311	3.111912	0.527172	-0.000031
1986	1.9751e+02	0.2428	-9.565014	0.000311	3.111912	0.527172	-0.000031
1987	1.9761e+02	0.2345	-9.592713	0.000278	2.784342	0.471680	-0.000028
1988	1.9771e+02	0.2253	-9.626930	0.000344	3.439481	0.582664	-0.000034
1989	1.9781e+02	0.2139	-9.657481	0.000307	3.070965	0.520236	-0.000031
1990	1.9791e+02	0.2033	-9.685588	0.000283	2.825288	0.478617	-0.000028
1991	1.9800e+02	0.1944	-9.716953	0.000315	3.152858	0.534109	-0.000032
1992	1.9810e+02	0.1856	-9.749540	0.000328	3.275696	0.554918	-0.000033
1993	1.9820e+02	0.1743	-9.780906	0.000315	3.152858	0.534109	-0.000032
1994	1.9830e+02	0.1661	-9.810642	0.000299	2.989073	0.506363	-0.000030
1995	1.9840e+02	0.1558	-9.843229	0.000328	3.275696	0.554918	-0.000033
1996	1.9850e+02	0.1434	-9.875816	0.000328	3.275696	0.554918	-0.000033
1997	1.9860e+02	0.1353	-9.906367	0.000307	3.070965	0.520236	-0.000031
1998	1.9870e+02	0.1254	-9.937733	0.000315	3.152858	0.534109	-0.000032
1999	1.9880e+02	0.1157	-9.967469	0.000299	2.989073	0.506363	-0.000030
2000	1.9890e+02	0.1055	-9.998427	0.000311	3.111912	0.527172	-0.000031
2001	1.9900e+02	0.0954	-10.028163	0.000299	2.989073	0.506363	-0.000030
2002	1.9910e+02	0.0840	-10.055047	0.000270	2.702450	0.457807	-0.000027
2003	1.9920e+02	0.0732	-10.089671	0.000348	3.480427	0.589600	-0.000035
2004	1.9930e+02	0.0636	-10.117371	0.000278	2.784342	0.471680	-0.000028
2005	1.9940e+02	0.0558	-10.149143	0.000319	3.193804	0.541045	-0.000032
2006	1.9950e+02	0.0450	-10.173991	0.000250	2.497718	0.423125	-0.000025
2007	1.9960e+02	0.0338	-10.207801	0.000340	3.398535	0.575727	-0.000034
2008	1.9970e+02	0.0241	-10.232649	0.000250	2.497718	0.423125	-0.000025
2009	1.9980e+02	0.0142	-10.263199	0.000307	3.070965	0.520236	-0.000031
2010	1.9990e+02	0.0045	-10.295379	0.000323	3.234750	0.547982	-0.000032
2011	2.0000e+02	-0.0040	-10.322671	0.000323	3.234750	0.547982	-0.000027

PMax (uC/cm2):	2.32e+01
Pr (uC/cm2):	1.26e+00
-Pr (uC/cm2):	0.00e+00
PLoss (uC/cm2):	0.00e+00
C (Max-Eff) (nF):	2.32e-01
K (Eff):	3.93e+02
Vert. (+/-Pr) Shift (uC/cm2):	6.28e-01
Offset (uC/cm2):	1.16e+01

A (Loop Area - uC/cm2·Volts):	-1.26e-02



Hysteresis Version: 5.48.1 - Radiant Technologies, Inc., 1999 - 9/12/24

