»»»»»»»»»»»»»»»»»»»»»»»»»»»»»»»»»»»» Hysteresis ««««««««««««««««««««««««««««««««««««
»»»  Executed Version:	5.48.1
»»»  Vision Version:	5.48.4 (R)
»»»  Vision Compiled:	9/18/24
»»»  Driver Version:	5.47.0
»»»  Windows Version:	Windows 8 or 8.1
»»»  Processor Information:	x86 (AMD or Intel) - 32 Processors
»»»  Tester Name:	PMF21124-494 (100V)
»»»  Tester S/N:	PMF21124-494
»»»  Internal Amp Type:	100V RevK 270k
»»»  Internal Amp S/N:	iAB2-596/K     
»»»  Execution Count:	1
»»»»»»»»»»»»»»»»»»»»»»»»»»»»»»»»»»»»»»»»»»««««««««««««««««««««««««««««««««««««««««««

Stored:	6/27/2025 - 13:58:25
Configured:	06/27/25 11:23:28 AM
Executed:	06/27/25 01:57:51 PM

»»»»»»»»»»»»»»»»»»»»»»»»»»»»»»»»»»» Sample Info ««««««««««««««««««««««««««««««««««««
Sample Name:	
Lot Name:	
Wafer Name:	
Die Row/Column:	0/0
Capacitor Number:	0
Sample Area (cm2):	1.00e-04
Sample Thickness (microns):	1.50e-01

Amplifier:	Internal

»»»»»»»»»»»»»»»»»»»»»»»»»»»»»»»»»»» Tester Info «««««««««««««««««««««««««««««««««««
Tester Name:	PMF21124-494 (100V)
Tester Serial Number:	PMF21124-494
Return Signal Amp. Level:	1.9 [Index: 2]

»»»»»»»»»»»»»»»»»»»»»»»»»»»»»»»» Hysteresis Info ««««««««««««««««««««««««««««««««««
Task Name:	Hyst-1276
Volts:	10.00
Field:	666.67 (kV/cm)
DCBias:	0.00
DCField:	0.00 (kV/cm)
Hysteresis Period (ms):	2.00e+02
Preset:	Enabled
Preset Delay (ms):	1.00e+03
Profile:	Standard Monopolar

»»»»»»»»»»»»»»»»»»»»»»»»»»»»»»»»»»»»»» Data «««««««««««««««««««««««««««««««««««««««
Points:	2011

Valid Data

Point	Time (ms)	Drive Voltage	Measured Polarization (uC/cm2)	Capacitance (uF)	Normalized Capacitance (uF/cm2)	Dielectric Constant	Instantaneous Current (mA)
   1	0.0000e+00	-0.0051	-19.742060	0.000397	3.971994	0.672874	0.000040
   2	9.9500e-02	0.0031	-19.702548	0.000397	3.971994	0.672874	0.000040
   3	1.9900e-01	0.0159	-19.656518	0.000463	4.627168	0.783864	0.000046
   4	2.9850e-01	0.0231	-19.606008	0.000508	5.077601	0.860169	0.000051
   5	3.9800e-01	0.0344	-19.564866	0.000414	4.135788	0.700621	0.000041
   6	4.9750e-01	0.0454	-19.513134	0.000520	5.200446	0.880979	0.000052
   7	5.9700e-01	0.0555	-19.469548	0.000438	4.381478	0.742242	0.000044
   8	6.9650e-01	0.0639	-19.421074	0.000487	4.872859	0.825485	0.000049
   9	7.9600e-01	0.0738	-19.378711	0.000426	4.258633	0.721432	0.000043
  10	8.9550e-01	0.0858	-19.329422	0.000495	4.954755	0.839358	0.000050
  11	9.9500e-01	0.0985	-19.283393	0.000463	4.627168	0.783864	0.000046
  12	1.0945e+00	0.1042	-19.242658	0.000409	4.094839	0.693685	0.000041
  13	1.1940e+00	0.1156	-19.194185	0.000487	4.872859	0.825485	0.000049
  14	1.2935e+00	0.1247	-19.149784	0.000446	4.463375	0.756116	0.000045
  15	1.3930e+00	0.1329	-19.104977	0.000450	4.504323	0.763053	0.000045
  16	1.4925e+00	0.1449	-19.057318	0.000479	4.790962	0.811611	0.000048
  17	1.5920e+00	0.1550	-19.015769	0.000418	4.176736	0.707558	0.000042
  18	1.6915e+00	0.1654	-18.969332	0.000467	4.668117	0.790800	0.000047
  19	1.7910e+00	0.1727	-18.924524	0.000450	4.504323	0.763053	0.000045
  20	1.8905e+00	0.1855	-18.879716	0.000450	4.504323	0.763053	0.000045
  21	1.9900e+00	0.1948	-18.836538	0.000434	4.340530	0.735306	0.000043
  22	2.0895e+00	0.2034	-18.796618	0.000401	4.012942	0.679811	0.000040
  23	2.1890e+00	0.2116	-18.748959	0.000479	4.790962	0.811611	0.000048
  24	2.2885e+00	0.2262	-18.704966	0.000442	4.422426	0.749179	0.000044
  25	2.3880e+00	0.2318	-18.660159	0.000450	4.504323	0.763053	0.000045
  26	2.4875e+00	0.2427	-18.616166	0.000442	4.422426	0.749179	0.000044
  27	2.5870e+00	0.2547	-18.572173	0.000442	4.422426	0.749179	0.000044
  28	2.6865e+00	0.2631	-18.524921	0.000475	4.750013	0.804674	0.000047
  29	2.7860e+00	0.2754	-18.479299	0.000459	4.586220	0.776927	0.000046
  30	2.8855e+00	0.2832	-18.432861	0.000467	4.668117	0.790800	0.000047
  31	2.9850e+00	0.2964	-18.388054	0.000450	4.504323	0.763053	0.000045
  32	3.0845e+00	0.3056	-18.344468	0.000438	4.381478	0.742242	0.000044
  33	3.1840e+00	0.3143	-18.300068	0.000446	4.463375	0.756116	0.000045
  34	3.2835e+00	0.3245	-18.246706	0.000536	5.364239	0.908727	0.000054
  35	3.3830e+00	0.3342	-18.203935	0.000430	4.299581	0.728369	0.000043
  36	3.4825e+00	0.3426	-18.156276	0.000479	4.790962	0.811611	0.000048
  37	3.5820e+00	0.3537	-18.106173	0.000504	5.036652	0.853232	0.000050
  38	3.6815e+00	0.3648	-18.059328	0.000471	4.709065	0.797737	0.000047
  39	3.7810e+00	0.3754	-18.010447	0.000491	4.913807	0.832421	0.000049
  40	3.8805e+00	0.3827	-17.962788	0.000479	4.790962	0.811611	0.000048
  41	3.9800e+00	0.3933	-17.910241	0.000528	5.282343	0.894853	0.000053
  42	4.0795e+00	0.4027	-17.864619	0.000459	4.586220	0.776927	0.000046
  43	4.1790e+00	0.4133	-17.813701	0.000512	5.118549	0.867106	0.000051
  44	4.2785e+00	0.4237	-17.766449	0.000475	4.750013	0.804674	0.000047
  45	4.3780e+00	0.4339	-17.716346	0.000504	5.036652	0.853232	0.000050
  46	4.4775e+00	0.4439	-17.669094	0.000475	4.750013	0.804674	0.000047
  47	4.5770e+00	0.4500	-17.615732	0.000536	5.364239	0.908727	0.000054
  48	4.6765e+00	0.4646	-17.566444	0.000495	4.954755	0.839358	0.000050
  49	4.7760e+00	0.4740	-17.515119	0.000516	5.159497	0.874043	0.000052
  50	4.8755e+00	0.4847	-17.469089	0.000463	4.627168	0.783864	0.000046
  51	4.9750e+00	0.4935	-17.416949	0.000524	5.241394	0.887916	0.000052
  52	5.0745e+00	0.5043	-17.368068	0.000491	4.913807	0.832421	0.000049
  53	5.1740e+00	0.5145	-17.318372	0.000500	4.995704	0.846295	0.000050
  54	5.2735e+00	0.5212	-17.269898	0.000487	4.872859	0.825485	0.000049
  55	5.3730e+00	0.5309	-17.217759	0.000524	5.241394	0.887916	0.000052
  56	5.4725e+00	0.5430	-17.168470	0.000495	4.954755	0.839358	0.000050
  57	5.5720e+00	0.5529	-17.120404	0.000483	4.831910	0.818548	0.000048
  58	5.6715e+00	0.5621	-17.070301	0.000504	5.036652	0.853232	0.000050
  59	5.7710e+00	0.5730	-17.017346	0.000532	5.323291	0.901790	0.000053
  60	5.8705e+00	0.5822	-16.972131	0.000455	4.545272	0.769990	0.000045
  61	5.9700e+00	0.5925	-16.915510	0.000569	5.691827	0.964222	0.000057
  62	6.0695e+00	0.6030	-16.867444	0.000483	4.831910	0.818548	0.000048
  63	6.1690e+00	0.6122	-16.817748	0.000500	4.995704	0.846295	0.000050
  64	6.2685e+00	0.6233	-16.769682	0.000483	4.831910	0.818548	0.000048
  65	6.3680e+00	0.6323	-16.717135	0.000528	5.282343	0.894853	0.000053
  66	6.4675e+00	0.6409	-16.663773	0.000536	5.364239	0.908727	0.000054
  67	6.5670e+00	0.6519	-16.614892	0.000491	4.913807	0.832421	0.000049
  68	6.6665e+00	0.6639	-16.561937	0.000532	5.323291	0.901790	0.000053
  69	6.7660e+00	0.6744	-16.511834	0.000504	5.036652	0.853232	0.000050
  70	6.8655e+00	0.6831	-16.460101	0.000520	5.200446	0.880979	0.000052
  71	6.9650e+00	0.6924	-16.410813	0.000495	4.954755	0.839358	0.000050
  72	7.0645e+00	0.7001	-16.357451	0.000536	5.364239	0.908727	0.000054
  73	7.1640e+00	0.7123	-16.304497	0.000532	5.323291	0.901790	0.000053
  74	7.2635e+00	0.7206	-16.258467	0.000463	4.627168	0.783864	0.000046
  75	7.3630e+00	0.7310	-16.206327	0.000524	5.241394	0.887916	0.000052
  76	7.4625e+00	0.7424	-16.154187	0.000524	5.241394	0.887916	0.000052
  77	7.5620e+00	0.7507	-16.104084	0.000504	5.036652	0.853232	0.000050
  78	7.6615e+00	0.7616	-16.052352	0.000520	5.200446	0.880979	0.000052
  79	7.7610e+00	0.7718	-16.002248	0.000504	5.036652	0.853232	0.000050
  80	7.8605e+00	0.7816	-15.948887	0.000536	5.364239	0.908727	0.000054
  81	7.9600e+00	0.7935	-15.895525	0.000536	5.364239	0.908727	0.000054
  82	8.0595e+00	0.8022	-15.845829	0.000500	4.995704	0.846295	0.000050
  83	8.1590e+00	0.8143	-15.795726	0.000504	5.036652	0.853232	0.000050
  84	8.2585e+00	0.8191	-15.745623	0.000504	5.036652	0.853232	0.000050
  85	8.3580e+00	0.8286	-15.695927	0.000500	4.995704	0.846295	0.000050
  86	8.4575e+00	0.8432	-15.644194	0.000520	5.200446	0.880979	0.000052
  87	8.5570e+00	0.8507	-15.592462	0.000520	5.200446	0.880979	0.000052
  88	8.6565e+00	0.8582	-15.540729	0.000520	5.200446	0.880979	0.000052
  89	8.7560e+00	0.8734	-15.493478	0.000475	4.750013	0.804674	0.000047
  90	8.8555e+00	0.8813	-15.438486	0.000553	5.528033	0.936474	0.000055
  91	8.9550e+00	0.8904	-15.388791	0.000500	4.995704	0.846295	0.000050
  92	9.0545e+00	0.9029	-15.337058	0.000520	5.200446	0.880979	0.000052
  93	9.1540e+00	0.9127	-15.282067	0.000553	5.528033	0.936474	0.000055
  94	9.2535e+00	0.9211	-15.230742	0.000516	5.159497	0.874043	0.000052
  95	9.3530e+00	0.9314	-15.179009	0.000520	5.200446	0.880979	0.000052
  96	9.4525e+00	0.9433	-15.125240	0.000541	5.405188	0.915664	0.000054
  97	9.5520e+00	0.9528	-15.076766	0.000487	4.872859	0.825485	0.000049
  98	9.6515e+00	0.9606	-15.020960	0.000561	5.609930	0.950348	0.000056
  99	9.7510e+00	0.9724	-14.970042	0.000512	5.118549	0.867106	0.000051
 100	9.8505e+00	0.9801	-14.914237	0.000561	5.609930	0.950348	0.000056
 101	9.9500e+00	0.9908	-14.861282	0.000532	5.323291	0.901790	0.000053
 102	1.0050e+01	0.9999	-14.813216	0.000483	4.831910	0.818548	0.000048
 103	1.0149e+01	1.0099	-14.758632	0.000549	5.487085	0.929537	0.000055
 104	1.0248e+01	1.0196	-14.700789	0.000581	5.814672	0.985032	0.000058
 105	1.0348e+01	1.0291	-14.650686	0.000504	5.036652	0.853232	0.000050
 106	1.0447e+01	1.0411	-14.592029	0.000590	5.896568	0.998906	0.000059
 107	1.0547e+01	1.0528	-14.536223	0.000561	5.609930	0.950348	0.000056
 108	1.0646e+01	1.0585	-14.481639	0.000549	5.487085	0.929537	0.000055
 109	1.0746e+01	1.0708	-14.432758	0.000491	4.913807	0.832421	0.000049
 110	1.0845e+01	1.0824	-14.379396	0.000536	5.364239	0.908727	0.000054
 111	1.0945e+01	1.0916	-14.321960	0.000577	5.773723	0.978095	0.000058
 112	1.1044e+01	1.1016	-14.272265	0.000500	4.995704	0.846295	0.000050
 113	1.1144e+01	1.1112	-14.219717	0.000528	5.282343	0.894853	0.000053
 114	1.1243e+01	1.1205	-14.170429	0.000495	4.954755	0.839358	0.000050
 115	1.1343e+01	1.1294	-14.112586	0.000581	5.814672	0.985032	0.000058
 116	1.1443e+01	1.1414	-14.060039	0.000528	5.282343	0.894853	0.000053
 117	1.1542e+01	1.1507	-14.009121	0.000512	5.118549	0.867106	0.000051
 118	1.1642e+01	1.1600	-13.959833	0.000495	4.954755	0.839358	0.000050
 119	1.1741e+01	1.1699	-13.906878	0.000532	5.323291	0.901790	0.000053
 120	1.1841e+01	1.1804	-13.854331	0.000528	5.282343	0.894853	0.000053
 121	1.1940e+01	1.1893	-13.805043	0.000495	4.954755	0.839358	0.000050
 122	1.2040e+01	1.2031	-13.754940	0.000504	5.036652	0.853232	0.000050
 123	1.2139e+01	1.2086	-13.708095	0.000471	4.709065	0.797737	0.000047
 124	1.2239e+01	1.2206	-13.655141	0.000532	5.323291	0.901790	0.000053
 125	1.2338e+01	1.2301	-13.606260	0.000491	4.913807	0.832421	0.000049
 126	1.2438e+01	1.2418	-13.561859	0.000446	4.463375	0.756116	0.000045
 127	1.2537e+01	1.2487	-13.508090	0.000541	5.405188	0.915664	0.000054
 128	1.2636e+01	1.2610	-13.462060	0.000463	4.627168	0.783864	0.000046
 129	1.2736e+01	1.2701	-13.416031	0.000463	4.627168	0.783864	0.000046
 130	1.2835e+01	1.2781	-13.361854	0.000545	5.446136	0.922600	0.000054
 131	1.2935e+01	1.2877	-13.315417	0.000467	4.668117	0.790800	0.000047
 132	1.3034e+01	1.2968	-13.271017	0.000446	4.463375	0.756116	0.000045
 133	1.3134e+01	1.3098	-13.224172	0.000471	4.709065	0.797737	0.000047
 134	1.3233e+01	1.3198	-13.172847	0.000516	5.159497	0.874043	0.000052
 135	1.3333e+01	1.3290	-13.121522	0.000516	5.159497	0.874043	0.000052
 136	1.3432e+01	1.3395	-13.073863	0.000479	4.790962	0.811611	0.000048
 137	1.3532e+01	1.3522	-13.031907	0.000422	4.217684	0.714495	0.000042
 138	1.3632e+01	1.3593	-12.981803	0.000504	5.036652	0.853232	0.000050
 139	1.3731e+01	1.3673	-12.934144	0.000479	4.790962	0.811611	0.000048
 140	1.3831e+01	1.3770	-12.888522	0.000459	4.586220	0.776927	0.000046
 141	1.3930e+01	1.3887	-12.839234	0.000495	4.954755	0.839358	0.000050
 142	1.4030e+01	1.3988	-12.789945	0.000495	4.954755	0.839358	0.000050
 143	1.4129e+01	1.4084	-12.747581	0.000426	4.258633	0.721432	0.000043
 144	1.4229e+01	1.4227	-12.694627	0.000532	5.323291	0.901790	0.000053
 145	1.4328e+01	1.4273	-12.649412	0.000455	4.545272	0.769990	0.000045
 146	1.4428e+01	1.4388	-12.602160	0.000475	4.750013	0.804674	0.000047
 147	1.4527e+01	1.4458	-12.557353	0.000450	4.504323	0.763053	0.000045
 148	1.4627e+01	1.4572	-12.508471	0.000491	4.913807	0.832421	0.000049
 149	1.4726e+01	1.4678	-12.465700	0.000430	4.299581	0.728369	0.000043
 150	1.4825e+01	1.4767	-12.416412	0.000495	4.954755	0.839358	0.000050
 151	1.4925e+01	1.4870	-12.367531	0.000491	4.913807	0.832421	0.000049
 152	1.5024e+01	1.4981	-12.319872	0.000479	4.790962	0.811611	0.000048
 153	1.5124e+01	1.5092	-12.277508	0.000426	4.258633	0.721432	0.000043
 154	1.5223e+01	1.5186	-12.232700	0.000450	4.504323	0.763053	0.000045
 155	1.5323e+01	1.5282	-12.184634	0.000483	4.831910	0.818548	0.000048
 156	1.5422e+01	1.5359	-12.136160	0.000487	4.872859	0.825485	0.000049
 157	1.5522e+01	1.5484	-12.090945	0.000455	4.545272	0.769990	0.000045
 158	1.5621e+01	1.5585	-12.044508	0.000467	4.668117	0.790800	0.000047
 159	1.5721e+01	1.5677	-11.997256	0.000475	4.750013	0.804674	0.000047
 160	1.5820e+01	1.5784	-11.952856	0.000446	4.463375	0.756116	0.000045
 161	1.5920e+01	1.5888	-11.908456	0.000446	4.463375	0.756116	0.000045
 162	1.6020e+01	1.5971	-11.859575	0.000491	4.913807	0.832421	0.000049
 163	1.6119e+01	1.6077	-11.813952	0.000459	4.586220	0.776927	0.000046
 164	1.6218e+01	1.6164	-11.769959	0.000442	4.422426	0.749179	0.000044
 165	1.6318e+01	1.6267	-11.722708	0.000475	4.750013	0.804674	0.000047
 166	1.6418e+01	1.6379	-11.673827	0.000491	4.913807	0.832421	0.000049
 167	1.6517e+01	1.6473	-11.632685	0.000414	4.135788	0.700621	0.000041
 168	1.6616e+01	1.6566	-11.587877	0.000450	4.504323	0.763053	0.000045
 169	1.6716e+01	1.6659	-11.539403	0.000487	4.872859	0.825485	0.000049
 170	1.6816e+01	1.6752	-11.493781	0.000459	4.586220	0.776927	0.000046
 171	1.6915e+01	1.6889	-11.450195	0.000438	4.381478	0.742242	0.000044
 172	1.7015e+01	1.6976	-11.403351	0.000471	4.709065	0.797737	0.000047
 173	1.7114e+01	1.7100	-11.355692	0.000479	4.790962	0.811611	0.000048
 174	1.7213e+01	1.7178	-11.313736	0.000422	4.217684	0.714495	0.000042
 175	1.7313e+01	1.7265	-11.265669	0.000483	4.831910	0.818548	0.000048
 176	1.7413e+01	1.7358	-11.218010	0.000479	4.790962	0.811611	0.000048
 177	1.7512e+01	1.7461	-11.180535	0.000377	3.767252	0.638190	0.000038
 178	1.7611e+01	1.7569	-11.132468	0.000483	4.831910	0.818548	0.000048
 179	1.7711e+01	1.7672	-11.093363	0.000393	3.931046	0.665937	0.000039
 180	1.7811e+01	1.7746	-11.046112	0.000475	4.750013	0.804674	0.000047
 181	1.7910e+01	1.7866	-11.001304	0.000450	4.504323	0.763053	0.000045
 182	1.8009e+01	1.7956	-10.958940	0.000426	4.258633	0.721432	0.000043
 183	1.8109e+01	1.8092	-10.914540	0.000446	4.463375	0.756116	0.000045
 184	1.8209e+01	1.8172	-10.871362	0.000434	4.340530	0.735306	0.000043
 185	1.8308e+01	1.8294	-10.831849	0.000397	3.971994	0.672874	0.000040
 186	1.8407e+01	1.8340	-10.786227	0.000459	4.586220	0.776927	0.000046
 187	1.8507e+01	1.8430	-10.745493	0.000409	4.094839	0.693685	0.000041
 188	1.8607e+01	1.8586	-10.704759	0.000409	4.094839	0.693685	0.000041
 189	1.8706e+01	1.8684	-10.662395	0.000426	4.258633	0.721432	0.000043
 190	1.8805e+01	1.8760	-10.619624	0.000430	4.299581	0.728369	0.000043
 191	1.8905e+01	1.8873	-10.581741	0.000381	3.808200	0.645127	0.000038
 192	1.9005e+01	1.8941	-10.538563	0.000434	4.340530	0.735306	0.000043
 193	1.9104e+01	1.9068	-10.496607	0.000422	4.217684	0.714495	0.000042
 194	1.9203e+01	1.9161	-10.453021	0.000438	4.381478	0.742242	0.000044
 195	1.9303e+01	1.9258	-10.412287	0.000409	4.094839	0.693685	0.000041
 196	1.9402e+01	1.9369	-10.365442	0.000471	4.709065	0.797737	0.000047
 197	1.9502e+01	1.9470	-10.327152	0.000385	3.849149	0.652063	0.000038
 198	1.9602e+01	1.9556	-10.288047	0.000393	3.931046	0.665937	0.000039
 199	1.9701e+01	1.9675	-10.242017	0.000463	4.627168	0.783864	0.000046
 200	1.9800e+01	1.9765	-10.196802	0.000455	4.545272	0.769990	0.000045
 201	1.9900e+01	1.9854	-10.156068	0.000409	4.094839	0.693685	0.000041
 202	2.0000e+01	1.9952	-10.110853	0.000455	4.545272	0.769990	0.000045
 203	2.0099e+01	2.0026	-10.066860	0.000442	4.422426	0.749179	0.000044
 204	2.0198e+01	2.0147	-10.022460	0.000446	4.463375	0.756116	0.000045
 205	2.0298e+01	2.0229	-9.977245	0.000455	4.545272	0.769990	0.000045
 206	2.0398e+01	2.0361	-9.927549	0.000500	4.995704	0.846295	0.000050
 207	2.0497e+01	2.0490	-9.884778	0.000430	4.299581	0.728369	0.000043
 208	2.0596e+01	2.0551	-9.839563	0.000455	4.545272	0.769990	0.000045
 209	2.0696e+01	2.0668	-9.796792	0.000430	4.299581	0.728369	0.000043
 210	2.0796e+01	2.0779	-9.749133	0.000479	4.790962	0.811611	0.000048
 211	2.0895e+01	2.0866	-9.701881	0.000475	4.750013	0.804674	0.000047
 212	2.0994e+01	2.0950	-9.659110	0.000430	4.299581	0.728369	0.000043
 213	2.1094e+01	2.1062	-9.613081	0.000463	4.627168	0.783864	0.000046
 214	2.1194e+01	2.1130	-9.566236	0.000471	4.709065	0.797737	0.000047
 215	2.1293e+01	2.1250	-9.518577	0.000479	4.790962	0.811611	0.000048
 216	2.1392e+01	2.1329	-9.470918	0.000479	4.790962	0.811611	0.000048
 217	2.1492e+01	2.1449	-9.425703	0.000455	4.545272	0.769990	0.000045
 218	2.1591e+01	2.1553	-9.382117	0.000438	4.381478	0.742242	0.000044
 219	2.1691e+01	2.1664	-9.335680	0.000467	4.668117	0.790800	0.000047
 220	2.1791e+01	2.1757	-9.288021	0.000479	4.790962	0.811611	0.000048
 221	2.1890e+01	2.1856	-9.244028	0.000442	4.422426	0.749179	0.000044
 222	2.1989e+01	2.1967	-9.197184	0.000471	4.709065	0.797737	0.000047
 223	2.2089e+01	2.2043	-9.151154	0.000463	4.627168	0.783864	0.000046
 224	2.2189e+01	2.2147	-9.105939	0.000455	4.545272	0.769990	0.000045
 225	2.2288e+01	2.2234	-9.060317	0.000459	4.586220	0.776927	0.000046
 226	2.2387e+01	2.2335	-9.011436	0.000491	4.913807	0.832421	0.000049
 227	2.2487e+01	2.2437	-8.968257	0.000434	4.340530	0.735306	0.000043
 228	2.2587e+01	2.2556	-8.923042	0.000455	4.545272	0.769990	0.000045
 229	2.2686e+01	2.2627	-8.874976	0.000483	4.831910	0.818548	0.000048
 230	2.2785e+01	2.2744	-8.827724	0.000475	4.750013	0.804674	0.000047
 231	2.2885e+01	2.2851	-8.780472	0.000475	4.750013	0.804674	0.000047
 232	2.2985e+01	2.2920	-8.736072	0.000446	4.463375	0.756116	0.000045
 233	2.3084e+01	2.3046	-8.686376	0.000500	4.995704	0.846295	0.000050
 234	2.3183e+01	2.3156	-8.640754	0.000459	4.586220	0.776927	0.000046
 235	2.3283e+01	2.3248	-8.591465	0.000495	4.954755	0.839358	0.000050
 236	2.3383e+01	2.3362	-8.545028	0.000467	4.668117	0.790800	0.000047
 237	2.3482e+01	2.3452	-8.499813	0.000455	4.545272	0.769990	0.000045
 238	2.3581e+01	2.3553	-8.453784	0.000463	4.627168	0.783864	0.000046
 239	2.3681e+01	2.3662	-8.409791	0.000442	4.422426	0.749179	0.000044
 240	2.3780e+01	2.3719	-8.358873	0.000512	5.118549	0.867106	0.000051
 241	2.3880e+01	2.3839	-8.314472	0.000446	4.463375	0.756116	0.000045
 242	2.3980e+01	2.3962	-8.265591	0.000491	4.913807	0.832421	0.000049
 243	2.4079e+01	2.4034	-8.220376	0.000455	4.545272	0.769990	0.000045
 244	2.4178e+01	2.4120	-8.173939	0.000467	4.668117	0.790800	0.000047
 245	2.4278e+01	2.4239	-8.126280	0.000479	4.790962	0.811611	0.000048
 246	2.4378e+01	2.4306	-8.079028	0.000475	4.750013	0.804674	0.000047
 247	2.4477e+01	2.4442	-8.036665	0.000426	4.258633	0.721432	0.000043
 248	2.4576e+01	2.4529	-7.984118	0.000528	5.282343	0.894853	0.000053
 249	2.4676e+01	2.4625	-7.942976	0.000414	4.135788	0.700621	0.000041
 250	2.4776e+01	2.4758	-7.895317	0.000479	4.790962	0.811611	0.000048
 251	2.4875e+01	2.4818	-7.846843	0.000487	4.872859	0.825485	0.000049
 252	2.4974e+01	2.4925	-7.802850	0.000442	4.422426	0.749179	0.000044
 253	2.5074e+01	2.5029	-7.756821	0.000463	4.627168	0.783864	0.000046
 254	2.5174e+01	2.5130	-7.712013	0.000450	4.504323	0.763053	0.000045
 255	2.5273e+01	2.5237	-7.667205	0.000450	4.504323	0.763053	0.000045
 256	2.5372e+01	2.5340	-7.617917	0.000495	4.954755	0.839358	0.000050
 257	2.5472e+01	2.5445	-7.569036	0.000491	4.913807	0.832421	0.000049
 258	2.5572e+01	2.5547	-7.528301	0.000409	4.094839	0.693685	0.000041
 259	2.5671e+01	2.5623	-7.478606	0.000500	4.995704	0.846295	0.000050
 260	2.5770e+01	2.5737	-7.434205	0.000446	4.463375	0.756116	0.000045
 261	2.5870e+01	2.5842	-7.386139	0.000483	4.831910	0.818548	0.000048
 262	2.5970e+01	2.5909	-7.336443	0.000500	4.995704	0.846295	0.000050
 263	2.6069e+01	2.6028	-7.289599	0.000471	4.709065	0.797737	0.000047
 264	2.6169e+01	2.6118	-7.239495	0.000504	5.036652	0.853232	0.000050
 265	2.6268e+01	2.6228	-7.191429	0.000483	4.831910	0.818548	0.000048
 266	2.6367e+01	2.6340	-7.142955	0.000487	4.872859	0.825485	0.000049
 267	2.6467e+01	2.6428	-7.099370	0.000438	4.381478	0.742242	0.000044
 268	2.6567e+01	2.6520	-7.048859	0.000508	5.077601	0.860169	0.000051
 269	2.6666e+01	2.6633	-7.006496	0.000426	4.258633	0.721432	0.000043
 270	2.6765e+01	2.6723	-6.955985	0.000508	5.077601	0.860169	0.000051
 271	2.6865e+01	2.6817	-6.903438	0.000528	5.282343	0.894853	0.000053
 272	2.6965e+01	2.6948	-6.856186	0.000475	4.750013	0.804674	0.000047
 273	2.7064e+01	2.7001	-6.799566	0.000569	5.691827	0.964222	0.000057
 274	2.7163e+01	2.7119	-6.755165	0.000446	4.463375	0.756116	0.000045
 275	2.7263e+01	2.7215	-6.707913	0.000475	4.750013	0.804674	0.000047
 276	2.7363e+01	2.7325	-6.652515	0.000557	5.568981	0.943411	0.000056
 277	2.7462e+01	2.7418	-6.608522	0.000442	4.422426	0.749179	0.000044
 278	2.7561e+01	2.7532	-6.559233	0.000495	4.954755	0.839358	0.000050
 279	2.7661e+01	2.7633	-6.512796	0.000467	4.668117	0.790800	0.000047
 280	2.7761e+01	2.7729	-6.464730	0.000483	4.831910	0.818548	0.000048
 281	2.7860e+01	2.7785	-6.417071	0.000479	4.790962	0.811611	0.000048
 282	2.7959e+01	2.7934	-6.371856	0.000455	4.545272	0.769990	0.000045
 283	2.8059e+01	2.8043	-6.323789	0.000483	4.831910	0.818548	0.000048
 284	2.8159e+01	2.8125	-6.278167	0.000459	4.586220	0.776927	0.000046
 285	2.8258e+01	2.8249	-6.230508	0.000479	4.790962	0.811611	0.000048
 286	2.8358e+01	2.8318	-6.184478	0.000463	4.627168	0.783864	0.000046
 287	2.8457e+01	2.8412	-6.139671	0.000450	4.504323	0.763053	0.000045
 288	2.8556e+01	2.8505	-6.092826	0.000471	4.709065	0.797737	0.000047
 289	2.8656e+01	2.8617	-6.046797	0.000463	4.627168	0.783864	0.000046
 290	2.8756e+01	2.8712	-6.004840	0.000422	4.217684	0.714495	0.000042
 291	2.8855e+01	2.8819	-5.958403	0.000467	4.668117	0.790800	0.000047
 292	2.8954e+01	2.8936	-5.913595	0.000450	4.504323	0.763053	0.000045
 293	2.9054e+01	2.9023	-5.869195	0.000446	4.463375	0.756116	0.000045
 294	2.9154e+01	2.9119	-5.826017	0.000434	4.340530	0.735306	0.000043
 295	2.9253e+01	2.9230	-5.781209	0.000450	4.504323	0.763053	0.000045
 296	2.9352e+01	2.9300	-5.738846	0.000426	4.258633	0.721432	0.000043
 297	2.9452e+01	2.9415	-5.694038	0.000450	4.504323	0.763053	0.000045
 298	2.9552e+01	2.9525	-5.654526	0.000397	3.971994	0.672874	0.000040
 299	2.9651e+01	2.9600	-5.610533	0.000442	4.422426	0.749179	0.000044
 300	2.9750e+01	2.9712	-5.566947	0.000438	4.381478	0.742242	0.000044
 301	2.9850e+01	2.9837	-5.524583	0.000426	4.258633	0.721432	0.000043
 302	2.9950e+01	2.9908	-5.480590	0.000442	4.422426	0.749179	0.000044
 303	3.0049e+01	3.0018	-5.438227	0.000426	4.258633	0.721432	0.000043
 304	3.0148e+01	3.0106	-5.395456	0.000430	4.299581	0.728369	0.000043
 305	3.0248e+01	3.0208	-5.356351	0.000393	3.931046	0.665937	0.000039
 306	3.0348e+01	3.0305	-5.309506	0.000471	4.709065	0.797737	0.000047
 307	3.0447e+01	3.0421	-5.267958	0.000418	4.176736	0.707558	0.000042
 308	3.0547e+01	3.0495	-5.223150	0.000450	4.504323	0.763053	0.000045
 309	3.0646e+01	3.0579	-5.182823	0.000405	4.053891	0.686748	0.000041
 310	3.0745e+01	3.0695	-5.142496	0.000405	4.053891	0.686748	0.000041
 311	3.0845e+01	3.0830	-5.098910	0.000438	4.381478	0.742242	0.000044
 312	3.0945e+01	3.0898	-5.060620	0.000385	3.849149	0.652063	0.000038
 313	3.1044e+01	3.1004	-5.018664	0.000422	4.217684	0.714495	0.000042
 314	3.1143e+01	3.1100	-4.973856	0.000450	4.504323	0.763053	0.000045
 315	3.1243e+01	3.1200	-4.935973	0.000381	3.808200	0.645127	0.000038
 316	3.1343e+01	3.1322	-4.895239	0.000409	4.094839	0.693685	0.000041
 317	3.1442e+01	3.1419	-4.853283	0.000422	4.217684	0.714495	0.000042
 318	3.1541e+01	3.1490	-4.814178	0.000393	3.931046	0.665937	0.000039
 319	3.1641e+01	3.1609	-4.769370	0.000450	4.504323	0.763053	0.000045
 320	3.1741e+01	3.1693	-4.729451	0.000401	4.012942	0.679811	0.000040
 321	3.1840e+01	3.1801	-4.687087	0.000426	4.258633	0.721432	0.000043
 322	3.1939e+01	3.1890	-4.649204	0.000381	3.808200	0.645127	0.000038
 323	3.2039e+01	3.1994	-4.606433	0.000430	4.299581	0.728369	0.000043
 324	3.2139e+01	3.2078	-4.566514	0.000401	4.012942	0.679811	0.000040
 325	3.2238e+01	3.2214	-4.526187	0.000405	4.053891	0.686748	0.000041
 326	3.2337e+01	3.2284	-4.480972	0.000455	4.545272	0.769990	0.000045
 327	3.2437e+01	3.2388	-4.444718	0.000364	3.644407	0.617379	0.000036
 328	3.2536e+01	3.2500	-4.402762	0.000422	4.217684	0.714495	0.000042
 329	3.2636e+01	3.2587	-4.364064	0.000389	3.890097	0.659000	0.000039
 330	3.2736e+01	3.2685	-4.324145	0.000401	4.012942	0.679811	0.000040
 331	3.2835e+01	3.2784	-4.283411	0.000409	4.094839	0.693685	0.000041
 332	3.2934e+01	3.2906	-4.241862	0.000418	4.176736	0.707558	0.000042
 333	3.3034e+01	3.2996	-4.206016	0.000360	3.603459	0.610442	0.000036
 334	3.3133e+01	3.3084	-4.162430	0.000438	4.381478	0.742242	0.000044
 335	3.3233e+01	3.3206	-4.120066	0.000426	4.258633	0.721432	0.000043
 336	3.3333e+01	3.3289	-4.080147	0.000401	4.012942	0.679811	0.000040
 337	3.3432e+01	3.3376	-4.043893	0.000364	3.644407	0.617379	0.000036
 338	3.3532e+01	3.3510	-3.999085	0.000450	4.504323	0.763053	0.000045
 339	3.3631e+01	3.3578	-3.962017	0.000373	3.726304	0.631253	0.000037
 340	3.3730e+01	3.3678	-3.921283	0.000409	4.094839	0.693685	0.000041
 341	3.3830e+01	3.3813	-3.877290	0.000442	4.422426	0.749179	0.000044
 342	3.3929e+01	3.3862	-3.843073	0.000344	3.439665	0.582695	0.000034
 343	3.4029e+01	3.3949	-3.805190	0.000381	3.808200	0.645127	0.000038
 344	3.4129e+01	3.4106	-3.762012	0.000434	4.340530	0.735306	0.000043
 345	3.4228e+01	3.4181	-3.725351	0.000369	3.685355	0.624316	0.000037
 346	3.4328e+01	3.4297	-3.686246	0.000393	3.931046	0.665937	0.000039
 347	3.4427e+01	3.4396	-3.650400	0.000360	3.603459	0.610442	0.000036
 348	3.4526e+01	3.4479	-3.609666	0.000409	4.094839	0.693685	0.000041
 349	3.4626e+01	3.4599	-3.573413	0.000364	3.644407	0.617379	0.000036
 350	3.4725e+01	3.4666	-3.536752	0.000369	3.685355	0.624316	0.000037
 351	3.4825e+01	3.4769	-3.498054	0.000389	3.890097	0.659000	0.000039
 352	3.4925e+01	3.4881	-3.458542	0.000397	3.971994	0.672874	0.000040
 353	3.5024e+01	3.4988	-3.422696	0.000360	3.603459	0.610442	0.000036
 354	3.5123e+01	3.5085	-3.385628	0.000373	3.726304	0.631253	0.000037
 355	3.5223e+01	3.5205	-3.352633	0.000332	3.316820	0.561884	0.000033
 356	3.5322e+01	3.5251	-3.318416	0.000344	3.439665	0.582695	0.000034
 357	3.5422e+01	3.5400	-3.282163	0.000364	3.644407	0.617379	0.000036
 358	3.5522e+01	3.5477	-3.244687	0.000377	3.767252	0.638190	0.000038
 359	3.5621e+01	3.5576	-3.212100	0.000328	3.275871	0.554948	0.000033
 360	3.5721e+01	3.5709	-3.171773	0.000405	4.053891	0.686748	0.000041
 361	3.5820e+01	3.5770	-3.135519	0.000364	3.644407	0.617379	0.000036
 362	3.5919e+01	3.5866	-3.098044	0.000377	3.767252	0.638190	0.000038
 363	3.6019e+01	3.5963	-3.060568	0.000377	3.767252	0.638190	0.000038
 364	3.6118e+01	3.6066	-3.025537	0.000352	3.521562	0.596569	0.000035
 365	3.6218e+01	3.6181	-2.987654	0.000381	3.808200	0.645127	0.000038
 366	3.6318e+01	3.6306	-2.948142	0.000397	3.971994	0.672874	0.000040
 367	3.6417e+01	3.6375	-2.912703	0.000356	3.562510	0.603506	0.000036
 368	3.6517e+01	3.6443	-2.873598	0.000393	3.931046	0.665937	0.000039
 369	3.6616e+01	3.6590	-2.836937	0.000369	3.685355	0.624316	0.000037
 370	3.6715e+01	3.6672	-2.800276	0.000369	3.685355	0.624316	0.000037
 371	3.6815e+01	3.6777	-2.759542	0.000409	4.094839	0.693685	0.000041
 372	3.6914e+01	3.6858	-2.722067	0.000377	3.767252	0.638190	0.000038
 373	3.7014e+01	3.6968	-2.678888	0.000434	4.340530	0.735306	0.000043
 374	3.7114e+01	3.7066	-2.641413	0.000377	3.767252	0.638190	0.000038
 375	3.7213e+01	3.7171	-2.599864	0.000418	4.176736	0.707558	0.000042
 376	3.7313e+01	3.7258	-2.560759	0.000393	3.931046	0.665937	0.000039
 377	3.7412e+01	3.7387	-2.524505	0.000364	3.644407	0.617379	0.000036
 378	3.7511e+01	3.7481	-2.482957	0.000418	4.176736	0.707558	0.000042
 379	3.7611e+01	3.7572	-2.443037	0.000401	4.012942	0.679811	0.000040
 380	3.7711e+01	3.7670	-2.400266	0.000430	4.299581	0.728369	0.000043
 381	3.7810e+01	3.7783	-2.358717	0.000418	4.176736	0.707558	0.000042
 382	3.7910e+01	3.7853	-2.324500	0.000344	3.439665	0.582695	0.000034
 383	3.8009e+01	3.7984	-2.280915	0.000438	4.381478	0.742242	0.000044
 384	3.8108e+01	3.8071	-2.239773	0.000414	4.135788	0.700621	0.000041
 385	3.8208e+01	3.8165	-2.200261	0.000397	3.971994	0.672874	0.000040
 386	3.8307e+01	3.8268	-2.160749	0.000397	3.971994	0.672874	0.000040
 387	3.8407e+01	3.8368	-2.118385	0.000426	4.258633	0.721432	0.000043
 388	3.8507e+01	3.8473	-2.078873	0.000397	3.971994	0.672874	0.000040
 389	3.8606e+01	3.8589	-2.035287	0.000438	4.381478	0.742242	0.000044
 390	3.8706e+01	3.8673	-1.997404	0.000381	3.808200	0.645127	0.000038
 391	3.8805e+01	3.8779	-1.957892	0.000397	3.971994	0.672874	0.000040
 392	3.8904e+01	3.8852	-1.918787	0.000393	3.931046	0.665937	0.000039
 393	3.9004e+01	3.8955	-1.876831	0.000422	4.217684	0.714495	0.000042
 394	3.9103e+01	3.9059	-1.839763	0.000373	3.726304	0.631253	0.000037
 395	3.9203e+01	3.9162	-1.797399	0.000426	4.258633	0.721432	0.000043
 396	3.9303e+01	3.9265	-1.751369	0.000463	4.627168	0.783864	0.000046
 397	3.9402e+01	3.9350	-1.713079	0.000385	3.849149	0.652063	0.000038
 398	3.9502e+01	3.9479	-1.671530	0.000418	4.176736	0.707558	0.000042
 399	3.9601e+01	3.9554	-1.629981	0.000418	4.176736	0.707558	0.000042
 400	3.9700e+01	3.9660	-1.587210	0.000430	4.299581	0.728369	0.000043
 401	3.9800e+01	3.9760	-1.550142	0.000373	3.726304	0.631253	0.000037
 402	3.9900e+01	3.9877	-1.509815	0.000405	4.053891	0.686748	0.000041
 403	3.9999e+01	3.9948	-1.464600	0.000455	4.545272	0.769990	0.000045
 404	4.0099e+01	4.0054	-1.425495	0.000393	3.931046	0.665937	0.000039
 405	4.0198e+01	4.0162	-1.385168	0.000405	4.053891	0.686748	0.000041
 406	4.0297e+01	4.0260	-1.342805	0.000426	4.258633	0.721432	0.000043
 407	4.0397e+01	4.0319	-1.297997	0.000450	4.504323	0.763053	0.000045
 408	4.0496e+01	4.0466	-1.261336	0.000369	3.685355	0.624316	0.000037
 409	4.0596e+01	4.0559	-1.221009	0.000405	4.053891	0.686748	0.000041
 410	4.0696e+01	4.0665	-1.177424	0.000438	4.381478	0.742242	0.000044
 411	4.0795e+01	4.0741	-1.137911	0.000397	3.971994	0.672874	0.000040
 412	4.0895e+01	4.0830	-1.097992	0.000401	4.012942	0.679811	0.000040
 413	4.0994e+01	4.0961	-1.052369	0.000459	4.586220	0.776927	0.000046
 414	4.1093e+01	4.1042	-1.010821	0.000418	4.176736	0.707558	0.000042
 415	4.1193e+01	4.1147	-0.976196	0.000348	3.480613	0.589632	0.000035
 416	4.1292e+01	4.1207	-0.932611	0.000438	4.381478	0.742242	0.000044
 417	4.1392e+01	4.1344	-0.890247	0.000426	4.258633	0.721432	0.000043
 418	4.1492e+01	4.1451	-0.851142	0.000393	3.931046	0.665937	0.000039
 419	4.1591e+01	4.1572	-0.807557	0.000438	4.381478	0.742242	0.000044
 420	4.1691e+01	4.1667	-0.767230	0.000405	4.053891	0.686748	0.000041
 421	4.1790e+01	4.1738	-0.725273	0.000422	4.217684	0.714495	0.000042
 422	4.1889e+01	4.1853	-0.683724	0.000418	4.176736	0.707558	0.000042
 423	4.1989e+01	4.1953	-0.641768	0.000422	4.217684	0.714495	0.000042
 424	4.2089e+01	4.2041	-0.601034	0.000409	4.094839	0.693685	0.000041
 425	4.2188e+01	4.2166	-0.560300	0.000409	4.094839	0.693685	0.000041
 426	4.2288e+01	4.2240	-0.520787	0.000397	3.971994	0.672874	0.000040
 427	4.2387e+01	4.2333	-0.481275	0.000397	3.971994	0.672874	0.000040
 428	4.2486e+01	4.2471	-0.436875	0.000446	4.463375	0.756116	0.000045
 429	4.2586e+01	4.2565	-0.394511	0.000426	4.258633	0.721432	0.000043
 430	4.2685e+01	4.2647	-0.354592	0.000401	4.012942	0.679811	0.000040
 431	4.2785e+01	4.2712	-0.310191	0.000446	4.463375	0.756116	0.000045
 432	4.2885e+01	4.2837	-0.267013	0.000434	4.340530	0.735306	0.000043
 433	4.2984e+01	4.2938	-0.226279	0.000409	4.094839	0.693685	0.000041
 434	4.3084e+01	4.3063	-0.186767	0.000397	3.971994	0.672874	0.000040
 435	4.3183e+01	4.3128	-0.140737	0.000463	4.627168	0.783864	0.000046
 436	4.3282e+01	4.3246	-0.097559	0.000434	4.340530	0.735306	0.000043
 437	4.3382e+01	4.3329	-0.056417	0.000414	4.135788	0.700621	0.000041
 438	4.3481e+01	4.3441	-0.010387	0.000463	4.627168	0.783864	0.000046
 439	4.3581e+01	4.3544	0.030347	0.000409	4.094839	0.693685	0.000041
 440	4.3681e+01	4.3665	0.076377	0.000463	4.627168	0.783864	0.000046
 441	4.3780e+01	4.3740	0.122814	0.000467	4.668117	0.790800	0.000047
 442	4.3880e+01	4.3814	0.164363	0.000418	4.176736	0.707558	0.000042
 443	4.3979e+01	4.3941	0.207541	0.000434	4.340530	0.735306	0.000043
 444	4.4078e+01	4.4030	0.253571	0.000463	4.627168	0.783864	0.000046
 445	4.4178e+01	4.4152	0.295527	0.000422	4.217684	0.714495	0.000042
 446	4.4278e+01	4.4241	0.335854	0.000405	4.053891	0.686748	0.000041
 447	4.4377e+01	4.4351	0.379032	0.000434	4.340530	0.735306	0.000043
 448	4.4477e+01	4.4426	0.418137	0.000393	3.931046	0.665937	0.000039
 449	4.4576e+01	4.4509	0.464167	0.000463	4.627168	0.783864	0.000046
 450	4.4675e+01	4.4640	0.504494	0.000405	4.053891	0.686748	0.000041
 451	4.4775e+01	4.4732	0.548487	0.000442	4.422426	0.749179	0.000044
 452	4.4874e+01	4.4828	0.587592	0.000393	3.931046	0.665937	0.000039
 453	4.4974e+01	4.4942	0.628733	0.000414	4.135788	0.700621	0.000041
 454	4.5074e+01	4.5017	0.670282	0.000418	4.176736	0.707558	0.000042
 455	4.5173e+01	4.5119	0.711016	0.000409	4.094839	0.693685	0.000041
 456	4.5273e+01	4.5264	0.752973	0.000422	4.217684	0.714495	0.000042
 457	4.5372e+01	4.5319	0.793300	0.000405	4.053891	0.686748	0.000041
 458	4.5471e+01	4.5424	0.830368	0.000373	3.726304	0.631253	0.000037
 459	4.5571e+01	4.5518	0.869473	0.000393	3.931046	0.665937	0.000039
 460	4.5670e+01	4.5644	0.906948	0.000377	3.767252	0.638190	0.000038
 461	4.5770e+01	4.5718	0.947682	0.000409	4.094839	0.693685	0.000041
 462	4.5870e+01	4.5814	0.987195	0.000397	3.971994	0.672874	0.000040
 463	4.5969e+01	4.5945	1.025485	0.000385	3.849149	0.652063	0.000038
 464	4.6069e+01	4.6008	1.063368	0.000381	3.808200	0.645127	0.000038
 465	4.6168e+01	4.6153	1.100436	0.000373	3.726304	0.631253	0.000037
 466	4.6267e+01	4.6225	1.139133	0.000389	3.890097	0.659000	0.000039
 467	4.6367e+01	4.6317	1.173758	0.000348	3.480613	0.589632	0.000035
 468	4.6467e+01	4.6418	1.215714	0.000422	4.217684	0.714495	0.000042
 469	4.6566e+01	4.6561	1.252782	0.000373	3.726304	0.631253	0.000037
 470	4.6666e+01	4.6627	1.285777	0.000332	3.316820	0.561884	0.000033
 471	4.6765e+01	4.6731	1.328548	0.000430	4.299581	0.728369	0.000043
 472	4.6864e+01	4.6835	1.364394	0.000360	3.603459	0.610442	0.000036
 473	4.6964e+01	4.6914	1.397796	0.000336	3.357768	0.568821	0.000034
 474	4.7063e+01	4.7031	1.439345	0.000418	4.176736	0.707558	0.000042
 475	4.7163e+01	4.7128	1.473969	0.000348	3.480613	0.589632	0.000035
 476	4.7263e+01	4.7231	1.514703	0.000409	4.094839	0.693685	0.000041
 477	4.7362e+01	4.7338	1.552586	0.000381	3.808200	0.645127	0.000038
 478	4.7462e+01	4.7372	1.593728	0.000414	4.135788	0.700621	0.000041
 479	4.7561e+01	4.7526	1.624278	0.000307	3.071129	0.520263	0.000031
 480	4.7660e+01	4.7614	1.658088	0.000340	3.398717	0.575758	0.000034
 481	4.7760e+01	4.7720	1.698415	0.000405	4.053891	0.686748	0.000041
 482	4.7859e+01	4.7835	1.732224	0.000340	3.398717	0.575758	0.000034
 483	4.7959e+01	4.7907	1.767256	0.000352	3.521562	0.596569	0.000035
 484	4.8059e+01	4.8022	1.807583	0.000405	4.053891	0.686748	0.000041
 485	4.8158e+01	4.8133	1.842207	0.000348	3.480613	0.589632	0.000035
 486	4.8258e+01	4.8212	1.874387	0.000323	3.234923	0.548011	0.000032
 487	4.8357e+01	4.8306	1.911862	0.000377	3.767252	0.638190	0.000038
 488	4.8456e+01	4.8415	1.950560	0.000389	3.890097	0.659000	0.000039
 489	4.8556e+01	4.8531	1.985184	0.000348	3.480613	0.589632	0.000035
 490	4.8656e+01	4.8603	2.022252	0.000373	3.726304	0.631253	0.000037
 491	4.8755e+01	4.8730	2.058098	0.000360	3.603459	0.610442	0.000036
 492	4.8855e+01	4.8810	2.095981	0.000381	3.808200	0.645127	0.000038
 493	4.8954e+01	4.8939	2.128569	0.000328	3.275871	0.554948	0.000033
 494	4.9053e+01	4.8997	2.165637	0.000373	3.726304	0.631253	0.000037
 495	4.9153e+01	4.9108	2.201483	0.000360	3.603459	0.610442	0.000036
 496	4.9252e+01	4.9235	2.234885	0.000336	3.357768	0.568821	0.000034
 497	4.9352e+01	4.9316	2.269916	0.000352	3.521562	0.596569	0.000035
 498	4.9452e+01	4.9427	2.306985	0.000373	3.726304	0.631253	0.000037
 499	4.9551e+01	4.9508	2.342831	0.000360	3.603459	0.610442	0.000036
 500	4.9651e+01	4.9592	2.376640	0.000340	3.398717	0.575758	0.000034
 501	4.9750e+01	4.9699	2.413708	0.000373	3.726304	0.631253	0.000037
 502	4.9849e+01	4.9809	2.448332	0.000348	3.480613	0.589632	0.000035
 503	4.9949e+01	4.9917	2.480512	0.000323	3.234923	0.548011	0.000032
 504	5.0048e+01	5.0031	2.520839	0.000405	4.053891	0.686748	0.000041
 505	5.0148e+01	5.0076	2.552612	0.000319	3.193975	0.541074	0.000032
 506	5.0248e+01	5.0214	2.589273	0.000369	3.685355	0.624316	0.000037
 507	5.0347e+01	5.0295	2.625119	0.000360	3.603459	0.610442	0.000036
 508	5.0447e+01	5.0430	2.657706	0.000328	3.275871	0.554948	0.000033
 509	5.0546e+01	5.0497	2.692331	0.000348	3.480613	0.589632	0.000035
 510	5.0645e+01	5.0591	2.729806	0.000377	3.767252	0.638190	0.000038
 511	5.0745e+01	5.0721	2.765652	0.000360	3.603459	0.610442	0.000036
 512	5.0844e+01	5.0800	2.796203	0.000307	3.071129	0.520263	0.000031
 513	5.0944e+01	5.0911	2.833271	0.000373	3.726304	0.631253	0.000037
 514	5.1044e+01	5.0978	2.864229	0.000311	3.112078	0.527200	0.000031
 515	5.1143e+01	5.1089	2.896409	0.000323	3.234923	0.548011	0.000032
 516	5.1242e+01	5.1206	2.931848	0.000356	3.562510	0.603506	0.000036
 517	5.1342e+01	5.1304	2.964843	0.000332	3.316820	0.561884	0.000033
 518	5.1441e+01	5.1392	2.994986	0.000303	3.030181	0.513327	0.000030
 519	5.1541e+01	5.1501	3.026759	0.000319	3.193975	0.541074	0.000032
 520	5.1641e+01	5.1592	3.063827	0.000373	3.726304	0.631253	0.000037
 521	5.1740e+01	5.1702	3.093156	0.000295	2.948284	0.499453	0.000029
 522	5.1840e+01	5.1791	3.122077	0.000291	2.907336	0.492516	0.000029
 523	5.1939e+01	5.1890	3.154664	0.000328	3.275871	0.554948	0.000033
 524	5.2038e+01	5.1971	3.188474	0.000340	3.398717	0.575758	0.000034
 525	5.2138e+01	5.2136	3.215358	0.000270	2.702594	0.457832	0.000027
 526	5.2237e+01	5.2169	3.249983	0.000348	3.480613	0.589632	0.000035
 527	5.2337e+01	5.2296	3.279719	0.000299	2.989233	0.506390	0.000030
 528	5.2437e+01	5.2425	3.312713	0.000332	3.316820	0.561884	0.000033
 529	5.2536e+01	5.2493	3.346115	0.000336	3.357768	0.568821	0.000034
 530	5.2636e+01	5.2586	3.375037	0.000291	2.907336	0.492516	0.000029
 531	5.2735e+01	5.2709	3.408439	0.000336	3.357768	0.568821	0.000034
 532	5.2834e+01	5.2795	3.444285	0.000360	3.603459	0.610442	0.000036
 533	5.2934e+01	5.2882	3.476465	0.000323	3.234923	0.548011	0.000032
 534	5.3033e+01	5.2985	3.507016	0.000307	3.071129	0.520263	0.000031
 535	5.3133e+01	5.3104	3.539603	0.000328	3.275871	0.554948	0.000033
 536	5.3233e+01	5.3170	3.572598	0.000332	3.316820	0.561884	0.000033
 537	5.3332e+01	5.3289	3.607629	0.000352	3.521562	0.596569	0.000035
 538	5.3431e+01	5.3365	3.644290	0.000369	3.685355	0.624316	0.000037
 539	5.3531e+01	5.3497	3.675248	0.000311	3.112078	0.527200	0.000031
 540	5.3630e+01	5.3582	3.709058	0.000340	3.398717	0.575758	0.000034
 541	5.3730e+01	5.3680	3.744904	0.000360	3.603459	0.610442	0.000036
 542	5.3830e+01	5.3773	3.782787	0.000381	3.808200	0.645127	0.000038
 543	5.3929e+01	5.3876	3.815374	0.000328	3.275871	0.554948	0.000033
 544	5.4029e+01	5.3979	3.853257	0.000381	3.808200	0.645127	0.000038
 545	5.4128e+01	5.4092	3.886659	0.000336	3.357768	0.568821	0.000034
 546	5.4227e+01	5.4183	3.920876	0.000344	3.439665	0.582695	0.000034
 547	5.4327e+01	5.4287	3.957129	0.000364	3.644407	0.617379	0.000036
 548	5.4426e+01	5.4350	3.996234	0.000393	3.931046	0.665937	0.000039
 549	5.4526e+01	5.4458	4.031673	0.000356	3.562510	0.603506	0.000036
 550	5.4626e+01	5.4577	4.067519	0.000360	3.603459	0.610442	0.000036
 551	5.4725e+01	5.4712	4.103773	0.000364	3.644407	0.617379	0.000036
 552	5.4825e+01	5.4768	4.138397	0.000348	3.480613	0.589632	0.000035
 553	5.4924e+01	5.4865	4.173428	0.000352	3.521562	0.596569	0.000035
 554	5.5023e+01	5.4952	4.210496	0.000373	3.726304	0.631253	0.000037
 555	5.5123e+01	5.5085	4.244306	0.000340	3.398717	0.575758	0.000034
 556	5.5222e+01	5.5189	4.279745	0.000356	3.562510	0.603506	0.000036
 557	5.5322e+01	5.5299	4.315591	0.000360	3.603459	0.610442	0.000036
 558	5.5422e+01	5.5352	4.354288	0.000389	3.890097	0.659000	0.000039
 559	5.5521e+01	5.5489	4.392986	0.000389	3.890097	0.659000	0.000039
 560	5.5620e+01	5.5584	4.423944	0.000311	3.112078	0.527200	0.000031
 561	5.5720e+01	5.5695	4.465900	0.000422	4.217684	0.714495	0.000042
 562	5.5819e+01	5.5779	4.501746	0.000360	3.603459	0.610442	0.000036
 563	5.5919e+01	5.5875	4.539629	0.000381	3.808200	0.645127	0.000038
 564	5.6019e+01	5.5965	4.575475	0.000360	3.603459	0.610442	0.000036
 565	5.6118e+01	5.6069	4.610507	0.000352	3.521562	0.596569	0.000035
 566	5.6218e+01	5.6179	4.644723	0.000344	3.439665	0.582695	0.000034
 567	5.6317e+01	5.6277	4.685458	0.000409	4.094839	0.693685	0.000041
 568	5.6416e+01	5.6358	4.723341	0.000381	3.808200	0.645127	0.000038
 569	5.6516e+01	5.6474	4.756743	0.000336	3.357768	0.568821	0.000034
 570	5.6615e+01	5.6565	4.792996	0.000364	3.644407	0.617379	0.000036
 571	5.6715e+01	5.6696	4.830879	0.000381	3.808200	0.645127	0.000038
 572	5.6815e+01	5.6779	4.864281	0.000336	3.357768	0.568821	0.000034
 573	5.6914e+01	5.6853	4.903793	0.000397	3.971994	0.672874	0.000040
 574	5.7014e+01	5.6977	4.939639	0.000360	3.603459	0.610442	0.000036
 575	5.7113e+01	5.7087	4.978744	0.000393	3.931046	0.665937	0.000039
 576	5.7212e+01	5.7191	5.016627	0.000381	3.808200	0.645127	0.000038
 577	5.7312e+01	5.7256	5.054510	0.000381	3.808200	0.645127	0.000038
 578	5.7411e+01	5.7380	5.089949	0.000356	3.562510	0.603506	0.000036
 579	5.7511e+01	5.7469	5.127832	0.000381	3.808200	0.645127	0.000038
 580	5.7611e+01	5.7572	5.164900	0.000373	3.726304	0.631253	0.000037
 581	5.7710e+01	5.7659	5.200339	0.000356	3.562510	0.603506	0.000036
 582	5.7809e+01	5.7769	5.238222	0.000381	3.808200	0.645127	0.000038
 583	5.7909e+01	5.7862	5.272846	0.000348	3.480613	0.589632	0.000035
 584	5.8008e+01	5.7987	5.311543	0.000389	3.890097	0.659000	0.000039
 585	5.8108e+01	5.8083	5.346575	0.000352	3.521562	0.596569	0.000035
 586	5.8208e+01	5.8172	5.383643	0.000373	3.726304	0.631253	0.000037
 587	5.8307e+01	5.8283	5.425192	0.000418	4.176736	0.707558	0.000042
 588	5.8407e+01	5.8337	5.457372	0.000323	3.234923	0.548011	0.000032
 589	5.8506e+01	5.8469	5.493625	0.000364	3.644407	0.617379	0.000036
 590	5.8605e+01	5.8562	5.533545	0.000401	4.012942	0.679811	0.000040
 591	5.8705e+01	5.8662	5.569798	0.000364	3.644407	0.617379	0.000036
 592	5.8804e+01	5.8765	5.605645	0.000360	3.603459	0.610442	0.000036
 593	5.8904e+01	5.8893	5.642713	0.000373	3.726304	0.631253	0.000037
 594	5.9004e+01	5.8968	5.681818	0.000393	3.931046	0.665937	0.000039
 595	5.9103e+01	5.9074	5.718886	0.000373	3.726304	0.631253	0.000037
 596	5.9203e+01	5.9161	5.757991	0.000393	3.931046	0.665937	0.000039
 597	5.9302e+01	5.9254	5.790578	0.000328	3.275871	0.554948	0.000033
 598	5.9401e+01	5.9365	5.832534	0.000422	4.217684	0.714495	0.000042
 599	5.9501e+01	5.9452	5.870825	0.000385	3.849149	0.652063	0.000038
 600	5.9600e+01	5.9563	5.907485	0.000369	3.685355	0.624316	0.000037
 601	5.9700e+01	5.9652	5.943739	0.000364	3.644407	0.617379	0.000036
 602	5.9800e+01	5.9750	5.986102	0.000426	4.258633	0.721432	0.000043
 603	5.9899e+01	5.9875	6.023578	0.000377	3.767252	0.638190	0.000038
 604	5.9998e+01	5.9965	6.063090	0.000397	3.971994	0.672874	0.000040
 605	6.0098e+01	6.0036	6.097714	0.000348	3.480613	0.589632	0.000035
 606	6.0197e+01	6.0149	6.140485	0.000430	4.299581	0.728369	0.000043
 607	6.0297e+01	6.0247	6.182849	0.000426	4.258633	0.721432	0.000043
 608	6.0397e+01	6.0360	6.221954	0.000393	3.931046	0.665937	0.000039
 609	6.0496e+01	6.0458	6.265539	0.000438	4.381478	0.742242	0.000044
 610	6.0596e+01	6.0538	6.306274	0.000409	4.094839	0.693685	0.000041
 611	6.0695e+01	6.0638	6.342935	0.000369	3.685355	0.624316	0.000037
 612	6.0794e+01	6.0751	6.381225	0.000385	3.849149	0.652063	0.000038
 613	6.0894e+01	6.0886	6.419108	0.000381	3.808200	0.645127	0.000038
 614	6.0993e+01	6.0922	6.458620	0.000397	3.971994	0.672874	0.000040
 615	6.1093e+01	6.1086	6.494466	0.000360	3.603459	0.610442	0.000036
 616	6.1193e+01	6.1144	6.532756	0.000385	3.849149	0.652063	0.000038
 617	6.1292e+01	6.1245	6.573083	0.000405	4.053891	0.686748	0.000041
 618	6.1392e+01	6.1370	6.611373	0.000385	3.849149	0.652063	0.000038
 619	6.1491e+01	6.1452	6.650886	0.000397	3.971994	0.672874	0.000040
 620	6.1590e+01	6.1552	6.686732	0.000360	3.603459	0.610442	0.000036
 621	6.1690e+01	6.1657	6.725022	0.000385	3.849149	0.652063	0.000038
 622	6.1789e+01	6.1745	6.761683	0.000369	3.685355	0.624316	0.000037
 623	6.1889e+01	6.1866	6.795085	0.000336	3.357768	0.568821	0.000034
 624	6.1989e+01	6.1982	6.831338	0.000364	3.644407	0.617379	0.000036
 625	6.2088e+01	6.2066	6.867592	0.000364	3.644407	0.617379	0.000036
 626	6.2188e+01	6.2139	6.899772	0.000323	3.234923	0.548011	0.000032
 627	6.2287e+01	6.2264	6.938469	0.000389	3.890097	0.659000	0.000039
 628	6.2386e+01	6.2324	6.974723	0.000364	3.644407	0.617379	0.000036
 629	6.2486e+01	6.2472	7.006903	0.000323	3.234923	0.548011	0.000032
 630	6.2586e+01	6.2545	7.044378	0.000377	3.767252	0.638190	0.000038
 631	6.2685e+01	6.2634	7.074929	0.000307	3.071129	0.520263	0.000031
 632	6.2785e+01	6.2749	7.111590	0.000369	3.685355	0.624316	0.000037
 633	6.2884e+01	6.2852	7.142955	0.000315	3.153026	0.534137	0.000032
 634	6.2983e+01	6.2942	7.180431	0.000377	3.767252	0.638190	0.000038
 635	6.3083e+01	6.3062	7.211796	0.000315	3.153026	0.534137	0.000032
 636	6.3182e+01	6.3116	7.244384	0.000328	3.275871	0.554948	0.000033
 637	6.3282e+01	6.3258	7.279822	0.000356	3.562510	0.603506	0.000036
 638	6.3382e+01	6.3383	7.313632	0.000340	3.398717	0.575758	0.000034
 639	6.3481e+01	6.3416	7.346627	0.000332	3.316820	0.561884	0.000033
 640	6.3581e+01	6.3538	7.379214	0.000328	3.275871	0.554948	0.000033
 641	6.3680e+01	6.3636	7.413431	0.000344	3.439665	0.582695	0.000034
 642	6.3779e+01	6.3717	7.442759	0.000295	2.948284	0.499453	0.000029
 643	6.3879e+01	6.3842	7.482272	0.000397	3.971994	0.672874	0.000040
 644	6.3978e+01	6.3938	7.514859	0.000328	3.275871	0.554948	0.000033
 645	6.4078e+01	6.4024	7.545410	0.000307	3.071129	0.520263	0.000031
 646	6.4177e+01	6.4129	7.578404	0.000332	3.316820	0.561884	0.000033
 647	6.4277e+01	6.4205	7.610585	0.000323	3.234923	0.548011	0.000032
 648	6.4376e+01	6.4317	7.645209	0.000348	3.480613	0.589632	0.000035
 649	6.4476e+01	6.4429	7.679833	0.000348	3.480613	0.589632	0.000035
 650	6.4576e+01	6.4543	7.712828	0.000332	3.316820	0.561884	0.000033
 651	6.4675e+01	6.4645	7.746230	0.000336	3.357768	0.568821	0.000034
 652	6.4775e+01	6.4730	7.776780	0.000307	3.071129	0.520263	0.000031
 653	6.4874e+01	6.4829	7.810590	0.000340	3.398717	0.575758	0.000034
 654	6.4974e+01	6.4911	7.839104	0.000287	2.866387	0.485579	0.000029
 655	6.5073e+01	6.5038	7.872098	0.000332	3.316820	0.561884	0.000033
 656	6.5172e+01	6.5134	7.909167	0.000373	3.726304	0.631253	0.000037
 657	6.5272e+01	6.5224	7.939717	0.000307	3.071129	0.520263	0.000031
 658	6.5371e+01	6.5315	7.969861	0.000303	3.030181	0.513327	0.000030
 659	6.5471e+01	6.5414	8.003263	0.000336	3.357768	0.568821	0.000034
 660	6.5570e+01	6.5526	8.033406	0.000303	3.030181	0.513327	0.000030
 661	6.5670e+01	6.5621	8.068438	0.000352	3.521562	0.596569	0.000035
 662	6.5769e+01	6.5716	8.099396	0.000311	3.112078	0.527200	0.000031
 663	6.5869e+01	6.5826	8.132390	0.000332	3.316820	0.561884	0.000033
 664	6.5969e+01	6.5926	8.160904	0.000287	2.866387	0.485579	0.000029
 665	6.6068e+01	6.6036	8.195936	0.000352	3.521562	0.596569	0.000035
 666	6.6168e+01	6.6113	8.227301	0.000315	3.153026	0.534137	0.000032
 667	6.6267e+01	6.6261	8.258259	0.000311	3.112078	0.527200	0.000031
 668	6.6367e+01	6.6338	8.291254	0.000332	3.316820	0.561884	0.000033
 669	6.6466e+01	6.6409	8.324249	0.000332	3.316820	0.561884	0.000033
 670	6.6566e+01	6.6521	8.351541	0.000274	2.743542	0.464769	0.000027
 671	6.6665e+01	6.6597	8.386979	0.000356	3.562510	0.603506	0.000036
 672	6.6764e+01	6.6715	8.419974	0.000332	3.316820	0.561884	0.000033
 673	6.6864e+01	6.6816	8.451340	0.000315	3.153026	0.534137	0.000032
 674	6.6963e+01	6.6918	8.485149	0.000340	3.398717	0.575758	0.000034
 675	6.7063e+01	6.7005	8.517736	0.000328	3.275871	0.554948	0.000033
 676	6.7162e+01	6.7121	8.549509	0.000319	3.193975	0.541074	0.000032
 677	6.7262e+01	6.7214	8.578430	0.000291	2.907336	0.492516	0.000029
 678	6.7362e+01	6.7339	8.606130	0.000278	2.784491	0.471705	0.000028
 679	6.7461e+01	6.7416	8.640347	0.000344	3.439665	0.582695	0.000034
 680	6.7561e+01	6.7510	8.668861	0.000287	2.866387	0.485579	0.000029
 681	6.7660e+01	6.7646	8.700226	0.000315	3.153026	0.534137	0.000032
 682	6.7760e+01	6.7723	8.729962	0.000299	2.989233	0.506390	0.000030
 683	6.7859e+01	6.7818	8.758476	0.000287	2.866387	0.485579	0.000029
 684	6.7959e+01	6.7920	8.787805	0.000295	2.948284	0.499453	0.000029
 685	6.8058e+01	6.8018	8.815096	0.000274	2.743542	0.464769	0.000027
 686	6.8157e+01	6.8139	8.850943	0.000360	3.603459	0.610442	0.000036
 687	6.8257e+01	6.8211	8.879049	0.000283	2.825439	0.478642	0.000028
 688	6.8356e+01	6.8301	8.905527	0.000266	2.661645	0.450895	0.000027
 689	6.8456e+01	6.8408	8.935670	0.000303	3.030181	0.513327	0.000030
 690	6.8555e+01	6.8514	8.964999	0.000295	2.948284	0.499453	0.000029
 691	6.8655e+01	6.8606	8.991476	0.000266	2.661645	0.450895	0.000027
 692	6.8754e+01	6.8705	9.018768	0.000274	2.743542	0.464769	0.000027
 693	6.8854e+01	6.8816	9.041579	0.000229	2.293110	0.388463	0.000023
 694	6.8954e+01	6.8891	9.072537	0.000311	3.112078	0.527200	0.000031
 695	6.9053e+01	6.8998	9.100236	0.000278	2.784491	0.471705	0.000028
 696	6.9153e+01	6.9105	9.132009	0.000319	3.193975	0.541074	0.000032
 697	6.9252e+01	6.9225	9.162560	0.000307	3.071129	0.520263	0.000031
 698	6.9352e+01	6.9307	9.189444	0.000270	2.702594	0.457832	0.000027
 699	6.9451e+01	6.9402	9.221624	0.000323	3.234923	0.548011	0.000032
 700	6.9550e+01	6.9531	9.248509	0.000270	2.702594	0.457832	0.000027
 701	6.9650e+01	6.9610	9.271320	0.000229	2.293110	0.388463	0.000023
 702	6.9749e+01	6.9704	9.309203	0.000381	3.808200	0.645127	0.000038
 703	6.9849e+01	6.9805	9.334866	0.000258	2.579749	0.437021	0.000026
 704	6.9948e+01	6.9898	9.367453	0.000328	3.275871	0.554948	0.000033
 705	7.0048e+01	7.0000	9.396782	0.000295	2.948284	0.499453	0.000029
 706	7.0147e+01	7.0105	9.428962	0.000323	3.234923	0.548011	0.000032
 707	7.0247e+01	7.0206	9.459920	0.000311	3.112078	0.527200	0.000031
 708	7.0347e+01	7.0287	9.492507	0.000328	3.275871	0.554948	0.000033
 709	7.0446e+01	7.0397	9.525909	0.000336	3.357768	0.568821	0.000034
 710	7.0546e+01	7.0484	9.554423	0.000287	2.866387	0.485579	0.000029
 711	7.0645e+01	7.0593	9.587825	0.000336	3.357768	0.568821	0.000034
 712	7.0745e+01	7.0692	9.619598	0.000319	3.193975	0.541074	0.000032
 713	7.0844e+01	7.0788	9.652185	0.000328	3.275871	0.554948	0.000033
 714	7.0944e+01	7.0918	9.683143	0.000311	3.112078	0.527200	0.000031
 715	7.1043e+01	7.1033	9.715324	0.000323	3.234923	0.548011	0.000032
 716	7.1142e+01	7.1106	9.753206	0.000381	3.808200	0.645127	0.000038
 717	7.1242e+01	7.1193	9.786201	0.000332	3.316820	0.561884	0.000033
 718	7.1341e+01	7.1271	9.814308	0.000283	2.825439	0.478642	0.000028
 719	7.1441e+01	7.1400	9.848525	0.000344	3.439665	0.582695	0.000034
 720	7.1540e+01	7.1471	9.882741	0.000344	3.439665	0.582695	0.000034
 721	7.1640e+01	7.1563	9.914514	0.000319	3.193975	0.541074	0.000032
 722	7.1740e+01	7.1708	9.950768	0.000364	3.644407	0.617379	0.000036
 723	7.1839e+01	7.1774	9.982133	0.000315	3.153026	0.534137	0.000032
 724	7.1939e+01	7.1892	10.015128	0.000332	3.316820	0.561884	0.000033
 725	7.2038e+01	7.1996	10.044049	0.000291	2.907336	0.492516	0.000029
 726	7.2138e+01	7.2086	10.080302	0.000364	3.644407	0.617379	0.000036
 727	7.2237e+01	7.2184	10.114927	0.000348	3.480613	0.589632	0.000035
 728	7.2337e+01	7.2265	10.147107	0.000323	3.234923	0.548011	0.000032
 729	7.2436e+01	7.2402	10.181323	0.000344	3.439665	0.582695	0.000034
 730	7.2535e+01	7.2512	10.215948	0.000348	3.480613	0.589632	0.000035
 731	7.2635e+01	7.2587	10.254645	0.000389	3.890097	0.659000	0.000039
 732	7.2734e+01	7.2672	10.281937	0.000274	2.743542	0.464769	0.000027
 733	7.2834e+01	7.2814	10.318191	0.000364	3.644407	0.617379	0.000036
 734	7.2933e+01	7.2901	10.350778	0.000328	3.275871	0.554948	0.000033
 735	7.3033e+01	7.2999	10.381736	0.000311	3.112078	0.527200	0.000031
 736	7.3132e+01	7.3093	10.417582	0.000360	3.603459	0.610442	0.000036
 737	7.3232e+01	7.3206	10.451392	0.000340	3.398717	0.575758	0.000034
 738	7.3332e+01	7.3297	10.483572	0.000323	3.234923	0.548011	0.000032
 739	7.3431e+01	7.3386	10.519825	0.000364	3.644407	0.617379	0.000036
 740	7.3531e+01	7.3489	10.554449	0.000348	3.480613	0.589632	0.000035
 741	7.3630e+01	7.3585	10.589481	0.000352	3.521562	0.596569	0.000035
 742	7.3730e+01	7.3663	10.621661	0.000323	3.234923	0.548011	0.000032
 743	7.3829e+01	7.3794	10.658729	0.000373	3.726304	0.631253	0.000037
 744	7.3928e+01	7.3885	10.692538	0.000340	3.398717	0.575758	0.000034
 745	7.4028e+01	7.3982	10.730829	0.000385	3.849149	0.652063	0.000038
 746	7.4127e+01	7.4065	10.759342	0.000287	2.866387	0.485579	0.000029
 747	7.4227e+01	7.4195	10.795189	0.000360	3.603459	0.610442	0.000036
 748	7.4326e+01	7.4282	10.828183	0.000332	3.316820	0.561884	0.000033
 749	7.4426e+01	7.4365	10.862400	0.000344	3.439665	0.582695	0.000034
 750	7.4525e+01	7.4469	10.896617	0.000344	3.439665	0.582695	0.000034
 751	7.4625e+01	7.4599	10.930834	0.000344	3.439665	0.582695	0.000034
 752	7.4725e+01	7.4712	10.962606	0.000319	3.193975	0.541074	0.000032
 753	7.4824e+01	7.4789	10.999267	0.000369	3.685355	0.624316	0.000037
 754	7.4924e+01	7.4882	11.033484	0.000344	3.439665	0.582695	0.000034
 755	7.5023e+01	7.4969	11.070960	0.000377	3.767252	0.638190	0.000038
 756	7.5123e+01	7.5068	11.103140	0.000323	3.234923	0.548011	0.000032
 757	7.5222e+01	7.5181	11.136949	0.000340	3.398717	0.575758	0.000034
 758	7.5322e+01	7.5263	11.169944	0.000332	3.316820	0.561884	0.000033
 759	7.5421e+01	7.5384	11.204161	0.000344	3.439665	0.582695	0.000034
 760	7.5520e+01	7.5478	11.241229	0.000373	3.726304	0.631253	0.000037
 761	7.5620e+01	7.5567	11.278297	0.000373	3.726304	0.631253	0.000037
 762	7.5719e+01	7.5686	11.310070	0.000319	3.193975	0.541074	0.000032
 763	7.5819e+01	7.5784	11.342657	0.000328	3.275871	0.554948	0.000033
 764	7.5918e+01	7.5851	11.381355	0.000389	3.890097	0.659000	0.000039
 765	7.6018e+01	7.5986	11.417608	0.000364	3.644407	0.617379	0.000036
 766	7.6118e+01	7.6075	11.452640	0.000352	3.521562	0.596569	0.000035
 767	7.6217e+01	7.6177	11.490115	0.000377	3.767252	0.638190	0.000038
 768	7.6317e+01	7.6305	11.524739	0.000348	3.480613	0.589632	0.000035
 769	7.6416e+01	7.6355	11.558956	0.000344	3.439665	0.582695	0.000034
 770	7.6516e+01	7.6441	11.594395	0.000356	3.562510	0.603506	0.000036
 771	7.6615e+01	7.6567	11.631463	0.000373	3.726304	0.631253	0.000037
 772	7.6715e+01	7.6675	11.668938	0.000377	3.767252	0.638190	0.000038
 773	7.6814e+01	7.6739	11.705599	0.000369	3.685355	0.624316	0.000037
 774	7.6913e+01	7.6876	11.743482	0.000381	3.808200	0.645127	0.000038
 775	7.7013e+01	7.6989	11.779736	0.000364	3.644407	0.617379	0.000036
 776	7.7112e+01	7.7058	11.817618	0.000381	3.808200	0.645127	0.000038
 777	7.7212e+01	7.7173	11.856316	0.000389	3.890097	0.659000	0.000039
 778	7.7311e+01	7.7250	11.895421	0.000393	3.931046	0.665937	0.000039
 779	7.7411e+01	7.7351	11.934526	0.000393	3.931046	0.665937	0.000039
 780	7.7510e+01	7.7448	11.967928	0.000336	3.357768	0.568821	0.000034
 781	7.7610e+01	7.7589	12.002959	0.000352	3.521562	0.596569	0.000035
 782	7.7710e+01	7.7647	12.039620	0.000369	3.685355	0.624316	0.000037
 783	7.7809e+01	7.7749	12.075059	0.000356	3.562510	0.603506	0.000036
 784	7.7909e+01	7.7842	12.111312	0.000364	3.644407	0.617379	0.000036
 785	7.8008e+01	7.7957	12.149603	0.000385	3.849149	0.652063	0.000038
 786	7.8108e+01	7.8049	12.185041	0.000356	3.562510	0.603506	0.000036
 787	7.8207e+01	7.8192	12.222110	0.000373	3.726304	0.631253	0.000037
 788	7.8306e+01	7.8239	12.259178	0.000373	3.726304	0.631253	0.000037
 789	7.8406e+01	7.8396	12.292580	0.000336	3.357768	0.568821	0.000034
 790	7.8505e+01	7.8481	12.325575	0.000332	3.316820	0.561884	0.000033
 791	7.8605e+01	7.8594	12.356940	0.000315	3.153026	0.534137	0.000032
 792	7.8704e+01	7.8641	12.394008	0.000373	3.726304	0.631253	0.000037
 793	7.8804e+01	7.8747	12.424559	0.000307	3.071129	0.520263	0.000031
 794	7.8903e+01	7.8861	12.460405	0.000360	3.603459	0.610442	0.000036
 795	7.9003e+01	7.8940	12.490141	0.000299	2.989233	0.506390	0.000030
 796	7.9103e+01	7.9050	12.527616	0.000377	3.767252	0.638190	0.000038
 797	7.9202e+01	7.9152	12.558167	0.000307	3.071129	0.520263	0.000031
 798	7.9302e+01	7.9238	12.589125	0.000311	3.112078	0.527200	0.000031
 799	7.9401e+01	7.9361	12.623749	0.000348	3.480613	0.589632	0.000035
 800	7.9501e+01	7.9424	12.652671	0.000291	2.907336	0.492516	0.000029
 801	7.9600e+01	7.9547	12.688517	0.000360	3.603459	0.610442	0.000036
 802	7.9700e+01	7.9643	12.718253	0.000299	2.989233	0.506390	0.000030
 803	7.9799e+01	7.9774	12.752062	0.000340	3.398717	0.575758	0.000034
 804	7.9898e+01	7.9867	12.783020	0.000311	3.112078	0.527200	0.000031
 805	7.9998e+01	7.9958	12.812349	0.000295	2.948284	0.499453	0.000029
 806	8.0097e+01	8.0059	12.847788	0.000356	3.562510	0.603506	0.000036
 807	8.0197e+01	8.0164	12.882005	0.000344	3.439665	0.582695	0.000034
 808	8.0296e+01	8.0255	12.911333	0.000295	2.948284	0.499453	0.000029
 809	8.0396e+01	8.0362	12.945143	0.000340	3.398717	0.575758	0.000034
 810	8.0496e+01	8.0461	12.976508	0.000315	3.153026	0.534137	0.000032
 811	8.0595e+01	8.0563	13.009503	0.000332	3.316820	0.561884	0.000033
 812	8.0695e+01	8.0640	13.038424	0.000291	2.907336	0.492516	0.000029
 813	8.0794e+01	8.0746	13.071826	0.000336	3.357768	0.568821	0.000034
 814	8.0894e+01	8.0848	13.106043	0.000344	3.439665	0.582695	0.000034
 815	8.0993e+01	8.0958	13.136186	0.000303	3.030181	0.513327	0.000030
 816	8.1093e+01	8.1042	13.170403	0.000344	3.439665	0.582695	0.000034
 817	8.1192e+01	8.1138	13.199324	0.000291	2.907336	0.492516	0.000029
 818	8.1291e+01	8.1226	13.229060	0.000299	2.989233	0.506390	0.000030
 819	8.1391e+01	8.1360	13.259611	0.000307	3.071129	0.520263	0.000031
 820	8.1490e+01	8.1454	13.287718	0.000283	2.825439	0.478642	0.000028
 821	8.1590e+01	8.1565	13.319898	0.000323	3.234923	0.548011	0.000032
 822	8.1689e+01	8.1652	13.352893	0.000332	3.316820	0.561884	0.000033
 823	8.1789e+01	8.1769	13.383851	0.000311	3.112078	0.527200	0.000031
 824	8.1888e+01	8.1824	13.413179	0.000295	2.948284	0.499453	0.000029
 825	8.1988e+01	8.1980	13.444545	0.000315	3.153026	0.534137	0.000032
 826	8.2088e+01	8.2057	13.476725	0.000323	3.234923	0.548011	0.000032
 827	8.2187e+01	8.2165	13.508905	0.000323	3.234923	0.548011	0.000032
 828	8.2287e+01	8.2247	13.538233	0.000295	2.948284	0.499453	0.000029
 829	8.2386e+01	8.2320	13.566747	0.000287	2.866387	0.485579	0.000029
 830	8.2486e+01	8.2436	13.599335	0.000328	3.275871	0.554948	0.000033
 831	8.2585e+01	8.2542	13.628663	0.000295	2.948284	0.499453	0.000029
 832	8.2684e+01	8.2620	13.664510	0.000360	3.603459	0.610442	0.000036
 833	8.2784e+01	8.2716	13.693024	0.000287	2.866387	0.485579	0.000029
 834	8.2883e+01	8.2842	13.722760	0.000299	2.989233	0.506390	0.000030
 835	8.2983e+01	8.2952	13.754940	0.000323	3.234923	0.548011	0.000032
 836	8.3082e+01	8.3060	13.782639	0.000278	2.784491	0.471705	0.000028
 837	8.3182e+01	8.3130	13.820114	0.000377	3.767252	0.638190	0.000038
 838	8.3281e+01	8.3212	13.844148	0.000242	2.415955	0.409274	0.000024
 839	8.3381e+01	8.3328	13.876735	0.000328	3.275871	0.554948	0.000033
 840	8.3481e+01	8.3436	13.911766	0.000352	3.521562	0.596569	0.000035
 841	8.3580e+01	8.3521	13.937836	0.000262	2.620697	0.443958	0.000026
 842	8.3680e+01	8.3643	13.971646	0.000340	3.398717	0.575758	0.000034
 843	8.3779e+01	8.3732	14.003826	0.000323	3.234923	0.548011	0.000032
 844	8.3879e+01	8.3832	14.031933	0.000283	2.825439	0.478642	0.000028
 845	8.3978e+01	8.3948	14.062891	0.000311	3.112078	0.527200	0.000031
 846	8.4078e+01	8.4016	14.090590	0.000278	2.784491	0.471705	0.000028
 847	8.4177e+01	8.4153	14.124399	0.000340	3.398717	0.575758	0.000034
 848	8.4276e+01	8.4223	14.154543	0.000303	3.030181	0.513327	0.000030
 849	8.4376e+01	8.4315	14.181020	0.000266	2.661645	0.450895	0.000027
 850	8.4475e+01	8.4458	14.212385	0.000315	3.153026	0.534137	0.000032
 851	8.4575e+01	8.4528	14.242936	0.000307	3.071129	0.520263	0.000031
 852	8.4674e+01	8.4628	14.269413	0.000266	2.661645	0.450895	0.000027
 853	8.4774e+01	8.4726	14.299149	0.000299	2.989233	0.506390	0.000030
 854	8.4874e+01	8.4814	14.326441	0.000274	2.743542	0.464769	0.000027
 855	8.4973e+01	8.4942	14.359436	0.000332	3.316820	0.561884	0.000033
 856	8.5073e+01	8.5011	14.387135	0.000278	2.784491	0.471705	0.000028
 857	8.5172e+01	8.5156	14.416057	0.000291	2.907336	0.492516	0.000029
 858	8.5272e+01	8.5224	14.440497	0.000246	2.456904	0.416211	0.000025
 859	8.5371e+01	8.5315	14.468196	0.000278	2.784491	0.471705	0.000028
 860	8.5471e+01	8.5430	14.494266	0.000262	2.620697	0.443958	0.000026
 861	8.5570e+01	8.5514	14.518707	0.000246	2.456904	0.416211	0.000025
 862	8.5669e+01	8.5609	14.549258	0.000307	3.071129	0.520263	0.000031
 863	8.5769e+01	8.5693	14.575735	0.000266	2.661645	0.450895	0.000027
 864	8.5868e+01	8.5799	14.608322	0.000328	3.275871	0.554948	0.000033
 865	8.5968e+01	8.5931	14.636836	0.000287	2.866387	0.485579	0.000029
 866	8.6067e+01	8.6066	14.668609	0.000319	3.193975	0.541074	0.000032
 867	8.6167e+01	8.6121	14.696308	0.000278	2.784491	0.471705	0.000028
 868	8.6266e+01	8.6206	14.723193	0.000270	2.702594	0.457832	0.000027
 869	8.6366e+01	8.6304	14.751299	0.000283	2.825439	0.478642	0.000028
 870	8.6466e+01	8.6406	14.785109	0.000340	3.398717	0.575758	0.000034
 871	8.6565e+01	8.6523	14.816067	0.000311	3.112078	0.527200	0.000031
 872	8.6665e+01	8.6647	14.845396	0.000295	2.948284	0.499453	0.000029
 873	8.6764e+01	8.6714	14.875132	0.000299	2.989233	0.506390	0.000030
 874	8.6864e+01	8.6805	14.907312	0.000323	3.234923	0.548011	0.000032
 875	8.6963e+01	8.6937	14.937862	0.000307	3.071129	0.520263	0.000031
 876	8.7063e+01	8.7016	14.968413	0.000307	3.071129	0.520263	0.000031
 877	8.7162e+01	8.7134	15.006703	0.000385	3.849149	0.652063	0.000038
 878	8.7261e+01	8.7222	15.034403	0.000278	2.784491	0.471705	0.000028
 879	8.7361e+01	8.7329	15.068619	0.000344	3.439665	0.582695	0.000034
 880	8.7460e+01	8.7420	15.101207	0.000328	3.275871	0.554948	0.000033
 881	8.7560e+01	8.7506	15.135424	0.000344	3.439665	0.582695	0.000034
 882	8.7659e+01	8.7623	15.169640	0.000344	3.439665	0.582695	0.000034
 883	8.7759e+01	8.7717	15.199784	0.000303	3.030181	0.513327	0.000030
 884	8.7859e+01	8.7819	15.236037	0.000364	3.644407	0.617379	0.000036
 885	8.7958e+01	8.7897	15.269439	0.000336	3.357768	0.568821	0.000034
 886	8.8058e+01	8.8021	15.302841	0.000336	3.357768	0.568821	0.000034
 887	8.8157e+01	8.8110	15.328911	0.000262	2.620697	0.443958	0.000026
 888	8.8257e+01	8.8202	15.370053	0.000414	4.135788	0.700621	0.000041
 889	8.8356e+01	8.8301	15.403455	0.000336	3.357768	0.568821	0.000034
 890	8.8456e+01	8.8391	15.434820	0.000315	3.153026	0.534137	0.000032
 891	8.8555e+01	8.8506	15.470666	0.000360	3.603459	0.610442	0.000036
 892	8.8654e+01	8.8599	15.501624	0.000311	3.112078	0.527200	0.000031
 893	8.8754e+01	8.8721	15.535434	0.000340	3.398717	0.575758	0.000034
 894	8.8853e+01	8.8834	15.570058	0.000348	3.480613	0.589632	0.000035
 895	8.8953e+01	8.8902	15.604275	0.000344	3.439665	0.582695	0.000034
 896	8.9052e+01	8.8965	15.638899	0.000348	3.480613	0.589632	0.000035
 897	8.9152e+01	8.9074	15.671486	0.000328	3.275871	0.554948	0.000033
 898	8.9251e+01	8.9196	15.709777	0.000385	3.849149	0.652063	0.000038
 899	8.9351e+01	8.9314	15.743586	0.000340	3.398717	0.575758	0.000034
 900	8.9451e+01	8.9410	15.778617	0.000352	3.521562	0.596569	0.000035
 901	8.9550e+01	8.9502	15.812427	0.000340	3.398717	0.575758	0.000034
 902	8.9650e+01	8.9609	15.850310	0.000381	3.808200	0.645127	0.000038
 903	8.9749e+01	8.9684	15.886563	0.000364	3.644407	0.617379	0.000036
 904	8.9849e+01	8.9780	15.922817	0.000364	3.644407	0.617379	0.000036
 905	8.9948e+01	8.9893	15.955404	0.000328	3.275871	0.554948	0.000033
 906	9.0047e+01	8.9960	15.990436	0.000352	3.521562	0.596569	0.000035
 907	9.0147e+01	9.0103	16.023430	0.000332	3.316820	0.561884	0.000033
 908	9.0246e+01	9.0202	16.060906	0.000377	3.767252	0.638190	0.000038
 909	9.0346e+01	9.0298	16.094308	0.000336	3.357768	0.568821	0.000034
 910	9.0445e+01	9.0396	16.133820	0.000397	3.971994	0.672874	0.000040
 911	9.0545e+01	9.0493	16.170888	0.000373	3.726304	0.631253	0.000037
 912	9.0644e+01	9.0594	16.206734	0.000360	3.603459	0.610442	0.000036
 913	9.0744e+01	9.0692	16.239729	0.000332	3.316820	0.561884	0.000033
 914	9.0844e+01	9.0796	16.277612	0.000381	3.808200	0.645127	0.000038
 915	9.0943e+01	9.0903	16.317939	0.000405	4.053891	0.686748	0.000041
 916	9.1043e+01	9.0986	16.351748	0.000340	3.398717	0.575758	0.000034
 917	9.1142e+01	9.1113	16.384743	0.000332	3.316820	0.561884	0.000033
 918	9.1242e+01	9.1177	16.424255	0.000397	3.971994	0.672874	0.000040
 919	9.1341e+01	9.1288	16.460916	0.000369	3.685355	0.624316	0.000037
 920	9.1441e+01	9.1388	16.493096	0.000323	3.234923	0.548011	0.000032
 921	9.1540e+01	9.1479	16.531386	0.000385	3.849149	0.652063	0.000038
 922	9.1639e+01	9.1586	16.566418	0.000352	3.521562	0.596569	0.000035
 923	9.1739e+01	9.1684	16.602671	0.000364	3.644407	0.617379	0.000036
 924	9.1838e+01	9.1756	16.638518	0.000360	3.603459	0.610442	0.000036
 925	9.1938e+01	9.1895	16.677622	0.000393	3.931046	0.665937	0.000039
 926	9.2037e+01	9.1972	16.714283	0.000369	3.685355	0.624316	0.000037
 927	9.2137e+01	9.2100	16.750537	0.000364	3.644407	0.617379	0.000036
 928	9.2237e+01	9.2179	16.788827	0.000385	3.849149	0.652063	0.000038
 929	9.2336e+01	9.2280	16.826710	0.000381	3.808200	0.645127	0.000038
 930	9.2436e+01	9.2368	16.862963	0.000364	3.644407	0.617379	0.000036
 931	9.2535e+01	9.2484	16.896773	0.000340	3.398717	0.575758	0.000034
 932	9.2635e+01	9.2585	16.937914	0.000414	4.135788	0.700621	0.000041
 933	9.2734e+01	9.2677	16.977834	0.000401	4.012942	0.679811	0.000040
 934	9.2834e+01	9.2786	17.010829	0.000332	3.316820	0.561884	0.000033
 935	9.2933e+01	9.2890	17.054007	0.000434	4.340530	0.735306	0.000043
 936	9.3032e+01	9.2997	17.092704	0.000389	3.890097	0.659000	0.000039
 937	9.3132e+01	9.3054	17.131402	0.000389	3.890097	0.659000	0.000039
 938	9.3231e+01	9.3196	17.172136	0.000409	4.094839	0.693685	0.000041
 939	9.3331e+01	9.3286	17.211241	0.000393	3.931046	0.665937	0.000039
 940	9.3430e+01	9.3408	17.249531	0.000385	3.849149	0.652063	0.000038
 941	9.3530e+01	9.3484	17.291080	0.000418	4.176736	0.707558	0.000042
 942	9.3629e+01	9.3583	17.332222	0.000414	4.135788	0.700621	0.000041
 943	9.3729e+01	9.3681	17.370105	0.000381	3.808200	0.645127	0.000038
 944	9.3829e+01	9.3792	17.414505	0.000446	4.463375	0.756116	0.000045
 945	9.3928e+01	9.3867	17.456461	0.000422	4.217684	0.714495	0.000042
 946	9.4028e+01	9.3952	17.498010	0.000418	4.176736	0.707558	0.000042
 947	9.4127e+01	9.4096	17.537523	0.000397	3.971994	0.672874	0.000040
 948	9.4227e+01	9.4166	17.573369	0.000360	3.603459	0.610442	0.000036
 949	9.4326e+01	9.4296	17.616547	0.000434	4.340530	0.735306	0.000043
 950	9.4425e+01	9.4371	17.657281	0.000409	4.094839	0.693685	0.000041
 951	9.4525e+01	9.4467	17.690683	0.000336	3.357768	0.568821	0.000034
 952	9.4624e+01	9.4595	17.737120	0.000467	4.668117	0.790800	0.000047
 953	9.4724e+01	9.4643	17.770115	0.000332	3.316820	0.561884	0.000033
 954	9.4823e+01	9.4775	17.811257	0.000414	4.135788	0.700621	0.000041
 955	9.4923e+01	9.4863	17.851991	0.000409	4.094839	0.693685	0.000041
 956	9.5022e+01	9.4959	17.894762	0.000430	4.299581	0.728369	0.000043
 957	9.5122e+01	9.5049	17.931015	0.000364	3.644407	0.617379	0.000036
 958	9.5222e+01	9.5166	17.968084	0.000373	3.726304	0.631253	0.000037
 959	9.5321e+01	9.5280	18.007596	0.000397	3.971994	0.672874	0.000040
 960	9.5421e+01	9.5364	18.043035	0.000356	3.562510	0.603506	0.000036
 961	9.5520e+01	9.5448	18.082954	0.000401	4.012942	0.679811	0.000040
 962	9.5620e+01	9.5549	18.117171	0.000344	3.439665	0.582695	0.000034
 963	9.5719e+01	9.5667	18.152610	0.000356	3.562510	0.603506	0.000036
 964	9.5819e+01	9.5768	18.191715	0.000393	3.931046	0.665937	0.000039
 965	9.5918e+01	9.5893	18.227968	0.000364	3.644407	0.617379	0.000036
 966	9.6017e+01	9.5947	18.265036	0.000373	3.726304	0.631253	0.000037
 967	9.6117e+01	9.6046	18.304549	0.000397	3.971994	0.672874	0.000040
 968	9.6216e+01	9.6156	18.342024	0.000377	3.767252	0.638190	0.000038
 969	9.6316e+01	9.6255	18.373797	0.000319	3.193975	0.541074	0.000032
 970	9.6415e+01	9.6338	18.412087	0.000385	3.849149	0.652063	0.000038
 971	9.6515e+01	9.6487	18.449970	0.000381	3.808200	0.645127	0.000038
 972	9.6615e+01	9.6558	18.486631	0.000369	3.685355	0.624316	0.000037
 973	9.6714e+01	9.6680	18.522884	0.000364	3.644407	0.617379	0.000036
 974	9.6814e+01	9.6733	18.559952	0.000373	3.726304	0.631253	0.000037
 975	9.6913e+01	9.6847	18.595798	0.000360	3.603459	0.610442	0.000036
 976	9.7013e+01	9.6928	18.632459	0.000369	3.685355	0.624316	0.000037
 977	9.7112e+01	9.7033	18.672786	0.000405	4.053891	0.686748	0.000041
 978	9.7212e+01	9.7168	18.709040	0.000364	3.644407	0.617379	0.000036
 979	9.7311e+01	9.7254	18.748552	0.000397	3.971994	0.672874	0.000040
 980	9.7410e+01	9.7366	18.779917	0.000315	3.153026	0.534137	0.000032
 981	9.7510e+01	9.7453	18.816171	0.000364	3.644407	0.617379	0.000036
 982	9.7609e+01	9.7559	18.855276	0.000393	3.931046	0.665937	0.000039
 983	9.7709e+01	9.7641	18.892751	0.000377	3.767252	0.638190	0.000038
 984	9.7808e+01	9.7742	18.925746	0.000332	3.316820	0.561884	0.000033
 985	9.7908e+01	9.7888	18.966073	0.000405	4.053891	0.686748	0.000041
 986	9.8007e+01	9.7949	18.997846	0.000319	3.193975	0.541074	0.000032
 987	9.8107e+01	9.8048	19.038173	0.000405	4.053891	0.686748	0.000041
 988	9.8207e+01	9.8126	19.071982	0.000340	3.398717	0.575758	0.000034
 989	9.8306e+01	9.8248	19.112309	0.000405	4.053891	0.686748	0.000041
 990	9.8406e+01	9.8342	19.151414	0.000393	3.931046	0.665937	0.000039
 991	9.8505e+01	9.8457	19.185631	0.000344	3.439665	0.582695	0.000034
 992	9.8605e+01	9.8542	19.223921	0.000385	3.849149	0.652063	0.000038
 993	9.8704e+01	9.8634	19.258137	0.000344	3.439665	0.582695	0.000034
 994	9.8803e+01	9.8746	19.294391	0.000364	3.644407	0.617379	0.000036
 995	9.8903e+01	9.8859	19.331052	0.000369	3.685355	0.624316	0.000037
 996	9.9002e+01	9.8953	19.366898	0.000360	3.603459	0.610442	0.000036
 997	9.9102e+01	9.9060	19.404373	0.000377	3.767252	0.638190	0.000038
 998	9.9201e+01	9.9111	19.439812	0.000356	3.562510	0.603506	0.000036
 999	9.9301e+01	9.9245	19.478510	0.000389	3.890097	0.659000	0.000039
1000	9.9400e+01	9.9351	19.515985	0.000377	3.767252	0.638190	0.000038
1001	9.9500e+01	9.9445	19.552646	0.000369	3.685355	0.624316	0.000037
1002	9.9600e+01	9.9561	19.591344	0.000389	3.890097	0.659000	0.000039
1003	9.9699e+01	9.9648	19.627597	0.000364	3.644407	0.617379	0.000036
1004	9.9799e+01	9.9781	19.664258	0.000369	3.685355	0.624316	0.000037
1005	9.9898e+01	9.9854	19.704178	0.000401	4.012942	0.679811	0.000040
1006	9.9998e+01	9.9915	19.742060	0.000381	3.808200	0.645127	0.000038
1007	1.0010e+02	9.9837	19.730247	0.000119	1.187503	0.201169	-0.000012
1008	1.0020e+02	9.9736	19.713546	0.000168	1.678884	0.284411	-0.000017
1009	1.0030e+02	9.9658	19.699289	0.000143	1.433194	0.242790	-0.000014
1010	1.0040e+02	9.9531	19.689513	0.000098	0.982761	0.166484	-0.000010
1011	1.0050e+02	9.9420	19.672812	0.000168	1.678884	0.284411	-0.000017
1012	1.0059e+02	9.9355	19.660185	0.000127	1.269400	0.215042	-0.000013
1013	1.0069e+02	9.9249	19.643484	0.000168	1.678884	0.284411	-0.000017
1014	1.0079e+02	9.9133	19.625153	0.000184	1.842678	0.312158	-0.000018
1015	1.0089e+02	9.9048	19.610081	0.000152	1.515091	0.256663	-0.000015
1016	1.0099e+02	9.8954	19.591751	0.000184	1.842678	0.312158	-0.000018
1017	1.0109e+02	9.8862	19.572199	0.000197	1.965523	0.332969	-0.000020
1018	1.0119e+02	9.8755	19.554683	0.000176	1.760781	0.298284	-0.000018
1019	1.0129e+02	9.8633	19.534723	0.000201	2.006471	0.339905	-0.000020
1020	1.0139e+02	9.8529	19.515578	0.000192	1.924574	0.326032	-0.000019
1021	1.0149e+02	9.8438	19.495618	0.000201	2.006471	0.339905	-0.000020
1022	1.0159e+02	9.8328	19.475658	0.000201	2.006471	0.339905	-0.000020
1023	1.0169e+02	9.8244	19.457328	0.000184	1.842678	0.312158	-0.000018
1024	1.0179e+02	9.8135	19.437368	0.000201	2.006471	0.339905	-0.000020
1025	1.0189e+02	9.8065	19.413742	0.000238	2.375007	0.402337	-0.000024
1026	1.0199e+02	9.7964	19.392153	0.000217	2.170265	0.367653	-0.000022
1027	1.0209e+02	9.7843	19.369749	0.000225	2.252162	0.381526	-0.000023
1028	1.0219e+02	9.7744	19.349790	0.000201	2.006471	0.339905	-0.000020
1029	1.0229e+02	9.7646	19.327386	0.000225	2.252162	0.381526	-0.000023
1030	1.0239e+02	9.7585	19.305389	0.000221	2.211213	0.374590	-0.000022
1031	1.0248e+02	9.7462	19.281763	0.000238	2.375007	0.402337	-0.000024
1032	1.0258e+02	9.7355	19.262618	0.000192	1.924574	0.326032	-0.000019
1033	1.0268e+02	9.7253	19.238178	0.000246	2.456904	0.416211	-0.000025
1034	1.0278e+02	9.7149	19.215774	0.000225	2.252162	0.381526	-0.000023
1035	1.0288e+02	9.7070	19.195814	0.000201	2.006471	0.339905	-0.000020
1036	1.0298e+02	9.6948	19.172188	0.000238	2.375007	0.402337	-0.000024
1037	1.0308e+02	9.6865	19.152228	0.000201	2.006471	0.339905	-0.000020
1038	1.0318e+02	9.6737	19.128603	0.000238	2.375007	0.402337	-0.000024
1039	1.0328e+02	9.6645	19.103347	0.000254	2.538800	0.430084	-0.000025
1040	1.0338e+02	9.6539	19.087461	0.000160	1.596987	0.270537	-0.000016
1041	1.0348e+02	9.6464	19.063020	0.000246	2.456904	0.416211	-0.000025
1042	1.0358e+02	9.6352	19.043061	0.000201	2.006471	0.339905	-0.000020
1043	1.0368e+02	9.6247	19.021064	0.000221	2.211213	0.374590	-0.000022
1044	1.0378e+02	9.6174	19.003141	0.000180	1.801729	0.305221	-0.000018
1045	1.0388e+02	9.6069	18.987255	0.000160	1.596987	0.270537	-0.000016
1046	1.0398e+02	9.5965	18.966888	0.000205	2.047420	0.346842	-0.000020
1047	1.0408e+02	9.5850	18.943669	0.000233	2.334058	0.395400	-0.000023
1048	1.0418e+02	9.5752	18.920858	0.000229	2.293110	0.388463	-0.000023
1049	1.0428e+02	9.5661	18.904971	0.000160	1.596987	0.270537	-0.000016
1050	1.0438e+02	9.5585	18.882975	0.000221	2.211213	0.374590	-0.000022
1051	1.0447e+02	9.5459	18.861386	0.000217	2.170265	0.367653	-0.000022
1052	1.0457e+02	9.5354	18.842648	0.000188	1.883626	0.319095	-0.000019
1053	1.0467e+02	9.5240	18.820244	0.000225	2.252162	0.381526	-0.000023
1054	1.0477e+02	9.5144	18.798655	0.000217	2.170265	0.367653	-0.000022
1055	1.0487e+02	9.5084	18.778288	0.000205	2.047420	0.346842	-0.000020
1056	1.0497e+02	9.4953	18.760365	0.000180	1.801729	0.305221	-0.000018
1057	1.0507e+02	9.4873	18.742849	0.000176	1.760781	0.298284	-0.000018
1058	1.0517e+02	9.4777	18.720038	0.000229	2.293110	0.388463	-0.000023
1059	1.0527e+02	9.4679	18.699671	0.000205	2.047420	0.346842	-0.000020
1060	1.0537e+02	9.4580	18.677267	0.000225	2.252162	0.381526	-0.000023
1061	1.0547e+02	9.4495	18.656085	0.000213	2.129316	0.360716	-0.000021
1062	1.0557e+02	9.4387	18.636125	0.000201	2.006471	0.339905	-0.000020
1063	1.0567e+02	9.4291	18.615758	0.000205	2.047420	0.346842	-0.000020
1064	1.0577e+02	9.4178	18.598650	0.000172	1.719832	0.291348	-0.000017
1065	1.0587e+02	9.4086	18.576653	0.000221	2.211213	0.374590	-0.000022
1066	1.0597e+02	9.3964	18.552620	0.000242	2.415955	0.409274	-0.000024
1067	1.0607e+02	9.3903	18.535919	0.000168	1.678884	0.284411	-0.000017
1068	1.0617e+02	9.3784	18.514330	0.000217	2.170265	0.367653	-0.000022
1069	1.0627e+02	9.3669	18.492333	0.000221	2.211213	0.374590	-0.000022
1070	1.0637e+02	9.3604	18.475632	0.000168	1.678884	0.284411	-0.000017
1071	1.0647e+02	9.3462	18.452821	0.000229	2.293110	0.388463	-0.000023
1072	1.0656e+02	9.3378	18.433269	0.000197	1.965523	0.332969	-0.000020
1073	1.0666e+02	9.3277	18.411680	0.000217	2.170265	0.367653	-0.000022
1074	1.0676e+02	9.3171	18.386424	0.000254	2.538800	0.430084	-0.000025
1075	1.0686e+02	9.3103	18.366057	0.000205	2.047420	0.346842	-0.000020
1076	1.0696e+02	9.2984	18.344875	0.000213	2.129316	0.360716	-0.000021
1077	1.0706e+02	9.2892	18.327360	0.000176	1.760781	0.298284	-0.000018
1078	1.0716e+02	9.2783	18.307807	0.000197	1.965523	0.332969	-0.000020
1079	1.0726e+02	9.2697	18.282959	0.000250	2.497852	0.423148	-0.000025
1080	1.0736e+02	9.2596	18.264629	0.000184	1.842678	0.312158	-0.000018
1081	1.0746e+02	9.2451	18.245891	0.000188	1.883626	0.319095	-0.000019
1082	1.0756e+02	9.2383	18.225524	0.000205	2.047420	0.346842	-0.000020
1083	1.0766e+02	9.2285	18.201084	0.000246	2.456904	0.416211	-0.000025
1084	1.0776e+02	9.2197	18.181531	0.000197	1.965523	0.332969	-0.000020
1085	1.0786e+02	9.2073	18.158313	0.000233	2.334058	0.395400	-0.000023
1086	1.0796e+02	9.1976	18.138760	0.000197	1.965523	0.332969	-0.000020
1087	1.0806e+02	9.1901	18.115542	0.000233	2.334058	0.395400	-0.000023
1088	1.0816e+02	9.1763	18.094360	0.000213	2.129316	0.360716	-0.000021
1089	1.0826e+02	9.1699	18.076029	0.000184	1.842678	0.312158	-0.000018
1090	1.0836e+02	9.1615	18.054033	0.000221	2.211213	0.374590	-0.000022
1091	1.0845e+02	9.1492	18.029185	0.000250	2.497852	0.423148	-0.000025
1092	1.0855e+02	9.1382	18.010040	0.000192	1.924574	0.326032	-0.000019
1093	1.0865e+02	9.1290	17.988451	0.000217	2.170265	0.367653	-0.000022
1094	1.0875e+02	9.1194	17.963603	0.000250	2.497852	0.423148	-0.000025
1095	1.0885e+02	9.1084	17.946087	0.000176	1.760781	0.298284	-0.000018
1096	1.0895e+02	9.0971	17.923276	0.000229	2.293110	0.388463	-0.000023
1097	1.0905e+02	9.0913	17.905760	0.000176	1.760781	0.298284	-0.000018
1098	1.0915e+02	9.0780	17.882134	0.000238	2.375007	0.402337	-0.000024
1099	1.0925e+02	9.0706	17.860953	0.000213	2.129316	0.360716	-0.000021
1100	1.0935e+02	9.0638	17.840178	0.000209	2.088368	0.353779	-0.000021
1101	1.0945e+02	9.0498	17.820626	0.000197	1.965523	0.332969	-0.000020
1102	1.0955e+02	9.0381	17.801481	0.000192	1.924574	0.326032	-0.000019
1103	1.0965e+02	9.0268	17.779484	0.000221	2.211213	0.374590	-0.000022
1104	1.0975e+02	9.0189	17.760746	0.000188	1.883626	0.319095	-0.000019
1105	1.0985e+02	9.0083	17.737528	0.000233	2.334058	0.395400	-0.000023
1106	1.0995e+02	8.9991	17.718383	0.000192	1.924574	0.326032	-0.000019
1107	1.1005e+02	8.9932	17.701682	0.000168	1.678884	0.284411	-0.000017
1108	1.1015e+02	8.9780	17.680092	0.000217	2.170265	0.367653	-0.000022
1109	1.1025e+02	8.9685	17.658503	0.000217	2.170265	0.367653	-0.000022
1110	1.1035e+02	8.9588	17.643839	0.000147	1.474142	0.249726	-0.000015
1111	1.1044e+02	8.9489	17.622657	0.000213	2.129316	0.360716	-0.000021
1112	1.1054e+02	8.9396	17.606771	0.000160	1.596987	0.270537	-0.000016
1113	1.1064e+02	8.9326	17.585996	0.000209	2.088368	0.353779	-0.000021
1114	1.1074e+02	8.9211	17.565629	0.000205	2.047420	0.346842	-0.000020
1115	1.1084e+02	8.9104	17.545669	0.000201	2.006471	0.339905	-0.000020
1116	1.1094e+02	8.9005	17.523673	0.000221	2.211213	0.374590	-0.000022
1117	1.1104e+02	8.8886	17.503306	0.000205	2.047420	0.346842	-0.000020
1118	1.1114e+02	8.8774	17.482124	0.000213	2.129316	0.360716	-0.000021
1119	1.1124e+02	8.8680	17.458905	0.000233	2.334058	0.395400	-0.000023
1120	1.1134e+02	8.8611	17.435687	0.000233	2.334058	0.395400	-0.000023
1121	1.1144e+02	8.8517	17.419801	0.000160	1.596987	0.270537	-0.000016
1122	1.1154e+02	8.8409	17.395767	0.000242	2.415955	0.409274	-0.000024
1123	1.1164e+02	8.8318	17.374993	0.000209	2.088368	0.353779	-0.000021
1124	1.1174e+02	8.8201	17.355033	0.000201	2.006471	0.339905	-0.000020
1125	1.1184e+02	8.8103	17.335888	0.000192	1.924574	0.326032	-0.000019
1126	1.1194e+02	8.7994	17.311447	0.000246	2.456904	0.416211	-0.000025
1127	1.1204e+02	8.7917	17.283748	0.000278	2.784491	0.471705	-0.000028
1128	1.1214e+02	8.7806	17.262159	0.000217	2.170265	0.367653	-0.000022
1129	1.1224e+02	8.7715	17.238126	0.000242	2.415955	0.409274	-0.000024
1130	1.1234e+02	8.7614	17.212871	0.000254	2.538800	0.430084	-0.000025
1131	1.1244e+02	8.7527	17.188430	0.000246	2.456904	0.416211	-0.000025
1132	1.1253e+02	8.7418	17.162767	0.000258	2.579749	0.437021	-0.000026
1133	1.1263e+02	8.7308	17.139142	0.000238	2.375007	0.402337	-0.000024
1134	1.1273e+02	8.7217	17.109406	0.000299	2.989233	0.506390	-0.000030
1135	1.1283e+02	8.7101	17.085372	0.000242	2.415955	0.409274	-0.000024
1136	1.1293e+02	8.7012	17.059710	0.000258	2.579749	0.437021	-0.000026
1137	1.1303e+02	8.6940	17.040565	0.000192	1.924574	0.326032	-0.000019
1138	1.1313e+02	8.6819	17.011643	0.000291	2.907336	0.492516	-0.000029
1139	1.1323e+02	8.6724	16.983944	0.000278	2.784491	0.471705	-0.000028
1140	1.1333e+02	8.6614	16.959096	0.000250	2.497852	0.423148	-0.000025
1141	1.1343e+02	8.6541	16.936285	0.000229	2.293110	0.388463	-0.000023
1142	1.1353e+02	8.6416	16.908586	0.000278	2.784491	0.471705	-0.000028
1143	1.1363e+02	8.6328	16.884145	0.000246	2.456904	0.416211	-0.000025
1144	1.1373e+02	8.6230	16.858075	0.000262	2.620697	0.443958	-0.000026
1145	1.1383e+02	8.6113	16.830376	0.000278	2.784491	0.471705	-0.000028
1146	1.1393e+02	8.6025	16.805121	0.000254	2.538800	0.430084	-0.000025
1147	1.1403e+02	8.5921	16.778643	0.000266	2.661645	0.450895	-0.000027
1148	1.1413e+02	8.5840	16.748907	0.000299	2.989233	0.506390	-0.000030
1149	1.1423e+02	8.5727	16.720801	0.000283	2.825439	0.478642	-0.000028
1150	1.1433e+02	8.5626	16.697582	0.000233	2.334058	0.395400	-0.000023
1151	1.1442e+02	8.5547	16.671920	0.000258	2.579749	0.437021	-0.000026
1152	1.1452e+02	8.5429	16.647479	0.000246	2.456904	0.416211	-0.000025
1153	1.1462e+02	8.5334	16.614892	0.000328	3.275871	0.554948	-0.000033
1154	1.1472e+02	8.5219	16.587192	0.000278	2.784491	0.471705	-0.000028
1155	1.1482e+02	8.5134	16.559493	0.000278	2.784491	0.471705	-0.000028
1156	1.1492e+02	8.5022	16.534645	0.000250	2.497852	0.423148	-0.000025
1157	1.1502e+02	8.4929	16.506946	0.000278	2.784491	0.471705	-0.000028
1158	1.1512e+02	8.4810	16.478025	0.000291	2.907336	0.492516	-0.000029
1159	1.1522e+02	8.4750	16.451547	0.000266	2.661645	0.450895	-0.000027
1160	1.1532e+02	8.4644	16.424255	0.000274	2.743542	0.464769	-0.000027
1161	1.1542e+02	8.4524	16.397778	0.000266	2.661645	0.450895	-0.000027
1162	1.1552e+02	8.4416	16.366820	0.000311	3.112078	0.527200	-0.000031
1163	1.1562e+02	8.4351	16.341972	0.000250	2.497852	0.423148	-0.000025
1164	1.1572e+02	8.4213	16.310199	0.000319	3.193975	0.541074	-0.000032
1165	1.1582e+02	8.4119	16.284944	0.000254	2.538800	0.430084	-0.000025
1166	1.1592e+02	8.4044	16.256023	0.000291	2.907336	0.492516	-0.000029
1167	1.1602e+02	8.3961	16.228731	0.000274	2.743542	0.464769	-0.000027
1168	1.1612e+02	8.3820	16.198995	0.000299	2.989233	0.506390	-0.000030
1169	1.1622e+02	8.3749	16.170481	0.000287	2.866387	0.485579	-0.000029
1170	1.1632e+02	8.3648	16.142782	0.000278	2.784491	0.471705	-0.000028
1171	1.1642e+02	8.3566	16.116304	0.000266	2.661645	0.450895	-0.000027
1172	1.1651e+02	8.3433	16.088198	0.000283	2.825439	0.478642	-0.000028
1173	1.1661e+02	8.3325	16.058462	0.000299	2.989233	0.506390	-0.000030
1174	1.1671e+02	8.3241	16.030762	0.000278	2.784491	0.471705	-0.000028
1175	1.1681e+02	8.3154	16.004285	0.000266	2.661645	0.450895	-0.000027
1176	1.1691e+02	8.3048	15.976993	0.000274	2.743542	0.464769	-0.000027
1177	1.1701e+02	8.2959	15.948072	0.000291	2.907336	0.492516	-0.000029
1178	1.1711e+02	8.2862	15.918743	0.000295	2.948284	0.499453	-0.000029
1179	1.1721e+02	8.2725	15.887378	0.000315	3.153026	0.534137	-0.000032
1180	1.1731e+02	8.2654	15.860086	0.000274	2.743542	0.464769	-0.000027
1181	1.1741e+02	8.2514	15.831572	0.000287	2.866387	0.485579	-0.000029
1182	1.1751e+02	8.2444	15.801429	0.000303	3.030181	0.513327	-0.000030
1183	1.1761e+02	8.2349	15.771693	0.000299	2.989233	0.506390	-0.000030
1184	1.1771e+02	8.2215	15.741142	0.000307	3.071129	0.520263	-0.000031
1185	1.1781e+02	8.2144	15.709777	0.000315	3.153026	0.534137	-0.000032
1186	1.1791e+02	8.2035	15.681263	0.000287	2.866387	0.485579	-0.000029
1187	1.1801e+02	8.1931	15.649082	0.000323	3.234923	0.548011	-0.000032
1188	1.1811e+02	8.1826	15.618532	0.000307	3.071129	0.520263	-0.000031
1189	1.1821e+02	8.1740	15.585537	0.000332	3.316820	0.561884	-0.000033
1190	1.1831e+02	8.1634	15.559060	0.000266	2.661645	0.450895	-0.000027
1191	1.1841e+02	8.1533	15.522806	0.000364	3.644407	0.617379	-0.000036
1192	1.1850e+02	8.1439	15.491848	0.000311	3.112078	0.527200	-0.000031
1193	1.1860e+02	8.1337	15.459668	0.000323	3.234923	0.548011	-0.000032
1194	1.1870e+02	8.1222	15.428303	0.000315	3.153026	0.534137	-0.000032
1195	1.1880e+02	8.1152	15.394901	0.000336	3.357768	0.568821	-0.000034
1196	1.1890e+02	8.1048	15.359869	0.000352	3.521562	0.596569	-0.000035
1197	1.1900e+02	8.0940	15.324838	0.000352	3.521562	0.596569	-0.000035
1198	1.1910e+02	8.0843	15.295916	0.000291	2.907336	0.492516	-0.000029
1199	1.1920e+02	8.0746	15.262922	0.000332	3.316820	0.561884	-0.000033
1200	1.1930e+02	8.0634	15.234408	0.000287	2.866387	0.485579	-0.000029
1201	1.1940e+02	8.0527	15.201820	0.000328	3.275871	0.554948	-0.000033
1202	1.1950e+02	8.0441	15.174936	0.000270	2.702594	0.457832	-0.000027
1203	1.1960e+02	8.0366	15.140719	0.000344	3.439665	0.582695	-0.000034
1204	1.1970e+02	8.0274	15.112205	0.000287	2.866387	0.485579	-0.000029
1205	1.1980e+02	8.0145	15.080432	0.000319	3.193975	0.541074	-0.000032
1206	1.1990e+02	8.0042	15.048660	0.000319	3.193975	0.541074	-0.000032
1207	1.2000e+02	7.9972	15.017702	0.000311	3.112078	0.527200	-0.000031
1208	1.2010e+02	7.9819	14.990410	0.000274	2.743542	0.464769	-0.000027
1209	1.2020e+02	7.9748	14.959452	0.000311	3.112078	0.527200	-0.000031
1210	1.2030e+02	7.9629	14.931752	0.000278	2.784491	0.471705	-0.000028
1211	1.2039e+02	7.9546	14.900794	0.000311	3.112078	0.527200	-0.000031
1212	1.2049e+02	7.9445	14.875132	0.000258	2.579749	0.437021	-0.000026
1213	1.2059e+02	7.9351	14.845396	0.000299	2.989233	0.506390	-0.000030
1214	1.2069e+02	7.9262	14.819326	0.000262	2.620697	0.443958	-0.000026
1215	1.2079e+02	7.9153	14.790812	0.000287	2.866387	0.485579	-0.000029
1216	1.2089e+02	7.9072	14.764742	0.000262	2.620697	0.443958	-0.000026
1217	1.2099e+02	7.8961	14.735820	0.000291	2.907336	0.492516	-0.000029
1218	1.2109e+02	7.8873	14.707306	0.000287	2.866387	0.485579	-0.000029
1219	1.2119e+02	7.8783	14.679200	0.000283	2.825439	0.478642	-0.000028
1220	1.2129e+02	7.8642	14.651908	0.000274	2.743542	0.464769	-0.000027
1221	1.2139e+02	7.8556	14.623394	0.000287	2.866387	0.485579	-0.000029
1222	1.2149e+02	7.8512	14.592436	0.000311	3.112078	0.527200	-0.000031
1223	1.2159e+02	7.8361	14.569217	0.000233	2.334058	0.395400	-0.000023
1224	1.2169e+02	7.8268	14.543147	0.000262	2.620697	0.443958	-0.000026
1225	1.2179e+02	7.8137	14.509745	0.000336	3.357768	0.568821	-0.000034
1226	1.2189e+02	7.8060	14.486527	0.000233	2.334058	0.395400	-0.000023
1227	1.2199e+02	7.7947	14.456383	0.000303	3.030181	0.513327	-0.000030
1228	1.2209e+02	7.7869	14.428684	0.000278	2.784491	0.471705	-0.000028
1229	1.2219e+02	7.7762	14.399763	0.000291	2.907336	0.492516	-0.000029
1230	1.2229e+02	7.7655	14.374508	0.000254	2.538800	0.430084	-0.000025
1231	1.2239e+02	7.7557	14.346808	0.000278	2.784491	0.471705	-0.000028
1232	1.2248e+02	7.7461	14.318294	0.000287	2.866387	0.485579	-0.000029
1233	1.2258e+02	7.7369	14.292632	0.000258	2.579749	0.437021	-0.000026
1234	1.2268e+02	7.7258	14.264118	0.000287	2.866387	0.485579	-0.000029
1235	1.2278e+02	7.7167	14.238048	0.000262	2.620697	0.443958	-0.000026
1236	1.2288e+02	7.7064	14.207905	0.000303	3.030181	0.513327	-0.000030
1237	1.2298e+02	7.6964	14.182649	0.000254	2.538800	0.430084	-0.000025
1238	1.2308e+02	7.6882	14.157394	0.000254	2.538800	0.430084	-0.000025
1239	1.2318e+02	7.6783	14.128065	0.000295	2.948284	0.499453	-0.000029
1240	1.2328e+02	7.6660	14.102810	0.000254	2.538800	0.430084	-0.000025
1241	1.2338e+02	7.6542	14.077962	0.000250	2.497852	0.423148	-0.000025
1242	1.2348e+02	7.6485	14.048226	0.000299	2.989233	0.506390	-0.000030
1243	1.2358e+02	7.6395	14.022156	0.000262	2.620697	0.443958	-0.000026
1244	1.2368e+02	7.6285	13.992828	0.000295	2.948284	0.499453	-0.000029
1245	1.2378e+02	7.6173	13.969609	0.000233	2.334058	0.395400	-0.000023
1246	1.2388e+02	7.6063	13.942317	0.000274	2.743542	0.464769	-0.000027
1247	1.2398e+02	7.5977	13.915433	0.000270	2.702594	0.457832	-0.000027
1248	1.2408e+02	7.5900	13.890177	0.000254	2.538800	0.430084	-0.000025
1249	1.2418e+02	7.5787	13.860849	0.000295	2.948284	0.499453	-0.000029
1250	1.2428e+02	7.5687	13.833964	0.000270	2.702594	0.457832	-0.000027
1251	1.2438e+02	7.5562	13.807894	0.000262	2.620697	0.443958	-0.000026
1252	1.2447e+02	7.5485	13.780195	0.000278	2.784491	0.471705	-0.000028
1253	1.2457e+02	7.5359	13.755347	0.000250	2.497852	0.423148	-0.000025
1254	1.2467e+02	7.5342	13.728462	0.000270	2.702594	0.457832	-0.000027
1255	1.2477e+02	7.5167	13.699541	0.000291	2.907336	0.492516	-0.000029
1256	1.2487e+02	7.5079	13.673471	0.000262	2.620697	0.443958	-0.000026
1257	1.2497e+02	7.4953	13.644550	0.000291	2.907336	0.492516	-0.000029
1258	1.2507e+02	7.4886	13.619295	0.000254	2.538800	0.430084	-0.000025
1259	1.2517e+02	7.4789	13.590781	0.000287	2.866387	0.485579	-0.000029
1260	1.2527e+02	7.4682	13.561452	0.000295	2.948284	0.499453	-0.000029
1261	1.2537e+02	7.4561	13.537011	0.000246	2.456904	0.416211	-0.000025
1262	1.2547e+02	7.4500	13.509719	0.000274	2.743542	0.464769	-0.000027
1263	1.2557e+02	7.4395	13.486501	0.000233	2.334058	0.395400	-0.000023
1264	1.2567e+02	7.4277	13.461653	0.000250	2.497852	0.423148	-0.000025
1265	1.2577e+02	7.4197	13.433954	0.000278	2.784491	0.471705	-0.000028
1266	1.2587e+02	7.4087	13.407069	0.000270	2.702594	0.457832	-0.000027
1267	1.2597e+02	7.3987	13.379777	0.000274	2.743542	0.464769	-0.000027
1268	1.2607e+02	7.3876	13.351670	0.000283	2.825439	0.478642	-0.000028
1269	1.2617e+02	7.3776	13.328045	0.000238	2.375007	0.402337	-0.000024
1270	1.2627e+02	7.3698	13.298716	0.000295	2.948284	0.499453	-0.000029
1271	1.2636e+02	7.3598	13.277127	0.000217	2.170265	0.367653	-0.000022
1272	1.2646e+02	7.3483	13.251872	0.000254	2.538800	0.430084	-0.000025
1273	1.2656e+02	7.3360	13.227024	0.000250	2.497852	0.423148	-0.000025
1274	1.2666e+02	7.3267	13.199732	0.000274	2.743542	0.464769	-0.000027
1275	1.2676e+02	7.3196	13.174476	0.000254	2.538800	0.430084	-0.000025
1276	1.2686e+02	7.3109	13.150036	0.000246	2.456904	0.416211	-0.000025
1277	1.2696e+02	7.2988	13.127632	0.000225	2.252162	0.381526	-0.000023
1278	1.2706e+02	7.2886	13.108487	0.000192	1.924574	0.326032	-0.000019
1279	1.2716e+02	7.2767	13.080788	0.000278	2.784491	0.471705	-0.000028
1280	1.2726e+02	7.2715	13.059606	0.000213	2.129316	0.360716	-0.000021
1281	1.2736e+02	7.2598	13.034758	0.000250	2.497852	0.423148	-0.000025
1282	1.2746e+02	7.2485	13.007466	0.000274	2.743542	0.464769	-0.000027
1283	1.2756e+02	7.2388	12.980989	0.000266	2.661645	0.450895	-0.000027
1284	1.2766e+02	7.2283	12.957363	0.000238	2.375007	0.402337	-0.000024
1285	1.2776e+02	7.2200	12.933737	0.000238	2.375007	0.402337	-0.000024
1286	1.2786e+02	7.2112	12.903594	0.000303	3.030181	0.513327	-0.000030
1287	1.2796e+02	7.1992	12.880375	0.000233	2.334058	0.395400	-0.000023
1288	1.2806e+02	7.1900	12.855120	0.000254	2.538800	0.430084	-0.000025
1289	1.2816e+02	7.1790	12.830272	0.000250	2.497852	0.423148	-0.000025
1290	1.2826e+02	7.1699	12.802165	0.000283	2.825439	0.478642	-0.000028
1291	1.2835e+02	7.1581	12.776095	0.000262	2.620697	0.443958	-0.000026
1292	1.2845e+02	7.1503	12.748804	0.000274	2.743542	0.464769	-0.000027
1293	1.2855e+02	7.1396	12.721512	0.000274	2.743542	0.464769	-0.000027
1294	1.2865e+02	7.1270	12.692183	0.000295	2.948284	0.499453	-0.000029
1295	1.2875e+02	7.1175	12.665706	0.000266	2.661645	0.450895	-0.000027
1296	1.2885e+02	7.1072	12.633933	0.000319	3.193975	0.541074	-0.000032
1297	1.2895e+02	7.0989	12.605826	0.000283	2.825439	0.478642	-0.000028
1298	1.2905e+02	7.0899	12.574868	0.000311	3.112078	0.527200	-0.000031
1299	1.2915e+02	7.0801	12.549206	0.000258	2.579749	0.437021	-0.000026
1300	1.2925e+02	7.0699	12.517026	0.000323	3.234923	0.548011	-0.000032
1301	1.2935e+02	7.0586	12.488104	0.000291	2.907336	0.492516	-0.000029
1302	1.2945e+02	7.0512	12.456332	0.000319	3.193975	0.541074	-0.000032
1303	1.2955e+02	7.0410	12.431076	0.000254	2.538800	0.430084	-0.000025
1304	1.2965e+02	7.0309	12.398896	0.000323	3.234923	0.548011	-0.000032
1305	1.2975e+02	7.0215	12.369975	0.000291	2.907336	0.492516	-0.000029
1306	1.2985e+02	7.0117	12.339424	0.000307	3.071129	0.520263	-0.000031
1307	1.2995e+02	7.0014	12.309281	0.000303	3.030181	0.513327	-0.000030
1308	1.3005e+02	6.9917	12.281174	0.000283	2.825439	0.478642	-0.000028
1309	1.3015e+02	6.9808	12.249402	0.000319	3.193975	0.541074	-0.000032
1310	1.3025e+02	6.9727	12.216407	0.000332	3.316820	0.561884	-0.000033
1311	1.3034e+02	6.9579	12.185041	0.000315	3.153026	0.534137	-0.000032
1312	1.3044e+02	6.9496	12.158564	0.000266	2.661645	0.450895	-0.000027
1313	1.3054e+02	6.9410	12.126384	0.000323	3.234923	0.548011	-0.000032
1314	1.3064e+02	6.9308	12.097870	0.000287	2.866387	0.485579	-0.000029
1315	1.3074e+02	6.9205	12.064061	0.000340	3.398717	0.575758	-0.000034
1316	1.3084e+02	6.9114	12.036361	0.000278	2.784491	0.471705	-0.000028
1317	1.3094e+02	6.9018	12.005403	0.000311	3.112078	0.527200	-0.000031
1318	1.3104e+02	6.8894	11.975260	0.000303	3.030181	0.513327	-0.000030
1319	1.3114e+02	6.8801	11.943487	0.000319	3.193975	0.541074	-0.000032
1320	1.3124e+02	6.8709	11.907641	0.000360	3.603459	0.610442	-0.000036
1321	1.3134e+02	6.8607	11.876683	0.000311	3.112078	0.527200	-0.000031
1322	1.3144e+02	6.8492	11.846540	0.000303	3.030181	0.513327	-0.000030
1323	1.3154e+02	6.8404	11.815582	0.000311	3.112078	0.527200	-0.000031
1324	1.3164e+02	6.8322	11.781772	0.000340	3.398717	0.575758	-0.000034
1325	1.3174e+02	6.8197	11.750407	0.000315	3.153026	0.534137	-0.000032
1326	1.3184e+02	6.8118	11.719856	0.000307	3.071129	0.520263	-0.000031
1327	1.3194e+02	6.8018	11.688084	0.000319	3.193975	0.541074	-0.000032
1328	1.3204e+02	6.7918	11.656311	0.000319	3.193975	0.541074	-0.000032
1329	1.3214e+02	6.7809	11.620872	0.000356	3.562510	0.603506	-0.000036
1330	1.3224e+02	6.7713	11.595617	0.000254	2.538800	0.430084	-0.000025
1331	1.3234e+02	6.7605	11.559771	0.000360	3.603459	0.610442	-0.000036
1332	1.3243e+02	6.7530	11.529627	0.000303	3.030181	0.513327	-0.000030
1333	1.3253e+02	6.7403	11.498669	0.000311	3.112078	0.527200	-0.000031
1334	1.3263e+02	6.7306	11.464452	0.000344	3.439665	0.582695	-0.000034
1335	1.3273e+02	6.7225	11.427792	0.000369	3.685355	0.624316	-0.000037
1336	1.3283e+02	6.7135	11.395612	0.000323	3.234923	0.548011	-0.000032
1337	1.3293e+02	6.6998	11.369949	0.000258	2.579749	0.437021	-0.000026
1338	1.3303e+02	6.6944	11.335325	0.000348	3.480613	0.589632	-0.000035
1339	1.3313e+02	6.6812	11.301515	0.000340	3.398717	0.575758	-0.000034
1340	1.3323e+02	6.6729	11.269743	0.000319	3.193975	0.541074	-0.000032
1341	1.3333e+02	6.6613	11.240414	0.000295	2.948284	0.499453	-0.000029
1342	1.3343e+02	6.6517	11.206605	0.000340	3.398717	0.575758	-0.000034
1343	1.3353e+02	6.6412	11.175647	0.000311	3.112078	0.527200	-0.000031
1344	1.3363e+02	6.6329	11.141430	0.000344	3.439665	0.582695	-0.000034
1345	1.3373e+02	6.6222	11.111286	0.000303	3.030181	0.513327	-0.000030
1346	1.3383e+02	6.6120	11.074626	0.000369	3.685355	0.624316	-0.000037
1347	1.3393e+02	6.6024	11.043260	0.000315	3.153026	0.534137	-0.000032
1348	1.3403e+02	6.5907	11.009858	0.000336	3.357768	0.568821	-0.000034
1349	1.3413e+02	6.5805	10.978900	0.000311	3.112078	0.527200	-0.000031
1350	1.3423e+02	6.5710	10.942239	0.000369	3.685355	0.624316	-0.000037
1351	1.3432e+02	6.5600	10.909245	0.000332	3.316820	0.561884	-0.000033
1352	1.3442e+02	6.5517	10.875842	0.000336	3.357768	0.568821	-0.000034
1353	1.3452e+02	6.5425	10.840811	0.000352	3.521562	0.596569	-0.000035
1354	1.3462e+02	6.5329	10.805780	0.000352	3.521562	0.596569	-0.000035
1355	1.3472e+02	6.5234	10.773192	0.000328	3.275871	0.554948	-0.000033
1356	1.3482e+02	6.5141	10.736531	0.000369	3.685355	0.624316	-0.000037
1357	1.3492e+02	6.5049	10.701907	0.000348	3.480613	0.589632	-0.000035
1358	1.3502e+02	6.4921	10.663617	0.000385	3.849149	0.652063	-0.000038
1359	1.3512e+02	6.4812	10.629808	0.000340	3.398717	0.575758	-0.000034
1360	1.3522e+02	6.4718	10.594369	0.000356	3.562510	0.603506	-0.000036
1361	1.3532e+02	6.4625	10.554042	0.000405	4.053891	0.686748	-0.000041
1362	1.3542e+02	6.4521	10.521047	0.000332	3.316820	0.561884	-0.000033
1363	1.3552e+02	6.4449	10.486016	0.000352	3.521562	0.596569	-0.000035
1364	1.3562e+02	6.4320	10.445689	0.000405	4.053891	0.686748	-0.000041
1365	1.3572e+02	6.4234	10.407806	0.000381	3.808200	0.645127	-0.000038
1366	1.3582e+02	6.4143	10.374811	0.000332	3.316820	0.561884	-0.000033
1367	1.3592e+02	6.4037	10.341816	0.000332	3.316820	0.561884	-0.000033
1368	1.3602e+02	6.3934	10.303526	0.000385	3.849149	0.652063	-0.000038
1369	1.3612e+02	6.3840	10.270531	0.000332	3.316820	0.561884	-0.000033
1370	1.3622e+02	6.3745	10.235907	0.000348	3.480613	0.589632	-0.000035
1371	1.3631e+02	6.3640	10.201283	0.000348	3.480613	0.589632	-0.000035
1372	1.3641e+02	6.3515	10.160956	0.000405	4.053891	0.686748	-0.000041
1373	1.3651e+02	6.3416	10.129998	0.000311	3.112078	0.527200	-0.000031
1374	1.3661e+02	6.3330	10.096596	0.000336	3.357768	0.568821	-0.000034
1375	1.3671e+02	6.3238	10.064009	0.000328	3.275871	0.554948	-0.000033
1376	1.3681e+02	6.3144	10.029385	0.000348	3.480613	0.589632	-0.000035
1377	1.3691e+02	6.3062	9.997205	0.000323	3.234923	0.548011	-0.000032
1378	1.3701e+02	6.2920	9.964210	0.000332	3.316820	0.561884	-0.000033
1379	1.3711e+02	6.2849	9.933659	0.000307	3.071129	0.520263	-0.000031
1380	1.3721e+02	6.2749	9.902294	0.000315	3.153026	0.534137	-0.000032
1381	1.3731e+02	6.2635	9.868892	0.000336	3.357768	0.568821	-0.000034
1382	1.3741e+02	6.2556	9.834675	0.000344	3.439665	0.582695	-0.000034
1383	1.3751e+02	6.2444	9.803717	0.000311	3.112078	0.527200	-0.000031
1384	1.3761e+02	6.2337	9.772759	0.000311	3.112078	0.527200	-0.000031
1385	1.3771e+02	6.2251	9.741801	0.000311	3.112078	0.527200	-0.000031
1386	1.3781e+02	6.2141	9.708806	0.000332	3.316820	0.561884	-0.000033
1387	1.3791e+02	6.2064	9.678663	0.000303	3.030181	0.513327	-0.000030
1388	1.3801e+02	6.1927	9.648927	0.000299	2.989233	0.506390	-0.000030
1389	1.3811e+02	6.1857	9.615117	0.000340	3.398717	0.575758	-0.000034
1390	1.3821e+02	6.1768	9.580900	0.000344	3.439665	0.582695	-0.000034
1391	1.3831e+02	6.1629	9.551164	0.000299	2.989233	0.506390	-0.000030
1392	1.3840e+02	6.1531	9.517355	0.000340	3.398717	0.575758	-0.000034
1393	1.3850e+02	6.1462	9.487212	0.000303	3.030181	0.513327	-0.000030
1394	1.3860e+02	6.1341	9.456661	0.000307	3.071129	0.520263	-0.000031
1395	1.3870e+02	6.1240	9.423666	0.000332	3.316820	0.561884	-0.000033
1396	1.3880e+02	6.1164	9.393523	0.000303	3.030181	0.513327	-0.000030
1397	1.3890e+02	6.1065	9.358491	0.000352	3.521562	0.596569	-0.000035
1398	1.3900e+02	6.0949	9.332422	0.000262	2.620697	0.443958	-0.000026
1399	1.3910e+02	6.0827	9.300649	0.000319	3.193975	0.541074	-0.000032
1400	1.3920e+02	6.0758	9.265617	0.000352	3.521562	0.596569	-0.000035
1401	1.3930e+02	6.0625	9.236696	0.000291	2.907336	0.492516	-0.000029
1402	1.3940e+02	6.0532	9.207775	0.000291	2.907336	0.492516	-0.000029
1403	1.3950e+02	6.0444	9.176409	0.000315	3.153026	0.534137	-0.000032
1404	1.3960e+02	6.0354	9.144229	0.000323	3.234923	0.548011	-0.000032
1405	1.3970e+02	6.0260	9.114493	0.000299	2.989233	0.506390	-0.000030
1406	1.3980e+02	6.0144	9.083943	0.000307	3.071129	0.520263	-0.000031
1407	1.3990e+02	6.0044	9.050948	0.000332	3.316820	0.561884	-0.000033
1408	1.4000e+02	5.9932	9.020804	0.000303	3.030181	0.513327	-0.000030
1409	1.4010e+02	5.9843	8.992290	0.000287	2.866387	0.485579	-0.000029
1410	1.4020e+02	5.9766	8.957666	0.000348	3.480613	0.589632	-0.000035
1411	1.4029e+02	5.9670	8.925486	0.000323	3.234923	0.548011	-0.000032
1412	1.4039e+02	5.9548	8.898194	0.000274	2.743542	0.464769	-0.000027
1413	1.4049e+02	5.9441	8.871310	0.000270	2.702594	0.457832	-0.000027
1414	1.4059e+02	5.9369	8.835871	0.000356	3.562510	0.603506	-0.000036
1415	1.4069e+02	5.9255	8.807357	0.000287	2.866387	0.485579	-0.000029
1416	1.4079e+02	5.9144	8.777621	0.000299	2.989233	0.506390	-0.000030
1417	1.4089e+02	5.9061	8.744626	0.000332	3.316820	0.561884	-0.000033
1418	1.4099e+02	5.8965	8.712446	0.000323	3.234923	0.548011	-0.000032
1419	1.4109e+02	5.8865	8.681081	0.000315	3.153026	0.534137	-0.000032
1420	1.4119e+02	5.8785	8.652159	0.000291	2.907336	0.492516	-0.000029
1421	1.4129e+02	5.8656	8.623645	0.000287	2.866387	0.485579	-0.000029
1422	1.4139e+02	5.8594	8.590651	0.000332	3.316820	0.561884	-0.000033
1423	1.4149e+02	5.8468	8.559285	0.000315	3.153026	0.534137	-0.000032
1424	1.4159e+02	5.8363	8.532808	0.000266	2.661645	0.450895	-0.000027
1425	1.4169e+02	5.8283	8.501035	0.000319	3.193975	0.541074	-0.000032
1426	1.4179e+02	5.8161	8.466411	0.000348	3.480613	0.589632	-0.000035
1427	1.4189e+02	5.8053	8.435453	0.000311	3.112078	0.527200	-0.000031
1428	1.4199e+02	5.7964	8.406939	0.000287	2.866387	0.485579	-0.000029
1429	1.4209e+02	5.7876	8.373130	0.000340	3.398717	0.575758	-0.000034
1430	1.4219e+02	5.7769	8.347467	0.000258	2.579749	0.437021	-0.000026
1431	1.4228e+02	5.7635	8.315287	0.000323	3.234923	0.548011	-0.000032
1432	1.4238e+02	5.7561	8.283514	0.000319	3.193975	0.541074	-0.000032
1433	1.4248e+02	5.7442	8.252556	0.000311	3.112078	0.527200	-0.000031
1434	1.4258e+02	5.7378	8.224450	0.000283	2.825439	0.478642	-0.000028
1435	1.4268e+02	5.7270	8.196750	0.000278	2.784491	0.471705	-0.000028
1436	1.4278e+02	5.7160	8.164978	0.000319	3.193975	0.541074	-0.000032
1437	1.4288e+02	5.7065	8.137278	0.000278	2.784491	0.471705	-0.000028
1438	1.4298e+02	5.6966	8.108357	0.000291	2.907336	0.492516	-0.000029
1439	1.4308e+02	5.6850	8.077399	0.000311	3.112078	0.527200	-0.000031
1440	1.4318e+02	5.6787	8.041553	0.000360	3.603459	0.610442	-0.000036
1441	1.4328e+02	5.6660	8.018334	0.000233	2.334058	0.395400	-0.000023
1442	1.4338e+02	5.6567	7.987784	0.000307	3.071129	0.520263	-0.000031
1443	1.4348e+02	5.6487	7.966602	0.000213	2.129316	0.360716	-0.000021
1444	1.4358e+02	5.6348	7.937273	0.000295	2.948284	0.499453	-0.000029
1445	1.4368e+02	5.6260	7.908352	0.000291	2.907336	0.492516	-0.000029
1446	1.4378e+02	5.6182	7.879023	0.000295	2.948284	0.499453	-0.000029
1447	1.4388e+02	5.6116	7.848473	0.000307	3.071129	0.520263	-0.000031
1448	1.4398e+02	5.5984	7.824847	0.000238	2.375007	0.402337	-0.000024
1449	1.4408e+02	5.5879	7.797555	0.000274	2.743542	0.464769	-0.000027
1450	1.4418e+02	5.5811	7.766189	0.000315	3.153026	0.534137	-0.000032
1451	1.4428e+02	5.5668	7.735231	0.000311	3.112078	0.527200	-0.000031
1452	1.4437e+02	5.5576	7.706310	0.000291	2.907336	0.492516	-0.000029
1453	1.4447e+02	5.5492	7.680647	0.000258	2.579749	0.437021	-0.000026
1454	1.4457e+02	5.5367	7.645209	0.000356	3.562510	0.603506	-0.000036
1455	1.4467e+02	5.5280	7.616695	0.000287	2.866387	0.485579	-0.000029
1456	1.4477e+02	5.5188	7.588995	0.000278	2.784491	0.471705	-0.000028
1457	1.4487e+02	5.5093	7.559259	0.000299	2.989233	0.506390	-0.000030
1458	1.4497e+02	5.4987	7.530338	0.000291	2.907336	0.492516	-0.000029
1459	1.4507e+02	5.4879	7.492863	0.000377	3.767252	0.638190	-0.000038
1460	1.4517e+02	5.4790	7.465571	0.000274	2.743542	0.464769	-0.000027
1461	1.4527e+02	5.4682	7.431761	0.000340	3.398717	0.575758	-0.000034
1462	1.4537e+02	5.4577	7.401210	0.000307	3.071129	0.520263	-0.000031
1463	1.4547e+02	5.4461	7.367401	0.000340	3.398717	0.575758	-0.000034
1464	1.4557e+02	5.4375	7.335221	0.000323	3.234923	0.548011	-0.000032
1465	1.4567e+02	5.4298	7.301412	0.000340	3.398717	0.575758	-0.000034
1466	1.4577e+02	5.4171	7.271676	0.000299	2.989233	0.506390	-0.000030
1467	1.4587e+02	5.4098	7.240718	0.000311	3.112078	0.527200	-0.000031
1468	1.4597e+02	5.3980	7.201613	0.000393	3.931046	0.665937	-0.000039
1469	1.4607e+02	5.3883	7.169433	0.000323	3.234923	0.548011	-0.000032
1470	1.4617e+02	5.3793	7.133994	0.000356	3.562510	0.603506	-0.000036
1471	1.4626e+02	5.3661	7.105072	0.000291	2.907336	0.492516	-0.000029
1472	1.4636e+02	5.3585	7.068819	0.000364	3.644407	0.617379	-0.000036
1473	1.4646e+02	5.3495	7.032158	0.000369	3.685355	0.624316	-0.000037
1474	1.4656e+02	5.3385	6.999571	0.000328	3.275871	0.554948	-0.000033
1475	1.4666e+02	5.3307	6.967391	0.000323	3.234923	0.548011	-0.000032
1476	1.4676e+02	5.3191	6.932359	0.000352	3.521562	0.596569	-0.000035
1477	1.4686e+02	5.3076	6.898957	0.000336	3.357768	0.568821	-0.000034
1478	1.4696e+02	5.2991	6.866370	0.000328	3.275871	0.554948	-0.000033
1479	1.4706e+02	5.2880	6.828487	0.000381	3.808200	0.645127	-0.000038
1480	1.4716e+02	5.2792	6.792641	0.000360	3.603459	0.610442	-0.000036
1481	1.4726e+02	5.2698	6.764534	0.000283	2.825439	0.478642	-0.000028
1482	1.4736e+02	5.2599	6.723392	0.000414	4.135788	0.700621	-0.000041
1483	1.4746e+02	5.2490	6.694064	0.000295	2.948284	0.499453	-0.000029
1484	1.4756e+02	5.2421	6.656588	0.000377	3.767252	0.638190	-0.000038
1485	1.4766e+02	5.2310	6.620335	0.000364	3.644407	0.617379	-0.000036
1486	1.4776e+02	5.2190	6.584081	0.000364	3.644407	0.617379	-0.000036
1487	1.4786e+02	5.2090	6.548643	0.000356	3.562510	0.603506	-0.000036
1488	1.4796e+02	5.2020	6.514018	0.000348	3.480613	0.589632	-0.000035
1489	1.4806e+02	5.1873	6.478172	0.000360	3.603459	0.610442	-0.000036
1490	1.4816e+02	5.1791	6.445178	0.000332	3.316820	0.561884	-0.000033
1491	1.4825e+02	5.1690	6.406073	0.000393	3.931046	0.665937	-0.000039
1492	1.4835e+02	5.1601	6.373078	0.000332	3.316820	0.561884	-0.000033
1493	1.4845e+02	5.1507	6.338046	0.000352	3.521562	0.596569	-0.000035
1494	1.4855e+02	5.1395	6.299349	0.000389	3.890097	0.659000	-0.000039
1495	1.4865e+02	5.1299	6.265132	0.000344	3.439665	0.582695	-0.000034
1496	1.4875e+02	5.1196	6.228471	0.000369	3.685355	0.624316	-0.000037
1497	1.4885e+02	5.1107	6.190588	0.000381	3.808200	0.645127	-0.000038
1498	1.4895e+02	5.1012	6.155150	0.000356	3.562510	0.603506	-0.000036
1499	1.4905e+02	5.0916	6.119711	0.000356	3.562510	0.603506	-0.000036
1500	1.4915e+02	5.0809	6.081013	0.000389	3.890097	0.659000	-0.000039
1501	1.4925e+02	5.0698	6.046389	0.000348	3.480613	0.589632	-0.000035
1502	1.4935e+02	5.0610	6.011358	0.000352	3.521562	0.596569	-0.000035
1503	1.4945e+02	5.0491	5.974290	0.000373	3.726304	0.631253	-0.000037
1504	1.4955e+02	5.0388	5.939258	0.000352	3.521562	0.596569	-0.000035
1505	1.4965e+02	5.0309	5.907078	0.000323	3.234923	0.548011	-0.000032
1506	1.4975e+02	5.0227	5.865936	0.000414	4.135788	0.700621	-0.000041
1507	1.4985e+02	5.0105	5.832534	0.000336	3.357768	0.568821	-0.000034
1508	1.4995e+02	5.0012	5.796281	0.000364	3.644407	0.617379	-0.000036
1509	1.5005e+02	4.9899	5.757176	0.000393	3.931046	0.665937	-0.000039
1510	1.5015e+02	4.9799	5.723367	0.000340	3.398717	0.575758	-0.000034
1511	1.5025e+02	4.9705	5.683854	0.000397	3.971994	0.672874	-0.000040
1512	1.5034e+02	4.9625	5.651267	0.000328	3.275871	0.554948	-0.000033
1513	1.5044e+02	4.9499	5.612162	0.000393	3.931046	0.665937	-0.000039
1514	1.5054e+02	4.9430	5.575094	0.000373	3.726304	0.631253	-0.000037
1515	1.5064e+02	4.9323	5.542506	0.000328	3.275871	0.554948	-0.000033
1516	1.5074e+02	4.9236	5.500143	0.000426	4.258633	0.721432	-0.000043
1517	1.5084e+02	4.9126	5.465519	0.000348	3.480613	0.589632	-0.000035
1518	1.5094e+02	4.9020	5.422748	0.000430	4.299581	0.728369	-0.000043
1519	1.5104e+02	4.8899	5.387716	0.000352	3.521562	0.596569	-0.000035
1520	1.5114e+02	4.8801	5.345760	0.000422	4.217684	0.714495	-0.000042
1521	1.5124e+02	4.8705	5.307877	0.000381	3.808200	0.645127	-0.000038
1522	1.5134e+02	4.8610	5.269994	0.000381	3.808200	0.645127	-0.000038
1523	1.5144e+02	4.8536	5.231297	0.000389	3.890097	0.659000	-0.000039
1524	1.5154e+02	4.8435	5.196265	0.000352	3.521562	0.596569	-0.000035
1525	1.5164e+02	4.8328	5.155531	0.000409	4.094839	0.693685	-0.000041
1526	1.5174e+02	4.8225	5.119278	0.000364	3.644407	0.617379	-0.000036
1527	1.5184e+02	4.8143	5.074877	0.000446	4.463375	0.756116	-0.000045
1528	1.5194e+02	4.8029	5.034550	0.000405	4.053891	0.686748	-0.000041
1529	1.5204e+02	4.7919	4.990150	0.000446	4.463375	0.756116	-0.000045
1530	1.5214e+02	4.7826	4.950230	0.000401	4.012942	0.679811	-0.000040
1531	1.5224e+02	4.7695	4.907867	0.000426	4.258633	0.721432	-0.000043
1532	1.5233e+02	4.7598	4.870391	0.000377	3.767252	0.638190	-0.000038
1533	1.5243e+02	4.7515	4.831286	0.000393	3.931046	0.665937	-0.000039
1534	1.5253e+02	4.7408	4.792589	0.000389	3.890097	0.659000	-0.000039
1535	1.5263e+02	4.7323	4.754706	0.000381	3.808200	0.645127	-0.000038
1536	1.5273e+02	4.7203	4.712342	0.000426	4.258633	0.721432	-0.000043
1537	1.5283e+02	4.7147	4.671201	0.000414	4.135788	0.700621	-0.000041
1538	1.5293e+02	4.7016	4.632911	0.000385	3.849149	0.652063	-0.000038
1539	1.5303e+02	4.6923	4.595028	0.000381	3.808200	0.645127	-0.000038
1540	1.5313e+02	4.6832	4.557145	0.000381	3.808200	0.645127	-0.000038
1541	1.5323e+02	4.6723	4.515189	0.000422	4.217684	0.714495	-0.000042
1542	1.5333e+02	4.6597	4.478120	0.000373	3.726304	0.631253	-0.000037
1543	1.5343e+02	4.6532	4.441052	0.000373	3.726304	0.631253	-0.000037
1544	1.5353e+02	4.6427	4.403169	0.000381	3.808200	0.645127	-0.000038
1545	1.5363e+02	4.6323	4.366508	0.000369	3.685355	0.624316	-0.000037
1546	1.5373e+02	4.6232	4.331070	0.000356	3.562510	0.603506	-0.000036
1547	1.5383e+02	4.6145	4.295224	0.000360	3.603459	0.610442	-0.000036
1548	1.5393e+02	4.6030	4.253675	0.000418	4.176736	0.707558	-0.000042
1549	1.5403e+02	4.5922	4.218643	0.000352	3.521562	0.596569	-0.000035
1550	1.5413e+02	4.5828	4.184019	0.000348	3.480613	0.589632	-0.000035
1551	1.5422e+02	4.5752	4.148580	0.000356	3.562510	0.603506	-0.000036
1552	1.5432e+02	4.5620	4.108253	0.000405	4.053891	0.686748	-0.000041
1553	1.5442e+02	4.5545	4.078517	0.000299	2.989233	0.506390	-0.000030
1554	1.5452e+02	4.5431	4.038598	0.000401	4.012942	0.679811	-0.000040
1555	1.5462e+02	4.5325	4.000308	0.000385	3.849149	0.652063	-0.000038
1556	1.5472e+02	4.5256	3.968127	0.000323	3.234923	0.548011	-0.000032
1557	1.5482e+02	4.5126	3.931059	0.000373	3.726304	0.631253	-0.000037
1558	1.5492e+02	4.5039	3.894398	0.000369	3.685355	0.624316	-0.000037
1559	1.5502e+02	4.4935	3.861404	0.000332	3.316820	0.561884	-0.000033
1560	1.5512e+02	4.4854	3.823521	0.000381	3.808200	0.645127	-0.000038
1561	1.5522e+02	4.4752	3.787675	0.000360	3.603459	0.610442	-0.000036
1562	1.5532e+02	4.4672	3.751421	0.000364	3.644407	0.617379	-0.000036
1563	1.5542e+02	4.4537	3.716390	0.000352	3.521562	0.596569	-0.000035
1564	1.5552e+02	4.4427	3.680136	0.000364	3.644407	0.617379	-0.000036
1565	1.5562e+02	4.4337	3.643475	0.000369	3.685355	0.624316	-0.000037
1566	1.5572e+02	4.4239	3.608037	0.000356	3.562510	0.603506	-0.000036
1567	1.5582e+02	4.4137	3.573005	0.000352	3.521562	0.596569	-0.000035
1568	1.5592e+02	4.4041	3.537566	0.000356	3.562510	0.603506	-0.000036
1569	1.5602e+02	4.3932	3.503757	0.000340	3.398717	0.575758	-0.000034
1570	1.5612e+02	4.3855	3.468318	0.000356	3.562510	0.603506	-0.000036
1571	1.5622e+02	4.3777	3.434916	0.000336	3.357768	0.568821	-0.000034
1572	1.5631e+02	4.3633	3.397848	0.000373	3.726304	0.631253	-0.000037
1573	1.5641e+02	4.3562	3.362002	0.000360	3.603459	0.610442	-0.000036
1574	1.5651e+02	4.3457	3.327785	0.000344	3.439665	0.582695	-0.000034
1575	1.5661e+02	4.3340	3.292754	0.000352	3.521562	0.596569	-0.000035
1576	1.5671e+02	4.3215	3.253649	0.000393	3.931046	0.665937	-0.000039
1577	1.5681e+02	4.3145	3.219432	0.000344	3.439665	0.582695	-0.000034
1578	1.5691e+02	4.3019	3.186437	0.000332	3.316820	0.561884	-0.000033
1579	1.5701e+02	4.2944	3.149776	0.000369	3.685355	0.624316	-0.000037
1580	1.5711e+02	4.2852	3.114745	0.000352	3.521562	0.596569	-0.000035
1581	1.5721e+02	4.2748	3.081750	0.000332	3.316820	0.561884	-0.000033
1582	1.5731e+02	4.2652	3.045497	0.000364	3.644407	0.617379	-0.000036
1583	1.5741e+02	4.2545	3.010872	0.000348	3.480613	0.589632	-0.000035
1584	1.5751e+02	4.2434	2.976656	0.000344	3.439665	0.582695	-0.000034
1585	1.5761e+02	4.2345	2.938773	0.000381	3.808200	0.645127	-0.000038
1586	1.5771e+02	4.2237	2.902112	0.000369	3.685355	0.624316	-0.000037
1587	1.5781e+02	4.2121	2.866673	0.000356	3.562510	0.603506	-0.000036
1588	1.5791e+02	4.2060	2.836123	0.000307	3.071129	0.520263	-0.000031
1589	1.5801e+02	4.1942	2.801091	0.000352	3.521562	0.596569	-0.000035
1590	1.5811e+02	4.1865	2.760764	0.000405	4.053891	0.686748	-0.000041
1591	1.5821e+02	4.1767	2.729399	0.000315	3.153026	0.534137	-0.000032
1592	1.5830e+02	4.1646	2.691109	0.000385	3.849149	0.652063	-0.000038
1593	1.5840e+02	4.1549	2.655670	0.000356	3.562510	0.603506	-0.000036
1594	1.5850e+02	4.1471	2.618194	0.000377	3.767252	0.638190	-0.000038
1595	1.5860e+02	4.1331	2.582755	0.000356	3.562510	0.603506	-0.000036
1596	1.5870e+02	4.1265	2.546502	0.000364	3.644407	0.617379	-0.000036
1597	1.5880e+02	4.1152	2.512285	0.000344	3.439665	0.582695	-0.000034
1598	1.5890e+02	4.1036	2.480512	0.000319	3.193975	0.541074	-0.000032
1599	1.5900e+02	4.0970	2.443444	0.000373	3.726304	0.631253	-0.000037
1600	1.5910e+02	4.0835	2.409228	0.000344	3.439665	0.582695	-0.000034
1601	1.5920e+02	4.0747	2.379084	0.000303	3.030181	0.513327	-0.000030
1602	1.5930e+02	4.0644	2.342016	0.000373	3.726304	0.631253	-0.000037
1603	1.5940e+02	4.0556	2.306577	0.000356	3.562510	0.603506	-0.000036
1604	1.5950e+02	4.0476	2.273175	0.000336	3.357768	0.568821	-0.000034
1605	1.5960e+02	4.0359	2.238551	0.000348	3.480613	0.589632	-0.000035
1606	1.5970e+02	4.0261	2.206778	0.000319	3.193975	0.541074	-0.000032
1607	1.5980e+02	4.0128	2.169710	0.000373	3.726304	0.631253	-0.000037
1608	1.5990e+02	4.0034	2.135901	0.000340	3.398717	0.575758	-0.000034
1609	1.6000e+02	3.9960	2.100462	0.000356	3.562510	0.603506	-0.000036
1610	1.6010e+02	3.9874	2.068689	0.000319	3.193975	0.541074	-0.000032
1611	1.6019e+02	3.9760	2.036102	0.000328	3.275871	0.554948	-0.000033
1612	1.6029e+02	3.9651	2.004736	0.000315	3.153026	0.534137	-0.000032
1613	1.6039e+02	3.9555	1.975000	0.000299	2.989233	0.506390	-0.000030
1614	1.6049e+02	3.9458	1.943635	0.000315	3.153026	0.534137	-0.000032
1615	1.6059e+02	3.9350	1.911455	0.000323	3.234923	0.548011	-0.000032
1616	1.6069e+02	3.9256	1.873165	0.000385	3.849149	0.652063	-0.000038
1617	1.6079e+02	3.9178	1.838948	0.000344	3.439665	0.582695	-0.000034
1618	1.6089e+02	3.9043	1.808805	0.000303	3.030181	0.513327	-0.000030
1619	1.6099e+02	3.8955	1.771736	0.000373	3.726304	0.631253	-0.000037
1620	1.6109e+02	3.8868	1.738742	0.000332	3.316820	0.561884	-0.000033
1621	1.6119e+02	3.8760	1.703303	0.000356	3.562510	0.603506	-0.000036
1622	1.6129e+02	3.8667	1.668679	0.000348	3.480613	0.589632	-0.000035
1623	1.6139e+02	3.8566	1.635277	0.000336	3.357768	0.568821	-0.000034
1624	1.6149e+02	3.8451	1.601467	0.000340	3.398717	0.575758	-0.000034
1625	1.6159e+02	3.8357	1.564806	0.000369	3.685355	0.624316	-0.000037
1626	1.6169e+02	3.8271	1.533034	0.000319	3.193975	0.541074	-0.000032
1627	1.6179e+02	3.8144	1.496780	0.000364	3.644407	0.617379	-0.000036
1628	1.6189e+02	3.8052	1.454009	0.000430	4.299581	0.728369	-0.000043
1629	1.6199e+02	3.7967	1.421829	0.000323	3.234923	0.548011	-0.000032
1630	1.6209e+02	3.7841	1.381910	0.000401	4.012942	0.679811	-0.000040
1631	1.6219e+02	3.7769	1.346878	0.000352	3.521562	0.596569	-0.000035
1632	1.6228e+02	3.7675	1.309403	0.000377	3.767252	0.638190	-0.000038
1633	1.6238e+02	3.7579	1.273556	0.000360	3.603459	0.610442	-0.000036
1634	1.6248e+02	3.7469	1.232822	0.000409	4.094839	0.693685	-0.000041
1635	1.6258e+02	3.7371	1.196569	0.000364	3.644407	0.617379	-0.000036
1636	1.6268e+02	3.7315	1.157871	0.000389	3.890097	0.659000	-0.000039
1637	1.6278e+02	3.7183	1.119581	0.000385	3.849149	0.652063	-0.000038
1638	1.6288e+02	3.7095	1.082105	0.000377	3.767252	0.638190	-0.000038
1639	1.6298e+02	3.6994	1.039335	0.000430	4.299581	0.728369	-0.000043
1640	1.6308e+02	3.6883	1.003896	0.000356	3.562510	0.603506	-0.000036
1641	1.6318e+02	3.6778	0.965198	0.000389	3.890097	0.659000	-0.000039
1642	1.6328e+02	3.6654	0.925279	0.000401	4.012942	0.679811	-0.000040
1643	1.6338e+02	3.6584	0.886174	0.000393	3.931046	0.665937	-0.000039
1644	1.6348e+02	3.6468	0.849513	0.000369	3.685355	0.624316	-0.000037
1645	1.6358e+02	3.6375	0.804298	0.000455	4.545272	0.769990	-0.000045
1646	1.6368e+02	3.6269	0.765600	0.000389	3.890097	0.659000	-0.000039
1647	1.6378e+02	3.6214	0.724459	0.000414	4.135788	0.700621	-0.000041
1648	1.6388e+02	3.6074	0.689427	0.000352	3.521562	0.596569	-0.000035
1649	1.6398e+02	3.5989	0.650322	0.000393	3.931046	0.665937	-0.000039
1650	1.6408e+02	3.5891	0.611625	0.000389	3.890097	0.659000	-0.000039
1651	1.6418e+02	3.5781	0.572113	0.000397	3.971994	0.672874	-0.000040
1652	1.6427e+02	3.5696	0.530971	0.000414	4.135788	0.700621	-0.000041
1653	1.6437e+02	3.5571	0.489829	0.000414	4.135788	0.700621	-0.000041
1654	1.6447e+02	3.5472	0.449503	0.000405	4.053891	0.686748	-0.000041
1655	1.6457e+02	3.5374	0.405510	0.000442	4.422426	0.749179	-0.000044
1656	1.6467e+02	3.5257	0.368034	0.000377	3.767252	0.638190	-0.000038
1657	1.6477e+02	3.5183	0.325263	0.000430	4.299581	0.728369	-0.000043
1658	1.6487e+02	3.5103	0.287788	0.000377	3.767252	0.638190	-0.000038
1659	1.6497e+02	3.4980	0.245017	0.000430	4.299581	0.728369	-0.000043
1660	1.6507e+02	3.4856	0.204690	0.000405	4.053891	0.686748	-0.000041
1661	1.6517e+02	3.4783	0.163548	0.000414	4.135788	0.700621	-0.000041
1662	1.6527e+02	3.4663	0.121184	0.000426	4.258633	0.721432	-0.000043
1663	1.6537e+02	3.4606	0.086153	0.000352	3.521562	0.596569	-0.000035
1664	1.6547e+02	3.4509	0.043789	0.000426	4.258633	0.721432	-0.000043
1665	1.6557e+02	3.4384	0.003055	0.000409	4.094839	0.693685	-0.000041
1666	1.6567e+02	3.4289	-0.042160	0.000455	4.545272	0.769990	-0.000045
1667	1.6577e+02	3.4200	-0.082894	0.000409	4.094839	0.693685	-0.000041
1668	1.6587e+02	3.4113	-0.123628	0.000409	4.094839	0.693685	-0.000041
1669	1.6597e+02	3.3975	-0.166807	0.000434	4.340530	0.735306	-0.000043
1670	1.6607e+02	3.3882	-0.205912	0.000393	3.931046	0.665937	-0.000039
1671	1.6616e+02	3.3786	-0.246646	0.000409	4.094839	0.693685	-0.000041
1672	1.6626e+02	3.3672	-0.291454	0.000450	4.504323	0.763053	-0.000045
1673	1.6636e+02	3.3587	-0.330151	0.000389	3.890097	0.659000	-0.000039
1674	1.6646e+02	3.3492	-0.374959	0.000450	4.504323	0.763053	-0.000045
1675	1.6656e+02	3.3389	-0.414064	0.000393	3.931046	0.665937	-0.000039
1676	1.6666e+02	3.3294	-0.455613	0.000418	4.176736	0.707558	-0.000042
1677	1.6676e+02	3.3201	-0.496754	0.000414	4.135788	0.700621	-0.000041
1678	1.6686e+02	3.3112	-0.535452	0.000389	3.890097	0.659000	-0.000039
1679	1.6696e+02	3.2989	-0.579852	0.000446	4.463375	0.756116	-0.000045
1680	1.6706e+02	3.2894	-0.622623	0.000430	4.299581	0.728369	-0.000043
1681	1.6716e+02	3.2806	-0.664579	0.000422	4.217684	0.714495	-0.000042
1682	1.6726e+02	3.2668	-0.706943	0.000426	4.258633	0.721432	-0.000043
1683	1.6736e+02	3.2611	-0.749307	0.000426	4.258633	0.721432	-0.000043
1684	1.6746e+02	3.2497	-0.793300	0.000442	4.422426	0.749179	-0.000044
1685	1.6756e+02	3.2416	-0.834441	0.000414	4.135788	0.700621	-0.000041
1686	1.6766e+02	3.2316	-0.880064	0.000459	4.586220	0.776927	-0.000046
1687	1.6776e+02	3.2204	-0.926093	0.000463	4.627168	0.783864	-0.000046
1688	1.6786e+02	3.2106	-0.966420	0.000405	4.053891	0.686748	-0.000041
1689	1.6796e+02	3.1992	-1.010006	0.000438	4.381478	0.742242	-0.000044
1690	1.6806e+02	3.1878	-1.058072	0.000483	4.831910	0.818548	-0.000048
1691	1.6816e+02	3.1828	-1.100843	0.000430	4.299581	0.728369	-0.000043
1692	1.6825e+02	3.1697	-1.144836	0.000442	4.422426	0.749179	-0.000044
1693	1.6835e+02	3.1580	-1.187607	0.000430	4.299581	0.728369	-0.000043
1694	1.6845e+02	3.1499	-1.237303	0.000500	4.995704	0.846295	-0.000050
1695	1.6855e+02	3.1361	-1.281296	0.000442	4.422426	0.749179	-0.000044
1696	1.6865e+02	3.1304	-1.327326	0.000463	4.627168	0.783864	-0.000046
1697	1.6875e+02	3.1196	-1.377429	0.000504	5.036652	0.853232	-0.000050
1698	1.6885e+02	3.1107	-1.417756	0.000405	4.053891	0.686748	-0.000041
1699	1.6895e+02	3.1036	-1.466637	0.000491	4.913807	0.832421	-0.000049
1700	1.6905e+02	3.0918	-1.512259	0.000459	4.586220	0.776927	-0.000046
1701	1.6915e+02	3.0768	-1.556252	0.000442	4.422426	0.749179	-0.000044
1702	1.6925e+02	3.0667	-1.601875	0.000459	4.586220	0.776927	-0.000046
1703	1.6935e+02	3.0599	-1.645868	0.000442	4.422426	0.749179	-0.000044
1704	1.6945e+02	3.0502	-1.689861	0.000442	4.422426	0.749179	-0.000044
1705	1.6955e+02	3.0404	-1.733446	0.000438	4.381478	0.742242	-0.000044
1706	1.6965e+02	3.0286	-1.777847	0.000446	4.463375	0.756116	-0.000045
1707	1.6975e+02	3.0215	-1.824691	0.000471	4.709065	0.797737	-0.000047
1708	1.6985e+02	3.0115	-1.868277	0.000438	4.381478	0.742242	-0.000044
1709	1.6995e+02	2.9995	-1.911862	0.000438	4.381478	0.742242	-0.000044
1710	1.7005e+02	2.9921	-1.958299	0.000467	4.668117	0.790800	-0.000047
1711	1.7015e+02	2.9785	-2.003922	0.000459	4.586220	0.776927	-0.000046
1712	1.7024e+02	2.9714	-2.043434	0.000397	3.971994	0.672874	-0.000040
1713	1.7034e+02	2.9618	-2.084576	0.000414	4.135788	0.700621	-0.000041
1714	1.7044e+02	2.9478	-2.127346	0.000430	4.299581	0.728369	-0.000043
1715	1.7054e+02	2.9401	-2.170932	0.000438	4.381478	0.742242	-0.000044
1716	1.7064e+02	2.9323	-2.212888	0.000422	4.217684	0.714495	-0.000042
1717	1.7074e+02	2.9192	-2.255659	0.000430	4.299581	0.728369	-0.000043
1718	1.7084e+02	2.9103	-2.292320	0.000369	3.685355	0.624316	-0.000037
1719	1.7094e+02	2.9017	-2.334684	0.000426	4.258633	0.721432	-0.000043
1720	1.7104e+02	2.8893	-2.378677	0.000442	4.422426	0.749179	-0.000044
1721	1.7114e+02	2.8819	-2.421040	0.000426	4.258633	0.721432	-0.000043
1722	1.7124e+02	2.8696	-2.461367	0.000405	4.053891	0.686748	-0.000041
1723	1.7134e+02	2.8614	-2.504138	0.000430	4.299581	0.728369	-0.000043
1724	1.7144e+02	2.8510	-2.546095	0.000422	4.217684	0.714495	-0.000042
1725	1.7154e+02	2.8423	-2.588458	0.000426	4.258633	0.721432	-0.000043
1726	1.7164e+02	2.8300	-2.628378	0.000401	4.012942	0.679811	-0.000040
1727	1.7174e+02	2.8207	-2.673593	0.000455	4.545272	0.769990	-0.000045
1728	1.7184e+02	2.8127	-2.713105	0.000397	3.971994	0.672874	-0.000040
1729	1.7194e+02	2.8016	-2.751803	0.000389	3.890097	0.659000	-0.000039
1730	1.7204e+02	2.7916	-2.794574	0.000430	4.299581	0.728369	-0.000043
1731	1.7213e+02	2.7815	-2.837345	0.000430	4.299581	0.728369	-0.000043
1732	1.7223e+02	2.7711	-2.878079	0.000409	4.094839	0.693685	-0.000041
1733	1.7233e+02	2.7625	-2.916369	0.000385	3.849149	0.652063	-0.000038
1734	1.7243e+02	2.7527	-2.960362	0.000442	4.422426	0.749179	-0.000044
1735	1.7253e+02	2.7401	-3.006799	0.000467	4.668117	0.790800	-0.000047
1736	1.7263e+02	2.7326	-3.043867	0.000373	3.726304	0.631253	-0.000037
1737	1.7273e+02	2.7210	-3.084601	0.000409	4.094839	0.693685	-0.000041
1738	1.7283e+02	2.7148	-3.127372	0.000430	4.299581	0.728369	-0.000043
1739	1.7293e+02	2.7021	-3.167292	0.000401	4.012942	0.679811	-0.000040
1740	1.7303e+02	2.6936	-3.206397	0.000393	3.931046	0.665937	-0.000039
1741	1.7313e+02	2.6830	-3.250797	0.000446	4.463375	0.756116	-0.000045
1742	1.7323e+02	2.6748	-3.291124	0.000405	4.053891	0.686748	-0.000041
1743	1.7333e+02	2.6598	-3.336747	0.000459	4.586220	0.776927	-0.000046
1744	1.7343e+02	2.6545	-3.375851	0.000393	3.931046	0.665937	-0.000039
1745	1.7353e+02	2.6414	-3.415771	0.000401	4.012942	0.679811	-0.000040
1746	1.7363e+02	2.6308	-3.451617	0.000360	3.603459	0.610442	-0.000036
1747	1.7373e+02	2.6225	-3.494795	0.000434	4.340530	0.735306	-0.000043
1748	1.7383e+02	2.6115	-3.538381	0.000438	4.381478	0.742242	-0.000044
1749	1.7393e+02	2.6022	-3.581152	0.000430	4.299581	0.728369	-0.000043
1750	1.7403e+02	2.5919	-3.619850	0.000389	3.890097	0.659000	-0.000039
1751	1.7413e+02	2.5844	-3.660991	0.000414	4.135788	0.700621	-0.000041
1752	1.7422e+02	2.5735	-3.700096	0.000393	3.931046	0.665937	-0.000039
1753	1.7432e+02	2.5642	-3.743682	0.000438	4.381478	0.742242	-0.000044
1754	1.7442e+02	2.5551	-3.785231	0.000418	4.176736	0.707558	-0.000042
1755	1.7452e+02	2.5420	-3.827594	0.000426	4.258633	0.721432	-0.000043
1756	1.7462e+02	2.5323	-3.867107	0.000397	3.971994	0.672874	-0.000040
1757	1.7472e+02	2.5214	-3.909470	0.000426	4.258633	0.721432	-0.000043
1758	1.7482e+02	2.5124	-3.945724	0.000364	3.644407	0.617379	-0.000036
1759	1.7492e+02	2.5039	-3.989717	0.000442	4.422426	0.749179	-0.000044
1760	1.7502e+02	2.4924	-4.030858	0.000414	4.135788	0.700621	-0.000041
1761	1.7512e+02	2.4857	-4.074851	0.000442	4.422426	0.749179	-0.000044
1762	1.7522e+02	2.4715	-4.118030	0.000434	4.340530	0.735306	-0.000043
1763	1.7532e+02	2.4624	-4.158764	0.000409	4.094839	0.693685	-0.000041
1764	1.7542e+02	2.4523	-4.199498	0.000409	4.094839	0.693685	-0.000041
1765	1.7552e+02	2.4442	-4.237381	0.000381	3.808200	0.645127	-0.000038
1766	1.7562e+02	2.4333	-4.278930	0.000418	4.176736	0.707558	-0.000042
1767	1.7572e+02	2.4249	-4.323330	0.000446	4.463375	0.756116	-0.000045
1768	1.7582e+02	2.4116	-4.362028	0.000389	3.890097	0.659000	-0.000039
1769	1.7592e+02	2.4006	-4.402762	0.000409	4.094839	0.693685	-0.000041
1770	1.7602e+02	2.3919	-4.442682	0.000401	4.012942	0.679811	-0.000040
1771	1.7612e+02	2.3843	-4.483008	0.000405	4.053891	0.686748	-0.000041
1772	1.7621e+02	2.3724	-4.522928	0.000401	4.012942	0.679811	-0.000040
1773	1.7631e+02	2.3631	-4.566921	0.000442	4.422426	0.749179	-0.000044
1774	1.7641e+02	2.3530	-4.603582	0.000369	3.685355	0.624316	-0.000037
1775	1.7651e+02	2.3456	-4.641872	0.000385	3.849149	0.652063	-0.000038
1776	1.7661e+02	2.3338	-4.685050	0.000434	4.340530	0.735306	-0.000043
1777	1.7671e+02	2.3237	-4.726192	0.000414	4.135788	0.700621	-0.000041
1778	1.7681e+02	2.3147	-4.766519	0.000405	4.053891	0.686748	-0.000041
1779	1.7691e+02	2.3055	-4.801550	0.000352	3.521562	0.596569	-0.000035
1780	1.7701e+02	2.2962	-4.842285	0.000409	4.094839	0.693685	-0.000041
1781	1.7711e+02	2.2852	-4.878945	0.000369	3.685355	0.624316	-0.000037
1782	1.7721e+02	2.2731	-4.916421	0.000377	3.767252	0.638190	-0.000038
1783	1.7731e+02	2.2649	-4.955526	0.000393	3.931046	0.665937	-0.000039
1784	1.7741e+02	2.2540	-4.998704	0.000434	4.340530	0.735306	-0.000043
1785	1.7751e+02	2.2436	-5.036994	0.000385	3.849149	0.652063	-0.000038
1786	1.7761e+02	2.2340	-5.076914	0.000401	4.012942	0.679811	-0.000040
1787	1.7771e+02	2.2225	-5.118055	0.000414	4.135788	0.700621	-0.000041
1788	1.7781e+02	2.2173	-5.158382	0.000405	4.053891	0.686748	-0.000041
1789	1.7791e+02	2.2047	-5.198709	0.000405	4.053891	0.686748	-0.000041
1790	1.7801e+02	2.1930	-5.241480	0.000430	4.299581	0.728369	-0.000043
1791	1.7810e+02	2.1825	-5.281400	0.000401	4.012942	0.679811	-0.000040
1792	1.7820e+02	2.1728	-5.323356	0.000422	4.217684	0.714495	-0.000042
1793	1.7830e+02	2.1646	-5.362868	0.000397	3.971994	0.672874	-0.000040
1794	1.7840e+02	2.1565	-5.410527	0.000479	4.790962	0.811611	-0.000048
1795	1.7850e+02	2.1448	-5.449225	0.000389	3.890097	0.659000	-0.000039
1796	1.7860e+02	2.1325	-5.493625	0.000446	4.463375	0.756116	-0.000045
1797	1.7870e+02	2.1239	-5.536396	0.000430	4.299581	0.728369	-0.000043
1798	1.7880e+02	2.1165	-5.582019	0.000459	4.586220	0.776927	-0.000046
1799	1.7890e+02	2.1043	-5.621124	0.000393	3.931046	0.665937	-0.000039
1800	1.7900e+02	2.0966	-5.668375	0.000475	4.750013	0.804674	-0.000047
1801	1.7910e+02	2.0836	-5.713590	0.000455	4.545272	0.769990	-0.000045
1802	1.7920e+02	2.0754	-5.757583	0.000442	4.422426	0.749179	-0.000044
1803	1.7930e+02	2.0660	-5.801984	0.000446	4.463375	0.756116	-0.000045
1804	1.7940e+02	2.0567	-5.850050	0.000483	4.831910	0.818548	-0.000048
1805	1.7950e+02	2.0464	-5.894450	0.000446	4.463375	0.756116	-0.000045
1806	1.7960e+02	2.0333	-5.938036	0.000438	4.381478	0.742242	-0.000044
1807	1.7970e+02	2.0280	-5.984066	0.000463	4.627168	0.783864	-0.000046
1808	1.7980e+02	2.0169	-6.029281	0.000455	4.545272	0.769990	-0.000045
1809	1.7990e+02	2.0068	-6.074496	0.000455	4.545272	0.769990	-0.000045
1810	1.8000e+02	1.9954	-6.121748	0.000475	4.750013	0.804674	-0.000047
1811	1.8009e+02	1.9862	-6.168999	0.000475	4.750013	0.804674	-0.000047
1812	1.8019e+02	1.9783	-6.212992	0.000442	4.422426	0.749179	-0.000044
1813	1.8029e+02	1.9642	-6.256171	0.000434	4.340530	0.735306	-0.000043
1814	1.8039e+02	1.9568	-6.305459	0.000495	4.954755	0.839358	-0.000050
1815	1.8049e+02	1.9456	-6.351896	0.000467	4.668117	0.790800	-0.000047
1816	1.8059e+02	1.9311	-6.395074	0.000434	4.340530	0.735306	-0.000043
1817	1.8069e+02	1.9260	-6.442733	0.000479	4.790962	0.811611	-0.000048
1818	1.8079e+02	1.9160	-6.489985	0.000475	4.750013	0.804674	-0.000047
1819	1.8089e+02	1.9061	-6.536015	0.000463	4.627168	0.783864	-0.000046
1820	1.8099e+02	1.8932	-6.584489	0.000487	4.872859	0.825485	-0.000049
1821	1.8109e+02	1.8854	-6.627667	0.000434	4.340530	0.735306	-0.000043
1822	1.8119e+02	1.8753	-6.679399	0.000520	5.200446	0.880979	-0.000052
1823	1.8129e+02	1.8652	-6.725022	0.000459	4.586220	0.776927	-0.000046
1824	1.8139e+02	1.8549	-6.772274	0.000475	4.750013	0.804674	-0.000047
1825	1.8149e+02	1.8460	-6.822377	0.000504	5.036652	0.853232	-0.000050
1826	1.8159e+02	1.8349	-6.863111	0.000409	4.094839	0.693685	-0.000041
1827	1.8169e+02	1.8254	-6.909955	0.000471	4.709065	0.797737	-0.000047
1828	1.8179e+02	1.8201	-6.962910	0.000532	5.323291	0.901790	-0.000053
1829	1.8189e+02	1.8050	-7.006496	0.000438	4.381478	0.742242	-0.000044
1830	1.8199e+02	1.7949	-7.057413	0.000512	5.118549	0.867106	-0.000051
1831	1.8209e+02	1.7852	-7.104258	0.000471	4.709065	0.797737	-0.000047
1832	1.8218e+02	1.7789	-7.154361	0.000504	5.036652	0.853232	-0.000050
1833	1.8228e+02	1.7677	-7.199169	0.000450	4.504323	0.763053	-0.000045
1834	1.8238e+02	1.7570	-7.249679	0.000508	5.077601	0.860169	-0.000051
1835	1.8248e+02	1.7442	-7.299375	0.000500	4.995704	0.846295	-0.000050
1836	1.8258e+02	1.7356	-7.346627	0.000475	4.750013	0.804674	-0.000047
1837	1.8268e+02	1.7259	-7.394693	0.000483	4.831910	0.818548	-0.000048
1838	1.8278e+02	1.7171	-7.444796	0.000504	5.036652	0.853232	-0.000050
1839	1.8288e+02	1.7072	-7.490419	0.000459	4.586220	0.776927	-0.000046
1840	1.8298e+02	1.6959	-7.541744	0.000516	5.159497	0.874043	-0.000052
1841	1.8308e+02	1.6861	-7.584515	0.000430	4.299581	0.728369	-0.000043
1842	1.8318e+02	1.6782	-7.637062	0.000528	5.282343	0.894853	-0.000053
1843	1.8328e+02	1.6686	-7.683092	0.000463	4.627168	0.783864	-0.000046
1844	1.8338e+02	1.6554	-7.731973	0.000491	4.913807	0.832421	-0.000049
1845	1.8348e+02	1.6468	-7.780854	0.000491	4.913807	0.832421	-0.000049
1846	1.8358e+02	1.6385	-7.828920	0.000483	4.831910	0.818548	-0.000048
1847	1.8368e+02	1.6275	-7.879023	0.000504	5.036652	0.853232	-0.000050
1848	1.8378e+02	1.6186	-7.928312	0.000495	4.954755	0.839358	-0.000050
1849	1.8388e+02	1.6061	-7.980044	0.000520	5.200446	0.880979	-0.000052
1850	1.8398e+02	1.5967	-8.029333	0.000495	4.954755	0.839358	-0.000050
1851	1.8407e+02	1.5865	-8.076177	0.000471	4.709065	0.797737	-0.000047
1852	1.8417e+02	1.5781	-8.126688	0.000508	5.077601	0.860169	-0.000051
1853	1.8427e+02	1.5672	-8.180457	0.000541	5.405188	0.915664	-0.000054
1854	1.8437e+02	1.5570	-8.227709	0.000475	4.750013	0.804674	-0.000047
1855	1.8447e+02	1.5486	-8.279034	0.000516	5.159497	0.874043	-0.000052
1856	1.8457e+02	1.5392	-8.333210	0.000545	5.446136	0.922600	-0.000054
1857	1.8467e+02	1.5249	-8.383721	0.000508	5.077601	0.860169	-0.000051
1858	1.8477e+02	1.5167	-8.437083	0.000536	5.364239	0.908727	-0.000054
1859	1.8487e+02	1.5063	-8.484742	0.000479	4.790962	0.811611	-0.000048
1860	1.8497e+02	1.4948	-8.534845	0.000504	5.036652	0.853232	-0.000050
1861	1.8507e+02	1.4883	-8.588207	0.000536	5.364239	0.908727	-0.000054
1862	1.8517e+02	1.4788	-8.640754	0.000528	5.282343	0.894853	-0.000053
1863	1.8527e+02	1.4678	-8.698189	0.000577	5.773723	0.978095	-0.000058
1864	1.8537e+02	1.4545	-8.745034	0.000471	4.709065	0.797737	-0.000047
1865	1.8547e+02	1.4498	-8.803691	0.000590	5.896568	0.998906	-0.000059
1866	1.8557e+02	1.4377	-8.853794	0.000504	5.036652	0.853232	-0.000050
1867	1.8567e+02	1.4280	-8.911637	0.000581	5.814672	0.985032	-0.000058
1868	1.8577e+02	1.4214	-8.962147	0.000508	5.077601	0.860169	-0.000051
1869	1.8587e+02	1.4077	-9.015916	0.000541	5.405188	0.915664	-0.000054
1870	1.8597e+02	1.3963	-9.071315	0.000557	5.568981	0.943411	-0.000056
1871	1.8606e+02	1.3889	-9.116937	0.000459	4.586220	0.776927	-0.000046
1872	1.8616e+02	1.3756	-9.170299	0.000536	5.364239	0.908727	-0.000054
1873	1.8626e+02	1.3689	-9.225698	0.000557	5.568981	0.943411	-0.000056
1874	1.8636e+02	1.3599	-9.271727	0.000463	4.627168	0.783864	-0.000046
1875	1.8646e+02	1.3503	-9.325497	0.000541	5.405188	0.915664	-0.000054
1876	1.8656e+02	1.3372	-9.375600	0.000504	5.036652	0.853232	-0.000050
1877	1.8666e+02	1.3284	-9.427740	0.000524	5.241394	0.887916	-0.000052
1878	1.8676e+02	1.3184	-9.480287	0.000528	5.282343	0.894853	-0.000053
1879	1.8686e+02	1.3071	-9.529983	0.000500	4.995704	0.846295	-0.000050
1880	1.8696e+02	1.2987	-9.578049	0.000483	4.831910	0.818548	-0.000048
1881	1.8706e+02	1.2897	-9.628560	0.000508	5.077601	0.860169	-0.000051
1882	1.8716e+02	1.2824	-9.675404	0.000471	4.709065	0.797737	-0.000047
1883	1.8726e+02	1.2690	-9.730803	0.000557	5.568981	0.943411	-0.000056
1884	1.8736e+02	1.2577	-9.777647	0.000471	4.709065	0.797737	-0.000047
1885	1.8746e+02	1.2499	-9.824491	0.000471	4.709065	0.797737	-0.000047
1886	1.8756e+02	1.2412	-9.869299	0.000450	4.504323	0.763053	-0.000045
1887	1.8766e+02	1.2295	-9.923068	0.000541	5.405188	0.915664	-0.000054
1888	1.8776e+02	1.2188	-9.973579	0.000508	5.077601	0.860169	-0.000051
1889	1.8786e+02	1.2107	-10.018386	0.000450	4.504323	0.763053	-0.000045
1890	1.8796e+02	1.2015	-10.070526	0.000524	5.241394	0.887916	-0.000052
1891	1.8806e+02	1.1934	-10.118185	0.000479	4.790962	0.811611	-0.000048
1892	1.8815e+02	1.1796	-10.165030	0.000471	4.709065	0.797737	-0.000047
1893	1.8825e+02	1.1689	-10.217577	0.000528	5.282343	0.894853	-0.000053
1894	1.8835e+02	1.1602	-10.265643	0.000483	4.831910	0.818548	-0.000048
1895	1.8845e+02	1.1549	-10.315339	0.000500	4.995704	0.846295	-0.000050
1896	1.8855e+02	1.1430	-10.360147	0.000450	4.504323	0.763053	-0.000045
1897	1.8865e+02	1.1285	-10.414731	0.000549	5.487085	0.929537	-0.000055
1898	1.8875e+02	1.1186	-10.463204	0.000487	4.872859	0.825485	-0.000049
1899	1.8885e+02	1.1092	-10.511678	0.000487	4.872859	0.825485	-0.000049
1900	1.8895e+02	1.0997	-10.561374	0.000500	4.995704	0.846295	-0.000050
1901	1.8905e+02	1.0888	-10.606996	0.000459	4.586220	0.776927	-0.000046
1902	1.8915e+02	1.0821	-10.657100	0.000504	5.036652	0.853232	-0.000050
1903	1.8925e+02	1.0704	-10.706795	0.000500	4.995704	0.846295	-0.000050
1904	1.8935e+02	1.0591	-10.757306	0.000508	5.077601	0.860169	-0.000051
1905	1.8945e+02	1.0493	-10.803335	0.000463	4.627168	0.783864	-0.000046
1906	1.8955e+02	1.0412	-10.848143	0.000450	4.504323	0.763053	-0.000045
1907	1.8965e+02	1.0291	-10.902320	0.000545	5.446136	0.922600	-0.000054
1908	1.8975e+02	1.0219	-10.948757	0.000467	4.668117	0.790800	-0.000047
1909	1.8985e+02	1.0120	-10.996823	0.000483	4.831910	0.818548	-0.000048
1910	1.8995e+02	1.0040	-11.052222	0.000557	5.568981	0.943411	-0.000056
1911	1.9004e+02	0.9912	-11.095807	0.000438	4.381478	0.742242	-0.000044
1912	1.9014e+02	0.9800	-11.150799	0.000553	5.528033	0.936474	-0.000055
1913	1.9024e+02	0.9716	-11.194792	0.000442	4.422426	0.749179	-0.000044
1914	1.9034e+02	0.9600	-11.243265	0.000487	4.872859	0.825485	-0.000049
1915	1.9044e+02	0.9505	-11.292961	0.000500	4.995704	0.846295	-0.000050
1916	1.9054e+02	0.9420	-11.340213	0.000475	4.750013	0.804674	-0.000047
1917	1.9064e+02	0.9311	-11.389094	0.000491	4.913807	0.832421	-0.000049
1918	1.9074e+02	0.9198	-11.436753	0.000479	4.790962	0.811611	-0.000048
1919	1.9084e+02	0.9108	-11.484412	0.000479	4.790962	0.811611	-0.000048
1920	1.9094e+02	0.9019	-11.534108	0.000500	4.995704	0.846295	-0.000050
1921	1.9104e+02	0.8939	-11.585433	0.000516	5.159497	0.874043	-0.000052
1922	1.9114e+02	0.8831	-11.629019	0.000438	4.381478	0.742242	-0.000044
1923	1.9124e+02	0.8704	-11.681566	0.000528	5.282343	0.894853	-0.000053
1924	1.9134e+02	0.8578	-11.726374	0.000450	4.504323	0.763053	-0.000045
1925	1.9144e+02	0.8521	-11.776884	0.000508	5.077601	0.860169	-0.000051
1926	1.9154e+02	0.8418	-11.827802	0.000512	5.118549	0.867106	-0.000051
1927	1.9164e+02	0.8315	-11.877090	0.000495	4.954755	0.839358	-0.000050
1928	1.9174e+02	0.8202	-11.932082	0.000553	5.528033	0.936474	-0.000055
1929	1.9184e+02	0.8122	-11.974445	0.000426	4.258633	0.721432	-0.000043
1930	1.9194e+02	0.8031	-12.028622	0.000545	5.446136	0.922600	-0.000054
1931	1.9203e+02	0.7927	-12.075874	0.000475	4.750013	0.804674	-0.000047
1932	1.9213e+02	0.7833	-12.125162	0.000495	4.954755	0.839358	-0.000050
1933	1.9223e+02	0.7729	-12.174043	0.000491	4.913807	0.832421	-0.000049
1934	1.9233e+02	0.7635	-12.225776	0.000520	5.200446	0.880979	-0.000052
1935	1.9243e+02	0.7535	-12.268547	0.000430	4.299581	0.728369	-0.000043
1936	1.9253e+02	0.7422	-12.317428	0.000491	4.913807	0.832421	-0.000049
1937	1.9263e+02	0.7315	-12.369975	0.000528	5.282343	0.894853	-0.000053
1938	1.9273e+02	0.7224	-12.416412	0.000467	4.668117	0.790800	-0.000047
1939	1.9283e+02	0.7104	-12.464478	0.000483	4.831910	0.818548	-0.000048
1940	1.9293e+02	0.7046	-12.510101	0.000459	4.586220	0.776927	-0.000046
1941	1.9303e+02	0.6927	-12.560611	0.000508	5.077601	0.860169	-0.000051
1942	1.9313e+02	0.6832	-12.607048	0.000467	4.668117	0.790800	-0.000047
1943	1.9323e+02	0.6697	-12.655115	0.000483	4.831910	0.818548	-0.000048
1944	1.9333e+02	0.6605	-12.706033	0.000512	5.118549	0.867106	-0.000051
1945	1.9343e+02	0.6529	-12.752470	0.000467	4.668117	0.790800	-0.000047
1946	1.9353e+02	0.6421	-12.795648	0.000434	4.340530	0.735306	-0.000043
1947	1.9363e+02	0.6310	-12.841270	0.000459	4.586220	0.776927	-0.000046
1948	1.9373e+02	0.6238	-12.888929	0.000479	4.790962	0.811611	-0.000048
1949	1.9383e+02	0.6128	-12.933737	0.000450	4.504323	0.763053	-0.000045
1950	1.9393e+02	0.6043	-12.982618	0.000491	4.913807	0.832421	-0.000049
1951	1.9403e+02	0.5906	-13.028240	0.000459	4.586220	0.776927	-0.000046
1952	1.9412e+02	0.5811	-13.077122	0.000491	4.913807	0.832421	-0.000049
1953	1.9422e+02	0.5733	-13.127225	0.000504	5.036652	0.853232	-0.000050
1954	1.9432e+02	0.5639	-13.170810	0.000438	4.381478	0.742242	-0.000044
1955	1.9442e+02	0.5548	-13.224172	0.000536	5.364239	0.908727	-0.000054
1956	1.9452e+02	0.5444	-13.269795	0.000459	4.586220	0.776927	-0.000046
1957	1.9462e+02	0.5329	-13.315010	0.000455	4.545272	0.769990	-0.000045
1958	1.9472e+02	0.5232	-13.370001	0.000553	5.528033	0.936474	-0.000055
1959	1.9482e+02	0.5131	-13.418475	0.000487	4.872859	0.825485	-0.000049
1960	1.9492e+02	0.5031	-13.465319	0.000471	4.709065	0.797737	-0.000047
1961	1.9502e+02	0.4946	-13.517052	0.000520	5.200446	0.880979	-0.000052
1962	1.9512e+02	0.4833	-13.567969	0.000512	5.118549	0.867106	-0.000051
1963	1.9522e+02	0.4732	-13.618480	0.000508	5.077601	0.860169	-0.000051
1964	1.9532e+02	0.4638	-13.666954	0.000487	4.872859	0.825485	-0.000049
1965	1.9542e+02	0.4520	-13.726833	0.000602	6.019414	1.019716	-0.000060
1966	1.9552e+02	0.4434	-13.771233	0.000446	4.463375	0.756116	-0.000045
1967	1.9562e+02	0.4359	-13.822558	0.000516	5.159497	0.874043	-0.000052
1968	1.9572e+02	0.4253	-13.873476	0.000512	5.118549	0.867106	-0.000051
1969	1.9582e+02	0.4128	-13.928468	0.000553	5.528033	0.936474	-0.000055
1970	1.9592e+02	0.4029	-13.977349	0.000491	4.913807	0.832421	-0.000049
1971	1.9601e+02	0.3946	-14.035191	0.000581	5.814672	0.985032	-0.000058
1972	1.9611e+02	0.3822	-14.086516	0.000516	5.159497	0.874043	-0.000052
1973	1.9621e+02	0.3747	-14.141508	0.000553	5.528033	0.936474	-0.000055
1974	1.9631e+02	0.3652	-14.196092	0.000549	5.487085	0.929537	-0.000055
1975	1.9641e+02	0.3557	-14.244565	0.000487	4.872859	0.825485	-0.000049
1976	1.9651e+02	0.3436	-14.299149	0.000549	5.487085	0.929537	-0.000055
1977	1.9661e+02	0.3326	-14.351289	0.000524	5.241394	0.887916	-0.000052
1978	1.9671e+02	0.3248	-14.404651	0.000536	5.364239	0.908727	-0.000054
1979	1.9681e+02	0.3121	-14.460050	0.000557	5.568981	0.943411	-0.000056
1980	1.9691e+02	0.3052	-14.513411	0.000536	5.364239	0.908727	-0.000054
1981	1.9701e+02	0.2928	-14.562293	0.000491	4.913807	0.832421	-0.000049
1982	1.9711e+02	0.2827	-14.621357	0.000594	5.937517	1.005843	-0.000059
1983	1.9721e+02	0.2742	-14.674312	0.000532	5.323291	0.901790	-0.000053
1984	1.9731e+02	0.2624	-14.725230	0.000512	5.118549	0.867106	-0.000051
1985	1.9741e+02	0.2544	-14.784294	0.000594	5.937517	1.005843	-0.000059
1986	1.9751e+02	0.2424	-14.834397	0.000504	5.036652	0.853232	-0.000050
1987	1.9761e+02	0.2319	-14.889389	0.000553	5.528033	0.936474	-0.000055
1988	1.9771e+02	0.2247	-14.946824	0.000577	5.773723	0.978095	-0.000058
1989	1.9781e+02	0.2133	-14.998556	0.000520	5.200446	0.880979	-0.000052
1990	1.9791e+02	0.2059	-15.058028	0.000598	5.978465	1.012779	-0.000060
1991	1.9800e+02	0.1948	-15.110983	0.000532	5.323291	0.901790	-0.000053
1992	1.9810e+02	0.1847	-15.165567	0.000549	5.487085	0.929537	-0.000055
1993	1.9820e+02	0.1720	-15.222187	0.000569	5.691827	0.964222	-0.000057
1994	1.9830e+02	0.1663	-15.273513	0.000516	5.159497	0.874043	-0.000052
1995	1.9840e+02	0.1551	-15.332577	0.000594	5.937517	1.005843	-0.000059
1996	1.9850e+02	0.1456	-15.385532	0.000532	5.323291	0.901790	-0.000053
1997	1.9860e+02	0.1340	-15.440523	0.000553	5.528033	0.936474	-0.000055
1998	1.9870e+02	0.1249	-15.499995	0.000598	5.978465	1.012779	-0.000060
1999	1.9880e+02	0.1200	-15.553764	0.000541	5.405188	0.915664	-0.000054
2000	1.9890e+02	0.1059	-15.610385	0.000569	5.691827	0.964222	-0.000057
2001	1.9900e+02	0.0931	-15.664154	0.000541	5.405188	0.915664	-0.000054
2002	1.9910e+02	0.0867	-15.725663	0.000618	6.183207	1.047464	-0.000062
2003	1.9920e+02	0.0736	-15.776581	0.000512	5.118549	0.867106	-0.000051
2004	1.9930e+02	0.0660	-15.831572	0.000553	5.528033	0.936474	-0.000055
2005	1.9940e+02	0.0548	-15.888600	0.000573	5.732775	0.971158	-0.000057
2006	1.9950e+02	0.0433	-15.945628	0.000573	5.732775	0.971158	-0.000057
2007	1.9960e+02	0.0349	-16.000212	0.000549	5.487085	0.929537	-0.000055
2008	1.9970e+02	0.0259	-16.055610	0.000557	5.568981	0.943411	-0.000056
2009	1.9980e+02	0.0144	-16.111824	0.000565	5.650878	0.957285	-0.000056
2010	1.9990e+02	0.0027	-16.169666	0.000581	5.814672	0.985032	-0.000058
2011	2.0000e+02	-0.0069	-16.220177	0.000581	5.814672	0.985032	-0.000051

PMax (uC/cm2):	3.95e+01
Pr (uC/cm2):	3.51e+00
-Pr (uC/cm2):	0.00e+00
PLoss (uC/cm2):	0.00e+00
C (Max-Eff) (nF):	3.95e-01
K (Eff):	6.69e+02
Vert. (+/-Pr) Shift (uC/cm2):	1.76e+00
Offset (uC/cm2):	1.97e+01

A (Loop Area - uC/cm2·Volts):	-3.51e-02



Hysteresis Version: 5.48.1 - Radiant Technologies, Inc., 1999 - 9/12/24

