»»»»»»»»»»»»»»»»»»»»»»»»»»»»»»»»»»»» Hysteresis ««««««««««««««««««««««««««««««««««««
»»»  Executed Version:	5.48.1
»»»  Vision Version:	5.48.4 (R)
»»»  Vision Compiled:	9/18/24
»»»  Driver Version:	5.47.0
»»»  Windows Version:	Windows 8 or 8.1
»»»  Processor Information:	x86 (AMD or Intel) - 32 Processors
»»»  Tester Name:	PMF21124-494 (100V)
»»»  Tester S/N:	PMF21124-494
»»»  Internal Amp Type:	100V RevK 270k
»»»  Internal Amp S/N:	iAB2-596/K     
»»»  Execution Count:	1
»»»»»»»»»»»»»»»»»»»»»»»»»»»»»»»»»»»»»»»»»»««««««««««««««««««««««««««««««««««««««««««

Stored:	6/27/2025 - 14:1:50
Configured:	06/27/25 11:23:28 AM
Executed:	06/27/25 02:01:22 PM

»»»»»»»»»»»»»»»»»»»»»»»»»»»»»»»»»»» Sample Info ««««««««««««««««««««««««««««««««««««
Sample Name:	
Lot Name:	
Wafer Name:	
Die Row/Column:	0/0
Capacitor Number:	0
Sample Area (cm2):	1.00e-04
Sample Thickness (microns):	1.50e-01

Amplifier:	Internal

»»»»»»»»»»»»»»»»»»»»»»»»»»»»»»»»»»» Tester Info «««««««««««««««««««««««««««««««««««
Tester Name:	PMF21124-494 (100V)
Tester Serial Number:	PMF21124-494
Return Signal Amp. Level:	1.9 [Index: 2]

»»»»»»»»»»»»»»»»»»»»»»»»»»»»»»»» Hysteresis Info ««««««««««««««««««««««««««««««««««
Task Name:	Hyst-1276
Volts:	10.00
Field:	666.67 (kV/cm)
DCBias:	0.00
DCField:	0.00 (kV/cm)
Hysteresis Period (ms):	2.00e+02
Preset:	Enabled
Preset Delay (ms):	1.00e+03
Profile:	Standard Monopolar

»»»»»»»»»»»»»»»»»»»»»»»»»»»»»»»»»»»»»» Data «««««««««««««««««««««««««««««««««««««««
Points:	2011

Valid Data

Point	Time (ms)	Drive Voltage	Measured Polarization (uC/cm2)	Capacitance (uF)	Normalized Capacitance (uF/cm2)	Dielectric Constant	Instantaneous Current (mA)
   1	0.0000e+00	-0.0047	-16.527517	0.000487	4.872617	0.825444	0.000049
   2	9.9500e-02	0.0052	-16.479043	0.000487	4.872617	0.825444	0.000049
   3	1.9900e-01	0.0154	-16.435457	0.000438	4.381261	0.742206	0.000044
   4	2.9850e-01	0.0236	-16.389835	0.000459	4.585992	0.776888	0.000046
   5	3.9800e-01	0.0346	-16.342176	0.000479	4.790724	0.811571	0.000048
   6	4.9750e-01	0.0456	-16.294517	0.000479	4.790724	0.811571	0.000048
   7	5.9700e-01	0.0552	-16.247672	0.000471	4.708832	0.797698	0.000047
   8	6.9650e-01	0.0615	-16.200828	0.000471	4.708832	0.797698	0.000047
   9	7.9600e-01	0.0759	-16.156428	0.000446	4.463153	0.756079	0.000045
  10	8.9550e-01	0.0866	-16.105917	0.000508	5.077349	0.860126	0.000051
  11	9.9500e-01	0.0938	-16.054999	0.000512	5.118295	0.867063	0.000051
  12	1.0945e+00	0.1054	-16.010599	0.000446	4.463153	0.756079	0.000045
  13	1.1940e+00	0.1163	-15.962533	0.000483	4.831671	0.818507	0.000048
  14	1.2935e+00	0.1251	-15.916910	0.000459	4.585992	0.776888	0.000046
  15	1.3930e+00	0.1358	-15.870066	0.000471	4.708832	0.797698	0.000047
  16	1.4925e+00	0.1437	-15.820370	0.000500	4.995456	0.846253	0.000050
  17	1.5920e+00	0.1550	-15.773118	0.000475	4.749778	0.804634	0.000047
  18	1.6915e+00	0.1657	-15.722608	0.000508	5.077349	0.860126	0.000051
  19	1.7910e+00	0.1756	-15.679022	0.000438	4.381261	0.742206	0.000044
  20	1.8905e+00	0.1849	-15.632585	0.000467	4.667885	0.790761	0.000047
  21	1.9900e+00	0.1923	-15.583297	0.000495	4.954510	0.839317	0.000050
  22	2.0895e+00	0.2058	-15.540118	0.000434	4.340314	0.735269	0.000043
  23	2.1890e+00	0.2154	-15.494089	0.000463	4.626939	0.783825	0.000046
  24	2.2885e+00	0.2254	-15.453354	0.000409	4.094636	0.693650	0.000041
  25	2.3880e+00	0.2335	-15.407732	0.000459	4.585992	0.776888	0.000046
  26	2.4875e+00	0.2447	-15.364554	0.000434	4.340314	0.735269	0.000043
  27	2.5870e+00	0.2538	-15.319339	0.000455	4.545046	0.769952	0.000045
  28	2.6865e+00	0.2631	-15.277790	0.000418	4.176529	0.707523	0.000042
  29	2.7860e+00	0.2760	-15.236648	0.000414	4.135582	0.700587	0.000041
  30	2.8855e+00	0.2837	-15.191433	0.000455	4.545046	0.769952	0.000045
  31	2.9850e+00	0.2959	-15.147033	0.000446	4.463153	0.756079	0.000045
  32	3.0845e+00	0.3070	-15.104262	0.000430	4.299368	0.728333	0.000043
  33	3.1840e+00	0.3144	-15.061083	0.000434	4.340314	0.735269	0.000043
  34	3.2835e+00	0.3226	-15.017905	0.000434	4.340314	0.735269	0.000043
  35	3.3830e+00	0.3348	-14.971061	0.000471	4.708832	0.797698	0.000047
  36	3.4825e+00	0.3416	-14.931141	0.000401	4.012743	0.679777	0.000040
  37	3.5820e+00	0.3524	-14.886334	0.000450	4.504100	0.763015	0.000045
  38	3.6815e+00	0.3624	-14.847229	0.000393	3.930851	0.665904	0.000039
  39	3.7810e+00	0.3735	-14.803643	0.000438	4.381261	0.742206	0.000044
  40	3.8805e+00	0.3826	-14.760872	0.000430	4.299368	0.728333	0.000043
  41	3.9800e+00	0.3956	-14.721360	0.000397	3.971797	0.672841	0.000040
  42	4.0795e+00	0.4032	-14.676959	0.000446	4.463153	0.756079	0.000045
  43	4.1790e+00	0.4124	-14.632152	0.000450	4.504100	0.763015	0.000045
  44	4.2785e+00	0.4214	-14.592232	0.000401	4.012743	0.679777	0.000040
  45	4.3780e+00	0.4327	-14.550276	0.000422	4.217475	0.714460	0.000042
  46	4.4775e+00	0.4427	-14.505876	0.000446	4.463153	0.756079	0.000045
  47	4.5770e+00	0.4498	-14.461068	0.000450	4.504100	0.763015	0.000045
  48	4.6765e+00	0.4626	-14.421963	0.000393	3.930851	0.665904	0.000039
  49	4.7760e+00	0.4736	-14.380414	0.000418	4.176529	0.707523	0.000042
  50	4.8755e+00	0.4832	-14.342124	0.000385	3.848958	0.652031	0.000038
  51	4.9750e+00	0.4953	-14.297316	0.000450	4.504100	0.763015	0.000045
  52	5.0745e+00	0.5020	-14.256582	0.000409	4.094636	0.693650	0.000041
  53	5.1740e+00	0.5135	-14.213811	0.000430	4.299368	0.728333	0.000043
  54	5.2735e+00	0.5228	-14.172669	0.000414	4.135582	0.700587	0.000041
  55	5.3730e+00	0.5323	-14.129898	0.000430	4.299368	0.728333	0.000043
  56	5.4725e+00	0.5425	-14.088757	0.000414	4.135582	0.700587	0.000041
  57	5.5720e+00	0.5528	-14.050874	0.000381	3.808012	0.645095	0.000038
  58	5.6715e+00	0.5640	-14.008918	0.000422	4.217475	0.714460	0.000042
  59	5.7710e+00	0.5727	-13.970627	0.000385	3.848958	0.652031	0.000038
  60	5.8705e+00	0.5818	-13.927857	0.000430	4.299368	0.728333	0.000043
  61	5.9700e+00	0.5934	-13.888344	0.000397	3.971797	0.672841	0.000040
  62	6.0695e+00	0.6022	-13.846388	0.000422	4.217475	0.714460	0.000042
  63	6.1690e+00	0.6133	-13.804432	0.000422	4.217475	0.714460	0.000042
  64	6.2685e+00	0.6218	-13.763697	0.000409	4.094636	0.693650	0.000041
  65	6.3680e+00	0.6311	-13.721741	0.000422	4.217475	0.714460	0.000042
  66	6.4675e+00	0.6435	-13.679785	0.000422	4.217475	0.714460	0.000042
  67	6.5670e+00	0.6512	-13.639865	0.000401	4.012743	0.679777	0.000040
  68	6.6665e+00	0.6618	-13.601982	0.000381	3.808012	0.645095	0.000038
  69	6.7660e+00	0.6724	-13.559212	0.000430	4.299368	0.728333	0.000043
  70	6.8655e+00	0.6824	-13.520107	0.000393	3.930851	0.665904	0.000039
  71	6.9650e+00	0.6915	-13.479372	0.000409	4.094636	0.693650	0.000041
  72	7.0645e+00	0.7017	-13.438231	0.000414	4.135582	0.700587	0.000041
  73	7.1640e+00	0.7126	-13.397497	0.000409	4.094636	0.693650	0.000041
  74	7.2635e+00	0.7232	-13.357170	0.000405	4.053690	0.686714	0.000041
  75	7.3630e+00	0.7323	-13.318472	0.000389	3.889904	0.658968	0.000039
  76	7.4625e+00	0.7407	-13.274886	0.000438	4.381261	0.742206	0.000044
  77	7.5620e+00	0.7497	-13.237818	0.000373	3.726119	0.631222	0.000037
  78	7.6615e+00	0.7606	-13.191789	0.000463	4.626939	0.783825	0.000046
  79	7.7610e+00	0.7741	-13.151869	0.000401	4.012743	0.679777	0.000040
  80	7.8605e+00	0.7816	-13.112357	0.000397	3.971797	0.672841	0.000040
  81	7.9600e+00	0.7918	-13.069993	0.000426	4.258422	0.721396	0.000043
  82	8.0595e+00	0.8016	-13.033332	0.000369	3.685173	0.624285	0.000037
  83	8.1590e+00	0.8133	-12.993005	0.000405	4.053690	0.686714	0.000041
  84	8.2585e+00	0.8222	-12.951864	0.000414	4.135582	0.700587	0.000041
  85	8.3580e+00	0.8318	-12.915203	0.000369	3.685173	0.624285	0.000037
  86	8.4575e+00	0.8395	-12.876098	0.000393	3.930851	0.665904	0.000039
  87	8.5570e+00	0.8492	-12.837401	0.000389	3.889904	0.658968	0.000039
  88	8.6565e+00	0.8617	-12.799110	0.000385	3.848958	0.652031	0.000038
  89	8.7560e+00	0.8719	-12.764894	0.000344	3.439494	0.582666	0.000034
  90	8.8555e+00	0.8792	-12.727418	0.000377	3.767065	0.638158	0.000038
  91	8.9550e+00	0.8911	-12.691979	0.000356	3.562333	0.603476	0.000036
  92	9.0545e+00	0.9003	-12.651652	0.000405	4.053690	0.686714	0.000041
  93	9.1540e+00	0.9097	-12.616214	0.000356	3.562333	0.603476	0.000036
  94	9.2535e+00	0.9209	-12.580775	0.000356	3.562333	0.603476	0.000036
  95	9.3530e+00	0.9316	-12.546558	0.000344	3.439494	0.582666	0.000034
  96	9.4525e+00	0.9404	-12.504194	0.000426	4.258422	0.721396	0.000043
  97	9.5520e+00	0.9507	-12.469570	0.000348	3.480441	0.589603	0.000035
  98	9.6515e+00	0.9612	-12.431687	0.000381	3.808012	0.645095	0.000038
  99	9.7510e+00	0.9709	-12.393804	0.000381	3.808012	0.645095	0.000038
 100	9.8505e+00	0.9808	-12.359180	0.000348	3.480441	0.589603	0.000035
 101	9.9500e+00	0.9921	-12.322520	0.000369	3.685173	0.624285	0.000037
 102	1.0050e+01	1.0037	-12.287081	0.000356	3.562333	0.603476	0.000036
 103	1.0149e+01	1.0129	-12.247976	0.000393	3.930851	0.665904	0.000039
 104	1.0248e+01	1.0225	-12.208056	0.000401	4.012743	0.679777	0.000040
 105	1.0348e+01	1.0294	-12.173025	0.000352	3.521387	0.596539	0.000035
 106	1.0447e+01	1.0421	-12.128624	0.000446	4.463153	0.756079	0.000045
 107	1.0547e+01	1.0530	-12.094408	0.000344	3.439494	0.582666	0.000034
 108	1.0646e+01	1.0606	-12.054488	0.000401	4.012743	0.679777	0.000040
 109	1.0746e+01	1.0725	-12.013347	0.000414	4.135582	0.700587	0.000041
 110	1.0845e+01	1.0793	-11.967724	0.000459	4.585992	0.776888	0.000046
 111	1.0945e+01	1.0938	-11.931471	0.000364	3.644226	0.617349	0.000036
 112	1.1044e+01	1.1004	-11.886663	0.000450	4.504100	0.763015	0.000045
 113	1.1144e+01	1.1092	-11.847965	0.000389	3.889904	0.658968	0.000039
 114	1.1243e+01	1.1191	-11.808046	0.000401	4.012743	0.679777	0.000040
 115	1.1343e+01	1.1307	-11.765682	0.000426	4.258422	0.721396	0.000043
 116	1.1443e+01	1.1433	-11.724133	0.000418	4.176529	0.707523	0.000042
 117	1.1542e+01	1.1498	-11.685843	0.000385	3.848958	0.652031	0.000038
 118	1.1642e+01	1.1587	-11.638591	0.000475	4.749778	0.804634	0.000047
 119	1.1741e+01	1.1683	-11.599894	0.000389	3.889904	0.658968	0.000039
 120	1.1841e+01	1.1779	-11.559160	0.000409	4.094636	0.693650	0.000041
 121	1.1940e+01	1.1922	-11.517203	0.000422	4.217475	0.714460	0.000042
 122	1.2040e+01	1.1992	-11.476469	0.000409	4.094636	0.693650	0.000041
 123	1.2139e+01	1.2123	-11.436142	0.000405	4.053690	0.686714	0.000041
 124	1.2239e+01	1.2196	-11.393371	0.000430	4.299368	0.728333	0.000043
 125	1.2338e+01	1.2285	-11.355081	0.000385	3.848958	0.652031	0.000038
 126	1.2438e+01	1.2416	-11.312717	0.000426	4.258422	0.721396	0.000043
 127	1.2537e+01	1.2487	-11.270354	0.000426	4.258422	0.721396	0.000043
 128	1.2636e+01	1.2569	-11.230434	0.000401	4.012743	0.679777	0.000040
 129	1.2736e+01	1.2685	-11.188478	0.000422	4.217475	0.714460	0.000042
 130	1.2835e+01	1.2798	-11.149373	0.000393	3.930851	0.665904	0.000039
 131	1.2935e+01	1.2892	-11.107009	0.000426	4.258422	0.721396	0.000043
 132	1.3034e+01	1.2988	-11.064238	0.000430	4.299368	0.728333	0.000043
 133	1.3134e+01	1.3091	-11.023911	0.000405	4.053690	0.686714	0.000041
 134	1.3233e+01	1.3203	-10.983585	0.000405	4.053690	0.686714	0.000041
 135	1.3333e+01	1.3296	-10.938370	0.000455	4.545046	0.769952	0.000045
 136	1.3432e+01	1.3395	-10.896006	0.000426	4.258422	0.721396	0.000043
 137	1.3532e+01	1.3496	-10.856901	0.000393	3.930851	0.665904	0.000039
 138	1.3632e+01	1.3597	-10.813723	0.000434	4.340314	0.735269	0.000043
 139	1.3731e+01	1.3682	-10.771766	0.000422	4.217475	0.714460	0.000042
 140	1.3831e+01	1.3798	-10.726144	0.000459	4.585992	0.776888	0.000046
 141	1.3930e+01	1.3889	-10.686224	0.000401	4.012743	0.679777	0.000040
 142	1.4030e+01	1.3993	-10.641824	0.000446	4.463153	0.756079	0.000045
 143	1.4129e+01	1.4095	-10.598239	0.000438	4.381261	0.742206	0.000044
 144	1.4229e+01	1.4167	-10.558726	0.000397	3.971797	0.672841	0.000040
 145	1.4328e+01	1.4259	-10.513511	0.000455	4.545046	0.769952	0.000045
 146	1.4428e+01	1.4345	-10.473999	0.000397	3.971797	0.672841	0.000040
 147	1.4527e+01	1.4515	-10.431228	0.000430	4.299368	0.728333	0.000043
 148	1.4627e+01	1.4545	-10.389272	0.000422	4.217475	0.714460	0.000042
 149	1.4726e+01	1.4680	-10.346501	0.000430	4.299368	0.728333	0.000043
 150	1.4825e+01	1.4772	-10.302915	0.000438	4.381261	0.742206	0.000044
 151	1.4925e+01	1.4906	-10.265440	0.000377	3.767065	0.638158	0.000038
 152	1.5024e+01	1.4998	-10.223891	0.000418	4.176529	0.707523	0.000042
 153	1.5124e+01	1.5080	-10.179898	0.000442	4.422207	0.749142	0.000044
 154	1.5223e+01	1.5175	-10.139163	0.000409	4.094636	0.693650	0.000041
 155	1.5323e+01	1.5292	-10.093541	0.000459	4.585992	0.776888	0.000046
 156	1.5422e+01	1.5347	-10.053622	0.000401	4.012743	0.679777	0.000040
 157	1.5522e+01	1.5491	-10.010851	0.000430	4.299368	0.728333	0.000043
 158	1.5621e+01	1.5597	-9.969709	0.000414	4.135582	0.700587	0.000041
 159	1.5721e+01	1.5701	-9.922865	0.000471	4.708832	0.797698	0.000047
 160	1.5820e+01	1.5777	-9.884167	0.000389	3.889904	0.658968	0.000039
 161	1.5920e+01	1.5879	-9.845877	0.000385	3.848958	0.652031	0.000038
 162	1.6020e+01	1.5966	-9.801884	0.000442	4.422207	0.749142	0.000044
 163	1.6119e+01	1.6085	-9.762372	0.000397	3.971797	0.672841	0.000040
 164	1.6218e+01	1.6173	-9.724896	0.000377	3.767065	0.638158	0.000038
 165	1.6318e+01	1.6270	-9.678459	0.000467	4.667885	0.790761	0.000047
 166	1.6418e+01	1.6366	-9.636095	0.000426	4.258422	0.721396	0.000043
 167	1.6517e+01	1.6459	-9.591695	0.000446	4.463153	0.756079	0.000045
 168	1.6616e+01	1.6577	-9.548517	0.000434	4.340314	0.735269	0.000043
 169	1.6716e+01	1.6646	-9.505746	0.000430	4.299368	0.728333	0.000043
 170	1.6816e+01	1.6775	-9.462160	0.000438	4.381261	0.742206	0.000044
 171	1.6915e+01	1.6883	-9.416130	0.000463	4.626939	0.783825	0.000046
 172	1.7015e+01	1.6978	-9.373359	0.000430	4.299368	0.728333	0.000043
 173	1.7114e+01	1.7078	-9.324478	0.000491	4.913563	0.832380	0.000049
 174	1.7213e+01	1.7148	-9.282929	0.000418	4.176529	0.707523	0.000042
 175	1.7313e+01	1.7227	-9.237714	0.000455	4.545046	0.769952	0.000045
 176	1.7413e+01	1.7379	-9.195351	0.000426	4.258422	0.721396	0.000043
 177	1.7512e+01	1.7438	-9.146470	0.000491	4.913563	0.832380	0.000049
 178	1.7611e+01	1.7579	-9.106957	0.000397	3.971797	0.672841	0.000040
 179	1.7711e+01	1.7689	-9.058076	0.000491	4.913563	0.832380	0.000049
 180	1.7811e+01	1.7759	-9.010825	0.000475	4.749778	0.804634	0.000047
 181	1.7910e+01	1.7867	-8.966424	0.000446	4.463153	0.756079	0.000045
 182	1.8009e+01	1.7952	-8.926912	0.000397	3.971797	0.672841	0.000040
 183	1.8109e+01	1.8043	-8.878846	0.000483	4.831671	0.818507	0.000048
 184	1.8209e+01	1.8173	-8.836075	0.000430	4.299368	0.728333	0.000043
 185	1.8308e+01	1.8251	-8.787601	0.000487	4.872617	0.825444	0.000049
 186	1.8407e+01	1.8353	-8.745645	0.000422	4.217475	0.714460	0.000042
 187	1.8507e+01	1.8452	-8.703281	0.000426	4.258422	0.721396	0.000043
 188	1.8607e+01	1.8581	-8.658473	0.000450	4.504100	0.763015	0.000045
 189	1.8706e+01	1.8655	-8.617332	0.000414	4.135582	0.700587	0.000041
 190	1.8805e+01	1.8758	-8.574968	0.000426	4.258422	0.721396	0.000043
 191	1.8905e+01	1.8895	-8.536271	0.000389	3.889904	0.658968	0.000039
 192	1.9005e+01	1.8970	-8.495129	0.000414	4.135582	0.700587	0.000041
 193	1.9104e+01	1.9069	-8.454802	0.000405	4.053690	0.686714	0.000041
 194	1.9203e+01	1.9167	-8.416512	0.000385	3.848958	0.652031	0.000038
 195	1.9303e+01	1.9260	-8.374963	0.000418	4.176529	0.707523	0.000042
 196	1.9402e+01	1.9358	-8.335043	0.000401	4.012743	0.679777	0.000040
 197	1.9502e+01	1.9502	-8.292272	0.000430	4.299368	0.728333	0.000043
 198	1.9602e+01	1.9562	-8.257241	0.000352	3.521387	0.596539	0.000035
 199	1.9701e+01	1.9665	-8.221395	0.000360	3.603280	0.610412	0.000036
 200	1.9800e+01	1.9774	-8.177402	0.000442	4.422207	0.749142	0.000044
 201	1.9900e+01	1.9854	-8.139926	0.000377	3.767065	0.638158	0.000038
 202	2.0000e+01	1.9949	-8.100821	0.000393	3.930851	0.665904	0.000039
 203	2.0099e+01	2.0065	-8.061309	0.000397	3.971797	0.672841	0.000040
 204	2.0198e+01	2.0163	-8.021390	0.000401	4.012743	0.679777	0.000040
 205	2.0298e+01	2.0281	-7.985136	0.000364	3.644226	0.617349	0.000036
 206	2.0398e+01	2.0361	-7.942772	0.000426	4.258422	0.721396	0.000043
 207	2.0497e+01	2.0456	-7.908556	0.000344	3.439494	0.582666	0.000034
 208	2.0596e+01	2.0571	-7.866192	0.000426	4.258422	0.721396	0.000043
 209	2.0696e+01	2.0658	-7.833197	0.000332	3.316655	0.561857	0.000033
 210	2.0796e+01	2.0766	-7.791241	0.000422	4.217475	0.714460	0.000042
 211	2.0895e+01	2.0863	-7.751729	0.000397	3.971797	0.672841	0.000040
 212	2.0994e+01	2.0953	-7.712624	0.000393	3.930851	0.665904	0.000039
 213	2.1094e+01	2.1073	-7.674741	0.000381	3.808012	0.645095	0.000038
 214	2.1194e+01	2.1117	-7.639302	0.000356	3.562333	0.603476	0.000036
 215	2.1293e+01	2.1246	-7.602234	0.000373	3.726119	0.631222	0.000037
 216	2.1392e+01	2.1343	-7.564759	0.000377	3.767065	0.638158	0.000038
 217	2.1492e+01	2.1439	-7.526876	0.000381	3.808012	0.645095	0.000038
 218	2.1591e+01	2.1566	-7.486141	0.000409	4.094636	0.693650	0.000041
 219	2.1691e+01	2.1641	-7.449481	0.000369	3.685173	0.624285	0.000037
 220	2.1791e+01	2.1719	-7.412412	0.000373	3.726119	0.631222	0.000037
 221	2.1890e+01	2.1822	-7.370863	0.000418	4.176529	0.707523	0.000042
 222	2.1989e+01	2.1953	-7.341127	0.000299	2.989084	0.506365	0.000030
 223	2.2089e+01	2.2038	-7.300801	0.000405	4.053690	0.686714	0.000041
 224	2.2189e+01	2.2149	-7.265769	0.000352	3.521387	0.596539	0.000035
 225	2.2288e+01	2.2234	-7.229516	0.000364	3.644226	0.617349	0.000036
 226	2.2387e+01	2.2350	-7.196114	0.000336	3.357602	0.568793	0.000034
 227	2.2487e+01	2.2441	-7.158231	0.000381	3.808012	0.645095	0.000038
 228	2.2587e+01	2.2527	-7.122792	0.000356	3.562333	0.603476	0.000036
 229	2.2686e+01	2.2632	-7.086946	0.000360	3.603280	0.610412	0.000036
 230	2.2785e+01	2.2739	-7.043360	0.000438	4.381261	0.742206	0.000044
 231	2.2885e+01	2.2840	-7.009958	0.000336	3.357602	0.568793	0.000034
 232	2.2985e+01	2.2958	-6.972075	0.000381	3.808012	0.645095	0.000038
 233	2.3084e+01	2.3041	-6.936636	0.000356	3.562333	0.603476	0.000036
 234	2.3183e+01	2.3135	-6.900383	0.000364	3.644226	0.617349	0.000036
 235	2.3283e+01	2.3254	-6.866573	0.000340	3.398548	0.575730	0.000034
 236	2.3383e+01	2.3356	-6.827469	0.000393	3.930851	0.665904	0.000039
 237	2.3482e+01	2.3423	-6.793252	0.000344	3.439494	0.582666	0.000034
 238	2.3581e+01	2.3539	-6.755369	0.000381	3.808012	0.645095	0.000038
 239	2.3681e+01	2.3656	-6.719523	0.000360	3.603280	0.610412	0.000036
 240	2.3780e+01	2.3742	-6.683677	0.000360	3.603280	0.610412	0.000036
 241	2.3880e+01	2.3833	-6.647830	0.000360	3.603280	0.610412	0.000036
 242	2.3980e+01	2.3943	-6.613614	0.000344	3.439494	0.582666	0.000034
 243	2.4079e+01	2.4027	-6.578175	0.000356	3.562333	0.603476	0.000036
 244	2.4178e+01	2.4124	-6.538663	0.000397	3.971797	0.672841	0.000040
 245	2.4278e+01	2.4228	-6.504446	0.000344	3.439494	0.582666	0.000034
 246	2.4378e+01	2.4318	-6.469414	0.000352	3.521387	0.596539	0.000035
 247	2.4477e+01	2.4429	-6.432754	0.000369	3.685173	0.624285	0.000037
 248	2.4576e+01	2.4548	-6.396500	0.000364	3.644226	0.617349	0.000036
 249	2.4676e+01	2.4623	-6.364320	0.000323	3.234763	0.547984	0.000032
 250	2.4776e+01	2.4744	-6.323586	0.000409	4.094636	0.693650	0.000041
 251	2.4875e+01	2.4821	-6.290591	0.000332	3.316655	0.561857	0.000033
 252	2.4974e+01	2.4939	-6.256782	0.000340	3.398548	0.575730	0.000034
 253	2.5074e+01	2.5014	-6.222157	0.000348	3.480441	0.589603	0.000035
 254	2.5174e+01	2.5142	-6.189163	0.000332	3.316655	0.561857	0.000033
 255	2.5273e+01	2.5220	-6.158612	0.000307	3.070977	0.520238	0.000031
 256	2.5372e+01	2.5322	-6.127654	0.000311	3.111923	0.527174	0.000031
 257	2.5472e+01	2.5436	-6.096696	0.000311	3.111923	0.527174	0.000031
 258	2.5572e+01	2.5520	-6.063701	0.000332	3.316655	0.561857	0.000033
 259	2.5671e+01	2.5608	-6.027040	0.000369	3.685173	0.624285	0.000037
 260	2.5770e+01	2.5745	-5.998119	0.000291	2.907192	0.492492	0.000029
 261	2.5870e+01	2.5810	-5.963495	0.000348	3.480441	0.589603	0.000035
 262	2.5970e+01	2.5927	-5.933352	0.000303	3.030031	0.513301	0.000030
 263	2.6069e+01	2.6025	-5.899950	0.000336	3.357602	0.568793	0.000034
 264	2.6169e+01	2.6090	-5.870621	0.000295	2.948138	0.499428	0.000029
 265	2.6268e+01	2.6227	-5.835997	0.000348	3.480441	0.589603	0.000035
 266	2.6367e+01	2.6308	-5.803409	0.000328	3.275709	0.554920	0.000033
 267	2.6467e+01	2.6397	-5.772451	0.000311	3.111923	0.527174	0.000031
 268	2.6567e+01	2.6516	-5.741493	0.000311	3.111923	0.527174	0.000031
 269	2.6666e+01	2.6646	-5.706462	0.000352	3.521387	0.596539	0.000035
 270	2.6765e+01	2.6705	-5.674282	0.000323	3.234763	0.547984	0.000032
 271	2.6865e+01	2.6823	-5.643324	0.000311	3.111923	0.527174	0.000031
 272	2.6965e+01	2.6900	-5.609107	0.000344	3.439494	0.582666	0.000034
 273	2.7064e+01	2.7024	-5.573261	0.000360	3.603280	0.610412	0.000036
 274	2.7163e+01	2.7103	-5.543525	0.000299	2.989084	0.506365	0.000030
 275	2.7263e+01	2.7233	-5.506049	0.000377	3.767065	0.638158	0.000038
 276	2.7363e+01	2.7312	-5.469388	0.000369	3.685173	0.624285	0.000037
 277	2.7462e+01	2.7418	-5.432728	0.000369	3.685173	0.624285	0.000037
 278	2.7561e+01	2.7534	-5.396067	0.000369	3.685173	0.624285	0.000037
 279	2.7661e+01	2.7639	-5.362665	0.000336	3.357602	0.568793	0.000034
 280	2.7761e+01	2.7707	-5.328041	0.000348	3.480441	0.589603	0.000035
 281	2.7860e+01	2.7813	-5.289750	0.000385	3.848958	0.652031	0.000038
 282	2.7959e+01	2.7947	-5.254312	0.000356	3.562333	0.603476	0.000036
 283	2.8059e+01	2.8031	-5.217243	0.000373	3.726119	0.631222	0.000037
 284	2.8159e+01	2.8121	-5.179768	0.000377	3.767065	0.638158	0.000038
 285	2.8258e+01	2.8225	-5.146366	0.000336	3.357602	0.568793	0.000034
 286	2.8358e+01	2.8297	-5.105632	0.000409	4.094636	0.693650	0.000041
 287	2.8457e+01	2.8407	-5.073451	0.000323	3.234763	0.547984	0.000032
 288	2.8556e+01	2.8503	-5.034754	0.000389	3.889904	0.658968	0.000039
 289	2.8656e+01	2.8602	-4.997278	0.000377	3.767065	0.638158	0.000038
 290	2.8756e+01	2.8703	-4.961025	0.000364	3.644226	0.617349	0.000036
 291	2.8855e+01	2.8822	-4.925586	0.000356	3.562333	0.603476	0.000036
 292	2.8954e+01	2.8908	-4.888925	0.000369	3.685173	0.624285	0.000037
 293	2.9054e+01	2.9027	-4.849413	0.000397	3.971797	0.672841	0.000040
 294	2.9154e+01	2.9109	-4.815604	0.000340	3.398548	0.575730	0.000034
 295	2.9253e+01	2.9219	-4.778943	0.000369	3.685173	0.624285	0.000037
 296	2.9352e+01	2.9291	-4.742282	0.000369	3.685173	0.624285	0.000037
 297	2.9452e+01	2.9377	-4.703992	0.000385	3.848958	0.652031	0.000038
 298	2.9552e+01	2.9496	-4.668553	0.000356	3.562333	0.603476	0.000036
 299	2.9651e+01	2.9590	-4.630263	0.000385	3.848958	0.652031	0.000038
 300	2.9750e+01	2.9716	-4.592787	0.000377	3.767065	0.638158	0.000038
 301	2.9850e+01	2.9810	-4.556534	0.000364	3.644226	0.617349	0.000036
 302	2.9950e+01	2.9903	-4.521502	0.000352	3.521387	0.596539	0.000035
 303	3.0049e+01	3.0011	-4.481990	0.000397	3.971797	0.672841	0.000040
 304	3.0148e+01	3.0108	-4.444515	0.000377	3.767065	0.638158	0.000038
 305	3.0248e+01	3.0227	-4.407039	0.000377	3.767065	0.638158	0.000038
 306	3.0348e+01	3.0313	-4.369156	0.000381	3.808012	0.645095	0.000038
 307	3.0447e+01	3.0398	-4.332903	0.000364	3.644226	0.617349	0.000036
 308	3.0547e+01	3.0497	-4.293798	0.000393	3.930851	0.665904	0.000039
 309	3.0646e+01	3.0596	-4.254693	0.000393	3.930851	0.665904	0.000039
 310	3.0745e+01	3.0695	-4.221698	0.000332	3.316655	0.561857	0.000033
 311	3.0845e+01	3.0795	-4.183001	0.000389	3.889904	0.658968	0.000039
 312	3.0945e+01	3.0910	-4.145118	0.000381	3.808012	0.645095	0.000038
 313	3.1044e+01	3.0981	-4.110901	0.000344	3.439494	0.582666	0.000034
 314	3.1143e+01	3.1116	-4.067723	0.000434	4.340314	0.735269	0.000043
 315	3.1243e+01	3.1225	-4.032691	0.000352	3.521387	0.596539	0.000035
 316	3.1343e+01	3.1277	-3.996438	0.000364	3.644226	0.617349	0.000036
 317	3.1442e+01	3.1395	-3.956926	0.000397	3.971797	0.672841	0.000040
 318	3.1541e+01	3.1506	-3.923931	0.000332	3.316655	0.561857	0.000033
 319	3.1641e+01	3.1596	-3.882789	0.000414	4.135582	0.700587	0.000041
 320	3.1741e+01	3.1708	-3.844906	0.000381	3.808012	0.645095	0.000038
 321	3.1840e+01	3.1821	-3.806209	0.000389	3.889904	0.658968	0.000039
 322	3.1939e+01	3.1897	-3.776065	0.000303	3.030031	0.513301	0.000030
 323	3.2039e+01	3.2005	-3.736146	0.000401	4.012743	0.679777	0.000040
 324	3.2139e+01	3.2118	-3.697448	0.000389	3.889904	0.658968	0.000039
 325	3.2238e+01	3.2212	-3.659158	0.000385	3.848958	0.652031	0.000038
 326	3.2337e+01	3.2314	-3.620461	0.000389	3.889904	0.658968	0.000039
 327	3.2437e+01	3.2372	-3.585022	0.000356	3.562333	0.603476	0.000036
 328	3.2536e+01	3.2514	-3.546732	0.000385	3.848958	0.652031	0.000038
 329	3.2636e+01	3.2587	-3.511700	0.000352	3.521387	0.596539	0.000035
 330	3.2736e+01	3.2684	-3.476261	0.000356	3.562333	0.603476	0.000036
 331	3.2835e+01	3.2789	-3.435934	0.000405	4.053690	0.686714	0.000041
 332	3.2934e+01	3.2896	-3.403754	0.000323	3.234763	0.547984	0.000032
 333	3.3034e+01	3.3024	-3.364242	0.000397	3.971797	0.672841	0.000040
 334	3.3133e+01	3.3093	-3.325545	0.000389	3.889904	0.658968	0.000039
 335	3.3233e+01	3.3186	-3.285218	0.000405	4.053690	0.686714	0.000041
 336	3.3333e+01	3.3282	-3.248557	0.000369	3.685173	0.624285	0.000037
 337	3.3432e+01	3.3395	-3.208637	0.000401	4.012743	0.679777	0.000040
 338	3.3532e+01	3.3466	-3.167088	0.000418	4.176529	0.707523	0.000042
 339	3.3631e+01	3.3588	-3.129613	0.000377	3.767065	0.638158	0.000038
 340	3.3730e+01	3.3688	-3.089286	0.000405	4.053690	0.686714	0.000041
 341	3.3830e+01	3.3811	-3.047330	0.000422	4.217475	0.714460	0.000042
 342	3.3929e+01	3.3891	-3.010669	0.000369	3.685173	0.624285	0.000037
 343	3.4029e+01	3.3988	-2.969935	0.000409	4.094636	0.693650	0.000041
 344	3.4129e+01	3.4090	-2.929608	0.000405	4.053690	0.686714	0.000041
 345	3.4228e+01	3.4193	-2.890503	0.000393	3.930851	0.665904	0.000039
 346	3.4328e+01	3.4298	-2.847324	0.000434	4.340314	0.735269	0.000043
 347	3.4427e+01	3.4393	-2.811478	0.000360	3.603280	0.610412	0.000036
 348	3.4526e+01	3.4472	-2.767893	0.000438	4.381261	0.742206	0.000044
 349	3.4626e+01	3.4596	-2.727566	0.000405	4.053690	0.686714	0.000041
 350	3.4725e+01	3.4708	-2.689683	0.000381	3.808012	0.645095	0.000038
 351	3.4825e+01	3.4762	-2.648134	0.000418	4.176529	0.707523	0.000042
 352	3.4925e+01	3.4855	-2.609436	0.000389	3.889904	0.658968	0.000039
 353	3.5024e+01	3.4966	-2.569517	0.000401	4.012743	0.679777	0.000040
 354	3.5123e+01	3.5100	-2.529597	0.000401	4.012743	0.679777	0.000040
 355	3.5223e+01	3.5177	-2.495380	0.000344	3.439494	0.582666	0.000034
 356	3.5322e+01	3.5280	-2.453424	0.000422	4.217475	0.714460	0.000042
 357	3.5422e+01	3.5371	-2.423281	0.000303	3.030031	0.513301	0.000030
 358	3.5522e+01	3.5484	-2.379288	0.000442	4.422207	0.749142	0.000044
 359	3.5621e+01	3.5564	-2.342220	0.000373	3.726119	0.631222	0.000037
 360	3.5721e+01	3.5683	-2.309225	0.000332	3.316655	0.561857	0.000033
 361	3.5820e+01	3.5786	-2.270935	0.000385	3.848958	0.652031	0.000038
 362	3.5919e+01	3.5882	-2.238347	0.000328	3.275709	0.554920	0.000033
 363	3.6019e+01	3.5979	-2.204131	0.000344	3.439494	0.582666	0.000034
 364	3.6118e+01	3.6098	-2.168284	0.000360	3.603280	0.610412	0.000036
 365	3.6218e+01	3.6189	-2.131624	0.000369	3.685173	0.624285	0.000037
 366	3.6318e+01	3.6268	-2.097814	0.000340	3.398548	0.575730	0.000034
 367	3.6417e+01	3.6355	-2.063190	0.000348	3.480441	0.589603	0.000035
 368	3.6517e+01	3.6463	-2.031417	0.000319	3.193816	0.541047	0.000032
 369	3.6616e+01	3.6571	-1.990683	0.000409	4.094636	0.693650	0.000041
 370	3.6715e+01	3.6664	-1.962984	0.000278	2.784353	0.471682	0.000028
 371	3.6815e+01	3.6779	-1.925508	0.000377	3.767065	0.638158	0.000038
 372	3.6914e+01	3.6874	-1.892106	0.000336	3.357602	0.568793	0.000034
 373	3.7014e+01	3.6969	-1.857889	0.000344	3.439494	0.582666	0.000034
 374	3.7114e+01	3.7089	-1.819599	0.000385	3.848958	0.652031	0.000038
 375	3.7213e+01	3.7157	-1.789456	0.000303	3.030031	0.513301	0.000030
 376	3.7313e+01	3.7274	-1.751980	0.000377	3.767065	0.638158	0.000038
 377	3.7412e+01	3.7383	-1.721837	0.000303	3.030031	0.513301	0.000030
 378	3.7511e+01	3.7461	-1.688435	0.000336	3.357602	0.568793	0.000034
 379	3.7611e+01	3.7597	-1.654625	0.000340	3.398548	0.575730	0.000034
 380	3.7711e+01	3.7664	-1.622038	0.000328	3.275709	0.554920	0.000033
 381	3.7810e+01	3.7762	-1.589043	0.000332	3.316655	0.561857	0.000033
 382	3.7910e+01	3.7879	-1.556456	0.000328	3.275709	0.554920	0.000033
 383	3.8009e+01	3.7966	-1.518980	0.000377	3.767065	0.638158	0.000038
 384	3.8108e+01	3.8035	-1.487208	0.000319	3.193816	0.541047	0.000032
 385	3.8208e+01	3.8163	-1.453806	0.000336	3.357602	0.568793	0.000034
 386	3.8307e+01	3.8263	-1.423662	0.000303	3.030031	0.513301	0.000030
 387	3.8407e+01	3.8365	-1.389038	0.000348	3.480441	0.589603	0.000035
 388	3.8507e+01	3.8467	-1.353599	0.000356	3.562333	0.603476	0.000036
 389	3.8606e+01	3.8583	-1.321827	0.000319	3.193816	0.541047	0.000032
 390	3.8706e+01	3.8677	-1.291276	0.000307	3.070977	0.520238	0.000031
 391	3.8805e+01	3.8752	-1.259096	0.000323	3.234763	0.547984	0.000032
 392	3.8904e+01	3.8862	-1.229767	0.000295	2.948138	0.499428	0.000029
 393	3.9004e+01	3.8961	-1.193514	0.000364	3.644226	0.617349	0.000036
 394	3.9103e+01	3.9061	-1.167036	0.000266	2.661513	0.450873	0.000027
 395	3.9203e+01	3.9164	-1.134449	0.000328	3.275709	0.554920	0.000033
 396	3.9303e+01	3.9253	-1.103084	0.000315	3.152870	0.534111	0.000032
 397	3.9402e+01	3.9351	-1.069682	0.000336	3.357602	0.568793	0.000034
 398	3.9502e+01	3.9455	-1.035465	0.000344	3.439494	0.582666	0.000034
 399	3.9601e+01	3.9568	-1.002877	0.000328	3.275709	0.554920	0.000033
 400	3.9700e+01	3.9673	-0.970290	0.000328	3.275709	0.554920	0.000033
 401	3.9800e+01	3.9739	-0.940554	0.000299	2.989084	0.506365	0.000030
 402	3.9900e+01	3.9860	-0.909189	0.000315	3.152870	0.534111	0.000032
 403	3.9999e+01	3.9973	-0.873750	0.000356	3.562333	0.603476	0.000036
 404	4.0099e+01	4.0061	-0.840755	0.000332	3.316655	0.561857	0.000033
 405	4.0198e+01	4.0148	-0.814278	0.000266	2.661513	0.450873	0.000027
 406	4.0297e+01	4.0254	-0.782098	0.000323	3.234763	0.547984	0.000032
 407	4.0397e+01	4.0377	-0.745437	0.000369	3.685173	0.624285	0.000037
 408	4.0496e+01	4.0455	-0.717330	0.000283	2.825299	0.478619	0.000028
 409	4.0596e+01	4.0562	-0.685965	0.000315	3.152870	0.534111	0.000032
 410	4.0696e+01	4.0666	-0.655822	0.000303	3.030031	0.513301	0.000030
 411	4.0795e+01	4.0749	-0.625678	0.000303	3.030031	0.513301	0.000030
 412	4.0895e+01	4.0890	-0.593498	0.000323	3.234763	0.547984	0.000032
 413	4.0994e+01	4.0945	-0.559281	0.000344	3.439494	0.582666	0.000034
 414	4.1093e+01	4.1077	-0.527916	0.000315	3.152870	0.534111	0.000032
 415	4.1193e+01	4.1172	-0.497773	0.000303	3.030031	0.513301	0.000030
 416	4.1292e+01	4.1258	-0.463963	0.000340	3.398548	0.575730	0.000034
 417	4.1392e+01	4.1342	-0.434227	0.000299	2.989084	0.506365	0.000030
 418	4.1492e+01	4.1460	-0.402047	0.000323	3.234763	0.547984	0.000032
 419	4.1591e+01	4.1555	-0.368645	0.000336	3.357602	0.568793	0.000034
 420	4.1691e+01	4.1656	-0.341353	0.000274	2.743406	0.464746	0.000027
 421	4.1790e+01	4.1738	-0.313246	0.000283	2.825299	0.478619	0.000028
 422	4.1889e+01	4.1837	-0.285547	0.000278	2.784353	0.471682	0.000028
 423	4.1989e+01	4.1941	-0.256218	0.000295	2.948138	0.499428	0.000029
 424	4.2089e+01	4.2027	-0.228927	0.000274	2.743406	0.464746	0.000027
 425	4.2188e+01	4.2141	-0.200005	0.000291	2.907192	0.492492	0.000029
 426	4.2288e+01	4.2251	-0.170269	0.000299	2.989084	0.506365	0.000030
 427	4.2387e+01	4.2340	-0.145829	0.000246	2.456782	0.416190	0.000025
 428	4.2486e+01	4.2431	-0.114463	0.000315	3.152870	0.534111	0.000032
 429	4.2586e+01	4.2543	-0.087986	0.000266	2.661513	0.450873	0.000027
 430	4.2685e+01	4.2632	-0.060694	0.000274	2.743406	0.464746	0.000027
 431	4.2785e+01	4.2788	-0.033402	0.000274	2.743406	0.464746	0.000027
 432	4.2885e+01	4.2840	-0.006925	0.000266	2.661513	0.450873	0.000027
 433	4.2984e+01	4.2947	0.021589	0.000287	2.866245	0.485555	0.000029
 434	4.3084e+01	4.3023	0.050918	0.000295	2.948138	0.499428	0.000029
 435	4.3183e+01	4.3101	0.074951	0.000242	2.415835	0.409254	0.000024
 436	4.3282e+01	4.3246	0.105094	0.000303	3.030031	0.513301	0.000030
 437	4.3382e+01	4.3350	0.135645	0.000307	3.070977	0.520238	0.000031
 438	4.3481e+01	4.3449	0.161308	0.000258	2.579621	0.437000	0.000026
 439	4.3581e+01	4.3567	0.193488	0.000323	3.234763	0.547984	0.000032
 440	4.3681e+01	4.3658	0.221594	0.000283	2.825299	0.478619	0.000028
 441	4.3780e+01	4.3771	0.250923	0.000295	2.948138	0.499428	0.000029
 442	4.3880e+01	4.3848	0.283510	0.000328	3.275709	0.554920	0.000033
 443	4.3979e+01	4.3941	0.313246	0.000299	2.989084	0.506365	0.000030
 444	4.4078e+01	4.4044	0.347463	0.000344	3.439494	0.582666	0.000034
 445	4.4178e+01	4.4172	0.377199	0.000299	2.989084	0.506365	0.000030
 446	4.4278e+01	4.4231	0.409787	0.000328	3.275709	0.554920	0.000033
 447	4.4377e+01	4.4318	0.440337	0.000307	3.070977	0.520238	0.000031
 448	4.4477e+01	4.4451	0.473332	0.000332	3.316655	0.561857	0.000033
 449	4.4576e+01	4.4512	0.502661	0.000295	2.948138	0.499428	0.000029
 450	4.4675e+01	4.4608	0.536470	0.000340	3.398548	0.575730	0.000034
 451	4.4775e+01	4.4738	0.568650	0.000323	3.234763	0.547984	0.000032
 452	4.4874e+01	4.4859	0.599608	0.000311	3.111923	0.527174	0.000031
 453	4.4974e+01	4.4946	0.629752	0.000303	3.030031	0.513301	0.000030
 454	4.5074e+01	4.5017	0.664376	0.000348	3.480441	0.589603	0.000035
 455	4.5173e+01	4.5112	0.698185	0.000340	3.398548	0.575730	0.000034
 456	4.5273e+01	4.5237	0.729551	0.000315	3.152870	0.534111	0.000032
 457	4.5372e+01	4.5325	0.764582	0.000352	3.521387	0.596539	0.000035
 458	4.5471e+01	4.5429	0.795133	0.000307	3.070977	0.520238	0.000031
 459	4.5571e+01	4.5535	0.831386	0.000364	3.644226	0.617349	0.000036
 460	4.5670e+01	4.5635	0.854605	0.000233	2.333943	0.395381	0.000023
 461	4.5770e+01	4.5764	0.892895	0.000385	3.848958	0.652031	0.000038
 462	4.5870e+01	4.5813	0.927926	0.000352	3.521387	0.596539	0.000035
 463	4.5969e+01	4.5945	0.959699	0.000319	3.193816	0.541047	0.000032
 464	4.6069e+01	4.6017	0.990250	0.000307	3.070977	0.520238	0.000031
 465	4.6168e+01	4.6120	1.027725	0.000377	3.767065	0.638158	0.000038
 466	4.6267e+01	4.6232	1.059091	0.000315	3.152870	0.534111	0.000032
 467	4.6367e+01	4.6308	1.090049	0.000311	3.111923	0.527174	0.000031
 468	4.6467e+01	4.6429	1.125080	0.000352	3.521387	0.596539	0.000035
 469	4.6566e+01	4.6499	1.155631	0.000307	3.070977	0.520238	0.000031
 470	4.6666e+01	4.6638	1.186996	0.000315	3.152870	0.534111	0.000032
 471	4.6765e+01	4.6693	1.226916	0.000401	4.012743	0.679777	0.000040
 472	4.6864e+01	4.6828	1.256244	0.000295	2.948138	0.499428	0.000029
 473	4.6964e+01	4.6893	1.289647	0.000336	3.357602	0.568793	0.000034
 474	4.7063e+01	4.7027	1.323456	0.000340	3.398548	0.575730	0.000034
 475	4.7163e+01	4.7118	1.354821	0.000315	3.152870	0.534111	0.000032
 476	4.7263e+01	4.7234	1.391075	0.000364	3.644226	0.617349	0.000036
 477	4.7362e+01	4.7311	1.424477	0.000336	3.357602	0.568793	0.000034
 478	4.7462e+01	4.7439	1.459508	0.000352	3.521387	0.596539	0.000035
 479	4.7561e+01	4.7541	1.492910	0.000336	3.357602	0.568793	0.000034
 480	4.7660e+01	4.7602	1.525091	0.000323	3.234763	0.547984	0.000032
 481	4.7760e+01	4.7706	1.560529	0.000356	3.562333	0.603476	0.000036
 482	4.7859e+01	4.7824	1.593117	0.000328	3.275709	0.554920	0.000033
 483	4.7959e+01	4.7932	1.623260	0.000303	3.030031	0.513301	0.000030
 484	4.8059e+01	4.8014	1.656662	0.000336	3.357602	0.568793	0.000034
 485	4.8158e+01	4.8107	1.691694	0.000352	3.521387	0.596539	0.000035
 486	4.8258e+01	4.8237	1.723874	0.000323	3.234763	0.547984	0.000032
 487	4.8357e+01	4.8322	1.758905	0.000352	3.521387	0.596539	0.000035
 488	4.8456e+01	4.8397	1.793937	0.000352	3.521387	0.596539	0.000035
 489	4.8556e+01	4.8508	1.826524	0.000328	3.275709	0.554920	0.000033
 490	4.8656e+01	4.8620	1.862370	0.000360	3.603280	0.610412	0.000036
 491	4.8755e+01	4.8708	1.893736	0.000315	3.152870	0.534111	0.000032
 492	4.8855e+01	4.8783	1.927545	0.000340	3.398548	0.575730	0.000034
 493	4.8954e+01	4.8919	1.960947	0.000336	3.357602	0.568793	0.000034
 494	4.9053e+01	4.9017	1.992312	0.000315	3.152870	0.534111	0.000032
 495	4.9153e+01	4.9099	2.024900	0.000328	3.275709	0.554920	0.000033
 496	4.9252e+01	4.9232	2.055043	0.000303	3.030031	0.513301	0.000030
 497	4.9352e+01	4.9322	2.091297	0.000364	3.644226	0.617349	0.000036
 498	4.9452e+01	4.9427	2.127957	0.000369	3.685173	0.624285	0.000037
 499	4.9551e+01	4.9499	2.156471	0.000287	2.866245	0.485555	0.000029
 500	4.9651e+01	4.9591	2.191096	0.000348	3.480441	0.589603	0.000035
 501	4.9750e+01	4.9702	2.224498	0.000336	3.357602	0.568793	0.000034
 502	4.9849e+01	4.9778	2.260751	0.000364	3.644226	0.617349	0.000036
 503	4.9949e+01	4.9914	2.296190	0.000356	3.562333	0.603476	0.000036
 504	5.0048e+01	5.0007	2.329592	0.000336	3.357602	0.568793	0.000034
 505	5.0148e+01	5.0095	2.369512	0.000401	4.012743	0.679777	0.000040
 506	5.0248e+01	5.0207	2.403321	0.000340	3.398548	0.575730	0.000034
 507	5.0347e+01	5.0308	2.440797	0.000377	3.767065	0.638158	0.000038
 508	5.0447e+01	5.0388	2.477050	0.000364	3.644226	0.617349	0.000036
 509	5.0546e+01	5.0524	2.511674	0.000348	3.480441	0.589603	0.000035
 510	5.0645e+01	5.0592	2.545891	0.000344	3.439494	0.582666	0.000034
 511	5.0745e+01	5.0698	2.583774	0.000381	3.808012	0.645095	0.000038
 512	5.0844e+01	5.0791	2.617991	0.000344	3.439494	0.582666	0.000034
 513	5.0944e+01	5.0928	2.652615	0.000348	3.480441	0.589603	0.000035
 514	5.1044e+01	5.1015	2.690905	0.000385	3.848958	0.652031	0.000038
 515	5.1143e+01	5.1118	2.726344	0.000356	3.562333	0.603476	0.000036
 516	5.1242e+01	5.1202	2.763819	0.000377	3.767065	0.638158	0.000038
 517	5.1342e+01	5.1299	2.798443	0.000348	3.480441	0.589603	0.000035
 518	5.1441e+01	5.1382	2.834697	0.000364	3.644226	0.617349	0.000036
 519	5.1541e+01	5.1498	2.873394	0.000389	3.889904	0.658968	0.000039
 520	5.1641e+01	5.1582	2.910055	0.000369	3.685173	0.624285	0.000037
 521	5.1740e+01	5.1709	2.946309	0.000364	3.644226	0.617349	0.000036
 522	5.1840e+01	5.1766	2.978896	0.000328	3.275709	0.554920	0.000033
 523	5.1939e+01	5.1882	3.013928	0.000352	3.521387	0.596539	0.000035
 524	5.2038e+01	5.1995	3.045700	0.000319	3.193816	0.541047	0.000032
 525	5.2138e+01	5.2114	3.080324	0.000348	3.480441	0.589603	0.000035
 526	5.2237e+01	5.2196	3.114541	0.000344	3.439494	0.582666	0.000034
 527	5.2337e+01	5.2285	3.146314	0.000319	3.193816	0.541047	0.000032
 528	5.2437e+01	5.2370	3.176457	0.000303	3.030031	0.513301	0.000030
 529	5.2536e+01	5.2476	3.209045	0.000328	3.275709	0.554920	0.000033
 530	5.2636e+01	5.2591	3.239188	0.000303	3.030031	0.513301	0.000030
 531	5.2735e+01	5.2708	3.274219	0.000352	3.521387	0.596539	0.000035
 532	5.2834e+01	5.2768	3.301511	0.000274	2.743406	0.464746	0.000027
 533	5.2934e+01	5.2909	3.333691	0.000323	3.234763	0.547984	0.000032
 534	5.3033e+01	5.2984	3.365872	0.000323	3.234763	0.547984	0.000032
 535	5.3133e+01	5.3072	3.394385	0.000287	2.866245	0.485555	0.000029
 536	5.3233e+01	5.3202	3.427788	0.000336	3.357602	0.568793	0.000034
 537	5.3332e+01	5.3275	3.460782	0.000332	3.316655	0.561857	0.000033
 538	5.3431e+01	5.3370	3.491333	0.000307	3.070977	0.520238	0.000031
 539	5.3531e+01	5.3501	3.521884	0.000307	3.070977	0.520238	0.000031
 540	5.3630e+01	5.3586	3.550398	0.000287	2.866245	0.485555	0.000029
 541	5.3730e+01	5.3719	3.583392	0.000332	3.316655	0.561857	0.000033
 542	5.3830e+01	5.3799	3.611906	0.000287	2.866245	0.485555	0.000029
 543	5.3929e+01	5.3907	3.642864	0.000311	3.111923	0.527174	0.000031
 544	5.4029e+01	5.3991	3.673822	0.000311	3.111923	0.527174	0.000031
 545	5.4128e+01	5.4086	3.704781	0.000311	3.111923	0.527174	0.000031
 546	5.4227e+01	5.4192	3.732887	0.000283	2.825299	0.478619	0.000028
 547	5.4327e+01	5.4295	3.762623	0.000299	2.989084	0.506365	0.000030
 548	5.4426e+01	5.4391	3.791137	0.000287	2.866245	0.485555	0.000029
 549	5.4526e+01	5.4482	3.819651	0.000287	2.866245	0.485555	0.000029
 550	5.4626e+01	5.4571	3.851016	0.000315	3.152870	0.534111	0.000032
 551	5.4725e+01	5.4678	3.881975	0.000311	3.111923	0.527174	0.000031
 552	5.4825e+01	5.4787	3.914562	0.000328	3.275709	0.554920	0.000033
 553	5.4924e+01	5.4874	3.939410	0.000250	2.497728	0.423127	0.000025
 554	5.5023e+01	5.5007	3.970775	0.000315	3.152870	0.534111	0.000032
 555	5.5123e+01	5.5068	4.002548	0.000319	3.193816	0.541047	0.000032
 556	5.5222e+01	5.5143	4.031469	0.000291	2.907192	0.492492	0.000029
 557	5.5322e+01	5.5280	4.058761	0.000274	2.743406	0.464746	0.000027
 558	5.5422e+01	5.5371	4.086868	0.000283	2.825299	0.478619	0.000028
 559	5.5521e+01	5.5500	4.113345	0.000266	2.661513	0.450873	0.000027
 560	5.5620e+01	5.5561	4.145118	0.000319	3.193816	0.541047	0.000032
 561	5.5720e+01	5.5662	4.169558	0.000246	2.456782	0.416190	0.000025
 562	5.5819e+01	5.5798	4.201738	0.000323	3.234763	0.547984	0.000032
 563	5.5919e+01	5.5862	4.231067	0.000295	2.948138	0.499428	0.000029
 564	5.6019e+01	5.5967	4.255915	0.000250	2.497728	0.423127	0.000025
 565	5.6118e+01	5.6062	4.287688	0.000319	3.193816	0.541047	0.000032
 566	5.6218e+01	5.6181	4.314980	0.000274	2.743406	0.464746	0.000027
 567	5.6317e+01	5.6272	4.343494	0.000287	2.866245	0.485555	0.000029
 568	5.6416e+01	5.6365	4.373230	0.000299	2.989084	0.506365	0.000030
 569	5.6516e+01	5.6460	4.402151	0.000291	2.907192	0.492492	0.000029
 570	5.6615e+01	5.6576	4.431480	0.000295	2.948138	0.499428	0.000029
 571	5.6715e+01	5.6667	4.459994	0.000287	2.866245	0.485555	0.000029
 572	5.6815e+01	5.6765	4.488508	0.000287	2.866245	0.485555	0.000029
 573	5.6914e+01	5.6847	4.514577	0.000262	2.620567	0.443936	0.000026
 574	5.7014e+01	5.6959	4.545128	0.000307	3.070977	0.520238	0.000031
 575	5.7113e+01	5.7092	4.569161	0.000242	2.415835	0.409254	0.000024
 576	5.7212e+01	5.7172	4.600119	0.000311	3.111923	0.527174	0.000031
 577	5.7312e+01	5.7327	4.631077	0.000311	3.111923	0.527174	0.000031
 578	5.7411e+01	5.7365	4.658369	0.000274	2.743406	0.464746	0.000027
 579	5.7511e+01	5.7442	4.686883	0.000287	2.866245	0.485555	0.000029
 580	5.7611e+01	5.7555	4.712953	0.000262	2.620567	0.443936	0.000026
 581	5.7710e+01	5.7656	4.738616	0.000258	2.579621	0.437000	0.000026
 582	5.7809e+01	5.7784	4.770796	0.000323	3.234763	0.547984	0.000032
 583	5.7909e+01	5.7873	4.798495	0.000278	2.784353	0.471682	0.000028
 584	5.8008e+01	5.7989	4.828231	0.000299	2.989084	0.506365	0.000030
 585	5.8108e+01	5.8038	4.852264	0.000242	2.415835	0.409254	0.000024
 586	5.8208e+01	5.8175	4.880371	0.000283	2.825299	0.478619	0.000028
 587	5.8307e+01	5.8260	4.908478	0.000283	2.825299	0.478619	0.000028
 588	5.8407e+01	5.8369	4.931696	0.000233	2.333943	0.395381	0.000023
 589	5.8506e+01	5.8466	4.959803	0.000283	2.825299	0.478619	0.000028
 590	5.8605e+01	5.8558	4.986688	0.000270	2.702460	0.457809	0.000027
 591	5.8705e+01	5.8665	5.009499	0.000229	2.292996	0.388444	0.000023
 592	5.8804e+01	5.8767	5.029866	0.000205	2.047318	0.346825	0.000020
 593	5.8904e+01	5.8878	5.056750	0.000270	2.702460	0.457809	0.000027
 594	5.9004e+01	5.8976	5.083635	0.000270	2.702460	0.457809	0.000027
 595	5.9103e+01	5.9063	5.108890	0.000254	2.538674	0.430063	0.000025
 596	5.9203e+01	5.9182	5.134960	0.000262	2.620567	0.443936	0.000026
 597	5.9302e+01	5.9269	5.156549	0.000217	2.170157	0.367635	0.000022
 598	5.9401e+01	5.9351	5.182619	0.000262	2.620567	0.443936	0.000026
 599	5.9501e+01	5.9483	5.205838	0.000233	2.333943	0.395381	0.000023
 600	5.9600e+01	5.9565	5.230278	0.000246	2.456782	0.416190	0.000025
 601	5.9700e+01	5.9659	5.253090	0.000229	2.292996	0.388444	0.000023
 602	5.9800e+01	5.9759	5.277937	0.000250	2.497728	0.423127	0.000025
 603	5.9899e+01	5.9872	5.301156	0.000233	2.333943	0.395381	0.000023
 604	5.9998e+01	5.9962	5.324374	0.000233	2.333943	0.395381	0.000023
 605	6.0098e+01	6.0050	5.354518	0.000303	3.030031	0.513301	0.000030
 606	6.0197e+01	6.0165	5.382624	0.000283	2.825299	0.478619	0.000028
 607	6.0297e+01	6.0247	5.407065	0.000246	2.456782	0.416190	0.000025
 608	6.0397e+01	6.0322	5.433950	0.000270	2.702460	0.457809	0.000027
 609	6.0496e+01	6.0472	5.460834	0.000270	2.702460	0.457809	0.000027
 610	6.0596e+01	6.0557	5.487719	0.000270	2.702460	0.457809	0.000027
 611	6.0695e+01	6.0683	5.516640	0.000291	2.907192	0.492492	0.000029
 612	6.0794e+01	6.0754	5.543525	0.000270	2.702460	0.457809	0.000027
 613	6.0894e+01	6.0848	5.574075	0.000307	3.070977	0.520238	0.000031
 614	6.0993e+01	6.0966	5.598923	0.000250	2.497728	0.423127	0.000025
 615	6.1093e+01	6.1044	5.630289	0.000315	3.152870	0.534111	0.000032
 616	6.1193e+01	6.1140	5.659210	0.000291	2.907192	0.492492	0.000029
 617	6.1292e+01	6.1248	5.690983	0.000319	3.193816	0.541047	0.000032
 618	6.1392e+01	6.1346	5.717460	0.000266	2.661513	0.450873	0.000027
 619	6.1491e+01	6.1452	5.745974	0.000287	2.866245	0.485555	0.000029
 620	6.1590e+01	6.1541	5.773673	0.000278	2.784353	0.471682	0.000028
 621	6.1690e+01	6.1646	5.805853	0.000323	3.234763	0.547984	0.000032
 622	6.1789e+01	6.1749	5.833960	0.000283	2.825299	0.478619	0.000028
 623	6.1889e+01	6.1828	5.864103	0.000303	3.030031	0.513301	0.000030
 624	6.1989e+01	6.1965	5.892210	0.000283	2.825299	0.478619	0.000028
 625	6.2088e+01	6.2054	5.923168	0.000311	3.111923	0.527174	0.000031
 626	6.2188e+01	6.2143	5.952904	0.000299	2.989084	0.506365	0.000030
 627	6.2287e+01	6.2245	5.981825	0.000291	2.907192	0.492492	0.000029
 628	6.2386e+01	6.2344	6.014005	0.000323	3.234763	0.547984	0.000032
 629	6.2486e+01	6.2453	6.042112	0.000283	2.825299	0.478619	0.000028
 630	6.2586e+01	6.2569	6.069404	0.000274	2.743406	0.464746	0.000027
 631	6.2685e+01	6.2643	6.105250	0.000360	3.603280	0.610412	0.000036
 632	6.2785e+01	6.2771	6.129283	0.000242	2.415835	0.409254	0.000024
 633	6.2884e+01	6.2829	6.159019	0.000299	2.989084	0.506365	0.000030
 634	6.2983e+01	6.2954	6.192421	0.000336	3.357602	0.568793	0.000034
 635	6.3083e+01	6.3041	6.216862	0.000246	2.456782	0.416190	0.000025
 636	6.3182e+01	6.3136	6.249449	0.000328	3.275709	0.554920	0.000033
 637	6.3282e+01	6.3236	6.277149	0.000278	2.784353	0.471682	0.000028
 638	6.3382e+01	6.3326	6.308921	0.000319	3.193816	0.541047	0.000032
 639	6.3481e+01	6.3438	6.339472	0.000307	3.070977	0.520238	0.000031
 640	6.3581e+01	6.3531	6.365949	0.000266	2.661513	0.450873	0.000027
 641	6.3680e+01	6.3638	6.396093	0.000303	3.030031	0.513301	0.000030
 642	6.3779e+01	6.3711	6.431939	0.000360	3.603280	0.610412	0.000036
 643	6.3879e+01	6.3831	6.461675	0.000299	2.989084	0.506365	0.000030
 644	6.3978e+01	6.3932	6.491818	0.000303	3.030031	0.513301	0.000030
 645	6.4078e+01	6.4016	6.519110	0.000274	2.743406	0.464746	0.000027
 646	6.4177e+01	6.4111	6.554956	0.000360	3.603280	0.610412	0.000036
 647	6.4277e+01	6.4223	6.579804	0.000250	2.497728	0.423127	0.000025
 648	6.4376e+01	6.4315	6.615243	0.000356	3.562333	0.603476	0.000036
 649	6.4476e+01	6.4407	6.643350	0.000283	2.825299	0.478619	0.000028
 650	6.4576e+01	6.4538	6.673086	0.000299	2.989084	0.506365	0.000030
 651	6.4675e+01	6.4631	6.705673	0.000328	3.275709	0.554920	0.000033
 652	6.4775e+01	6.4697	6.733780	0.000283	2.825299	0.478619	0.000028
 653	6.4874e+01	6.4843	6.763923	0.000303	3.030031	0.513301	0.000030
 654	6.4974e+01	6.4917	6.796918	0.000332	3.316655	0.561857	0.000033
 655	6.5073e+01	6.5029	6.823395	0.000266	2.661513	0.450873	0.000027
 656	6.5172e+01	6.5130	6.856797	0.000336	3.357602	0.568793	0.000034
 657	6.5272e+01	6.5232	6.890607	0.000340	3.398548	0.575730	0.000034
 658	6.5371e+01	6.5318	6.917084	0.000266	2.661513	0.450873	0.000027
 659	6.5471e+01	6.5430	6.949264	0.000323	3.234763	0.547984	0.000032
 660	6.5570e+01	6.5489	6.979407	0.000303	3.030031	0.513301	0.000030
 661	6.5670e+01	6.5612	7.007107	0.000278	2.784353	0.471682	0.000028
 662	6.5769e+01	6.5715	7.038879	0.000319	3.193816	0.541047	0.000032
 663	6.5869e+01	6.5807	7.071874	0.000332	3.316655	0.561857	0.000033
 664	6.5969e+01	6.5913	7.100388	0.000287	2.866245	0.485555	0.000029
 665	6.6068e+01	6.5993	7.128087	0.000278	2.784353	0.471682	0.000028
 666	6.6168e+01	6.6106	7.157009	0.000291	2.907192	0.492492	0.000029
 667	6.6267e+01	6.6216	7.190003	0.000332	3.316655	0.561857	0.000033
 668	6.6367e+01	6.6300	7.220147	0.000303	3.030031	0.513301	0.000030
 669	6.6466e+01	6.6439	7.253956	0.000340	3.398548	0.575730	0.000034
 670	6.6566e+01	6.6515	7.280841	0.000270	2.702460	0.457809	0.000027
 671	6.6665e+01	6.6647	7.318724	0.000381	3.808012	0.645095	0.000038
 672	6.6764e+01	6.6710	7.350496	0.000319	3.193816	0.541047	0.000032
 673	6.6864e+01	6.6820	7.379418	0.000291	2.907192	0.492492	0.000029
 674	6.6963e+01	6.6886	7.410376	0.000311	3.111923	0.527174	0.000031
 675	6.7063e+01	6.7018	7.449888	0.000397	3.971797	0.672841	0.000040
 676	6.7162e+01	6.7097	7.483290	0.000336	3.357602	0.568793	0.000034
 677	6.7262e+01	6.7207	7.515877	0.000328	3.275709	0.554920	0.000033
 678	6.7362e+01	6.7299	7.552946	0.000373	3.726119	0.631222	0.000037
 679	6.7461e+01	6.7439	7.579830	0.000270	2.702460	0.457809	0.000027
 680	6.7561e+01	6.7494	7.615676	0.000360	3.603280	0.610412	0.000036
 681	6.7660e+01	6.7601	7.648671	0.000332	3.316655	0.561857	0.000033
 682	6.7760e+01	6.7716	7.684517	0.000360	3.603280	0.610412	0.000036
 683	6.7859e+01	6.7809	7.717919	0.000336	3.357602	0.568793	0.000034
 684	6.7959e+01	6.7937	7.748470	0.000307	3.070977	0.520238	0.000031
 685	6.8058e+01	6.8002	7.785538	0.000373	3.726119	0.631222	0.000037
 686	6.8157e+01	6.8136	7.816904	0.000315	3.152870	0.534111	0.000032
 687	6.8257e+01	6.8221	7.851935	0.000352	3.521387	0.596539	0.000035
 688	6.8356e+01	6.8311	7.880856	0.000291	2.907192	0.492492	0.000029
 689	6.8456e+01	6.8426	7.915073	0.000344	3.439494	0.582666	0.000034
 690	6.8555e+01	6.8536	7.949290	0.000344	3.439494	0.582666	0.000034
 691	6.8655e+01	6.8621	7.981470	0.000323	3.234763	0.547984	0.000032
 692	6.8754e+01	6.8701	8.011206	0.000299	2.989084	0.506365	0.000030
 693	6.8854e+01	6.8793	8.040127	0.000291	2.907192	0.492492	0.000029
 694	6.8954e+01	6.8914	8.067419	0.000274	2.743406	0.464746	0.000027
 695	6.9053e+01	6.9025	8.097970	0.000307	3.070977	0.520238	0.000031
 696	6.9153e+01	6.9108	8.128113	0.000303	3.030031	0.513301	0.000030
 697	6.9252e+01	6.9189	8.155405	0.000274	2.743406	0.464746	0.000027
 698	6.9352e+01	6.9313	8.183919	0.000287	2.866245	0.485555	0.000029
 699	6.9451e+01	6.9407	8.212433	0.000287	2.866245	0.485555	0.000029
 700	6.9550e+01	6.9491	8.242984	0.000307	3.070977	0.520238	0.000031
 701	6.9650e+01	6.9618	8.265388	0.000225	2.252050	0.381508	0.000023
 702	6.9749e+01	6.9698	8.296753	0.000315	3.152870	0.534111	0.000032
 703	6.9849e+01	6.9798	8.326896	0.000303	3.030031	0.513301	0.000030
 704	6.9948e+01	6.9922	8.354596	0.000278	2.784353	0.471682	0.000028
 705	7.0048e+01	7.0020	8.382295	0.000278	2.784353	0.471682	0.000028
 706	7.0147e+01	7.0084	8.409994	0.000278	2.784353	0.471682	0.000028
 707	7.0247e+01	7.0208	8.439730	0.000299	2.989084	0.506365	0.000030
 708	7.0347e+01	7.0334	8.469059	0.000295	2.948138	0.499428	0.000029
 709	7.0446e+01	7.0397	8.495129	0.000262	2.620567	0.443936	0.000026
 710	7.0546e+01	7.0513	8.525272	0.000303	3.030031	0.513301	0.000030
 711	7.0645e+01	7.0605	8.548898	0.000237	2.374889	0.402317	0.000024
 712	7.0745e+01	7.0679	8.579449	0.000307	3.070977	0.520238	0.000031
 713	7.0844e+01	7.0815	8.603075	0.000237	2.374889	0.402317	0.000024
 714	7.0944e+01	7.0880	8.631181	0.000283	2.825299	0.478619	0.000028
 715	7.1043e+01	7.1007	8.662547	0.000315	3.152870	0.534111	0.000032
 716	7.1142e+01	7.1082	8.685358	0.000229	2.292996	0.388444	0.000023
 717	7.1242e+01	7.1203	8.717538	0.000323	3.234763	0.547984	0.000032
 718	7.1341e+01	7.1288	8.742793	0.000254	2.538674	0.430063	0.000025
 719	7.1441e+01	7.1391	8.768456	0.000258	2.579621	0.437000	0.000026
 720	7.1540e+01	7.1496	8.795748	0.000274	2.743406	0.464746	0.000027
 721	7.1640e+01	7.1587	8.822632	0.000270	2.702460	0.457809	0.000027
 722	7.1740e+01	7.1701	8.850332	0.000278	2.784353	0.471682	0.000028
 723	7.1839e+01	7.1777	8.879253	0.000291	2.907192	0.492492	0.000029
 724	7.1939e+01	7.1894	8.900842	0.000217	2.170157	0.367635	0.000022
 725	7.2038e+01	7.1973	8.929356	0.000287	2.866245	0.485555	0.000029
 726	7.2138e+01	7.2063	8.956241	0.000270	2.702460	0.457809	0.000027
 727	7.2237e+01	7.2228	8.979459	0.000233	2.333943	0.395381	0.000023
 728	7.2337e+01	7.2292	9.005122	0.000258	2.579621	0.437000	0.000026
 729	7.2436e+01	7.2392	9.029155	0.000242	2.415835	0.409254	0.000024
 730	7.2535e+01	7.2482	9.055632	0.000266	2.661513	0.450873	0.000027
 731	7.2635e+01	7.2607	9.085368	0.000299	2.989084	0.506365	0.000030
 732	7.2734e+01	7.2668	9.108994	0.000237	2.374889	0.402317	0.000024
 733	7.2834e+01	7.2765	9.135471	0.000266	2.661513	0.450873	0.000027
 734	7.2933e+01	7.2889	9.164393	0.000291	2.907192	0.492492	0.000029
 735	7.3033e+01	7.3022	9.188019	0.000237	2.374889	0.402317	0.000024
 736	7.3132e+01	7.3097	9.214903	0.000270	2.702460	0.457809	0.000027
 737	7.3232e+01	7.3193	9.244639	0.000299	2.989084	0.506365	0.000030
 738	7.3332e+01	7.3259	9.268265	0.000237	2.374889	0.402317	0.000024
 739	7.3431e+01	7.3385	9.293113	0.000250	2.497728	0.423127	0.000025
 740	7.3531e+01	7.3486	9.318368	0.000254	2.538674	0.430063	0.000025
 741	7.3630e+01	7.3560	9.346882	0.000287	2.866245	0.485555	0.000029
 742	7.3730e+01	7.3671	9.369693	0.000229	2.292996	0.388444	0.000023
 743	7.3829e+01	7.3779	9.396578	0.000270	2.702460	0.457809	0.000027
 744	7.3928e+01	7.3897	9.419389	0.000229	2.292996	0.388444	0.000023
 745	7.4028e+01	7.3991	9.445459	0.000262	2.620567	0.443936	0.000026
 746	7.4127e+01	7.4099	9.471936	0.000266	2.661513	0.450873	0.000027
 747	7.4227e+01	7.4183	9.500450	0.000287	2.866245	0.485555	0.000029
 748	7.4326e+01	7.4280	9.526928	0.000266	2.661513	0.450873	0.000027
 749	7.4426e+01	7.4374	9.554220	0.000274	2.743406	0.464746	0.000027
 750	7.4525e+01	7.4490	9.581511	0.000274	2.743406	0.464746	0.000027
 751	7.4625e+01	7.4582	9.603101	0.000217	2.170157	0.367635	0.000022
 752	7.4725e+01	7.4676	9.627541	0.000246	2.456782	0.416190	0.000025
 753	7.4824e+01	7.4800	9.653204	0.000258	2.579621	0.437000	0.000026
 754	7.4924e+01	7.4864	9.676422	0.000233	2.333943	0.395381	0.000023
 755	7.5023e+01	7.4967	9.701678	0.000254	2.538674	0.430063	0.000025
 756	7.5123e+01	7.5078	9.724489	0.000229	2.292996	0.388444	0.000023
 757	7.5222e+01	7.5185	9.747300	0.000229	2.292996	0.388444	0.000023
 758	7.5322e+01	7.5276	9.772148	0.000250	2.497728	0.423127	0.000025
 759	7.5421e+01	7.5391	9.792108	0.000201	2.006372	0.339889	0.000020
 760	7.5520e+01	7.5498	9.814919	0.000229	2.292996	0.388444	0.000023
 761	7.5620e+01	7.5571	9.838952	0.000242	2.415835	0.409254	0.000024
 762	7.5719e+01	7.5680	9.858504	0.000197	1.965425	0.332952	0.000020
 763	7.5819e+01	7.5790	9.880908	0.000225	2.252050	0.381508	0.000023
 764	7.5918e+01	7.5875	9.901275	0.000205	2.047318	0.346825	0.000020
 765	7.6018e+01	7.5957	9.927345	0.000262	2.620567	0.443936	0.000026
 766	7.6118e+01	7.6082	9.944861	0.000176	1.760694	0.298270	0.000018
 767	7.6217e+01	7.6192	9.969302	0.000246	2.456782	0.416190	0.000025
 768	7.6317e+01	7.6294	9.994150	0.000250	2.497728	0.423127	0.000025
 769	7.6416e+01	7.6367	10.012480	0.000184	1.842586	0.312143	0.000018
 770	7.6516e+01	7.6437	10.034884	0.000225	2.252050	0.381508	0.000023
 771	7.6615e+01	7.6563	10.058510	0.000237	2.374889	0.402317	0.000024
 772	7.6715e+01	7.6658	10.083765	0.000254	2.538674	0.430063	0.000025
 773	7.6814e+01	7.6759	10.104132	0.000205	2.047318	0.346825	0.000020
 774	7.6913e+01	7.6862	10.130202	0.000262	2.620567	0.443936	0.000026
 775	7.7013e+01	7.6945	10.153420	0.000233	2.333943	0.395381	0.000023
 776	7.7112e+01	7.7058	10.181120	0.000278	2.784353	0.471682	0.000028
 777	7.7212e+01	7.7180	10.201487	0.000205	2.047318	0.346825	0.000020
 778	7.7311e+01	7.7271	10.228779	0.000274	2.743406	0.464746	0.000027
 779	7.7411e+01	7.7360	10.254441	0.000258	2.579621	0.437000	0.000026
 780	7.7510e+01	7.7462	10.280919	0.000266	2.661513	0.450873	0.000027
 781	7.7610e+01	7.7532	10.307396	0.000266	2.661513	0.450873	0.000027
 782	7.7710e+01	7.7658	10.335095	0.000278	2.784353	0.471682	0.000028
 783	7.7809e+01	7.7761	10.361980	0.000270	2.702460	0.457809	0.000027
 784	7.7909e+01	7.7859	10.390086	0.000283	2.825299	0.478619	0.000028
 785	7.8008e+01	7.7983	10.414527	0.000246	2.456782	0.416190	0.000025
 786	7.8108e+01	7.8066	10.439782	0.000254	2.538674	0.430063	0.000025
 787	7.8207e+01	7.8185	10.469111	0.000295	2.948138	0.499428	0.000029
 788	7.8306e+01	7.8238	10.499254	0.000303	3.030031	0.513301	0.000030
 789	7.8406e+01	7.8329	10.523695	0.000246	2.456782	0.416190	0.000025
 790	7.8505e+01	7.8481	10.548950	0.000254	2.538674	0.430063	0.000025
 791	7.8605e+01	7.8584	10.577871	0.000291	2.907192	0.492492	0.000029
 792	7.8704e+01	7.8644	10.608829	0.000311	3.111923	0.527174	0.000031
 793	7.8804e+01	7.8777	10.633270	0.000246	2.456782	0.416190	0.000025
 794	7.8903e+01	7.8852	10.656896	0.000237	2.374889	0.402317	0.000024
 795	7.9003e+01	7.8971	10.683780	0.000270	2.702460	0.457809	0.000027
 796	7.9103e+01	7.9050	10.711887	0.000283	2.825299	0.478619	0.000028
 797	7.9202e+01	7.9166	10.742438	0.000307	3.070977	0.520238	0.000031
 798	7.9302e+01	7.9240	10.768508	0.000262	2.620567	0.443936	0.000026
 799	7.9401e+01	7.9352	10.799058	0.000307	3.070977	0.520238	0.000031
 800	7.9501e+01	7.9478	10.824721	0.000258	2.579621	0.437000	0.000026
 801	7.9600e+01	7.9563	10.851606	0.000270	2.702460	0.457809	0.000027
 802	7.9700e+01	7.9647	10.880934	0.000295	2.948138	0.499428	0.000029
 803	7.9799e+01	7.9765	10.909448	0.000287	2.866245	0.485555	0.000029
 804	7.9898e+01	7.9867	10.933481	0.000242	2.415835	0.409254	0.000024
 805	7.9998e+01	7.9951	10.966884	0.000336	3.357602	0.568793	0.000034
 806	8.0097e+01	8.0049	10.991731	0.000250	2.497728	0.423127	0.000025
 807	8.0197e+01	8.0183	11.019838	0.000283	2.825299	0.478619	0.000028
 808	8.0296e+01	8.0250	11.049574	0.000299	2.989084	0.506365	0.000030
 809	8.0396e+01	8.0353	11.079310	0.000299	2.989084	0.506365	0.000030
 810	8.0496e+01	8.0452	11.105787	0.000266	2.661513	0.450873	0.000027
 811	8.0595e+01	8.0543	11.135116	0.000295	2.948138	0.499428	0.000029
 812	8.0695e+01	8.0640	11.164037	0.000291	2.907192	0.492492	0.000029
 813	8.0794e+01	8.0754	11.190515	0.000266	2.661513	0.450873	0.000027
 814	8.0894e+01	8.0841	11.220658	0.000303	3.030031	0.513301	0.000030
 815	8.0993e+01	8.0949	11.249172	0.000287	2.866245	0.485555	0.000029
 816	8.1093e+01	8.1080	11.277686	0.000287	2.866245	0.485555	0.000029
 817	8.1192e+01	8.1161	11.306607	0.000291	2.907192	0.492492	0.000029
 818	8.1291e+01	8.1226	11.333492	0.000270	2.702460	0.457809	0.000027
 819	8.1391e+01	8.1359	11.364857	0.000315	3.152870	0.534111	0.000032
 820	8.1490e+01	8.1416	11.391742	0.000270	2.702460	0.457809	0.000027
 821	8.1590e+01	8.1552	11.422700	0.000311	3.111923	0.527174	0.000031
 822	8.1689e+01	8.1635	11.453658	0.000311	3.111923	0.527174	0.000031
 823	8.1789e+01	8.1754	11.479728	0.000262	2.620567	0.443936	0.000026
 824	8.1888e+01	8.1858	11.509464	0.000299	2.989084	0.506365	0.000030
 825	8.1988e+01	8.1964	11.536348	0.000270	2.702460	0.457809	0.000027
 826	8.2088e+01	8.2045	11.564048	0.000278	2.784353	0.471682	0.000028
 827	8.2187e+01	8.2136	11.589710	0.000258	2.579621	0.437000	0.000026
 828	8.2287e+01	8.2251	11.618632	0.000291	2.907192	0.492492	0.000029
 829	8.2386e+01	8.2326	11.649182	0.000307	3.070977	0.520238	0.000031
 830	8.2486e+01	8.2447	11.678104	0.000291	2.907192	0.492492	0.000029
 831	8.2585e+01	8.2526	11.705396	0.000274	2.743406	0.464746	0.000027
 832	8.2684e+01	8.2629	11.731873	0.000266	2.661513	0.450873	0.000027
 833	8.2784e+01	8.2742	11.765275	0.000336	3.357602	0.568793	0.000034
 834	8.2883e+01	8.2867	11.792160	0.000270	2.702460	0.457809	0.000027
 835	8.2983e+01	8.2935	11.820266	0.000283	2.825299	0.478619	0.000028
 836	8.3082e+01	8.3025	11.848373	0.000283	2.825299	0.478619	0.000028
 837	8.3182e+01	8.3108	11.880553	0.000323	3.234763	0.547984	0.000032
 838	8.3281e+01	8.3221	11.910289	0.000299	2.989084	0.506365	0.000030
 839	8.3381e+01	8.3316	11.942062	0.000319	3.193816	0.541047	0.000032
 840	8.3481e+01	8.3409	11.974242	0.000323	3.234763	0.547984	0.000032
 841	8.3580e+01	8.3516	12.001534	0.000274	2.743406	0.464746	0.000027
 842	8.3680e+01	8.3624	12.034528	0.000332	3.316655	0.561857	0.000033
 843	8.3779e+01	8.3725	12.070374	0.000360	3.603280	0.610412	0.000036
 844	8.3879e+01	8.3829	12.098888	0.000287	2.866245	0.485555	0.000029
 845	8.3978e+01	8.3926	12.132291	0.000336	3.357602	0.568793	0.000034
 846	8.4078e+01	8.4049	12.163249	0.000311	3.111923	0.527174	0.000031
 847	8.4177e+01	8.4122	12.190541	0.000274	2.743406	0.464746	0.000027
 848	8.4276e+01	8.4224	12.225572	0.000352	3.521387	0.596539	0.000035
 849	8.4376e+01	8.4305	12.259381	0.000340	3.398548	0.575730	0.000034
 850	8.4475e+01	8.4435	12.289525	0.000303	3.030031	0.513301	0.000030
 851	8.4575e+01	8.4534	12.324556	0.000352	3.521387	0.596539	0.000035
 852	8.4674e+01	8.4653	12.353070	0.000287	2.866245	0.485555	0.000029
 853	8.4774e+01	8.4725	12.386065	0.000332	3.316655	0.561857	0.000033
 854	8.4874e+01	8.4845	12.416208	0.000303	3.030031	0.513301	0.000030
 855	8.4973e+01	8.4937	12.450425	0.000344	3.439494	0.582666	0.000034
 856	8.5073e+01	8.5025	12.481383	0.000311	3.111923	0.527174	0.000031
 857	8.5172e+01	8.5151	12.511119	0.000299	2.989084	0.506365	0.000030
 858	8.5272e+01	8.5205	12.541262	0.000303	3.030031	0.513301	0.000030
 859	8.5371e+01	8.5320	12.570998	0.000299	2.989084	0.506365	0.000030
 860	8.5471e+01	8.5442	12.598290	0.000274	2.743406	0.464746	0.000027
 861	8.5570e+01	8.5535	12.629656	0.000315	3.152870	0.534111	0.000032
 862	8.5669e+01	8.5621	12.658170	0.000287	2.866245	0.485555	0.000029
 863	8.5769e+01	8.5722	12.683832	0.000258	2.579621	0.437000	0.000026
 864	8.5868e+01	8.5850	12.711124	0.000274	2.743406	0.464746	0.000027
 865	8.5968e+01	8.5924	12.740860	0.000299	2.989084	0.506365	0.000030
 866	8.6067e+01	8.5999	12.769374	0.000287	2.866245	0.485555	0.000029
 867	8.6167e+01	8.6166	12.799110	0.000299	2.989084	0.506365	0.000030
 868	8.6266e+01	8.6242	12.819070	0.000201	2.006372	0.339889	0.000020
 869	8.6366e+01	8.6304	12.850028	0.000311	3.111923	0.527174	0.000031
 870	8.6466e+01	8.6406	12.877727	0.000278	2.784353	0.471682	0.000028
 871	8.6565e+01	8.6502	12.905019	0.000274	2.743406	0.464746	0.000027
 872	8.6665e+01	8.6607	12.928238	0.000233	2.333943	0.395381	0.000023
 873	8.6764e+01	8.6719	12.955937	0.000278	2.784353	0.471682	0.000028
 874	8.6864e+01	8.6819	12.985673	0.000299	2.989084	0.506365	0.000030
 875	8.6963e+01	8.6911	13.011743	0.000262	2.620567	0.443936	0.000026
 876	8.7063e+01	8.6988	13.035776	0.000242	2.415835	0.409254	0.000024
 877	8.7162e+01	8.7122	13.069178	0.000336	3.357602	0.568793	0.000034
 878	8.7261e+01	8.7214	13.093212	0.000242	2.415835	0.409254	0.000024
 879	8.7361e+01	8.7332	13.118060	0.000250	2.497728	0.423127	0.000025
 880	8.7460e+01	8.7402	13.146981	0.000291	2.907192	0.492492	0.000029
 881	8.7560e+01	8.7504	13.170199	0.000233	2.333943	0.395381	0.000023
 882	8.7659e+01	8.7601	13.199935	0.000299	2.989084	0.506365	0.000030
 883	8.7759e+01	8.7699	13.222339	0.000225	2.252050	0.381508	0.000023
 884	8.7859e+01	8.7842	13.249631	0.000274	2.743406	0.464746	0.000027
 885	8.7958e+01	8.7920	13.274072	0.000246	2.456782	0.416190	0.000025
 886	8.8058e+01	8.8028	13.302586	0.000287	2.866245	0.485555	0.000029
 887	8.8157e+01	8.8111	13.331914	0.000295	2.948138	0.499428	0.000029
 888	8.8257e+01	8.8203	13.355948	0.000242	2.415835	0.409254	0.000024
 889	8.8356e+01	8.8306	13.379573	0.000237	2.374889	0.402317	0.000024
 890	8.8456e+01	8.8383	13.406051	0.000266	2.661513	0.450873	0.000027
 891	8.8555e+01	8.8504	13.431306	0.000254	2.538674	0.430063	0.000025
 892	8.8654e+01	8.8599	13.458191	0.000270	2.702460	0.457809	0.000027
 893	8.8754e+01	8.8696	13.478965	0.000209	2.088264	0.353762	0.000021
 894	8.8853e+01	8.8783	13.506664	0.000278	2.784353	0.471682	0.000028
 895	8.8953e+01	8.8879	13.531105	0.000246	2.456782	0.416190	0.000025
 896	8.9052e+01	8.8995	13.554731	0.000237	2.374889	0.402317	0.000024
 897	8.9152e+01	8.9094	13.582837	0.000283	2.825299	0.478619	0.000028
 898	8.9251e+01	8.9200	13.606871	0.000242	2.415835	0.409254	0.000024
 899	8.9351e+01	8.9313	13.633348	0.000266	2.661513	0.450873	0.000027
 900	8.9451e+01	8.9411	13.656974	0.000237	2.374889	0.402317	0.000024
 901	8.9550e+01	8.9478	13.681822	0.000250	2.497728	0.423127	0.000025
 902	8.9650e+01	8.9603	13.709928	0.000283	2.825299	0.478619	0.000028
 903	8.9749e+01	8.9706	13.732332	0.000225	2.252050	0.381508	0.000023
 904	8.9849e+01	8.9803	13.758402	0.000262	2.620567	0.443936	0.000026
 905	8.9948e+01	8.9903	13.785694	0.000274	2.743406	0.464746	0.000027
 906	9.0047e+01	9.0003	13.811764	0.000262	2.620567	0.443936	0.000026
 907	9.0147e+01	9.0116	13.836204	0.000246	2.456782	0.416190	0.000025
 908	9.0246e+01	9.0186	13.861460	0.000254	2.538674	0.430063	0.000025
 909	9.0346e+01	9.0308	13.881827	0.000205	2.047318	0.346825	0.000020
 910	9.0445e+01	9.0392	13.911563	0.000299	2.989084	0.506365	0.000030
 911	9.0545e+01	9.0458	13.938855	0.000274	2.743406	0.464746	0.000027
 912	9.0644e+01	9.0578	13.963295	0.000246	2.456782	0.416190	0.000025
 913	9.0744e+01	9.0712	13.990180	0.000270	2.702460	0.457809	0.000027
 914	9.0844e+01	9.0784	14.011362	0.000213	2.129211	0.360698	0.000021
 915	9.0943e+01	9.0906	14.039468	0.000283	2.825299	0.478619	0.000028
 916	9.1043e+01	9.0992	14.063502	0.000242	2.415835	0.409254	0.000024
 917	9.1142e+01	9.1108	14.092016	0.000287	2.866245	0.485555	0.000029
 918	9.1242e+01	9.1193	14.116049	0.000242	2.415835	0.409254	0.000024
 919	9.1341e+01	9.1280	14.139267	0.000233	2.333943	0.395381	0.000023
 920	9.1441e+01	9.1419	14.166152	0.000270	2.702460	0.457809	0.000027
 921	9.1540e+01	9.1483	14.190185	0.000242	2.415835	0.409254	0.000024
 922	9.1639e+01	9.1583	14.215033	0.000250	2.497728	0.423127	0.000025
 923	9.1739e+01	9.1670	14.237030	0.000221	2.211104	0.374571	0.000022
 924	9.1838e+01	9.1763	14.262285	0.000254	2.538674	0.430063	0.000025
 925	9.1938e+01	9.1849	14.278986	0.000168	1.678801	0.284397	0.000017
 926	9.2037e+01	9.1980	14.305463	0.000266	2.661513	0.450873	0.000027
 927	9.2137e+01	9.2081	14.325423	0.000201	2.006372	0.339889	0.000020
 928	9.2237e+01	9.2181	14.347419	0.000221	2.211104	0.374571	0.000022
 929	9.2336e+01	9.2276	14.372267	0.000250	2.497728	0.423127	0.000025
 930	9.2436e+01	9.2408	14.392634	0.000205	2.047318	0.346825	0.000020
 931	9.2535e+01	9.2484	14.413816	0.000213	2.129211	0.360698	0.000021
 932	9.2635e+01	9.2578	14.439071	0.000254	2.538674	0.430063	0.000025
 933	9.2734e+01	9.2677	14.462697	0.000237	2.374889	0.402317	0.000024
 934	9.2834e+01	9.2805	14.484694	0.000221	2.211104	0.374571	0.000022
 935	9.2933e+01	9.2871	14.504246	0.000197	1.965425	0.332952	0.000020
 936	9.3032e+01	9.2960	14.527465	0.000233	2.333943	0.395381	0.000023
 937	9.3132e+01	9.3091	14.549054	0.000217	2.170157	0.367635	0.000022
 938	9.3231e+01	9.3193	14.570643	0.000217	2.170157	0.367635	0.000022
 939	9.3331e+01	9.3277	14.597528	0.000270	2.702460	0.457809	0.000027
 940	9.3430e+01	9.3385	14.613007	0.000156	1.555962	0.263587	0.000016
 941	9.3530e+01	9.3457	14.641113	0.000283	2.825299	0.478619	0.000028
 942	9.3629e+01	9.3573	14.664332	0.000233	2.333943	0.395381	0.000023
 943	9.3729e+01	9.3668	14.689994	0.000258	2.579621	0.437000	0.000026
 944	9.3829e+01	9.3771	14.714842	0.000250	2.497728	0.423127	0.000025
 945	9.3928e+01	9.3877	14.744171	0.000295	2.948138	0.499428	0.000029
 946	9.4028e+01	9.3998	14.769426	0.000254	2.538674	0.430063	0.000025
 947	9.4127e+01	9.4071	14.794681	0.000254	2.538674	0.430063	0.000025
 948	9.4227e+01	9.4177	14.823195	0.000287	2.866245	0.485555	0.000029
 949	9.4326e+01	9.4287	14.848043	0.000250	2.497728	0.423127	0.000025
 950	9.4425e+01	9.4367	14.874928	0.000270	2.702460	0.457809	0.000027
 951	9.4525e+01	9.4489	14.904257	0.000295	2.948138	0.499428	0.000029
 952	9.4624e+01	9.4590	14.930734	0.000266	2.661513	0.450873	0.000027
 953	9.4724e+01	9.4653	14.953545	0.000229	2.292996	0.388444	0.000023
 954	9.4823e+01	9.4757	14.984910	0.000315	3.152870	0.534111	0.000032
 955	9.4923e+01	9.4868	15.013832	0.000291	2.907192	0.492492	0.000029
 956	9.5022e+01	9.4975	15.041531	0.000278	2.784353	0.471682	0.000028
 957	9.5122e+01	9.5051	15.069230	0.000278	2.784353	0.471682	0.000028
 958	9.5222e+01	9.5166	15.096115	0.000270	2.702460	0.457809	0.000027
 959	9.5321e+01	9.5248	15.125036	0.000291	2.907192	0.492492	0.000029
 960	9.5421e+01	9.5367	15.152736	0.000278	2.784353	0.471682	0.000028
 961	9.5520e+01	9.5451	15.179213	0.000266	2.661513	0.450873	0.000027
 962	9.5620e+01	9.5605	15.208134	0.000291	2.907192	0.492492	0.000029
 963	9.5719e+01	9.5630	15.236241	0.000283	2.825299	0.478619	0.000028
 964	9.5819e+01	9.5770	15.264347	0.000283	2.825299	0.478619	0.000028
 965	9.5918e+01	9.5875	15.292454	0.000283	2.825299	0.478619	0.000028
 966	9.6017e+01	9.5956	15.326263	0.000340	3.398548	0.575730	0.000034
 967	9.6117e+01	9.6054	15.349482	0.000233	2.333943	0.395381	0.000023
 968	9.6216e+01	9.6159	15.383291	0.000340	3.398548	0.575730	0.000034
 969	9.6316e+01	9.6255	15.409361	0.000262	2.620567	0.443936	0.000026
 970	9.6415e+01	9.6346	15.438283	0.000291	2.907192	0.492492	0.000029
 971	9.6515e+01	9.6455	15.467611	0.000295	2.948138	0.499428	0.000029
 972	9.6615e+01	9.6555	15.494496	0.000270	2.702460	0.457809	0.000027
 973	9.6714e+01	9.6645	15.522603	0.000283	2.825299	0.478619	0.000028
 974	9.6814e+01	9.6749	15.551117	0.000287	2.866245	0.485555	0.000029
 975	9.6913e+01	9.6875	15.585741	0.000348	3.480441	0.589603	0.000035
 976	9.7013e+01	9.6973	15.615477	0.000299	2.989084	0.506365	0.000030
 977	9.7112e+01	9.7059	15.646027	0.000307	3.070977	0.520238	0.000031
 978	9.7212e+01	9.7146	15.675763	0.000299	2.989084	0.506365	0.000030
 979	9.7311e+01	9.7272	15.703870	0.000283	2.825299	0.478619	0.000028
 980	9.7410e+01	9.7363	15.734421	0.000307	3.070977	0.520238	0.000031
 981	9.7510e+01	9.7479	15.765786	0.000315	3.152870	0.534111	0.000032
 982	9.7609e+01	9.7546	15.794707	0.000291	2.907192	0.492492	0.000029
 983	9.7709e+01	9.7662	15.824036	0.000295	2.948138	0.499428	0.000029
 984	9.7808e+01	9.7787	15.855401	0.000315	3.152870	0.534111	0.000032
 985	9.7908e+01	9.7852	15.887582	0.000323	3.234763	0.547984	0.000032
 986	9.8007e+01	9.7937	15.915281	0.000278	2.784353	0.471682	0.000028
 987	9.8107e+01	9.8066	15.942980	0.000278	2.784353	0.471682	0.000028
 988	9.8207e+01	9.8164	15.971494	0.000287	2.866245	0.485555	0.000029
 989	9.8306e+01	9.8231	16.004082	0.000328	3.275709	0.554920	0.000033
 990	9.8406e+01	9.8346	16.034632	0.000307	3.070977	0.520238	0.000031
 991	9.8505e+01	9.8441	16.063961	0.000295	2.948138	0.499428	0.000029
 992	9.8605e+01	9.8542	16.098178	0.000344	3.439494	0.582666	0.000034
 993	9.8704e+01	9.8663	16.127099	0.000291	2.907192	0.492492	0.000029
 994	9.8803e+01	9.8774	16.156428	0.000295	2.948138	0.499428	0.000029
 995	9.8903e+01	9.8840	16.189422	0.000332	3.316655	0.561857	0.000033
 996	9.9002e+01	9.8959	16.216307	0.000270	2.702460	0.457809	0.000027
 997	9.9102e+01	9.9062	16.246450	0.000303	3.030031	0.513301	0.000030
 998	9.9201e+01	9.9149	16.276186	0.000299	2.989084	0.506365	0.000030
 999	9.9301e+01	9.9244	16.306330	0.000303	3.030031	0.513301	0.000030
1000	9.9400e+01	9.9343	16.336473	0.000303	3.030031	0.513301	0.000030
1001	9.9500e+01	9.9463	16.368246	0.000319	3.193816	0.541047	0.000032
1002	9.9600e+01	9.9552	16.397574	0.000295	2.948138	0.499428	0.000029
1003	9.9699e+01	9.9652	16.428940	0.000315	3.152870	0.534111	0.000032
1004	9.9799e+01	9.9731	16.463157	0.000344	3.439494	0.582666	0.000034
1005	9.9898e+01	9.9854	16.494115	0.000311	3.111923	0.527174	0.000031
1006	9.9998e+01	9.9931	16.527517	0.000336	3.357602	0.568793	0.000034
1007	1.0010e+02	9.9829	16.520999	0.000066	0.655142	0.110984	-0.000007
1008	1.0020e+02	9.9766	16.510408	0.000106	1.064605	0.180349	-0.000011
1009	1.0030e+02	9.9661	16.497373	0.000131	1.310284	0.221968	-0.000013
1010	1.0040e+02	9.9545	16.493300	0.000041	0.409464	0.069365	-0.000004
1011	1.0050e+02	9.9442	16.479858	0.000135	1.351230	0.228905	-0.000014
1012	1.0059e+02	9.9316	16.470489	0.000094	0.941766	0.159540	-0.000009
1013	1.0069e+02	9.9268	16.457046	0.000135	1.351230	0.228905	-0.000014
1014	1.0079e+02	9.9136	16.445641	0.000115	1.146498	0.194222	-0.000011
1015	1.0089e+02	9.9055	16.433013	0.000127	1.269337	0.215032	-0.000013
1016	1.0099e+02	9.8975	16.426496	0.000066	0.655142	0.110984	-0.000007
1017	1.0109e+02	9.8834	16.417942	0.000086	0.859874	0.145667	-0.000009
1018	1.0119e+02	9.8733	16.400833	0.000172	1.719747	0.291333	-0.000017
1019	1.0129e+02	9.8663	16.391464	0.000094	0.941766	0.159540	-0.000009
1020	1.0139e+02	9.8547	16.385761	0.000057	0.573249	0.097111	-0.000006
1021	1.0149e+02	9.8450	16.372727	0.000131	1.310284	0.221968	-0.000013
1022	1.0159e+02	9.8364	16.359284	0.000135	1.351230	0.228905	-0.000014
1023	1.0169e+02	9.8267	16.347471	0.000119	1.187444	0.201159	-0.000012
1024	1.0179e+02	9.8136	16.333622	0.000139	1.392176	0.235841	-0.000014
1025	1.0189e+02	9.8054	16.319365	0.000143	1.433123	0.242778	-0.000014
1026	1.0199e+02	9.7937	16.303478	0.000160	1.596908	0.270524	-0.000016
1027	1.0209e+02	9.7840	16.289221	0.000143	1.433123	0.242778	-0.000014
1028	1.0219e+02	9.7754	16.277001	0.000123	1.228391	0.208095	-0.000012
1029	1.0229e+02	9.7668	16.257856	0.000192	1.924479	0.326016	-0.000019
1030	1.0239e+02	9.7559	16.242784	0.000152	1.515015	0.256651	-0.000015
1031	1.0248e+02	9.7454	16.228120	0.000147	1.474069	0.249714	-0.000015
1032	1.0258e+02	9.7317	16.210197	0.000180	1.801640	0.305206	-0.000018
1033	1.0268e+02	9.7269	16.191459	0.000188	1.883533	0.319079	-0.000019
1034	1.0278e+02	9.7160	16.172721	0.000188	1.883533	0.319079	-0.000019
1035	1.0288e+02	9.7056	16.155206	0.000176	1.760694	0.298270	-0.000018
1036	1.0298e+02	9.6973	16.136060	0.000192	1.924479	0.326016	-0.000019
1037	1.0308e+02	9.6854	16.120989	0.000152	1.515015	0.256651	-0.000015
1038	1.0318e+02	9.6779	16.101436	0.000197	1.965425	0.332952	-0.000020
1039	1.0328e+02	9.6673	16.081884	0.000197	1.965425	0.332952	-0.000020
1040	1.0338e+02	9.6555	16.066812	0.000152	1.515015	0.256651	-0.000015
1041	1.0348e+02	9.6503	16.045223	0.000217	2.170157	0.367635	-0.000022
1042	1.0358e+02	9.6364	16.027707	0.000176	1.760694	0.298270	-0.000018
1043	1.0368e+02	9.6272	16.006933	0.000209	2.088264	0.353762	-0.000021
1044	1.0378e+02	9.6179	15.990232	0.000168	1.678801	0.284397	-0.000017
1045	1.0388e+02	9.6056	15.969050	0.000213	2.129211	0.360698	-0.000021
1046	1.0398e+02	9.5985	15.949905	0.000192	1.924479	0.326016	-0.000019
1047	1.0408e+02	9.5850	15.931167	0.000188	1.883533	0.319079	-0.000019
1048	1.0418e+02	9.5759	15.909171	0.000221	2.211104	0.374571	-0.000022
1049	1.0428e+02	9.5669	15.887989	0.000213	2.129211	0.360698	-0.000021
1050	1.0438e+02	9.5569	15.870880	0.000172	1.719747	0.291333	-0.000017
1051	1.0447e+02	9.5502	15.850513	0.000205	2.047318	0.346825	-0.000020
1052	1.0457e+02	9.5361	15.829739	0.000209	2.088264	0.353762	-0.000021
1053	1.0467e+02	9.5258	15.811408	0.000184	1.842586	0.312143	-0.000018
1054	1.0477e+02	9.5191	15.793485	0.000180	1.801640	0.305206	-0.000018
1055	1.0487e+02	9.5068	15.769860	0.000237	2.374889	0.402317	-0.000024
1056	1.0497e+02	9.4965	15.749900	0.000201	2.006372	0.339889	-0.000020
1057	1.0507e+02	9.4894	15.730755	0.000192	1.924479	0.326016	-0.000019
1058	1.0517e+02	9.4769	15.708758	0.000221	2.211104	0.374571	-0.000022
1059	1.0527e+02	9.4644	15.686762	0.000221	2.211104	0.374571	-0.000022
1060	1.0537e+02	9.4566	15.664358	0.000225	2.252050	0.381508	-0.000023
1061	1.0547e+02	9.4458	15.646842	0.000176	1.760694	0.298270	-0.000018
1062	1.0557e+02	9.4376	15.622809	0.000242	2.415835	0.409254	-0.000024
1063	1.0567e+02	9.4282	15.602442	0.000205	2.047318	0.346825	-0.000020
1064	1.0577e+02	9.4169	15.580038	0.000225	2.252050	0.381508	-0.000023
1065	1.0587e+02	9.4061	15.557227	0.000229	2.292996	0.388444	-0.000023
1066	1.0597e+02	9.3967	15.535230	0.000221	2.211104	0.374571	-0.000022
1067	1.0607e+02	9.3887	15.514048	0.000213	2.129211	0.360698	-0.000021
1068	1.0617e+02	9.3774	15.492867	0.000213	2.129211	0.360698	-0.000021
1069	1.0627e+02	9.3670	15.473314	0.000197	1.965425	0.332952	-0.000020
1070	1.0637e+02	9.3581	15.450096	0.000233	2.333943	0.395381	-0.000023
1071	1.0647e+02	9.3469	15.430951	0.000192	1.924479	0.326016	-0.000019
1072	1.0656e+02	9.3342	15.405288	0.000258	2.579621	0.437000	-0.000026
1073	1.0666e+02	9.3276	15.380847	0.000246	2.456782	0.416190	-0.000025
1074	1.0676e+02	9.3164	15.362110	0.000188	1.883533	0.319079	-0.000019
1075	1.0686e+02	9.3085	15.338484	0.000237	2.374889	0.402317	-0.000024
1076	1.0696e+02	9.2973	15.314858	0.000237	2.374889	0.402317	-0.000024
1077	1.0706e+02	9.2873	15.294491	0.000205	2.047318	0.346825	-0.000020
1078	1.0716e+02	9.2798	15.274531	0.000201	2.006372	0.339889	-0.000020
1079	1.0726e+02	9.2682	15.251312	0.000233	2.333943	0.395381	-0.000023
1080	1.0736e+02	9.2603	15.227279	0.000242	2.415835	0.409254	-0.000024
1081	1.0746e+02	9.2480	15.206097	0.000213	2.129211	0.360698	-0.000021
1082	1.0756e+02	9.2371	15.182472	0.000237	2.374889	0.402317	-0.000024
1083	1.0766e+02	9.2252	15.164141	0.000184	1.842586	0.312143	-0.000018
1084	1.0776e+02	9.2141	15.135627	0.000287	2.866245	0.485555	-0.000029
1085	1.0786e+02	9.2091	15.118926	0.000168	1.678801	0.284397	-0.000017
1086	1.0796e+02	9.1980	15.096522	0.000225	2.252050	0.381508	-0.000023
1087	1.0806e+02	9.1895	15.071674	0.000250	2.497728	0.423127	-0.000025
1088	1.0816e+02	9.1773	15.046419	0.000254	2.538674	0.430063	-0.000025
1089	1.0826e+02	9.1709	15.021571	0.000250	2.497728	0.423127	-0.000025
1090	1.0836e+02	9.1592	14.997538	0.000242	2.415835	0.409254	-0.000024
1091	1.0845e+02	9.1484	14.975542	0.000221	2.211104	0.374571	-0.000022
1092	1.0855e+02	9.1374	14.947435	0.000283	2.825299	0.478619	-0.000028
1093	1.0865e+02	9.1284	14.920958	0.000266	2.661513	0.450873	-0.000027
1094	1.0875e+02	9.1187	14.892036	0.000291	2.907192	0.492492	-0.000029
1095	1.0885e+02	9.1083	14.865559	0.000266	2.661513	0.450873	-0.000027
1096	1.0895e+02	9.0988	14.840304	0.000254	2.538674	0.430063	-0.000025
1097	1.0905e+02	9.0903	14.815456	0.000250	2.497728	0.423127	-0.000025
1098	1.0915e+02	9.0788	14.787757	0.000278	2.784353	0.471682	-0.000028
1099	1.0925e+02	9.0704	14.760057	0.000278	2.784353	0.471682	-0.000028
1100	1.0935e+02	9.0595	14.735209	0.000250	2.497728	0.423127	-0.000025
1101	1.0945e+02	9.0484	14.708732	0.000266	2.661513	0.450873	-0.000027
1102	1.0955e+02	9.0409	14.683477	0.000254	2.538674	0.430063	-0.000025
1103	1.0965e+02	9.0298	14.656592	0.000270	2.702460	0.457809	-0.000027
1104	1.0975e+02	9.0205	14.628893	0.000278	2.784353	0.471682	-0.000028
1105	1.0985e+02	9.0079	14.603230	0.000258	2.579621	0.437000	-0.000026
1106	1.0995e+02	8.9990	14.576753	0.000266	2.661513	0.450873	-0.000027
1107	1.1005e+02	8.9901	14.551498	0.000254	2.538674	0.430063	-0.000025
1108	1.1015e+02	8.9783	14.523391	0.000283	2.825299	0.478619	-0.000028
1109	1.1025e+02	8.9714	14.501395	0.000221	2.211104	0.374571	-0.000022
1110	1.1035e+02	8.9604	14.476547	0.000250	2.497728	0.423127	-0.000025
1111	1.1044e+02	8.9523	14.451699	0.000250	2.497728	0.423127	-0.000025
1112	1.1054e+02	8.9382	14.430110	0.000217	2.170157	0.367635	-0.000022
1113	1.1064e+02	8.9314	14.405669	0.000246	2.456782	0.416190	-0.000025
1114	1.1074e+02	8.9191	14.380007	0.000258	2.579621	0.437000	-0.000026
1115	1.1084e+02	8.9088	14.360862	0.000192	1.924479	0.326016	-0.000019
1116	1.1094e+02	8.8998	14.337236	0.000237	2.374889	0.402317	-0.000024
1117	1.1104e+02	8.8907	14.314832	0.000225	2.252050	0.381508	-0.000023
1118	1.1114e+02	8.8818	14.290799	0.000242	2.415835	0.409254	-0.000024
1119	1.1124e+02	8.8696	14.270432	0.000205	2.047318	0.346825	-0.000020
1120	1.1134e+02	8.8605	14.247213	0.000233	2.333943	0.395381	-0.000023
1121	1.1144e+02	8.8508	14.223995	0.000233	2.333943	0.395381	-0.000023
1122	1.1154e+02	8.8399	14.201998	0.000221	2.211104	0.374571	-0.000022
1123	1.1164e+02	8.8293	14.182853	0.000192	1.924479	0.326016	-0.000019
1124	1.1174e+02	8.8196	14.160042	0.000229	2.292996	0.388444	-0.000023
1125	1.1184e+02	8.8103	14.140897	0.000192	1.924479	0.326016	-0.000019
1126	1.1194e+02	8.7997	14.118493	0.000225	2.252050	0.381508	-0.000023
1127	1.1204e+02	8.7926	14.094867	0.000237	2.374889	0.402317	-0.000024
1128	1.1214e+02	8.7804	14.072870	0.000221	2.211104	0.374571	-0.000022
1129	1.1224e+02	8.7678	14.048430	0.000246	2.456782	0.416190	-0.000025
1130	1.1234e+02	8.7622	14.030100	0.000184	1.842586	0.312143	-0.000018
1131	1.1244e+02	8.7514	14.008510	0.000217	2.170157	0.367635	-0.000022
1132	1.1253e+02	8.7390	13.983255	0.000254	2.538674	0.430063	-0.000025
1133	1.1263e+02	8.7289	13.964517	0.000188	1.883533	0.319079	-0.000019
1134	1.1273e+02	8.7197	13.944150	0.000205	2.047318	0.346825	-0.000020
1135	1.1283e+02	8.7114	13.921746	0.000225	2.252050	0.381508	-0.000023
1136	1.1293e+02	8.6996	13.898528	0.000233	2.333943	0.395381	-0.000023
1137	1.1303e+02	8.6923	13.880197	0.000184	1.842586	0.312143	-0.000018
1138	1.1313e+02	8.6821	13.855757	0.000246	2.456782	0.416190	-0.000025
1139	1.1323e+02	8.6700	13.831316	0.000246	2.456782	0.416190	-0.000025
1140	1.1333e+02	8.6646	13.815430	0.000160	1.596908	0.270524	-0.000016
1141	1.1343e+02	8.6523	13.790989	0.000246	2.456782	0.416190	-0.000025
1142	1.1353e+02	8.6435	13.769400	0.000217	2.170157	0.367635	-0.000022
1143	1.1363e+02	8.6331	13.748218	0.000213	2.129211	0.360698	-0.000021
1144	1.1373e+02	8.6198	13.728666	0.000197	1.965425	0.332952	-0.000020
1145	1.1383e+02	8.6121	13.708299	0.000205	2.047318	0.346825	-0.000020
1146	1.1393e+02	8.6026	13.688339	0.000201	2.006372	0.339889	-0.000020
1147	1.1403e+02	8.5939	13.667565	0.000209	2.088264	0.353762	-0.000021
1148	1.1413e+02	8.5797	13.647198	0.000205	2.047318	0.346825	-0.000020
1149	1.1423e+02	8.5717	13.625608	0.000217	2.170157	0.367635	-0.000022
1150	1.1433e+02	8.5635	13.606871	0.000188	1.883533	0.319079	-0.000019
1151	1.1442e+02	8.5516	13.581615	0.000254	2.538674	0.430063	-0.000025
1152	1.1452e+02	8.5409	13.562878	0.000188	1.883533	0.319079	-0.000019
1153	1.1462e+02	8.5318	13.538844	0.000242	2.415835	0.409254	-0.000024
1154	1.1472e+02	8.5227	13.520921	0.000180	1.801640	0.305206	-0.000018
1155	1.1482e+02	8.5096	13.497703	0.000233	2.333943	0.395381	-0.000023
1156	1.1492e+02	8.5037	13.476114	0.000217	2.170157	0.367635	-0.000022
1157	1.1502e+02	8.4920	13.455747	0.000205	2.047318	0.346825	-0.000020
1158	1.1512e+02	8.4849	13.436194	0.000197	1.965425	0.332952	-0.000020
1159	1.1522e+02	8.4725	13.414198	0.000221	2.211104	0.374571	-0.000022
1160	1.1532e+02	8.4635	13.391794	0.000225	2.252050	0.381508	-0.000023
1161	1.1542e+02	8.4521	13.371019	0.000209	2.088264	0.353762	-0.000021
1162	1.1552e+02	8.4428	13.349430	0.000217	2.170157	0.367635	-0.000022
1163	1.1562e+02	8.4326	13.327841	0.000217	2.170157	0.367635	-0.000022
1164	1.1572e+02	8.4219	13.307066	0.000209	2.088264	0.353762	-0.000021
1165	1.1582e+02	8.4131	13.283441	0.000237	2.374889	0.402317	-0.000024
1166	1.1592e+02	8.4024	13.264296	0.000192	1.924479	0.326016	-0.000019
1167	1.1602e+02	8.3944	13.243928	0.000205	2.047318	0.346825	-0.000020
1168	1.1612e+02	8.3843	13.220710	0.000233	2.333943	0.395381	-0.000023
1169	1.1622e+02	8.3722	13.199121	0.000217	2.170157	0.367635	-0.000022
1170	1.1632e+02	8.3636	13.179976	0.000192	1.924479	0.326016	-0.000019
1171	1.1642e+02	8.3503	13.155535	0.000246	2.456782	0.416190	-0.000025
1172	1.1651e+02	8.3443	13.139649	0.000160	1.596908	0.270524	-0.000016
1173	1.1661e+02	8.3333	13.119282	0.000205	2.047318	0.346825	-0.000020
1174	1.1671e+02	8.3237	13.101358	0.000180	1.801640	0.305206	-0.000018
1175	1.1681e+02	8.3138	13.080177	0.000213	2.129211	0.360698	-0.000021
1176	1.1691e+02	8.3032	13.063068	0.000172	1.719747	0.291333	-0.000017
1177	1.1701e+02	8.2922	13.040257	0.000229	2.292996	0.388444	-0.000023
1178	1.1711e+02	8.2845	13.028037	0.000123	1.228391	0.208095	-0.000012
1179	1.1721e+02	8.2732	13.003189	0.000250	2.497728	0.423127	-0.000025
1180	1.1731e+02	8.2629	12.990561	0.000127	1.269337	0.215032	-0.000013
1181	1.1741e+02	8.2552	12.968972	0.000217	2.170157	0.367635	-0.000022
1182	1.1751e+02	8.2429	12.951456	0.000176	1.760694	0.298270	-0.000018
1183	1.1761e+02	8.2334	12.934348	0.000172	1.719747	0.291333	-0.000017
1184	1.1771e+02	8.2230	12.911130	0.000233	2.333943	0.395381	-0.000023
1185	1.1781e+02	8.2154	12.895650	0.000156	1.555962	0.263587	-0.000016
1186	1.1791e+02	8.2041	12.876913	0.000188	1.883533	0.319079	-0.000019
1187	1.1801e+02	8.1935	12.859397	0.000176	1.760694	0.298270	-0.000018
1188	1.1811e+02	8.1854	12.842696	0.000168	1.678801	0.284397	-0.000017
1189	1.1821e+02	8.1748	12.825180	0.000176	1.760694	0.298270	-0.000018
1190	1.1831e+02	8.1670	12.805220	0.000201	2.006372	0.339889	-0.000020
1191	1.1841e+02	8.1532	12.790556	0.000147	1.474069	0.249714	-0.000015
1192	1.1850e+02	8.1461	12.765301	0.000254	2.538674	0.430063	-0.000025
1193	1.1860e+02	8.1340	12.747378	0.000180	1.801640	0.305206	-0.000018
1194	1.1870e+02	8.1251	12.727418	0.000201	2.006372	0.339889	-0.000020
1195	1.1880e+02	8.1165	12.704607	0.000229	2.292996	0.388444	-0.000023
1196	1.1890e+02	8.1055	12.678944	0.000258	2.579621	0.437000	-0.000026
1197	1.1900e+02	8.0944	12.659392	0.000197	1.965425	0.332952	-0.000020
1198	1.1910e+02	8.0871	12.634544	0.000250	2.497728	0.423127	-0.000025
1199	1.1920e+02	8.0756	12.610918	0.000237	2.374889	0.402317	-0.000024
1200	1.1930e+02	8.0655	12.587700	0.000233	2.333943	0.395381	-0.000023
1201	1.1940e+02	8.0529	12.562037	0.000258	2.579621	0.437000	-0.000026
1202	1.1950e+02	8.0444	12.544114	0.000180	1.801640	0.305206	-0.000018
1203	1.1960e+02	8.0356	12.519266	0.000250	2.497728	0.423127	-0.000025
1204	1.1970e+02	8.0246	12.495640	0.000237	2.374889	0.402317	-0.000024
1205	1.1980e+02	8.0135	12.472422	0.000233	2.333943	0.395381	-0.000023
1206	1.1990e+02	8.0057	12.446759	0.000258	2.579621	0.437000	-0.000026
1207	1.2000e+02	7.9948	12.424355	0.000225	2.252050	0.381508	-0.000023
1208	1.2010e+02	7.9836	12.399100	0.000254	2.538674	0.430063	-0.000025
1209	1.2020e+02	7.9765	12.376696	0.000225	2.252050	0.381508	-0.000023
1210	1.2030e+02	7.9664	12.355922	0.000209	2.088264	0.353762	-0.000021
1211	1.2039e+02	7.9583	12.329852	0.000262	2.620567	0.443936	-0.000026
1212	1.2049e+02	7.9458	12.307448	0.000225	2.252050	0.381508	-0.000023
1213	1.2059e+02	7.9346	12.283822	0.000237	2.374889	0.402317	-0.000024
1214	1.2069e+02	7.9249	12.258974	0.000250	2.497728	0.423127	-0.000025
1215	1.2079e+02	7.9163	12.232089	0.000270	2.702460	0.457809	-0.000027
1216	1.2089e+02	7.9075	12.209686	0.000225	2.252050	0.381508	-0.000023
1217	1.2099e+02	7.8948	12.181986	0.000278	2.784353	0.471682	-0.000028
1218	1.2109e+02	7.8836	12.160397	0.000217	2.170157	0.367635	-0.000022
1219	1.2119e+02	7.8760	12.131883	0.000287	2.866245	0.485555	-0.000029
1220	1.2129e+02	7.8681	12.111923	0.000201	2.006372	0.339889	-0.000020
1221	1.2139e+02	7.8542	12.085854	0.000262	2.620567	0.443936	-0.000026
1222	1.2149e+02	7.8461	12.064672	0.000213	2.129211	0.360698	-0.000021
1223	1.2159e+02	7.8365	12.037380	0.000274	2.743406	0.464746	-0.000027
1224	1.2169e+02	7.8250	12.011310	0.000262	2.620567	0.443936	-0.000026
1225	1.2179e+02	7.8135	11.981574	0.000299	2.989084	0.506365	-0.000030
1226	1.2189e+02	7.8056	11.958763	0.000229	2.292996	0.388444	-0.000023
1227	1.2199e+02	7.7972	11.933100	0.000258	2.579621	0.437000	-0.000026
1228	1.2209e+02	7.7862	11.906215	0.000270	2.702460	0.457809	-0.000027
1229	1.2219e+02	7.7776	11.883404	0.000229	2.292996	0.388444	-0.000023
1230	1.2229e+02	7.7671	11.855298	0.000283	2.825299	0.478619	-0.000028
1231	1.2239e+02	7.7567	11.828820	0.000266	2.661513	0.450873	-0.000027
1232	1.2248e+02	7.7467	11.801528	0.000274	2.743406	0.464746	-0.000027
1233	1.2258e+02	7.7363	11.776273	0.000254	2.538674	0.430063	-0.000025
1234	1.2268e+02	7.7268	11.751018	0.000254	2.538674	0.430063	-0.000025
1235	1.2278e+02	7.7158	11.724133	0.000270	2.702460	0.457809	-0.000027
1236	1.2288e+02	7.7052	11.698471	0.000258	2.579621	0.437000	-0.000026
1237	1.2298e+02	7.6953	11.673623	0.000250	2.497728	0.423127	-0.000025
1238	1.2308e+02	7.6879	11.649182	0.000246	2.456782	0.416190	-0.000025
1239	1.2318e+02	7.6789	11.622298	0.000270	2.702460	0.457809	-0.000027
1240	1.2328e+02	7.6669	11.593376	0.000291	2.907192	0.492492	-0.000029
1241	1.2338e+02	7.6575	11.568121	0.000254	2.538674	0.430063	-0.000025
1242	1.2348e+02	7.6466	11.542051	0.000262	2.620567	0.443936	-0.000026
1243	1.2358e+02	7.6337	11.514759	0.000274	2.743406	0.464746	-0.000027
1244	1.2368e+02	7.6281	11.486245	0.000287	2.866245	0.485555	-0.000029
1245	1.2378e+02	7.6172	11.463434	0.000229	2.292996	0.388444	-0.000023
1246	1.2388e+02	7.6035	11.432883	0.000307	3.070977	0.520238	-0.000031
1247	1.2398e+02	7.5980	11.412924	0.000201	2.006372	0.339889	-0.000020
1248	1.2408e+02	7.5875	11.386446	0.000266	2.661513	0.450873	-0.000027
1249	1.2418e+02	7.5764	11.362413	0.000242	2.415835	0.409254	-0.000024
1250	1.2428e+02	7.5673	11.331862	0.000307	3.070977	0.520238	-0.000031
1251	1.2438e+02	7.5565	11.308237	0.000237	2.374889	0.402317	-0.000024
1252	1.2447e+02	7.5484	11.278908	0.000295	2.948138	0.499428	-0.000029
1253	1.2457e+02	7.5391	11.254467	0.000246	2.456782	0.416190	-0.000025
1254	1.2467e+02	7.5258	11.225953	0.000287	2.866245	0.485555	-0.000029
1255	1.2477e+02	7.5159	11.201513	0.000246	2.456782	0.416190	-0.000025
1256	1.2487e+02	7.5074	11.174221	0.000274	2.743406	0.464746	-0.000027
1257	1.2497e+02	7.4966	11.140411	0.000340	3.398548	0.575730	-0.000034
1258	1.2507e+02	7.4880	11.113119	0.000274	2.743406	0.464746	-0.000027
1259	1.2517e+02	7.4776	11.083791	0.000295	2.948138	0.499428	-0.000029
1260	1.2527e+02	7.4688	11.056906	0.000270	2.702460	0.457809	-0.000027
1261	1.2537e+02	7.4561	11.027985	0.000291	2.907192	0.492492	-0.000029
1262	1.2547e+02	7.4476	10.995805	0.000323	3.234763	0.547984	-0.000032
1263	1.2557e+02	7.4383	10.966884	0.000291	2.907192	0.492492	-0.000029
1264	1.2567e+02	7.4270	10.936333	0.000307	3.070977	0.520238	-0.000031
1265	1.2577e+02	7.4179	10.907004	0.000295	2.948138	0.499428	-0.000029
1266	1.2587e+02	7.4062	10.878898	0.000283	2.825299	0.478619	-0.000028
1267	1.2597e+02	7.3988	10.849162	0.000299	2.989084	0.506365	-0.000030
1268	1.2607e+02	7.3895	10.816167	0.000332	3.316655	0.561857	-0.000033
1269	1.2617e+02	7.3788	10.785209	0.000311	3.111923	0.527174	-0.000031
1270	1.2627e+02	7.3663	10.757509	0.000278	2.784353	0.471682	-0.000028
1271	1.2636e+02	7.3589	10.724515	0.000332	3.316655	0.561857	-0.000033
1272	1.2646e+02	7.3470	10.695186	0.000295	2.948138	0.499428	-0.000029
1273	1.2656e+02	7.3373	10.663006	0.000323	3.234763	0.547984	-0.000032
1274	1.2666e+02	7.3284	10.637343	0.000258	2.579621	0.437000	-0.000026
1275	1.2676e+02	7.3194	10.604756	0.000328	3.275709	0.554920	-0.000033
1276	1.2686e+02	7.3104	10.576649	0.000283	2.825299	0.478619	-0.000028
1277	1.2696e+02	7.2980	10.549765	0.000270	2.702460	0.457809	-0.000027
1278	1.2706e+02	7.2910	10.525732	0.000242	2.415835	0.409254	-0.000024
1279	1.2716e+02	7.2761	10.498032	0.000278	2.784353	0.471682	-0.000028
1280	1.2726e+02	7.2656	10.472777	0.000254	2.538674	0.430063	-0.000025
1281	1.2736e+02	7.2579	10.441004	0.000319	3.193816	0.541047	-0.000032
1282	1.2746e+02	7.2497	10.416971	0.000242	2.415835	0.409254	-0.000024
1283	1.2756e+02	7.2417	10.388050	0.000291	2.907192	0.492492	-0.000029
1284	1.2766e+02	7.2276	10.364831	0.000233	2.333943	0.395381	-0.000023
1285	1.2776e+02	7.2192	10.338761	0.000262	2.620567	0.443936	-0.000026
1286	1.2786e+02	7.2097	10.311877	0.000270	2.702460	0.457809	-0.000027
1287	1.2796e+02	7.1993	10.282548	0.000295	2.948138	0.499428	-0.000029
1288	1.2806e+02	7.1907	10.260144	0.000225	2.252050	0.381508	-0.000023
1289	1.2816e+02	7.1810	10.236518	0.000237	2.374889	0.402317	-0.000024
1290	1.2826e+02	7.1684	10.210448	0.000262	2.620567	0.443936	-0.000026
1291	1.2835e+02	7.1596	10.185193	0.000254	2.538674	0.430063	-0.000025
1292	1.2845e+02	7.1484	10.158716	0.000266	2.661513	0.450873	-0.000027
1293	1.2855e+02	7.1389	10.133868	0.000250	2.497728	0.423127	-0.000025
1294	1.2865e+02	7.1279	10.109427	0.000246	2.456782	0.416190	-0.000025
1295	1.2875e+02	7.1217	10.084580	0.000250	2.497728	0.423127	-0.000025
1296	1.2885e+02	7.1106	10.057695	0.000270	2.702460	0.457809	-0.000027
1297	1.2895e+02	7.1005	10.036106	0.000217	2.170157	0.367635	-0.000022
1298	1.2905e+02	7.0903	10.005148	0.000311	3.111923	0.527174	-0.000031
1299	1.2915e+02	7.0775	9.981929	0.000233	2.333943	0.395381	-0.000023
1300	1.2925e+02	7.0680	9.959525	0.000225	2.252050	0.381508	-0.000023
1301	1.2935e+02	7.0592	9.933455	0.000262	2.620567	0.443936	-0.000026
1302	1.2945e+02	7.0498	9.909422	0.000242	2.415835	0.409254	-0.000024
1303	1.2955e+02	7.0413	9.880094	0.000295	2.948138	0.499428	-0.000029
1304	1.2965e+02	7.0296	9.857282	0.000229	2.292996	0.388444	-0.000023
1305	1.2975e+02	7.0205	9.833657	0.000237	2.374889	0.402317	-0.000024
1306	1.2985e+02	7.0105	9.806772	0.000270	2.702460	0.457809	-0.000027
1307	1.2995e+02	7.0004	9.781924	0.000250	2.497728	0.423127	-0.000025
1308	1.3005e+02	6.9910	9.755039	0.000270	2.702460	0.457809	-0.000027
1309	1.3015e+02	6.9804	9.732228	0.000229	2.292996	0.388444	-0.000023
1310	1.3025e+02	6.9701	9.709010	0.000233	2.333943	0.395381	-0.000023
1311	1.3034e+02	6.9662	9.682940	0.000262	2.620567	0.443936	-0.000026
1312	1.3044e+02	6.9499	9.663795	0.000192	1.924479	0.326016	-0.000019
1313	1.3054e+02	6.9421	9.637317	0.000266	2.661513	0.450873	-0.000027
1314	1.3064e+02	6.9299	9.615321	0.000221	2.211104	0.374571	-0.000022
1315	1.3074e+02	6.9238	9.594139	0.000213	2.129211	0.360698	-0.000021
1316	1.3084e+02	6.9086	9.566440	0.000278	2.784353	0.471682	-0.000028
1317	1.3094e+02	6.9021	9.540370	0.000262	2.620567	0.443936	-0.000026
1318	1.3104e+02	6.8945	9.518781	0.000217	2.170157	0.367635	-0.000022
1319	1.3114e+02	6.8800	9.494340	0.000246	2.456782	0.416190	-0.000025
1320	1.3124e+02	6.8693	9.470714	0.000237	2.374889	0.402317	-0.000024
1321	1.3134e+02	6.8605	9.445459	0.000254	2.538674	0.430063	-0.000025
1322	1.3144e+02	6.8506	9.418574	0.000270	2.702460	0.457809	-0.000027
1323	1.3154e+02	6.8400	9.399429	0.000192	1.924479	0.326016	-0.000019
1324	1.3164e+02	6.8319	9.370915	0.000287	2.866245	0.485555	-0.000029
1325	1.3174e+02	6.8199	9.346882	0.000242	2.415835	0.409254	-0.000024
1326	1.3184e+02	6.8111	9.321220	0.000258	2.579621	0.437000	-0.000026
1327	1.3194e+02	6.8027	9.300852	0.000205	2.047318	0.346825	-0.000020
1328	1.3204e+02	6.7925	9.276819	0.000242	2.415835	0.409254	-0.000024
1329	1.3214e+02	6.7850	9.252786	0.000242	2.415835	0.409254	-0.000024
1330	1.3224e+02	6.7699	9.227123	0.000258	2.579621	0.437000	-0.000026
1331	1.3234e+02	6.7614	9.201054	0.000262	2.620567	0.443936	-0.000026
1332	1.3243e+02	6.7487	9.176613	0.000246	2.456782	0.416190	-0.000025
1333	1.3253e+02	6.7400	9.153802	0.000229	2.292996	0.388444	-0.000023
1334	1.3263e+02	6.7306	9.128139	0.000258	2.579621	0.437000	-0.000026
1335	1.3273e+02	6.7220	9.101255	0.000270	2.702460	0.457809	-0.000027
1336	1.3283e+02	6.7101	9.076407	0.000250	2.497728	0.423127	-0.000025
1337	1.3293e+02	6.7031	9.051559	0.000250	2.497728	0.423127	-0.000025
1338	1.3303e+02	6.6933	9.026711	0.000250	2.497728	0.423127	-0.000025
1339	1.3313e+02	6.6805	9.005529	0.000213	2.129211	0.360698	-0.000021
1340	1.3323e+02	6.6714	8.983125	0.000225	2.252050	0.381508	-0.000023
1341	1.3333e+02	6.6612	8.961536	0.000217	2.170157	0.367635	-0.000022
1342	1.3343e+02	6.6521	8.939132	0.000225	2.252050	0.381508	-0.000023
1343	1.3353e+02	6.6459	8.920395	0.000188	1.883533	0.319079	-0.000019
1344	1.3363e+02	6.6320	8.894732	0.000258	2.579621	0.437000	-0.000026
1345	1.3373e+02	6.6228	8.879660	0.000152	1.515015	0.256651	-0.000015
1346	1.3383e+02	6.6094	8.851554	0.000283	2.825299	0.478619	-0.000028
1347	1.3393e+02	6.6035	8.836075	0.000156	1.555962	0.263587	-0.000016
1348	1.3403e+02	6.5948	8.810819	0.000254	2.538674	0.430063	-0.000025
1349	1.3413e+02	6.5835	8.785971	0.000250	2.497728	0.423127	-0.000025
1350	1.3423e+02	6.5715	8.767234	0.000188	1.883533	0.319079	-0.000019
1351	1.3432e+02	6.5636	8.746867	0.000205	2.047318	0.346825	-0.000020
1352	1.3442e+02	6.5536	8.721204	0.000258	2.579621	0.437000	-0.000026
1353	1.3452e+02	6.5423	8.703281	0.000180	1.801640	0.305206	-0.000018
1354	1.3462e+02	6.5339	8.681692	0.000217	2.170157	0.367635	-0.000022
1355	1.3472e+02	6.5241	8.661325	0.000205	2.047318	0.346825	-0.000020
1356	1.3482e+02	6.5125	8.637699	0.000237	2.374889	0.402317	-0.000024
1357	1.3492e+02	6.5010	8.618146	0.000197	1.965425	0.332952	-0.000020
1358	1.3502e+02	6.4915	8.597372	0.000209	2.088264	0.353762	-0.000021
1359	1.3512e+02	6.4839	8.569673	0.000278	2.784353	0.471682	-0.000028
1360	1.3522e+02	6.4727	8.549305	0.000205	2.047318	0.346825	-0.000020
1361	1.3532e+02	6.4626	8.525272	0.000242	2.415835	0.409254	-0.000024
1362	1.3542e+02	6.4538	8.504905	0.000205	2.047318	0.346825	-0.000020
1363	1.3552e+02	6.4420	8.478428	0.000266	2.661513	0.450873	-0.000027
1364	1.3562e+02	6.4335	8.450729	0.000278	2.784353	0.471682	-0.000028
1365	1.3572e+02	6.4233	8.423437	0.000274	2.743406	0.464746	-0.000027
1366	1.3582e+02	6.4111	8.397774	0.000258	2.579621	0.437000	-0.000026
1367	1.3592e+02	6.4036	8.372111	0.000258	2.579621	0.437000	-0.000026
1368	1.3602e+02	6.3918	8.347264	0.000250	2.497728	0.423127	-0.000025
1369	1.3612e+02	6.3848	8.323638	0.000237	2.374889	0.402317	-0.000024
1370	1.3622e+02	6.3738	8.291865	0.000319	3.193816	0.541047	-0.000032
1371	1.3631e+02	6.3620	8.269868	0.000221	2.211104	0.374571	-0.000022
1372	1.3641e+02	6.3528	8.238910	0.000311	3.111923	0.527174	-0.000031
1373	1.3651e+02	6.3422	8.214877	0.000242	2.415835	0.409254	-0.000024
1374	1.3661e+02	6.3324	8.188400	0.000266	2.661513	0.450873	-0.000027
1375	1.3671e+02	6.3240	8.162737	0.000258	2.579621	0.437000	-0.000026
1376	1.3681e+02	6.3128	8.136260	0.000266	2.661513	0.450873	-0.000027
1377	1.3691e+02	6.3042	8.107339	0.000291	2.907192	0.492492	-0.000029
1378	1.3701e+02	6.2933	8.085750	0.000217	2.170157	0.367635	-0.000022
1379	1.3711e+02	6.2847	8.055199	0.000307	3.070977	0.520238	-0.000031
1380	1.3721e+02	6.2768	8.030758	0.000246	2.456782	0.416190	-0.000025
1381	1.3731e+02	6.2638	8.002244	0.000287	2.866245	0.485555	-0.000029
1382	1.3741e+02	6.2565	7.974545	0.000278	2.784353	0.471682	-0.000028
1383	1.3751e+02	6.2440	7.942365	0.000323	3.234763	0.547984	-0.000032
1384	1.3761e+02	6.2334	7.918332	0.000242	2.415835	0.409254	-0.000024
1385	1.3771e+02	6.2228	7.893891	0.000246	2.456782	0.416190	-0.000025
1386	1.3781e+02	6.2170	7.864970	0.000291	2.907192	0.492492	-0.000029
1387	1.3791e+02	6.2045	7.832790	0.000323	3.234763	0.547984	-0.000032
1388	1.3801e+02	6.1919	7.807535	0.000254	2.538674	0.430063	-0.000025
1389	1.3811e+02	6.1854	7.781057	0.000266	2.661513	0.450873	-0.000027
1390	1.3821e+02	6.1729	7.750507	0.000307	3.070977	0.520238	-0.000031
1391	1.3831e+02	6.1637	7.724437	0.000262	2.620567	0.443936	-0.000026
1392	1.3840e+02	6.1572	7.696330	0.000283	2.825299	0.478619	-0.000028
1393	1.3850e+02	6.1449	7.667002	0.000295	2.948138	0.499428	-0.000029
1394	1.3860e+02	6.1343	7.638488	0.000287	2.866245	0.485555	-0.000029
1395	1.3870e+02	6.1236	7.611196	0.000274	2.743406	0.464746	-0.000027
1396	1.3880e+02	6.1146	7.581052	0.000303	3.030031	0.513301	-0.000030
1397	1.3890e+02	6.1063	7.551316	0.000299	2.989084	0.506365	-0.000030
1398	1.3900e+02	6.0963	7.525246	0.000262	2.620567	0.443936	-0.000026
1399	1.3910e+02	6.0821	7.490622	0.000348	3.480441	0.589603	-0.000035
1400	1.3920e+02	6.0764	7.464145	0.000266	2.661513	0.450873	-0.000027
1401	1.3930e+02	6.0635	7.433187	0.000311	3.111923	0.527174	-0.000031
1402	1.3940e+02	6.0531	7.405895	0.000274	2.743406	0.464746	-0.000027
1403	1.3950e+02	6.0449	7.377381	0.000287	2.866245	0.485555	-0.000029
1404	1.3960e+02	6.0351	7.346423	0.000311	3.111923	0.527174	-0.000031
1405	1.3970e+02	6.0238	7.318316	0.000283	2.825299	0.478619	-0.000028
1406	1.3980e+02	6.0188	7.289395	0.000291	2.907192	0.492492	-0.000029
1407	1.3990e+02	6.0056	7.256400	0.000332	3.316655	0.561857	-0.000033
1408	1.4000e+02	5.9962	7.229923	0.000266	2.661513	0.450873	-0.000027
1409	1.4010e+02	5.9866	7.201816	0.000283	2.825299	0.478619	-0.000028
1410	1.4020e+02	5.9770	7.174932	0.000270	2.702460	0.457809	-0.000027
1411	1.4029e+02	5.9670	7.141122	0.000340	3.398548	0.575730	-0.000034
1412	1.4039e+02	5.9533	7.111386	0.000299	2.989084	0.506365	-0.000030
1413	1.4049e+02	5.9475	7.082872	0.000287	2.866245	0.485555	-0.000029
1414	1.4059e+02	5.9328	7.053136	0.000299	2.989084	0.506365	-0.000030
1415	1.4069e+02	5.9270	7.020142	0.000332	3.316655	0.561857	-0.000033
1416	1.4079e+02	5.9145	6.997330	0.000229	2.292996	0.388444	-0.000023
1417	1.4089e+02	5.9046	6.966372	0.000311	3.111923	0.527174	-0.000031
1418	1.4099e+02	5.8961	6.935822	0.000307	3.070977	0.520238	-0.000031
1419	1.4109e+02	5.8868	6.907715	0.000283	2.825299	0.478619	-0.000028
1420	1.4119e+02	5.8757	6.878386	0.000295	2.948138	0.499428	-0.000029
1421	1.4129e+02	5.8657	6.849872	0.000287	2.866245	0.485555	-0.000029
1422	1.4139e+02	5.8552	6.818914	0.000311	3.111923	0.527174	-0.000031
1423	1.4149e+02	5.8462	6.791215	0.000278	2.784353	0.471682	-0.000028
1424	1.4159e+02	5.8348	6.753740	0.000377	3.767065	0.638158	-0.000038
1425	1.4169e+02	5.8257	6.724411	0.000295	2.948138	0.499428	-0.000029
1426	1.4179e+02	5.8144	6.693860	0.000307	3.070977	0.520238	-0.000031
1427	1.4189e+02	5.8073	6.658829	0.000352	3.521387	0.596539	-0.000035
1428	1.4199e+02	5.8001	6.627056	0.000319	3.193816	0.541047	-0.000032
1429	1.4209e+02	5.7878	6.590802	0.000364	3.644226	0.617349	-0.000036
1430	1.4219e+02	5.7760	6.559437	0.000315	3.152870	0.534111	-0.000032
1431	1.4228e+02	5.7685	6.528072	0.000315	3.152870	0.534111	-0.000032
1432	1.4238e+02	5.7558	6.493040	0.000352	3.521387	0.596539	-0.000035
1433	1.4248e+02	5.7456	6.462897	0.000303	3.030031	0.513301	-0.000030
1434	1.4258e+02	5.7365	6.429495	0.000336	3.357602	0.568793	-0.000034
1435	1.4268e+02	5.7258	6.394463	0.000352	3.521387	0.596539	-0.000035
1436	1.4278e+02	5.7175	6.360247	0.000344	3.439494	0.582666	-0.000034
1437	1.4288e+02	5.7065	6.333362	0.000270	2.702460	0.457809	-0.000027
1438	1.4298e+02	5.6973	6.296294	0.000373	3.726119	0.631222	-0.000037
1439	1.4308e+02	5.6873	6.260448	0.000360	3.603280	0.610412	-0.000036
1440	1.4318e+02	5.6780	6.232341	0.000283	2.825299	0.478619	-0.000028
1441	1.4328e+02	5.6666	6.197310	0.000352	3.521387	0.596539	-0.000035
1442	1.4338e+02	5.6559	6.161871	0.000356	3.562333	0.603476	-0.000036
1443	1.4348e+02	5.6461	6.129691	0.000323	3.234763	0.547984	-0.000032
1444	1.4358e+02	5.6391	6.100769	0.000291	2.907192	0.492492	-0.000029
1445	1.4368e+02	5.6266	6.071441	0.000295	2.948138	0.499428	-0.000029
1446	1.4378e+02	5.6136	6.040890	0.000307	3.070977	0.520238	-0.000031
1447	1.4388e+02	5.6051	6.011969	0.000291	2.907192	0.492492	-0.000029
1448	1.4398e+02	5.5970	5.981418	0.000307	3.070977	0.520238	-0.000031
1449	1.4408e+02	5.5863	5.949645	0.000319	3.193816	0.541047	-0.000032
1450	1.4418e+02	5.5797	5.919095	0.000307	3.070977	0.520238	-0.000031
1451	1.4428e+02	5.5692	5.893025	0.000262	2.620567	0.443936	-0.000026
1452	1.4437e+02	5.5567	5.860845	0.000323	3.234763	0.547984	-0.000032
1453	1.4447e+02	5.5468	5.834775	0.000262	2.620567	0.443936	-0.000026
1454	1.4457e+02	5.5355	5.803409	0.000315	3.152870	0.534111	-0.000032
1455	1.4467e+02	5.5274	5.773266	0.000303	3.030031	0.513301	-0.000030
1456	1.4477e+02	5.5155	5.746789	0.000266	2.661513	0.450873	-0.000027
1457	1.4487e+02	5.5093	5.717867	0.000291	2.907192	0.492492	-0.000029
1458	1.4497e+02	5.4964	5.686909	0.000311	3.111923	0.527174	-0.000031
1459	1.4507e+02	5.4894	5.662876	0.000242	2.415835	0.409254	-0.000024
1460	1.4517e+02	5.4780	5.630289	0.000328	3.275709	0.554920	-0.000033
1461	1.4527e+02	5.4691	5.603811	0.000266	2.661513	0.450873	-0.000027
1462	1.4537e+02	5.4578	5.575705	0.000283	2.825299	0.478619	-0.000028
1463	1.4547e+02	5.4473	5.544339	0.000315	3.152870	0.534111	-0.000032
1464	1.4557e+02	5.4409	5.519899	0.000246	2.456782	0.416190	-0.000025
1465	1.4567e+02	5.4278	5.490978	0.000291	2.907192	0.492492	-0.000029
1466	1.4577e+02	5.4177	5.460834	0.000303	3.030031	0.513301	-0.000030
1467	1.4587e+02	5.4093	5.433542	0.000274	2.743406	0.464746	-0.000027
1468	1.4597e+02	5.3976	5.411953	0.000217	2.170157	0.367635	-0.000022
1469	1.4607e+02	5.3878	5.376514	0.000356	3.562333	0.603476	-0.000036
1470	1.4617e+02	5.3771	5.345556	0.000311	3.111923	0.527174	-0.000031
1471	1.4626e+02	5.3693	5.322745	0.000229	2.292996	0.388444	-0.000023
1472	1.4636e+02	5.3596	5.291380	0.000315	3.152870	0.534111	-0.000032
1473	1.4646e+02	5.3489	5.265310	0.000262	2.620567	0.443936	-0.000026
1474	1.4656e+02	5.3413	5.235166	0.000303	3.030031	0.513301	-0.000030
1475	1.4666e+02	5.3296	5.210319	0.000250	2.497728	0.423127	-0.000025
1476	1.4676e+02	5.3174	5.180990	0.000295	2.948138	0.499428	-0.000029
1477	1.4686e+02	5.3092	5.154513	0.000266	2.661513	0.450873	-0.000027
1478	1.4696e+02	5.2994	5.127221	0.000274	2.743406	0.464746	-0.000027
1479	1.4706e+02	5.2880	5.099114	0.000283	2.825299	0.478619	-0.000028
1480	1.4716e+02	5.2810	5.070193	0.000291	2.907192	0.492492	-0.000029
1481	1.4726e+02	5.2691	5.045752	0.000246	2.456782	0.416190	-0.000025
1482	1.4736e+02	5.2605	5.015609	0.000303	3.030031	0.513301	-0.000030
1483	1.4746e+02	5.2512	4.990354	0.000254	2.538674	0.430063	-0.000025
1484	1.4756e+02	5.2401	4.961025	0.000295	2.948138	0.499428	-0.000029
1485	1.4766e+02	5.2293	4.937399	0.000237	2.374889	0.402317	-0.000024
1486	1.4776e+02	5.2204	4.910514	0.000270	2.702460	0.457809	-0.000027
1487	1.4786e+02	5.2084	4.878742	0.000319	3.193816	0.541047	-0.000032
1488	1.4796e+02	5.1989	4.853487	0.000254	2.538674	0.430063	-0.000025
1489	1.4806e+02	5.1879	4.825380	0.000283	2.825299	0.478619	-0.000028
1490	1.4816e+02	5.1780	4.796051	0.000295	2.948138	0.499428	-0.000029
1491	1.4825e+02	5.1696	4.769574	0.000266	2.661513	0.450873	-0.000027
1492	1.4835e+02	5.1627	4.743097	0.000266	2.661513	0.450873	-0.000027
1493	1.4845e+02	5.1522	4.714990	0.000283	2.825299	0.478619	-0.000028
1494	1.4855e+02	5.1394	4.685254	0.000299	2.989084	0.506365	-0.000030
1495	1.4865e+02	5.1324	4.661628	0.000237	2.374889	0.402317	-0.000024
1496	1.4875e+02	5.1209	4.633114	0.000287	2.866245	0.485555	-0.000029
1497	1.4885e+02	5.1092	4.606230	0.000270	2.702460	0.457809	-0.000027
1498	1.4895e+02	5.0996	4.576494	0.000299	2.989084	0.506365	-0.000030
1499	1.4905e+02	5.0913	4.549609	0.000270	2.702460	0.457809	-0.000027
1500	1.4915e+02	5.0810	4.519466	0.000303	3.030031	0.513301	-0.000030
1501	1.4925e+02	5.0690	4.490952	0.000287	2.866245	0.485555	-0.000029
1502	1.4935e+02	5.0614	4.463660	0.000274	2.743406	0.464746	-0.000027
1503	1.4945e+02	5.0484	4.438404	0.000254	2.538674	0.430063	-0.000025
1504	1.4955e+02	5.0399	4.410705	0.000278	2.784353	0.471682	-0.000028
1505	1.4965e+02	5.0297	4.380154	0.000307	3.070977	0.520238	-0.000031
1506	1.4975e+02	5.0210	4.354899	0.000254	2.538674	0.430063	-0.000025
1507	1.4985e+02	5.0105	4.325978	0.000291	2.907192	0.492492	-0.000029
1508	1.4995e+02	5.0001	4.302352	0.000237	2.374889	0.402317	-0.000024
1509	1.5005e+02	4.9895	4.279134	0.000233	2.333943	0.395381	-0.000023
1510	1.5015e+02	4.9793	4.250212	0.000291	2.907192	0.492492	-0.000029
1511	1.5025e+02	4.9694	4.229030	0.000213	2.129211	0.360698	-0.000021
1512	1.5034e+02	4.9621	4.204182	0.000250	2.497728	0.423127	-0.000025
1513	1.5044e+02	4.9519	4.181779	0.000225	2.252050	0.381508	-0.000023
1514	1.5054e+02	4.9416	4.153672	0.000283	2.825299	0.478619	-0.000028
1515	1.5064e+02	4.9316	4.128824	0.000250	2.497728	0.423127	-0.000025
1516	1.5074e+02	4.9213	4.103162	0.000258	2.579621	0.437000	-0.000026
1517	1.5084e+02	4.9103	4.077499	0.000258	2.579621	0.437000	-0.000026
1518	1.5094e+02	4.9033	4.054688	0.000229	2.292996	0.388444	-0.000023
1519	1.5104e+02	4.8919	4.029025	0.000258	2.579621	0.437000	-0.000026
1520	1.5114e+02	4.8818	4.002548	0.000266	2.661513	0.450873	-0.000027
1521	1.5124e+02	4.8690	3.980144	0.000225	2.252050	0.381508	-0.000023
1522	1.5134e+02	4.8603	3.955704	0.000246	2.456782	0.416190	-0.000025
1523	1.5144e+02	4.8512	3.932078	0.000237	2.374889	0.402317	-0.000024
1524	1.5154e+02	4.8409	3.906415	0.000258	2.579621	0.437000	-0.000026
1525	1.5164e+02	4.8306	3.882382	0.000242	2.415835	0.409254	-0.000024
1526	1.5174e+02	4.8229	3.857127	0.000254	2.538674	0.430063	-0.000025
1527	1.5184e+02	4.8106	3.830649	0.000266	2.661513	0.450873	-0.000027
1528	1.5194e+02	4.8038	3.804172	0.000266	2.661513	0.450873	-0.000027
1529	1.5204e+02	4.7924	3.776473	0.000278	2.784353	0.471682	-0.000028
1530	1.5214e+02	4.7817	3.748366	0.000283	2.825299	0.478619	-0.000028
1531	1.5224e+02	4.7721	3.716186	0.000323	3.234763	0.547984	-0.000032
1532	1.5233e+02	4.7607	3.688487	0.000278	2.784353	0.471682	-0.000028
1533	1.5243e+02	4.7513	3.662824	0.000258	2.579621	0.437000	-0.000026
1534	1.5253e+02	4.7416	3.628607	0.000344	3.439494	0.582666	-0.000034
1535	1.5263e+02	4.7300	3.600908	0.000278	2.784353	0.471682	-0.000028
1536	1.5273e+02	4.7216	3.574431	0.000266	2.661513	0.450873	-0.000027
1537	1.5283e+02	4.7099	3.541436	0.000332	3.316655	0.561857	-0.000033
1538	1.5293e+02	4.7028	3.512107	0.000295	2.948138	0.499428	-0.000029
1539	1.5303e+02	4.6931	3.481557	0.000307	3.070977	0.520238	-0.000031
1540	1.5313e+02	4.6821	3.451413	0.000303	3.030031	0.513301	-0.000030
1541	1.5323e+02	4.6718	3.422085	0.000295	2.948138	0.499428	-0.000029
1542	1.5333e+02	4.6635	3.389905	0.000323	3.234763	0.547984	-0.000032
1543	1.5343e+02	4.6533	3.364649	0.000254	2.538674	0.430063	-0.000025
1544	1.5353e+02	4.6426	3.329618	0.000352	3.521387	0.596539	-0.000035
1545	1.5363e+02	4.6320	3.300697	0.000291	2.907192	0.492492	-0.000029
1546	1.5373e+02	4.6229	3.269739	0.000311	3.111923	0.527174	-0.000031
1547	1.5383e+02	4.6114	3.240003	0.000299	2.989084	0.506365	-0.000030
1548	1.5393e+02	4.6021	3.211489	0.000287	2.866245	0.485555	-0.000029
1549	1.5403e+02	4.5925	3.179309	0.000323	3.234763	0.547984	-0.000032
1550	1.5413e+02	4.5827	3.143870	0.000356	3.562333	0.603476	-0.000036
1551	1.5422e+02	4.5728	3.115356	0.000287	2.866245	0.485555	-0.000029
1552	1.5432e+02	4.5609	3.081139	0.000344	3.439494	0.582666	-0.000034
1553	1.5442e+02	4.5515	3.053032	0.000283	2.825299	0.478619	-0.000028
1554	1.5452e+02	4.5425	3.022074	0.000311	3.111923	0.527174	-0.000031
1555	1.5462e+02	4.5309	2.992746	0.000295	2.948138	0.499428	-0.000029
1556	1.5472e+02	4.5200	2.956900	0.000360	3.603280	0.610412	-0.000036
1557	1.5482e+02	4.5130	2.928793	0.000283	2.825299	0.478619	-0.000028
1558	1.5492e+02	4.5028	2.897020	0.000319	3.193816	0.541047	-0.000032
1559	1.5502e+02	4.4924	2.864840	0.000323	3.234763	0.547984	-0.000032
1560	1.5512e+02	4.4850	2.831845	0.000332	3.316655	0.561857	-0.000033
1561	1.5522e+02	4.4727	2.801295	0.000307	3.070977	0.520238	-0.000031
1562	1.5532e+02	4.4648	2.768707	0.000328	3.275709	0.554920	-0.000033
1563	1.5542e+02	4.4527	2.734083	0.000348	3.480441	0.589603	-0.000035
1564	1.5552e+02	4.4429	2.700274	0.000340	3.398548	0.575730	-0.000034
1565	1.5562e+02	4.4324	2.669316	0.000311	3.111923	0.527174	-0.000031
1566	1.5572e+02	4.4241	2.636728	0.000328	3.275709	0.554920	-0.000033
1567	1.5582e+02	4.4141	2.605770	0.000311	3.111923	0.527174	-0.000031
1568	1.5592e+02	4.4042	2.571554	0.000344	3.439494	0.582666	-0.000034
1569	1.5602e+02	4.3931	2.538966	0.000328	3.275709	0.554920	-0.000033
1570	1.5612e+02	4.3832	2.504342	0.000348	3.480441	0.589603	-0.000035
1571	1.5622e+02	4.3752	2.472569	0.000319	3.193816	0.541047	-0.000032
1572	1.5631e+02	4.3637	2.439167	0.000336	3.357602	0.568793	-0.000034
1573	1.5641e+02	4.3533	2.410653	0.000287	2.866245	0.485555	-0.000029
1574	1.5651e+02	4.3433	2.376844	0.000340	3.398548	0.575730	-0.000034
1575	1.5661e+02	4.3343	2.343034	0.000340	3.398548	0.575730	-0.000034
1576	1.5671e+02	4.3233	2.311262	0.000319	3.193816	0.541047	-0.000032
1577	1.5681e+02	4.3141	2.275415	0.000360	3.603280	0.610412	-0.000036
1578	1.5691e+02	4.3046	2.245272	0.000303	3.030031	0.513301	-0.000030
1579	1.5701e+02	4.2937	2.209833	0.000356	3.562333	0.603476	-0.000036
1580	1.5711e+02	4.2854	2.179283	0.000307	3.070977	0.520238	-0.000031
1581	1.5721e+02	4.2747	2.143029	0.000364	3.644226	0.617349	-0.000036
1582	1.5731e+02	4.2638	2.110442	0.000328	3.275709	0.554920	-0.000033
1583	1.5741e+02	4.2559	2.076225	0.000344	3.439494	0.582666	-0.000034
1584	1.5751e+02	4.2432	2.047711	0.000287	2.866245	0.485555	-0.000029
1585	1.5761e+02	4.2352	2.013494	0.000344	3.439494	0.582666	-0.000034
1586	1.5771e+02	4.2245	1.981314	0.000323	3.234763	0.547984	-0.000032
1587	1.5781e+02	4.2135	1.946283	0.000352	3.521387	0.596539	-0.000035
1588	1.5791e+02	4.2062	1.913288	0.000332	3.316655	0.561857	-0.000033
1589	1.5801e+02	4.1933	1.880701	0.000328	3.275709	0.554920	-0.000033
1590	1.5811e+02	4.1853	1.845669	0.000352	3.521387	0.596539	-0.000035
1591	1.5821e+02	4.1763	1.812674	0.000332	3.316655	0.561857	-0.000033
1592	1.5830e+02	4.1666	1.773569	0.000393	3.930851	0.665904	-0.000039
1593	1.5840e+02	4.1552	1.741797	0.000319	3.193816	0.541047	-0.000032
1594	1.5850e+02	4.1452	1.703099	0.000389	3.889904	0.658968	-0.000039
1595	1.5860e+02	4.1348	1.664402	0.000389	3.889904	0.658968	-0.000039
1596	1.5870e+02	4.1245	1.630185	0.000344	3.439494	0.582666	-0.000034
1597	1.5880e+02	4.1149	1.592709	0.000377	3.767065	0.638158	-0.000038
1598	1.5890e+02	4.1045	1.558493	0.000344	3.439494	0.582666	-0.000034
1599	1.5900e+02	4.0937	1.521832	0.000369	3.685173	0.624285	-0.000037
1600	1.5910e+02	4.0852	1.484356	0.000377	3.767065	0.638158	-0.000038
1601	1.5920e+02	4.0742	1.448103	0.000364	3.644226	0.617349	-0.000036
1602	1.5930e+02	4.0639	1.410627	0.000377	3.767065	0.638158	-0.000038
1603	1.5940e+02	4.0556	1.376410	0.000344	3.439494	0.582666	-0.000034
1604	1.5950e+02	4.0450	1.335676	0.000409	4.094636	0.693650	-0.000041
1605	1.5960e+02	4.0374	1.300237	0.000356	3.562333	0.603476	-0.000036
1606	1.5970e+02	4.0273	1.262762	0.000377	3.767065	0.638158	-0.000038
1607	1.5980e+02	4.0163	1.226101	0.000369	3.685173	0.624285	-0.000037
1608	1.5990e+02	4.0072	1.184552	0.000418	4.176529	0.707523	-0.000042
1609	1.6000e+02	3.9938	1.150335	0.000344	3.439494	0.582666	-0.000034
1610	1.6010e+02	3.9848	1.115304	0.000352	3.521387	0.596539	-0.000035
1611	1.6019e+02	3.9754	1.080680	0.000348	3.480441	0.589603	-0.000035
1612	1.6029e+02	3.9649	1.044019	0.000369	3.685173	0.624285	-0.000037
1613	1.6039e+02	3.9584	1.011839	0.000323	3.234763	0.547984	-0.000032
1614	1.6049e+02	3.9462	0.978029	0.000340	3.398548	0.575730	-0.000034
1615	1.6059e+02	3.9353	0.941369	0.000369	3.685173	0.624285	-0.000037
1616	1.6069e+02	3.9263	0.908781	0.000328	3.275709	0.554920	-0.000033
1617	1.6079e+02	3.9155	0.877416	0.000315	3.152870	0.534111	-0.000032
1618	1.6089e+02	3.9068	0.847680	0.000299	2.989084	0.506365	-0.000030
1619	1.6099e+02	3.8937	0.810612	0.000373	3.726119	0.631222	-0.000037
1620	1.6109e+02	3.8882	0.777617	0.000332	3.316655	0.561857	-0.000033
1621	1.6119e+02	3.8767	0.745030	0.000328	3.275709	0.554920	-0.000033
1622	1.6129e+02	3.8647	0.709591	0.000356	3.562333	0.603476	-0.000036
1623	1.6139e+02	3.8589	0.679447	0.000303	3.030031	0.513301	-0.000030
1624	1.6149e+02	3.8461	0.645638	0.000340	3.398548	0.575730	-0.000034
1625	1.6159e+02	3.8345	0.613458	0.000323	3.234763	0.547984	-0.000032
1626	1.6169e+02	3.8254	0.584944	0.000287	2.866245	0.485555	-0.000029
1627	1.6179e+02	3.8153	0.549098	0.000360	3.603280	0.610412	-0.000036
1628	1.6189e+02	3.8062	0.518547	0.000307	3.070977	0.520238	-0.000031
1629	1.6199e+02	3.7949	0.482701	0.000360	3.603280	0.610412	-0.000036
1630	1.6209e+02	3.7884	0.453372	0.000295	2.948138	0.499428	-0.000029
1631	1.6219e+02	3.7751	0.422414	0.000311	3.111923	0.527174	-0.000031
1632	1.6228e+02	3.7670	0.388197	0.000344	3.439494	0.582666	-0.000034
1633	1.6238e+02	3.7589	0.358054	0.000303	3.030031	0.513301	-0.000030
1634	1.6248e+02	3.7469	0.323837	0.000344	3.439494	0.582666	-0.000034
1635	1.6258e+02	3.7355	0.291250	0.000328	3.275709	0.554920	-0.000033
1636	1.6268e+02	3.7274	0.261107	0.000303	3.030031	0.513301	-0.000030
1637	1.6278e+02	3.7160	0.226075	0.000352	3.521387	0.596539	-0.000035
1638	1.6288e+02	3.7057	0.198376	0.000278	2.784353	0.471682	-0.000028
1639	1.6298e+02	3.6984	0.162122	0.000364	3.644226	0.617349	-0.000036
1640	1.6308e+02	3.6896	0.133201	0.000291	2.907192	0.492492	-0.000029
1641	1.6318e+02	3.6801	0.098984	0.000344	3.439494	0.582666	-0.000034
1642	1.6328e+02	3.6703	0.066804	0.000323	3.234763	0.547984	-0.000032
1643	1.6338e+02	3.6564	0.035846	0.000311	3.111923	0.527174	-0.000031
1644	1.6348e+02	3.6469	0.006110	0.000299	2.989084	0.506365	-0.000030
1645	1.6358e+02	3.6384	-0.026477	0.000328	3.275709	0.554920	-0.000033
1646	1.6368e+02	3.6265	-0.057843	0.000315	3.152870	0.534111	-0.000032
1647	1.6378e+02	3.6163	-0.088393	0.000307	3.070977	0.520238	-0.000031
1648	1.6388e+02	3.6074	-0.116500	0.000283	2.825299	0.478619	-0.000028
1649	1.6398e+02	3.5986	-0.148273	0.000319	3.193816	0.541047	-0.000032
1650	1.6408e+02	3.5867	-0.185341	0.000373	3.726119	0.631222	-0.000037
1651	1.6418e+02	3.5772	-0.213855	0.000287	2.866245	0.485555	-0.000029
1652	1.6427e+02	3.5664	-0.245628	0.000319	3.193816	0.541047	-0.000032
1653	1.6437e+02	3.5599	-0.277400	0.000319	3.193816	0.541047	-0.000032
1654	1.6447e+02	3.5471	-0.310395	0.000332	3.316655	0.561857	-0.000033
1655	1.6457e+02	3.5375	-0.342168	0.000319	3.193816	0.541047	-0.000032
1656	1.6467e+02	3.5284	-0.375570	0.000336	3.357602	0.568793	-0.000034
1657	1.6477e+02	3.5178	-0.405306	0.000299	2.989084	0.506365	-0.000030
1658	1.6487e+02	3.5085	-0.434635	0.000295	2.948138	0.499428	-0.000029
1659	1.6497e+02	3.4984	-0.469666	0.000352	3.521387	0.596539	-0.000035
1660	1.6507e+02	3.4873	-0.501439	0.000319	3.193816	0.541047	-0.000032
1661	1.6517e+02	3.4773	-0.529545	0.000283	2.825299	0.478619	-0.000028
1662	1.6527e+02	3.4667	-0.560096	0.000307	3.070977	0.520238	-0.000031
1663	1.6537e+02	3.4577	-0.597979	0.000381	3.808012	0.645095	-0.000038
1664	1.6547e+02	3.4471	-0.623641	0.000258	2.579621	0.437000	-0.000026
1665	1.6557e+02	3.4380	-0.657858	0.000344	3.439494	0.582666	-0.000034
1666	1.6567e+02	3.4270	-0.691260	0.000336	3.357602	0.568793	-0.000034
1667	1.6577e+02	3.4213	-0.721811	0.000307	3.070977	0.520238	-0.000031
1668	1.6587e+02	3.4087	-0.756435	0.000348	3.480441	0.589603	-0.000035
1669	1.6597e+02	3.4000	-0.785764	0.000295	2.948138	0.499428	-0.000029
1670	1.6607e+02	3.3877	-0.818759	0.000332	3.316655	0.561857	-0.000033
1671	1.6616e+02	3.3775	-0.852161	0.000336	3.357602	0.568793	-0.000034
1672	1.6626e+02	3.3665	-0.881489	0.000295	2.948138	0.499428	-0.000029
1673	1.6636e+02	3.3570	-0.914484	0.000332	3.316655	0.561857	-0.000033
1674	1.6646e+02	3.3502	-0.942998	0.000287	2.866245	0.485555	-0.000029
1675	1.6656e+02	3.3385	-0.975178	0.000323	3.234763	0.547984	-0.000032
1676	1.6666e+02	3.3280	-1.004507	0.000295	2.948138	0.499428	-0.000029
1677	1.6676e+02	3.3172	-1.032206	0.000278	2.784353	0.471682	-0.000028
1678	1.6686e+02	3.3096	-1.063164	0.000311	3.111923	0.527174	-0.000031
1679	1.6696e+02	3.3002	-1.091678	0.000287	2.866245	0.485555	-0.000029
1680	1.6706e+02	3.2873	-1.122636	0.000311	3.111923	0.527174	-0.000031
1681	1.6716e+02	3.2811	-1.152779	0.000303	3.030031	0.513301	-0.000030
1682	1.6726e+02	3.2688	-1.180479	0.000278	2.784353	0.471682	-0.000028
1683	1.6736e+02	3.2582	-1.210215	0.000299	2.989084	0.506365	-0.000030
1684	1.6746e+02	3.2495	-1.237914	0.000278	2.784353	0.471682	-0.000028
1685	1.6756e+02	3.2398	-1.268872	0.000311	3.111923	0.527174	-0.000031
1686	1.6766e+02	3.2313	-1.294127	0.000254	2.538674	0.430063	-0.000025
1687	1.6776e+02	3.2204	-1.325900	0.000319	3.193816	0.541047	-0.000032
1688	1.6786e+02	3.2095	-1.351155	0.000254	2.538674	0.430063	-0.000025
1689	1.6796e+02	3.2026	-1.379669	0.000287	2.866245	0.485555	-0.000029
1690	1.6806e+02	3.1901	-1.411849	0.000323	3.234763	0.547984	-0.000032
1691	1.6816e+02	3.1816	-1.438734	0.000270	2.702460	0.457809	-0.000027
1692	1.6825e+02	3.1687	-1.467655	0.000291	2.907192	0.492492	-0.000029
1693	1.6835e+02	3.1608	-1.498613	0.000311	3.111923	0.527174	-0.000031
1694	1.6845e+02	3.1482	-1.528757	0.000303	3.030031	0.513301	-0.000030
1695	1.6855e+02	3.1387	-1.561344	0.000328	3.275709	0.554920	-0.000033
1696	1.6865e+02	3.1322	-1.591895	0.000307	3.070977	0.520238	-0.000031
1697	1.6875e+02	3.1190	-1.625297	0.000336	3.357602	0.568793	-0.000034
1698	1.6885e+02	3.1101	-1.652996	0.000278	2.784353	0.471682	-0.000028
1699	1.6895e+02	3.1004	-1.689657	0.000369	3.685173	0.624285	-0.000037
1700	1.6905e+02	3.0895	-1.723059	0.000336	3.357602	0.568793	-0.000034
1701	1.6915e+02	3.0801	-1.757683	0.000348	3.480441	0.589603	-0.000035
1702	1.6925e+02	3.0698	-1.792715	0.000352	3.521387	0.596539	-0.000035
1703	1.6935e+02	3.0589	-1.826524	0.000340	3.398548	0.575730	-0.000034
1704	1.6945e+02	3.0492	-1.860333	0.000340	3.398548	0.575730	-0.000034
1705	1.6955e+02	3.0430	-1.895365	0.000352	3.521387	0.596539	-0.000035
1706	1.6965e+02	3.0288	-1.926730	0.000315	3.152870	0.534111	-0.000032
1707	1.6975e+02	3.0202	-1.961354	0.000348	3.480441	0.589603	-0.000035
1708	1.6985e+02	3.0089	-1.994349	0.000332	3.316655	0.561857	-0.000033
1709	1.6995e+02	3.0007	-2.030603	0.000364	3.644226	0.617349	-0.000036
1710	1.7005e+02	2.9915	-2.068078	0.000377	3.767065	0.638158	-0.000038
1711	1.7015e+02	2.9845	-2.103110	0.000352	3.521387	0.596539	-0.000035
1712	1.7024e+02	2.9702	-2.135697	0.000328	3.275709	0.554920	-0.000033
1713	1.7034e+02	2.9613	-2.169099	0.000336	3.357602	0.568793	-0.000034
1714	1.7044e+02	2.9519	-2.206167	0.000373	3.726119	0.631222	-0.000037
1715	1.7054e+02	2.9411	-2.242828	0.000369	3.685173	0.624285	-0.000037
1716	1.7064e+02	2.9317	-2.279082	0.000364	3.644226	0.617349	-0.000036
1717	1.7074e+02	2.9195	-2.312891	0.000340	3.398548	0.575730	-0.000034
1718	1.7084e+02	2.9110	-2.350774	0.000381	3.808012	0.645095	-0.000038
1719	1.7094e+02	2.8984	-2.383769	0.000332	3.316655	0.561857	-0.000033
1720	1.7104e+02	2.8942	-2.419615	0.000360	3.603280	0.610412	-0.000036
1721	1.7114e+02	2.8817	-2.457090	0.000377	3.767065	0.638158	-0.000038
1722	1.7124e+02	2.8703	-2.490900	0.000340	3.398548	0.575730	-0.000034
1723	1.7134e+02	2.8622	-2.526339	0.000356	3.562333	0.603476	-0.000036
1724	1.7144e+02	2.8522	-2.562999	0.000369	3.685173	0.624285	-0.000037
1725	1.7154e+02	2.8403	-2.602512	0.000397	3.971797	0.672841	-0.000040
1726	1.7164e+02	2.8301	-2.631840	0.000295	2.948138	0.499428	-0.000029
1727	1.7174e+02	2.8213	-2.671352	0.000397	3.971797	0.672841	-0.000040
1728	1.7184e+02	2.8115	-2.709235	0.000381	3.808012	0.645095	-0.000038
1729	1.7194e+02	2.8018	-2.744674	0.000356	3.562333	0.603476	-0.000036
1730	1.7204e+02	2.7889	-2.783372	0.000389	3.889904	0.658968	-0.000039
1731	1.7213e+02	2.7840	-2.820032	0.000369	3.685173	0.624285	-0.000037
1732	1.7223e+02	2.7719	-2.857508	0.000377	3.767065	0.638158	-0.000038
1733	1.7233e+02	2.7647	-2.893354	0.000360	3.603280	0.610412	-0.000036
1734	1.7243e+02	2.7518	-2.934088	0.000409	4.094636	0.693650	-0.000041
1735	1.7253e+02	2.7416	-2.971564	0.000377	3.767065	0.638158	-0.000038
1736	1.7263e+02	2.7306	-3.006188	0.000348	3.480441	0.589603	-0.000035
1737	1.7273e+02	2.7215	-3.043664	0.000377	3.767065	0.638158	-0.000038
1738	1.7283e+02	2.7129	-3.081954	0.000385	3.848958	0.652031	-0.000038
1739	1.7293e+02	2.7028	-3.115763	0.000340	3.398548	0.575730	-0.000034
1740	1.7303e+02	2.6936	-3.155275	0.000397	3.971797	0.672841	-0.000040
1741	1.7313e+02	2.6813	-3.193566	0.000385	3.848958	0.652031	-0.000038
1742	1.7323e+02	2.6733	-3.231856	0.000385	3.848958	0.652031	-0.000038
1743	1.7333e+02	2.6628	-3.268109	0.000364	3.644226	0.617349	-0.000036
1744	1.7343e+02	2.6536	-3.308844	0.000409	4.094636	0.693650	-0.000041
1745	1.7353e+02	2.6418	-3.345097	0.000364	3.644226	0.617349	-0.000036
1746	1.7363e+02	2.6334	-3.380536	0.000356	3.562333	0.603476	-0.000036
1747	1.7373e+02	2.6210	-3.421677	0.000414	4.135582	0.700587	-0.000041
1748	1.7383e+02	2.6144	-3.457931	0.000364	3.644226	0.617349	-0.000036
1749	1.7393e+02	2.6012	-3.495814	0.000381	3.808012	0.645095	-0.000038
1750	1.7403e+02	2.5935	-3.534104	0.000385	3.848958	0.652031	-0.000038
1751	1.7413e+02	2.5821	-3.571579	0.000377	3.767065	0.638158	-0.000038
1752	1.7422e+02	2.5713	-3.608648	0.000373	3.726119	0.631222	-0.000037
1753	1.7432e+02	2.5640	-3.644901	0.000364	3.644226	0.617349	-0.000036
1754	1.7442e+02	2.5551	-3.683191	0.000385	3.848958	0.652031	-0.000038
1755	1.7452e+02	2.5454	-3.723518	0.000405	4.053690	0.686714	-0.000041
1756	1.7462e+02	2.5326	-3.760179	0.000369	3.685173	0.624285	-0.000037
1757	1.7472e+02	2.5230	-3.798469	0.000385	3.848958	0.652031	-0.000038
1758	1.7482e+02	2.5124	-3.839204	0.000409	4.094636	0.693650	-0.000041
1759	1.7492e+02	2.5027	-3.878716	0.000397	3.971797	0.672841	-0.000040
1760	1.7502e+02	2.4964	-3.916191	0.000377	3.767065	0.638158	-0.000038
1761	1.7512e+02	2.4828	-3.959777	0.000438	4.381261	0.742206	-0.000044
1762	1.7522e+02	2.4711	-4.000919	0.000414	4.135582	0.700587	-0.000041
1763	1.7532e+02	2.4648	-4.040838	0.000401	4.012743	0.679777	-0.000040
1764	1.7542e+02	2.4545	-4.085238	0.000446	4.463153	0.756079	-0.000045
1765	1.7552e+02	2.4454	-4.125973	0.000409	4.094636	0.693650	-0.000041
1766	1.7562e+02	2.4351	-4.168336	0.000426	4.258422	0.721396	-0.000043
1767	1.7572e+02	2.4258	-4.204997	0.000369	3.685173	0.624285	-0.000037
1768	1.7582e+02	2.4139	-4.249805	0.000450	4.504100	0.763015	-0.000045
1769	1.7592e+02	2.4046	-4.293798	0.000442	4.422207	0.749142	-0.000044
1770	1.7602e+02	2.3969	-4.333717	0.000401	4.012743	0.679777	-0.000040
1771	1.7612e+02	2.3845	-4.377303	0.000438	4.381261	0.742206	-0.000044
1772	1.7621e+02	2.3750	-4.418037	0.000409	4.094636	0.693650	-0.000041
1773	1.7631e+02	2.3647	-4.461216	0.000434	4.340314	0.735269	-0.000043
1774	1.7641e+02	2.3563	-4.501950	0.000409	4.094636	0.693650	-0.000041
1775	1.7651e+02	2.3435	-4.545128	0.000434	4.340314	0.735269	-0.000043
1776	1.7661e+02	2.3340	-4.586270	0.000414	4.135582	0.700587	-0.000041
1777	1.7671e+02	2.3214	-4.627411	0.000414	4.135582	0.700587	-0.000041
1778	1.7681e+02	2.3134	-4.669368	0.000422	4.217475	0.714460	-0.000042
1779	1.7691e+02	2.3055	-4.707251	0.000381	3.808012	0.645095	-0.000038
1780	1.7701e+02	2.2958	-4.749207	0.000422	4.217475	0.714460	-0.000042
1781	1.7711e+02	2.2855	-4.785868	0.000369	3.685173	0.624285	-0.000037
1782	1.7721e+02	2.2744	-4.828231	0.000426	4.258422	0.721396	-0.000043
1783	1.7731e+02	2.2639	-4.866114	0.000381	3.808012	0.645095	-0.000038
1784	1.7741e+02	2.2549	-4.902775	0.000369	3.685173	0.624285	-0.000037
1785	1.7751e+02	2.2455	-4.942287	0.000397	3.971797	0.672841	-0.000040
1786	1.7761e+02	2.2308	-4.978133	0.000360	3.603280	0.610412	-0.000036
1787	1.7771e+02	2.2242	-5.018868	0.000409	4.094636	0.693650	-0.000041
1788	1.7781e+02	2.2146	-5.054306	0.000356	3.562333	0.603476	-0.000036
1789	1.7791e+02	2.2040	-5.094226	0.000401	4.012743	0.679777	-0.000040
1790	1.7801e+02	2.1962	-5.132923	0.000389	3.889904	0.658968	-0.000039
1791	1.7810e+02	2.1841	-5.167140	0.000344	3.439494	0.582666	-0.000034
1792	1.7820e+02	2.1753	-5.206652	0.000397	3.971797	0.672841	-0.000040
1793	1.7830e+02	2.1658	-5.245350	0.000389	3.889904	0.658968	-0.000039
1794	1.7840e+02	2.1545	-5.282826	0.000377	3.767065	0.638158	-0.000038
1795	1.7850e+02	2.1464	-5.319486	0.000369	3.685173	0.624285	-0.000037
1796	1.7860e+02	2.1352	-5.359406	0.000401	4.012743	0.679777	-0.000040
1797	1.7870e+02	2.1259	-5.394437	0.000352	3.521387	0.596539	-0.000035
1798	1.7880e+02	2.1133	-5.429062	0.000348	3.480441	0.589603	-0.000035
1799	1.7890e+02	2.1041	-5.471018	0.000422	4.217475	0.714460	-0.000042
1800	1.7900e+02	2.0954	-5.511345	0.000405	4.053690	0.686714	-0.000041
1801	1.7910e+02	2.0858	-5.542710	0.000315	3.152870	0.534111	-0.000032
1802	1.7920e+02	2.0751	-5.584259	0.000418	4.176529	0.707523	-0.000042
1803	1.7930e+02	2.0638	-5.621735	0.000377	3.767065	0.638158	-0.000038
1804	1.7940e+02	2.0576	-5.659617	0.000381	3.808012	0.645095	-0.000038
1805	1.7950e+02	2.0473	-5.697093	0.000377	3.767065	0.638158	-0.000038
1806	1.7960e+02	2.0367	-5.735383	0.000385	3.848958	0.652031	-0.000038
1807	1.7970e+02	2.0267	-5.771229	0.000360	3.603280	0.610412	-0.000036
1808	1.7980e+02	2.0162	-5.808705	0.000377	3.767065	0.638158	-0.000038
1809	1.7990e+02	2.0044	-5.843736	0.000352	3.521387	0.596539	-0.000035
1810	1.8000e+02	1.9958	-5.881619	0.000381	3.808012	0.645095	-0.000038
1811	1.8009e+02	1.9846	-5.921539	0.000401	4.012743	0.679777	-0.000040
1812	1.8019e+02	1.9769	-5.957385	0.000360	3.603280	0.610412	-0.000036
1813	1.8029e+02	1.9667	-5.995675	0.000385	3.848958	0.652031	-0.000038
1814	1.8039e+02	1.9561	-6.031521	0.000360	3.603280	0.610412	-0.000036
1815	1.8049e+02	1.9457	-6.067775	0.000364	3.644226	0.617349	-0.000036
1816	1.8059e+02	1.9339	-6.100769	0.000332	3.316655	0.561857	-0.000033
1817	1.8069e+02	1.9244	-6.141504	0.000409	4.094636	0.693650	-0.000041
1818	1.8079e+02	1.9166	-6.177350	0.000360	3.603280	0.610412	-0.000036
1819	1.8089e+02	1.9052	-6.215233	0.000381	3.808012	0.645095	-0.000038
1820	1.8099e+02	1.8987	-6.248635	0.000336	3.357602	0.568793	-0.000034
1821	1.8109e+02	1.8867	-6.285296	0.000369	3.685173	0.624285	-0.000037
1822	1.8119e+02	1.8745	-6.322771	0.000377	3.767065	0.638158	-0.000038
1823	1.8129e+02	1.8652	-6.363505	0.000409	4.094636	0.693650	-0.000041
1824	1.8139e+02	1.8571	-6.400981	0.000377	3.767065	0.638158	-0.000038
1825	1.8149e+02	1.8443	-6.440900	0.000401	4.012743	0.679777	-0.000040
1826	1.8159e+02	1.8361	-6.473895	0.000332	3.316655	0.561857	-0.000033
1827	1.8169e+02	1.8282	-6.512185	0.000385	3.848958	0.652031	-0.000038
1828	1.8179e+02	1.8166	-6.545995	0.000340	3.398548	0.575730	-0.000034
1829	1.8189e+02	1.8060	-6.587136	0.000414	4.135582	0.700587	-0.000041
1830	1.8199e+02	1.7943	-6.623797	0.000369	3.685173	0.624285	-0.000037
1831	1.8209e+02	1.7867	-6.661680	0.000381	3.808012	0.645095	-0.000038
1832	1.8218e+02	1.7734	-6.698341	0.000369	3.685173	0.624285	-0.000037
1833	1.8228e+02	1.7661	-6.737038	0.000389	3.889904	0.658968	-0.000039
1834	1.8238e+02	1.7535	-6.772477	0.000356	3.562333	0.603476	-0.000036
1835	1.8248e+02	1.7458	-6.811175	0.000389	3.889904	0.658968	-0.000039
1836	1.8258e+02	1.7352	-6.848243	0.000373	3.726119	0.631222	-0.000037
1837	1.8268e+02	1.7260	-6.884089	0.000360	3.603280	0.610412	-0.000036
1838	1.8278e+02	1.7204	-6.924416	0.000405	4.053690	0.686714	-0.000041
1839	1.8288e+02	1.7077	-6.959447	0.000352	3.521387	0.596539	-0.000035
1840	1.8298e+02	1.6976	-6.998960	0.000397	3.971797	0.672841	-0.000040
1841	1.8308e+02	1.6862	-7.035621	0.000369	3.685173	0.624285	-0.000037
1842	1.8318e+02	1.6767	-7.071467	0.000360	3.603280	0.610412	-0.000036
1843	1.8328e+02	1.6669	-7.107720	0.000364	3.644226	0.617349	-0.000036
1844	1.8338e+02	1.6570	-7.141122	0.000336	3.357602	0.568793	-0.000034
1845	1.8348e+02	1.6483	-7.178598	0.000377	3.767065	0.638158	-0.000038
1846	1.8358e+02	1.6393	-7.214037	0.000356	3.562333	0.603476	-0.000036
1847	1.8368e+02	1.6270	-7.248253	0.000344	3.439494	0.582666	-0.000034
1848	1.8378e+02	1.6164	-7.281655	0.000336	3.357602	0.568793	-0.000034
1849	1.8388e+02	1.6051	-7.317094	0.000356	3.562333	0.603476	-0.000036
1850	1.8398e+02	1.5936	-7.352940	0.000360	3.603280	0.610412	-0.000036
1851	1.8407e+02	1.5877	-7.385120	0.000323	3.234763	0.547984	-0.000032
1852	1.8417e+02	1.5794	-7.419745	0.000348	3.480441	0.589603	-0.000035
1853	1.8427e+02	1.5669	-7.454369	0.000348	3.480441	0.589603	-0.000035
1854	1.8437e+02	1.5596	-7.491437	0.000373	3.726119	0.631222	-0.000037
1855	1.8447e+02	1.5499	-7.525654	0.000344	3.439494	0.582666	-0.000034
1856	1.8457e+02	1.5363	-7.563536	0.000381	3.808012	0.645095	-0.000038
1857	1.8467e+02	1.5260	-7.595309	0.000319	3.193816	0.541047	-0.000032
1858	1.8477e+02	1.5160	-7.629526	0.000344	3.439494	0.582666	-0.000034
1859	1.8487e+02	1.5070	-7.666594	0.000373	3.726119	0.631222	-0.000037
1860	1.8497e+02	1.5009	-7.701626	0.000352	3.521387	0.596539	-0.000035
1861	1.8507e+02	1.4888	-7.736250	0.000348	3.480441	0.589603	-0.000035
1862	1.8517e+02	1.4782	-7.774540	0.000385	3.848958	0.652031	-0.000038
1863	1.8527e+02	1.4680	-7.812423	0.000381	3.808012	0.645095	-0.000038
1864	1.8537e+02	1.4580	-7.849491	0.000373	3.726119	0.631222	-0.000037
1865	1.8547e+02	1.4489	-7.891040	0.000418	4.176529	0.707523	-0.000042
1866	1.8557e+02	1.4375	-7.929330	0.000385	3.848958	0.652031	-0.000038
1867	1.8567e+02	1.4288	-7.964362	0.000352	3.521387	0.596539	-0.000035
1868	1.8577e+02	1.4195	-8.002244	0.000381	3.808012	0.645095	-0.000038
1869	1.8587e+02	1.4075	-8.045015	0.000430	4.299368	0.728333	-0.000043
1870	1.8597e+02	1.3976	-8.085342	0.000405	4.053690	0.686714	-0.000041
1871	1.8606e+02	1.3903	-8.128521	0.000434	4.340314	0.735269	-0.000043
1872	1.8616e+02	1.3783	-8.167218	0.000389	3.889904	0.658968	-0.000039
1873	1.8626e+02	1.3672	-8.206323	0.000393	3.930851	0.665904	-0.000039
1874	1.8636e+02	1.3596	-8.249501	0.000434	4.340314	0.735269	-0.000043
1875	1.8646e+02	1.3487	-8.289014	0.000397	3.971797	0.672841	-0.000040
1876	1.8656e+02	1.3395	-8.328526	0.000397	3.971797	0.672841	-0.000040
1877	1.8666e+02	1.3293	-8.370075	0.000418	4.176529	0.707523	-0.000042
1878	1.8676e+02	1.3207	-8.412031	0.000422	4.217475	0.714460	-0.000042
1879	1.8686e+02	1.3087	-8.451136	0.000393	3.930851	0.665904	-0.000039
1880	1.8696e+02	1.2996	-8.492685	0.000418	4.176529	0.707523	-0.000042
1881	1.8706e+02	1.2903	-8.533012	0.000405	4.053690	0.686714	-0.000041
1882	1.8716e+02	1.2783	-8.577005	0.000442	4.422207	0.749142	-0.000044
1883	1.8726e+02	1.2682	-8.616110	0.000393	3.930851	0.665904	-0.000039
1884	1.8736e+02	1.2595	-8.658473	0.000426	4.258422	0.721396	-0.000043
1885	1.8746e+02	1.2518	-8.697578	0.000393	3.930851	0.665904	-0.000039
1886	1.8756e+02	1.2385	-8.736683	0.000393	3.930851	0.665904	-0.000039
1887	1.8766e+02	1.2312	-8.784342	0.000479	4.790724	0.811571	-0.000048
1888	1.8776e+02	1.2206	-8.825891	0.000418	4.176529	0.707523	-0.000042
1889	1.8786e+02	1.2097	-8.867847	0.000422	4.217475	0.714460	-0.000042
1890	1.8796e+02	1.1997	-8.908989	0.000414	4.135582	0.700587	-0.000041
1891	1.8806e+02	1.1909	-8.950945	0.000422	4.217475	0.714460	-0.000042
1892	1.8815e+02	1.1781	-8.990865	0.000401	4.012743	0.679777	-0.000040
1893	1.8825e+02	1.1706	-9.036487	0.000459	4.585992	0.776888	-0.000046
1894	1.8835e+02	1.1613	-9.074370	0.000381	3.808012	0.645095	-0.000038
1895	1.8845e+02	1.1491	-9.118770	0.000446	4.463153	0.756079	-0.000045
1896	1.8855e+02	1.1425	-9.161134	0.000426	4.258422	0.721396	-0.000043
1897	1.8865e+02	1.1317	-9.207978	0.000471	4.708832	0.797698	-0.000047
1898	1.8875e+02	1.1191	-9.249935	0.000422	4.217475	0.714460	-0.000042
1899	1.8885e+02	1.1105	-9.295964	0.000463	4.626939	0.783825	-0.000046
1900	1.8895e+02	1.0997	-9.341587	0.000459	4.585992	0.776888	-0.000046
1901	1.8905e+02	1.0900	-9.382728	0.000414	4.135582	0.700587	-0.000041
1902	1.8915e+02	1.0804	-9.426721	0.000442	4.422207	0.749142	-0.000044
1903	1.8925e+02	1.0701	-9.475602	0.000491	4.913563	0.832380	-0.000049
1904	1.8935e+02	1.0627	-9.511449	0.000360	3.603280	0.610412	-0.000036
1905	1.8945e+02	1.0516	-9.558700	0.000475	4.749778	0.804634	-0.000047
1906	1.8955e+02	1.0424	-9.604323	0.000459	4.585992	0.776888	-0.000046
1907	1.8965e+02	1.0301	-9.646686	0.000426	4.258422	0.721396	-0.000043
1908	1.8975e+02	1.0184	-9.690679	0.000442	4.422207	0.749142	-0.000044
1909	1.8985e+02	1.0085	-9.732636	0.000422	4.217475	0.714460	-0.000042
1910	1.8995e+02	0.9999	-9.777036	0.000446	4.463153	0.756079	-0.000045
1911	1.9004e+02	0.9893	-9.821029	0.000442	4.422207	0.749142	-0.000044
1912	1.9014e+02	0.9818	-9.865837	0.000450	4.504100	0.763015	-0.000045
1913	1.9024e+02	0.9715	-9.911052	0.000455	4.545046	0.769952	-0.000045
1914	1.9034e+02	0.9588	-9.957081	0.000463	4.626939	0.783825	-0.000046
1915	1.9044e+02	0.9514	-9.997408	0.000405	4.053690	0.686714	-0.000041
1916	1.9054e+02	0.9441	-10.041809	0.000446	4.463153	0.756079	-0.000045
1917	1.9064e+02	0.9298	-10.089468	0.000479	4.790724	0.811571	-0.000048
1918	1.9074e+02	0.9207	-10.132239	0.000430	4.299368	0.728333	-0.000043
1919	1.9084e+02	0.9110	-10.173788	0.000418	4.176529	0.707523	-0.000042
1920	1.9094e+02	0.9011	-10.223076	0.000495	4.954510	0.839317	-0.000050
1921	1.9104e+02	0.8908	-10.267476	0.000446	4.463153	0.756079	-0.000045
1922	1.9114e+02	0.8765	-10.308618	0.000414	4.135582	0.700587	-0.000041
1923	1.9124e+02	0.8721	-10.355055	0.000467	4.667885	0.790761	-0.000047
1924	1.9134e+02	0.8578	-10.399455	0.000446	4.463153	0.756079	-0.000045
1925	1.9144e+02	0.8519	-10.442226	0.000430	4.299368	0.728333	-0.000043
1926	1.9154e+02	0.8412	-10.490700	0.000487	4.872617	0.825444	-0.000049
1927	1.9164e+02	0.8318	-10.540396	0.000500	4.995456	0.846253	-0.000050
1928	1.9174e+02	0.8208	-10.588055	0.000479	4.790724	0.811571	-0.000048
1929	1.9184e+02	0.8121	-10.634899	0.000471	4.708832	0.797698	-0.000047
1930	1.9194e+02	0.8027	-10.680522	0.000459	4.585992	0.776888	-0.000046
1931	1.9203e+02	0.7903	-10.729810	0.000495	4.954510	0.839317	-0.000050
1932	1.9213e+02	0.7817	-10.779099	0.000495	4.954510	0.839317	-0.000050
1933	1.9223e+02	0.7719	-10.827980	0.000491	4.913563	0.832380	-0.000049
1934	1.9233e+02	0.7657	-10.874009	0.000463	4.626939	0.783825	-0.000046
1935	1.9243e+02	0.7526	-10.927371	0.000536	5.363973	0.908682	-0.000054
1936	1.9253e+02	0.7418	-10.972586	0.000455	4.545046	0.769952	-0.000045
1937	1.9263e+02	0.7331	-11.018616	0.000463	4.626939	0.783825	-0.000046
1938	1.9273e+02	0.7215	-11.071571	0.000532	5.323027	0.901745	-0.000053
1939	1.9283e+02	0.7142	-11.113934	0.000426	4.258422	0.721396	-0.000043
1940	1.9293e+02	0.7061	-11.168925	0.000553	5.527759	0.936428	-0.000055
1941	1.9303e+02	0.6924	-11.217807	0.000491	4.913563	0.832380	-0.000049
1942	1.9313e+02	0.6816	-11.265466	0.000479	4.790724	0.811571	-0.000048
1943	1.9323e+02	0.6731	-11.318827	0.000536	5.363973	0.908682	-0.000054
1944	1.9333e+02	0.6603	-11.361191	0.000426	4.258422	0.721396	-0.000043
1945	1.9343e+02	0.6510	-11.413331	0.000524	5.241134	0.887872	-0.000052
1946	1.9353e+02	0.6451	-11.456917	0.000438	4.381261	0.742206	-0.000044
1947	1.9363e+02	0.6321	-11.502946	0.000463	4.626939	0.783825	-0.000046
1948	1.9373e+02	0.6207	-11.553864	0.000512	5.118295	0.867063	-0.000051
1949	1.9383e+02	0.6133	-11.598264	0.000446	4.463153	0.756079	-0.000045
1950	1.9393e+02	0.6026	-11.645516	0.000475	4.749778	0.804634	-0.000047
1951	1.9403e+02	0.5915	-11.688695	0.000434	4.340314	0.735269	-0.000043
1952	1.9412e+02	0.5849	-11.733502	0.000450	4.504100	0.763015	-0.000045
1953	1.9422e+02	0.5718	-11.778310	0.000450	4.504100	0.763015	-0.000045
1954	1.9432e+02	0.5622	-11.826784	0.000487	4.872617	0.825444	-0.000049
1955	1.9442e+02	0.5537	-11.871591	0.000450	4.504100	0.763015	-0.000045
1956	1.9452e+02	0.5453	-11.912326	0.000409	4.094636	0.693650	-0.000041
1957	1.9462e+02	0.5325	-11.957133	0.000450	4.504100	0.763015	-0.000045
1958	1.9472e+02	0.5201	-12.003978	0.000471	4.708832	0.797698	-0.000047
1959	1.9482e+02	0.5123	-12.051637	0.000479	4.790724	0.811571	-0.000048
1960	1.9492e+02	0.5019	-12.095630	0.000442	4.422207	0.749142	-0.000044
1961	1.9502e+02	0.4938	-12.138401	0.000430	4.299368	0.728333	-0.000043
1962	1.9512e+02	0.4834	-12.183616	0.000455	4.545046	0.769952	-0.000045
1963	1.9522e+02	0.4745	-12.226387	0.000430	4.299368	0.728333	-0.000043
1964	1.9532e+02	0.4619	-12.271602	0.000455	4.545046	0.769952	-0.000045
1965	1.9542e+02	0.4507	-12.320075	0.000487	4.872617	0.825444	-0.000049
1966	1.9552e+02	0.4439	-12.364476	0.000446	4.463153	0.756079	-0.000045
1967	1.9562e+02	0.4327	-12.406025	0.000418	4.176529	0.707523	-0.000042
1968	1.9572e+02	0.4216	-12.454906	0.000491	4.913563	0.832380	-0.000049
1969	1.9582e+02	0.4130	-12.495233	0.000405	4.053690	0.686714	-0.000041
1970	1.9592e+02	0.4082	-12.541670	0.000467	4.667885	0.790761	-0.000047
1971	1.9601e+02	0.3960	-12.587700	0.000463	4.626939	0.783825	-0.000046
1972	1.9611e+02	0.3819	-12.629656	0.000422	4.217475	0.714460	-0.000042
1973	1.9621e+02	0.3730	-12.675278	0.000459	4.585992	0.776888	-0.000046
1974	1.9631e+02	0.3651	-12.717234	0.000422	4.217475	0.714460	-0.000042
1975	1.9641e+02	0.3524	-12.764894	0.000479	4.790724	0.811571	-0.000048
1976	1.9651e+02	0.3439	-12.807257	0.000426	4.258422	0.721396	-0.000043
1977	1.9661e+02	0.3334	-12.852880	0.000459	4.585992	0.776888	-0.000046
1978	1.9671e+02	0.3237	-12.899317	0.000467	4.667885	0.790761	-0.000047
1979	1.9681e+02	0.3170	-12.944124	0.000450	4.504100	0.763015	-0.000045
1980	1.9691e+02	0.3039	-12.988117	0.000442	4.422207	0.749142	-0.000044
1981	1.9701e+02	0.2936	-13.027222	0.000393	3.930851	0.665904	-0.000039
1982	1.9711e+02	0.2857	-13.073659	0.000467	4.667885	0.790761	-0.000047
1983	1.9721e+02	0.2719	-13.116838	0.000434	4.340314	0.735269	-0.000043
1984	1.9731e+02	0.2647	-13.158794	0.000422	4.217475	0.714460	-0.000042
1985	1.9741e+02	0.2513	-13.204416	0.000459	4.585992	0.776888	-0.000046
1986	1.9751e+02	0.2436	-13.248002	0.000438	4.381261	0.742206	-0.000044
1987	1.9761e+02	0.2366	-13.290365	0.000426	4.258422	0.721396	-0.000043
1988	1.9771e+02	0.2254	-13.339654	0.000495	4.954510	0.839317	-0.000050
1989	1.9781e+02	0.2129	-13.380795	0.000414	4.135582	0.700587	-0.000041
1990	1.9791e+02	0.2051	-13.427233	0.000467	4.667885	0.790761	-0.000047
1991	1.9800e+02	0.1953	-13.469596	0.000426	4.258422	0.721396	-0.000043
1992	1.9810e+02	0.1837	-13.512774	0.000434	4.340314	0.735269	-0.000043
1993	1.9820e+02	0.1757	-13.558804	0.000463	4.626939	0.783825	-0.000046
1994	1.9830e+02	0.1627	-13.604427	0.000459	4.585992	0.776888	-0.000046
1995	1.9840e+02	0.1558	-13.648827	0.000446	4.463153	0.756079	-0.000045
1996	1.9850e+02	0.1459	-13.695671	0.000471	4.708832	0.797698	-0.000047
1997	1.9860e+02	0.1341	-13.736813	0.000414	4.135582	0.700587	-0.000041
1998	1.9870e+02	0.1250	-13.784065	0.000475	4.749778	0.804634	-0.000047
1999	1.9880e+02	0.1151	-13.826836	0.000430	4.299368	0.728333	-0.000043
2000	1.9890e+02	0.1046	-13.876531	0.000500	4.995456	0.846253	-0.000050
2001	1.9900e+02	0.0958	-13.915636	0.000393	3.930851	0.665904	-0.000039
2002	1.9910e+02	0.0843	-13.964110	0.000487	4.872617	0.825444	-0.000049
2003	1.9920e+02	0.0746	-14.010140	0.000463	4.626939	0.783825	-0.000046
2004	1.9930e+02	0.0645	-14.054540	0.000446	4.463153	0.756079	-0.000045
2005	1.9940e+02	0.0540	-14.097718	0.000434	4.340314	0.735269	-0.000043
2006	1.9950e+02	0.0461	-14.144970	0.000475	4.749778	0.804634	-0.000047
2007	1.9960e+02	0.0368	-14.189778	0.000450	4.504100	0.763015	-0.000045
2008	1.9970e+02	0.0245	-14.230105	0.000405	4.053690	0.686714	-0.000041
2009	1.9980e+02	0.0154	-14.272876	0.000430	4.299368	0.728333	-0.000043
2010	1.9990e+02	0.0078	-14.321349	0.000487	4.872617	0.825444	-0.000049
2011	2.0000e+02	-0.0050	-14.361676	0.000487	4.872617	0.825444	-0.000041

PMax (uC/cm2):	3.31e+01
Pr (uC/cm2):	2.18e+00
-Pr (uC/cm2):	0.00e+00
PLoss (uC/cm2):	0.00e+00
C (Max-Eff) (nF):	3.31e-01
K (Eff):	5.61e+02
Vert. (+/-Pr) Shift (uC/cm2):	1.09e+00
Offset (uC/cm2):	1.65e+01

A (Loop Area - uC/cm2·Volts):	-2.12e-02



Hysteresis Version: 5.48.1 - Radiant Technologies, Inc., 1999 - 9/12/24

