»»»»»»»»»»»»»»»»»»»»»»»»»»»»»»»»»»»» Hysteresis ««««««««««««««««««««««««««««««««««««
»»»  Executed Version:	5.48.1
»»»  Vision Version:	5.48.4 (R)
»»»  Vision Compiled:	9/18/24
»»»  Driver Version:	5.47.0
»»»  Windows Version:	Windows 8 or 8.1
»»»  Processor Information:	x86 (AMD or Intel) - 32 Processors
»»»  Tester Name:	PMF21124-494 (100V)
»»»  Tester S/N:	PMF21124-494
»»»  Internal Amp Type:	100V RevK 270k
»»»  Internal Amp S/N:	iAB2-596/K     
»»»  Execution Count:	1
»»»»»»»»»»»»»»»»»»»»»»»»»»»»»»»»»»»»»»»»»»««««««««««««««««««««««««««««««««««««««««««

Stored:	6/27/2025 - 14:5:12
Configured:	06/27/25 11:23:28 AM
Executed:	06/27/25 02:04:39 PM

»»»»»»»»»»»»»»»»»»»»»»»»»»»»»»»»»»» Sample Info ««««««««««««««««««««««««««««««««««««
Sample Name:	
Lot Name:	
Wafer Name:	
Die Row/Column:	0/0
Capacitor Number:	0
Sample Area (cm2):	1.00e-04
Sample Thickness (microns):	1.50e-01

Amplifier:	Internal

»»»»»»»»»»»»»»»»»»»»»»»»»»»»»»»»»»» Tester Info «««««««««««««««««««««««««««««««««««
Tester Name:	PMF21124-494 (100V)
Tester Serial Number:	PMF21124-494
Return Signal Amp. Level:	1.9 [Index: 2]

»»»»»»»»»»»»»»»»»»»»»»»»»»»»»»»» Hysteresis Info ««««««««««««««««««««««««««««««««««
Task Name:	Hyst-1276
Volts:	10.00
Field:	666.67 (kV/cm)
DCBias:	0.00
DCField:	0.00 (kV/cm)
Hysteresis Period (ms):	2.00e+02
Preset:	Enabled
Preset Delay (ms):	1.00e+03
Profile:	Standard Monopolar

»»»»»»»»»»»»»»»»»»»»»»»»»»»»»»»»»»»»»» Data «««««««««««««««««««««««««««««««««««««««
Points:	2011

Valid Data

Point	Time (ms)	Drive Voltage	Measured Polarization (uC/cm2)	Capacitance (uF)	Normalized Capacitance (uF/cm2)	Dielectric Constant	Instantaneous Current (mA)
   1	0.0000e+00	-0.0051	-16.579860	0.000397	3.971812	0.672843	0.000040
   2	9.9500e-02	0.0044	-16.540348	0.000397	3.971812	0.672843	0.000040
   3	1.9900e-01	0.0139	-16.504909	0.000356	3.562347	0.603478	0.000036
   4	2.9850e-01	0.0256	-16.464990	0.000401	4.012759	0.679780	0.000040
   5	3.9800e-01	0.0354	-16.424663	0.000405	4.053705	0.686716	0.000041
   6	4.9750e-01	0.0457	-16.385558	0.000393	3.930866	0.665907	0.000039
   7	5.9700e-01	0.0539	-16.345231	0.000405	4.053705	0.686716	0.000041
   8	6.9650e-01	0.0650	-16.302460	0.000430	4.299384	0.728335	0.000043
   9	7.9600e-01	0.0742	-16.265392	0.000373	3.726133	0.631224	0.000037
  10	8.9550e-01	0.0845	-16.221399	0.000442	4.422224	0.749145	0.000044
  11	9.9500e-01	0.0944	-16.178220	0.000434	4.340331	0.735272	0.000043
  12	1.0945e+00	0.1041	-16.141152	0.000373	3.726133	0.631224	0.000037
  13	1.1940e+00	0.1151	-16.100418	0.000409	4.094652	0.693653	0.000041
  14	1.2935e+00	0.1245	-16.063757	0.000369	3.685187	0.624288	0.000037
  15	1.3930e+00	0.1330	-16.024652	0.000393	3.930866	0.665907	0.000039
  16	1.4925e+00	0.1474	-15.985140	0.000397	3.971812	0.672843	0.000040
  17	1.5920e+00	0.1540	-15.939925	0.000455	4.545063	0.769955	0.000045
  18	1.6915e+00	0.1646	-15.898376	0.000418	4.176545	0.707526	0.000042
  19	1.7910e+00	0.1737	-15.860901	0.000377	3.767080	0.638161	0.000038
  20	1.8905e+00	0.1832	-15.817315	0.000438	4.381277	0.742208	0.000044
  21	1.9900e+00	0.1980	-15.774951	0.000426	4.258438	0.721399	0.000043
  22	2.0895e+00	0.2027	-15.732588	0.000426	4.258438	0.721399	0.000043
  23	2.1890e+00	0.2154	-15.690224	0.000426	4.258438	0.721399	0.000043
  24	2.2885e+00	0.2218	-15.649490	0.000409	4.094652	0.693653	0.000041
  25	2.3880e+00	0.2345	-15.600609	0.000491	4.913582	0.832383	0.000049
  26	2.4875e+00	0.2478	-15.557023	0.000438	4.381277	0.742208	0.000044
  27	2.5870e+00	0.2544	-15.514252	0.000430	4.299384	0.728335	0.000043
  28	2.6865e+00	0.2650	-15.473925	0.000405	4.053705	0.686716	0.000041
  29	2.7860e+00	0.2736	-15.430747	0.000434	4.340331	0.735272	0.000043
  30	2.8855e+00	0.2823	-15.387161	0.000438	4.381277	0.742208	0.000044
  31	2.9850e+00	0.2933	-15.342354	0.000450	4.504117	0.763018	0.000045
  32	3.0845e+00	0.3037	-15.298361	0.000442	4.422224	0.749145	0.000044
  33	3.1840e+00	0.3125	-15.258848	0.000397	3.971812	0.672843	0.000040
  34	3.2835e+00	0.3218	-15.214448	0.000446	4.463170	0.756082	0.000045
  35	3.3830e+00	0.3347	-15.170455	0.000442	4.422224	0.749145	0.000044
  36	3.4825e+00	0.3468	-15.126869	0.000438	4.381277	0.742208	0.000044
  37	3.5820e+00	0.3539	-15.081247	0.000459	4.586010	0.776891	0.000046
  38	3.6815e+00	0.3648	-15.038069	0.000434	4.340331	0.735272	0.000043
  39	3.7810e+00	0.3738	-14.998149	0.000401	4.012759	0.679780	0.000040
  40	3.8805e+00	0.3831	-14.951712	0.000467	4.667903	0.790764	0.000047
  41	3.9800e+00	0.3943	-14.908126	0.000438	4.381277	0.742208	0.000044
  42	4.0795e+00	0.4017	-14.864948	0.000434	4.340331	0.735272	0.000043
  43	4.1790e+00	0.4153	-14.819733	0.000455	4.545063	0.769955	0.000045
  44	4.2785e+00	0.4227	-14.782258	0.000377	3.767080	0.638161	0.000038
  45	4.3780e+00	0.4330	-14.731340	0.000512	5.118315	0.867066	0.000051
  46	4.4775e+00	0.4420	-14.691013	0.000405	4.053705	0.686716	0.000041
  47	4.5770e+00	0.4517	-14.647834	0.000434	4.340331	0.735272	0.000043
  48	4.6765e+00	0.4621	-14.607915	0.000401	4.012759	0.679780	0.000040
  49	4.7760e+00	0.4749	-14.560663	0.000475	4.749796	0.804637	0.000047
  50	4.8755e+00	0.4856	-14.515855	0.000450	4.504117	0.763018	0.000045
  51	4.9750e+00	0.4935	-14.468604	0.000475	4.749796	0.804637	0.000047
  52	5.0745e+00	0.5041	-14.425833	0.000430	4.299384	0.728335	0.000043
  53	5.1740e+00	0.5147	-14.379803	0.000463	4.626956	0.783828	0.000046
  54	5.2735e+00	0.5238	-14.334181	0.000459	4.586010	0.776891	0.000046
  55	5.3730e+00	0.5357	-14.286522	0.000479	4.790743	0.811574	0.000048
  56	5.4725e+00	0.5435	-14.240492	0.000463	4.626956	0.783828	0.000046
  57	5.5720e+00	0.5520	-14.197314	0.000434	4.340331	0.735272	0.000043
  58	5.6715e+00	0.5635	-14.148433	0.000491	4.913582	0.832383	0.000049
  59	5.7710e+00	0.5747	-14.104440	0.000442	4.422224	0.749145	0.000044
  60	5.8705e+00	0.5831	-14.058817	0.000459	4.586010	0.776891	0.000046
  61	5.9700e+00	0.5935	-14.011973	0.000471	4.708849	0.797701	0.000047
  62	6.0695e+00	0.6030	-13.969202	0.000430	4.299384	0.728335	0.000043
  63	6.1690e+00	0.6123	-13.922765	0.000467	4.667903	0.790764	0.000047
  64	6.2685e+00	0.6227	-13.875513	0.000475	4.749796	0.804637	0.000047
  65	6.3680e+00	0.6330	-13.829891	0.000459	4.586010	0.776891	0.000046
  66	6.4675e+00	0.6413	-13.782232	0.000479	4.790743	0.811574	0.000048
  67	6.5670e+00	0.6540	-13.742312	0.000401	4.012759	0.679780	0.000040
  68	6.6665e+00	0.6634	-13.691802	0.000508	5.077368	0.860129	0.000051
  69	6.7660e+00	0.6715	-13.648216	0.000438	4.381277	0.742208	0.000044
  70	6.8655e+00	0.6804	-13.604630	0.000438	4.381277	0.742208	0.000044
  71	6.9650e+00	0.6960	-13.558193	0.000467	4.667903	0.790764	0.000047
  72	7.0645e+00	0.7010	-13.516237	0.000422	4.217491	0.714462	0.000042
  73	7.1640e+00	0.7117	-13.473466	0.000430	4.299384	0.728335	0.000043
  74	7.2635e+00	0.7224	-13.429473	0.000442	4.422224	0.749145	0.000044
  75	7.3630e+00	0.7378	-13.385887	0.000438	4.381277	0.742208	0.000044
  76	7.4625e+00	0.7445	-13.339858	0.000463	4.626956	0.783828	0.000046
  77	7.5620e+00	0.7521	-13.299938	0.000401	4.012759	0.679780	0.000040
  78	7.6615e+00	0.7613	-13.255130	0.000450	4.504117	0.763018	0.000045
  79	7.7610e+00	0.7710	-13.214803	0.000405	4.053705	0.686716	0.000041
  80	7.8605e+00	0.7807	-13.170403	0.000446	4.463170	0.756082	0.000045
  81	7.9600e+00	0.7924	-13.126410	0.000442	4.422224	0.749145	0.000044
  82	8.0595e+00	0.8032	-13.084861	0.000418	4.176545	0.707526	0.000042
  83	8.1590e+00	0.8123	-13.040868	0.000442	4.422224	0.749145	0.000044
  84	8.2585e+00	0.8231	-12.996468	0.000446	4.463170	0.756082	0.000045
  85	8.3580e+00	0.8304	-12.950031	0.000467	4.667903	0.790764	0.000047
  86	8.4575e+00	0.8419	-12.905223	0.000450	4.504117	0.763018	0.000045
  87	8.5570e+00	0.8514	-12.864489	0.000409	4.094652	0.693653	0.000041
  88	8.6565e+00	0.8603	-12.819681	0.000450	4.504117	0.763018	0.000045
  89	8.7560e+00	0.8723	-12.776095	0.000438	4.381277	0.742208	0.000044
  90	8.8555e+00	0.8806	-12.732102	0.000442	4.422224	0.749145	0.000044
  91	8.9550e+00	0.8923	-12.686887	0.000455	4.545063	0.769955	0.000045
  92	9.0545e+00	0.9019	-12.645338	0.000418	4.176545	0.707526	0.000042
  93	9.1540e+00	0.9119	-12.602160	0.000434	4.340331	0.735272	0.000043
  94	9.2535e+00	0.9198	-12.555316	0.000471	4.708849	0.797701	0.000047
  95	9.3530e+00	0.9287	-12.514174	0.000414	4.135598	0.700589	0.000041
  96	9.4525e+00	0.9386	-12.466108	0.000483	4.831689	0.818510	0.000048
  97	9.5520e+00	0.9511	-12.425374	0.000409	4.094652	0.693653	0.000041
  98	9.6515e+00	0.9618	-12.382603	0.000430	4.299384	0.728335	0.000043
  99	9.7510e+00	0.9710	-12.336166	0.000467	4.667903	0.790764	0.000047
 100	9.8505e+00	0.9813	-12.292173	0.000442	4.422224	0.749145	0.000044
 101	9.9500e+00	0.9890	-12.248587	0.000438	4.381277	0.742208	0.000044
 102	1.0050e+01	1.0006	-12.205001	0.000438	4.381277	0.742208	0.000044
 103	1.0149e+01	1.0103	-12.161008	0.000442	4.422224	0.749145	0.000044
 104	1.0248e+01	1.0197	-12.119459	0.000418	4.176545	0.707526	0.000042
 105	1.0348e+01	1.0301	-12.083206	0.000364	3.644240	0.617351	0.000036
 106	1.0447e+01	1.0414	-12.040027	0.000434	4.340331	0.735272	0.000043
 107	1.0547e+01	1.0494	-11.997664	0.000426	4.258438	0.721399	0.000043
 108	1.0646e+01	1.0628	-11.960596	0.000373	3.726133	0.631224	0.000037
 109	1.0746e+01	1.0719	-11.920676	0.000401	4.012759	0.679780	0.000040
 110	1.0845e+01	1.0806	-11.879942	0.000409	4.094652	0.693653	0.000041
 111	1.0945e+01	1.0905	-11.837171	0.000430	4.299384	0.728335	0.000043
 112	1.1044e+01	1.1014	-11.795622	0.000418	4.176545	0.707526	0.000042
 113	1.1144e+01	1.1091	-11.756517	0.000393	3.930866	0.665907	0.000039
 114	1.1243e+01	1.1170	-11.713746	0.000430	4.299384	0.728335	0.000043
 115	1.1343e+01	1.1306	-11.670975	0.000430	4.299384	0.728335	0.000043
 116	1.1443e+01	1.1386	-11.631056	0.000401	4.012759	0.679780	0.000040
 117	1.1542e+01	1.1526	-11.596431	0.000348	3.480454	0.589605	0.000035
 118	1.1642e+01	1.1597	-11.549994	0.000467	4.667903	0.790764	0.000047
 119	1.1741e+01	1.1688	-11.510889	0.000393	3.930866	0.665907	0.000039
 120	1.1841e+01	1.1801	-11.475858	0.000352	3.521400	0.596541	0.000035
 121	1.1940e+01	1.1893	-11.427792	0.000483	4.831689	0.818510	0.000048
 122	1.2040e+01	1.1988	-11.393575	0.000344	3.439507	0.582668	0.000034
 123	1.2139e+01	1.2136	-11.355692	0.000381	3.808026	0.645097	0.000038
 124	1.2239e+01	1.2177	-11.314143	0.000418	4.176545	0.707526	0.000042
 125	1.2338e+01	1.2291	-11.278297	0.000360	3.603294	0.610414	0.000036
 126	1.2438e+01	1.2405	-11.236341	0.000422	4.217491	0.714462	0.000042
 127	1.2537e+01	1.2497	-11.193977	0.000426	4.258438	0.721399	0.000043
 128	1.2636e+01	1.2589	-11.156501	0.000377	3.767080	0.638161	0.000038
 129	1.2736e+01	1.2689	-11.118211	0.000385	3.848973	0.652034	0.000038
 130	1.2835e+01	1.2817	-11.079106	0.000393	3.930866	0.665907	0.000039
 131	1.2935e+01	1.2892	-11.041631	0.000377	3.767080	0.638161	0.000038
 132	1.3034e+01	1.2977	-11.003748	0.000381	3.808026	0.645097	0.000038
 133	1.3134e+01	1.3070	-10.960570	0.000434	4.340331	0.735272	0.000043
 134	1.3233e+01	1.3201	-10.922687	0.000381	3.808026	0.645097	0.000038
 135	1.3333e+01	1.3278	-10.884397	0.000385	3.848973	0.652034	0.000038
 136	1.3432e+01	1.3401	-10.846514	0.000381	3.808026	0.645097	0.000038
 137	1.3532e+01	1.3479	-10.810668	0.000360	3.603294	0.610414	0.000036
 138	1.3632e+01	1.3596	-10.770748	0.000401	4.012759	0.679780	0.000040
 139	1.3731e+01	1.3676	-10.739790	0.000311	3.111935	0.527176	0.000031
 140	1.3831e+01	1.3764	-10.698648	0.000414	4.135598	0.700589	0.000041
 141	1.3930e+01	1.3900	-10.665246	0.000336	3.357614	0.568795	0.000034
 142	1.4030e+01	1.3975	-10.628586	0.000369	3.685187	0.624288	0.000037
 143	1.4129e+01	1.4056	-10.590295	0.000385	3.848973	0.652034	0.000038
 144	1.4229e+01	1.4199	-10.549154	0.000414	4.135598	0.700589	0.000041
 145	1.4328e+01	1.4283	-10.510864	0.000385	3.848973	0.652034	0.000038
 146	1.4428e+01	1.4390	-10.475017	0.000360	3.603294	0.610414	0.000036
 147	1.4527e+01	1.4481	-10.439986	0.000352	3.521400	0.596541	0.000035
 148	1.4627e+01	1.4578	-10.402510	0.000377	3.767080	0.638161	0.000038
 149	1.4726e+01	1.4713	-10.366257	0.000364	3.644240	0.617351	0.000036
 150	1.4825e+01	1.4778	-10.328781	0.000377	3.767080	0.638161	0.000038
 151	1.4925e+01	1.4862	-10.292121	0.000369	3.685187	0.624288	0.000037
 152	1.5024e+01	1.4977	-10.254238	0.000381	3.808026	0.645097	0.000038
 153	1.5124e+01	1.5064	-10.220428	0.000340	3.398561	0.575732	0.000034
 154	1.5223e+01	1.5221	-10.180101	0.000405	4.053705	0.686716	0.000041
 155	1.5323e+01	1.5282	-10.143848	0.000364	3.644240	0.617351	0.000036
 156	1.5422e+01	1.5383	-10.108409	0.000356	3.562347	0.603478	0.000036
 157	1.5522e+01	1.5465	-10.070934	0.000377	3.767080	0.638161	0.000038
 158	1.5621e+01	1.5583	-10.030199	0.000409	4.094652	0.693653	0.000041
 159	1.5721e+01	1.5673	-9.989872	0.000405	4.053705	0.686716	0.000041
 160	1.5820e+01	1.5780	-9.954026	0.000360	3.603294	0.610414	0.000036
 161	1.5920e+01	1.5838	-9.911255	0.000430	4.299384	0.728335	0.000043
 162	1.6020e+01	1.5966	-9.871336	0.000401	4.012759	0.679780	0.000040
 163	1.6119e+01	1.6076	-9.832231	0.000393	3.930866	0.665907	0.000039
 164	1.6218e+01	1.6190	-9.795977	0.000364	3.644240	0.617351	0.000036
 165	1.6318e+01	1.6262	-9.758094	0.000381	3.808026	0.645097	0.000038
 166	1.6418e+01	1.6360	-9.718175	0.000401	4.012759	0.679780	0.000040
 167	1.6517e+01	1.6459	-9.680699	0.000377	3.767080	0.638161	0.000038
 168	1.6616e+01	1.6550	-9.642409	0.000385	3.848973	0.652034	0.000038
 169	1.6716e+01	1.6689	-9.605341	0.000373	3.726133	0.631224	0.000037
 170	1.6816e+01	1.6759	-9.570717	0.000348	3.480454	0.589605	0.000035
 171	1.6915e+01	1.6872	-9.533649	0.000373	3.726133	0.631224	0.000037
 172	1.7015e+01	1.6946	-9.496581	0.000373	3.726133	0.631224	0.000037
 173	1.7114e+01	1.7073	-9.455032	0.000418	4.176545	0.707526	0.000042
 174	1.7213e+01	1.7168	-9.422852	0.000323	3.234775	0.547986	0.000032
 175	1.7313e+01	1.7226	-9.387820	0.000352	3.521400	0.596541	0.000035
 176	1.7413e+01	1.7393	-9.346271	0.000418	4.176545	0.707526	0.000042
 177	1.7512e+01	1.7458	-9.310425	0.000360	3.603294	0.610414	0.000036
 178	1.7611e+01	1.7568	-9.272135	0.000385	3.848973	0.652034	0.000038
 179	1.7711e+01	1.7660	-9.234659	0.000377	3.767080	0.638161	0.000038
 180	1.7811e+01	1.7782	-9.197591	0.000373	3.726133	0.631224	0.000037
 181	1.7910e+01	1.7886	-9.164189	0.000336	3.357614	0.568795	0.000034
 182	1.8009e+01	1.7997	-9.125899	0.000385	3.848973	0.652034	0.000038
 183	1.8109e+01	1.8079	-9.089645	0.000364	3.644240	0.617351	0.000036
 184	1.8209e+01	1.8143	-9.052170	0.000377	3.767080	0.638161	0.000038
 185	1.8308e+01	1.8270	-9.019175	0.000332	3.316668	0.561859	0.000033
 186	1.8407e+01	1.8363	-8.973960	0.000455	4.545063	0.769955	0.000045
 187	1.8507e+01	1.8468	-8.941780	0.000323	3.234775	0.547986	0.000032
 188	1.8607e+01	1.8555	-8.900638	0.000414	4.135598	0.700589	0.000041
 189	1.8706e+01	1.8667	-8.858682	0.000422	4.217491	0.714462	0.000042
 190	1.8805e+01	1.8764	-8.821614	0.000373	3.726133	0.631224	0.000037
 191	1.8905e+01	1.8861	-8.783731	0.000381	3.808026	0.645097	0.000038
 192	1.9005e+01	1.8973	-8.744219	0.000397	3.971812	0.672843	0.000040
 193	1.9104e+01	1.9073	-8.702670	0.000418	4.176545	0.707526	0.000042
 194	1.9203e+01	1.9151	-8.668046	0.000348	3.480454	0.589605	0.000035
 195	1.9303e+01	1.9289	-8.624868	0.000434	4.340331	0.735272	0.000043
 196	1.9402e+01	1.9341	-8.586985	0.000381	3.808026	0.645097	0.000038
 197	1.9502e+01	1.9455	-8.543399	0.000438	4.381277	0.742208	0.000044
 198	1.9602e+01	1.9556	-8.506738	0.000369	3.685187	0.624288	0.000037
 199	1.9701e+01	1.9683	-8.471299	0.000356	3.562347	0.603478	0.000036
 200	1.9800e+01	1.9724	-8.426899	0.000446	4.463170	0.756082	0.000045
 201	1.9900e+01	1.9856	-8.388201	0.000389	3.889919	0.658970	0.000039
 202	2.0000e+01	1.9958	-8.349504	0.000389	3.889919	0.658970	0.000039
 203	2.0099e+01	2.0067	-8.312436	0.000373	3.726133	0.631224	0.000037
 204	2.0198e+01	2.0150	-8.266406	0.000463	4.626956	0.783828	0.000046
 205	2.0298e+01	2.0243	-8.228116	0.000385	3.848973	0.652034	0.000038
 206	2.0398e+01	2.0345	-8.189418	0.000389	3.889919	0.658970	0.000039
 207	2.0497e+01	2.0460	-8.149091	0.000405	4.053705	0.686716	0.000041
 208	2.0596e+01	2.0524	-8.109579	0.000397	3.971812	0.672843	0.000040
 209	2.0696e+01	2.0632	-8.071696	0.000381	3.808026	0.645097	0.000038
 210	2.0796e+01	2.0744	-8.030555	0.000414	4.135598	0.700589	0.000041
 211	2.0895e+01	2.0845	-7.986562	0.000442	4.422224	0.749145	0.000044
 212	2.0994e+01	2.0942	-7.952752	0.000340	3.398561	0.575732	0.000034
 213	2.1094e+01	2.1075	-7.915277	0.000377	3.767080	0.638161	0.000038
 214	2.1194e+01	2.1140	-7.875765	0.000397	3.971812	0.672843	0.000040
 215	2.1293e+01	2.1247	-7.835438	0.000405	4.053705	0.686716	0.000041
 216	2.1392e+01	2.1342	-7.793481	0.000422	4.217491	0.714462	0.000042
 217	2.1492e+01	2.1455	-7.752340	0.000414	4.135598	0.700589	0.000041
 218	2.1591e+01	2.1543	-7.713235	0.000393	3.930866	0.665907	0.000039
 219	2.1691e+01	2.1638	-7.676167	0.000373	3.726133	0.631224	0.000037
 220	2.1791e+01	2.1783	-7.633803	0.000426	4.258438	0.721399	0.000043
 221	2.1890e+01	2.1874	-7.589403	0.000446	4.463170	0.756082	0.000045
 222	2.1989e+01	2.1943	-7.548261	0.000414	4.135598	0.700589	0.000041
 223	2.2089e+01	2.2049	-7.506305	0.000422	4.217491	0.714462	0.000042
 224	2.2189e+01	2.2129	-7.468422	0.000381	3.808026	0.645097	0.000038
 225	2.2288e+01	2.2237	-7.423614	0.000450	4.504117	0.763018	0.000045
 226	2.2387e+01	2.2337	-7.382065	0.000418	4.176545	0.707526	0.000042
 227	2.2487e+01	2.2443	-7.340109	0.000422	4.217491	0.714462	0.000042
 228	2.2587e+01	2.2540	-7.301819	0.000385	3.848973	0.652034	0.000038
 229	2.2686e+01	2.2634	-7.260677	0.000414	4.135598	0.700589	0.000041
 230	2.2785e+01	2.2730	-7.213833	0.000471	4.708849	0.797701	0.000047
 231	2.2885e+01	2.2843	-7.175543	0.000385	3.848973	0.652034	0.000038
 232	2.2985e+01	2.2933	-7.134808	0.000409	4.094652	0.693653	0.000041
 233	2.3084e+01	2.3036	-7.094889	0.000401	4.012759	0.679780	0.000040
 234	2.3183e+01	2.3116	-7.050489	0.000446	4.463170	0.756082	0.000045
 235	2.3283e+01	2.3231	-7.008125	0.000426	4.258438	0.721399	0.000043
 236	2.3383e+01	2.3338	-6.965354	0.000430	4.299384	0.728335	0.000043
 237	2.3482e+01	2.3428	-6.925842	0.000397	3.971812	0.672843	0.000040
 238	2.3581e+01	2.3565	-6.889588	0.000364	3.644240	0.617351	0.000036
 239	2.3681e+01	2.3640	-6.846817	0.000430	4.299384	0.728335	0.000043
 240	2.3780e+01	2.3725	-6.806490	0.000405	4.053705	0.686716	0.000041
 241	2.3880e+01	2.3849	-6.766163	0.000405	4.053705	0.686716	0.000041
 242	2.3980e+01	2.3952	-6.730317	0.000360	3.603294	0.610414	0.000036
 243	2.4079e+01	2.4064	-6.691212	0.000393	3.930866	0.665907	0.000039
 244	2.4178e+01	2.4129	-6.651293	0.000401	4.012759	0.679780	0.000040
 245	2.4278e+01	2.4214	-6.613003	0.000385	3.848973	0.652034	0.000038
 246	2.4378e+01	2.4348	-6.577564	0.000356	3.562347	0.603478	0.000036
 247	2.4477e+01	2.4464	-6.534386	0.000434	4.340331	0.735272	0.000043
 248	2.4576e+01	2.4531	-6.498132	0.000364	3.644240	0.617351	0.000036
 249	2.4676e+01	2.4647	-6.460657	0.000377	3.767080	0.638161	0.000038
 250	2.4776e+01	2.4731	-6.417886	0.000430	4.299384	0.728335	0.000043
 251	2.4875e+01	2.4834	-6.377966	0.000401	4.012759	0.679780	0.000040
 252	2.4974e+01	2.4922	-6.342120	0.000360	3.603294	0.610414	0.000036
 253	2.5074e+01	2.5050	-6.301793	0.000405	4.053705	0.686716	0.000041
 254	2.5174e+01	2.5134	-6.263503	0.000385	3.848973	0.652034	0.000038
 255	2.5273e+01	2.5230	-6.221546	0.000422	4.217491	0.714462	0.000042
 256	2.5372e+01	2.5352	-6.184478	0.000373	3.726133	0.631224	0.000037
 257	2.5472e+01	2.5433	-6.143744	0.000409	4.094652	0.693653	0.000041
 258	2.5572e+01	2.5522	-6.100566	0.000434	4.340331	0.735272	0.000043
 259	2.5671e+01	2.5639	-6.064720	0.000360	3.603294	0.610414	0.000036
 260	2.5770e+01	2.5735	-6.024393	0.000405	4.053705	0.686716	0.000041
 261	2.5870e+01	2.5832	-5.986102	0.000385	3.848973	0.652034	0.000038
 262	2.5970e+01	2.5919	-5.948220	0.000381	3.808026	0.645097	0.000038
 263	2.6069e+01	2.6038	-5.909115	0.000393	3.930866	0.665907	0.000039
 264	2.6169e+01	2.6092	-5.867566	0.000418	4.176545	0.707526	0.000042
 265	2.6268e+01	2.6202	-5.828461	0.000393	3.930866	0.665907	0.000039
 266	2.6367e+01	2.6328	-5.786912	0.000418	4.176545	0.707526	0.000042
 267	2.6467e+01	2.6434	-5.749436	0.000377	3.767080	0.638161	0.000038
 268	2.6567e+01	2.6534	-5.710332	0.000393	3.930866	0.665907	0.000039
 269	2.6666e+01	2.6627	-5.672449	0.000381	3.808026	0.645097	0.000038
 270	2.6765e+01	2.6721	-5.632936	0.000397	3.971812	0.672843	0.000040
 271	2.6865e+01	2.6830	-5.595461	0.000377	3.767080	0.638161	0.000038
 272	2.6965e+01	2.6926	-5.556356	0.000393	3.930866	0.665907	0.000039
 273	2.7064e+01	2.7000	-5.519695	0.000369	3.685187	0.624288	0.000037
 274	2.7163e+01	2.7109	-5.485071	0.000348	3.480454	0.589605	0.000035
 275	2.7263e+01	2.7190	-5.449225	0.000360	3.603294	0.610414	0.000036
 276	2.7363e+01	2.7319	-5.411342	0.000381	3.808026	0.645097	0.000038
 277	2.7462e+01	2.7418	-5.373459	0.000381	3.808026	0.645097	0.000038
 278	2.7561e+01	2.7535	-5.335576	0.000381	3.808026	0.645097	0.000038
 279	2.7661e+01	2.7629	-5.299323	0.000364	3.644240	0.617351	0.000036
 280	2.7761e+01	2.7715	-5.268365	0.000311	3.111935	0.527176	0.000031
 281	2.7860e+01	2.7819	-5.232926	0.000356	3.562347	0.603478	0.000036
 282	2.7959e+01	2.7924	-5.195858	0.000373	3.726133	0.631224	0.000037
 283	2.8059e+01	2.8020	-5.159197	0.000369	3.685187	0.624288	0.000037
 284	2.8159e+01	2.8126	-5.121722	0.000377	3.767080	0.638161	0.000038
 285	2.8258e+01	2.8201	-5.085875	0.000360	3.603294	0.610414	0.000036
 286	2.8358e+01	2.8324	-5.050029	0.000360	3.603294	0.610414	0.000036
 287	2.8457e+01	2.8439	-5.015813	0.000344	3.439507	0.582668	0.000034
 288	2.8556e+01	2.8548	-4.982818	0.000332	3.316668	0.561859	0.000033
 289	2.8656e+01	2.8620	-4.946157	0.000369	3.685187	0.624288	0.000037
 290	2.8756e+01	2.8699	-4.911125	0.000352	3.521400	0.596541	0.000035
 291	2.8855e+01	2.8838	-4.874465	0.000369	3.685187	0.624288	0.000037
 292	2.8954e+01	2.8911	-4.840655	0.000340	3.398561	0.575732	0.000034
 293	2.9054e+01	2.9015	-4.801958	0.000389	3.889919	0.658970	0.000039
 294	2.9154e+01	2.9126	-4.767741	0.000344	3.439507	0.582668	0.000034
 295	2.9253e+01	2.9248	-4.728636	0.000393	3.930866	0.665907	0.000039
 296	2.9352e+01	2.9304	-4.696456	0.000323	3.234775	0.547986	0.000032
 297	2.9452e+01	2.9391	-4.662647	0.000340	3.398561	0.575732	0.000034
 298	2.9552e+01	2.9514	-4.623949	0.000389	3.889919	0.658970	0.000039
 299	2.9651e+01	2.9621	-4.591362	0.000328	3.275721	0.554922	0.000033
 300	2.9750e+01	2.9715	-4.556737	0.000348	3.480454	0.589605	0.000035
 301	2.9850e+01	2.9819	-4.521299	0.000356	3.562347	0.603478	0.000036
 302	2.9950e+01	2.9922	-4.487489	0.000340	3.398561	0.575732	0.000034
 303	3.0049e+01	2.9990	-4.453272	0.000344	3.439507	0.582668	0.000034
 304	3.0148e+01	3.0106	-4.417834	0.000356	3.562347	0.603478	0.000036
 305	3.0248e+01	3.0206	-4.392578	0.000254	2.538684	0.430065	0.000025
 306	3.0348e+01	3.0322	-4.359584	0.000332	3.316668	0.561859	0.000033
 307	3.0447e+01	3.0399	-4.326182	0.000336	3.357614	0.568795	0.000034
 308	3.0547e+01	3.0512	-4.296446	0.000299	2.989096	0.506367	0.000030
 309	3.0646e+01	3.0618	-4.262636	0.000340	3.398561	0.575732	0.000034
 310	3.0745e+01	3.0718	-4.226790	0.000360	3.603294	0.610414	0.000036
 311	3.0845e+01	3.0788	-4.197461	0.000295	2.948149	0.499430	0.000029
 312	3.0945e+01	3.0882	-4.162430	0.000352	3.521400	0.596541	0.000035
 313	3.1044e+01	3.0985	-4.130250	0.000323	3.234775	0.547986	0.000032
 314	3.1143e+01	3.1115	-4.094404	0.000360	3.603294	0.610414	0.000036
 315	3.1243e+01	3.1192	-4.065075	0.000295	2.948149	0.499430	0.000029
 316	3.1343e+01	3.1307	-4.030858	0.000344	3.439507	0.582668	0.000034
 317	3.1442e+01	3.1435	-4.001530	0.000295	2.948149	0.499430	0.000029
 318	3.1541e+01	3.1509	-3.968127	0.000336	3.357614	0.568795	0.000034
 319	3.1641e+01	3.1615	-3.933911	0.000344	3.439507	0.582668	0.000034
 320	3.1741e+01	3.1727	-3.903767	0.000303	3.030042	0.513303	0.000030
 321	3.1840e+01	3.1814	-3.871995	0.000319	3.193828	0.541049	0.000032
 322	3.1939e+01	3.1918	-3.836963	0.000352	3.521400	0.596541	0.000035
 323	3.2039e+01	3.2007	-3.803154	0.000340	3.398561	0.575732	0.000034
 324	3.2139e+01	3.2116	-3.767715	0.000356	3.562347	0.603478	0.000036
 325	3.2238e+01	3.2194	-3.737164	0.000307	3.070989	0.520240	0.000031
 326	3.2337e+01	3.2257	-3.700096	0.000373	3.726133	0.631224	0.000037
 327	3.2437e+01	3.2413	-3.665065	0.000352	3.521400	0.596541	0.000035
 328	3.2536e+01	3.2485	-3.629626	0.000356	3.562347	0.603478	0.000036
 329	3.2636e+01	3.2624	-3.596224	0.000336	3.357614	0.568795	0.000034
 330	3.2736e+01	3.2679	-3.562007	0.000344	3.439507	0.582668	0.000034
 331	3.2835e+01	3.2790	-3.528198	0.000340	3.398561	0.575732	0.000034
 332	3.2934e+01	3.2894	-3.492759	0.000356	3.562347	0.603478	0.000036
 333	3.3034e+01	3.2971	-3.458542	0.000344	3.439507	0.582668	0.000034
 334	3.3133e+01	3.3076	-3.424325	0.000344	3.439507	0.582668	0.000034
 335	3.3233e+01	3.3196	-3.392145	0.000323	3.234775	0.547986	0.000032
 336	3.3333e+01	3.3250	-3.360372	0.000319	3.193828	0.541049	0.000032
 337	3.3432e+01	3.3395	-3.325341	0.000352	3.521400	0.596541	0.000035
 338	3.3532e+01	3.3490	-3.291124	0.000344	3.439507	0.582668	0.000034
 339	3.3631e+01	3.3601	-3.258944	0.000323	3.234775	0.547986	0.000032
 340	3.3730e+01	3.3701	-3.228393	0.000307	3.070989	0.520240	0.000031
 341	3.3830e+01	3.3797	-3.197843	0.000307	3.070989	0.520240	0.000031
 342	3.3929e+01	3.3871	-3.161997	0.000360	3.603294	0.610414	0.000036
 343	3.4029e+01	3.3996	-3.131039	0.000311	3.111935	0.527176	0.000031
 344	3.4129e+01	3.4095	-3.098451	0.000328	3.275721	0.554922	0.000033
 345	3.4228e+01	3.4196	-3.063420	0.000352	3.521400	0.596541	0.000035
 346	3.4328e+01	3.4281	-3.031647	0.000319	3.193828	0.541049	0.000032
 347	3.4427e+01	3.4396	-2.998245	0.000336	3.357614	0.568795	0.000034
 348	3.4526e+01	3.4472	-2.963621	0.000348	3.480454	0.589605	0.000035
 349	3.4626e+01	3.4587	-2.933070	0.000307	3.070989	0.520240	0.000031
 350	3.4725e+01	3.4656	-2.898853	0.000344	3.439507	0.582668	0.000034
 351	3.4825e+01	3.4770	-2.866673	0.000323	3.234775	0.547986	0.000032
 352	3.4925e+01	3.4881	-2.838567	0.000283	2.825310	0.478620	0.000028
 353	3.5024e+01	3.4975	-2.803128	0.000356	3.562347	0.603478	0.000036
 354	3.5123e+01	3.5091	-2.766874	0.000364	3.644240	0.617351	0.000036
 355	3.5223e+01	3.5189	-2.735102	0.000319	3.193828	0.541049	0.000032
 356	3.5322e+01	3.5256	-2.701292	0.000340	3.398561	0.575732	0.000034
 357	3.5422e+01	3.5386	-2.662187	0.000393	3.930866	0.665907	0.000039
 358	3.5522e+01	3.5461	-2.629600	0.000328	3.275721	0.554922	0.000033
 359	3.5621e+01	3.5570	-2.594161	0.000356	3.562347	0.603478	0.000036
 360	3.5721e+01	3.5679	-2.558722	0.000356	3.562347	0.603478	0.000036
 361	3.5820e+01	3.5755	-2.523691	0.000352	3.521400	0.596541	0.000035
 362	3.5919e+01	3.5870	-2.487437	0.000364	3.644240	0.617351	0.000036
 363	3.6019e+01	3.5972	-2.453221	0.000344	3.439507	0.582668	0.000034
 364	3.6118e+01	3.6086	-2.416560	0.000369	3.685187	0.624288	0.000037
 365	3.6218e+01	3.6216	-2.380306	0.000364	3.644240	0.617351	0.000036
 366	3.6318e+01	3.6273	-2.345682	0.000348	3.480454	0.589605	0.000035
 367	3.6417e+01	3.6390	-2.315946	0.000299	2.989096	0.506367	0.000030
 368	3.6517e+01	3.6463	-2.276434	0.000397	3.971812	0.672843	0.000040
 369	3.6616e+01	3.6578	-2.243032	0.000336	3.357614	0.568795	0.000034
 370	3.6715e+01	3.6686	-2.205964	0.000373	3.726133	0.631224	0.000037
 371	3.6815e+01	3.6779	-2.167673	0.000385	3.848973	0.652034	0.000038
 372	3.6914e+01	3.6884	-2.135086	0.000328	3.275721	0.554922	0.000033
 373	3.7014e+01	3.6974	-2.102906	0.000323	3.234775	0.547986	0.000032
 374	3.7114e+01	3.7083	-2.063394	0.000397	3.971812	0.672843	0.000040
 375	3.7213e+01	3.7194	-2.026733	0.000369	3.685187	0.624288	0.000037
 376	3.7313e+01	3.7269	-1.990887	0.000360	3.603294	0.610414	0.000036
 377	3.7412e+01	3.7397	-1.958707	0.000323	3.234775	0.547986	0.000032
 378	3.7511e+01	3.7457	-1.919194	0.000397	3.971812	0.672843	0.000040
 379	3.7611e+01	3.7587	-1.887014	0.000323	3.234775	0.547986	0.000032
 380	3.7711e+01	3.7646	-1.851983	0.000352	3.521400	0.596541	0.000035
 381	3.7810e+01	3.7771	-1.819396	0.000328	3.275721	0.554922	0.000033
 382	3.7910e+01	3.7881	-1.782327	0.000373	3.726133	0.631224	0.000037
 383	3.8009e+01	3.7953	-1.748111	0.000344	3.439507	0.582668	0.000034
 384	3.8108e+01	3.8052	-1.711450	0.000369	3.685187	0.624288	0.000037
 385	3.8208e+01	3.8139	-1.677640	0.000340	3.398561	0.575732	0.000034
 386	3.8307e+01	3.8263	-1.640165	0.000377	3.767080	0.638161	0.000038
 387	3.8407e+01	3.8367	-1.603911	0.000364	3.644240	0.617351	0.000036
 388	3.8507e+01	3.8468	-1.565621	0.000385	3.848973	0.652034	0.000038
 389	3.8606e+01	3.8584	-1.524887	0.000409	4.094652	0.693653	0.000041
 390	3.8706e+01	3.8637	-1.487411	0.000377	3.767080	0.638161	0.000038
 391	3.8805e+01	3.8755	-1.447492	0.000401	4.012759	0.679780	0.000040
 392	3.8904e+01	3.8868	-1.412460	0.000352	3.521400	0.596541	0.000035
 393	3.9004e+01	3.8948	-1.374577	0.000381	3.808026	0.645097	0.000038
 394	3.9103e+01	3.9049	-1.341990	0.000328	3.275721	0.554922	0.000033
 395	3.9203e+01	3.9161	-1.300848	0.000414	4.135598	0.700589	0.000041
 396	3.9303e+01	3.9260	-1.263780	0.000373	3.726133	0.631224	0.000037
 397	3.9402e+01	3.9355	-1.228341	0.000356	3.562347	0.603478	0.000036
 398	3.9502e+01	3.9468	-1.189644	0.000389	3.889919	0.658970	0.000039
 399	3.9601e+01	3.9542	-1.154205	0.000356	3.562347	0.603478	0.000036
 400	3.9700e+01	3.9671	-1.113878	0.000405	4.053705	0.686716	0.000041
 401	3.9800e+01	3.9745	-1.077625	0.000364	3.644240	0.617351	0.000036
 402	3.9900e+01	3.9844	-1.038112	0.000397	3.971812	0.672843	0.000040
 403	3.9999e+01	3.9958	-1.001859	0.000364	3.644240	0.617351	0.000036
 404	4.0099e+01	4.0049	-0.966013	0.000360	3.603294	0.610414	0.000036
 405	4.0198e+01	4.0151	-0.931389	0.000348	3.480454	0.589605	0.000035
 406	4.0297e+01	4.0271	-0.895950	0.000356	3.562347	0.603478	0.000036
 407	4.0397e+01	4.0340	-0.860104	0.000360	3.603294	0.610414	0.000036
 408	4.0496e+01	4.0453	-0.824258	0.000360	3.603294	0.610414	0.000036
 409	4.0596e+01	4.0554	-0.786782	0.000377	3.767080	0.638161	0.000038
 410	4.0696e+01	4.0656	-0.752565	0.000344	3.439507	0.582668	0.000034
 411	4.0795e+01	4.0739	-0.715905	0.000369	3.685187	0.624288	0.000037
 412	4.0895e+01	4.0859	-0.683724	0.000323	3.234775	0.547986	0.000032
 413	4.0994e+01	4.0937	-0.647471	0.000364	3.644240	0.617351	0.000036
 414	4.1093e+01	4.1077	-0.612847	0.000348	3.480454	0.589605	0.000035
 415	4.1193e+01	4.1145	-0.580259	0.000328	3.275721	0.554922	0.000033
 416	4.1292e+01	4.1251	-0.542377	0.000381	3.808026	0.645097	0.000038
 417	4.1392e+01	4.1349	-0.509789	0.000328	3.275721	0.554922	0.000033
 418	4.1492e+01	4.1454	-0.475572	0.000344	3.439507	0.582668	0.000034
 419	4.1591e+01	4.1573	-0.440948	0.000348	3.480454	0.589605	0.000035
 420	4.1691e+01	4.1663	-0.407139	0.000340	3.398561	0.575732	0.000034
 421	4.1790e+01	4.1741	-0.367219	0.000401	4.012759	0.679780	0.000040
 422	4.1889e+01	4.1834	-0.333817	0.000336	3.357614	0.568795	0.000034
 423	4.1989e+01	4.1948	-0.296749	0.000373	3.726133	0.631224	0.000037
 424	4.2089e+01	4.2035	-0.261310	0.000356	3.562347	0.603478	0.000036
 425	4.2188e+01	4.2147	-0.223835	0.000377	3.767080	0.638161	0.000038
 426	4.2288e+01	4.2258	-0.188803	0.000352	3.521400	0.596541	0.000035
 427	4.2387e+01	4.2361	-0.153772	0.000352	3.521400	0.596541	0.000035
 428	4.2486e+01	4.2446	-0.118333	0.000356	3.562347	0.603478	0.000036
 429	4.2586e+01	4.2541	-0.086560	0.000319	3.193828	0.541049	0.000032
 430	4.2685e+01	4.2645	-0.050307	0.000364	3.644240	0.617351	0.000036
 431	4.2785e+01	4.2747	-0.015683	0.000348	3.480454	0.589605	0.000035
 432	4.2885e+01	4.2822	0.021385	0.000373	3.726133	0.631224	0.000037
 433	4.2984e+01	4.2948	0.059268	0.000381	3.808026	0.645097	0.000038
 434	4.3084e+01	4.3053	0.096337	0.000373	3.726133	0.631224	0.000037
 435	4.3183e+01	4.3129	0.132997	0.000369	3.685187	0.624288	0.000037
 436	4.3282e+01	4.3223	0.164770	0.000319	3.193828	0.541049	0.000032
 437	4.3382e+01	4.3323	0.201024	0.000364	3.644240	0.617351	0.000036
 438	4.3481e+01	4.3428	0.236055	0.000352	3.521400	0.596541	0.000035
 439	4.3581e+01	4.3565	0.269457	0.000336	3.357614	0.568795	0.000034
 440	4.3681e+01	4.3644	0.304489	0.000352	3.521400	0.596541	0.000035
 441	4.3780e+01	4.3741	0.333410	0.000291	2.907203	0.492493	0.000029
 442	4.3880e+01	4.3824	0.365997	0.000328	3.275721	0.554922	0.000033
 443	4.3979e+01	4.3936	0.394104	0.000283	2.825310	0.478620	0.000028
 444	4.4078e+01	4.4022	0.428728	0.000348	3.480454	0.589605	0.000035
 445	4.4178e+01	4.4141	0.458464	0.000299	2.989096	0.506367	0.000030
 446	4.4278e+01	4.4241	0.493496	0.000352	3.521400	0.596541	0.000035
 447	4.4377e+01	4.4339	0.526083	0.000328	3.275721	0.554922	0.000033
 448	4.4477e+01	4.4467	0.560707	0.000348	3.480454	0.589605	0.000035
 449	4.4576e+01	4.4535	0.590443	0.000299	2.989096	0.506367	0.000030
 450	4.4675e+01	4.4653	0.623845	0.000336	3.357614	0.568795	0.000034
 451	4.4775e+01	4.4743	0.660099	0.000364	3.644240	0.617351	0.000036
 452	4.4874e+01	4.4820	0.687391	0.000274	2.743417	0.464747	0.000027
 453	4.4974e+01	4.4894	0.722422	0.000352	3.521400	0.596541	0.000035
 454	4.5074e+01	4.5029	0.750936	0.000287	2.866256	0.485557	0.000029
 455	4.5173e+01	4.5130	0.783523	0.000328	3.275721	0.554922	0.000033
 456	4.5273e+01	4.5215	0.814481	0.000311	3.111935	0.527176	0.000031
 457	4.5372e+01	4.5339	0.847476	0.000332	3.316668	0.561859	0.000033
 458	4.5471e+01	4.5447	0.880471	0.000332	3.316668	0.561859	0.000033
 459	4.5571e+01	4.5515	0.911022	0.000307	3.070989	0.520240	0.000031
 460	4.5670e+01	4.5641	0.941980	0.000311	3.111935	0.527176	0.000031
 461	4.5770e+01	4.5734	0.973752	0.000319	3.193828	0.541049	0.000032
 462	4.5870e+01	4.5814	1.004710	0.000311	3.111935	0.527176	0.000031
 463	4.5969e+01	4.5928	1.034039	0.000295	2.948149	0.499430	0.000029
 464	4.6069e+01	4.6017	1.072329	0.000385	3.848973	0.652034	0.000038
 465	4.6168e+01	4.6120	1.101658	0.000295	2.948149	0.499430	0.000029
 466	4.6267e+01	4.6224	1.131394	0.000299	2.989096	0.506367	0.000030
 467	4.6367e+01	4.6307	1.161130	0.000299	2.989096	0.506367	0.000030
 468	4.6467e+01	4.6420	1.193310	0.000323	3.234775	0.547986	0.000032
 469	4.6566e+01	4.6526	1.223861	0.000307	3.070989	0.520240	0.000031
 470	4.6666e+01	4.6613	1.254004	0.000303	3.030042	0.513303	0.000030
 471	4.6765e+01	4.6725	1.283333	0.000295	2.948149	0.499430	0.000029
 472	4.6864e+01	4.6811	1.313476	0.000303	3.030042	0.513303	0.000030
 473	4.6964e+01	4.6963	1.343619	0.000303	3.030042	0.513303	0.000030
 474	4.7063e+01	4.7027	1.369282	0.000258	2.579631	0.437001	0.000026
 475	4.7163e+01	4.7130	1.399425	0.000303	3.030042	0.513303	0.000030
 476	4.7263e+01	4.7254	1.426717	0.000274	2.743417	0.464747	0.000027
 477	4.7362e+01	4.7332	1.452787	0.000262	2.620577	0.443938	0.000026
 478	4.7462e+01	4.7419	1.482116	0.000295	2.948149	0.499430	0.000029
 479	4.7561e+01	4.7510	1.513481	0.000315	3.152882	0.534113	0.000032
 480	4.7660e+01	4.7636	1.543625	0.000303	3.030042	0.513303	0.000030
 481	4.7760e+01	4.7710	1.573768	0.000303	3.030042	0.513303	0.000030
 482	4.7859e+01	4.7768	1.600653	0.000270	2.702470	0.457811	0.000027
 483	4.7959e+01	4.7923	1.630389	0.000299	2.989096	0.506367	0.000030
 484	4.8059e+01	4.8043	1.656051	0.000258	2.579631	0.437001	0.000026
 485	4.8158e+01	4.8122	1.685787	0.000299	2.989096	0.506367	0.000030
 486	4.8258e+01	4.8196	1.716338	0.000307	3.070989	0.520240	0.000031
 487	4.8357e+01	4.8293	1.742408	0.000262	2.620577	0.443938	0.000026
 488	4.8456e+01	4.8398	1.772958	0.000307	3.070989	0.520240	0.000031
 489	4.8556e+01	4.8507	1.802287	0.000295	2.948149	0.499430	0.000029
 490	4.8656e+01	4.8608	1.831616	0.000295	2.948149	0.499430	0.000029
 491	4.8755e+01	4.8717	1.861352	0.000299	2.989096	0.506367	0.000030
 492	4.8855e+01	4.8853	1.893939	0.000328	3.275721	0.554922	0.000033
 493	4.8954e+01	4.8895	1.924490	0.000307	3.070989	0.520240	0.000031
 494	4.9053e+01	4.8991	1.951374	0.000270	2.702470	0.457811	0.000027
 495	4.9153e+01	4.9117	1.983147	0.000319	3.193828	0.541049	0.000032
 496	4.9252e+01	4.9206	2.014920	0.000319	3.193828	0.541049	0.000032
 497	4.9352e+01	4.9327	2.047507	0.000328	3.275721	0.554922	0.000033
 498	4.9452e+01	4.9416	2.081724	0.000344	3.439507	0.582668	0.000034
 499	4.9551e+01	4.9495	2.109016	0.000274	2.743417	0.464747	0.000027
 500	4.9651e+01	4.9595	2.141196	0.000323	3.234775	0.547986	0.000032
 501	4.9750e+01	4.9721	2.170117	0.000291	2.907203	0.492493	0.000029
 502	4.9849e+01	4.9822	2.198224	0.000283	2.825310	0.478620	0.000028
 503	4.9949e+01	4.9930	2.229589	0.000315	3.152882	0.534113	0.000032
 504	5.0048e+01	5.0016	2.256067	0.000266	2.661524	0.450874	0.000027
 505	5.0148e+01	5.0124	2.287839	0.000319	3.193828	0.541049	0.000032
 506	5.0248e+01	5.0232	2.319612	0.000319	3.193828	0.541049	0.000032
 507	5.0347e+01	5.0298	2.346904	0.000274	2.743417	0.464747	0.000027
 508	5.0447e+01	5.0404	2.374196	0.000274	2.743417	0.464747	0.000027
 509	5.0546e+01	5.0494	2.403525	0.000295	2.948149	0.499430	0.000029
 510	5.0645e+01	5.0603	2.434483	0.000311	3.111935	0.527176	0.000031
 511	5.0745e+01	5.0710	2.462997	0.000287	2.866256	0.485557	0.000029
 512	5.0844e+01	5.0790	2.491918	0.000291	2.907203	0.492493	0.000029
 513	5.0944e+01	5.0884	2.524505	0.000328	3.275721	0.554922	0.000033
 514	5.1044e+01	5.0990	2.549761	0.000254	2.538684	0.430065	0.000025
 515	5.1143e+01	5.1104	2.582755	0.000332	3.316668	0.561859	0.000033
 516	5.1242e+01	5.1194	2.610455	0.000278	2.784363	0.471684	0.000028
 517	5.1342e+01	5.1285	2.636932	0.000266	2.661524	0.450874	0.000027
 518	5.1441e+01	5.1406	2.665446	0.000287	2.866256	0.485557	0.000029
 519	5.1541e+01	5.1501	2.694775	0.000295	2.948149	0.499430	0.000029
 520	5.1641e+01	5.1592	2.724103	0.000295	2.948149	0.499430	0.000029
 521	5.1740e+01	5.1707	2.752617	0.000287	2.866256	0.485557	0.000029
 522	5.1840e+01	5.1812	2.784390	0.000319	3.193828	0.541049	0.000032
 523	5.1939e+01	5.1871	2.816163	0.000319	3.193828	0.541049	0.000032
 524	5.2038e+01	5.1999	2.852009	0.000360	3.603294	0.610414	0.000036
 525	5.2138e+01	5.2099	2.881745	0.000299	2.989096	0.506367	0.000030
 526	5.2237e+01	5.2175	2.911074	0.000295	2.948149	0.499430	0.000029
 527	5.2337e+01	5.2309	2.942032	0.000311	3.111935	0.527176	0.000031
 528	5.2437e+01	5.2396	2.973397	0.000315	3.152882	0.534113	0.000032
 529	5.2536e+01	5.2489	3.005577	0.000323	3.234775	0.547986	0.000032
 530	5.2636e+01	5.2589	3.038979	0.000336	3.357614	0.568795	0.000034
 531	5.2735e+01	5.2693	3.071974	0.000332	3.316668	0.561859	0.000033
 532	5.2834e+01	5.2787	3.104561	0.000328	3.275721	0.554922	0.000033
 533	5.2934e+01	5.2865	3.135112	0.000307	3.070989	0.520240	0.000031
 534	5.3033e+01	5.3008	3.167292	0.000323	3.234775	0.547986	0.000032
 535	5.3133e+01	5.3106	3.195806	0.000287	2.866256	0.485557	0.000029
 536	5.3233e+01	5.3185	3.230430	0.000348	3.480454	0.589605	0.000035
 537	5.3332e+01	5.3289	3.262610	0.000323	3.234775	0.547986	0.000032
 538	5.3431e+01	5.3386	3.295605	0.000332	3.316668	0.561859	0.000033
 539	5.3531e+01	5.3507	3.325341	0.000299	2.989096	0.506367	0.000030
 540	5.3630e+01	5.3579	3.357521	0.000323	3.234775	0.547986	0.000032
 541	5.3730e+01	5.3671	3.390108	0.000328	3.275721	0.554922	0.000033
 542	5.3830e+01	5.3791	3.423918	0.000340	3.398561	0.575732	0.000034
 543	5.3929e+01	5.3894	3.455691	0.000319	3.193828	0.541049	0.000032
 544	5.4029e+01	5.3984	3.487871	0.000323	3.234775	0.547986	0.000032
 545	5.4128e+01	5.4053	3.518421	0.000307	3.070989	0.520240	0.000031
 546	5.4227e+01	5.4166	3.548972	0.000307	3.070989	0.520240	0.000031
 547	5.4327e+01	5.4283	3.581559	0.000328	3.275721	0.554922	0.000033
 548	5.4426e+01	5.4380	3.612925	0.000315	3.152882	0.534113	0.000032
 549	5.4526e+01	5.4471	3.645512	0.000328	3.275721	0.554922	0.000033
 550	5.4626e+01	5.4596	3.677285	0.000319	3.193828	0.541049	0.000032
 551	5.4725e+01	5.4694	3.707836	0.000307	3.070989	0.520240	0.000031
 552	5.4825e+01	5.4787	3.743682	0.000360	3.603294	0.610414	0.000036
 553	5.4924e+01	5.4885	3.772603	0.000291	2.907203	0.492493	0.000029
 554	5.5023e+01	5.5004	3.810079	0.000377	3.767080	0.638161	0.000038
 555	5.5123e+01	5.5053	3.844295	0.000344	3.439507	0.582668	0.000034
 556	5.5222e+01	5.5164	3.878512	0.000344	3.439507	0.582668	0.000034
 557	5.5322e+01	5.5297	3.912729	0.000344	3.439507	0.582668	0.000034
 558	5.5422e+01	5.5374	3.947760	0.000352	3.521400	0.596541	0.000035
 559	5.5521e+01	5.5465	3.982792	0.000352	3.521400	0.596541	0.000035
 560	5.5620e+01	5.5579	4.016601	0.000340	3.398561	0.575732	0.000034
 561	5.5720e+01	5.5692	4.050818	0.000344	3.439507	0.582668	0.000034
 562	5.5819e+01	5.5788	4.086257	0.000356	3.562347	0.603478	0.000036
 563	5.5919e+01	5.5872	4.119252	0.000332	3.316668	0.561859	0.000033
 564	5.6019e+01	5.5987	4.150210	0.000311	3.111935	0.527176	0.000031
 565	5.6118e+01	5.6112	4.184834	0.000348	3.480454	0.589605	0.000035
 566	5.6218e+01	5.6182	4.221087	0.000364	3.644240	0.617351	0.000036
 567	5.6317e+01	5.6261	4.252860	0.000319	3.193828	0.541049	0.000032
 568	5.6416e+01	5.6368	4.289928	0.000373	3.726133	0.631224	0.000037
 569	5.6516e+01	5.6469	4.321293	0.000315	3.152882	0.534113	0.000032
 570	5.6615e+01	5.6576	4.356325	0.000352	3.521400	0.596541	0.000035
 571	5.6715e+01	5.6672	4.393393	0.000373	3.726133	0.631224	0.000037
 572	5.6815e+01	5.6792	4.422722	0.000295	2.948149	0.499430	0.000029
 573	5.6914e+01	5.6861	4.456124	0.000336	3.357614	0.568795	0.000034
 574	5.7014e+01	5.6968	4.489933	0.000340	3.398561	0.575732	0.000034
 575	5.7113e+01	5.7072	4.519262	0.000295	2.948149	0.499430	0.000029
 576	5.7212e+01	5.7153	4.551442	0.000323	3.234775	0.547986	0.000032
 577	5.7312e+01	5.7261	4.584844	0.000336	3.357614	0.568795	0.000034
 578	5.7411e+01	5.7401	4.615802	0.000311	3.111935	0.527176	0.000031
 579	5.7511e+01	5.7456	4.647167	0.000315	3.152882	0.534113	0.000032
 580	5.7611e+01	5.7546	4.675681	0.000287	2.866256	0.485557	0.000029
 581	5.7710e+01	5.7666	4.712342	0.000369	3.685187	0.624288	0.000037
 582	5.7809e+01	5.7766	4.742486	0.000303	3.030042	0.513303	0.000030
 583	5.7909e+01	5.7858	4.773036	0.000307	3.070989	0.520240	0.000031
 584	5.8008e+01	5.7949	4.802365	0.000295	2.948149	0.499430	0.000029
 585	5.8108e+01	5.8060	4.835360	0.000332	3.316668	0.561859	0.000033
 586	5.8208e+01	5.8155	4.866318	0.000311	3.111935	0.527176	0.000031
 587	5.8307e+01	5.8270	4.900942	0.000348	3.480454	0.589605	0.000035
 588	5.8407e+01	5.8353	4.928641	0.000278	2.784363	0.471684	0.000028
 589	5.8506e+01	5.8448	4.968968	0.000405	4.053705	0.686716	0.000041
 590	5.8605e+01	5.8558	4.998704	0.000299	2.989096	0.506367	0.000030
 591	5.8705e+01	5.8639	5.031292	0.000328	3.275721	0.554922	0.000033
 592	5.8804e+01	5.8743	5.067138	0.000360	3.603294	0.610414	0.000036
 593	5.8904e+01	5.8863	5.098096	0.000311	3.111935	0.527176	0.000031
 594	5.9004e+01	5.8947	5.126202	0.000283	2.825310	0.478620	0.000028
 595	5.9103e+01	5.9040	5.159197	0.000332	3.316668	0.561859	0.000033
 596	5.9203e+01	5.9187	5.193821	0.000348	3.480454	0.589605	0.000035
 597	5.9302e+01	5.9254	5.226409	0.000328	3.275721	0.554922	0.000033
 598	5.9401e+01	5.9383	5.255330	0.000291	2.907203	0.492493	0.000029
 599	5.9501e+01	5.9478	5.291176	0.000360	3.603294	0.610414	0.000036
 600	5.9600e+01	5.9548	5.325393	0.000344	3.439507	0.582668	0.000034
 601	5.9700e+01	5.9688	5.354722	0.000295	2.948149	0.499430	0.000029
 602	5.9800e+01	5.9753	5.389753	0.000352	3.521400	0.596541	0.000035
 603	5.9899e+01	5.9866	5.423155	0.000336	3.357614	0.568795	0.000034
 604	5.9998e+01	5.9991	5.452076	0.000291	2.907203	0.492493	0.000029
 605	6.0098e+01	6.0055	5.483849	0.000319	3.193828	0.541049	0.000032
 606	6.0197e+01	6.0151	5.513178	0.000295	2.948149	0.499430	0.000029
 607	6.0297e+01	6.0258	5.545358	0.000323	3.234775	0.547986	0.000032
 608	6.0397e+01	6.0354	5.574686	0.000295	2.948149	0.499430	0.000029
 609	6.0496e+01	6.0441	5.605645	0.000311	3.111935	0.527176	0.000031
 610	6.0596e+01	6.0560	5.632936	0.000274	2.743417	0.464747	0.000027
 611	6.0695e+01	6.0635	5.664709	0.000319	3.193828	0.541049	0.000032
 612	6.0794e+01	6.0763	5.691186	0.000266	2.661524	0.450874	0.000027
 613	6.0894e+01	6.0857	5.721737	0.000307	3.070989	0.520240	0.000031
 614	6.0993e+01	6.0954	5.751066	0.000295	2.948149	0.499430	0.000029
 615	6.1093e+01	6.1040	5.779580	0.000287	2.866256	0.485557	0.000029
 616	6.1193e+01	6.1138	5.810538	0.000311	3.111935	0.527176	0.000031
 617	6.1292e+01	6.1238	5.839459	0.000291	2.907203	0.492493	0.000029
 618	6.1392e+01	6.1357	5.865122	0.000258	2.579631	0.437001	0.000026
 619	6.1491e+01	6.1457	5.896894	0.000319	3.193828	0.541049	0.000032
 620	6.1590e+01	6.1567	5.928667	0.000319	3.193828	0.541049	0.000032
 621	6.1690e+01	6.1642	5.954737	0.000262	2.620577	0.443938	0.000026
 622	6.1789e+01	6.1704	5.984473	0.000299	2.989096	0.506367	0.000030
 623	6.1889e+01	6.1868	6.014616	0.000303	3.030042	0.513303	0.000030
 624	6.1989e+01	6.1959	6.041094	0.000266	2.661524	0.450874	0.000027
 625	6.2088e+01	6.2054	6.071237	0.000303	3.030042	0.513303	0.000030
 626	6.2188e+01	6.2142	6.099344	0.000283	2.825310	0.478620	0.000028
 627	6.2287e+01	6.2273	6.127450	0.000283	2.825310	0.478620	0.000028
 628	6.2386e+01	6.2362	6.156779	0.000295	2.948149	0.499430	0.000029
 629	6.2486e+01	6.2440	6.185293	0.000287	2.866256	0.485557	0.000029
 630	6.2586e+01	6.2551	6.212178	0.000270	2.702470	0.457811	0.000027
 631	6.2685e+01	6.2649	6.244358	0.000323	3.234775	0.547986	0.000032
 632	6.2785e+01	6.2768	6.272872	0.000287	2.866256	0.485557	0.000029
 633	6.2884e+01	6.2861	6.298942	0.000262	2.620577	0.443938	0.000026
 634	6.2983e+01	6.2975	6.325419	0.000266	2.661524	0.450874	0.000027
 635	6.3083e+01	6.3055	6.353525	0.000283	2.825310	0.478620	0.000028
 636	6.3182e+01	6.3142	6.380003	0.000266	2.661524	0.450874	0.000027
 637	6.3282e+01	6.3210	6.409739	0.000299	2.989096	0.506367	0.000030
 638	6.3382e+01	6.3319	6.433772	0.000242	2.415845	0.409255	0.000024
 639	6.3481e+01	6.3429	6.458620	0.000250	2.497738	0.423128	0.000025
 640	6.3581e+01	6.3515	6.485504	0.000270	2.702470	0.457811	0.000027
 641	6.3680e+01	6.3635	6.511574	0.000262	2.620577	0.443938	0.000026
 642	6.3779e+01	6.3709	6.535608	0.000242	2.415845	0.409255	0.000024
 643	6.3879e+01	6.3842	6.563307	0.000278	2.784363	0.471684	0.000028
 644	6.3978e+01	6.3934	6.590599	0.000274	2.743417	0.464747	0.000027
 645	6.4078e+01	6.4035	6.615039	0.000246	2.456791	0.416192	0.000025
 646	6.4177e+01	6.4126	6.641109	0.000262	2.620577	0.443938	0.000026
 647	6.4277e+01	6.4220	6.667994	0.000270	2.702470	0.457811	0.000027
 648	6.4376e+01	6.4318	6.694064	0.000262	2.620577	0.443938	0.000026
 649	6.4476e+01	6.4417	6.722170	0.000283	2.825310	0.478620	0.000028
 650	6.4576e+01	6.4522	6.744167	0.000221	2.211112	0.374573	0.000022
 651	6.4675e+01	6.4631	6.770237	0.000262	2.620577	0.443938	0.000026
 652	6.4775e+01	6.4724	6.795492	0.000254	2.538684	0.430065	0.000025
 653	6.4874e+01	6.4844	6.825228	0.000299	2.989096	0.506367	0.000030
 654	6.4974e+01	6.4918	6.850483	0.000254	2.538684	0.430065	0.000025
 655	6.5073e+01	6.5003	6.874517	0.000242	2.415845	0.409255	0.000024
 656	6.5172e+01	6.5115	6.901401	0.000270	2.702470	0.457811	0.000027
 657	6.5272e+01	6.5221	6.927878	0.000266	2.661524	0.450874	0.000027
 658	6.5371e+01	6.5321	6.953541	0.000258	2.579631	0.437001	0.000026
 659	6.5471e+01	6.5432	6.984906	0.000315	3.152882	0.534113	0.000032
 660	6.5570e+01	6.5518	7.009754	0.000250	2.497738	0.423128	0.000025
 661	6.5670e+01	6.5620	7.038676	0.000291	2.907203	0.492493	0.000029
 662	6.5769e+01	6.5719	7.068819	0.000303	3.030042	0.513303	0.000030
 663	6.5869e+01	6.5813	7.096111	0.000274	2.743417	0.464747	0.000027
 664	6.5969e+01	6.5951	7.124218	0.000283	2.825310	0.478620	0.000028
 665	6.6068e+01	6.5984	7.151917	0.000278	2.784363	0.471684	0.000028
 666	6.6168e+01	6.6113	7.178801	0.000270	2.702470	0.457811	0.000027
 667	6.6267e+01	6.6225	7.205686	0.000270	2.702470	0.457811	0.000027
 668	6.6367e+01	6.6295	7.234200	0.000287	2.866256	0.485557	0.000029
 669	6.6466e+01	6.6444	7.260677	0.000266	2.661524	0.450874	0.000027
 670	6.6566e+01	6.6511	7.287155	0.000266	2.661524	0.450874	0.000027
 671	6.6665e+01	6.6618	7.316891	0.000299	2.989096	0.506367	0.000030
 672	6.6764e+01	6.6698	7.345812	0.000291	2.907203	0.492493	0.000029
 673	6.6864e+01	6.6810	7.368216	0.000225	2.252058	0.381509	0.000023
 674	6.6963e+01	6.6932	7.394693	0.000266	2.661524	0.450874	0.000027
 675	6.7063e+01	6.7031	7.418726	0.000242	2.415845	0.409255	0.000024
 676	6.7162e+01	6.7149	7.447648	0.000291	2.907203	0.492493	0.000029
 677	6.7262e+01	6.7225	7.473310	0.000258	2.579631	0.437001	0.000026
 678	6.7362e+01	6.7301	7.501417	0.000283	2.825310	0.478620	0.000028
 679	6.7461e+01	6.7428	7.528301	0.000270	2.702470	0.457811	0.000027
 680	6.7561e+01	6.7522	7.554779	0.000266	2.661524	0.450874	0.000027
 681	6.7660e+01	6.7611	7.582885	0.000283	2.825310	0.478620	0.000028
 682	6.7760e+01	6.7725	7.606918	0.000242	2.415845	0.409255	0.000024
 683	6.7859e+01	6.7791	7.635025	0.000283	2.825310	0.478620	0.000028
 684	6.7959e+01	6.7945	7.660688	0.000258	2.579631	0.437001	0.000026
 685	6.8058e+01	6.7977	7.686350	0.000258	2.579631	0.437001	0.000026
 686	6.8157e+01	6.8115	7.713642	0.000274	2.743417	0.464747	0.000027
 687	6.8257e+01	6.8213	7.740119	0.000266	2.661524	0.450874	0.000027
 688	6.8356e+01	6.8346	7.765782	0.000258	2.579631	0.437001	0.000026
 689	6.8456e+01	6.8431	7.794296	0.000287	2.866256	0.485557	0.000029
 690	6.8555e+01	6.8506	7.819551	0.000254	2.538684	0.430065	0.000025
 691	6.8655e+01	6.8612	7.851731	0.000323	3.234775	0.547986	0.000032
 692	6.8754e+01	6.8713	7.879431	0.000278	2.784363	0.471684	0.000028
 693	6.8854e+01	6.8816	7.909574	0.000303	3.030042	0.513303	0.000030
 694	6.8954e+01	6.8897	7.937681	0.000283	2.825310	0.478620	0.000028
 695	6.9053e+01	6.9003	7.966195	0.000287	2.866256	0.485557	0.000029
 696	6.9153e+01	6.9088	7.995523	0.000295	2.948149	0.499430	0.000029
 697	6.9252e+01	6.9207	8.022408	0.000270	2.702470	0.457811	0.000027
 698	6.9352e+01	6.9351	8.056217	0.000340	3.398561	0.575732	0.000034
 699	6.9451e+01	6.9399	8.081880	0.000258	2.579631	0.437001	0.000026
 700	6.9550e+01	6.9482	8.109987	0.000283	2.825310	0.478620	0.000028
 701	6.9650e+01	6.9605	8.142167	0.000323	3.234775	0.547986	0.000032
 702	6.9749e+01	6.9711	8.169866	0.000278	2.784363	0.471684	0.000028
 703	6.9849e+01	6.9796	8.197973	0.000283	2.825310	0.478620	0.000028
 704	6.9948e+01	6.9894	8.228931	0.000311	3.111935	0.527176	0.000031
 705	7.0048e+01	6.9975	8.257037	0.000283	2.825310	0.478620	0.000028
 706	7.0147e+01	7.0079	8.289625	0.000328	3.275721	0.554922	0.000033
 707	7.0247e+01	7.0193	8.320175	0.000307	3.070989	0.520240	0.000031
 708	7.0347e+01	7.0289	8.349097	0.000291	2.907203	0.492493	0.000029
 709	7.0446e+01	7.0382	8.378018	0.000291	2.907203	0.492493	0.000029
 710	7.0546e+01	7.0509	8.403681	0.000258	2.579631	0.437001	0.000026
 711	7.0645e+01	7.0593	8.435046	0.000315	3.152882	0.534113	0.000032
 712	7.0745e+01	7.0693	8.467226	0.000323	3.234775	0.547986	0.000032
 713	7.0844e+01	7.0807	8.493296	0.000262	2.620577	0.443938	0.000026
 714	7.0944e+01	7.0904	8.521810	0.000287	2.866256	0.485557	0.000029
 715	7.1043e+01	7.1008	8.551139	0.000295	2.948149	0.499430	0.000029
 716	7.1142e+01	7.1099	8.584133	0.000332	3.316668	0.561859	0.000033
 717	7.1242e+01	7.1190	8.614684	0.000307	3.070989	0.520240	0.000031
 718	7.1341e+01	7.1314	8.639532	0.000250	2.497738	0.423128	0.000025
 719	7.1441e+01	7.1388	8.674156	0.000348	3.480454	0.589605	0.000035
 720	7.1540e+01	7.1507	8.701041	0.000270	2.702470	0.457811	0.000027
 721	7.1640e+01	7.1593	8.727925	0.000270	2.702470	0.457811	0.000027
 722	7.1740e+01	7.1702	8.761735	0.000340	3.398561	0.575732	0.000034
 723	7.1839e+01	7.1804	8.796359	0.000348	3.480454	0.589605	0.000035
 724	7.1939e+01	7.1895	8.825687	0.000295	2.948149	0.499430	0.000029
 725	7.2038e+01	7.1996	8.858275	0.000328	3.275721	0.554922	0.000033
 726	7.2138e+01	7.2096	8.890455	0.000323	3.234775	0.547986	0.000032
 727	7.2237e+01	7.2222	8.921820	0.000315	3.152882	0.534113	0.000032
 728	7.2337e+01	7.2295	8.952778	0.000311	3.111935	0.527176	0.000031
 729	7.2436e+01	7.2399	8.986995	0.000344	3.439507	0.582668	0.000034
 730	7.2535e+01	7.2477	9.016731	0.000299	2.989096	0.506367	0.000030
 731	7.2635e+01	7.2611	9.047689	0.000311	3.111935	0.527176	0.000031
 732	7.2734e+01	7.2713	9.078240	0.000307	3.070989	0.520240	0.000031
 733	7.2834e+01	7.2803	9.108383	0.000303	3.030042	0.513303	0.000030
 734	7.2933e+01	7.2871	9.140971	0.000328	3.275721	0.554922	0.000033
 735	7.3033e+01	7.2959	9.173151	0.000323	3.234775	0.547986	0.000032
 736	7.3132e+01	7.3091	9.207775	0.000348	3.480454	0.589605	0.000035
 737	7.3232e+01	7.3170	9.238733	0.000311	3.111935	0.527176	0.000031
 738	7.3332e+01	7.3296	9.268061	0.000295	2.948149	0.499430	0.000029
 739	7.3431e+01	7.3386	9.298205	0.000303	3.030042	0.513303	0.000030
 740	7.3531e+01	7.3489	9.327126	0.000291	2.907203	0.492493	0.000029
 741	7.3630e+01	7.3612	9.362565	0.000356	3.562347	0.603478	0.000036
 742	7.3730e+01	7.3682	9.391079	0.000287	2.866256	0.485557	0.000029
 743	7.3829e+01	7.3790	9.418778	0.000278	2.784363	0.471684	0.000028
 744	7.3928e+01	7.3873	9.452588	0.000340	3.398561	0.575732	0.000034
 745	7.4028e+01	7.3976	9.474991	0.000225	2.252058	0.381509	0.000023
 746	7.4127e+01	7.4079	9.509208	0.000344	3.439507	0.582668	0.000034
 747	7.4227e+01	7.4201	9.537722	0.000287	2.866256	0.485557	0.000029
 748	7.4326e+01	7.4274	9.569088	0.000315	3.152882	0.534113	0.000032
 749	7.4426e+01	7.4401	9.595565	0.000266	2.661524	0.450874	0.000027
 750	7.4525e+01	7.4495	9.623671	0.000283	2.825310	0.478620	0.000028
 751	7.4625e+01	7.4577	9.656259	0.000328	3.275721	0.554922	0.000033
 752	7.4725e+01	7.4691	9.682329	0.000262	2.620577	0.443938	0.000026
 753	7.4824e+01	7.4783	9.714509	0.000323	3.234775	0.547986	0.000032
 754	7.4924e+01	7.4880	9.743023	0.000287	2.866256	0.485557	0.000029
 755	7.5023e+01	7.4974	9.771944	0.000291	2.907203	0.492493	0.000029
 756	7.5123e+01	7.5091	9.804124	0.000323	3.234775	0.547986	0.000032
 757	7.5222e+01	7.5156	9.830601	0.000266	2.661524	0.450874	0.000027
 758	7.5322e+01	7.5263	9.862782	0.000323	3.234775	0.547986	0.000032
 759	7.5421e+01	7.5388	9.893740	0.000311	3.111935	0.527176	0.000031
 760	7.5520e+01	7.5490	9.923883	0.000303	3.030042	0.513303	0.000030
 761	7.5620e+01	7.5578	9.953619	0.000299	2.989096	0.506367	0.000030
 762	7.5719e+01	7.5689	9.988650	0.000352	3.521400	0.596541	0.000035
 763	7.5819e+01	7.5770	10.013906	0.000254	2.538684	0.430065	0.000025
 764	7.5918e+01	7.5887	10.042827	0.000291	2.907203	0.492493	0.000029
 765	7.6018e+01	7.5977	10.071341	0.000287	2.866256	0.485557	0.000029
 766	7.6118e+01	7.6051	10.104743	0.000336	3.357614	0.568795	0.000034
 767	7.6217e+01	7.6165	10.136108	0.000315	3.152882	0.534113	0.000032
 768	7.6317e+01	7.6257	10.163808	0.000278	2.784363	0.471684	0.000028
 769	7.6416e+01	7.6356	10.198024	0.000344	3.439507	0.582668	0.000034
 770	7.6516e+01	7.6443	10.226538	0.000287	2.866256	0.485557	0.000029
 771	7.6615e+01	7.6563	10.256274	0.000299	2.989096	0.506367	0.000030
 772	7.6715e+01	7.6678	10.285603	0.000295	2.948149	0.499430	0.000029
 773	7.6814e+01	7.6759	10.313302	0.000278	2.784363	0.471684	0.000028
 774	7.6913e+01	7.6859	10.341816	0.000287	2.866256	0.485557	0.000029
 775	7.7013e+01	7.6972	10.369108	0.000274	2.743417	0.464747	0.000027
 776	7.7112e+01	7.7053	10.395993	0.000270	2.702470	0.457811	0.000027
 777	7.7212e+01	7.7191	10.422470	0.000266	2.661524	0.450874	0.000027
 778	7.7311e+01	7.7227	10.450169	0.000278	2.784363	0.471684	0.000028
 779	7.7411e+01	7.7370	10.475425	0.000254	2.538684	0.430065	0.000025
 780	7.7510e+01	7.7460	10.501902	0.000266	2.661524	0.450874	0.000027
 781	7.7610e+01	7.7564	10.531231	0.000295	2.948149	0.499430	0.000029
 782	7.7710e+01	7.7673	10.560152	0.000291	2.907203	0.492493	0.000029
 783	7.7809e+01	7.7766	10.584185	0.000242	2.415845	0.409255	0.000024
 784	7.7909e+01	7.7855	10.614736	0.000307	3.070989	0.520240	0.000031
 785	7.8008e+01	7.7946	10.643250	0.000287	2.866256	0.485557	0.000029
 786	7.8108e+01	7.8056	10.666876	0.000237	2.374898	0.402319	0.000024
 787	7.8207e+01	7.8176	10.694168	0.000274	2.743417	0.464747	0.000027
 788	7.8306e+01	7.8275	10.721460	0.000274	2.743417	0.464747	0.000027
 789	7.8406e+01	7.8364	10.745493	0.000242	2.415845	0.409255	0.000024
 790	7.8505e+01	7.8472	10.774007	0.000287	2.866256	0.485557	0.000029
 791	7.8605e+01	7.8545	10.800077	0.000262	2.620577	0.443938	0.000026
 792	7.8704e+01	7.8665	10.827776	0.000278	2.784363	0.471684	0.000028
 793	7.8804e+01	7.8736	10.850995	0.000233	2.333951	0.395382	0.000023
 794	7.8903e+01	7.8857	10.879101	0.000283	2.825310	0.478620	0.000028
 795	7.9003e+01	7.8955	10.904764	0.000258	2.579631	0.437001	0.000026
 796	7.9103e+01	7.9058	10.931241	0.000266	2.661524	0.450874	0.000027
 797	7.9202e+01	7.9170	10.958940	0.000278	2.784363	0.471684	0.000028
 798	7.9302e+01	7.9248	10.984196	0.000254	2.538684	0.430065	0.000025
 799	7.9401e+01	7.9354	11.011895	0.000278	2.784363	0.471684	0.000028
 800	7.9501e+01	7.9456	11.038372	0.000266	2.661524	0.450874	0.000027
 801	7.9600e+01	7.9604	11.062813	0.000246	2.456791	0.416192	0.000025
 802	7.9700e+01	7.9653	11.088068	0.000254	2.538684	0.430065	0.000025
 803	7.9799e+01	7.9749	11.113731	0.000258	2.579631	0.437001	0.000026
 804	7.9898e+01	7.9838	11.138986	0.000254	2.538684	0.430065	0.000025
 805	7.9998e+01	7.9943	11.166685	0.000278	2.784363	0.471684	0.000028
 806	8.0097e+01	8.0047	11.186645	0.000201	2.006379	0.339890	0.000020
 807	8.0197e+01	8.0137	11.211085	0.000246	2.456791	0.416192	0.000025
 808	8.0296e+01	8.0254	11.235119	0.000242	2.415845	0.409255	0.000024
 809	8.0396e+01	8.0349	11.259559	0.000246	2.456791	0.416192	0.000025
 810	8.0496e+01	8.0469	11.283592	0.000242	2.415845	0.409255	0.000024
 811	8.0595e+01	8.0558	11.306404	0.000229	2.293005	0.388446	0.000023
 812	8.0695e+01	8.0640	11.333288	0.000270	2.702470	0.457811	0.000027
 813	8.0794e+01	8.0732	11.358951	0.000258	2.579631	0.437001	0.000026
 814	8.0894e+01	8.0849	11.379725	0.000209	2.088272	0.353763	0.000021
 815	8.0993e+01	8.0942	11.410276	0.000307	3.070989	0.520240	0.000031
 816	8.1093e+01	8.1057	11.427384	0.000172	1.719754	0.291334	0.000017
 817	8.1192e+01	8.1168	11.455491	0.000283	2.825310	0.478620	0.000028
 818	8.1291e+01	8.1239	11.474636	0.000192	1.924486	0.326017	0.000019
 819	8.1391e+01	8.1342	11.500706	0.000262	2.620577	0.443938	0.000026
 820	8.1490e+01	8.1435	11.523924	0.000233	2.333951	0.395382	0.000023
 821	8.1590e+01	8.1521	11.547550	0.000237	2.374898	0.402319	0.000024
 822	8.1689e+01	8.1632	11.573213	0.000258	2.579631	0.437001	0.000026
 823	8.1789e+01	8.1731	11.597653	0.000246	2.456791	0.416192	0.000025
 824	8.1888e+01	8.1846	11.623316	0.000258	2.579631	0.437001	0.000026
 825	8.1988e+01	8.1937	11.645720	0.000225	2.252058	0.381509	0.000023
 826	8.2088e+01	8.2038	11.672604	0.000270	2.702470	0.457811	0.000027
 827	8.2187e+01	8.2137	11.697045	0.000246	2.456791	0.416192	0.000025
 828	8.2287e+01	8.2227	11.719856	0.000229	2.293005	0.388446	0.000023
 829	8.2386e+01	8.2324	11.748778	0.000291	2.907203	0.492493	0.000029
 830	8.2486e+01	8.2425	11.774440	0.000258	2.579631	0.437001	0.000026
 831	8.2585e+01	8.2548	11.799695	0.000254	2.538684	0.430065	0.000025
 832	8.2684e+01	8.2626	11.828617	0.000291	2.907203	0.492493	0.000029
 833	8.2784e+01	8.2728	11.854279	0.000258	2.579631	0.437001	0.000026
 834	8.2883e+01	8.2838	11.880757	0.000266	2.661524	0.450874	0.000027
 835	8.2983e+01	8.2944	11.908863	0.000283	2.825310	0.478620	0.000028
 836	8.3082e+01	8.3031	11.932896	0.000242	2.415845	0.409255	0.000024
 837	8.3182e+01	8.3141	11.959374	0.000266	2.661524	0.450874	0.000027
 838	8.3281e+01	8.3228	11.982185	0.000229	2.293005	0.388446	0.000023
 839	8.3381e+01	8.3344	12.008662	0.000266	2.661524	0.450874	0.000027
 840	8.3481e+01	8.3427	12.029437	0.000209	2.088272	0.353763	0.000021
 841	8.3580e+01	8.3560	12.058765	0.000295	2.948149	0.499430	0.000029
 842	8.3680e+01	8.3633	12.080762	0.000221	2.211112	0.374573	0.000022
 843	8.3779e+01	8.3743	12.106832	0.000262	2.620577	0.443938	0.000026
 844	8.3879e+01	8.3826	12.131680	0.000250	2.497738	0.423128	0.000025
 845	8.3978e+01	8.3926	12.153269	0.000217	2.170165	0.367636	0.000022
 846	8.4078e+01	8.4023	12.179746	0.000266	2.661524	0.450874	0.000027
 847	8.4177e+01	8.4131	12.204187	0.000246	2.456791	0.416192	0.000025
 848	8.4276e+01	8.4225	12.232293	0.000283	2.825310	0.478620	0.000028
 849	8.4376e+01	8.4331	12.255512	0.000233	2.333951	0.395382	0.000023
 850	8.4475e+01	8.4415	12.277508	0.000221	2.211112	0.374573	0.000022
 851	8.4575e+01	8.4509	12.306022	0.000287	2.866256	0.485557	0.000029
 852	8.4674e+01	8.4637	12.329241	0.000233	2.333951	0.395382	0.000023
 853	8.4774e+01	8.4737	12.350015	0.000209	2.088272	0.353763	0.000021
 854	8.4874e+01	8.4843	12.380973	0.000311	3.111935	0.527176	0.000031
 855	8.4973e+01	8.4928	12.402970	0.000221	2.211112	0.374573	0.000022
 856	8.5073e+01	8.5046	12.429040	0.000262	2.620577	0.443938	0.000026
 857	8.5172e+01	8.5133	12.454702	0.000258	2.579631	0.437001	0.000026
 858	8.5272e+01	8.5229	12.481994	0.000274	2.743417	0.464747	0.000027
 859	8.5371e+01	8.5337	12.506435	0.000246	2.456791	0.416192	0.000025
 860	8.5471e+01	8.5410	12.540244	0.000340	3.398561	0.575732	0.000034
 861	8.5570e+01	8.5532	12.563463	0.000233	2.333951	0.395382	0.000023
 862	8.5669e+01	8.5621	12.592791	0.000295	2.948149	0.499430	0.000029
 863	8.5769e+01	8.5722	12.616825	0.000242	2.415845	0.409255	0.000024
 864	8.5868e+01	8.5816	12.645746	0.000291	2.907203	0.492493	0.000029
 865	8.5968e+01	8.5920	12.672630	0.000270	2.702470	0.457811	0.000027
 866	8.6067e+01	8.6018	12.700330	0.000278	2.784363	0.471684	0.000028
 867	8.6167e+01	8.6117	12.728436	0.000283	2.825310	0.478620	0.000028
 868	8.6266e+01	8.6194	12.754914	0.000266	2.661524	0.450874	0.000027
 869	8.6366e+01	8.6337	12.787094	0.000323	3.234775	0.547986	0.000032
 870	8.6466e+01	8.6414	12.813978	0.000270	2.702470	0.457811	0.000027
 871	8.6565e+01	8.6518	12.838419	0.000246	2.456791	0.416192	0.000025
 872	8.6665e+01	8.6603	12.870192	0.000319	3.193828	0.541049	0.000032
 873	8.6764e+01	8.6710	12.895039	0.000250	2.497738	0.423128	0.000025
 874	8.6864e+01	8.6829	12.922331	0.000274	2.743417	0.464747	0.000027
 875	8.6963e+01	8.6909	12.949216	0.000270	2.702470	0.457811	0.000027
 876	8.7063e+01	8.7031	12.980989	0.000319	3.193828	0.541049	0.000032
 877	8.7162e+01	8.7103	13.010725	0.000299	2.989096	0.506367	0.000030
 878	8.7261e+01	8.7224	13.035165	0.000246	2.456791	0.416192	0.000025
 879	8.7361e+01	8.7312	13.064087	0.000291	2.907203	0.492493	0.000029
 880	8.7460e+01	8.7407	13.090971	0.000270	2.702470	0.457811	0.000027
 881	8.7560e+01	8.7494	13.122744	0.000319	3.193828	0.541049	0.000032
 882	8.7659e+01	8.7627	13.147999	0.000254	2.538684	0.430065	0.000025
 883	8.7759e+01	8.7690	13.173254	0.000254	2.538684	0.430065	0.000025
 884	8.7859e+01	8.7815	13.202990	0.000299	2.989096	0.506367	0.000030
 885	8.7958e+01	8.7907	13.233134	0.000303	3.030042	0.513303	0.000030
 886	8.8058e+01	8.8012	13.259204	0.000262	2.620577	0.443938	0.000026
 887	8.8157e+01	8.8111	13.291791	0.000328	3.275721	0.554922	0.000033
 888	8.8257e+01	8.8200	13.318268	0.000266	2.661524	0.450874	0.000027
 889	8.8356e+01	8.8315	13.346375	0.000283	2.825310	0.478620	0.000028
 890	8.8456e+01	8.8412	13.378962	0.000328	3.275721	0.554922	0.000033
 891	8.8555e+01	8.8490	13.405847	0.000270	2.702470	0.457811	0.000027
 892	8.8654e+01	8.8628	13.440471	0.000348	3.480454	0.589605	0.000035
 893	8.8754e+01	8.8662	13.467763	0.000274	2.743417	0.464747	0.000027
 894	8.8853e+01	8.8783	13.500351	0.000328	3.275721	0.554922	0.000033
 895	8.8953e+01	8.8885	13.531716	0.000315	3.152882	0.534113	0.000032
 896	8.9052e+01	8.9014	13.563081	0.000315	3.152882	0.534113	0.000032
 897	8.9152e+01	8.9104	13.589966	0.000270	2.702470	0.457811	0.000027
 898	8.9251e+01	8.9209	13.621331	0.000315	3.152882	0.534113	0.000032
 899	8.9351e+01	8.9297	13.652289	0.000311	3.111935	0.527176	0.000031
 900	8.9451e+01	8.9418	13.682433	0.000303	3.030042	0.513303	0.000030
 901	8.9550e+01	8.9494	13.712983	0.000307	3.070989	0.520240	0.000031
 902	8.9650e+01	8.9575	13.745163	0.000323	3.234775	0.547986	0.000032
 903	8.9749e+01	8.9735	13.774085	0.000291	2.907203	0.492493	0.000029
 904	8.9849e+01	8.9780	13.800562	0.000266	2.661524	0.450874	0.000027
 905	8.9948e+01	8.9868	13.836001	0.000356	3.562347	0.603478	0.000036
 906	9.0047e+01	8.9950	13.867366	0.000315	3.152882	0.534113	0.000032
 907	9.0147e+01	9.0112	13.894658	0.000274	2.743417	0.464747	0.000027
 908	9.0246e+01	9.0199	13.923579	0.000291	2.907203	0.492493	0.000029
 909	9.0346e+01	9.0262	13.956167	0.000328	3.275721	0.554922	0.000033
 910	9.0445e+01	9.0373	13.983051	0.000270	2.702470	0.457811	0.000027
 911	9.0545e+01	9.0506	14.011973	0.000291	2.907203	0.492493	0.000029
 912	9.0644e+01	9.0576	14.041301	0.000295	2.948149	0.499430	0.000029
 913	9.0744e+01	9.0690	14.070630	0.000295	2.948149	0.499430	0.000029
 914	9.0844e+01	9.0780	14.094256	0.000237	2.374898	0.402319	0.000024
 915	9.0943e+01	9.0929	14.128473	0.000344	3.439507	0.582668	0.000034
 916	9.1043e+01	9.1019	14.153321	0.000250	2.497738	0.423128	0.000025
 917	9.1142e+01	9.1096	14.181835	0.000287	2.866256	0.485557	0.000029
 918	9.1242e+01	9.1174	14.212385	0.000307	3.070989	0.520240	0.000031
 919	9.1341e+01	9.1309	14.238863	0.000266	2.661524	0.450874	0.000027
 920	9.1441e+01	9.1383	14.268191	0.000295	2.948149	0.499430	0.000029
 921	9.1540e+01	9.1465	14.300371	0.000323	3.234775	0.547986	0.000032
 922	9.1639e+01	9.1566	14.322368	0.000221	2.211112	0.374573	0.000022
 923	9.1739e+01	9.1705	14.353733	0.000315	3.152882	0.534113	0.000032
 924	9.1838e+01	9.1797	14.384691	0.000311	3.111935	0.527176	0.000031
 925	9.1938e+01	9.1895	14.416464	0.000319	3.193828	0.541049	0.000032
 926	9.2037e+01	9.1965	14.445385	0.000291	2.907203	0.492493	0.000029
 927	9.2137e+01	9.2090	14.471862	0.000266	2.661524	0.450874	0.000027
 928	9.2237e+01	9.2145	14.500376	0.000287	2.866256	0.485557	0.000029
 929	9.2336e+01	9.2310	14.535001	0.000348	3.480454	0.589605	0.000035
 930	9.2436e+01	9.2362	14.560256	0.000254	2.538684	0.430065	0.000025
 931	9.2535e+01	9.2453	14.587955	0.000278	2.784363	0.471684	0.000028
 932	9.2635e+01	9.2590	14.620543	0.000328	3.275721	0.554922	0.000033
 933	9.2734e+01	9.2682	14.649464	0.000291	2.907203	0.492493	0.000029
 934	9.2834e+01	9.2785	14.682866	0.000336	3.357614	0.568795	0.000034
 935	9.2933e+01	9.2873	14.711380	0.000287	2.866256	0.485557	0.000029
 936	9.3032e+01	9.2976	14.736635	0.000254	2.538684	0.430065	0.000025
 937	9.3132e+01	9.3088	14.768408	0.000319	3.193828	0.541049	0.000032
 938	9.3231e+01	9.3195	14.795700	0.000274	2.743417	0.464747	0.000027
 939	9.3331e+01	9.3304	14.825436	0.000299	2.989096	0.506367	0.000030
 940	9.3430e+01	9.3384	14.852728	0.000274	2.743417	0.464747	0.000027
 941	9.3530e+01	9.3441	14.886130	0.000336	3.357614	0.568795	0.000034
 942	9.3629e+01	9.3565	14.914237	0.000283	2.825310	0.478620	0.000028
 943	9.3729e+01	9.3687	14.938270	0.000242	2.415845	0.409255	0.000024
 944	9.3829e+01	9.3750	14.964340	0.000262	2.620577	0.443938	0.000026
 945	9.3928e+01	9.3859	14.994483	0.000303	3.030042	0.513303	0.000030
 946	9.4028e+01	9.3974	15.022590	0.000283	2.825310	0.478620	0.000028
 947	9.4127e+01	9.4081	15.045808	0.000233	2.333951	0.395382	0.000023
 948	9.4227e+01	9.4178	15.073100	0.000274	2.743417	0.464747	0.000027
 949	9.4326e+01	9.4287	15.101207	0.000283	2.825310	0.478620	0.000028
 950	9.4425e+01	9.4363	15.128499	0.000274	2.743417	0.464747	0.000027
 951	9.4525e+01	9.4483	15.155791	0.000274	2.743417	0.464747	0.000027
 952	9.4624e+01	9.4598	15.179824	0.000242	2.415845	0.409255	0.000024
 953	9.4724e+01	9.4678	15.210375	0.000307	3.070989	0.520240	0.000031
 954	9.4823e+01	9.4759	15.234408	0.000242	2.415845	0.409255	0.000024
 955	9.4923e+01	9.4855	15.260070	0.000258	2.579631	0.437001	0.000026
 956	9.5022e+01	9.4965	15.283696	0.000237	2.374898	0.402319	0.000024
 957	9.5122e+01	9.5068	15.316284	0.000328	3.275721	0.554922	0.000033
 958	9.5222e+01	9.5155	15.341132	0.000250	2.497738	0.423128	0.000025
 959	9.5321e+01	9.5271	15.371275	0.000303	3.030042	0.513303	0.000030
 960	9.5421e+01	9.5374	15.394493	0.000233	2.333951	0.395382	0.000023
 961	9.5520e+01	9.5459	15.421785	0.000274	2.743417	0.464747	0.000027
 962	9.5620e+01	9.5575	15.448670	0.000270	2.702470	0.457811	0.000027
 963	9.5719e+01	9.5681	15.473518	0.000250	2.497738	0.423128	0.000025
 964	9.5819e+01	9.5764	15.498366	0.000250	2.497738	0.423128	0.000025
 965	9.5918e+01	9.5863	15.526472	0.000283	2.825310	0.478620	0.000028
 966	9.6017e+01	9.5966	15.556208	0.000299	2.989096	0.506367	0.000030
 967	9.6117e+01	9.6071	15.586759	0.000307	3.070989	0.520240	0.000031
 968	9.6216e+01	9.6167	15.607941	0.000213	2.129219	0.360699	0.000021
 969	9.6316e+01	9.6265	15.632381	0.000246	2.456791	0.416192	0.000025
 970	9.6415e+01	9.6363	15.661303	0.000291	2.907203	0.492493	0.000029
 971	9.6515e+01	9.6454	15.687373	0.000262	2.620577	0.443938	0.000026
 972	9.6615e+01	9.6568	15.713850	0.000266	2.661524	0.450874	0.000027
 973	9.6714e+01	9.6631	15.736254	0.000225	2.252058	0.381509	0.000023
 974	9.6814e+01	9.6758	15.761509	0.000254	2.538684	0.430065	0.000025
 975	9.6913e+01	9.6866	15.785542	0.000242	2.415845	0.409255	0.000024
 976	9.7013e+01	9.6942	15.809575	0.000242	2.415845	0.409255	0.000024
 977	9.7112e+01	9.7039	15.835645	0.000262	2.620577	0.443938	0.000026
 978	9.7212e+01	9.7121	15.856012	0.000205	2.047326	0.346826	0.000020
 979	9.7311e+01	9.7250	15.881675	0.000258	2.579631	0.437001	0.000026
 980	9.7410e+01	9.7378	15.904079	0.000225	2.252058	0.381509	0.000023
 981	9.7510e+01	9.7455	15.930149	0.000262	2.620577	0.443938	0.000026
 982	9.7609e+01	9.7534	15.957848	0.000278	2.784363	0.471684	0.000028
 983	9.7709e+01	9.7644	15.981067	0.000233	2.333951	0.395382	0.000023
 984	9.7808e+01	9.7776	16.007137	0.000262	2.620577	0.443938	0.000026
 985	9.7908e+01	9.7864	16.031577	0.000246	2.456791	0.416192	0.000025
 986	9.8007e+01	9.7949	16.056832	0.000254	2.538684	0.430065	0.000025
 987	9.8107e+01	9.8058	16.080051	0.000233	2.333951	0.395382	0.000023
 988	9.8207e+01	9.8170	16.102047	0.000221	2.211112	0.374573	0.000022
 989	9.8306e+01	9.8231	16.128525	0.000266	2.661524	0.450874	0.000027
 990	9.8406e+01	9.8354	16.152965	0.000246	2.456791	0.416192	0.000025
 991	9.8505e+01	9.8440	16.177406	0.000246	2.456791	0.416192	0.000025
 992	9.8605e+01	9.8560	16.201846	0.000246	2.456791	0.416192	0.000025
 993	9.8704e+01	9.8645	16.225065	0.000233	2.333951	0.395382	0.000023
 994	9.8803e+01	9.8779	16.253579	0.000287	2.866256	0.485557	0.000029
 995	9.8903e+01	9.8835	16.280871	0.000274	2.743417	0.464747	0.000027
 996	9.9002e+01	9.8975	16.309792	0.000291	2.907203	0.492493	0.000029
 997	9.9102e+01	9.9040	16.337899	0.000283	2.825310	0.478620	0.000028
 998	9.9201e+01	9.9140	16.363969	0.000262	2.620577	0.443938	0.000026
 999	9.9301e+01	9.9261	16.392890	0.000291	2.907203	0.492493	0.000029
1000	9.9400e+01	9.9345	16.421404	0.000287	2.866256	0.485557	0.000029
1001	9.9500e+01	9.9447	16.445845	0.000246	2.456791	0.416192	0.000025
1002	9.9600e+01	9.9563	16.475581	0.000299	2.989096	0.506367	0.000030
1003	9.9699e+01	9.9640	16.499614	0.000242	2.415845	0.409255	0.000024
1004	9.9799e+01	9.9756	16.529350	0.000299	2.989096	0.506367	0.000030
1005	9.9898e+01	9.9831	16.555012	0.000258	2.579631	0.437001	0.000026
1006	9.9998e+01	9.9927	16.579860	0.000250	2.497738	0.423128	0.000025
1007	1.0010e+02	9.9846	16.562344	0.000176	1.760700	0.298271	-0.000018
1008	1.0020e+02	9.9744	16.544014	0.000184	1.842593	0.312144	-0.000018
1009	1.0030e+02	9.9649	16.524869	0.000192	1.924486	0.326017	-0.000019
1010	1.0040e+02	9.9564	16.504502	0.000205	2.047326	0.346826	-0.000020
1011	1.0050e+02	9.9438	16.480876	0.000237	2.374898	0.402319	-0.000024
1012	1.0059e+02	9.9351	16.464990	0.000160	1.596914	0.270525	-0.000016
1013	1.0069e+02	9.9255	16.441771	0.000233	2.333951	0.395382	-0.000023
1014	1.0079e+02	9.9115	16.425885	0.000160	1.596914	0.270525	-0.000016
1015	1.0089e+02	9.9024	16.406332	0.000197	1.965433	0.332953	-0.000020
1016	1.0099e+02	9.8943	16.387187	0.000192	1.924486	0.326017	-0.000019
1017	1.0109e+02	9.8847	16.364376	0.000229	2.293005	0.388446	-0.000023
1018	1.0119e+02	9.8737	16.342787	0.000217	2.170165	0.367636	-0.000022
1019	1.0129e+02	9.8634	16.324456	0.000184	1.842593	0.312144	-0.000018
1020	1.0139e+02	9.8550	16.306126	0.000184	1.842593	0.312144	-0.000018
1021	1.0149e+02	9.8447	16.281685	0.000246	2.456791	0.416192	-0.000025
1022	1.0159e+02	9.8344	16.262540	0.000192	1.924486	0.326017	-0.000019
1023	1.0169e+02	9.8250	16.239322	0.000233	2.333951	0.395382	-0.000023
1024	1.0179e+02	9.8135	16.220991	0.000184	1.842593	0.312144	-0.000018
1025	1.0189e+02	9.8071	16.201032	0.000201	2.006379	0.339890	-0.000020
1026	1.0199e+02	9.7959	16.185145	0.000160	1.596914	0.270525	-0.000016
1027	1.0209e+02	9.7877	16.161519	0.000237	2.374898	0.402319	-0.000024
1028	1.0219e+02	9.7755	16.145226	0.000164	1.637861	0.277461	-0.000016
1029	1.0229e+02	9.7645	16.129339	0.000160	1.596914	0.270525	-0.000016
1030	1.0239e+02	9.7553	16.108565	0.000209	2.088272	0.353763	-0.000021
1031	1.0248e+02	9.7445	16.086976	0.000217	2.170165	0.367636	-0.000022
1032	1.0258e+02	9.7346	16.067831	0.000192	1.924486	0.326017	-0.000019
1033	1.0268e+02	9.7285	16.047463	0.000205	2.047326	0.346826	-0.000020
1034	1.0278e+02	9.7182	16.033614	0.000139	1.392182	0.235842	-0.000014
1035	1.0288e+02	9.7046	16.009988	0.000237	2.374898	0.402319	-0.000024
1036	1.0298e+02	9.6927	15.997360	0.000127	1.269342	0.215032	-0.000013
1037	1.0308e+02	9.6841	15.976179	0.000213	2.129219	0.360699	-0.000021
1038	1.0318e+02	9.6763	15.956626	0.000197	1.965433	0.332953	-0.000020
1039	1.0328e+02	9.6645	15.937888	0.000188	1.883540	0.319080	-0.000019
1040	1.0338e+02	9.6566	15.918743	0.000192	1.924486	0.326017	-0.000019
1041	1.0348e+02	9.6442	15.900005	0.000188	1.883540	0.319080	-0.000019
1042	1.0358e+02	9.6356	15.879231	0.000209	2.088272	0.353763	-0.000021
1043	1.0368e+02	9.6265	15.860086	0.000192	1.924486	0.326017	-0.000019
1044	1.0378e+02	9.6168	15.841348	0.000188	1.883540	0.319080	-0.000019
1045	1.0388e+02	9.6047	15.825054	0.000164	1.637861	0.277461	-0.000016
1046	1.0398e+02	9.5978	15.805095	0.000201	2.006379	0.339890	-0.000020
1047	1.0408e+02	9.5866	15.784320	0.000209	2.088272	0.353763	-0.000021
1048	1.0418e+02	9.5762	15.764360	0.000201	2.006379	0.339890	-0.000020
1049	1.0428e+02	9.5666	15.744808	0.000197	1.965433	0.332953	-0.000020
1050	1.0438e+02	9.5563	15.726478	0.000184	1.842593	0.312144	-0.000018
1051	1.0447e+02	9.5466	15.707740	0.000188	1.883540	0.319080	-0.000019
1052	1.0457e+02	9.5380	15.688595	0.000192	1.924486	0.326017	-0.000019
1053	1.0467e+02	9.5283	15.667006	0.000217	2.170165	0.367636	-0.000022
1054	1.0477e+02	9.5174	15.649490	0.000176	1.760700	0.298271	-0.000018
1055	1.0487e+02	9.5069	15.629937	0.000197	1.965433	0.332953	-0.000020
1056	1.0497e+02	9.4952	15.611607	0.000184	1.842593	0.312144	-0.000018
1057	1.0507e+02	9.4874	15.588388	0.000233	2.333951	0.395382	-0.000023
1058	1.0517e+02	9.4761	15.576168	0.000123	1.228396	0.208096	-0.000012
1059	1.0527e+02	9.4666	15.555801	0.000205	2.047326	0.346826	-0.000020
1060	1.0537e+02	9.4580	15.542766	0.000131	1.310289	0.221969	-0.000013
1061	1.0547e+02	9.4460	15.527287	0.000156	1.555968	0.263588	-0.000016
1062	1.0557e+02	9.4361	15.506513	0.000209	2.088272	0.353763	-0.000021
1063	1.0567e+02	9.4281	15.490626	0.000160	1.596914	0.270525	-0.000016
1064	1.0577e+02	9.4182	15.471888	0.000188	1.883540	0.319080	-0.000019
1065	1.0587e+02	9.4032	15.453558	0.000184	1.842593	0.312144	-0.000018
1066	1.0597e+02	9.3983	15.434820	0.000188	1.883540	0.319080	-0.000019
1067	1.0607e+02	9.3872	15.416490	0.000184	1.842593	0.312144	-0.000018
1068	1.0617e+02	9.3784	15.396937	0.000197	1.965433	0.332953	-0.000020
1069	1.0627e+02	9.3652	15.386347	0.000106	1.064609	0.180350	-0.000011
1070	1.0637e+02	9.3562	15.365979	0.000205	2.047326	0.346826	-0.000020
1071	1.0647e+02	9.3472	15.346834	0.000192	1.924486	0.326017	-0.000019
1072	1.0656e+02	9.3390	15.330541	0.000164	1.637861	0.277461	-0.000016
1073	1.0666e+02	9.3288	15.310988	0.000197	1.965433	0.332953	-0.000020
1074	1.0676e+02	9.3150	15.290214	0.000209	2.088272	0.353763	-0.000021
1075	1.0686e+02	9.3097	15.272698	0.000176	1.760700	0.298271	-0.000018
1076	1.0696e+02	9.3002	15.252738	0.000201	2.006379	0.339890	-0.000020
1077	1.0706e+02	9.2875	15.232778	0.000201	2.006379	0.339890	-0.000020
1078	1.0716e+02	9.2789	15.211189	0.000217	2.170165	0.367636	-0.000022
1079	1.0726e+02	9.2661	15.189193	0.000221	2.211112	0.374573	-0.000022
1080	1.0736e+02	9.2595	15.170862	0.000184	1.842593	0.312144	-0.000018
1081	1.0746e+02	9.2480	15.150088	0.000209	2.088272	0.353763	-0.000021
1082	1.0756e+02	9.2368	15.127684	0.000225	2.252058	0.381509	-0.000023
1083	1.0766e+02	9.2277	15.106910	0.000209	2.088272	0.353763	-0.000021
1084	1.0776e+02	9.2170	15.086135	0.000209	2.088272	0.353763	-0.000021
1085	1.0786e+02	9.2085	15.067397	0.000188	1.883540	0.319080	-0.000019
1086	1.0796e+02	9.1981	15.047438	0.000201	2.006379	0.339890	-0.000020
1087	1.0806e+02	9.1885	15.025441	0.000221	2.211112	0.374573	-0.000022
1088	1.0816e+02	9.1791	15.007925	0.000176	1.760700	0.298271	-0.000018
1089	1.0826e+02	9.1693	14.985521	0.000225	2.252058	0.381509	-0.000023
1090	1.0836e+02	9.1580	14.965154	0.000205	2.047326	0.346826	-0.000020
1091	1.0845e+02	9.1492	14.943973	0.000213	2.129219	0.360699	-0.000021
1092	1.0855e+02	9.1387	14.930123	0.000139	1.392182	0.235842	-0.000014
1093	1.0865e+02	9.1299	14.906904	0.000233	2.333951	0.395382	-0.000023
1094	1.0875e+02	9.1157	14.888981	0.000180	1.801647	0.305207	-0.000018
1095	1.0885e+02	9.1102	14.869021	0.000201	2.006379	0.339890	-0.000020
1096	1.0895e+02	9.1005	14.847840	0.000213	2.129219	0.360699	-0.000021
1097	1.0905e+02	9.0877	14.829917	0.000180	1.801647	0.305207	-0.000018
1098	1.0915e+02	9.0774	14.809142	0.000209	2.088272	0.353763	-0.000021
1099	1.0925e+02	9.0701	14.785924	0.000233	2.333951	0.395382	-0.000023
1100	1.0935e+02	9.0576	14.769223	0.000168	1.678807	0.284398	-0.000017
1101	1.0945e+02	9.0496	14.745597	0.000237	2.374898	0.402319	-0.000024
1102	1.0955e+02	9.0401	14.727674	0.000180	1.801647	0.305207	-0.000018
1103	1.0965e+02	9.0289	14.712195	0.000156	1.555968	0.263588	-0.000016
1104	1.0975e+02	9.0174	14.688569	0.000237	2.374898	0.402319	-0.000024
1105	1.0985e+02	9.0091	14.668609	0.000201	2.006379	0.339890	-0.000020
1106	1.0995e+02	8.9977	14.648242	0.000205	2.047326	0.346826	-0.000020
1107	1.1005e+02	8.9904	14.627875	0.000205	2.047326	0.346826	-0.000020
1108	1.1015e+02	8.9820	14.601397	0.000266	2.661524	0.450874	-0.000027
1109	1.1025e+02	8.9697	14.583474	0.000180	1.801647	0.305207	-0.000018
1110	1.1035e+02	8.9589	14.557812	0.000258	2.579631	0.437001	-0.000026
1111	1.1044e+02	8.9503	14.537852	0.000201	2.006379	0.339890	-0.000020
1112	1.1054e+02	8.9387	14.511375	0.000266	2.661524	0.450874	-0.000027
1113	1.1064e+02	8.9307	14.488971	0.000225	2.252058	0.381509	-0.000023
1114	1.1074e+02	8.9197	14.464938	0.000242	2.415845	0.409255	-0.000024
1115	1.1084e+02	8.9088	14.443756	0.000213	2.129219	0.360699	-0.000021
1116	1.1094e+02	8.8987	14.419723	0.000242	2.415845	0.409255	-0.000024
1117	1.1104e+02	8.8911	14.394875	0.000250	2.497738	0.423128	-0.000025
1118	1.1114e+02	8.8795	14.371249	0.000237	2.374898	0.402319	-0.000024
1119	1.1124e+02	8.8704	14.350067	0.000213	2.129219	0.360699	-0.000021
1120	1.1134e+02	8.8609	14.324812	0.000254	2.538684	0.430065	-0.000025
1121	1.1144e+02	8.8505	14.306074	0.000188	1.883540	0.319080	-0.000019
1122	1.1154e+02	8.8389	14.278782	0.000274	2.743417	0.464747	-0.000027
1123	1.1164e+02	8.8313	14.256378	0.000225	2.252058	0.381509	-0.000023
1124	1.1174e+02	8.8221	14.232345	0.000242	2.415845	0.409255	-0.000024
1125	1.1184e+02	8.8111	14.212385	0.000201	2.006379	0.339890	-0.000020
1126	1.1194e+02	8.7991	14.186723	0.000258	2.579631	0.437001	-0.000026
1127	1.1204e+02	8.7917	14.161467	0.000254	2.538684	0.430065	-0.000025
1128	1.1214e+02	8.7800	14.136212	0.000254	2.538684	0.430065	-0.000025
1129	1.1224e+02	8.7706	14.112994	0.000233	2.333951	0.395382	-0.000023
1130	1.1234e+02	8.7607	14.088146	0.000250	2.497738	0.423128	-0.000025
1131	1.1244e+02	8.7511	14.064520	0.000237	2.374898	0.402319	-0.000024
1132	1.1253e+02	8.7418	14.039672	0.000250	2.497738	0.423128	-0.000025
1133	1.1263e+02	8.7305	14.018898	0.000209	2.088272	0.353763	-0.000021
1134	1.1273e+02	8.7211	13.994457	0.000246	2.456791	0.416192	-0.000025
1135	1.1283e+02	8.7125	13.971646	0.000229	2.293005	0.388446	-0.000023
1136	1.1293e+02	8.7026	13.946391	0.000254	2.538684	0.430065	-0.000025
1137	1.1303e+02	8.6914	13.920321	0.000262	2.620577	0.443938	-0.000026
1138	1.1313e+02	8.6829	13.895880	0.000246	2.456791	0.416192	-0.000025
1139	1.1323e+02	8.6707	13.867773	0.000283	2.825310	0.478620	-0.000028
1140	1.1333e+02	8.6607	13.842111	0.000258	2.579631	0.437001	-0.000026
1141	1.1343e+02	8.6534	13.817263	0.000250	2.497738	0.423128	-0.000025
1142	1.1353e+02	8.6427	13.790378	0.000270	2.702470	0.457811	-0.000027
1143	1.1363e+02	8.6324	13.762272	0.000283	2.825310	0.478620	-0.000028
1144	1.1373e+02	8.6213	13.735795	0.000266	2.661524	0.450874	-0.000027
1145	1.1383e+02	8.6133	13.708095	0.000278	2.784363	0.471684	-0.000028
1146	1.1393e+02	8.6021	13.682840	0.000254	2.538684	0.430065	-0.000025
1147	1.1403e+02	8.5943	13.654733	0.000283	2.825310	0.478620	-0.000028
1148	1.1413e+02	8.5834	13.630700	0.000242	2.415845	0.409255	-0.000024
1149	1.1423e+02	8.5725	13.600149	0.000307	3.070989	0.520240	-0.000031
1150	1.1433e+02	8.5629	13.578153	0.000221	2.211112	0.374573	-0.000022
1151	1.1442e+02	8.5511	13.549232	0.000291	2.907203	0.492493	-0.000029
1152	1.1452e+02	8.5421	13.521125	0.000283	2.825310	0.478620	-0.000028
1153	1.1462e+02	8.5314	13.489760	0.000315	3.152882	0.534113	-0.000032
1154	1.1472e+02	8.5207	13.467763	0.000221	2.211112	0.374573	-0.000022
1155	1.1482e+02	8.5123	13.438434	0.000295	2.948149	0.499430	-0.000029
1156	1.1492e+02	8.5014	13.411142	0.000274	2.743417	0.464747	-0.000027
1157	1.1502e+02	8.4926	13.386702	0.000246	2.456791	0.416192	-0.000025
1158	1.1512e+02	8.4821	13.358595	0.000283	2.825310	0.478620	-0.000028
1159	1.1522e+02	8.4726	13.334562	0.000242	2.415845	0.409255	-0.000024
1160	1.1532e+02	8.4669	13.307677	0.000270	2.702470	0.457811	-0.000027
1161	1.1542e+02	8.4505	13.285274	0.000225	2.252058	0.381509	-0.000023
1162	1.1552e+02	8.4415	13.257982	0.000274	2.743417	0.464747	-0.000027
1163	1.1562e+02	8.4333	13.229875	0.000283	2.825310	0.478620	-0.000028
1164	1.1572e+02	8.4251	13.204212	0.000258	2.579631	0.437001	-0.000026
1165	1.1582e+02	8.4112	13.181401	0.000229	2.293005	0.388446	-0.000023
1166	1.1592e+02	8.3984	13.154517	0.000270	2.702470	0.457811	-0.000027
1167	1.1602e+02	8.3936	13.132113	0.000225	2.252058	0.381509	-0.000023
1168	1.1612e+02	8.3839	13.106450	0.000258	2.579631	0.437001	-0.000026
1169	1.1622e+02	8.3755	13.079158	0.000274	2.743417	0.464747	-0.000027
1170	1.1632e+02	8.3633	13.057162	0.000221	2.211112	0.374573	-0.000022
1171	1.1642e+02	8.3540	13.030685	0.000266	2.661524	0.450874	-0.000027
1172	1.1651e+02	8.3435	13.002985	0.000278	2.784363	0.471684	-0.000028
1173	1.1661e+02	8.3325	12.978952	0.000242	2.415845	0.409255	-0.000024
1174	1.1671e+02	8.3245	12.952475	0.000266	2.661524	0.450874	-0.000027
1175	1.1681e+02	8.3125	12.928849	0.000237	2.374898	0.402319	-0.000024
1176	1.1691e+02	8.3057	12.894225	0.000348	3.480454	0.589605	-0.000035
1177	1.1701e+02	8.2922	12.873043	0.000213	2.129219	0.360699	-0.000021
1178	1.1711e+02	8.2825	12.846158	0.000270	2.702470	0.457811	-0.000027
1179	1.1721e+02	8.2724	12.816015	0.000303	3.030042	0.513303	-0.000030
1180	1.1731e+02	8.2635	12.795648	0.000205	2.047326	0.346826	-0.000020
1181	1.1741e+02	8.2520	12.764690	0.000311	3.111935	0.527176	-0.000031
1182	1.1751e+02	8.2435	12.739842	0.000250	2.497738	0.423128	-0.000025
1183	1.1761e+02	8.2362	12.715809	0.000242	2.415845	0.409255	-0.000024
1184	1.1771e+02	8.2240	12.687295	0.000287	2.866256	0.485557	-0.000029
1185	1.1781e+02	8.2134	12.657559	0.000299	2.989096	0.506367	-0.000030
1186	1.1791e+02	8.2032	12.630674	0.000270	2.702470	0.457811	-0.000027
1187	1.1801e+02	8.1928	12.602975	0.000278	2.784363	0.471684	-0.000028
1188	1.1811e+02	8.1824	12.581793	0.000213	2.129219	0.360699	-0.000021
1189	1.1821e+02	8.1744	12.554501	0.000274	2.743417	0.464747	-0.000027
1190	1.1831e+02	8.1654	12.524358	0.000303	3.030042	0.513303	-0.000030
1191	1.1841e+02	8.1556	12.502361	0.000221	2.211112	0.374573	-0.000022
1192	1.1850e+02	8.1431	12.475477	0.000270	2.702470	0.457811	-0.000027
1193	1.1860e+02	8.1336	12.448999	0.000266	2.661524	0.450874	-0.000027
1194	1.1870e+02	8.1229	12.426188	0.000229	2.293005	0.388446	-0.000023
1195	1.1880e+02	8.1177	12.404599	0.000217	2.170165	0.367636	-0.000022
1196	1.1890e+02	8.1074	12.380973	0.000237	2.374898	0.402319	-0.000024
1197	1.1900e+02	8.0937	12.355718	0.000254	2.538684	0.430065	-0.000025
1198	1.1910e+02	8.0840	12.327611	0.000283	2.825310	0.478620	-0.000028
1199	1.1920e+02	8.0756	12.305615	0.000221	2.211112	0.374573	-0.000022
1200	1.1930e+02	8.0682	12.279952	0.000258	2.579631	0.437001	-0.000026
1201	1.1940e+02	8.0542	12.255919	0.000242	2.415845	0.409255	-0.000024
1202	1.1950e+02	8.0435	12.236774	0.000192	1.924486	0.326017	-0.000019
1203	1.1960e+02	8.0352	12.212741	0.000242	2.415845	0.409255	-0.000024
1204	1.1970e+02	8.0276	12.185856	0.000270	2.702470	0.457811	-0.000027
1205	1.1980e+02	8.0145	12.162638	0.000233	2.333951	0.395382	-0.000023
1206	1.1990e+02	8.0051	12.139012	0.000237	2.374898	0.402319	-0.000024
1207	1.2000e+02	7.9960	12.112942	0.000262	2.620577	0.443938	-0.000026
1208	1.2010e+02	7.9846	12.092167	0.000209	2.088272	0.353763	-0.000021
1209	1.2020e+02	7.9721	12.068541	0.000237	2.374898	0.402319	-0.000024
1210	1.2030e+02	7.9661	12.044508	0.000242	2.415845	0.409255	-0.000024
1211	1.2039e+02	7.9560	12.017624	0.000270	2.702470	0.457811	-0.000027
1212	1.2049e+02	7.9471	11.996034	0.000217	2.170165	0.367636	-0.000022
1213	1.2059e+02	7.9342	11.972001	0.000242	2.415845	0.409255	-0.000024
1214	1.2069e+02	7.9269	11.951634	0.000205	2.047326	0.346826	-0.000020
1215	1.2079e+02	7.9156	11.923935	0.000278	2.784363	0.471684	-0.000028
1216	1.2089e+02	7.9046	11.901124	0.000229	2.293005	0.388446	-0.000023
1217	1.2099e+02	7.8960	11.876683	0.000246	2.456791	0.416192	-0.000025
1218	1.2109e+02	7.8851	11.851428	0.000254	2.538684	0.430065	-0.000025
1219	1.2119e+02	7.8744	11.827802	0.000237	2.374898	0.402319	-0.000024
1220	1.2129e+02	7.8648	11.805398	0.000225	2.252058	0.381509	-0.000023
1221	1.2139e+02	7.8561	11.781365	0.000242	2.415845	0.409255	-0.000024
1222	1.2149e+02	7.8439	11.756517	0.000250	2.497738	0.423128	-0.000025
1223	1.2159e+02	7.8358	11.737372	0.000192	1.924486	0.326017	-0.000019
1224	1.2169e+02	7.8244	11.713746	0.000237	2.374898	0.402319	-0.000024
1225	1.2179e+02	7.8150	11.689306	0.000246	2.456791	0.416192	-0.000025
1226	1.2189e+02	7.8052	11.670975	0.000184	1.842593	0.312144	-0.000018
1227	1.2199e+02	7.7953	11.650201	0.000209	2.088272	0.353763	-0.000021
1228	1.2209e+02	7.7886	11.626575	0.000237	2.374898	0.402319	-0.000024
1229	1.2219e+02	7.7764	11.604986	0.000217	2.170165	0.367636	-0.000022
1230	1.2229e+02	7.7654	11.586655	0.000184	1.842593	0.312144	-0.000018
1231	1.2239e+02	7.7576	11.563844	0.000229	2.293005	0.388446	-0.000023
1232	1.2248e+02	7.7464	11.537774	0.000262	2.620577	0.443938	-0.000026
1233	1.2258e+02	7.7374	11.520666	0.000172	1.719754	0.291334	-0.000017
1234	1.2268e+02	7.7255	11.496633	0.000242	2.415845	0.409255	-0.000024
1235	1.2278e+02	7.7153	11.480746	0.000160	1.596914	0.270525	-0.000016
1236	1.2288e+02	7.7068	11.451825	0.000291	2.907203	0.492493	-0.000029
1237	1.2298e+02	7.6968	11.431050	0.000209	2.088272	0.353763	-0.000021
1238	1.2308e+02	7.6865	11.409054	0.000221	2.211112	0.374573	-0.000022
1239	1.2318e+02	7.6768	11.386650	0.000225	2.252058	0.381509	-0.000023
1240	1.2328e+02	7.6673	11.367505	0.000192	1.924486	0.326017	-0.000019
1241	1.2338e+02	7.6557	11.347138	0.000205	2.047326	0.346826	-0.000020
1242	1.2348e+02	7.6507	11.319438	0.000278	2.784363	0.471684	-0.000028
1243	1.2358e+02	7.6358	11.300701	0.000188	1.883540	0.319080	-0.000019
1244	1.2368e+02	7.6251	11.274631	0.000262	2.620577	0.443938	-0.000026
1245	1.2378e+02	7.6194	11.253449	0.000213	2.129219	0.360699	-0.000021
1246	1.2388e+02	7.6096	11.227379	0.000262	2.620577	0.443938	-0.000026
1247	1.2398e+02	7.5969	11.205790	0.000217	2.170165	0.367636	-0.000022
1248	1.2408e+02	7.5854	11.183386	0.000225	2.252058	0.381509	-0.000023
1249	1.2418e+02	7.5771	11.157316	0.000262	2.620577	0.443938	-0.000026
1250	1.2428e+02	7.5694	11.132061	0.000254	2.538684	0.430065	-0.000025
1251	1.2438e+02	7.5571	11.108435	0.000237	2.374898	0.402319	-0.000024
1252	1.2447e+02	7.5478	11.082772	0.000258	2.579631	0.437001	-0.000026
1253	1.2457e+02	7.5384	11.058739	0.000242	2.415845	0.409255	-0.000024
1254	1.2467e+02	7.5277	11.033891	0.000250	2.497738	0.423128	-0.000025
1255	1.2477e+02	7.5152	11.013117	0.000209	2.088272	0.353763	-0.000021
1256	1.2487e+02	7.5057	10.985010	0.000283	2.825310	0.478620	-0.000028
1257	1.2497e+02	7.4978	10.962606	0.000225	2.252058	0.381509	-0.000023
1258	1.2507e+02	7.4862	10.940203	0.000225	2.252058	0.381509	-0.000023
1259	1.2517e+02	7.4792	10.918206	0.000221	2.211112	0.374573	-0.000022
1260	1.2527e+02	7.4688	10.895395	0.000229	2.293005	0.388446	-0.000023
1261	1.2537e+02	7.4578	10.872176	0.000233	2.333951	0.395382	-0.000023
1262	1.2547e+02	7.4479	10.849773	0.000225	2.252058	0.381509	-0.000023
1263	1.2557e+02	7.4375	10.828591	0.000213	2.129219	0.360699	-0.000021
1264	1.2567e+02	7.4276	10.802113	0.000266	2.661524	0.450874	-0.000027
1265	1.2577e+02	7.4191	10.774822	0.000274	2.743417	0.464747	-0.000027
1266	1.2587e+02	7.4078	10.753232	0.000217	2.170165	0.367636	-0.000022
1267	1.2597e+02	7.4001	10.730421	0.000229	2.293005	0.388446	-0.000023
1268	1.2607e+02	7.3882	10.703944	0.000266	2.661524	0.450874	-0.000027
1269	1.2617e+02	7.3779	10.684391	0.000197	1.965433	0.332953	-0.000020
1270	1.2627e+02	7.3711	10.660358	0.000242	2.415845	0.409255	-0.000024
1271	1.2636e+02	7.3602	10.633474	0.000270	2.702470	0.457811	-0.000027
1272	1.2646e+02	7.3473	10.615551	0.000180	1.801647	0.305207	-0.000018
1273	1.2656e+02	7.3408	10.590295	0.000254	2.538684	0.430065	-0.000025
1274	1.2666e+02	7.3291	10.570336	0.000201	2.006379	0.339890	-0.000020
1275	1.2676e+02	7.3193	10.542636	0.000278	2.784363	0.471684	-0.000028
1276	1.2686e+02	7.3047	10.519010	0.000237	2.374898	0.402319	-0.000024
1277	1.2696e+02	7.2991	10.488867	0.000303	3.030042	0.513303	-0.000030
1278	1.2706e+02	7.2878	10.464019	0.000250	2.497738	0.423128	-0.000025
1279	1.2716e+02	7.2776	10.437135	0.000270	2.702470	0.457811	-0.000027
1280	1.2726e+02	7.2683	10.409435	0.000278	2.784363	0.471684	-0.000028
1281	1.2736e+02	7.2585	10.384587	0.000250	2.497738	0.423128	-0.000025
1282	1.2746e+02	7.2503	10.357295	0.000274	2.743417	0.464747	-0.000027
1283	1.2756e+02	7.2402	10.330818	0.000266	2.661524	0.450874	-0.000027
1284	1.2766e+02	7.2283	10.306378	0.000246	2.456791	0.416192	-0.000025
1285	1.2776e+02	7.2189	10.282344	0.000242	2.415845	0.409255	-0.000024
1286	1.2786e+02	7.2070	10.253830	0.000287	2.866256	0.485557	-0.000029
1287	1.2796e+02	7.1986	10.225724	0.000283	2.825310	0.478620	-0.000028
1288	1.2806e+02	7.1886	10.200876	0.000250	2.497738	0.423128	-0.000025
1289	1.2816e+02	7.1751	10.172769	0.000283	2.825310	0.478620	-0.000028
1290	1.2826e+02	7.1692	10.148329	0.000246	2.456791	0.416192	-0.000025
1291	1.2835e+02	7.1601	10.117778	0.000307	3.070989	0.520240	-0.000031
1292	1.2845e+02	7.1499	10.092115	0.000258	2.579631	0.437001	-0.000026
1293	1.2855e+02	7.1404	10.064416	0.000278	2.784363	0.471684	-0.000028
1294	1.2865e+02	7.1275	10.033051	0.000315	3.152882	0.534113	-0.000032
1295	1.2875e+02	7.1224	10.011054	0.000221	2.211112	0.374573	-0.000022
1296	1.2885e+02	7.1090	9.979689	0.000315	3.152882	0.534113	-0.000032
1297	1.2895e+02	7.1005	9.953212	0.000266	2.661524	0.450874	-0.000027
1298	1.2905e+02	7.0909	9.927549	0.000258	2.579631	0.437001	-0.000026
1299	1.2915e+02	7.0788	9.902701	0.000250	2.497738	0.423128	-0.000025
1300	1.2925e+02	7.0728	9.876631	0.000262	2.620577	0.443938	-0.000026
1301	1.2935e+02	7.0592	9.846080	0.000307	3.070989	0.520240	-0.000031
1302	1.2945e+02	7.0496	9.819196	0.000270	2.702470	0.457811	-0.000027
1303	1.2955e+02	7.0399	9.789460	0.000299	2.989096	0.506367	-0.000030
1304	1.2965e+02	7.0309	9.765019	0.000246	2.456791	0.416192	-0.000025
1305	1.2975e+02	7.0201	9.738135	0.000270	2.702470	0.457811	-0.000027
1306	1.2985e+02	7.0117	9.707177	0.000311	3.111935	0.527176	-0.000031
1307	1.2995e+02	6.9988	9.677033	0.000303	3.030042	0.513303	-0.000030
1308	1.3005e+02	6.9906	9.653407	0.000237	2.374898	0.402319	-0.000024
1309	1.3015e+02	6.9781	9.619191	0.000344	3.439507	0.582668	-0.000034
1310	1.3025e+02	6.9691	9.590269	0.000291	2.907203	0.492493	-0.000029
1311	1.3034e+02	6.9581	9.562977	0.000274	2.743417	0.464747	-0.000027
1312	1.3044e+02	6.9501	9.527539	0.000356	3.562347	0.603478	-0.000036
1313	1.3054e+02	6.9404	9.500247	0.000274	2.743417	0.464747	-0.000027
1314	1.3064e+02	6.9296	9.471325	0.000291	2.907203	0.492493	-0.000029
1315	1.3074e+02	6.9197	9.438331	0.000332	3.316668	0.561859	-0.000033
1316	1.3084e+02	6.9128	9.409409	0.000291	2.907203	0.492493	-0.000029
1317	1.3094e+02	6.9009	9.377637	0.000319	3.193828	0.541049	-0.000032
1318	1.3104e+02	6.8877	9.350345	0.000274	2.743417	0.464747	-0.000027
1319	1.3114e+02	6.8813	9.321423	0.000291	2.907203	0.492493	-0.000029
1320	1.3124e+02	6.8696	9.293724	0.000278	2.784363	0.471684	-0.000028
1321	1.3134e+02	6.8611	9.262766	0.000311	3.111935	0.527176	-0.000031
1322	1.3144e+02	6.8494	9.228549	0.000344	3.439507	0.582668	-0.000034
1323	1.3154e+02	6.8414	9.202479	0.000262	2.620577	0.443938	-0.000026
1324	1.3164e+02	6.8304	9.167448	0.000352	3.521400	0.596541	-0.000035
1325	1.3174e+02	6.8224	9.140971	0.000266	2.661524	0.450874	-0.000027
1326	1.3184e+02	6.8115	9.107976	0.000332	3.316668	0.561859	-0.000033
1327	1.3194e+02	6.8011	9.081091	0.000270	2.702470	0.457811	-0.000027
1328	1.3204e+02	6.7916	9.048504	0.000328	3.275721	0.554922	-0.000033
1329	1.3214e+02	6.7835	9.023656	0.000250	2.497738	0.423128	-0.000025
1330	1.3224e+02	6.7685	8.992698	0.000311	3.111935	0.527176	-0.000031
1331	1.3234e+02	6.7604	8.965406	0.000274	2.743417	0.464747	-0.000027
1332	1.3243e+02	6.7525	8.938929	0.000266	2.661524	0.450874	-0.000027
1333	1.3253e+02	6.7419	8.907971	0.000311	3.111935	0.527176	-0.000031
1334	1.3263e+02	6.7318	8.885159	0.000229	2.293005	0.388446	-0.000023
1335	1.3273e+02	6.7215	8.854201	0.000311	3.111935	0.527176	-0.000031
1336	1.3283e+02	6.7098	8.826095	0.000283	2.825310	0.478620	-0.000028
1337	1.3293e+02	6.7027	8.800839	0.000254	2.538684	0.430065	-0.000025
1338	1.3303e+02	6.6918	8.773140	0.000278	2.784363	0.471684	-0.000028
1339	1.3313e+02	6.6830	8.742182	0.000311	3.111935	0.527176	-0.000031
1340	1.3323e+02	6.6737	8.716112	0.000262	2.620577	0.443938	-0.000026
1341	1.3333e+02	6.6618	8.685154	0.000311	3.111935	0.527176	-0.000031
1342	1.3343e+02	6.6534	8.658677	0.000266	2.661524	0.450874	-0.000027
1343	1.3353e+02	6.6409	8.626904	0.000319	3.193828	0.541049	-0.000032
1344	1.3363e+02	6.6321	8.597576	0.000295	2.948149	0.499430	-0.000029
1345	1.3373e+02	6.6216	8.567840	0.000299	2.989096	0.506367	-0.000030
1346	1.3383e+02	6.6120	8.536067	0.000319	3.193828	0.541049	-0.000032
1347	1.3393e+02	6.6004	8.506331	0.000299	2.989096	0.506367	-0.000030
1348	1.3403e+02	6.5919	8.479446	0.000270	2.702470	0.457811	-0.000027
1349	1.3413e+02	6.5813	8.450118	0.000295	2.948149	0.499430	-0.000029
1350	1.3423e+02	6.5717	8.420789	0.000295	2.948149	0.499430	-0.000029
1351	1.3432e+02	6.5615	8.391460	0.000295	2.948149	0.499430	-0.000029
1352	1.3442e+02	6.5542	8.360910	0.000307	3.070989	0.520240	-0.000031
1353	1.3452e+02	6.5425	8.329137	0.000319	3.193828	0.541049	-0.000032
1354	1.3462e+02	6.5334	8.301845	0.000274	2.743417	0.464747	-0.000027
1355	1.3472e+02	6.5230	8.271294	0.000307	3.070989	0.520240	-0.000031
1356	1.3482e+02	6.5162	8.240336	0.000311	3.111935	0.527176	-0.000031
1357	1.3492e+02	6.5014	8.213044	0.000274	2.743417	0.464747	-0.000027
1358	1.3502e+02	6.4938	8.183308	0.000299	2.989096	0.506367	-0.000030
1359	1.3512e+02	6.4812	8.151535	0.000319	3.193828	0.541049	-0.000032
1360	1.3522e+02	6.4764	8.125466	0.000262	2.620577	0.443938	-0.000026
1361	1.3532e+02	6.4639	8.097359	0.000283	2.825310	0.478620	-0.000028
1362	1.3542e+02	6.4538	8.070882	0.000266	2.661524	0.450874	-0.000027
1363	1.3552e+02	6.4455	8.042368	0.000287	2.866256	0.485557	-0.000029
1364	1.3562e+02	6.4348	8.017927	0.000246	2.456791	0.416192	-0.000025
1365	1.3572e+02	6.4222	7.993079	0.000250	2.497738	0.423128	-0.000025
1366	1.3582e+02	6.4123	7.966195	0.000270	2.702470	0.457811	-0.000027
1367	1.3592e+02	6.4031	7.936866	0.000295	2.948149	0.499430	-0.000029
1368	1.3602e+02	6.3963	7.909167	0.000278	2.784363	0.471684	-0.000028
1369	1.3612e+02	6.3847	7.884319	0.000250	2.497738	0.423128	-0.000025
1370	1.3622e+02	6.3730	7.855397	0.000291	2.907203	0.492493	-0.000029
1371	1.3631e+02	6.3642	7.828105	0.000274	2.743417	0.464747	-0.000027
1372	1.3641e+02	6.3541	7.798777	0.000295	2.948149	0.499430	-0.000029
1373	1.3651e+02	6.3442	7.777188	0.000217	2.170165	0.367636	-0.000022
1374	1.3661e+02	6.3308	7.745415	0.000319	3.193828	0.541049	-0.000032
1375	1.3671e+02	6.3233	7.721382	0.000242	2.415845	0.409255	-0.000024
1376	1.3681e+02	6.3142	7.693682	0.000278	2.784363	0.471684	-0.000028
1377	1.3691e+02	6.3032	7.667205	0.000266	2.661524	0.450874	-0.000027
1378	1.3701e+02	6.2930	7.641950	0.000254	2.538684	0.430065	-0.000025
1379	1.3711e+02	6.2853	7.616695	0.000254	2.538684	0.430065	-0.000025
1380	1.3721e+02	6.2730	7.589810	0.000270	2.702470	0.457811	-0.000027
1381	1.3731e+02	6.2617	7.563740	0.000262	2.620577	0.443938	-0.000026
1382	1.3741e+02	6.2517	7.538485	0.000254	2.538684	0.430065	-0.000025
1383	1.3751e+02	6.2452	7.509156	0.000295	2.948149	0.499430	-0.000029
1384	1.3761e+02	6.2331	7.480235	0.000291	2.907203	0.492493	-0.000029
1385	1.3771e+02	6.2247	7.455794	0.000246	2.456791	0.416192	-0.000025
1386	1.3781e+02	6.2141	7.430132	0.000258	2.579631	0.437001	-0.000026
1387	1.3791e+02	6.2065	7.399581	0.000307	3.070989	0.520240	-0.000031
1388	1.3801e+02	6.1947	7.375548	0.000242	2.415845	0.409255	-0.000024
1389	1.3811e+02	6.1822	7.349478	0.000262	2.620577	0.443938	-0.000026
1390	1.3821e+02	6.1736	7.323001	0.000266	2.661524	0.450874	-0.000027
1391	1.3831e+02	6.1663	7.297338	0.000258	2.579631	0.437001	-0.000026
1392	1.3840e+02	6.1543	7.272898	0.000246	2.456791	0.416192	-0.000025
1393	1.3850e+02	6.1479	7.247642	0.000254	2.538684	0.430065	-0.000025
1394	1.3860e+02	6.1349	7.225646	0.000221	2.211112	0.374573	-0.000022
1395	1.3870e+02	6.1251	7.198761	0.000270	2.702470	0.457811	-0.000027
1396	1.3880e+02	6.1156	7.174728	0.000242	2.415845	0.409255	-0.000024
1397	1.3890e+02	6.1024	7.152324	0.000225	2.252058	0.381509	-0.000023
1398	1.3900e+02	6.0927	7.127476	0.000250	2.497738	0.423128	-0.000025
1399	1.3910e+02	6.0820	7.102221	0.000254	2.538684	0.430065	-0.000025
1400	1.3920e+02	6.0766	7.076558	0.000258	2.579631	0.437001	-0.000026
1401	1.3930e+02	6.0637	7.050896	0.000258	2.579631	0.437001	-0.000026
1402	1.3940e+02	6.0563	7.027677	0.000233	2.333951	0.395382	-0.000023
1403	1.3950e+02	6.0447	6.999163	0.000287	2.866256	0.485557	-0.000029
1404	1.3960e+02	6.0365	6.977167	0.000221	2.211112	0.374573	-0.000022
1405	1.3970e+02	6.0261	6.953541	0.000237	2.374898	0.402319	-0.000024
1406	1.3980e+02	6.0143	6.926249	0.000274	2.743417	0.464747	-0.000027
1407	1.3990e+02	6.0044	6.900179	0.000262	2.620577	0.443938	-0.000026
1408	1.4000e+02	5.9943	6.876146	0.000242	2.415845	0.409255	-0.000024
1409	1.4010e+02	5.9841	6.851298	0.000250	2.497738	0.423128	-0.000025
1410	1.4020e+02	5.9762	6.826043	0.000254	2.538684	0.430065	-0.000025
1411	1.4029e+02	5.9658	6.801602	0.000246	2.456791	0.416192	-0.000025
1412	1.4039e+02	5.9554	6.776754	0.000250	2.497738	0.423128	-0.000025
1413	1.4049e+02	5.9475	6.747426	0.000295	2.948149	0.499430	-0.000029
1414	1.4059e+02	5.9365	6.718504	0.000291	2.907203	0.492493	-0.000029
1415	1.4069e+02	5.9280	6.693656	0.000250	2.497738	0.423128	-0.000025
1416	1.4079e+02	5.9193	6.667179	0.000266	2.661524	0.450874	-0.000027
1417	1.4089e+02	5.9051	6.635406	0.000319	3.193828	0.541049	-0.000032
1418	1.4099e+02	5.8990	6.608929	0.000266	2.661524	0.450874	-0.000027
1419	1.4109e+02	5.8877	6.584489	0.000246	2.456791	0.416192	-0.000025
1420	1.4119e+02	5.8794	6.555160	0.000295	2.948149	0.499430	-0.000029
1421	1.4129e+02	5.8643	6.529090	0.000262	2.620577	0.443938	-0.000026
1422	1.4139e+02	5.8546	6.499354	0.000299	2.989096	0.506367	-0.000030
1423	1.4149e+02	5.8464	6.478172	0.000213	2.129219	0.360699	-0.000021
1424	1.4159e+02	5.8350	6.450473	0.000278	2.784363	0.471684	-0.000028
1425	1.4169e+02	5.8270	6.424403	0.000262	2.620577	0.443938	-0.000026
1426	1.4179e+02	5.8181	6.399962	0.000246	2.456791	0.416192	-0.000025
1427	1.4189e+02	5.8094	6.371856	0.000283	2.825310	0.478620	-0.000028
1428	1.4199e+02	5.7973	6.342527	0.000295	2.948149	0.499430	-0.000029
1429	1.4209e+02	5.7883	6.318494	0.000242	2.415845	0.409255	-0.000024
1430	1.4219e+02	5.7775	6.288351	0.000303	3.030042	0.513303	-0.000030
1431	1.4228e+02	5.7682	6.265539	0.000229	2.293005	0.388446	-0.000023
1432	1.4238e+02	5.7572	6.235803	0.000299	2.989096	0.506367	-0.000030
1433	1.4248e+02	5.7453	6.212585	0.000233	2.333951	0.395382	-0.000023
1434	1.4258e+02	5.7365	6.186108	0.000266	2.661524	0.450874	-0.000027
1435	1.4268e+02	5.7253	6.157186	0.000291	2.907203	0.492493	-0.000029
1436	1.4278e+02	5.7201	6.131524	0.000258	2.579631	0.437001	-0.000026
1437	1.4288e+02	5.7046	6.105861	0.000258	2.579631	0.437001	-0.000026
1438	1.4298e+02	5.6971	6.077755	0.000283	2.825310	0.478620	-0.000028
1439	1.4308e+02	5.6872	6.052092	0.000258	2.579631	0.437001	-0.000026
1440	1.4318e+02	5.6741	6.028466	0.000237	2.374898	0.402319	-0.000024
1441	1.4328e+02	5.6675	5.997101	0.000315	3.152882	0.534113	-0.000032
1442	1.4338e+02	5.6569	5.971031	0.000262	2.620577	0.443938	-0.000026
1443	1.4348e+02	5.6500	5.947405	0.000237	2.374898	0.402319	-0.000024
1444	1.4358e+02	5.6365	5.917262	0.000303	3.030042	0.513303	-0.000030
1445	1.4368e+02	5.6274	5.890784	0.000266	2.661524	0.450874	-0.000027
1446	1.4378e+02	5.6164	5.855346	0.000356	3.562347	0.603478	-0.000036
1447	1.4388e+02	5.6068	5.828868	0.000266	2.661524	0.450874	-0.000027
1448	1.4398e+02	5.5971	5.796281	0.000328	3.275721	0.554922	-0.000033
1449	1.4408e+02	5.5860	5.771433	0.000250	2.497738	0.423128	-0.000025
1450	1.4418e+02	5.5767	5.742512	0.000291	2.907203	0.492493	-0.000029
1451	1.4428e+02	5.5688	5.712776	0.000299	2.989096	0.506367	-0.000030
1452	1.4437e+02	5.5581	5.682632	0.000303	3.030042	0.513303	-0.000030
1453	1.4447e+02	5.5477	5.649638	0.000332	3.316668	0.561859	-0.000033
1454	1.4457e+02	5.5389	5.623975	0.000258	2.579631	0.437001	-0.000026
1455	1.4467e+02	5.5276	5.591795	0.000323	3.234775	0.547986	-0.000032
1456	1.4477e+02	5.5176	5.561652	0.000303	3.030042	0.513303	-0.000030
1457	1.4487e+02	5.5091	5.532730	0.000291	2.907203	0.492493	-0.000029
1458	1.4497e+02	5.4956	5.504216	0.000287	2.866256	0.485557	-0.000029
1459	1.4507e+02	5.4900	5.474073	0.000303	3.030042	0.513303	-0.000030
1460	1.4517e+02	5.4757	5.441485	0.000328	3.275721	0.554922	-0.000033
1461	1.4527e+02	5.4655	5.411342	0.000303	3.030042	0.513303	-0.000030
1462	1.4537e+02	5.4572	5.377940	0.000336	3.357614	0.568795	-0.000034
1463	1.4547e+02	5.4470	5.350648	0.000274	2.743417	0.464747	-0.000027
1464	1.4557e+02	5.4386	5.319283	0.000315	3.152882	0.534113	-0.000032
1465	1.4567e+02	5.4290	5.287103	0.000323	3.234775	0.547986	-0.000032
1466	1.4577e+02	5.4208	5.258181	0.000291	2.907203	0.492493	-0.000029
1467	1.4587e+02	5.4116	5.228038	0.000303	3.030042	0.513303	-0.000030
1468	1.4597e+02	5.4002	5.195451	0.000328	3.275721	0.554922	-0.000033
1469	1.4607e+02	5.3905	5.168159	0.000274	2.743417	0.464747	-0.000027
1470	1.4617e+02	5.3802	5.138015	0.000303	3.030042	0.513303	-0.000030
1471	1.4626e+02	5.3698	5.104613	0.000336	3.357614	0.568795	-0.000034
1472	1.4636e+02	5.3584	5.078136	0.000266	2.661524	0.450874	-0.000027
1473	1.4646e+02	5.3478	5.045141	0.000332	3.316668	0.561859	-0.000033
1474	1.4656e+02	5.3405	5.014998	0.000303	3.030042	0.513303	-0.000030
1475	1.4666e+02	5.3289	4.979152	0.000360	3.603294	0.610414	-0.000036
1476	1.4676e+02	5.3179	4.946157	0.000332	3.316668	0.561859	-0.000033
1477	1.4686e+02	5.3070	4.914792	0.000315	3.152882	0.534113	-0.000032
1478	1.4696e+02	5.2987	4.882204	0.000328	3.275721	0.554922	-0.000033
1479	1.4706e+02	5.2883	4.845543	0.000369	3.685187	0.624288	-0.000037
1480	1.4716e+02	5.2795	4.814178	0.000315	3.152882	0.534113	-0.000032
1481	1.4726e+02	5.2673	4.782405	0.000319	3.193828	0.541049	-0.000032
1482	1.4736e+02	5.2605	4.744930	0.000377	3.767080	0.638161	-0.000038
1483	1.4746e+02	5.2508	4.718045	0.000270	2.702470	0.457811	-0.000027
1484	1.4756e+02	5.2388	4.683421	0.000348	3.480454	0.589605	-0.000035
1485	1.4766e+02	5.2305	4.649612	0.000340	3.398561	0.575732	-0.000034
1486	1.4776e+02	5.2216	4.615395	0.000344	3.439507	0.582668	-0.000034
1487	1.4786e+02	5.2065	4.585251	0.000303	3.030042	0.513303	-0.000030
1488	1.4796e+02	5.2007	4.554701	0.000307	3.070989	0.520240	-0.000031
1489	1.4806e+02	5.1888	4.515189	0.000397	3.971812	0.672843	-0.000040
1490	1.4816e+02	5.1826	4.480157	0.000352	3.521400	0.596541	-0.000035
1491	1.4825e+02	5.1682	4.449199	0.000311	3.111935	0.527176	-0.000031
1492	1.4835e+02	5.1606	4.415390	0.000340	3.398561	0.575732	-0.000034
1493	1.4845e+02	5.1492	4.379951	0.000356	3.562347	0.603478	-0.000036
1494	1.4855e+02	5.1394	4.349400	0.000307	3.070989	0.520240	-0.000031
1495	1.4865e+02	5.1292	4.318442	0.000311	3.111935	0.527176	-0.000031
1496	1.4875e+02	5.1218	4.287077	0.000315	3.152882	0.534113	-0.000032
1497	1.4885e+02	5.1086	4.256119	0.000311	3.111935	0.527176	-0.000031
1498	1.4895e+02	5.1015	4.223531	0.000328	3.275721	0.554922	-0.000033
1499	1.4905e+02	5.0903	4.195017	0.000287	2.866256	0.485557	-0.000029
1500	1.4915e+02	5.0776	4.159986	0.000352	3.521400	0.596541	-0.000035
1501	1.4925e+02	5.0696	4.134323	0.000258	2.579631	0.437001	-0.000026
1502	1.4935e+02	5.0589	4.102551	0.000319	3.193828	0.541049	-0.000032
1503	1.4945e+02	5.0513	4.069148	0.000336	3.357614	0.568795	-0.000034
1504	1.4955e+02	5.0388	4.039005	0.000303	3.030042	0.513303	-0.000030
1505	1.4965e+02	5.0291	4.004788	0.000344	3.439507	0.582668	-0.000034
1506	1.4975e+02	5.0202	3.976274	0.000287	2.866256	0.485557	-0.000029
1507	1.4985e+02	5.0106	3.946946	0.000295	2.948149	0.499430	-0.000029
1508	1.4995e+02	5.0014	3.909470	0.000377	3.767080	0.638161	-0.000038
1509	1.5005e+02	4.9914	3.879327	0.000303	3.030042	0.513303	-0.000030
1510	1.5015e+02	4.9802	3.846739	0.000328	3.275721	0.554922	-0.000033
1511	1.5025e+02	4.9723	3.813745	0.000332	3.316668	0.561859	-0.000033
1512	1.5034e+02	4.9626	3.779935	0.000340	3.398561	0.575732	-0.000034
1513	1.5044e+02	4.9516	3.747755	0.000323	3.234775	0.547986	-0.000032
1514	1.5054e+02	4.9416	3.715168	0.000328	3.275721	0.554922	-0.000033
1515	1.5064e+02	4.9305	3.681358	0.000340	3.398561	0.575732	-0.000034
1516	1.5074e+02	4.9196	3.650808	0.000307	3.070989	0.520240	-0.000031
1517	1.5084e+02	4.9128	3.617813	0.000332	3.316668	0.561859	-0.000033
1518	1.5094e+02	4.8992	3.587670	0.000303	3.030042	0.513303	-0.000030
1519	1.5104e+02	4.8891	3.553045	0.000348	3.480454	0.589605	-0.000035
1520	1.5114e+02	4.8775	3.516792	0.000364	3.644240	0.617351	-0.000036
1521	1.5124e+02	4.8737	3.485427	0.000315	3.152882	0.534113	-0.000032
1522	1.5134e+02	4.8609	3.452024	0.000336	3.357614	0.568795	-0.000034
1523	1.5144e+02	4.8534	3.417808	0.000344	3.439507	0.582668	-0.000034
1524	1.5154e+02	4.8426	3.385628	0.000323	3.234775	0.547986	-0.000032
1525	1.5164e+02	4.8306	3.351818	0.000340	3.398561	0.575732	-0.000034
1526	1.5174e+02	4.8193	3.321267	0.000307	3.070989	0.520240	-0.000031
1527	1.5184e+02	4.8122	3.288273	0.000332	3.316668	0.561859	-0.000033
1528	1.5194e+02	4.8040	3.258944	0.000295	2.948149	0.499430	-0.000029
1529	1.5204e+02	4.7914	3.229208	0.000299	2.989096	0.506367	-0.000030
1530	1.5214e+02	4.7784	3.196621	0.000328	3.275721	0.554922	-0.000033
1531	1.5224e+02	4.7686	3.168921	0.000278	2.784363	0.471684	-0.000028
1532	1.5233e+02	4.7617	3.139185	0.000299	2.989096	0.506367	-0.000030
1533	1.5243e+02	4.7527	3.108635	0.000307	3.070989	0.520240	-0.000031
1534	1.5253e+02	4.7424	3.075640	0.000332	3.316668	0.561859	-0.000033
1535	1.5263e+02	4.7311	3.044275	0.000315	3.152882	0.534113	-0.000032
1536	1.5273e+02	4.7221	3.015353	0.000291	2.907203	0.492493	-0.000029
1537	1.5283e+02	4.7144	2.986025	0.000295	2.948149	0.499430	-0.000029
1538	1.5293e+02	4.7002	2.954252	0.000319	3.193828	0.541049	-0.000032
1539	1.5303e+02	4.6938	2.923701	0.000307	3.070989	0.520240	-0.000031
1540	1.5313e+02	4.6823	2.894780	0.000291	2.907203	0.492493	-0.000029
1541	1.5323e+02	4.6705	2.868303	0.000266	2.661524	0.450874	-0.000027
1542	1.5333e+02	4.6650	2.835715	0.000328	3.275721	0.554922	-0.000033
1543	1.5343e+02	4.6529	2.806387	0.000295	2.948149	0.499430	-0.000029
1544	1.5353e+02	4.6445	2.777873	0.000287	2.866256	0.485557	-0.000029
1545	1.5363e+02	4.6305	2.741212	0.000369	3.685187	0.624288	-0.000037
1546	1.5373e+02	4.6224	2.715142	0.000262	2.620577	0.443938	-0.000026
1547	1.5383e+02	4.6125	2.684591	0.000307	3.070989	0.520240	-0.000031
1548	1.5393e+02	4.6025	2.656077	0.000287	2.866256	0.485557	-0.000029
1549	1.5403e+02	4.5926	2.623082	0.000332	3.316668	0.561859	-0.000033
1550	1.5413e+02	4.5811	2.593346	0.000299	2.989096	0.506367	-0.000030
1551	1.5422e+02	4.5748	2.564832	0.000287	2.866256	0.485557	-0.000029
1552	1.5432e+02	4.5654	2.537133	0.000278	2.784363	0.471684	-0.000028
1553	1.5442e+02	4.5526	2.504953	0.000323	3.234775	0.547986	-0.000032
1554	1.5452e+02	4.5419	2.473588	0.000315	3.152882	0.534113	-0.000032
1555	1.5462e+02	4.5361	2.446296	0.000274	2.743417	0.464747	-0.000027
1556	1.5472e+02	4.5230	2.416152	0.000303	3.030042	0.513303	-0.000030
1557	1.5482e+02	4.5130	2.386009	0.000303	3.030042	0.513303	-0.000030
1558	1.5492e+02	4.5016	2.352607	0.000336	3.357614	0.568795	-0.000034
1559	1.5502e+02	4.4939	2.324500	0.000283	2.825310	0.478620	-0.000028
1560	1.5512e+02	4.4830	2.294764	0.000299	2.989096	0.506367	-0.000030
1561	1.5522e+02	4.4724	2.269916	0.000250	2.497738	0.423128	-0.000025
1562	1.5532e+02	4.4610	2.240180	0.000299	2.989096	0.506367	-0.000030
1563	1.5542e+02	4.4530	2.216554	0.000237	2.374898	0.402319	-0.000024
1564	1.5552e+02	4.4453	2.188448	0.000283	2.825310	0.478620	-0.000028
1565	1.5562e+02	4.4328	2.158305	0.000303	3.030042	0.513303	-0.000030
1566	1.5572e+02	4.4222	2.131013	0.000274	2.743417	0.464747	-0.000027
1567	1.5582e+02	4.4131	2.104128	0.000270	2.702470	0.457811	-0.000027
1568	1.5592e+02	4.4049	2.075614	0.000287	2.866256	0.485557	-0.000029
1569	1.5602e+02	4.3943	2.043434	0.000323	3.234775	0.547986	-0.000032
1570	1.5612e+02	4.3832	2.014513	0.000291	2.907203	0.492493	-0.000029
1571	1.5622e+02	4.3726	1.990479	0.000242	2.415845	0.409255	-0.000024
1572	1.5631e+02	4.3647	1.959114	0.000315	3.152882	0.534113	-0.000032
1573	1.5641e+02	4.3557	1.933859	0.000254	2.538684	0.430065	-0.000025
1574	1.5651e+02	4.3435	1.903715	0.000303	3.030042	0.513303	-0.000030
1575	1.5661e+02	4.3348	1.876831	0.000270	2.702470	0.457811	-0.000027
1576	1.5671e+02	4.3238	1.852798	0.000242	2.415845	0.409255	-0.000024
1577	1.5681e+02	4.3151	1.819396	0.000336	3.357614	0.568795	-0.000034
1578	1.5691e+02	4.3044	1.791696	0.000278	2.784363	0.471684	-0.000028
1579	1.5701e+02	4.2949	1.758701	0.000332	3.316668	0.561859	-0.000033
1580	1.5711e+02	4.2821	1.730187	0.000287	2.866256	0.485557	-0.000029
1581	1.5721e+02	4.2742	1.701266	0.000291	2.907203	0.492493	-0.000029
1582	1.5731e+02	4.2636	1.669901	0.000315	3.152882	0.534113	-0.000032
1583	1.5741e+02	4.2510	1.635684	0.000344	3.439507	0.582668	-0.000034
1584	1.5751e+02	4.2443	1.606763	0.000291	2.907203	0.492493	-0.000029
1585	1.5761e+02	4.2361	1.578656	0.000283	2.825310	0.478620	-0.000028
1586	1.5771e+02	4.2263	1.549327	0.000295	2.948149	0.499430	-0.000029
1587	1.5781e+02	4.2164	1.513074	0.000364	3.644240	0.617351	-0.000036
1588	1.5791e+02	4.2059	1.487819	0.000254	2.538684	0.430065	-0.000025
1589	1.5801e+02	4.1949	1.455231	0.000328	3.275721	0.554922	-0.000033
1590	1.5811e+02	4.1834	1.420200	0.000352	3.521400	0.596541	-0.000035
1591	1.5821e+02	4.1744	1.390871	0.000295	2.948149	0.499430	-0.000029
1592	1.5830e+02	4.1666	1.362357	0.000287	2.866256	0.485557	-0.000029
1593	1.5840e+02	4.1567	1.331399	0.000311	3.111935	0.527176	-0.000031
1594	1.5850e+02	4.1428	1.304515	0.000270	2.702470	0.457811	-0.000027
1595	1.5860e+02	4.1348	1.275593	0.000291	2.907203	0.492493	-0.000029
1596	1.5870e+02	4.1261	1.243006	0.000328	3.275721	0.554922	-0.000033
1597	1.5880e+02	4.1145	1.215714	0.000274	2.743417	0.464747	-0.000027
1598	1.5890e+02	4.1041	1.186793	0.000291	2.907203	0.492493	-0.000029
1599	1.5900e+02	4.0955	1.154612	0.000323	3.234775	0.547986	-0.000032
1600	1.5910e+02	4.0857	1.123654	0.000311	3.111935	0.527176	-0.000031
1601	1.5920e+02	4.0762	1.092696	0.000311	3.111935	0.527176	-0.000031
1602	1.5930e+02	4.0656	1.062553	0.000303	3.030042	0.513303	-0.000030
1603	1.5940e+02	4.0554	1.031188	0.000315	3.152882	0.534113	-0.000032
1604	1.5950e+02	4.0466	1.001044	0.000303	3.030042	0.513303	-0.000030
1605	1.5960e+02	4.0366	0.973345	0.000278	2.784363	0.471684	-0.000028
1606	1.5970e+02	4.0264	0.943202	0.000303	3.030042	0.513303	-0.000030
1607	1.5980e+02	4.0160	0.913058	0.000303	3.030042	0.513303	-0.000030
1608	1.5990e+02	4.0078	0.880471	0.000328	3.275721	0.554922	-0.000033
1609	1.6000e+02	3.9959	0.852772	0.000278	2.784363	0.471684	-0.000028
1610	1.6010e+02	3.9883	0.820592	0.000323	3.234775	0.547986	-0.000032
1611	1.6019e+02	3.9774	0.790448	0.000303	3.030042	0.513303	-0.000030
1612	1.6029e+02	3.9652	0.759490	0.000311	3.111935	0.527176	-0.000031
1613	1.6039e+02	3.9554	0.720793	0.000389	3.889919	0.658970	-0.000039
1614	1.6049e+02	3.9441	0.689427	0.000315	3.152882	0.534113	-0.000032
1615	1.6059e+02	3.9344	0.657655	0.000319	3.193828	0.541049	-0.000032
1616	1.6069e+02	3.9263	0.623845	0.000340	3.398561	0.575732	-0.000034
1617	1.6079e+02	3.9169	0.592887	0.000311	3.111935	0.527176	-0.000031
1618	1.6089e+02	3.9074	0.559078	0.000340	3.398561	0.575732	-0.000034
1619	1.6099e+02	3.8949	0.528527	0.000307	3.070989	0.520240	-0.000031
1620	1.6109e+02	3.8833	0.489422	0.000393	3.930866	0.665907	-0.000039
1621	1.6119e+02	3.8760	0.458057	0.000315	3.152882	0.534113	-0.000032
1622	1.6129e+02	3.8654	0.423840	0.000344	3.439507	0.582668	-0.000034
1623	1.6139e+02	3.8561	0.392882	0.000311	3.111935	0.527176	-0.000031
1624	1.6149e+02	3.8433	0.358258	0.000348	3.480454	0.589605	-0.000035
1625	1.6159e+02	3.8361	0.322412	0.000360	3.603294	0.610414	-0.000036
1626	1.6169e+02	3.8276	0.287788	0.000348	3.480454	0.589605	-0.000035
1627	1.6179e+02	3.8149	0.256015	0.000319	3.193828	0.541049	-0.000032
1628	1.6189e+02	3.8050	0.223020	0.000332	3.316668	0.561859	-0.000033
1629	1.6199e+02	3.7965	0.190433	0.000328	3.275721	0.554922	-0.000033
1630	1.6209e+02	3.7891	0.154179	0.000364	3.644240	0.617351	-0.000036
1631	1.6219e+02	3.7751	0.120370	0.000340	3.398561	0.575732	-0.000034
1632	1.6228e+02	3.7664	0.083709	0.000369	3.685187	0.624288	-0.000037
1633	1.6238e+02	3.7559	0.051529	0.000323	3.234775	0.547986	-0.000032
1634	1.6248e+02	3.7461	0.022200	0.000295	2.948149	0.499430	-0.000029
1635	1.6258e+02	3.7392	-0.016905	0.000393	3.930866	0.665907	-0.000039
1636	1.6268e+02	3.7260	-0.047863	0.000311	3.111935	0.527176	-0.000031
1637	1.6278e+02	3.7182	-0.086153	0.000385	3.848973	0.652034	-0.000038
1638	1.6288e+02	3.7066	-0.118333	0.000323	3.234775	0.547986	-0.000032
1639	1.6298e+02	3.6990	-0.155401	0.000373	3.726133	0.631224	-0.000037
1640	1.6308e+02	3.6869	-0.190840	0.000356	3.562347	0.603478	-0.000036
1641	1.6318e+02	3.6777	-0.221391	0.000307	3.070989	0.520240	-0.000031
1642	1.6328e+02	3.6655	-0.256422	0.000352	3.521400	0.596541	-0.000035
1643	1.6338e+02	3.6546	-0.296342	0.000401	4.012759	0.679780	-0.000040
1644	1.6348e+02	3.6492	-0.330558	0.000344	3.439507	0.582668	-0.000034
1645	1.6358e+02	3.6392	-0.371293	0.000409	4.094652	0.693653	-0.000041
1646	1.6368e+02	3.6252	-0.404695	0.000336	3.357614	0.568795	-0.000034
1647	1.6378e+02	3.6160	-0.442578	0.000381	3.808026	0.645097	-0.000038
1648	1.6388e+02	3.6087	-0.481275	0.000389	3.889919	0.658970	-0.000039
1649	1.6398e+02	3.5963	-0.519158	0.000381	3.808026	0.645097	-0.000038
1650	1.6408e+02	3.5867	-0.556226	0.000373	3.726133	0.631224	-0.000037
1651	1.6418e+02	3.5772	-0.592887	0.000369	3.685187	0.624288	-0.000037
1652	1.6427e+02	3.5689	-0.625882	0.000332	3.316668	0.561859	-0.000033
1653	1.6437e+02	3.5587	-0.665394	0.000397	3.971812	0.672843	-0.000040
1654	1.6447e+02	3.5480	-0.700018	0.000348	3.480454	0.589605	-0.000035
1655	1.6457e+02	3.5378	-0.741974	0.000422	4.217491	0.714462	-0.000042
1656	1.6467e+02	3.5279	-0.777413	0.000356	3.562347	0.603478	-0.000036
1657	1.6477e+02	3.5170	-0.815296	0.000381	3.808026	0.645097	-0.000038
1658	1.6487e+02	3.5084	-0.851957	0.000369	3.685187	0.624288	-0.000037
1659	1.6497e+02	3.4976	-0.887803	0.000360	3.603294	0.610414	-0.000036
1660	1.6507e+02	3.4875	-0.925279	0.000377	3.767080	0.638161	-0.000038
1661	1.6517e+02	3.4784	-0.961532	0.000364	3.644240	0.617351	-0.000036
1662	1.6527e+02	3.4678	-0.999415	0.000381	3.808026	0.645097	-0.000038
1663	1.6537e+02	3.4592	-1.035261	0.000360	3.603294	0.610414	-0.000036
1664	1.6547e+02	3.4505	-1.067034	0.000319	3.193828	0.541049	-0.000032
1665	1.6557e+02	3.4402	-1.105731	0.000389	3.889919	0.658970	-0.000039
1666	1.6567e+02	3.4299	-1.137097	0.000315	3.152882	0.534113	-0.000032
1667	1.6577e+02	3.4219	-1.174165	0.000373	3.726133	0.631224	-0.000037
1668	1.6587e+02	3.4087	-1.213270	0.000393	3.930866	0.665907	-0.000039
1669	1.6597e+02	3.3998	-1.245450	0.000323	3.234775	0.547986	-0.000032
1670	1.6607e+02	3.3881	-1.278852	0.000336	3.357614	0.568795	-0.000034
1671	1.6616e+02	3.3802	-1.313883	0.000352	3.521400	0.596541	-0.000035
1672	1.6626e+02	3.3682	-1.352581	0.000389	3.889919	0.658970	-0.000039
1673	1.6636e+02	3.3591	-1.383132	0.000307	3.070989	0.520240	-0.000031
1674	1.6646e+02	3.3511	-1.418163	0.000352	3.521400	0.596541	-0.000035
1675	1.6656e+02	3.3408	-1.459305	0.000414	4.135598	0.700589	-0.000041
1676	1.6666e+02	3.3282	-1.493521	0.000344	3.439507	0.582668	-0.000034
1677	1.6676e+02	3.3193	-1.530997	0.000377	3.767080	0.638161	-0.000038
1678	1.6686e+02	3.3102	-1.570102	0.000393	3.930866	0.665907	-0.000039
1679	1.6696e+02	3.2962	-1.605948	0.000360	3.603294	0.610414	-0.000036
1680	1.6706e+02	3.2890	-1.642609	0.000369	3.685187	0.624288	-0.000037
1681	1.6716e+02	3.2821	-1.678455	0.000360	3.603294	0.610414	-0.000036
1682	1.6726e+02	3.2703	-1.716338	0.000381	3.808026	0.645097	-0.000038
1683	1.6736e+02	3.2591	-1.754221	0.000381	3.808026	0.645097	-0.000038
1684	1.6746e+02	3.2489	-1.790474	0.000364	3.644240	0.617351	-0.000036
1685	1.6756e+02	3.2403	-1.823062	0.000328	3.275721	0.554922	-0.000033
1686	1.6766e+02	3.2304	-1.860130	0.000373	3.726133	0.631224	-0.000037
1687	1.6776e+02	3.2205	-1.900049	0.000401	4.012759	0.679780	-0.000040
1688	1.6786e+02	3.2102	-1.935081	0.000352	3.521400	0.596541	-0.000035
1689	1.6796e+02	3.2016	-1.972149	0.000373	3.726133	0.631224	-0.000037
1690	1.6806e+02	3.1873	-2.012476	0.000405	4.053705	0.686716	-0.000041
1691	1.6816e+02	3.1791	-2.049544	0.000373	3.726133	0.631224	-0.000037
1692	1.6825e+02	3.1695	-2.083353	0.000340	3.398561	0.575732	-0.000034
1693	1.6835e+02	3.1583	-2.123680	0.000405	4.053705	0.686716	-0.000041
1694	1.6845e+02	3.1501	-2.158712	0.000352	3.521400	0.596541	-0.000035
1695	1.6855e+02	3.1380	-2.190892	0.000323	3.234775	0.547986	-0.000032
1696	1.6865e+02	3.1348	-2.227553	0.000369	3.685187	0.624288	-0.000037
1697	1.6875e+02	3.1195	-2.261362	0.000340	3.398561	0.575732	-0.000034
1698	1.6885e+02	3.1094	-2.291913	0.000307	3.070989	0.520240	-0.000031
1699	1.6895e+02	3.0986	-2.335091	0.000434	4.340331	0.735272	-0.000043
1700	1.6905e+02	3.0917	-2.366457	0.000315	3.152882	0.534113	-0.000032
1701	1.6915e+02	3.0786	-2.402303	0.000360	3.603294	0.610414	-0.000036
1702	1.6925e+02	3.0701	-2.434483	0.000323	3.234775	0.547986	-0.000032
1703	1.6935e+02	3.0608	-2.466255	0.000319	3.193828	0.541049	-0.000032
1704	1.6945e+02	3.0500	-2.504138	0.000381	3.808026	0.645097	-0.000038
1705	1.6955e+02	3.0370	-2.536726	0.000328	3.275721	0.554922	-0.000033
1706	1.6965e+02	3.0289	-2.570943	0.000344	3.439507	0.582668	-0.000034
1707	1.6975e+02	3.0199	-2.608825	0.000381	3.808026	0.645097	-0.000038
1708	1.6985e+02	3.0114	-2.641005	0.000323	3.234775	0.547986	-0.000032
1709	1.6995e+02	3.0001	-2.674408	0.000336	3.357614	0.568795	-0.000034
1710	1.7005e+02	2.9913	-2.709032	0.000348	3.480454	0.589605	-0.000035
1711	1.7015e+02	2.9800	-2.742026	0.000332	3.316668	0.561859	-0.000033
1712	1.7024e+02	2.9710	-2.777058	0.000352	3.521400	0.596541	-0.000035
1713	1.7034e+02	2.9603	-2.810460	0.000336	3.357614	0.568795	-0.000034
1714	1.7044e+02	2.9521	-2.843455	0.000332	3.316668	0.561859	-0.000033
1715	1.7054e+02	2.9408	-2.880116	0.000369	3.685187	0.624288	-0.000037
1716	1.7064e+02	2.9312	-2.917184	0.000373	3.726133	0.631224	-0.000037
1717	1.7074e+02	2.9217	-2.951400	0.000344	3.439507	0.582668	-0.000034
1718	1.7084e+02	2.9118	-2.983173	0.000319	3.193828	0.541049	-0.000032
1719	1.7094e+02	2.9012	-3.020649	0.000377	3.767080	0.638161	-0.000038
1720	1.7104e+02	2.8905	-3.053236	0.000328	3.275721	0.554922	-0.000033
1721	1.7114e+02	2.8817	-3.089082	0.000360	3.603294	0.610414	-0.000036
1722	1.7124e+02	2.8719	-3.123706	0.000348	3.480454	0.589605	-0.000035
1723	1.7134e+02	2.8596	-3.155072	0.000315	3.152882	0.534113	-0.000032
1724	1.7144e+02	2.8526	-3.193362	0.000385	3.848973	0.652034	-0.000038
1725	1.7154e+02	2.8449	-3.226764	0.000336	3.357614	0.568795	-0.000034
1726	1.7164e+02	2.8320	-3.257315	0.000307	3.070989	0.520240	-0.000031
1727	1.7174e+02	2.8205	-3.290309	0.000332	3.316668	0.561859	-0.000033
1728	1.7184e+02	2.8101	-3.321267	0.000311	3.111935	0.527176	-0.000031
1729	1.7194e+02	2.8043	-3.355484	0.000344	3.439507	0.582668	-0.000034
1730	1.7204e+02	2.7905	-3.387257	0.000319	3.193828	0.541049	-0.000032
1731	1.7213e+02	2.7836	-3.417808	0.000307	3.070989	0.520240	-0.000031
1732	1.7223e+02	2.7725	-3.451617	0.000340	3.398561	0.575732	-0.000034
1733	1.7233e+02	2.7618	-3.482982	0.000315	3.152882	0.534113	-0.000032
1734	1.7243e+02	2.7510	-3.517607	0.000348	3.480454	0.589605	-0.000035
1735	1.7253e+02	2.7413	-3.549787	0.000323	3.234775	0.547986	-0.000032
1736	1.7263e+02	2.7304	-3.578708	0.000291	2.907203	0.492493	-0.000029
1737	1.7273e+02	2.7215	-3.614961	0.000364	3.644240	0.617351	-0.000036
1738	1.7283e+02	2.7123	-3.647142	0.000323	3.234775	0.547986	-0.000032
1739	1.7293e+02	2.7043	-3.677692	0.000307	3.070989	0.520240	-0.000031
1740	1.7303e+02	2.6911	-3.709872	0.000323	3.234775	0.547986	-0.000032
1741	1.7313e+02	2.6798	-3.743682	0.000340	3.398561	0.575732	-0.000034
1742	1.7323e+02	2.6701	-3.778306	0.000348	3.480454	0.589605	-0.000035
1743	1.7333e+02	2.6627	-3.811301	0.000332	3.316668	0.561859	-0.000033
1744	1.7343e+02	2.6498	-3.840222	0.000291	2.907203	0.492493	-0.000029
1745	1.7353e+02	2.6400	-3.875661	0.000356	3.562347	0.603478	-0.000036
1746	1.7363e+02	2.6302	-3.908655	0.000332	3.316668	0.561859	-0.000033
1747	1.7373e+02	2.6217	-3.944094	0.000356	3.562347	0.603478	-0.000036
1748	1.7383e+02	2.6124	-3.979533	0.000356	3.562347	0.603478	-0.000036
1749	1.7393e+02	2.6035	-4.014157	0.000348	3.480454	0.589605	-0.000035
1750	1.7403e+02	2.5919	-4.047967	0.000340	3.398561	0.575732	-0.000034
1751	1.7413e+02	2.5834	-4.081776	0.000340	3.398561	0.575732	-0.000034
1752	1.7422e+02	2.5727	-4.122510	0.000409	4.094652	0.693653	-0.000041
1753	1.7432e+02	2.5632	-4.157134	0.000348	3.480454	0.589605	-0.000035
1754	1.7442e+02	2.5529	-4.194203	0.000373	3.726133	0.631224	-0.000037
1755	1.7452e+02	2.5423	-4.225975	0.000319	3.193828	0.541049	-0.000032
1756	1.7462e+02	2.5323	-4.263451	0.000377	3.767080	0.638161	-0.000038
1757	1.7472e+02	2.5211	-4.294816	0.000315	3.152882	0.534113	-0.000032
1758	1.7482e+02	2.5130	-4.332699	0.000381	3.808026	0.645097	-0.000038
1759	1.7492e+02	2.5031	-4.367323	0.000348	3.480454	0.589605	-0.000035
1760	1.7502e+02	2.4901	-4.400725	0.000336	3.357614	0.568795	-0.000034
1761	1.7512e+02	2.4822	-4.434127	0.000336	3.357614	0.568795	-0.000034
1762	1.7522e+02	2.4725	-4.468751	0.000348	3.480454	0.589605	-0.000035
1763	1.7532e+02	2.4618	-4.504598	0.000360	3.603294	0.610414	-0.000036
1764	1.7542e+02	2.4534	-4.537592	0.000332	3.316668	0.561859	-0.000033
1765	1.7552e+02	2.4437	-4.573031	0.000356	3.562347	0.603478	-0.000036
1766	1.7562e+02	2.4318	-4.608877	0.000360	3.603294	0.610414	-0.000036
1767	1.7572e+02	2.4236	-4.640243	0.000315	3.152882	0.534113	-0.000032
1768	1.7582e+02	2.4153	-4.676904	0.000369	3.685187	0.624288	-0.000037
1769	1.7592e+02	2.4053	-4.713157	0.000364	3.644240	0.617351	-0.000036
1770	1.7602e+02	2.3943	-4.747374	0.000344	3.439507	0.582668	-0.000034
1771	1.7612e+02	2.3832	-4.779554	0.000323	3.234775	0.547986	-0.000032
1772	1.7621e+02	2.3749	-4.814993	0.000356	3.562347	0.603478	-0.000036
1773	1.7631e+02	2.3624	-4.850839	0.000360	3.603294	0.610414	-0.000036
1774	1.7641e+02	2.3518	-4.883426	0.000328	3.275721	0.554922	-0.000033
1775	1.7651e+02	2.3443	-4.918865	0.000356	3.562347	0.603478	-0.000036
1776	1.7661e+02	2.3338	-4.953082	0.000344	3.439507	0.582668	-0.000034
1777	1.7671e+02	2.3229	-4.990557	0.000377	3.767080	0.638161	-0.000038
1778	1.7681e+02	2.3165	-5.026811	0.000364	3.644240	0.617351	-0.000036
1779	1.7691e+02	2.3030	-5.064694	0.000381	3.808026	0.645097	-0.000038
1780	1.7701e+02	2.2948	-5.098910	0.000344	3.439507	0.582668	-0.000034
1781	1.7711e+02	2.2863	-5.134757	0.000360	3.603294	0.610414	-0.000036
1782	1.7721e+02	2.2739	-5.177120	0.000426	4.258438	0.721399	-0.000043
1783	1.7731e+02	2.2663	-5.216225	0.000393	3.930866	0.665907	-0.000039
1784	1.7741e+02	2.2561	-5.249220	0.000332	3.316668	0.561859	-0.000033
1785	1.7751e+02	2.2449	-5.294027	0.000450	4.504117	0.763018	-0.000045
1786	1.7761e+02	2.2341	-5.328244	0.000344	3.439507	0.582668	-0.000034
1787	1.7771e+02	2.2243	-5.363276	0.000352	3.521400	0.596541	-0.000035
1788	1.7781e+02	2.2155	-5.402788	0.000397	3.971812	0.672843	-0.000040
1789	1.7791e+02	2.2031	-5.443115	0.000405	4.053705	0.686716	-0.000041
1790	1.7801e+02	2.1954	-5.480998	0.000381	3.808026	0.645097	-0.000038
1791	1.7810e+02	2.1870	-5.517251	0.000364	3.644240	0.617351	-0.000036
1792	1.7820e+02	2.1760	-5.558800	0.000418	4.176545	0.707526	-0.000042
1793	1.7830e+02	2.1673	-5.597498	0.000389	3.889919	0.658970	-0.000039
1794	1.7840e+02	2.1552	-5.635381	0.000381	3.808026	0.645097	-0.000038
1795	1.7850e+02	2.1435	-5.674485	0.000393	3.930866	0.665907	-0.000039
1796	1.7860e+02	2.1352	-5.712368	0.000381	3.808026	0.645097	-0.000038
1797	1.7870e+02	2.1257	-5.751066	0.000389	3.889919	0.658970	-0.000039
1798	1.7880e+02	2.1143	-5.790578	0.000397	3.971812	0.672843	-0.000040
1799	1.7890e+02	2.1044	-5.831720	0.000414	4.135598	0.700589	-0.000041
1800	1.7900e+02	2.0943	-5.866344	0.000348	3.480454	0.589605	-0.000035
1801	1.7910e+02	2.0873	-5.909115	0.000430	4.299384	0.728335	-0.000043
1802	1.7920e+02	2.0777	-5.945776	0.000369	3.685187	0.624288	-0.000037
1803	1.7930e+02	2.0623	-5.985288	0.000397	3.971812	0.672843	-0.000040
1804	1.7940e+02	2.0535	-6.021541	0.000364	3.644240	0.617351	-0.000036
1805	1.7950e+02	2.0466	-6.063498	0.000422	4.217491	0.714462	-0.000042
1806	1.7960e+02	2.0374	-6.105861	0.000426	4.258438	0.721399	-0.000043
1807	1.7970e+02	2.0244	-6.141707	0.000360	3.603294	0.610414	-0.000036
1808	1.7980e+02	2.0168	-6.181220	0.000397	3.971812	0.672843	-0.000040
1809	1.7990e+02	2.0043	-6.221139	0.000401	4.012759	0.679780	-0.000040
1810	1.8000e+02	1.9958	-6.264317	0.000434	4.340331	0.735272	-0.000043
1811	1.8009e+02	1.9875	-6.304237	0.000401	4.012759	0.679780	-0.000040
1812	1.8019e+02	1.9782	-6.349859	0.000459	4.586010	0.776891	-0.000046
1813	1.8029e+02	1.9680	-6.389779	0.000401	4.012759	0.679780	-0.000040
1814	1.8039e+02	1.9534	-6.429291	0.000397	3.971812	0.672843	-0.000040
1815	1.8049e+02	1.9469	-6.476136	0.000471	4.708849	0.797701	-0.000047
1816	1.8059e+02	1.9373	-6.517277	0.000414	4.135598	0.700589	-0.000041
1817	1.8069e+02	1.9265	-6.558826	0.000418	4.176545	0.707526	-0.000042
1818	1.8079e+02	1.9152	-6.604041	0.000455	4.545063	0.769955	-0.000045
1819	1.8089e+02	1.9082	-6.641517	0.000377	3.767080	0.638161	-0.000038
1820	1.8099e+02	1.8932	-6.683473	0.000422	4.217491	0.714462	-0.000042
1821	1.8109e+02	1.8858	-6.726651	0.000434	4.340331	0.735272	-0.000043
1822	1.8119e+02	1.8759	-6.768200	0.000418	4.176545	0.707526	-0.000042
1823	1.8129e+02	1.8674	-6.811786	0.000438	4.381277	0.742208	-0.000044
1824	1.8139e+02	1.8555	-6.849669	0.000381	3.808026	0.645097	-0.000038
1825	1.8149e+02	1.8482	-6.894884	0.000455	4.545063	0.769955	-0.000045
1826	1.8159e+02	1.8356	-6.932359	0.000377	3.767080	0.638161	-0.000038
1827	1.8169e+02	1.8250	-6.976352	0.000442	4.422224	0.749145	-0.000044
1828	1.8179e+02	1.8161	-7.020753	0.000446	4.463170	0.756082	-0.000045
1829	1.8189e+02	1.8095	-7.061894	0.000414	4.135598	0.700589	-0.000041
1830	1.8199e+02	1.7973	-7.102221	0.000405	4.053705	0.686716	-0.000041
1831	1.8209e+02	1.7873	-7.143770	0.000418	4.176545	0.707526	-0.000042
1832	1.8218e+02	1.7767	-7.184504	0.000409	4.094652	0.693653	-0.000041
1833	1.8228e+02	1.7659	-7.224831	0.000405	4.053705	0.686716	-0.000041
1834	1.8238e+02	1.7587	-7.265565	0.000409	4.094652	0.693653	-0.000041
1835	1.8248e+02	1.7449	-7.305078	0.000397	3.971812	0.672843	-0.000040
1836	1.8258e+02	1.7364	-7.342146	0.000373	3.726133	0.631224	-0.000037
1837	1.8268e+02	1.7272	-7.386953	0.000450	4.504117	0.763018	-0.000045
1838	1.8278e+02	1.7159	-7.428095	0.000414	4.135598	0.700589	-0.000041
1839	1.8288e+02	1.7060	-7.468422	0.000405	4.053705	0.686716	-0.000041
1840	1.8298e+02	1.7008	-7.507120	0.000389	3.889919	0.658970	-0.000039
1841	1.8308e+02	1.6843	-7.547039	0.000401	4.012759	0.679780	-0.000040
1842	1.8318e+02	1.6769	-7.589403	0.000426	4.258438	0.721399	-0.000043
1843	1.8328e+02	1.6667	-7.628508	0.000393	3.930866	0.665907	-0.000039
1844	1.8338e+02	1.6612	-7.672501	0.000442	4.422224	0.749145	-0.000044
1845	1.8348e+02	1.6446	-7.716901	0.000446	4.463170	0.756082	-0.000045
1846	1.8358e+02	1.6381	-7.755599	0.000389	3.889919	0.658970	-0.000039
1847	1.8368e+02	1.6277	-7.802443	0.000471	4.708849	0.797701	-0.000047
1848	1.8378e+02	1.6167	-7.842770	0.000405	4.053705	0.686716	-0.000041
1849	1.8388e+02	1.6053	-7.885133	0.000426	4.258438	0.721399	-0.000043
1850	1.8398e+02	1.5974	-7.925053	0.000401	4.012759	0.679780	-0.000040
1851	1.8407e+02	1.5899	-7.964973	0.000401	4.012759	0.679780	-0.000040
1852	1.8417e+02	1.5772	-8.011002	0.000463	4.626956	0.783828	-0.000046
1853	1.8427e+02	1.5637	-8.050515	0.000397	3.971812	0.672843	-0.000040
1854	1.8437e+02	1.5575	-8.090841	0.000405	4.053705	0.686716	-0.000041
1855	1.8447e+02	1.5505	-8.135242	0.000446	4.463170	0.756082	-0.000045
1856	1.8457e+02	1.5380	-8.178827	0.000438	4.381277	0.742208	-0.000044
1857	1.8467e+02	1.5277	-8.224450	0.000459	4.586010	0.776891	-0.000046
1858	1.8477e+02	1.5164	-8.263555	0.000393	3.930866	0.665907	-0.000039
1859	1.8487e+02	1.5096	-8.303474	0.000401	4.012759	0.679780	-0.000040
1860	1.8497e+02	1.4977	-8.348689	0.000455	4.545063	0.769955	-0.000045
1861	1.8507e+02	1.4901	-8.391053	0.000426	4.258438	0.721399	-0.000043
1862	1.8517e+02	1.4774	-8.432194	0.000414	4.135598	0.700589	-0.000041
1863	1.8527e+02	1.4677	-8.472521	0.000405	4.053705	0.686716	-0.000041
1864	1.8537e+02	1.4587	-8.507960	0.000356	3.562347	0.603478	-0.000036
1865	1.8547e+02	1.4474	-8.549916	0.000422	4.217491	0.714462	-0.000042
1866	1.8557e+02	1.4372	-8.594724	0.000450	4.504117	0.763018	-0.000045
1867	1.8567e+02	1.4316	-8.629348	0.000348	3.480454	0.589605	-0.000035
1868	1.8577e+02	1.4179	-8.671305	0.000422	4.217491	0.714462	-0.000042
1869	1.8587e+02	1.4079	-8.710409	0.000393	3.930866	0.665907	-0.000039
1870	1.8597e+02	1.4001	-8.751551	0.000414	4.135598	0.700589	-0.000041
1871	1.8606e+02	1.3873	-8.788619	0.000373	3.726133	0.631224	-0.000037
1872	1.8616e+02	1.3786	-8.827724	0.000393	3.930866	0.665907	-0.000039
1873	1.8626e+02	1.3694	-8.870495	0.000430	4.299384	0.728335	-0.000043
1874	1.8636e+02	1.3593	-8.908785	0.000385	3.848973	0.652034	-0.000038
1875	1.8646e+02	1.3481	-8.950742	0.000422	4.217491	0.714462	-0.000042
1876	1.8656e+02	1.3381	-8.988217	0.000377	3.767080	0.638161	-0.000038
1877	1.8666e+02	1.3304	-9.029766	0.000418	4.176545	0.707526	-0.000042
1878	1.8676e+02	1.3181	-9.067649	0.000381	3.808026	0.645097	-0.000038
1879	1.8686e+02	1.3091	-9.108383	0.000409	4.094652	0.693653	-0.000041
1880	1.8696e+02	1.2962	-9.147895	0.000397	3.971812	0.672843	-0.000040
1881	1.8706e+02	1.2898	-9.185778	0.000381	3.808026	0.645097	-0.000038
1882	1.8716e+02	1.2795	-9.226105	0.000405	4.053705	0.686716	-0.000041
1883	1.8726e+02	1.2708	-9.268469	0.000426	4.258438	0.721399	-0.000043
1884	1.8736e+02	1.2595	-9.308388	0.000401	4.012759	0.679780	-0.000040
1885	1.8746e+02	1.2478	-9.343827	0.000356	3.562347	0.603478	-0.000036
1886	1.8756e+02	1.2398	-9.384154	0.000405	4.053705	0.686716	-0.000041
1887	1.8766e+02	1.2272	-9.424074	0.000401	4.012759	0.679780	-0.000040
1888	1.8776e+02	1.2179	-9.466437	0.000426	4.258438	0.721399	-0.000043
1889	1.8786e+02	1.2106	-9.504727	0.000385	3.848973	0.652034	-0.000038
1890	1.8796e+02	1.2020	-9.545462	0.000409	4.094652	0.693653	-0.000041
1891	1.8806e+02	1.1904	-9.585789	0.000405	4.053705	0.686716	-0.000041
1892	1.8815e+02	1.1818	-9.621635	0.000360	3.603294	0.610414	-0.000036
1893	1.8825e+02	1.1686	-9.666442	0.000450	4.504117	0.763018	-0.000045
1894	1.8835e+02	1.1610	-9.700252	0.000340	3.398561	0.575732	-0.000034
1895	1.8845e+02	1.1491	-9.740579	0.000405	4.053705	0.686716	-0.000041
1896	1.8855e+02	1.1395	-9.779684	0.000393	3.930866	0.665907	-0.000039
1897	1.8865e+02	1.1305	-9.817159	0.000377	3.767080	0.638161	-0.000038
1898	1.8875e+02	1.1195	-9.848932	0.000319	3.193828	0.541049	-0.000032
1899	1.8885e+02	1.1106	-9.891296	0.000426	4.258438	0.721399	-0.000043
1900	1.8895e+02	1.1008	-9.930808	0.000397	3.971812	0.672843	-0.000040
1901	1.8905e+02	1.0893	-9.965432	0.000348	3.480454	0.589605	-0.000035
1902	1.8915e+02	1.0794	-10.006166	0.000409	4.094652	0.693653	-0.000041
1903	1.8925e+02	1.0705	-10.045271	0.000393	3.930866	0.665907	-0.000039
1904	1.8935e+02	1.0604	-10.085598	0.000405	4.053705	0.686716	-0.000041
1905	1.8945e+02	1.0486	-10.121851	0.000364	3.644240	0.617351	-0.000036
1906	1.8955e+02	1.0409	-10.159734	0.000381	3.808026	0.645097	-0.000038
1907	1.8965e+02	1.0285	-10.199654	0.000401	4.012759	0.679780	-0.000040
1908	1.8975e+02	1.0172	-10.239981	0.000405	4.053705	0.686716	-0.000041
1909	1.8985e+02	1.0110	-10.276234	0.000364	3.644240	0.617351	-0.000036
1910	1.8995e+02	1.0003	-10.315339	0.000393	3.930866	0.665907	-0.000039
1911	1.9004e+02	0.9908	-10.352000	0.000369	3.685187	0.624288	-0.000037
1912	1.9014e+02	0.9782	-10.393956	0.000422	4.217491	0.714462	-0.000042
1913	1.9024e+02	0.9718	-10.433876	0.000401	4.012759	0.679780	-0.000040
1914	1.9034e+02	0.9602	-10.470129	0.000364	3.644240	0.617351	-0.000036
1915	1.9044e+02	0.9519	-10.512493	0.000426	4.258438	0.721399	-0.000043
1916	1.9054e+02	0.9418	-10.553634	0.000414	4.135598	0.700589	-0.000041
1917	1.9064e+02	0.9315	-10.593554	0.000401	4.012759	0.679780	-0.000040
1918	1.9074e+02	0.9241	-10.633066	0.000397	3.971812	0.672843	-0.000040
1919	1.9084e+02	0.9092	-10.674615	0.000418	4.176545	0.707526	-0.000042
1920	1.9094e+02	0.9008	-10.717386	0.000430	4.299384	0.728335	-0.000043
1921	1.9104e+02	0.8900	-10.756491	0.000393	3.930866	0.665907	-0.000039
1922	1.9114e+02	0.8801	-10.798855	0.000426	4.258438	0.721399	-0.000043
1923	1.9124e+02	0.8709	-10.841218	0.000426	4.258438	0.721399	-0.000043
1924	1.9134e+02	0.8614	-10.880731	0.000397	3.971812	0.672843	-0.000040
1925	1.9144e+02	0.8528	-10.923094	0.000426	4.258438	0.721399	-0.000043
1926	1.9154e+02	0.8413	-10.961792	0.000389	3.889919	0.658970	-0.000039
1927	1.9164e+02	0.8312	-11.004563	0.000430	4.299384	0.728335	-0.000043
1928	1.9174e+02	0.8228	-11.046519	0.000422	4.217491	0.714462	-0.000042
1929	1.9184e+02	0.8151	-11.082365	0.000360	3.603294	0.610414	-0.000036
1930	1.9194e+02	0.8038	-11.125951	0.000438	4.381277	0.742208	-0.000044
1931	1.9203e+02	0.7917	-11.163426	0.000377	3.767080	0.638161	-0.000038
1932	1.9213e+02	0.7817	-11.202939	0.000397	3.971812	0.672843	-0.000040
1933	1.9223e+02	0.7737	-11.242858	0.000401	4.012759	0.679780	-0.000040
1934	1.9233e+02	0.7636	-11.288073	0.000455	4.545063	0.769955	-0.000045
1935	1.9243e+02	0.7508	-11.327585	0.000397	3.971812	0.672843	-0.000040
1936	1.9253e+02	0.7430	-11.368727	0.000414	4.135598	0.700589	-0.000041
1937	1.9263e+02	0.7332	-11.410276	0.000418	4.176545	0.707526	-0.000042
1938	1.9273e+02	0.7191	-11.454269	0.000442	4.422224	0.749145	-0.000044
1939	1.9283e+02	0.7128	-11.487264	0.000332	3.316668	0.561859	-0.000033
1940	1.9293e+02	0.7018	-11.532071	0.000450	4.504117	0.763018	-0.000045
1941	1.9303e+02	0.6905	-11.573213	0.000414	4.135598	0.700589	-0.000041
1942	1.9313e+02	0.6826	-11.611096	0.000381	3.808026	0.645097	-0.000038
1943	1.9323e+02	0.6723	-11.653867	0.000430	4.299384	0.728335	-0.000043
1944	1.9333e+02	0.6615	-11.695416	0.000418	4.176545	0.707526	-0.000042
1945	1.9343e+02	0.6536	-11.736557	0.000414	4.135598	0.700589	-0.000041
1946	1.9353e+02	0.6451	-11.780958	0.000446	4.463170	0.756082	-0.000045
1947	1.9363e+02	0.6313	-11.819655	0.000389	3.889919	0.658970	-0.000039
1948	1.9373e+02	0.6225	-11.869758	0.000504	5.036422	0.853193	-0.000050
1949	1.9383e+02	0.6142	-11.909271	0.000397	3.971812	0.672843	-0.000040
1950	1.9393e+02	0.6038	-11.955300	0.000463	4.626956	0.783828	-0.000046
1951	1.9403e+02	0.5918	-12.001737	0.000467	4.667903	0.790764	-0.000047
1952	1.9412e+02	0.5846	-12.040842	0.000393	3.930866	0.665907	-0.000039
1953	1.9422e+02	0.5715	-12.090131	0.000495	4.954529	0.839320	-0.000050
1954	1.9432e+02	0.5625	-12.131272	0.000414	4.135598	0.700589	-0.000041
1955	1.9442e+02	0.5555	-12.179746	0.000487	4.872636	0.825447	-0.000049
1956	1.9452e+02	0.5407	-12.218036	0.000385	3.848973	0.652034	-0.000038
1957	1.9462e+02	0.5313	-12.263251	0.000455	4.545063	0.769955	-0.000045
1958	1.9472e+02	0.5230	-12.309688	0.000467	4.667903	0.790764	-0.000047
1959	1.9482e+02	0.5125	-12.350422	0.000409	4.094652	0.693653	-0.000041
1960	1.9492e+02	0.5032	-12.398489	0.000483	4.831689	0.818510	-0.000048
1961	1.9502e+02	0.4957	-12.439223	0.000409	4.094652	0.693653	-0.000041
1962	1.9512e+02	0.4845	-12.487290	0.000483	4.831689	0.818510	-0.000048
1963	1.9522e+02	0.4756	-12.534134	0.000471	4.708849	0.797701	-0.000047
1964	1.9532e+02	0.4634	-12.576498	0.000426	4.258438	0.721399	-0.000043
1965	1.9542e+02	0.4519	-12.625379	0.000491	4.913582	0.832383	-0.000049
1966	1.9552e+02	0.4427	-12.667742	0.000426	4.258438	0.721399	-0.000043
1967	1.9562e+02	0.4364	-12.712957	0.000455	4.545063	0.769955	-0.000045
1968	1.9572e+02	0.4247	-12.762653	0.000500	4.995475	0.846256	-0.000050
1969	1.9582e+02	0.4129	-12.805017	0.000426	4.258438	0.721399	-0.000043
1970	1.9592e+02	0.4043	-12.846158	0.000414	4.135598	0.700589	-0.000041
1971	1.9601e+02	0.3970	-12.896262	0.000504	5.036422	0.853193	-0.000050
1972	1.9611e+02	0.3835	-12.941069	0.000450	4.504117	0.763018	-0.000045
1973	1.9621e+02	0.3740	-12.985062	0.000442	4.422224	0.749145	-0.000044
1974	1.9631e+02	0.3645	-13.035165	0.000504	5.036422	0.853193	-0.000050
1975	1.9641e+02	0.3539	-13.077936	0.000430	4.299384	0.728335	-0.000043
1976	1.9651e+02	0.3442	-13.127632	0.000500	4.995475	0.846256	-0.000050
1977	1.9661e+02	0.3305	-13.169181	0.000418	4.176545	0.707526	-0.000042
1978	1.9671e+02	0.3214	-13.221321	0.000524	5.241154	0.887876	-0.000052
1979	1.9681e+02	0.3115	-13.265721	0.000446	4.463170	0.756082	-0.000045
1980	1.9691e+02	0.3039	-13.315417	0.000500	4.995475	0.846256	-0.000050
1981	1.9701e+02	0.2961	-13.361854	0.000467	4.667903	0.790764	-0.000047
1982	1.9711e+02	0.2861	-13.414809	0.000532	5.323047	0.901749	-0.000053
1983	1.9721e+02	0.2733	-13.463282	0.000487	4.872636	0.825447	-0.000049
1984	1.9731e+02	0.2650	-13.512163	0.000491	4.913582	0.832383	-0.000049
1985	1.9741e+02	0.2564	-13.561045	0.000491	4.913582	0.832383	-0.000049
1986	1.9751e+02	0.2436	-13.605852	0.000450	4.504117	0.763018	-0.000045
1987	1.9761e+02	0.2345	-13.654326	0.000487	4.872636	0.825447	-0.000049
1988	1.9771e+02	0.2262	-13.701170	0.000471	4.708849	0.797701	-0.000047
1989	1.9781e+02	0.2157	-13.750459	0.000495	4.954529	0.839320	-0.000050
1990	1.9791e+02	0.2055	-13.800155	0.000500	4.995475	0.846256	-0.000050
1991	1.9800e+02	0.1952	-13.851887	0.000520	5.200208	0.880939	-0.000052
1992	1.9810e+02	0.1829	-13.896287	0.000446	4.463170	0.756082	-0.000045
1993	1.9820e+02	0.1756	-13.947205	0.000512	5.118315	0.867066	-0.000051
1994	1.9830e+02	0.1633	-13.993235	0.000463	4.626956	0.783828	-0.000046
1995	1.9840e+02	0.1534	-14.044560	0.000516	5.159261	0.874003	-0.000052
1996	1.9850e+02	0.1451	-14.090997	0.000467	4.667903	0.790764	-0.000047
1997	1.9860e+02	0.1341	-14.141915	0.000512	5.118315	0.867066	-0.000051
1998	1.9870e+02	0.1248	-14.189167	0.000475	4.749796	0.804637	-0.000047
1999	1.9880e+02	0.1148	-14.232752	0.000438	4.381277	0.742208	-0.000044
2000	1.9890e+02	0.1013	-14.281226	0.000487	4.872636	0.825447	-0.000049
2001	1.9900e+02	0.0964	-14.326441	0.000455	4.545063	0.769955	-0.000045
2002	1.9910e+02	0.0853	-14.376544	0.000504	5.036422	0.853193	-0.000050
2003	1.9920e+02	0.0747	-14.422167	0.000459	4.586010	0.776891	-0.000046
2004	1.9930e+02	0.0662	-14.470640	0.000487	4.872636	0.825447	-0.000049
2005	1.9940e+02	0.0539	-14.515041	0.000446	4.463170	0.756082	-0.000045
2006	1.9950e+02	0.0470	-14.559441	0.000446	4.463170	0.756082	-0.000045
2007	1.9960e+02	0.0363	-14.604249	0.000450	4.504117	0.763018	-0.000045
2008	1.9970e+02	0.0262	-14.653945	0.000500	4.995475	0.846256	-0.000050
2009	1.9980e+02	0.0166	-14.701604	0.000479	4.790743	0.811574	-0.000048
2010	1.9990e+02	0.0046	-14.750892	0.000495	4.954529	0.839320	-0.000050
2011	2.0000e+02	-0.0053	-14.797737	0.000495	4.954529	0.839320	-0.000047

PMax (uC/cm2):	3.31e+01
Pr (uC/cm2):	1.77e+00
-Pr (uC/cm2):	0.00e+00
PLoss (uC/cm2):	0.00e+00
C (Max-Eff) (nF):	3.32e-01
K (Eff):	5.62e+02
Vert. (+/-Pr) Shift (uC/cm2):	8.85e-01
Offset (uC/cm2):	1.66e+01

A (Loop Area - uC/cm2·Volts):	-1.79e-02



Hysteresis Version: 5.48.1 - Radiant Technologies, Inc., 1999 - 9/12/24

