»»»»»»»»»»»»»»»»»»»»»»»»»»»»»»»»»»»» Hysteresis ««««««««««««««««««««««««««««««««««««
»»»  Executed Version:	5.48.1
»»»  Vision Version:	5.48.4 (R)
»»»  Vision Compiled:	9/18/24
»»»  Driver Version:	5.47.0
»»»  Windows Version:	Windows 8 or 8.1
»»»  Processor Information:	x86 (AMD or Intel) - 32 Processors
»»»  Tester Name:	PMF21124-494 (100V)
»»»  Tester S/N:	PMF21124-494
»»»  Internal Amp Type:	100V RevK 270k
»»»  Internal Amp S/N:	iAB2-596/K     
»»»  Execution Count:	1
»»»»»»»»»»»»»»»»»»»»»»»»»»»»»»»»»»»»»»»»»»««««««««««««««««««««««««««««««««««««««««««

Stored:	6/27/2025 - 14:29:49
Configured:	06/27/25 11:23:28 AM
Executed:	06/27/25 02:28:59 PM

»»»»»»»»»»»»»»»»»»»»»»»»»»»»»»»»»»» Sample Info ««««««««««««««««««««««««««««««««««««
Sample Name:	
Lot Name:	
Wafer Name:	
Die Row/Column:	0/0
Capacitor Number:	0
Sample Area (cm2):	1.00e-04
Sample Thickness (microns):	1.50e-01

Amplifier:	Internal

»»»»»»»»»»»»»»»»»»»»»»»»»»»»»»»»»»» Tester Info «««««««««««««««««««««««««««««««««««
Tester Name:	PMF21124-494 (100V)
Tester Serial Number:	PMF21124-494
Return Signal Amp. Level:	1.9 [Index: 2]

»»»»»»»»»»»»»»»»»»»»»»»»»»»»»»»» Hysteresis Info ««««««««««««««««««««««««««««««««««
Task Name:	Hyst-1276
Volts:	10.00
Field:	666.67 (kV/cm)
DCBias:	0.00
DCField:	0.00 (kV/cm)
Hysteresis Period (ms):	2.00e+02
Preset:	Enabled
Preset Delay (ms):	1.00e+03
Profile:	Standard Monopolar

»»»»»»»»»»»»»»»»»»»»»»»»»»»»»»»»»»»»»» Data «««««««««««««««««««««««««««««««««««««««
Points:	2011

Valid Data

Point	Time (ms)	Drive Voltage	Measured Polarization (uC/cm2)	Capacitance (uF)	Normalized Capacitance (uF/cm2)	Dielectric Constant	Instantaneous Current (mA)
   1	0.0000e+00	-0.0030	-18.580319	0.000369	3.685144	0.624280	0.000037
   2	9.9500e-02	0.0072	-18.543659	0.000369	3.685144	0.624280	0.000037
   3	1.9900e-01	0.0162	-18.503332	0.000405	4.053659	0.686708	0.000041
   4	2.9850e-01	0.0253	-18.465449	0.000381	3.807983	0.645090	0.000038
   5	3.9800e-01	0.0327	-18.427566	0.000381	3.807983	0.645090	0.000038
   6	4.9750e-01	0.0439	-18.384388	0.000434	4.340281	0.735264	0.000043
   7	5.9700e-01	0.0544	-18.339173	0.000455	4.545011	0.769946	0.000045
   8	6.9650e-01	0.0666	-18.300882	0.000385	3.848929	0.652026	0.000038
   9	7.9600e-01	0.0748	-18.263000	0.000381	3.807983	0.645090	0.000038
  10	8.9550e-01	0.0852	-18.225524	0.000377	3.767036	0.638153	0.000038
  11	9.9500e-01	0.0928	-18.187641	0.000381	3.807983	0.645090	0.000038
  12	1.0945e+00	0.1014	-18.156683	0.000311	3.111900	0.527170	0.000031
  13	1.1940e+00	0.1136	-18.112690	0.000442	4.422173	0.749136	0.000044
  14	1.2935e+00	0.1237	-18.075622	0.000373	3.726090	0.631217	0.000037
  15	1.3930e+00	0.1353	-18.039776	0.000360	3.603252	0.610407	0.000036
  16	1.4925e+00	0.1453	-18.001893	0.000381	3.807983	0.645090	0.000038
  17	1.5920e+00	0.1553	-17.960344	0.000418	4.176497	0.707518	0.000042
  18	1.6915e+00	0.1653	-17.926942	0.000336	3.357576	0.568789	0.000034
  19	1.7910e+00	0.1751	-17.886615	0.000405	4.053659	0.686708	0.000041
  20	1.8905e+00	0.1839	-17.848325	0.000385	3.848929	0.652026	0.000038
  21	1.9900e+00	0.1946	-17.810442	0.000381	3.807983	0.645090	0.000038
  22	2.0895e+00	0.2031	-17.774596	0.000360	3.603252	0.610407	0.000036
  23	2.1890e+00	0.2143	-17.734676	0.000401	4.012713	0.679772	0.000040
  24	2.2885e+00	0.2234	-17.691905	0.000430	4.299335	0.728327	0.000043
  25	2.3880e+00	0.2338	-17.663391	0.000287	2.866223	0.485551	0.000029
  26	2.4875e+00	0.2420	-17.616140	0.000475	4.749742	0.804628	0.000047
  27	2.5870e+00	0.2521	-17.583552	0.000328	3.275684	0.554916	0.000033
  28	2.6865e+00	0.2641	-17.548521	0.000352	3.521360	0.596535	0.000035
  29	2.7860e+00	0.2737	-17.511045	0.000377	3.767036	0.638153	0.000038
  30	2.8855e+00	0.2843	-17.474384	0.000369	3.685144	0.624280	0.000037
  31	2.9850e+00	0.2932	-17.436094	0.000385	3.848929	0.652026	0.000038
  32	3.0845e+00	0.3061	-17.397397	0.000389	3.889875	0.658963	0.000039
  33	3.1840e+00	0.3146	-17.363995	0.000336	3.357576	0.568789	0.000034
  34	3.2835e+00	0.3238	-17.327741	0.000364	3.644198	0.617344	0.000036
  35	3.3830e+00	0.3374	-17.287414	0.000405	4.053659	0.686708	0.000041
  36	3.4825e+00	0.3423	-17.249939	0.000377	3.767036	0.638153	0.000038
  37	3.5820e+00	0.3533	-17.213685	0.000364	3.644198	0.617344	0.000036
  38	3.6815e+00	0.3669	-17.174988	0.000389	3.889875	0.658963	0.000039
  39	3.7810e+00	0.3719	-17.134253	0.000409	4.094605	0.693645	0.000041
  40	3.8805e+00	0.3831	-17.091482	0.000430	4.299335	0.728327	0.000043
  41	3.9800e+00	0.3912	-17.058080	0.000336	3.357576	0.568789	0.000034
  42	4.0795e+00	0.4021	-17.016531	0.000418	4.176497	0.707518	0.000042
  43	4.1790e+00	0.4128	-16.979463	0.000373	3.726090	0.631217	0.000037
  44	4.2785e+00	0.4221	-16.937914	0.000418	4.176497	0.707518	0.000042
  45	4.3780e+00	0.4317	-16.904105	0.000340	3.398522	0.575725	0.000034
  46	4.4775e+00	0.4447	-16.865815	0.000385	3.848929	0.652026	0.000038
  47	4.5770e+00	0.4505	-16.828339	0.000377	3.767036	0.638153	0.000038
  48	4.6765e+00	0.4648	-16.790456	0.000381	3.807983	0.645090	0.000038
  49	4.7760e+00	0.4729	-16.749722	0.000409	4.094605	0.693645	0.000041
  50	4.8755e+00	0.4812	-16.713061	0.000369	3.685144	0.624280	0.000037
  51	4.9750e+00	0.4948	-16.673142	0.000401	4.012713	0.679772	0.000040
  52	5.0745e+00	0.5032	-16.631593	0.000418	4.176497	0.707518	0.000042
  53	5.1740e+00	0.5148	-16.598191	0.000336	3.357576	0.568789	0.000034
  54	5.2735e+00	0.5232	-16.557049	0.000414	4.135551	0.700581	0.000041
  55	5.3730e+00	0.5331	-16.517944	0.000393	3.930821	0.665899	0.000039
  56	5.4725e+00	0.5421	-16.481283	0.000369	3.685144	0.624280	0.000037
  57	5.5720e+00	0.5519	-16.445030	0.000364	3.644198	0.617344	0.000036
  58	5.6715e+00	0.5644	-16.406332	0.000389	3.889875	0.658963	0.000039
  59	5.7710e+00	0.5724	-16.377411	0.000291	2.907169	0.492488	0.000029
  60	5.8705e+00	0.5807	-16.338306	0.000393	3.930821	0.665899	0.000039
  61	5.9700e+00	0.5921	-16.304904	0.000336	3.357576	0.568789	0.000034
  62	6.0695e+00	0.6010	-16.267836	0.000373	3.726090	0.631217	0.000037
  63	6.1690e+00	0.6143	-16.232804	0.000352	3.521360	0.596535	0.000035
  64	6.2685e+00	0.6230	-16.197773	0.000352	3.521360	0.596535	0.000035
  65	6.3680e+00	0.6322	-16.160705	0.000373	3.726090	0.631217	0.000037
  66	6.4675e+00	0.6457	-16.119563	0.000414	4.135551	0.700581	0.000041
  67	6.5670e+00	0.6526	-16.086568	0.000332	3.316630	0.561852	0.000033
  68	6.6665e+00	0.6610	-16.051944	0.000348	3.480414	0.589598	0.000035
  69	6.7660e+00	0.6731	-16.018950	0.000332	3.316630	0.561852	0.000033
  70	6.8655e+00	0.6801	-15.979030	0.000401	4.012713	0.679772	0.000040
  71	6.9650e+00	0.6905	-15.942369	0.000369	3.685144	0.624280	0.000037
  72	7.0645e+00	0.7022	-15.910189	0.000323	3.234738	0.547979	0.000032
  73	7.1640e+00	0.7119	-15.875565	0.000348	3.480414	0.589598	0.000035
  74	7.2635e+00	0.7224	-15.845829	0.000299	2.989062	0.506361	0.000030
  75	7.3630e+00	0.7339	-15.808761	0.000373	3.726090	0.631217	0.000037
  76	7.4625e+00	0.7422	-15.779025	0.000299	2.989062	0.506361	0.000030
  77	7.5620e+00	0.7523	-15.743179	0.000360	3.603252	0.610407	0.000036
  78	7.6615e+00	0.7633	-15.711813	0.000315	3.152846	0.534107	0.000032
  79	7.7610e+00	0.7742	-15.679633	0.000323	3.234738	0.547979	0.000032
  80	7.8605e+00	0.7800	-15.645824	0.000340	3.398522	0.575725	0.000034
  81	7.9600e+00	0.7907	-15.611607	0.000344	3.439468	0.582662	0.000034
  82	8.0595e+00	0.8012	-15.577798	0.000340	3.398522	0.575725	0.000034
  83	8.1590e+00	0.8104	-15.543173	0.000348	3.480414	0.589598	0.000035
  84	8.2585e+00	0.8215	-15.512215	0.000311	3.111900	0.527170	0.000031
  85	8.3580e+00	0.8319	-15.478813	0.000336	3.357576	0.568789	0.000034
  86	8.4575e+00	0.8401	-15.445411	0.000336	3.357576	0.568789	0.000034
  87	8.5570e+00	0.8520	-15.414453	0.000311	3.111900	0.527170	0.000031
  88	8.6565e+00	0.8598	-15.383088	0.000315	3.152846	0.534107	0.000032
  89	8.7560e+00	0.8704	-15.349278	0.000340	3.398522	0.575725	0.000034
  90	8.8555e+00	0.8805	-15.314247	0.000352	3.521360	0.596535	0.000035
  91	8.9550e+00	0.8887	-15.284511	0.000299	2.989062	0.506361	0.000030
  92	9.0545e+00	0.9010	-15.249887	0.000348	3.480414	0.589598	0.000035
  93	9.1540e+00	0.9112	-15.216485	0.000336	3.357576	0.568789	0.000034
  94	9.2535e+00	0.9212	-15.188785	0.000278	2.784331	0.471678	0.000028
  95	9.3530e+00	0.9317	-15.148051	0.000409	4.094605	0.693645	0.000041
  96	9.4525e+00	0.9407	-15.116686	0.000315	3.152846	0.534107	0.000032
  97	9.5520e+00	0.9502	-15.082876	0.000340	3.398522	0.575725	0.000034
  98	9.6515e+00	0.9592	-15.046623	0.000364	3.644198	0.617344	0.000036
  99	9.7510e+00	0.9713	-15.012813	0.000340	3.398522	0.575725	0.000034
 100	9.8505e+00	0.9824	-14.976153	0.000369	3.685144	0.624280	0.000037
 101	9.9500e+00	0.9904	-14.943158	0.000332	3.316630	0.561852	0.000033
 102	1.0050e+01	0.9984	-14.910163	0.000332	3.316630	0.561852	0.000033
 103	1.0149e+01	1.0077	-14.877168	0.000332	3.316630	0.561852	0.000033
 104	1.0248e+01	1.0210	-14.843766	0.000336	3.357576	0.568789	0.000034
 105	1.0348e+01	1.0292	-14.805883	0.000381	3.807983	0.645090	0.000038
 106	1.0447e+01	1.0414	-14.768408	0.000377	3.767036	0.638153	0.000038
 107	1.0547e+01	1.0511	-14.737857	0.000307	3.070954	0.520234	0.000031
 108	1.0646e+01	1.0591	-14.703233	0.000348	3.480414	0.589598	0.000035
 109	1.0746e+01	1.0719	-14.669831	0.000336	3.357576	0.568789	0.000034
 110	1.0845e+01	1.0823	-14.631948	0.000381	3.807983	0.645090	0.000038
 111	1.0945e+01	1.0905	-14.600583	0.000315	3.152846	0.534107	0.000032
 112	1.1044e+01	1.1014	-14.564737	0.000360	3.603252	0.610407	0.000036
 113	1.1144e+01	1.1105	-14.526446	0.000385	3.848929	0.652026	0.000038
 114	1.1243e+01	1.1171	-14.493452	0.000332	3.316630	0.561852	0.000033
 115	1.1343e+01	1.1315	-14.462901	0.000307	3.070954	0.520234	0.000031
 116	1.1443e+01	1.1402	-14.424611	0.000385	3.848929	0.652026	0.000038
 117	1.1542e+01	1.1502	-14.388357	0.000364	3.644198	0.617344	0.000036
 118	1.1642e+01	1.1606	-14.350474	0.000381	3.807983	0.645090	0.000038
 119	1.1741e+01	1.1694	-14.323182	0.000274	2.743385	0.464742	0.000027
 120	1.1841e+01	1.1850	-14.284078	0.000393	3.930821	0.665899	0.000039
 121	1.1940e+01	1.1881	-14.255971	0.000283	2.825277	0.478615	0.000028
 122	1.2040e+01	1.1989	-14.218903	0.000373	3.726090	0.631217	0.000037
 123	1.2139e+01	1.2132	-14.187537	0.000315	3.152846	0.534107	0.000032
 124	1.2239e+01	1.2246	-14.155765	0.000319	3.193792	0.541043	0.000032
 125	1.2338e+01	1.2311	-14.122770	0.000332	3.316630	0.561852	0.000033
 126	1.2438e+01	1.2395	-14.090183	0.000328	3.275684	0.554916	0.000033
 127	1.2537e+01	1.2492	-14.056373	0.000340	3.398522	0.575725	0.000034
 128	1.2636e+01	1.2591	-14.027452	0.000291	2.907169	0.492488	0.000029
 129	1.2736e+01	1.2704	-13.989976	0.000377	3.767036	0.638153	0.000038
 130	1.2835e+01	1.2786	-13.955759	0.000344	3.439468	0.582662	0.000034
 131	1.2935e+01	1.2882	-13.923987	0.000319	3.193792	0.541043	0.000032
 132	1.3034e+01	1.2988	-13.889770	0.000344	3.439468	0.582662	0.000034
 133	1.3134e+01	1.3103	-13.860034	0.000299	2.989062	0.506361	0.000030
 134	1.3233e+01	1.3160	-13.826225	0.000340	3.398522	0.575725	0.000034
 135	1.3333e+01	1.3290	-13.790786	0.000356	3.562306	0.603471	0.000036
 136	1.3432e+01	1.3378	-13.760235	0.000307	3.070954	0.520234	0.000031
 137	1.3532e+01	1.3476	-13.723982	0.000364	3.644198	0.617344	0.000036
 138	1.3632e+01	1.3566	-13.692209	0.000319	3.193792	0.541043	0.000032
 139	1.3731e+01	1.3691	-13.662066	0.000303	3.030008	0.513297	0.000030
 140	1.3831e+01	1.3773	-13.624997	0.000373	3.726090	0.631217	0.000037
 141	1.3930e+01	1.3870	-13.588744	0.000364	3.644198	0.617344	0.000036
 142	1.4030e+01	1.3978	-13.554120	0.000348	3.480414	0.589598	0.000035
 143	1.4129e+01	1.4082	-13.518274	0.000360	3.603252	0.610407	0.000036
 144	1.4229e+01	1.4174	-13.484871	0.000336	3.357576	0.568789	0.000034
 145	1.4328e+01	1.4287	-13.448211	0.000369	3.685144	0.624280	0.000037
 146	1.4428e+01	1.4382	-13.409920	0.000385	3.848929	0.652026	0.000038
 147	1.4527e+01	1.4497	-13.379370	0.000307	3.070954	0.520234	0.000031
 148	1.4627e+01	1.4590	-13.341894	0.000377	3.767036	0.638153	0.000038
 149	1.4726e+01	1.4667	-13.308900	0.000332	3.316630	0.561852	0.000033
 150	1.4825e+01	1.4806	-13.270609	0.000385	3.848929	0.652026	0.000038
 151	1.4925e+01	1.4892	-13.234763	0.000360	3.603252	0.610407	0.000036
 152	1.5024e+01	1.4980	-13.200546	0.000344	3.439468	0.582662	0.000034
 153	1.5124e+01	1.5088	-13.162664	0.000381	3.807983	0.645090	0.000038
 154	1.5223e+01	1.5191	-13.130483	0.000323	3.234738	0.547979	0.000032
 155	1.5323e+01	1.5265	-13.094637	0.000360	3.603252	0.610407	0.000036
 156	1.5422e+01	1.5356	-13.056347	0.000385	3.848929	0.652026	0.000038
 157	1.5522e+01	1.5460	-13.022945	0.000336	3.357576	0.568789	0.000034
 158	1.5621e+01	1.5548	-12.983840	0.000393	3.930821	0.665899	0.000039
 159	1.5721e+01	1.5692	-12.944328	0.000397	3.971767	0.672835	0.000040
 160	1.5820e+01	1.5795	-12.906852	0.000377	3.767036	0.638153	0.000038
 161	1.5920e+01	1.5890	-12.871006	0.000360	3.603252	0.610407	0.000036
 162	1.6020e+01	1.5956	-12.833531	0.000377	3.767036	0.638153	0.000038
 163	1.6119e+01	1.6048	-12.794833	0.000389	3.889875	0.658963	0.000039
 164	1.6218e+01	1.6171	-12.758987	0.000360	3.603252	0.610407	0.000036
 165	1.6318e+01	1.6243	-12.724770	0.000344	3.439468	0.582662	0.000034
 166	1.6418e+01	1.6371	-12.681185	0.000438	4.381227	0.742200	0.000044
 167	1.6517e+01	1.6488	-12.650227	0.000311	3.111900	0.527170	0.000031
 168	1.6616e+01	1.6553	-12.609085	0.000414	4.135551	0.700581	0.000041
 169	1.6716e+01	1.6688	-12.571202	0.000381	3.807983	0.645090	0.000038
 170	1.6816e+01	1.6762	-12.532912	0.000385	3.848929	0.652026	0.000038
 171	1.6915e+01	1.6904	-12.497066	0.000360	3.603252	0.610407	0.000036
 172	1.7015e+01	1.6965	-12.454295	0.000430	4.299335	0.728327	0.000043
 173	1.7114e+01	1.7081	-12.420078	0.000344	3.439468	0.582662	0.000034
 174	1.7213e+01	1.7173	-12.387083	0.000332	3.316630	0.561852	0.000033
 175	1.7313e+01	1.7274	-12.346349	0.000409	4.094605	0.693645	0.000041
 176	1.7413e+01	1.7356	-12.309281	0.000373	3.726090	0.631217	0.000037
 177	1.7512e+01	1.7481	-12.275879	0.000336	3.357576	0.568789	0.000034
 178	1.7611e+01	1.7548	-12.236367	0.000397	3.971767	0.672835	0.000040
 179	1.7711e+01	1.7671	-12.204594	0.000319	3.193792	0.541043	0.000032
 180	1.7811e+01	1.7741	-12.168340	0.000364	3.644198	0.617344	0.000036
 181	1.7910e+01	1.7872	-12.132494	0.000360	3.603252	0.610407	0.000036
 182	1.8009e+01	1.7967	-12.096648	0.000360	3.603252	0.610407	0.000036
 183	1.8109e+01	1.8065	-12.061209	0.000356	3.562306	0.603471	0.000036
 184	1.8209e+01	1.8160	-12.027400	0.000340	3.398522	0.575725	0.000034
 185	1.8308e+01	1.8261	-11.993590	0.000340	3.398522	0.575725	0.000034
 186	1.8407e+01	1.8374	-11.954078	0.000397	3.971767	0.672835	0.000040
 187	1.8507e+01	1.8452	-11.925564	0.000287	2.866223	0.485551	0.000029
 188	1.8607e+01	1.8564	-11.890125	0.000356	3.562306	0.603471	0.000036
 189	1.8706e+01	1.8661	-11.850613	0.000397	3.971767	0.672835	0.000040
 190	1.8805e+01	1.8764	-11.818433	0.000323	3.234738	0.547979	0.000032
 191	1.8905e+01	1.8862	-11.782180	0.000364	3.644198	0.617344	0.000036
 192	1.9005e+01	1.8958	-11.747556	0.000348	3.480414	0.589598	0.000035
 193	1.9104e+01	1.9048	-11.712931	0.000348	3.480414	0.589598	0.000035
 194	1.9203e+01	1.9130	-11.683195	0.000299	2.989062	0.506361	0.000030
 195	1.9303e+01	1.9263	-11.646535	0.000369	3.685144	0.624280	0.000037
 196	1.9402e+01	1.9352	-11.611910	0.000348	3.480414	0.589598	0.000035
 197	1.9502e+01	1.9451	-11.573213	0.000389	3.889875	0.658963	0.000039
 198	1.9602e+01	1.9545	-11.540625	0.000328	3.275684	0.554916	0.000033
 199	1.9701e+01	1.9647	-11.505187	0.000356	3.562306	0.603471	0.000036
 200	1.9800e+01	1.9753	-11.472599	0.000328	3.275684	0.554916	0.000033
 201	1.9900e+01	1.9868	-11.440419	0.000323	3.234738	0.547979	0.000032
 202	2.0000e+01	1.9973	-11.402944	0.000377	3.767036	0.638153	0.000038
 203	2.0099e+01	2.0070	-11.371986	0.000311	3.111900	0.527170	0.000031
 204	2.0198e+01	2.0165	-11.330844	0.000414	4.135551	0.700581	0.000041
 205	2.0298e+01	2.0264	-11.300293	0.000307	3.070954	0.520234	0.000031
 206	2.0398e+01	2.0377	-11.257522	0.000430	4.299335	0.728327	0.000043
 207	2.0497e+01	2.0448	-11.224935	0.000328	3.275684	0.554916	0.000033
 208	2.0596e+01	2.0545	-11.193977	0.000311	3.111900	0.527170	0.000031
 209	2.0696e+01	2.0661	-11.153650	0.000405	4.053659	0.686708	0.000041
 210	2.0796e+01	2.0740	-11.113731	0.000401	4.012713	0.679772	0.000040
 211	2.0895e+01	2.0867	-11.082772	0.000311	3.111900	0.527170	0.000031
 212	2.0994e+01	2.0947	-11.049778	0.000332	3.316630	0.561852	0.000033
 213	2.1094e+01	2.1074	-11.012710	0.000373	3.726090	0.631217	0.000037
 214	2.1194e+01	2.1157	-10.977678	0.000352	3.521360	0.596535	0.000035
 215	2.1293e+01	2.1263	-10.941425	0.000364	3.644198	0.617344	0.000036
 216	2.1392e+01	2.1346	-10.908430	0.000332	3.316630	0.561852	0.000033
 217	2.1492e+01	2.1427	-10.874213	0.000344	3.439468	0.582662	0.000034
 218	2.1591e+01	2.1558	-10.835108	0.000393	3.930821	0.665899	0.000039
 219	2.1691e+01	2.1665	-10.802113	0.000332	3.316630	0.561852	0.000033
 220	2.1791e+01	2.1741	-10.763416	0.000389	3.889875	0.658963	0.000039
 221	2.1890e+01	2.1858	-10.729199	0.000344	3.439468	0.582662	0.000034
 222	2.1989e+01	2.1935	-10.699463	0.000299	2.989062	0.506361	0.000030
 223	2.2089e+01	2.2039	-10.658729	0.000409	4.094605	0.693645	0.000041
 224	2.2189e+01	2.2131	-10.626549	0.000323	3.234738	0.547979	0.000032
 225	2.2288e+01	2.2266	-10.595183	0.000315	3.152846	0.534107	0.000032
 226	2.2387e+01	2.2333	-10.558930	0.000364	3.644198	0.617344	0.000036
 227	2.2487e+01	2.2411	-10.527972	0.000311	3.111900	0.527170	0.000031
 228	2.2587e+01	2.2548	-10.494162	0.000340	3.398522	0.575725	0.000034
 229	2.2686e+01	2.2645	-10.462797	0.000315	3.152846	0.534107	0.000032
 230	2.2785e+01	2.2749	-10.430617	0.000323	3.234738	0.547979	0.000032
 231	2.2885e+01	2.2811	-10.397215	0.000336	3.357576	0.568789	0.000034
 232	2.2985e+01	2.2942	-10.362998	0.000344	3.439468	0.582662	0.000034
 233	2.3084e+01	2.3060	-10.330411	0.000328	3.275684	0.554916	0.000033
 234	2.3183e+01	2.3136	-10.297823	0.000328	3.275684	0.554916	0.000033
 235	2.3283e+01	2.3227	-10.262792	0.000352	3.521360	0.596535	0.000035
 236	2.3383e+01	2.3354	-10.231834	0.000311	3.111900	0.527170	0.000031
 237	2.3482e+01	2.3452	-10.198024	0.000340	3.398522	0.575725	0.000034
 238	2.3581e+01	2.3544	-10.166252	0.000319	3.193792	0.541043	0.000032
 239	2.3681e+01	2.3643	-10.134886	0.000315	3.152846	0.534107	0.000032
 240	2.3780e+01	2.3728	-10.106372	0.000287	2.866223	0.485551	0.000029
 241	2.3880e+01	2.3838	-10.070934	0.000356	3.562306	0.603471	0.000036
 242	2.3980e+01	2.3939	-10.043234	0.000278	2.784331	0.471678	0.000028
 243	2.4079e+01	2.4043	-10.013091	0.000303	3.030008	0.513297	0.000030
 244	2.4178e+01	2.4142	-9.984170	0.000291	2.907169	0.492488	0.000029
 245	2.4278e+01	2.4213	-9.953212	0.000311	3.111900	0.527170	0.000031
 246	2.4378e+01	2.4317	-9.922254	0.000311	3.111900	0.527170	0.000031
 247	2.4477e+01	2.4447	-9.891296	0.000311	3.111900	0.527170	0.000031
 248	2.4576e+01	2.4536	-9.862374	0.000291	2.907169	0.492488	0.000029
 249	2.4676e+01	2.4636	-9.833860	0.000287	2.866223	0.485551	0.000029
 250	2.4776e+01	2.4728	-9.800865	0.000332	3.316630	0.561852	0.000033
 251	2.4875e+01	2.4836	-9.770315	0.000307	3.070954	0.520234	0.000031
 252	2.4974e+01	2.4936	-9.739357	0.000311	3.111900	0.527170	0.000031
 253	2.5074e+01	2.5059	-9.714509	0.000250	2.497709	0.423123	0.000025
 254	2.5174e+01	2.5125	-9.684365	0.000303	3.030008	0.513297	0.000030
 255	2.5273e+01	2.5242	-9.654629	0.000299	2.989062	0.506361	0.000030
 256	2.5372e+01	2.5314	-9.623671	0.000311	3.111900	0.527170	0.000031
 257	2.5472e+01	2.5439	-9.591899	0.000319	3.193792	0.541043	0.000032
 258	2.5572e+01	2.5519	-9.567458	0.000246	2.456763	0.416187	0.000025
 259	2.5671e+01	2.5633	-9.534871	0.000328	3.275684	0.554916	0.000033
 260	2.5770e+01	2.5727	-9.507171	0.000278	2.784331	0.471678	0.000028
 261	2.5870e+01	2.5810	-9.473362	0.000340	3.398522	0.575725	0.000034
 262	2.5970e+01	2.5933	-9.442404	0.000311	3.111900	0.527170	0.000031
 263	2.6069e+01	2.6025	-9.411853	0.000307	3.070954	0.520234	0.000031
 264	2.6169e+01	2.6115	-9.379673	0.000323	3.234738	0.547979	0.000032
 265	2.6268e+01	2.6215	-9.349937	0.000299	2.989062	0.506361	0.000030
 266	2.6367e+01	2.6325	-9.317350	0.000328	3.275684	0.554916	0.000033
 267	2.6467e+01	2.6431	-9.288429	0.000291	2.907169	0.492488	0.000029
 268	2.6567e+01	2.6527	-9.255434	0.000332	3.316630	0.561852	0.000033
 269	2.6666e+01	2.6617	-9.224476	0.000311	3.111900	0.527170	0.000031
 270	2.6765e+01	2.6742	-9.193925	0.000307	3.070954	0.520234	0.000031
 271	2.6865e+01	2.6824	-9.161338	0.000328	3.275684	0.554916	0.000033
 272	2.6965e+01	2.6908	-9.127936	0.000336	3.357576	0.568789	0.000034
 273	2.7064e+01	2.6991	-9.099422	0.000287	2.866223	0.485551	0.000029
 274	2.7163e+01	2.7105	-9.069278	0.000303	3.030008	0.513297	0.000030
 275	2.7263e+01	2.7213	-9.034247	0.000352	3.521360	0.596535	0.000035
 276	2.7363e+01	2.7325	-9.004103	0.000303	3.030008	0.513297	0.000030
 277	2.7462e+01	2.7412	-8.974775	0.000295	2.948116	0.499424	0.000029
 278	2.7561e+01	2.7534	-8.941780	0.000332	3.316630	0.561852	0.000033
 279	2.7661e+01	2.7593	-8.908378	0.000336	3.357576	0.568789	0.000034
 280	2.7761e+01	2.7703	-8.879457	0.000291	2.907169	0.492488	0.000029
 281	2.7860e+01	2.7827	-8.846869	0.000328	3.275684	0.554916	0.000033
 282	2.7959e+01	2.7923	-8.816319	0.000307	3.070954	0.520234	0.000031
 283	2.8059e+01	2.8043	-8.781694	0.000348	3.480414	0.589598	0.000035
 284	2.8159e+01	2.8117	-8.751551	0.000303	3.030008	0.513297	0.000030
 285	2.8258e+01	2.8232	-8.716520	0.000352	3.521360	0.596535	0.000035
 286	2.8358e+01	2.8299	-8.685562	0.000311	3.111900	0.527170	0.000031
 287	2.8457e+01	2.8411	-8.658270	0.000274	2.743385	0.464742	0.000027
 288	2.8556e+01	2.8511	-8.619572	0.000389	3.889875	0.658963	0.000039
 289	2.8656e+01	2.8600	-8.596354	0.000233	2.333925	0.395378	0.000023
 290	2.8756e+01	2.8746	-8.562951	0.000336	3.357576	0.568789	0.000034
 291	2.8855e+01	2.8811	-8.536474	0.000266	2.661493	0.450869	0.000027
 292	2.8954e+01	2.8903	-8.502665	0.000340	3.398522	0.575725	0.000034
 293	2.9054e+01	2.8992	-8.477002	0.000258	2.579601	0.436996	0.000026
 294	2.9154e+01	2.9108	-8.446451	0.000307	3.070954	0.520234	0.000031
 295	2.9253e+01	2.9198	-8.411827	0.000348	3.480414	0.589598	0.000035
 296	2.9352e+01	2.9287	-8.384128	0.000278	2.784331	0.471678	0.000028
 297	2.9452e+01	2.9423	-8.351541	0.000328	3.275684	0.554916	0.000033
 298	2.9552e+01	2.9513	-8.322212	0.000295	2.948116	0.499424	0.000029
 299	2.9651e+01	2.9607	-8.288403	0.000340	3.398522	0.575725	0.000034
 300	2.9750e+01	2.9695	-8.259481	0.000291	2.907169	0.492488	0.000029
 301	2.9850e+01	2.9808	-8.230967	0.000287	2.866223	0.485551	0.000029
 302	2.9950e+01	2.9906	-8.201231	0.000299	2.989062	0.506361	0.000030
 303	3.0049e+01	2.9993	-8.171495	0.000299	2.989062	0.506361	0.000030
 304	3.0148e+01	3.0110	-8.139723	0.000319	3.193792	0.541043	0.000032
 305	3.0248e+01	3.0196	-8.114467	0.000254	2.538655	0.430060	0.000025
 306	3.0348e+01	3.0315	-8.084731	0.000299	2.989062	0.506361	0.000030
 307	3.0447e+01	3.0393	-8.051737	0.000332	3.316630	0.561852	0.000033
 308	3.0547e+01	3.0492	-8.017520	0.000344	3.439468	0.582662	0.000034
 309	3.0646e+01	3.0585	-7.986562	0.000311	3.111900	0.527170	0.000031
 310	3.0745e+01	3.0737	-7.954382	0.000323	3.234738	0.547979	0.000032
 311	3.0845e+01	3.0823	-7.922609	0.000319	3.193792	0.541043	0.000032
 312	3.0945e+01	3.0903	-7.886763	0.000360	3.603252	0.610407	0.000036
 313	3.1044e+01	3.0994	-7.857027	0.000299	2.989062	0.506361	0.000030
 314	3.1143e+01	3.1097	-7.822403	0.000348	3.480414	0.589598	0.000035
 315	3.1243e+01	3.1167	-7.793481	0.000291	2.907169	0.492488	0.000029
 316	3.1343e+01	3.1319	-7.760079	0.000336	3.357576	0.568789	0.000034
 317	3.1442e+01	3.1409	-7.724640	0.000356	3.562306	0.603471	0.000036
 318	3.1541e+01	3.1488	-7.696126	0.000287	2.866223	0.485551	0.000029
 319	3.1641e+01	3.1604	-7.663132	0.000332	3.316630	0.561852	0.000033
 320	3.1741e+01	3.1698	-7.631359	0.000319	3.193792	0.541043	0.000032
 321	3.1840e+01	3.1798	-7.597550	0.000340	3.398522	0.575725	0.000034
 322	3.1939e+01	3.1916	-7.566184	0.000315	3.152846	0.534107	0.000032
 323	3.2039e+01	3.1991	-7.533597	0.000328	3.275684	0.554916	0.000033
 324	3.2139e+01	3.2105	-7.494899	0.000389	3.889875	0.658963	0.000039
 325	3.2238e+01	3.2211	-7.463941	0.000311	3.111900	0.527170	0.000031
 326	3.2337e+01	3.2301	-7.431761	0.000323	3.234738	0.547979	0.000032
 327	3.2437e+01	3.2392	-7.393878	0.000381	3.807983	0.645090	0.000038
 328	3.2536e+01	3.2486	-7.359662	0.000344	3.439468	0.582662	0.000034
 329	3.2636e+01	3.2612	-7.325852	0.000340	3.398522	0.575725	0.000034
 330	3.2736e+01	3.2671	-7.289599	0.000364	3.644198	0.617344	0.000036
 331	3.2835e+01	3.2784	-7.256197	0.000336	3.357576	0.568789	0.000034
 332	3.2934e+01	3.2912	-7.226053	0.000303	3.030008	0.513297	0.000030
 333	3.3034e+01	3.3002	-7.189392	0.000369	3.685144	0.624280	0.000037
 334	3.3133e+01	3.3086	-7.154361	0.000352	3.521360	0.596535	0.000035
 335	3.3233e+01	3.3193	-7.119329	0.000352	3.521360	0.596535	0.000035
 336	3.3333e+01	3.3285	-7.087149	0.000323	3.234738	0.547979	0.000032
 337	3.3432e+01	3.3398	-7.054155	0.000332	3.316630	0.561852	0.000033
 338	3.3532e+01	3.3495	-7.018308	0.000360	3.603252	0.610407	0.000036
 339	3.3631e+01	3.3562	-6.979611	0.000389	3.889875	0.658963	0.000039
 340	3.3730e+01	3.3673	-6.945802	0.000340	3.398522	0.575725	0.000034
 341	3.3830e+01	3.3767	-6.911585	0.000344	3.439468	0.582662	0.000034
 342	3.3929e+01	3.3879	-6.876553	0.000352	3.521360	0.596535	0.000035
 343	3.4029e+01	3.4011	-6.842744	0.000340	3.398522	0.575725	0.000034
 344	3.4129e+01	3.4081	-6.809749	0.000332	3.316630	0.561852	0.000033
 345	3.4228e+01	3.4187	-6.773496	0.000364	3.644198	0.617344	0.000036
 346	3.4328e+01	3.4306	-6.743352	0.000303	3.030008	0.513297	0.000030
 347	3.4427e+01	3.4382	-6.710358	0.000332	3.316630	0.561852	0.000033
 348	3.4526e+01	3.4477	-6.678177	0.000323	3.234738	0.547979	0.000032
 349	3.4626e+01	3.4604	-6.650886	0.000274	2.743385	0.464742	0.000027
 350	3.4725e+01	3.4679	-6.618298	0.000328	3.275684	0.554916	0.000033
 351	3.4825e+01	3.4812	-6.586525	0.000319	3.193792	0.541043	0.000032
 352	3.4925e+01	3.4873	-6.551901	0.000348	3.480414	0.589598	0.000035
 353	3.5024e+01	3.4972	-6.518499	0.000336	3.357576	0.568789	0.000034
 354	3.5123e+01	3.5085	-6.487948	0.000307	3.070954	0.520234	0.000031
 355	3.5223e+01	3.5186	-6.456990	0.000311	3.111900	0.527170	0.000031
 356	3.5322e+01	3.5284	-6.424810	0.000323	3.234738	0.547979	0.000032
 357	3.5422e+01	3.5361	-6.390594	0.000344	3.439468	0.582662	0.000034
 358	3.5522e+01	3.5490	-6.355562	0.000352	3.521360	0.596535	0.000035
 359	3.5621e+01	3.5578	-6.325826	0.000299	2.989062	0.506361	0.000030
 360	3.5721e+01	3.5673	-6.294053	0.000319	3.193792	0.541043	0.000032
 361	3.5820e+01	3.5770	-6.261466	0.000328	3.275684	0.554916	0.000033
 362	3.5919e+01	3.5888	-6.232545	0.000291	2.907169	0.492488	0.000029
 363	3.6019e+01	3.5969	-6.201587	0.000311	3.111900	0.527170	0.000031
 364	3.6118e+01	3.6085	-6.167777	0.000340	3.398522	0.575725	0.000034
 365	3.6218e+01	3.6165	-6.134375	0.000336	3.357576	0.568789	0.000034
 366	3.6318e+01	3.6263	-6.105861	0.000287	2.866223	0.485551	0.000029
 367	3.6417e+01	3.6379	-6.076940	0.000291	2.907169	0.492488	0.000029
 368	3.6517e+01	3.6492	-6.041094	0.000360	3.603252	0.610407	0.000036
 369	3.6616e+01	3.6585	-6.010136	0.000311	3.111900	0.527170	0.000031
 370	3.6715e+01	3.6638	-5.979178	0.000311	3.111900	0.527170	0.000031
 371	3.6815e+01	3.6770	-5.945776	0.000336	3.357576	0.568789	0.000034
 372	3.6914e+01	3.6868	-5.918076	0.000278	2.784331	0.471678	0.000028
 373	3.7014e+01	3.6983	-5.883452	0.000348	3.480414	0.589598	0.000035
 374	3.7114e+01	3.7090	-5.851679	0.000319	3.193792	0.541043	0.000032
 375	3.7213e+01	3.7163	-5.816648	0.000352	3.521360	0.596535	0.000035
 376	3.7313e+01	3.7283	-5.782431	0.000344	3.439468	0.582662	0.000034
 377	3.7412e+01	3.7388	-5.750658	0.000319	3.193792	0.541043	0.000032
 378	3.7511e+01	3.7452	-5.715220	0.000356	3.562306	0.603471	0.000036
 379	3.7611e+01	3.7594	-5.687928	0.000274	2.743385	0.464742	0.000027
 380	3.7711e+01	3.7661	-5.653711	0.000344	3.439468	0.582662	0.000034
 381	3.7810e+01	3.7780	-5.621531	0.000323	3.234738	0.547979	0.000032
 382	3.7910e+01	3.7853	-5.588536	0.000332	3.316630	0.561852	0.000033
 383	3.8009e+01	3.7952	-5.558393	0.000303	3.030008	0.513297	0.000030
 384	3.8108e+01	3.8076	-5.525805	0.000328	3.275684	0.554916	0.000033
 385	3.8208e+01	3.8178	-5.491996	0.000340	3.398522	0.575725	0.000034
 386	3.8307e+01	3.8277	-5.459409	0.000328	3.275684	0.554916	0.000033
 387	3.8407e+01	3.8367	-5.428858	0.000307	3.070954	0.520234	0.000031
 388	3.8507e+01	3.8448	-5.396270	0.000328	3.275684	0.554916	0.000033
 389	3.8606e+01	3.8557	-5.364905	0.000315	3.152846	0.534107	0.000032
 390	3.8706e+01	3.8668	-5.331096	0.000340	3.398522	0.575725	0.000034
 391	3.8805e+01	3.8766	-5.296879	0.000344	3.439468	0.582662	0.000034
 392	3.8904e+01	3.8860	-5.269994	0.000270	2.702439	0.457806	0.000027
 393	3.9004e+01	3.8954	-5.236185	0.000340	3.398522	0.575725	0.000034
 394	3.9103e+01	3.9066	-5.208078	0.000283	2.825277	0.478615	0.000028
 395	3.9203e+01	3.9149	-5.182416	0.000258	2.579601	0.436996	0.000026
 396	3.9303e+01	3.9237	-5.146569	0.000360	3.603252	0.610407	0.000036
 397	3.9402e+01	3.9342	-5.116019	0.000307	3.070954	0.520234	0.000031
 398	3.9502e+01	3.9468	-5.090356	0.000258	2.579601	0.436996	0.000026
 399	3.9601e+01	3.9544	-5.058176	0.000323	3.234738	0.547979	0.000032
 400	3.9700e+01	3.9658	-5.025589	0.000328	3.275684	0.554916	0.000033
 401	3.9800e+01	3.9713	-4.997075	0.000287	2.866223	0.485551	0.000029
 402	3.9900e+01	3.9861	-4.969375	0.000278	2.784331	0.471678	0.000028
 403	3.9999e+01	3.9950	-4.938825	0.000307	3.070954	0.520234	0.000031
 404	4.0099e+01	4.0054	-4.907867	0.000311	3.111900	0.527170	0.000031
 405	4.0198e+01	4.0164	-4.874465	0.000336	3.357576	0.568789	0.000034
 406	4.0297e+01	4.0252	-4.846358	0.000283	2.825277	0.478615	0.000028
 407	4.0397e+01	4.0345	-4.819066	0.000274	2.743385	0.464742	0.000027
 408	4.0496e+01	4.0444	-4.791367	0.000278	2.784331	0.471678	0.000028
 409	4.0596e+01	4.0545	-4.763667	0.000278	2.784331	0.471678	0.000028
 410	4.0696e+01	4.0657	-4.736376	0.000274	2.743385	0.464742	0.000027
 411	4.0795e+01	4.0749	-4.708269	0.000283	2.825277	0.478615	0.000028
 412	4.0895e+01	4.0853	-4.680977	0.000274	2.743385	0.464742	0.000027
 413	4.0994e+01	4.0939	-4.654907	0.000262	2.620547	0.443933	0.000026
 414	4.1093e+01	4.1064	-4.627208	0.000278	2.784331	0.471678	0.000028
 415	4.1193e+01	4.1159	-4.596657	0.000307	3.070954	0.520234	0.000031
 416	4.1292e+01	4.1232	-4.576290	0.000205	2.047302	0.346822	0.000020
 417	4.1392e+01	4.1348	-4.544925	0.000315	3.152846	0.534107	0.000032
 418	4.1492e+01	4.1451	-4.517633	0.000274	2.743385	0.464742	0.000027
 419	4.1591e+01	4.1559	-4.489119	0.000287	2.866223	0.485551	0.000029
 420	4.1691e+01	4.1650	-4.464678	0.000246	2.456763	0.416187	0.000025
 421	4.1790e+01	4.1737	-4.435349	0.000295	2.948116	0.499424	0.000029
 422	4.1889e+01	4.1836	-4.409279	0.000262	2.620547	0.443933	0.000026
 423	4.1989e+01	4.1985	-4.384024	0.000254	2.538655	0.430060	0.000025
 424	4.2089e+01	4.2040	-4.355918	0.000283	2.825277	0.478615	0.000028
 425	4.2188e+01	4.2135	-4.331070	0.000250	2.497709	0.423123	0.000025
 426	4.2288e+01	4.2249	-4.303778	0.000274	2.743385	0.464742	0.000027
 427	4.2387e+01	4.2374	-4.276078	0.000278	2.784331	0.471678	0.000028
 428	4.2486e+01	4.2432	-4.247972	0.000283	2.825277	0.478615	0.000028
 429	4.2586e+01	4.2552	-4.221087	0.000270	2.702439	0.457806	0.000027
 430	4.2685e+01	4.2661	-4.193795	0.000274	2.743385	0.464742	0.000027
 431	4.2785e+01	4.2757	-4.161208	0.000328	3.275684	0.554916	0.000033
 432	4.2885e+01	4.2843	-4.133916	0.000274	2.743385	0.464742	0.000027
 433	4.2984e+01	4.2927	-4.101736	0.000323	3.234738	0.547979	0.000032
 434	4.3084e+01	4.3059	-4.076481	0.000254	2.538655	0.430060	0.000025
 435	4.3183e+01	4.3140	-4.047559	0.000291	2.907169	0.492488	0.000029
 436	4.3282e+01	4.3235	-4.016601	0.000311	3.111900	0.527170	0.000031
 437	4.3382e+01	4.3362	-3.994197	0.000225	2.252033	0.381505	0.000023
 438	4.3481e+01	4.3437	-3.959166	0.000352	3.521360	0.596535	0.000035
 439	4.3581e+01	4.3533	-3.933911	0.000254	2.538655	0.430060	0.000025
 440	4.3681e+01	4.3664	-3.901731	0.000323	3.234738	0.547979	0.000032
 441	4.3780e+01	4.3739	-3.876068	0.000258	2.579601	0.436996	0.000026
 442	4.3880e+01	4.3819	-3.847554	0.000287	2.866223	0.485551	0.000029
 443	4.3979e+01	4.3931	-3.817003	0.000307	3.070954	0.520234	0.000031
 444	4.4078e+01	4.4044	-3.787675	0.000295	2.948116	0.499424	0.000029
 445	4.4178e+01	4.4131	-3.762827	0.000250	2.497709	0.423123	0.000025
 446	4.4278e+01	4.4216	-3.732683	0.000303	3.030008	0.513297	0.000030
 447	4.4377e+01	4.4323	-3.703355	0.000295	2.948116	0.499424	0.000029
 448	4.4477e+01	4.4458	-3.676063	0.000274	2.743385	0.464742	0.000027
 449	4.4576e+01	4.4533	-3.644697	0.000315	3.152846	0.534107	0.000032
 450	4.4675e+01	4.4604	-3.612925	0.000319	3.193792	0.541043	0.000032
 451	4.4775e+01	4.4752	-3.582781	0.000303	3.030008	0.513297	0.000030
 452	4.4874e+01	4.4830	-3.556304	0.000266	2.661493	0.450869	0.000027
 453	4.4974e+01	4.4920	-3.526975	0.000295	2.948116	0.499424	0.000029
 454	4.5074e+01	4.5019	-3.496017	0.000311	3.111900	0.527170	0.000031
 455	4.5173e+01	4.5133	-3.468725	0.000274	2.743385	0.464742	0.000027
 456	4.5273e+01	4.5238	-3.439804	0.000291	2.907169	0.492488	0.000029
 457	4.5372e+01	4.5303	-3.414956	0.000250	2.497709	0.423123	0.000025
 458	4.5471e+01	4.5437	-3.388886	0.000262	2.620547	0.443933	0.000026
 459	4.5571e+01	4.5526	-3.363631	0.000254	2.538655	0.430060	0.000025
 460	4.5670e+01	4.5625	-3.331858	0.000319	3.193792	0.541043	0.000032
 461	4.5770e+01	4.5722	-3.305381	0.000266	2.661493	0.450869	0.000027
 462	4.5870e+01	4.5831	-3.277682	0.000278	2.784331	0.471678	0.000028
 463	4.5969e+01	4.5914	-3.250797	0.000270	2.702439	0.457806	0.000027
 464	4.6069e+01	4.6043	-3.223098	0.000278	2.784331	0.471678	0.000028
 465	4.6168e+01	4.6121	-3.191325	0.000319	3.193792	0.541043	0.000032
 466	4.6267e+01	4.6233	-3.164848	0.000266	2.661493	0.450869	0.000027
 467	4.6367e+01	4.6290	-3.134705	0.000303	3.030008	0.513297	0.000030
 468	4.6467e+01	4.6407	-3.111079	0.000237	2.374871	0.402314	0.000024
 469	4.6566e+01	4.6534	-3.081343	0.000299	2.989062	0.506361	0.000030
 470	4.6666e+01	4.6612	-3.056495	0.000250	2.497709	0.423123	0.000025
 471	4.6765e+01	4.6741	-3.029203	0.000274	2.743385	0.464742	0.000027
 472	4.6864e+01	4.6825	-3.001504	0.000278	2.784331	0.471678	0.000028
 473	4.6964e+01	4.6896	-2.973397	0.000283	2.825277	0.478615	0.000028
 474	4.7063e+01	4.7006	-2.944883	0.000287	2.866223	0.485551	0.000029
 475	4.7163e+01	4.7085	-2.913925	0.000311	3.111900	0.527170	0.000031
 476	4.7263e+01	4.7237	-2.887855	0.000262	2.620547	0.443933	0.000026
 477	4.7362e+01	4.7333	-2.858526	0.000295	2.948116	0.499424	0.000029
 478	4.7462e+01	4.7427	-2.827568	0.000311	3.111900	0.527170	0.000031
 479	4.7561e+01	4.7521	-2.796610	0.000311	3.111900	0.527170	0.000031
 480	4.7660e+01	4.7601	-2.768096	0.000287	2.866223	0.485551	0.000029
 481	4.7760e+01	4.7718	-2.740397	0.000278	2.784331	0.471678	0.000028
 482	4.7859e+01	4.7829	-2.706588	0.000340	3.398522	0.575725	0.000034
 483	4.7959e+01	4.7918	-2.675630	0.000311	3.111900	0.527170	0.000031
 484	4.8059e+01	4.8007	-2.645894	0.000299	2.989062	0.506361	0.000030
 485	4.8158e+01	4.8098	-2.615343	0.000307	3.070954	0.520234	0.000031
 486	4.8258e+01	4.8206	-2.586829	0.000287	2.866223	0.485551	0.000029
 487	4.8357e+01	4.8287	-2.558315	0.000287	2.866223	0.485551	0.000029
 488	4.8456e+01	4.8426	-2.524913	0.000336	3.357576	0.568789	0.000034
 489	4.8556e+01	4.8495	-2.499658	0.000254	2.538655	0.430060	0.000025
 490	4.8656e+01	4.8638	-2.465033	0.000348	3.480414	0.589598	0.000035
 491	4.8755e+01	4.8723	-2.436112	0.000291	2.907169	0.492488	0.000029
 492	4.8855e+01	4.8814	-2.407598	0.000287	2.866223	0.485551	0.000029
 493	4.8954e+01	4.8927	-2.373381	0.000344	3.439468	0.582662	0.000034
 494	4.9053e+01	4.9010	-2.341201	0.000323	3.234738	0.547979	0.000032
 495	4.9153e+01	4.9110	-2.306170	0.000352	3.521360	0.596535	0.000035
 496	4.9252e+01	4.9229	-2.276027	0.000303	3.030008	0.513297	0.000030
 497	4.9352e+01	4.9303	-2.241402	0.000348	3.480414	0.589598	0.000035
 498	4.9452e+01	4.9410	-2.208815	0.000328	3.275684	0.554916	0.000033
 499	4.9551e+01	4.9497	-2.177042	0.000319	3.193792	0.541043	0.000032
 500	4.9651e+01	4.9636	-2.145270	0.000319	3.193792	0.541043	0.000032
 501	4.9750e+01	4.9709	-2.116348	0.000291	2.907169	0.492488	0.000029
 502	4.9849e+01	4.9817	-2.084983	0.000315	3.152846	0.534107	0.000032
 503	4.9949e+01	4.9917	-2.053210	0.000319	3.193792	0.541043	0.000032
 504	5.0048e+01	4.9999	-2.020623	0.000328	3.275684	0.554916	0.000033
 505	5.0148e+01	5.0109	-1.988035	0.000328	3.275684	0.554916	0.000033
 506	5.0248e+01	5.0187	-1.954633	0.000336	3.357576	0.568789	0.000034
 507	5.0347e+01	5.0326	-1.923675	0.000311	3.111900	0.527170	0.000031
 508	5.0447e+01	5.0414	-1.889051	0.000348	3.480414	0.589598	0.000035
 509	5.0546e+01	5.0481	-1.859315	0.000299	2.989062	0.506361	0.000030
 510	5.0645e+01	5.0580	-1.826320	0.000332	3.316630	0.561852	0.000033
 511	5.0745e+01	5.0724	-1.798214	0.000283	2.825277	0.478615	0.000028
 512	5.0844e+01	5.0787	-1.763997	0.000344	3.439468	0.582662	0.000034
 513	5.0944e+01	5.0874	-1.734668	0.000295	2.948116	0.499424	0.000029
 514	5.1044e+01	5.1004	-1.703710	0.000311	3.111900	0.527170	0.000031
 515	5.1143e+01	5.1093	-1.676011	0.000278	2.784331	0.471678	0.000028
 516	5.1242e+01	5.1225	-1.642609	0.000336	3.357576	0.568789	0.000034
 517	5.1342e+01	5.1287	-1.615317	0.000274	2.743385	0.464742	0.000027
 518	5.1441e+01	5.1402	-1.583544	0.000319	3.193792	0.541043	0.000032
 519	5.1541e+01	5.1505	-1.554216	0.000295	2.948116	0.499424	0.000029
 520	5.1641e+01	5.1608	-1.525294	0.000291	2.907169	0.492488	0.000029
 521	5.1740e+01	5.1714	-1.493114	0.000323	3.234738	0.547979	0.000032
 522	5.1840e+01	5.1766	-1.466637	0.000266	2.661493	0.450869	0.000027
 523	5.1939e+01	5.1876	-1.435679	0.000311	3.111900	0.527170	0.000031
 524	5.2038e+01	5.1991	-1.407165	0.000287	2.866223	0.485551	0.000029
 525	5.2138e+01	5.2102	-1.379058	0.000283	2.825277	0.478615	0.000028
 526	5.2237e+01	5.2193	-1.348100	0.000311	3.111900	0.527170	0.000031
 527	5.2337e+01	5.2299	-1.316327	0.000319	3.193792	0.541043	0.000032
 528	5.2437e+01	5.2438	-1.290665	0.000258	2.579601	0.436996	0.000026
 529	5.2536e+01	5.2491	-1.255226	0.000356	3.562306	0.603471	0.000036
 530	5.2636e+01	5.2576	-1.228341	0.000270	2.702439	0.457806	0.000027
 531	5.2735e+01	5.2699	-1.195754	0.000328	3.275684	0.554916	0.000033
 532	5.2834e+01	5.2787	-1.166425	0.000295	2.948116	0.499424	0.000029
 533	5.2934e+01	5.2905	-1.138319	0.000283	2.825277	0.478615	0.000028
 534	5.3033e+01	5.3028	-1.105731	0.000328	3.275684	0.554916	0.000033
 535	5.3133e+01	5.3084	-1.080476	0.000254	2.538655	0.430060	0.000025
 536	5.3233e+01	5.3190	-1.049925	0.000307	3.070954	0.520234	0.000031
 537	5.3332e+01	5.3268	-1.023448	0.000266	2.661493	0.450869	0.000027
 538	5.3431e+01	5.3371	-0.994527	0.000291	2.907169	0.492488	0.000029
 539	5.3531e+01	5.3487	-0.963161	0.000315	3.152846	0.534107	0.000032
 540	5.3630e+01	5.3582	-0.935055	0.000283	2.825277	0.478615	0.000028
 541	5.3730e+01	5.3686	-0.901245	0.000340	3.398522	0.575725	0.000034
 542	5.3830e+01	5.3776	-0.871509	0.000299	2.989062	0.506361	0.000030
 543	5.3929e+01	5.3899	-0.836478	0.000352	3.521360	0.596535	0.000035
 544	5.4029e+01	5.3987	-0.804705	0.000319	3.193792	0.541043	0.000032
 545	5.4128e+01	5.4102	-0.775377	0.000295	2.948116	0.499424	0.000029
 546	5.4227e+01	5.4195	-0.746048	0.000295	2.948116	0.499424	0.000029
 547	5.4327e+01	5.4263	-0.717534	0.000287	2.866223	0.485551	0.000029
 548	5.4426e+01	5.4395	-0.687391	0.000303	3.030008	0.513297	0.000030
 549	5.4526e+01	5.4455	-0.657655	0.000299	2.989062	0.506361	0.000030
 550	5.4626e+01	5.4572	-0.625882	0.000319	3.193792	0.541043	0.000032
 551	5.4725e+01	5.4679	-0.596146	0.000299	2.989062	0.506361	0.000030
 552	5.4825e+01	5.4780	-0.567632	0.000287	2.866223	0.485551	0.000029
 553	5.4924e+01	5.4847	-0.534230	0.000336	3.357576	0.568789	0.000034
 554	5.5023e+01	5.4983	-0.506530	0.000278	2.784331	0.471678	0.000028
 555	5.5123e+01	5.5123	-0.473943	0.000328	3.275684	0.554916	0.000033
 556	5.5222e+01	5.5183	-0.442578	0.000315	3.152846	0.534107	0.000032
 557	5.5322e+01	5.5276	-0.412842	0.000299	2.989062	0.506361	0.000030
 558	5.5422e+01	5.5372	-0.382698	0.000303	3.030008	0.513297	0.000030
 559	5.5521e+01	5.5461	-0.354999	0.000278	2.784331	0.471678	0.000028
 560	5.5620e+01	5.5570	-0.325263	0.000299	2.989062	0.506361	0.000030
 561	5.5720e+01	5.5666	-0.293083	0.000323	3.234738	0.547979	0.000032
 562	5.5819e+01	5.5753	-0.265384	0.000278	2.784331	0.471678	0.000028
 563	5.5919e+01	5.5874	-0.240536	0.000250	2.497709	0.423123	0.000025
 564	5.6019e+01	5.5987	-0.210800	0.000299	2.989062	0.506361	0.000030
 565	5.6118e+01	5.6080	-0.182693	0.000283	2.825277	0.478615	0.000028
 566	5.6218e+01	5.6165	-0.154994	0.000278	2.784331	0.471678	0.000028
 567	5.6317e+01	5.6256	-0.127295	0.000278	2.784331	0.471678	0.000028
 568	5.6416e+01	5.6369	-0.097559	0.000299	2.989062	0.506361	0.000030
 569	5.6516e+01	5.6483	-0.068637	0.000291	2.907169	0.492488	0.000029
 570	5.6615e+01	5.6550	-0.041345	0.000274	2.743385	0.464742	0.000027
 571	5.6715e+01	5.6660	-0.014053	0.000274	2.743385	0.464742	0.000027
 572	5.6815e+01	5.6768	0.012831	0.000270	2.702439	0.457806	0.000027
 573	5.6914e+01	5.6852	0.042160	0.000295	2.948116	0.499424	0.000029
 574	5.7014e+01	5.6973	0.066601	0.000246	2.456763	0.416187	0.000025
 575	5.7113e+01	5.7066	0.098373	0.000319	3.193792	0.541043	0.000032
 576	5.7212e+01	5.7153	0.124850	0.000266	2.661493	0.450869	0.000027
 577	5.7312e+01	5.7284	0.148476	0.000237	2.374871	0.402314	0.000024
 578	5.7411e+01	5.7363	0.175768	0.000274	2.743385	0.464742	0.000027
 579	5.7511e+01	5.7473	0.199802	0.000242	2.415817	0.409250	0.000024
 580	5.7611e+01	5.7565	0.224242	0.000246	2.456763	0.416187	0.000025
 581	5.7710e+01	5.7662	0.248683	0.000246	2.456763	0.416187	0.000025
 582	5.7809e+01	5.7755	0.276382	0.000278	2.784331	0.471678	0.000028
 583	5.7909e+01	5.7856	0.297971	0.000217	2.170141	0.367632	0.000022
 584	5.8008e+01	5.7947	0.324448	0.000266	2.661493	0.450869	0.000027
 585	5.8108e+01	5.8048	0.352555	0.000283	2.825277	0.478615	0.000028
 586	5.8208e+01	5.8167	0.377810	0.000254	2.538655	0.430060	0.000025
 587	5.8307e+01	5.8260	0.406732	0.000291	2.907169	0.492488	0.000029
 588	5.8407e+01	5.8355	0.428728	0.000221	2.211087	0.374568	0.000022
 589	5.8506e+01	5.8430	0.456020	0.000274	2.743385	0.464742	0.000027
 590	5.8605e+01	5.8548	0.478831	0.000229	2.292979	0.388441	0.000023
 591	5.8705e+01	5.8659	0.502457	0.000237	2.374871	0.402314	0.000024
 592	5.8804e+01	5.8778	0.533415	0.000311	3.111900	0.527170	0.000031
 593	5.8904e+01	5.8858	0.557041	0.000237	2.374871	0.402314	0.000024
 594	5.9004e+01	5.8964	0.580259	0.000233	2.333925	0.395378	0.000023
 595	5.9103e+01	5.9055	0.605515	0.000254	2.538655	0.430060	0.000025
 596	5.9203e+01	5.9176	0.632807	0.000274	2.743385	0.464742	0.000027
 597	5.9302e+01	5.9255	0.658469	0.000258	2.579601	0.436996	0.000026
 598	5.9401e+01	5.9375	0.691057	0.000328	3.275684	0.554916	0.000033
 599	5.9501e+01	5.9451	0.713868	0.000229	2.292979	0.388441	0.000023
 600	5.9600e+01	5.9554	0.744011	0.000303	3.030008	0.513297	0.000030
 601	5.9700e+01	5.9678	0.770896	0.000270	2.702439	0.457806	0.000027
 602	5.9800e+01	5.9761	0.797780	0.000270	2.702439	0.457806	0.000027
 603	5.9899e+01	5.9855	0.823443	0.000258	2.579601	0.436996	0.000026
 604	5.9998e+01	5.9936	0.849513	0.000262	2.620547	0.443933	0.000026
 605	6.0098e+01	6.0054	0.878434	0.000291	2.907169	0.492488	0.000029
 606	6.0197e+01	6.0153	0.906948	0.000287	2.866223	0.485551	0.000029
 607	6.0297e+01	6.0273	0.934647	0.000278	2.784331	0.471678	0.000028
 608	6.0397e+01	6.0357	0.957051	0.000225	2.252033	0.381505	0.000023
 609	6.0496e+01	6.0453	0.988417	0.000315	3.152846	0.534107	0.000032
 610	6.0596e+01	6.0542	1.015301	0.000270	2.702439	0.457806	0.000027
 611	6.0695e+01	6.0671	1.040964	0.000258	2.579601	0.436996	0.000026
 612	6.0794e+01	6.0766	1.068256	0.000274	2.743385	0.464742	0.000027
 613	6.0894e+01	6.0854	1.096770	0.000287	2.866223	0.485551	0.000029
 614	6.0993e+01	6.0971	1.123247	0.000266	2.661493	0.450869	0.000027
 615	6.1093e+01	6.1037	1.151761	0.000287	2.866223	0.485551	0.000029
 616	6.1193e+01	6.1182	1.181090	0.000295	2.948116	0.499424	0.000029
 617	6.1292e+01	6.1255	1.208382	0.000274	2.743385	0.464742	0.000027
 618	6.1392e+01	6.1365	1.233230	0.000250	2.497709	0.423123	0.000025
 619	6.1491e+01	6.1440	1.263373	0.000303	3.030008	0.513297	0.000030
 620	6.1590e+01	6.1585	1.290665	0.000274	2.743385	0.464742	0.000027
 621	6.1690e+01	6.1645	1.317957	0.000274	2.743385	0.464742	0.000027
 622	6.1789e+01	6.1733	1.348100	0.000303	3.030008	0.513297	0.000030
 623	6.1889e+01	6.1858	1.372541	0.000246	2.456763	0.416187	0.000025
 624	6.1989e+01	6.1942	1.401055	0.000287	2.866223	0.485551	0.000029
 625	6.2088e+01	6.2054	1.425495	0.000246	2.456763	0.416187	0.000025
 626	6.2188e+01	6.2160	1.451565	0.000262	2.620547	0.443933	0.000026
 627	6.2287e+01	6.2228	1.475191	0.000237	2.374871	0.402314	0.000024
 628	6.2386e+01	6.2356	1.503298	0.000283	2.825277	0.478615	0.000028
 629	6.2486e+01	6.2432	1.528960	0.000258	2.579601	0.436996	0.000026
 630	6.2586e+01	6.2559	1.556252	0.000274	2.743385	0.464742	0.000027
 631	6.2685e+01	6.2643	1.586803	0.000307	3.070954	0.520234	0.000031
 632	6.2785e+01	6.2742	1.612465	0.000258	2.579601	0.436996	0.000026
 633	6.2884e+01	6.2835	1.636499	0.000242	2.415817	0.409250	0.000024
 634	6.2983e+01	6.2957	1.667457	0.000311	3.111900	0.527170	0.000031
 635	6.3083e+01	6.3068	1.690675	0.000233	2.333925	0.395378	0.000023
 636	6.3182e+01	6.3126	1.715930	0.000254	2.538655	0.430060	0.000025
 637	6.3282e+01	6.3221	1.739149	0.000233	2.333925	0.395378	0.000023
 638	6.3382e+01	6.3326	1.768478	0.000295	2.948116	0.499424	0.000029
 639	6.3481e+01	6.3424	1.796177	0.000278	2.784331	0.471678	0.000028
 640	6.3581e+01	6.3509	1.818988	0.000229	2.292979	0.388441	0.000023
 641	6.3680e+01	6.3603	1.847095	0.000283	2.825277	0.478615	0.000028
 642	6.3779e+01	6.3741	1.875609	0.000287	2.866223	0.485551	0.000029
 643	6.3879e+01	6.3811	1.896791	0.000213	2.129195	0.360695	0.000021
 644	6.3978e+01	6.3953	1.928563	0.000319	3.193792	0.541043	0.000032
 645	6.4078e+01	6.4018	1.959521	0.000311	3.111900	0.527170	0.000031
 646	6.4177e+01	6.4133	1.987221	0.000278	2.784331	0.471678	0.000028
 647	6.4277e+01	6.4214	2.016142	0.000291	2.907169	0.492488	0.000029
 648	6.4376e+01	6.4352	2.043027	0.000270	2.702439	0.457806	0.000027
 649	6.4476e+01	6.4432	2.072355	0.000295	2.948116	0.499424	0.000029
 650	6.4576e+01	6.4506	2.100462	0.000283	2.825277	0.478615	0.000028
 651	6.4675e+01	6.4626	2.131013	0.000307	3.070954	0.520234	0.000031
 652	6.4775e+01	6.4738	2.163193	0.000323	3.234738	0.547979	0.000032
 653	6.4874e+01	6.4837	2.188448	0.000254	2.538655	0.430060	0.000025
 654	6.4974e+01	6.4941	2.216962	0.000287	2.866223	0.485551	0.000029
 655	6.5073e+01	6.5017	2.245883	0.000291	2.907169	0.492488	0.000029
 656	6.5172e+01	6.5119	2.276027	0.000303	3.030008	0.513297	0.000030
 657	6.5272e+01	6.5206	2.300874	0.000250	2.497709	0.423123	0.000025
 658	6.5371e+01	6.5332	2.334276	0.000336	3.357576	0.568789	0.000034
 659	6.5471e+01	6.5442	2.364827	0.000307	3.070954	0.520234	0.000031
 660	6.5570e+01	6.5542	2.392119	0.000274	2.743385	0.464742	0.000027
 661	6.5670e+01	6.5612	2.422670	0.000307	3.070954	0.520234	0.000031
 662	6.5769e+01	6.5704	2.461775	0.000393	3.930821	0.665899	0.000039
 663	6.5869e+01	6.5810	2.487030	0.000254	2.538655	0.430060	0.000025
 664	6.5969e+01	6.5936	2.518395	0.000315	3.152846	0.534107	0.000032
 665	6.6068e+01	6.6051	2.553019	0.000348	3.480414	0.589598	0.000035
 666	6.6168e+01	6.6135	2.583570	0.000307	3.070954	0.520234	0.000031
 667	6.6267e+01	6.6222	2.614528	0.000311	3.111900	0.527170	0.000031
 668	6.6367e+01	6.6309	2.645486	0.000311	3.111900	0.527170	0.000031
 669	6.6466e+01	6.6406	2.675222	0.000299	2.989062	0.506361	0.000030
 670	6.6566e+01	6.6509	2.706588	0.000315	3.152846	0.534107	0.000032
 671	6.6665e+01	6.6673	2.737138	0.000307	3.070954	0.520234	0.000031
 672	6.6764e+01	6.6730	2.767282	0.000303	3.030008	0.513297	0.000030
 673	6.6864e+01	6.6821	2.798647	0.000315	3.152846	0.534107	0.000032
 674	6.6963e+01	6.6936	2.830420	0.000319	3.193792	0.541043	0.000032
 675	6.7063e+01	6.6977	2.863414	0.000332	3.316630	0.561852	0.000033
 676	6.7162e+01	6.7092	2.895187	0.000319	3.193792	0.541043	0.000032
 677	6.7262e+01	6.7218	2.924109	0.000291	2.907169	0.492488	0.000029
 678	6.7362e+01	6.7290	2.956696	0.000328	3.275684	0.554916	0.000033
 679	6.7461e+01	6.7401	2.986025	0.000295	2.948116	0.499424	0.000029
 680	6.7561e+01	6.7509	3.014946	0.000291	2.907169	0.492488	0.000029
 681	6.7660e+01	6.7612	3.048348	0.000336	3.357576	0.568789	0.000034
 682	6.7760e+01	6.7715	3.077269	0.000291	2.907169	0.492488	0.000029
 683	6.7859e+01	6.7815	3.107005	0.000299	2.989062	0.506361	0.000030
 684	6.7959e+01	6.7912	3.134705	0.000278	2.784331	0.471678	0.000028
 685	6.8058e+01	6.7989	3.164441	0.000299	2.989062	0.506361	0.000030
 686	6.8157e+01	6.8121	3.192547	0.000283	2.825277	0.478615	0.000028
 687	6.8257e+01	6.8224	3.223098	0.000307	3.070954	0.520234	0.000031
 688	6.8356e+01	6.8321	3.250390	0.000274	2.743385	0.464742	0.000027
 689	6.8456e+01	6.8401	3.281755	0.000315	3.152846	0.534107	0.000032
 690	6.8555e+01	6.8493	3.308233	0.000266	2.661493	0.450869	0.000027
 691	6.8655e+01	6.8618	3.337969	0.000299	2.989062	0.506361	0.000030
 692	6.8754e+01	6.8688	3.366483	0.000287	2.866223	0.485551	0.000029
 693	6.8854e+01	6.8836	3.401107	0.000348	3.480414	0.589598	0.000035
 694	6.8954e+01	6.8891	3.425955	0.000250	2.497709	0.423123	0.000025
 695	6.9053e+01	6.8999	3.456505	0.000307	3.070954	0.520234	0.000031
 696	6.9153e+01	6.9104	3.485834	0.000295	2.948116	0.499424	0.000029
 697	6.9252e+01	6.9198	3.512311	0.000266	2.661493	0.450869	0.000027
 698	6.9352e+01	6.9268	3.543677	0.000315	3.152846	0.534107	0.000032
 699	6.9451e+01	6.9399	3.573820	0.000303	3.030008	0.513297	0.000030
 700	6.9550e+01	6.9521	3.603149	0.000295	2.948116	0.499424	0.000029
 701	6.9650e+01	6.9588	3.627182	0.000242	2.415817	0.409250	0.000024
 702	6.9749e+01	6.9703	3.661399	0.000344	3.439468	0.582662	0.000034
 703	6.9849e+01	6.9820	3.686654	0.000254	2.538655	0.430060	0.000025
 704	6.9948e+01	6.9915	3.713131	0.000266	2.661493	0.450869	0.000027
 705	7.0048e+01	7.0016	3.743682	0.000307	3.070954	0.520234	0.000031
 706	7.0147e+01	7.0119	3.773418	0.000299	2.989062	0.506361	0.000030
 707	7.0247e+01	7.0203	3.808042	0.000348	3.480414	0.589598	0.000035
 708	7.0347e+01	7.0307	3.835334	0.000274	2.743385	0.464742	0.000027
 709	7.0446e+01	7.0396	3.867514	0.000323	3.234738	0.547979	0.000032
 710	7.0546e+01	7.0501	3.900101	0.000328	3.275684	0.554916	0.000033
 711	7.0645e+01	7.0611	3.931874	0.000319	3.193792	0.541043	0.000032
 712	7.0745e+01	7.0703	3.959981	0.000283	2.825277	0.478615	0.000028
 713	7.0844e+01	7.0803	3.990124	0.000303	3.030008	0.513297	0.000030
 714	7.0944e+01	7.0884	4.018638	0.000287	2.866223	0.485551	0.000029
 715	7.1043e+01	7.0996	4.048781	0.000303	3.030008	0.513297	0.000030
 716	7.1142e+01	7.1095	4.081369	0.000328	3.275684	0.554916	0.000033
 717	7.1242e+01	7.1204	4.109068	0.000278	2.784331	0.471678	0.000028
 718	7.1341e+01	7.1301	4.137989	0.000291	2.907169	0.492488	0.000029
 719	7.1441e+01	7.1378	4.167318	0.000295	2.948116	0.499424	0.000029
 720	7.1540e+01	7.1486	4.200313	0.000332	3.316630	0.561852	0.000033
 721	7.1640e+01	7.1574	4.230863	0.000307	3.070954	0.520234	0.000031
 722	7.1740e+01	7.1684	4.258563	0.000278	2.784331	0.471678	0.000028
 723	7.1839e+01	7.1788	4.292372	0.000340	3.398522	0.575725	0.000034
 724	7.1939e+01	7.1889	4.325774	0.000336	3.357576	0.568789	0.000034
 725	7.2038e+01	7.1987	4.352659	0.000270	2.702439	0.457806	0.000027
 726	7.2138e+01	7.2073	4.385246	0.000328	3.275684	0.554916	0.000033
 727	7.2237e+01	7.2188	4.413353	0.000283	2.825277	0.478615	0.000028
 728	7.2337e+01	7.2282	4.439423	0.000262	2.620547	0.443933	0.000026
 729	7.2436e+01	7.2402	4.467122	0.000278	2.784331	0.471678	0.000028
 730	7.2535e+01	7.2466	4.495636	0.000287	2.866223	0.485551	0.000029
 731	7.2635e+01	7.2596	4.526187	0.000307	3.070954	0.520234	0.000031
 732	7.2734e+01	7.2668	4.550627	0.000246	2.456763	0.416187	0.000025
 733	7.2834e+01	7.2787	4.581993	0.000315	3.152846	0.534107	0.000032
 734	7.2933e+01	7.2882	4.607655	0.000258	2.579601	0.436996	0.000026
 735	7.3033e+01	7.2976	4.639021	0.000315	3.152846	0.534107	0.000032
 736	7.3132e+01	7.3069	4.668349	0.000295	2.948116	0.499424	0.000029
 737	7.3232e+01	7.3199	4.700122	0.000319	3.193792	0.541043	0.000032
 738	7.3332e+01	7.3287	4.725785	0.000258	2.579601	0.436996	0.000026
 739	7.3431e+01	7.3370	4.755928	0.000303	3.030008	0.513297	0.000030
 740	7.3531e+01	7.3497	4.781591	0.000258	2.579601	0.436996	0.000026
 741	7.3630e+01	7.3611	4.810512	0.000291	2.907169	0.492488	0.000029
 742	7.3730e+01	7.3682	4.838211	0.000278	2.784331	0.471678	0.000028
 743	7.3829e+01	7.3809	4.866318	0.000283	2.825277	0.478615	0.000028
 744	7.3928e+01	7.3903	4.894424	0.000283	2.825277	0.478615	0.000028
 745	7.4028e+01	7.4000	4.917643	0.000233	2.333925	0.395378	0.000023
 746	7.4127e+01	7.4065	4.945342	0.000278	2.784331	0.471678	0.000028
 747	7.4227e+01	7.4174	4.973449	0.000283	2.825277	0.478615	0.000028
 748	7.4326e+01	7.4281	4.997482	0.000242	2.415817	0.409250	0.000024
 749	7.4426e+01	7.4370	5.023145	0.000258	2.579601	0.436996	0.000026
 750	7.4525e+01	7.4509	5.047178	0.000242	2.415817	0.409250	0.000024
 751	7.4625e+01	7.4569	5.074877	0.000278	2.784331	0.471678	0.000028
 752	7.4725e+01	7.4693	5.103391	0.000287	2.866223	0.485551	0.000029
 753	7.4824e+01	7.4792	5.134349	0.000311	3.111900	0.527170	0.000031
 754	7.4924e+01	7.4880	5.162456	0.000283	2.825277	0.478615	0.000028
 755	7.5023e+01	7.4960	5.186896	0.000246	2.456763	0.416187	0.000025
 756	7.5123e+01	7.5081	5.211337	0.000246	2.456763	0.416187	0.000025
 757	7.5222e+01	7.5179	5.239036	0.000278	2.784331	0.471678	0.000028
 758	7.5322e+01	7.5277	5.263069	0.000242	2.415817	0.409250	0.000024
 759	7.5421e+01	7.5355	5.294842	0.000319	3.193792	0.541043	0.000032
 760	7.5520e+01	7.5454	5.319690	0.000250	2.497709	0.423123	0.000025
 761	7.5620e+01	7.5560	5.342501	0.000229	2.292979	0.388441	0.000023
 762	7.5719e+01	7.5676	5.369793	0.000274	2.743385	0.464742	0.000027
 763	7.5819e+01	7.5735	5.400344	0.000307	3.070954	0.520234	0.000031
 764	7.5918e+01	7.5837	5.428043	0.000278	2.784331	0.471678	0.000028
 765	7.6018e+01	7.5967	5.456557	0.000287	2.866223	0.485551	0.000029
 766	7.6118e+01	7.6064	5.484256	0.000278	2.784331	0.471678	0.000028
 767	7.6217e+01	7.6196	5.514400	0.000303	3.030008	0.513297	0.000030
 768	7.6317e+01	7.6289	5.542099	0.000278	2.784331	0.471678	0.000028
 769	7.6416e+01	7.6375	5.573464	0.000315	3.152846	0.534107	0.000032
 770	7.6516e+01	7.6469	5.600756	0.000274	2.743385	0.464742	0.000027
 771	7.6615e+01	7.6558	5.629270	0.000287	2.866223	0.485551	0.000029
 772	7.6715e+01	7.6669	5.658599	0.000295	2.948116	0.499424	0.000029
 773	7.6814e+01	7.6771	5.687520	0.000291	2.907169	0.492488	0.000029
 774	7.6913e+01	7.6858	5.717256	0.000299	2.989062	0.506361	0.000030
 775	7.7013e+01	7.6946	5.747807	0.000307	3.070954	0.520234	0.000031
 776	7.7112e+01	7.7061	5.776321	0.000287	2.866223	0.485551	0.000029
 777	7.7212e+01	7.7163	5.804835	0.000287	2.866223	0.485551	0.000029
 778	7.7311e+01	7.7251	5.834164	0.000295	2.948116	0.499424	0.000029
 779	7.7411e+01	7.7357	5.867566	0.000336	3.357576	0.568789	0.000034
 780	7.7510e+01	7.7465	5.893636	0.000262	2.620547	0.443933	0.000026
 781	7.7610e+01	7.7568	5.926630	0.000332	3.316630	0.561852	0.000033
 782	7.7710e+01	7.7679	5.955959	0.000295	2.948116	0.499424	0.000029
 783	7.7809e+01	7.7731	5.985695	0.000299	2.989062	0.506361	0.000030
 784	7.7909e+01	7.7877	6.018283	0.000328	3.275684	0.554916	0.000033
 785	7.8008e+01	7.7945	6.049648	0.000315	3.152846	0.534107	0.000032
 786	7.8108e+01	7.8076	6.076940	0.000274	2.743385	0.464742	0.000027
 787	7.8207e+01	7.8174	6.109120	0.000323	3.234738	0.547979	0.000032
 788	7.8306e+01	7.8259	6.139671	0.000307	3.070954	0.520234	0.000031
 789	7.8406e+01	7.8335	6.171036	0.000315	3.152846	0.534107	0.000032
 790	7.8505e+01	7.8467	6.200365	0.000295	2.948116	0.499424	0.000029
 791	7.8605e+01	7.8551	6.227657	0.000274	2.743385	0.464742	0.000027
 792	7.8704e+01	7.8674	6.259429	0.000319	3.193792	0.541043	0.000032
 793	7.8804e+01	7.8754	6.286314	0.000270	2.702439	0.457806	0.000027
 794	7.8903e+01	7.8852	6.317272	0.000311	3.111900	0.527170	0.000031
 795	7.9003e+01	7.8995	6.346193	0.000291	2.907169	0.492488	0.000029
 796	7.9103e+01	7.9059	6.374707	0.000287	2.866223	0.485551	0.000029
 797	7.9202e+01	7.9183	6.404443	0.000299	2.989062	0.506361	0.000030
 798	7.9302e+01	7.9272	6.434587	0.000303	3.030008	0.513297	0.000030
 799	7.9401e+01	7.9388	6.466359	0.000319	3.193792	0.541043	0.000032
 800	7.9501e+01	7.9450	6.494466	0.000283	2.825277	0.478615	0.000028
 801	7.9600e+01	7.9562	6.524609	0.000303	3.030008	0.513297	0.000030
 802	7.9700e+01	7.9656	6.559641	0.000352	3.521360	0.596535	0.000035
 803	7.9799e+01	7.9751	6.584081	0.000246	2.456763	0.416187	0.000025
 804	7.9898e+01	7.9847	6.619927	0.000360	3.603252	0.610407	0.000036
 805	7.9998e+01	7.9951	6.646812	0.000270	2.702439	0.457806	0.000027
 806	8.0097e+01	8.0048	6.679807	0.000332	3.316630	0.561852	0.000033
 807	8.0197e+01	8.0166	6.709135	0.000295	2.948116	0.499424	0.000029
 808	8.0296e+01	8.0233	6.743352	0.000344	3.439468	0.582662	0.000034
 809	8.0396e+01	8.0359	6.773903	0.000307	3.070954	0.520234	0.000031
 810	8.0496e+01	8.0444	6.804046	0.000303	3.030008	0.513297	0.000030
 811	8.0595e+01	8.0533	6.835819	0.000319	3.193792	0.541043	0.000032
 812	8.0695e+01	8.0640	6.870850	0.000352	3.521360	0.596535	0.000035
 813	8.0794e+01	8.0746	6.907104	0.000364	3.644198	0.617344	0.000036
 814	8.0894e+01	8.0851	6.936433	0.000295	2.948116	0.499424	0.000029
 815	8.0993e+01	8.0945	6.974723	0.000385	3.848929	0.652026	0.000038
 816	8.1093e+01	8.1036	7.007718	0.000332	3.316630	0.561852	0.000033
 817	8.1192e+01	8.1164	7.044786	0.000373	3.726090	0.631217	0.000037
 818	8.1291e+01	8.1245	7.074929	0.000303	3.030008	0.513297	0.000030
 819	8.1391e+01	8.1337	7.108739	0.000340	3.398522	0.575725	0.000034
 820	8.1490e+01	8.1429	7.140104	0.000315	3.152846	0.534107	0.000032
 821	8.1590e+01	8.1557	7.177579	0.000377	3.767036	0.638153	0.000038
 822	8.1689e+01	8.1635	7.211389	0.000340	3.398522	0.575725	0.000034
 823	8.1789e+01	8.1744	7.246828	0.000356	3.562306	0.603471	0.000036
 824	8.1888e+01	8.1849	7.278600	0.000319	3.193792	0.541043	0.000032
 825	8.1988e+01	8.1920	7.312002	0.000336	3.357576	0.568789	0.000034
 826	8.2088e+01	8.2031	7.350700	0.000389	3.889875	0.658963	0.000039
 827	8.2187e+01	8.2134	7.383287	0.000328	3.275684	0.554916	0.000033
 828	8.2287e+01	8.2249	7.420356	0.000373	3.726090	0.631217	0.000037
 829	8.2386e+01	8.2349	7.459460	0.000393	3.930821	0.665899	0.000039
 830	8.2486e+01	8.2430	7.497343	0.000381	3.807983	0.645090	0.000038
 831	8.2585e+01	8.2520	7.533189	0.000360	3.603252	0.610407	0.000036
 832	8.2684e+01	8.2629	7.573924	0.000409	4.094605	0.693645	0.000041
 833	8.2784e+01	8.2742	7.608548	0.000348	3.480414	0.589598	0.000035
 834	8.2883e+01	8.2837	7.644394	0.000360	3.603252	0.610407	0.000036
 835	8.2983e+01	8.2937	7.683906	0.000397	3.971767	0.672835	0.000040
 836	8.3082e+01	8.3047	7.719752	0.000360	3.603252	0.610407	0.000036
 837	8.3182e+01	8.3140	7.758043	0.000385	3.848929	0.652026	0.000038
 838	8.3281e+01	8.3241	7.791445	0.000336	3.357576	0.568789	0.000034
 839	8.3381e+01	8.3315	7.829735	0.000385	3.848929	0.652026	0.000038
 840	8.3481e+01	8.3435	7.867210	0.000377	3.767036	0.638153	0.000038
 841	8.3580e+01	8.3554	7.907130	0.000401	4.012713	0.679772	0.000040
 842	8.3680e+01	8.3660	7.945013	0.000381	3.807983	0.645090	0.000038
 843	8.3779e+01	8.3740	7.986154	0.000414	4.135551	0.700581	0.000041
 844	8.3879e+01	8.3805	8.022001	0.000360	3.603252	0.610407	0.000036
 845	8.3978e+01	8.3941	8.063957	0.000422	4.217443	0.714454	0.000042
 846	8.4078e+01	8.4061	8.096137	0.000323	3.234738	0.547979	0.000032
 847	8.4177e+01	8.4146	8.138501	0.000426	4.258389	0.721391	0.000043
 848	8.4276e+01	8.4231	8.173532	0.000352	3.521360	0.596535	0.000035
 849	8.4376e+01	8.4327	8.206119	0.000328	3.275684	0.554916	0.000033
 850	8.4475e+01	8.4406	8.244410	0.000385	3.848929	0.652026	0.000038
 851	8.4575e+01	8.4528	8.281478	0.000373	3.726090	0.631217	0.000037
 852	8.4674e+01	8.4629	8.316917	0.000356	3.562306	0.603471	0.000036
 853	8.4774e+01	8.4704	8.353577	0.000369	3.685144	0.624280	0.000037
 854	8.4874e+01	8.4830	8.393090	0.000397	3.971767	0.672835	0.000040
 855	8.4973e+01	8.4924	8.430158	0.000373	3.726090	0.631217	0.000037
 856	8.5073e+01	8.5032	8.466411	0.000364	3.644198	0.617344	0.000036
 857	8.5172e+01	8.5114	8.504701	0.000385	3.848929	0.652026	0.000038
 858	8.5272e+01	8.5218	8.543399	0.000389	3.889875	0.658963	0.000039
 859	8.5371e+01	8.5307	8.576801	0.000336	3.357576	0.568789	0.000034
 860	8.5471e+01	8.5430	8.613055	0.000364	3.644198	0.617344	0.000036
 861	8.5570e+01	8.5487	8.654196	0.000414	4.135551	0.700581	0.000041
 862	8.5669e+01	8.5620	8.691672	0.000377	3.767036	0.638153	0.000038
 863	8.5769e+01	8.5730	8.734035	0.000426	4.258389	0.721391	0.000043
 864	8.5868e+01	8.5818	8.769881	0.000360	3.603252	0.610407	0.000036
 865	8.5968e+01	8.5925	8.808172	0.000385	3.848929	0.652026	0.000038
 866	8.6067e+01	8.6016	8.846462	0.000385	3.848929	0.652026	0.000038
 867	8.6167e+01	8.6124	8.886789	0.000405	4.053659	0.686708	0.000041
 868	8.6266e+01	8.6230	8.923450	0.000369	3.685144	0.624280	0.000037
 869	8.6366e+01	8.6332	8.963369	0.000401	4.012713	0.679772	0.000040
 870	8.6466e+01	8.6407	9.003696	0.000405	4.053659	0.686708	0.000041
 871	8.6565e+01	8.6517	9.044023	0.000405	4.053659	0.686708	0.000041
 872	8.6665e+01	8.6621	9.084350	0.000405	4.053659	0.686708	0.000041
 873	8.6764e+01	8.6710	9.129158	0.000450	4.504065	0.763009	0.000045
 874	8.6864e+01	8.6798	9.167448	0.000385	3.848929	0.652026	0.000038
 875	8.6963e+01	8.6914	9.209404	0.000422	4.217443	0.714454	0.000042
 876	8.7063e+01	8.7002	9.251360	0.000422	4.217443	0.714454	0.000042
 877	8.7162e+01	8.7089	9.298205	0.000471	4.708796	0.797692	0.000047
 878	8.7261e+01	8.7194	9.337310	0.000393	3.930821	0.665899	0.000039
 879	8.7361e+01	8.7310	9.378859	0.000418	4.176497	0.707518	0.000042
 880	8.7460e+01	8.7402	9.424481	0.000459	4.585957	0.776882	0.000046
 881	8.7560e+01	8.7516	9.466845	0.000426	4.258389	0.721391	0.000043
 882	8.7659e+01	8.7606	9.507171	0.000405	4.053659	0.686708	0.000041
 883	8.7759e+01	8.7695	9.548313	0.000414	4.135551	0.700581	0.000041
 884	8.7859e+01	8.7820	9.588640	0.000405	4.053659	0.686708	0.000041
 885	8.7958e+01	8.7920	9.629782	0.000414	4.135551	0.700581	0.000041
 886	8.8058e+01	8.8020	9.677441	0.000479	4.790688	0.811564	0.000048
 887	8.8157e+01	8.8103	9.718175	0.000409	4.094605	0.693645	0.000041
 888	8.8257e+01	8.8215	9.765834	0.000479	4.790688	0.811564	0.000048
 889	8.8356e+01	8.8297	9.811049	0.000455	4.545011	0.769946	0.000045
 890	8.8456e+01	8.8403	9.855449	0.000446	4.463119	0.756073	0.000045
 891	8.8555e+01	8.8503	9.902294	0.000471	4.708796	0.797692	0.000047
 892	8.8654e+01	8.8612	9.947509	0.000455	4.545011	0.769946	0.000045
 893	8.8754e+01	8.8699	9.985799	0.000385	3.848929	0.652026	0.000038
 894	8.8853e+01	8.8811	10.029792	0.000442	4.422173	0.749136	0.000044
 895	8.8953e+01	8.8898	10.075822	0.000463	4.626903	0.783819	0.000046
 896	8.9052e+01	8.9001	10.116963	0.000414	4.135551	0.700581	0.000041
 897	8.9152e+01	8.9100	10.162993	0.000463	4.626903	0.783819	0.000046
 898	8.9251e+01	8.9185	10.205357	0.000426	4.258389	0.721391	0.000043
 899	8.9351e+01	8.9292	10.248942	0.000438	4.381227	0.742200	0.000044
 900	8.9451e+01	8.9390	10.292528	0.000438	4.381227	0.742200	0.000044
 901	8.9550e+01	8.9494	10.336521	0.000442	4.422173	0.749136	0.000044
 902	8.9650e+01	8.9590	10.383773	0.000475	4.749742	0.804628	0.000047
 903	8.9749e+01	8.9702	10.428173	0.000446	4.463119	0.756073	0.000045
 904	8.9849e+01	8.9795	10.474610	0.000467	4.667850	0.790755	0.000047
 905	8.9948e+01	8.9875	10.521047	0.000467	4.667850	0.790755	0.000047
 906	9.0047e+01	8.9966	10.567077	0.000463	4.626903	0.783819	0.000046
 907	9.0147e+01	9.0088	10.610255	0.000434	4.340281	0.735264	0.000043
 908	9.0246e+01	9.0171	10.657914	0.000479	4.790688	0.811564	0.000048
 909	9.0346e+01	9.0310	10.707610	0.000500	4.995418	0.846247	0.000050
 910	9.0445e+01	9.0381	10.752418	0.000450	4.504065	0.763009	0.000045
 911	9.0545e+01	9.0491	10.795596	0.000434	4.340281	0.735264	0.000043
 912	9.0644e+01	9.0598	10.839182	0.000438	4.381227	0.742200	0.000044
 913	9.0744e+01	9.0682	10.878287	0.000393	3.930821	0.665899	0.000039
 914	9.0844e+01	9.0797	10.923909	0.000459	4.585957	0.776882	0.000046
 915	9.0943e+01	9.0869	10.970753	0.000471	4.708796	0.797692	0.000047
 916	9.1043e+01	9.0986	11.019227	0.000487	4.872580	0.825437	0.000049
 917	9.1142e+01	9.1073	11.064849	0.000459	4.585957	0.776882	0.000046
 918	9.1242e+01	9.1187	11.108842	0.000442	4.422173	0.749136	0.000044
 919	9.1341e+01	9.1281	11.157723	0.000491	4.913526	0.832374	0.000049
 920	9.1441e+01	9.1364	11.204161	0.000467	4.667850	0.790755	0.000047
 921	9.1540e+01	9.1512	11.249783	0.000459	4.585957	0.776882	0.000046
 922	9.1639e+01	9.1592	11.299886	0.000504	5.036364	0.853183	0.000050
 923	9.1739e+01	9.1685	11.345508	0.000459	4.585957	0.776882	0.000046
 924	9.1838e+01	9.1798	11.388279	0.000430	4.299335	0.728327	0.000043
 925	9.1938e+01	9.1895	11.438383	0.000504	5.036364	0.853183	0.000050
 926	9.2037e+01	9.2017	11.487671	0.000495	4.954472	0.839310	0.000050
 927	9.2137e+01	9.2090	11.532071	0.000446	4.463119	0.756073	0.000045
 928	9.2237e+01	9.2161	11.585433	0.000536	5.363932	0.908675	0.000054
 929	9.2336e+01	9.2286	11.631463	0.000463	4.626903	0.783819	0.000046
 930	9.2436e+01	9.2371	11.678715	0.000475	4.749742	0.804628	0.000047
 931	9.2535e+01	9.2520	11.726781	0.000483	4.831634	0.818501	0.000048
 932	9.2635e+01	9.2578	11.779736	0.000532	5.322986	0.901738	0.000053
 933	9.2734e+01	9.2677	11.829024	0.000495	4.954472	0.839310	0.000050
 934	9.2834e+01	9.2792	11.881164	0.000524	5.241094	0.887865	0.000052
 935	9.2933e+01	9.2886	11.935340	0.000545	5.445824	0.922548	0.000054
 936	9.3032e+01	9.2997	11.990332	0.000553	5.527717	0.936421	0.000055
 937	9.3132e+01	9.3080	12.039620	0.000495	4.954472	0.839310	0.000050
 938	9.3231e+01	9.3179	12.094204	0.000549	5.486771	0.929484	0.000055
 939	9.3331e+01	9.3240	12.147973	0.000540	5.404878	0.915611	0.000054
 940	9.3430e+01	9.3354	12.198484	0.000508	5.077310	0.860120	0.000051
 941	9.3530e+01	9.3470	12.256734	0.000586	5.855285	0.991912	0.000059
 942	9.3629e+01	9.3604	12.310503	0.000540	5.404878	0.915611	0.000054
 943	9.3729e+01	9.3670	12.363457	0.000532	5.322986	0.901738	0.000053
 944	9.3829e+01	9.3787	12.422929	0.000598	5.978123	1.012721	0.000060
 945	9.3928e+01	9.3873	12.478328	0.000557	5.568663	0.943357	0.000056
 946	9.4028e+01	9.3962	12.537800	0.000598	5.978123	1.012721	0.000060
 947	9.4127e+01	9.4080	12.592384	0.000549	5.486771	0.929484	0.000055
 948	9.4227e+01	9.4160	12.650634	0.000586	5.855285	0.991912	0.000059
 949	9.4326e+01	9.4266	12.709699	0.000594	5.937177	1.005785	0.000059
 950	9.4425e+01	9.4370	12.761024	0.000516	5.159202	0.873993	0.000052
 951	9.4525e+01	9.4482	12.822125	0.000614	6.141907	1.040467	0.000061
 952	9.4624e+01	9.4598	12.879560	0.000577	5.773393	0.978039	0.000058
 953	9.4724e+01	9.4678	12.941069	0.000618	6.182853	1.047404	0.000062
 954	9.4823e+01	9.4775	13.000541	0.000598	5.978123	1.012721	0.000060
 955	9.4923e+01	9.4879	13.058791	0.000586	5.855285	0.991912	0.000059
 956	9.5022e+01	9.4981	13.121115	0.000626	6.264745	1.061277	0.000063
 957	9.5122e+01	9.5078	13.183438	0.000626	6.264745	1.061277	0.000063
 958	9.5222e+01	9.5154	13.240466	0.000573	5.732447	0.971103	0.000057
 959	9.5321e+01	9.5255	13.299531	0.000594	5.937177	1.005785	0.000059
 960	9.5421e+01	9.5352	13.357781	0.000586	5.855285	0.991912	0.000059
 961	9.5520e+01	9.5479	13.414401	0.000569	5.691501	0.964166	0.000057
 962	9.5620e+01	9.5563	13.477947	0.000639	6.387584	1.082086	0.000064
 963	9.5719e+01	9.5654	13.540677	0.000631	6.305691	1.068213	0.000063
 964	9.5819e+01	9.5767	13.601371	0.000610	6.100961	1.033531	0.000061
 965	9.5918e+01	9.5844	13.672249	0.000712	7.124612	1.206942	0.000071
 966	9.6017e+01	9.5936	13.733758	0.000618	6.182853	1.047404	0.000062
 967	9.6117e+01	9.6059	13.802599	0.000692	6.919882	1.172260	0.000069
 968	9.6216e+01	9.6162	13.867366	0.000651	6.510422	1.102895	0.000065
 969	9.6316e+01	9.6258	13.935800	0.000688	6.878936	1.165323	0.000069
 970	9.6415e+01	9.6359	13.999752	0.000643	6.428530	1.089022	0.000064
 971	9.6515e+01	9.6470	14.063705	0.000643	6.428530	1.089022	0.000064
 972	9.6615e+01	9.6567	14.137434	0.000741	7.411235	1.255497	0.000074
 973	9.6714e+01	9.6663	14.203831	0.000667	6.674206	1.130641	0.000067
 974	9.6814e+01	9.6768	14.273487	0.000700	7.001774	1.186133	0.000070
 975	9.6913e+01	9.6860	14.342735	0.000696	6.960828	1.179196	0.000070
 976	9.7013e+01	9.6957	14.413613	0.000712	7.124612	1.206942	0.000071
 977	9.7112e+01	9.7050	14.487749	0.000745	7.452181	1.262434	0.000075
 978	9.7212e+01	9.7136	14.563107	0.000758	7.575019	1.283243	0.000076
 979	9.7311e+01	9.7268	14.644576	0.000819	8.189210	1.387290	0.000082
 980	9.7410e+01	9.7358	14.723193	0.000790	7.902587	1.338735	0.000079
 981	9.7510e+01	9.7449	14.799366	0.000766	7.656911	1.297116	0.000077
 982	9.7609e+01	9.7570	14.877576	0.000786	7.861641	1.331798	0.000079
 983	9.7709e+01	9.7672	14.961081	0.000839	8.393940	1.421972	0.000084
 984	9.7808e+01	9.7747	15.038883	0.000782	7.820695	1.324862	0.000078
 985	9.7908e+01	9.7845	15.122389	0.000839	8.393940	1.421972	0.000084
 986	9.8007e+01	9.7952	15.204672	0.000827	8.271102	1.401163	0.000083
 987	9.8107e+01	9.8059	15.286955	0.000827	8.271102	1.401163	0.000083
 988	9.8207e+01	9.8145	15.368423	0.000819	8.189210	1.387290	0.000082
 989	9.8306e+01	9.8267	15.450299	0.000823	8.230156	1.394226	0.000082
 990	9.8406e+01	9.8352	15.539100	0.000893	8.926239	1.512146	0.000089
 991	9.8505e+01	9.8429	15.623420	0.000848	8.475832	1.435845	0.000085
 992	9.8605e+01	9.8524	15.705296	0.000823	8.230156	1.394226	0.000082
 993	9.8704e+01	9.8643	15.793689	0.000889	8.885293	1.505209	0.000089
 994	9.8803e+01	9.8752	15.879231	0.000860	8.598670	1.456654	0.000086
 995	9.8903e+01	9.8846	15.968439	0.000897	8.967185	1.519082	0.000090
 996	9.9002e+01	9.8954	16.059276	0.000913	9.130969	1.546828	0.000091
 997	9.9102e+01	9.9037	16.148077	0.000893	8.926239	1.512146	0.000089
 998	9.9201e+01	9.9146	16.241359	0.000938	9.376645	1.588447	0.000094
 999	9.9301e+01	9.9251	16.337084	0.000962	9.622321	1.630065	0.000096
1000	9.9400e+01	9.9338	16.426699	0.000901	9.008131	1.526019	0.000090
1001	9.9500e+01	9.9445	16.516315	0.000901	9.008131	1.526019	0.000090
1002	9.9600e+01	9.9570	16.609596	0.000938	9.376645	1.588447	0.000094
1003	9.9699e+01	9.9646	16.706136	0.000970	9.704214	1.643938	0.000097
1004	9.9799e+01	9.9746	16.798196	0.000925	9.253807	1.567637	0.000093
1005	9.9898e+01	9.9863	16.895958	0.000983	9.827052	1.664748	0.000098
1006	9.9998e+01	9.9951	16.986795	0.000913	9.130969	1.546828	0.000091
1007	1.0010e+02	9.9830	17.042194	-0.000557	-5.568663	-0.943357	0.000056
1008	1.0020e+02	9.9756	17.086594	-0.000446	-4.463119	-0.756073	0.000045
1009	1.0030e+02	9.9658	17.135475	-0.000491	-4.913526	-0.832374	0.000049
1010	1.0040e+02	9.9543	17.187208	-0.000520	-5.200148	-0.880929	0.000052
1011	1.0050e+02	9.9451	17.231201	-0.000442	-4.422173	-0.749136	0.000044
1012	1.0059e+02	9.9342	17.276823	-0.000459	-4.585957	-0.776882	0.000046
1013	1.0069e+02	9.9244	17.320409	-0.000438	-4.381227	-0.742200	0.000044
1014	1.0079e+02	9.9146	17.357884	-0.000377	-3.767036	-0.638153	0.000038
1015	1.0089e+02	9.9038	17.394953	-0.000373	-3.726090	-0.631217	0.000037
1016	1.0099e+02	9.8946	17.432836	-0.000381	-3.807983	-0.645090	0.000038
1017	1.0109e+02	9.8835	17.470718	-0.000381	-3.807983	-0.645090	0.000038
1018	1.0119e+02	9.8732	17.503306	-0.000328	-3.275684	-0.554916	0.000033
1019	1.0129e+02	9.8642	17.546077	-0.000430	-4.299335	-0.728327	0.000043
1020	1.0139e+02	9.8560	17.577035	-0.000311	-3.111900	-0.527170	0.000031
1021	1.0149e+02	9.8444	17.610030	-0.000332	-3.316630	-0.561852	0.000033
1022	1.0159e+02	9.8340	17.642617	-0.000328	-3.275684	-0.554916	0.000033
1023	1.0169e+02	9.8260	17.670316	-0.000278	-2.784331	-0.471678	0.000028
1024	1.0179e+02	9.8151	17.702089	-0.000319	-3.193792	-0.541043	0.000032
1025	1.0189e+02	9.8041	17.731010	-0.000291	-2.907169	-0.492488	0.000029
1026	1.0199e+02	9.7955	17.759932	-0.000291	-2.907169	-0.492488	0.000029
1027	1.0209e+02	9.7837	17.787631	-0.000278	-2.784331	-0.471678	0.000028
1028	1.0219e+02	9.7733	17.814923	-0.000274	-2.743385	-0.464742	0.000027
1029	1.0229e+02	9.7662	17.840585	-0.000258	-2.579601	-0.436996	0.000026
1030	1.0239e+02	9.7535	17.871136	-0.000307	-3.070954	-0.520234	0.000031
1031	1.0248e+02	9.7443	17.897206	-0.000262	-2.620547	-0.443933	0.000026
1032	1.0258e+02	9.7363	17.918388	-0.000213	-2.129195	-0.360695	0.000021
1033	1.0268e+02	9.7248	17.945272	-0.000270	-2.702439	-0.457806	0.000027
1034	1.0278e+02	9.7180	17.966862	-0.000217	-2.170141	-0.367632	0.000022
1035	1.0288e+02	9.7055	17.994154	-0.000274	-2.743385	-0.464742	0.000027
1036	1.0298e+02	9.6963	18.012484	-0.000184	-1.842572	-0.312140	0.000018
1037	1.0308e+02	9.6877	18.036110	-0.000237	-2.374871	-0.402314	0.000024
1038	1.0318e+02	9.6735	18.055255	-0.000192	-1.924464	-0.326013	0.000019
1039	1.0328e+02	9.6665	18.074807	-0.000197	-1.965410	-0.332950	0.000020
1040	1.0338e+02	9.6554	18.103321	-0.000287	-2.866223	-0.485551	0.000029
1041	1.0348e+02	9.6452	18.122874	-0.000197	-1.965410	-0.332950	0.000020
1042	1.0358e+02	9.6353	18.141612	-0.000188	-1.883518	-0.319077	0.000019
1043	1.0368e+02	9.6249	18.162386	-0.000209	-2.088248	-0.353759	0.000021
1044	1.0378e+02	9.6175	18.186827	-0.000246	-2.456763	-0.416187	0.000025
1045	1.0388e+02	9.6086	18.205972	-0.000192	-1.924464	-0.326013	0.000019
1046	1.0398e+02	9.5953	18.222265	-0.000164	-1.637842	-0.277458	0.000016
1047	1.0408e+02	9.5860	18.244262	-0.000221	-2.211087	-0.374568	0.000022
1048	1.0418e+02	9.5776	18.258926	-0.000147	-1.474058	-0.249712	0.000015
1049	1.0428e+02	9.5671	18.276849	-0.000180	-1.801626	-0.305204	0.000018
1050	1.0438e+02	9.5557	18.292736	-0.000160	-1.596896	-0.270521	0.000016
1051	1.0447e+02	9.5477	18.307400	-0.000147	-1.474058	-0.249712	0.000015
1052	1.0457e+02	9.5368	18.323286	-0.000160	-1.596896	-0.270521	0.000016
1053	1.0467e+02	9.5248	18.342431	-0.000192	-1.924464	-0.326013	0.000019
1054	1.0477e+02	9.5145	18.359132	-0.000168	-1.678788	-0.284394	0.000017
1055	1.0487e+02	9.5097	18.376648	-0.000176	-1.760680	-0.298267	0.000018
1056	1.0497e+02	9.4924	18.390498	-0.000139	-1.392166	-0.235839	0.000014
1057	1.0507e+02	9.4866	18.400681	-0.000102	-1.023651	-0.173411	0.000010
1058	1.0517e+02	9.4766	18.421049	-0.000205	-2.047302	-0.346822	0.000020
1059	1.0527e+02	9.4678	18.433269	-0.000123	-1.228381	-0.208093	0.000012
1060	1.0537e+02	9.4537	18.451599	-0.000184	-1.842572	-0.312140	0.000018
1061	1.0547e+02	9.4482	18.460968	-0.000094	-0.941759	-0.159538	0.000009
1062	1.0557e+02	9.4357	18.474003	-0.000131	-1.310274	-0.221966	0.000013
1063	1.0567e+02	9.4269	18.480928	-0.000070	-0.696083	-0.117920	0.000007
1064	1.0577e+02	9.4147	18.492333	-0.000115	-1.146489	-0.194221	0.000011
1065	1.0587e+02	9.4092	18.503332	-0.000111	-1.105543	-0.187284	0.000011
1066	1.0597e+02	9.3989	18.513923	-0.000106	-1.064597	-0.180348	0.000011
1067	1.0607e+02	9.3848	18.518403	-0.000045	-0.450407	-0.076301	0.000005
1068	1.0617e+02	9.3734	18.524514	-0.000061	-0.614191	-0.104047	0.000006
1069	1.0627e+02	9.3652	18.532253	-0.000078	-0.777975	-0.131793	0.000008
1070	1.0637e+02	9.3575	18.537549	-0.000053	-0.532299	-0.090174	0.000005
1071	1.0647e+02	9.3484	18.548139	-0.000106	-1.064597	-0.180348	0.000011
1072	1.0656e+02	9.3372	18.553842	-0.000057	-0.573245	-0.097110	0.000006
1073	1.0666e+02	9.3262	18.556286	-0.000025	-0.245676	-0.041619	0.000002
1074	1.0676e+02	9.3151	18.561989	-0.000057	-0.573245	-0.097110	0.000006
1075	1.0686e+02	9.3056	18.566470	-0.000045	-0.450407	-0.076301	0.000005
1076	1.0696e+02	9.2987	18.570136	-0.000037	-0.368514	-0.062428	0.000004
1077	1.0706e+02	9.2865	18.575024	-0.000049	-0.491353	-0.083237	0.000005
1078	1.0716e+02	9.2760	18.574209	0.000008	0.081892	0.013873	-0.000001
1079	1.0726e+02	9.2652	18.577468	-0.000033	-0.327568	-0.055492	0.000003
1080	1.0736e+02	9.2571	18.578283	-0.000008	-0.081892	-0.013873	0.000001
1081	1.0746e+02	9.2480	18.580319	-0.000020	-0.204730	-0.034682	0.000002
1082	1.0756e+02	9.2377	18.577875	0.000025	0.245676	0.041619	-0.000002
1083	1.0766e+02	9.2294	18.575431	0.000025	0.245676	0.041619	-0.000002
1084	1.0776e+02	9.2169	18.574617	0.000008	0.081892	0.013873	-0.000001
1085	1.0786e+02	9.2072	18.575024	-0.000004	-0.040946	-0.006936	0.000000
1086	1.0796e+02	9.1966	18.570951	0.000041	0.409460	0.069364	-0.000004
1087	1.0806e+02	9.1870	18.572173	-0.000012	-0.122838	-0.020809	0.000001
1088	1.0816e+02	9.1785	18.570951	0.000012	0.122838	0.020809	-0.000001
1089	1.0826e+02	9.1675	18.569321	0.000016	0.163784	0.027746	-0.000002
1090	1.0836e+02	9.1567	18.569321	-0.000000	-0.000000	-0.000000	0.000000
1091	1.0845e+02	9.1479	18.567285	0.000020	0.204730	0.034682	-0.000002
1092	1.0855e+02	9.1392	18.560767	0.000066	0.655137	0.110983	-0.000007
1093	1.0865e+02	9.1261	18.553435	0.000074	0.737029	0.124856	-0.000007
1094	1.0875e+02	9.1174	18.550176	0.000033	0.327568	0.055492	-0.000003
1095	1.0885e+02	9.1068	18.545695	0.000045	0.450407	0.076301	-0.000005
1096	1.0895e+02	9.1001	18.539993	0.000057	0.573245	0.097110	-0.000006
1097	1.0905e+02	9.0885	18.533475	0.000066	0.655137	0.110983	-0.000007
1098	1.0915e+02	9.0804	18.531031	0.000025	0.245676	0.041619	-0.000002
1099	1.0925e+02	9.0704	18.528587	0.000025	0.245676	0.041619	-0.000002
1100	1.0935e+02	9.0587	18.523699	0.000049	0.491353	0.083237	-0.000005
1101	1.0945e+02	9.0508	18.518403	0.000053	0.532299	0.090174	-0.000005
1102	1.0955e+02	9.0389	18.517996	0.000004	0.040946	0.006936	-0.000000
1103	1.0965e+02	9.0294	18.511886	0.000061	0.614191	0.104047	-0.000006
1104	1.0975e+02	9.0204	18.509849	0.000020	0.204730	0.034682	-0.000002
1105	1.0985e+02	9.0088	18.502110	0.000078	0.777975	0.131793	-0.000008
1106	1.0995e+02	9.0009	18.498444	0.000037	0.368514	0.062428	-0.000004
1107	1.1005e+02	8.9893	18.495185	0.000033	0.327568	0.055492	-0.000003
1108	1.1015e+02	8.9771	18.483372	0.000119	1.187435	0.201157	-0.000012
1109	1.1025e+02	8.9697	18.480113	0.000033	0.327568	0.055492	-0.000003
1110	1.1035e+02	8.9600	18.475632	0.000045	0.450407	0.076301	-0.000005
1111	1.1044e+02	8.9469	18.465042	0.000106	1.064597	0.180348	-0.000011
1112	1.1054e+02	8.9397	18.458117	0.000070	0.696083	0.117920	-0.000007
1113	1.1064e+02	8.9282	18.454451	0.000037	0.368514	0.062428	-0.000004
1114	1.1074e+02	8.9197	18.444674	0.000098	0.982705	0.166475	-0.000010
1115	1.1084e+02	8.9094	18.438564	0.000061	0.614191	0.104047	-0.000006
1116	1.1094e+02	8.8995	18.431232	0.000074	0.737029	0.124856	-0.000007
1117	1.1104e+02	8.8898	18.419419	0.000119	1.187435	0.201157	-0.000012
1118	1.1114e+02	8.8788	18.413309	0.000061	0.614191	0.104047	-0.000006
1119	1.1124e+02	8.8702	18.405162	0.000082	0.818921	0.138729	-0.000008
1120	1.1134e+02	8.8578	18.393349	0.000119	1.187435	0.201157	-0.000012
1121	1.1144e+02	8.8511	18.388054	0.000053	0.532299	0.090174	-0.000005
1122	1.1154e+02	8.8388	18.380722	0.000074	0.737029	0.124856	-0.000007
1123	1.1164e+02	8.8293	18.372982	0.000078	0.777975	0.131793	-0.000008
1124	1.1174e+02	8.8184	18.364021	0.000090	0.900813	0.152602	-0.000009
1125	1.1184e+02	8.8116	18.357503	0.000066	0.655137	0.110983	-0.000007
1126	1.1194e+02	8.7986	18.344061	0.000135	1.351220	0.228903	-0.000014
1127	1.1204e+02	8.7905	18.330618	0.000135	1.351220	0.228903	-0.000014
1128	1.1214e+02	8.7805	18.319620	0.000111	1.105543	0.187284	-0.000011
1129	1.1224e+02	8.7705	18.304141	0.000156	1.555950	0.263585	-0.000016
1130	1.1234e+02	8.7637	18.291106	0.000131	1.310274	0.221966	-0.000013
1131	1.1244e+02	8.7515	18.282145	0.000090	0.900813	0.152602	-0.000009
1132	1.1253e+02	8.7408	18.271554	0.000106	1.064597	0.180348	-0.000011
1133	1.1263e+02	8.7337	18.258112	0.000135	1.351220	0.228903	-0.000014
1134	1.1273e+02	8.7218	18.244262	0.000139	1.392166	0.235839	-0.000014
1135	1.1283e+02	8.7122	18.234486	0.000098	0.982705	0.166475	-0.000010
1136	1.1293e+02	8.7012	18.221043	0.000135	1.351220	0.228903	-0.000014
1137	1.1303e+02	8.6899	18.207194	0.000139	1.392166	0.235839	-0.000014
1138	1.1313e+02	8.6809	18.194973	0.000123	1.228381	0.208093	-0.000012
1139	1.1323e+02	8.6685	18.181938	0.000131	1.310274	0.221966	-0.000013
1140	1.1333e+02	8.6627	18.166459	0.000156	1.555950	0.263585	-0.000016
1141	1.1343e+02	8.6523	18.151388	0.000152	1.515004	0.256649	-0.000015
1142	1.1353e+02	8.6437	18.137131	0.000143	1.433112	0.242776	-0.000014
1143	1.1363e+02	8.6310	18.121244	0.000160	1.596896	0.270521	-0.000016
1144	1.1373e+02	8.6219	18.111468	0.000098	0.982705	0.166475	-0.000010
1145	1.1383e+02	8.6121	18.097619	0.000139	1.392166	0.235839	-0.000014
1146	1.1393e+02	8.6023	18.085806	0.000119	1.187435	0.201157	-0.000012
1147	1.1403e+02	8.5913	18.073585	0.000123	1.228381	0.208093	-0.000012
1148	1.1413e+02	8.5831	18.059736	0.000139	1.392166	0.235839	-0.000014
1149	1.1423e+02	8.5711	18.048330	0.000115	1.146489	0.194221	-0.000011
1150	1.1433e+02	8.5622	18.035295	0.000131	1.310274	0.221966	-0.000013
1151	1.1442e+02	8.5551	18.025519	0.000098	0.982705	0.166475	-0.000010
1152	1.1452e+02	8.5413	18.010447	0.000152	1.515004	0.256649	-0.000015
1153	1.1462e+02	8.5310	17.999042	0.000115	1.146489	0.194221	-0.000011
1154	1.1472e+02	8.5223	17.986007	0.000131	1.310274	0.221966	-0.000013
1155	1.1482e+02	8.5125	17.974601	0.000115	1.146489	0.194221	-0.000011
1156	1.1492e+02	8.5014	17.955456	0.000192	1.924464	0.326013	-0.000019
1157	1.1502e+02	8.4916	17.948124	0.000074	0.737029	0.124856	-0.000007
1158	1.1512e+02	8.4835	17.933052	0.000152	1.515004	0.256649	-0.000015
1159	1.1522e+02	8.4708	17.919203	0.000139	1.392166	0.235839	-0.000014
1160	1.1532e+02	8.4621	17.904946	0.000143	1.433112	0.242776	-0.000014
1161	1.1542e+02	8.4534	17.892725	0.000123	1.228381	0.208093	-0.000012
1162	1.1552e+02	8.4417	17.880505	0.000123	1.228381	0.208093	-0.000012
1163	1.1562e+02	8.4338	17.868285	0.000123	1.228381	0.208093	-0.000012
1164	1.1572e+02	8.4231	17.860138	0.000082	0.818921	0.138729	-0.000008
1165	1.1582e+02	8.4119	17.849140	0.000111	1.105543	0.187284	-0.000011
1166	1.1592e+02	8.4074	17.834883	0.000143	1.433112	0.242776	-0.000014
1167	1.1602e+02	8.3936	17.828772	0.000061	0.614191	0.104047	-0.000006
1168	1.1612e+02	8.3839	17.814515	0.000143	1.433112	0.242776	-0.000014
1169	1.1622e+02	8.3741	17.803925	0.000106	1.064597	0.180348	-0.000011
1170	1.1632e+02	8.3643	17.788853	0.000152	1.515004	0.256649	-0.000015
1171	1.1642e+02	8.3550	17.774596	0.000143	1.433112	0.242776	-0.000014
1172	1.1651e+02	8.3427	17.763190	0.000115	1.146489	0.194221	-0.000011
1173	1.1661e+02	8.3350	17.746897	0.000164	1.637842	0.277458	-0.000016
1174	1.1671e+02	8.3226	17.739157	0.000078	0.777975	0.131793	-0.000008
1175	1.1681e+02	8.3131	17.728566	0.000106	1.064597	0.180348	-0.000011
1176	1.1691e+02	8.3030	17.713902	0.000147	1.474058	0.249712	-0.000015
1177	1.1701e+02	8.2928	17.704126	0.000098	0.982705	0.166475	-0.000010
1178	1.1711e+02	8.2841	17.690683	0.000135	1.351220	0.228903	-0.000014
1179	1.1721e+02	8.2731	17.680907	0.000098	0.982705	0.166475	-0.000010
1180	1.1731e+02	8.2639	17.668279	0.000127	1.269328	0.215030	-0.000013
1181	1.1741e+02	8.2563	17.655245	0.000131	1.310274	0.221966	-0.000013
1182	1.1751e+02	8.2449	17.638543	0.000168	1.678788	0.284394	-0.000017
1183	1.1761e+02	8.2342	17.621435	0.000172	1.719734	0.291331	-0.000017
1184	1.1771e+02	8.2227	17.607993	0.000135	1.351220	0.228903	-0.000014
1185	1.1781e+02	8.2127	17.598217	0.000098	0.982705	0.166475	-0.000010
1186	1.1791e+02	8.2037	17.579071	0.000192	1.924464	0.326013	-0.000019
1187	1.1801e+02	8.1934	17.567259	0.000119	1.187435	0.201157	-0.000012
1188	1.1811e+02	8.1853	17.549743	0.000176	1.760680	0.298267	-0.000018
1189	1.1821e+02	8.1744	17.533856	0.000160	1.596896	0.270521	-0.000016
1190	1.1831e+02	8.1622	17.520414	0.000135	1.351220	0.228903	-0.000014
1191	1.1841e+02	8.1537	17.501269	0.000192	1.924464	0.326013	-0.000019
1192	1.1850e+02	8.1443	17.487827	0.000135	1.351220	0.228903	-0.000014
1193	1.1860e+02	8.1351	17.471940	0.000160	1.596896	0.270521	-0.000016
1194	1.1870e+02	8.1229	17.457683	0.000143	1.433112	0.242776	-0.000014
1195	1.1880e+02	8.1152	17.442612	0.000152	1.515004	0.256649	-0.000015
1196	1.1890e+02	8.1048	17.425096	0.000176	1.760680	0.298267	-0.000018
1197	1.1900e+02	8.0957	17.410839	0.000143	1.433112	0.242776	-0.000014
1198	1.1910e+02	8.0846	17.396989	0.000139	1.392166	0.235839	-0.000014
1199	1.1920e+02	8.0762	17.377437	0.000197	1.965410	0.332950	-0.000020
1200	1.1930e+02	8.0654	17.361143	0.000164	1.637842	0.277458	-0.000016
1201	1.1940e+02	8.0560	17.345664	0.000156	1.555950	0.263585	-0.000016
1202	1.1950e+02	8.0447	17.328963	0.000168	1.678788	0.284394	-0.000017
1203	1.1960e+02	8.0356	17.311855	0.000172	1.719734	0.291331	-0.000017
1204	1.1970e+02	8.0246	17.295561	0.000164	1.637842	0.277458	-0.000016
1205	1.1980e+02	8.0152	17.275194	0.000205	2.047302	0.346822	-0.000020
1206	1.1990e+02	8.0051	17.263381	0.000119	1.187435	0.201157	-0.000012
1207	1.2000e+02	7.9950	17.243829	0.000197	1.965410	0.332950	-0.000020
1208	1.2010e+02	7.9842	17.229572	0.000143	1.433112	0.242776	-0.000014
1209	1.2020e+02	7.9761	17.210834	0.000188	1.883518	0.319077	-0.000019
1210	1.2030e+02	7.9675	17.193725	0.000172	1.719734	0.291331	-0.000017
1211	1.2039e+02	7.9541	17.178654	0.000152	1.515004	0.256649	-0.000015
1212	1.2049e+02	7.9453	17.162767	0.000160	1.596896	0.270521	-0.000016
1213	1.2059e+02	7.9319	17.148103	0.000147	1.474058	0.249712	-0.000015
1214	1.2069e+02	7.9253	17.133439	0.000147	1.474058	0.249712	-0.000015
1215	1.2079e+02	7.9156	17.113886	0.000197	1.965410	0.332950	-0.000020
1216	1.2089e+02	7.9048	17.095556	0.000184	1.842572	0.312140	-0.000018
1217	1.2099e+02	7.8971	17.078447	0.000172	1.719734	0.291331	-0.000017
1218	1.2109e+02	7.8857	17.062968	0.000156	1.555950	0.263585	-0.000016
1219	1.2119e+02	7.8778	17.044231	0.000188	1.883518	0.319077	-0.000019
1220	1.2129e+02	7.8676	17.029566	0.000147	1.474058	0.249712	-0.000015
1221	1.2139e+02	7.8550	17.011236	0.000184	1.842572	0.312140	-0.000018
1222	1.2149e+02	7.8445	16.991276	0.000201	2.006356	0.339886	-0.000020
1223	1.2159e+02	7.8394	16.980278	0.000111	1.105543	0.187284	-0.000011
1224	1.2169e+02	7.8249	16.959096	0.000213	2.129195	0.360695	-0.000021
1225	1.2179e+02	7.8143	16.944024	0.000152	1.515004	0.256649	-0.000015
1226	1.2189e+02	7.8039	16.926101	0.000180	1.801626	0.305204	-0.000018
1227	1.2199e+02	7.7956	16.908993	0.000172	1.719734	0.291331	-0.000017
1228	1.2209e+02	7.7883	16.891885	0.000172	1.719734	0.291331	-0.000017
1229	1.2219e+02	7.7736	16.870703	0.000213	2.129195	0.360695	-0.000021
1230	1.2229e+02	7.7662	16.849928	0.000209	2.088248	0.353759	-0.000021
1231	1.2239e+02	7.7576	16.829561	0.000205	2.047302	0.346822	-0.000020
1232	1.2248e+02	7.7460	16.816119	0.000135	1.351220	0.228903	-0.000014
1233	1.2258e+02	7.7356	16.789642	0.000266	2.661493	0.450869	-0.000027
1234	1.2268e+02	7.7287	16.772126	0.000176	1.760680	0.298267	-0.000018
1235	1.2278e+02	7.7161	16.750129	0.000221	2.211087	0.374568	-0.000022
1236	1.2288e+02	7.7068	16.728540	0.000217	2.170141	0.367632	-0.000022
1237	1.2298e+02	7.6948	16.710617	0.000180	1.801626	0.305204	-0.000018
1238	1.2308e+02	7.6839	16.689843	0.000209	2.088248	0.353759	-0.000021
1239	1.2318e+02	7.6789	16.672327	0.000176	1.760680	0.298267	-0.000018
1240	1.2328e+02	7.6690	16.652367	0.000201	2.006356	0.339886	-0.000020
1241	1.2338e+02	7.6571	16.626705	0.000258	2.579601	0.436996	-0.000026
1242	1.2348e+02	7.6475	16.605115	0.000217	2.170141	0.367632	-0.000022
1243	1.2358e+02	7.6362	16.589229	0.000160	1.596896	0.270521	-0.000016
1244	1.2368e+02	7.6290	16.564381	0.000250	2.497709	0.423123	-0.000025
1245	1.2378e+02	7.6178	16.542385	0.000221	2.211087	0.374568	-0.000022
1246	1.2388e+02	7.6086	16.521610	0.000209	2.088248	0.353759	-0.000021
1247	1.2398e+02	7.5964	16.495133	0.000266	2.661493	0.450869	-0.000027
1248	1.2408e+02	7.5889	16.473951	0.000213	2.129195	0.360695	-0.000021
1249	1.2418e+02	7.5771	16.449918	0.000242	2.415817	0.409250	-0.000024
1250	1.2428e+02	7.5674	16.430365	0.000197	1.965410	0.332950	-0.000020
1251	1.2438e+02	7.5578	16.405925	0.000246	2.456763	0.416187	-0.000025
1252	1.2447e+02	7.5457	16.379040	0.000270	2.702439	0.457806	-0.000027
1253	1.2457e+02	7.5384	16.358266	0.000209	2.088248	0.353759	-0.000021
1254	1.2467e+02	7.5269	16.335047	0.000233	2.333925	0.395378	-0.000023
1255	1.2477e+02	7.5176	16.309385	0.000258	2.579601	0.436996	-0.000026
1256	1.2487e+02	7.5073	16.288610	0.000209	2.088248	0.353759	-0.000021
1257	1.2497e+02	7.4944	16.265799	0.000229	2.292979	0.388441	-0.000023
1258	1.2507e+02	7.4882	16.243395	0.000225	2.252033	0.381505	-0.000023
1259	1.2517e+02	7.4771	16.214474	0.000291	2.907169	0.492488	-0.000029
1260	1.2527e+02	7.4691	16.187182	0.000274	2.743385	0.464742	-0.000027
1261	1.2537e+02	7.4571	16.166408	0.000209	2.088248	0.353759	-0.000021
1262	1.2547e+02	7.4493	16.144818	0.000217	2.170141	0.367632	-0.000022
1263	1.2557e+02	7.4363	16.117934	0.000270	2.702439	0.457806	-0.000027
1264	1.2567e+02	7.4268	16.092679	0.000254	2.538655	0.430060	-0.000025
1265	1.2577e+02	7.4178	16.072311	0.000205	2.047302	0.346822	-0.000020
1266	1.2587e+02	7.4064	16.052759	0.000197	1.965410	0.332950	-0.000020
1267	1.2597e+02	7.3989	16.029133	0.000237	2.374871	0.402314	-0.000024
1268	1.2607e+02	7.3869	16.006322	0.000229	2.292979	0.388441	-0.000023
1269	1.2617e+02	7.3798	15.981474	0.000250	2.497709	0.423123	-0.000025
1270	1.2627e+02	7.3699	15.954997	0.000266	2.661493	0.450869	-0.000027
1271	1.2636e+02	7.3586	15.937888	0.000172	1.719734	0.291331	-0.000017
1272	1.2646e+02	7.3486	15.910596	0.000274	2.743385	0.464742	-0.000027
1273	1.2656e+02	7.3392	15.886971	0.000237	2.374871	0.402314	-0.000024
1274	1.2666e+02	7.3261	15.863345	0.000237	2.374871	0.402314	-0.000024
1275	1.2676e+02	7.3189	15.845422	0.000180	1.801626	0.305204	-0.000018
1276	1.2686e+02	7.3112	15.821388	0.000242	2.415817	0.409250	-0.000024
1277	1.2696e+02	7.2968	15.798170	0.000233	2.333925	0.395378	-0.000023
1278	1.2706e+02	7.2894	15.778617	0.000197	1.965410	0.332950	-0.000020
1279	1.2716e+02	7.2825	15.753770	0.000250	2.497709	0.423123	-0.000025
1280	1.2726e+02	7.2694	15.730551	0.000233	2.333925	0.395378	-0.000023
1281	1.2736e+02	7.2576	15.708962	0.000217	2.170141	0.367632	-0.000022
1282	1.2746e+02	7.2486	15.683707	0.000254	2.538655	0.430060	-0.000025
1283	1.2756e+02	7.2385	15.662932	0.000209	2.088248	0.353759	-0.000021
1284	1.2766e+02	7.2311	15.638899	0.000242	2.415817	0.409250	-0.000024
1285	1.2776e+02	7.2210	15.616088	0.000229	2.292979	0.388441	-0.000023
1286	1.2786e+02	7.2088	15.592869	0.000233	2.333925	0.395378	-0.000023
1287	1.2796e+02	7.2007	15.573317	0.000197	1.965410	0.332950	-0.000020
1288	1.2806e+02	7.1893	15.552135	0.000213	2.129195	0.360695	-0.000021
1289	1.2816e+02	7.1778	15.531360	0.000209	2.088248	0.353759	-0.000021
1290	1.2826e+02	7.1706	15.509364	0.000221	2.211087	0.374568	-0.000022
1291	1.2835e+02	7.1590	15.488182	0.000213	2.129195	0.360695	-0.000021
1292	1.2845e+02	7.1513	15.460076	0.000283	2.825277	0.478615	-0.000028
1293	1.2855e+02	7.1395	15.440930	0.000192	1.924464	0.326013	-0.000019
1294	1.2865e+02	7.1328	15.410380	0.000307	3.070954	0.520234	-0.000031
1295	1.2875e+02	7.1188	15.388383	0.000221	2.211087	0.374568	-0.000022
1296	1.2885e+02	7.1092	15.362721	0.000258	2.579601	0.436996	-0.000026
1297	1.2895e+02	7.0989	15.339095	0.000237	2.374871	0.402314	-0.000024
1298	1.2905e+02	7.0869	15.312210	0.000270	2.702439	0.457806	-0.000027
1299	1.2915e+02	7.0811	15.286548	0.000258	2.579601	0.436996	-0.000026
1300	1.2925e+02	7.0695	15.264958	0.000217	2.170141	0.367632	-0.000022
1301	1.2935e+02	7.0596	15.241333	0.000237	2.374871	0.402314	-0.000024
1302	1.2945e+02	7.0499	15.215263	0.000262	2.620547	0.443933	-0.000026
1303	1.2955e+02	7.0412	15.195710	0.000197	1.965410	0.332950	-0.000020
1304	1.2965e+02	7.0286	15.172084	0.000237	2.374871	0.402314	-0.000024
1305	1.2975e+02	7.0168	15.145607	0.000266	2.661493	0.450869	-0.000027
1306	1.2985e+02	7.0123	15.119944	0.000258	2.579601	0.436996	-0.000026
1307	1.2995e+02	7.0026	15.096726	0.000233	2.333925	0.395378	-0.000023
1308	1.3005e+02	6.9899	15.068212	0.000287	2.866223	0.485551	-0.000029
1309	1.3015e+02	6.9802	15.043771	0.000246	2.456763	0.416187	-0.000025
1310	1.3025e+02	6.9707	15.020553	0.000233	2.333925	0.395378	-0.000023
1311	1.3034e+02	6.9595	14.991632	0.000291	2.907169	0.492488	-0.000029
1312	1.3044e+02	6.9508	14.972894	0.000188	1.883518	0.319077	-0.000019
1313	1.3054e+02	6.9392	14.946824	0.000262	2.620547	0.443933	-0.000026
1314	1.3064e+02	6.9299	14.924013	0.000229	2.292979	0.388441	-0.000023
1315	1.3074e+02	6.9212	14.904053	0.000201	2.006356	0.339886	-0.000020
1316	1.3084e+02	6.9097	14.881242	0.000229	2.292979	0.388441	-0.000023
1317	1.3094e+02	6.9006	14.861282	0.000201	2.006356	0.339886	-0.000020
1318	1.3104e+02	6.8903	14.836434	0.000250	2.497709	0.423123	-0.000025
1319	1.3114e+02	6.8810	14.814030	0.000225	2.252033	0.381505	-0.000023
1320	1.3124e+02	6.8714	14.799366	0.000147	1.474058	0.249712	-0.000015
1321	1.3134e+02	6.8592	14.769223	0.000303	3.030008	0.513297	-0.000030
1322	1.3144e+02	6.8514	14.748448	0.000209	2.088248	0.353759	-0.000021
1323	1.3154e+02	6.8401	14.726044	0.000225	2.252033	0.381505	-0.000023
1324	1.3164e+02	6.8311	14.699160	0.000270	2.702439	0.457806	-0.000027
1325	1.3174e+02	6.8249	14.675941	0.000233	2.333925	0.395378	-0.000023
1326	1.3184e+02	6.8128	14.655574	0.000205	2.047302	0.346822	-0.000020
1327	1.3194e+02	6.7985	14.632763	0.000229	2.292979	0.388441	-0.000023
1328	1.3204e+02	6.7931	14.610766	0.000221	2.211087	0.374568	-0.000022
1329	1.3214e+02	6.7794	14.588362	0.000225	2.252033	0.381505	-0.000023
1330	1.3224e+02	6.7706	14.567588	0.000209	2.088248	0.353759	-0.000021
1331	1.3234e+02	6.7624	14.548443	0.000192	1.924464	0.326013	-0.000019
1332	1.3243e+02	6.7509	14.527261	0.000213	2.129195	0.360695	-0.000021
1333	1.3253e+02	6.7425	14.508116	0.000192	1.924464	0.326013	-0.000019
1334	1.3263e+02	6.7317	14.490193	0.000180	1.801626	0.305204	-0.000018
1335	1.3273e+02	6.7205	14.465752	0.000246	2.456763	0.416187	-0.000025
1336	1.3283e+02	6.7104	14.439682	0.000262	2.620547	0.443933	-0.000026
1337	1.3293e+02	6.7025	14.422981	0.000168	1.678788	0.284394	-0.000017
1338	1.3303e+02	6.6896	14.403022	0.000201	2.006356	0.339886	-0.000020
1339	1.3313e+02	6.6814	14.381840	0.000213	2.129195	0.360695	-0.000021
1340	1.3323e+02	6.6723	14.360251	0.000217	2.170141	0.367632	-0.000022
1341	1.3333e+02	6.6601	14.339476	0.000209	2.088248	0.353759	-0.000021
1342	1.3343e+02	6.6528	14.317072	0.000225	2.252033	0.381505	-0.000023
1343	1.3353e+02	6.6430	14.296298	0.000209	2.088248	0.353759	-0.000021
1344	1.3363e+02	6.6319	14.275931	0.000205	2.047302	0.346822	-0.000020
1345	1.3373e+02	6.6225	14.255971	0.000201	2.006356	0.339886	-0.000020
1346	1.3383e+02	6.6120	14.236419	0.000197	1.965410	0.332950	-0.000020
1347	1.3393e+02	6.6024	14.212793	0.000237	2.374871	0.402314	-0.000024
1348	1.3403e+02	6.5903	14.191203	0.000217	2.170141	0.367632	-0.000022
1349	1.3413e+02	6.5820	14.172466	0.000188	1.883518	0.319077	-0.000019
1350	1.3423e+02	6.5725	14.151284	0.000213	2.129195	0.360695	-0.000021
1351	1.3432e+02	6.5611	14.123992	0.000274	2.743385	0.464742	-0.000027
1352	1.3442e+02	6.5510	14.096293	0.000278	2.784331	0.471678	-0.000028
1353	1.3452e+02	6.5423	14.074704	0.000217	2.170141	0.367632	-0.000022
1354	1.3462e+02	6.5327	14.053114	0.000217	2.170141	0.367632	-0.000022
1355	1.3472e+02	6.5241	14.032747	0.000205	2.047302	0.346822	-0.000020
1356	1.3482e+02	6.5137	14.007085	0.000258	2.579601	0.436996	-0.000026
1357	1.3492e+02	6.5034	13.985495	0.000217	2.170141	0.367632	-0.000022
1358	1.3502e+02	6.4932	13.961462	0.000242	2.415817	0.409250	-0.000024
1359	1.3512e+02	6.4829	13.937022	0.000246	2.456763	0.416187	-0.000025
1360	1.3522e+02	6.4724	13.913396	0.000237	2.374871	0.402314	-0.000024
1361	1.3532e+02	6.4642	13.889770	0.000237	2.374871	0.402314	-0.000024
1362	1.3542e+02	6.4532	13.865737	0.000242	2.415817	0.409250	-0.000024
1363	1.3552e+02	6.4454	13.840074	0.000258	2.579601	0.436996	-0.000026
1364	1.3562e+02	6.4326	13.817263	0.000229	2.292979	0.388441	-0.000023
1365	1.3572e+02	6.4222	13.792008	0.000254	2.538655	0.430060	-0.000025
1366	1.3582e+02	6.4138	13.770419	0.000217	2.170141	0.367632	-0.000022
1367	1.3592e+02	6.4003	13.742312	0.000283	2.825277	0.478615	-0.000028
1368	1.3602e+02	6.3935	13.723574	0.000188	1.883518	0.319077	-0.000019
1369	1.3612e+02	6.3833	13.697504	0.000262	2.620547	0.443933	-0.000026
1370	1.3622e+02	6.3728	13.672656	0.000250	2.497709	0.423123	-0.000025
1371	1.3631e+02	6.3675	13.644957	0.000278	2.784331	0.471678	-0.000028
1372	1.3641e+02	6.3539	13.624997	0.000201	2.006356	0.339886	-0.000020
1373	1.3651e+02	6.3445	13.600149	0.000250	2.497709	0.423123	-0.000025
1374	1.3661e+02	6.3337	13.576931	0.000233	2.333925	0.395378	-0.000023
1375	1.3671e+02	6.3224	13.556156	0.000209	2.088248	0.353759	-0.000021
1376	1.3681e+02	6.3142	13.529679	0.000266	2.661493	0.450869	-0.000027
1377	1.3691e+02	6.3030	13.506053	0.000237	2.374871	0.402314	-0.000024
1378	1.3701e+02	6.2941	13.482020	0.000242	2.415817	0.409250	-0.000024
1379	1.3711e+02	6.2844	13.459616	0.000225	2.252033	0.381505	-0.000023
1380	1.3721e+02	6.2739	13.435583	0.000242	2.415817	0.409250	-0.000024
1381	1.3731e+02	6.2646	13.417660	0.000180	1.801626	0.305204	-0.000018
1382	1.3741e+02	6.2566	13.394441	0.000233	2.333925	0.395378	-0.000023
1383	1.3751e+02	6.2441	13.371223	0.000233	2.333925	0.395378	-0.000023
1384	1.3761e+02	6.2347	13.349226	0.000221	2.211087	0.374568	-0.000022
1385	1.3771e+02	6.2248	13.325601	0.000237	2.374871	0.402314	-0.000024
1386	1.3781e+02	6.2139	13.300753	0.000250	2.497709	0.423123	-0.000025
1387	1.3791e+02	6.2050	13.272239	0.000287	2.866223	0.485551	-0.000029
1388	1.3801e+02	6.1952	13.254316	0.000180	1.801626	0.305204	-0.000018
1389	1.3811e+02	6.1834	13.229060	0.000254	2.538655	0.430060	-0.000025
1390	1.3821e+02	6.1739	13.207879	0.000213	2.129195	0.360695	-0.000021
1391	1.3831e+02	6.1640	13.183031	0.000250	2.497709	0.423123	-0.000025
1392	1.3840e+02	6.1526	13.160219	0.000229	2.292979	0.388441	-0.000023
1393	1.3850e+02	6.1445	13.140260	0.000201	2.006356	0.339886	-0.000020
1394	1.3860e+02	6.1338	13.112153	0.000283	2.825277	0.478615	-0.000028
1395	1.3870e+02	6.1254	13.090157	0.000221	2.211087	0.374568	-0.000022
1396	1.3880e+02	6.1147	13.066123	0.000242	2.415817	0.409250	-0.000024
1397	1.3890e+02	6.1079	13.042497	0.000237	2.374871	0.402314	-0.000024
1398	1.3900e+02	6.0943	13.014798	0.000278	2.784331	0.471678	-0.000028
1399	1.3910e+02	6.0835	12.989136	0.000258	2.579601	0.436996	-0.000026
1400	1.3920e+02	6.0746	12.962251	0.000270	2.702439	0.457806	-0.000027
1401	1.3930e+02	6.0647	12.936996	0.000254	2.538655	0.430060	-0.000025
1402	1.3940e+02	6.0566	12.911333	0.000258	2.579601	0.436996	-0.000026
1403	1.3950e+02	6.0432	12.883227	0.000283	2.825277	0.478615	-0.000028
1404	1.3960e+02	6.0349	12.857971	0.000254	2.538655	0.430060	-0.000025
1405	1.3970e+02	6.0254	12.833531	0.000246	2.456763	0.416187	-0.000025
1406	1.3980e+02	6.0162	12.808276	0.000254	2.538655	0.430060	-0.000025
1407	1.3990e+02	6.0070	12.779354	0.000291	2.907169	0.492488	-0.000029
1408	1.4000e+02	5.9972	12.754506	0.000250	2.497709	0.423123	-0.000025
1409	1.4010e+02	5.9860	12.730880	0.000237	2.374871	0.402314	-0.000024
1410	1.4020e+02	5.9760	12.701144	0.000299	2.989062	0.506361	-0.000030
1411	1.4029e+02	5.9648	12.674667	0.000266	2.661493	0.450869	-0.000027
1412	1.4039e+02	5.9533	12.649412	0.000254	2.538655	0.430060	-0.000025
1413	1.4049e+02	5.9483	12.618861	0.000307	3.070954	0.520234	-0.000031
1414	1.4059e+02	5.9351	12.593199	0.000258	2.579601	0.436996	-0.000026
1415	1.4069e+02	5.9258	12.565907	0.000274	2.743385	0.464742	-0.000027
1416	1.4079e+02	5.9151	12.532505	0.000336	3.357576	0.568789	-0.000034
1417	1.4089e+02	5.9044	12.507249	0.000254	2.538655	0.430060	-0.000025
1418	1.4099e+02	5.8936	12.480365	0.000270	2.702439	0.457806	-0.000027
1419	1.4109e+02	5.8851	12.450221	0.000303	3.030008	0.513297	-0.000030
1420	1.4119e+02	5.8768	12.419263	0.000311	3.111900	0.527170	-0.000031
1421	1.4129e+02	5.8693	12.388713	0.000307	3.070954	0.520234	-0.000031
1422	1.4139e+02	5.8537	12.360199	0.000287	2.866223	0.485551	-0.000029
1423	1.4149e+02	5.8477	12.335758	0.000246	2.456763	0.416187	-0.000025
1424	1.4159e+02	5.8378	12.304393	0.000315	3.152846	0.534107	-0.000032
1425	1.4169e+02	5.8250	12.273435	0.000311	3.111900	0.527170	-0.000031
1426	1.4179e+02	5.8162	12.248994	0.000246	2.456763	0.416187	-0.000025
1427	1.4189e+02	5.8060	12.214777	0.000344	3.439468	0.582662	-0.000034
1428	1.4199e+02	5.7960	12.187485	0.000274	2.743385	0.464742	-0.000027
1429	1.4209e+02	5.7861	12.154898	0.000328	3.275684	0.554916	-0.000033
1430	1.4219e+02	5.7777	12.127606	0.000274	2.743385	0.464742	-0.000027
1431	1.4228e+02	5.7677	12.100722	0.000270	2.702439	0.457806	-0.000027
1432	1.4238e+02	5.7572	12.069763	0.000311	3.111900	0.527170	-0.000031
1433	1.4248e+02	5.7447	12.042879	0.000270	2.702439	0.457806	-0.000027
1434	1.4258e+02	5.7388	12.015994	0.000270	2.702439	0.457806	-0.000027
1435	1.4268e+02	5.7262	11.988295	0.000278	2.784331	0.471678	-0.000028
1436	1.4278e+02	5.7171	11.960188	0.000283	2.825277	0.478615	-0.000028
1437	1.4288e+02	5.7070	11.932489	0.000278	2.784331	0.471678	-0.000028
1438	1.4298e+02	5.6966	11.904790	0.000278	2.784331	0.471678	-0.000028
1439	1.4308e+02	5.6866	11.874239	0.000307	3.070954	0.520234	-0.000031
1440	1.4318e+02	5.6783	11.851021	0.000233	2.333925	0.395378	-0.000023
1441	1.4328e+02	5.6657	11.822914	0.000283	2.825277	0.478615	-0.000028
1442	1.4338e+02	5.6583	11.791141	0.000319	3.193792	0.541043	-0.000032
1443	1.4348e+02	5.6506	11.767515	0.000237	2.374871	0.402314	-0.000024
1444	1.4358e+02	5.6379	11.736965	0.000307	3.070954	0.520234	-0.000031
1445	1.4368e+02	5.6277	11.712931	0.000242	2.415817	0.409250	-0.000024
1446	1.4378e+02	5.6187	11.682381	0.000307	3.070954	0.520234	-0.000031
1447	1.4388e+02	5.6069	11.653867	0.000287	2.866223	0.485551	-0.000029
1448	1.4398e+02	5.5993	11.626982	0.000270	2.702439	0.457806	-0.000027
1449	1.4408e+02	5.5874	11.593987	0.000332	3.316630	0.561852	-0.000033
1450	1.4418e+02	5.5762	11.572398	0.000217	2.170141	0.367632	-0.000022
1451	1.4428e+02	5.5685	11.542662	0.000299	2.989062	0.506361	-0.000030
1452	1.4437e+02	5.5572	11.518222	0.000246	2.456763	0.416187	-0.000025
1453	1.4447e+02	5.5491	11.489300	0.000291	2.907169	0.492488	-0.000029
1454	1.4457e+02	5.5407	11.466489	0.000229	2.292979	0.388441	-0.000023
1455	1.4467e+02	5.5291	11.437160	0.000295	2.948116	0.499424	-0.000029
1456	1.4477e+02	5.5160	11.411091	0.000262	2.620547	0.443933	-0.000026
1457	1.4487e+02	5.5112	11.383799	0.000274	2.743385	0.464742	-0.000027
1458	1.4497e+02	5.4946	11.357729	0.000262	2.620547	0.443933	-0.000026
1459	1.4507e+02	5.4883	11.328807	0.000291	2.907169	0.492488	-0.000029
1460	1.4517e+02	5.4769	11.301108	0.000278	2.784331	0.471678	-0.000028
1461	1.4527e+02	5.4694	11.271372	0.000299	2.989062	0.506361	-0.000030
1462	1.4537e+02	5.4594	11.243673	0.000278	2.784331	0.471678	-0.000028
1463	1.4547e+02	5.4473	11.213937	0.000299	2.989062	0.506361	-0.000030
1464	1.4557e+02	5.4385	11.183793	0.000303	3.030008	0.513297	-0.000030
1465	1.4567e+02	5.4298	11.153650	0.000303	3.030008	0.513297	-0.000030
1466	1.4577e+02	5.4189	11.125136	0.000287	2.866223	0.485551	-0.000029
1467	1.4587e+02	5.4063	11.094178	0.000311	3.111900	0.527170	-0.000031
1468	1.4597e+02	5.3991	11.069330	0.000250	2.497709	0.423123	-0.000025
1469	1.4607e+02	5.3893	11.037965	0.000315	3.152846	0.534107	-0.000032
1470	1.4617e+02	5.3774	11.011080	0.000270	2.702439	0.457806	-0.000027
1471	1.4626e+02	5.3674	10.987047	0.000242	2.415817	0.409250	-0.000024
1472	1.4636e+02	5.3605	10.955682	0.000315	3.152846	0.534107	-0.000032
1473	1.4646e+02	5.3501	10.925946	0.000299	2.989062	0.506361	-0.000030
1474	1.4656e+02	5.3393	10.897024	0.000291	2.907169	0.492488	-0.000029
1475	1.4666e+02	5.3310	10.868510	0.000287	2.866223	0.485551	-0.000029
1476	1.4676e+02	5.3184	10.837552	0.000311	3.111900	0.527170	-0.000031
1477	1.4686e+02	5.3091	10.810668	0.000270	2.702439	0.457806	-0.000027
1478	1.4696e+02	5.3019	10.780524	0.000303	3.030008	0.513297	-0.000030
1479	1.4706e+02	5.2894	10.749566	0.000311	3.111900	0.527170	-0.000031
1480	1.4716e+02	5.2746	10.721052	0.000287	2.866223	0.485551	-0.000029
1481	1.4726e+02	5.2692	10.694168	0.000270	2.702439	0.457806	-0.000027
1482	1.4736e+02	5.2589	10.669727	0.000246	2.456763	0.416187	-0.000025
1483	1.4746e+02	5.2490	10.642028	0.000278	2.784331	0.471678	-0.000028
1484	1.4756e+02	5.2394	10.615143	0.000270	2.702439	0.457806	-0.000027
1485	1.4766e+02	5.2287	10.593961	0.000213	2.129195	0.360695	-0.000021
1486	1.4776e+02	5.2177	10.565040	0.000291	2.907169	0.492488	-0.000029
1487	1.4786e+02	5.2081	10.541822	0.000233	2.333925	0.395378	-0.000023
1488	1.4796e+02	5.2026	10.513715	0.000283	2.825277	0.478615	-0.000028
1489	1.4806e+02	5.1875	10.486016	0.000278	2.784331	0.471678	-0.000028
1490	1.4816e+02	5.1780	10.457094	0.000291	2.907169	0.492488	-0.000029
1491	1.4825e+02	5.1708	10.429395	0.000278	2.784331	0.471678	-0.000028
1492	1.4835e+02	5.1568	10.405769	0.000237	2.374871	0.402314	-0.000024
1493	1.4845e+02	5.1475	10.380514	0.000254	2.538655	0.430060	-0.000025
1494	1.4855e+02	5.1378	10.348741	0.000319	3.193792	0.541043	-0.000032
1495	1.4865e+02	5.1302	10.329189	0.000197	1.965410	0.332950	-0.000020
1496	1.4875e+02	5.1204	10.299045	0.000303	3.030008	0.513297	-0.000030
1497	1.4885e+02	5.1091	10.275012	0.000242	2.415817	0.409250	-0.000024
1498	1.4895e+02	5.0993	10.251794	0.000233	2.333925	0.395378	-0.000023
1499	1.4905e+02	5.0928	10.230612	0.000213	2.129195	0.360695	-0.000021
1500	1.4915e+02	5.0797	10.203320	0.000274	2.743385	0.464742	-0.000027
1501	1.4925e+02	5.0697	10.178065	0.000254	2.538655	0.430060	-0.000025
1502	1.4935e+02	5.0610	10.155661	0.000225	2.252033	0.381505	-0.000023
1503	1.4945e+02	5.0478	10.129591	0.000262	2.620547	0.443933	-0.000026
1504	1.4955e+02	5.0399	10.106372	0.000233	2.333925	0.395378	-0.000023
1505	1.4965e+02	5.0307	10.083154	0.000233	2.333925	0.395378	-0.000023
1506	1.4975e+02	5.0196	10.056677	0.000266	2.661493	0.450869	-0.000027
1507	1.4985e+02	5.0112	10.030199	0.000266	2.661493	0.450869	-0.000027
1508	1.4995e+02	5.0004	10.009018	0.000213	2.129195	0.360695	-0.000021
1509	1.5005e+02	4.9914	9.984577	0.000246	2.456763	0.416187	-0.000025
1510	1.5015e+02	4.9789	9.960136	0.000246	2.456763	0.416187	-0.000025
1511	1.5025e+02	4.9696	9.936918	0.000233	2.333925	0.395378	-0.000023
1512	1.5034e+02	4.9609	9.913292	0.000237	2.374871	0.402314	-0.000024
1513	1.5044e+02	4.9490	9.886000	0.000274	2.743385	0.464742	-0.000027
1514	1.5054e+02	4.9403	9.860337	0.000258	2.579601	0.436996	-0.000026
1515	1.5064e+02	4.9311	9.833860	0.000266	2.661493	0.450869	-0.000027
1516	1.5074e+02	4.9186	9.813900	0.000201	2.006356	0.339886	-0.000020
1517	1.5084e+02	4.9088	9.784979	0.000291	2.907169	0.492488	-0.000029
1518	1.5094e+02	4.9003	9.758909	0.000262	2.620547	0.443933	-0.000026
1519	1.5104e+02	4.8913	9.734876	0.000242	2.415817	0.409250	-0.000024
1520	1.5114e+02	4.8811	9.705140	0.000299	2.989062	0.506361	-0.000030
1521	1.5124e+02	4.8724	9.679477	0.000258	2.579601	0.436996	-0.000026
1522	1.5134e+02	4.8632	9.648927	0.000307	3.070954	0.520234	-0.000031
1523	1.5144e+02	4.8503	9.626930	0.000221	2.211087	0.374568	-0.000022
1524	1.5154e+02	4.8430	9.598824	0.000283	2.825277	0.478615	-0.000028
1525	1.5164e+02	4.8331	9.569088	0.000299	2.989062	0.506361	-0.000030
1526	1.5174e+02	4.8210	9.541388	0.000278	2.784331	0.471678	-0.000028
1527	1.5184e+02	4.8119	9.515726	0.000258	2.579601	0.436996	-0.000026
1528	1.5194e+02	4.7996	9.487619	0.000283	2.825277	0.478615	-0.000028
1529	1.5204e+02	4.7899	9.461956	0.000258	2.579601	0.436996	-0.000026
1530	1.5214e+02	4.7820	9.437516	0.000246	2.456763	0.416187	-0.000025
1531	1.5224e+02	4.7709	9.408595	0.000291	2.907169	0.492488	-0.000029
1532	1.5233e+02	4.7616	9.379266	0.000295	2.948116	0.499424	-0.000029
1533	1.5243e+02	4.7507	9.356455	0.000229	2.292979	0.388441	-0.000023
1534	1.5253e+02	4.7411	9.326719	0.000299	2.989062	0.506361	-0.000030
1535	1.5263e+02	4.7297	9.296168	0.000307	3.070954	0.520234	-0.000031
1536	1.5273e+02	4.7239	9.271727	0.000246	2.456763	0.416187	-0.000025
1537	1.5283e+02	4.7121	9.246065	0.000258	2.579601	0.436996	-0.000026
1538	1.5293e+02	4.7029	9.220402	0.000258	2.579601	0.436996	-0.000026
1539	1.5303e+02	4.6947	9.191074	0.000295	2.948116	0.499424	-0.000029
1540	1.5313e+02	4.6821	9.160523	0.000307	3.070954	0.520234	-0.000031
1541	1.5323e+02	4.6705	9.134453	0.000262	2.620547	0.443933	-0.000026
1542	1.5333e+02	4.6611	9.104310	0.000303	3.030008	0.513297	-0.000030
1543	1.5343e+02	4.6506	9.080684	0.000237	2.374871	0.402314	-0.000024
1544	1.5353e+02	4.6439	9.051763	0.000291	2.907169	0.492488	-0.000029
1545	1.5363e+02	4.6296	9.021619	0.000303	3.030008	0.513297	-0.000030
1546	1.5373e+02	4.6223	9.002067	0.000197	1.965410	0.332950	-0.000020
1547	1.5383e+02	4.6111	8.975997	0.000262	2.620547	0.443933	-0.000026
1548	1.5393e+02	4.6059	8.945853	0.000303	3.030008	0.513297	-0.000030
1549	1.5403e+02	4.5921	8.923450	0.000225	2.252033	0.381505	-0.000023
1550	1.5413e+02	4.5815	8.897380	0.000262	2.620547	0.443933	-0.000026
1551	1.5422e+02	4.5739	8.871310	0.000262	2.620547	0.443933	-0.000026
1552	1.5432e+02	4.5623	8.844018	0.000274	2.743385	0.464742	-0.000027
1553	1.5442e+02	4.5532	8.813467	0.000307	3.070954	0.520234	-0.000031
1554	1.5452e+02	4.5408	8.786990	0.000266	2.661493	0.450869	-0.000027
1555	1.5462e+02	4.5361	8.755624	0.000315	3.152846	0.534107	-0.000032
1556	1.5472e+02	4.5213	8.731591	0.000242	2.415817	0.409250	-0.000024
1557	1.5482e+02	4.5139	8.703892	0.000278	2.784331	0.471678	-0.000028
1558	1.5492e+02	4.5049	8.681081	0.000229	2.292979	0.388441	-0.000023
1559	1.5502e+02	4.4941	8.652567	0.000287	2.866223	0.485551	-0.000029
1560	1.5512e+02	4.4819	8.628126	0.000246	2.456763	0.416187	-0.000025
1561	1.5522e+02	4.4712	8.604908	0.000233	2.333925	0.395378	-0.000023
1562	1.5532e+02	4.4648	8.578023	0.000270	2.702439	0.457806	-0.000027
1563	1.5542e+02	4.4536	8.550324	0.000278	2.784331	0.471678	-0.000028
1564	1.5552e+02	4.4438	8.522625	0.000278	2.784331	0.471678	-0.000028
1565	1.5562e+02	4.4335	8.492074	0.000307	3.070954	0.520234	-0.000031
1566	1.5572e+02	4.4262	8.461930	0.000303	3.030008	0.513297	-0.000030
1567	1.5582e+02	4.4118	8.433824	0.000283	2.825277	0.478615	-0.000028
1568	1.5592e+02	4.4046	8.403681	0.000303	3.030008	0.513297	-0.000030
1569	1.5602e+02	4.3936	8.374352	0.000295	2.948116	0.499424	-0.000029
1570	1.5612e+02	4.3854	8.345023	0.000295	2.948116	0.499424	-0.000029
1571	1.5622e+02	4.3736	8.313250	0.000319	3.193792	0.541043	-0.000032
1572	1.5631e+02	4.3645	8.286366	0.000270	2.702439	0.457806	-0.000027
1573	1.5641e+02	4.3538	8.259074	0.000274	2.743385	0.464742	-0.000027
1574	1.5651e+02	4.3453	8.230967	0.000283	2.825277	0.478615	-0.000028
1575	1.5661e+02	4.3328	8.200824	0.000303	3.030008	0.513297	-0.000030
1576	1.5671e+02	4.3249	8.171903	0.000291	2.907169	0.492488	-0.000029
1577	1.5681e+02	4.3131	8.143796	0.000283	2.825277	0.478615	-0.000028
1578	1.5691e+02	4.3041	8.113653	0.000303	3.030008	0.513297	-0.000030
1579	1.5701e+02	4.2944	8.080251	0.000336	3.357576	0.568789	-0.000034
1580	1.5711e+02	4.2852	8.050107	0.000303	3.030008	0.513297	-0.000030
1581	1.5721e+02	4.2727	8.020779	0.000295	2.948116	0.499424	-0.000029
1582	1.5731e+02	4.2653	7.986154	0.000348	3.480414	0.589598	-0.000035
1583	1.5741e+02	4.2548	7.950716	0.000356	3.562306	0.603471	-0.000036
1584	1.5751e+02	4.2477	7.920165	0.000307	3.070954	0.520234	-0.000031
1585	1.5761e+02	4.2329	7.893280	0.000270	2.702439	0.457806	-0.000027
1586	1.5771e+02	4.2279	7.860286	0.000332	3.316630	0.561852	-0.000033
1587	1.5781e+02	4.2147	7.825254	0.000352	3.521360	0.596535	-0.000035
1588	1.5791e+02	4.2051	7.795925	0.000295	2.948116	0.499424	-0.000029
1589	1.5801e+02	4.1949	7.762116	0.000340	3.398522	0.575725	-0.000034
1590	1.5811e+02	4.1857	7.733195	0.000291	2.907169	0.492488	-0.000029
1591	1.5821e+02	4.1766	7.698978	0.000344	3.439468	0.582662	-0.000034
1592	1.5830e+02	4.1659	7.667613	0.000315	3.152846	0.534107	-0.000032
1593	1.5840e+02	4.1546	7.634618	0.000332	3.316630	0.561852	-0.000033
1594	1.5850e+02	4.1439	7.604882	0.000299	2.989062	0.506361	-0.000030
1595	1.5860e+02	4.1349	7.572294	0.000328	3.275684	0.554916	-0.000033
1596	1.5870e+02	4.1225	7.540114	0.000323	3.234738	0.547979	-0.000032
1597	1.5880e+02	4.1119	7.505490	0.000348	3.480414	0.589598	-0.000035
1598	1.5890e+02	4.1053	7.473717	0.000319	3.193792	0.541043	-0.000032
1599	1.5900e+02	4.0951	7.441130	0.000328	3.275684	0.554916	-0.000033
1600	1.5910e+02	4.0820	7.411394	0.000299	2.989062	0.506361	-0.000030
1601	1.5920e+02	4.0765	7.377585	0.000340	3.398522	0.575725	-0.000034
1602	1.5930e+02	4.0653	7.347034	0.000307	3.070954	0.520234	-0.000031
1603	1.5940e+02	4.0588	7.317705	0.000295	2.948116	0.499424	-0.000029
1604	1.5950e+02	4.0460	7.286340	0.000315	3.152846	0.534107	-0.000032
1605	1.5960e+02	4.0348	7.253752	0.000328	3.275684	0.554916	-0.000033
1606	1.5970e+02	4.0237	7.225239	0.000287	2.866223	0.485551	-0.000029
1607	1.5980e+02	4.0144	7.194280	0.000311	3.111900	0.527170	-0.000031
1608	1.5990e+02	4.0044	7.162915	0.000315	3.152846	0.534107	-0.000032
1609	1.6000e+02	3.9960	7.133179	0.000299	2.989062	0.506361	-0.000030
1610	1.6010e+02	3.9841	7.103036	0.000303	3.030008	0.513297	-0.000030
1611	1.6019e+02	3.9765	7.071263	0.000319	3.193792	0.541043	-0.000032
1612	1.6029e+02	3.9643	7.041527	0.000299	2.989062	0.506361	-0.000030
1613	1.6039e+02	3.9557	7.009347	0.000323	3.234738	0.547979	-0.000032
1614	1.6049e+02	3.9452	6.976760	0.000328	3.275684	0.554916	-0.000033
1615	1.6059e+02	3.9357	6.951097	0.000258	2.579601	0.436996	-0.000026
1616	1.6069e+02	3.9254	6.920954	0.000303	3.030008	0.513297	-0.000030
1617	1.6079e+02	3.9135	6.888366	0.000328	3.275684	0.554916	-0.000033
1618	1.6089e+02	3.9041	6.857001	0.000315	3.152846	0.534107	-0.000032
1619	1.6099e+02	3.8958	6.827672	0.000295	2.948116	0.499424	-0.000029
1620	1.6109e+02	3.8888	6.798344	0.000295	2.948116	0.499424	-0.000029
1621	1.6119e+02	3.8779	6.768200	0.000303	3.030008	0.513297	-0.000030
1622	1.6129e+02	3.8657	6.737649	0.000307	3.070954	0.520234	-0.000031
1623	1.6139e+02	3.8537	6.707506	0.000303	3.030008	0.513297	-0.000030
1624	1.6149e+02	3.8464	6.678177	0.000295	2.948116	0.499424	-0.000029
1625	1.6159e+02	3.8341	6.648034	0.000303	3.030008	0.513297	-0.000030
1626	1.6169e+02	3.8299	6.615447	0.000328	3.275684	0.554916	-0.000033
1627	1.6179e+02	3.8158	6.586118	0.000295	2.948116	0.499424	-0.000029
1628	1.6189e+02	3.8051	6.551494	0.000348	3.480414	0.589598	-0.000035
1629	1.6199e+02	3.7972	6.522980	0.000287	2.866223	0.485551	-0.000029
1630	1.6209e+02	3.7867	6.486726	0.000364	3.644198	0.617344	-0.000036
1631	1.6219e+02	3.7769	6.457805	0.000291	2.907169	0.492488	-0.000029
1632	1.6228e+02	3.7665	6.425625	0.000323	3.234738	0.547979	-0.000032
1633	1.6238e+02	3.7585	6.392630	0.000332	3.316630	0.561852	-0.000033
1634	1.6248e+02	3.7458	6.362080	0.000307	3.070954	0.520234	-0.000031
1635	1.6258e+02	3.7376	6.332751	0.000295	2.948116	0.499424	-0.000029
1636	1.6268e+02	3.7256	6.299349	0.000336	3.357576	0.568789	-0.000034
1637	1.6278e+02	3.7171	6.269206	0.000303	3.030008	0.513297	-0.000030
1638	1.6288e+02	3.7067	6.236211	0.000332	3.316630	0.561852	-0.000033
1639	1.6298e+02	3.6947	6.207697	0.000287	2.866223	0.485551	-0.000029
1640	1.6308e+02	3.6861	6.173887	0.000340	3.398522	0.575725	-0.000034
1641	1.6318e+02	3.6774	6.140893	0.000332	3.316630	0.561852	-0.000033
1642	1.6328e+02	3.6672	6.107083	0.000340	3.398522	0.575725	-0.000034
1643	1.6338e+02	3.6573	6.076125	0.000311	3.111900	0.527170	-0.000031
1644	1.6348e+02	3.6463	6.046389	0.000299	2.989062	0.506361	-0.000030
1645	1.6358e+02	3.6382	6.010543	0.000360	3.603252	0.610407	-0.000036
1646	1.6368e+02	3.6270	5.980807	0.000299	2.989062	0.506361	-0.000030
1647	1.6378e+02	3.6175	5.949442	0.000315	3.152846	0.534107	-0.000032
1648	1.6388e+02	3.6089	5.918076	0.000315	3.152846	0.534107	-0.000032
1649	1.6398e+02	3.5979	5.889970	0.000283	2.825277	0.478615	-0.000028
1650	1.6408e+02	3.5875	5.858197	0.000319	3.193792	0.541043	-0.000032
1651	1.6418e+02	3.5803	5.831312	0.000270	2.702439	0.457806	-0.000027
1652	1.6427e+02	3.5654	5.799132	0.000323	3.234738	0.547979	-0.000032
1653	1.6437e+02	3.5612	5.771840	0.000274	2.743385	0.464742	-0.000027
1654	1.6447e+02	3.5458	5.741697	0.000303	3.030008	0.513297	-0.000030
1655	1.6457e+02	3.5357	5.711961	0.000299	2.989062	0.506361	-0.000030
1656	1.6467e+02	3.5265	5.682632	0.000295	2.948116	0.499424	-0.000029
1657	1.6477e+02	3.5171	5.652082	0.000307	3.070954	0.520234	-0.000031
1658	1.6487e+02	3.5065	5.623975	0.000283	2.825277	0.478615	-0.000028
1659	1.6497e+02	3.4956	5.590573	0.000336	3.357576	0.568789	-0.000034
1660	1.6507e+02	3.4878	5.562466	0.000283	2.825277	0.478615	-0.000028
1661	1.6517e+02	3.4780	5.530286	0.000323	3.234738	0.547979	-0.000032
1662	1.6527e+02	3.4708	5.501772	0.000287	2.866223	0.485551	-0.000029
1663	1.6537e+02	3.4611	5.471629	0.000303	3.030008	0.513297	-0.000030
1664	1.6547e+02	3.4498	5.445966	0.000258	2.579601	0.436996	-0.000026
1665	1.6557e+02	3.4380	5.419082	0.000270	2.702439	0.457806	-0.000027
1666	1.6567e+02	3.4274	5.389753	0.000295	2.948116	0.499424	-0.000029
1667	1.6577e+02	3.4176	5.366942	0.000229	2.292979	0.388441	-0.000023
1668	1.6587e+02	3.4081	5.334762	0.000323	3.234738	0.547979	-0.000032
1669	1.6597e+02	3.3967	5.307877	0.000270	2.702439	0.457806	-0.000027
1670	1.6607e+02	3.3890	5.279363	0.000287	2.866223	0.485551	-0.000029
1671	1.6616e+02	3.3772	5.252886	0.000266	2.661493	0.450869	-0.000027
1672	1.6626e+02	3.3688	5.223557	0.000295	2.948116	0.499424	-0.000029
1673	1.6636e+02	3.3585	5.198302	0.000254	2.538655	0.430060	-0.000025
1674	1.6646e+02	3.3465	5.169788	0.000287	2.866223	0.485551	-0.000029
1675	1.6656e+02	3.3392	5.141274	0.000287	2.866223	0.485551	-0.000029
1676	1.6666e+02	3.3282	5.114797	0.000266	2.661493	0.450869	-0.000027
1677	1.6676e+02	3.3187	5.085468	0.000295	2.948116	0.499424	-0.000029
1678	1.6686e+02	3.3089	5.058176	0.000274	2.743385	0.464742	-0.000027
1679	1.6696e+02	3.2986	5.028033	0.000303	3.030008	0.513297	-0.000030
1680	1.6706e+02	3.2870	5.000741	0.000274	2.743385	0.464742	-0.000027
1681	1.6716e+02	3.2804	4.973449	0.000274	2.743385	0.464742	-0.000027
1682	1.6726e+02	3.2706	4.949008	0.000246	2.456763	0.416187	-0.000025
1683	1.6736e+02	3.2590	4.921309	0.000278	2.784331	0.471678	-0.000028
1684	1.6746e+02	3.2512	4.894424	0.000270	2.702439	0.457806	-0.000027
1685	1.6756e+02	3.2375	4.861837	0.000328	3.275684	0.554916	-0.000033
1686	1.6766e+02	3.2302	4.834952	0.000270	2.702439	0.457806	-0.000027
1687	1.6776e+02	3.2174	4.802772	0.000323	3.234738	0.547979	-0.000032
1688	1.6786e+02	3.2086	4.773444	0.000295	2.948116	0.499424	-0.000029
1689	1.6796e+02	3.2013	4.746152	0.000274	2.743385	0.464742	-0.000027
1690	1.6806e+02	3.1911	4.710306	0.000360	3.603252	0.610407	-0.000036
1691	1.6816e+02	3.1820	4.680162	0.000303	3.030008	0.513297	-0.000030
1692	1.6825e+02	3.1703	4.652056	0.000283	2.825277	0.478615	-0.000028
1693	1.6835e+02	3.1586	4.621098	0.000311	3.111900	0.527170	-0.000031
1694	1.6845e+02	3.1496	4.589325	0.000319	3.193792	0.541043	-0.000032
1695	1.6855e+02	3.1406	4.561218	0.000283	2.825277	0.478615	-0.000028
1696	1.6865e+02	3.1290	4.533519	0.000278	2.784331	0.471678	-0.000028
1697	1.6875e+02	3.1203	4.499302	0.000344	3.439468	0.582662	-0.000034
1698	1.6885e+02	3.1107	4.472010	0.000274	2.743385	0.464742	-0.000027
1699	1.6895e+02	3.0996	4.439015	0.000332	3.316630	0.561852	-0.000033
1700	1.6905e+02	3.0877	4.407243	0.000319	3.193792	0.541043	-0.000032
1701	1.6915e+02	3.0801	4.378321	0.000291	2.907169	0.492488	-0.000029
1702	1.6925e+02	3.0707	4.345327	0.000332	3.316630	0.561852	-0.000033
1703	1.6935e+02	3.0628	4.320479	0.000250	2.497709	0.423123	-0.000025
1704	1.6945e+02	3.0482	4.285447	0.000352	3.521360	0.596535	-0.000035
1705	1.6955e+02	3.0431	4.256119	0.000295	2.948116	0.499424	-0.000029
1706	1.6965e+02	3.0286	4.221495	0.000348	3.480414	0.589598	-0.000035
1707	1.6975e+02	3.0208	4.194203	0.000274	2.743385	0.464742	-0.000027
1708	1.6985e+02	3.0095	4.164467	0.000299	2.989062	0.506361	-0.000030
1709	1.6995e+02	2.9993	4.132694	0.000319	3.193792	0.541043	-0.000032
1710	1.7005e+02	2.9897	4.098884	0.000340	3.398522	0.575725	-0.000034
1711	1.7015e+02	2.9797	4.072815	0.000262	2.620547	0.443933	-0.000026
1712	1.7024e+02	2.9692	4.041449	0.000315	3.152846	0.534107	-0.000032
1713	1.7034e+02	2.9614	4.010898	0.000307	3.070954	0.520234	-0.000031
1714	1.7044e+02	2.9501	3.984014	0.000270	2.702439	0.457806	-0.000027
1715	1.7054e+02	2.9415	3.955907	0.000283	2.825277	0.478615	-0.000028
1716	1.7064e+02	2.9324	3.926986	0.000291	2.907169	0.492488	-0.000029
1717	1.7074e+02	2.9205	3.896435	0.000307	3.070954	0.520234	-0.000031
1718	1.7084e+02	2.9108	3.868329	0.000283	2.825277	0.478615	-0.000028
1719	1.7094e+02	2.8999	3.835334	0.000332	3.316630	0.561852	-0.000033
1720	1.7104e+02	2.8912	3.804783	0.000307	3.070954	0.520234	-0.000031
1721	1.7114e+02	2.8830	3.773010	0.000319	3.193792	0.541043	-0.000032
1722	1.7124e+02	2.8709	3.741645	0.000315	3.152846	0.534107	-0.000032
1723	1.7134e+02	2.8604	3.714760	0.000270	2.702439	0.457806	-0.000027
1724	1.7144e+02	2.8520	3.683395	0.000315	3.152846	0.534107	-0.000032
1725	1.7154e+02	2.8432	3.656103	0.000274	2.743385	0.464742	-0.000027
1726	1.7164e+02	2.8321	3.625552	0.000307	3.070954	0.520234	-0.000031
1727	1.7174e+02	2.8219	3.595816	0.000299	2.989062	0.506361	-0.000030
1728	1.7184e+02	2.8101	3.565673	0.000303	3.030008	0.513297	-0.000030
1729	1.7194e+02	2.8001	3.533086	0.000328	3.275684	0.554916	-0.000033
1730	1.7204e+02	2.7919	3.504979	0.000283	2.825277	0.478615	-0.000028
1731	1.7213e+02	2.7808	3.471577	0.000336	3.357576	0.568789	-0.000034
1732	1.7223e+02	2.7711	3.437360	0.000344	3.439468	0.582662	-0.000034
1733	1.7233e+02	2.7615	3.412105	0.000254	2.538655	0.430060	-0.000025
1734	1.7243e+02	2.7512	3.377073	0.000352	3.521360	0.596535	-0.000035
1735	1.7253e+02	2.7412	3.343264	0.000340	3.398522	0.575725	-0.000034
1736	1.7263e+02	2.7297	3.311084	0.000323	3.234738	0.547979	-0.000032
1737	1.7273e+02	2.7227	3.282163	0.000291	2.907169	0.492488	-0.000029
1738	1.7283e+02	2.7129	3.245094	0.000373	3.726090	0.631217	-0.000037
1739	1.7293e+02	2.7002	3.214544	0.000307	3.070954	0.520234	-0.000031
1740	1.7303e+02	2.6934	3.181549	0.000332	3.316630	0.561852	-0.000033
1741	1.7313e+02	2.6823	3.150184	0.000315	3.152846	0.534107	-0.000032
1742	1.7323e+02	2.6709	3.117596	0.000328	3.275684	0.554916	-0.000033
1743	1.7333e+02	2.6620	3.082157	0.000356	3.562306	0.603471	-0.000036
1744	1.7343e+02	2.6531	3.054051	0.000283	2.825277	0.478615	-0.000028
1745	1.7353e+02	2.6426	3.018612	0.000356	3.562306	0.603471	-0.000036
1746	1.7363e+02	2.6302	2.985617	0.000332	3.316630	0.561852	-0.000033
1747	1.7373e+02	2.6235	2.953030	0.000328	3.275684	0.554916	-0.000033
1748	1.7383e+02	2.6099	2.918813	0.000344	3.439468	0.582662	-0.000034
1749	1.7393e+02	2.6031	2.881338	0.000377	3.767036	0.638153	-0.000038
1750	1.7403e+02	2.5961	2.845084	0.000364	3.644198	0.617344	-0.000036
1751	1.7413e+02	2.5833	2.809645	0.000356	3.562306	0.603471	-0.000036
1752	1.7422e+02	2.5727	2.775836	0.000340	3.398522	0.575725	-0.000034
1753	1.7432e+02	2.5603	2.739582	0.000364	3.644198	0.617344	-0.000036
1754	1.7442e+02	2.5549	2.701699	0.000381	3.807983	0.645090	-0.000038
1755	1.7452e+02	2.5423	2.669519	0.000323	3.234738	0.547979	-0.000032
1756	1.7462e+02	2.5333	2.633266	0.000364	3.644198	0.617344	-0.000036
1757	1.7472e+02	2.5208	2.599049	0.000344	3.439468	0.582662	-0.000034
1758	1.7482e+02	2.5110	2.564018	0.000352	3.521360	0.596535	-0.000035
1759	1.7492e+02	2.5053	2.530616	0.000336	3.357576	0.568789	-0.000034
1760	1.7502e+02	2.4914	2.493547	0.000373	3.726090	0.631217	-0.000037
1761	1.7512e+02	2.4834	2.460145	0.000336	3.357576	0.568789	-0.000034
1762	1.7522e+02	2.4702	2.419818	0.000405	4.053659	0.686708	-0.000041
1763	1.7532e+02	2.4618	2.383158	0.000369	3.685144	0.624280	-0.000037
1764	1.7542e+02	2.4570	2.349756	0.000336	3.357576	0.568789	-0.000034
1765	1.7552e+02	2.4443	2.312687	0.000373	3.726090	0.631217	-0.000037
1766	1.7562e+02	2.4345	2.277249	0.000356	3.562306	0.603471	-0.000036
1767	1.7572e+02	2.4237	2.245883	0.000315	3.152846	0.534107	-0.000032
1768	1.7582e+02	2.4114	2.205964	0.000401	4.012713	0.679772	-0.000040
1769	1.7592e+02	2.4053	2.171747	0.000344	3.439468	0.582662	-0.000034
1770	1.7602e+02	2.3951	2.137123	0.000348	3.480414	0.589598	-0.000035
1771	1.7612e+02	2.3853	2.104943	0.000323	3.234738	0.547979	-0.000032
1772	1.7621e+02	2.3745	2.070726	0.000344	3.439468	0.582662	-0.000034
1773	1.7631e+02	2.3647	2.034065	0.000369	3.685144	0.624280	-0.000037
1774	1.7641e+02	2.3537	2.002292	0.000319	3.193792	0.541043	-0.000032
1775	1.7651e+02	2.3412	1.968076	0.000344	3.439468	0.582662	-0.000034
1776	1.7661e+02	2.3343	1.932637	0.000356	3.562306	0.603471	-0.000036
1777	1.7671e+02	2.3223	1.903308	0.000295	2.948116	0.499424	-0.000029
1778	1.7681e+02	2.3103	1.866647	0.000369	3.685144	0.624280	-0.000037
1779	1.7691e+02	2.3026	1.830801	0.000360	3.603252	0.610407	-0.000036
1780	1.7701e+02	2.2975	1.796584	0.000344	3.439468	0.582662	-0.000034
1781	1.7711e+02	2.2854	1.764812	0.000319	3.193792	0.541043	-0.000032
1782	1.7721e+02	2.2739	1.727336	0.000377	3.767036	0.638153	-0.000038
1783	1.7731e+02	2.2645	1.693934	0.000336	3.357576	0.568789	-0.000034
1784	1.7741e+02	2.2553	1.663791	0.000303	3.030008	0.513297	-0.000030
1785	1.7751e+02	2.2433	1.625500	0.000385	3.848929	0.652026	-0.000038
1786	1.7761e+02	2.2353	1.590469	0.000352	3.521360	0.596535	-0.000035
1787	1.7771e+02	2.2240	1.558696	0.000319	3.193792	0.541043	-0.000032
1788	1.7781e+02	2.2138	1.525702	0.000332	3.316630	0.561852	-0.000033
1789	1.7791e+02	2.2043	1.489448	0.000364	3.644198	0.617344	-0.000036
1790	1.7801e+02	2.1949	1.458083	0.000315	3.152846	0.534107	-0.000032
1791	1.7810e+02	2.1864	1.428347	0.000299	2.989062	0.506361	-0.000030
1792	1.7820e+02	2.1769	1.390464	0.000381	3.807983	0.645090	-0.000038
1793	1.7830e+02	2.1628	1.356247	0.000344	3.439468	0.582662	-0.000034
1794	1.7840e+02	2.1571	1.324067	0.000323	3.234738	0.547979	-0.000032
1795	1.7850e+02	2.1408	1.290258	0.000340	3.398522	0.575725	-0.000034
1796	1.7860e+02	2.1362	1.255633	0.000348	3.480414	0.589598	-0.000035
1797	1.7870e+02	2.1254	1.215307	0.000405	4.053659	0.686708	-0.000041
1798	1.7880e+02	2.1108	1.182719	0.000328	3.275684	0.554916	-0.000033
1799	1.7890e+02	2.1054	1.142392	0.000405	4.053659	0.686708	-0.000041
1800	1.7900e+02	2.0951	1.109397	0.000332	3.316630	0.561852	-0.000033
1801	1.7910e+02	2.0871	1.073551	0.000360	3.603252	0.610407	-0.000036
1802	1.7920e+02	2.0744	1.037705	0.000360	3.603252	0.610407	-0.000036
1803	1.7930e+02	2.0647	1.001044	0.000369	3.685144	0.624280	-0.000037
1804	1.7940e+02	2.0540	0.967642	0.000336	3.357576	0.568789	-0.000034
1805	1.7950e+02	2.0451	0.934647	0.000332	3.316630	0.561852	-0.000033
1806	1.7960e+02	2.0347	0.899209	0.000356	3.562306	0.603471	-0.000036
1807	1.7970e+02	2.0237	0.861733	0.000377	3.767036	0.638153	-0.000038
1808	1.7980e+02	2.0164	0.823850	0.000381	3.807983	0.645090	-0.000038
1809	1.7990e+02	2.0049	0.791263	0.000328	3.275684	0.554916	-0.000033
1810	1.8000e+02	1.9950	0.753380	0.000381	3.807983	0.645090	-0.000038
1811	1.8009e+02	1.9849	0.718349	0.000352	3.521360	0.596535	-0.000035
1812	1.8019e+02	1.9743	0.683317	0.000352	3.521360	0.596535	-0.000035
1813	1.8029e+02	1.9640	0.650730	0.000328	3.275684	0.554916	-0.000033
1814	1.8039e+02	1.9572	0.610810	0.000401	4.012713	0.679772	-0.000040
1815	1.8049e+02	1.9464	0.579852	0.000311	3.111900	0.527170	-0.000031
1816	1.8059e+02	1.9339	0.544821	0.000352	3.521360	0.596535	-0.000035
1817	1.8069e+02	1.9267	0.510197	0.000348	3.480414	0.589598	-0.000035
1818	1.8079e+02	1.9154	0.476387	0.000340	3.398522	0.575725	-0.000034
1819	1.8089e+02	1.9054	0.447058	0.000295	2.948116	0.499424	-0.000029
1820	1.8099e+02	1.8942	0.413656	0.000336	3.357576	0.568789	-0.000034
1821	1.8109e+02	1.8853	0.378625	0.000352	3.521360	0.596535	-0.000035
1822	1.8119e+02	1.8771	0.348482	0.000303	3.030008	0.513297	-0.000030
1823	1.8129e+02	1.8647	0.312635	0.000360	3.603252	0.610407	-0.000036
1824	1.8139e+02	1.8552	0.279233	0.000336	3.357576	0.568789	-0.000034
1825	1.8149e+02	1.8464	0.247461	0.000319	3.193792	0.541043	-0.000032
1826	1.8159e+02	1.8397	0.213244	0.000344	3.439468	0.582662	-0.000034
1827	1.8169e+02	1.8270	0.180656	0.000328	3.275684	0.554916	-0.000033
1828	1.8179e+02	1.8151	0.146440	0.000344	3.439468	0.582662	-0.000034
1829	1.8189e+02	1.8059	0.112223	0.000344	3.439468	0.582662	-0.000034
1830	1.8199e+02	1.7956	0.079635	0.000328	3.275684	0.554916	-0.000033
1831	1.8209e+02	1.7846	0.045419	0.000344	3.439468	0.582662	-0.000034
1832	1.8218e+02	1.7774	0.017719	0.000278	2.784331	0.471678	-0.000028
1833	1.8228e+02	1.7654	-0.014868	0.000328	3.275684	0.554916	-0.000033
1834	1.8238e+02	1.7581	-0.047863	0.000332	3.316630	0.561852	-0.000033
1835	1.8248e+02	1.7459	-0.078821	0.000311	3.111900	0.527170	-0.000031
1836	1.8258e+02	1.7400	-0.104891	0.000262	2.620547	0.443933	-0.000026
1837	1.8268e+02	1.7263	-0.139515	0.000348	3.480414	0.589598	-0.000035
1838	1.8278e+02	1.7169	-0.170066	0.000307	3.070954	0.520234	-0.000031
1839	1.8288e+02	1.7050	-0.205097	0.000352	3.521360	0.596535	-0.000035
1840	1.8298e+02	1.6971	-0.234426	0.000295	2.948116	0.499424	-0.000029
1841	1.8308e+02	1.6882	-0.269050	0.000348	3.480414	0.589598	-0.000035
1842	1.8318e+02	1.6747	-0.298786	0.000299	2.989062	0.506361	-0.000030
1843	1.8328e+02	1.6683	-0.332188	0.000336	3.357576	0.568789	-0.000034
1844	1.8338e+02	1.6549	-0.364775	0.000328	3.275684	0.554916	-0.000033
1845	1.8348e+02	1.6456	-0.394104	0.000295	2.948116	0.499424	-0.000029
1846	1.8358e+02	1.6387	-0.425877	0.000319	3.193792	0.541043	-0.000032
1847	1.8368e+02	1.6273	-0.454391	0.000287	2.866223	0.485551	-0.000029
1848	1.8378e+02	1.6173	-0.482497	0.000283	2.825277	0.478615	-0.000028
1849	1.8388e+02	1.6062	-0.516714	0.000344	3.439468	0.582662	-0.000034
1850	1.8398e+02	1.5974	-0.548894	0.000323	3.234738	0.547979	-0.000032
1851	1.8407e+02	1.5868	-0.579037	0.000303	3.030008	0.513297	-0.000030
1852	1.8417e+02	1.5768	-0.616106	0.000373	3.726090	0.631217	-0.000037
1853	1.8427e+02	1.5701	-0.649508	0.000336	3.357576	0.568789	-0.000034
1854	1.8437e+02	1.5585	-0.682095	0.000328	3.275684	0.554916	-0.000033
1855	1.8447e+02	1.5456	-0.716312	0.000344	3.439468	0.582662	-0.000034
1856	1.8457e+02	1.5380	-0.749714	0.000336	3.357576	0.568789	-0.000034
1857	1.8467e+02	1.5249	-0.782301	0.000328	3.275684	0.554916	-0.000033
1858	1.8477e+02	1.5192	-0.817740	0.000356	3.562306	0.603471	-0.000036
1859	1.8487e+02	1.5063	-0.852772	0.000352	3.521360	0.596535	-0.000035
1860	1.8497e+02	1.4981	-0.886581	0.000340	3.398522	0.575725	-0.000034
1861	1.8507e+02	1.4887	-0.922020	0.000356	3.562306	0.603471	-0.000036
1862	1.8517e+02	1.4763	-0.955015	0.000332	3.316630	0.561852	-0.000033
1863	1.8527e+02	1.4674	-0.988824	0.000340	3.398522	0.575725	-0.000034
1864	1.8537e+02	1.4571	-1.024263	0.000356	3.562306	0.603471	-0.000036
1865	1.8547e+02	1.4469	-1.057665	0.000336	3.357576	0.568789	-0.000034
1866	1.8557e+02	1.4400	-1.089438	0.000319	3.193792	0.541043	-0.000032
1867	1.8567e+02	1.4300	-1.124876	0.000356	3.562306	0.603471	-0.000036
1868	1.8577e+02	1.4183	-1.159908	0.000352	3.521360	0.596535	-0.000035
1869	1.8587e+02	1.4085	-1.192088	0.000323	3.234738	0.547979	-0.000032
1870	1.8597e+02	1.3990	-1.229156	0.000373	3.726090	0.631217	-0.000037
1871	1.8606e+02	1.3882	-1.262966	0.000340	3.398522	0.575725	-0.000034
1872	1.8616e+02	1.3797	-1.296775	0.000340	3.398522	0.575725	-0.000034
1873	1.8626e+02	1.3660	-1.333843	0.000373	3.726090	0.631217	-0.000037
1874	1.8636e+02	1.3599	-1.366023	0.000323	3.234738	0.547979	-0.000032
1875	1.8646e+02	1.3483	-1.401055	0.000352	3.521360	0.596535	-0.000035
1876	1.8656e+02	1.3381	-1.436494	0.000356	3.562306	0.603471	-0.000036
1877	1.8666e+02	1.3259	-1.468674	0.000323	3.234738	0.547979	-0.000032
1878	1.8676e+02	1.3189	-1.505334	0.000369	3.685144	0.624280	-0.000037
1879	1.8686e+02	1.3078	-1.537514	0.000323	3.234738	0.547979	-0.000032
1880	1.8696e+02	1.2950	-1.573361	0.000360	3.603252	0.610407	-0.000036
1881	1.8706e+02	1.2885	-1.604726	0.000315	3.152846	0.534107	-0.000032
1882	1.8716e+02	1.2791	-1.637721	0.000332	3.316630	0.561852	-0.000033
1883	1.8726e+02	1.2680	-1.672345	0.000348	3.480414	0.589598	-0.000035
1884	1.8736e+02	1.2585	-1.703710	0.000315	3.152846	0.534107	-0.000032
1885	1.8746e+02	1.2511	-1.739149	0.000356	3.562306	0.603471	-0.000036
1886	1.8756e+02	1.2395	-1.768885	0.000299	2.989062	0.506361	-0.000030
1887	1.8766e+02	1.2278	-1.804324	0.000356	3.562306	0.603471	-0.000036
1888	1.8776e+02	1.2179	-1.840170	0.000360	3.603252	0.610407	-0.000036
1889	1.8786e+02	1.2095	-1.873165	0.000332	3.316630	0.561852	-0.000033
1890	1.8796e+02	1.1977	-1.908196	0.000352	3.521360	0.596535	-0.000035
1891	1.8806e+02	1.1884	-1.941598	0.000336	3.357576	0.568789	-0.000034
1892	1.8815e+02	1.1810	-1.975815	0.000344	3.439468	0.582662	-0.000034
1893	1.8825e+02	1.1693	-2.007995	0.000323	3.234738	0.547979	-0.000032
1894	1.8835e+02	1.1618	-2.041805	0.000340	3.398522	0.575725	-0.000034
1895	1.8845e+02	1.1494	-2.072763	0.000311	3.111900	0.527170	-0.000031
1896	1.8855e+02	1.1440	-2.108201	0.000356	3.562306	0.603471	-0.000036
1897	1.8865e+02	1.1274	-2.141603	0.000336	3.357576	0.568789	-0.000034
1898	1.8875e+02	1.1191	-2.177042	0.000356	3.562306	0.603471	-0.000036
1899	1.8885e+02	1.1092	-2.215332	0.000385	3.848929	0.652026	-0.000038
1900	1.8895e+02	1.1020	-2.253215	0.000381	3.807983	0.645090	-0.000038
1901	1.8905e+02	1.0881	-2.289061	0.000360	3.603252	0.610407	-0.000036
1902	1.8915e+02	1.0810	-2.324908	0.000360	3.603252	0.610407	-0.000036
1903	1.8925e+02	1.0723	-2.358310	0.000336	3.357576	0.568789	-0.000034
1904	1.8935e+02	1.0596	-2.395785	0.000377	3.767036	0.638153	-0.000038
1905	1.8945e+02	1.0509	-2.433261	0.000377	3.767036	0.638153	-0.000038
1906	1.8955e+02	1.0406	-2.469922	0.000369	3.685144	0.624280	-0.000037
1907	1.8965e+02	1.0310	-2.508212	0.000385	3.848929	0.652026	-0.000038
1908	1.8975e+02	1.0223	-2.541207	0.000332	3.316630	0.561852	-0.000033
1909	1.8985e+02	1.0104	-2.577053	0.000360	3.603252	0.610407	-0.000036
1910	1.8995e+02	1.0000	-2.615343	0.000385	3.848929	0.652026	-0.000038
1911	1.9004e+02	0.9905	-2.652411	0.000373	3.726090	0.631217	-0.000037
1912	1.9014e+02	0.9817	-2.688665	0.000364	3.644198	0.617344	-0.000036
1913	1.9024e+02	0.9718	-2.729806	0.000414	4.135551	0.700581	-0.000041
1914	1.9034e+02	0.9605	-2.764430	0.000348	3.480414	0.589598	-0.000035
1915	1.9044e+02	0.9481	-2.801906	0.000377	3.767036	0.638153	-0.000038
1916	1.9054e+02	0.9406	-2.840196	0.000385	3.848929	0.652026	-0.000038
1917	1.9064e+02	0.9313	-2.878486	0.000385	3.848929	0.652026	-0.000038
1918	1.9074e+02	0.9255	-2.920850	0.000426	4.258389	0.721391	-0.000043
1919	1.9084e+02	0.9109	-2.958733	0.000381	3.807983	0.645090	-0.000038
1920	1.9094e+02	0.8992	-2.998245	0.000397	3.971767	0.672835	-0.000040
1921	1.9104e+02	0.8924	-3.039386	0.000414	4.135551	0.700581	-0.000041
1922	1.9114e+02	0.8807	-3.077269	0.000381	3.807983	0.645090	-0.000038
1923	1.9124e+02	0.8719	-3.118411	0.000414	4.135551	0.700581	-0.000041
1924	1.9134e+02	0.8616	-3.155072	0.000369	3.685144	0.624280	-0.000037
1925	1.9144e+02	0.8514	-3.190918	0.000360	3.603252	0.610407	-0.000036
1926	1.9154e+02	0.8399	-3.231652	0.000409	4.094605	0.693645	-0.000041
1927	1.9164e+02	0.8315	-3.273608	0.000422	4.217443	0.714454	-0.000042
1928	1.9174e+02	0.8215	-3.314750	0.000414	4.135551	0.700581	-0.000041
1929	1.9184e+02	0.8118	-3.355484	0.000409	4.094605	0.693645	-0.000041
1930	1.9194e+02	0.8003	-3.397848	0.000426	4.258389	0.721391	-0.000043
1931	1.9203e+02	0.7923	-3.436545	0.000389	3.889875	0.658963	-0.000039
1932	1.9213e+02	0.7831	-3.476872	0.000405	4.053659	0.686708	-0.000041
1933	1.9223e+02	0.7727	-3.515977	0.000393	3.930821	0.665899	-0.000039
1934	1.9233e+02	0.7634	-3.558748	0.000430	4.299335	0.728327	-0.000043
1935	1.9243e+02	0.7514	-3.593780	0.000352	3.521360	0.596535	-0.000035
1936	1.9253e+02	0.7426	-3.632477	0.000389	3.889875	0.658963	-0.000039
1937	1.9263e+02	0.7291	-3.670767	0.000385	3.848929	0.652026	-0.000038
1938	1.9273e+02	0.7221	-3.711909	0.000414	4.135551	0.700581	-0.000041
1939	1.9283e+02	0.7096	-3.749792	0.000381	3.807983	0.645090	-0.000038
1940	1.9293e+02	0.7022	-3.787675	0.000381	3.807983	0.645090	-0.000038
1941	1.9303e+02	0.6958	-3.826780	0.000393	3.930821	0.665899	-0.000039
1942	1.9313e+02	0.6811	-3.862626	0.000360	3.603252	0.610407	-0.000036
1943	1.9323e+02	0.6712	-3.902545	0.000401	4.012713	0.679772	-0.000040
1944	1.9333e+02	0.6618	-3.937984	0.000356	3.562306	0.603471	-0.000036
1945	1.9343e+02	0.6536	-3.979126	0.000414	4.135551	0.700581	-0.000041
1946	1.9353e+02	0.6435	-4.015379	0.000364	3.644198	0.617344	-0.000036
1947	1.9363e+02	0.6315	-4.051633	0.000364	3.644198	0.617344	-0.000036
1948	1.9373e+02	0.6224	-4.091145	0.000397	3.971767	0.672835	-0.000040
1949	1.9383e+02	0.6139	-4.130250	0.000393	3.930821	0.665899	-0.000039
1950	1.9393e+02	0.6022	-4.167725	0.000377	3.767036	0.638153	-0.000038
1951	1.9403e+02	0.5923	-4.208052	0.000405	4.053659	0.686708	-0.000041
1952	1.9412e+02	0.5825	-4.244713	0.000369	3.685144	0.624280	-0.000037
1953	1.9422e+02	0.5715	-4.287891	0.000434	4.340281	0.735264	-0.000043
1954	1.9432e+02	0.5608	-4.323738	0.000360	3.603252	0.610407	-0.000036
1955	1.9442e+02	0.5538	-4.362842	0.000393	3.930821	0.665899	-0.000039
1956	1.9452e+02	0.5449	-4.399503	0.000369	3.685144	0.624280	-0.000037
1957	1.9462e+02	0.5318	-4.436979	0.000377	3.767036	0.638153	-0.000038
1958	1.9472e+02	0.5222	-4.469973	0.000332	3.316630	0.561852	-0.000033
1959	1.9482e+02	0.5122	-4.508264	0.000385	3.848929	0.652026	-0.000038
1960	1.9492e+02	0.5019	-4.547776	0.000397	3.971767	0.672835	-0.000040
1961	1.9502e+02	0.4967	-4.585659	0.000381	3.807983	0.645090	-0.000038
1962	1.9512e+02	0.4812	-4.626800	0.000414	4.135551	0.700581	-0.000041
1963	1.9522e+02	0.4734	-4.664276	0.000377	3.767036	0.638153	-0.000038
1964	1.9532e+02	0.4619	-4.707047	0.000430	4.299335	0.728327	-0.000043
1965	1.9542e+02	0.4526	-4.749003	0.000422	4.217443	0.714454	-0.000042
1966	1.9552e+02	0.4414	-4.787701	0.000389	3.889875	0.658963	-0.000039
1967	1.9562e+02	0.4353	-4.825584	0.000381	3.807983	0.645090	-0.000038
1968	1.9572e+02	0.4238	-4.867540	0.000422	4.217443	0.714454	-0.000042
1969	1.9582e+02	0.4128	-4.909496	0.000422	4.217443	0.714454	-0.000042
1970	1.9592e+02	0.4044	-4.948194	0.000389	3.889875	0.658963	-0.000039
1971	1.9601e+02	0.3949	-4.983632	0.000356	3.562306	0.603471	-0.000036
1972	1.9611e+02	0.3839	-5.026403	0.000430	4.299335	0.728327	-0.000043
1973	1.9621e+02	0.3735	-5.064286	0.000381	3.807983	0.645090	-0.000038
1974	1.9631e+02	0.3622	-5.103391	0.000393	3.930821	0.665899	-0.000039
1975	1.9641e+02	0.3516	-5.141274	0.000381	3.807983	0.645090	-0.000038
1976	1.9651e+02	0.3427	-5.185267	0.000442	4.422173	0.749136	-0.000044
1977	1.9661e+02	0.3341	-5.223965	0.000389	3.889875	0.658963	-0.000039
1978	1.9671e+02	0.3214	-5.267958	0.000442	4.422173	0.749136	-0.000044
1979	1.9681e+02	0.3143	-5.304211	0.000364	3.644198	0.617344	-0.000036
1980	1.9691e+02	0.3012	-5.346575	0.000426	4.258389	0.721391	-0.000043
1981	1.9701e+02	0.2937	-5.384458	0.000381	3.807983	0.645090	-0.000038
1982	1.9711e+02	0.2837	-5.424377	0.000401	4.012713	0.679772	-0.000040
1983	1.9721e+02	0.2737	-5.465519	0.000414	4.135551	0.700581	-0.000041
1984	1.9731e+02	0.2641	-5.499735	0.000344	3.439468	0.582662	-0.000034
1985	1.9741e+02	0.2568	-5.539248	0.000397	3.971767	0.672835	-0.000040
1986	1.9751e+02	0.2457	-5.569798	0.000307	3.070954	0.520234	-0.000031
1987	1.9761e+02	0.2342	-5.608903	0.000393	3.930821	0.665899	-0.000039
1988	1.9771e+02	0.2251	-5.649638	0.000409	4.094605	0.693645	-0.000041
1989	1.9781e+02	0.2136	-5.687520	0.000381	3.807983	0.645090	-0.000038
1990	1.9791e+02	0.2029	-5.723774	0.000364	3.644198	0.617344	-0.000036
1991	1.9800e+02	0.1945	-5.765323	0.000418	4.176497	0.707518	-0.000042
1992	1.9810e+02	0.1849	-5.797503	0.000323	3.234738	0.547979	-0.000032
1993	1.9820e+02	0.1742	-5.838644	0.000414	4.135551	0.700581	-0.000041
1994	1.9830e+02	0.1659	-5.879379	0.000409	4.094605	0.693645	-0.000041
1995	1.9840e+02	0.1539	-5.916447	0.000373	3.726090	0.631217	-0.000037
1996	1.9850e+02	0.1447	-5.954737	0.000385	3.848929	0.652026	-0.000038
1997	1.9860e+02	0.1366	-5.990991	0.000364	3.644198	0.617344	-0.000036
1998	1.9870e+02	0.1234	-6.026022	0.000352	3.521360	0.596535	-0.000035
1999	1.9880e+02	0.1138	-6.065534	0.000397	3.971767	0.672835	-0.000040
2000	1.9890e+02	0.1023	-6.103010	0.000377	3.767036	0.638153	-0.000038
2001	1.9900e+02	0.0964	-6.135597	0.000328	3.275684	0.554916	-0.000033
2002	1.9910e+02	0.0856	-6.171851	0.000364	3.644198	0.617344	-0.000036
2003	1.9920e+02	0.0732	-6.204031	0.000323	3.234738	0.547979	-0.000032
2004	1.9930e+02	0.0623	-6.242728	0.000389	3.889875	0.658963	-0.000039
2005	1.9940e+02	0.0536	-6.274094	0.000315	3.152846	0.534107	-0.000032
2006	1.9950e+02	0.0446	-6.314828	0.000409	4.094605	0.693645	-0.000041
2007	1.9960e+02	0.0374	-6.349045	0.000344	3.439468	0.582662	-0.000034
2008	1.9970e+02	0.0260	-6.388150	0.000393	3.930821	0.665899	-0.000039
2009	1.9980e+02	0.0129	-6.424810	0.000369	3.685144	0.624280	-0.000037
2010	1.9990e+02	0.0042	-6.464323	0.000397	3.971767	0.672835	-0.000040
2011	2.0000e+02	-0.0028	-6.498947	0.000397	3.971767	0.672835	-0.000035

PMax (uC/cm2):	3.56e+01
Pr (uC/cm2):	1.21e+01
-Pr (uC/cm2):	0.00e+00
PLoss (uC/cm2):	0.00e+00
C (Max-Eff) (nF):	3.56e-01
K (Eff):	6.03e+02
Vert. (+/-Pr) Shift (uC/cm2):	6.05e+00
Offset (uC/cm2):	1.86e+01

A (Loop Area - uC/cm2·Volts):	-8.84e-02



Hysteresis Version: 5.48.1 - Radiant Technologies, Inc., 1999 - 9/12/24

