»»»»»»»»»»»»»»»»»»»»»»»»»»»»»»»»»»»» Hysteresis ««««««««««««««««««««««««««««««««««««
»»»  Executed Version:	5.48.1
»»»  Vision Version:	5.48.4 (R)
»»»  Vision Compiled:	9/18/24
»»»  Driver Version:	5.47.0
»»»  Windows Version:	Windows 8 or 8.1
»»»  Processor Information:	x86 (AMD or Intel) - 32 Processors
»»»  Tester Name:	PMF21124-494 (100V)
»»»  Tester S/N:	PMF21124-494
»»»  Internal Amp Type:	100V RevK 270k
»»»  Internal Amp S/N:	iAB2-596/K     
»»»  Execution Count:	1
»»»»»»»»»»»»»»»»»»»»»»»»»»»»»»»»»»»»»»»»»»««««««««««««««««««««««««««««««««««««««««««

Stored:	6/27/2025 - 14:34:45
Configured:	06/27/25 11:23:28 AM
Executed:	06/27/25 02:34:15 PM

»»»»»»»»»»»»»»»»»»»»»»»»»»»»»»»»»»» Sample Info ««««««««««««««««««««««««««««««««««««
Sample Name:	
Lot Name:	
Wafer Name:	
Die Row/Column:	0/0
Capacitor Number:	0
Sample Area (cm2):	1.00e-04
Sample Thickness (microns):	1.50e-01

Amplifier:	Internal

»»»»»»»»»»»»»»»»»»»»»»»»»»»»»»»»»»» Tester Info «««««««««««««««««««««««««««««««««««
Tester Name:	PMF21124-494 (100V)
Tester Serial Number:	PMF21124-494
Return Signal Amp. Level:	1.9 [Index: 2]

»»»»»»»»»»»»»»»»»»»»»»»»»»»»»»»» Hysteresis Info ««««««««««««««««««««««««««««««««««
Task Name:	Hyst-1276
Volts:	10.00
Field:	666.67 (kV/cm)
DCBias:	0.00
DCField:	0.00 (kV/cm)
Hysteresis Period (ms):	2.00e+02
Preset:	Enabled
Preset Delay (ms):	1.00e+03
Profile:	Standard Monopolar

»»»»»»»»»»»»»»»»»»»»»»»»»»»»»»»»»»»»»» Data «««««««««««««««««««««««««««««««««««««««
Points:	2011

Valid Data

Point	Time (ms)	Drive Voltage	Measured Polarization (uC/cm2)	Capacitance (uF)	Normalized Capacitance (uF/cm2)	Dielectric Constant	Instantaneous Current (mA)
   1	0.0000e+00	-0.0049	-20.190952	0.000491	4.913751	0.832412	0.000049
   2	9.9500e-02	0.0045	-20.142071	0.000491	4.913751	0.832412	0.000049
   3	1.9900e-01	0.0149	-20.094819	0.000475	4.749959	0.804665	0.000047
   4	2.9850e-01	0.0243	-20.034125	0.000610	6.101241	1.033578	0.000061
   5	3.9800e-01	0.0361	-19.986466	0.000479	4.790907	0.811602	0.000048
   6	4.9750e-01	0.0459	-19.929438	0.000573	5.732709	0.971147	0.000057
   7	5.9700e-01	0.0565	-19.874039	0.000557	5.568918	0.943400	0.000056
   8	6.9650e-01	0.0639	-19.823936	0.000504	5.036595	0.853222	0.000050
   9	7.9600e-01	0.0744	-19.766908	0.000573	5.732709	0.971147	0.000057
  10	8.9550e-01	0.0863	-19.714361	0.000528	5.282282	0.894843	0.000053
  11	9.9500e-01	0.0940	-19.661407	0.000532	5.323230	0.901780	0.000053
  12	1.0945e+00	0.1073	-19.611303	0.000504	5.036595	0.853222	0.000050
  13	1.1940e+00	0.1130	-19.553053	0.000586	5.855553	0.991958	0.000059
  14	1.2935e+00	0.1225	-19.500914	0.000524	5.241334	0.887906	0.000052
  15	1.3930e+00	0.1329	-19.447144	0.000541	5.405126	0.915653	0.000054
  16	1.4925e+00	0.1439	-19.386450	0.000610	6.101241	1.033578	0.000061
  17	1.5920e+00	0.1536	-19.333903	0.000528	5.282282	0.894843	0.000053
  18	1.6915e+00	0.1662	-19.278912	0.000553	5.527970	0.936463	0.000055
  19	1.7910e+00	0.1741	-19.227994	0.000512	5.118490	0.867096	0.000051
  20	1.8905e+00	0.1825	-19.170559	0.000577	5.773657	0.978084	0.000058
  21	1.9900e+00	0.1933	-19.116382	0.000545	5.446074	0.922590	0.000054
  22	2.0895e+00	0.2052	-19.064650	0.000520	5.200386	0.880969	0.000052
  23	2.1890e+00	0.2132	-19.006807	0.000581	5.814605	0.985021	0.000058
  24	2.2885e+00	0.2256	-18.953038	0.000541	5.405126	0.915653	0.000054
  25	2.3880e+00	0.2372	-18.900491	0.000528	5.282282	0.894843	0.000053
  26	2.4875e+00	0.2474	-18.851202	0.000495	4.954699	0.839349	0.000050
  27	2.5870e+00	0.2535	-18.795804	0.000557	5.568918	0.943400	0.000056
  28	2.6865e+00	0.2638	-18.742034	0.000541	5.405126	0.915653	0.000054
  29	2.7860e+00	0.2736	-18.691931	0.000504	5.036595	0.853222	0.000050
  30	2.8855e+00	0.2871	-18.641014	0.000512	5.118490	0.867096	0.000051
  31	2.9850e+00	0.2957	-18.586022	0.000553	5.527970	0.936463	0.000055
  32	3.0845e+00	0.3042	-18.535104	0.000512	5.118490	0.867096	0.000051
  33	3.1840e+00	0.3110	-18.480928	0.000545	5.446074	0.922590	0.000054
  34	3.2835e+00	0.3238	-18.431639	0.000495	4.954699	0.839349	0.000050
  35	3.3830e+00	0.3334	-18.377056	0.000549	5.487022	0.929527	0.000055
  36	3.4825e+00	0.3425	-18.324101	0.000532	5.323230	0.901780	0.000053
  37	3.5820e+00	0.3555	-18.271961	0.000524	5.241334	0.887906	0.000052
  38	3.6815e+00	0.3660	-18.215341	0.000569	5.691761	0.964210	0.000057
  39	3.7810e+00	0.3757	-18.168903	0.000467	4.668063	0.790791	0.000047
  40	3.8805e+00	0.3848	-18.115542	0.000536	5.364178	0.908716	0.000054
  41	3.9800e+00	0.3915	-18.059328	0.000565	5.650813	0.957274	0.000056
  42	4.0795e+00	0.4011	-18.006781	0.000528	5.282282	0.894843	0.000053
  43	4.1790e+00	0.4128	-17.957493	0.000495	4.954699	0.839349	0.000050
  44	4.2785e+00	0.4238	-17.906168	0.000516	5.159438	0.874033	0.000052
  45	4.3780e+00	0.4350	-17.852806	0.000536	5.364178	0.908716	0.000054
  46	4.4775e+00	0.4453	-17.798222	0.000549	5.487022	0.929527	0.000055
  47	4.5770e+00	0.4532	-17.749341	0.000491	4.913751	0.832412	0.000049
  48	4.6765e+00	0.4651	-17.694349	0.000553	5.527970	0.936463	0.000055
  49	4.7760e+00	0.4704	-17.640580	0.000541	5.405126	0.915653	0.000054
  50	4.8755e+00	0.4808	-17.583552	0.000573	5.732709	0.971147	0.000057
  51	4.9750e+00	0.4920	-17.535486	0.000483	4.831855	0.818538	0.000048
  52	5.0745e+00	0.5017	-17.479680	0.000561	5.609866	0.950337	0.000056
  53	5.1740e+00	0.5112	-17.427133	0.000528	5.282282	0.894843	0.000053
  54	5.2735e+00	0.5238	-17.375808	0.000516	5.159438	0.874033	0.000052
  55	5.3730e+00	0.5334	-17.322038	0.000541	5.405126	0.915653	0.000054
  56	5.4725e+00	0.5439	-17.262159	0.000602	6.019345	1.019705	0.000060
  57	5.5720e+00	0.5512	-17.216537	0.000459	4.586167	0.776918	0.000046
  58	5.6715e+00	0.5637	-17.161953	0.000549	5.487022	0.929527	0.000055
  59	5.7710e+00	0.5728	-17.109813	0.000524	5.241334	0.887906	0.000052
  60	5.8705e+00	0.5862	-17.058895	0.000512	5.118490	0.867096	0.000051
  61	5.9700e+00	0.5971	-17.004311	0.000549	5.487022	0.929527	0.000055
  62	6.0695e+00	0.6036	-16.952986	0.000516	5.159438	0.874033	0.000052
  63	6.1690e+00	0.6128	-16.895143	0.000581	5.814605	0.985021	0.000058
  64	6.2685e+00	0.6203	-16.842596	0.000528	5.282282	0.894843	0.000053
  65	6.3680e+00	0.6336	-16.788012	0.000549	5.487022	0.929527	0.000055
  66	6.4675e+00	0.6439	-16.734243	0.000541	5.405126	0.915653	0.000054
  67	6.5670e+00	0.6531	-16.684547	0.000500	4.995647	0.846285	0.000050
  68	6.6665e+00	0.6634	-16.630371	0.000545	5.446074	0.922590	0.000054
  69	6.7660e+00	0.6750	-16.576194	0.000545	5.446074	0.922590	0.000054
  70	6.8655e+00	0.6805	-16.526498	0.000500	4.995647	0.846285	0.000050
  71	6.9650e+00	0.6935	-16.472322	0.000545	5.446074	0.922590	0.000054
  72	7.0645e+00	0.7021	-16.427107	0.000455	4.545220	0.769981	0.000045
  73	7.1640e+00	0.7126	-16.374967	0.000524	5.241334	0.887906	0.000052
  74	7.2635e+00	0.7241	-16.321605	0.000536	5.364178	0.908716	0.000054
  75	7.3630e+00	0.7319	-16.274353	0.000475	4.749959	0.804665	0.000047
  76	7.4625e+00	0.7449	-16.223435	0.000512	5.118490	0.867096	0.000051
  77	7.5620e+00	0.7523	-16.174147	0.000495	4.954699	0.839349	0.000050
  78	7.6615e+00	0.7620	-16.125673	0.000487	4.872803	0.825475	0.000049
  79	7.7610e+00	0.7730	-16.069867	0.000561	5.609866	0.950337	0.000056
  80	7.8605e+00	0.7820	-16.018135	0.000520	5.200386	0.880969	0.000052
  81	7.9600e+00	0.7888	-15.965995	0.000524	5.241334	0.887906	0.000052
  82	8.0595e+00	0.8016	-15.918743	0.000475	4.749959	0.804665	0.000047
  83	8.1590e+00	0.8134	-15.869047	0.000500	4.995647	0.846285	0.000050
  84	8.2585e+00	0.8202	-15.823018	0.000463	4.627115	0.783855	0.000046
  85	8.3580e+00	0.8302	-15.769249	0.000541	5.405126	0.915653	0.000054
  86	8.4575e+00	0.8432	-15.720367	0.000491	4.913751	0.832412	0.000049
  87	8.5570e+00	0.8514	-15.671894	0.000487	4.872803	0.825475	0.000049
  88	8.6565e+00	0.8626	-15.625049	0.000471	4.709011	0.797728	0.000047
  89	8.7560e+00	0.8716	-15.580649	0.000446	4.463324	0.756107	0.000045
  90	8.8555e+00	0.8814	-15.527694	0.000532	5.323230	0.901780	0.000053
  91	8.9550e+00	0.8886	-15.480850	0.000471	4.709011	0.797728	0.000047
  92	9.0545e+00	0.9026	-15.434820	0.000463	4.627115	0.783855	0.000046
  93	9.1540e+00	0.9123	-15.384717	0.000504	5.036595	0.853222	0.000050
  94	9.2535e+00	0.9235	-15.338280	0.000467	4.668063	0.790791	0.000047
  95	9.3530e+00	0.9317	-15.291028	0.000475	4.749959	0.804665	0.000047
  96	9.4525e+00	0.9414	-15.240111	0.000512	5.118490	0.867096	0.000051
  97	9.5520e+00	0.9500	-15.190822	0.000495	4.954699	0.839349	0.000050
  98	9.6515e+00	0.9624	-15.150088	0.000409	4.094792	0.693677	0.000041
  99	9.7510e+00	0.9712	-15.097948	0.000524	5.241334	0.887906	0.000052
 100	9.8505e+00	0.9842	-15.054362	0.000438	4.381428	0.742234	0.000044
 101	9.9500e+00	0.9894	-15.003852	0.000508	5.077543	0.860159	0.000051
 102	1.0050e+01	0.9992	-14.955785	0.000483	4.831855	0.818538	0.000048
 103	1.0149e+01	1.0117	-14.911385	0.000446	4.463324	0.756107	0.000045
 104	1.0248e+01	1.0204	-14.863319	0.000483	4.831855	0.818538	0.000048
 105	1.0348e+01	1.0319	-14.818511	0.000450	4.504272	0.763044	0.000045
 106	1.0447e+01	1.0394	-14.761076	0.000577	5.773657	0.978084	0.000058
 107	1.0547e+01	1.0514	-14.718305	0.000430	4.299532	0.728360	0.000043
 108	1.0646e+01	1.0607	-14.669424	0.000491	4.913751	0.832412	0.000049
 109	1.0746e+01	1.0696	-14.621357	0.000483	4.831855	0.818538	0.000048
 110	1.0845e+01	1.0810	-14.571254	0.000504	5.036595	0.853222	0.000050
 111	1.0945e+01	1.0895	-14.518707	0.000528	5.282282	0.894843	0.000053
 112	1.1044e+01	1.0995	-14.475121	0.000438	4.381428	0.742234	0.000044
 113	1.1144e+01	1.1131	-14.424203	0.000512	5.118490	0.867096	0.000051
 114	1.1243e+01	1.1198	-14.372064	0.000524	5.241334	0.887906	0.000052
 115	1.1343e+01	1.1287	-14.324812	0.000475	4.749959	0.804665	0.000047
 116	1.1443e+01	1.1372	-14.277967	0.000471	4.709011	0.797728	0.000047
 117	1.1542e+01	1.1488	-14.226235	0.000520	5.200386	0.880969	0.000052
 118	1.1642e+01	1.1592	-14.176132	0.000504	5.036595	0.853222	0.000050
 119	1.1741e+01	1.1708	-14.130509	0.000459	4.586167	0.776918	0.000046
 120	1.1841e+01	1.1817	-14.081221	0.000495	4.954699	0.839349	0.000050
 121	1.1940e+01	1.1888	-14.028266	0.000532	5.323230	0.901780	0.000053
 122	1.2040e+01	1.2009	-13.985903	0.000426	4.258584	0.721424	0.000043
 123	1.2139e+01	1.2108	-13.934578	0.000516	5.159438	0.874033	0.000052
 124	1.2239e+01	1.2211	-13.884475	0.000504	5.036595	0.853222	0.000050
 125	1.2338e+01	1.2306	-13.833964	0.000508	5.077543	0.860159	0.000051
 126	1.2438e+01	1.2402	-13.783861	0.000504	5.036595	0.853222	0.000050
 127	1.2537e+01	1.2475	-13.736202	0.000479	4.790907	0.811602	0.000048
 128	1.2636e+01	1.2594	-13.688543	0.000479	4.790907	0.811602	0.000048
 129	1.2736e+01	1.2685	-13.640476	0.000483	4.831855	0.818538	0.000048
 130	1.2835e+01	1.2794	-13.592003	0.000487	4.872803	0.825475	0.000049
 131	1.2935e+01	1.2931	-13.543529	0.000487	4.872803	0.825475	0.000049
 132	1.3034e+01	1.2974	-13.495870	0.000479	4.790907	0.811602	0.000048
 133	1.3134e+01	1.3099	-13.446174	0.000500	4.995647	0.846285	0.000050
 134	1.3233e+01	1.3205	-13.399737	0.000467	4.668063	0.790791	0.000047
 135	1.3333e+01	1.3288	-13.353707	0.000463	4.627115	0.783855	0.000046
 136	1.3432e+01	1.3367	-13.306048	0.000479	4.790907	0.811602	0.000048
 137	1.3532e+01	1.3470	-13.259611	0.000467	4.668063	0.790791	0.000047
 138	1.3632e+01	1.3581	-13.211952	0.000479	4.790907	0.811602	0.000048
 139	1.3731e+01	1.3686	-13.164700	0.000475	4.749959	0.804665	0.000047
 140	1.3831e+01	1.3779	-13.112968	0.000520	5.200386	0.880969	0.000052
 141	1.3930e+01	1.3884	-13.064494	0.000487	4.872803	0.825475	0.000049
 142	1.4030e+01	1.3949	-13.016428	0.000483	4.831855	0.818538	0.000048
 143	1.4129e+01	1.4102	-12.967954	0.000487	4.872803	0.825475	0.000049
 144	1.4229e+01	1.4179	-12.922331	0.000459	4.586167	0.776918	0.000046
 145	1.4328e+01	1.4273	-12.871006	0.000516	5.159438	0.874033	0.000052
 146	1.4428e+01	1.4366	-12.829457	0.000418	4.176688	0.707550	0.000042
 147	1.4527e+01	1.4468	-12.783835	0.000459	4.586167	0.776918	0.000046
 148	1.4627e+01	1.4587	-12.739435	0.000446	4.463324	0.756107	0.000045
 149	1.4726e+01	1.4657	-12.686073	0.000536	5.364178	0.908716	0.000054
 150	1.4825e+01	1.4769	-12.642487	0.000438	4.381428	0.742234	0.000044
 151	1.4925e+01	1.4899	-12.594421	0.000483	4.831855	0.818538	0.000048
 152	1.5024e+01	1.4986	-12.544318	0.000504	5.036595	0.853222	0.000050
 153	1.5124e+01	1.5087	-12.501954	0.000426	4.258584	0.721424	0.000043
 154	1.5223e+01	1.5192	-12.447370	0.000549	5.487022	0.929527	0.000055
 155	1.5323e+01	1.5260	-12.399304	0.000483	4.831855	0.818538	0.000048
 156	1.5422e+01	1.5372	-12.356125	0.000434	4.340480	0.735297	0.000043
 157	1.5522e+01	1.5515	-12.303171	0.000532	5.323230	0.901780	0.000053
 158	1.5621e+01	1.5586	-12.254290	0.000491	4.913751	0.832412	0.000049
 159	1.5721e+01	1.5674	-12.204594	0.000500	4.995647	0.846285	0.000050
 160	1.5820e+01	1.5786	-12.159786	0.000450	4.504272	0.763044	0.000045
 161	1.5920e+01	1.5863	-12.108054	0.000520	5.200386	0.880969	0.000052
 162	1.6020e+01	1.5968	-12.059173	0.000491	4.913751	0.832412	0.000049
 163	1.6119e+01	1.6071	-12.010291	0.000491	4.913751	0.832412	0.000049
 164	1.6218e+01	1.6206	-11.963854	0.000467	4.668063	0.790791	0.000047
 165	1.6318e+01	1.6299	-11.912937	0.000512	5.118490	0.867096	0.000051
 166	1.6418e+01	1.6384	-11.858353	0.000549	5.487022	0.929527	0.000055
 167	1.6517e+01	1.6478	-11.813138	0.000455	4.545220	0.769981	0.000045
 168	1.6616e+01	1.6550	-11.766701	0.000467	4.668063	0.790791	0.000047
 169	1.6716e+01	1.6641	-11.712117	0.000549	5.487022	0.929527	0.000055
 170	1.6816e+01	1.6756	-11.665680	0.000467	4.668063	0.790791	0.000047
 171	1.6915e+01	1.6884	-11.611096	0.000549	5.487022	0.929527	0.000055
 172	1.7015e+01	1.6967	-11.563029	0.000483	4.831855	0.818538	0.000048
 173	1.7114e+01	1.7066	-11.511704	0.000516	5.159438	0.874033	0.000052
 174	1.7213e+01	1.7167	-11.460786	0.000512	5.118490	0.867096	0.000051
 175	1.7313e+01	1.7290	-11.407017	0.000541	5.405126	0.915653	0.000054
 176	1.7413e+01	1.7358	-11.358543	0.000487	4.872803	0.825475	0.000049
 177	1.7512e+01	1.7469	-11.307218	0.000516	5.159438	0.874033	0.000052
 178	1.7611e+01	1.7599	-11.258337	0.000491	4.913751	0.832412	0.000049
 179	1.7711e+01	1.7651	-11.208641	0.000500	4.995647	0.846285	0.000050
 180	1.7811e+01	1.7779	-11.155279	0.000536	5.364178	0.908716	0.000054
 181	1.7910e+01	1.7855	-11.104769	0.000508	5.077543	0.860159	0.000051
 182	1.8009e+01	1.7986	-11.055888	0.000491	4.913751	0.832412	0.000049
 183	1.8109e+01	1.8073	-11.001304	0.000549	5.487022	0.929527	0.000055
 184	1.8209e+01	1.8150	-10.953238	0.000483	4.831855	0.818538	0.000048
 185	1.8308e+01	1.8246	-10.902727	0.000508	5.077543	0.860159	0.000051
 186	1.8407e+01	1.8378	-10.850995	0.000520	5.200386	0.880969	0.000052
 187	1.8507e+01	1.8462	-10.798447	0.000528	5.282282	0.894843	0.000053
 188	1.8607e+01	1.8582	-10.749566	0.000491	4.913751	0.832412	0.000049
 189	1.8706e+01	1.8660	-10.701092	0.000487	4.872803	0.825475	0.000049
 190	1.8805e+01	1.8769	-10.652211	0.000491	4.913751	0.832412	0.000049
 191	1.8905e+01	1.8862	-10.599664	0.000528	5.282282	0.894843	0.000053
 192	1.9005e+01	1.8939	-10.552820	0.000471	4.709011	0.797728	0.000047
 193	1.9104e+01	1.9071	-10.500680	0.000524	5.241334	0.887906	0.000052
 194	1.9203e+01	1.9158	-10.457909	0.000430	4.299532	0.728360	0.000043
 195	1.9303e+01	1.9267	-10.405769	0.000524	5.241334	0.887906	0.000052
 196	1.9402e+01	1.9350	-10.356888	0.000491	4.913751	0.832412	0.000049
 197	1.9502e+01	1.9460	-10.310044	0.000471	4.709011	0.797728	0.000047
 198	1.9602e+01	1.9562	-10.263199	0.000471	4.709011	0.797728	0.000047
 199	1.9701e+01	1.9659	-10.216355	0.000471	4.709011	0.797728	0.000047
 200	1.9800e+01	1.9762	-10.167474	0.000491	4.913751	0.832412	0.000049
 201	1.9900e+01	1.9859	-10.121037	0.000467	4.668063	0.790791	0.000047
 202	2.0000e+01	1.9952	-10.070934	0.000504	5.036595	0.853222	0.000050
 203	2.0099e+01	2.0061	-10.022460	0.000487	4.872803	0.825475	0.000049
 204	2.0198e+01	2.0191	-9.976023	0.000467	4.668063	0.790791	0.000047
 205	2.0298e+01	2.0248	-9.927956	0.000483	4.831855	0.818538	0.000048
 206	2.0398e+01	2.0345	-9.880297	0.000479	4.790907	0.811602	0.000048
 207	2.0497e+01	2.0440	-9.832638	0.000479	4.790907	0.811602	0.000048
 208	2.0596e+01	2.0562	-9.784979	0.000479	4.790907	0.811602	0.000048
 209	2.0696e+01	2.0650	-9.739357	0.000459	4.586167	0.776918	0.000046
 210	2.0796e+01	2.0766	-9.688439	0.000512	5.118490	0.867096	0.000051
 211	2.0895e+01	2.0866	-9.643631	0.000450	4.504272	0.763044	0.000045
 212	2.0994e+01	2.0940	-9.598416	0.000455	4.545220	0.769981	0.000045
 213	2.1094e+01	2.1059	-9.549535	0.000491	4.913751	0.832412	0.000049
 214	2.1194e+01	2.1150	-9.503098	0.000467	4.668063	0.790791	0.000047
 215	2.1293e+01	2.1262	-9.455032	0.000483	4.831855	0.818538	0.000048
 216	2.1392e+01	2.1335	-9.405336	0.000500	4.995647	0.846285	0.000050
 217	2.1492e+01	2.1426	-9.356862	0.000487	4.872803	0.825475	0.000049
 218	2.1591e+01	2.1540	-9.311647	0.000455	4.545220	0.769981	0.000045
 219	2.1691e+01	2.1645	-9.262766	0.000491	4.913751	0.832412	0.000049
 220	2.1791e+01	2.1732	-9.212255	0.000508	5.077543	0.860159	0.000051
 221	2.1890e+01	2.1835	-9.163374	0.000491	4.913751	0.832412	0.000049
 222	2.1989e+01	2.1936	-9.115715	0.000479	4.790907	0.811602	0.000048
 223	2.2089e+01	2.2060	-9.065612	0.000504	5.036595	0.853222	0.000050
 224	2.2189e+01	2.2148	-9.018360	0.000475	4.749959	0.804665	0.000047
 225	2.2288e+01	2.2248	-8.973960	0.000446	4.463324	0.756107	0.000045
 226	2.2387e+01	2.2348	-8.924264	0.000500	4.995647	0.846285	0.000050
 227	2.2487e+01	2.2431	-8.879457	0.000450	4.504272	0.763044	0.000045
 228	2.2587e+01	2.2536	-8.830576	0.000491	4.913751	0.832412	0.000049
 229	2.2686e+01	2.2626	-8.783731	0.000471	4.709011	0.797728	0.000047
 230	2.2785e+01	2.2736	-8.737294	0.000467	4.668063	0.790791	0.000047
 231	2.2885e+01	2.2842	-8.688413	0.000491	4.913751	0.832412	0.000049
 232	2.2985e+01	2.2948	-8.639532	0.000491	4.913751	0.832412	0.000049
 233	2.3084e+01	2.3035	-8.591058	0.000487	4.872803	0.825475	0.000049
 234	2.3183e+01	2.3154	-8.542992	0.000483	4.831855	0.818538	0.000048
 235	2.3283e+01	2.3239	-8.496555	0.000467	4.668063	0.790791	0.000047
 236	2.3383e+01	2.3333	-8.450525	0.000463	4.627115	0.783855	0.000046
 237	2.3482e+01	2.3440	-8.403273	0.000475	4.749959	0.804665	0.000047
 238	2.3581e+01	2.3529	-8.358873	0.000446	4.463324	0.756107	0.000045
 239	2.3681e+01	2.3608	-8.311214	0.000479	4.790907	0.811602	0.000048
 240	2.3780e+01	2.3775	-8.266406	0.000450	4.504272	0.763044	0.000045
 241	2.3880e+01	2.3828	-8.221191	0.000455	4.545220	0.769981	0.000045
 242	2.3980e+01	2.3918	-8.174754	0.000467	4.668063	0.790791	0.000047
 243	2.4079e+01	2.4025	-8.135242	0.000397	3.971949	0.672866	0.000040
 244	2.4178e+01	2.4133	-8.087990	0.000475	4.749959	0.804665	0.000047
 245	2.4278e+01	2.4250	-8.041553	0.000467	4.668063	0.790791	0.000047
 246	2.4378e+01	2.4339	-7.992672	0.000491	4.913751	0.832412	0.000049
 247	2.4477e+01	2.4454	-7.951123	0.000418	4.176688	0.707550	0.000042
 248	2.4576e+01	2.4535	-7.903871	0.000475	4.749959	0.804665	0.000047
 249	2.4676e+01	2.4652	-7.863137	0.000409	4.094792	0.693677	0.000041
 250	2.4776e+01	2.4733	-7.815071	0.000483	4.831855	0.818538	0.000048
 251	2.4875e+01	2.4844	-7.775151	0.000401	4.012897	0.679803	0.000040
 252	2.4974e+01	2.4951	-7.727492	0.000479	4.790907	0.811602	0.000048
 253	2.5074e+01	2.5031	-7.686350	0.000414	4.135740	0.700613	0.000041
 254	2.5174e+01	2.5130	-7.641950	0.000446	4.463324	0.756107	0.000045
 255	2.5273e+01	2.5220	-7.599586	0.000426	4.258584	0.721424	0.000043
 256	2.5372e+01	2.5338	-7.560074	0.000397	3.971949	0.672866	0.000040
 257	2.5472e+01	2.5418	-7.518932	0.000414	4.135740	0.700613	0.000041
 258	2.5572e+01	2.5533	-7.475754	0.000434	4.340480	0.735297	0.000043
 259	2.5671e+01	2.5644	-7.434205	0.000418	4.176688	0.707550	0.000042
 260	2.5770e+01	2.5719	-7.391842	0.000426	4.258584	0.721424	0.000043
 261	2.5870e+01	2.5820	-7.347034	0.000450	4.504272	0.763044	0.000045
 262	2.5970e+01	2.5927	-7.305078	0.000422	4.217636	0.714487	0.000042
 263	2.6069e+01	2.6044	-7.264343	0.000409	4.094792	0.693677	0.000041
 264	2.6169e+01	2.6128	-7.221165	0.000434	4.340480	0.735297	0.000043
 265	2.6268e+01	2.6206	-7.178801	0.000426	4.258584	0.721424	0.000043
 266	2.6367e+01	2.6331	-7.135623	0.000434	4.340480	0.735297	0.000043
 267	2.6467e+01	2.6414	-7.098148	0.000377	3.767209	0.638182	0.000038
 268	2.6567e+01	2.6539	-7.055377	0.000430	4.299532	0.728360	0.000043
 269	2.6666e+01	2.6641	-7.013013	0.000426	4.258584	0.721424	0.000043
 270	2.6765e+01	2.6727	-6.972686	0.000405	4.053844	0.686740	0.000041
 271	2.6865e+01	2.6819	-6.927471	0.000455	4.545220	0.769981	0.000045
 272	2.6965e+01	2.6929	-6.887959	0.000397	3.971949	0.672866	0.000040
 273	2.7064e+01	2.7014	-6.848447	0.000397	3.971949	0.672866	0.000040
 274	2.7163e+01	2.7115	-6.804861	0.000438	4.381428	0.742234	0.000044
 275	2.7263e+01	2.7216	-6.762090	0.000430	4.299532	0.728360	0.000043
 276	2.7363e+01	2.7316	-6.718504	0.000438	4.381428	0.742234	0.000044
 277	2.7462e+01	2.7399	-6.674919	0.000438	4.381428	0.742234	0.000044
 278	2.7561e+01	2.7529	-6.636221	0.000389	3.890053	0.658993	0.000039
 279	2.7661e+01	2.7634	-6.590599	0.000459	4.586167	0.776918	0.000046
 280	2.7761e+01	2.7715	-6.546198	0.000446	4.463324	0.756107	0.000045
 281	2.7860e+01	2.7821	-6.500983	0.000455	4.545220	0.769981	0.000045
 282	2.7959e+01	2.7921	-6.457805	0.000434	4.340480	0.735297	0.000043
 283	2.8059e+01	2.8013	-6.415034	0.000430	4.299532	0.728360	0.000043
 284	2.8159e+01	2.8120	-6.374707	0.000405	4.053844	0.686740	0.000041
 285	2.8258e+01	2.8227	-6.327863	0.000471	4.709011	0.797728	0.000047
 286	2.8358e+01	2.8293	-6.285907	0.000422	4.217636	0.714487	0.000042
 287	2.8457e+01	2.8414	-6.244358	0.000418	4.176688	0.707550	0.000042
 288	2.8556e+01	2.8487	-6.200772	0.000438	4.381428	0.742234	0.000044
 289	2.8656e+01	2.8642	-6.159223	0.000418	4.176688	0.707550	0.000042
 290	2.8756e+01	2.8691	-6.117267	0.000422	4.217636	0.714487	0.000042
 291	2.8855e+01	2.8848	-6.070830	0.000467	4.668063	0.790791	0.000047
 292	2.8954e+01	2.8930	-6.028873	0.000422	4.217636	0.714487	0.000042
 293	2.9054e+01	2.9011	-5.987732	0.000414	4.135740	0.700613	0.000041
 294	2.9154e+01	2.9113	-5.941702	0.000463	4.627115	0.783855	0.000046
 295	2.9253e+01	2.9224	-5.898524	0.000434	4.340480	0.735297	0.000043
 296	2.9352e+01	2.9313	-5.853716	0.000450	4.504272	0.763044	0.000045
 297	2.9452e+01	2.9406	-5.811760	0.000422	4.217636	0.714487	0.000042
 298	2.9552e+01	2.9502	-5.764101	0.000479	4.790907	0.811602	0.000048
 299	2.9651e+01	2.9620	-5.723367	0.000409	4.094792	0.693677	0.000041
 300	2.9750e+01	2.9726	-5.679781	0.000438	4.381428	0.742234	0.000044
 301	2.9850e+01	2.9780	-5.641491	0.000385	3.849105	0.652056	0.000038
 302	2.9950e+01	2.9899	-5.598720	0.000430	4.299532	0.728360	0.000043
 303	3.0049e+01	3.0001	-5.555541	0.000434	4.340480	0.735297	0.000043
 304	3.0148e+01	3.0114	-5.516844	0.000389	3.890053	0.658993	0.000039
 305	3.0248e+01	3.0183	-5.475702	0.000414	4.135740	0.700613	0.000041
 306	3.0348e+01	3.0302	-5.432524	0.000434	4.340480	0.735297	0.000043
 307	3.0447e+01	3.0397	-5.391790	0.000409	4.094792	0.693677	0.000041
 308	3.0547e+01	3.0497	-5.348204	0.000438	4.381428	0.742234	0.000044
 309	3.0646e+01	3.0620	-5.306655	0.000418	4.176688	0.707550	0.000042
 310	3.0745e+01	3.0711	-5.263884	0.000430	4.299532	0.728360	0.000043
 311	3.0845e+01	3.0804	-5.223150	0.000409	4.094792	0.693677	0.000041
 312	3.0945e+01	3.0897	-5.181194	0.000422	4.217636	0.714487	0.000042
 313	3.1044e+01	3.0985	-5.139237	0.000422	4.217636	0.714487	0.000042
 314	3.1143e+01	3.1086	-5.097688	0.000418	4.176688	0.707550	0.000042
 315	3.1243e+01	3.1207	-5.059398	0.000385	3.849105	0.652056	0.000038
 316	3.1343e+01	3.1291	-5.018257	0.000414	4.135740	0.700613	0.000041
 317	3.1442e+01	3.1409	-4.977930	0.000405	4.053844	0.686740	0.000041
 318	3.1541e+01	3.1477	-4.935973	0.000422	4.217636	0.714487	0.000042
 319	3.1641e+01	3.1602	-4.895239	0.000409	4.094792	0.693677	0.000041
 320	3.1741e+01	3.1702	-4.853690	0.000418	4.176688	0.707550	0.000042
 321	3.1840e+01	3.1829	-4.809697	0.000442	4.422376	0.749171	0.000044
 322	3.1939e+01	3.1905	-4.767741	0.000422	4.217636	0.714487	0.000042
 323	3.2039e+01	3.2006	-4.722119	0.000459	4.586167	0.776918	0.000046
 324	3.2139e+01	3.2081	-4.681384	0.000409	4.094792	0.693677	0.000041
 325	3.2238e+01	3.2187	-4.638206	0.000434	4.340480	0.735297	0.000043
 326	3.2337e+01	3.2299	-4.595435	0.000430	4.299532	0.728360	0.000043
 327	3.2437e+01	3.2388	-4.552664	0.000430	4.299532	0.728360	0.000043
 328	3.2536e+01	3.2509	-4.507449	0.000455	4.545220	0.769981	0.000045
 329	3.2636e+01	3.2585	-4.465085	0.000426	4.258584	0.721424	0.000043
 330	3.2736e+01	3.2680	-4.422314	0.000430	4.299532	0.728360	0.000043
 331	3.2835e+01	3.2777	-4.377507	0.000450	4.504272	0.763044	0.000045
 332	3.2934e+01	3.2880	-4.339217	0.000385	3.849105	0.652056	0.000038
 333	3.3034e+01	3.2998	-4.290743	0.000487	4.872803	0.825475	0.000049
 334	3.3133e+01	3.3097	-4.251231	0.000397	3.971949	0.672866	0.000040
 335	3.3233e+01	3.3192	-4.205608	0.000459	4.586167	0.776918	0.000046
 336	3.3333e+01	3.3266	-4.162837	0.000430	4.299532	0.728360	0.000043
 337	3.3432e+01	3.3376	-4.119252	0.000438	4.381428	0.742234	0.000044
 338	3.3532e+01	3.3485	-4.073629	0.000459	4.586167	0.776918	0.000046
 339	3.3631e+01	3.3595	-4.025970	0.000479	4.790907	0.811602	0.000048
 340	3.3730e+01	3.3678	-3.979533	0.000467	4.668063	0.790791	0.000047
 341	3.3830e+01	3.3772	-3.935133	0.000446	4.463324	0.756107	0.000045
 342	3.3929e+01	3.3890	-3.892769	0.000426	4.258584	0.721424	0.000043
 343	3.4029e+01	3.3987	-3.845110	0.000479	4.790907	0.811602	0.000048
 344	3.4129e+01	3.4101	-3.802746	0.000426	4.258584	0.721424	0.000043
 345	3.4228e+01	3.4191	-3.757939	0.000450	4.504272	0.763044	0.000045
 346	3.4328e+01	3.4305	-3.710687	0.000475	4.749959	0.804665	0.000047
 347	3.4427e+01	3.4389	-3.670767	0.000401	4.012897	0.679803	0.000040
 348	3.4526e+01	3.4489	-3.621886	0.000491	4.913751	0.832412	0.000049
 349	3.4626e+01	3.4618	-3.575857	0.000463	4.627115	0.783855	0.000046
 350	3.4725e+01	3.4693	-3.531456	0.000446	4.463324	0.756107	0.000045
 351	3.4825e+01	3.4766	-3.488278	0.000434	4.340480	0.735297	0.000043
 352	3.4925e+01	3.4890	-3.442248	0.000463	4.627115	0.783855	0.000046
 353	3.5024e+01	3.4963	-3.396626	0.000459	4.586167	0.776918	0.000046
 354	3.5123e+01	3.5079	-3.352633	0.000442	4.422376	0.749171	0.000044
 355	3.5223e+01	3.5188	-3.309455	0.000434	4.340480	0.735297	0.000043
 356	3.5322e+01	3.5297	-3.265462	0.000442	4.422376	0.749171	0.000044
 357	3.5422e+01	3.5367	-3.221061	0.000446	4.463324	0.756107	0.000045
 358	3.5522e+01	3.5487	-3.173809	0.000475	4.749959	0.804665	0.000047
 359	3.5621e+01	3.5589	-3.132668	0.000414	4.135740	0.700613	0.000041
 360	3.5721e+01	3.5686	-3.089490	0.000434	4.340480	0.735297	0.000043
 361	3.5820e+01	3.5778	-3.047533	0.000422	4.217636	0.714487	0.000042
 362	3.5919e+01	3.5847	-3.004355	0.000434	4.340480	0.735297	0.000043
 363	3.6019e+01	3.5996	-2.957918	0.000467	4.668063	0.790791	0.000047
 364	3.6118e+01	3.6075	-2.917998	0.000401	4.012897	0.679803	0.000040
 365	3.6218e+01	3.6185	-2.877264	0.000409	4.094792	0.693677	0.000041
 366	3.6318e+01	3.6288	-2.834900	0.000426	4.258584	0.721424	0.000043
 367	3.6417e+01	3.6369	-2.790093	0.000450	4.504272	0.763044	0.000045
 368	3.6517e+01	3.6475	-2.751395	0.000389	3.890053	0.658993	0.000039
 369	3.6616e+01	3.6558	-2.709846	0.000418	4.176688	0.707550	0.000042
 370	3.6715e+01	3.6647	-2.663409	0.000467	4.668063	0.790791	0.000047
 371	3.6815e+01	3.6787	-2.622675	0.000409	4.094792	0.693677	0.000041
 372	3.6914e+01	3.6866	-2.580719	0.000422	4.217636	0.714487	0.000042
 373	3.7014e+01	3.6968	-2.539170	0.000418	4.176688	0.707550	0.000042
 374	3.7114e+01	3.7072	-2.496806	0.000426	4.258584	0.721424	0.000043
 375	3.7213e+01	3.7176	-2.454035	0.000430	4.299532	0.728360	0.000043
 376	3.7313e+01	3.7257	-2.409228	0.000450	4.504272	0.763044	0.000045
 377	3.7412e+01	3.7371	-2.372567	0.000369	3.685313	0.624309	0.000037
 378	3.7511e+01	3.7465	-2.329796	0.000430	4.299532	0.728360	0.000043
 379	3.7611e+01	3.7592	-2.286617	0.000434	4.340480	0.735297	0.000043
 380	3.7711e+01	3.7648	-2.248735	0.000381	3.808157	0.645119	0.000038
 381	3.7810e+01	3.7780	-2.204334	0.000446	4.463324	0.756107	0.000045
 382	3.7910e+01	3.7859	-2.161563	0.000430	4.299532	0.728360	0.000043
 383	3.8009e+01	3.7956	-2.124495	0.000373	3.726261	0.631246	0.000037
 384	3.8108e+01	3.8058	-2.082539	0.000422	4.217636	0.714487	0.000042
 385	3.8208e+01	3.8172	-2.040175	0.000426	4.258584	0.721424	0.000043
 386	3.8307e+01	3.8251	-1.995775	0.000446	4.463324	0.756107	0.000045
 387	3.8407e+01	3.8351	-1.950967	0.000450	4.504272	0.763044	0.000045
 388	3.8507e+01	3.8451	-1.909011	0.000422	4.217636	0.714487	0.000042
 389	3.8606e+01	3.8568	-1.865425	0.000438	4.381428	0.742234	0.000044
 390	3.8706e+01	3.8647	-1.823876	0.000418	4.176688	0.707550	0.000042
 391	3.8805e+01	3.8760	-1.782735	0.000414	4.135740	0.700613	0.000041
 392	3.8904e+01	3.8873	-1.744037	0.000389	3.890053	0.658993	0.000039
 393	3.9004e+01	3.8959	-1.699637	0.000446	4.463324	0.756107	0.000045
 394	3.9103e+01	3.9049	-1.660125	0.000397	3.971949	0.672866	0.000040
 395	3.9203e+01	3.9155	-1.616539	0.000438	4.381428	0.742234	0.000044
 396	3.9303e+01	3.9248	-1.571324	0.000455	4.545220	0.769981	0.000045
 397	3.9402e+01	3.9361	-1.529368	0.000422	4.217636	0.714487	0.000042
 398	3.9502e+01	3.9446	-1.485375	0.000442	4.422376	0.749171	0.000044
 399	3.9601e+01	3.9539	-1.442604	0.000430	4.299532	0.728360	0.000043
 400	3.9700e+01	3.9673	-1.403091	0.000397	3.971949	0.672866	0.000040
 401	3.9800e+01	3.9786	-1.358691	0.000446	4.463324	0.756107	0.000045
 402	3.9900e+01	3.9870	-1.322438	0.000364	3.644365	0.617372	0.000036
 403	3.9999e+01	3.9953	-1.275593	0.000471	4.709011	0.797728	0.000047
 404	4.0099e+01	4.0075	-1.236896	0.000389	3.890053	0.658993	0.000039
 405	4.0198e+01	4.0142	-1.192903	0.000442	4.422376	0.749171	0.000044
 406	4.0297e+01	4.0260	-1.153390	0.000397	3.971949	0.672866	0.000040
 407	4.0397e+01	4.0347	-1.112656	0.000409	4.094792	0.693677	0.000041
 408	4.0496e+01	4.0436	-1.076810	0.000360	3.603417	0.610435	0.000036
 409	4.0596e+01	4.0539	-1.036890	0.000401	4.012897	0.679803	0.000040
 410	4.0696e+01	4.0654	-0.997378	0.000397	3.971949	0.672866	0.000040
 411	4.0795e+01	4.0755	-0.953793	0.000438	4.381428	0.742234	0.000044
 412	4.0895e+01	4.0845	-0.915502	0.000385	3.849105	0.652056	0.000038
 413	4.0994e+01	4.0961	-0.875990	0.000397	3.971949	0.672866	0.000040
 414	4.1093e+01	4.1044	-0.836478	0.000397	3.971949	0.672866	0.000040
 415	4.1193e+01	4.1138	-0.800224	0.000364	3.644365	0.617372	0.000036
 416	4.1292e+01	4.1259	-0.757453	0.000430	4.299532	0.728360	0.000043
 417	4.1392e+01	4.1354	-0.714275	0.000434	4.340480	0.735297	0.000043
 418	4.1492e+01	4.1431	-0.681688	0.000328	3.275834	0.554941	0.000033
 419	4.1591e+01	4.1567	-0.643805	0.000381	3.808157	0.645119	0.000038
 420	4.1691e+01	4.1624	-0.604700	0.000393	3.931001	0.665930	0.000039
 421	4.1790e+01	4.1764	-0.565595	0.000393	3.931001	0.665930	0.000039
 422	4.1889e+01	4.1827	-0.529749	0.000360	3.603417	0.610435	0.000036
 423	4.1989e+01	4.1938	-0.490644	0.000393	3.931001	0.665930	0.000039
 424	4.2089e+01	4.2056	-0.454391	0.000364	3.644365	0.617372	0.000036
 425	4.2188e+01	4.2139	-0.422211	0.000323	3.234886	0.548005	0.000032
 426	4.2288e+01	4.2274	-0.382698	0.000397	3.971949	0.672866	0.000040
 427	4.2387e+01	4.2334	-0.341964	0.000409	4.094792	0.693677	0.000041
 428	4.2486e+01	4.2451	-0.308155	0.000340	3.398678	0.575752	0.000034
 429	4.2586e+01	4.2549	-0.267013	0.000414	4.135740	0.700613	0.000041
 430	4.2685e+01	4.2650	-0.234426	0.000328	3.275834	0.554941	0.000033
 431	4.2785e+01	4.2773	-0.194913	0.000397	3.971949	0.672866	0.000040
 432	4.2885e+01	4.2831	-0.158660	0.000364	3.644365	0.617372	0.000036
 433	4.2984e+01	4.2909	-0.120777	0.000381	3.808157	0.645119	0.000038
 434	4.3084e+01	4.3046	-0.085338	0.000356	3.562469	0.603499	0.000036
 435	4.3183e+01	4.3136	-0.049085	0.000364	3.644365	0.617372	0.000036
 436	4.3282e+01	4.3217	-0.012424	0.000369	3.685313	0.624309	0.000037
 437	4.3382e+01	4.3329	0.024644	0.000373	3.726261	0.631246	0.000037
 438	4.3481e+01	4.3433	0.060490	0.000360	3.603417	0.610435	0.000036
 439	4.3581e+01	4.3579	0.095929	0.000356	3.562469	0.603499	0.000036
 440	4.3681e+01	4.3659	0.129739	0.000340	3.398678	0.575752	0.000034
 441	4.3780e+01	4.3746	0.170066	0.000405	4.053844	0.686740	0.000041
 442	4.3880e+01	4.3845	0.205912	0.000360	3.603417	0.610435	0.000036
 443	4.3979e+01	4.3922	0.243387	0.000377	3.767209	0.638182	0.000038
 444	4.4078e+01	4.4032	0.283714	0.000405	4.053844	0.686740	0.000041
 445	4.4178e+01	4.4111	0.315894	0.000323	3.234886	0.548005	0.000032
 446	4.4278e+01	4.4223	0.359887	0.000442	4.422376	0.749171	0.000044
 447	4.4377e+01	4.4328	0.396955	0.000373	3.726261	0.631246	0.000037
 448	4.4477e+01	4.4450	0.436875	0.000401	4.012897	0.679803	0.000040
 449	4.4576e+01	4.4503	0.472314	0.000356	3.562469	0.603499	0.000036
 450	4.4675e+01	4.4625	0.507752	0.000356	3.562469	0.603499	0.000036
 451	4.4775e+01	4.4730	0.549709	0.000422	4.217636	0.714487	0.000042
 452	4.4874e+01	4.4859	0.585148	0.000356	3.562469	0.603499	0.000036
 453	4.4974e+01	4.4939	0.625474	0.000405	4.053844	0.686740	0.000041
 454	4.5074e+01	4.5014	0.664987	0.000397	3.971949	0.672866	0.000040
 455	4.5173e+01	4.5151	0.698796	0.000340	3.398678	0.575752	0.000034
 456	4.5273e+01	4.5227	0.740345	0.000418	4.176688	0.707550	0.000042
 457	4.5372e+01	4.5362	0.774969	0.000348	3.480573	0.589625	0.000035
 458	4.5471e+01	4.5409	0.816111	0.000414	4.135740	0.700613	0.000041
 459	4.5571e+01	4.5525	0.851957	0.000360	3.603417	0.610435	0.000036
 460	4.5670e+01	4.5600	0.888618	0.000369	3.685313	0.624309	0.000037
 461	4.5770e+01	4.5704	0.930167	0.000418	4.176688	0.707550	0.000042
 462	4.5870e+01	4.5850	0.968050	0.000381	3.808157	0.645119	0.000038
 463	4.5969e+01	4.5929	1.007969	0.000401	4.012897	0.679803	0.000040
 464	4.6069e+01	4.6032	1.046667	0.000389	3.890053	0.658993	0.000039
 465	4.6168e+01	4.6098	1.080883	0.000344	3.439626	0.582688	0.000034
 466	4.6267e+01	4.6201	1.121618	0.000409	4.094792	0.693677	0.000041
 467	4.6367e+01	4.6338	1.159093	0.000377	3.767209	0.638182	0.000038
 468	4.6467e+01	4.6421	1.196569	0.000377	3.767209	0.638182	0.000038
 469	4.6566e+01	4.6551	1.232415	0.000360	3.603417	0.610435	0.000036
 470	4.6666e+01	4.6605	1.267446	0.000352	3.521521	0.596562	0.000035
 471	4.6765e+01	4.6729	1.302885	0.000356	3.562469	0.603499	0.000036
 472	4.6864e+01	4.6837	1.340361	0.000377	3.767209	0.638182	0.000038
 473	4.6964e+01	4.6924	1.375799	0.000356	3.562469	0.603499	0.000036
 474	4.7063e+01	4.7005	1.416126	0.000405	4.053844	0.686740	0.000041
 475	4.7163e+01	4.7134	1.452787	0.000369	3.685313	0.624309	0.000037
 476	4.7263e+01	4.7231	1.489041	0.000364	3.644365	0.617372	0.000036
 477	4.7362e+01	4.7301	1.526516	0.000377	3.767209	0.638182	0.000038
 478	4.7462e+01	4.7410	1.563992	0.000377	3.767209	0.638182	0.000038
 479	4.7561e+01	4.7546	1.599838	0.000360	3.603417	0.610435	0.000036
 480	4.7660e+01	4.7625	1.638535	0.000389	3.890053	0.658993	0.000039
 481	4.7760e+01	4.7710	1.670715	0.000323	3.234886	0.548005	0.000032
 482	4.7859e+01	4.7816	1.707784	0.000373	3.726261	0.631246	0.000037
 483	4.7959e+01	4.7912	1.743630	0.000360	3.603417	0.610435	0.000036
 484	4.8059e+01	4.8016	1.778254	0.000348	3.480573	0.589625	0.000035
 485	4.8158e+01	4.8111	1.815729	0.000377	3.767209	0.638182	0.000038
 486	4.8258e+01	4.8223	1.849539	0.000340	3.398678	0.575752	0.000034
 487	4.8357e+01	4.8336	1.888236	0.000389	3.890053	0.658993	0.000039
 488	4.8456e+01	4.8446	1.926119	0.000381	3.808157	0.645119	0.000038
 489	4.8556e+01	4.8543	1.964002	0.000381	3.808157	0.645119	0.000038
 490	4.8656e+01	4.8635	2.004329	0.000405	4.053844	0.686740	0.000041
 491	4.8755e+01	4.8719	2.037731	0.000336	3.357730	0.568815	0.000034
 492	4.8855e+01	4.8804	2.078873	0.000414	4.135740	0.700613	0.000041
 493	4.8954e+01	4.8914	2.119607	0.000409	4.094792	0.693677	0.000041
 494	4.9053e+01	4.9023	2.154638	0.000352	3.521521	0.596562	0.000035
 495	4.9153e+01	4.9099	2.193336	0.000389	3.890053	0.658993	0.000039
 496	4.9252e+01	4.9223	2.234885	0.000418	4.176688	0.707550	0.000042
 497	4.9352e+01	4.9302	2.270731	0.000360	3.603417	0.610435	0.000036
 498	4.9452e+01	4.9381	2.309021	0.000385	3.849105	0.652056	0.000038
 499	4.9551e+01	4.9515	2.348126	0.000393	3.931001	0.665930	0.000039
 500	4.9651e+01	4.9609	2.388046	0.000401	4.012897	0.679803	0.000040
 501	4.9750e+01	4.9700	2.423077	0.000352	3.521521	0.596562	0.000035
 502	4.9849e+01	4.9800	2.460553	0.000377	3.767209	0.638182	0.000038
 503	4.9949e+01	4.9895	2.501694	0.000414	4.135740	0.700613	0.000041
 504	5.0048e+01	5.0024	2.540392	0.000389	3.890053	0.658993	0.000039
 505	5.0148e+01	5.0106	2.581533	0.000414	4.135740	0.700613	0.000041
 506	5.0248e+01	5.0217	2.621860	0.000405	4.053844	0.686740	0.000041
 507	5.0347e+01	5.0330	2.662595	0.000409	4.094792	0.693677	0.000041
 508	5.0447e+01	5.0385	2.700070	0.000377	3.767209	0.638182	0.000038
 509	5.0546e+01	5.0517	2.744470	0.000446	4.463324	0.756107	0.000045
 510	5.0645e+01	5.0587	2.786019	0.000418	4.176688	0.707550	0.000042
 511	5.0745e+01	5.0707	2.821458	0.000356	3.562469	0.603499	0.000036
 512	5.0844e+01	5.0816	2.861378	0.000401	4.012897	0.679803	0.000040
 513	5.0944e+01	5.0900	2.902519	0.000414	4.135740	0.700613	0.000041
 514	5.1044e+01	5.0988	2.940402	0.000381	3.808157	0.645119	0.000038
 515	5.1143e+01	5.1089	2.983173	0.000430	4.299532	0.728360	0.000043
 516	5.1242e+01	5.1177	3.023500	0.000405	4.053844	0.686740	0.000041
 517	5.1342e+01	5.1279	3.066271	0.000430	4.299532	0.728360	0.000043
 518	5.1441e+01	5.1404	3.104561	0.000385	3.849105	0.652056	0.000038
 519	5.1541e+01	5.1492	3.143259	0.000389	3.890053	0.658993	0.000039
 520	5.1641e+01	5.1608	3.183586	0.000405	4.053844	0.686740	0.000041
 521	5.1740e+01	5.1696	3.223098	0.000397	3.971949	0.672866	0.000040
 522	5.1840e+01	5.1800	3.265462	0.000426	4.258584	0.721424	0.000043
 523	5.1939e+01	5.1917	3.300900	0.000356	3.562469	0.603499	0.000036
 524	5.2038e+01	5.1990	3.346523	0.000459	4.586167	0.776918	0.000046
 525	5.2138e+01	5.2076	3.381554	0.000352	3.521521	0.596562	0.000035
 526	5.2237e+01	5.2209	3.424733	0.000434	4.340480	0.735297	0.000043
 527	5.2337e+01	5.2290	3.457727	0.000332	3.316782	0.561878	0.000033
 528	5.2437e+01	5.2394	3.498869	0.000414	4.135740	0.700613	0.000041
 529	5.2536e+01	5.2490	3.535122	0.000364	3.644365	0.617372	0.000036
 530	5.2636e+01	5.2579	3.577079	0.000422	4.217636	0.714487	0.000042
 531	5.2735e+01	5.2726	3.614554	0.000377	3.767209	0.638182	0.000038
 532	5.2834e+01	5.2773	3.653252	0.000389	3.890053	0.658993	0.000039
 533	5.2934e+01	5.2898	3.690320	0.000373	3.726261	0.631246	0.000037
 534	5.3033e+01	5.2998	3.726573	0.000364	3.644365	0.617372	0.000036
 535	5.3133e+01	5.3086	3.764864	0.000385	3.849105	0.652056	0.000038
 536	5.3233e+01	5.3208	3.801524	0.000369	3.685313	0.624309	0.000037
 537	5.3332e+01	5.3281	3.843073	0.000418	4.176688	0.707550	0.000042
 538	5.3431e+01	5.3402	3.882993	0.000401	4.012897	0.679803	0.000040
 539	5.3531e+01	5.3477	3.918024	0.000352	3.521521	0.596562	0.000035
 540	5.3630e+01	5.3591	3.952648	0.000348	3.480573	0.589625	0.000035
 541	5.3730e+01	5.3696	3.995012	0.000426	4.258584	0.721424	0.000043
 542	5.3830e+01	5.3820	4.029229	0.000344	3.439626	0.582688	0.000034
 543	5.3929e+01	5.3886	4.064668	0.000356	3.562469	0.603499	0.000036
 544	5.4029e+01	5.3995	4.105402	0.000409	4.094792	0.693677	0.000041
 545	5.4128e+01	5.4095	4.142063	0.000369	3.685313	0.624309	0.000037
 546	5.4227e+01	5.4205	4.177909	0.000360	3.603417	0.610435	0.000036
 547	5.4327e+01	5.4279	4.218236	0.000405	4.053844	0.686740	0.000041
 548	5.4426e+01	5.4369	4.251638	0.000336	3.357730	0.568815	0.000034
 549	5.4526e+01	5.4475	4.289928	0.000385	3.849105	0.652056	0.000038
 550	5.4626e+01	5.4580	4.326589	0.000369	3.685313	0.624309	0.000037
 551	5.4725e+01	5.4688	4.362028	0.000356	3.562469	0.603499	0.000036
 552	5.4825e+01	5.4797	4.403984	0.000422	4.217636	0.714487	0.000042
 553	5.4924e+01	5.4870	4.437793	0.000340	3.398678	0.575752	0.000034
 554	5.5023e+01	5.5003	4.483008	0.000455	4.545220	0.769981	0.000045
 555	5.5123e+01	5.5078	4.521299	0.000385	3.849105	0.652056	0.000038
 556	5.5222e+01	5.5209	4.560404	0.000393	3.931001	0.665930	0.000039
 557	5.5322e+01	5.5283	4.592991	0.000328	3.275834	0.554941	0.000033
 558	5.5422e+01	5.5366	4.634540	0.000418	4.176688	0.707550	0.000042
 559	5.5521e+01	5.5465	4.672015	0.000377	3.767209	0.638182	0.000038
 560	5.5620e+01	5.5581	4.707047	0.000352	3.521521	0.596562	0.000035
 561	5.5720e+01	5.5724	4.746152	0.000393	3.931001	0.665930	0.000039
 562	5.5819e+01	5.5810	4.785257	0.000393	3.931001	0.665930	0.000039
 563	5.5919e+01	5.5883	4.823139	0.000381	3.808157	0.645119	0.000038
 564	5.6019e+01	5.5987	4.858986	0.000360	3.603417	0.610435	0.000036
 565	5.6118e+01	5.6060	4.900942	0.000422	4.217636	0.714487	0.000042
 566	5.6218e+01	5.6162	4.934344	0.000336	3.357730	0.568815	0.000034
 567	5.6317e+01	5.6305	4.975078	0.000409	4.094792	0.693677	0.000041
 568	5.6416e+01	5.6361	5.014590	0.000397	3.971949	0.672866	0.000040
 569	5.6516e+01	5.6469	5.053695	0.000393	3.931001	0.665930	0.000039
 570	5.6615e+01	5.6572	5.089542	0.000360	3.603417	0.610435	0.000036
 571	5.6715e+01	5.6687	5.128239	0.000389	3.890053	0.658993	0.000039
 572	5.6815e+01	5.6763	5.161641	0.000336	3.357730	0.568815	0.000034
 573	5.6914e+01	5.6863	5.197487	0.000360	3.603417	0.610435	0.000036
 574	5.7014e+01	5.6959	5.233741	0.000364	3.644365	0.617372	0.000036
 575	5.7113e+01	5.7078	5.272438	0.000389	3.890053	0.658993	0.000039
 576	5.7212e+01	5.7165	5.307470	0.000352	3.521521	0.596562	0.000035
 577	5.7312e+01	5.7285	5.340872	0.000336	3.357730	0.568815	0.000034
 578	5.7411e+01	5.7375	5.377533	0.000369	3.685313	0.624309	0.000037
 579	5.7511e+01	5.7449	5.412971	0.000356	3.562469	0.603499	0.000036
 580	5.7611e+01	5.7565	5.446781	0.000340	3.398678	0.575752	0.000034
 581	5.7710e+01	5.7667	5.484256	0.000377	3.767209	0.638182	0.000038
 582	5.7809e+01	5.7795	5.520103	0.000360	3.603417	0.610435	0.000036
 583	5.7909e+01	5.7841	5.555134	0.000352	3.521521	0.596562	0.000035
 584	5.8008e+01	5.7973	5.590166	0.000352	3.521521	0.596562	0.000035
 585	5.8108e+01	5.8065	5.621938	0.000319	3.193938	0.541068	0.000032
 586	5.8208e+01	5.8180	5.655340	0.000336	3.357730	0.568815	0.000034
 587	5.8307e+01	5.8254	5.690779	0.000356	3.562469	0.603499	0.000036
 588	5.8407e+01	5.8379	5.729477	0.000389	3.890053	0.658993	0.000039
 589	5.8506e+01	5.8473	5.759620	0.000303	3.030146	0.513321	0.000030
 590	5.8605e+01	5.8560	5.790985	0.000315	3.152990	0.534131	0.000032
 591	5.8705e+01	5.8678	5.826424	0.000356	3.562469	0.603499	0.000036
 592	5.8804e+01	5.8774	5.859012	0.000328	3.275834	0.554941	0.000033
 593	5.8904e+01	5.8874	5.894043	0.000352	3.521521	0.596562	0.000035
 594	5.9004e+01	5.8968	5.922150	0.000283	2.825407	0.478637	0.000028
 595	5.9103e+01	5.9089	5.956774	0.000348	3.480573	0.589625	0.000035
 596	5.9203e+01	5.9161	5.992620	0.000360	3.603417	0.610435	0.000036
 597	5.9302e+01	5.9261	6.027244	0.000348	3.480573	0.589625	0.000035
 598	5.9401e+01	5.9345	6.056165	0.000291	2.907303	0.492510	0.000029
 599	5.9501e+01	5.9492	6.090790	0.000348	3.480573	0.589625	0.000035
 600	5.9600e+01	5.9573	6.124192	0.000336	3.357730	0.568815	0.000034
 601	5.9700e+01	5.9646	6.152706	0.000287	2.866355	0.485574	0.000029
 602	5.9800e+01	5.9753	6.186922	0.000344	3.439626	0.582688	0.000034
 603	5.9899e+01	5.9861	6.219917	0.000332	3.316782	0.561878	0.000033
 604	5.9998e+01	5.9955	6.253319	0.000336	3.357730	0.568815	0.000034
 605	6.0098e+01	6.0059	6.285499	0.000323	3.234886	0.548005	0.000032
 606	6.0197e+01	6.0163	6.314013	0.000287	2.866355	0.485574	0.000029
 607	6.0297e+01	6.0249	6.349452	0.000356	3.562469	0.603499	0.000036
 608	6.0397e+01	6.0332	6.381225	0.000319	3.193938	0.541068	0.000032
 609	6.0496e+01	6.0465	6.411775	0.000307	3.071094	0.520257	0.000031
 610	6.0596e+01	6.0542	6.446400	0.000348	3.480573	0.589625	0.000035
 611	6.0695e+01	6.0663	6.482246	0.000360	3.603417	0.610435	0.000036
 612	6.0794e+01	6.0773	6.513611	0.000315	3.152990	0.534131	0.000032
 613	6.0894e+01	6.0836	6.551901	0.000385	3.849105	0.652056	0.000038
 614	6.0993e+01	6.0949	6.583674	0.000319	3.193938	0.541068	0.000032
 615	6.1093e+01	6.1052	6.616261	0.000328	3.275834	0.554941	0.000033
 616	6.1193e+01	6.1155	6.652922	0.000369	3.685313	0.624309	0.000037
 617	6.1292e+01	6.1240	6.687139	0.000344	3.439626	0.582688	0.000034
 618	6.1392e+01	6.1352	6.722170	0.000352	3.521521	0.596562	0.000035
 619	6.1491e+01	6.1468	6.757609	0.000356	3.562469	0.603499	0.000036
 620	6.1590e+01	6.1559	6.788160	0.000307	3.071094	0.520257	0.000031
 621	6.1690e+01	6.1645	6.822784	0.000348	3.480573	0.589625	0.000035
 622	6.1789e+01	6.1764	6.854964	0.000323	3.234886	0.548005	0.000032
 623	6.1889e+01	6.1878	6.891625	0.000369	3.685313	0.624309	0.000037
 624	6.1989e+01	6.1915	6.925027	0.000336	3.357730	0.568815	0.000034
 625	6.2088e+01	6.2054	6.961281	0.000364	3.644365	0.617372	0.000036
 626	6.2188e+01	6.2151	6.993868	0.000328	3.275834	0.554941	0.000033
 627	6.2287e+01	6.2237	7.026048	0.000323	3.234886	0.548005	0.000032
 628	6.2386e+01	6.2342	7.064338	0.000385	3.849105	0.652056	0.000038
 629	6.2486e+01	6.2437	7.097333	0.000332	3.316782	0.561878	0.000033
 630	6.2586e+01	6.2547	7.133179	0.000360	3.603417	0.610435	0.000036
 631	6.2685e+01	6.2637	7.164137	0.000311	3.112042	0.527194	0.000031
 632	6.2785e+01	6.2762	7.201205	0.000373	3.726261	0.631246	0.000037
 633	6.2884e+01	6.2853	7.234200	0.000332	3.316782	0.561878	0.000033
 634	6.2983e+01	6.2943	7.272083	0.000381	3.808157	0.645119	0.000038
 635	6.3083e+01	6.3027	7.297338	0.000254	2.538771	0.430079	0.000025
 636	6.3182e+01	6.3135	7.331148	0.000340	3.398678	0.575752	0.000034
 637	6.3282e+01	6.3227	7.365364	0.000344	3.439626	0.582688	0.000034
 638	6.3382e+01	6.3345	7.397137	0.000319	3.193938	0.541068	0.000032
 639	6.3481e+01	6.3416	7.428502	0.000315	3.152990	0.534131	0.000032
 640	6.3581e+01	6.3517	7.461497	0.000332	3.316782	0.561878	0.000033
 641	6.3680e+01	6.3621	7.500195	0.000389	3.890053	0.658993	0.000039
 642	6.3779e+01	6.3735	7.531560	0.000315	3.152990	0.534131	0.000032
 643	6.3879e+01	6.3822	7.563740	0.000323	3.234886	0.548005	0.000032
 644	6.3978e+01	6.3949	7.599179	0.000356	3.562469	0.603499	0.000036
 645	6.4078e+01	6.4038	7.630137	0.000311	3.112042	0.527194	0.000031
 646	6.4177e+01	6.4149	7.665168	0.000352	3.521521	0.596562	0.000035
 647	6.4277e+01	6.4248	7.693275	0.000283	2.825407	0.478637	0.000028
 648	6.4376e+01	6.4327	7.729121	0.000360	3.603417	0.610435	0.000036
 649	6.4476e+01	6.4416	7.765375	0.000364	3.644365	0.617372	0.000036
 650	6.4576e+01	6.4561	7.791852	0.000266	2.661615	0.450890	0.000027
 651	6.4675e+01	6.4625	7.828920	0.000373	3.726261	0.631246	0.000037
 652	6.4775e+01	6.4709	7.859064	0.000303	3.030146	0.513321	0.000030
 653	6.4874e+01	6.4836	7.890022	0.000311	3.112042	0.527194	0.000031
 654	6.4974e+01	6.4935	7.923016	0.000332	3.316782	0.561878	0.000033
 655	6.5073e+01	6.5015	7.955604	0.000328	3.275834	0.554941	0.000033
 656	6.5172e+01	6.5128	7.990228	0.000348	3.480573	0.589625	0.000035
 657	6.5272e+01	6.5237	8.028925	0.000389	3.890053	0.658993	0.000039
 658	6.5371e+01	6.5316	8.060698	0.000319	3.193938	0.541068	0.000032
 659	6.5471e+01	6.5435	8.094915	0.000344	3.439626	0.582688	0.000034
 660	6.5570e+01	6.5527	8.128724	0.000340	3.398678	0.575752	0.000034
 661	6.5670e+01	6.5618	8.163348	0.000348	3.480573	0.589625	0.000035
 662	6.5769e+01	6.5745	8.198380	0.000352	3.521521	0.596562	0.000035
 663	6.5869e+01	6.5830	8.231782	0.000336	3.357730	0.568815	0.000034
 664	6.5969e+01	6.5918	8.268850	0.000373	3.726261	0.631246	0.000037
 665	6.6068e+01	6.6045	8.303882	0.000352	3.521521	0.596562	0.000035
 666	6.6168e+01	6.6090	8.334840	0.000311	3.112042	0.527194	0.000031
 667	6.6267e+01	6.6213	8.373130	0.000385	3.849105	0.652056	0.000038
 668	6.6367e+01	6.6293	8.408569	0.000356	3.562469	0.603499	0.000036
 669	6.6466e+01	6.6427	8.444007	0.000356	3.562469	0.603499	0.000036
 670	6.6566e+01	6.6530	8.474558	0.000307	3.071094	0.520257	0.000031
 671	6.6665e+01	6.6644	8.511626	0.000373	3.726261	0.631246	0.000037
 672	6.6764e+01	6.6723	8.549102	0.000377	3.767209	0.638182	0.000038
 673	6.6864e+01	6.6811	8.584133	0.000352	3.521521	0.596562	0.000035
 674	6.6963e+01	6.6961	8.622423	0.000385	3.849105	0.652056	0.000038
 675	6.7063e+01	6.7046	8.660306	0.000381	3.808157	0.645119	0.000038
 676	6.7162e+01	6.7092	8.695338	0.000352	3.521521	0.596562	0.000035
 677	6.7262e+01	6.7226	8.731184	0.000360	3.603417	0.610435	0.000036
 678	6.7362e+01	6.7318	8.772326	0.000414	4.135740	0.700613	0.000041
 679	6.7461e+01	6.7406	8.810616	0.000385	3.849105	0.652056	0.000038
 680	6.7561e+01	6.7510	8.841981	0.000315	3.152990	0.534131	0.000032
 681	6.7660e+01	6.7603	8.881901	0.000401	4.012897	0.679803	0.000040
 682	6.7760e+01	6.7727	8.915303	0.000336	3.357730	0.568815	0.000034
 683	6.7859e+01	6.7806	8.954408	0.000393	3.931001	0.665930	0.000039
 684	6.7959e+01	6.7901	8.989846	0.000356	3.562469	0.603499	0.000036
 685	6.8058e+01	6.8008	9.028137	0.000385	3.849105	0.652056	0.000038
 686	6.8157e+01	6.8095	9.066834	0.000389	3.890053	0.658993	0.000039
 687	6.8257e+01	6.8196	9.101458	0.000348	3.480573	0.589625	0.000035
 688	6.8356e+01	6.8317	9.139748	0.000385	3.849105	0.652056	0.000038
 689	6.8456e+01	6.8372	9.176409	0.000369	3.685313	0.624309	0.000037
 690	6.8555e+01	6.8530	9.213478	0.000373	3.726261	0.631246	0.000037
 691	6.8655e+01	6.8611	9.248102	0.000348	3.480573	0.589625	0.000035
 692	6.8754e+01	6.8732	9.285984	0.000381	3.808157	0.645119	0.000038
 693	6.8854e+01	6.8813	9.322238	0.000364	3.644365	0.617372	0.000036
 694	6.8954e+01	6.8915	9.357269	0.000352	3.521521	0.596562	0.000035
 695	6.9053e+01	6.8998	9.389042	0.000319	3.193938	0.541068	0.000032
 696	6.9153e+01	6.9101	9.426518	0.000377	3.767209	0.638182	0.000038
 697	6.9252e+01	6.9207	9.461956	0.000356	3.562469	0.603499	0.000036
 698	6.9352e+01	6.9282	9.496988	0.000352	3.521521	0.596562	0.000035
 699	6.9451e+01	6.9395	9.537315	0.000405	4.053844	0.686740	0.000041
 700	6.9550e+01	6.9482	9.562163	0.000250	2.497823	0.423143	0.000025
 701	6.9650e+01	6.9620	9.600046	0.000381	3.808157	0.645119	0.000038
 702	6.9749e+01	6.9683	9.632633	0.000328	3.275834	0.554941	0.000033
 703	6.9849e+01	6.9796	9.666035	0.000336	3.357730	0.568815	0.000034
 704	6.9948e+01	6.9910	9.699845	0.000340	3.398678	0.575752	0.000034
 705	7.0048e+01	7.0000	9.734876	0.000352	3.521521	0.596562	0.000035
 706	7.0147e+01	7.0109	9.771129	0.000364	3.644365	0.617372	0.000036
 707	7.0247e+01	7.0210	9.806976	0.000360	3.603417	0.610435	0.000036
 708	7.0347e+01	7.0306	9.841600	0.000348	3.480573	0.589625	0.000035
 709	7.0446e+01	7.0425	9.879075	0.000377	3.767209	0.638182	0.000038
 710	7.0546e+01	7.0509	9.910848	0.000319	3.193938	0.541068	0.000032
 711	7.0645e+01	7.0592	9.942213	0.000315	3.152990	0.534131	0.000032
 712	7.0745e+01	7.0708	9.981318	0.000393	3.931001	0.665930	0.000039
 713	7.0844e+01	7.0791	10.013498	0.000323	3.234886	0.548005	0.000032
 714	7.0944e+01	7.0884	10.042827	0.000295	2.948250	0.499447	0.000029
 715	7.1043e+01	7.0994	10.079895	0.000373	3.726261	0.631246	0.000037
 716	7.1142e+01	7.1067	10.115334	0.000356	3.562469	0.603499	0.000036
 717	7.1242e+01	7.1194	10.147514	0.000323	3.234886	0.548005	0.000032
 718	7.1341e+01	7.1294	10.178065	0.000307	3.071094	0.520257	0.000031
 719	7.1441e+01	7.1417	10.217170	0.000393	3.931001	0.665930	0.000039
 720	7.1540e+01	7.1502	10.250572	0.000336	3.357730	0.568815	0.000034
 721	7.1640e+01	7.1587	10.287640	0.000373	3.726261	0.631246	0.000037
 722	7.1740e+01	7.1707	10.321042	0.000336	3.357730	0.568815	0.000034
 723	7.1839e+01	7.1797	10.358110	0.000373	3.726261	0.631246	0.000037
 724	7.1939e+01	7.1896	10.392734	0.000348	3.480573	0.589625	0.000035
 725	7.2038e+01	7.1989	10.427766	0.000352	3.521521	0.596562	0.000035
 726	7.2138e+01	7.2073	10.457909	0.000303	3.030146	0.513321	0.000030
 727	7.2237e+01	7.2200	10.499051	0.000414	4.135740	0.700613	0.000041
 728	7.2337e+01	7.2298	10.529601	0.000307	3.071094	0.520257	0.000031
 729	7.2436e+01	7.2378	10.565855	0.000364	3.644365	0.617372	0.000036
 730	7.2535e+01	7.2488	10.598035	0.000323	3.234886	0.548005	0.000032
 731	7.2635e+01	7.2591	10.635103	0.000373	3.726261	0.631246	0.000037
 732	7.2734e+01	7.2706	10.672171	0.000373	3.726261	0.631246	0.000037
 733	7.2834e+01	7.2803	10.705573	0.000336	3.357730	0.568815	0.000034
 734	7.2933e+01	7.2881	10.740605	0.000352	3.521521	0.596562	0.000035
 735	7.3033e+01	7.3003	10.777673	0.000373	3.726261	0.631246	0.000037
 736	7.3132e+01	7.3077	10.811482	0.000340	3.398678	0.575752	0.000034
 737	7.3232e+01	7.3190	10.848958	0.000377	3.767209	0.638182	0.000038
 738	7.3332e+01	7.3264	10.881953	0.000332	3.316782	0.561878	0.000033
 739	7.3431e+01	7.3377	10.916984	0.000352	3.521521	0.596562	0.000035
 740	7.3531e+01	7.3479	10.951608	0.000348	3.480573	0.589625	0.000035
 741	7.3630e+01	7.3584	10.979715	0.000283	2.825407	0.478637	0.000028
 742	7.3730e+01	7.3690	11.015561	0.000360	3.603417	0.610435	0.000036
 743	7.3829e+01	7.3795	11.043668	0.000283	2.825407	0.478637	0.000028
 744	7.3928e+01	7.3877	11.079514	0.000360	3.603417	0.610435	0.000036
 745	7.4028e+01	7.3988	11.104769	0.000254	2.538771	0.430079	0.000025
 746	7.4127e+01	7.4072	11.149577	0.000450	4.504272	0.763044	0.000045
 747	7.4227e+01	7.4191	11.177276	0.000278	2.784459	0.471700	0.000028
 748	7.4326e+01	7.4279	11.216788	0.000397	3.971949	0.672866	0.000040
 749	7.4426e+01	7.4368	11.246117	0.000295	2.948250	0.499447	0.000029
 750	7.4525e+01	7.4499	11.276260	0.000303	3.030146	0.513321	0.000030
 751	7.4625e+01	7.4599	11.311292	0.000352	3.521521	0.596562	0.000035
 752	7.4725e+01	7.4683	11.345916	0.000348	3.480573	0.589625	0.000035
 753	7.4824e+01	7.4764	11.374022	0.000283	2.825407	0.478637	0.000028
 754	7.4924e+01	7.4880	11.407832	0.000340	3.398678	0.575752	0.000034
 755	7.5023e+01	7.4986	11.437160	0.000295	2.948250	0.499447	0.000029
 756	7.5123e+01	7.5098	11.466489	0.000295	2.948250	0.499447	0.000029
 757	7.5222e+01	7.5150	11.499891	0.000336	3.357730	0.568815	0.000034
 758	7.5322e+01	7.5284	11.527998	0.000283	2.825407	0.478637	0.000028
 759	7.5421e+01	7.5392	11.557327	0.000295	2.948250	0.499447	0.000029
 760	7.5520e+01	7.5491	11.587877	0.000307	3.071094	0.520257	0.000031
 761	7.5620e+01	7.5586	11.621279	0.000336	3.357730	0.568815	0.000034
 762	7.5719e+01	7.5667	11.648979	0.000278	2.784459	0.471700	0.000028
 763	7.5819e+01	7.5771	11.680751	0.000319	3.193938	0.541068	0.000032
 764	7.5918e+01	7.5861	11.708858	0.000283	2.825407	0.478637	0.000028
 765	7.6018e+01	7.5965	11.742667	0.000340	3.398678	0.575752	0.000034
 766	7.6118e+01	7.6067	11.774033	0.000315	3.152990	0.534131	0.000032
 767	7.6217e+01	7.6163	11.801732	0.000278	2.784459	0.471700	0.000028
 768	7.6317e+01	7.6272	11.831468	0.000299	2.989198	0.506384	0.000030
 769	7.6416e+01	7.6397	11.863241	0.000319	3.193938	0.541068	0.000032
 770	7.6516e+01	7.6456	11.892569	0.000295	2.948250	0.499447	0.000029
 771	7.6615e+01	7.6563	11.925564	0.000332	3.316782	0.561878	0.000033
 772	7.6715e+01	7.6660	11.955708	0.000303	3.030146	0.513321	0.000030
 773	7.6814e+01	7.6804	11.982592	0.000270	2.702563	0.457827	0.000027
 774	7.6913e+01	7.6882	12.017216	0.000348	3.480573	0.589625	0.000035
 775	7.7013e+01	7.6971	12.042064	0.000250	2.497823	0.423143	0.000025
 776	7.7112e+01	7.7075	12.071800	0.000299	2.989198	0.506384	0.000030
 777	7.7212e+01	7.7181	12.105610	0.000340	3.398678	0.575752	0.000034
 778	7.7311e+01	7.7263	12.135753	0.000303	3.030146	0.513321	0.000030
 779	7.7411e+01	7.7358	12.169155	0.000336	3.357730	0.568815	0.000034
 780	7.7510e+01	7.7467	12.200113	0.000311	3.112042	0.527194	0.000031
 781	7.7610e+01	7.7551	12.231071	0.000311	3.112042	0.527194	0.000031
 782	7.7710e+01	7.7644	12.270583	0.000397	3.971949	0.672866	0.000040
 783	7.7809e+01	7.7760	12.294209	0.000237	2.374980	0.402332	0.000024
 784	7.7909e+01	7.7872	12.325982	0.000319	3.193938	0.541068	0.000032
 785	7.8008e+01	7.7950	12.363050	0.000373	3.726261	0.631246	0.000037
 786	7.8108e+01	7.8045	12.392379	0.000295	2.948250	0.499447	0.000029
 787	7.8207e+01	7.8152	12.424559	0.000323	3.234886	0.548005	0.000032
 788	7.8306e+01	7.8275	12.457961	0.000336	3.357730	0.568815	0.000034
 789	7.8406e+01	7.8352	12.488512	0.000307	3.071094	0.520257	0.000031
 790	7.8505e+01	7.8455	12.522321	0.000340	3.398678	0.575752	0.000034
 791	7.8605e+01	7.8590	12.554501	0.000323	3.234886	0.548005	0.000032
 792	7.8704e+01	7.8662	12.588718	0.000344	3.439626	0.582688	0.000034
 793	7.8804e+01	7.8773	12.617639	0.000291	2.907303	0.492510	0.000029
 794	7.8903e+01	7.8884	12.647375	0.000299	2.989198	0.506384	0.000030
 795	7.9003e+01	7.8955	12.680777	0.000336	3.357730	0.568815	0.000034
 796	7.9103e+01	7.9069	12.717031	0.000364	3.644365	0.617372	0.000036
 797	7.9202e+01	7.9159	12.749211	0.000323	3.234886	0.548005	0.000032
 798	7.9302e+01	7.9248	12.780984	0.000319	3.193938	0.541068	0.000032
 799	7.9401e+01	7.9346	12.817237	0.000364	3.644365	0.617372	0.000036
 800	7.9501e+01	7.9456	12.845344	0.000283	2.825407	0.478637	0.000028
 801	7.9600e+01	7.9583	12.878746	0.000336	3.357730	0.568815	0.000034
 802	7.9700e+01	7.9645	12.911333	0.000328	3.275834	0.554941	0.000033
 803	7.9799e+01	7.9768	12.941884	0.000307	3.071094	0.520257	0.000031
 804	7.9898e+01	7.9871	12.970805	0.000291	2.907303	0.492510	0.000029
 805	7.9998e+01	7.9945	13.003393	0.000328	3.275834	0.554941	0.000033
 806	8.0097e+01	8.0038	13.034351	0.000311	3.112042	0.527194	0.000031
 807	8.0197e+01	8.0145	13.066938	0.000328	3.275834	0.554941	0.000033
 808	8.0296e+01	8.0253	13.098711	0.000319	3.193938	0.541068	0.000032
 809	8.0396e+01	8.0371	13.130891	0.000323	3.234886	0.548005	0.000032
 810	8.0496e+01	8.0435	13.159812	0.000291	2.907303	0.492510	0.000029
 811	8.0595e+01	8.0554	13.190363	0.000307	3.071094	0.520257	0.000031
 812	8.0695e+01	8.0643	13.223358	0.000332	3.316782	0.561878	0.000033
 813	8.0794e+01	8.0753	13.255130	0.000319	3.193938	0.541068	0.000032
 814	8.0894e+01	8.0844	13.286088	0.000311	3.112042	0.527194	0.000031
 815	8.0993e+01	8.0933	13.319490	0.000336	3.357730	0.568815	0.000034
 816	8.1093e+01	8.1019	13.349634	0.000303	3.030146	0.513321	0.000030
 817	8.1192e+01	8.1140	13.380592	0.000311	3.112042	0.527194	0.000031
 818	8.1291e+01	8.1223	13.411957	0.000315	3.152990	0.534131	0.000032
 819	8.1391e+01	8.1352	13.443730	0.000319	3.193938	0.541068	0.000032
 820	8.1490e+01	8.1433	13.473873	0.000303	3.030146	0.513321	0.000030
 821	8.1590e+01	8.1552	13.501980	0.000283	2.825407	0.478637	0.000028
 822	8.1689e+01	8.1641	13.535789	0.000340	3.398678	0.575752	0.000034
 823	8.1789e+01	8.1749	13.567562	0.000319	3.193938	0.541068	0.000032
 824	8.1888e+01	8.1836	13.604223	0.000369	3.685313	0.624309	0.000037
 825	8.1988e+01	8.1943	13.632737	0.000287	2.866355	0.485574	0.000029
 826	8.2088e+01	8.2039	13.669805	0.000373	3.726261	0.631246	0.000037
 827	8.2187e+01	8.2142	13.705651	0.000360	3.603417	0.610435	0.000036
 828	8.2287e+01	8.2230	13.735387	0.000299	2.989198	0.506384	0.000030
 829	8.2386e+01	8.2284	13.770011	0.000348	3.480573	0.589625	0.000035
 830	8.2486e+01	8.2439	13.801784	0.000319	3.193938	0.541068	0.000032
 831	8.2585e+01	8.2551	13.838445	0.000369	3.685313	0.624309	0.000037
 832	8.2684e+01	8.2651	13.875513	0.000373	3.726261	0.631246	0.000037
 833	8.2784e+01	8.2715	13.908100	0.000328	3.275834	0.554941	0.000033
 834	8.2883e+01	8.2813	13.940280	0.000323	3.234886	0.548005	0.000032
 835	8.2983e+01	8.2948	13.974090	0.000340	3.398678	0.575752	0.000034
 836	8.3082e+01	8.3032	14.008714	0.000348	3.480573	0.589625	0.000035
 837	8.3182e+01	8.3109	14.040079	0.000315	3.152990	0.534131	0.000032
 838	8.3281e+01	8.3228	14.074704	0.000348	3.480573	0.589625	0.000035
 839	8.3381e+01	8.3339	14.112994	0.000385	3.849105	0.652056	0.000038
 840	8.3481e+01	8.3418	14.150062	0.000373	3.726261	0.631246	0.000037
 841	8.3580e+01	8.3557	14.185501	0.000356	3.562469	0.603499	0.000036
 842	8.3680e+01	8.3643	14.220939	0.000356	3.562469	0.603499	0.000036
 843	8.3779e+01	8.3729	14.255156	0.000344	3.439626	0.582688	0.000034
 844	8.3879e+01	8.3810	14.291410	0.000364	3.644365	0.617372	0.000036
 845	8.3978e+01	8.3925	14.326849	0.000356	3.562469	0.603499	0.000036
 846	8.4078e+01	8.4033	14.366361	0.000397	3.971949	0.672866	0.000040
 847	8.4177e+01	8.4131	14.401800	0.000356	3.562469	0.603499	0.000036
 848	8.4276e+01	8.4241	14.438460	0.000369	3.685313	0.624309	0.000037
 849	8.4376e+01	8.4315	14.473899	0.000356	3.562469	0.603499	0.000036
 850	8.4475e+01	8.4424	14.507301	0.000336	3.357730	0.568815	0.000034
 851	8.4575e+01	8.4535	14.546406	0.000393	3.931001	0.665930	0.000039
 852	8.4674e+01	8.4625	14.583474	0.000373	3.726261	0.631246	0.000037
 853	8.4774e+01	8.4723	14.619321	0.000360	3.603417	0.610435	0.000036
 854	8.4874e+01	8.4814	14.660462	0.000414	4.135740	0.700613	0.000041
 855	8.4973e+01	8.4939	14.693457	0.000332	3.316782	0.561878	0.000033
 856	8.5073e+01	8.5045	14.728081	0.000348	3.480573	0.589625	0.000035
 857	8.5172e+01	8.5084	14.769630	0.000418	4.176688	0.707550	0.000042
 858	8.5272e+01	8.5197	14.808327	0.000389	3.890053	0.658993	0.000039
 859	8.5371e+01	8.5303	14.839693	0.000315	3.152990	0.534131	0.000032
 860	8.5471e+01	8.5429	14.880020	0.000405	4.053844	0.686740	0.000041
 861	8.5570e+01	8.5529	14.912607	0.000328	3.275834	0.554941	0.000033
 862	8.5669e+01	8.5599	14.949268	0.000369	3.685313	0.624309	0.000037
 863	8.5769e+01	8.5724	14.982263	0.000332	3.316782	0.561878	0.000033
 864	8.5868e+01	8.5804	15.020146	0.000381	3.808157	0.645119	0.000038
 865	8.5968e+01	8.5926	15.054770	0.000348	3.480573	0.589625	0.000035
 866	8.6067e+01	8.6010	15.087764	0.000332	3.316782	0.561878	0.000033
 867	8.6167e+01	8.6141	15.120352	0.000328	3.275834	0.554941	0.000033
 868	8.6266e+01	8.6226	15.159457	0.000393	3.931001	0.665930	0.000039
 869	8.6366e+01	8.6330	15.193266	0.000340	3.398678	0.575752	0.000034
 870	8.6466e+01	8.6414	15.227076	0.000340	3.398678	0.575752	0.000034
 871	8.6565e+01	8.6529	15.262514	0.000356	3.562469	0.603499	0.000036
 872	8.6665e+01	8.6630	15.297139	0.000348	3.480573	0.589625	0.000035
 873	8.6764e+01	8.6720	15.332985	0.000360	3.603417	0.610435	0.000036
 874	8.6864e+01	8.6823	15.364757	0.000319	3.193938	0.541068	0.000032
 875	8.6963e+01	8.6938	15.400604	0.000360	3.603417	0.610435	0.000036
 876	8.7063e+01	8.7039	15.437672	0.000373	3.726261	0.631246	0.000037
 877	8.7162e+01	8.7128	15.472296	0.000348	3.480573	0.589625	0.000035
 878	8.7261e+01	8.7220	15.508957	0.000369	3.685313	0.624309	0.000037
 879	8.7361e+01	8.7335	15.543581	0.000348	3.480573	0.589625	0.000035
 880	8.7460e+01	8.7402	15.576168	0.000328	3.275834	0.554941	0.000033
 881	8.7560e+01	8.7495	15.617717	0.000418	4.176688	0.707550	0.000042
 882	8.7659e+01	8.7598	15.647453	0.000299	2.989198	0.506384	0.000030
 883	8.7759e+01	8.7678	15.682892	0.000356	3.562469	0.603499	0.000036
 884	8.7859e+01	8.7787	15.719960	0.000373	3.726261	0.631246	0.000037
 885	8.7958e+01	8.7892	15.753770	0.000340	3.398678	0.575752	0.000034
 886	8.8058e+01	8.7997	15.790023	0.000364	3.644365	0.617372	0.000036
 887	8.8157e+01	8.8100	15.827906	0.000381	3.808157	0.645119	0.000038
 888	8.8257e+01	8.8196	15.863752	0.000360	3.603417	0.610435	0.000036
 889	8.8356e+01	8.8300	15.897561	0.000340	3.398678	0.575752	0.000034
 890	8.8456e+01	8.8428	15.932593	0.000352	3.521521	0.596562	0.000035
 891	8.8555e+01	8.8493	15.966810	0.000344	3.439626	0.582688	0.000034
 892	8.8654e+01	8.8627	16.006322	0.000397	3.971949	0.672866	0.000040
 893	8.8754e+01	8.8689	16.039317	0.000332	3.316782	0.561878	0.000033
 894	8.8853e+01	8.8773	16.075163	0.000360	3.603417	0.610435	0.000036
 895	8.8953e+01	8.8882	16.114268	0.000393	3.931001	0.665930	0.000039
 896	8.9052e+01	8.9024	16.148892	0.000348	3.480573	0.589625	0.000035
 897	8.9152e+01	8.9111	16.188811	0.000401	4.012897	0.679803	0.000040
 898	8.9251e+01	8.9190	16.223435	0.000348	3.480573	0.589625	0.000035
 899	8.9351e+01	8.9300	16.260096	0.000369	3.685313	0.624309	0.000037
 900	8.9451e+01	8.9392	16.294313	0.000344	3.439626	0.582688	0.000034
 901	8.9550e+01	8.9496	16.333418	0.000393	3.931001	0.665930	0.000039
 902	8.9650e+01	8.9594	16.370893	0.000377	3.767209	0.638182	0.000038
 903	8.9749e+01	8.9719	16.407554	0.000369	3.685313	0.624309	0.000037
 904	8.9849e+01	8.9804	16.445030	0.000377	3.767209	0.638182	0.000038
 905	8.9948e+01	8.9919	16.481691	0.000369	3.685313	0.624309	0.000037
 906	9.0047e+01	8.9975	16.516722	0.000352	3.521521	0.596562	0.000035
 907	9.0147e+01	9.0099	16.553790	0.000373	3.726261	0.631246	0.000037
 908	9.0246e+01	9.0168	16.590044	0.000364	3.644365	0.617372	0.000036
 909	9.0346e+01	9.0304	16.624668	0.000348	3.480573	0.589625	0.000035
 910	9.0445e+01	9.0372	16.657663	0.000332	3.316782	0.561878	0.000033
 911	9.0545e+01	9.0481	16.690250	0.000328	3.275834	0.554941	0.000033
 912	9.0644e+01	9.0588	16.726504	0.000364	3.644365	0.617372	0.000036
 913	9.0744e+01	9.0667	16.760720	0.000344	3.439626	0.582688	0.000034
 914	9.0844e+01	9.0782	16.799010	0.000385	3.849105	0.652056	0.000038
 915	9.0943e+01	9.0885	16.831191	0.000323	3.234886	0.548005	0.000032
 916	9.1043e+01	9.0969	16.865407	0.000344	3.439626	0.582688	0.000034
 917	9.1142e+01	9.1098	16.905327	0.000401	4.012897	0.679803	0.000040
 918	9.1242e+01	9.1162	16.940766	0.000356	3.562469	0.603499	0.000036
 919	9.1341e+01	9.1279	16.974982	0.000344	3.439626	0.582688	0.000034
 920	9.1441e+01	9.1362	17.011236	0.000364	3.644365	0.617372	0.000036
 921	9.1540e+01	9.1481	17.046675	0.000356	3.562469	0.603499	0.000036
 922	9.1639e+01	9.1593	17.078040	0.000315	3.152990	0.534131	0.000032
 923	9.1739e+01	9.1688	17.114701	0.000369	3.685313	0.624309	0.000037
 924	9.1838e+01	9.1792	17.148510	0.000340	3.398678	0.575752	0.000034
 925	9.1938e+01	9.1882	17.182727	0.000344	3.439626	0.582688	0.000034
 926	9.2037e+01	9.2026	17.215722	0.000332	3.316782	0.561878	0.000033
 927	9.2137e+01	9.2078	17.248309	0.000328	3.275834	0.554941	0.000033
 928	9.2237e+01	9.2179	17.279267	0.000311	3.112042	0.527194	0.000031
 929	9.2336e+01	9.2276	17.316336	0.000373	3.726261	0.631246	0.000037
 930	9.2436e+01	9.2377	17.349738	0.000336	3.357730	0.568815	0.000034
 931	9.2535e+01	9.2448	17.382732	0.000332	3.316782	0.561878	0.000033
 932	9.2635e+01	9.2596	17.415727	0.000332	3.316782	0.561878	0.000033
 933	9.2734e+01	9.2664	17.449944	0.000344	3.439626	0.582688	0.000034
 934	9.2834e+01	9.2761	17.485790	0.000360	3.603417	0.610435	0.000036
 935	9.2933e+01	9.2883	17.518785	0.000332	3.316782	0.561878	0.000033
 936	9.3032e+01	9.2986	17.555038	0.000364	3.644365	0.617372	0.000036
 937	9.3132e+01	9.3076	17.582330	0.000274	2.743511	0.464763	0.000027
 938	9.3231e+01	9.3185	17.616547	0.000344	3.439626	0.582688	0.000034
 939	9.3331e+01	9.3282	17.649134	0.000328	3.275834	0.554941	0.000033
 940	9.3430e+01	9.3390	17.686203	0.000373	3.726261	0.631246	0.000037
 941	9.3530e+01	9.3492	17.716753	0.000307	3.071094	0.520257	0.000031
 942	9.3629e+01	9.3586	17.753414	0.000369	3.685313	0.624309	0.000037
 943	9.3729e+01	9.3719	17.791297	0.000381	3.808157	0.645119	0.000038
 944	9.3829e+01	9.3784	17.822662	0.000315	3.152990	0.534131	0.000032
 945	9.3928e+01	9.3873	17.857286	0.000348	3.480573	0.589625	0.000035
 946	9.4028e+01	9.3962	17.892725	0.000356	3.562469	0.603499	0.000036
 947	9.4127e+01	9.4061	17.926127	0.000336	3.357730	0.568815	0.000034
 948	9.4227e+01	9.4178	17.965232	0.000393	3.931001	0.665930	0.000039
 949	9.4326e+01	9.4269	18.002300	0.000373	3.726261	0.631246	0.000037
 950	9.4425e+01	9.4385	18.031629	0.000295	2.948250	0.499447	0.000029
 951	9.4525e+01	9.4469	18.075215	0.000438	4.381428	0.742234	0.000044
 952	9.4624e+01	9.4563	18.108209	0.000332	3.316782	0.561878	0.000033
 953	9.4724e+01	9.4666	18.148129	0.000401	4.012897	0.679803	0.000040
 954	9.4823e+01	9.4760	18.183160	0.000352	3.521521	0.596562	0.000035
 955	9.4923e+01	9.4858	18.222673	0.000397	3.971949	0.672866	0.000040
 956	9.5022e+01	9.4958	18.256889	0.000344	3.439626	0.582688	0.000034
 957	9.5122e+01	9.5072	18.293958	0.000373	3.726261	0.631246	0.000037
 958	9.5222e+01	9.5158	18.326545	0.000328	3.275834	0.554941	0.000033
 959	9.5321e+01	9.5264	18.363206	0.000369	3.685313	0.624309	0.000037
 960	9.5421e+01	9.5386	18.403533	0.000405	4.053844	0.686740	0.000041
 961	9.5520e+01	9.5459	18.436935	0.000336	3.357730	0.568815	0.000034
 962	9.5620e+01	9.5564	18.477669	0.000409	4.094792	0.693677	0.000041
 963	9.5719e+01	9.5679	18.513515	0.000360	3.603417	0.610435	0.000036
 964	9.5819e+01	9.5759	18.550991	0.000377	3.767209	0.638182	0.000038
 965	9.5918e+01	9.5852	18.586837	0.000360	3.603417	0.610435	0.000036
 966	9.6017e+01	9.5919	18.625534	0.000389	3.890053	0.658993	0.000039
 967	9.6117e+01	9.6065	18.664639	0.000393	3.931001	0.665930	0.000039
 968	9.6216e+01	9.6172	18.702930	0.000385	3.849105	0.652056	0.000038
 969	9.6316e+01	9.6261	18.739590	0.000369	3.685313	0.624309	0.000037
 970	9.6415e+01	9.6326	18.776659	0.000373	3.726261	0.631246	0.000037
 971	9.6515e+01	9.6454	18.815356	0.000389	3.890053	0.658993	0.000039
 972	9.6615e+01	9.6571	18.852017	0.000369	3.685313	0.624309	0.000037
 973	9.6714e+01	9.6655	18.885012	0.000332	3.316782	0.561878	0.000033
 974	9.6814e+01	9.6753	18.924524	0.000397	3.971949	0.672866	0.000040
 975	9.6913e+01	9.6875	18.961999	0.000377	3.767209	0.638182	0.000038
 976	9.7013e+01	9.6967	18.997438	0.000356	3.562469	0.603499	0.000036
 977	9.7112e+01	9.7073	19.034914	0.000377	3.767209	0.638182	0.000038
 978	9.7212e+01	9.7135	19.071982	0.000373	3.726261	0.631246	0.000037
 979	9.7311e+01	9.7253	19.115160	0.000434	4.340480	0.735297	0.000043
 980	9.7410e+01	9.7341	19.151821	0.000369	3.685313	0.624309	0.000037
 981	9.7510e+01	9.7498	19.191333	0.000397	3.971949	0.672866	0.000040
 982	9.7609e+01	9.7562	19.229623	0.000385	3.849105	0.652056	0.000038
 983	9.7709e+01	9.7642	19.267099	0.000377	3.767209	0.638182	0.000038
 984	9.7808e+01	9.7730	19.302945	0.000360	3.603417	0.610435	0.000036
 985	9.7908e+01	9.7864	19.343272	0.000405	4.053844	0.686740	0.000041
 986	9.8007e+01	9.7935	19.379526	0.000364	3.644365	0.617372	0.000036
 987	9.8107e+01	9.8041	19.418223	0.000389	3.890053	0.658993	0.000039
 988	9.8207e+01	9.8127	19.454069	0.000360	3.603417	0.610435	0.000036
 989	9.8306e+01	9.8262	19.491137	0.000373	3.726261	0.631246	0.000037
 990	9.8406e+01	9.8318	19.530650	0.000397	3.971949	0.672866	0.000040
 991	9.8505e+01	9.8438	19.569347	0.000389	3.890053	0.658993	0.000039
 992	9.8605e+01	9.8541	19.608859	0.000397	3.971949	0.672866	0.000040
 993	9.8704e+01	9.8639	19.649186	0.000405	4.053844	0.686740	0.000041
 994	9.8803e+01	9.8739	19.689513	0.000405	4.053844	0.686740	0.000041
 995	9.8903e+01	9.8828	19.730655	0.000414	4.135740	0.700613	0.000041
 996	9.9002e+01	9.8927	19.774648	0.000442	4.422376	0.749171	0.000044
 997	9.9102e+01	9.9006	19.812123	0.000377	3.767209	0.638182	0.000038
 998	9.9201e+01	9.9132	19.852450	0.000405	4.053844	0.686740	0.000041
 999	9.9301e+01	9.9256	19.895221	0.000430	4.299532	0.728360	0.000043
1000	9.9400e+01	9.9342	19.934733	0.000397	3.971949	0.672866	0.000040
1001	9.9500e+01	9.9442	19.976282	0.000418	4.176688	0.707550	0.000042
1002	9.9600e+01	9.9527	20.016202	0.000401	4.012897	0.679803	0.000040
1003	9.9699e+01	9.9636	20.063046	0.000471	4.709011	0.797728	0.000047
1004	9.9799e+01	9.9731	20.102966	0.000401	4.012897	0.679803	0.000040
1005	9.9898e+01	9.9854	20.145737	0.000430	4.299532	0.728360	0.000043
1006	9.9998e+01	9.9931	20.190952	0.000455	4.545220	0.769981	0.000045
1007	1.0010e+02	9.9837	20.181990	0.000090	0.900854	0.152609	-0.000009
1008	1.0020e+02	9.9744	20.178324	0.000037	0.368531	0.062431	-0.000004
1009	1.0030e+02	9.9629	20.168548	0.000098	0.982750	0.166482	-0.000010
1010	1.0040e+02	9.9561	20.161623	0.000070	0.696115	0.117925	-0.000007
1011	1.0050e+02	9.9452	20.155106	0.000066	0.655167	0.110988	-0.000007
1012	1.0059e+02	9.9347	20.148181	0.000070	0.696115	0.117925	-0.000007
1013	1.0069e+02	9.9255	20.140849	0.000074	0.737063	0.124862	-0.000007
1014	1.0079e+02	9.9129	20.134739	0.000061	0.614219	0.104051	-0.000006
1015	1.0089e+02	9.9033	20.122518	0.000123	1.228438	0.208103	-0.000012
1016	1.0099e+02	9.8950	20.111927	0.000106	1.064646	0.180356	-0.000011
1017	1.0109e+02	9.8835	20.106225	0.000057	0.573271	0.097115	-0.000006
1018	1.0119e+02	9.8743	20.093190	0.000131	1.310334	0.221977	-0.000013
1019	1.0129e+02	9.8645	20.086672	0.000066	0.655167	0.110988	-0.000007
1020	1.0139e+02	9.8560	20.077303	0.000094	0.941802	0.159546	-0.000009
1021	1.0149e+02	9.8462	20.065898	0.000115	1.146542	0.194229	-0.000011
1022	1.0159e+02	9.8346	20.057751	0.000082	0.818958	0.138735	-0.000008
1023	1.0169e+02	9.8269	20.045123	0.000127	1.269386	0.215040	-0.000013
1024	1.0179e+02	9.8148	20.034532	0.000106	1.064646	0.180356	-0.000011
1025	1.0189e+02	9.8049	20.025164	0.000094	0.941802	0.159546	-0.000009
1026	1.0199e+02	9.7955	20.012129	0.000131	1.310334	0.221977	-0.000013
1027	1.0209e+02	9.7877	20.004389	0.000078	0.778011	0.131799	-0.000008
1028	1.0219e+02	9.7767	19.993391	0.000111	1.105594	0.187293	-0.000011
1029	1.0229e+02	9.7675	19.980356	0.000131	1.310334	0.221977	-0.000013
1030	1.0239e+02	9.7568	19.964469	0.000160	1.596969	0.270534	-0.000016
1031	1.0248e+02	9.7462	19.956730	0.000078	0.778011	0.131799	-0.000008
1032	1.0258e+02	9.7339	19.940844	0.000160	1.596969	0.270534	-0.000016
1033	1.0268e+02	9.7281	19.925772	0.000152	1.515073	0.256660	-0.000015
1034	1.0278e+02	9.7168	19.909478	0.000164	1.637917	0.277471	-0.000016
1035	1.0288e+02	9.7058	19.895629	0.000139	1.392229	0.235850	-0.000014
1036	1.0298e+02	9.6924	19.883001	0.000127	1.269386	0.215040	-0.000013
1037	1.0308e+02	9.6867	19.868337	0.000147	1.474125	0.249724	-0.000015
1038	1.0318e+02	9.6754	19.850006	0.000184	1.842657	0.312154	-0.000018
1039	1.0328e+02	9.6667	19.837379	0.000127	1.269386	0.215040	-0.000013
1040	1.0338e+02	9.6548	19.821492	0.000160	1.596969	0.270534	-0.000016
1041	1.0348e+02	9.6451	19.805606	0.000160	1.596969	0.270534	-0.000016
1042	1.0358e+02	9.6366	19.790127	0.000156	1.556021	0.263597	-0.000016
1043	1.0368e+02	9.6272	19.774648	0.000156	1.556021	0.263597	-0.000016
1044	1.0378e+02	9.6155	19.760391	0.000143	1.433177	0.242787	-0.000014
1045	1.0388e+02	9.6045	19.744097	0.000164	1.637917	0.277471	-0.000016
1046	1.0398e+02	9.5962	19.725359	0.000188	1.883604	0.319091	-0.000019
1047	1.0408e+02	9.5880	19.709066	0.000164	1.637917	0.277471	-0.000016
1048	1.0418e+02	9.5753	19.692772	0.000164	1.637917	0.277471	-0.000016
1049	1.0428e+02	9.5670	19.671183	0.000217	2.170240	0.367649	-0.000022
1050	1.0438e+02	9.5575	19.656518	0.000147	1.474125	0.249724	-0.000015
1051	1.0447e+02	9.5448	19.636559	0.000201	2.006448	0.339902	-0.000020
1052	1.0457e+02	9.5374	19.621487	0.000152	1.515073	0.256660	-0.000015
1053	1.0467e+02	9.5211	19.599898	0.000217	2.170240	0.367649	-0.000022
1054	1.0477e+02	9.5172	19.585234	0.000147	1.474125	0.249724	-0.000015
1055	1.0487e+02	9.5049	19.570977	0.000143	1.433177	0.242787	-0.000014
1056	1.0497e+02	9.4995	19.550202	0.000209	2.088344	0.353775	-0.000021
1057	1.0507e+02	9.4867	19.534723	0.000156	1.556021	0.263597	-0.000016
1058	1.0517e+02	9.4778	19.515171	0.000197	1.965500	0.332965	-0.000020
1059	1.0527e+02	9.4659	19.496433	0.000188	1.883604	0.319091	-0.000019
1060	1.0537e+02	9.4547	19.480954	0.000156	1.556021	0.263597	-0.000016
1061	1.0547e+02	9.4502	19.463845	0.000172	1.719813	0.291344	-0.000017
1062	1.0557e+02	9.4385	19.449588	0.000143	1.433177	0.242787	-0.000014
1063	1.0567e+02	9.4293	19.427999	0.000217	2.170240	0.367649	-0.000022
1064	1.0577e+02	9.4147	19.406003	0.000221	2.211188	0.374585	-0.000022
1065	1.0587e+02	9.4054	19.388894	0.000172	1.719813	0.291344	-0.000017
1066	1.0597e+02	9.3973	19.370564	0.000184	1.842657	0.312154	-0.000018
1067	1.0607e+02	9.3872	19.355492	0.000152	1.515073	0.256660	-0.000015
1068	1.0617e+02	9.3784	19.337977	0.000176	1.760761	0.298281	-0.000018
1069	1.0627e+02	9.3681	19.317609	0.000205	2.047396	0.346838	-0.000020
1070	1.0637e+02	9.3567	19.298464	0.000192	1.924552	0.326028	-0.000019
1071	1.0647e+02	9.3485	19.283800	0.000147	1.474125	0.249724	-0.000015
1072	1.0656e+02	9.3359	19.259360	0.000246	2.456875	0.416206	-0.000025
1073	1.0666e+02	9.3292	19.241029	0.000184	1.842657	0.312154	-0.000018
1074	1.0676e+02	9.3173	19.219440	0.000217	2.170240	0.367649	-0.000022
1075	1.0686e+02	9.3080	19.202332	0.000172	1.719813	0.291344	-0.000017
1076	1.0696e+02	9.2997	19.177891	0.000246	2.456875	0.416206	-0.000025
1077	1.0706e+02	9.2863	19.154265	0.000237	2.374980	0.402332	-0.000024
1078	1.0716e+02	9.2759	19.131454	0.000229	2.293084	0.388459	-0.000023
1079	1.0726e+02	9.2679	19.111902	0.000197	1.965500	0.332965	-0.000020
1080	1.0736e+02	9.2611	19.091127	0.000209	2.088344	0.353775	-0.000021
1081	1.0746e+02	9.2476	19.065057	0.000262	2.620667	0.443953	-0.000026
1082	1.0756e+02	9.2384	19.043875	0.000213	2.129292	0.360712	-0.000021
1083	1.0766e+02	9.2285	19.025138	0.000188	1.883604	0.319091	-0.000019
1084	1.0776e+02	9.2191	19.001512	0.000237	2.374980	0.402332	-0.000024
1085	1.0786e+02	9.2090	18.978700	0.000229	2.293084	0.388459	-0.000023
1086	1.0796e+02	9.1977	18.952631	0.000262	2.620667	0.443953	-0.000026
1087	1.0806e+02	9.1870	18.931041	0.000217	2.170240	0.367649	-0.000022
1088	1.0816e+02	9.1760	18.908230	0.000229	2.293084	0.388459	-0.000023
1089	1.0826e+02	9.1641	18.882975	0.000254	2.538771	0.430079	-0.000025
1090	1.0836e+02	9.1566	18.855276	0.000278	2.784459	0.471700	-0.000028
1091	1.0845e+02	9.1473	18.838982	0.000164	1.637917	0.277471	-0.000016
1092	1.0855e+02	9.1407	18.808839	0.000303	3.030146	0.513321	-0.000030
1093	1.0865e+02	9.1309	18.783176	0.000258	2.579719	0.437016	-0.000026
1094	1.0875e+02	9.1196	18.758736	0.000246	2.456875	0.416206	-0.000025
1095	1.0885e+02	9.1089	18.732666	0.000262	2.620667	0.443953	-0.000026
1096	1.0895e+02	9.0999	18.705781	0.000270	2.702563	0.457827	-0.000027
1097	1.0905e+02	9.0886	18.682970	0.000229	2.293084	0.388459	-0.000023
1098	1.0915e+02	9.0778	18.660159	0.000229	2.293084	0.388459	-0.000023
1099	1.0925e+02	9.0691	18.630830	0.000295	2.948250	0.499447	-0.000029
1100	1.0935e+02	9.0601	18.605167	0.000258	2.579719	0.437016	-0.000026
1101	1.0945e+02	9.0482	18.580319	0.000250	2.497823	0.423143	-0.000025
1102	1.0955e+02	9.0398	18.550991	0.000295	2.948250	0.499447	-0.000029
1103	1.0965e+02	9.0303	18.525328	0.000258	2.579719	0.437016	-0.000026
1104	1.0975e+02	9.0212	18.497222	0.000283	2.825407	0.478637	-0.000028
1105	1.0985e+02	9.0102	18.474818	0.000225	2.252136	0.381522	-0.000023
1106	1.0995e+02	8.9993	18.446711	0.000283	2.825407	0.478637	-0.000028
1107	1.1005e+02	8.9893	18.421863	0.000250	2.497823	0.423143	-0.000025
1108	1.1015e+02	8.9774	18.392127	0.000299	2.989198	0.506384	-0.000030
1109	1.1025e+02	8.9677	18.367279	0.000250	2.497823	0.423143	-0.000025
1110	1.1035e+02	8.9584	18.340802	0.000266	2.661615	0.450890	-0.000027
1111	1.1044e+02	8.9478	18.315547	0.000254	2.538771	0.430079	-0.000025
1112	1.1054e+02	8.9392	18.288662	0.000270	2.702563	0.457827	-0.000027
1113	1.1064e+02	8.9276	18.265036	0.000237	2.374980	0.402332	-0.000024
1114	1.1074e+02	8.9182	18.237744	0.000274	2.743511	0.464763	-0.000027
1115	1.1084e+02	8.9111	18.211674	0.000262	2.620667	0.443953	-0.000026
1116	1.1094e+02	8.9026	18.182753	0.000291	2.907303	0.492510	-0.000029
1117	1.1104e+02	8.8892	18.160349	0.000225	2.252136	0.381522	-0.000023
1118	1.1114e+02	8.8811	18.138353	0.000221	2.211188	0.374585	-0.000022
1119	1.1124e+02	8.8698	18.111468	0.000270	2.702563	0.457827	-0.000027
1120	1.1134e+02	8.8602	18.089472	0.000221	2.211188	0.374585	-0.000022
1121	1.1144e+02	8.8507	18.060958	0.000287	2.866355	0.485574	-0.000029
1122	1.1154e+02	8.8371	18.037332	0.000237	2.374980	0.402332	-0.000024
1123	1.1164e+02	8.8306	18.010855	0.000266	2.661615	0.450890	-0.000027
1124	1.1174e+02	8.8177	17.986821	0.000242	2.415927	0.409269	-0.000024
1125	1.1184e+02	8.8113	17.963603	0.000233	2.334032	0.395396	-0.000023
1126	1.1194e+02	8.8002	17.932237	0.000315	3.152990	0.534131	-0.000032
1127	1.1204e+02	8.7918	17.909834	0.000225	2.252136	0.381522	-0.000023
1128	1.1214e+02	8.7807	17.883356	0.000266	2.661615	0.450890	-0.000027
1129	1.1224e+02	8.7724	17.856879	0.000266	2.661615	0.450890	-0.000027
1130	1.1234e+02	8.7616	17.834068	0.000229	2.293084	0.388459	-0.000023
1131	1.1244e+02	8.7500	17.807998	0.000262	2.620667	0.443953	-0.000026
1132	1.1253e+02	8.7444	17.783150	0.000250	2.497823	0.423143	-0.000025
1133	1.1263e+02	8.7329	17.759117	0.000242	2.415927	0.409269	-0.000024
1134	1.1273e+02	8.7207	17.732232	0.000270	2.702563	0.457827	-0.000027
1135	1.1283e+02	8.7101	17.707792	0.000246	2.456875	0.416206	-0.000025
1136	1.1293e+02	8.7017	17.680907	0.000270	2.702563	0.457827	-0.000027
1137	1.1303e+02	8.6914	17.658503	0.000225	2.252136	0.381522	-0.000023
1138	1.1313e+02	8.6816	17.626731	0.000319	3.193938	0.541068	-0.000032
1139	1.1323e+02	8.6720	17.599846	0.000270	2.702563	0.457827	-0.000027
1140	1.1333e+02	8.6621	17.573776	0.000262	2.620667	0.443953	-0.000026
1141	1.1343e+02	8.6517	17.542818	0.000311	3.112042	0.527194	-0.000031
1142	1.1353e+02	8.6410	17.517155	0.000258	2.579719	0.437016	-0.000026
1143	1.1363e+02	8.6304	17.489456	0.000278	2.784459	0.471700	-0.000028
1144	1.1373e+02	8.6213	17.461757	0.000278	2.784459	0.471700	-0.000028
1145	1.1383e+02	8.6121	17.436909	0.000250	2.497823	0.423143	-0.000025
1146	1.1393e+02	8.6028	17.408802	0.000283	2.825407	0.478637	-0.000028
1147	1.1403e+02	8.5922	17.382325	0.000266	2.661615	0.450890	-0.000027
1148	1.1413e+02	8.5829	17.355440	0.000270	2.702563	0.457827	-0.000027
1149	1.1423e+02	8.5693	17.327741	0.000278	2.784459	0.471700	-0.000028
1150	1.1433e+02	8.5639	17.302079	0.000258	2.579719	0.437016	-0.000026
1151	1.1442e+02	8.5517	17.280897	0.000213	2.129292	0.360712	-0.000021
1152	1.1452e+02	8.5407	17.246680	0.000344	3.439626	0.582688	-0.000034
1153	1.1462e+02	8.5327	17.218981	0.000278	2.784459	0.471700	-0.000028
1154	1.1472e+02	8.5212	17.189652	0.000295	2.948250	0.499447	-0.000029
1155	1.1482e+02	8.5146	17.164397	0.000254	2.538771	0.430079	-0.000025
1156	1.1492e+02	8.5007	17.131402	0.000332	3.316782	0.561878	-0.000033
1157	1.1502e+02	8.4951	17.102481	0.000291	2.907303	0.492510	-0.000029
1158	1.1512e+02	8.4853	17.081299	0.000213	2.129292	0.360712	-0.000021
1159	1.1522e+02	8.4722	17.051563	0.000299	2.989198	0.506384	-0.000030
1160	1.1532e+02	8.4611	17.030381	0.000213	2.129292	0.360712	-0.000021
1161	1.1542e+02	8.4525	17.002682	0.000278	2.784459	0.471700	-0.000028
1162	1.1552e+02	8.4441	16.978649	0.000242	2.415927	0.409269	-0.000024
1163	1.1562e+02	8.4326	16.947283	0.000315	3.152990	0.534131	-0.000032
1164	1.1572e+02	8.4214	16.923657	0.000237	2.374980	0.402332	-0.000024
1165	1.1582e+02	8.4115	16.895958	0.000278	2.784459	0.471700	-0.000028
1166	1.1592e+02	8.4026	16.871517	0.000246	2.456875	0.416206	-0.000025
1167	1.1602e+02	8.3936	16.843003	0.000287	2.866355	0.485574	-0.000029
1168	1.1612e+02	8.3843	16.821822	0.000213	2.129292	0.360712	-0.000021
1169	1.1622e+02	8.3722	16.788827	0.000332	3.316782	0.561878	-0.000033
1170	1.1632e+02	8.3611	16.766016	0.000229	2.293084	0.388459	-0.000023
1171	1.1642e+02	8.3517	16.739538	0.000266	2.661615	0.450890	-0.000027
1172	1.1651e+02	8.3439	16.715913	0.000237	2.374980	0.402332	-0.000024
1173	1.1661e+02	8.3331	16.690250	0.000258	2.579719	0.437016	-0.000026
1174	1.1671e+02	8.3237	16.665809	0.000246	2.456875	0.416206	-0.000025
1175	1.1681e+02	8.3137	16.639740	0.000262	2.620667	0.443953	-0.000026
1176	1.1691e+02	8.3049	16.612040	0.000278	2.784459	0.471700	-0.000028
1177	1.1701e+02	8.2938	16.594932	0.000172	1.719813	0.291344	-0.000017
1178	1.1711e+02	8.2840	16.566825	0.000283	2.825407	0.478637	-0.000028
1179	1.1721e+02	8.2754	16.546865	0.000201	2.006448	0.339902	-0.000020
1180	1.1731e+02	8.2668	16.519166	0.000278	2.784459	0.471700	-0.000028
1181	1.1741e+02	8.2532	16.497984	0.000213	2.129292	0.360712	-0.000021
1182	1.1751e+02	8.2425	16.473136	0.000250	2.497823	0.423143	-0.000025
1183	1.1761e+02	8.2327	16.450325	0.000229	2.293084	0.388459	-0.000023
1184	1.1771e+02	8.2227	16.422219	0.000283	2.825407	0.478637	-0.000028
1185	1.1781e+02	8.2160	16.400629	0.000217	2.170240	0.367649	-0.000022
1186	1.1791e+02	8.2058	16.374967	0.000258	2.579719	0.437016	-0.000026
1187	1.1801e+02	8.1937	16.349304	0.000258	2.579719	0.437016	-0.000026
1188	1.1811e+02	8.1852	16.326086	0.000233	2.334032	0.395396	-0.000023
1189	1.1821e+02	8.1738	16.304089	0.000221	2.211188	0.374585	-0.000022
1190	1.1831e+02	8.1654	16.278019	0.000262	2.620667	0.443953	-0.000026
1191	1.1841e+02	8.1543	16.251949	0.000262	2.620667	0.443953	-0.000026
1192	1.1850e+02	8.1439	16.227509	0.000246	2.456875	0.416206	-0.000025
1193	1.1860e+02	8.1358	16.205512	0.000221	2.211188	0.374585	-0.000022
1194	1.1870e+02	8.1281	16.178628	0.000270	2.702563	0.457827	-0.000027
1195	1.1880e+02	8.1163	16.156631	0.000221	2.211188	0.374585	-0.000022
1196	1.1890e+02	8.1046	16.130561	0.000262	2.620667	0.443953	-0.000026
1197	1.1900e+02	8.0990	16.101233	0.000295	2.948250	0.499447	-0.000029
1198	1.1910e+02	8.0827	16.079236	0.000221	2.211188	0.374585	-0.000022
1199	1.1920e+02	8.0769	16.048278	0.000311	3.112042	0.527194	-0.000031
1200	1.1930e+02	8.0656	16.023430	0.000250	2.497823	0.423143	-0.000025
1201	1.1940e+02	8.0540	15.998175	0.000254	2.538771	0.430079	-0.000025
1202	1.1950e+02	8.0460	15.972920	0.000254	2.538771	0.430079	-0.000025
1203	1.1960e+02	8.0351	15.943184	0.000299	2.989198	0.506384	-0.000030
1204	1.1970e+02	8.0230	15.917929	0.000254	2.538771	0.430079	-0.000025
1205	1.1980e+02	8.0158	15.887785	0.000303	3.030146	0.513321	-0.000030
1206	1.1990e+02	8.0071	15.865381	0.000225	2.252136	0.381522	-0.000023
1207	1.2000e+02	7.9971	15.834831	0.000307	3.071094	0.520257	-0.000031
1208	1.2010e+02	7.9849	15.810797	0.000242	2.415927	0.409269	-0.000024
1209	1.2020e+02	7.9748	15.782691	0.000283	2.825407	0.478637	-0.000028
1210	1.2030e+02	7.9679	15.753770	0.000291	2.907303	0.492510	-0.000029
1211	1.2039e+02	7.9536	15.724848	0.000291	2.907303	0.492510	-0.000029
1212	1.2049e+02	7.9460	15.700815	0.000242	2.415927	0.409269	-0.000024
1213	1.2059e+02	7.9355	15.674338	0.000266	2.661615	0.450890	-0.000027
1214	1.2069e+02	7.9254	15.643380	0.000311	3.112042	0.527194	-0.000031
1215	1.2079e+02	7.9141	15.617717	0.000258	2.579719	0.437016	-0.000026
1216	1.2089e+02	7.9047	15.589203	0.000287	2.866355	0.485574	-0.000029
1217	1.2099e+02	7.8956	15.565985	0.000233	2.334032	0.395396	-0.000023
1218	1.2109e+02	7.8846	15.536249	0.000299	2.989198	0.506384	-0.000030
1219	1.2119e+02	7.8734	15.508957	0.000274	2.743511	0.464763	-0.000027
1220	1.2129e+02	7.8654	15.480850	0.000283	2.825407	0.478637	-0.000028
1221	1.2139e+02	7.8554	15.453965	0.000270	2.702563	0.457827	-0.000027
1222	1.2149e+02	7.8455	15.425859	0.000283	2.825407	0.478637	-0.000028
1223	1.2159e+02	7.8369	15.400196	0.000258	2.579719	0.437016	-0.000026
1224	1.2169e+02	7.8262	15.372904	0.000274	2.743511	0.464763	-0.000027
1225	1.2179e+02	7.8167	15.346834	0.000262	2.620667	0.443953	-0.000026
1226	1.2189e+02	7.8066	15.322394	0.000246	2.456875	0.416206	-0.000025
1227	1.2199e+02	7.7959	15.295102	0.000274	2.743511	0.464763	-0.000027
1228	1.2209e+02	7.7867	15.270661	0.000246	2.456875	0.416206	-0.000025
1229	1.2219e+02	7.7734	15.241740	0.000291	2.907303	0.492510	-0.000029
1230	1.2229e+02	7.7659	15.213226	0.000287	2.866355	0.485574	-0.000029
1231	1.2239e+02	7.7569	15.188378	0.000250	2.497823	0.423143	-0.000025
1232	1.2248e+02	7.7461	15.156605	0.000319	3.193938	0.541068	-0.000032
1233	1.2258e+02	7.7354	15.133387	0.000233	2.334032	0.395396	-0.000023
1234	1.2268e+02	7.7286	15.103243	0.000303	3.030146	0.513321	-0.000030
1235	1.2278e+02	7.7151	15.077988	0.000254	2.538771	0.430079	-0.000025
1236	1.2288e+02	7.7044	15.051104	0.000270	2.702563	0.457827	-0.000027
1237	1.2298e+02	7.6975	15.026256	0.000250	2.497823	0.423143	-0.000025
1238	1.2308e+02	7.6863	14.997742	0.000287	2.866355	0.485574	-0.000029
1239	1.2318e+02	7.6786	14.971672	0.000262	2.620667	0.443953	-0.000026
1240	1.2328e+02	7.6672	14.945602	0.000262	2.620667	0.443953	-0.000026
1241	1.2338e+02	7.6572	14.914644	0.000311	3.112042	0.527194	-0.000031
1242	1.2348e+02	7.6446	14.886130	0.000287	2.866355	0.485574	-0.000029
1243	1.2358e+02	7.6363	14.860875	0.000254	2.538771	0.430079	-0.000025
1244	1.2368e+02	7.6280	14.831546	0.000295	2.948250	0.499447	-0.000029
1245	1.2378e+02	7.6152	14.802217	0.000295	2.948250	0.499447	-0.000029
1246	1.2388e+02	7.6051	14.769223	0.000332	3.316782	0.561878	-0.000033
1247	1.2398e+02	7.5980	14.738265	0.000311	3.112042	0.527194	-0.000031
1248	1.2408e+02	7.5871	14.711380	0.000270	2.702563	0.457827	-0.000027
1249	1.2418e+02	7.5768	14.683273	0.000283	2.825407	0.478637	-0.000028
1250	1.2428e+02	7.5700	14.653945	0.000295	2.948250	0.499447	-0.000029
1251	1.2438e+02	7.5552	14.626653	0.000274	2.743511	0.464763	-0.000027
1252	1.2447e+02	7.5439	14.596102	0.000307	3.071094	0.520257	-0.000031
1253	1.2457e+02	7.5364	14.568403	0.000278	2.784459	0.471700	-0.000028
1254	1.2467e+02	7.5272	14.535001	0.000336	3.357730	0.568815	-0.000034
1255	1.2477e+02	7.5189	14.508116	0.000270	2.702563	0.457827	-0.000027
1256	1.2487e+02	7.5073	14.475936	0.000323	3.234886	0.548005	-0.000032
1257	1.2497e+02	7.4989	14.441719	0.000344	3.439626	0.582688	-0.000034
1258	1.2507e+02	7.4885	14.415242	0.000266	2.661615	0.450890	-0.000027
1259	1.2517e+02	7.4770	14.383062	0.000323	3.234886	0.548005	-0.000032
1260	1.2527e+02	7.4697	14.355770	0.000274	2.743511	0.464763	-0.000027
1261	1.2537e+02	7.4593	14.318702	0.000373	3.726261	0.631246	-0.000037
1262	1.2547e+02	7.4463	14.286114	0.000328	3.275834	0.554941	-0.000033
1263	1.2557e+02	7.4383	14.252712	0.000336	3.357730	0.568815	-0.000034
1264	1.2567e+02	7.4282	14.224606	0.000283	2.825407	0.478637	-0.000028
1265	1.2577e+02	7.4171	14.190796	0.000340	3.398678	0.575752	-0.000034
1266	1.2587e+02	7.4107	14.158209	0.000328	3.275834	0.554941	-0.000033
1267	1.2597e+02	7.3975	14.124807	0.000336	3.357730	0.568815	-0.000034
1268	1.2607e+02	7.3867	14.094663	0.000303	3.030146	0.513321	-0.000030
1269	1.2617e+02	7.3817	14.060854	0.000340	3.398678	0.575752	-0.000034
1270	1.2627e+02	7.3695	14.028266	0.000328	3.275834	0.554941	-0.000033
1271	1.2636e+02	7.3562	13.993642	0.000348	3.480573	0.589625	-0.000035
1272	1.2646e+02	7.3481	13.963092	0.000307	3.071094	0.520257	-0.000031
1273	1.2656e+02	7.3371	13.933356	0.000299	2.989198	0.506384	-0.000030
1274	1.2666e+02	7.3279	13.899139	0.000344	3.439626	0.582688	-0.000034
1275	1.2676e+02	7.3197	13.867366	0.000319	3.193938	0.541068	-0.000032
1276	1.2686e+02	7.3078	13.835593	0.000319	3.193938	0.541068	-0.000032
1277	1.2696e+02	7.2984	13.800562	0.000352	3.521521	0.596562	-0.000035
1278	1.2706e+02	7.2883	13.769197	0.000315	3.152990	0.534131	-0.000032
1279	1.2716e+02	7.2778	13.739053	0.000303	3.030146	0.513321	-0.000030
1280	1.2726e+02	7.2677	13.704429	0.000348	3.480573	0.589625	-0.000035
1281	1.2736e+02	7.2597	13.674693	0.000299	2.989198	0.506384	-0.000030
1282	1.2746e+02	7.2485	13.644142	0.000307	3.071094	0.520257	-0.000031
1283	1.2756e+02	7.2384	13.611555	0.000328	3.275834	0.554941	-0.000033
1284	1.2766e+02	7.2275	13.578968	0.000328	3.275834	0.554941	-0.000033
1285	1.2776e+02	7.2181	13.550861	0.000283	2.825407	0.478637	-0.000028
1286	1.2786e+02	7.2082	13.520310	0.000307	3.071094	0.520257	-0.000031
1287	1.2796e+02	7.1981	13.487316	0.000332	3.316782	0.561878	-0.000033
1288	1.2806e+02	7.1888	13.458802	0.000287	2.866355	0.485574	-0.000029
1289	1.2816e+02	7.1796	13.427436	0.000315	3.152990	0.534131	-0.000032
1290	1.2826e+02	7.1696	13.395663	0.000319	3.193938	0.541068	-0.000032
1291	1.2835e+02	7.1596	13.365520	0.000303	3.030146	0.513321	-0.000030
1292	1.2845e+02	7.1524	13.336599	0.000291	2.907303	0.492510	-0.000029
1293	1.2855e+02	7.1389	13.304011	0.000328	3.275834	0.554941	-0.000033
1294	1.2865e+02	7.1281	13.270609	0.000336	3.357730	0.568815	-0.000034
1295	1.2875e+02	7.1180	13.240059	0.000307	3.071094	0.520257	-0.000031
1296	1.2885e+02	7.1104	13.209101	0.000311	3.112042	0.527194	-0.000031
1297	1.2895e+02	7.0987	13.179365	0.000299	2.989198	0.506384	-0.000030
1298	1.2905e+02	7.0895	13.145962	0.000336	3.357730	0.568815	-0.000034
1299	1.2915e+02	7.0801	13.117449	0.000287	2.866355	0.485574	-0.000029
1300	1.2925e+02	7.0683	13.085268	0.000323	3.234886	0.548005	-0.000032
1301	1.2935e+02	7.0611	13.055125	0.000303	3.030146	0.513321	-0.000030
1302	1.2945e+02	7.0508	13.024982	0.000303	3.030146	0.513321	-0.000030
1303	1.2955e+02	7.0397	12.996060	0.000291	2.907303	0.492510	-0.000029
1304	1.2965e+02	7.0329	12.966324	0.000299	2.989198	0.506384	-0.000030
1305	1.2975e+02	7.0210	12.929664	0.000369	3.685313	0.624309	-0.000037
1306	1.2985e+02	7.0119	12.899113	0.000307	3.071094	0.520257	-0.000031
1307	1.2995e+02	7.0014	12.866933	0.000323	3.234886	0.548005	-0.000032
1308	1.3005e+02	6.9915	12.837197	0.000299	2.989198	0.506384	-0.000030
1309	1.3015e+02	6.9806	12.806239	0.000311	3.112042	0.527194	-0.000031
1310	1.3025e+02	6.9724	12.770393	0.000360	3.603417	0.610435	-0.000036
1311	1.3034e+02	6.9612	12.736583	0.000340	3.398678	0.575752	-0.000034
1312	1.3044e+02	6.9489	12.708069	0.000287	2.866355	0.485574	-0.000029
1313	1.3054e+02	6.9372	12.674667	0.000336	3.357730	0.568815	-0.000034
1314	1.3064e+02	6.9312	12.643709	0.000311	3.112042	0.527194	-0.000031
1315	1.3074e+02	6.9221	12.611936	0.000319	3.193938	0.541068	-0.000032
1316	1.3084e+02	6.9126	12.580164	0.000319	3.193938	0.541068	-0.000032
1317	1.3094e+02	6.9022	12.549206	0.000311	3.112042	0.527194	-0.000031
1318	1.3104e+02	6.8879	12.516618	0.000328	3.275834	0.554941	-0.000033
1319	1.3114e+02	6.8835	12.484438	0.000323	3.234886	0.548005	-0.000032
1320	1.3124e+02	6.8685	12.452258	0.000323	3.234886	0.548005	-0.000032
1321	1.3134e+02	6.8582	12.416412	0.000360	3.603417	0.610435	-0.000036
1322	1.3144e+02	6.8507	12.382603	0.000340	3.398678	0.575752	-0.000034
1323	1.3154e+02	6.8405	12.354496	0.000283	2.825407	0.478637	-0.000028
1324	1.3164e+02	6.8311	12.321094	0.000336	3.357730	0.568815	-0.000034
1325	1.3174e+02	6.8215	12.287692	0.000336	3.357730	0.568815	-0.000034
1326	1.3184e+02	6.8113	12.259178	0.000287	2.866355	0.485574	-0.000029
1327	1.3194e+02	6.8026	12.223739	0.000356	3.562469	0.603499	-0.000036
1328	1.3204e+02	6.7904	12.195225	0.000287	2.866355	0.485574	-0.000029
1329	1.3214e+02	6.7811	12.164267	0.000311	3.112042	0.527194	-0.000031
1330	1.3224e+02	6.7700	12.129643	0.000348	3.480573	0.589625	-0.000035
1331	1.3234e+02	6.7600	12.100314	0.000295	2.948250	0.499447	-0.000029
1332	1.3243e+02	6.7506	12.070578	0.000299	2.989198	0.506384	-0.000030
1333	1.3253e+02	6.7417	12.041657	0.000291	2.907303	0.492510	-0.000029
1334	1.3263e+02	6.7310	12.011513	0.000303	3.030146	0.513321	-0.000030
1335	1.3273e+02	6.7211	11.977297	0.000344	3.439626	0.582688	-0.000034
1336	1.3283e+02	6.7107	11.950005	0.000274	2.743511	0.464763	-0.000027
1337	1.3293e+02	6.7004	11.920676	0.000295	2.948250	0.499447	-0.000029
1338	1.3303e+02	6.6930	11.888903	0.000319	3.193938	0.541068	-0.000032
1339	1.3313e+02	6.6824	11.856723	0.000323	3.234886	0.548005	-0.000032
1340	1.3323e+02	6.6705	11.830653	0.000262	2.620667	0.443953	-0.000026
1341	1.3333e+02	6.6609	11.798473	0.000323	3.234886	0.548005	-0.000032
1342	1.3343e+02	6.6521	11.766701	0.000319	3.193938	0.541068	-0.000032
1343	1.3353e+02	6.6422	11.741445	0.000254	2.538771	0.430079	-0.000025
1344	1.3363e+02	6.6319	11.715783	0.000258	2.579719	0.437016	-0.000026
1345	1.3373e+02	6.6238	11.686861	0.000291	2.907303	0.492510	-0.000029
1346	1.3383e+02	6.6122	11.652645	0.000344	3.439626	0.582688	-0.000034
1347	1.3393e+02	6.6048	11.627389	0.000254	2.538771	0.430079	-0.000025
1348	1.3403e+02	6.5896	11.596839	0.000307	3.071094	0.520257	-0.000031
1349	1.3413e+02	6.5803	11.571584	0.000254	2.538771	0.430079	-0.000025
1350	1.3423e+02	6.5733	11.539403	0.000323	3.234886	0.548005	-0.000032
1351	1.3432e+02	6.5630	11.512519	0.000270	2.702563	0.457827	-0.000027
1352	1.3442e+02	6.5516	11.483598	0.000291	2.907303	0.492510	-0.000029
1353	1.3452e+02	6.5438	11.455084	0.000287	2.866355	0.485574	-0.000029
1354	1.3462e+02	6.5336	11.426570	0.000287	2.866355	0.485574	-0.000029
1355	1.3472e+02	6.5208	11.401314	0.000254	2.538771	0.430079	-0.000025
1356	1.3482e+02	6.5137	11.367912	0.000336	3.357730	0.568815	-0.000034
1357	1.3492e+02	6.5031	11.341435	0.000266	2.661615	0.450890	-0.000027
1358	1.3502e+02	6.4915	11.314143	0.000274	2.743511	0.464763	-0.000027
1359	1.3512e+02	6.4822	11.281963	0.000323	3.234886	0.548005	-0.000032
1360	1.3522e+02	6.4720	11.256708	0.000254	2.538771	0.430079	-0.000025
1361	1.3532e+02	6.4614	11.227379	0.000295	2.948250	0.499447	-0.000029
1362	1.3542e+02	6.4510	11.199272	0.000283	2.825407	0.478637	-0.000028
1363	1.3552e+02	6.4416	11.166685	0.000328	3.275834	0.554941	-0.000033
1364	1.3562e+02	6.4340	11.136542	0.000303	3.030146	0.513321	-0.000030
1365	1.3572e+02	6.4245	11.108435	0.000283	2.825407	0.478637	-0.000028
1366	1.3582e+02	6.4133	11.075848	0.000328	3.275834	0.554941	-0.000033
1367	1.3592e+02	6.4039	11.046926	0.000291	2.907303	0.492510	-0.000029
1368	1.3602e+02	6.3929	11.016783	0.000303	3.030146	0.513321	-0.000030
1369	1.3612e+02	6.3814	10.987862	0.000291	2.907303	0.492510	-0.000029
1370	1.3622e+02	6.3726	10.951608	0.000364	3.644365	0.617372	-0.000036
1371	1.3631e+02	6.3628	10.923094	0.000287	2.866355	0.485574	-0.000029
1372	1.3641e+02	6.3522	10.888063	0.000352	3.521521	0.596562	-0.000035
1373	1.3651e+02	6.3429	10.859956	0.000283	2.825407	0.478637	-0.000028
1374	1.3661e+02	6.3337	10.833071	0.000270	2.702563	0.457827	-0.000027
1375	1.3671e+02	6.3237	10.796003	0.000373	3.726261	0.631246	-0.000037
1376	1.3681e+02	6.3142	10.765860	0.000303	3.030146	0.513321	-0.000030
1377	1.3691e+02	6.3027	10.736939	0.000291	2.907303	0.492510	-0.000029
1378	1.3701e+02	6.2937	10.709239	0.000278	2.784459	0.471700	-0.000028
1379	1.3711e+02	6.2862	10.677059	0.000323	3.234886	0.548005	-0.000032
1380	1.3721e+02	6.2754	10.644879	0.000323	3.234886	0.548005	-0.000032
1381	1.3731e+02	6.2629	10.617995	0.000270	2.702563	0.457827	-0.000027
1382	1.3741e+02	6.2539	10.580926	0.000373	3.726261	0.631246	-0.000037
1383	1.3751e+02	6.2435	10.551190	0.000299	2.989198	0.506384	-0.000030
1384	1.3761e+02	6.2348	10.514937	0.000364	3.644365	0.617372	-0.000036
1385	1.3771e+02	6.2243	10.490904	0.000242	2.415927	0.409269	-0.000024
1386	1.3781e+02	6.2141	10.455058	0.000360	3.603417	0.610435	-0.000036
1387	1.3791e+02	6.2049	10.422470	0.000328	3.275834	0.554941	-0.000033
1388	1.3801e+02	6.1953	10.387846	0.000348	3.480573	0.589625	-0.000035
1389	1.3811e+02	6.1843	10.358110	0.000299	2.989198	0.506384	-0.000030
1390	1.3821e+02	6.1730	10.328781	0.000295	2.948250	0.499447	-0.000029
1391	1.3831e+02	6.1642	10.297009	0.000319	3.193938	0.541068	-0.000032
1392	1.3840e+02	6.1559	10.266865	0.000303	3.030146	0.513321	-0.000030
1393	1.3850e+02	6.1446	10.235907	0.000311	3.112042	0.527194	-0.000031
1394	1.3860e+02	6.1341	10.207801	0.000283	2.825407	0.478637	-0.000028
1395	1.3870e+02	6.1254	10.179287	0.000287	2.866355	0.485574	-0.000029
1396	1.3880e+02	6.1160	10.145070	0.000344	3.439626	0.582688	-0.000034
1397	1.3890e+02	6.1039	10.114927	0.000303	3.030146	0.513321	-0.000030
1398	1.3900e+02	6.0959	10.084783	0.000303	3.030146	0.513321	-0.000030
1399	1.3910e+02	6.0865	10.051381	0.000336	3.357730	0.568815	-0.000034
1400	1.3920e+02	6.0749	10.023274	0.000283	2.825407	0.478637	-0.000028
1401	1.3930e+02	6.0639	9.989465	0.000340	3.398678	0.575752	-0.000034
1402	1.3940e+02	6.0554	9.961358	0.000283	2.825407	0.478637	-0.000028
1403	1.3950e+02	6.0440	9.930400	0.000311	3.112042	0.527194	-0.000031
1404	1.3960e+02	6.0345	9.901479	0.000291	2.907303	0.492510	-0.000029
1405	1.3970e+02	6.0256	9.870114	0.000315	3.152990	0.534131	-0.000032
1406	1.3980e+02	6.0128	9.837526	0.000328	3.275834	0.554941	-0.000033
1407	1.3990e+02	6.0046	9.806161	0.000315	3.152990	0.534131	-0.000032
1408	1.4000e+02	5.9949	9.775203	0.000311	3.112042	0.527194	-0.000031
1409	1.4010e+02	5.9849	9.745060	0.000303	3.030146	0.513321	-0.000030
1410	1.4020e+02	5.9772	9.711657	0.000336	3.357730	0.568815	-0.000034
1411	1.4029e+02	5.9652	9.676626	0.000352	3.521521	0.596562	-0.000035
1412	1.4039e+02	5.9548	9.643631	0.000332	3.316782	0.561878	-0.000033
1413	1.4049e+02	5.9473	9.614303	0.000295	2.948250	0.499447	-0.000029
1414	1.4059e+02	5.9361	9.580086	0.000344	3.439626	0.582688	-0.000034
1415	1.4069e+02	5.9246	9.545054	0.000352	3.521521	0.596562	-0.000035
1416	1.4079e+02	5.9164	9.513282	0.000319	3.193938	0.541068	-0.000032
1417	1.4089e+02	5.9069	9.477028	0.000364	3.644365	0.617372	-0.000036
1418	1.4099e+02	5.8971	9.444441	0.000328	3.275834	0.554941	-0.000033
1419	1.4109e+02	5.8862	9.414705	0.000299	2.989198	0.506384	-0.000030
1420	1.4119e+02	5.8790	9.379266	0.000356	3.562469	0.603499	-0.000036
1421	1.4129e+02	5.8685	9.341383	0.000381	3.808157	0.645119	-0.000038
1422	1.4139e+02	5.8550	9.310425	0.000311	3.112042	0.527194	-0.000031
1423	1.4149e+02	5.8437	9.276616	0.000340	3.398678	0.575752	-0.000034
1424	1.4159e+02	5.8366	9.242399	0.000344	3.439626	0.582688	-0.000034
1425	1.4169e+02	5.8273	9.206145	0.000364	3.644365	0.617372	-0.000036
1426	1.4179e+02	5.8173	9.171929	0.000344	3.439626	0.582688	-0.000034
1427	1.4189e+02	5.8047	9.136490	0.000356	3.562469	0.603499	-0.000036
1428	1.4199e+02	5.7952	9.098200	0.000385	3.849105	0.652056	-0.000038
1429	1.4209e+02	5.7839	9.065205	0.000332	3.316782	0.561878	-0.000033
1430	1.4219e+02	5.7755	9.026915	0.000385	3.849105	0.652056	-0.000038
1431	1.4228e+02	5.7684	8.993513	0.000336	3.357730	0.568815	-0.000034
1432	1.4238e+02	5.7592	8.956037	0.000377	3.767209	0.638182	-0.000038
1433	1.4248e+02	5.7461	8.921413	0.000348	3.480573	0.589625	-0.000035
1434	1.4258e+02	5.7371	8.882308	0.000393	3.931001	0.665930	-0.000039
1435	1.4268e+02	5.7267	8.846462	0.000360	3.603417	0.610435	-0.000036
1436	1.4278e+02	5.7170	8.814689	0.000319	3.193938	0.541068	-0.000032
1437	1.4288e+02	5.7058	8.777214	0.000377	3.767209	0.638182	-0.000038
1438	1.4298e+02	5.6985	8.736887	0.000405	4.053844	0.686740	-0.000041
1439	1.4308e+02	5.6898	8.701855	0.000352	3.521521	0.596562	-0.000035
1440	1.4318e+02	5.6763	8.665602	0.000364	3.644365	0.617372	-0.000036
1441	1.4328e+02	5.6657	8.630570	0.000352	3.521521	0.596562	-0.000035
1442	1.4338e+02	5.6568	8.590243	0.000405	4.053844	0.686740	-0.000041
1443	1.4348e+02	5.6490	8.558471	0.000319	3.193938	0.541068	-0.000032
1444	1.4358e+02	5.6361	8.520588	0.000381	3.808157	0.645119	-0.000038
1445	1.4368e+02	5.6274	8.482298	0.000385	3.849105	0.652056	-0.000038
1446	1.4378e+02	5.6173	8.446451	0.000360	3.603417	0.610435	-0.000036
1447	1.4388e+02	5.6103	8.409791	0.000369	3.685313	0.624309	-0.000037
1448	1.4398e+02	5.5974	8.377203	0.000328	3.275834	0.554941	-0.000033
1449	1.4408e+02	5.5856	8.341764	0.000356	3.562469	0.603499	-0.000036
1450	1.4418e+02	5.5787	8.302252	0.000397	3.971949	0.672866	-0.000040
1451	1.4428e+02	5.5673	8.271294	0.000311	3.112042	0.527194	-0.000031
1452	1.4437e+02	5.5563	8.236670	0.000348	3.480573	0.589625	-0.000035
1453	1.4447e+02	5.5477	8.202046	0.000348	3.480573	0.589625	-0.000035
1454	1.4457e+02	5.5383	8.170273	0.000319	3.193938	0.541068	-0.000032
1455	1.4467e+02	5.5289	8.137278	0.000332	3.316782	0.561878	-0.000033
1456	1.4477e+02	5.5172	8.101432	0.000360	3.603417	0.610435	-0.000036
1457	1.4487e+02	5.5083	8.063957	0.000377	3.767209	0.638182	-0.000038
1458	1.4497e+02	5.4984	8.026889	0.000373	3.726261	0.631246	-0.000037
1459	1.4507e+02	5.4873	7.992265	0.000348	3.480573	0.589625	-0.000035
1460	1.4517e+02	5.4793	7.956418	0.000360	3.603417	0.610435	-0.000036
1461	1.4527e+02	5.4682	7.921794	0.000348	3.480573	0.589625	-0.000035
1462	1.4537e+02	5.4580	7.886355	0.000356	3.562469	0.603499	-0.000036
1463	1.4547e+02	5.4485	7.852953	0.000336	3.357730	0.568815	-0.000034
1464	1.4557e+02	5.4379	7.817922	0.000352	3.521521	0.596562	-0.000035
1465	1.4567e+02	5.4273	7.784927	0.000332	3.316782	0.561878	-0.000033
1466	1.4577e+02	5.4174	7.747044	0.000381	3.808157	0.645119	-0.000038
1467	1.4587e+02	5.4102	7.714050	0.000332	3.316782	0.561878	-0.000033
1468	1.4597e+02	5.3969	7.682277	0.000319	3.193938	0.541068	-0.000032
1469	1.4607e+02	5.3921	7.646838	0.000356	3.562469	0.603499	-0.000036
1470	1.4617e+02	5.3780	7.610585	0.000364	3.644365	0.617372	-0.000036
1471	1.4626e+02	5.3699	7.576368	0.000344	3.439626	0.582688	-0.000034
1472	1.4636e+02	5.3579	7.538485	0.000381	3.808157	0.645119	-0.000038
1473	1.4646e+02	5.3483	7.503453	0.000352	3.521521	0.596562	-0.000035
1474	1.4656e+02	5.3403	7.469644	0.000340	3.398678	0.575752	-0.000034
1475	1.4666e+02	5.3313	7.432169	0.000377	3.767209	0.638182	-0.000038
1476	1.4676e+02	5.3178	7.393064	0.000393	3.931001	0.665930	-0.000039
1477	1.4686e+02	5.3078	7.360069	0.000332	3.316782	0.561878	-0.000033
1478	1.4696e+02	5.3016	7.323001	0.000373	3.726261	0.631246	-0.000037
1479	1.4706e+02	5.2900	7.283081	0.000401	4.012897	0.679803	-0.000040
1480	1.4716e+02	5.2796	7.248457	0.000348	3.480573	0.589625	-0.000035
1481	1.4726e+02	5.2692	7.214240	0.000344	3.439626	0.582688	-0.000034
1482	1.4736e+02	5.2616	7.176765	0.000377	3.767209	0.638182	-0.000038
1483	1.4746e+02	5.2480	7.144992	0.000319	3.193938	0.541068	-0.000032
1484	1.4756e+02	5.2421	7.105480	0.000397	3.971949	0.672866	-0.000040
1485	1.4766e+02	5.2288	7.069226	0.000364	3.644365	0.617372	-0.000036
1486	1.4776e+02	5.2238	7.032565	0.000369	3.685313	0.624309	-0.000037
1487	1.4786e+02	5.2102	6.993461	0.000393	3.931001	0.665930	-0.000039
1488	1.4796e+02	5.1999	6.961281	0.000323	3.234886	0.548005	-0.000032
1489	1.4806e+02	5.1906	6.925027	0.000364	3.644365	0.617372	-0.000036
1490	1.4816e+02	5.1793	6.882256	0.000430	4.299532	0.728360	-0.000043
1491	1.4825e+02	5.1676	6.848039	0.000344	3.439626	0.582688	-0.000034
1492	1.4835e+02	5.1594	6.813415	0.000348	3.480573	0.589625	-0.000035
1493	1.4845e+02	5.1530	6.779606	0.000340	3.398678	0.575752	-0.000034
1494	1.4855e+02	5.1405	6.739686	0.000401	4.012897	0.679803	-0.000040
1495	1.4865e+02	5.1296	6.705877	0.000340	3.398678	0.575752	-0.000034
1496	1.4875e+02	5.1176	6.676141	0.000299	2.989198	0.506384	-0.000030
1497	1.4885e+02	5.1080	6.640295	0.000360	3.603417	0.610435	-0.000036
1498	1.4895e+02	5.0989	6.604448	0.000360	3.603417	0.610435	-0.000036
1499	1.4905e+02	5.0931	6.568195	0.000364	3.644365	0.617372	-0.000036
1500	1.4915e+02	5.0796	6.533978	0.000344	3.439626	0.582688	-0.000034
1501	1.4925e+02	5.0713	6.496910	0.000373	3.726261	0.631246	-0.000037
1502	1.4935e+02	5.0615	6.466767	0.000303	3.030146	0.513321	-0.000030
1503	1.4945e+02	5.0489	6.429699	0.000373	3.726261	0.631246	-0.000037
1504	1.4955e+02	5.0410	6.393038	0.000369	3.685313	0.624309	-0.000037
1505	1.4965e+02	5.0283	6.358821	0.000344	3.439626	0.582688	-0.000034
1506	1.4975e+02	5.0207	6.327863	0.000311	3.112042	0.527194	-0.000031
1507	1.4985e+02	5.0102	6.289573	0.000385	3.849105	0.652056	-0.000038
1508	1.4995e+02	5.0035	6.259429	0.000303	3.030146	0.513321	-0.000030
1509	1.5005e+02	4.9911	6.229286	0.000303	3.030146	0.513321	-0.000030
1510	1.5015e+02	4.9812	6.190996	0.000385	3.849105	0.652056	-0.000038
1511	1.5025e+02	4.9720	6.158408	0.000328	3.275834	0.554941	-0.000033
1512	1.5034e+02	4.9634	6.127858	0.000307	3.071094	0.520257	-0.000031
1513	1.5044e+02	4.9516	6.095270	0.000328	3.275834	0.554941	-0.000033
1514	1.5054e+02	4.9425	6.063090	0.000323	3.234886	0.548005	-0.000032
1515	1.5064e+02	4.9293	6.028466	0.000348	3.480573	0.589625	-0.000035
1516	1.5074e+02	4.9257	5.995879	0.000328	3.275834	0.554941	-0.000033
1517	1.5084e+02	4.9122	5.960033	0.000360	3.603417	0.610435	-0.000036
1518	1.5094e+02	4.9004	5.930704	0.000295	2.948250	0.499447	-0.000029
1519	1.5104e+02	4.8934	5.899339	0.000315	3.152990	0.534131	-0.000032
1520	1.5114e+02	4.8785	5.864714	0.000348	3.480573	0.589625	-0.000035
1521	1.5124e+02	4.8699	5.832942	0.000319	3.193938	0.541068	-0.000032
1522	1.5134e+02	4.8609	5.800354	0.000328	3.275834	0.554941	-0.000033
1523	1.5144e+02	4.8515	5.767360	0.000332	3.316782	0.561878	-0.000033
1524	1.5154e+02	4.8421	5.733957	0.000336	3.357730	0.568815	-0.000034
1525	1.5164e+02	4.8328	5.700963	0.000332	3.316782	0.561878	-0.000033
1526	1.5174e+02	4.8199	5.669597	0.000315	3.152990	0.534131	-0.000032
1527	1.5184e+02	4.8113	5.632529	0.000373	3.726261	0.631246	-0.000037
1528	1.5194e+02	4.8035	5.603608	0.000291	2.907303	0.492510	-0.000029
1529	1.5204e+02	4.7936	5.568169	0.000356	3.562469	0.603499	-0.000036
1530	1.5214e+02	4.7813	5.535582	0.000328	3.275834	0.554941	-0.000033
1531	1.5224e+02	4.7741	5.502587	0.000332	3.316782	0.561878	-0.000033
1532	1.5233e+02	4.7623	5.469999	0.000328	3.275834	0.554941	-0.000033
1533	1.5243e+02	4.7536	5.432931	0.000373	3.726261	0.631246	-0.000037
1534	1.5253e+02	4.7437	5.395863	0.000373	3.726261	0.631246	-0.000037
1535	1.5263e+02	4.7298	5.360424	0.000356	3.562469	0.603499	-0.000036
1536	1.5273e+02	4.7245	5.331503	0.000291	2.907303	0.492510	-0.000029
1537	1.5283e+02	4.7137	5.294027	0.000377	3.767209	0.638182	-0.000038
1538	1.5293e+02	4.7015	5.258996	0.000352	3.521521	0.596562	-0.000035
1539	1.5303e+02	4.6914	5.224372	0.000348	3.480573	0.589625	-0.000035
1540	1.5313e+02	4.6806	5.184045	0.000405	4.053844	0.686740	-0.000041
1541	1.5323e+02	4.6718	5.154716	0.000295	2.948250	0.499447	-0.000029
1542	1.5333e+02	4.6639	5.115204	0.000397	3.971949	0.672866	-0.000040
1543	1.5343e+02	4.6514	5.082617	0.000328	3.275834	0.554941	-0.000033
1544	1.5353e+02	4.6420	5.047993	0.000348	3.480573	0.589625	-0.000035
1545	1.5363e+02	4.6328	5.010517	0.000377	3.767209	0.638182	-0.000038
1546	1.5373e+02	4.6211	4.974671	0.000360	3.603417	0.610435	-0.000036
1547	1.5383e+02	4.6136	4.942491	0.000323	3.234886	0.548005	-0.000032
1548	1.5393e+02	4.6040	4.903793	0.000389	3.890053	0.658993	-0.000039
1549	1.5403e+02	4.5910	4.868355	0.000356	3.562469	0.603499	-0.000036
1550	1.5413e+02	4.5840	4.832916	0.000356	3.562469	0.603499	-0.000036
1551	1.5422e+02	4.5746	4.795848	0.000373	3.726261	0.631246	-0.000037
1552	1.5432e+02	4.5618	4.759187	0.000369	3.685313	0.624309	-0.000037
1553	1.5442e+02	4.5541	4.721304	0.000381	3.808157	0.645119	-0.000038
1554	1.5452e+02	4.5404	4.688309	0.000332	3.316782	0.561878	-0.000033
1555	1.5462e+02	4.5310	4.654500	0.000340	3.398678	0.575752	-0.000034
1556	1.5472e+02	4.5239	4.619468	0.000352	3.521521	0.596562	-0.000035
1557	1.5482e+02	4.5133	4.580771	0.000389	3.890053	0.658993	-0.000039
1558	1.5492e+02	4.5034	4.548591	0.000323	3.234886	0.548005	-0.000032
1559	1.5502e+02	4.4904	4.507449	0.000414	4.135740	0.700613	-0.000041
1560	1.5512e+02	4.4840	4.477713	0.000299	2.989198	0.506384	-0.000030
1561	1.5522e+02	4.4717	4.444718	0.000332	3.316782	0.561878	-0.000033
1562	1.5532e+02	4.4643	4.409279	0.000356	3.562469	0.603499	-0.000036
1563	1.5542e+02	4.4564	4.376285	0.000332	3.316782	0.561878	-0.000033
1564	1.5552e+02	4.4427	4.339624	0.000369	3.685313	0.624309	-0.000037
1565	1.5562e+02	4.4329	4.302148	0.000377	3.767209	0.638182	-0.000038
1566	1.5572e+02	4.4241	4.264673	0.000377	3.767209	0.638182	-0.000038
1567	1.5582e+02	4.4143	4.233307	0.000315	3.152990	0.534131	-0.000032
1568	1.5592e+02	4.4032	4.197461	0.000360	3.603417	0.610435	-0.000036
1569	1.5602e+02	4.3917	4.161615	0.000360	3.603417	0.610435	-0.000036
1570	1.5612e+02	4.3836	4.125769	0.000360	3.603417	0.610435	-0.000036
1571	1.5622e+02	4.3748	4.093589	0.000323	3.234886	0.548005	-0.000032
1572	1.5631e+02	4.3642	4.055299	0.000385	3.849105	0.652056	-0.000038
1573	1.5641e+02	4.3552	4.021082	0.000344	3.439626	0.582688	-0.000034
1574	1.5651e+02	4.3435	3.984829	0.000364	3.644365	0.617372	-0.000036
1575	1.5661e+02	4.3352	3.951019	0.000340	3.398678	0.575752	-0.000034
1576	1.5671e+02	4.3252	3.913544	0.000377	3.767209	0.638182	-0.000038
1577	1.5681e+02	4.3147	3.877697	0.000360	3.603417	0.610435	-0.000036
1578	1.5691e+02	4.3052	3.841444	0.000364	3.644365	0.617372	-0.000036
1579	1.5701e+02	4.2986	3.800710	0.000409	4.094792	0.693677	-0.000041
1580	1.5711e+02	4.2865	3.763234	0.000377	3.767209	0.638182	-0.000038
1581	1.5721e+02	4.2757	3.725351	0.000381	3.808157	0.645119	-0.000038
1582	1.5731e+02	4.2648	3.689913	0.000356	3.562469	0.603499	-0.000036
1583	1.5741e+02	4.2573	3.653659	0.000364	3.644365	0.617372	-0.000036
1584	1.5751e+02	4.2434	3.612517	0.000414	4.135740	0.700613	-0.000041
1585	1.5761e+02	4.2335	3.577486	0.000352	3.521521	0.596562	-0.000035
1586	1.5771e+02	4.2233	3.538788	0.000389	3.890053	0.658993	-0.000039
1587	1.5781e+02	4.2139	3.498869	0.000401	4.012897	0.679803	-0.000040
1588	1.5791e+02	4.2040	3.463430	0.000356	3.562469	0.603499	-0.000036
1589	1.5801e+02	4.1962	3.424325	0.000393	3.931001	0.665930	-0.000039
1590	1.5811e+02	4.1819	3.381147	0.000434	4.340480	0.735297	-0.000043
1591	1.5821e+02	4.1744	3.346115	0.000352	3.521521	0.596562	-0.000035
1592	1.5830e+02	4.1656	3.305788	0.000405	4.053844	0.686740	-0.000041
1593	1.5840e+02	4.1550	3.267498	0.000385	3.849105	0.652056	-0.000038
1594	1.5850e+02	4.1427	3.226357	0.000414	4.135740	0.700613	-0.000041
1595	1.5860e+02	4.1354	3.184808	0.000418	4.176688	0.707550	-0.000042
1596	1.5870e+02	4.1241	3.145703	0.000393	3.931001	0.665930	-0.000039
1597	1.5880e+02	4.1128	3.102117	0.000438	4.381428	0.742234	-0.000044
1598	1.5890e+02	4.1088	3.064642	0.000377	3.767209	0.638182	-0.000038
1599	1.5900e+02	4.0942	3.026759	0.000381	3.808157	0.645119	-0.000038
1600	1.5910e+02	4.0850	2.981951	0.000450	4.504272	0.763044	-0.000045
1601	1.5920e+02	4.0730	2.941624	0.000405	4.053844	0.686740	-0.000041
1602	1.5930e+02	4.0666	2.899261	0.000426	4.258584	0.721424	-0.000043
1603	1.5940e+02	4.0568	2.863414	0.000360	3.603417	0.610435	-0.000036
1604	1.5950e+02	4.0456	2.823088	0.000405	4.053844	0.686740	-0.000041
1605	1.5960e+02	4.0353	2.782761	0.000405	4.053844	0.686740	-0.000041
1606	1.5970e+02	4.0230	2.739990	0.000430	4.299532	0.728360	-0.000043
1607	1.5980e+02	4.0170	2.699663	0.000405	4.053844	0.686740	-0.000041
1608	1.5990e+02	4.0051	2.654448	0.000455	4.545220	0.769981	-0.000045
1609	1.6000e+02	3.9956	2.615343	0.000393	3.931001	0.665930	-0.000039
1610	1.6010e+02	3.9851	2.575016	0.000405	4.053844	0.686740	-0.000041
1611	1.6019e+02	3.9747	2.528579	0.000467	4.668063	0.790791	-0.000047
1612	1.6029e+02	3.9676	2.490289	0.000385	3.849105	0.652056	-0.000038
1613	1.6039e+02	3.9537	2.450369	0.000401	4.012897	0.679803	-0.000040
1614	1.6049e+02	3.9450	2.412079	0.000385	3.849105	0.652056	-0.000038
1615	1.6059e+02	3.9390	2.368493	0.000438	4.381428	0.742234	-0.000044
1616	1.6069e+02	3.9248	2.331832	0.000369	3.685313	0.624309	-0.000037
1617	1.6079e+02	3.9178	2.289876	0.000422	4.217636	0.714487	-0.000042
1618	1.6089e+02	3.9053	2.245883	0.000442	4.422376	0.749171	-0.000044
1619	1.6099e+02	3.8978	2.208408	0.000377	3.767209	0.638182	-0.000038
1620	1.6109e+02	3.8839	2.170525	0.000381	3.808157	0.645119	-0.000038
1621	1.6119e+02	3.8737	2.129383	0.000414	4.135740	0.700613	-0.000041
1622	1.6129e+02	3.8648	2.092315	0.000373	3.726261	0.631246	-0.000037
1623	1.6139e+02	3.8560	2.054432	0.000381	3.808157	0.645119	-0.000038
1624	1.6149e+02	3.8448	2.013291	0.000414	4.135740	0.700613	-0.000041
1625	1.6159e+02	3.8380	1.973778	0.000397	3.971949	0.672866	-0.000040
1626	1.6169e+02	3.8296	1.934266	0.000397	3.971949	0.672866	-0.000040
1627	1.6179e+02	3.8160	1.891495	0.000430	4.299532	0.728360	-0.000043
1628	1.6189e+02	3.8074	1.852798	0.000389	3.890053	0.658993	-0.000039
1629	1.6199e+02	3.7968	1.812471	0.000405	4.053844	0.686740	-0.000041
1630	1.6209e+02	3.7847	1.772958	0.000397	3.971949	0.672866	-0.000040
1631	1.6219e+02	3.7757	1.734668	0.000385	3.849105	0.652056	-0.000038
1632	1.6228e+02	3.7648	1.695563	0.000393	3.931001	0.665930	-0.000039
1633	1.6238e+02	3.7569	1.659717	0.000360	3.603417	0.610435	-0.000036
1634	1.6248e+02	3.7466	1.619390	0.000405	4.053844	0.686740	-0.000041
1635	1.6258e+02	3.7370	1.578656	0.000409	4.094792	0.693677	-0.000041
1636	1.6268e+02	3.7309	1.539551	0.000393	3.931001	0.665930	-0.000039
1637	1.6278e+02	3.7177	1.498817	0.000409	4.094792	0.693677	-0.000041
1638	1.6288e+02	3.7061	1.458897	0.000401	4.012897	0.679803	-0.000040
1639	1.6298e+02	3.6990	1.417756	0.000414	4.135740	0.700613	-0.000041
1640	1.6308e+02	3.6893	1.382724	0.000352	3.521521	0.596562	-0.000035
1641	1.6318e+02	3.6785	1.339953	0.000430	4.299532	0.728360	-0.000043
1642	1.6328e+02	3.6662	1.297182	0.000430	4.299532	0.728360	-0.000043
1643	1.6338e+02	3.6599	1.257263	0.000401	4.012897	0.679803	-0.000040
1644	1.6348e+02	3.6472	1.214899	0.000426	4.258584	0.721424	-0.000043
1645	1.6358e+02	3.6360	1.172128	0.000430	4.299532	0.728360	-0.000043
1646	1.6368e+02	3.6307	1.133023	0.000393	3.931001	0.665930	-0.000039
1647	1.6378e+02	3.6182	1.090252	0.000430	4.299532	0.728360	-0.000043
1648	1.6388e+02	3.6070	1.048703	0.000418	4.176688	0.707550	-0.000042
1649	1.6398e+02	3.5979	1.007969	0.000409	4.094792	0.693677	-0.000041
1650	1.6408e+02	3.5851	0.969272	0.000389	3.890053	0.658993	-0.000039
1651	1.6418e+02	3.5779	0.930574	0.000389	3.890053	0.658993	-0.000039
1652	1.6427e+02	3.5694	0.886988	0.000438	4.381428	0.742234	-0.000044
1653	1.6437e+02	3.5603	0.846254	0.000409	4.094792	0.693677	-0.000041
1654	1.6447e+02	3.5490	0.803891	0.000426	4.258584	0.721424	-0.000043
1655	1.6457e+02	3.5397	0.759490	0.000446	4.463324	0.756107	-0.000045
1656	1.6467e+02	3.5316	0.718349	0.000414	4.135740	0.700613	-0.000041
1657	1.6477e+02	3.5187	0.676800	0.000418	4.176688	0.707550	-0.000042
1658	1.6487e+02	3.5094	0.637287	0.000397	3.971949	0.672866	-0.000040
1659	1.6497e+02	3.4989	0.593294	0.000442	4.422376	0.749171	-0.000044
1660	1.6507e+02	3.4886	0.553782	0.000397	3.971949	0.672866	-0.000040
1661	1.6517e+02	3.4802	0.513455	0.000405	4.053844	0.686740	-0.000041
1662	1.6527e+02	3.4682	0.474758	0.000389	3.890053	0.658993	-0.000039
1663	1.6537e+02	3.4580	0.432801	0.000422	4.217636	0.714487	-0.000042
1664	1.6547e+02	3.4476	0.390438	0.000426	4.258584	0.721424	-0.000043
1665	1.6557e+02	3.4389	0.354592	0.000360	3.603417	0.610435	-0.000036
1666	1.6567e+02	3.4278	0.315079	0.000397	3.971949	0.672866	-0.000040
1667	1.6577e+02	3.4187	0.270272	0.000450	4.504272	0.763044	-0.000045
1668	1.6587e+02	3.4071	0.232796	0.000377	3.767209	0.638182	-0.000038
1669	1.6597e+02	3.3990	0.193691	0.000393	3.931001	0.665930	-0.000039
1670	1.6607e+02	3.3887	0.153772	0.000401	4.012897	0.679803	-0.000040
1671	1.6616e+02	3.3785	0.114667	0.000393	3.931001	0.665930	-0.000039
1672	1.6626e+02	3.3669	0.075969	0.000389	3.890053	0.658993	-0.000039
1673	1.6636e+02	3.3601	0.034013	0.000422	4.217636	0.714487	-0.000042
1674	1.6646e+02	3.3530	-0.002648	0.000369	3.685313	0.624309	-0.000037
1675	1.6656e+02	3.3402	-0.040531	0.000381	3.808157	0.645119	-0.000038
1676	1.6666e+02	3.3282	-0.085746	0.000455	4.545220	0.769981	-0.000045
1677	1.6676e+02	3.3199	-0.118333	0.000328	3.275834	0.554941	-0.000033
1678	1.6686e+02	3.3089	-0.158660	0.000405	4.053844	0.686740	-0.000041
1679	1.6696e+02	3.2972	-0.195728	0.000373	3.726261	0.631246	-0.000037
1680	1.6706e+02	3.2912	-0.233611	0.000381	3.808157	0.645119	-0.000038
1681	1.6716e+02	3.2807	-0.273531	0.000401	4.012897	0.679803	-0.000040
1682	1.6726e+02	3.2693	-0.309377	0.000360	3.603417	0.610435	-0.000036
1683	1.6736e+02	3.2610	-0.345630	0.000364	3.644365	0.617372	-0.000036
1684	1.6746e+02	3.2486	-0.385550	0.000401	4.012897	0.679803	-0.000040
1685	1.6756e+02	3.2417	-0.421396	0.000360	3.603417	0.610435	-0.000036
1686	1.6766e+02	3.2295	-0.462130	0.000409	4.094792	0.693677	-0.000041
1687	1.6776e+02	3.2159	-0.502864	0.000409	4.094792	0.693677	-0.000041
1688	1.6786e+02	3.2088	-0.541969	0.000393	3.931001	0.665930	-0.000039
1689	1.6796e+02	3.2003	-0.575779	0.000340	3.398678	0.575752	-0.000034
1690	1.6806e+02	3.1885	-0.617735	0.000422	4.217636	0.714487	-0.000042
1691	1.6816e+02	3.1790	-0.650730	0.000332	3.316782	0.561878	-0.000033
1692	1.6825e+02	3.1699	-0.687798	0.000373	3.726261	0.631246	-0.000037
1693	1.6835e+02	3.1605	-0.728125	0.000405	4.053844	0.686740	-0.000041
1694	1.6845e+02	3.1498	-0.766008	0.000381	3.808157	0.645119	-0.000038
1695	1.6855e+02	3.1385	-0.807149	0.000414	4.135740	0.700613	-0.000041
1696	1.6865e+02	3.1303	-0.842995	0.000360	3.603417	0.610435	-0.000036
1697	1.6875e+02	3.1170	-0.884544	0.000418	4.176688	0.707550	-0.000042
1698	1.6885e+02	3.1109	-0.921205	0.000369	3.685313	0.624309	-0.000037
1699	1.6895e+02	3.0987	-0.961125	0.000401	4.012897	0.679803	-0.000040
1700	1.6905e+02	3.0916	-1.004303	0.000434	4.340480	0.735297	-0.000043
1701	1.6915e+02	3.0798	-1.039335	0.000352	3.521521	0.596562	-0.000035
1702	1.6925e+02	3.0709	-1.080883	0.000418	4.176688	0.707550	-0.000042
1703	1.6935e+02	3.0633	-1.123654	0.000430	4.299532	0.728360	-0.000043
1704	1.6945e+02	3.0504	-1.163574	0.000401	4.012897	0.679803	-0.000040
1705	1.6955e+02	3.0420	-1.207160	0.000438	4.381428	0.742234	-0.000044
1706	1.6965e+02	3.0309	-1.247487	0.000405	4.053844	0.686740	-0.000041
1707	1.6975e+02	3.0203	-1.282925	0.000356	3.562469	0.603499	-0.000036
1708	1.6985e+02	3.0122	-1.324067	0.000414	4.135740	0.700613	-0.000041
1709	1.6995e+02	3.0024	-1.364394	0.000405	4.053844	0.686740	-0.000041
1710	1.7005e+02	2.9916	-1.405535	0.000414	4.135740	0.700613	-0.000041
1711	1.7015e+02	2.9783	-1.449121	0.000438	4.381428	0.742234	-0.000044
1712	1.7024e+02	2.9720	-1.488226	0.000393	3.931001	0.665930	-0.000039
1713	1.7034e+02	2.9605	-1.528553	0.000405	4.053844	0.686740	-0.000041
1714	1.7044e+02	2.9497	-1.569695	0.000414	4.135740	0.700613	-0.000041
1715	1.7054e+02	2.9395	-1.613280	0.000438	4.381428	0.742234	-0.000044
1716	1.7064e+02	2.9310	-1.652385	0.000393	3.931001	0.665930	-0.000039
1717	1.7074e+02	2.9214	-1.696378	0.000442	4.422376	0.749171	-0.000044
1718	1.7084e+02	2.9122	-1.737112	0.000409	4.094792	0.693677	-0.000041
1719	1.7094e+02	2.9021	-1.779883	0.000430	4.299532	0.728360	-0.000043
1720	1.7104e+02	2.8909	-1.819396	0.000397	3.971949	0.672866	-0.000040
1721	1.7114e+02	2.8809	-1.862166	0.000430	4.299532	0.728360	-0.000043
1722	1.7124e+02	2.8742	-1.904123	0.000422	4.217636	0.714487	-0.000042
1723	1.7134e+02	2.8625	-1.946486	0.000426	4.258584	0.721424	-0.000043
1724	1.7144e+02	2.8492	-1.983555	0.000373	3.726261	0.631246	-0.000037
1725	1.7154e+02	2.8410	-2.027140	0.000438	4.381428	0.742234	-0.000044
1726	1.7164e+02	2.8297	-2.065838	0.000389	3.890053	0.658993	-0.000039
1727	1.7174e+02	2.8201	-2.106572	0.000409	4.094792	0.693677	-0.000041
1728	1.7184e+02	2.8098	-2.147306	0.000409	4.094792	0.693677	-0.000041
1729	1.7194e+02	2.8005	-2.186818	0.000397	3.971949	0.672866	-0.000040
1730	1.7204e+02	2.7932	-2.229182	0.000426	4.258584	0.721424	-0.000043
1731	1.7213e+02	2.7847	-2.267065	0.000381	3.808157	0.645119	-0.000038
1732	1.7223e+02	2.7729	-2.310243	0.000434	4.340480	0.735297	-0.000043
1733	1.7233e+02	2.7627	-2.352607	0.000426	4.258584	0.721424	-0.000043
1734	1.7243e+02	2.7513	-2.393749	0.000414	4.135740	0.700613	-0.000041
1735	1.7253e+02	2.7425	-2.440186	0.000467	4.668063	0.790791	-0.000047
1736	1.7263e+02	2.7299	-2.476439	0.000364	3.644365	0.617372	-0.000036
1737	1.7273e+02	2.7245	-2.515544	0.000393	3.931001	0.665930	-0.000039
1738	1.7283e+02	2.7105	-2.560759	0.000455	4.545220	0.769981	-0.000045
1739	1.7293e+02	2.7025	-2.596605	0.000360	3.603417	0.610435	-0.000036
1740	1.7303e+02	2.6899	-2.639783	0.000434	4.340480	0.735297	-0.000043
1741	1.7313e+02	2.6814	-2.681740	0.000422	4.217636	0.714487	-0.000042
1742	1.7323e+02	2.6707	-2.720845	0.000393	3.931001	0.665930	-0.000039
1743	1.7333e+02	2.6611	-2.763208	0.000426	4.258584	0.721424	-0.000043
1744	1.7343e+02	2.6529	-2.804757	0.000418	4.176688	0.707550	-0.000042
1745	1.7353e+02	2.6431	-2.846713	0.000422	4.217636	0.714487	-0.000042
1746	1.7363e+02	2.6330	-2.890299	0.000438	4.381428	0.742234	-0.000044
1747	1.7373e+02	2.6243	-2.934292	0.000442	4.422376	0.749171	-0.000044
1748	1.7383e+02	2.6117	-2.979914	0.000459	4.586167	0.776918	-0.000046
1749	1.7393e+02	2.6050	-3.025944	0.000463	4.627115	0.783855	-0.000046
1750	1.7403e+02	2.5923	-3.065049	0.000393	3.931001	0.665930	-0.000039
1751	1.7413e+02	2.5838	-3.109857	0.000450	4.504272	0.763044	-0.000045
1752	1.7422e+02	2.5751	-3.156701	0.000471	4.709011	0.797728	-0.000047
1753	1.7432e+02	2.5614	-3.201916	0.000455	4.545220	0.769981	-0.000045
1754	1.7442e+02	2.5509	-3.240206	0.000385	3.849105	0.652056	-0.000038
1755	1.7452e+02	2.5420	-3.285829	0.000459	4.586167	0.776918	-0.000046
1756	1.7462e+02	2.5319	-3.330636	0.000450	4.504272	0.763044	-0.000045
1757	1.7472e+02	2.5225	-3.373815	0.000434	4.340480	0.735297	-0.000043
1758	1.7482e+02	2.5126	-3.417808	0.000442	4.422376	0.749171	-0.000044
1759	1.7492e+02	2.5030	-3.463430	0.000459	4.586167	0.776918	-0.000046
1760	1.7502e+02	2.4938	-3.509867	0.000467	4.668063	0.790791	-0.000047
1761	1.7512e+02	2.4854	-3.552638	0.000430	4.299532	0.728360	-0.000043
1762	1.7522e+02	2.4732	-3.601112	0.000487	4.872803	0.825475	-0.000049
1763	1.7532e+02	2.4616	-3.645512	0.000446	4.463324	0.756107	-0.000045
1764	1.7542e+02	2.4525	-3.691542	0.000463	4.627115	0.783855	-0.000046
1765	1.7552e+02	2.4430	-3.742052	0.000508	5.077543	0.860159	-0.000051
1766	1.7562e+02	2.4304	-3.785638	0.000438	4.381428	0.742234	-0.000044
1767	1.7572e+02	2.4258	-3.832482	0.000471	4.709011	0.797728	-0.000047
1768	1.7582e+02	2.4142	-3.882178	0.000500	4.995647	0.846285	-0.000050
1769	1.7592e+02	2.4048	-3.928208	0.000463	4.627115	0.783855	-0.000046
1770	1.7602e+02	2.3919	-3.968127	0.000401	4.012897	0.679803	-0.000040
1771	1.7612e+02	2.3867	-4.018231	0.000504	5.036595	0.853222	-0.000050
1772	1.7621e+02	2.3712	-4.064260	0.000463	4.627115	0.783855	-0.000046
1773	1.7631e+02	2.3659	-4.113141	0.000491	4.913751	0.832412	-0.000049
1774	1.7641e+02	2.3536	-4.162837	0.000500	4.995647	0.846285	-0.000050
1775	1.7651e+02	2.3449	-4.210089	0.000475	4.749959	0.804665	-0.000047
1776	1.7661e+02	2.3338	-4.262229	0.000524	5.241334	0.887906	-0.000052
1777	1.7671e+02	2.3265	-4.307444	0.000455	4.545220	0.769981	-0.000045
1778	1.7681e+02	2.3138	-4.353474	0.000463	4.627115	0.783855	-0.000046
1779	1.7691e+02	2.3078	-4.400725	0.000475	4.749959	0.804665	-0.000047
1780	1.7701e+02	2.2924	-4.451236	0.000508	5.077543	0.860159	-0.000051
1781	1.7711e+02	2.2845	-4.492785	0.000418	4.176688	0.707550	-0.000042
1782	1.7721e+02	2.2741	-4.540851	0.000483	4.831855	0.818538	-0.000048
1783	1.7731e+02	2.2653	-4.588103	0.000475	4.749959	0.804665	-0.000047
1784	1.7741e+02	2.2519	-4.634133	0.000463	4.627115	0.783855	-0.000046
1785	1.7751e+02	2.2433	-4.678940	0.000450	4.504272	0.763044	-0.000045
1786	1.7761e+02	2.2331	-4.725377	0.000467	4.668063	0.790791	-0.000047
1787	1.7771e+02	2.2247	-4.772222	0.000471	4.709011	0.797728	-0.000047
1788	1.7781e+02	2.2146	-4.821917	0.000500	4.995647	0.846285	-0.000050
1789	1.7791e+02	2.2047	-4.862244	0.000405	4.053844	0.686740	-0.000041
1790	1.7801e+02	2.1936	-4.909496	0.000475	4.749959	0.804665	-0.000047
1791	1.7810e+02	2.1851	-4.953489	0.000442	4.422376	0.749171	-0.000044
1792	1.7820e+02	2.1773	-5.001148	0.000479	4.790907	0.811602	-0.000048
1793	1.7830e+02	2.1648	-5.051251	0.000504	5.036595	0.853222	-0.000050
1794	1.7840e+02	2.1528	-5.094022	0.000430	4.299532	0.728360	-0.000043
1795	1.7850e+02	2.1462	-5.141274	0.000475	4.749959	0.804665	-0.000047
1796	1.7860e+02	2.1362	-5.186896	0.000459	4.586167	0.776918	-0.000046
1797	1.7870e+02	2.1255	-5.233741	0.000471	4.709011	0.797728	-0.000047
1798	1.7880e+02	2.1133	-5.278548	0.000450	4.504272	0.763044	-0.000045
1799	1.7890e+02	2.1051	-5.324578	0.000463	4.627115	0.783855	-0.000046
1800	1.7900e+02	2.0940	-5.372645	0.000483	4.831855	0.818538	-0.000048
1801	1.7910e+02	2.0855	-5.419489	0.000471	4.709011	0.797728	-0.000047
1802	1.7920e+02	2.0753	-5.465111	0.000459	4.586167	0.776918	-0.000046
1803	1.7930e+02	2.0676	-5.508290	0.000434	4.340480	0.735297	-0.000043
1804	1.7940e+02	2.0551	-5.555134	0.000471	4.709011	0.797728	-0.000047
1805	1.7950e+02	2.0461	-5.600756	0.000459	4.586167	0.776918	-0.000046
1806	1.7960e+02	2.0358	-5.646379	0.000459	4.586167	0.776918	-0.000046
1807	1.7970e+02	2.0244	-5.696889	0.000508	5.077543	0.860159	-0.000051
1808	1.7980e+02	2.0132	-5.740475	0.000438	4.381428	0.742234	-0.000044
1809	1.7990e+02	2.0043	-5.789356	0.000491	4.913751	0.832412	-0.000049
1810	1.8000e+02	1.9960	-5.840681	0.000516	5.159438	0.874033	-0.000052
1811	1.8009e+02	1.9854	-5.885489	0.000450	4.504272	0.763044	-0.000045
1812	1.8019e+02	1.9727	-5.933148	0.000479	4.790907	0.811602	-0.000048
1813	1.8029e+02	1.9658	-5.979585	0.000467	4.668063	0.790791	-0.000047
1814	1.8039e+02	1.9560	-6.031725	0.000524	5.241334	0.887906	-0.000052
1815	1.8049e+02	1.9457	-6.079791	0.000483	4.831855	0.818538	-0.000048
1816	1.8059e+02	1.9363	-6.124599	0.000450	4.504272	0.763044	-0.000045
1817	1.8069e+02	1.9252	-6.169814	0.000455	4.545220	0.769981	-0.000045
1818	1.8079e+02	1.9157	-6.220324	0.000508	5.077543	0.860159	-0.000051
1819	1.8089e+02	1.9034	-6.269613	0.000495	4.954699	0.839349	-0.000050
1820	1.8099e+02	1.8954	-6.318901	0.000495	4.954699	0.839349	-0.000050
1821	1.8109e+02	1.8884	-6.364116	0.000455	4.545220	0.769981	-0.000045
1822	1.8119e+02	1.8758	-6.413405	0.000495	4.954699	0.839349	-0.000050
1823	1.8129e+02	1.8649	-6.463915	0.000508	5.077543	0.860159	-0.000051
1824	1.8139e+02	1.8574	-6.509945	0.000463	4.627115	0.783855	-0.000046
1825	1.8149e+02	1.8462	-6.563714	0.000541	5.405126	0.915653	-0.000054
1826	1.8159e+02	1.8347	-6.606485	0.000430	4.299532	0.728360	-0.000043
1827	1.8169e+02	1.8277	-6.659032	0.000528	5.282282	0.894843	-0.000053
1828	1.8179e+02	1.8170	-6.706284	0.000475	4.749959	0.804665	-0.000047
1829	1.8189e+02	1.8085	-6.751499	0.000455	4.545220	0.769981	-0.000045
1830	1.8199e+02	1.7955	-6.802417	0.000512	5.118490	0.867096	-0.000051
1831	1.8209e+02	1.7873	-6.843151	0.000409	4.094792	0.693677	-0.000041
1832	1.8218e+02	1.7770	-6.891625	0.000487	4.872803	0.825475	-0.000049
1833	1.8228e+02	1.7669	-6.938469	0.000471	4.709011	0.797728	-0.000047
1834	1.8238e+02	1.7570	-6.988980	0.000508	5.077543	0.860159	-0.000051
1835	1.8248e+02	1.7432	-7.030936	0.000422	4.217636	0.714487	-0.000042
1836	1.8258e+02	1.7378	-7.078188	0.000475	4.749959	0.804665	-0.000047
1837	1.8268e+02	1.7249	-7.125440	0.000475	4.749959	0.804665	-0.000047
1838	1.8278e+02	1.7167	-7.175135	0.000500	4.995647	0.846285	-0.000050
1839	1.8288e+02	1.7066	-7.220350	0.000455	4.545220	0.769981	-0.000045
1840	1.8298e+02	1.6973	-7.265565	0.000455	4.545220	0.769981	-0.000045
1841	1.8308e+02	1.6864	-7.314447	0.000491	4.913751	0.832412	-0.000049
1842	1.8318e+02	1.6761	-7.361291	0.000471	4.709011	0.797728	-0.000047
1843	1.8328e+02	1.6674	-7.407728	0.000467	4.668063	0.790791	-0.000047
1844	1.8338e+02	1.6553	-7.451314	0.000438	4.381428	0.742234	-0.000044
1845	1.8348e+02	1.6483	-7.498565	0.000475	4.749959	0.804665	-0.000047
1846	1.8358e+02	1.6357	-7.542558	0.000442	4.422376	0.749171	-0.000044
1847	1.8368e+02	1.6267	-7.586551	0.000442	4.422376	0.749171	-0.000044
1848	1.8378e+02	1.6174	-7.634618	0.000483	4.831855	0.818538	-0.000048
1849	1.8388e+02	1.6057	-7.679018	0.000446	4.463324	0.756107	-0.000045
1850	1.8398e+02	1.5985	-7.727085	0.000483	4.831855	0.818538	-0.000048
1851	1.8407e+02	1.5874	-7.766189	0.000393	3.931001	0.665930	-0.000039
1852	1.8417e+02	1.5794	-7.815071	0.000491	4.913751	0.832412	-0.000049
1853	1.8427e+02	1.5682	-7.861100	0.000463	4.627115	0.783855	-0.000046
1854	1.8437e+02	1.5591	-7.907130	0.000463	4.627115	0.783855	-0.000046
1855	1.8447e+02	1.5482	-7.949494	0.000426	4.258584	0.721424	-0.000043
1856	1.8457e+02	1.5363	-7.997153	0.000479	4.790907	0.811602	-0.000048
1857	1.8467e+02	1.5269	-8.043997	0.000471	4.709011	0.797728	-0.000047
1858	1.8477e+02	1.5195	-8.087990	0.000442	4.422376	0.749171	-0.000044
1859	1.8487e+02	1.5090	-8.129539	0.000418	4.176688	0.707550	-0.000042
1860	1.8497e+02	1.4977	-8.178013	0.000487	4.872803	0.825475	-0.000049
1861	1.8507e+02	1.4867	-8.222413	0.000446	4.463324	0.756107	-0.000045
1862	1.8517e+02	1.4780	-8.269665	0.000475	4.749959	0.804665	-0.000047
1863	1.8527e+02	1.4700	-8.313658	0.000442	4.422376	0.749171	-0.000044
1864	1.8537e+02	1.4553	-8.361724	0.000483	4.831855	0.818538	-0.000048
1865	1.8547e+02	1.4484	-8.407347	0.000459	4.586167	0.776918	-0.000046
1866	1.8557e+02	1.4368	-8.456228	0.000491	4.913751	0.832412	-0.000049
1867	1.8567e+02	1.4268	-8.497369	0.000414	4.135740	0.700613	-0.000041
1868	1.8577e+02	1.4175	-8.549916	0.000528	5.282282	0.894843	-0.000053
1869	1.8587e+02	1.4075	-8.597576	0.000479	4.790907	0.811602	-0.000048
1870	1.8597e+02	1.4004	-8.643198	0.000459	4.586167	0.776918	-0.000046
1871	1.8606e+02	1.3878	-8.693708	0.000508	5.077543	0.860159	-0.000051
1872	1.8616e+02	1.3780	-8.744219	0.000508	5.077543	0.860159	-0.000051
1873	1.8626e+02	1.3702	-8.794729	0.000508	5.077543	0.860159	-0.000051
1874	1.8636e+02	1.3612	-8.837093	0.000426	4.258584	0.721424	-0.000043
1875	1.8646e+02	1.3483	-8.884752	0.000479	4.790907	0.811602	-0.000048
1876	1.8656e+02	1.3417	-8.939336	0.000549	5.487022	0.929527	-0.000055
1877	1.8666e+02	1.3287	-8.981292	0.000422	4.217636	0.714487	-0.000042
1878	1.8676e+02	1.3193	-9.033025	0.000520	5.200386	0.880969	-0.000052
1879	1.8686e+02	1.3099	-9.078647	0.000459	4.586167	0.776918	-0.000046
1880	1.8696e+02	1.2966	-9.128750	0.000504	5.036595	0.853222	-0.000050
1881	1.8706e+02	1.2908	-9.175595	0.000471	4.709011	0.797728	-0.000047
1882	1.8716e+02	1.2801	-9.224883	0.000495	4.954699	0.839349	-0.000050
1883	1.8726e+02	1.2684	-9.274579	0.000500	4.995647	0.846285	-0.000050
1884	1.8736e+02	1.2561	-9.321831	0.000475	4.749959	0.804665	-0.000047
1885	1.8746e+02	1.2500	-9.372748	0.000512	5.118490	0.867096	-0.000051
1886	1.8756e+02	1.2399	-9.421222	0.000487	4.872803	0.825475	-0.000049
1887	1.8766e+02	1.2309	-9.470103	0.000491	4.913751	0.832412	-0.000049
1888	1.8776e+02	1.2157	-9.521428	0.000516	5.159438	0.874033	-0.000052
1889	1.8786e+02	1.2071	-9.569495	0.000483	4.831855	0.818538	-0.000048
1890	1.8796e+02	1.2006	-9.622857	0.000536	5.364178	0.908716	-0.000054
1891	1.8806e+02	1.1901	-9.668479	0.000459	4.586167	0.776918	-0.000046
1892	1.8815e+02	1.1810	-9.715731	0.000475	4.749959	0.804665	-0.000047
1893	1.8825e+02	1.1696	-9.766241	0.000508	5.077543	0.860159	-0.000051
1894	1.8835e+02	1.1598	-9.810642	0.000446	4.463324	0.756107	-0.000045
1895	1.8845e+02	1.1497	-9.860745	0.000504	5.036595	0.853222	-0.000050
1896	1.8855e+02	1.1404	-9.909626	0.000491	4.913751	0.832412	-0.000049
1897	1.8865e+02	1.1274	-9.958914	0.000495	4.954699	0.839349	-0.000050
1898	1.8875e+02	1.1198	-10.008610	0.000500	4.995647	0.846285	-0.000050
1899	1.8885e+02	1.1083	-10.055862	0.000475	4.749959	0.804665	-0.000047
1900	1.8895e+02	1.1016	-10.105150	0.000495	4.954699	0.839349	-0.000050
1901	1.8905e+02	1.0902	-10.154439	0.000495	4.954699	0.839349	-0.000050
1902	1.8915e+02	1.0819	-10.209837	0.000557	5.568918	0.943400	-0.000056
1903	1.8925e+02	1.0709	-10.257904	0.000483	4.831855	0.818538	-0.000048
1904	1.8935e+02	1.0576	-10.307192	0.000495	4.954699	0.839349	-0.000050
1905	1.8945e+02	1.0512	-10.353222	0.000463	4.627115	0.783855	-0.000046
1906	1.8955e+02	1.0416	-10.400474	0.000475	4.749959	0.804665	-0.000047
1907	1.8965e+02	1.0316	-10.454243	0.000541	5.405126	0.915653	-0.000054
1908	1.8975e+02	1.0233	-10.500273	0.000463	4.627115	0.783855	-0.000046
1909	1.8985e+02	1.0085	-10.550376	0.000504	5.036595	0.853222	-0.000050
1910	1.8995e+02	1.0027	-10.599664	0.000495	4.954699	0.839349	-0.000050
1911	1.9004e+02	0.9900	-10.648953	0.000495	4.954699	0.839349	-0.000050
1912	1.9014e+02	0.9787	-10.699463	0.000508	5.077543	0.860159	-0.000051
1913	1.9024e+02	0.9714	-10.753232	0.000541	5.405126	0.915653	-0.000054
1914	1.9034e+02	0.9590	-10.803743	0.000508	5.077543	0.860159	-0.000051
1915	1.9044e+02	0.9523	-10.853439	0.000500	4.995647	0.846285	-0.000050
1916	1.9054e+02	0.9433	-10.906393	0.000532	5.323230	0.901780	-0.000053
1917	1.9064e+02	0.9325	-10.959348	0.000532	5.323230	0.901780	-0.000053
1918	1.9074e+02	0.9209	-11.012302	0.000532	5.323230	0.901780	-0.000053
1919	1.9084e+02	0.9097	-11.061183	0.000491	4.913751	0.832412	-0.000049
1920	1.9094e+02	0.9039	-11.119433	0.000586	5.855553	0.991958	-0.000059
1921	1.9104e+02	0.8944	-11.167907	0.000487	4.872803	0.825475	-0.000049
1922	1.9114e+02	0.8822	-11.222491	0.000549	5.487022	0.929527	-0.000055
1923	1.9124e+02	0.8722	-11.274223	0.000520	5.200386	0.880969	-0.000052
1924	1.9134e+02	0.8619	-11.325141	0.000512	5.118490	0.867096	-0.000051
1925	1.9144e+02	0.8513	-11.377281	0.000524	5.241334	0.887906	-0.000052
1926	1.9154e+02	0.8414	-11.430643	0.000536	5.364178	0.908716	-0.000054
1927	1.9164e+02	0.8276	-11.485634	0.000553	5.527970	0.936463	-0.000055
1928	1.9174e+02	0.8214	-11.535737	0.000504	5.036595	0.853222	-0.000050
1929	1.9184e+02	0.8126	-11.592765	0.000573	5.732709	0.971147	-0.000057
1930	1.9194e+02	0.8001	-11.651830	0.000594	5.937449	1.005831	-0.000059
1931	1.9203e+02	0.7914	-11.706414	0.000549	5.487022	0.929527	-0.000055
1932	1.9213e+02	0.7813	-11.760590	0.000545	5.446074	0.922590	-0.000054
1933	1.9223e+02	0.7725	-11.817211	0.000569	5.691761	0.964210	-0.000057
1934	1.9233e+02	0.7613	-11.871795	0.000549	5.487022	0.929527	-0.000055
1935	1.9243e+02	0.7539	-11.928008	0.000565	5.650813	0.957274	-0.000056
1936	1.9253e+02	0.7436	-11.982592	0.000549	5.487022	0.929527	-0.000055
1937	1.9263e+02	0.7343	-12.035547	0.000532	5.323230	0.901780	-0.000053
1938	1.9273e+02	0.7219	-12.093797	0.000586	5.855553	0.991958	-0.000059
1939	1.9283e+02	0.7117	-12.147973	0.000545	5.446074	0.922590	-0.000054
1940	1.9293e+02	0.7011	-12.202557	0.000549	5.487022	0.929527	-0.000055
1941	1.9303e+02	0.6946	-12.262436	0.000602	6.019345	1.019705	-0.000060
1942	1.9313e+02	0.6791	-12.317428	0.000553	5.527970	0.936463	-0.000055
1943	1.9323e+02	0.6733	-12.374456	0.000573	5.732709	0.971147	-0.000057
1944	1.9333e+02	0.6631	-12.431076	0.000569	5.691761	0.964210	-0.000057
1945	1.9343e+02	0.6532	-12.486475	0.000557	5.568918	0.943400	-0.000056
1946	1.9353e+02	0.6429	-12.539837	0.000536	5.364178	0.908716	-0.000054
1947	1.9363e+02	0.6326	-12.600938	0.000614	6.142189	1.040515	-0.000061
1948	1.9373e+02	0.6255	-12.655522	0.000549	5.487022	0.929527	-0.000055
1949	1.9383e+02	0.6107	-12.713772	0.000586	5.855553	0.991958	-0.000059
1950	1.9393e+02	0.6036	-12.764690	0.000512	5.118490	0.867096	-0.000051
1951	1.9403e+02	0.5930	-12.824162	0.000598	5.978397	1.012768	-0.000060
1952	1.9412e+02	0.5837	-12.875894	0.000520	5.200386	0.880969	-0.000052
1953	1.9422e+02	0.5721	-12.932922	0.000573	5.732709	0.971147	-0.000057
1954	1.9432e+02	0.5620	-12.985877	0.000532	5.323230	0.901780	-0.000053
1955	1.9442e+02	0.5518	-13.044127	0.000586	5.855553	0.991958	-0.000059
1956	1.9452e+02	0.5437	-13.096267	0.000524	5.241334	0.887906	-0.000052
1957	1.9462e+02	0.5341	-13.151665	0.000557	5.568918	0.943400	-0.000056
1958	1.9472e+02	0.5246	-13.207064	0.000557	5.568918	0.943400	-0.000056
1959	1.9482e+02	0.5119	-13.262462	0.000557	5.568918	0.943400	-0.000056
1960	1.9492e+02	0.5032	-13.315010	0.000528	5.282282	0.894843	-0.000053
1961	1.9502e+02	0.4920	-13.374482	0.000598	5.978397	1.012768	-0.000060
1962	1.9512e+02	0.4827	-13.430695	0.000565	5.650813	0.957274	-0.000056
1963	1.9522e+02	0.4720	-13.482835	0.000524	5.241334	0.887906	-0.000052
1964	1.9532e+02	0.4660	-13.541899	0.000594	5.937449	1.005831	-0.000059
1965	1.9542e+02	0.4523	-13.596483	0.000549	5.487022	0.929527	-0.000055
1966	1.9552e+02	0.4444	-13.652289	0.000561	5.609866	0.950337	-0.000056
1967	1.9562e+02	0.4339	-13.706059	0.000541	5.405126	0.915653	-0.000054
1968	1.9572e+02	0.4229	-13.763901	0.000581	5.814605	0.985021	-0.000058
1969	1.9582e+02	0.4153	-13.815226	0.000516	5.159438	0.874033	-0.000052
1970	1.9592e+02	0.4030	-13.875513	0.000606	6.060293	1.026641	-0.000061
1971	1.9601e+02	0.3941	-13.926023	0.000508	5.077543	0.860159	-0.000051
1972	1.9611e+02	0.3846	-13.984273	0.000586	5.855553	0.991958	-0.000059
1973	1.9621e+02	0.3761	-14.036413	0.000524	5.241334	0.887906	-0.000052
1974	1.9631e+02	0.3627	-14.093441	0.000573	5.732709	0.971147	-0.000057
1975	1.9641e+02	0.3556	-14.149655	0.000565	5.650813	0.957274	-0.000056
1976	1.9651e+02	0.3441	-14.205868	0.000565	5.650813	0.957274	-0.000056
1977	1.9661e+02	0.3338	-14.262896	0.000573	5.732709	0.971147	-0.000057
1978	1.9671e+02	0.3234	-14.322368	0.000598	5.978397	1.012768	-0.000060
1979	1.9681e+02	0.3128	-14.377359	0.000553	5.527970	0.936463	-0.000055
1980	1.9691e+02	0.3033	-14.434794	0.000577	5.773657	0.978084	-0.000058
1981	1.9701e+02	0.2952	-14.494674	0.000602	6.019345	1.019705	-0.000060
1982	1.9711e+02	0.2841	-14.549258	0.000549	5.487022	0.929527	-0.000055
1983	1.9721e+02	0.2755	-14.608730	0.000598	5.978397	1.012768	-0.000060
1984	1.9731e+02	0.2628	-14.662499	0.000541	5.405126	0.915653	-0.000054
1985	1.9741e+02	0.2536	-14.720749	0.000586	5.855553	0.991958	-0.000059
1986	1.9751e+02	0.2450	-14.779813	0.000594	5.937449	1.005831	-0.000059
1987	1.9761e+02	0.2354	-14.835212	0.000557	5.568918	0.943400	-0.000056
1988	1.9771e+02	0.2258	-14.895906	0.000610	6.101241	1.033578	-0.000061
1989	1.9781e+02	0.2148	-14.952934	0.000573	5.732709	0.971147	-0.000057
1990	1.9791e+02	0.2046	-15.014035	0.000614	6.142189	1.040515	-0.000061
1991	1.9800e+02	0.1955	-15.066175	0.000524	5.241334	0.887906	-0.000052
1992	1.9810e+02	0.1849	-15.127684	0.000618	6.183136	1.047452	-0.000062
1993	1.9820e+02	0.1749	-15.186341	0.000590	5.896501	0.998894	-0.000059
1994	1.9830e+02	0.1685	-15.243369	0.000573	5.732709	0.971147	-0.000057
1995	1.9840e+02	0.1525	-15.301619	0.000586	5.855553	0.991958	-0.000059
1996	1.9850e+02	0.1454	-15.357425	0.000561	5.609866	0.950337	-0.000056
1997	1.9860e+02	0.1376	-15.417305	0.000602	6.019345	1.019705	-0.000060
1998	1.9870e+02	0.1224	-15.469037	0.000520	5.200386	0.880969	-0.000052
1999	1.9880e+02	0.1157	-15.528916	0.000602	6.019345	1.019705	-0.000060
2000	1.9890e+02	0.1038	-15.586759	0.000581	5.814605	0.985021	-0.000058
2001	1.9900e+02	0.0929	-15.636862	0.000504	5.036595	0.853222	-0.000050
2002	1.9910e+02	0.0864	-15.695520	0.000590	5.896501	0.998894	-0.000059
2003	1.9920e+02	0.0739	-15.754177	0.000590	5.896501	0.998894	-0.000059
2004	1.9930e+02	0.0658	-15.810797	0.000569	5.691761	0.964210	-0.000057
2005	1.9940e+02	0.0547	-15.863752	0.000532	5.323230	0.901780	-0.000053
2006	1.9950e+02	0.0475	-15.925668	0.000622	6.224084	1.054388	-0.000062
2007	1.9960e+02	0.0349	-15.981881	0.000565	5.650813	0.957274	-0.000056
2008	1.9970e+02	0.0254	-16.037280	0.000557	5.568918	0.943400	-0.000056
2009	1.9980e+02	0.0131	-16.093086	0.000561	5.609866	0.950337	-0.000056
2010	1.9990e+02	0.0046	-16.147262	0.000545	5.446074	0.922590	-0.000054
2011	2.0000e+02	-0.0040	-16.203068	0.000545	5.446074	0.922590	-0.000056

PMax (uC/cm2):	4.04e+01
Pr (uC/cm2):	4.00e+00
-Pr (uC/cm2):	0.00e+00
PLoss (uC/cm2):	0.00e+00
C (Max-Eff) (nF):	4.04e-01
K (Eff):	6.85e+02
Vert. (+/-Pr) Shift (uC/cm2):	2.00e+00
Offset (uC/cm2):	2.02e+01

A (Loop Area - uC/cm2·Volts):	-3.97e-02



Hysteresis Version: 5.48.1 - Radiant Technologies, Inc., 1999 - 9/12/24

