»»»»»»»»»»»»»»»»»»»»»»»»»»»»»»»»»»»» Hysteresis ««««««««««««««««««««««««««««««««««««
»»»  Executed Version:	5.48.1
»»»  Vision Version:	5.48.4 (R)
»»»  Vision Compiled:	9/18/24
»»»  Driver Version:	5.47.0
»»»  Windows Version:	Windows 8 or 8.1
»»»  Processor Information:	x86 (AMD or Intel) - 32 Processors
»»»  Tester Name:	PMF21124-494 (100V)
»»»  Tester S/N:	PMF21124-494
»»»  Internal Amp Type:	100V RevK 270k
»»»  Internal Amp S/N:	iAB2-596/K     
»»»  Execution Count:	1
»»»»»»»»»»»»»»»»»»»»»»»»»»»»»»»»»»»»»»»»»»««««««««««««««««««««««««««««««««««««««««««

Stored:	6/27/2025 - 14:38:17
Configured:	06/27/25 11:23:28 AM
Executed:	06/27/25 02:37:43 PM

»»»»»»»»»»»»»»»»»»»»»»»»»»»»»»»»»»» Sample Info ««««««««««««««««««««««««««««««««««««
Sample Name:	
Lot Name:	
Wafer Name:	
Die Row/Column:	0/0
Capacitor Number:	0
Sample Area (cm2):	1.00e-04
Sample Thickness (microns):	1.50e-01

Amplifier:	Internal

»»»»»»»»»»»»»»»»»»»»»»»»»»»»»»»»»»» Tester Info «««««««««««««««««««««««««««««««««««
Tester Name:	PMF21124-494 (100V)
Tester Serial Number:	PMF21124-494
Return Signal Amp. Level:	1.9 [Index: 2]

»»»»»»»»»»»»»»»»»»»»»»»»»»»»»»»» Hysteresis Info ««««««««««««««««««««««««««««««««««
Task Name:	Hyst-1276
Volts:	10.00
Field:	666.67 (kV/cm)
DCBias:	0.00
DCField:	0.00 (kV/cm)
Hysteresis Period (ms):	2.00e+02
Preset:	Enabled
Preset Delay (ms):	1.00e+03
Profile:	Standard Monopolar

»»»»»»»»»»»»»»»»»»»»»»»»»»»»»»»»»»»»»» Data «««««««««««««««««««««««««««««««««««««««
Points:	2011

Valid Data

Point	Time (ms)	Drive Voltage	Measured Polarization (uC/cm2)	Capacitance (uF)	Normalized Capacitance (uF/cm2)	Dielectric Constant	Instantaneous Current (mA)
   1	0.0000e+00	-0.0014	-17.681722	0.000434	4.340215	0.735252	0.000043
   2	9.9500e-02	0.0056	-17.638543	0.000434	4.340215	0.735252	0.000043
   3	1.9900e-01	0.0180	-17.590477	0.000483	4.831560	0.818488	0.000048
   4	2.9850e-01	0.0266	-17.546077	0.000446	4.463051	0.756061	0.000045
   5	3.9800e-01	0.0344	-17.498418	0.000479	4.790615	0.811552	0.000048
   6	4.9750e-01	0.0443	-17.449537	0.000491	4.913451	0.832361	0.000049
   7	5.9700e-01	0.0545	-17.403507	0.000463	4.626833	0.783807	0.000046
   8	6.9650e-01	0.0659	-17.356255	0.000475	4.749669	0.804616	0.000047
   9	7.9600e-01	0.0753	-17.313077	0.000434	4.340215	0.735252	0.000043
  10	8.9550e-01	0.0847	-17.257678	0.000557	5.568578	0.943343	0.000056
  11	9.9500e-01	0.0941	-17.209204	0.000487	4.872505	0.825425	0.000049
  12	1.0945e+00	0.1052	-17.164804	0.000446	4.463051	0.756061	0.000045
  13	1.1940e+00	0.1141	-17.115923	0.000491	4.913451	0.832361	0.000049
  14	1.2935e+00	0.1234	-17.068264	0.000479	4.790615	0.811552	0.000048
  15	1.3930e+00	0.1337	-17.024271	0.000442	4.422106	0.749125	0.000044
  16	1.4925e+00	0.1453	-16.975390	0.000491	4.913451	0.832361	0.000049
  17	1.5920e+00	0.1552	-16.926509	0.000491	4.913451	0.832361	0.000049
  18	1.6915e+00	0.1685	-16.878850	0.000479	4.790615	0.811552	0.000048
  19	1.7910e+00	0.1722	-16.830376	0.000487	4.872505	0.825425	0.000049
  20	1.8905e+00	0.1848	-16.780680	0.000500	4.995342	0.846234	0.000050
  21	1.9900e+00	0.1909	-16.730170	0.000508	5.077233	0.860106	0.000051
  22	2.0895e+00	0.2037	-16.683733	0.000467	4.667778	0.790743	0.000047
  23	2.1890e+00	0.2120	-16.634444	0.000495	4.954396	0.839297	0.000050
  24	2.2885e+00	0.2250	-16.582712	0.000520	5.200069	0.880916	0.000052
  25	2.3880e+00	0.2357	-16.530979	0.000520	5.200069	0.880916	0.000052
  26	2.4875e+00	0.2454	-16.484135	0.000471	4.708724	0.797679	0.000047
  27	2.5870e+00	0.2545	-16.435661	0.000487	4.872505	0.825425	0.000049
  28	2.6865e+00	0.2644	-16.385150	0.000508	5.077233	0.860106	0.000051
  29	2.7860e+00	0.2753	-16.335047	0.000504	5.036287	0.853170	0.000050
  30	2.8855e+00	0.2831	-16.284130	0.000512	5.118178	0.867043	0.000051
  31	2.9850e+00	0.2941	-16.233619	0.000508	5.077233	0.860106	0.000051
  32	3.0845e+00	0.3044	-16.186775	0.000471	4.708724	0.797679	0.000047
  33	3.1840e+00	0.3143	-16.136672	0.000504	5.036287	0.853170	0.000050
  34	3.2835e+00	0.3249	-16.086976	0.000500	4.995342	0.846234	0.000050
  35	3.3830e+00	0.3336	-16.038502	0.000487	4.872505	0.825425	0.000049
  36	3.4825e+00	0.3429	-15.983103	0.000557	5.568578	0.943343	0.000056
  37	3.5820e+00	0.3502	-15.936666	0.000467	4.667778	0.790743	0.000047
  38	3.6815e+00	0.3628	-15.882082	0.000549	5.486687	0.929470	0.000055
  39	3.7810e+00	0.3732	-15.833609	0.000487	4.872505	0.825425	0.000049
  40	3.8805e+00	0.3850	-15.785950	0.000479	4.790615	0.811552	0.000048
  41	3.9800e+00	0.3930	-15.736254	0.000500	4.995342	0.846234	0.000050
  42	4.0795e+00	0.4032	-15.687373	0.000491	4.913451	0.832361	0.000049
  43	4.1790e+00	0.4116	-15.638899	0.000487	4.872505	0.825425	0.000049
  44	4.2785e+00	0.4221	-15.592055	0.000471	4.708724	0.797679	0.000047
  45	4.3780e+00	0.4348	-15.543581	0.000487	4.872505	0.825425	0.000049
  46	4.4775e+00	0.4430	-15.494700	0.000491	4.913451	0.832361	0.000049
  47	4.5770e+00	0.4541	-15.445819	0.000491	4.913451	0.832361	0.000049
  48	4.6765e+00	0.4624	-15.397345	0.000487	4.872505	0.825425	0.000049
  49	4.7760e+00	0.4712	-15.348056	0.000495	4.954396	0.839297	0.000050
  50	4.8755e+00	0.4852	-15.298768	0.000495	4.954396	0.839297	0.000050
  51	4.9750e+00	0.4911	-15.252738	0.000463	4.626833	0.783807	0.000046
  52	5.0745e+00	0.4994	-15.201820	0.000512	5.118178	0.867043	0.000051
  53	5.1740e+00	0.5138	-15.152125	0.000500	4.995342	0.846234	0.000050
  54	5.2735e+00	0.5215	-15.101614	0.000508	5.077233	0.860106	0.000051
  55	5.3730e+00	0.5309	-15.055584	0.000463	4.626833	0.783807	0.000046
  56	5.4725e+00	0.5428	-15.003852	0.000520	5.200069	0.880916	0.000052
  57	5.5720e+00	0.5519	-14.960266	0.000438	4.381160	0.742189	0.000044
  58	5.6715e+00	0.5653	-14.906090	0.000545	5.445741	0.922534	0.000054
  59	5.7710e+00	0.5721	-14.862097	0.000442	4.422106	0.749125	0.000044
  60	5.8705e+00	0.5849	-14.813623	0.000487	4.872505	0.825425	0.000049
  61	5.9700e+00	0.5927	-14.763112	0.000508	5.077233	0.860106	0.000051
  62	6.0695e+00	0.6052	-14.713824	0.000495	4.954396	0.839297	0.000050
  63	6.1690e+00	0.6143	-14.664943	0.000491	4.913451	0.832361	0.000049
  64	6.2685e+00	0.6226	-14.620950	0.000442	4.422106	0.749125	0.000044
  65	6.3680e+00	0.6319	-14.570847	0.000504	5.036287	0.853170	0.000050
  66	6.4675e+00	0.6435	-14.525632	0.000454	4.544942	0.769934	0.000045
  67	6.5670e+00	0.6515	-14.477973	0.000479	4.790615	0.811552	0.000048
  68	6.6665e+00	0.6628	-14.431536	0.000467	4.667778	0.790743	0.000047
  69	6.7660e+00	0.6741	-14.381025	0.000508	5.077233	0.860106	0.000051
  70	6.8655e+00	0.6821	-14.339476	0.000418	4.176433	0.707507	0.000042
  71	6.9650e+00	0.6930	-14.289780	0.000500	4.995342	0.846234	0.000050
  72	7.0645e+00	0.6998	-14.246195	0.000438	4.381160	0.742189	0.000044
  73	7.1640e+00	0.7121	-14.198536	0.000479	4.790615	0.811552	0.000048
  74	7.2635e+00	0.7217	-14.155357	0.000434	4.340215	0.735252	0.000043
  75	7.3630e+00	0.7323	-14.105662	0.000500	4.995342	0.846234	0.000050
  76	7.4625e+00	0.7389	-14.061669	0.000442	4.422106	0.749125	0.000044
  77	7.5620e+00	0.7513	-14.017676	0.000442	4.422106	0.749125	0.000044
  78	7.6615e+00	0.7608	-13.973275	0.000446	4.463051	0.756061	0.000045
  79	7.7610e+00	0.7720	-13.928468	0.000450	4.503997	0.762998	0.000045
  80	7.8605e+00	0.7824	-13.888141	0.000405	4.053597	0.686698	0.000041
  81	7.9600e+00	0.7911	-13.836408	0.000520	5.200069	0.880916	0.000052
  82	8.0595e+00	0.7969	-13.794859	0.000418	4.176433	0.707507	0.000042
  83	8.1590e+00	0.8120	-13.749237	0.000459	4.585887	0.776870	0.000046
  84	8.2585e+00	0.8201	-13.706873	0.000426	4.258324	0.721380	0.000043
  85	8.3580e+00	0.8355	-13.660843	0.000463	4.626833	0.783807	0.000046
  86	8.4575e+00	0.8419	-13.616443	0.000446	4.463051	0.756061	0.000045
  87	8.5570e+00	0.8501	-13.572043	0.000446	4.463051	0.756061	0.000045
  88	8.6565e+00	0.8613	-13.529679	0.000426	4.258324	0.721380	0.000043
  89	8.7560e+00	0.8713	-13.483242	0.000467	4.667778	0.790743	0.000047
  90	8.8555e+00	0.8825	-13.438842	0.000446	4.463051	0.756061	0.000045
  91	8.9550e+00	0.8897	-13.394849	0.000442	4.422106	0.749125	0.000044
  92	9.0545e+00	0.9009	-13.350856	0.000442	4.422106	0.749125	0.000044
  93	9.1540e+00	0.9131	-13.305233	0.000459	4.585887	0.776870	0.000046
  94	9.2535e+00	0.9220	-13.262870	0.000426	4.258324	0.721380	0.000043
  95	9.3530e+00	0.9309	-13.223358	0.000397	3.971706	0.672825	0.000040
  96	9.4525e+00	0.9423	-13.176921	0.000467	4.667778	0.790743	0.000047
  97	9.5520e+00	0.9528	-13.137816	0.000393	3.930761	0.665889	0.000039
  98	9.6515e+00	0.9634	-13.089342	0.000487	4.872505	0.825425	0.000049
  99	9.7510e+00	0.9730	-13.046978	0.000426	4.258324	0.721380	0.000043
 100	9.8505e+00	0.9798	-13.000541	0.000467	4.667778	0.790743	0.000047
 101	9.9500e+00	0.9911	-12.956956	0.000438	4.381160	0.742189	0.000044
 102	1.0050e+01	1.0013	-12.913777	0.000434	4.340215	0.735252	0.000043
 103	1.0149e+01	1.0101	-12.871006	0.000430	4.299269	0.728316	0.000043
 104	1.0248e+01	1.0227	-12.831901	0.000393	3.930761	0.665889	0.000039
 105	1.0348e+01	1.0325	-12.788316	0.000438	4.381160	0.742189	0.000044
 106	1.0447e+01	1.0395	-12.745545	0.000430	4.299269	0.728316	0.000043
 107	1.0547e+01	1.0515	-12.703588	0.000422	4.217379	0.714443	0.000042
 108	1.0646e+01	1.0590	-12.661225	0.000426	4.258324	0.721380	0.000043
 109	1.0746e+01	1.0718	-12.620083	0.000414	4.135488	0.700571	0.000041
 110	1.0845e+01	1.0803	-12.580164	0.000401	4.012652	0.679762	0.000040
 111	1.0945e+01	1.0881	-12.537393	0.000430	4.299269	0.728316	0.000043
 112	1.1044e+01	1.0979	-12.499917	0.000377	3.766979	0.638144	0.000038
 113	1.1144e+01	1.1108	-12.453073	0.000471	4.708724	0.797679	0.000047
 114	1.1243e+01	1.1214	-12.413968	0.000393	3.930761	0.665889	0.000039
 115	1.1343e+01	1.1292	-12.372419	0.000418	4.176433	0.707507	0.000042
 116	1.1443e+01	1.1414	-12.330870	0.000418	4.176433	0.707507	0.000042
 117	1.1542e+01	1.1511	-12.289321	0.000418	4.176433	0.707507	0.000042
 118	1.1642e+01	1.1594	-12.248587	0.000409	4.094542	0.693634	0.000041
 119	1.1741e+01	1.1699	-12.209075	0.000397	3.971706	0.672825	0.000040
 120	1.1841e+01	1.1810	-12.170377	0.000389	3.889815	0.658953	0.000039
 121	1.1940e+01	1.1890	-12.124347	0.000463	4.626833	0.783807	0.000046
 122	1.2040e+01	1.1993	-12.087687	0.000369	3.685088	0.624271	0.000037
 123	1.2139e+01	1.2099	-12.051026	0.000369	3.685088	0.624271	0.000037
 124	1.2239e+01	1.2213	-12.007847	0.000434	4.340215	0.735252	0.000043
 125	1.2338e+01	1.2312	-11.966298	0.000418	4.176433	0.707507	0.000042
 126	1.2438e+01	1.2412	-11.922713	0.000438	4.381160	0.742189	0.000044
 127	1.2537e+01	1.2482	-11.880757	0.000422	4.217379	0.714443	0.000042
 128	1.2636e+01	1.2591	-11.840837	0.000401	4.012652	0.679762	0.000040
 129	1.2736e+01	1.2687	-11.801325	0.000397	3.971706	0.672825	0.000040
 130	1.2835e+01	1.2780	-11.760183	0.000414	4.135488	0.700571	0.000041
 131	1.2935e+01	1.2891	-11.714968	0.000454	4.544942	0.769934	0.000045
 132	1.3034e+01	1.3001	-11.676271	0.000389	3.889815	0.658953	0.000039
 133	1.3134e+01	1.3098	-11.639202	0.000373	3.726034	0.631207	0.000037
 134	1.3233e+01	1.3177	-11.595209	0.000442	4.422106	0.749125	0.000044
 135	1.3333e+01	1.3300	-11.551624	0.000438	4.381160	0.742189	0.000044
 136	1.3432e+01	1.3378	-11.512926	0.000389	3.889815	0.658953	0.000039
 137	1.3532e+01	1.3486	-11.472599	0.000405	4.053597	0.686698	0.000041
 138	1.3632e+01	1.3557	-11.430643	0.000422	4.217379	0.714443	0.000042
 139	1.3731e+01	1.3699	-11.391131	0.000397	3.971706	0.672825	0.000040
 140	1.3831e+01	1.3791	-11.348360	0.000430	4.299269	0.728316	0.000043
 141	1.3930e+01	1.3885	-11.305589	0.000430	4.299269	0.728316	0.000043
 142	1.4030e+01	1.3987	-11.264040	0.000418	4.176433	0.707507	0.000042
 143	1.4129e+01	1.4080	-11.223713	0.000405	4.053597	0.686698	0.000041
 144	1.4229e+01	1.4180	-11.178498	0.000454	4.544942	0.769934	0.000045
 145	1.4328e+01	1.4278	-11.143467	0.000352	3.521306	0.596525	0.000035
 146	1.4428e+01	1.4378	-11.103140	0.000405	4.053597	0.686698	0.000041
 147	1.4527e+01	1.4487	-11.061591	0.000418	4.176433	0.707507	0.000042
 148	1.4627e+01	1.4578	-11.020856	0.000409	4.094542	0.693634	0.000041
 149	1.4726e+01	1.4655	-10.977678	0.000434	4.340215	0.735252	0.000043
 150	1.4825e+01	1.4748	-10.938166	0.000397	3.971706	0.672825	0.000040
 151	1.4925e+01	1.4861	-10.891729	0.000467	4.667778	0.790743	0.000047
 152	1.5024e+01	1.4986	-10.854661	0.000373	3.726034	0.631207	0.000037
 153	1.5124e+01	1.5063	-10.809038	0.000459	4.585887	0.776870	0.000046
 154	1.5223e+01	1.5194	-10.764231	0.000450	4.503997	0.762998	0.000045
 155	1.5323e+01	1.5302	-10.721460	0.000430	4.299269	0.728316	0.000043
 156	1.5422e+01	1.5366	-10.675430	0.000463	4.626833	0.783807	0.000046
 157	1.5522e+01	1.5480	-10.638362	0.000373	3.726034	0.631207	0.000037
 158	1.5621e+01	1.5578	-10.595591	0.000430	4.299269	0.728316	0.000043
 159	1.5721e+01	1.5675	-10.552412	0.000434	4.340215	0.735252	0.000043
 160	1.5820e+01	1.5784	-10.506383	0.000463	4.626833	0.783807	0.000046
 161	1.5920e+01	1.5871	-10.463612	0.000430	4.299269	0.728316	0.000043
 162	1.6020e+01	1.5961	-10.420026	0.000438	4.381160	0.742189	0.000044
 163	1.6119e+01	1.6080	-10.380107	0.000401	4.012652	0.679762	0.000040
 164	1.6218e+01	1.6177	-10.334892	0.000454	4.544942	0.769934	0.000045
 165	1.6318e+01	1.6274	-10.291306	0.000438	4.381160	0.742189	0.000044
 166	1.6418e+01	1.6398	-10.246906	0.000446	4.463051	0.756061	0.000045
 167	1.6517e+01	1.6494	-10.202098	0.000450	4.503997	0.762998	0.000045
 168	1.6616e+01	1.6574	-10.158512	0.000438	4.381160	0.742189	0.000044
 169	1.6716e+01	1.6676	-10.114927	0.000438	4.381160	0.742189	0.000044
 170	1.6816e+01	1.6756	-10.071341	0.000438	4.381160	0.742189	0.000044
 171	1.6915e+01	1.6892	-10.029385	0.000422	4.217379	0.714443	0.000042
 172	1.7015e+01	1.6990	-9.986614	0.000430	4.299269	0.728316	0.000043
 173	1.7114e+01	1.7058	-9.940177	0.000467	4.667778	0.790743	0.000047
 174	1.7213e+01	1.7177	-9.896591	0.000438	4.381160	0.742189	0.000044
 175	1.7313e+01	1.7245	-9.852191	0.000446	4.463051	0.756061	0.000045
 176	1.7413e+01	1.7368	-9.809420	0.000430	4.299269	0.728316	0.000043
 177	1.7512e+01	1.7477	-9.765019	0.000446	4.463051	0.756061	0.000045
 178	1.7611e+01	1.7550	-9.719397	0.000459	4.585887	0.776870	0.000046
 179	1.7711e+01	1.7654	-9.682736	0.000369	3.685088	0.624271	0.000037
 180	1.7811e+01	1.7758	-9.632226	0.000508	5.077233	0.860106	0.000051
 181	1.7910e+01	1.7870	-9.590677	0.000418	4.176433	0.707507	0.000042
 182	1.8009e+01	1.7963	-9.545462	0.000454	4.544942	0.769934	0.000045
 183	1.8109e+01	1.8038	-9.503913	0.000418	4.176433	0.707507	0.000042
 184	1.8209e+01	1.8160	-9.462364	0.000418	4.176433	0.707507	0.000042
 185	1.8308e+01	1.8250	-9.417556	0.000450	4.503997	0.762998	0.000045
 186	1.8407e+01	1.8356	-9.370712	0.000471	4.708724	0.797679	0.000047
 187	1.8507e+01	1.8452	-9.327533	0.000434	4.340215	0.735252	0.000043
 188	1.8607e+01	1.8557	-9.285577	0.000422	4.217379	0.714443	0.000042
 189	1.8706e+01	1.8667	-9.239547	0.000463	4.626833	0.783807	0.000046
 190	1.8805e+01	1.8755	-9.194740	0.000450	4.503997	0.762998	0.000045
 191	1.8905e+01	1.8869	-9.149932	0.000450	4.503997	0.762998	0.000045
 192	1.9005e+01	1.8941	-9.106346	0.000438	4.381160	0.742189	0.000044
 193	1.9104e+01	1.9049	-9.059909	0.000467	4.667778	0.790743	0.000047
 194	1.9203e+01	1.9159	-9.014694	0.000454	4.544942	0.769934	0.000045
 195	1.9303e+01	1.9283	-8.973145	0.000418	4.176433	0.707507	0.000042
 196	1.9402e+01	1.9349	-8.921006	0.000524	5.241014	0.887852	0.000052
 197	1.9502e+01	1.9459	-8.883123	0.000381	3.807924	0.645080	0.000038
 198	1.9602e+01	1.9588	-8.837500	0.000459	4.585887	0.776870	0.000046
 199	1.9701e+01	1.9630	-8.791878	0.000459	4.585887	0.776870	0.000046
 200	1.9800e+01	1.9751	-8.744219	0.000479	4.790615	0.811552	0.000048
 201	1.9900e+01	1.9865	-8.701855	0.000426	4.258324	0.721380	0.000043
 202	2.0000e+01	1.9977	-8.658270	0.000438	4.381160	0.742189	0.000044
 203	2.0099e+01	2.0045	-8.608166	0.000504	5.036287	0.853170	0.000050
 204	2.0198e+01	2.0173	-8.563766	0.000446	4.463051	0.756061	0.000045
 205	2.0298e+01	2.0285	-8.520180	0.000438	4.381160	0.742189	0.000044
 206	2.0398e+01	2.0339	-8.473336	0.000471	4.708724	0.797679	0.000047
 207	2.0497e+01	2.0472	-8.428936	0.000446	4.463051	0.756061	0.000045
 208	2.0596e+01	2.0562	-8.384128	0.000450	4.503997	0.762998	0.000045
 209	2.0696e+01	2.0661	-8.340542	0.000438	4.381160	0.742189	0.000044
 210	2.0796e+01	2.0766	-8.296549	0.000442	4.422106	0.749125	0.000044
 211	2.0895e+01	2.0853	-8.252964	0.000438	4.381160	0.742189	0.000044
 212	2.0994e+01	2.0942	-8.213044	0.000401	4.012652	0.679762	0.000040
 213	2.1094e+01	2.1058	-8.166200	0.000471	4.708724	0.797679	0.000047
 214	2.1194e+01	2.1140	-8.124244	0.000422	4.217379	0.714443	0.000042
 215	2.1293e+01	2.1236	-8.079436	0.000450	4.503997	0.762998	0.000045
 216	2.1392e+01	2.1341	-8.035035	0.000446	4.463051	0.756061	0.000045
 217	2.1492e+01	2.1456	-7.991450	0.000438	4.381160	0.742189	0.000044
 218	2.1591e+01	2.1539	-7.943791	0.000479	4.790615	0.811552	0.000048
 219	2.1691e+01	2.1669	-7.901020	0.000430	4.299269	0.728316	0.000043
 220	2.1791e+01	2.1761	-7.859064	0.000422	4.217379	0.714443	0.000042
 221	2.1890e+01	2.1847	-7.814663	0.000446	4.463051	0.756061	0.000045
 222	2.1989e+01	2.1952	-7.771078	0.000438	4.381160	0.742189	0.000044
 223	2.2089e+01	2.2040	-7.727085	0.000442	4.422106	0.749125	0.000044
 224	2.2189e+01	2.2127	-7.682277	0.000450	4.503997	0.762998	0.000045
 225	2.2288e+01	2.2221	-7.642765	0.000397	3.971706	0.672825	0.000040
 226	2.2387e+01	2.2345	-7.600401	0.000426	4.258324	0.721380	0.000043
 227	2.2487e+01	2.2444	-7.554779	0.000459	4.585887	0.776870	0.000046
 228	2.2587e+01	2.2526	-7.511193	0.000438	4.381160	0.742189	0.000044
 229	2.2686e+01	2.2662	-7.466793	0.000446	4.463051	0.756061	0.000045
 230	2.2785e+01	2.2731	-7.424022	0.000430	4.299269	0.728316	0.000043
 231	2.2885e+01	2.2840	-7.378399	0.000459	4.585887	0.776870	0.000046
 232	2.2985e+01	2.2903	-7.336036	0.000426	4.258324	0.721380	0.000043
 233	2.3084e+01	2.3000	-7.293265	0.000430	4.299269	0.728316	0.000043
 234	2.3183e+01	2.3150	-7.252123	0.000414	4.135488	0.700571	0.000041
 235	2.3283e+01	2.3241	-7.208945	0.000434	4.340215	0.735252	0.000043
 236	2.3383e+01	2.3339	-7.164952	0.000442	4.422106	0.749125	0.000044
 237	2.3482e+01	2.3457	-7.128698	0.000364	3.644143	0.617334	0.000036
 238	2.3581e+01	2.3571	-7.084298	0.000446	4.463051	0.756061	0.000045
 239	2.3681e+01	2.3621	-7.046415	0.000381	3.807924	0.645080	0.000038
 240	2.3780e+01	2.3728	-7.005274	0.000414	4.135488	0.700571	0.000041
 241	2.3880e+01	2.3846	-6.964132	0.000414	4.135488	0.700571	0.000041
 242	2.3980e+01	2.3920	-6.921361	0.000430	4.299269	0.728316	0.000043
 243	2.4079e+01	2.4054	-6.880219	0.000414	4.135488	0.700571	0.000041
 244	2.4178e+01	2.4119	-6.843966	0.000364	3.644143	0.617334	0.000036
 245	2.4278e+01	2.4219	-6.806898	0.000373	3.726034	0.631207	0.000037
 246	2.4378e+01	2.4342	-6.767385	0.000397	3.971706	0.672825	0.000040
 247	2.4477e+01	2.4446	-6.725837	0.000418	4.176433	0.707507	0.000042
 248	2.4576e+01	2.4524	-6.685102	0.000409	4.094542	0.693634	0.000041
 249	2.4676e+01	2.4621	-6.650071	0.000352	3.521306	0.596525	0.000035
 250	2.4776e+01	2.4745	-6.609337	0.000409	4.094542	0.693634	0.000041
 251	2.4875e+01	2.4830	-6.566158	0.000434	4.340215	0.735252	0.000043
 252	2.4974e+01	2.4926	-6.527461	0.000389	3.889815	0.658953	0.000039
 253	2.5074e+01	2.5043	-6.487948	0.000397	3.971706	0.672825	0.000040
 254	2.5174e+01	2.5109	-6.455361	0.000328	3.275634	0.554907	0.000033
 255	2.5273e+01	2.5238	-6.415442	0.000401	4.012652	0.679762	0.000040
 256	2.5372e+01	2.5336	-6.370226	0.000454	4.544942	0.769934	0.000045
 257	2.5472e+01	2.5399	-6.329492	0.000409	4.094542	0.693634	0.000041
 258	2.5572e+01	2.5537	-6.294868	0.000348	3.480361	0.589589	0.000035
 259	2.5671e+01	2.5620	-6.255356	0.000397	3.971706	0.672825	0.000040
 260	2.5770e+01	2.5725	-6.219102	0.000364	3.644143	0.617334	0.000036
 261	2.5870e+01	2.5832	-6.179998	0.000393	3.930761	0.665889	0.000039
 262	2.5970e+01	2.5925	-6.140893	0.000393	3.930761	0.665889	0.000039
 263	2.6069e+01	2.6016	-6.098529	0.000426	4.258324	0.721380	0.000043
 264	2.6169e+01	2.6107	-6.060646	0.000381	3.807924	0.645080	0.000038
 265	2.6268e+01	2.6204	-6.022356	0.000385	3.848870	0.652016	0.000038
 266	2.6367e+01	2.6322	-5.986102	0.000364	3.644143	0.617334	0.000036
 267	2.6467e+01	2.6420	-5.946590	0.000397	3.971706	0.672825	0.000040
 268	2.6567e+01	2.6517	-5.905856	0.000409	4.094542	0.693634	0.000041
 269	2.6666e+01	2.6632	-5.867566	0.000385	3.848870	0.652016	0.000038
 270	2.6765e+01	2.6707	-5.830090	0.000377	3.766979	0.638144	0.000038
 271	2.6865e+01	2.6817	-5.791800	0.000385	3.848870	0.652016	0.000038
 272	2.6965e+01	2.6905	-5.756361	0.000356	3.562252	0.603462	0.000036
 273	2.7064e+01	2.7018	-5.719700	0.000369	3.685088	0.624271	0.000037
 274	2.7163e+01	2.7121	-5.686298	0.000336	3.357525	0.568780	0.000034
 275	2.7263e+01	2.7219	-5.643935	0.000426	4.258324	0.721380	0.000043
 276	2.7363e+01	2.7318	-5.606052	0.000381	3.807924	0.645080	0.000038
 277	2.7462e+01	2.7425	-5.575501	0.000307	3.070907	0.520226	0.000031
 278	2.7561e+01	2.7521	-5.536396	0.000393	3.930761	0.665889	0.000039
 279	2.7661e+01	2.7589	-5.495662	0.000409	4.094542	0.693634	0.000041
 280	2.7761e+01	2.7715	-5.467963	0.000278	2.784289	0.471671	0.000028
 281	2.7860e+01	2.7828	-5.430080	0.000381	3.807924	0.645080	0.000038
 282	2.7959e+01	2.7912	-5.391382	0.000389	3.889815	0.658953	0.000039
 283	2.8059e+01	2.8004	-5.356351	0.000352	3.521306	0.596525	0.000035
 284	2.8159e+01	2.8093	-5.318875	0.000377	3.766979	0.638144	0.000038
 285	2.8258e+01	2.8217	-5.284659	0.000344	3.439416	0.582653	0.000034
 286	2.8358e+01	2.8320	-5.247998	0.000369	3.685088	0.624271	0.000037
 287	2.8457e+01	2.8419	-5.213374	0.000348	3.480361	0.589589	0.000035
 288	2.8556e+01	2.8500	-5.179564	0.000340	3.398470	0.575716	0.000034
 289	2.8656e+01	2.8614	-5.142496	0.000373	3.726034	0.631207	0.000037
 290	2.8756e+01	2.8690	-5.105835	0.000369	3.685088	0.624271	0.000037
 291	2.8855e+01	2.8815	-5.068360	0.000377	3.766979	0.638144	0.000038
 292	2.8954e+01	2.8888	-5.035365	0.000332	3.316579	0.561844	0.000033
 293	2.9054e+01	2.9013	-4.997889	0.000377	3.766979	0.638144	0.000038
 294	2.9154e+01	2.9115	-4.960007	0.000381	3.807924	0.645080	0.000038
 295	2.9253e+01	2.9174	-4.924975	0.000352	3.521306	0.596525	0.000035
 296	2.9352e+01	2.9292	-4.885870	0.000393	3.930761	0.665889	0.000039
 297	2.9452e+01	2.9413	-4.851246	0.000348	3.480361	0.589589	0.000035
 298	2.9552e+01	2.9506	-4.816215	0.000352	3.521306	0.596525	0.000035
 299	2.9651e+01	2.9626	-4.776295	0.000401	4.012652	0.679762	0.000040
 300	2.9750e+01	2.9715	-4.740449	0.000360	3.603197	0.610398	0.000036
 301	2.9850e+01	2.9809	-4.708676	0.000319	3.193743	0.541035	0.000032
 302	2.9950e+01	2.9915	-4.672423	0.000364	3.644143	0.617334	0.000036
 303	3.0049e+01	3.0000	-4.632096	0.000405	4.053597	0.686698	0.000041
 304	3.0148e+01	3.0119	-4.598286	0.000340	3.398470	0.575716	0.000034
 305	3.0248e+01	3.0231	-4.564070	0.000344	3.439416	0.582653	0.000034
 306	3.0348e+01	3.0276	-4.525779	0.000385	3.848870	0.652016	0.000038
 307	3.0447e+01	3.0398	-4.487082	0.000389	3.889815	0.658953	0.000039
 308	3.0547e+01	3.0505	-4.452458	0.000348	3.480361	0.589589	0.000035
 309	3.0646e+01	3.0602	-4.414575	0.000381	3.807924	0.645080	0.000038
 310	3.0745e+01	3.0696	-4.379951	0.000348	3.480361	0.589589	0.000035
 311	3.0845e+01	3.0810	-4.342883	0.000373	3.726034	0.631207	0.000037
 312	3.0945e+01	3.0906	-4.310703	0.000323	3.234688	0.547971	0.000032
 313	3.1044e+01	3.0997	-4.273634	0.000373	3.726034	0.631207	0.000037
 314	3.1143e+01	3.1102	-4.237788	0.000360	3.603197	0.610398	0.000036
 315	3.1243e+01	3.1197	-4.202349	0.000356	3.562252	0.603462	0.000036
 316	3.1343e+01	3.1287	-4.165281	0.000373	3.726034	0.631207	0.000037
 317	3.1442e+01	3.1394	-4.129435	0.000360	3.603197	0.610398	0.000036
 318	3.1541e+01	3.1478	-4.091960	0.000377	3.766979	0.638144	0.000038
 319	3.1641e+01	3.1580	-4.053262	0.000389	3.889815	0.658953	0.000039
 320	3.1741e+01	3.1705	-4.014972	0.000385	3.848870	0.652016	0.000038
 321	3.1840e+01	3.1818	-3.979126	0.000360	3.603197	0.610398	0.000036
 322	3.1939e+01	3.1901	-3.942058	0.000373	3.726034	0.631207	0.000037
 323	3.2039e+01	3.2018	-3.901731	0.000405	4.053597	0.686698	0.000041
 324	3.2139e+01	3.2104	-3.862218	0.000397	3.971706	0.672825	0.000040
 325	3.2238e+01	3.2189	-3.825558	0.000369	3.685088	0.624271	0.000037
 326	3.2337e+01	3.2296	-3.786453	0.000393	3.930761	0.665889	0.000039
 327	3.2437e+01	3.2398	-3.748570	0.000381	3.807924	0.645080	0.000038
 328	3.2536e+01	3.2498	-3.710687	0.000381	3.807924	0.645080	0.000038
 329	3.2636e+01	3.2586	-3.667916	0.000430	4.299269	0.728316	0.000043
 330	3.2736e+01	3.2687	-3.633699	0.000344	3.439416	0.582653	0.000034
 331	3.2835e+01	3.2794	-3.591336	0.000426	4.258324	0.721380	0.000043
 332	3.2934e+01	3.2881	-3.555489	0.000360	3.603197	0.610398	0.000036
 333	3.3034e+01	3.2974	-3.514348	0.000414	4.135488	0.700571	0.000041
 334	3.3133e+01	3.3114	-3.477280	0.000373	3.726034	0.631207	0.000037
 335	3.3233e+01	3.3186	-3.437767	0.000397	3.971706	0.672825	0.000040
 336	3.3333e+01	3.3308	-3.399477	0.000385	3.848870	0.652016	0.000038
 337	3.3432e+01	3.3382	-3.362002	0.000377	3.766979	0.638144	0.000038
 338	3.3532e+01	3.3479	-3.320860	0.000414	4.135488	0.700571	0.000041
 339	3.3631e+01	3.3578	-3.283792	0.000373	3.726034	0.631207	0.000037
 340	3.3730e+01	3.3689	-3.242243	0.000418	4.176433	0.707507	0.000042
 341	3.3830e+01	3.3781	-3.208841	0.000336	3.357525	0.568780	0.000034
 342	3.3929e+01	3.3870	-3.168921	0.000401	4.012652	0.679762	0.000040
 343	3.4029e+01	3.3990	-3.127372	0.000418	4.176433	0.707507	0.000042
 344	3.4129e+01	3.4087	-3.088268	0.000393	3.930761	0.665889	0.000039
 345	3.4228e+01	3.4196	-3.049977	0.000385	3.848870	0.652016	0.000038
 346	3.4328e+01	3.4289	-3.010872	0.000393	3.930761	0.665889	0.000039
 347	3.4427e+01	3.4395	-2.970953	0.000401	4.012652	0.679762	0.000040
 348	3.4526e+01	3.4476	-2.932663	0.000385	3.848870	0.652016	0.000038
 349	3.4626e+01	3.4591	-2.895595	0.000373	3.726034	0.631207	0.000037
 350	3.4725e+01	3.4694	-2.855268	0.000405	4.053597	0.686698	0.000041
 351	3.4825e+01	3.4771	-2.817385	0.000381	3.807924	0.645080	0.000038
 352	3.4925e+01	3.4873	-2.780317	0.000373	3.726034	0.631207	0.000037
 353	3.5024e+01	3.4969	-2.739990	0.000405	4.053597	0.686698	0.000041
 354	3.5123e+01	3.5081	-2.703736	0.000364	3.644143	0.617334	0.000036
 355	3.5223e+01	3.5201	-2.661373	0.000426	4.258324	0.721380	0.000043
 356	3.5322e+01	3.5265	-2.621453	0.000401	4.012652	0.679762	0.000040
 357	3.5422e+01	3.5362	-2.579497	0.000422	4.217379	0.714443	0.000042
 358	3.5522e+01	3.5468	-2.536726	0.000430	4.299269	0.728316	0.000043
 359	3.5621e+01	3.5574	-2.502916	0.000340	3.398470	0.575716	0.000034
 360	3.5721e+01	3.5667	-2.462589	0.000405	4.053597	0.686698	0.000041
 361	3.5820e+01	3.5771	-2.420226	0.000426	4.258324	0.721380	0.000043
 362	3.5919e+01	3.5873	-2.381528	0.000389	3.889815	0.658953	0.000039
 363	3.6019e+01	3.5982	-2.337943	0.000438	4.381160	0.742189	0.000044
 364	3.6118e+01	3.6069	-2.301689	0.000364	3.644143	0.617334	0.000036
 365	3.6218e+01	3.6179	-2.259733	0.000422	4.217379	0.714443	0.000042
 366	3.6318e+01	3.6280	-2.218591	0.000414	4.135488	0.700571	0.000041
 367	3.6417e+01	3.6362	-2.179486	0.000393	3.930761	0.665889	0.000039
 368	3.6517e+01	3.6500	-2.135086	0.000446	4.463051	0.756061	0.000045
 369	3.6616e+01	3.6560	-2.097610	0.000377	3.766979	0.638144	0.000038
 370	3.6715e+01	3.6678	-2.057691	0.000401	4.012652	0.679762	0.000040
 371	3.6815e+01	3.6781	-2.016549	0.000414	4.135488	0.700571	0.000041
 372	3.6914e+01	3.6902	-1.973778	0.000430	4.299269	0.728316	0.000043
 373	3.7014e+01	3.6971	-1.935488	0.000385	3.848870	0.652016	0.000038
 374	3.7114e+01	3.7037	-1.893532	0.000422	4.217379	0.714443	0.000042
 375	3.7213e+01	3.7161	-1.853612	0.000401	4.012652	0.679762	0.000040
 376	3.7313e+01	3.7272	-1.815729	0.000381	3.807924	0.645080	0.000038
 377	3.7412e+01	3.7383	-1.776217	0.000397	3.971706	0.672825	0.000040
 378	3.7511e+01	3.7443	-1.738334	0.000381	3.807924	0.645080	0.000038
 379	3.7611e+01	3.7563	-1.698822	0.000397	3.971706	0.672825	0.000040
 380	3.7711e+01	3.7666	-1.658903	0.000401	4.012652	0.679762	0.000040
 381	3.7810e+01	3.7771	-1.621427	0.000377	3.766979	0.638144	0.000038
 382	3.7910e+01	3.7875	-1.584359	0.000373	3.726034	0.631207	0.000037
 383	3.8009e+01	3.7960	-1.543625	0.000409	4.094542	0.693634	0.000041
 384	3.8108e+01	3.8039	-1.508186	0.000356	3.562252	0.603462	0.000036
 385	3.8208e+01	3.8182	-1.462563	0.000459	4.585887	0.776870	0.000046
 386	3.8307e+01	3.8268	-1.426310	0.000364	3.644143	0.617334	0.000036
 387	3.8407e+01	3.8384	-1.387612	0.000389	3.889815	0.658953	0.000039
 388	3.8507e+01	3.8458	-1.350952	0.000369	3.685088	0.624271	0.000037
 389	3.8606e+01	3.8553	-1.304515	0.000467	4.667778	0.790743	0.000047
 390	3.8706e+01	3.8669	-1.266632	0.000381	3.807924	0.645080	0.000038
 391	3.8805e+01	3.8763	-1.229156	0.000377	3.766979	0.638144	0.000038
 392	3.8904e+01	3.8876	-1.191681	0.000377	3.766979	0.638144	0.000038
 393	3.9004e+01	3.8946	-1.151354	0.000405	4.053597	0.686698	0.000041
 394	3.9103e+01	3.9059	-1.114693	0.000369	3.685088	0.624271	0.000037
 395	3.9203e+01	3.9158	-1.073551	0.000414	4.135488	0.700571	0.000041
 396	3.9303e+01	3.9268	-1.031595	0.000422	4.217379	0.714443	0.000042
 397	3.9402e+01	3.9329	-0.995342	0.000364	3.644143	0.617334	0.000036
 398	3.9502e+01	3.9454	-0.957459	0.000381	3.807924	0.645080	0.000038
 399	3.9601e+01	3.9567	-0.917539	0.000401	4.012652	0.679762	0.000040
 400	3.9700e+01	3.9678	-0.878842	0.000389	3.889815	0.658953	0.000039
 401	3.9800e+01	3.9732	-0.842181	0.000369	3.685088	0.624271	0.000037
 402	3.9900e+01	3.9832	-0.805520	0.000369	3.685088	0.624271	0.000037
 403	3.9999e+01	3.9958	-0.765193	0.000405	4.053597	0.686698	0.000041
 404	4.0099e+01	4.0064	-0.728939	0.000364	3.644143	0.617334	0.000036
 405	4.0198e+01	4.0145	-0.694723	0.000344	3.439416	0.582653	0.000034
 406	4.0297e+01	4.0267	-0.660506	0.000344	3.439416	0.582653	0.000034
 407	4.0397e+01	4.0369	-0.617735	0.000430	4.299269	0.728316	0.000043
 408	4.0496e+01	4.0498	-0.583111	0.000348	3.480361	0.589589	0.000035
 409	4.0596e+01	4.0564	-0.547265	0.000360	3.603197	0.610398	0.000036
 410	4.0696e+01	4.0652	-0.513048	0.000344	3.439416	0.582653	0.000034
 411	4.0795e+01	4.0737	-0.474758	0.000385	3.848870	0.652016	0.000038
 412	4.0895e+01	4.0859	-0.445429	0.000295	2.948071	0.499417	0.000029
 413	4.0994e+01	4.0947	-0.410805	0.000348	3.480361	0.589589	0.000035
 414	4.1093e+01	4.1040	-0.370885	0.000401	4.012652	0.679762	0.000040
 415	4.1193e+01	4.1155	-0.337891	0.000332	3.316579	0.561844	0.000033
 416	4.1292e+01	4.1238	-0.303674	0.000344	3.439416	0.582653	0.000034
 417	4.1392e+01	4.1341	-0.269864	0.000340	3.398470	0.575716	0.000034
 418	4.1492e+01	4.1450	-0.235648	0.000344	3.439416	0.582653	0.000034
 419	4.1591e+01	4.1521	-0.197357	0.000385	3.848870	0.652016	0.000038
 420	4.1691e+01	4.1650	-0.163548	0.000340	3.398470	0.575716	0.000034
 421	4.1790e+01	4.1726	-0.128109	0.000356	3.562252	0.603462	0.000036
 422	4.1889e+01	4.1848	-0.092670	0.000356	3.562252	0.603462	0.000036
 423	4.1989e+01	4.1966	-0.058454	0.000344	3.439416	0.582653	0.000034
 424	4.2089e+01	4.2036	-0.019756	0.000389	3.889815	0.658953	0.000039
 425	4.2188e+01	4.2144	0.012017	0.000319	3.193743	0.541035	0.000032
 426	4.2288e+01	4.2274	0.049085	0.000373	3.726034	0.631207	0.000037
 427	4.2387e+01	4.2360	0.077191	0.000283	2.825234	0.478608	0.000028
 428	4.2486e+01	4.2455	0.116296	0.000393	3.930761	0.665889	0.000039
 429	4.2586e+01	4.2558	0.150920	0.000348	3.480361	0.589589	0.000035
 430	4.2685e+01	4.2667	0.181471	0.000307	3.070907	0.520226	0.000031
 431	4.2785e+01	4.2721	0.217317	0.000360	3.603197	0.610398	0.000036
 432	4.2885e+01	4.2820	0.250312	0.000332	3.316579	0.561844	0.000033
 433	4.2984e+01	4.2936	0.283714	0.000336	3.357525	0.568780	0.000034
 434	4.3084e+01	4.3056	0.319968	0.000364	3.644143	0.617334	0.000036
 435	4.3183e+01	4.3164	0.355814	0.000360	3.603197	0.610398	0.000036
 436	4.3282e+01	4.3230	0.392882	0.000373	3.726034	0.631207	0.000037
 437	4.3382e+01	4.3334	0.420989	0.000283	2.825234	0.478608	0.000028
 438	4.3481e+01	4.3442	0.456020	0.000352	3.521306	0.596525	0.000035
 439	4.3581e+01	4.3517	0.488607	0.000328	3.275634	0.554907	0.000033
 440	4.3681e+01	4.3672	0.523232	0.000348	3.480361	0.589589	0.000035
 441	4.3780e+01	4.3734	0.554190	0.000311	3.111852	0.527162	0.000031
 442	4.3880e+01	4.3829	0.586370	0.000323	3.234688	0.547971	0.000032
 443	4.3979e+01	4.3931	0.621401	0.000352	3.521306	0.596525	0.000035
 444	4.4078e+01	4.4025	0.652766	0.000315	3.152798	0.534098	0.000032
 445	4.4178e+01	4.4144	0.686983	0.000344	3.439416	0.582653	0.000034
 446	4.4278e+01	4.4220	0.716312	0.000295	2.948071	0.499417	0.000029
 447	4.4377e+01	4.4334	0.749714	0.000336	3.357525	0.568780	0.000034
 448	4.4477e+01	4.4439	0.779857	0.000303	3.029961	0.513289	0.000030
 449	4.4576e+01	4.4553	0.812852	0.000332	3.316579	0.561844	0.000033
 450	4.4675e+01	4.4624	0.842995	0.000303	3.029961	0.513289	0.000030
 451	4.4775e+01	4.4747	0.877212	0.000344	3.439416	0.582653	0.000034
 452	4.4874e+01	4.4836	0.906134	0.000291	2.907125	0.492480	0.000029
 453	4.4974e+01	4.4930	0.937499	0.000315	3.152798	0.534098	0.000032
 454	4.5074e+01	4.5013	0.966420	0.000291	2.907125	0.492480	0.000029
 455	4.5173e+01	4.5139	1.001044	0.000348	3.480361	0.589589	0.000035
 456	4.5273e+01	4.5255	1.029966	0.000291	2.907125	0.492480	0.000029
 457	4.5372e+01	4.5326	1.059294	0.000295	2.948071	0.499417	0.000029
 458	4.5471e+01	4.5428	1.097177	0.000381	3.807924	0.645080	0.000038
 459	4.5571e+01	4.5532	1.125284	0.000283	2.825234	0.478608	0.000028
 460	4.5670e+01	4.5624	1.159093	0.000340	3.398470	0.575716	0.000034
 461	4.5770e+01	4.5719	1.190866	0.000319	3.193743	0.541035	0.000032
 462	4.5870e+01	4.5837	1.220195	0.000295	2.948071	0.499417	0.000029
 463	4.5969e+01	4.5937	1.254819	0.000348	3.480361	0.589589	0.000035
 464	4.6069e+01	4.6056	1.289850	0.000352	3.521306	0.596525	0.000035
 465	4.6168e+01	4.6130	1.320808	0.000311	3.111852	0.527162	0.000031
 466	4.6267e+01	4.6218	1.355840	0.000352	3.521306	0.596525	0.000035
 467	4.6367e+01	4.6310	1.386390	0.000307	3.070907	0.520226	0.000031
 468	4.6467e+01	4.6425	1.416534	0.000303	3.029961	0.513289	0.000030
 469	4.6566e+01	4.6515	1.448306	0.000319	3.193743	0.541035	0.000032
 470	4.6666e+01	4.6616	1.479672	0.000315	3.152798	0.534098	0.000032
 471	4.6765e+01	4.6722	1.511445	0.000319	3.193743	0.541035	0.000032
 472	4.6864e+01	4.6816	1.542810	0.000315	3.152798	0.534098	0.000032
 473	4.6964e+01	4.6925	1.573361	0.000307	3.070907	0.520226	0.000031
 474	4.7063e+01	4.7028	1.607985	0.000348	3.480361	0.589589	0.000035
 475	4.7163e+01	4.7144	1.642201	0.000344	3.439416	0.582653	0.000034
 476	4.7263e+01	4.7236	1.675604	0.000336	3.357525	0.568780	0.000034
 477	4.7362e+01	4.7311	1.708191	0.000328	3.275634	0.554907	0.000033
 478	4.7462e+01	4.7388	1.737520	0.000295	2.948071	0.499417	0.000029
 479	4.7561e+01	4.7509	1.768070	0.000307	3.070907	0.520226	0.000031
 480	4.7660e+01	4.7645	1.799843	0.000319	3.193743	0.541035	0.000032
 481	4.7760e+01	4.7730	1.831616	0.000319	3.193743	0.541035	0.000032
 482	4.7859e+01	4.7814	1.867462	0.000360	3.603197	0.610398	0.000036
 483	4.7959e+01	4.7921	1.896383	0.000291	2.907125	0.492480	0.000029
 484	4.8059e+01	4.8022	1.928563	0.000323	3.234688	0.547971	0.000032
 485	4.8158e+01	4.8107	1.961558	0.000332	3.316579	0.561844	0.000033
 486	4.8258e+01	4.8194	1.994553	0.000332	3.316579	0.561844	0.000033
 487	4.8357e+01	4.8331	2.025103	0.000307	3.070907	0.520226	0.000031
 488	4.8456e+01	4.8415	2.062172	0.000373	3.726034	0.631207	0.000037
 489	4.8556e+01	4.8510	2.098018	0.000360	3.603197	0.610398	0.000036
 490	4.8656e+01	4.8608	2.128161	0.000303	3.029961	0.513289	0.000030
 491	4.8755e+01	4.8734	2.162378	0.000344	3.439416	0.582653	0.000034
 492	4.8855e+01	4.8809	2.193743	0.000315	3.152798	0.534098	0.000032
 493	4.8954e+01	4.8919	2.230811	0.000373	3.726034	0.631207	0.000037
 494	4.9053e+01	4.9005	2.267880	0.000373	3.726034	0.631207	0.000037
 495	4.9153e+01	4.9107	2.299245	0.000315	3.152798	0.534098	0.000032
 496	4.9252e+01	4.9242	2.335906	0.000369	3.685088	0.624271	0.000037
 497	4.9352e+01	4.9314	2.368493	0.000328	3.275634	0.554907	0.000033
 498	4.9452e+01	4.9408	2.407191	0.000389	3.889815	0.658953	0.000039
 499	4.9551e+01	4.9492	2.439371	0.000323	3.234688	0.547971	0.000032
 500	4.9651e+01	4.9619	2.476032	0.000369	3.685088	0.624271	0.000037
 501	4.9750e+01	4.9693	2.510656	0.000348	3.480361	0.589589	0.000035
 502	4.9849e+01	4.9813	2.543243	0.000328	3.275634	0.554907	0.000033
 503	4.9949e+01	4.9897	2.581533	0.000385	3.848870	0.652016	0.000038
 504	5.0048e+01	5.0003	2.610047	0.000287	2.866180	0.485544	0.000029
 505	5.0148e+01	5.0134	2.646708	0.000369	3.685088	0.624271	0.000037
 506	5.0248e+01	5.0208	2.682147	0.000356	3.562252	0.603462	0.000036
 507	5.0347e+01	5.0323	2.717586	0.000356	3.562252	0.603462	0.000036
 508	5.0447e+01	5.0417	2.751803	0.000344	3.439416	0.582653	0.000034
 509	5.0546e+01	5.0518	2.786019	0.000344	3.439416	0.582653	0.000034
 510	5.0645e+01	5.0616	2.821051	0.000352	3.521306	0.596525	0.000035
 511	5.0745e+01	5.0706	2.856897	0.000360	3.603197	0.610398	0.000036
 512	5.0844e+01	5.0797	2.889077	0.000323	3.234688	0.547971	0.000032
 513	5.0944e+01	5.0896	2.924923	0.000360	3.603197	0.610398	0.000036
 514	5.1044e+01	5.0971	2.959955	0.000352	3.521306	0.596525	0.000035
 515	5.1143e+01	5.1139	2.996208	0.000364	3.644143	0.617334	0.000036
 516	5.1242e+01	5.1205	3.032054	0.000360	3.603197	0.610398	0.000036
 517	5.1342e+01	5.1295	3.064642	0.000328	3.275634	0.554907	0.000033
 518	5.1441e+01	5.1403	3.099266	0.000348	3.480361	0.589589	0.000035
 519	5.1541e+01	5.1514	3.132668	0.000336	3.357525	0.568780	0.000034
 520	5.1641e+01	5.1664	3.172180	0.000397	3.971706	0.672825	0.000040
 521	5.1740e+01	5.1672	3.204768	0.000328	3.275634	0.554907	0.000033
 522	5.1840e+01	5.1846	3.239799	0.000352	3.521306	0.596525	0.000035
 523	5.1939e+01	5.1900	3.279719	0.000401	4.012652	0.679762	0.000040
 524	5.2038e+01	5.2010	3.313121	0.000336	3.357525	0.568780	0.000034
 525	5.2138e+01	5.2105	3.348967	0.000360	3.603197	0.610398	0.000036
 526	5.2237e+01	5.2184	3.384406	0.000356	3.562252	0.603462	0.000036
 527	5.2337e+01	5.2274	3.418622	0.000344	3.439416	0.582653	0.000034
 528	5.2437e+01	5.2361	3.458135	0.000397	3.971706	0.672825	0.000040
 529	5.2536e+01	5.2502	3.493573	0.000356	3.562252	0.603462	0.000036
 530	5.2636e+01	5.2580	3.532678	0.000393	3.930761	0.665889	0.000039
 531	5.2735e+01	5.2688	3.567710	0.000352	3.521306	0.596525	0.000035
 532	5.2834e+01	5.2785	3.601519	0.000340	3.398470	0.575716	0.000034
 533	5.2934e+01	5.2876	3.639809	0.000385	3.848870	0.652016	0.000038
 534	5.3033e+01	5.2985	3.675248	0.000356	3.562252	0.603462	0.000036
 535	5.3133e+01	5.3086	3.709872	0.000348	3.480361	0.589589	0.000035
 536	5.3233e+01	5.3182	3.746533	0.000369	3.685088	0.624271	0.000037
 537	5.3332e+01	5.3289	3.784823	0.000385	3.848870	0.652016	0.000038
 538	5.3431e+01	5.3413	3.823928	0.000393	3.930761	0.665889	0.000039
 539	5.3531e+01	5.3468	3.858552	0.000348	3.480361	0.589589	0.000035
 540	5.3630e+01	5.3567	3.897250	0.000389	3.889815	0.658953	0.000039
 541	5.3730e+01	5.3672	3.933503	0.000364	3.644143	0.617334	0.000036
 542	5.3830e+01	5.3790	3.971794	0.000385	3.848870	0.652016	0.000038
 543	5.3929e+01	5.3886	4.004381	0.000328	3.275634	0.554907	0.000033
 544	5.4029e+01	5.3979	4.041042	0.000369	3.685088	0.624271	0.000037
 545	5.4128e+01	5.4128	4.076481	0.000356	3.562252	0.603462	0.000036
 546	5.4227e+01	5.4181	4.112327	0.000360	3.603197	0.610398	0.000036
 547	5.4327e+01	5.4309	4.143285	0.000311	3.111852	0.527162	0.000031
 548	5.4426e+01	5.4371	4.182797	0.000397	3.971706	0.672825	0.000040
 549	5.4526e+01	5.4493	4.217828	0.000352	3.521306	0.596525	0.000035
 550	5.4626e+01	5.4573	4.250823	0.000332	3.316579	0.561844	0.000033
 551	5.4725e+01	5.4700	4.286262	0.000356	3.562252	0.603462	0.000036
 552	5.4825e+01	5.4809	4.325774	0.000397	3.971706	0.672825	0.000040
 553	5.4924e+01	5.4879	4.358769	0.000332	3.316579	0.561844	0.000033
 554	5.5023e+01	5.4981	4.397467	0.000389	3.889815	0.658953	0.000039
 555	5.5123e+01	5.5085	4.428832	0.000315	3.152798	0.534098	0.000032
 556	5.5222e+01	5.5181	4.468751	0.000401	4.012652	0.679762	0.000040
 557	5.5322e+01	5.5239	4.502561	0.000340	3.398470	0.575716	0.000034
 558	5.5422e+01	5.5376	4.535148	0.000328	3.275634	0.554907	0.000033
 559	5.5521e+01	5.5489	4.572216	0.000373	3.726034	0.631207	0.000037
 560	5.5620e+01	5.5595	4.606433	0.000344	3.439416	0.582653	0.000034
 561	5.5720e+01	5.5660	4.641465	0.000352	3.521306	0.596525	0.000035
 562	5.5819e+01	5.5773	4.675681	0.000344	3.439416	0.582653	0.000034
 563	5.5919e+01	5.5878	4.712750	0.000373	3.726034	0.631207	0.000037
 564	5.6019e+01	5.5984	4.747374	0.000348	3.480361	0.589589	0.000035
 565	5.6118e+01	5.6099	4.781591	0.000344	3.439416	0.582653	0.000034
 566	5.6218e+01	5.6167	4.817029	0.000356	3.562252	0.603462	0.000036
 567	5.6317e+01	5.6268	4.852468	0.000356	3.562252	0.603462	0.000036
 568	5.6416e+01	5.6383	4.886685	0.000344	3.439416	0.582653	0.000034
 569	5.6516e+01	5.6481	4.920902	0.000344	3.439416	0.582653	0.000034
 570	5.6615e+01	5.6553	4.954711	0.000340	3.398470	0.575716	0.000034
 571	5.6715e+01	5.6682	4.987299	0.000328	3.275634	0.554907	0.000033
 572	5.6815e+01	5.6757	5.022737	0.000356	3.562252	0.603462	0.000036
 573	5.6914e+01	5.6868	5.054510	0.000319	3.193743	0.541035	0.000032
 574	5.7014e+01	5.6974	5.089542	0.000352	3.521306	0.596525	0.000035
 575	5.7113e+01	5.7065	5.120907	0.000315	3.152798	0.534098	0.000032
 576	5.7212e+01	5.7154	5.152680	0.000319	3.193743	0.541035	0.000032
 577	5.7312e+01	5.7252	5.182416	0.000299	2.989016	0.506353	0.000030
 578	5.7411e+01	5.7391	5.213781	0.000315	3.152798	0.534098	0.000032
 579	5.7511e+01	5.7467	5.249220	0.000356	3.562252	0.603462	0.000036
 580	5.7611e+01	5.7600	5.280993	0.000319	3.193743	0.541035	0.000032
 581	5.7710e+01	5.7652	5.310729	0.000299	2.989016	0.506353	0.000030
 582	5.7809e+01	5.7754	5.344538	0.000340	3.398470	0.575716	0.000034
 583	5.7909e+01	5.7833	5.374681	0.000303	3.029961	0.513289	0.000030
 584	5.8008e+01	5.7970	5.404010	0.000295	2.948071	0.499417	0.000029
 585	5.8108e+01	5.8048	5.436190	0.000323	3.234688	0.547971	0.000032
 586	5.8208e+01	5.8167	5.468777	0.000328	3.275634	0.554907	0.000033
 587	5.8307e+01	5.8281	5.498921	0.000303	3.029961	0.513289	0.000030
 588	5.8407e+01	5.8358	5.528249	0.000295	2.948071	0.499417	0.000029
 589	5.8506e+01	5.8456	5.560022	0.000319	3.193743	0.541035	0.000032
 590	5.8605e+01	5.8548	5.595868	0.000360	3.603197	0.610398	0.000036
 591	5.8705e+01	5.8691	5.624382	0.000287	2.866180	0.485544	0.000029
 592	5.8804e+01	5.8777	5.656562	0.000323	3.234688	0.547971	0.000032
 593	5.8904e+01	5.8868	5.687928	0.000315	3.152798	0.534098	0.000032
 594	5.9004e+01	5.8941	5.715627	0.000278	2.784289	0.471671	0.000028
 595	5.9103e+01	5.9072	5.746585	0.000311	3.111852	0.527162	0.000031
 596	5.9203e+01	5.9156	5.777136	0.000307	3.070907	0.520226	0.000031
 597	5.9302e+01	5.9243	5.810538	0.000336	3.357525	0.568780	0.000034
 598	5.9401e+01	5.9341	5.839459	0.000291	2.907125	0.492480	0.000029
 599	5.9501e+01	5.9469	5.871232	0.000319	3.193743	0.541035	0.000032
 600	5.9600e+01	5.9536	5.902597	0.000315	3.152798	0.534098	0.000032
 601	5.9700e+01	5.9639	5.931519	0.000291	2.907125	0.492480	0.000029
 602	5.9800e+01	5.9747	5.963291	0.000319	3.193743	0.541035	0.000032
 603	5.9899e+01	5.9864	5.992620	0.000295	2.948071	0.499417	0.000029
 604	5.9998e+01	5.9962	6.024393	0.000319	3.193743	0.541035	0.000032
 605	6.0098e+01	6.0061	6.054129	0.000299	2.989016	0.506353	0.000030
 606	6.0197e+01	6.0183	6.083457	0.000295	2.948071	0.499417	0.000029
 607	6.0297e+01	6.0246	6.117674	0.000344	3.439416	0.582653	0.000034
 608	6.0397e+01	6.0344	6.146188	0.000287	2.866180	0.485544	0.000029
 609	6.0496e+01	6.0455	6.174295	0.000283	2.825234	0.478608	0.000028
 610	6.0596e+01	6.0548	6.202809	0.000287	2.866180	0.485544	0.000029
 611	6.0695e+01	6.0647	6.230101	0.000274	2.743343	0.464735	0.000027
 612	6.0794e+01	6.0748	6.254949	0.000250	2.497671	0.423117	0.000025
 613	6.0894e+01	6.0827	6.284277	0.000295	2.948071	0.499417	0.000029
 614	6.0993e+01	6.0915	6.312791	0.000287	2.866180	0.485544	0.000029
 615	6.1093e+01	6.1063	6.340490	0.000278	2.784289	0.471671	0.000028
 616	6.1193e+01	6.1169	6.374300	0.000340	3.398470	0.575716	0.000034
 617	6.1292e+01	6.1248	6.397926	0.000237	2.374835	0.402308	0.000024
 618	6.1392e+01	6.1341	6.431735	0.000340	3.398470	0.575716	0.000034
 619	6.1491e+01	6.1452	6.461471	0.000299	2.989016	0.506353	0.000030
 620	6.1590e+01	6.1559	6.487134	0.000258	2.579562	0.436990	0.000026
 621	6.1690e+01	6.1662	6.516055	0.000291	2.907125	0.492480	0.000029
 622	6.1789e+01	6.1742	6.544162	0.000283	2.825234	0.478608	0.000028
 623	6.1889e+01	6.1839	6.571046	0.000270	2.702398	0.457799	0.000027
 624	6.1989e+01	6.1921	6.597524	0.000266	2.661453	0.450862	0.000027
 625	6.2088e+01	6.2029	6.628482	0.000311	3.111852	0.527162	0.000031
 626	6.2188e+01	6.2151	6.653330	0.000250	2.497671	0.423117	0.000025
 627	6.2287e+01	6.2243	6.680214	0.000270	2.702398	0.457799	0.000027
 628	6.2386e+01	6.2341	6.707099	0.000270	2.702398	0.457799	0.000027
 629	6.2486e+01	6.2411	6.739686	0.000328	3.275634	0.554907	0.000033
 630	6.2586e+01	6.2537	6.767793	0.000283	2.825234	0.478608	0.000028
 631	6.2685e+01	6.2650	6.799566	0.000319	3.193743	0.541035	0.000032
 632	6.2785e+01	6.2769	6.824821	0.000254	2.538616	0.430053	0.000025
 633	6.2884e+01	6.2826	6.856186	0.000315	3.152798	0.534098	0.000032
 634	6.2983e+01	6.2963	6.887144	0.000311	3.111852	0.527162	0.000031
 635	6.3083e+01	6.3052	6.911992	0.000250	2.497671	0.423117	0.000025
 636	6.3182e+01	6.3134	6.942135	0.000303	3.029961	0.513289	0.000030
 637	6.3282e+01	6.3255	6.970649	0.000287	2.866180	0.485544	0.000029
 638	6.3382e+01	6.3340	6.997534	0.000270	2.702398	0.457799	0.000027
 639	6.3481e+01	6.3432	7.027677	0.000303	3.029961	0.513289	0.000030
 640	6.3581e+01	6.3502	7.054969	0.000274	2.743343	0.464735	0.000027
 641	6.3680e+01	6.3622	7.084298	0.000295	2.948071	0.499417	0.000029
 642	6.3779e+01	6.3708	7.112812	0.000287	2.866180	0.485544	0.000029
 643	6.3879e+01	6.3834	7.142141	0.000295	2.948071	0.499417	0.000029
 644	6.3978e+01	6.3922	7.172284	0.000303	3.029961	0.513289	0.000030
 645	6.4078e+01	6.4007	7.199169	0.000270	2.702398	0.457799	0.000027
 646	6.4177e+01	6.4109	7.229719	0.000307	3.070907	0.520226	0.000031
 647	6.4277e+01	6.4233	7.256197	0.000266	2.661453	0.450862	0.000027
 648	6.4376e+01	6.4288	7.281859	0.000258	2.579562	0.436990	0.000026
 649	6.4476e+01	6.4422	7.312817	0.000311	3.111852	0.527162	0.000031
 650	6.4576e+01	6.4563	7.339294	0.000266	2.661453	0.450862	0.000027
 651	6.4675e+01	6.4642	7.371067	0.000319	3.193743	0.541035	0.000032
 652	6.4775e+01	6.4738	7.399174	0.000283	2.825234	0.478608	0.000028
 653	6.4874e+01	6.4823	7.430132	0.000311	3.111852	0.527162	0.000031
 654	6.4974e+01	6.4941	7.457831	0.000278	2.784289	0.471671	0.000028
 655	6.5073e+01	6.5031	7.489604	0.000319	3.193743	0.541035	0.000032
 656	6.5172e+01	6.5102	7.520969	0.000315	3.152798	0.534098	0.000032
 657	6.5272e+01	6.5231	7.551927	0.000311	3.111852	0.527162	0.000031
 658	6.5371e+01	6.5322	7.580034	0.000283	2.825234	0.478608	0.000028
 659	6.5471e+01	6.5421	7.608141	0.000283	2.825234	0.478608	0.000028
 660	6.5570e+01	6.5538	7.640728	0.000328	3.275634	0.554907	0.000033
 661	6.5670e+01	6.5635	7.678611	0.000381	3.807924	0.645080	0.000038
 662	6.5769e+01	6.5717	7.705495	0.000270	2.702398	0.457799	0.000027
 663	6.5869e+01	6.5838	7.736453	0.000311	3.111852	0.527162	0.000031
 664	6.5969e+01	6.5911	7.767819	0.000315	3.152798	0.534098	0.000032
 665	6.6068e+01	6.6029	7.799999	0.000323	3.234688	0.547971	0.000032
 666	6.6168e+01	6.6122	7.830142	0.000303	3.029961	0.513289	0.000030
 667	6.6267e+01	6.6195	7.863137	0.000332	3.316579	0.561844	0.000033
 668	6.6367e+01	6.6351	7.896539	0.000336	3.357525	0.568780	0.000034
 669	6.6466e+01	6.6412	7.928312	0.000319	3.193743	0.541035	0.000032
 670	6.6566e+01	6.6491	7.956826	0.000287	2.866180	0.485544	0.000029
 671	6.6665e+01	6.6626	7.991043	0.000344	3.439416	0.582653	0.000034
 672	6.6764e+01	6.6714	8.022815	0.000319	3.193743	0.541035	0.000032
 673	6.6864e+01	6.6831	8.050107	0.000274	2.743343	0.464735	0.000027
 674	6.6963e+01	6.6912	8.083102	0.000332	3.316579	0.561844	0.000033
 675	6.7063e+01	6.7008	8.112838	0.000299	2.989016	0.506353	0.000030
 676	6.7162e+01	6.7130	8.144611	0.000319	3.193743	0.541035	0.000032
 677	6.7262e+01	6.7204	8.179235	0.000348	3.480361	0.589589	0.000035
 678	6.7362e+01	6.7299	8.207749	0.000287	2.866180	0.485544	0.000029
 679	6.7461e+01	6.7400	8.239929	0.000323	3.234688	0.547971	0.000032
 680	6.7561e+01	6.7528	8.271702	0.000319	3.193743	0.541035	0.000032
 681	6.7660e+01	6.7623	8.304696	0.000332	3.316579	0.561844	0.000033
 682	6.7760e+01	6.7718	8.339320	0.000348	3.480361	0.589589	0.000035
 683	6.7859e+01	6.7806	8.368649	0.000295	2.948071	0.499417	0.000029
 684	6.7959e+01	6.7907	8.404495	0.000360	3.603197	0.610398	0.000036
 685	6.8058e+01	6.7995	8.435046	0.000307	3.070907	0.520226	0.000031
 686	6.8157e+01	6.8119	8.463560	0.000287	2.866180	0.485544	0.000029
 687	6.8257e+01	6.8231	8.494518	0.000311	3.111852	0.527162	0.000031
 688	6.8356e+01	6.8327	8.525883	0.000315	3.152798	0.534098	0.000032
 689	6.8456e+01	6.8401	8.561729	0.000360	3.603197	0.610398	0.000036
 690	6.8555e+01	6.8501	8.593502	0.000319	3.193743	0.541035	0.000032
 691	6.8655e+01	6.8600	8.627719	0.000344	3.439416	0.582653	0.000034
 692	6.8754e+01	6.8687	8.660306	0.000328	3.275634	0.554907	0.000033
 693	6.8854e+01	6.8832	8.692079	0.000319	3.193743	0.541035	0.000032
 694	6.8954e+01	6.8873	8.726296	0.000344	3.439416	0.582653	0.000034
 695	6.9053e+01	6.9009	8.756439	0.000303	3.029961	0.513289	0.000030
 696	6.9153e+01	6.9121	8.792285	0.000360	3.603197	0.610398	0.000036
 697	6.9252e+01	6.9215	8.823243	0.000311	3.111852	0.527162	0.000031
 698	6.9352e+01	6.9304	8.856645	0.000336	3.357525	0.568780	0.000034
 699	6.9451e+01	6.9398	8.892492	0.000360	3.603197	0.610398	0.000036
 700	6.9550e+01	6.9510	8.921413	0.000291	2.907125	0.492480	0.000029
 701	6.9650e+01	6.9607	8.957666	0.000364	3.644143	0.617334	0.000036
 702	6.9749e+01	6.9692	8.990254	0.000328	3.275634	0.554907	0.000033
 703	6.9849e+01	6.9785	9.025285	0.000352	3.521306	0.596525	0.000035
 704	6.9948e+01	6.9886	9.057058	0.000319	3.193743	0.541035	0.000032
 705	7.0048e+01	6.9994	9.092497	0.000356	3.562252	0.603462	0.000036
 706	7.0147e+01	7.0086	9.125084	0.000328	3.275634	0.554907	0.000033
 707	7.0247e+01	7.0196	9.159301	0.000344	3.439416	0.582653	0.000034
 708	7.0347e+01	7.0323	9.193518	0.000344	3.439416	0.582653	0.000034
 709	7.0446e+01	7.0397	9.226105	0.000328	3.275634	0.554907	0.000033
 710	7.0546e+01	7.0483	9.261137	0.000352	3.521306	0.596525	0.000035
 711	7.0645e+01	7.0594	9.290873	0.000299	2.989016	0.506353	0.000030
 712	7.0745e+01	7.0698	9.326311	0.000356	3.562252	0.603462	0.000036
 713	7.0844e+01	7.0802	9.356455	0.000303	3.029961	0.513289	0.000030
 714	7.0944e+01	7.0846	9.387820	0.000315	3.152798	0.534098	0.000032
 715	7.1043e+01	7.0992	9.421630	0.000340	3.398470	0.575716	0.000034
 716	7.1142e+01	7.1093	9.453402	0.000319	3.193743	0.541035	0.000032
 717	7.1242e+01	7.1194	9.487212	0.000340	3.398470	0.575716	0.000034
 718	7.1341e+01	7.1297	9.516948	0.000299	2.989016	0.506353	0.000030
 719	7.1441e+01	7.1418	9.551572	0.000348	3.480361	0.589589	0.000035
 720	7.1540e+01	7.1508	9.584159	0.000328	3.275634	0.554907	0.000033
 721	7.1640e+01	7.1583	9.613895	0.000299	2.989016	0.506353	0.000030
 722	7.1740e+01	7.1680	9.649334	0.000356	3.562252	0.603462	0.000036
 723	7.1839e+01	7.1795	9.679885	0.000307	3.070907	0.520226	0.000031
 724	7.1939e+01	7.1880	9.713287	0.000336	3.357525	0.568780	0.000034
 725	7.2038e+01	7.1976	9.747911	0.000348	3.480361	0.589589	0.000035
 726	7.2138e+01	7.2106	9.779684	0.000319	3.193743	0.541035	0.000032
 727	7.2237e+01	7.2182	9.809827	0.000303	3.029961	0.513289	0.000030
 728	7.2337e+01	7.2281	9.842007	0.000323	3.234688	0.547971	0.000032
 729	7.2436e+01	7.2382	9.875002	0.000332	3.316579	0.561844	0.000033
 730	7.2535e+01	7.2481	9.910441	0.000356	3.562252	0.603462	0.000036
 731	7.2635e+01	7.2581	9.943028	0.000328	3.275634	0.554907	0.000033
 732	7.2734e+01	7.2712	9.971949	0.000291	2.907125	0.492480	0.000029
 733	7.2834e+01	7.2790	10.007388	0.000356	3.562252	0.603462	0.000036
 734	7.2933e+01	7.2854	10.039161	0.000319	3.193743	0.541035	0.000032
 735	7.3033e+01	7.2984	10.072970	0.000340	3.398470	0.575716	0.000034
 736	7.3132e+01	7.3065	10.102299	0.000295	2.948071	0.499417	0.000029
 737	7.3232e+01	7.3169	10.132442	0.000303	3.029961	0.513289	0.000030
 738	7.3332e+01	7.3261	10.162993	0.000307	3.070907	0.520226	0.000031
 739	7.3431e+01	7.3370	10.191914	0.000291	2.907125	0.492480	0.000029
 740	7.3531e+01	7.3488	10.224094	0.000323	3.234688	0.547971	0.000032
 741	7.3630e+01	7.3581	10.255867	0.000319	3.193743	0.541035	0.000032
 742	7.3730e+01	7.3686	10.284381	0.000287	2.866180	0.485544	0.000029
 743	7.3829e+01	7.3793	10.312080	0.000278	2.784289	0.471671	0.000028
 744	7.3928e+01	7.3871	10.343446	0.000315	3.152798	0.534098	0.000032
 745	7.4028e+01	7.3978	10.371960	0.000287	2.866180	0.485544	0.000029
 746	7.4127e+01	7.4101	10.402510	0.000307	3.070907	0.520226	0.000031
 747	7.4227e+01	7.4189	10.428988	0.000266	2.661453	0.450862	0.000027
 748	7.4326e+01	7.4285	10.456280	0.000274	2.743343	0.464735	0.000027
 749	7.4426e+01	7.4374	10.488867	0.000328	3.275634	0.554907	0.000033
 750	7.4525e+01	7.4478	10.514530	0.000258	2.579562	0.436990	0.000026
 751	7.4625e+01	7.4583	10.547117	0.000328	3.275634	0.554907	0.000033
 752	7.4725e+01	7.4683	10.574816	0.000278	2.784289	0.471671	0.000028
 753	7.4824e+01	7.4773	10.599257	0.000246	2.456725	0.416181	0.000025
 754	7.4924e+01	7.4890	10.631030	0.000319	3.193743	0.541035	0.000032
 755	7.5023e+01	7.4982	10.657914	0.000270	2.702398	0.457799	0.000027
 756	7.5123e+01	7.5073	10.688872	0.000311	3.111852	0.527162	0.000031
 757	7.5222e+01	7.5162	10.714535	0.000258	2.579562	0.436990	0.000026
 758	7.5322e+01	7.5284	10.741419	0.000270	2.702398	0.457799	0.000027
 759	7.5421e+01	7.5368	10.773599	0.000323	3.234688	0.547971	0.000032
 760	7.5520e+01	7.5475	10.798447	0.000250	2.497671	0.423117	0.000025
 761	7.5620e+01	7.5620	10.826147	0.000278	2.784289	0.471671	0.000028
 762	7.5719e+01	7.5680	10.855883	0.000299	2.989016	0.506353	0.000030
 763	7.5819e+01	7.5772	10.881953	0.000262	2.620507	0.443926	0.000026
 764	7.5918e+01	7.5876	10.910059	0.000283	2.825234	0.478608	0.000028
 765	7.6018e+01	7.5957	10.943461	0.000336	3.357525	0.568780	0.000034
 766	7.6118e+01	7.6067	10.965865	0.000225	2.251998	0.381499	0.000023
 767	7.6217e+01	7.6151	10.995601	0.000299	2.989016	0.506353	0.000030
 768	7.6317e+01	7.6266	11.022078	0.000266	2.661453	0.450862	0.000027
 769	7.6416e+01	7.6362	11.051000	0.000291	2.907125	0.492480	0.000029
 770	7.6516e+01	7.6489	11.081958	0.000311	3.111852	0.527162	0.000031
 771	7.6615e+01	7.6587	11.109250	0.000274	2.743343	0.464735	0.000027
 772	7.6715e+01	7.6675	11.136134	0.000270	2.702398	0.457799	0.000027
 773	7.6814e+01	7.6746	11.162612	0.000266	2.661453	0.450862	0.000027
 774	7.6913e+01	7.6880	11.191126	0.000287	2.866180	0.485544	0.000029
 775	7.7013e+01	7.6955	11.216788	0.000258	2.579562	0.436990	0.000026
 776	7.7112e+01	7.7053	11.243265	0.000266	2.661453	0.450862	0.000027
 777	7.7212e+01	7.7162	11.271779	0.000287	2.866180	0.485544	0.000029
 778	7.7311e+01	7.7260	11.295813	0.000242	2.415780	0.409244	0.000024
 779	7.7411e+01	7.7381	11.325549	0.000299	2.989016	0.506353	0.000030
 780	7.7510e+01	7.7441	11.347545	0.000221	2.211053	0.374562	0.000022
 781	7.7610e+01	7.7540	11.377688	0.000303	3.029961	0.513289	0.000030
 782	7.7710e+01	7.7646	11.402944	0.000254	2.538616	0.430053	0.000025
 783	7.7809e+01	7.7763	11.426570	0.000237	2.374835	0.402308	0.000024
 784	7.7909e+01	7.7856	11.452232	0.000258	2.579562	0.436990	0.000026
 785	7.8008e+01	7.7951	11.478302	0.000262	2.620507	0.443926	0.000026
 786	7.8108e+01	7.8047	11.502335	0.000242	2.415780	0.409244	0.000024
 787	7.8207e+01	7.8164	11.527591	0.000254	2.538616	0.430053	0.000025
 788	7.8306e+01	7.8246	11.556919	0.000295	2.948071	0.499417	0.000029
 789	7.8406e+01	7.8373	11.581767	0.000250	2.497671	0.423117	0.000025
 790	7.8505e+01	7.8434	11.608244	0.000266	2.661453	0.450862	0.000027
 791	7.8605e+01	7.8555	11.633907	0.000258	2.579562	0.436990	0.000026
 792	7.8704e+01	7.8664	11.657125	0.000233	2.333889	0.395372	0.000023
 793	7.8804e+01	7.8727	11.684417	0.000274	2.743343	0.464735	0.000027
 794	7.8903e+01	7.8864	11.707636	0.000233	2.333889	0.395372	0.000023
 795	7.9003e+01	7.8945	11.736557	0.000291	2.907125	0.492480	0.000029
 796	7.9103e+01	7.9067	11.760998	0.000246	2.456725	0.416181	0.000025
 797	7.9202e+01	7.9164	11.789104	0.000283	2.825234	0.478608	0.000028
 798	7.9302e+01	7.9251	11.810286	0.000213	2.129162	0.360690	0.000021
 799	7.9401e+01	7.9340	11.841652	0.000315	3.152798	0.534098	0.000032
 800	7.9501e+01	7.9453	11.864463	0.000229	2.292944	0.388435	0.000023
 801	7.9600e+01	7.9557	11.894199	0.000299	2.989016	0.506353	0.000030
 802	7.9700e+01	7.9636	11.920676	0.000266	2.661453	0.450862	0.000027
 803	7.9799e+01	7.9767	11.945524	0.000250	2.497671	0.423117	0.000025
 804	7.9898e+01	7.9834	11.966706	0.000213	2.129162	0.360690	0.000021
 805	7.9998e+01	7.9946	11.998886	0.000323	3.234688	0.547971	0.000032
 806	8.0097e+01	8.0078	12.026178	0.000274	2.743343	0.464735	0.000027
 807	8.0197e+01	8.0156	12.051840	0.000258	2.579562	0.436990	0.000026
 808	8.0296e+01	8.0235	12.076281	0.000246	2.456725	0.416181	0.000025
 809	8.0396e+01	8.0373	12.099499	0.000233	2.333889	0.395372	0.000023
 810	8.0496e+01	8.0460	12.126791	0.000274	2.743343	0.464735	0.000027
 811	8.0595e+01	8.0524	12.153269	0.000266	2.661453	0.450862	0.000027
 812	8.0695e+01	8.0656	12.180968	0.000278	2.784289	0.471671	0.000028
 813	8.0794e+01	8.0741	12.207853	0.000270	2.702398	0.457799	0.000027
 814	8.0894e+01	8.0848	12.235145	0.000274	2.743343	0.464735	0.000027
 815	8.0993e+01	8.0948	12.259585	0.000246	2.456725	0.416181	0.000025
 816	8.1093e+01	8.1070	12.284026	0.000246	2.456725	0.416181	0.000025
 817	8.1192e+01	8.1147	12.312540	0.000287	2.866180	0.485544	0.000029
 818	8.1291e+01	8.1234	12.338610	0.000262	2.620507	0.443926	0.000026
 819	8.1391e+01	8.1356	12.367938	0.000295	2.948071	0.499417	0.000029
 820	8.1490e+01	8.1431	12.392786	0.000250	2.497671	0.423117	0.000025
 821	8.1590e+01	8.1547	12.418856	0.000262	2.620507	0.443926	0.000026
 822	8.1689e+01	8.1646	12.447777	0.000291	2.907125	0.492480	0.000029
 823	8.1789e+01	8.1754	12.473847	0.000262	2.620507	0.443926	0.000026
 824	8.1888e+01	8.1857	12.506435	0.000328	3.275634	0.554907	0.000033
 825	8.1988e+01	8.1940	12.530468	0.000242	2.415780	0.409244	0.000024
 826	8.2088e+01	8.2047	12.560611	0.000303	3.029961	0.513289	0.000030
 827	8.2187e+01	8.2130	12.589533	0.000291	2.907125	0.492480	0.000029
 828	8.2287e+01	8.2211	12.615602	0.000262	2.620507	0.443926	0.000026
 829	8.2386e+01	8.2331	12.648190	0.000328	3.275634	0.554907	0.000033
 830	8.2486e+01	8.2446	12.674260	0.000262	2.620507	0.443926	0.000026
 831	8.2585e+01	8.2525	12.705218	0.000311	3.111852	0.527162	0.000031
 832	8.2684e+01	8.2658	12.735361	0.000303	3.029961	0.513289	0.000030
 833	8.2784e+01	8.2738	12.762653	0.000274	2.743343	0.464735	0.000027
 834	8.2883e+01	8.2826	12.795241	0.000328	3.275634	0.554907	0.000033
 835	8.2983e+01	8.2938	12.818459	0.000233	2.333889	0.395372	0.000023
 836	8.3082e+01	8.3020	12.851861	0.000336	3.357525	0.568780	0.000034
 837	8.3182e+01	8.3130	12.883634	0.000319	3.193743	0.541035	0.000032
 838	8.3281e+01	8.3224	12.910518	0.000270	2.702398	0.457799	0.000027
 839	8.3381e+01	8.3350	12.943106	0.000328	3.275634	0.554907	0.000033
 840	8.3481e+01	8.3440	12.974064	0.000311	3.111852	0.527162	0.000031
 841	8.3580e+01	8.3555	12.998504	0.000246	2.456725	0.416181	0.000025
 842	8.3680e+01	8.3635	13.027833	0.000295	2.948071	0.499417	0.000029
 843	8.3779e+01	8.3731	13.059199	0.000315	3.152798	0.534098	0.000032
 844	8.3879e+01	8.3824	13.089342	0.000303	3.029961	0.513289	0.000030
 845	8.3978e+01	8.3924	13.119485	0.000303	3.029961	0.513289	0.000030
 846	8.4078e+01	8.4012	13.145555	0.000262	2.620507	0.443926	0.000026
 847	8.4177e+01	8.4135	13.174884	0.000295	2.948071	0.499417	0.000029
 848	8.4276e+01	8.4215	13.206657	0.000319	3.193743	0.541035	0.000032
 849	8.4376e+01	8.4319	13.234356	0.000278	2.784289	0.471671	0.000028
 850	8.4475e+01	8.4437	13.265721	0.000315	3.152798	0.534098	0.000032
 851	8.4575e+01	8.4530	13.297901	0.000323	3.234688	0.547971	0.000032
 852	8.4674e+01	8.4641	13.323971	0.000262	2.620507	0.443926	0.000026
 853	8.4774e+01	8.4737	13.352485	0.000287	2.866180	0.485544	0.000029
 854	8.4874e+01	8.4832	13.383036	0.000307	3.070907	0.520226	0.000031
 855	8.4973e+01	8.4935	13.413587	0.000307	3.070907	0.520226	0.000031
 856	8.5073e+01	8.5011	13.444545	0.000311	3.111852	0.527162	0.000031
 857	8.5172e+01	8.5123	13.474281	0.000299	2.989016	0.506353	0.000030
 858	8.5272e+01	8.5214	13.505646	0.000315	3.152798	0.534098	0.000032
 859	8.5371e+01	8.5329	13.535789	0.000303	3.029961	0.513289	0.000030
 860	8.5471e+01	8.5422	13.565933	0.000303	3.029961	0.513289	0.000030
 861	8.5570e+01	8.5510	13.599335	0.000336	3.357525	0.568780	0.000034
 862	8.5669e+01	8.5624	13.627034	0.000278	2.784289	0.471671	0.000028
 863	8.5769e+01	8.5713	13.659214	0.000323	3.234688	0.547971	0.000032
 864	8.5868e+01	8.5815	13.689765	0.000307	3.070907	0.520226	0.000031
 865	8.5968e+01	8.5950	13.724796	0.000352	3.521306	0.596525	0.000035
 866	8.6067e+01	8.6008	13.754532	0.000299	2.989016	0.506353	0.000030
 867	8.6167e+01	8.6116	13.788749	0.000344	3.439416	0.582653	0.000034
 868	8.6266e+01	8.6223	13.814819	0.000262	2.620507	0.443926	0.000026
 869	8.6366e+01	8.6340	13.847406	0.000328	3.275634	0.554907	0.000033
 870	8.6466e+01	8.6419	13.880808	0.000336	3.357525	0.568780	0.000034
 871	8.6565e+01	8.6508	13.908508	0.000278	2.784289	0.471671	0.000028
 872	8.6665e+01	8.6603	13.944354	0.000360	3.603197	0.610398	0.000036
 873	8.6764e+01	8.6732	13.976127	0.000319	3.193743	0.541035	0.000032
 874	8.6864e+01	8.6804	14.008714	0.000328	3.275634	0.554907	0.000033
 875	8.6963e+01	8.6881	14.045782	0.000373	3.726034	0.631207	0.000037
 876	8.7063e+01	8.6993	14.072259	0.000266	2.661453	0.450862	0.000027
 877	8.7162e+01	8.7128	14.105662	0.000336	3.357525	0.568780	0.000034
 878	8.7261e+01	8.7229	14.136620	0.000311	3.111852	0.527162	0.000031
 879	8.7361e+01	8.7305	14.164319	0.000278	2.784289	0.471671	0.000028
 880	8.7460e+01	8.7420	14.196499	0.000323	3.234688	0.547971	0.000032
 881	8.7560e+01	8.7492	14.227457	0.000311	3.111852	0.527162	0.000031
 882	8.7659e+01	8.7639	14.252712	0.000254	2.538616	0.430053	0.000025
 883	8.7759e+01	8.7695	14.284078	0.000315	3.152798	0.534098	0.000032
 884	8.7859e+01	8.7793	14.318294	0.000344	3.439416	0.582653	0.000034
 885	8.7958e+01	8.7895	14.348438	0.000303	3.029961	0.513289	0.000030
 886	8.8058e+01	8.7998	14.375730	0.000274	2.743343	0.464735	0.000027
 887	8.8157e+01	8.8116	14.408724	0.000332	3.316579	0.561844	0.000033
 888	8.8257e+01	8.8200	14.439682	0.000311	3.111852	0.527162	0.000031
 889	8.8356e+01	8.8290	14.470640	0.000311	3.111852	0.527162	0.000031
 890	8.8456e+01	8.8395	14.502006	0.000315	3.152798	0.534098	0.000032
 891	8.8555e+01	8.8515	14.532149	0.000303	3.029961	0.513289	0.000030
 892	8.8654e+01	8.8599	14.565144	0.000332	3.316579	0.561844	0.000033
 893	8.8754e+01	8.8689	14.593658	0.000287	2.866180	0.485544	0.000029
 894	8.8853e+01	8.8776	14.623394	0.000299	2.989016	0.506353	0.000030
 895	8.8953e+01	8.8901	14.655574	0.000323	3.234688	0.547971	0.000032
 896	8.9052e+01	8.9004	14.687347	0.000319	3.193743	0.541035	0.000032
 897	8.9152e+01	8.9105	14.714639	0.000274	2.743343	0.464735	0.000027
 898	8.9251e+01	8.9172	14.749263	0.000348	3.480361	0.589589	0.000035
 899	8.9351e+01	8.9300	14.780221	0.000311	3.111852	0.527162	0.000031
 900	8.9451e+01	8.9398	14.809142	0.000291	2.907125	0.492480	0.000029
 901	8.9550e+01	8.9502	14.842137	0.000332	3.316579	0.561844	0.000033
 902	8.9650e+01	8.9571	14.871466	0.000295	2.948071	0.499417	0.000029
 903	8.9749e+01	8.9674	14.902831	0.000315	3.152798	0.534098	0.000032
 904	8.9849e+01	8.9795	14.929308	0.000266	2.661453	0.450862	0.000027
 905	8.9948e+01	8.9893	14.957007	0.000278	2.784289	0.471671	0.000028
 906	9.0047e+01	8.9990	14.988780	0.000319	3.193743	0.541035	0.000032
 907	9.0147e+01	9.0101	15.019738	0.000311	3.111852	0.527162	0.000031
 908	9.0246e+01	9.0186	15.047030	0.000274	2.743343	0.464735	0.000027
 909	9.0346e+01	9.0283	15.076359	0.000295	2.948071	0.499417	0.000029
 910	9.0445e+01	9.0381	15.103243	0.000270	2.702398	0.457799	0.000027
 911	9.0545e+01	9.0514	15.133387	0.000303	3.029961	0.513289	0.000030
 912	9.0644e+01	9.0600	15.162715	0.000295	2.948071	0.499417	0.000029
 913	9.0744e+01	9.0668	15.190007	0.000274	2.743343	0.464735	0.000027
 914	9.0844e+01	9.0782	15.213633	0.000237	2.374835	0.402308	0.000024
 915	9.0943e+01	9.0888	15.243369	0.000299	2.989016	0.506353	0.000030
 916	9.1043e+01	9.0987	15.271883	0.000287	2.866180	0.485544	0.000029
 917	9.1142e+01	9.1108	15.295916	0.000242	2.415780	0.409244	0.000024
 918	9.1242e+01	9.1187	15.323208	0.000274	2.743343	0.464735	0.000027
 919	9.1341e+01	9.1309	15.350908	0.000278	2.784289	0.471671	0.000028
 920	9.1441e+01	9.1406	15.381458	0.000307	3.070907	0.520226	0.000031
 921	9.1540e+01	9.1484	15.407936	0.000266	2.661453	0.450862	0.000027
 922	9.1639e+01	9.1595	15.436450	0.000287	2.866180	0.485544	0.000029
 923	9.1739e+01	9.1671	15.462927	0.000266	2.661453	0.450862	0.000027
 924	9.1838e+01	9.1797	15.484516	0.000217	2.170107	0.367626	0.000022
 925	9.1938e+01	9.1895	15.517103	0.000328	3.275634	0.554907	0.000033
 926	9.2037e+01	9.1960	15.545210	0.000283	2.825234	0.478608	0.000028
 927	9.2137e+01	9.2062	15.572095	0.000270	2.702398	0.457799	0.000027
 928	9.2237e+01	9.2191	15.599387	0.000274	2.743343	0.464735	0.000027
 929	9.2336e+01	9.2282	15.625864	0.000266	2.661453	0.450862	0.000027
 930	9.2436e+01	9.2384	15.652749	0.000270	2.702398	0.457799	0.000027
 931	9.2535e+01	9.2483	15.679226	0.000266	2.661453	0.450862	0.000027
 932	9.2635e+01	9.2593	15.707332	0.000283	2.825234	0.478608	0.000028
 933	9.2734e+01	9.2709	15.735439	0.000283	2.825234	0.478608	0.000028
 934	9.2834e+01	9.2789	15.761102	0.000258	2.579562	0.436990	0.000026
 935	9.2933e+01	9.2886	15.789208	0.000283	2.825234	0.478608	0.000028
 936	9.3032e+01	9.2993	15.814056	0.000250	2.497671	0.423117	0.000025
 937	9.3132e+01	9.3067	15.842978	0.000291	2.907125	0.492480	0.000029
 938	9.3231e+01	9.3180	15.870269	0.000274	2.743343	0.464735	0.000027
 939	9.3331e+01	9.3274	15.896339	0.000262	2.620507	0.443926	0.000026
 940	9.3430e+01	9.3390	15.924039	0.000278	2.784289	0.471671	0.000028
 941	9.3530e+01	9.3443	15.948887	0.000250	2.497671	0.423117	0.000025
 942	9.3629e+01	9.3592	15.973734	0.000250	2.497671	0.423117	0.000025
 943	9.3729e+01	9.3684	16.001841	0.000283	2.825234	0.478608	0.000028
 944	9.3829e+01	9.3764	16.029133	0.000274	2.743343	0.464735	0.000027
 945	9.3928e+01	9.3859	16.052759	0.000237	2.374835	0.402308	0.000024
 946	9.4028e+01	9.3954	16.078829	0.000262	2.620507	0.443926	0.000026
 947	9.4127e+01	9.4069	16.100418	0.000217	2.170107	0.367626	0.000022
 948	9.4227e+01	9.4173	16.127303	0.000270	2.702398	0.457799	0.000027
 949	9.4326e+01	9.4281	16.155002	0.000278	2.784289	0.471671	0.000028
 950	9.4425e+01	9.4391	16.176184	0.000213	2.129162	0.360690	0.000021
 951	9.4525e+01	9.4467	16.201439	0.000254	2.538616	0.430053	0.000025
 952	9.4624e+01	9.4563	16.228324	0.000270	2.702398	0.457799	0.000027
 953	9.4724e+01	9.4653	16.253579	0.000254	2.538616	0.430053	0.000025
 954	9.4823e+01	9.4775	16.279649	0.000262	2.620507	0.443926	0.000026
 955	9.4923e+01	9.4858	16.304904	0.000254	2.538616	0.430053	0.000025
 956	9.5022e+01	9.4971	16.328123	0.000233	2.333889	0.395372	0.000023
 957	9.5122e+01	9.5063	16.353378	0.000254	2.538616	0.430053	0.000025
 958	9.5222e+01	9.5127	16.382299	0.000291	2.907125	0.492480	0.000029
 959	9.5321e+01	9.5280	16.401444	0.000192	1.924435	0.326008	0.000019
 960	9.5421e+01	9.5361	16.429958	0.000287	2.866180	0.485544	0.000029
 961	9.5520e+01	9.5459	16.451955	0.000221	2.211053	0.374562	0.000022
 962	9.5620e+01	9.5557	16.477210	0.000254	2.538616	0.430053	0.000025
 963	9.5719e+01	9.5639	16.506539	0.000295	2.948071	0.499417	0.000029
 964	9.5819e+01	9.5752	16.532608	0.000262	2.620507	0.443926	0.000026
 965	9.5918e+01	9.5871	16.558271	0.000258	2.579562	0.436990	0.000026
 966	9.6017e+01	9.5963	16.579860	0.000217	2.170107	0.367626	0.000022
 967	9.6117e+01	9.6060	16.610411	0.000307	3.070907	0.520226	0.000031
 968	9.6216e+01	9.6148	16.637703	0.000274	2.743343	0.464735	0.000027
 969	9.6316e+01	9.6249	16.658885	0.000213	2.129162	0.360690	0.000021
 970	9.6415e+01	9.6371	16.687806	0.000291	2.907125	0.492480	0.000029
 971	9.6515e+01	9.6445	16.710210	0.000225	2.251998	0.381499	0.000023
 972	9.6615e+01	9.6561	16.737094	0.000270	2.702398	0.457799	0.000027
 973	9.6714e+01	9.6668	16.763572	0.000266	2.661453	0.450862	0.000027
 974	9.6814e+01	9.6771	16.790864	0.000274	2.743343	0.464735	0.000027
 975	9.6913e+01	9.6899	16.819378	0.000287	2.866180	0.485544	0.000029
 976	9.7013e+01	9.6951	16.844633	0.000254	2.538616	0.430053	0.000025
 977	9.7112e+01	9.7041	16.870295	0.000258	2.579562	0.436990	0.000026
 978	9.7212e+01	9.7131	16.893514	0.000233	2.333889	0.395372	0.000023
 979	9.7311e+01	9.7256	16.922843	0.000295	2.948071	0.499417	0.000029
 980	9.7410e+01	9.7357	16.946061	0.000233	2.333889	0.395372	0.000023
 981	9.7510e+01	9.7467	16.974575	0.000287	2.866180	0.485544	0.000029
 982	9.7609e+01	9.7565	16.996164	0.000217	2.170107	0.367626	0.000022
 983	9.7709e+01	9.7662	17.021420	0.000254	2.538616	0.430053	0.000025
 984	9.7808e+01	9.7742	17.047489	0.000262	2.620507	0.443926	0.000026
 985	9.7908e+01	9.7854	17.076003	0.000287	2.866180	0.485544	0.000029
 986	9.8007e+01	9.7950	17.102073	0.000262	2.620507	0.443926	0.000026
 987	9.8107e+01	9.8038	17.127329	0.000254	2.538616	0.430053	0.000025
 988	9.8207e+01	9.8145	17.157472	0.000303	3.029961	0.513289	0.000030
 989	9.8306e+01	9.8244	17.183949	0.000266	2.661453	0.450862	0.000027
 990	9.8406e+01	9.8343	17.213278	0.000295	2.948071	0.499417	0.000029
 991	9.8505e+01	9.8492	17.245865	0.000328	3.275634	0.554907	0.000033
 992	9.8605e+01	9.8587	17.270713	0.000250	2.497671	0.423117	0.000025
 993	9.8704e+01	9.8642	17.299227	0.000287	2.866180	0.485544	0.000029
 994	9.8803e+01	9.8756	17.326926	0.000278	2.784289	0.471671	0.000028
 995	9.8903e+01	9.8853	17.357070	0.000303	3.029961	0.513289	0.000030
 996	9.9002e+01	9.8933	17.387620	0.000307	3.070907	0.520226	0.000031
 997	9.9102e+01	9.9039	17.413690	0.000262	2.620507	0.443926	0.000026
 998	9.9201e+01	9.9149	17.443834	0.000303	3.029961	0.513289	0.000030
 999	9.9301e+01	9.9254	17.474792	0.000311	3.111852	0.527162	0.000031
1000	9.9400e+01	9.9343	17.500862	0.000262	2.620507	0.443926	0.000026
1001	9.9500e+01	9.9451	17.533042	0.000323	3.234688	0.547971	0.000032
1002	9.9600e+01	9.9530	17.561963	0.000291	2.907125	0.492480	0.000029
1003	9.9699e+01	9.9642	17.593328	0.000315	3.152798	0.534098	0.000032
1004	9.9799e+01	9.9756	17.624287	0.000311	3.111852	0.527162	0.000031
1005	9.9898e+01	9.9841	17.654837	0.000307	3.070907	0.520226	0.000031
1006	9.9998e+01	9.9951	17.681722	0.000270	2.702398	0.457799	0.000027
1007	1.0010e+02	9.9830	17.668279	0.000135	1.351199	0.228899	-0.000014
1008	1.0020e+02	9.9741	17.650764	0.000176	1.760653	0.298263	-0.000018
1009	1.0030e+02	9.9648	17.634063	0.000168	1.678762	0.284390	-0.000017
1010	1.0040e+02	9.9548	17.617769	0.000164	1.637817	0.277454	-0.000016
1011	1.0050e+02	9.9463	17.596180	0.000217	2.170107	0.367626	-0.000022
1012	1.0059e+02	9.9329	17.577442	0.000188	1.883489	0.319072	-0.000019
1013	1.0069e+02	9.9246	17.564407	0.000131	1.310254	0.221963	-0.000013
1014	1.0079e+02	9.9137	17.544040	0.000205	2.047271	0.346817	-0.000020
1015	1.0089e+02	9.9033	17.525710	0.000184	1.842544	0.312135	-0.000018
1016	1.0099e+02	9.8946	17.506565	0.000192	1.924435	0.326008	-0.000019
1017	1.0109e+02	9.8822	17.494752	0.000119	1.187417	0.201154	-0.000012
1018	1.0119e+02	9.8743	17.474792	0.000201	2.006326	0.339881	-0.000020
1019	1.0129e+02	9.8627	17.454017	0.000209	2.088217	0.353753	-0.000021
1020	1.0139e+02	9.8557	17.439760	0.000143	1.433090	0.242772	-0.000014
1021	1.0149e+02	9.8438	17.417356	0.000225	2.251998	0.381499	-0.000023
1022	1.0159e+02	9.8348	17.403099	0.000143	1.433090	0.242772	-0.000014
1023	1.0169e+02	9.8267	17.380288	0.000229	2.292944	0.388435	-0.000023
1024	1.0179e+02	9.8145	17.364809	0.000156	1.555926	0.263581	-0.000016
1025	1.0189e+02	9.8047	17.344442	0.000205	2.047271	0.346817	-0.000020
1026	1.0199e+02	9.7940	17.330185	0.000143	1.433090	0.242772	-0.000014
1027	1.0209e+02	9.7858	17.309818	0.000205	2.047271	0.346817	-0.000020
1028	1.0219e+02	9.7738	17.294339	0.000156	1.555926	0.263581	-0.000016
1029	1.0229e+02	9.7656	17.273972	0.000205	2.047271	0.346817	-0.000020
1030	1.0239e+02	9.7561	17.258493	0.000156	1.555926	0.263581	-0.000016
1031	1.0248e+02	9.7443	17.239348	0.000192	1.924435	0.326008	-0.000019
1032	1.0258e+02	9.7366	17.223054	0.000164	1.637817	0.277454	-0.000016
1033	1.0268e+02	9.7250	17.208797	0.000143	1.433090	0.242772	-0.000014
1034	1.0278e+02	9.7122	17.189245	0.000197	1.965380	0.332944	-0.000020
1035	1.0288e+02	9.7070	17.172544	0.000168	1.678762	0.284390	-0.000017
1036	1.0298e+02	9.6973	17.154213	0.000184	1.842544	0.312135	-0.000018
1037	1.0308e+02	9.6875	17.134661	0.000197	1.965380	0.332944	-0.000020
1038	1.0318e+02	9.6783	17.118367	0.000164	1.637817	0.277454	-0.000016
1039	1.0328e+02	9.6649	17.096778	0.000217	2.170107	0.367626	-0.000022
1040	1.0338e+02	9.6558	17.080484	0.000164	1.637817	0.277454	-0.000016
1041	1.0348e+02	9.6460	17.063376	0.000172	1.719708	0.291326	-0.000017
1042	1.0358e+02	9.6362	17.049526	0.000139	1.392144	0.235836	-0.000014
1043	1.0368e+02	9.6279	17.028344	0.000213	2.129162	0.360690	-0.000021
1044	1.0378e+02	9.6164	17.011236	0.000172	1.719708	0.291326	-0.000017
1045	1.0388e+02	9.6069	16.992091	0.000192	1.924435	0.326008	-0.000019
1046	1.0398e+02	9.5972	16.974575	0.000176	1.760653	0.298263	-0.000018
1047	1.0408e+02	9.5850	16.950949	0.000237	2.374835	0.402308	-0.000024
1048	1.0418e+02	9.5768	16.937100	0.000139	1.392144	0.235836	-0.000014
1049	1.0428e+02	9.5667	16.916732	0.000205	2.047271	0.346817	-0.000020
1050	1.0438e+02	9.5569	16.895143	0.000217	2.170107	0.367626	-0.000022
1051	1.0447e+02	9.5473	16.879664	0.000156	1.555926	0.263581	-0.000016
1052	1.0457e+02	9.5339	16.856038	0.000237	2.374835	0.402308	-0.000024
1053	1.0467e+02	9.5264	16.837301	0.000188	1.883489	0.319072	-0.000019
1054	1.0477e+02	9.5166	16.816526	0.000209	2.088217	0.353753	-0.000021
1055	1.0487e+02	9.5057	16.796566	0.000201	2.006326	0.339881	-0.000020
1056	1.0497e+02	9.4955	16.777421	0.000192	1.924435	0.326008	-0.000019
1057	1.0507e+02	9.4865	16.762757	0.000147	1.474035	0.249708	-0.000015
1058	1.0517e+02	9.4754	16.741983	0.000209	2.088217	0.353753	-0.000021
1059	1.0527e+02	9.4678	16.719986	0.000221	2.211053	0.374562	-0.000022
1060	1.0537e+02	9.4580	16.701656	0.000184	1.842544	0.312135	-0.000018
1061	1.0547e+02	9.4461	16.685769	0.000160	1.596872	0.270517	-0.000016
1062	1.0557e+02	9.4348	16.662551	0.000233	2.333889	0.395372	-0.000023
1063	1.0567e+02	9.4278	16.643813	0.000188	1.883489	0.319072	-0.000019
1064	1.0577e+02	9.4168	16.621816	0.000221	2.211053	0.374562	-0.000022
1065	1.0587e+02	9.4083	16.606745	0.000151	1.514981	0.256645	-0.000015
1066	1.0597e+02	9.3985	16.583934	0.000229	2.292944	0.388435	-0.000023
1067	1.0607e+02	9.3876	16.567233	0.000168	1.678762	0.284390	-0.000017
1068	1.0617e+02	9.3784	16.547680	0.000197	1.965380	0.332944	-0.000020
1069	1.0627e+02	9.3689	16.526091	0.000217	2.170107	0.367626	-0.000022
1070	1.0637e+02	9.3579	16.505317	0.000209	2.088217	0.353753	-0.000021
1071	1.0647e+02	9.3473	16.486171	0.000192	1.924435	0.326008	-0.000019
1072	1.0656e+02	9.3368	16.462953	0.000233	2.333889	0.395372	-0.000023
1073	1.0666e+02	9.3280	16.439734	0.000233	2.333889	0.395372	-0.000023
1074	1.0676e+02	9.3164	16.417331	0.000225	2.251998	0.381499	-0.000023
1075	1.0686e+02	9.3092	16.395334	0.000221	2.211053	0.374562	-0.000022
1076	1.0696e+02	9.2979	16.376596	0.000188	1.883489	0.319072	-0.000019
1077	1.0706e+02	9.2881	16.352156	0.000246	2.456725	0.416181	-0.000025
1078	1.0716e+02	9.2763	16.328937	0.000233	2.333889	0.395372	-0.000023
1079	1.0726e+02	9.2681	16.305719	0.000233	2.333889	0.395372	-0.000023
1080	1.0736e+02	9.2617	16.281685	0.000242	2.415780	0.409244	-0.000024
1081	1.0746e+02	9.2471	16.259282	0.000225	2.251998	0.381499	-0.000023
1082	1.0756e+02	9.2368	16.238507	0.000209	2.088217	0.353753	-0.000021
1083	1.0766e+02	9.2285	16.212845	0.000258	2.579562	0.436990	-0.000026
1084	1.0776e+02	9.2212	16.188404	0.000246	2.456725	0.416181	-0.000025
1085	1.0786e+02	9.2072	16.163149	0.000254	2.538616	0.430053	-0.000025
1086	1.0796e+02	9.1969	16.137894	0.000254	2.538616	0.430053	-0.000025
1087	1.0806e+02	9.1913	16.112231	0.000258	2.579562	0.436990	-0.000026
1088	1.0816e+02	9.1768	16.092271	0.000201	2.006326	0.339881	-0.000020
1089	1.0826e+02	9.1699	16.067831	0.000246	2.456725	0.416181	-0.000025
1090	1.0836e+02	9.1583	16.044205	0.000237	2.374835	0.402308	-0.000024
1091	1.0845e+02	9.1486	16.019764	0.000246	2.456725	0.416181	-0.000025
1092	1.0855e+02	9.1387	15.997360	0.000225	2.251998	0.381499	-0.000023
1093	1.0865e+02	9.1280	15.969254	0.000283	2.825234	0.478608	-0.000028
1094	1.0875e+02	9.1193	15.946443	0.000229	2.292944	0.388435	-0.000023
1095	1.0885e+02	9.1091	15.922817	0.000237	2.374835	0.402308	-0.000024
1096	1.0895e+02	9.1018	15.898376	0.000246	2.456725	0.416181	-0.000025
1097	1.0905e+02	9.0900	15.870677	0.000278	2.784289	0.471671	-0.000028
1098	1.0915e+02	9.0777	15.847051	0.000237	2.374835	0.402308	-0.000024
1099	1.0925e+02	9.0702	15.824647	0.000225	2.251998	0.381499	-0.000023
1100	1.0935e+02	9.0582	15.798985	0.000258	2.579562	0.436990	-0.000026
1101	1.0945e+02	9.0491	15.772100	0.000270	2.702398	0.457799	-0.000027
1102	1.0955e+02	9.0398	15.749289	0.000229	2.292944	0.388435	-0.000023
1103	1.0965e+02	9.0260	15.723626	0.000258	2.579562	0.436990	-0.000026
1104	1.0975e+02	9.0200	15.701222	0.000225	2.251998	0.381499	-0.000023
1105	1.0985e+02	9.0076	15.675152	0.000262	2.620507	0.443926	-0.000026
1106	1.0995e+02	8.9990	15.649897	0.000254	2.538616	0.430053	-0.000025
1107	1.1005e+02	8.9914	15.624642	0.000254	2.538616	0.430053	-0.000025
1108	1.1015e+02	8.9777	15.600201	0.000246	2.456725	0.416181	-0.000025
1109	1.1025e+02	8.9670	15.577390	0.000229	2.292944	0.388435	-0.000023
1110	1.1035e+02	8.9600	15.546432	0.000311	3.111852	0.527162	-0.000031
1111	1.1044e+02	8.9491	15.520770	0.000258	2.579562	0.436990	-0.000026
1112	1.1054e+02	8.9371	15.497958	0.000229	2.292944	0.388435	-0.000023
1113	1.1064e+02	8.9307	15.467815	0.000303	3.029961	0.513289	-0.000030
1114	1.1074e+02	8.9188	15.441338	0.000266	2.661453	0.450862	-0.000027
1115	1.1084e+02	8.9113	15.414046	0.000274	2.743343	0.464735	-0.000027
1116	1.1094e+02	8.8983	15.385532	0.000287	2.866180	0.485544	-0.000029
1117	1.1104e+02	8.8904	15.362313	0.000233	2.333889	0.395372	-0.000023
1118	1.1114e+02	8.8804	15.333799	0.000287	2.866180	0.485544	-0.000029
1119	1.1124e+02	8.8700	15.301212	0.000328	3.275634	0.554907	-0.000033
1120	1.1134e+02	8.8609	15.275957	0.000254	2.538616	0.430053	-0.000025
1121	1.1144e+02	8.8489	15.249479	0.000266	2.661453	0.450862	-0.000027
1122	1.1154e+02	8.8396	15.221780	0.000278	2.784289	0.471671	-0.000028
1123	1.1164e+02	8.8271	15.192451	0.000295	2.948071	0.499417	-0.000029
1124	1.1174e+02	8.8214	15.169233	0.000233	2.333889	0.395372	-0.000023
1125	1.1184e+02	8.8113	15.143163	0.000262	2.620507	0.443926	-0.000026
1126	1.1194e+02	8.8037	15.110576	0.000328	3.275634	0.554907	-0.000033
1127	1.1204e+02	8.7915	15.085728	0.000250	2.497671	0.423117	-0.000025
1128	1.1214e+02	8.7795	15.055177	0.000307	3.070907	0.520226	-0.000031
1129	1.1224e+02	8.7683	15.028292	0.000270	2.702398	0.457799	-0.000027
1130	1.1234e+02	8.7614	15.002223	0.000262	2.620507	0.443926	-0.000026
1131	1.1244e+02	8.7500	14.975745	0.000266	2.661453	0.450862	-0.000027
1132	1.1253e+02	8.7402	14.952527	0.000233	2.333889	0.395372	-0.000023
1133	1.1263e+02	8.7299	14.922383	0.000303	3.029961	0.513289	-0.000030
1134	1.1273e+02	8.7211	14.895091	0.000274	2.743343	0.464735	-0.000027
1135	1.1283e+02	8.7135	14.867392	0.000278	2.784289	0.471671	-0.000028
1136	1.1293e+02	8.6997	14.844988	0.000225	2.251998	0.381499	-0.000023
1137	1.1303e+02	8.6909	14.815660	0.000295	2.948071	0.499417	-0.000029
1138	1.1313e+02	8.6819	14.786738	0.000291	2.907125	0.492480	-0.000029
1139	1.1323e+02	8.6707	14.761483	0.000254	2.538616	0.430053	-0.000025
1140	1.1333e+02	8.6627	14.733376	0.000283	2.825234	0.478608	-0.000028
1141	1.1343e+02	8.6539	14.706899	0.000266	2.661453	0.450862	-0.000027
1142	1.1353e+02	8.6426	14.680422	0.000266	2.661453	0.450862	-0.000027
1143	1.1363e+02	8.6328	14.653537	0.000270	2.702398	0.457799	-0.000027
1144	1.1373e+02	8.6207	14.622987	0.000307	3.070907	0.520226	-0.000031
1145	1.1383e+02	8.6124	14.598546	0.000246	2.456725	0.416181	-0.000025
1146	1.1393e+02	8.6011	14.572476	0.000262	2.620507	0.443926	-0.000026
1147	1.1403e+02	8.5918	14.545591	0.000270	2.702398	0.457799	-0.000027
1148	1.1413e+02	8.5824	14.518300	0.000274	2.743343	0.464735	-0.000027
1149	1.1423e+02	8.5710	14.488156	0.000303	3.029961	0.513289	-0.000030
1150	1.1433e+02	8.5612	14.465345	0.000229	2.292944	0.388435	-0.000023
1151	1.1442e+02	8.5522	14.436016	0.000295	2.948071	0.499417	-0.000029
1152	1.1452e+02	8.5394	14.405873	0.000303	3.029961	0.513289	-0.000030
1153	1.1462e+02	8.5352	14.378174	0.000278	2.784289	0.471671	-0.000028
1154	1.1472e+02	8.5229	14.350882	0.000274	2.743343	0.464735	-0.000027
1155	1.1482e+02	8.5123	14.326849	0.000242	2.415780	0.409244	-0.000024
1156	1.1492e+02	8.5040	14.299964	0.000270	2.702398	0.457799	-0.000027
1157	1.1502e+02	8.4921	14.273894	0.000262	2.620507	0.443926	-0.000026
1158	1.1512e+02	8.4814	14.244158	0.000299	2.989016	0.506353	-0.000030
1159	1.1522e+02	8.4742	14.225420	0.000188	1.883489	0.319072	-0.000019
1160	1.1532e+02	8.4610	14.200572	0.000250	2.497671	0.423117	-0.000025
1161	1.1542e+02	8.4521	14.176539	0.000242	2.415780	0.409244	-0.000024
1162	1.1552e+02	8.4415	14.147618	0.000291	2.907125	0.492480	-0.000029
1163	1.1562e+02	8.4351	14.124807	0.000229	2.292944	0.388435	-0.000023
1164	1.1572e+02	8.4229	14.099144	0.000258	2.579562	0.436990	-0.000026
1165	1.1582e+02	8.4152	14.072259	0.000270	2.702398	0.457799	-0.000027
1166	1.1592e+02	8.4052	14.047412	0.000250	2.497671	0.423117	-0.000025
1167	1.1602e+02	8.3953	14.025008	0.000225	2.251998	0.381499	-0.000023
1168	1.1612e+02	8.3838	14.000975	0.000242	2.415780	0.409244	-0.000024
1169	1.1622e+02	8.3743	13.974905	0.000262	2.620507	0.443926	-0.000026
1170	1.1632e+02	8.3643	13.952908	0.000221	2.211053	0.374562	-0.000022
1171	1.1642e+02	8.3516	13.926023	0.000270	2.702398	0.457799	-0.000027
1172	1.1651e+02	8.3447	13.905656	0.000205	2.047271	0.346817	-0.000020
1173	1.1661e+02	8.3341	13.879586	0.000262	2.620507	0.443926	-0.000026
1174	1.1671e+02	8.3233	13.853517	0.000262	2.620507	0.443926	-0.000026
1175	1.1681e+02	8.3130	13.829483	0.000242	2.415780	0.409244	-0.000024
1176	1.1691e+02	8.3021	13.805857	0.000237	2.374835	0.402308	-0.000024
1177	1.1701e+02	8.2919	13.782639	0.000233	2.333889	0.395372	-0.000023
1178	1.1711e+02	8.2831	13.755754	0.000270	2.702398	0.457799	-0.000027
1179	1.1721e+02	8.2716	13.733350	0.000225	2.251998	0.381499	-0.000023
1180	1.1731e+02	8.2644	13.706873	0.000266	2.661453	0.450862	-0.000027
1181	1.1741e+02	8.2526	13.684877	0.000221	2.211053	0.374562	-0.000022
1182	1.1751e+02	8.2437	13.660029	0.000250	2.497671	0.423117	-0.000025
1183	1.1761e+02	8.2339	13.634774	0.000254	2.538616	0.430053	-0.000025
1184	1.1771e+02	8.2256	13.608296	0.000266	2.661453	0.450862	-0.000027
1185	1.1781e+02	8.2146	13.587929	0.000205	2.047271	0.346817	-0.000020
1186	1.1791e+02	8.2050	13.563081	0.000250	2.497671	0.423117	-0.000025
1187	1.1801e+02	8.1947	13.541492	0.000217	2.170107	0.367626	-0.000022
1188	1.1811e+02	8.1826	13.512163	0.000295	2.948071	0.499417	-0.000029
1189	1.1821e+02	8.1751	13.486908	0.000254	2.538616	0.430053	-0.000025
1190	1.1831e+02	8.1641	13.464504	0.000225	2.251998	0.381499	-0.000023
1191	1.1841e+02	8.1554	13.443323	0.000213	2.129162	0.360690	-0.000021
1192	1.1850e+02	8.1439	13.417660	0.000258	2.579562	0.436990	-0.000026
1193	1.1860e+02	8.1348	13.399330	0.000184	1.842544	0.312135	-0.000018
1194	1.1870e+02	8.1251	13.373260	0.000262	2.620507	0.443926	-0.000026
1195	1.1880e+02	8.1140	13.351670	0.000217	2.170107	0.367626	-0.000022
1196	1.1890e+02	8.1033	13.324786	0.000270	2.702398	0.457799	-0.000027
1197	1.1900e+02	8.0926	13.301975	0.000229	2.292944	0.388435	-0.000023
1198	1.1910e+02	8.0859	13.280386	0.000217	2.170107	0.367626	-0.000022
1199	1.1920e+02	8.0762	13.257574	0.000229	2.292944	0.388435	-0.000023
1200	1.1930e+02	8.0651	13.234356	0.000233	2.333889	0.395372	-0.000023
1201	1.1940e+02	8.0544	13.213174	0.000213	2.129162	0.360690	-0.000021
1202	1.1950e+02	8.0428	13.192807	0.000205	2.047271	0.346817	-0.000020
1203	1.1960e+02	8.0359	13.167552	0.000254	2.538616	0.430053	-0.000025
1204	1.1970e+02	8.0245	13.143926	0.000237	2.374835	0.402308	-0.000024
1205	1.1980e+02	8.0139	13.120300	0.000237	2.374835	0.402308	-0.000024
1206	1.1990e+02	8.0048	13.096267	0.000242	2.415780	0.409244	-0.000024
1207	1.2000e+02	7.9944	13.075085	0.000213	2.129162	0.360690	-0.000021
1208	1.2010e+02	7.9877	13.052274	0.000229	2.292944	0.388435	-0.000023
1209	1.2020e+02	7.9745	13.030685	0.000217	2.170107	0.367626	-0.000022
1210	1.2030e+02	7.9649	13.010725	0.000201	2.006326	0.339881	-0.000020
1211	1.2039e+02	7.9572	12.989950	0.000209	2.088217	0.353753	-0.000021
1212	1.2049e+02	7.9449	12.969991	0.000201	2.006326	0.339881	-0.000020
1213	1.2059e+02	7.9318	12.942291	0.000278	2.784289	0.471671	-0.000028
1214	1.2069e+02	7.9284	12.917851	0.000246	2.456725	0.416181	-0.000025
1215	1.2079e+02	7.9172	12.897484	0.000205	2.047271	0.346817	-0.000020
1216	1.2089e+02	7.9079	12.866526	0.000311	3.111852	0.527162	-0.000031
1217	1.2099e+02	7.8944	12.841678	0.000250	2.497671	0.423117	-0.000025
1218	1.2109e+02	7.8857	12.822125	0.000197	1.965380	0.332944	-0.000020
1219	1.2119e+02	7.8771	12.796463	0.000258	2.579562	0.436990	-0.000026
1220	1.2129e+02	7.8673	12.771207	0.000254	2.538616	0.430053	-0.000025
1221	1.2139e+02	7.8553	12.748804	0.000225	2.251998	0.381499	-0.000023
1222	1.2149e+02	7.8452	12.724770	0.000242	2.415780	0.409244	-0.000024
1223	1.2159e+02	7.8355	12.703996	0.000209	2.088217	0.353753	-0.000021
1224	1.2169e+02	7.8263	12.684036	0.000201	2.006326	0.339881	-0.000020
1225	1.2179e+02	7.8150	12.656337	0.000278	2.784289	0.471671	-0.000028
1226	1.2189e+02	7.8033	12.636784	0.000197	1.965380	0.332944	-0.000020
1227	1.2199e+02	7.7972	12.609085	0.000278	2.784289	0.471671	-0.000028
1228	1.2209e+02	7.7881	12.588718	0.000205	2.047271	0.346817	-0.000020
1229	1.2219e+02	7.7738	12.563870	0.000250	2.497671	0.423117	-0.000025
1230	1.2229e+02	7.7632	12.537393	0.000266	2.661453	0.450862	-0.000027
1231	1.2239e+02	7.7576	12.514989	0.000225	2.251998	0.381499	-0.000023
1232	1.2248e+02	7.7483	12.488919	0.000262	2.620507	0.443926	-0.000026
1233	1.2258e+02	7.7375	12.463256	0.000258	2.579562	0.436990	-0.000026
1234	1.2268e+02	7.7274	12.443297	0.000201	2.006326	0.339881	-0.000020
1235	1.2278e+02	7.7170	12.418449	0.000250	2.497671	0.423117	-0.000025
1236	1.2288e+02	7.7057	12.394008	0.000246	2.456725	0.416181	-0.000025
1237	1.2298e+02	7.6986	12.371604	0.000225	2.251998	0.381499	-0.000023
1238	1.2308e+02	7.6875	12.346756	0.000250	2.497671	0.423117	-0.000025
1239	1.2318e+02	7.6778	12.321909	0.000250	2.497671	0.423117	-0.000025
1240	1.2328e+02	7.6670	12.298690	0.000233	2.333889	0.395372	-0.000023
1241	1.2338e+02	7.6563	12.272620	0.000262	2.620507	0.443926	-0.000026
1242	1.2348e+02	7.6476	12.240440	0.000323	3.234688	0.547971	-0.000032
1243	1.2358e+02	7.6354	12.220888	0.000197	1.965380	0.332944	-0.000020
1244	1.2368e+02	7.6278	12.192374	0.000287	2.866180	0.485544	-0.000029
1245	1.2378e+02	7.6187	12.165896	0.000266	2.661453	0.450862	-0.000027
1246	1.2388e+02	7.6088	12.140641	0.000254	2.538616	0.430053	-0.000025
1247	1.2398e+02	7.5959	12.111720	0.000291	2.907125	0.492480	-0.000029
1248	1.2408e+02	7.5879	12.085650	0.000262	2.620507	0.443926	-0.000026
1249	1.2418e+02	7.5771	12.059987	0.000258	2.579562	0.436990	-0.000026
1250	1.2428e+02	7.5689	12.031066	0.000291	2.907125	0.492480	-0.000029
1251	1.2438e+02	7.5578	12.002552	0.000287	2.866180	0.485544	-0.000029
1252	1.2447e+02	7.5466	11.974445	0.000283	2.825234	0.478608	-0.000028
1253	1.2457e+02	7.5355	11.947561	0.000270	2.702398	0.457799	-0.000027
1254	1.2467e+02	7.5279	11.917417	0.000303	3.029961	0.513289	-0.000030
1255	1.2477e+02	7.5190	11.890125	0.000274	2.743343	0.464735	-0.000027
1256	1.2487e+02	7.5056	11.860389	0.000299	2.989016	0.506353	-0.000030
1257	1.2497e+02	7.4952	11.840022	0.000205	2.047271	0.346817	-0.000020
1258	1.2507e+02	7.4883	11.808657	0.000315	3.152798	0.534098	-0.000032
1259	1.2517e+02	7.4776	11.782994	0.000258	2.579562	0.436990	-0.000026
1260	1.2527e+02	7.4656	11.752036	0.000311	3.111852	0.527162	-0.000031
1261	1.2537e+02	7.4577	11.725152	0.000270	2.702398	0.457799	-0.000027
1262	1.2547e+02	7.4492	11.694194	0.000311	3.111852	0.527162	-0.000031
1263	1.2557e+02	7.4360	11.671790	0.000225	2.251998	0.381499	-0.000023
1264	1.2567e+02	7.4316	11.643276	0.000287	2.866180	0.485544	-0.000029
1265	1.2577e+02	7.4164	11.611096	0.000323	3.234688	0.547971	-0.000032
1266	1.2587e+02	7.4083	11.583804	0.000274	2.743343	0.464735	-0.000027
1267	1.2597e+02	7.3977	11.554068	0.000299	2.989016	0.506353	-0.000030
1268	1.2607e+02	7.3881	11.527998	0.000262	2.620507	0.443926	-0.000026
1269	1.2617e+02	7.3766	11.496633	0.000315	3.152798	0.534098	-0.000032
1270	1.2627e+02	7.3694	11.476673	0.000201	2.006326	0.339881	-0.000020
1271	1.2636e+02	7.3602	11.443678	0.000332	3.316579	0.561844	-0.000033
1272	1.2646e+02	7.3495	11.414757	0.000291	2.907125	0.492480	-0.000029
1273	1.2656e+02	7.3389	11.387057	0.000278	2.784289	0.471671	-0.000028
1274	1.2666e+02	7.3283	11.356507	0.000307	3.070907	0.520226	-0.000031
1275	1.2676e+02	7.3172	11.326363	0.000303	3.029961	0.513289	-0.000030
1276	1.2686e+02	7.3089	11.300293	0.000262	2.620507	0.443926	-0.000026
1277	1.2696e+02	7.2998	11.268113	0.000323	3.234688	0.547971	-0.000032
1278	1.2706e+02	7.2878	11.239599	0.000287	2.866180	0.485544	-0.000029
1279	1.2716e+02	7.2765	11.213122	0.000266	2.661453	0.450862	-0.000027
1280	1.2726e+02	7.2684	11.182571	0.000307	3.070907	0.520226	-0.000031
1281	1.2736e+02	7.2589	11.152021	0.000307	3.070907	0.520226	-0.000031
1282	1.2746e+02	7.2492	11.123914	0.000283	2.825234	0.478608	-0.000028
1283	1.2756e+02	7.2417	11.090512	0.000336	3.357525	0.568780	-0.000034
1284	1.2766e+02	7.2280	11.056295	0.000344	3.439416	0.582653	-0.000034
1285	1.2776e+02	7.2195	11.028596	0.000278	2.784289	0.471671	-0.000028
1286	1.2786e+02	7.2100	10.998045	0.000307	3.070907	0.520226	-0.000031
1287	1.2796e+02	7.1981	10.965050	0.000332	3.316579	0.561844	-0.000033
1288	1.2806e+02	7.1890	10.936944	0.000283	2.825234	0.478608	-0.000028
1289	1.2816e+02	7.1812	10.902727	0.000344	3.439416	0.582653	-0.000034
1290	1.2826e+02	7.1690	10.874620	0.000283	2.825234	0.478608	-0.000028
1291	1.2835e+02	7.1568	10.841218	0.000336	3.357525	0.568780	-0.000034
1292	1.2845e+02	7.1503	10.812297	0.000291	2.907125	0.492480	-0.000029
1293	1.2855e+02	7.1394	10.777673	0.000348	3.480361	0.589589	-0.000035
1294	1.2865e+02	7.1289	10.747937	0.000299	2.989016	0.506353	-0.000030
1295	1.2875e+02	7.1187	10.723089	0.000250	2.497671	0.423117	-0.000025
1296	1.2885e+02	7.1104	10.686021	0.000373	3.726034	0.631207	-0.000037
1297	1.2895e+02	7.0975	10.655470	0.000307	3.070907	0.520226	-0.000031
1298	1.2905e+02	7.0911	10.626549	0.000291	2.907125	0.492480	-0.000029
1299	1.2915e+02	7.0820	10.595591	0.000311	3.111852	0.527162	-0.000031
1300	1.2925e+02	7.0721	10.564633	0.000311	3.111852	0.527162	-0.000031
1301	1.2935e+02	7.0582	10.533267	0.000315	3.152798	0.534098	-0.000032
1302	1.2945e+02	7.0501	10.503939	0.000295	2.948071	0.499417	-0.000029
1303	1.2955e+02	7.0409	10.475425	0.000287	2.866180	0.485544	-0.000029
1304	1.2965e+02	7.0276	10.445689	0.000299	2.989016	0.506353	-0.000030
1305	1.2975e+02	7.0174	10.415138	0.000307	3.070907	0.520226	-0.000031
1306	1.2985e+02	7.0103	10.383773	0.000315	3.152798	0.534098	-0.000032
1307	1.2995e+02	6.9985	10.353222	0.000307	3.070907	0.520226	-0.000031
1308	1.3005e+02	6.9912	10.323486	0.000299	2.989016	0.506353	-0.000030
1309	1.3015e+02	6.9800	10.295379	0.000283	2.825234	0.478608	-0.000028
1310	1.3025e+02	6.9647	10.261977	0.000336	3.357525	0.568780	-0.000034
1311	1.3034e+02	6.9614	10.231019	0.000311	3.111852	0.527162	-0.000031
1312	1.3044e+02	6.9485	10.201283	0.000299	2.989016	0.506353	-0.000030
1313	1.3054e+02	6.9410	10.170732	0.000307	3.070907	0.520226	-0.000031
1314	1.3064e+02	6.9292	10.140589	0.000303	3.029961	0.513289	-0.000030
1315	1.3074e+02	6.9236	10.112890	0.000278	2.784289	0.471671	-0.000028
1316	1.3084e+02	6.9085	10.083561	0.000295	2.948071	0.499417	-0.000029
1317	1.3094e+02	6.9017	10.049344	0.000344	3.439416	0.582653	-0.000034
1318	1.3104e+02	6.8902	10.019608	0.000299	2.989016	0.506353	-0.000030
1319	1.3114e+02	6.8828	9.989465	0.000303	3.029961	0.513289	-0.000030
1320	1.3124e+02	6.8726	9.954026	0.000356	3.562252	0.603462	-0.000036
1321	1.3134e+02	6.8601	9.927956	0.000262	2.620507	0.443926	-0.000026
1322	1.3144e+02	6.8526	9.898220	0.000299	2.989016	0.506353	-0.000030
1323	1.3154e+02	6.8410	9.868077	0.000303	3.029961	0.513289	-0.000030
1324	1.3164e+02	6.8299	9.838748	0.000295	2.948071	0.499417	-0.000029
1325	1.3174e+02	6.8232	9.812271	0.000266	2.661453	0.450862	-0.000027
1326	1.3184e+02	6.8092	9.782942	0.000295	2.948071	0.499417	-0.000029
1327	1.3194e+02	6.8026	9.754021	0.000291	2.907125	0.492480	-0.000029
1328	1.3204e+02	6.7892	9.721841	0.000323	3.234688	0.547971	-0.000032
1329	1.3214e+02	6.7818	9.691698	0.000303	3.029961	0.513289	-0.000030
1330	1.3224e+02	6.7727	9.663998	0.000278	2.784289	0.471671	-0.000028
1331	1.3234e+02	6.7607	9.641187	0.000229	2.292944	0.388435	-0.000023
1332	1.3243e+02	6.7516	9.612673	0.000287	2.866180	0.485544	-0.000029
1333	1.3253e+02	6.7400	9.582123	0.000307	3.070907	0.520226	-0.000031
1334	1.3263e+02	6.7314	9.553609	0.000287	2.866180	0.485544	-0.000029
1335	1.3273e+02	6.7219	9.528761	0.000250	2.497671	0.423117	-0.000025
1336	1.3283e+02	6.7126	9.498617	0.000303	3.029961	0.513289	-0.000030
1337	1.3293e+02	6.7018	9.473362	0.000254	2.538616	0.430053	-0.000025
1338	1.3303e+02	6.6926	9.442811	0.000307	3.070907	0.520226	-0.000031
1339	1.3313e+02	6.6839	9.417556	0.000254	2.538616	0.430053	-0.000025
1340	1.3323e+02	6.6724	9.389449	0.000283	2.825234	0.478608	-0.000028
1341	1.3333e+02	6.6626	9.364602	0.000250	2.497671	0.423117	-0.000025
1342	1.3343e+02	6.6521	9.334458	0.000303	3.029961	0.513289	-0.000030
1343	1.3353e+02	6.6428	9.307166	0.000274	2.743343	0.464735	-0.000027
1344	1.3363e+02	6.6340	9.277838	0.000295	2.948071	0.499417	-0.000029
1345	1.3373e+02	6.6199	9.250953	0.000270	2.702398	0.457799	-0.000027
1346	1.3383e+02	6.6114	9.224068	0.000270	2.702398	0.457799	-0.000027
1347	1.3393e+02	6.6022	9.197591	0.000266	2.661453	0.450862	-0.000027
1348	1.3403e+02	6.5923	9.169077	0.000287	2.866180	0.485544	-0.000029
1349	1.3413e+02	6.5806	9.138526	0.000307	3.070907	0.520226	-0.000031
1350	1.3423e+02	6.5704	9.114901	0.000237	2.374835	0.402308	-0.000024
1351	1.3432e+02	6.5615	9.087201	0.000278	2.784289	0.471671	-0.000028
1352	1.3442e+02	6.5520	9.058687	0.000287	2.866180	0.485544	-0.000029
1353	1.3452e+02	6.5438	9.030173	0.000287	2.866180	0.485544	-0.000029
1354	1.3462e+02	6.5319	9.003289	0.000270	2.702398	0.457799	-0.000027
1355	1.3472e+02	6.5235	8.975997	0.000274	2.743343	0.464735	-0.000027
1356	1.3482e+02	6.5130	8.950334	0.000258	2.579562	0.436990	-0.000026
1357	1.3492e+02	6.5044	8.921413	0.000291	2.907125	0.492480	-0.000029
1358	1.3502e+02	6.4943	8.896158	0.000254	2.538616	0.430053	-0.000025
1359	1.3512e+02	6.4800	8.870088	0.000262	2.620507	0.443926	-0.000026
1360	1.3522e+02	6.4712	8.843610	0.000266	2.661453	0.450862	-0.000027
1361	1.3532e+02	6.4602	8.814282	0.000295	2.948071	0.499417	-0.000029
1362	1.3542e+02	6.4527	8.788212	0.000262	2.620507	0.443926	-0.000026
1363	1.3552e+02	6.4439	8.762142	0.000262	2.620507	0.443926	-0.000026
1364	1.3562e+02	6.4321	8.733221	0.000291	2.907125	0.492480	-0.000029
1365	1.3572e+02	6.4223	8.710409	0.000229	2.292944	0.388435	-0.000023
1366	1.3582e+02	6.4127	8.682710	0.000278	2.784289	0.471671	-0.000028
1367	1.3592e+02	6.4007	8.655418	0.000274	2.743343	0.464735	-0.000027
1368	1.3602e+02	6.3932	8.634236	0.000213	2.129162	0.360690	-0.000021
1369	1.3612e+02	6.3821	8.607352	0.000270	2.702398	0.457799	-0.000027
1370	1.3622e+02	6.3741	8.579245	0.000283	2.825234	0.478608	-0.000028
1371	1.3631e+02	6.3656	8.553175	0.000262	2.620507	0.443926	-0.000026
1372	1.3641e+02	6.3522	8.526698	0.000266	2.661453	0.450862	-0.000027
1373	1.3651e+02	6.3450	8.503887	0.000229	2.292944	0.388435	-0.000023
1374	1.3661e+02	6.3347	8.475780	0.000283	2.825234	0.478608	-0.000028
1375	1.3671e+02	6.3223	8.453784	0.000221	2.211053	0.374562	-0.000022
1376	1.3681e+02	6.3129	8.426084	0.000278	2.784289	0.471671	-0.000028
1377	1.3691e+02	6.3039	8.399200	0.000270	2.702398	0.457799	-0.000027
1378	1.3701e+02	6.2927	8.376389	0.000229	2.292944	0.388435	-0.000023
1379	1.3711e+02	6.2856	8.349504	0.000270	2.702398	0.457799	-0.000027
1380	1.3721e+02	6.2746	8.325878	0.000237	2.374835	0.402308	-0.000024
1381	1.3731e+02	6.2652	8.298586	0.000274	2.743343	0.464735	-0.000027
1382	1.3741e+02	6.2551	8.271294	0.000274	2.743343	0.464735	-0.000027
1383	1.3751e+02	6.2460	8.242780	0.000287	2.866180	0.485544	-0.000029
1384	1.3761e+02	6.2325	8.213044	0.000299	2.989016	0.506353	-0.000030
1385	1.3771e+02	6.2247	8.188196	0.000250	2.497671	0.423117	-0.000025
1386	1.3781e+02	6.2130	8.161312	0.000270	2.702398	0.457799	-0.000027
1387	1.3791e+02	6.2045	8.135649	0.000258	2.579562	0.436990	-0.000026
1388	1.3801e+02	6.1963	8.109172	0.000266	2.661453	0.450862	-0.000027
1389	1.3811e+02	6.1839	8.080251	0.000291	2.907125	0.492480	-0.000029
1390	1.3821e+02	6.1761	8.057439	0.000229	2.292944	0.388435	-0.000023
1391	1.3831e+02	6.1610	8.027703	0.000299	2.989016	0.506353	-0.000030
1392	1.3840e+02	6.1556	8.000411	0.000274	2.743343	0.464735	-0.000027
1393	1.3850e+02	6.1462	7.978008	0.000225	2.251998	0.381499	-0.000023
1394	1.3860e+02	6.1343	7.950308	0.000278	2.784289	0.471671	-0.000028
1395	1.3870e+02	6.1229	7.921387	0.000291	2.907125	0.492480	-0.000029
1396	1.3880e+02	6.1172	7.891244	0.000303	3.029961	0.513289	-0.000030
1397	1.3890e+02	6.1040	7.867618	0.000237	2.374835	0.402308	-0.000024
1398	1.3900e+02	6.0950	7.838289	0.000295	2.948071	0.499417	-0.000029
1399	1.3910e+02	6.0848	7.812219	0.000262	2.620507	0.443926	-0.000026
1400	1.3920e+02	6.0763	7.782076	0.000303	3.029961	0.513289	-0.000030
1401	1.3930e+02	6.0665	7.757635	0.000246	2.456725	0.416181	-0.000025
1402	1.3940e+02	6.0567	7.730751	0.000270	2.702398	0.457799	-0.000027
1403	1.3950e+02	6.0441	7.703459	0.000274	2.743343	0.464735	-0.000027
1404	1.3960e+02	6.0342	7.674945	0.000287	2.866180	0.485544	-0.000029
1405	1.3970e+02	6.0249	7.648875	0.000262	2.620507	0.443926	-0.000026
1406	1.3980e+02	6.0172	7.622397	0.000266	2.661453	0.450862	-0.000027
1407	1.3990e+02	6.0043	7.590217	0.000323	3.234688	0.547971	-0.000032
1408	1.4000e+02	5.9933	7.564962	0.000254	2.538616	0.430053	-0.000025
1409	1.4010e+02	5.9858	7.534412	0.000307	3.070907	0.520226	-0.000031
1410	1.4020e+02	5.9769	7.506305	0.000283	2.825234	0.478608	-0.000028
1411	1.4029e+02	5.9646	7.474939	0.000315	3.152798	0.534098	-0.000032
1412	1.4039e+02	5.9559	7.446018	0.000291	2.907125	0.492480	-0.000029
1413	1.4049e+02	5.9460	7.417504	0.000287	2.866180	0.485544	-0.000029
1414	1.4059e+02	5.9365	7.388583	0.000291	2.907125	0.492480	-0.000029
1415	1.4069e+02	5.9267	7.357217	0.000315	3.152798	0.534098	-0.000032
1416	1.4079e+02	5.9187	7.327889	0.000295	2.948071	0.499417	-0.000029
1417	1.4089e+02	5.9035	7.294487	0.000336	3.357525	0.568780	-0.000034
1418	1.4099e+02	5.8950	7.266380	0.000283	2.825234	0.478608	-0.000028
1419	1.4109e+02	5.8874	7.232978	0.000336	3.357525	0.568780	-0.000034
1420	1.4119e+02	5.8767	7.199576	0.000336	3.357525	0.568780	-0.000034
1421	1.4129e+02	5.8648	7.169840	0.000299	2.989016	0.506353	-0.000030
1422	1.4139e+02	5.8572	7.138475	0.000315	3.152798	0.534098	-0.000032
1423	1.4149e+02	5.8485	7.109553	0.000291	2.907125	0.492480	-0.000029
1424	1.4159e+02	5.8345	7.075744	0.000340	3.398470	0.575716	-0.000034
1425	1.4169e+02	5.8311	7.044786	0.000311	3.111852	0.527162	-0.000031
1426	1.4179e+02	5.8164	7.014235	0.000307	3.070907	0.520226	-0.000031
1427	1.4189e+02	5.8082	6.984906	0.000295	2.948071	0.499417	-0.000029
1428	1.4199e+02	5.7951	6.952726	0.000323	3.234688	0.547971	-0.000032
1429	1.4209e+02	5.7858	6.920139	0.000328	3.275634	0.554907	-0.000033
1430	1.4219e+02	5.7774	6.892440	0.000278	2.784289	0.471671	-0.000028
1431	1.4228e+02	5.7656	6.859038	0.000336	3.357525	0.568780	-0.000034
1432	1.4238e+02	5.7580	6.827672	0.000315	3.152798	0.534098	-0.000032
1433	1.4248e+02	5.7468	6.797529	0.000303	3.029961	0.513289	-0.000030
1434	1.4258e+02	5.7364	6.765756	0.000319	3.193743	0.541035	-0.000032
1435	1.4268e+02	5.7253	6.730725	0.000352	3.521306	0.596525	-0.000035
1436	1.4278e+02	5.7178	6.700989	0.000299	2.989016	0.506353	-0.000030
1437	1.4288e+02	5.7063	6.670031	0.000311	3.111852	0.527162	-0.000031
1438	1.4298e+02	5.6965	6.637851	0.000323	3.234688	0.547971	-0.000032
1439	1.4308e+02	5.6881	6.604448	0.000336	3.357525	0.568780	-0.000034
1440	1.4318e+02	5.6767	6.575934	0.000287	2.866180	0.485544	-0.000029
1441	1.4328e+02	5.6670	6.543754	0.000323	3.234688	0.547971	-0.000032
1442	1.4338e+02	5.6552	6.511982	0.000319	3.193743	0.541035	-0.000032
1443	1.4348e+02	5.6516	6.480616	0.000315	3.152798	0.534098	-0.000032
1444	1.4358e+02	5.6374	6.446807	0.000340	3.398470	0.575716	-0.000034
1445	1.4368e+02	5.6275	6.411775	0.000352	3.521306	0.596525	-0.000035
1446	1.4378e+02	5.6181	6.379188	0.000328	3.275634	0.554907	-0.000033
1447	1.4388e+02	5.6091	6.347415	0.000319	3.193743	0.541035	-0.000032
1448	1.4398e+02	5.5971	6.316457	0.000311	3.111852	0.527162	-0.000031
1449	1.4408e+02	5.5903	6.279389	0.000373	3.726034	0.631207	-0.000037
1450	1.4418e+02	5.5791	6.244358	0.000352	3.521306	0.596525	-0.000035
1451	1.4428e+02	5.5676	6.211363	0.000332	3.316579	0.561844	-0.000033
1452	1.4437e+02	5.5562	6.179590	0.000319	3.193743	0.541035	-0.000032
1453	1.4447e+02	5.5466	6.145373	0.000344	3.439416	0.582653	-0.000034
1454	1.4457e+02	5.5386	6.108305	0.000373	3.726034	0.631207	-0.000037
1455	1.4467e+02	5.5253	6.074903	0.000336	3.357525	0.568780	-0.000034
1456	1.4477e+02	5.5173	6.038242	0.000369	3.685088	0.624271	-0.000037
1457	1.4487e+02	5.5067	6.007284	0.000311	3.111852	0.527162	-0.000031
1458	1.4497e+02	5.4980	5.973475	0.000340	3.398470	0.575716	-0.000034
1459	1.4507e+02	5.4888	5.940073	0.000336	3.357525	0.568780	-0.000034
1460	1.4517e+02	5.4760	5.905856	0.000344	3.439416	0.582653	-0.000034
1461	1.4527e+02	5.4665	5.871232	0.000348	3.480361	0.589589	-0.000035
1462	1.4537e+02	5.4580	5.833349	0.000381	3.807924	0.645080	-0.000038
1463	1.4547e+02	5.4482	5.800354	0.000332	3.316579	0.561844	-0.000033
1464	1.4557e+02	5.4383	5.768582	0.000319	3.193743	0.541035	-0.000032
1465	1.4567e+02	5.4269	5.731513	0.000373	3.726034	0.631207	-0.000037
1466	1.4577e+02	5.4183	5.697297	0.000344	3.439416	0.582653	-0.000034
1467	1.4587e+02	5.4077	5.663895	0.000336	3.357525	0.568780	-0.000034
1468	1.4597e+02	5.3980	5.628048	0.000360	3.603197	0.610398	-0.000036
1469	1.4607e+02	5.3889	5.597498	0.000307	3.070907	0.520226	-0.000031
1470	1.4617e+02	5.3788	5.561244	0.000364	3.644143	0.617334	-0.000036
1471	1.4626e+02	5.3680	5.532323	0.000291	2.907125	0.492480	-0.000029
1472	1.4636e+02	5.3585	5.495255	0.000373	3.726034	0.631207	-0.000037
1473	1.4646e+02	5.3495	5.463075	0.000323	3.234688	0.547971	-0.000032
1474	1.4656e+02	5.3370	5.427636	0.000356	3.562252	0.603462	-0.000036
1475	1.4666e+02	5.3282	5.390160	0.000377	3.766979	0.638144	-0.000038
1476	1.4676e+02	5.3179	5.359610	0.000307	3.070907	0.520226	-0.000031
1477	1.4686e+02	5.3082	5.326208	0.000336	3.357525	0.568780	-0.000034
1478	1.4696e+02	5.3017	5.291176	0.000352	3.521306	0.596525	-0.000035
1479	1.4706e+02	5.2911	5.260218	0.000311	3.111852	0.527162	-0.000031
1480	1.4716e+02	5.2796	5.225187	0.000352	3.521306	0.596525	-0.000035
1481	1.4726e+02	5.2689	5.194636	0.000307	3.070907	0.520226	-0.000031
1482	1.4736e+02	5.2544	5.160012	0.000348	3.480361	0.589589	-0.000035
1483	1.4746e+02	5.2480	5.126202	0.000340	3.398470	0.575716	-0.000034
1484	1.4756e+02	5.2402	5.089134	0.000373	3.726034	0.631207	-0.000037
1485	1.4766e+02	5.2282	5.054510	0.000348	3.480361	0.589589	-0.000035
1486	1.4776e+02	5.2213	5.017442	0.000373	3.726034	0.631207	-0.000037
1487	1.4786e+02	5.2100	4.983225	0.000344	3.439416	0.582653	-0.000034
1488	1.4796e+02	5.1995	4.952267	0.000311	3.111852	0.527162	-0.000031
1489	1.4806e+02	5.1904	4.916828	0.000356	3.562252	0.603462	-0.000036
1490	1.4816e+02	5.1807	4.885463	0.000315	3.152798	0.534098	-0.000032
1491	1.4825e+02	5.1687	4.853690	0.000319	3.193743	0.541035	-0.000032
1492	1.4835e+02	5.1598	4.819066	0.000348	3.480361	0.589589	-0.000035
1493	1.4845e+02	5.1489	4.789737	0.000295	2.948071	0.499417	-0.000029
1494	1.4855e+02	5.1409	4.754706	0.000352	3.521306	0.596525	-0.000035
1495	1.4865e+02	5.1308	4.724155	0.000307	3.070907	0.520226	-0.000031
1496	1.4875e+02	5.1223	4.689531	0.000348	3.480361	0.589589	-0.000035
1497	1.4885e+02	5.1092	4.658980	0.000307	3.070907	0.520226	-0.000031
1498	1.4895e+02	5.1012	4.630059	0.000291	2.907125	0.492480	-0.000029
1499	1.4905e+02	5.0906	4.599101	0.000311	3.111852	0.527162	-0.000031
1500	1.4915e+02	5.0793	4.564070	0.000352	3.521306	0.596525	-0.000035
1501	1.4925e+02	5.0710	4.532704	0.000315	3.152798	0.534098	-0.000032
1502	1.4935e+02	5.0603	4.501339	0.000315	3.152798	0.534098	-0.000032
1503	1.4945e+02	5.0491	4.467937	0.000336	3.357525	0.568780	-0.000034
1504	1.4955e+02	5.0397	4.442274	0.000258	2.579562	0.436990	-0.000026
1505	1.4965e+02	5.0310	4.409687	0.000328	3.275634	0.554907	-0.000033
1506	1.4975e+02	5.0223	4.379136	0.000307	3.070907	0.520226	-0.000031
1507	1.4985e+02	5.0097	4.347363	0.000319	3.193743	0.541035	-0.000032
1508	1.4995e+02	5.0007	4.315183	0.000323	3.234688	0.547971	-0.000032
1509	1.5005e+02	4.9919	4.285040	0.000303	3.029961	0.513289	-0.000030
1510	1.5015e+02	4.9816	4.254082	0.000311	3.111852	0.527162	-0.000031
1511	1.5025e+02	4.9702	4.225161	0.000291	2.907125	0.492480	-0.000029
1512	1.5034e+02	4.9598	4.193388	0.000319	3.193743	0.541035	-0.000032
1513	1.5044e+02	4.9517	4.160393	0.000332	3.316579	0.561844	-0.000033
1514	1.5054e+02	4.9404	4.130657	0.000299	2.989016	0.506353	-0.000030
1515	1.5064e+02	4.9297	4.096033	0.000348	3.480361	0.589589	-0.000035
1516	1.5074e+02	4.9216	4.069148	0.000270	2.702398	0.457799	-0.000027
1517	1.5084e+02	4.9137	4.034932	0.000344	3.439416	0.582653	-0.000034
1518	1.5094e+02	4.9023	4.003974	0.000311	3.111852	0.527162	-0.000031
1519	1.5104e+02	4.8890	3.975867	0.000283	2.825234	0.478608	-0.000028
1520	1.5114e+02	4.8828	3.937984	0.000381	3.807924	0.645080	-0.000038
1521	1.5124e+02	4.8701	3.913136	0.000250	2.497671	0.423117	-0.000025
1522	1.5134e+02	4.8607	3.880956	0.000323	3.234688	0.547971	-0.000032
1523	1.5144e+02	4.8533	3.848369	0.000328	3.275634	0.554907	-0.000033
1524	1.5154e+02	4.8421	3.819855	0.000287	2.866180	0.485544	-0.000029
1525	1.5164e+02	4.8297	3.784009	0.000360	3.603197	0.610398	-0.000036
1526	1.5174e+02	4.8223	3.755495	0.000287	2.866180	0.485544	-0.000029
1527	1.5184e+02	4.8139	3.723722	0.000319	3.193743	0.541035	-0.000032
1528	1.5194e+02	4.8015	3.694801	0.000291	2.907125	0.492480	-0.000029
1529	1.5204e+02	4.7922	3.667101	0.000278	2.784289	0.471671	-0.000028
1530	1.5214e+02	4.7813	3.634514	0.000328	3.275634	0.554907	-0.000033
1531	1.5224e+02	4.7718	3.606000	0.000287	2.866180	0.485544	-0.000029
1532	1.5233e+02	4.7594	3.575449	0.000307	3.070907	0.520226	-0.000031
1533	1.5243e+02	4.7518	3.546121	0.000295	2.948071	0.499417	-0.000029
1534	1.5253e+02	4.7414	3.516385	0.000299	2.989016	0.506353	-0.000030
1535	1.5263e+02	4.7350	3.485834	0.000307	3.070907	0.520226	-0.000031
1536	1.5273e+02	4.7221	3.457320	0.000287	2.866180	0.485544	-0.000029
1537	1.5283e+02	4.7114	3.428806	0.000287	2.866180	0.485544	-0.000029
1538	1.5293e+02	4.7047	3.400292	0.000287	2.866180	0.485544	-0.000029
1539	1.5303e+02	4.6912	3.367705	0.000328	3.275634	0.554907	-0.000033
1540	1.5313e+02	4.6825	3.338783	0.000291	2.907125	0.492480	-0.000029
1541	1.5323e+02	4.6725	3.309862	0.000291	2.907125	0.492480	-0.000029
1542	1.5333e+02	4.6621	3.277274	0.000328	3.275634	0.554907	-0.000033
1543	1.5343e+02	4.6516	3.250797	0.000266	2.661453	0.450862	-0.000027
1544	1.5353e+02	4.6427	3.223913	0.000270	2.702398	0.457799	-0.000027
1545	1.5363e+02	4.6327	3.192547	0.000315	3.152798	0.534098	-0.000032
1546	1.5373e+02	4.6206	3.162811	0.000299	2.989016	0.506353	-0.000030
1547	1.5383e+02	4.6119	3.135519	0.000274	2.743343	0.464735	-0.000027
1548	1.5393e+02	4.6025	3.108227	0.000274	2.743343	0.464735	-0.000027
1549	1.5403e+02	4.5931	3.073196	0.000352	3.521306	0.596525	-0.000035
1550	1.5413e+02	4.5829	3.043460	0.000299	2.989016	0.506353	-0.000030
1551	1.5422e+02	4.5732	3.012909	0.000307	3.070907	0.520226	-0.000031
1552	1.5432e+02	4.5638	2.977878	0.000352	3.521306	0.596525	-0.000035
1553	1.5442e+02	4.5516	2.948549	0.000295	2.948071	0.499417	-0.000029
1554	1.5452e+02	4.5419	2.916776	0.000319	3.193743	0.541035	-0.000032
1555	1.5462e+02	4.5350	2.888262	0.000287	2.866180	0.485544	-0.000029
1556	1.5472e+02	4.5235	2.856082	0.000323	3.234688	0.547971	-0.000032
1557	1.5482e+02	4.5131	2.828383	0.000278	2.784289	0.471671	-0.000028
1558	1.5492e+02	4.5014	2.799869	0.000287	2.866180	0.485544	-0.000029
1559	1.5502e+02	4.4944	2.766060	0.000340	3.398470	0.575716	-0.000034
1560	1.5512e+02	4.4808	2.735916	0.000303	3.029961	0.513289	-0.000030
1561	1.5522e+02	4.4740	2.706180	0.000299	2.989016	0.506353	-0.000030
1562	1.5532e+02	4.4625	2.675630	0.000307	3.070907	0.520226	-0.000031
1563	1.5542e+02	4.4534	2.643857	0.000319	3.193743	0.541035	-0.000032
1564	1.5552e+02	4.4430	2.613306	0.000307	3.070907	0.520226	-0.000031
1565	1.5562e+02	4.4340	2.580719	0.000328	3.275634	0.554907	-0.000033
1566	1.5572e+02	4.4228	2.549761	0.000311	3.111852	0.527162	-0.000031
1567	1.5582e+02	4.4157	2.521654	0.000283	2.825234	0.478608	-0.000028
1568	1.5592e+02	4.4021	2.492325	0.000295	2.948071	0.499417	-0.000029
1569	1.5602e+02	4.3937	2.461367	0.000311	3.111852	0.527162	-0.000031
1570	1.5612e+02	4.3855	2.426336	0.000352	3.521306	0.596525	-0.000035
1571	1.5622e+02	4.3734	2.397822	0.000287	2.866180	0.485544	-0.000029
1572	1.5631e+02	4.3623	2.366457	0.000315	3.152798	0.534098	-0.000032
1573	1.5641e+02	4.3548	2.334276	0.000323	3.234688	0.547971	-0.000032
1574	1.5651e+02	4.3481	2.300467	0.000340	3.398470	0.575716	-0.000034
1575	1.5661e+02	4.3343	2.266250	0.000344	3.439416	0.582653	-0.000034
1576	1.5671e+02	4.3252	2.235292	0.000311	3.111852	0.527162	-0.000031
1577	1.5681e+02	4.3128	2.202298	0.000332	3.316579	0.561844	-0.000033
1578	1.5691e+02	4.3026	2.171747	0.000307	3.070907	0.520226	-0.000031
1579	1.5701e+02	4.2916	2.135901	0.000360	3.603197	0.610398	-0.000036
1580	1.5711e+02	4.2831	2.104128	0.000319	3.193743	0.541035	-0.000032
1581	1.5721e+02	4.2725	2.069096	0.000352	3.521306	0.596525	-0.000035
1582	1.5731e+02	4.2669	2.036509	0.000328	3.275634	0.554907	-0.000033
1583	1.5741e+02	4.2547	1.999034	0.000377	3.766979	0.638144	-0.000038
1584	1.5751e+02	4.2446	1.966854	0.000323	3.234688	0.547971	-0.000032
1585	1.5761e+02	4.2344	1.933044	0.000340	3.398470	0.575716	-0.000034
1586	1.5771e+02	4.2283	1.894754	0.000385	3.848870	0.652016	-0.000038
1587	1.5781e+02	4.2142	1.860944	0.000340	3.398470	0.575716	-0.000034
1588	1.5791e+02	4.2036	1.825098	0.000360	3.603197	0.610398	-0.000036
1589	1.5801e+02	4.1936	1.787215	0.000381	3.807924	0.645080	-0.000038
1590	1.5811e+02	4.1838	1.752591	0.000348	3.480361	0.589589	-0.000035
1591	1.5821e+02	4.1753	1.722855	0.000299	2.989016	0.506353	-0.000030
1592	1.5830e+02	4.1642	1.686194	0.000369	3.685088	0.624271	-0.000037
1593	1.5840e+02	4.1555	1.651978	0.000344	3.439416	0.582653	-0.000034
1594	1.5850e+02	4.1440	1.613280	0.000389	3.889815	0.658953	-0.000039
1595	1.5860e+02	4.1319	1.577027	0.000364	3.644143	0.617334	-0.000036
1596	1.5870e+02	4.1256	1.542810	0.000344	3.439416	0.582653	-0.000034
1597	1.5880e+02	4.1151	1.510223	0.000328	3.275634	0.554907	-0.000033
1598	1.5890e+02	4.1041	1.476820	0.000336	3.357525	0.568780	-0.000034
1599	1.5900e+02	4.0974	1.439345	0.000377	3.766979	0.638144	-0.000038
1600	1.5910e+02	4.0904	1.400647	0.000389	3.889815	0.658953	-0.000039
1601	1.5920e+02	4.0768	1.367653	0.000332	3.316579	0.561844	-0.000033
1602	1.5930e+02	4.0629	1.333436	0.000344	3.439416	0.582653	-0.000034
1603	1.5940e+02	4.0574	1.298404	0.000352	3.521306	0.596525	-0.000035
1604	1.5950e+02	4.0452	1.259707	0.000389	3.889815	0.658953	-0.000039
1605	1.5960e+02	4.0347	1.225490	0.000344	3.439416	0.582653	-0.000034
1606	1.5970e+02	4.0285	1.194532	0.000311	3.111852	0.527162	-0.000031
1607	1.5980e+02	4.0161	1.152983	0.000418	4.176433	0.707507	-0.000042
1608	1.5990e+02	4.0076	1.119174	0.000340	3.398470	0.575716	-0.000034
1609	1.6000e+02	3.9957	1.081291	0.000381	3.807924	0.645080	-0.000038
1610	1.6010e+02	3.9834	1.045037	0.000364	3.644143	0.617334	-0.000036
1611	1.6019e+02	3.9771	1.009191	0.000360	3.603197	0.610398	-0.000036
1612	1.6029e+02	3.9671	0.973752	0.000356	3.562252	0.603462	-0.000036
1613	1.6039e+02	3.9547	0.937499	0.000364	3.644143	0.617334	-0.000036
1614	1.6049e+02	3.9472	0.896357	0.000414	4.135488	0.700571	-0.000041
1615	1.6059e+02	3.9342	0.861326	0.000352	3.521306	0.596525	-0.000035
1616	1.6069e+02	3.9252	0.824258	0.000373	3.726034	0.631207	-0.000037
1617	1.6079e+02	3.9146	0.784745	0.000397	3.971706	0.672825	-0.000040
1618	1.6089e+02	3.9050	0.745641	0.000393	3.930761	0.665889	-0.000039
1619	1.6099e+02	3.8951	0.708980	0.000369	3.685088	0.624271	-0.000037
1620	1.6109e+02	3.8852	0.668245	0.000409	4.094542	0.693634	-0.000041
1621	1.6119e+02	3.8752	0.633214	0.000352	3.521306	0.596525	-0.000035
1622	1.6129e+02	3.8664	0.596553	0.000369	3.685088	0.624271	-0.000037
1623	1.6139e+02	3.8561	0.555004	0.000418	4.176433	0.707507	-0.000042
1624	1.6149e+02	3.8465	0.520787	0.000344	3.439416	0.582653	-0.000034
1625	1.6159e+02	3.8347	0.480868	0.000401	4.012652	0.679762	-0.000040
1626	1.6169e+02	3.8259	0.442170	0.000389	3.889815	0.658953	-0.000039
1627	1.6179e+02	3.8168	0.401843	0.000405	4.053597	0.686698	-0.000041
1628	1.6189e+02	3.8052	0.363553	0.000385	3.848870	0.652016	-0.000038
1629	1.6199e+02	3.7951	0.322819	0.000409	4.094542	0.693634	-0.000041
1630	1.6209e+02	3.7860	0.282492	0.000405	4.053597	0.686698	-0.000041
1631	1.6219e+02	3.7769	0.245831	0.000369	3.685088	0.624271	-0.000037
1632	1.6228e+02	3.7667	0.207948	0.000381	3.807924	0.645080	-0.000038
1633	1.6238e+02	3.7577	0.170473	0.000377	3.766979	0.638144	-0.000038
1634	1.6248e+02	3.7457	0.135849	0.000348	3.480361	0.589589	-0.000035
1635	1.6258e+02	3.7377	0.095929	0.000401	4.012652	0.679762	-0.000040
1636	1.6268e+02	3.7254	0.059268	0.000369	3.685088	0.624271	-0.000037
1637	1.6278e+02	3.7162	0.019756	0.000397	3.971706	0.672825	-0.000040
1638	1.6288e+02	3.7060	-0.013646	0.000336	3.357525	0.568780	-0.000034
1639	1.6298e+02	3.6968	-0.052751	0.000393	3.930761	0.665889	-0.000039
1640	1.6308e+02	3.6874	-0.093078	0.000405	4.053597	0.686698	-0.000041
1641	1.6318e+02	3.6761	-0.130961	0.000381	3.807924	0.645080	-0.000038
1642	1.6328e+02	3.6658	-0.170880	0.000401	4.012652	0.679762	-0.000040
1643	1.6338e+02	3.6559	-0.207948	0.000373	3.726034	0.631207	-0.000037
1644	1.6348e+02	3.6491	-0.241350	0.000336	3.357525	0.568780	-0.000034
1645	1.6358e+02	3.6390	-0.285751	0.000446	4.463051	0.756061	-0.000045
1646	1.6368e+02	3.6279	-0.319560	0.000340	3.398470	0.575716	-0.000034
1647	1.6378e+02	3.6160	-0.361517	0.000422	4.217379	0.714443	-0.000042
1648	1.6388e+02	3.6068	-0.396548	0.000352	3.521306	0.596525	-0.000035
1649	1.6398e+02	3.5947	-0.438097	0.000418	4.176433	0.707507	-0.000042
1650	1.6408e+02	3.5902	-0.471499	0.000336	3.357525	0.568780	-0.000034
1651	1.6418e+02	3.5784	-0.511419	0.000401	4.012652	0.679762	-0.000040
1652	1.6427e+02	3.5650	-0.549709	0.000385	3.848870	0.652016	-0.000038
1653	1.6437e+02	3.5548	-0.590850	0.000414	4.135488	0.700571	-0.000041
1654	1.6447e+02	3.5461	-0.628733	0.000381	3.807924	0.645080	-0.000038
1655	1.6457e+02	3.5374	-0.670282	0.000418	4.176433	0.707507	-0.000042
1656	1.6467e+02	3.5284	-0.702462	0.000323	3.234688	0.547971	-0.000032
1657	1.6477e+02	3.5169	-0.741160	0.000389	3.889815	0.658953	-0.000039
1658	1.6487e+02	3.5079	-0.776191	0.000352	3.521306	0.596525	-0.000035
1659	1.6497e+02	3.4993	-0.816925	0.000409	4.094542	0.693634	-0.000041
1660	1.6507e+02	3.4905	-0.850328	0.000336	3.357525	0.568780	-0.000034
1661	1.6517e+02	3.4792	-0.889840	0.000397	3.971706	0.672825	-0.000040
1662	1.6527e+02	3.4675	-0.925279	0.000356	3.562252	0.603462	-0.000036
1663	1.6537e+02	3.4615	-0.960310	0.000352	3.521306	0.596525	-0.000035
1664	1.6547e+02	3.4484	-0.997786	0.000377	3.766979	0.638144	-0.000038
1665	1.6557e+02	3.4401	-1.036076	0.000385	3.848870	0.652016	-0.000038
1666	1.6567e+02	3.4288	-1.073144	0.000373	3.726034	0.631207	-0.000037
1667	1.6577e+02	3.4162	-1.106139	0.000332	3.316579	0.561844	-0.000033
1668	1.6587e+02	3.4084	-1.142800	0.000369	3.685088	0.624271	-0.000037
1669	1.6597e+02	3.3984	-1.179460	0.000369	3.685088	0.624271	-0.000037
1670	1.6607e+02	3.3883	-1.214084	0.000348	3.480361	0.589589	-0.000035
1671	1.6616e+02	3.3829	-1.246672	0.000328	3.275634	0.554907	-0.000033
1672	1.6626e+02	3.3680	-1.286184	0.000397	3.971706	0.672825	-0.000040
1673	1.6636e+02	3.3595	-1.317549	0.000315	3.152798	0.534098	-0.000032
1674	1.6646e+02	3.3468	-1.355432	0.000381	3.807924	0.645080	-0.000038
1675	1.6656e+02	3.3395	-1.391686	0.000364	3.644143	0.617334	-0.000036
1676	1.6666e+02	3.3281	-1.428347	0.000369	3.685088	0.624271	-0.000037
1677	1.6676e+02	3.3171	-1.461341	0.000332	3.316579	0.561844	-0.000033
1678	1.6686e+02	3.3082	-1.498410	0.000373	3.726034	0.631207	-0.000037
1679	1.6696e+02	3.3006	-1.533441	0.000352	3.521306	0.596525	-0.000035
1680	1.6706e+02	3.2874	-1.570102	0.000369	3.685088	0.624271	-0.000037
1681	1.6716e+02	3.2789	-1.606355	0.000364	3.644143	0.617334	-0.000036
1682	1.6726e+02	3.2693	-1.643831	0.000377	3.766979	0.638144	-0.000038
1683	1.6736e+02	3.2589	-1.674789	0.000311	3.111852	0.527162	-0.000031
1684	1.6746e+02	3.2475	-1.711450	0.000369	3.685088	0.624271	-0.000037
1685	1.6756e+02	3.2392	-1.746074	0.000348	3.480361	0.589589	-0.000035
1686	1.6766e+02	3.2293	-1.779476	0.000336	3.357525	0.568780	-0.000034
1687	1.6776e+02	3.2188	-1.822247	0.000430	4.299269	0.728316	-0.000043
1688	1.6786e+02	3.2093	-1.853612	0.000315	3.152798	0.534098	-0.000032
1689	1.6796e+02	3.2009	-1.891088	0.000377	3.766979	0.638144	-0.000038
1690	1.6806e+02	3.1888	-1.928563	0.000377	3.766979	0.638144	-0.000038
1691	1.6816e+02	3.1785	-1.961151	0.000328	3.275634	0.554907	-0.000033
1692	1.6825e+02	3.1694	-1.999848	0.000389	3.889815	0.658953	-0.000039
1693	1.6835e+02	3.1585	-2.034472	0.000348	3.480361	0.589589	-0.000035
1694	1.6845e+02	3.1492	-2.068282	0.000340	3.398470	0.575716	-0.000034
1695	1.6855e+02	3.1399	-2.103313	0.000352	3.521306	0.596525	-0.000035
1696	1.6865e+02	3.1300	-2.139974	0.000369	3.685088	0.624271	-0.000037
1697	1.6875e+02	3.1183	-2.172154	0.000323	3.234688	0.547971	-0.000032
1698	1.6885e+02	3.1096	-2.205556	0.000336	3.357525	0.568780	-0.000034
1699	1.6895e+02	3.0999	-2.242624	0.000373	3.726034	0.631207	-0.000037
1700	1.6905e+02	3.0889	-2.276841	0.000344	3.439416	0.582653	-0.000034
1701	1.6915e+02	3.0781	-2.311058	0.000344	3.439416	0.582653	-0.000034
1702	1.6925e+02	3.0706	-2.344460	0.000336	3.357525	0.568780	-0.000034
1703	1.6935e+02	3.0600	-2.376640	0.000323	3.234688	0.547971	-0.000032
1704	1.6945e+02	3.0513	-2.411264	0.000348	3.480361	0.589589	-0.000035
1705	1.6955e+02	3.0407	-2.446703	0.000356	3.562252	0.603462	-0.000036
1706	1.6965e+02	3.0319	-2.480920	0.000344	3.439416	0.582653	-0.000034
1707	1.6975e+02	3.0170	-2.517581	0.000369	3.685088	0.624271	-0.000037
1708	1.6985e+02	3.0108	-2.550168	0.000328	3.275634	0.554907	-0.000033
1709	1.6995e+02	3.0009	-2.584792	0.000348	3.480361	0.589589	-0.000035
1710	1.7005e+02	2.9913	-2.618194	0.000336	3.357525	0.568780	-0.000034
1711	1.7015e+02	2.9804	-2.655262	0.000373	3.726034	0.631207	-0.000037
1712	1.7024e+02	2.9697	-2.684591	0.000295	2.948071	0.499417	-0.000029
1713	1.7034e+02	2.9574	-2.720845	0.000364	3.644143	0.617334	-0.000036
1714	1.7044e+02	2.9519	-2.755469	0.000348	3.480361	0.589589	-0.000035
1715	1.7054e+02	2.9414	-2.788463	0.000332	3.316579	0.561844	-0.000033
1716	1.7064e+02	2.9338	-2.822273	0.000340	3.398470	0.575716	-0.000034
1717	1.7074e+02	2.9215	-2.859341	0.000373	3.726034	0.631207	-0.000037
1718	1.7084e+02	2.9092	-2.891928	0.000328	3.275634	0.554907	-0.000033
1719	1.7094e+02	2.9001	-2.928182	0.000364	3.644143	0.617334	-0.000036
1720	1.7104e+02	2.8918	-2.964843	0.000369	3.685088	0.624271	-0.000037
1721	1.7114e+02	2.8823	-3.001504	0.000369	3.685088	0.624271	-0.000037
1722	1.7124e+02	2.8740	-3.039794	0.000385	3.848870	0.652016	-0.000038
1723	1.7134e+02	2.8581	-3.076047	0.000364	3.644143	0.617334	-0.000036
1724	1.7144e+02	2.8518	-3.110671	0.000348	3.480361	0.589589	-0.000035
1725	1.7154e+02	2.8411	-3.144888	0.000344	3.439416	0.582653	-0.000034
1726	1.7164e+02	2.8324	-3.179512	0.000348	3.480361	0.589589	-0.000035
1727	1.7174e+02	2.8224	-3.214544	0.000352	3.521306	0.596525	-0.000035
1728	1.7184e+02	2.8126	-3.247538	0.000332	3.316579	0.561844	-0.000033
1729	1.7194e+02	2.8043	-3.280533	0.000332	3.316579	0.561844	-0.000033
1730	1.7204e+02	2.7884	-3.317601	0.000373	3.726034	0.631207	-0.000037
1731	1.7213e+02	2.7811	-3.355077	0.000377	3.766979	0.638144	-0.000038
1732	1.7223e+02	2.7718	-3.392145	0.000373	3.726034	0.631207	-0.000037
1733	1.7233e+02	2.7616	-3.423918	0.000319	3.193743	0.541035	-0.000032
1734	1.7243e+02	2.7513	-3.462208	0.000385	3.848870	0.652016	-0.000038
1735	1.7253e+02	2.7413	-3.500091	0.000381	3.807924	0.645080	-0.000038
1736	1.7263e+02	2.7334	-3.533900	0.000340	3.398470	0.575716	-0.000034
1737	1.7273e+02	2.7210	-3.566488	0.000328	3.275634	0.554907	-0.000033
1738	1.7283e+02	2.7103	-3.607629	0.000414	4.135488	0.700571	-0.000041
1739	1.7293e+02	2.7007	-3.642253	0.000348	3.480361	0.589589	-0.000035
1740	1.7303e+02	2.6895	-3.676063	0.000340	3.398470	0.575716	-0.000034
1741	1.7313e+02	2.6800	-3.714353	0.000385	3.848870	0.652016	-0.000038
1742	1.7323e+02	2.6728	-3.754680	0.000405	4.053597	0.686698	-0.000041
1743	1.7333e+02	2.6617	-3.790933	0.000364	3.644143	0.617334	-0.000036
1744	1.7343e+02	2.6519	-3.828816	0.000381	3.807924	0.645080	-0.000038
1745	1.7353e+02	2.6421	-3.865070	0.000364	3.644143	0.617334	-0.000036
1746	1.7363e+02	2.6339	-3.905804	0.000409	4.094542	0.693634	-0.000041
1747	1.7373e+02	2.6231	-3.945316	0.000397	3.971706	0.672825	-0.000040
1748	1.7383e+02	2.6122	-3.978311	0.000332	3.316579	0.561844	-0.000033
1749	1.7393e+02	2.6026	-4.021082	0.000430	4.299269	0.728316	-0.000043
1750	1.7403e+02	2.5918	-4.060187	0.000393	3.930761	0.665889	-0.000039
1751	1.7413e+02	2.5822	-4.099292	0.000393	3.930761	0.665889	-0.000039
1752	1.7422e+02	2.5721	-4.137989	0.000389	3.889815	0.658953	-0.000039
1753	1.7432e+02	2.5639	-4.177909	0.000401	4.012652	0.679762	-0.000040
1754	1.7442e+02	2.5551	-4.218236	0.000405	4.053597	0.686698	-0.000041
1755	1.7452e+02	2.5426	-4.256933	0.000389	3.889815	0.658953	-0.000039
1756	1.7462e+02	2.5332	-4.298890	0.000422	4.217379	0.714443	-0.000042
1757	1.7472e+02	2.5206	-4.339624	0.000409	4.094542	0.693634	-0.000041
1758	1.7482e+02	2.5127	-4.379543	0.000401	4.012652	0.679762	-0.000040
1759	1.7492e+02	2.5023	-4.418241	0.000389	3.889815	0.658953	-0.000039
1760	1.7502e+02	2.4921	-4.459383	0.000414	4.135488	0.700571	-0.000041
1761	1.7512e+02	2.4859	-4.494821	0.000356	3.562252	0.603462	-0.000036
1762	1.7522e+02	2.4713	-4.540851	0.000463	4.626833	0.783807	-0.000046
1763	1.7532e+02	2.4622	-4.580771	0.000401	4.012652	0.679762	-0.000040
1764	1.7542e+02	2.4517	-4.617839	0.000373	3.726034	0.631207	-0.000037
1765	1.7552e+02	2.4426	-4.659388	0.000418	4.176433	0.707507	-0.000042
1766	1.7562e+02	2.4332	-4.700122	0.000409	4.094542	0.693634	-0.000041
1767	1.7572e+02	2.4241	-4.740449	0.000405	4.053597	0.686698	-0.000041
1768	1.7582e+02	2.4136	-4.784442	0.000442	4.422106	0.749125	-0.000044
1769	1.7592e+02	2.4028	-4.820695	0.000364	3.644143	0.617334	-0.000036
1770	1.7602e+02	2.3940	-4.865096	0.000446	4.463051	0.756061	-0.000045
1771	1.7612e+02	2.3850	-4.903793	0.000389	3.889815	0.658953	-0.000039
1772	1.7621e+02	2.3749	-4.942491	0.000389	3.889815	0.658953	-0.000039
1773	1.7631e+02	2.3621	-4.986484	0.000442	4.422106	0.749125	-0.000044
1774	1.7641e+02	2.3547	-5.028847	0.000426	4.258324	0.721380	-0.000043
1775	1.7651e+02	2.3423	-5.067545	0.000389	3.889815	0.658953	-0.000039
1776	1.7661e+02	2.3317	-5.108279	0.000409	4.094542	0.693634	-0.000041
1777	1.7671e+02	2.3270	-5.149014	0.000409	4.094542	0.693634	-0.000041
1778	1.7681e+02	2.3126	-5.191784	0.000430	4.299269	0.728316	-0.000043
1779	1.7691e+02	2.3035	-5.230889	0.000393	3.930761	0.665889	-0.000039
1780	1.7701e+02	2.2923	-5.276104	0.000454	4.544942	0.769934	-0.000045
1781	1.7711e+02	2.2832	-5.318468	0.000426	4.258324	0.721380	-0.000043
1782	1.7721e+02	2.2738	-5.360017	0.000418	4.176433	0.707507	-0.000042
1783	1.7731e+02	2.2646	-5.405232	0.000454	4.544942	0.769934	-0.000045
1784	1.7741e+02	2.2562	-5.444337	0.000393	3.930761	0.665889	-0.000039
1785	1.7751e+02	2.2436	-5.492811	0.000487	4.872505	0.825425	-0.000049
1786	1.7761e+02	2.2364	-5.531101	0.000385	3.848870	0.652016	-0.000038
1787	1.7771e+02	2.2259	-5.580797	0.000500	4.995342	0.846234	-0.000050
1788	1.7781e+02	2.2131	-5.622346	0.000418	4.176433	0.707507	-0.000042
1789	1.7791e+02	2.2042	-5.664709	0.000426	4.258324	0.721380	-0.000043
1790	1.7801e+02	2.1971	-5.708702	0.000442	4.422106	0.749125	-0.000044
1791	1.7810e+02	2.1855	-5.749436	0.000409	4.094542	0.693634	-0.000041
1792	1.7820e+02	2.1731	-5.795873	0.000467	4.667778	0.790743	-0.000047
1793	1.7830e+02	2.1648	-5.834978	0.000393	3.930761	0.665889	-0.000039
1794	1.7840e+02	2.1550	-5.881008	0.000463	4.626833	0.783807	-0.000046
1795	1.7850e+02	2.1472	-5.925816	0.000450	4.503997	0.762998	-0.000045
1796	1.7860e+02	2.1352	-5.972660	0.000471	4.708724	0.797679	-0.000047
1797	1.7870e+02	2.1255	-6.013802	0.000414	4.135488	0.700571	-0.000041
1798	1.7880e+02	2.1178	-6.061053	0.000475	4.749669	0.804616	-0.000047
1799	1.7890e+02	2.1070	-6.100566	0.000397	3.971706	0.672825	-0.000040
1800	1.7900e+02	2.0956	-6.148225	0.000479	4.790615	0.811552	-0.000048
1801	1.7910e+02	2.0889	-6.190181	0.000422	4.217379	0.714443	-0.000042
1802	1.7920e+02	2.0754	-6.233359	0.000434	4.340215	0.735252	-0.000043
1803	1.7930e+02	2.0645	-6.277760	0.000446	4.463051	0.756061	-0.000045
1804	1.7940e+02	2.0576	-6.322160	0.000446	4.463051	0.756061	-0.000045
1805	1.7950e+02	2.0437	-6.363302	0.000414	4.135488	0.700571	-0.000041
1806	1.7960e+02	2.0335	-6.402814	0.000397	3.971706	0.672825	-0.000040
1807	1.7970e+02	2.0249	-6.451695	0.000491	4.913451	0.832361	-0.000049
1808	1.7980e+02	2.0147	-6.493244	0.000418	4.176433	0.707507	-0.000042
1809	1.7990e+02	2.0044	-6.540088	0.000471	4.708724	0.797679	-0.000047
1810	1.8000e+02	1.9947	-6.586118	0.000463	4.626833	0.783807	-0.000046
1811	1.8009e+02	1.9862	-6.629296	0.000434	4.340215	0.735252	-0.000043
1812	1.8019e+02	1.9747	-6.674511	0.000454	4.544942	0.769934	-0.000045
1813	1.8029e+02	1.9656	-6.715246	0.000409	4.094542	0.693634	-0.000041
1814	1.8039e+02	1.9547	-6.758424	0.000434	4.340215	0.735252	-0.000043
1815	1.8049e+02	1.9464	-6.800788	0.000426	4.258324	0.721380	-0.000043
1816	1.8059e+02	1.9378	-6.841929	0.000414	4.135488	0.700571	-0.000041
1817	1.8069e+02	1.9261	-6.888366	0.000467	4.667778	0.790743	-0.000047
1818	1.8079e+02	1.9141	-6.932767	0.000446	4.463051	0.756061	-0.000045
1819	1.8089e+02	1.9045	-6.977982	0.000454	4.544942	0.769934	-0.000045
1820	1.8099e+02	1.8940	-7.019123	0.000414	4.135488	0.700571	-0.000041
1821	1.8109e+02	1.8856	-7.060672	0.000418	4.176433	0.707507	-0.000042
1822	1.8119e+02	1.8768	-7.107517	0.000471	4.708724	0.797679	-0.000047
1823	1.8129e+02	1.8635	-7.153546	0.000463	4.626833	0.783807	-0.000046
1824	1.8139e+02	1.8580	-7.194280	0.000409	4.094542	0.693634	-0.000041
1825	1.8149e+02	1.8459	-7.240310	0.000463	4.626833	0.783807	-0.000046
1826	1.8159e+02	1.8360	-7.283081	0.000430	4.299269	0.728316	-0.000043
1827	1.8169e+02	1.8255	-7.326667	0.000438	4.381160	0.742189	-0.000044
1828	1.8179e+02	1.8191	-7.366994	0.000405	4.053597	0.686698	-0.000041
1829	1.8189e+02	1.8020	-7.408135	0.000414	4.135488	0.700571	-0.000041
1830	1.8199e+02	1.7950	-7.451314	0.000434	4.340215	0.735252	-0.000043
1831	1.8209e+02	1.7879	-7.492863	0.000418	4.176433	0.707507	-0.000042
1832	1.8218e+02	1.7776	-7.536448	0.000438	4.381160	0.742189	-0.000044
1833	1.8228e+02	1.7651	-7.577182	0.000409	4.094542	0.693634	-0.000041
1834	1.8238e+02	1.7559	-7.619546	0.000426	4.258324	0.721380	-0.000043
1835	1.8248e+02	1.7483	-7.661502	0.000422	4.217379	0.714443	-0.000042
1836	1.8258e+02	1.7354	-7.702237	0.000409	4.094542	0.693634	-0.000041
1837	1.8268e+02	1.7274	-7.745822	0.000438	4.381160	0.742189	-0.000044
1838	1.8278e+02	1.7175	-7.786964	0.000414	4.135488	0.700571	-0.000041
1839	1.8288e+02	1.7067	-7.828513	0.000418	4.176433	0.707507	-0.000042
1840	1.8298e+02	1.6943	-7.870062	0.000418	4.176433	0.707507	-0.000042
1841	1.8308e+02	1.6872	-7.910389	0.000405	4.053597	0.686698	-0.000041
1842	1.8318e+02	1.6772	-7.950308	0.000401	4.012652	0.679762	-0.000040
1843	1.8328e+02	1.6681	-7.991857	0.000418	4.176433	0.707507	-0.000042
1844	1.8338e+02	1.6551	-8.034628	0.000430	4.299269	0.728316	-0.000043
1845	1.8348e+02	1.6462	-8.075362	0.000409	4.094542	0.693634	-0.000041
1846	1.8358e+02	1.6344	-8.116504	0.000414	4.135488	0.700571	-0.000041
1847	1.8368e+02	1.6283	-8.162534	0.000463	4.626833	0.783807	-0.000046
1848	1.8378e+02	1.6180	-8.203268	0.000409	4.094542	0.693634	-0.000041
1849	1.8388e+02	1.6037	-8.243595	0.000405	4.053597	0.686698	-0.000041
1850	1.8398e+02	1.5970	-8.288810	0.000454	4.544942	0.769934	-0.000045
1851	1.8407e+02	1.5874	-8.325471	0.000369	3.685088	0.624271	-0.000037
1852	1.8417e+02	1.5764	-8.369056	0.000438	4.381160	0.742189	-0.000044
1853	1.8427e+02	1.5675	-8.410605	0.000418	4.176433	0.707507	-0.000042
1854	1.8437e+02	1.5578	-8.448081	0.000377	3.766979	0.638144	-0.000038
1855	1.8447e+02	1.5456	-8.492074	0.000442	4.422106	0.749125	-0.000044
1856	1.8457e+02	1.5401	-8.536067	0.000442	4.422106	0.749125	-0.000044
1857	1.8467e+02	1.5247	-8.577616	0.000418	4.176433	0.707507	-0.000042
1858	1.8477e+02	1.5168	-8.619979	0.000426	4.258324	0.721380	-0.000043
1859	1.8487e+02	1.5086	-8.659084	0.000393	3.930761	0.665889	-0.000039
1860	1.8497e+02	1.4979	-8.699411	0.000405	4.053597	0.686698	-0.000041
1861	1.8507e+02	1.4904	-8.741367	0.000422	4.217379	0.714443	-0.000042
1862	1.8517e+02	1.4822	-8.783324	0.000422	4.217379	0.714443	-0.000042
1863	1.8527e+02	1.4671	-8.826909	0.000438	4.381160	0.742189	-0.000044
1864	1.8537e+02	1.4617	-8.867644	0.000409	4.094542	0.693634	-0.000041
1865	1.8547e+02	1.4465	-8.910007	0.000426	4.258324	0.721380	-0.000043
1866	1.8557e+02	1.4380	-8.948705	0.000389	3.889815	0.658953	-0.000039
1867	1.8567e+02	1.4272	-8.986588	0.000381	3.807924	0.645080	-0.000038
1868	1.8577e+02	1.4181	-9.030988	0.000446	4.463051	0.756061	-0.000045
1869	1.8587e+02	1.4098	-9.068871	0.000381	3.807924	0.645080	-0.000038
1870	1.8597e+02	1.3976	-9.112864	0.000442	4.422106	0.749125	-0.000044
1871	1.8606e+02	1.3885	-9.147895	0.000352	3.521306	0.596525	-0.000035
1872	1.8616e+02	1.3783	-9.191888	0.000442	4.422106	0.749125	-0.000044
1873	1.8626e+02	1.3673	-9.233845	0.000422	4.217379	0.714443	-0.000042
1874	1.8636e+02	1.3578	-9.272950	0.000393	3.930761	0.665889	-0.000039
1875	1.8646e+02	1.3474	-9.316128	0.000434	4.340215	0.735252	-0.000043
1876	1.8656e+02	1.3389	-9.357677	0.000418	4.176433	0.707507	-0.000042
1877	1.8666e+02	1.3310	-9.392708	0.000352	3.521306	0.596525	-0.000035
1878	1.8676e+02	1.3156	-9.435887	0.000434	4.340215	0.735252	-0.000043
1879	1.8686e+02	1.3074	-9.472955	0.000373	3.726034	0.631207	-0.000037
1880	1.8696e+02	1.3000	-9.514504	0.000418	4.176433	0.707507	-0.000042
1881	1.8706e+02	1.2892	-9.558089	0.000438	4.381160	0.742189	-0.000044
1882	1.8716e+02	1.2775	-9.598009	0.000401	4.012652	0.679762	-0.000040
1883	1.8726e+02	1.2696	-9.639558	0.000418	4.176433	0.707507	-0.000042
1884	1.8736e+02	1.2617	-9.679885	0.000405	4.053597	0.686698	-0.000041
1885	1.8746e+02	1.2482	-9.720619	0.000409	4.094542	0.693634	-0.000041
1886	1.8756e+02	1.2416	-9.761353	0.000409	4.094542	0.693634	-0.000041
1887	1.8766e+02	1.2267	-9.803717	0.000426	4.258324	0.721380	-0.000043
1888	1.8776e+02	1.2206	-9.846080	0.000426	4.258324	0.721380	-0.000043
1889	1.8786e+02	1.2128	-9.887629	0.000418	4.176433	0.707507	-0.000042
1890	1.8796e+02	1.1970	-9.929586	0.000422	4.217379	0.714443	-0.000042
1891	1.8806e+02	1.1906	-9.969913	0.000405	4.053597	0.686698	-0.000041
1892	1.8815e+02	1.1842	-10.013498	0.000438	4.381160	0.742189	-0.000044
1893	1.8825e+02	1.1710	-10.055047	0.000418	4.176433	0.707507	-0.000042
1894	1.8835e+02	1.1603	-10.097411	0.000426	4.258324	0.721380	-0.000043
1895	1.8845e+02	1.1477	-10.140589	0.000434	4.340215	0.735252	-0.000043
1896	1.8855e+02	1.1410	-10.178472	0.000381	3.807924	0.645080	-0.000038
1897	1.8865e+02	1.1298	-10.224909	0.000467	4.667778	0.790743	-0.000047
1898	1.8875e+02	1.1184	-10.266865	0.000422	4.217379	0.714443	-0.000042
1899	1.8885e+02	1.1111	-10.309229	0.000426	4.258324	0.721380	-0.000043
1900	1.8895e+02	1.1014	-10.352815	0.000438	4.381160	0.742189	-0.000044
1901	1.8905e+02	1.0881	-10.394771	0.000422	4.217379	0.714443	-0.000042
1902	1.8915e+02	1.0809	-10.437542	0.000430	4.299269	0.728316	-0.000043
1903	1.8925e+02	1.0671	-10.479091	0.000418	4.176433	0.707507	-0.000042
1904	1.8935e+02	1.0584	-10.517788	0.000389	3.889815	0.658953	-0.000039
1905	1.8945e+02	1.0516	-10.560967	0.000434	4.340215	0.735252	-0.000043
1906	1.8955e+02	1.0398	-10.602923	0.000422	4.217379	0.714443	-0.000042
1907	1.8965e+02	1.0311	-10.651804	0.000491	4.913451	0.832361	-0.000049
1908	1.8975e+02	1.0226	-10.689687	0.000381	3.807924	0.645080	-0.000038
1909	1.8985e+02	1.0082	-10.734495	0.000450	4.503997	0.762998	-0.000045
1910	1.8995e+02	0.9985	-10.778895	0.000446	4.463051	0.756061	-0.000045
1911	1.9004e+02	0.9901	-10.826554	0.000479	4.790615	0.811552	-0.000048
1912	1.9014e+02	0.9785	-10.871362	0.000450	4.503997	0.762998	-0.000045
1913	1.9024e+02	0.9685	-10.914540	0.000434	4.340215	0.735252	-0.000043
1914	1.9034e+02	0.9601	-10.957718	0.000434	4.340215	0.735252	-0.000043
1915	1.9044e+02	0.9512	-11.006192	0.000487	4.872505	0.825425	-0.000049
1916	1.9054e+02	0.9386	-11.049370	0.000434	4.340215	0.735252	-0.000043
1917	1.9064e+02	0.9309	-11.096215	0.000471	4.708724	0.797679	-0.000047
1918	1.9074e+02	0.9209	-11.143059	0.000471	4.708724	0.797679	-0.000047
1919	1.9084e+02	0.9100	-11.188274	0.000454	4.544942	0.769934	-0.000045
1920	1.9094e+02	0.9031	-11.236748	0.000487	4.872505	0.825425	-0.000049
1921	1.9104e+02	0.8916	-11.285629	0.000491	4.913451	0.832361	-0.000049
1922	1.9114e+02	0.8813	-11.329622	0.000442	4.422106	0.749125	-0.000044
1923	1.9124e+02	0.8746	-11.378911	0.000495	4.954396	0.839297	-0.000050
1924	1.9134e+02	0.8623	-11.424126	0.000454	4.544942	0.769934	-0.000045
1925	1.9144e+02	0.8513	-11.472192	0.000483	4.831560	0.818488	-0.000048
1926	1.9154e+02	0.8424	-11.519036	0.000471	4.708724	0.797679	-0.000047
1927	1.9164e+02	0.8320	-11.567103	0.000483	4.831560	0.818488	-0.000048
1928	1.9174e+02	0.8214	-11.612318	0.000454	4.544942	0.769934	-0.000045
1929	1.9184e+02	0.8112	-11.658347	0.000463	4.626833	0.783807	-0.000046
1930	1.9194e+02	0.8031	-11.708043	0.000500	4.995342	0.846234	-0.000050
1931	1.9203e+02	0.7909	-11.755295	0.000475	4.749669	0.804616	-0.000047
1932	1.9213e+02	0.7825	-11.801732	0.000467	4.667778	0.790743	-0.000047
1933	1.9223e+02	0.7709	-11.854687	0.000532	5.322905	0.901725	-0.000053
1934	1.9233e+02	0.7619	-11.897865	0.000434	4.340215	0.735252	-0.000043
1935	1.9243e+02	0.7533	-11.948375	0.000508	5.077233	0.860106	-0.000051
1936	1.9253e+02	0.7405	-11.996849	0.000487	4.872505	0.825425	-0.000049
1937	1.9263e+02	0.7329	-12.041657	0.000450	4.503997	0.762998	-0.000045
1938	1.9273e+02	0.7220	-12.092982	0.000516	5.159123	0.873979	-0.000052
1939	1.9283e+02	0.7172	-12.138604	0.000459	4.585887	0.776870	-0.000046
1940	1.9293e+02	0.7026	-12.187893	0.000495	4.954396	0.839297	-0.000050
1941	1.9303e+02	0.6930	-12.234737	0.000471	4.708724	0.797679	-0.000047
1942	1.9313e+02	0.6812	-12.284433	0.000500	4.995342	0.846234	-0.000050
1943	1.9323e+02	0.6736	-12.331685	0.000475	4.749669	0.804616	-0.000047
1944	1.9333e+02	0.6628	-12.380158	0.000487	4.872505	0.825425	-0.000049
1945	1.9343e+02	0.6509	-12.433113	0.000532	5.322905	0.901725	-0.000053
1946	1.9353e+02	0.6425	-12.479957	0.000471	4.708724	0.797679	-0.000047
1947	1.9363e+02	0.6321	-12.527209	0.000475	4.749669	0.804616	-0.000047
1948	1.9373e+02	0.6210	-12.574054	0.000471	4.708724	0.797679	-0.000047
1949	1.9383e+02	0.6114	-12.625379	0.000516	5.159123	0.873979	-0.000052
1950	1.9393e+02	0.6014	-12.675889	0.000508	5.077233	0.860106	-0.000051
1951	1.9403e+02	0.5929	-12.728844	0.000532	5.322905	0.901725	-0.000053
1952	1.9412e+02	0.5849	-12.777725	0.000491	4.913451	0.832361	-0.000049
1953	1.9422e+02	0.5733	-12.832309	0.000549	5.486687	0.929470	-0.000055
1954	1.9432e+02	0.5596	-12.880782	0.000487	4.872505	0.825425	-0.000049
1955	1.9442e+02	0.5529	-12.931293	0.000508	5.077233	0.860106	-0.000051
1956	1.9452e+02	0.5439	-12.982618	0.000516	5.159123	0.873979	-0.000052
1957	1.9462e+02	0.5341	-13.035165	0.000528	5.281960	0.894788	-0.000053
1958	1.9472e+02	0.5222	-13.086490	0.000516	5.159123	0.873979	-0.000052
1959	1.9482e+02	0.5137	-13.134964	0.000487	4.872505	0.825425	-0.000049
1960	1.9492e+02	0.5012	-13.185475	0.000508	5.077233	0.860106	-0.000051
1961	1.9502e+02	0.4921	-13.240059	0.000549	5.486687	0.929470	-0.000055
1962	1.9512e+02	0.4820	-13.290162	0.000504	5.036287	0.853170	-0.000050
1963	1.9522e+02	0.4742	-13.341894	0.000520	5.200069	0.880916	-0.000052
1964	1.9532e+02	0.4645	-13.393219	0.000516	5.159123	0.873979	-0.000052
1965	1.9542e+02	0.4539	-13.446581	0.000536	5.363851	0.908661	-0.000054
1966	1.9552e+02	0.4413	-13.497092	0.000508	5.077233	0.860106	-0.000051
1967	1.9562e+02	0.4355	-13.550454	0.000536	5.363851	0.908661	-0.000054
1968	1.9572e+02	0.4247	-13.603001	0.000528	5.281960	0.894788	-0.000053
1969	1.9582e+02	0.4139	-13.653104	0.000504	5.036287	0.853170	-0.000050
1970	1.9592e+02	0.4037	-13.703207	0.000504	5.036287	0.853170	-0.000050
1971	1.9601e+02	0.3930	-13.754940	0.000520	5.200069	0.880916	-0.000052
1972	1.9611e+02	0.3815	-13.805450	0.000508	5.077233	0.860106	-0.000051
1973	1.9621e+02	0.3742	-13.856775	0.000516	5.159123	0.873979	-0.000052
1974	1.9631e+02	0.3614	-13.907286	0.000508	5.077233	0.860106	-0.000051
1975	1.9641e+02	0.3507	-13.958611	0.000516	5.159123	0.873979	-0.000052
1976	1.9651e+02	0.3427	-14.011565	0.000532	5.322905	0.901725	-0.000053
1977	1.9661e+02	0.3341	-14.062483	0.000512	5.118178	0.867043	-0.000051
1978	1.9671e+02	0.3237	-14.116252	0.000540	5.404796	0.915597	-0.000054
1979	1.9681e+02	0.3154	-14.161875	0.000459	4.585887	0.776870	-0.000046
1980	1.9691e+02	0.3024	-14.220532	0.000590	5.896141	0.998833	-0.000059
1981	1.9701e+02	0.2983	-14.270635	0.000504	5.036287	0.853170	-0.000050
1982	1.9711e+02	0.2837	-14.320331	0.000500	4.995342	0.846234	-0.000050
1983	1.9721e+02	0.2741	-14.374915	0.000549	5.486687	0.929470	-0.000055
1984	1.9731e+02	0.2641	-14.423389	0.000487	4.872505	0.825425	-0.000049
1985	1.9741e+02	0.2551	-14.475529	0.000524	5.241014	0.887852	-0.000052
1986	1.9751e+02	0.2431	-14.528076	0.000528	5.281960	0.894788	-0.000053
1987	1.9761e+02	0.2345	-14.579401	0.000516	5.159123	0.873979	-0.000052
1988	1.9771e+02	0.2253	-14.634392	0.000553	5.527632	0.936406	-0.000055
1989	1.9781e+02	0.2139	-14.686939	0.000528	5.281960	0.894788	-0.000053
1990	1.9791e+02	0.2035	-14.740301	0.000536	5.363851	0.908661	-0.000054
1991	1.9800e+02	0.1932	-14.787146	0.000471	4.708724	0.797679	-0.000047
1992	1.9810e+02	0.1807	-14.842137	0.000553	5.527632	0.936406	-0.000055
1993	1.9820e+02	0.1743	-14.893869	0.000520	5.200069	0.880916	-0.000052
1994	1.9830e+02	0.1649	-14.941936	0.000483	4.831560	0.818488	-0.000048
1995	1.9840e+02	0.1533	-14.996112	0.000545	5.445741	0.922534	-0.000054
1996	1.9850e+02	0.1463	-15.045808	0.000500	4.995342	0.846234	-0.000050
1997	1.9860e+02	0.1342	-15.094689	0.000491	4.913451	0.832361	-0.000049
1998	1.9870e+02	0.1241	-15.148458	0.000540	5.404796	0.915597	-0.000054
1999	1.9880e+02	0.1146	-15.198562	0.000504	5.036287	0.853170	-0.000050
2000	1.9890e+02	0.1064	-15.246221	0.000479	4.790615	0.811552	-0.000048
2001	1.9900e+02	0.0950	-15.294287	0.000483	4.831560	0.818488	-0.000048
2002	1.9910e+02	0.0851	-15.345205	0.000512	5.118178	0.867043	-0.000051
2003	1.9920e+02	0.0768	-15.396937	0.000520	5.200069	0.880916	-0.000052
2004	1.9930e+02	0.0657	-15.443782	0.000471	4.708724	0.797679	-0.000047
2005	1.9940e+02	0.0552	-15.499588	0.000561	5.609523	0.950279	-0.000056
2006	1.9950e+02	0.0450	-15.547247	0.000479	4.790615	0.811552	-0.000048
2007	1.9960e+02	0.0338	-15.596535	0.000495	4.954396	0.839297	-0.000050
2008	1.9970e+02	0.0256	-15.645416	0.000491	4.913451	0.832361	-0.000049
2009	1.9980e+02	0.0158	-15.695520	0.000504	5.036287	0.853170	-0.000050
2010	1.9990e+02	0.0062	-15.746845	0.000516	5.159123	0.873979	-0.000052
2011	2.0000e+02	-0.0047	-15.795726	0.000516	5.159123	0.873979	-0.000049

PMax (uC/cm2):	3.54e+01
Pr (uC/cm2):	1.89e+00
-Pr (uC/cm2):	0.00e+00
PLoss (uC/cm2):	0.00e+00
C (Max-Eff) (nF):	3.54e-01
K (Eff):	5.99e+02
Vert. (+/-Pr) Shift (uC/cm2):	9.46e-01
Offset (uC/cm2):	1.77e+01

A (Loop Area - uC/cm2·Volts):	-1.82e-02



Hysteresis Version: 5.48.1 - Radiant Technologies, Inc., 1999 - 9/12/24

