»»»»»»»»»»»»»»»»»»»»»»»»»»»»»»»»»»»» Hysteresis ««««««««««««««««««««««««««««««««««««
»»»  Executed Version:	5.48.1
»»»  Vision Version:	5.48.4 (R)
»»»  Vision Compiled:	9/18/24
»»»  Driver Version:	5.47.0
»»»  Windows Version:	Windows 8 or 8.1
»»»  Processor Information:	x86 (AMD or Intel) - 32 Processors
»»»  Tester Name:	PMF21124-494 (100V)
»»»  Tester S/N:	PMF21124-494
»»»  Internal Amp Type:	100V RevK 270k
»»»  Internal Amp S/N:	iAB2-596/K     
»»»  Execution Count:	1
»»»»»»»»»»»»»»»»»»»»»»»»»»»»»»»»»»»»»»»»»»««««««««««««««««««««««««««««««««««««««««««

Stored:	6/27/2025 - 15:35:3
Configured:	06/27/25 11:23:28 AM
Executed:	06/27/25 03:34:34 PM

»»»»»»»»»»»»»»»»»»»»»»»»»»»»»»»»»»» Sample Info ««««««««««««««««««««««««««««««««««««
Sample Name:	
Lot Name:	
Wafer Name:	
Die Row/Column:	0/0
Capacitor Number:	0
Sample Area (cm2):	1.00e-04
Sample Thickness (microns):	1.50e-01

Amplifier:	Internal

»»»»»»»»»»»»»»»»»»»»»»»»»»»»»»»»»»» Tester Info «««««««««««««««««««««««««««««««««««
Tester Name:	PMF21124-494 (100V)
Tester Serial Number:	PMF21124-494
Return Signal Amp. Level:	1.9 [Index: 2]

»»»»»»»»»»»»»»»»»»»»»»»»»»»»»»»» Hysteresis Info ««««««««««««««««««««««««««««««««««
Task Name:	Hyst-1276
Volts:	10.00
Field:	666.67 (kV/cm)
DCBias:	0.00
DCField:	0.00 (kV/cm)
Hysteresis Period (ms):	2.00e+02
Preset:	Enabled
Preset Delay (ms):	1.00e+03
Profile:	Standard Monopolar

»»»»»»»»»»»»»»»»»»»»»»»»»»»»»»»»»»»»»» Data «««««««««««««««««««««««««««««««««««««««
Points:	2011

Valid Data

Point	Time (ms)	Drive Voltage	Measured Polarization (uC/cm2)	Capacitance (uF)	Normalized Capacitance (uF/cm2)	Dielectric Constant	Instantaneous Current (mA)
   1	0.0000e+00	-0.0043	-12.109887	0.000287	2.866442	0.485588	0.000029
   2	9.9500e-02	0.0042	-12.081373	0.000287	2.866442	0.485588	0.000029
   3	1.9900e-01	0.0172	-12.050007	0.000315	3.153086	0.534147	0.000032
   4	2.9850e-01	0.0272	-12.016198	0.000340	3.398781	0.575769	0.000034
   5	3.9800e-01	0.0346	-11.994609	0.000217	2.170306	0.367660	0.000022
   6	4.9750e-01	0.0452	-11.962021	0.000328	3.275934	0.554958	0.000033
   7	5.9700e-01	0.0523	-11.928619	0.000336	3.357832	0.568832	0.000034
   8	6.9650e-01	0.0644	-11.902142	0.000266	2.661696	0.450904	0.000027
   9	7.9600e-01	0.0774	-11.871184	0.000311	3.112137	0.527210	0.000031
  10	8.9550e-01	0.0853	-11.840633	0.000307	3.071188	0.520273	0.000031
  11	9.9500e-01	0.0925	-11.808861	0.000319	3.194036	0.541084	0.000032
  12	1.0945e+00	0.1077	-11.779532	0.000295	2.948340	0.499462	0.000029
  13	1.1940e+00	0.1156	-11.748167	0.000315	3.153086	0.534147	0.000032
  14	1.2935e+00	0.1249	-11.721689	0.000266	2.661696	0.450904	0.000027
  15	1.3930e+00	0.1334	-11.693990	0.000278	2.784544	0.471714	0.000028
  16	1.4925e+00	0.1445	-11.669142	0.000250	2.497900	0.423156	0.000025
  17	1.5920e+00	0.1540	-11.638999	0.000303	3.030239	0.513336	0.000030
  18	1.6915e+00	0.1644	-11.609670	0.000295	2.948340	0.499462	0.000029
  19	1.7910e+00	0.1750	-11.588488	0.000213	2.129357	0.360723	0.000021
  20	1.8905e+00	0.1846	-11.559974	0.000287	2.866442	0.485588	0.000029
  21	1.9900e+00	0.1933	-11.527794	0.000323	3.234985	0.548021	0.000032
  22	2.0895e+00	0.2042	-11.503354	0.000246	2.456950	0.416219	0.000025
  23	2.1890e+00	0.2131	-11.473210	0.000303	3.030239	0.513336	0.000030
  24	2.2885e+00	0.2228	-11.452843	0.000205	2.047459	0.346849	0.000020
  25	2.3880e+00	0.2371	-11.423922	0.000291	2.907391	0.492525	0.000029
  26	2.4875e+00	0.2444	-11.399074	0.000250	2.497900	0.423156	0.000025
  27	2.5870e+00	0.2545	-11.375448	0.000238	2.375052	0.402345	0.000024
  28	2.6865e+00	0.2638	-11.344490	0.000311	3.112137	0.527210	0.000031
  29	2.7860e+00	0.2737	-11.320864	0.000238	2.375052	0.402345	0.000024
  30	2.8855e+00	0.2843	-11.294387	0.000266	2.661696	0.450904	0.000027
  31	2.9850e+00	0.2955	-11.266280	0.000283	2.825493	0.478651	0.000028
  32	3.0845e+00	0.3039	-11.241025	0.000254	2.538849	0.430093	0.000025
  33	3.1840e+00	0.3124	-11.215362	0.000258	2.579798	0.437030	0.000026
  34	3.2835e+00	0.3262	-11.184404	0.000311	3.112137	0.527210	0.000031
  35	3.3830e+00	0.3354	-11.157112	0.000274	2.743595	0.464778	0.000027
  36	3.4825e+00	0.3436	-11.129821	0.000274	2.743595	0.464778	0.000027
  37	3.5820e+00	0.3567	-11.102936	0.000270	2.702645	0.457841	0.000027
  38	3.6815e+00	0.3635	-11.073607	0.000295	2.948340	0.499462	0.000029
  39	3.7810e+00	0.3732	-11.047945	0.000258	2.579798	0.437030	0.000026
  40	3.8805e+00	0.3820	-11.020245	0.000278	2.784544	0.471714	0.000028
  41	3.9800e+00	0.3947	-10.989695	0.000307	3.071188	0.520273	0.000031
  42	4.0795e+00	0.4035	-10.963217	0.000266	2.661696	0.450904	0.000027
  43	4.1790e+00	0.4151	-10.935111	0.000283	2.825493	0.478651	0.000028
  44	4.2785e+00	0.4244	-10.906597	0.000287	2.866442	0.485588	0.000029
  45	4.3780e+00	0.4317	-10.881749	0.000250	2.497900	0.423156	0.000025
  46	4.4775e+00	0.4447	-10.850384	0.000315	3.153086	0.534147	0.000032
  47	4.5770e+00	0.4550	-10.827980	0.000225	2.252205	0.381534	0.000023
  48	4.6765e+00	0.4628	-10.797429	0.000307	3.071188	0.520273	0.000031
  49	4.7760e+00	0.4746	-10.769322	0.000283	2.825493	0.478651	0.000028
  50	4.8755e+00	0.4824	-10.743252	0.000262	2.620747	0.443967	0.000026
  51	4.9750e+00	0.4956	-10.710258	0.000332	3.316883	0.561895	0.000033
  52	5.0745e+00	0.5038	-10.680929	0.000295	2.948340	0.499462	0.000029
  53	5.1740e+00	0.5138	-10.658933	0.000221	2.211255	0.374597	0.000022
  54	5.2735e+00	0.5226	-10.632863	0.000262	2.620747	0.443967	0.000026
  55	5.3730e+00	0.5315	-10.603534	0.000295	2.948340	0.499462	0.000029
  56	5.4725e+00	0.5431	-10.574613	0.000291	2.907391	0.492525	0.000029
  57	5.5720e+00	0.5563	-10.544877	0.000299	2.989290	0.506399	0.000030
  58	5.6715e+00	0.5616	-10.520436	0.000246	2.456950	0.416219	0.000025
  59	5.7710e+00	0.5715	-10.492329	0.000283	2.825493	0.478651	0.000028
  60	5.8705e+00	0.5837	-10.468704	0.000238	2.375052	0.402345	0.000024
  61	5.9700e+00	0.5930	-10.433265	0.000356	3.562578	0.603517	0.000036
  62	6.0695e+00	0.6046	-10.404343	0.000291	2.907391	0.492525	0.000029
  63	6.1690e+00	0.6128	-10.381125	0.000233	2.334103	0.395408	0.000023
  64	6.2685e+00	0.6223	-10.352204	0.000291	2.907391	0.492525	0.000029
  65	6.3680e+00	0.6303	-10.322468	0.000299	2.989290	0.506399	0.000030
  66	6.4675e+00	0.6370	-10.296398	0.000262	2.620747	0.443967	0.000026
  67	6.5670e+00	0.6550	-10.266254	0.000303	3.030239	0.513336	0.000030
  68	6.6665e+00	0.6625	-10.237333	0.000291	2.907391	0.492525	0.000029
  69	6.7660e+00	0.6728	-10.210041	0.000274	2.743595	0.464778	0.000027
  70	6.8655e+00	0.6805	-10.181934	0.000283	2.825493	0.478651	0.000028
  71	6.9650e+00	0.6933	-10.153013	0.000291	2.907391	0.492525	0.000029
  72	7.0645e+00	0.7005	-10.124906	0.000283	2.825493	0.478651	0.000028
  73	7.1640e+00	0.7116	-10.095985	0.000291	2.907391	0.492525	0.000029
  74	7.2635e+00	0.7214	-10.065027	0.000311	3.112137	0.527210	0.000031
  75	7.3630e+00	0.7316	-10.043031	0.000221	2.211255	0.374597	0.000022
  76	7.4625e+00	0.7409	-10.009629	0.000336	3.357832	0.568832	0.000034
  77	7.5620e+00	0.7515	-9.988447	0.000213	2.129357	0.360723	0.000021
  78	7.6615e+00	0.7623	-9.953415	0.000352	3.521629	0.596580	0.000035
  79	7.7610e+00	0.7745	-9.928160	0.000254	2.538849	0.430093	0.000025
  80	7.8605e+00	0.7821	-9.901275	0.000270	2.702645	0.457841	0.000027
  81	7.9600e+00	0.7911	-9.874798	0.000266	2.661696	0.450904	0.000027
  82	8.0595e+00	0.8020	-9.845469	0.000295	2.948340	0.499462	0.000029
  83	8.1590e+00	0.8089	-9.817363	0.000283	2.825493	0.478651	0.000028
  84	8.2585e+00	0.8206	-9.792515	0.000250	2.497900	0.423156	0.000025
  85	8.3580e+00	0.8329	-9.765223	0.000274	2.743595	0.464778	0.000027
  86	8.4575e+00	0.8430	-9.738338	0.000270	2.702645	0.457841	0.000027
  87	8.5570e+00	0.8514	-9.716342	0.000221	2.211255	0.374597	0.000022
  88	8.6565e+00	0.8624	-9.688235	0.000283	2.825493	0.478651	0.000028
  89	8.7560e+00	0.8714	-9.663387	0.000250	2.497900	0.423156	0.000025
  90	8.8555e+00	0.8810	-9.632837	0.000307	3.071188	0.520273	0.000031
  91	8.9550e+00	0.8936	-9.608396	0.000246	2.456950	0.416219	0.000025
  92	9.0545e+00	0.9006	-9.584363	0.000242	2.416001	0.409282	0.000024
  93	9.1540e+00	0.9103	-9.557071	0.000274	2.743595	0.464778	0.000027
  94	9.2535e+00	0.9205	-9.531408	0.000258	2.579798	0.437030	0.000026
  95	9.3530e+00	0.9319	-9.502487	0.000291	2.907391	0.492525	0.000029
  96	9.4525e+00	0.9417	-9.476417	0.000262	2.620747	0.443967	0.000026
  97	9.5520e+00	0.9492	-9.448310	0.000283	2.825493	0.478651	0.000028
  98	9.6515e+00	0.9612	-9.421019	0.000274	2.743595	0.464778	0.000027
  99	9.7510e+00	0.9718	-9.395356	0.000258	2.579798	0.437030	0.000026
 100	9.8505e+00	0.9818	-9.365213	0.000303	3.030239	0.513336	0.000030
 101	9.9500e+00	0.9905	-9.335884	0.000295	2.948340	0.499462	0.000029
 102	1.0050e+01	1.0019	-9.308185	0.000278	2.784544	0.471714	0.000028
 103	1.0149e+01	1.0126	-9.279263	0.000291	2.907391	0.492525	0.000029
 104	1.0248e+01	1.0204	-9.247491	0.000319	3.194036	0.541084	0.000032
 105	1.0348e+01	1.0301	-9.216125	0.000315	3.153086	0.534147	0.000032
 106	1.0447e+01	1.0415	-9.191685	0.000246	2.456950	0.416219	0.000025
 107	1.0547e+01	1.0518	-9.159505	0.000323	3.234985	0.548021	0.000032
 108	1.0646e+01	1.0604	-9.127325	0.000323	3.234985	0.548021	0.000032
 109	1.0746e+01	1.0706	-9.097996	0.000295	2.948340	0.499462	0.000029
 110	1.0845e+01	1.0784	-9.065816	0.000323	3.234985	0.548021	0.000032
 111	1.0945e+01	1.0912	-9.035672	0.000303	3.030239	0.513336	0.000030
 112	1.1044e+01	1.0984	-9.010417	0.000254	2.538849	0.430093	0.000025
 113	1.1144e+01	1.1081	-8.975386	0.000352	3.521629	0.596580	0.000035
 114	1.1243e+01	1.1208	-8.943613	0.000319	3.194036	0.541084	0.000032
 115	1.1343e+01	1.1317	-8.918358	0.000254	2.538849	0.430093	0.000025
 116	1.1443e+01	1.1414	-8.885363	0.000332	3.316883	0.561895	0.000033
 117	1.1542e+01	1.1487	-8.857664	0.000278	2.784544	0.471714	0.000028
 118	1.1642e+01	1.1607	-8.829150	0.000287	2.866442	0.485588	0.000029
 119	1.1741e+01	1.1692	-8.803080	0.000262	2.620747	0.443967	0.000026
 120	1.1841e+01	1.1814	-8.774973	0.000283	2.825493	0.478651	0.000028
 121	1.1940e+01	1.1887	-8.743608	0.000315	3.153086	0.534147	0.000032
 122	1.2040e+01	1.2002	-8.713465	0.000303	3.030239	0.513336	0.000030
 123	1.2139e+01	1.2118	-8.684951	0.000287	2.866442	0.485588	0.000029
 124	1.2239e+01	1.2182	-8.658066	0.000270	2.702645	0.457841	0.000027
 125	1.2338e+01	1.2284	-8.628330	0.000299	2.989290	0.506399	0.000030
 126	1.2438e+01	1.2411	-8.600631	0.000278	2.784544	0.471714	0.000028
 127	1.2537e+01	1.2502	-8.574968	0.000258	2.579798	0.437030	0.000026
 128	1.2636e+01	1.2599	-8.548083	0.000270	2.702645	0.457841	0.000027
 129	1.2736e+01	1.2675	-8.518347	0.000299	2.989290	0.506399	0.000030
 130	1.2835e+01	1.2759	-8.491463	0.000270	2.702645	0.457841	0.000027
 131	1.2935e+01	1.2897	-8.462949	0.000287	2.866442	0.485588	0.000029
 132	1.3034e+01	1.3007	-8.436472	0.000266	2.661696	0.450904	0.000027
 133	1.3134e+01	1.3068	-8.406328	0.000303	3.030239	0.513336	0.000030
 134	1.3233e+01	1.3178	-8.379851	0.000266	2.661696	0.450904	0.000027
 135	1.3333e+01	1.3288	-8.352966	0.000270	2.702645	0.457841	0.000027
 136	1.3432e+01	1.3369	-8.318342	0.000348	3.480680	0.589643	0.000035
 137	1.3532e+01	1.3473	-8.292680	0.000258	2.579798	0.437030	0.000026
 138	1.3632e+01	1.3595	-8.263758	0.000291	2.907391	0.492525	0.000029
 139	1.3731e+01	1.3682	-8.236874	0.000270	2.702645	0.457841	0.000027
 140	1.3831e+01	1.3821	-8.206323	0.000307	3.071188	0.520273	0.000031
 141	1.3930e+01	1.3887	-8.177402	0.000291	2.907391	0.492525	0.000029
 142	1.4030e+01	1.3967	-8.152961	0.000246	2.456950	0.416219	0.000025
 143	1.4129e+01	1.4076	-8.122003	0.000311	3.112137	0.527210	0.000031
 144	1.4229e+01	1.4200	-8.095933	0.000262	2.620747	0.443967	0.000026
 145	1.4328e+01	1.4282	-8.063753	0.000323	3.234985	0.548021	0.000032
 146	1.4428e+01	1.4371	-8.040942	0.000229	2.293154	0.388471	0.000023
 147	1.4527e+01	1.4468	-8.015687	0.000254	2.538849	0.430093	0.000025
 148	1.4627e+01	1.4565	-7.984729	0.000311	3.112137	0.527210	0.000031
 149	1.4726e+01	1.4683	-7.953771	0.000311	3.112137	0.527210	0.000031
 150	1.4825e+01	1.4771	-7.928923	0.000250	2.497900	0.423156	0.000025
 151	1.4925e+01	1.4885	-7.900001	0.000291	2.907391	0.492525	0.000029
 152	1.5024e+01	1.4970	-7.874746	0.000254	2.538849	0.430093	0.000025
 153	1.5124e+01	1.5066	-7.845825	0.000291	2.907391	0.492525	0.000029
 154	1.5223e+01	1.5165	-7.819755	0.000262	2.620747	0.443967	0.000026
 155	1.5323e+01	1.5249	-7.791648	0.000283	2.825493	0.478651	0.000028
 156	1.5422e+01	1.5398	-7.763542	0.000283	2.825493	0.478651	0.000028
 157	1.5522e+01	1.5480	-7.737472	0.000262	2.620747	0.443967	0.000026
 158	1.5621e+01	1.5582	-7.708143	0.000295	2.948340	0.499462	0.000029
 159	1.5721e+01	1.5674	-7.681258	0.000270	2.702645	0.457841	0.000027
 160	1.5820e+01	1.5818	-7.652337	0.000291	2.907391	0.492525	0.000029
 161	1.5920e+01	1.5878	-7.623823	0.000287	2.866442	0.485588	0.000029
 162	1.6020e+01	1.5960	-7.600197	0.000238	2.375052	0.402345	0.000024
 163	1.6119e+01	1.6091	-7.574942	0.000254	2.538849	0.430093	0.000025
 164	1.6218e+01	1.6148	-7.543169	0.000319	3.194036	0.541084	0.000032
 165	1.6318e+01	1.6268	-7.513841	0.000295	2.948340	0.499462	0.000029
 166	1.6418e+01	1.6387	-7.487363	0.000266	2.661696	0.450904	0.000027
 167	1.6517e+01	1.6476	-7.457627	0.000299	2.989290	0.506399	0.000030
 168	1.6616e+01	1.6555	-7.432372	0.000254	2.538849	0.430093	0.000025
 169	1.6716e+01	1.6676	-7.401007	0.000315	3.153086	0.534147	0.000032
 170	1.6816e+01	1.6752	-7.368419	0.000328	3.275934	0.554958	0.000033
 171	1.6915e+01	1.6868	-7.341942	0.000266	2.661696	0.450904	0.000027
 172	1.7015e+01	1.6980	-7.314243	0.000278	2.784544	0.471714	0.000028
 173	1.7114e+01	1.7044	-7.281248	0.000332	3.316883	0.561895	0.000033
 174	1.7213e+01	1.7169	-7.255178	0.000262	2.620747	0.443967	0.000026
 175	1.7313e+01	1.7288	-7.225850	0.000295	2.948340	0.499462	0.000029
 176	1.7413e+01	1.7361	-7.196521	0.000295	2.948340	0.499462	0.000029
 177	1.7512e+01	1.7477	-7.168822	0.000278	2.784544	0.471714	0.000028
 178	1.7611e+01	1.7572	-7.139493	0.000295	2.948340	0.499462	0.000029
 179	1.7711e+01	1.7648	-7.108128	0.000315	3.153086	0.534147	0.000032
 180	1.7811e+01	1.7805	-7.080428	0.000278	2.784544	0.471714	0.000028
 181	1.7910e+01	1.7863	-7.053136	0.000274	2.743595	0.464778	0.000027
 182	1.8009e+01	1.7980	-7.025437	0.000278	2.784544	0.471714	0.000028
 183	1.8109e+01	1.8068	-6.998552	0.000270	2.702645	0.457841	0.000027
 184	1.8209e+01	1.8156	-6.970038	0.000287	2.866442	0.485588	0.000029
 185	1.8308e+01	1.8253	-6.946820	0.000233	2.334103	0.395408	0.000023
 186	1.8407e+01	1.8359	-6.921565	0.000254	2.538849	0.430093	0.000025
 187	1.8507e+01	1.8435	-6.897531	0.000242	2.416001	0.409282	0.000024
 188	1.8607e+01	1.8569	-6.868610	0.000291	2.907391	0.492525	0.000029
 189	1.8706e+01	1.8662	-6.847836	0.000209	2.088408	0.353786	0.000021
 190	1.8805e+01	1.8774	-6.815656	0.000323	3.234985	0.548021	0.000032
 191	1.8905e+01	1.8874	-6.792844	0.000229	2.293154	0.388471	0.000023
 192	1.9005e+01	1.8987	-6.771255	0.000217	2.170306	0.367660	0.000022
 193	1.9104e+01	1.9051	-6.745185	0.000262	2.620747	0.443967	0.000026
 194	1.9203e+01	1.9151	-6.722781	0.000225	2.252205	0.381534	0.000023
 195	1.9303e+01	1.9268	-6.697526	0.000254	2.538849	0.430093	0.000025
 196	1.9402e+01	1.9370	-6.666161	0.000315	3.153086	0.534147	0.000032
 197	1.9502e+01	1.9452	-6.647423	0.000188	1.883662	0.319101	0.000019
 198	1.9602e+01	1.9550	-6.620131	0.000274	2.743595	0.464778	0.000027
 199	1.9701e+01	1.9640	-6.595283	0.000250	2.497900	0.423156	0.000025
 200	1.9800e+01	1.9757	-6.567177	0.000283	2.825493	0.478651	0.000028
 201	1.9900e+01	1.9868	-6.546809	0.000205	2.047459	0.346849	0.000020
 202	2.0000e+01	1.9969	-6.520332	0.000266	2.661696	0.450904	0.000027
 203	2.0099e+01	2.0040	-6.491411	0.000291	2.907391	0.492525	0.000029
 204	2.0198e+01	2.0158	-6.464934	0.000266	2.661696	0.450904	0.000027
 205	2.0298e+01	2.0245	-6.440900	0.000242	2.416001	0.409282	0.000024
 206	2.0398e+01	2.0333	-6.415238	0.000258	2.579798	0.437030	0.000026
 207	2.0497e+01	2.0438	-6.389575	0.000258	2.579798	0.437030	0.000026
 208	2.0596e+01	2.0557	-6.359432	0.000303	3.030239	0.513336	0.000030
 209	2.0696e+01	2.0631	-6.333362	0.000262	2.620747	0.443967	0.000026
 210	2.0796e+01	2.0734	-6.304848	0.000287	2.866442	0.485588	0.000029
 211	2.0895e+01	2.0844	-6.281222	0.000238	2.375052	0.402345	0.000024
 212	2.0994e+01	2.0937	-6.255560	0.000258	2.579798	0.437030	0.000026
 213	2.1094e+01	2.1041	-6.226231	0.000295	2.948340	0.499462	0.000029
 214	2.1194e+01	2.1104	-6.203420	0.000229	2.293154	0.388471	0.000023
 215	2.1293e+01	2.1254	-6.169203	0.000344	3.439731	0.582706	0.000034
 216	2.1392e+01	2.1339	-6.145577	0.000238	2.375052	0.402345	0.000024
 217	2.1492e+01	2.1441	-6.121544	0.000242	2.416001	0.409282	0.000024
 218	2.1591e+01	2.1529	-6.095067	0.000266	2.661696	0.450904	0.000027
 219	2.1691e+01	2.1648	-6.067367	0.000278	2.784544	0.471714	0.000028
 220	2.1791e+01	2.1740	-6.044556	0.000229	2.293154	0.388471	0.000023
 221	2.1890e+01	2.1837	-6.016042	0.000287	2.866442	0.485588	0.000029
 222	2.1989e+01	2.1927	-5.992824	0.000233	2.334103	0.395408	0.000023
 223	2.2089e+01	2.2059	-5.967568	0.000254	2.538849	0.430093	0.000025
 224	2.2189e+01	2.2135	-5.937832	0.000299	2.989290	0.506399	0.000030
 225	2.2288e+01	2.2238	-5.913392	0.000246	2.456950	0.416219	0.000025
 226	2.2387e+01	2.2352	-5.881212	0.000323	3.234985	0.548021	0.000032
 227	2.2487e+01	2.2459	-5.860030	0.000213	2.129357	0.360723	0.000021
 228	2.2587e+01	2.2567	-5.831923	0.000283	2.825493	0.478651	0.000028
 229	2.2686e+01	2.2634	-5.805039	0.000270	2.702645	0.457841	0.000027
 230	2.2785e+01	2.2727	-5.783042	0.000221	2.211255	0.374597	0.000022
 231	2.2885e+01	2.2836	-5.754936	0.000283	2.825493	0.478651	0.000028
 232	2.2985e+01	2.2925	-5.729273	0.000258	2.579798	0.437030	0.000026
 233	2.3084e+01	2.3038	-5.699130	0.000303	3.030239	0.513336	0.000030
 234	2.3183e+01	2.3140	-5.670616	0.000287	2.866442	0.485588	0.000029
 235	2.3283e+01	2.3234	-5.645360	0.000254	2.538849	0.430093	0.000025
 236	2.3383e+01	2.3325	-5.616032	0.000295	2.948340	0.499462	0.000029
 237	2.3482e+01	2.3428	-5.594035	0.000221	2.211255	0.374597	0.000022
 238	2.3581e+01	2.3537	-5.567558	0.000266	2.661696	0.450904	0.000027
 239	2.3681e+01	2.3623	-5.539044	0.000287	2.866442	0.485588	0.000029
 240	2.3780e+01	2.3714	-5.512567	0.000266	2.661696	0.450904	0.000027
 241	2.3880e+01	2.3810	-5.482831	0.000299	2.989290	0.506399	0.000030
 242	2.3980e+01	2.3940	-5.457168	0.000258	2.579798	0.437030	0.000026
 243	2.4079e+01	2.4035	-5.431506	0.000258	2.579798	0.437030	0.000026
 244	2.4178e+01	2.4152	-5.406658	0.000250	2.497900	0.423156	0.000025
 245	2.4278e+01	2.4227	-5.379773	0.000270	2.702645	0.457841	0.000027
 246	2.4378e+01	2.4361	-5.352888	0.000270	2.702645	0.457841	0.000027
 247	2.4477e+01	2.4440	-5.322338	0.000307	3.071188	0.520273	0.000031
 248	2.4576e+01	2.4554	-5.300341	0.000221	2.211255	0.374597	0.000022
 249	2.4676e+01	2.4634	-5.270198	0.000303	3.030239	0.513336	0.000030
 250	2.4776e+01	2.4734	-5.246165	0.000242	2.416001	0.409282	0.000024
 251	2.4875e+01	2.4823	-5.223354	0.000229	2.293154	0.388471	0.000023
 252	2.4974e+01	2.4912	-5.197691	0.000258	2.579798	0.437030	0.000026
 253	2.5074e+01	2.5029	-5.174472	0.000233	2.334103	0.395408	0.000023
 254	2.5174e+01	2.5112	-5.144329	0.000303	3.030239	0.513336	0.000030
 255	2.5273e+01	2.5223	-5.123147	0.000213	2.129357	0.360723	0.000021
 256	2.5372e+01	2.5313	-5.097892	0.000254	2.538849	0.430093	0.000025
 257	2.5472e+01	2.5422	-5.079562	0.000184	1.842713	0.312164	0.000018
 258	2.5572e+01	2.5539	-5.053492	0.000262	2.620747	0.443967	0.000026
 259	2.5671e+01	2.5629	-5.026200	0.000274	2.743595	0.464778	0.000027
 260	2.5770e+01	2.5729	-4.997278	0.000291	2.907391	0.492525	0.000029
 261	2.5870e+01	2.5838	-4.974060	0.000233	2.334103	0.395408	0.000023
 262	2.5970e+01	2.5894	-4.952471	0.000217	2.170306	0.367660	0.000022
 263	2.6069e+01	2.6023	-4.923957	0.000287	2.866442	0.485588	0.000029
 264	2.6169e+01	2.6129	-4.901146	0.000229	2.293154	0.388471	0.000023
 265	2.6268e+01	2.6212	-4.875483	0.000258	2.579798	0.437030	0.000026
 266	2.6367e+01	2.6337	-4.846969	0.000287	2.866442	0.485588	0.000029
 267	2.6467e+01	2.6426	-4.823343	0.000238	2.375052	0.402345	0.000024
 268	2.6567e+01	2.6506	-4.793200	0.000303	3.030239	0.513336	0.000030
 269	2.6666e+01	2.6611	-4.769167	0.000242	2.416001	0.409282	0.000024
 270	2.6765e+01	2.6707	-4.741467	0.000278	2.784544	0.471714	0.000028
 271	2.6865e+01	2.6823	-4.708473	0.000332	3.316883	0.561895	0.000033
 272	2.6965e+01	2.6913	-4.683625	0.000250	2.497900	0.423156	0.000025
 273	2.7064e+01	2.7029	-4.653481	0.000303	3.030239	0.513336	0.000030
 274	2.7163e+01	2.7135	-4.629041	0.000246	2.456950	0.416219	0.000025
 275	2.7263e+01	2.7203	-4.597675	0.000315	3.153086	0.534147	0.000032
 276	2.7363e+01	2.7303	-4.566717	0.000311	3.112137	0.527210	0.000031
 277	2.7462e+01	2.7401	-4.539833	0.000270	2.702645	0.457841	0.000027
 278	2.7561e+01	2.7524	-4.508467	0.000315	3.153086	0.534147	0.000032
 279	2.7661e+01	2.7601	-4.479139	0.000295	2.948340	0.499462	0.000029
 280	2.7761e+01	2.7726	-4.451032	0.000283	2.825493	0.478651	0.000028
 281	2.7860e+01	2.7822	-4.422925	0.000283	2.825493	0.478651	0.000028
 282	2.7959e+01	2.7910	-4.398485	0.000246	2.456950	0.416219	0.000025
 283	2.8059e+01	2.8002	-4.366305	0.000323	3.234985	0.548021	0.000032
 284	2.8159e+01	2.8098	-4.340235	0.000262	2.620747	0.443967	0.000026
 285	2.8258e+01	2.8233	-4.311721	0.000287	2.866442	0.485588	0.000029
 286	2.8358e+01	2.8297	-4.282800	0.000291	2.907391	0.492525	0.000029
 287	2.8457e+01	2.8423	-4.259581	0.000233	2.334103	0.395408	0.000023
 288	2.8556e+01	2.8500	-4.231882	0.000278	2.784544	0.471714	0.000028
 289	2.8656e+01	2.8631	-4.204182	0.000278	2.784544	0.471714	0.000028
 290	2.8756e+01	2.8722	-4.177705	0.000266	2.661696	0.450904	0.000027
 291	2.8855e+01	2.8820	-4.147562	0.000303	3.030239	0.513336	0.000030
 292	2.8954e+01	2.8911	-4.119048	0.000287	2.866442	0.485588	0.000029
 293	2.9054e+01	2.9008	-4.095422	0.000238	2.375052	0.402345	0.000024
 294	2.9154e+01	2.9111	-4.071796	0.000238	2.375052	0.402345	0.000024
 295	2.9253e+01	2.9206	-4.044097	0.000278	2.784544	0.471714	0.000028
 296	2.9352e+01	2.9342	-4.015583	0.000287	2.866442	0.485588	0.000029
 297	2.9452e+01	2.9412	-3.989106	0.000266	2.661696	0.450904	0.000027
 298	2.9552e+01	2.9490	-3.966294	0.000229	2.293154	0.388471	0.000023
 299	2.9651e+01	2.9613	-3.936558	0.000299	2.989290	0.506399	0.000030
 300	2.9750e+01	2.9693	-3.912118	0.000246	2.456950	0.416219	0.000025
 301	2.9850e+01	2.9812	-3.884419	0.000278	2.784544	0.471714	0.000028
 302	2.9950e+01	2.9903	-3.861607	0.000229	2.293154	0.388471	0.000023
 303	3.0049e+01	3.0010	-3.829020	0.000328	3.275934	0.554958	0.000033
 304	3.0148e+01	3.0122	-3.801321	0.000278	2.784544	0.471714	0.000028
 305	3.0248e+01	3.0199	-3.777695	0.000238	2.375052	0.402345	0.000024
 306	3.0348e+01	3.0284	-3.747144	0.000307	3.071188	0.520273	0.000031
 307	3.0447e+01	3.0412	-3.726777	0.000205	2.047459	0.346849	0.000020
 308	3.0547e+01	3.0495	-3.699485	0.000274	2.743595	0.464778	0.000027
 309	3.0646e+01	3.0587	-3.667712	0.000319	3.194036	0.541084	0.000032
 310	3.0745e+01	3.0703	-3.643272	0.000246	2.456950	0.416219	0.000025
 311	3.0845e+01	3.0801	-3.616795	0.000266	2.661696	0.450904	0.000027
 312	3.0945e+01	3.0914	-3.591132	0.000258	2.579798	0.437030	0.000026
 313	3.1044e+01	3.1005	-3.563840	0.000274	2.743595	0.464778	0.000027
 314	3.1143e+01	3.1073	-3.537770	0.000262	2.620747	0.443967	0.000026
 315	3.1243e+01	3.1187	-3.511700	0.000262	2.620747	0.443967	0.000026
 316	3.1343e+01	3.1319	-3.483594	0.000283	2.825493	0.478651	0.000028
 317	3.1442e+01	3.1410	-3.458338	0.000254	2.538849	0.430093	0.000025
 318	3.1541e+01	3.1482	-3.433898	0.000246	2.456950	0.416219	0.000025
 319	3.1641e+01	3.1600	-3.405384	0.000287	2.866442	0.485588	0.000029
 320	3.1741e+01	3.1680	-3.378499	0.000270	2.702645	0.457841	0.000027
 321	3.1840e+01	3.1812	-3.356910	0.000217	2.170306	0.367660	0.000022
 322	3.1939e+01	3.1882	-3.328803	0.000283	2.825493	0.478651	0.000028
 323	3.2039e+01	3.2011	-3.302733	0.000262	2.620747	0.443967	0.000026
 324	3.2139e+01	3.2095	-3.276256	0.000266	2.661696	0.450904	0.000027
 325	3.2238e+01	3.2185	-3.252630	0.000238	2.375052	0.402345	0.000024
 326	3.2337e+01	3.2289	-3.227782	0.000250	2.497900	0.423156	0.000025
 327	3.2437e+01	3.2430	-3.200490	0.000274	2.743595	0.464778	0.000027
 328	3.2536e+01	3.2491	-3.175643	0.000250	2.497900	0.423156	0.000025
 329	3.2636e+01	3.2595	-3.150795	0.000250	2.497900	0.423156	0.000025
 330	3.2736e+01	3.2687	-3.124317	0.000266	2.661696	0.450904	0.000027
 331	3.2835e+01	3.2799	-3.098655	0.000258	2.579798	0.437030	0.000026
 332	3.2934e+01	3.2876	-3.070141	0.000287	2.866442	0.485588	0.000029
 333	3.3034e+01	3.3018	-3.043256	0.000270	2.702645	0.457841	0.000027
 334	3.3133e+01	3.3118	-3.015557	0.000278	2.784544	0.471714	0.000028
 335	3.3233e+01	3.3238	-2.985821	0.000299	2.989290	0.506399	0.000030
 336	3.3333e+01	3.3303	-2.960973	0.000250	2.497900	0.423156	0.000025
 337	3.3432e+01	3.3394	-2.932866	0.000283	2.825493	0.478651	0.000028
 338	3.3532e+01	3.3491	-2.904760	0.000283	2.825493	0.478651	0.000028
 339	3.3631e+01	3.3586	-2.879504	0.000254	2.538849	0.430093	0.000025
 340	3.3730e+01	3.3685	-2.849768	0.000299	2.989290	0.506399	0.000030
 341	3.3830e+01	3.3765	-2.823291	0.000266	2.661696	0.450904	0.000027
 342	3.3929e+01	3.3848	-2.798036	0.000254	2.538849	0.430093	0.000025
 343	3.4029e+01	3.4000	-2.769929	0.000283	2.825493	0.478651	0.000028
 344	3.4129e+01	3.4080	-2.742230	0.000278	2.784544	0.471714	0.000028
 345	3.4228e+01	3.4211	-2.716567	0.000258	2.579798	0.437030	0.000026
 346	3.4328e+01	3.4335	-2.687239	0.000295	2.948340	0.499462	0.000029
 347	3.4427e+01	3.4351	-2.659540	0.000278	2.784544	0.471714	0.000028
 348	3.4526e+01	3.4495	-2.631026	0.000287	2.866442	0.485588	0.000029
 349	3.4626e+01	3.4594	-2.606178	0.000250	2.497900	0.423156	0.000025
 350	3.4725e+01	3.4687	-2.580922	0.000254	2.538849	0.430093	0.000025
 351	3.4825e+01	3.4788	-2.557704	0.000233	2.334103	0.395408	0.000023
 352	3.4925e+01	3.4882	-2.533671	0.000242	2.416001	0.409282	0.000024
 353	3.5024e+01	3.4991	-2.508823	0.000250	2.497900	0.423156	0.000025
 354	3.5123e+01	3.5082	-2.480716	0.000283	2.825493	0.478651	0.000028
 355	3.5223e+01	3.5207	-2.464422	0.000164	1.637967	0.277479	0.000016
 356	3.5322e+01	3.5271	-2.439575	0.000250	2.497900	0.423156	0.000025
 357	3.5422e+01	3.5375	-2.412690	0.000270	2.702645	0.457841	0.000027
 358	3.5522e+01	3.5492	-2.389879	0.000229	2.293154	0.388471	0.000023
 359	3.5621e+01	3.5593	-2.365846	0.000242	2.416001	0.409282	0.000024
 360	3.5721e+01	3.5673	-2.342627	0.000233	2.334103	0.395408	0.000023
 361	3.5820e+01	3.5792	-2.323889	0.000188	1.883662	0.319101	0.000019
 362	3.5919e+01	3.5863	-2.302707	0.000213	2.129357	0.360723	0.000021
 363	3.6019e+01	3.5964	-2.276230	0.000266	2.661696	0.450904	0.000027
 364	3.6118e+01	3.6073	-2.252197	0.000242	2.416001	0.409282	0.000024
 365	3.6218e+01	3.6153	-2.231830	0.000205	2.047459	0.346849	0.000020
 366	3.6318e+01	3.6263	-2.204131	0.000278	2.784544	0.471714	0.000028
 367	3.6417e+01	3.6353	-2.181727	0.000225	2.252205	0.381534	0.000023
 368	3.6517e+01	3.6475	-2.154842	0.000270	2.702645	0.457841	0.000027
 369	3.6616e+01	3.6587	-2.131624	0.000233	2.334103	0.395408	0.000023
 370	3.6715e+01	3.6687	-2.103924	0.000278	2.784544	0.471714	0.000028
 371	3.6815e+01	3.6793	-2.080298	0.000238	2.375052	0.402345	0.000024
 372	3.6914e+01	3.6865	-2.056265	0.000242	2.416001	0.409282	0.000024
 373	3.7014e+01	3.6953	-2.031417	0.000250	2.497900	0.423156	0.000025
 374	3.7114e+01	3.7076	-2.007384	0.000242	2.416001	0.409282	0.000024
 375	3.7213e+01	3.7191	-1.981722	0.000258	2.579798	0.437030	0.000026
 376	3.7313e+01	3.7266	-1.958503	0.000233	2.334103	0.395408	0.000023
 377	3.7412e+01	3.7389	-1.937729	0.000209	2.088408	0.353786	0.000021
 378	3.7511e+01	3.7492	-1.910437	0.000274	2.743595	0.464778	0.000027
 379	3.7611e+01	3.7556	-1.884367	0.000262	2.620747	0.443967	0.000026
 380	3.7711e+01	3.7672	-1.861963	0.000225	2.252205	0.381534	0.000023
 381	3.7810e+01	3.7763	-1.834264	0.000278	2.784544	0.471714	0.000028
 382	3.7910e+01	3.7867	-1.810230	0.000242	2.416001	0.409282	0.000024
 383	3.8009e+01	3.7971	-1.785382	0.000250	2.497900	0.423156	0.000025
 384	3.8108e+01	3.8050	-1.759720	0.000258	2.579798	0.437030	0.000026
 385	3.8208e+01	3.8166	-1.734465	0.000254	2.538849	0.430093	0.000025
 386	3.8307e+01	3.8281	-1.710839	0.000238	2.375052	0.402345	0.000024
 387	3.8407e+01	3.8361	-1.685176	0.000258	2.579798	0.437030	0.000026
 388	3.8507e+01	3.8453	-1.662772	0.000225	2.252205	0.381534	0.000023
 389	3.8606e+01	3.8581	-1.639146	0.000238	2.375052	0.402345	0.000024
 390	3.8706e+01	3.8673	-1.613484	0.000258	2.579798	0.437030	0.000026
 391	3.8805e+01	3.8757	-1.591080	0.000225	2.252205	0.381534	0.000023
 392	3.8904e+01	3.8856	-1.568676	0.000225	2.252205	0.381534	0.000023
 393	3.9004e+01	3.8976	-1.545050	0.000238	2.375052	0.402345	0.000024
 394	3.9103e+01	3.9056	-1.518980	0.000262	2.620747	0.443967	0.000026
 395	3.9203e+01	3.9158	-1.491688	0.000274	2.743595	0.464778	0.000027
 396	3.9303e+01	3.9267	-1.466841	0.000250	2.497900	0.423156	0.000025
 397	3.9402e+01	3.9353	-1.441585	0.000254	2.538849	0.430093	0.000025
 398	3.9502e+01	3.9460	-1.414701	0.000270	2.702645	0.457841	0.000027
 399	3.9601e+01	3.9569	-1.391482	0.000233	2.334103	0.395408	0.000023
 400	3.9700e+01	3.9651	-1.366227	0.000254	2.538849	0.430093	0.000025
 401	3.9800e+01	3.9777	-1.342194	0.000242	2.416001	0.409282	0.000024
 402	3.9900e+01	3.9850	-1.316124	0.000262	2.620747	0.443967	0.000026
 403	3.9999e+01	3.9950	-1.293720	0.000225	2.252205	0.381534	0.000023
 404	4.0099e+01	4.0063	-1.265613	0.000283	2.825493	0.478651	0.000028
 405	4.0198e+01	4.0176	-1.241580	0.000242	2.416001	0.409282	0.000024
 406	4.0297e+01	4.0266	-1.217547	0.000242	2.416001	0.409282	0.000024
 407	4.0397e+01	4.0359	-1.190662	0.000270	2.702645	0.457841	0.000027
 408	4.0496e+01	4.0459	-1.168258	0.000225	2.252205	0.381534	0.000023
 409	4.0596e+01	4.0565	-1.139337	0.000291	2.907391	0.492525	0.000029
 410	4.0696e+01	4.0654	-1.118563	0.000209	2.088408	0.353786	0.000021
 411	4.0795e+01	4.0719	-1.091678	0.000270	2.702645	0.457841	0.000027
 412	4.0895e+01	4.0852	-1.068460	0.000233	2.334103	0.395408	0.000023
 413	4.0994e+01	4.0954	-1.042390	0.000262	2.620747	0.443967	0.000026
 414	4.1093e+01	4.1067	-1.015098	0.000274	2.743595	0.464778	0.000027
 415	4.1193e+01	4.1153	-0.989842	0.000254	2.538849	0.430093	0.000025
 416	4.1292e+01	4.1253	-0.967439	0.000225	2.252205	0.381534	0.000023
 417	4.1392e+01	4.1340	-0.942183	0.000254	2.538849	0.430093	0.000025
 418	4.1492e+01	4.1456	-0.916521	0.000258	2.579798	0.437030	0.000026
 419	4.1591e+01	4.1567	-0.896154	0.000205	2.047459	0.346849	0.000020
 420	4.1691e+01	4.1680	-0.871713	0.000246	2.456950	0.416219	0.000025
 421	4.1790e+01	4.1731	-0.852161	0.000197	1.965560	0.332975	0.000020
 422	4.1889e+01	4.1831	-0.827720	0.000246	2.456950	0.416219	0.000025
 423	4.1989e+01	4.1965	-0.804909	0.000229	2.293154	0.388471	0.000023
 424	4.2089e+01	4.2052	-0.781283	0.000238	2.375052	0.402345	0.000024
 425	4.2188e+01	4.2129	-0.761323	0.000201	2.006509	0.339912	0.000020
 426	4.2288e+01	4.2245	-0.734846	0.000266	2.661696	0.450904	0.000027
 427	4.2387e+01	4.2321	-0.713257	0.000217	2.170306	0.367660	0.000022
 428	4.2486e+01	4.2452	-0.693704	0.000197	1.965560	0.332975	0.000020
 429	4.2586e+01	4.2532	-0.666005	0.000278	2.784544	0.471714	0.000028
 430	4.2685e+01	4.2651	-0.645231	0.000209	2.088408	0.353786	0.000021
 431	4.2785e+01	4.2704	-0.621605	0.000238	2.375052	0.402345	0.000024
 432	4.2885e+01	4.2844	-0.595942	0.000258	2.579798	0.437030	0.000026
 433	4.2984e+01	4.2928	-0.569872	0.000262	2.620747	0.443967	0.000026
 434	4.3084e+01	4.3038	-0.547876	0.000221	2.211255	0.374597	0.000022
 435	4.3183e+01	4.3132	-0.525065	0.000229	2.293154	0.388471	0.000023
 436	4.3282e+01	4.3263	-0.495736	0.000295	2.948340	0.499462	0.000029
 437	4.3382e+01	4.3341	-0.470888	0.000250	2.497900	0.423156	0.000025
 438	4.3481e+01	4.3410	-0.444003	0.000270	2.702645	0.457841	0.000027
 439	4.3581e+01	4.3549	-0.417526	0.000266	2.661696	0.450904	0.000027
 440	4.3681e+01	4.3639	-0.391049	0.000266	2.661696	0.450904	0.000027
 441	4.3780e+01	4.3768	-0.364164	0.000270	2.702645	0.457841	0.000027
 442	4.3880e+01	4.3832	-0.338909	0.000254	2.538849	0.430093	0.000025
 443	4.3979e+01	4.3929	-0.313246	0.000258	2.579798	0.437030	0.000026
 444	4.4078e+01	4.4036	-0.284732	0.000287	2.866442	0.485588	0.000029
 445	4.4178e+01	4.4135	-0.253774	0.000311	3.112137	0.527210	0.000031
 446	4.4278e+01	4.4247	-0.226482	0.000274	2.743595	0.464778	0.000027
 447	4.4377e+01	4.4341	-0.204893	0.000217	2.170306	0.367660	0.000022
 448	4.4477e+01	4.4436	-0.173935	0.000311	3.112137	0.527210	0.000031
 449	4.4576e+01	4.4531	-0.149087	0.000250	2.497900	0.423156	0.000025
 450	4.4675e+01	4.4631	-0.121795	0.000274	2.743595	0.464778	0.000027
 451	4.4775e+01	4.4727	-0.094911	0.000270	2.702645	0.457841	0.000027
 452	4.4874e+01	4.4834	-0.068841	0.000262	2.620747	0.443967	0.000026
 453	4.4974e+01	4.4965	-0.042364	0.000266	2.661696	0.450904	0.000027
 454	4.5074e+01	4.5031	-0.019145	0.000233	2.334103	0.395408	0.000023
 455	4.5173e+01	4.5103	0.009369	0.000287	2.866442	0.485588	0.000029
 456	4.5273e+01	4.5232	0.030551	0.000213	2.129357	0.360723	0.000021
 457	4.5372e+01	4.5322	0.059472	0.000291	2.907391	0.492525	0.000029
 458	4.5471e+01	4.5437	0.084320	0.000250	2.497900	0.423156	0.000025
 459	4.5571e+01	4.5551	0.105909	0.000217	2.170306	0.367660	0.000022
 460	4.5670e+01	4.5637	0.131979	0.000262	2.620747	0.443967	0.000026
 461	4.5770e+01	4.5705	0.157642	0.000258	2.579798	0.437030	0.000026
 462	4.5870e+01	4.5802	0.183304	0.000258	2.579798	0.437030	0.000026
 463	4.5969e+01	4.5934	0.206523	0.000233	2.334103	0.395408	0.000023
 464	4.6069e+01	4.6055	0.232593	0.000262	2.620747	0.443967	0.000026
 465	4.6168e+01	4.6104	0.258255	0.000258	2.579798	0.437030	0.000026
 466	4.6267e+01	4.6213	0.279844	0.000217	2.170306	0.367660	0.000022
 467	4.6367e+01	4.6333	0.304692	0.000250	2.497900	0.423156	0.000025
 468	4.6467e+01	4.6412	0.330762	0.000262	2.620747	0.443967	0.000026
 469	4.6566e+01	4.6548	0.356832	0.000262	2.620747	0.443967	0.000026
 470	4.6666e+01	4.6600	0.378014	0.000213	2.129357	0.360723	0.000021
 471	4.6765e+01	4.6745	0.402862	0.000250	2.497900	0.423156	0.000025
 472	4.6864e+01	4.6812	0.429339	0.000266	2.661696	0.450904	0.000027
 473	4.6964e+01	4.6926	0.454187	0.000250	2.497900	0.423156	0.000025
 474	4.7063e+01	4.7060	0.481886	0.000278	2.784544	0.471714	0.000028
 475	4.7163e+01	4.7124	0.503475	0.000217	2.170306	0.367660	0.000022
 476	4.7263e+01	4.7228	0.531989	0.000287	2.866442	0.485588	0.000029
 477	4.7362e+01	4.7307	0.554801	0.000229	2.293154	0.388471	0.000023
 478	4.7462e+01	4.7412	0.578834	0.000242	2.416001	0.409282	0.000024
 479	4.7561e+01	4.7511	0.604089	0.000254	2.538849	0.430093	0.000025
 480	4.7660e+01	4.7626	0.628530	0.000246	2.456950	0.416219	0.000025
 481	4.7760e+01	4.7723	0.655414	0.000270	2.702645	0.457841	0.000027
 482	4.7859e+01	4.7807	0.677411	0.000221	2.211255	0.374597	0.000022
 483	4.7959e+01	4.7921	0.705517	0.000283	2.825493	0.478651	0.000028
 484	4.8059e+01	4.8011	0.727514	0.000221	2.211255	0.374597	0.000022
 485	4.8158e+01	4.8129	0.750325	0.000229	2.293154	0.388471	0.000023
 486	4.8258e+01	4.8220	0.778024	0.000278	2.784544	0.471714	0.000028
 487	4.8357e+01	4.8324	0.798799	0.000209	2.088408	0.353786	0.000021
 488	4.8456e+01	4.8421	0.822832	0.000242	2.416001	0.409282	0.000024
 489	4.8556e+01	4.8538	0.846050	0.000233	2.334103	0.395408	0.000023
 490	4.8656e+01	4.8595	0.873342	0.000274	2.743595	0.464778	0.000027
 491	4.8755e+01	4.8737	0.894524	0.000213	2.129357	0.360723	0.000021
 492	4.8855e+01	4.8808	0.920187	0.000258	2.579798	0.437030	0.000026
 493	4.8954e+01	4.8922	0.943813	0.000238	2.375052	0.402345	0.000024
 494	4.9053e+01	4.9010	0.970290	0.000266	2.661696	0.450904	0.000027
 495	4.9153e+01	4.9114	0.995138	0.000250	2.497900	0.423156	0.000025
 496	4.9252e+01	4.9215	1.019171	0.000242	2.416001	0.409282	0.000024
 497	4.9352e+01	4.9305	1.037501	0.000184	1.842713	0.312164	0.000018
 498	4.9452e+01	4.9410	1.065608	0.000283	2.825493	0.478651	0.000028
 499	4.9551e+01	4.9499	1.091678	0.000262	2.620747	0.443967	0.000026
 500	4.9651e+01	4.9616	1.113675	0.000221	2.211255	0.374597	0.000022
 501	4.9750e+01	4.9708	1.138522	0.000250	2.497900	0.423156	0.000025
 502	4.9849e+01	4.9812	1.163370	0.000250	2.497900	0.423156	0.000025
 503	4.9949e+01	4.9908	1.190255	0.000270	2.702645	0.457841	0.000027
 504	5.0048e+01	5.0021	1.218362	0.000283	2.825493	0.478651	0.000028
 505	5.0148e+01	5.0135	1.242395	0.000242	2.416001	0.409282	0.000024
 506	5.0248e+01	5.0188	1.268057	0.000258	2.579798	0.437030	0.000026
 507	5.0347e+01	5.0304	1.293720	0.000258	2.579798	0.437030	0.000026
 508	5.0447e+01	5.0404	1.317346	0.000238	2.375052	0.402345	0.000024
 509	5.0546e+01	5.0494	1.344230	0.000270	2.702645	0.457841	0.000027
 510	5.0645e+01	5.0573	1.371115	0.000270	2.702645	0.457841	0.000027
 511	5.0745e+01	5.0684	1.393112	0.000221	2.211255	0.374597	0.000022
 512	5.0844e+01	5.0794	1.417959	0.000250	2.497900	0.423156	0.000025
 513	5.0944e+01	5.0913	1.444844	0.000270	2.702645	0.457841	0.000027
 514	5.1044e+01	5.1031	1.472951	0.000283	2.825493	0.478651	0.000028
 515	5.1143e+01	5.1109	1.497391	0.000246	2.456950	0.416219	0.000025
 516	5.1242e+01	5.1232	1.519388	0.000221	2.211255	0.374597	0.000022
 517	5.1342e+01	5.1286	1.546680	0.000274	2.743595	0.464778	0.000027
 518	5.1441e+01	5.1411	1.567861	0.000213	2.129357	0.360723	0.000021
 519	5.1541e+01	5.1485	1.591080	0.000233	2.334103	0.395408	0.000023
 520	5.1641e+01	5.1604	1.613484	0.000225	2.252205	0.381534	0.000023
 521	5.1740e+01	5.1711	1.639146	0.000258	2.579798	0.437030	0.000026
 522	5.1840e+01	5.1794	1.655847	0.000168	1.678916	0.284416	0.000017
 523	5.1939e+01	5.1891	1.681103	0.000254	2.538849	0.430093	0.000025
 524	5.2038e+01	5.1978	1.704321	0.000233	2.334103	0.395408	0.000023
 525	5.2138e+01	5.2110	1.725910	0.000217	2.170306	0.367660	0.000022
 526	5.2237e+01	5.2197	1.747092	0.000213	2.129357	0.360723	0.000021
 527	5.2337e+01	5.2297	1.768681	0.000217	2.170306	0.367660	0.000022
 528	5.2437e+01	5.2374	1.785790	0.000172	1.719865	0.291353	0.000017
 529	5.2536e+01	5.2514	1.809416	0.000238	2.375052	0.402345	0.000024
 530	5.2636e+01	5.2590	1.830190	0.000209	2.088408	0.353786	0.000021
 531	5.2735e+01	5.2682	1.853816	0.000238	2.375052	0.402345	0.000024
 532	5.2834e+01	5.2792	1.872961	0.000192	1.924611	0.326038	0.000019
 533	5.2934e+01	5.2882	1.896180	0.000233	2.334103	0.395408	0.000023
 534	5.3033e+01	5.2979	1.917361	0.000213	2.129357	0.360723	0.000021
 535	5.3133e+01	5.3082	1.940173	0.000229	2.293154	0.388471	0.000023
 536	5.3233e+01	5.3198	1.960947	0.000209	2.088408	0.353786	0.000021
 537	5.3332e+01	5.3303	1.984573	0.000238	2.375052	0.402345	0.000024
 538	5.3431e+01	5.3370	2.009013	0.000246	2.456950	0.416219	0.000025
 539	5.3531e+01	5.3506	2.030603	0.000217	2.170306	0.367660	0.000022
 540	5.3630e+01	5.3577	2.053414	0.000229	2.293154	0.388471	0.000023
 541	5.3730e+01	5.3681	2.079484	0.000262	2.620747	0.443967	0.000026
 542	5.3830e+01	5.3793	2.096592	0.000172	1.719865	0.291353	0.000017
 543	5.3929e+01	5.3889	2.123477	0.000270	2.702645	0.457841	0.000027
 544	5.4029e+01	5.3998	2.145473	0.000221	2.211255	0.374597	0.000022
 545	5.4128e+01	5.4082	2.167062	0.000217	2.170306	0.367660	0.000022
 546	5.4227e+01	5.4173	2.188244	0.000213	2.129357	0.360723	0.000021
 547	5.4327e+01	5.4270	2.216758	0.000287	2.866442	0.485588	0.000029
 548	5.4426e+01	5.4395	2.242013	0.000254	2.538849	0.430093	0.000025
 549	5.4526e+01	5.4477	2.261566	0.000197	1.965560	0.332975	0.000020
 550	5.4626e+01	5.4574	2.283562	0.000221	2.211255	0.374597	0.000022
 551	5.4725e+01	5.4675	2.306781	0.000233	2.334103	0.395408	0.000023
 552	5.4825e+01	5.4800	2.328777	0.000221	2.211255	0.374597	0.000022
 553	5.4924e+01	5.4879	2.350774	0.000221	2.211255	0.374597	0.000022
 554	5.5023e+01	5.5009	2.376029	0.000254	2.538849	0.430093	0.000025
 555	5.5123e+01	5.5068	2.399248	0.000233	2.334103	0.395408	0.000023
 556	5.5222e+01	5.5189	2.421244	0.000221	2.211255	0.374597	0.000022
 557	5.5322e+01	5.5280	2.440797	0.000197	1.965560	0.332975	0.000020
 558	5.5422e+01	5.5373	2.461571	0.000209	2.088408	0.353786	0.000021
 559	5.5521e+01	5.5477	2.485604	0.000242	2.416001	0.409282	0.000024
 560	5.5620e+01	5.5582	2.506786	0.000213	2.129357	0.360723	0.000021
 561	5.5720e+01	5.5679	2.532856	0.000262	2.620747	0.443967	0.000026
 562	5.5819e+01	5.5776	2.556075	0.000233	2.334103	0.395408	0.000023
 563	5.5919e+01	5.5874	2.576442	0.000205	2.047459	0.346849	0.000020
 564	5.6019e+01	5.5988	2.601290	0.000250	2.497900	0.423156	0.000025
 565	5.6118e+01	5.6091	2.623693	0.000225	2.252205	0.381534	0.000023
 566	5.6218e+01	5.6191	2.646912	0.000233	2.334103	0.395408	0.000023
 567	5.6317e+01	5.6283	2.670945	0.000242	2.416001	0.409282	0.000024
 568	5.6416e+01	5.6384	2.694571	0.000238	2.375052	0.402345	0.000024
 569	5.6516e+01	5.6483	2.720641	0.000262	2.620747	0.443967	0.000026
 570	5.6615e+01	5.6556	2.741415	0.000209	2.088408	0.353786	0.000021
 571	5.6715e+01	5.6667	2.766671	0.000254	2.538849	0.430093	0.000025
 572	5.6815e+01	5.6777	2.785408	0.000188	1.883662	0.319101	0.000019
 573	5.6914e+01	5.6879	2.809849	0.000246	2.456950	0.416219	0.000025
 574	5.7014e+01	5.6970	2.836326	0.000266	2.661696	0.450904	0.000027
 575	5.7113e+01	5.7080	2.862396	0.000262	2.620747	0.443967	0.000026
 576	5.7212e+01	5.7172	2.882763	0.000205	2.047459	0.346849	0.000020
 577	5.7312e+01	5.7263	2.905982	0.000233	2.334103	0.395408	0.000023
 578	5.7411e+01	5.7359	2.925942	0.000201	2.006509	0.339912	0.000020
 579	5.7511e+01	5.7488	2.952826	0.000270	2.702645	0.457841	0.000027
 580	5.7611e+01	5.7557	2.976452	0.000238	2.375052	0.402345	0.000024
 581	5.7710e+01	5.7661	2.999263	0.000229	2.293154	0.388471	0.000023
 582	5.7809e+01	5.7752	3.019630	0.000205	2.047459	0.346849	0.000020
 583	5.7909e+01	5.7855	3.040812	0.000213	2.129357	0.360723	0.000021
 584	5.8008e+01	5.7960	3.064438	0.000238	2.375052	0.402345	0.000024
 585	5.8108e+01	5.8080	3.085620	0.000213	2.129357	0.360723	0.000021
 586	5.8208e+01	5.8167	3.110060	0.000246	2.456950	0.416219	0.000025
 587	5.8307e+01	5.8228	3.128798	0.000188	1.883662	0.319101	0.000019
 588	5.8407e+01	5.8375	3.156090	0.000274	2.743595	0.464778	0.000027
 589	5.8506e+01	5.8492	3.174013	0.000180	1.801764	0.305227	0.000018
 590	5.8605e+01	5.8549	3.195195	0.000213	2.129357	0.360723	0.000021
 591	5.8705e+01	5.8686	3.214747	0.000197	1.965560	0.332975	0.000020
 592	5.8804e+01	5.8759	3.235115	0.000205	2.047459	0.346849	0.000020
 593	5.8904e+01	5.8895	3.260777	0.000258	2.579798	0.437030	0.000026
 594	5.9004e+01	5.8967	3.281144	0.000205	2.047459	0.346849	0.000020
 595	5.9103e+01	5.9046	3.302733	0.000217	2.170306	0.367660	0.000022
 596	5.9203e+01	5.9167	3.319434	0.000168	1.678916	0.284416	0.000017
 597	5.9302e+01	5.9247	3.340616	0.000213	2.129357	0.360723	0.000021
 598	5.9401e+01	5.9356	3.363835	0.000233	2.334103	0.395408	0.000023
 599	5.9501e+01	5.9458	3.390312	0.000266	2.661696	0.450904	0.000027
 600	5.9600e+01	5.9548	3.406198	0.000160	1.597018	0.270542	0.000016
 601	5.9700e+01	5.9679	3.432268	0.000262	2.620747	0.443967	0.000026
 602	5.9800e+01	5.9747	3.457524	0.000254	2.538849	0.430093	0.000025
 603	5.9899e+01	5.9851	3.478298	0.000209	2.088408	0.353786	0.000021
 604	5.9998e+01	5.9962	3.502739	0.000246	2.456950	0.416219	0.000025
 605	6.0098e+01	6.0024	3.524328	0.000217	2.170306	0.367660	0.000022
 606	6.0197e+01	6.0188	3.553656	0.000295	2.948340	0.499462	0.000029
 607	6.0297e+01	6.0241	3.578504	0.000250	2.497900	0.423156	0.000025
 608	6.0397e+01	6.0346	3.598871	0.000205	2.047459	0.346849	0.000020
 609	6.0496e+01	6.0442	3.622497	0.000238	2.375052	0.402345	0.000024
 610	6.0596e+01	6.0559	3.651826	0.000295	2.948340	0.499462	0.000029
 611	6.0695e+01	6.0662	3.673008	0.000213	2.129357	0.360723	0.000021
 612	6.0794e+01	6.0757	3.703558	0.000307	3.071188	0.520273	0.000031
 613	6.0894e+01	6.0854	3.729628	0.000262	2.620747	0.443967	0.000026
 614	6.0993e+01	6.0952	3.753662	0.000242	2.416001	0.409282	0.000024
 615	6.1093e+01	6.1071	3.776065	0.000225	2.252205	0.381534	0.000023
 616	6.1193e+01	6.1143	3.804579	0.000287	2.866442	0.485588	0.000029
 617	6.1292e+01	6.1256	3.828613	0.000242	2.416001	0.409282	0.000024
 618	6.1392e+01	6.1327	3.848572	0.000201	2.006509	0.339912	0.000020
 619	6.1491e+01	6.1457	3.877901	0.000295	2.948340	0.499462	0.000029
 620	6.1590e+01	6.1608	3.898676	0.000209	2.088408	0.353786	0.000021
 621	6.1690e+01	6.1629	3.923523	0.000250	2.497900	0.423156	0.000025
 622	6.1789e+01	6.1736	3.948371	0.000250	2.497900	0.423156	0.000025
 623	6.1889e+01	6.1852	3.972812	0.000246	2.456950	0.416219	0.000025
 624	6.1989e+01	6.1941	3.998067	0.000254	2.538849	0.430093	0.000025
 625	6.2088e+01	6.2043	4.018434	0.000205	2.047459	0.346849	0.000020
 626	6.2188e+01	6.2134	4.041245	0.000229	2.293154	0.388471	0.000023
 627	6.2287e+01	6.2260	4.064464	0.000233	2.334103	0.395408	0.000023
 628	6.2386e+01	6.2328	4.088497	0.000242	2.416001	0.409282	0.000024
 629	6.2486e+01	6.2444	4.112123	0.000238	2.375052	0.402345	0.000024
 630	6.2586e+01	6.2537	4.136564	0.000246	2.456950	0.416219	0.000025
 631	6.2685e+01	6.2655	4.161412	0.000250	2.497900	0.423156	0.000025
 632	6.2785e+01	6.2762	4.181371	0.000201	2.006509	0.339912	0.000020
 633	6.2884e+01	6.2849	4.203368	0.000221	2.211255	0.374597	0.000022
 634	6.2983e+01	6.2939	4.226994	0.000238	2.375052	0.402345	0.000024
 635	6.3083e+01	6.3024	4.248990	0.000221	2.211255	0.374597	0.000022
 636	6.3182e+01	6.3158	4.270987	0.000221	2.211255	0.374597	0.000022
 637	6.3282e+01	6.3260	4.292168	0.000213	2.129357	0.360723	0.000021
 638	6.3382e+01	6.3348	4.318646	0.000266	2.661696	0.450904	0.000027
 639	6.3481e+01	6.3412	4.343086	0.000246	2.456950	0.416219	0.000025
 640	6.3581e+01	6.3534	4.364675	0.000217	2.170306	0.367660	0.000022
 641	6.3680e+01	6.3638	4.389931	0.000254	2.538849	0.430093	0.000025
 642	6.3779e+01	6.3741	4.412742	0.000229	2.293154	0.388471	0.000023
 643	6.3879e+01	6.3873	4.434738	0.000221	2.211255	0.374597	0.000022
 644	6.3978e+01	6.3940	4.458364	0.000238	2.375052	0.402345	0.000024
 645	6.4078e+01	6.4016	4.481583	0.000233	2.334103	0.395408	0.000023
 646	6.4177e+01	6.4118	4.502765	0.000213	2.129357	0.360723	0.000021
 647	6.4277e+01	6.4222	4.527612	0.000250	2.497900	0.423156	0.000025
 648	6.4376e+01	6.4339	4.552053	0.000246	2.456950	0.416219	0.000025
 649	6.4476e+01	6.4428	4.574050	0.000221	2.211255	0.374597	0.000022
 650	6.4576e+01	6.4533	4.595231	0.000213	2.129357	0.360723	0.000021
 651	6.4675e+01	6.4623	4.619672	0.000246	2.456950	0.416219	0.000025
 652	6.4775e+01	6.4727	4.640039	0.000205	2.047459	0.346849	0.000020
 653	6.4874e+01	6.4820	4.666516	0.000266	2.661696	0.450904	0.000027
 654	6.4974e+01	6.4938	4.686883	0.000205	2.047459	0.346849	0.000020
 655	6.5073e+01	6.5047	4.707251	0.000205	2.047459	0.346849	0.000020
 656	6.5172e+01	6.5125	4.727210	0.000201	2.006509	0.339912	0.000020
 657	6.5272e+01	6.5225	4.754502	0.000274	2.743595	0.464778	0.000027
 658	6.5371e+01	6.5326	4.772018	0.000176	1.760814	0.298290	0.000018
 659	6.5471e+01	6.5404	4.800532	0.000287	2.866442	0.485588	0.000029
 660	6.5570e+01	6.5514	4.821714	0.000213	2.129357	0.360723	0.000021
 661	6.5670e+01	6.5601	4.841266	0.000197	1.965560	0.332975	0.000020
 662	6.5769e+01	6.5711	4.864485	0.000233	2.334103	0.395408	0.000023
 663	6.5869e+01	6.5845	4.885259	0.000209	2.088408	0.353786	0.000021
 664	6.5969e+01	6.5925	4.909700	0.000246	2.456950	0.416219	0.000025
 665	6.6068e+01	6.6022	4.932511	0.000229	2.293154	0.388471	0.000023
 666	6.6168e+01	6.6119	4.954100	0.000217	2.170306	0.367660	0.000022
 667	6.6267e+01	6.6244	4.979355	0.000254	2.538849	0.430093	0.000025
 668	6.6367e+01	6.6326	5.004203	0.000250	2.497900	0.423156	0.000025
 669	6.6466e+01	6.6447	5.025385	0.000213	2.129357	0.360723	0.000021
 670	6.6566e+01	6.6512	5.047789	0.000225	2.252205	0.381534	0.000023
 671	6.6665e+01	6.6612	5.073451	0.000258	2.579798	0.437030	0.000026
 672	6.6764e+01	6.6718	5.099929	0.000266	2.661696	0.450904	0.000027
 673	6.6864e+01	6.6833	5.121925	0.000221	2.211255	0.374597	0.000022
 674	6.6963e+01	6.6923	5.143514	0.000217	2.170306	0.367660	0.000022
 675	6.7063e+01	6.7025	5.169584	0.000262	2.620747	0.443967	0.000026
 676	6.7162e+01	6.7120	5.191988	0.000225	2.252205	0.381534	0.000023
 677	6.7262e+01	6.7236	5.216021	0.000242	2.416001	0.409282	0.000024
 678	6.7362e+01	6.7330	5.240462	0.000246	2.456950	0.416219	0.000025
 679	6.7461e+01	6.7397	5.265310	0.000250	2.497900	0.423156	0.000025
 680	6.7561e+01	6.7493	5.286084	0.000209	2.088408	0.353786	0.000021
 681	6.7660e+01	6.7611	5.313784	0.000278	2.784544	0.471714	0.000028
 682	6.7760e+01	6.7725	5.335373	0.000217	2.170306	0.367660	0.000022
 683	6.7859e+01	6.7816	5.360628	0.000254	2.538849	0.430093	0.000025
 684	6.7959e+01	6.7904	5.378958	0.000184	1.842713	0.312164	0.000018
 685	6.8058e+01	6.8052	5.404214	0.000254	2.538849	0.430093	0.000025
 686	6.8157e+01	6.8113	5.423359	0.000192	1.924611	0.326038	0.000019
 687	6.8257e+01	6.8213	5.445355	0.000221	2.211255	0.374597	0.000022
 688	6.8356e+01	6.8311	5.464908	0.000197	1.965560	0.332975	0.000020
 689	6.8456e+01	6.8404	5.486497	0.000217	2.170306	0.367660	0.000022
 690	6.8555e+01	6.8506	5.503605	0.000172	1.719865	0.291353	0.000017
 691	6.8655e+01	6.8604	5.528453	0.000250	2.497900	0.423156	0.000025
 692	6.8754e+01	6.8713	5.550857	0.000225	2.252205	0.381534	0.000023
 693	6.8854e+01	6.8816	5.567965	0.000172	1.719865	0.291353	0.000017
 694	6.8954e+01	6.8904	5.586703	0.000188	1.883662	0.319101	0.000019
 695	6.9053e+01	6.9012	5.607478	0.000209	2.088408	0.353786	0.000021
 696	6.9153e+01	6.9100	5.625808	0.000184	1.842713	0.312164	0.000018
 697	6.9252e+01	6.9201	5.647397	0.000217	2.170306	0.367660	0.000022
 698	6.9352e+01	6.9332	5.664506	0.000172	1.719865	0.291353	0.000017
 699	6.9451e+01	6.9389	5.684873	0.000205	2.047459	0.346849	0.000020
 700	6.9550e+01	6.9519	5.705240	0.000205	2.047459	0.346849	0.000020
 701	6.9650e+01	6.9610	5.723163	0.000180	1.801764	0.305227	0.000018
 702	6.9749e+01	6.9698	5.745974	0.000229	2.293154	0.388471	0.000023
 703	6.9849e+01	6.9761	5.767971	0.000221	2.211255	0.374597	0.000022
 704	6.9948e+01	6.9897	5.791189	0.000233	2.334103	0.395408	0.000023
 705	7.0048e+01	6.9991	5.809519	0.000184	1.842713	0.312164	0.000018
 706	7.0147e+01	7.0125	5.830701	0.000213	2.129357	0.360723	0.000021
 707	7.0247e+01	7.0218	5.849032	0.000184	1.842713	0.312164	0.000018
 708	7.0347e+01	7.0290	5.871436	0.000225	2.252205	0.381534	0.000023
 709	7.0446e+01	7.0394	5.895061	0.000238	2.375052	0.402345	0.000024
 710	7.0546e+01	7.0513	5.915429	0.000205	2.047459	0.346849	0.000020
 711	7.0645e+01	7.0595	5.937425	0.000221	2.211255	0.374597	0.000022
 712	7.0745e+01	7.0683	5.959014	0.000217	2.170306	0.367660	0.000022
 713	7.0844e+01	7.0803	5.978974	0.000201	2.006509	0.339912	0.000020
 714	7.0944e+01	7.0876	5.998119	0.000192	1.924611	0.326038	0.000019
 715	7.1043e+01	7.1041	6.023374	0.000254	2.538849	0.430093	0.000025
 716	7.1142e+01	7.1094	6.042519	0.000192	1.924611	0.326038	0.000019
 717	7.1242e+01	7.1219	6.067775	0.000254	2.538849	0.430093	0.000025
 718	7.1341e+01	7.1302	6.088549	0.000209	2.088408	0.353786	0.000021
 719	7.1441e+01	7.1409	6.108509	0.000201	2.006509	0.339912	0.000020
 720	7.1540e+01	7.1501	6.128876	0.000205	2.047459	0.346849	0.000020
 721	7.1640e+01	7.1566	6.152095	0.000233	2.334103	0.395408	0.000023
 722	7.1740e+01	7.1685	6.173684	0.000217	2.170306	0.367660	0.000022
 723	7.1839e+01	7.1793	6.192014	0.000184	1.842713	0.312164	0.000018
 724	7.1939e+01	7.1887	6.214011	0.000221	2.211255	0.374597	0.000022
 725	7.2038e+01	7.1986	6.234378	0.000205	2.047459	0.346849	0.000020
 726	7.2138e+01	7.2075	6.255560	0.000213	2.129357	0.360723	0.000021
 727	7.2237e+01	7.2204	6.277556	0.000221	2.211255	0.374597	0.000022
 728	7.2337e+01	7.2290	6.296294	0.000188	1.883662	0.319101	0.000019
 729	7.2436e+01	7.2405	6.320327	0.000242	2.416001	0.409282	0.000024
 730	7.2535e+01	7.2523	6.341916	0.000217	2.170306	0.367660	0.000022
 731	7.2635e+01	7.2592	6.364727	0.000229	2.293154	0.388471	0.000023
 732	7.2734e+01	7.2707	6.384687	0.000201	2.006509	0.339912	0.000020
 733	7.2834e+01	7.2785	6.403018	0.000184	1.842713	0.312164	0.000018
 734	7.2933e+01	7.2905	6.427051	0.000242	2.416001	0.409282	0.000024
 735	7.3033e+01	7.2978	6.447011	0.000201	2.006509	0.339912	0.000020
 736	7.3132e+01	7.3060	6.467378	0.000205	2.047459	0.346849	0.000020
 737	7.3232e+01	7.3183	6.493040	0.000258	2.579798	0.437030	0.000026
 738	7.3332e+01	7.3286	6.510963	0.000180	1.801764	0.305227	0.000018
 739	7.3431e+01	7.3379	6.536626	0.000258	2.579798	0.437030	0.000026
 740	7.3531e+01	7.3460	6.561066	0.000246	2.456950	0.416219	0.000025
 741	7.3630e+01	7.3577	6.577360	0.000164	1.637967	0.277479	0.000016
 742	7.3730e+01	7.3702	6.600986	0.000238	2.375052	0.402345	0.000024
 743	7.3829e+01	7.3785	6.621353	0.000205	2.047459	0.346849	0.000020
 744	7.3928e+01	7.3885	6.644979	0.000238	2.375052	0.402345	0.000024
 745	7.4028e+01	7.4001	6.666568	0.000217	2.170306	0.367660	0.000022
 746	7.4127e+01	7.4097	6.688565	0.000221	2.211255	0.374597	0.000022
 747	7.4227e+01	7.4194	6.708932	0.000205	2.047459	0.346849	0.000020
 748	7.4326e+01	7.4273	6.727670	0.000188	1.883662	0.319101	0.000019
 749	7.4426e+01	7.4372	6.752517	0.000250	2.497900	0.423156	0.000025
 750	7.4525e+01	7.4490	6.773292	0.000209	2.088408	0.353786	0.000021
 751	7.4625e+01	7.4573	6.793659	0.000205	2.047459	0.346849	0.000020
 752	7.4725e+01	7.4700	6.813212	0.000197	1.965560	0.332975	0.000020
 753	7.4824e+01	7.4786	6.834393	0.000213	2.129357	0.360723	0.000021
 754	7.4924e+01	7.4854	6.856797	0.000225	2.252205	0.381534	0.000023
 755	7.5023e+01	7.4996	6.875942	0.000192	1.924611	0.326038	0.000019
 756	7.5123e+01	7.5078	6.895495	0.000197	1.965560	0.332975	0.000020
 757	7.5222e+01	7.5194	6.914232	0.000188	1.883662	0.319101	0.000019
 758	7.5322e+01	7.5277	6.932970	0.000188	1.883662	0.319101	0.000019
 759	7.5421e+01	7.5357	6.952930	0.000201	2.006509	0.339912	0.000020
 760	7.5520e+01	7.5465	6.973704	0.000209	2.088408	0.353786	0.000021
 761	7.5620e+01	7.5586	6.992442	0.000188	1.883662	0.319101	0.000019
 762	7.5719e+01	7.5687	7.012809	0.000205	2.047459	0.346849	0.000020
 763	7.5819e+01	7.5760	7.030732	0.000180	1.801764	0.305227	0.000018
 764	7.5918e+01	7.5868	7.051914	0.000213	2.129357	0.360723	0.000021
 765	7.6018e+01	7.5952	7.069837	0.000180	1.801764	0.305227	0.000018
 766	7.6118e+01	7.6074	7.090204	0.000205	2.047459	0.346849	0.000020
 767	7.6217e+01	7.6165	7.111794	0.000217	2.170306	0.367660	0.000022
 768	7.6317e+01	7.6277	7.132161	0.000205	2.047459	0.346849	0.000020
 769	7.6416e+01	7.6348	7.156194	0.000242	2.416001	0.409282	0.000024
 770	7.6516e+01	7.6475	7.174932	0.000188	1.883662	0.319101	0.000019
 771	7.6615e+01	7.6559	7.201409	0.000266	2.661696	0.450904	0.000027
 772	7.6715e+01	7.6701	7.221369	0.000201	2.006509	0.339912	0.000020
 773	7.6814e+01	7.6768	7.245402	0.000242	2.416001	0.409282	0.000024
 774	7.6913e+01	7.6865	7.269028	0.000238	2.375052	0.402345	0.000024
 775	7.7013e+01	7.6960	7.293876	0.000250	2.497900	0.423156	0.000025
 776	7.7112e+01	7.7090	7.313836	0.000201	2.006509	0.339912	0.000020
 777	7.7212e+01	7.7177	7.336647	0.000229	2.293154	0.388471	0.000023
 778	7.7311e+01	7.7259	7.356606	0.000201	2.006509	0.339912	0.000020
 779	7.7411e+01	7.7370	7.385528	0.000291	2.907391	0.492525	0.000029
 780	7.7510e+01	7.7454	7.409561	0.000242	2.416001	0.409282	0.000024
 781	7.7610e+01	7.7562	7.436446	0.000270	2.702645	0.457841	0.000027
 782	7.7710e+01	7.7661	7.462923	0.000266	2.661696	0.450904	0.000027
 783	7.7809e+01	7.7740	7.481661	0.000188	1.883662	0.319101	0.000019
 784	7.7909e+01	7.7868	7.504879	0.000233	2.334103	0.395408	0.000023
 785	7.8008e+01	7.7958	7.524839	0.000201	2.006509	0.339912	0.000020
 786	7.8108e+01	7.8069	7.552131	0.000274	2.743595	0.464778	0.000027
 787	7.8207e+01	7.8156	7.573720	0.000217	2.170306	0.367660	0.000022
 788	7.8306e+01	7.8237	7.597753	0.000242	2.416001	0.409282	0.000024
 789	7.8406e+01	7.8377	7.620564	0.000229	2.293154	0.388471	0.000023
 790	7.8505e+01	7.8458	7.638488	0.000180	1.801764	0.305227	0.000018
 791	7.8605e+01	7.8550	7.664557	0.000262	2.620747	0.443967	0.000026
 792	7.8704e+01	7.8647	7.684517	0.000201	2.006509	0.339912	0.000020
 793	7.8804e+01	7.8752	7.705292	0.000209	2.088408	0.353786	0.000021
 794	7.8903e+01	7.8865	7.728510	0.000233	2.334103	0.395408	0.000023
 795	7.9003e+01	7.8955	7.749692	0.000213	2.129357	0.360723	0.000021
 796	7.9103e+01	7.9047	7.770059	0.000205	2.047459	0.346849	0.000020
 797	7.9202e+01	7.9142	7.794092	0.000242	2.416001	0.409282	0.000024
 798	7.9302e+01	7.9264	7.816089	0.000221	2.211255	0.374597	0.000022
 799	7.9401e+01	7.9356	7.835641	0.000197	1.965560	0.332975	0.000020
 800	7.9501e+01	7.9453	7.856008	0.000205	2.047459	0.346849	0.000020
 801	7.9600e+01	7.9549	7.879227	0.000233	2.334103	0.395408	0.000023
 802	7.9700e+01	7.9674	7.900409	0.000213	2.129357	0.360723	0.000021
 803	7.9799e+01	7.9783	7.920369	0.000201	2.006509	0.339912	0.000020
 804	7.9898e+01	7.9851	7.946031	0.000258	2.579798	0.437030	0.000026
 805	7.9998e+01	7.9949	7.964362	0.000184	1.842713	0.312164	0.000018
 806	8.0097e+01	8.0042	7.985951	0.000217	2.170306	0.367660	0.000022
 807	8.0197e+01	8.0148	8.011613	0.000258	2.579798	0.437030	0.000026
 808	8.0296e+01	8.0254	8.031573	0.000201	2.006509	0.339912	0.000020
 809	8.0396e+01	8.0338	8.053162	0.000217	2.170306	0.367660	0.000022
 810	8.0496e+01	8.0460	8.073937	0.000209	2.088408	0.353786	0.000021
 811	8.0595e+01	8.0529	8.097563	0.000238	2.375052	0.402345	0.000024
 812	8.0695e+01	8.0634	8.120781	0.000233	2.334103	0.395408	0.000023
 813	8.0794e+01	8.0759	8.141148	0.000205	2.047459	0.346849	0.000020
 814	8.0894e+01	8.0845	8.162330	0.000213	2.129357	0.360723	0.000021
 815	8.0993e+01	8.0930	8.180253	0.000180	1.801764	0.305227	0.000018
 816	8.1093e+01	8.1097	8.202657	0.000225	2.252205	0.381534	0.000023
 817	8.1192e+01	8.1145	8.227098	0.000246	2.456950	0.416219	0.000025
 818	8.1291e+01	8.1260	8.247872	0.000209	2.088408	0.353786	0.000021
 819	8.1391e+01	8.1348	8.268646	0.000209	2.088408	0.353786	0.000021
 820	8.1490e+01	8.1415	8.291458	0.000229	2.293154	0.388471	0.000023
 821	8.1590e+01	8.1548	8.309788	0.000184	1.842713	0.312164	0.000018
 822	8.1689e+01	8.1610	8.331785	0.000221	2.211255	0.374597	0.000022
 823	8.1789e+01	8.1732	8.350115	0.000184	1.842713	0.312164	0.000018
 824	8.1888e+01	8.1843	8.374556	0.000246	2.456950	0.416219	0.000025
 825	8.1988e+01	8.1936	8.394923	0.000205	2.047459	0.346849	0.000020
 826	8.2088e+01	8.2046	8.414882	0.000201	2.006509	0.339912	0.000020
 827	8.2187e+01	8.2123	8.438101	0.000233	2.334103	0.395408	0.000023
 828	8.2287e+01	8.2259	8.455617	0.000176	1.760814	0.298290	0.000018
 829	8.2386e+01	8.2341	8.479650	0.000242	2.416001	0.409282	0.000024
 830	8.2486e+01	8.2411	8.500424	0.000209	2.088408	0.353786	0.000021
 831	8.2585e+01	8.2556	8.522014	0.000217	2.170306	0.367660	0.000022
 832	8.2684e+01	8.2642	8.542788	0.000209	2.088408	0.353786	0.000021
 833	8.2784e+01	8.2757	8.565192	0.000225	2.252205	0.381534	0.000023
 834	8.2883e+01	8.2822	8.584744	0.000197	1.965560	0.332975	0.000020
 835	8.2983e+01	8.2941	8.605111	0.000205	2.047459	0.346849	0.000020
 836	8.3082e+01	8.3046	8.626701	0.000217	2.170306	0.367660	0.000022
 837	8.3182e+01	8.3139	8.648697	0.000221	2.211255	0.374597	0.000022
 838	8.3281e+01	8.3247	8.673138	0.000246	2.456950	0.416219	0.000025
 839	8.3381e+01	8.3339	8.695541	0.000225	2.252205	0.381534	0.000023
 840	8.3481e+01	8.3456	8.719167	0.000238	2.375052	0.402345	0.000024
 841	8.3580e+01	8.3510	8.738312	0.000192	1.924611	0.326038	0.000019
 842	8.3680e+01	8.3606	8.766012	0.000278	2.784544	0.471714	0.000028
 843	8.3779e+01	8.3732	8.788416	0.000225	2.252205	0.381534	0.000023
 844	8.3879e+01	8.3838	8.811634	0.000233	2.334103	0.395408	0.000023
 845	8.3978e+01	8.3936	8.833223	0.000217	2.170306	0.367660	0.000022
 846	8.4078e+01	8.4050	8.850739	0.000176	1.760814	0.298290	0.000018
 847	8.4177e+01	8.4132	8.879253	0.000287	2.866442	0.485588	0.000029
 848	8.4276e+01	8.4207	8.900435	0.000213	2.129357	0.360723	0.000021
 849	8.4376e+01	8.4333	8.921617	0.000213	2.129357	0.360723	0.000021
 850	8.4475e+01	8.4397	8.943206	0.000217	2.170306	0.367660	0.000022
 851	8.4575e+01	8.4528	8.969683	0.000266	2.661696	0.450904	0.000027
 852	8.4674e+01	8.4619	8.985162	0.000156	1.556069	0.263605	0.000016
 853	8.4774e+01	8.4722	9.007973	0.000229	2.293154	0.388471	0.000023
 854	8.4874e+01	8.4831	9.027118	0.000192	1.924611	0.326038	0.000019
 855	8.4973e+01	8.4942	9.049115	0.000221	2.211255	0.374597	0.000022
 856	8.5073e+01	8.5030	9.065001	0.000160	1.597018	0.270542	0.000016
 857	8.5172e+01	8.5126	9.085776	0.000209	2.088408	0.353786	0.000021
 858	8.5272e+01	8.5254	9.104106	0.000184	1.842713	0.312164	0.000018
 859	8.5371e+01	8.5316	9.125288	0.000213	2.129357	0.360723	0.000021
 860	8.5471e+01	8.5439	9.140360	0.000152	1.515119	0.256668	0.000015
 861	8.5570e+01	8.5537	9.164393	0.000242	2.416001	0.409282	0.000024
 862	8.5669e+01	8.5620	9.185982	0.000217	2.170306	0.367660	0.000022
 863	8.5769e+01	8.5736	9.200239	0.000143	1.433221	0.242794	0.000014
 864	8.5868e+01	8.5794	9.215311	0.000152	1.515119	0.256668	0.000015
 865	8.5968e+01	8.5908	9.235678	0.000205	2.047459	0.346849	0.000020
 866	8.6067e+01	8.6020	9.253193	0.000176	1.760814	0.298290	0.000018
 867	8.6167e+01	8.6124	9.270709	0.000176	1.760814	0.298290	0.000018
 868	8.6266e+01	8.6207	9.291484	0.000209	2.088408	0.353786	0.000021
 869	8.6366e+01	8.6316	9.307777	0.000164	1.637967	0.277479	0.000016
 870	8.6466e+01	8.6417	9.328959	0.000213	2.129357	0.360723	0.000021
 871	8.6565e+01	8.6518	9.346882	0.000180	1.801764	0.305227	0.000018
 872	8.6665e+01	8.6607	9.364805	0.000180	1.801764	0.305227	0.000018
 873	8.6764e+01	8.6726	9.385580	0.000209	2.088408	0.353786	0.000021
 874	8.6864e+01	8.6816	9.406354	0.000209	2.088408	0.353786	0.000021
 875	8.6963e+01	8.6922	9.428758	0.000225	2.252205	0.381534	0.000023
 876	8.7063e+01	8.7004	9.448310	0.000197	1.965560	0.332975	0.000020
 877	8.7162e+01	8.7122	9.466234	0.000180	1.801764	0.305227	0.000018
 878	8.7261e+01	8.7231	9.489452	0.000233	2.334103	0.395408	0.000023
 879	8.7361e+01	8.7311	9.509005	0.000197	1.965560	0.332975	0.000020
 880	8.7460e+01	8.7391	9.530594	0.000217	2.170306	0.367660	0.000022
 881	8.7560e+01	8.7507	9.551368	0.000209	2.088408	0.353786	0.000021
 882	8.7659e+01	8.7591	9.568477	0.000172	1.719865	0.291353	0.000017
 883	8.7759e+01	8.7695	9.588844	0.000205	2.047459	0.346849	0.000020
 884	8.7859e+01	8.7814	9.610025	0.000213	2.129357	0.360723	0.000021
 885	8.7958e+01	8.7929	9.629578	0.000197	1.965560	0.332975	0.000020
 886	8.8058e+01	8.8010	9.651167	0.000217	2.170306	0.367660	0.000022
 887	8.8157e+01	8.8115	9.670312	0.000192	1.924611	0.326038	0.000019
 888	8.8257e+01	8.8199	9.684569	0.000143	1.433221	0.242794	0.000014
 889	8.8356e+01	8.8293	9.707380	0.000229	2.293154	0.388471	0.000023
 890	8.8456e+01	8.8409	9.727340	0.000201	2.006509	0.339912	0.000020
 891	8.8555e+01	8.8501	9.745671	0.000184	1.842713	0.312164	0.000018
 892	8.8654e+01	8.8627	9.767667	0.000221	2.211255	0.374597	0.000022
 893	8.8754e+01	8.8711	9.784368	0.000168	1.678916	0.284416	0.000017
 894	8.8853e+01	8.8795	9.809216	0.000250	2.497900	0.423156	0.000025
 895	8.8953e+01	8.8927	9.830805	0.000217	2.170306	0.367660	0.000022
 896	8.9052e+01	8.8989	9.849136	0.000184	1.842713	0.312164	0.000018
 897	8.9152e+01	8.9079	9.865022	0.000160	1.597018	0.270542	0.000016
 898	8.9251e+01	8.9176	9.889870	0.000250	2.497900	0.423156	0.000025
 899	8.9351e+01	8.9297	9.905756	0.000160	1.597018	0.270542	0.000016
 900	8.9451e+01	8.9401	9.927345	0.000217	2.170306	0.367660	0.000022
 901	8.9550e+01	8.9484	9.951379	0.000242	2.416001	0.409282	0.000024
 902	8.9650e+01	8.9587	9.969302	0.000180	1.801764	0.305227	0.000018
 903	8.9749e+01	8.9698	9.990891	0.000217	2.170306	0.367660	0.000022
 904	8.9849e+01	8.9798	10.005962	0.000152	1.515119	0.256668	0.000015
 905	8.9948e+01	8.9902	10.030403	0.000246	2.456950	0.416219	0.000025
 906	9.0047e+01	8.9999	10.050363	0.000201	2.006509	0.339912	0.000020
 907	9.0147e+01	9.0097	10.070730	0.000205	2.047459	0.346849	0.000020
 908	9.0246e+01	9.0176	10.088653	0.000180	1.801764	0.305227	0.000018
 909	9.0346e+01	9.0283	10.112279	0.000238	2.375052	0.402345	0.000024
 910	9.0445e+01	9.0381	10.133868	0.000217	2.170306	0.367660	0.000022
 911	9.0545e+01	9.0510	10.150976	0.000172	1.719865	0.291353	0.000017
 912	9.0644e+01	9.0599	10.174195	0.000233	2.334103	0.395408	0.000023
 913	9.0744e+01	9.0698	10.193340	0.000192	1.924611	0.326038	0.000019
 914	9.0844e+01	9.0808	10.214522	0.000213	2.129357	0.360723	0.000021
 915	9.0943e+01	9.0874	10.234482	0.000201	2.006509	0.339912	0.000020
 916	9.1043e+01	9.1000	10.256885	0.000225	2.252205	0.381534	0.000023
 917	9.1142e+01	9.1092	10.276845	0.000201	2.006509	0.339912	0.000020
 918	9.1242e+01	9.1193	10.293546	0.000168	1.678916	0.284416	0.000017
 919	9.1341e+01	9.1309	10.314728	0.000213	2.129357	0.360723	0.000021
 920	9.1441e+01	9.1412	10.336725	0.000221	2.211255	0.374597	0.000022
 921	9.1540e+01	9.1480	10.354240	0.000176	1.760814	0.298290	0.000018
 922	9.1639e+01	9.1583	10.375015	0.000209	2.088408	0.353786	0.000021
 923	9.1739e+01	9.1694	10.389679	0.000147	1.474170	0.249731	0.000015
 924	9.1838e+01	9.1784	10.406788	0.000172	1.719865	0.291353	0.000017
 925	9.1938e+01	9.1850	10.430006	0.000233	2.334103	0.395408	0.000023
 926	9.2037e+01	9.1981	10.445892	0.000160	1.597018	0.270542	0.000016
 927	9.2137e+01	9.2081	10.465445	0.000197	1.965560	0.332975	0.000020
 928	9.2237e+01	9.2175	10.483368	0.000180	1.801764	0.305227	0.000018
 929	9.2336e+01	9.2271	10.501698	0.000184	1.842713	0.312164	0.000018
 930	9.2436e+01	9.2348	10.522065	0.000205	2.047459	0.346849	0.000020
 931	9.2535e+01	9.2474	10.540396	0.000184	1.842713	0.312164	0.000018
 932	9.2635e+01	9.2566	10.555875	0.000156	1.556069	0.263605	0.000016
 933	9.2734e+01	9.2658	10.575020	0.000192	1.924611	0.326038	0.000019
 934	9.2834e+01	9.2774	10.596202	0.000213	2.129357	0.360723	0.000021
 935	9.2933e+01	9.2886	10.614940	0.000188	1.883662	0.319101	0.000019
 936	9.3032e+01	9.2982	10.636529	0.000217	2.170306	0.367660	0.000022
 937	9.3132e+01	9.3079	10.657711	0.000213	2.129357	0.360723	0.000021
 938	9.3231e+01	9.3166	10.679707	0.000221	2.211255	0.374597	0.000022
 939	9.3331e+01	9.3266	10.704148	0.000246	2.456950	0.416219	0.000025
 940	9.3430e+01	9.3386	10.721663	0.000176	1.760814	0.298290	0.000018
 941	9.3530e+01	9.3488	10.742845	0.000213	2.129357	0.360723	0.000021
 942	9.3629e+01	9.3579	10.765656	0.000229	2.293154	0.388471	0.000023
 943	9.3729e+01	9.3668	10.784801	0.000192	1.924611	0.326038	0.000019
 944	9.3829e+01	9.3781	10.810057	0.000254	2.538849	0.430093	0.000025
 945	9.3928e+01	9.3851	10.834497	0.000246	2.456950	0.416219	0.000025
 946	9.4028e+01	9.3950	10.855272	0.000209	2.088408	0.353786	0.000021
 947	9.4127e+01	9.4080	10.876453	0.000213	2.129357	0.360723	0.000021
 948	9.4227e+01	9.4183	10.900079	0.000238	2.375052	0.402345	0.000024
 949	9.4326e+01	9.4279	10.922891	0.000229	2.293154	0.388471	0.000023
 950	9.4425e+01	9.4386	10.947331	0.000246	2.456950	0.416219	0.000025
 951	9.4525e+01	9.4452	10.970142	0.000229	2.293154	0.388471	0.000023
 952	9.4624e+01	9.4564	10.992546	0.000225	2.252205	0.381534	0.000023
 953	9.4724e+01	9.4653	11.014135	0.000217	2.170306	0.367660	0.000022
 954	9.4823e+01	9.4775	11.038576	0.000246	2.456950	0.416219	0.000025
 955	9.4923e+01	9.4878	11.056906	0.000184	1.842713	0.312164	0.000018
 956	9.5022e+01	9.4971	11.076459	0.000197	1.965560	0.332975	0.000020
 957	9.5122e+01	9.5058	11.100899	0.000246	2.456950	0.416219	0.000025
 958	9.5222e+01	9.5156	11.118415	0.000176	1.760814	0.298290	0.000018
 959	9.5321e+01	9.5255	11.143263	0.000250	2.497900	0.423156	0.000025
 960	9.5421e+01	9.5383	11.160371	0.000172	1.719865	0.291353	0.000017
 961	9.5520e+01	9.5447	11.184812	0.000246	2.456950	0.416219	0.000025
 962	9.5620e+01	9.5548	11.205179	0.000205	2.047459	0.346849	0.000020
 963	9.5719e+01	9.5658	11.223917	0.000188	1.883662	0.319101	0.000019
 964	9.5819e+01	9.5770	11.248765	0.000250	2.497900	0.423156	0.000025
 965	9.5918e+01	9.5859	11.269946	0.000213	2.129357	0.360723	0.000021
 966	9.6017e+01	9.5956	11.287462	0.000176	1.760814	0.298290	0.000018
 967	9.6117e+01	9.6076	11.309051	0.000217	2.170306	0.367660	0.000022
 968	9.6216e+01	9.6185	11.329011	0.000201	2.006509	0.339912	0.000020
 969	9.6316e+01	9.6271	11.351415	0.000225	2.252205	0.381534	0.000023
 970	9.6415e+01	9.6369	11.370967	0.000197	1.965560	0.332975	0.000020
 971	9.6515e+01	9.6473	11.391334	0.000205	2.047459	0.346849	0.000020
 972	9.6615e+01	9.6591	11.413331	0.000221	2.211255	0.374597	0.000022
 973	9.6714e+01	9.6643	11.431661	0.000184	1.842713	0.312164	0.000018
 974	9.6814e+01	9.6753	11.453658	0.000221	2.211255	0.374597	0.000022
 975	9.6913e+01	9.6851	11.475247	0.000217	2.170306	0.367660	0.000022
 976	9.7013e+01	9.6973	11.494799	0.000197	1.965560	0.332975	0.000020
 977	9.7112e+01	9.7043	11.518425	0.000238	2.375052	0.402345	0.000024
 978	9.7212e+01	9.7159	11.536348	0.000180	1.801764	0.305227	0.000018
 979	9.7311e+01	9.7266	11.553864	0.000176	1.760814	0.298290	0.000018
 980	9.7410e+01	9.7352	11.577897	0.000242	2.416001	0.409282	0.000024
 981	9.7510e+01	9.7431	11.597450	0.000197	1.965560	0.332975	0.000020
 982	9.7609e+01	9.7562	11.618224	0.000209	2.088408	0.353786	0.000021
 983	9.7709e+01	9.7657	11.638999	0.000209	2.088408	0.353786	0.000021
 984	9.7808e+01	9.7729	11.662217	0.000233	2.334103	0.395408	0.000023
 985	9.7908e+01	9.7852	11.682992	0.000209	2.088408	0.353786	0.000021
 986	9.8007e+01	9.7949	11.703359	0.000205	2.047459	0.346849	0.000020
 987	9.8107e+01	9.8054	11.724948	0.000217	2.170306	0.367660	0.000022
 988	9.8207e+01	9.8148	11.745315	0.000205	2.047459	0.346849	0.000020
 989	9.8306e+01	9.8248	11.765275	0.000201	2.006509	0.339912	0.000020
 990	9.8406e+01	9.8376	11.783198	0.000180	1.801764	0.305227	0.000018
 991	9.8505e+01	9.8452	11.804380	0.000213	2.129357	0.360723	0.000021
 992	9.8605e+01	9.8553	11.825562	0.000213	2.129357	0.360723	0.000021
 993	9.8704e+01	9.8633	11.844707	0.000192	1.924611	0.326038	0.000019
 994	9.8803e+01	9.8743	11.861408	0.000168	1.678916	0.284416	0.000017
 995	9.8903e+01	9.8843	11.887478	0.000262	2.620747	0.443967	0.000026
 996	9.9002e+01	9.8979	11.905808	0.000184	1.842713	0.312164	0.000018
 997	9.9102e+01	9.9039	11.923731	0.000180	1.801764	0.305227	0.000018
 998	9.9201e+01	9.9154	11.944506	0.000209	2.088408	0.353786	0.000021
 999	9.9301e+01	9.9232	11.964465	0.000201	2.006509	0.339912	0.000020
1000	9.9400e+01	9.9335	11.980759	0.000164	1.637967	0.277479	0.000016
1001	9.9500e+01	9.9438	12.004792	0.000242	2.416001	0.409282	0.000024
1002	9.9600e+01	9.9561	12.026381	0.000217	2.170306	0.367660	0.000022
1003	9.9699e+01	9.9649	12.047563	0.000213	2.129357	0.360723	0.000021
1004	9.9799e+01	9.9726	12.067523	0.000201	2.006509	0.339912	0.000020
1005	9.9898e+01	9.9831	12.092371	0.000250	2.497900	0.423156	0.000025
1006	9.9998e+01	9.9927	12.109887	0.000176	1.760814	0.298290	0.000018
1007	1.0010e+02	9.9854	12.100110	0.000098	0.982780	0.166487	-0.000010
1008	1.0020e+02	9.9728	12.087483	0.000127	1.269424	0.215046	-0.000013
1009	1.0030e+02	9.9649	12.071597	0.000160	1.597018	0.270542	-0.000016
1010	1.0040e+02	9.9522	12.056932	0.000147	1.474170	0.249731	-0.000015
1011	1.0050e+02	9.9438	12.046749	0.000102	1.023729	0.173424	-0.000010
1012	1.0059e+02	9.9350	12.034936	0.000119	1.187526	0.201172	-0.000012
1013	1.0069e+02	9.9238	12.013754	0.000213	2.129357	0.360723	-0.000021
1014	1.0079e+02	9.9146	12.004385	0.000094	0.941831	0.159550	-0.000009
1015	1.0089e+02	9.9040	11.990943	0.000135	1.351323	0.228920	-0.000014
1016	1.0099e+02	9.8959	11.977908	0.000131	1.310374	0.221983	-0.000013
1017	1.0109e+02	9.8865	11.959985	0.000180	1.801764	0.305227	-0.000018
1018	1.0119e+02	9.8743	11.948986	0.000111	1.105628	0.187298	-0.000011
1019	1.0129e+02	9.8700	11.930249	0.000188	1.883662	0.319101	-0.000019
1020	1.0139e+02	9.8563	11.919250	0.000111	1.105628	0.187298	-0.000011
1021	1.0149e+02	9.8456	11.901735	0.000176	1.760814	0.298290	-0.000018
1022	1.0159e+02	9.8328	11.880960	0.000209	2.088408	0.353786	-0.000021
1023	1.0169e+02	9.8251	11.864666	0.000164	1.637967	0.277479	-0.000016
1024	1.0179e+02	9.8148	11.847151	0.000176	1.760814	0.298290	-0.000018
1025	1.0189e+02	9.8054	11.827598	0.000197	1.965560	0.332975	-0.000020
1026	1.0199e+02	9.7938	11.812934	0.000147	1.474170	0.249731	-0.000015
1027	1.0209e+02	9.7861	11.795418	0.000176	1.760814	0.298290	-0.000018
1028	1.0219e+02	9.7732	11.775866	0.000197	1.965560	0.332975	-0.000020
1029	1.0229e+02	9.7665	11.759979	0.000160	1.597018	0.270542	-0.000016
1030	1.0239e+02	9.7544	11.740020	0.000201	2.006509	0.339912	-0.000020
1031	1.0248e+02	9.7468	11.719245	0.000209	2.088408	0.353786	-0.000021
1032	1.0258e+02	9.7370	11.702952	0.000164	1.637967	0.277479	-0.000016
1033	1.0268e+02	9.7248	11.678511	0.000246	2.456950	0.416219	-0.000025
1034	1.0278e+02	9.7144	11.668327	0.000102	1.023729	0.173424	-0.000010
1035	1.0288e+02	9.7046	11.647553	0.000209	2.088408	0.353786	-0.000021
1036	1.0298e+02	9.6973	11.624742	0.000229	2.293154	0.388471	-0.000023
1037	1.0308e+02	9.6875	11.610892	0.000139	1.392272	0.235857	-0.000014
1038	1.0318e+02	9.6771	11.589303	0.000217	2.170306	0.367660	-0.000022
1039	1.0328e+02	9.6646	11.573824	0.000156	1.556069	0.263605	-0.000016
1040	1.0338e+02	9.6558	11.555494	0.000184	1.842713	0.312164	-0.000018
1041	1.0348e+02	9.6462	11.542051	0.000135	1.351323	0.228920	-0.000014
1042	1.0358e+02	9.6355	11.520055	0.000221	2.211255	0.374597	-0.000022
1043	1.0368e+02	9.6259	11.505390	0.000147	1.474170	0.249731	-0.000015
1044	1.0378e+02	9.6173	11.485431	0.000201	2.006509	0.339912	-0.000020
1045	1.0388e+02	9.6033	11.473210	0.000123	1.228475	0.208109	-0.000012
1046	1.0398e+02	9.5959	11.451214	0.000221	2.211255	0.374597	-0.000022
1047	1.0408e+02	9.5866	11.437364	0.000139	1.392272	0.235857	-0.000014
1048	1.0418e+02	9.5738	11.416182	0.000213	2.129357	0.360723	-0.000021
1049	1.0428e+02	9.5660	11.403962	0.000123	1.228475	0.208109	-0.000012
1050	1.0438e+02	9.5571	11.386039	0.000180	1.801764	0.305227	-0.000018
1051	1.0447e+02	9.5459	11.366487	0.000197	1.965560	0.332975	-0.000020
1052	1.0457e+02	9.5374	11.349786	0.000168	1.678916	0.284416	-0.000017
1053	1.0467e+02	9.5270	11.331048	0.000188	1.883662	0.319101	-0.000019
1054	1.0477e+02	9.5158	11.312310	0.000188	1.883662	0.319101	-0.000019
1055	1.0487e+02	9.5078	11.296424	0.000160	1.597018	0.270542	-0.000016
1056	1.0497e+02	9.4957	11.279723	0.000168	1.678916	0.284416	-0.000017
1057	1.0507e+02	9.4856	11.260985	0.000188	1.883662	0.319101	-0.000019
1058	1.0517e+02	9.4784	11.245506	0.000156	1.556069	0.263605	-0.000016
1059	1.0527e+02	9.4691	11.223102	0.000225	2.252205	0.381534	-0.000023
1060	1.0537e+02	9.4571	11.208030	0.000152	1.515119	0.256668	-0.000015
1061	1.0547e+02	9.4470	11.192144	0.000160	1.597018	0.270542	-0.000016
1062	1.0557e+02	9.4370	11.173814	0.000184	1.842713	0.312164	-0.000018
1063	1.0567e+02	9.4281	11.155483	0.000184	1.842713	0.312164	-0.000018
1064	1.0577e+02	9.4193	11.137967	0.000176	1.760814	0.298290	-0.000018
1065	1.0587e+02	9.4082	11.124932	0.000131	1.310374	0.221983	-0.000013
1066	1.0597e+02	9.3964	11.102936	0.000221	2.211255	0.374597	-0.000022
1067	1.0607e+02	9.3880	11.083791	0.000192	1.924611	0.326038	-0.000019
1068	1.0617e+02	9.3767	11.071978	0.000119	1.187526	0.201172	-0.000012
1069	1.0627e+02	9.3677	11.053647	0.000184	1.842713	0.312164	-0.000018
1070	1.0637e+02	9.3585	11.033688	0.000201	2.006509	0.339912	-0.000020
1071	1.0647e+02	9.3469	11.015357	0.000184	1.842713	0.312164	-0.000018
1072	1.0656e+02	9.3384	10.999471	0.000160	1.597018	0.270542	-0.000016
1073	1.0666e+02	9.3268	10.978696	0.000209	2.088408	0.353786	-0.000021
1074	1.0676e+02	9.3167	10.964439	0.000143	1.433221	0.242794	-0.000014
1075	1.0686e+02	9.3085	10.944480	0.000201	2.006509	0.339912	-0.000020
1076	1.0696e+02	9.3002	10.929408	0.000152	1.515119	0.256668	-0.000015
1077	1.0706e+02	9.2865	10.912707	0.000168	1.678916	0.284416	-0.000017
1078	1.0716e+02	9.2774	10.895191	0.000176	1.760814	0.298290	-0.000018
1079	1.0726e+02	9.2700	10.876453	0.000188	1.883662	0.319101	-0.000019
1080	1.0736e+02	9.2561	10.862196	0.000143	1.433221	0.242794	-0.000014
1081	1.0746e+02	9.2487	10.845903	0.000164	1.637967	0.277479	-0.000016
1082	1.0756e+02	9.2400	10.828387	0.000176	1.760814	0.298290	-0.000018
1083	1.0766e+02	9.2294	10.807205	0.000213	2.129357	0.360723	-0.000021
1084	1.0776e+02	9.2191	10.790504	0.000168	1.678916	0.284416	-0.000017
1085	1.0786e+02	9.2079	10.776655	0.000139	1.392272	0.235857	-0.000014
1086	1.0796e+02	9.1995	10.755880	0.000209	2.088408	0.353786	-0.000021
1087	1.0806e+02	9.1901	10.738364	0.000176	1.760814	0.298290	-0.000018
1088	1.0816e+02	9.1785	10.717183	0.000213	2.129357	0.360723	-0.000021
1089	1.0826e+02	9.1699	10.701296	0.000160	1.597018	0.270542	-0.000016
1090	1.0836e+02	9.1592	10.682558	0.000188	1.883662	0.319101	-0.000019
1091	1.0845e+02	9.1476	10.658525	0.000242	2.416001	0.409282	-0.000024
1092	1.0855e+02	9.1391	10.642232	0.000164	1.637967	0.277479	-0.000016
1093	1.0865e+02	9.1277	10.619828	0.000225	2.252205	0.381534	-0.000023
1094	1.0875e+02	9.1162	10.603534	0.000164	1.637967	0.277479	-0.000016
1095	1.0885e+02	9.1085	10.580723	0.000229	2.293154	0.388471	-0.000023
1096	1.0895e+02	9.0978	10.564836	0.000160	1.597018	0.270542	-0.000016
1097	1.0905e+02	9.0885	10.546099	0.000188	1.883662	0.319101	-0.000019
1098	1.0915e+02	9.0809	10.524510	0.000217	2.170306	0.367660	-0.000022
1099	1.0925e+02	9.0699	10.504550	0.000201	2.006509	0.339912	-0.000020
1100	1.0935e+02	9.0576	10.486219	0.000184	1.842713	0.312164	-0.000018
1101	1.0945e+02	9.0479	10.465852	0.000205	2.047459	0.346849	-0.000020
1102	1.0955e+02	9.0390	10.445485	0.000205	2.047459	0.346849	-0.000020
1103	1.0965e+02	9.0305	10.429599	0.000160	1.597018	0.270542	-0.000016
1104	1.0975e+02	9.0186	10.410046	0.000197	1.965560	0.332975	-0.000020
1105	1.0985e+02	9.0096	10.395789	0.000143	1.433221	0.242794	-0.000014
1106	1.0995e+02	9.0018	10.377051	0.000188	1.883662	0.319101	-0.000019
1107	1.1005e+02	8.9881	10.362795	0.000143	1.433221	0.242794	-0.000014
1108	1.1015e+02	8.9783	10.345279	0.000176	1.760814	0.298290	-0.000018
1109	1.1025e+02	8.9685	10.331022	0.000143	1.433221	0.242794	-0.000014
1110	1.1035e+02	8.9609	10.314728	0.000164	1.637967	0.277479	-0.000016
1111	1.1044e+02	8.9492	10.297212	0.000176	1.760814	0.298290	-0.000018
1112	1.1054e+02	8.9407	10.277660	0.000197	1.965560	0.332975	-0.000020
1113	1.1064e+02	8.9310	10.265032	0.000127	1.269424	0.215046	-0.000013
1114	1.1074e+02	8.9201	10.247924	0.000172	1.719865	0.291353	-0.000017
1115	1.1084e+02	8.9091	10.230408	0.000176	1.760814	0.298290	-0.000018
1116	1.1094e+02	8.8972	10.221039	0.000094	0.941831	0.159550	-0.000009
1117	1.1104e+02	8.8892	10.202302	0.000188	1.883662	0.319101	-0.000019
1118	1.1114e+02	8.8804	10.185600	0.000168	1.678916	0.284416	-0.000017
1119	1.1124e+02	8.8685	10.172973	0.000127	1.269424	0.215046	-0.000013
1120	1.1134e+02	8.8593	10.155457	0.000176	1.760814	0.298290	-0.000018
1121	1.1144e+02	8.8482	10.137534	0.000180	1.801764	0.305227	-0.000018
1122	1.1154e+02	8.8415	10.121240	0.000164	1.637967	0.277479	-0.000016
1123	1.1164e+02	8.8312	10.105354	0.000160	1.597018	0.270542	-0.000016
1124	1.1174e+02	8.8200	10.091097	0.000143	1.433221	0.242794	-0.000014
1125	1.1184e+02	8.8091	10.073174	0.000180	1.801764	0.305227	-0.000018
1126	1.1194e+02	8.7998	10.054436	0.000188	1.883662	0.319101	-0.000019
1127	1.1204e+02	8.7917	10.039365	0.000152	1.515119	0.256668	-0.000015
1128	1.1214e+02	8.7833	10.021441	0.000180	1.801764	0.305227	-0.000018
1129	1.1224e+02	8.7689	10.001889	0.000197	1.965560	0.332975	-0.000020
1130	1.1234e+02	8.7636	9.986003	0.000160	1.597018	0.270542	-0.000016
1131	1.1244e+02	8.7529	9.967265	0.000188	1.883662	0.319101	-0.000019
1132	1.1253e+02	8.7412	9.952193	0.000152	1.515119	0.256668	-0.000015
1133	1.1263e+02	8.7305	9.935492	0.000168	1.678916	0.284416	-0.000017
1134	1.1273e+02	8.7208	9.916347	0.000192	1.924611	0.326038	-0.000019
1135	1.1283e+02	8.7092	9.897202	0.000192	1.924611	0.326038	-0.000019
1136	1.1293e+02	8.7013	9.878057	0.000192	1.924611	0.326038	-0.000019
1137	1.1303e+02	8.6902	9.861356	0.000168	1.678916	0.284416	-0.000017
1138	1.1313e+02	8.6827	9.843840	0.000176	1.760814	0.298290	-0.000018
1139	1.1323e+02	8.6706	9.827139	0.000168	1.678916	0.284416	-0.000017
1140	1.1333e+02	8.6595	9.807587	0.000197	1.965560	0.332975	-0.000020
1141	1.1343e+02	8.6523	9.788442	0.000192	1.924611	0.326038	-0.000019
1142	1.1353e+02	8.6439	9.771740	0.000168	1.678916	0.284416	-0.000017
1143	1.1363e+02	8.6318	9.755447	0.000164	1.637967	0.277479	-0.000016
1144	1.1373e+02	8.6231	9.738746	0.000168	1.678916	0.284416	-0.000017
1145	1.1383e+02	8.6133	9.718786	0.000201	2.006509	0.339912	-0.000020
1146	1.1393e+02	8.6011	9.699641	0.000192	1.924611	0.326038	-0.000019
1147	1.1403e+02	8.5913	9.682532	0.000172	1.719865	0.291353	-0.000017
1148	1.1413e+02	8.5831	9.665017	0.000176	1.760814	0.298290	-0.000018
1149	1.1423e+02	8.5725	9.646686	0.000184	1.842713	0.312164	-0.000018
1150	1.1433e+02	8.5628	9.630393	0.000164	1.637967	0.277479	-0.000016
1151	1.1442e+02	8.5513	9.611655	0.000188	1.883662	0.319101	-0.000019
1152	1.1452e+02	8.5429	9.595768	0.000160	1.597018	0.270542	-0.000016
1153	1.1462e+02	8.5337	9.574994	0.000209	2.088408	0.353786	-0.000021
1154	1.1472e+02	8.5233	9.554627	0.000205	2.047459	0.346849	-0.000020
1155	1.1482e+02	8.5128	9.538741	0.000160	1.597018	0.270542	-0.000016
1156	1.1492e+02	8.5032	9.518781	0.000201	2.006509	0.339912	-0.000020
1157	1.1502e+02	8.4924	9.503302	0.000156	1.556069	0.263605	-0.000016
1158	1.1512e+02	8.4866	9.486601	0.000168	1.678916	0.284416	-0.000017
1159	1.1522e+02	8.4729	9.463789	0.000229	2.293154	0.388471	-0.000023
1160	1.1532e+02	8.4628	9.445052	0.000188	1.883662	0.319101	-0.000019
1161	1.1542e+02	8.4534	9.428758	0.000164	1.637967	0.277479	-0.000016
1162	1.1552e+02	8.4424	9.405947	0.000229	2.293154	0.388471	-0.000023
1163	1.1562e+02	8.4337	9.390875	0.000152	1.515119	0.256668	-0.000015
1164	1.1572e+02	8.4215	9.369693	0.000213	2.129357	0.360723	-0.000021
1165	1.1582e+02	8.4132	9.351770	0.000180	1.801764	0.305227	-0.000018
1166	1.1592e+02	8.4013	9.331811	0.000201	2.006509	0.339912	-0.000020
1167	1.1602e+02	8.3936	9.315517	0.000164	1.637967	0.277479	-0.000016
1168	1.1612e+02	8.3821	9.298816	0.000168	1.678916	0.284416	-0.000017
1169	1.1622e+02	8.3740	9.278856	0.000201	2.006509	0.339912	-0.000020
1170	1.1632e+02	8.3643	9.263784	0.000152	1.515119	0.256668	-0.000015
1171	1.1642e+02	8.3554	9.239344	0.000246	2.456950	0.416219	-0.000025
1172	1.1651e+02	8.3430	9.225901	0.000135	1.351323	0.228920	-0.000014
1173	1.1661e+02	8.3325	9.206349	0.000197	1.965560	0.332975	-0.000020
1174	1.1671e+02	8.3224	9.188426	0.000180	1.801764	0.305227	-0.000018
1175	1.1681e+02	8.3142	9.172540	0.000160	1.597018	0.270542	-0.000016
1176	1.1691e+02	8.3012	9.159097	0.000135	1.351323	0.228920	-0.000014
1177	1.1701e+02	8.2917	9.139545	0.000197	1.965560	0.332975	-0.000020
1178	1.1711e+02	8.2831	9.123658	0.000160	1.597018	0.270542	-0.000016
1179	1.1721e+02	8.2741	9.105735	0.000180	1.801764	0.305227	-0.000018
1180	1.1731e+02	8.2618	9.086998	0.000188	1.883662	0.319101	-0.000019
1181	1.1741e+02	8.2525	9.070297	0.000168	1.678916	0.284416	-0.000017
1182	1.1751e+02	8.2487	9.055225	0.000152	1.515119	0.256668	-0.000015
1183	1.1761e+02	8.2352	9.036080	0.000192	1.924611	0.326038	-0.000019
1184	1.1771e+02	8.2236	9.020601	0.000156	1.556069	0.263605	-0.000016
1185	1.1781e+02	8.2148	8.999012	0.000217	2.170306	0.367660	-0.000022
1186	1.1791e+02	8.2049	8.984755	0.000143	1.433221	0.242794	-0.000014
1187	1.1801e+02	8.1937	8.962758	0.000221	2.211255	0.374597	-0.000022
1188	1.1811e+02	8.1840	8.943613	0.000192	1.924611	0.326038	-0.000019
1189	1.1821e+02	8.1741	8.924875	0.000188	1.883662	0.319101	-0.000019
1190	1.1831e+02	8.1644	8.907360	0.000176	1.760814	0.298290	-0.000018
1191	1.1841e+02	8.1550	8.885770	0.000217	2.170306	0.367660	-0.000022
1192	1.1850e+02	8.1461	8.866218	0.000197	1.965560	0.332975	-0.000020
1193	1.1860e+02	8.1323	8.843814	0.000225	2.252205	0.381534	-0.000023
1194	1.1870e+02	8.1235	8.822632	0.000213	2.129357	0.360723	-0.000021
1195	1.1880e+02	8.1142	8.805117	0.000176	1.760814	0.298290	-0.000018
1196	1.1890e+02	8.1047	8.781898	0.000233	2.334103	0.395408	-0.000023
1197	1.1900e+02	8.0930	8.760716	0.000213	2.129357	0.360723	-0.000021
1198	1.1910e+02	8.0869	8.738312	0.000225	2.252205	0.381534	-0.000023
1199	1.1920e+02	8.0748	8.719575	0.000188	1.883662	0.319101	-0.000019
1200	1.1930e+02	8.0645	8.695949	0.000238	2.375052	0.402345	-0.000024
1201	1.1940e+02	8.0537	8.674360	0.000217	2.170306	0.367660	-0.000022
1202	1.1950e+02	8.0412	8.652770	0.000217	2.170306	0.367660	-0.000022
1203	1.1960e+02	8.0338	8.629145	0.000238	2.375052	0.402345	-0.000024
1204	1.1970e+02	8.0222	8.608370	0.000209	2.088408	0.353786	-0.000021
1205	1.1980e+02	8.0132	8.585152	0.000233	2.334103	0.395408	-0.000023
1206	1.1990e+02	8.0035	8.572117	0.000131	1.310374	0.221983	-0.000013
1207	1.2000e+02	7.9956	8.547676	0.000246	2.456950	0.416219	-0.000025
1208	1.2010e+02	7.9835	8.532197	0.000156	1.556069	0.263605	-0.000016
1209	1.2020e+02	7.9731	8.508164	0.000242	2.416001	0.409282	-0.000024
1210	1.2030e+02	7.9663	8.488611	0.000197	1.965560	0.332975	-0.000020
1211	1.2039e+02	7.9552	8.464171	0.000246	2.456950	0.416219	-0.000025
1212	1.2049e+02	7.9470	8.447470	0.000168	1.678916	0.284416	-0.000017
1213	1.2059e+02	7.9346	8.428732	0.000188	1.883662	0.319101	-0.000019
1214	1.2069e+02	7.9248	8.407550	0.000213	2.129357	0.360723	-0.000021
1215	1.2079e+02	7.9137	8.388405	0.000192	1.924611	0.326038	-0.000019
1216	1.2089e+02	7.9073	8.369260	0.000192	1.924611	0.326038	-0.000019
1217	1.2099e+02	7.8967	8.348486	0.000209	2.088408	0.353786	-0.000021
1218	1.2109e+02	7.8841	8.330970	0.000176	1.760814	0.298290	-0.000018
1219	1.2119e+02	7.8755	8.310195	0.000209	2.088408	0.353786	-0.000021
1220	1.2129e+02	7.8651	8.291458	0.000188	1.883662	0.319101	-0.000019
1221	1.2139e+02	7.8545	8.269868	0.000217	2.170306	0.367660	-0.000022
1222	1.2149e+02	7.8445	8.247872	0.000221	2.211255	0.374597	-0.000022
1223	1.2159e+02	7.8359	8.231171	0.000168	1.678916	0.284416	-0.000017
1224	1.2169e+02	7.8236	8.212841	0.000184	1.842713	0.312164	-0.000018
1225	1.2179e+02	7.8137	8.189622	0.000233	2.334103	0.395408	-0.000023
1226	1.2189e+02	7.8058	8.170070	0.000197	1.965560	0.332975	-0.000020
1227	1.2199e+02	7.7984	8.149295	0.000209	2.088408	0.353786	-0.000021
1228	1.2209e+02	7.7863	8.128521	0.000209	2.088408	0.353786	-0.000021
1229	1.2219e+02	7.7793	8.108153	0.000205	2.047459	0.346849	-0.000020
1230	1.2229e+02	7.7659	8.090230	0.000180	1.801764	0.305227	-0.000018
1231	1.2239e+02	7.7566	8.070678	0.000197	1.965560	0.332975	-0.000020
1232	1.2248e+02	7.7444	8.050311	0.000205	2.047459	0.346849	-0.000020
1233	1.2258e+02	7.7352	8.029944	0.000205	2.047459	0.346849	-0.000020
1234	1.2268e+02	7.7280	8.010391	0.000197	1.965560	0.332975	-0.000020
1235	1.2278e+02	7.7163	7.992061	0.000184	1.842713	0.312164	-0.000018
1236	1.2288e+02	7.7063	7.970064	0.000221	2.211255	0.374597	-0.000022
1237	1.2298e+02	7.6964	7.948475	0.000217	2.170306	0.367660	-0.000022
1238	1.2308e+02	7.6855	7.928923	0.000197	1.965560	0.332975	-0.000020
1239	1.2318e+02	7.6768	7.909778	0.000192	1.924611	0.326038	-0.000019
1240	1.2328e+02	7.6654	7.892669	0.000172	1.719865	0.291353	-0.000017
1241	1.2338e+02	7.6577	7.871080	0.000217	2.170306	0.367660	-0.000022
1242	1.2348e+02	7.6472	7.851120	0.000201	2.006509	0.339912	-0.000020
1243	1.2358e+02	7.6373	7.831975	0.000192	1.924611	0.326038	-0.000019
1244	1.2368e+02	7.6296	7.814460	0.000176	1.760814	0.298290	-0.000018
1245	1.2378e+02	7.6153	7.792870	0.000217	2.170306	0.367660	-0.000022
1246	1.2388e+02	7.6060	7.773725	0.000192	1.924611	0.326038	-0.000019
1247	1.2398e+02	7.5986	7.753358	0.000205	2.047459	0.346849	-0.000020
1248	1.2408e+02	7.5861	7.734213	0.000192	1.924611	0.326038	-0.000019
1249	1.2418e+02	7.5783	7.714253	0.000201	2.006509	0.339912	-0.000020
1250	1.2428e+02	7.5686	7.694293	0.000201	2.006509	0.339912	-0.000020
1251	1.2438e+02	7.5547	7.675963	0.000184	1.842713	0.312164	-0.000018
1252	1.2447e+02	7.5452	7.651522	0.000246	2.456950	0.416219	-0.000025
1253	1.2457e+02	7.5349	7.634821	0.000168	1.678916	0.284416	-0.000017
1254	1.2467e+02	7.5282	7.616491	0.000184	1.842713	0.312164	-0.000018
1255	1.2477e+02	7.5165	7.594495	0.000221	2.211255	0.374597	-0.000022
1256	1.2487e+02	7.5066	7.574942	0.000197	1.965560	0.332975	-0.000020
1257	1.2497e+02	7.4979	7.552946	0.000221	2.211255	0.374597	-0.000022
1258	1.2507e+02	7.4890	7.528912	0.000242	2.416001	0.409282	-0.000024
1259	1.2517e+02	7.4767	7.505287	0.000238	2.375052	0.402345	-0.000024
1260	1.2527e+02	7.4699	7.485327	0.000201	2.006509	0.339912	-0.000020
1261	1.2537e+02	7.4585	7.465774	0.000197	1.965560	0.332975	-0.000020
1262	1.2547e+02	7.4471	7.441741	0.000242	2.416001	0.409282	-0.000024
1263	1.2557e+02	7.4390	7.422596	0.000192	1.924611	0.326038	-0.000019
1264	1.2567e+02	7.4287	7.400192	0.000225	2.252205	0.381534	-0.000023
1265	1.2577e+02	7.4192	7.377381	0.000229	2.293154	0.388471	-0.000023
1266	1.2587e+02	7.4087	7.353755	0.000238	2.375052	0.402345	-0.000024
1267	1.2597e+02	7.3984	7.333795	0.000201	2.006509	0.339912	-0.000020
1268	1.2607e+02	7.3878	7.311391	0.000225	2.252205	0.381534	-0.000023
1269	1.2617e+02	7.3804	7.291024	0.000205	2.047459	0.346849	-0.000020
1270	1.2627e+02	7.3682	7.268213	0.000229	2.293154	0.388471	-0.000023
1271	1.2636e+02	7.3586	7.249068	0.000192	1.924611	0.326038	-0.000019
1272	1.2646e+02	7.3523	7.232774	0.000164	1.637967	0.277479	-0.000016
1273	1.2656e+02	7.3367	7.209556	0.000233	2.334103	0.395408	-0.000023
1274	1.2666e+02	7.3291	7.190003	0.000197	1.965560	0.332975	-0.000020
1275	1.2676e+02	7.3158	7.175746	0.000143	1.433221	0.242794	-0.000014
1276	1.2686e+02	7.3087	7.155379	0.000205	2.047459	0.346849	-0.000020
1277	1.2696e+02	7.3009	7.137456	0.000180	1.801764	0.305227	-0.000018
1278	1.2706e+02	7.2926	7.119940	0.000176	1.760814	0.298290	-0.000018
1279	1.2716e+02	7.2795	7.102425	0.000176	1.760814	0.298290	-0.000018
1280	1.2726e+02	7.2697	7.082058	0.000205	2.047459	0.346849	-0.000020
1281	1.2736e+02	7.2594	7.062098	0.000201	2.006509	0.339912	-0.000020
1282	1.2746e+02	7.2485	7.047433	0.000147	1.474170	0.249731	-0.000015
1283	1.2756e+02	7.2398	7.030732	0.000168	1.678916	0.284416	-0.000017
1284	1.2766e+02	7.2295	7.011180	0.000197	1.965560	0.332975	-0.000020
1285	1.2776e+02	7.2195	6.995294	0.000160	1.597018	0.270542	-0.000016
1286	1.2786e+02	7.2082	6.975741	0.000197	1.965560	0.332975	-0.000020
1287	1.2796e+02	7.2000	6.961077	0.000147	1.474170	0.249731	-0.000015
1288	1.2806e+02	7.1896	6.942339	0.000188	1.883662	0.319101	-0.000019
1289	1.2816e+02	7.1783	6.920343	0.000221	2.211255	0.374597	-0.000022
1290	1.2826e+02	7.1674	6.903234	0.000172	1.719865	0.291353	-0.000017
1291	1.2835e+02	7.1611	6.883274	0.000201	2.006509	0.339912	-0.000020
1292	1.2845e+02	7.1486	6.865351	0.000180	1.801764	0.305227	-0.000018
1293	1.2855e+02	7.1398	6.842948	0.000225	2.252205	0.381534	-0.000023
1294	1.2865e+02	7.1297	6.823395	0.000197	1.965560	0.332975	-0.000020
1295	1.2875e+02	7.1208	6.803843	0.000197	1.965560	0.332975	-0.000020
1296	1.2885e+02	7.1087	6.783883	0.000201	2.006509	0.339912	-0.000020
1297	1.2895e+02	7.0996	6.769219	0.000147	1.474170	0.249731	-0.000015
1298	1.2905e+02	7.0898	6.745185	0.000242	2.416001	0.409282	-0.000024
1299	1.2915e+02	7.0789	6.725633	0.000197	1.965560	0.332975	-0.000020
1300	1.2925e+02	7.0692	6.707302	0.000184	1.842713	0.312164	-0.000018
1301	1.2935e+02	7.0605	6.686935	0.000205	2.047459	0.346849	-0.000020
1302	1.2945e+02	7.0493	6.664939	0.000221	2.211255	0.374597	-0.000022
1303	1.2955e+02	7.0410	6.646201	0.000188	1.883662	0.319101	-0.000019
1304	1.2965e+02	7.0290	6.624612	0.000217	2.170306	0.367660	-0.000022
1305	1.2975e+02	7.0199	6.605874	0.000188	1.883662	0.319101	-0.000019
1306	1.2985e+02	7.0104	6.583470	0.000225	2.252205	0.381534	-0.000023
1307	1.2995e+02	6.9995	6.563103	0.000205	2.047459	0.346849	-0.000020
1308	1.3005e+02	6.9900	6.545995	0.000172	1.719865	0.291353	-0.000017
1309	1.3015e+02	6.9808	6.526442	0.000197	1.965560	0.332975	-0.000020
1310	1.3025e+02	6.9715	6.504039	0.000225	2.252205	0.381534	-0.000023
1311	1.3034e+02	6.9604	6.486523	0.000176	1.760814	0.298290	-0.000018
1312	1.3044e+02	6.9515	6.469007	0.000176	1.760814	0.298290	-0.000018
1313	1.3054e+02	6.9418	6.448233	0.000209	2.088408	0.353786	-0.000021
1314	1.3064e+02	6.9275	6.427051	0.000213	2.129357	0.360723	-0.000021
1315	1.3074e+02	6.9213	6.407091	0.000201	2.006509	0.339912	-0.000020
1316	1.3084e+02	6.9119	6.386317	0.000209	2.088408	0.353786	-0.000021
1317	1.3094e+02	6.9013	6.366764	0.000197	1.965560	0.332975	-0.000020
1318	1.3104e+02	6.8909	6.345990	0.000209	2.088408	0.353786	-0.000021
1319	1.3114e+02	6.8830	6.324400	0.000217	2.170306	0.367660	-0.000022
1320	1.3124e+02	6.8724	6.306070	0.000184	1.842713	0.312164	-0.000018
1321	1.3134e+02	6.8636	6.284888	0.000213	2.129357	0.360723	-0.000021
1322	1.3144e+02	6.8542	6.264928	0.000201	2.006509	0.339912	-0.000020
1323	1.3154e+02	6.8444	6.247820	0.000172	1.719865	0.291353	-0.000017
1324	1.3164e+02	6.8328	6.222972	0.000250	2.497900	0.423156	-0.000025
1325	1.3174e+02	6.8191	6.206271	0.000168	1.678916	0.284416	-0.000017
1326	1.3184e+02	6.8123	6.181831	0.000246	2.456950	0.416219	-0.000025
1327	1.3194e+02	6.8014	6.161463	0.000205	2.047459	0.346849	-0.000020
1328	1.3204e+02	6.7892	6.140689	0.000209	2.088408	0.353786	-0.000021
1329	1.3214e+02	6.7831	6.118285	0.000225	2.252205	0.381534	-0.000023
1330	1.3224e+02	6.7712	6.098733	0.000197	1.965560	0.332975	-0.000020
1331	1.3234e+02	6.7623	6.079180	0.000197	1.965560	0.332975	-0.000020
1332	1.3243e+02	6.7513	6.053518	0.000258	2.579798	0.437030	-0.000026
1333	1.3253e+02	6.7391	6.037224	0.000164	1.637967	0.277479	-0.000016
1334	1.3263e+02	6.7312	6.014820	0.000225	2.252205	0.381534	-0.000023
1335	1.3273e+02	6.7211	5.997304	0.000176	1.760814	0.298290	-0.000018
1336	1.3283e+02	6.7115	5.975308	0.000221	2.211255	0.374597	-0.000022
1337	1.3293e+02	6.7011	5.955348	0.000201	2.006509	0.339912	-0.000020
1338	1.3303e+02	6.6920	5.933759	0.000217	2.170306	0.367660	-0.000022
1339	1.3313e+02	6.6822	5.915836	0.000180	1.801764	0.305227	-0.000018
1340	1.3323e+02	6.6730	5.897098	0.000188	1.883662	0.319101	-0.000019
1341	1.3333e+02	6.6628	5.876731	0.000205	2.047459	0.346849	-0.000020
1342	1.3343e+02	6.6506	5.854734	0.000221	2.211255	0.374597	-0.000022
1343	1.3353e+02	6.6429	5.838441	0.000164	1.637967	0.277479	-0.000016
1344	1.3363e+02	6.6331	5.822147	0.000164	1.637967	0.277479	-0.000016
1345	1.3373e+02	6.6212	5.797707	0.000246	2.456950	0.416219	-0.000025
1346	1.3383e+02	6.6101	5.782635	0.000152	1.515119	0.256668	-0.000015
1347	1.3393e+02	6.6014	5.759416	0.000233	2.334103	0.395408	-0.000023
1348	1.3403e+02	6.5925	5.741901	0.000176	1.760814	0.298290	-0.000018
1349	1.3413e+02	6.5809	5.723163	0.000188	1.883662	0.319101	-0.000019
1350	1.3423e+02	6.5728	5.704018	0.000192	1.924611	0.326038	-0.000019
1351	1.3432e+02	6.5610	5.686502	0.000176	1.760814	0.298290	-0.000018
1352	1.3442e+02	6.5490	5.662876	0.000238	2.375052	0.402345	-0.000024
1353	1.3452e+02	6.5417	5.642916	0.000201	2.006509	0.339912	-0.000020
1354	1.3462e+02	6.5318	5.624993	0.000180	1.801764	0.305227	-0.000018
1355	1.3472e+02	6.5209	5.602182	0.000229	2.293154	0.388471	-0.000023
1356	1.3482e+02	6.5133	5.580186	0.000221	2.211255	0.374597	-0.000022
1357	1.3492e+02	6.5035	5.563892	0.000164	1.637967	0.277479	-0.000016
1358	1.3502e+02	6.4936	5.539451	0.000246	2.456950	0.416219	-0.000025
1359	1.3512e+02	6.4851	5.516233	0.000233	2.334103	0.395408	-0.000023
1360	1.3522e+02	6.4731	5.494236	0.000221	2.211255	0.374597	-0.000022
1361	1.3532e+02	6.4620	5.470203	0.000242	2.416001	0.409282	-0.000024
1362	1.3542e+02	6.4497	5.446577	0.000238	2.375052	0.402345	-0.000024
1363	1.3552e+02	6.4431	5.424988	0.000217	2.170306	0.367660	-0.000022
1364	1.3562e+02	6.4298	5.402584	0.000225	2.252205	0.381534	-0.000023
1365	1.3572e+02	6.4233	5.378551	0.000242	2.416001	0.409282	-0.000024
1366	1.3582e+02	6.4138	5.353296	0.000254	2.538849	0.430093	-0.000025
1367	1.3592e+02	6.4047	5.328448	0.000250	2.497900	0.423156	-0.000025
1368	1.3602e+02	6.3953	5.306044	0.000225	2.252205	0.381534	-0.000023
1369	1.3612e+02	6.3836	5.282011	0.000242	2.416001	0.409282	-0.000024
1370	1.3622e+02	6.3763	5.260014	0.000221	2.211255	0.374597	-0.000022
1371	1.3631e+02	6.3642	5.234352	0.000258	2.579798	0.437030	-0.000026
1372	1.3641e+02	6.3530	5.211541	0.000229	2.293154	0.388471	-0.000023
1373	1.3651e+02	6.3412	5.189544	0.000221	2.211255	0.374597	-0.000022
1374	1.3661e+02	6.3341	5.164696	0.000250	2.497900	0.423156	-0.000025
1375	1.3671e+02	6.3244	5.146773	0.000180	1.801764	0.305227	-0.000018
1376	1.3681e+02	6.3175	5.124777	0.000221	2.211255	0.374597	-0.000022
1377	1.3691e+02	6.3017	5.102780	0.000221	2.211255	0.374597	-0.000022
1378	1.3701e+02	6.2951	5.082006	0.000209	2.088408	0.353786	-0.000021
1379	1.3711e+02	6.2853	5.060009	0.000221	2.211255	0.374597	-0.000022
1380	1.3721e+02	6.2725	5.035569	0.000246	2.456950	0.416219	-0.000025
1381	1.3731e+02	6.2658	5.014794	0.000209	2.088408	0.353786	-0.000021
1382	1.3741e+02	6.2545	4.995242	0.000197	1.965560	0.332975	-0.000020
1383	1.3751e+02	6.2470	4.972431	0.000229	2.293154	0.388471	-0.000023
1384	1.3761e+02	6.2324	4.950027	0.000225	2.252205	0.381534	-0.000023
1385	1.3771e+02	6.2276	4.925179	0.000250	2.497900	0.423156	-0.000025
1386	1.3781e+02	6.2144	4.906034	0.000192	1.924611	0.326038	-0.000019
1387	1.3791e+02	6.2057	4.883223	0.000229	2.293154	0.388471	-0.000023
1388	1.3801e+02	6.1948	4.862448	0.000209	2.088408	0.353786	-0.000021
1389	1.3811e+02	6.1846	4.840452	0.000221	2.211255	0.374597	-0.000022
1390	1.3821e+02	6.1770	4.818862	0.000217	2.170306	0.367660	-0.000022
1391	1.3831e+02	6.1631	4.794014	0.000250	2.497900	0.423156	-0.000025
1392	1.3840e+02	6.1553	4.772425	0.000217	2.170306	0.367660	-0.000022
1393	1.3850e+02	6.1440	4.749207	0.000233	2.334103	0.395408	-0.000023
1394	1.3860e+02	6.1364	4.731691	0.000176	1.760814	0.298290	-0.000018
1395	1.3870e+02	6.1250	4.706436	0.000254	2.538849	0.430093	-0.000025
1396	1.3880e+02	6.1179	4.685661	0.000209	2.088408	0.353786	-0.000021
1397	1.3890e+02	6.1044	4.662036	0.000238	2.375052	0.402345	-0.000024
1398	1.3900e+02	6.0940	4.638817	0.000233	2.334103	0.395408	-0.000023
1399	1.3910e+02	6.0847	4.618857	0.000201	2.006509	0.339912	-0.000020
1400	1.3920e+02	6.0752	4.591158	0.000278	2.784544	0.471714	-0.000028
1401	1.3930e+02	6.0647	4.574050	0.000172	1.719865	0.291353	-0.000017
1402	1.3940e+02	6.0545	4.550831	0.000233	2.334103	0.395408	-0.000023
1403	1.3950e+02	6.0438	4.529649	0.000213	2.129357	0.360723	-0.000021
1404	1.3960e+02	6.0340	4.503579	0.000262	2.620747	0.443967	-0.000026
1405	1.3970e+02	6.0284	4.488508	0.000152	1.515119	0.256668	-0.000015
1406	1.3980e+02	6.0140	4.465696	0.000229	2.293154	0.388471	-0.000023
1407	1.3990e+02	6.0043	4.442071	0.000238	2.375052	0.402345	-0.000024
1408	1.4000e+02	5.9948	4.418445	0.000238	2.375052	0.402345	-0.000024
1409	1.4010e+02	5.9870	4.401336	0.000172	1.719865	0.291353	-0.000017
1410	1.4020e+02	5.9754	4.379340	0.000221	2.211255	0.374597	-0.000022
1411	1.4029e+02	5.9647	4.356121	0.000233	2.334103	0.395408	-0.000023
1412	1.4039e+02	5.9547	4.334125	0.000221	2.211255	0.374597	-0.000022
1413	1.4049e+02	5.9473	4.311721	0.000225	2.252205	0.381534	-0.000023
1414	1.4059e+02	5.9344	4.290132	0.000217	2.170306	0.367660	-0.000022
1415	1.4069e+02	5.9283	4.267728	0.000225	2.252205	0.381534	-0.000023
1416	1.4079e+02	5.9174	4.246953	0.000209	2.088408	0.353786	-0.000021
1417	1.4089e+02	5.9061	4.223328	0.000238	2.375052	0.402345	-0.000024
1418	1.4099e+02	5.8939	4.204182	0.000192	1.924611	0.326038	-0.000019
1419	1.4109e+02	5.8874	4.182186	0.000221	2.211255	0.374597	-0.000022
1420	1.4119e+02	5.8761	4.159375	0.000229	2.293154	0.388471	-0.000023
1421	1.4129e+02	5.8648	4.135342	0.000242	2.416001	0.409282	-0.000024
1422	1.4139e+02	5.8557	4.115789	0.000197	1.965560	0.332975	-0.000020
1423	1.4149e+02	5.8447	4.090127	0.000258	2.579798	0.437030	-0.000026
1424	1.4159e+02	5.8409	4.064871	0.000254	2.538849	0.430093	-0.000025
1425	1.4169e+02	5.8251	4.045319	0.000197	1.965560	0.332975	-0.000020
1426	1.4179e+02	5.8196	4.021693	0.000238	2.375052	0.402345	-0.000024
1427	1.4189e+02	5.8041	3.997252	0.000246	2.456950	0.416219	-0.000025
1428	1.4199e+02	5.7970	3.970368	0.000270	2.702645	0.457841	-0.000027
1429	1.4209e+02	5.7874	3.949593	0.000209	2.088408	0.353786	-0.000021
1430	1.4219e+02	5.7800	3.925560	0.000242	2.416001	0.409282	-0.000024
1431	1.4228e+02	5.7662	3.905193	0.000205	2.047459	0.346849	-0.000020
1432	1.4238e+02	5.7580	3.877901	0.000274	2.743595	0.464778	-0.000027
1433	1.4248e+02	5.7464	3.851424	0.000266	2.661696	0.450904	-0.000027
1434	1.4258e+02	5.7369	3.832279	0.000192	1.924611	0.326038	-0.000019
1435	1.4268e+02	5.7276	3.805394	0.000270	2.702645	0.457841	-0.000027
1436	1.4278e+02	5.7172	3.779324	0.000262	2.620747	0.443967	-0.000026
1437	1.4288e+02	5.7061	3.754069	0.000254	2.538849	0.430093	-0.000025
1438	1.4298e+02	5.6975	3.736146	0.000180	1.801764	0.305227	-0.000018
1439	1.4308e+02	5.6885	3.712520	0.000238	2.375052	0.402345	-0.000024
1440	1.4318e+02	5.6780	3.692560	0.000201	2.006509	0.339912	-0.000020
1441	1.4328e+02	5.6668	3.672600	0.000201	2.006509	0.339912	-0.000020
1442	1.4338e+02	5.6594	3.651419	0.000213	2.129357	0.360723	-0.000021
1443	1.4348e+02	5.6486	3.629422	0.000221	2.211255	0.374597	-0.000022
1444	1.4358e+02	5.6373	3.611499	0.000180	1.801764	0.305227	-0.000018
1445	1.4368e+02	5.6279	3.589910	0.000217	2.170306	0.367660	-0.000022
1446	1.4378e+02	5.6177	3.568321	0.000217	2.170306	0.367660	-0.000022
1447	1.4388e+02	5.6072	3.547139	0.000213	2.129357	0.360723	-0.000021
1448	1.4398e+02	5.5972	3.525957	0.000213	2.129357	0.360723	-0.000021
1449	1.4408e+02	5.5854	3.508034	0.000180	1.801764	0.305227	-0.000018
1450	1.4418e+02	5.5782	3.486852	0.000213	2.129357	0.360723	-0.000021
1451	1.4428e+02	5.5662	3.468522	0.000184	1.842713	0.312164	-0.000018
1452	1.4437e+02	5.5563	3.451006	0.000176	1.760814	0.298290	-0.000018
1453	1.4447e+02	5.5473	3.429824	0.000213	2.129357	0.360723	-0.000021
1454	1.4457e+02	5.5378	3.411087	0.000188	1.883662	0.319101	-0.000019
1455	1.4467e+02	5.5294	3.391127	0.000201	2.006509	0.339912	-0.000020
1456	1.4477e+02	5.5161	3.368316	0.000229	2.293154	0.388471	-0.000023
1457	1.4487e+02	5.5080	3.349985	0.000184	1.842713	0.312164	-0.000018
1458	1.4497e+02	5.4989	3.327174	0.000229	2.293154	0.388471	-0.000023
1459	1.4507e+02	5.4881	3.304363	0.000229	2.293154	0.388471	-0.000023
1460	1.4517e+02	5.4790	3.285625	0.000188	1.883662	0.319101	-0.000019
1461	1.4527e+02	5.4689	3.262406	0.000233	2.334103	0.395408	-0.000023
1462	1.4537e+02	5.4564	3.241632	0.000209	2.088408	0.353786	-0.000021
1463	1.4547e+02	5.4473	3.218821	0.000229	2.293154	0.388471	-0.000023
1464	1.4557e+02	5.4376	3.197639	0.000213	2.129357	0.360723	-0.000021
1465	1.4567e+02	5.4269	3.175643	0.000221	2.211255	0.374597	-0.000022
1466	1.4577e+02	5.4202	3.154461	0.000213	2.129357	0.360723	-0.000021
1467	1.4587e+02	5.4073	3.133279	0.000213	2.129357	0.360723	-0.000021
1468	1.4597e+02	5.3991	3.110875	0.000225	2.252205	0.381534	-0.000023
1469	1.4607e+02	5.3866	3.088471	0.000225	2.252205	0.381534	-0.000023
1470	1.4617e+02	5.3780	3.064845	0.000238	2.375052	0.402345	-0.000024
1471	1.4626e+02	5.3690	3.041627	0.000233	2.334103	0.395408	-0.000023
1472	1.4636e+02	5.3591	3.019630	0.000221	2.211255	0.374597	-0.000022
1473	1.4646e+02	5.3514	2.998041	0.000217	2.170306	0.367660	-0.000022
1474	1.4656e+02	5.3397	2.978489	0.000197	1.965560	0.332975	-0.000020
1475	1.4666e+02	5.3292	2.956492	0.000221	2.211255	0.374597	-0.000022
1476	1.4676e+02	5.3186	2.933274	0.000233	2.334103	0.395408	-0.000023
1477	1.4686e+02	5.3112	2.911277	0.000221	2.211255	0.374597	-0.000022
1478	1.4696e+02	5.2998	2.890910	0.000205	2.047459	0.346849	-0.000020
1479	1.4706e+02	5.2892	2.867692	0.000233	2.334103	0.395408	-0.000023
1480	1.4716e+02	5.2788	2.840807	0.000270	2.702645	0.457841	-0.000027
1481	1.4726e+02	5.2695	2.823699	0.000172	1.719865	0.291353	-0.000017
1482	1.4736e+02	5.2606	2.800073	0.000238	2.375052	0.402345	-0.000024
1483	1.4746e+02	5.2485	2.779706	0.000205	2.047459	0.346849	-0.000020
1484	1.4756e+02	5.2375	2.757302	0.000225	2.252205	0.381534	-0.000023
1485	1.4766e+02	5.2285	2.730824	0.000266	2.661696	0.450904	-0.000027
1486	1.4776e+02	5.2215	2.711679	0.000192	1.924611	0.326038	-0.000019
1487	1.4786e+02	5.2094	2.689276	0.000225	2.252205	0.381534	-0.000023
1488	1.4796e+02	5.2016	2.667686	0.000217	2.170306	0.367660	-0.000022
1489	1.4806e+02	5.1896	2.646097	0.000217	2.170306	0.367660	-0.000022
1490	1.4816e+02	5.1778	2.620435	0.000258	2.579798	0.437030	-0.000026
1491	1.4825e+02	5.1682	2.598845	0.000217	2.170306	0.367660	-0.000022
1492	1.4835e+02	5.1577	2.576034	0.000229	2.293154	0.388471	-0.000023
1493	1.4845e+02	5.1507	2.552816	0.000233	2.334103	0.395408	-0.000023
1494	1.4855e+02	5.1425	2.534893	0.000180	1.801764	0.305227	-0.000018
1495	1.4865e+02	5.1333	2.506786	0.000283	2.825493	0.478651	-0.000028
1496	1.4875e+02	5.1199	2.484382	0.000225	2.252205	0.381534	-0.000023
1497	1.4885e+02	5.1099	2.463200	0.000213	2.129357	0.360723	-0.000021
1498	1.4895e+02	5.0985	2.438760	0.000246	2.456950	0.416219	-0.000025
1499	1.4905e+02	5.0910	2.418800	0.000201	2.006509	0.339912	-0.000020
1500	1.4915e+02	5.0808	2.391101	0.000278	2.784544	0.471714	-0.000028
1501	1.4925e+02	5.0702	2.373178	0.000180	1.801764	0.305227	-0.000018
1502	1.4935e+02	5.0618	2.348737	0.000246	2.456950	0.416219	-0.000025
1503	1.4945e+02	5.0505	2.325519	0.000233	2.334103	0.395408	-0.000023
1504	1.4955e+02	5.0401	2.304744	0.000209	2.088408	0.353786	-0.000021
1505	1.4965e+02	5.0294	2.281933	0.000229	2.293154	0.388471	-0.000023
1506	1.4975e+02	5.0216	2.259122	0.000229	2.293154	0.388471	-0.000023
1507	1.4985e+02	5.0114	2.236718	0.000225	2.252205	0.381534	-0.000023
1508	1.4995e+02	4.9999	2.213907	0.000229	2.293154	0.388471	-0.000023
1509	1.5005e+02	4.9906	2.194354	0.000197	1.965560	0.332975	-0.000020
1510	1.5015e+02	4.9800	2.173987	0.000205	2.047459	0.346849	-0.000020
1511	1.5025e+02	4.9696	2.152805	0.000213	2.129357	0.360723	-0.000021
1512	1.5034e+02	4.9619	2.132846	0.000201	2.006509	0.339912	-0.000020
1513	1.5044e+02	4.9526	2.111664	0.000213	2.129357	0.360723	-0.000021
1514	1.5054e+02	4.9426	2.088038	0.000238	2.375052	0.402345	-0.000024
1515	1.5064e+02	4.9346	2.063597	0.000246	2.456950	0.416219	-0.000025
1516	1.5074e+02	4.9221	2.047304	0.000164	1.637967	0.277479	-0.000016
1517	1.5084e+02	4.9111	2.022456	0.000250	2.497900	0.423156	-0.000025
1518	1.5094e+02	4.9012	1.999645	0.000229	2.293154	0.388471	-0.000023
1519	1.5104e+02	4.8885	1.980092	0.000197	1.965560	0.332975	-0.000020
1520	1.5114e+02	4.8805	1.958910	0.000213	2.129357	0.360723	-0.000021
1521	1.5124e+02	4.8708	1.936914	0.000221	2.211255	0.374597	-0.000022
1522	1.5134e+02	4.8619	1.915732	0.000213	2.129357	0.360723	-0.000021
1523	1.5144e+02	4.8523	1.890884	0.000250	2.497900	0.423156	-0.000025
1524	1.5154e+02	4.8412	1.864407	0.000266	2.661696	0.450904	-0.000027
1525	1.5164e+02	4.8277	1.840374	0.000242	2.416001	0.409282	-0.000024
1526	1.5174e+02	4.8220	1.817970	0.000225	2.252205	0.381534	-0.000023
1527	1.5184e+02	4.8129	1.792307	0.000258	2.579798	0.437030	-0.000026
1528	1.5194e+02	4.7980	1.769496	0.000229	2.293154	0.388471	-0.000023
1529	1.5204e+02	4.7925	1.740167	0.000295	2.948340	0.499462	-0.000029
1530	1.5214e+02	4.7815	1.716134	0.000242	2.416001	0.409282	-0.000024
1531	1.5224e+02	4.7724	1.692101	0.000242	2.416001	0.409282	-0.000024
1532	1.5233e+02	4.7620	1.668068	0.000242	2.416001	0.409282	-0.000024
1533	1.5243e+02	4.7526	1.640368	0.000278	2.784544	0.471714	-0.000028
1534	1.5253e+02	4.7402	1.613077	0.000274	2.743595	0.464778	-0.000027
1535	1.5263e+02	4.7323	1.589043	0.000242	2.416001	0.409282	-0.000024
1536	1.5273e+02	4.7222	1.563381	0.000258	2.579798	0.437030	-0.000026
1537	1.5283e+02	4.7126	1.536903	0.000266	2.661696	0.450904	-0.000027
1538	1.5293e+02	4.7031	1.510019	0.000270	2.702645	0.457841	-0.000027
1539	1.5303e+02	4.6924	1.486393	0.000238	2.375052	0.402345	-0.000024
1540	1.5313e+02	4.6817	1.459916	0.000266	2.661696	0.450904	-0.000027
1541	1.5323e+02	4.6714	1.437105	0.000229	2.293154	0.388471	-0.000023
1542	1.5333e+02	4.6653	1.413479	0.000238	2.375052	0.402345	-0.000024
1543	1.5343e+02	4.6523	1.387816	0.000258	2.579798	0.437030	-0.000026
1544	1.5353e+02	4.6436	1.362968	0.000250	2.497900	0.423156	-0.000025
1545	1.5363e+02	4.6326	1.338120	0.000250	2.497900	0.423156	-0.000025
1546	1.5373e+02	4.6203	1.316531	0.000217	2.170306	0.367660	-0.000022
1547	1.5383e+02	4.6136	1.294127	0.000225	2.252205	0.381534	-0.000023
1548	1.5393e+02	4.6034	1.266428	0.000278	2.784544	0.471714	-0.000028
1549	1.5403e+02	4.5927	1.240765	0.000258	2.579798	0.437030	-0.000026
1550	1.5413e+02	4.5831	1.219991	0.000209	2.088408	0.353786	-0.000021
1551	1.5422e+02	4.5736	1.195958	0.000242	2.416001	0.409282	-0.000024
1552	1.5432e+02	4.5630	1.170295	0.000258	2.579798	0.437030	-0.000026
1553	1.5442e+02	4.5525	1.148299	0.000221	2.211255	0.374597	-0.000022
1554	1.5452e+02	4.5417	1.123451	0.000250	2.497900	0.423156	-0.000025
1555	1.5462e+02	4.5325	1.097788	0.000258	2.579798	0.437030	-0.000026
1556	1.5472e+02	4.5221	1.075792	0.000221	2.211255	0.374597	-0.000022
1557	1.5482e+02	4.5141	1.046463	0.000295	2.948340	0.499462	-0.000029
1558	1.5492e+02	4.5033	1.026503	0.000201	2.006509	0.339912	-0.000020
1559	1.5502e+02	4.4927	1.000026	0.000266	2.661696	0.450904	-0.000027
1560	1.5512e+02	4.4831	0.976807	0.000233	2.334103	0.395408	-0.000023
1561	1.5522e+02	4.4747	0.952367	0.000246	2.456950	0.416219	-0.000025
1562	1.5532e+02	4.4645	0.927519	0.000250	2.497900	0.423156	-0.000025
1563	1.5542e+02	4.4518	0.900634	0.000270	2.702645	0.457841	-0.000027
1564	1.5552e+02	4.4427	0.877416	0.000233	2.334103	0.395408	-0.000023
1565	1.5562e+02	4.4334	0.853383	0.000242	2.416001	0.409282	-0.000024
1566	1.5572e+02	4.4233	0.829349	0.000242	2.416001	0.409282	-0.000024
1567	1.5582e+02	4.4111	0.804502	0.000250	2.497900	0.423156	-0.000025
1568	1.5592e+02	4.3998	0.782098	0.000225	2.252205	0.381534	-0.000023
1569	1.5602e+02	4.3946	0.760509	0.000217	2.170306	0.367660	-0.000022
1570	1.5612e+02	4.3848	0.732402	0.000283	2.825493	0.478651	-0.000028
1571	1.5622e+02	4.3739	0.710813	0.000217	2.170306	0.367660	-0.000022
1572	1.5631e+02	4.3646	0.685150	0.000258	2.579798	0.437030	-0.000026
1573	1.5641e+02	4.3532	0.661117	0.000242	2.416001	0.409282	-0.000024
1574	1.5651e+02	4.3423	0.637084	0.000242	2.416001	0.409282	-0.000024
1575	1.5661e+02	4.3336	0.611014	0.000262	2.620747	0.443967	-0.000026
1576	1.5671e+02	4.3244	0.588610	0.000225	2.252205	0.381534	-0.000023
1577	1.5681e+02	4.3134	0.566206	0.000225	2.252205	0.381534	-0.000023
1578	1.5691e+02	4.3063	0.540544	0.000258	2.579798	0.437030	-0.000026
1579	1.5701e+02	4.2947	0.520176	0.000205	2.047459	0.346849	-0.000020
1580	1.5711e+02	4.2825	0.494921	0.000254	2.538849	0.430093	-0.000025
1581	1.5721e+02	4.2744	0.466815	0.000283	2.825493	0.478651	-0.000028
1582	1.5731e+02	4.2632	0.439930	0.000270	2.702645	0.457841	-0.000027
1583	1.5741e+02	4.2550	0.420785	0.000192	1.924611	0.326038	-0.000019
1584	1.5751e+02	4.2457	0.397974	0.000229	2.293154	0.388471	-0.000023
1585	1.5761e+02	4.2337	0.371089	0.000270	2.702645	0.457841	-0.000027
1586	1.5771e+02	4.2237	0.350722	0.000205	2.047459	0.346849	-0.000020
1587	1.5781e+02	4.2149	0.323023	0.000278	2.784544	0.471714	-0.000028
1588	1.5791e+02	4.2031	0.299804	0.000233	2.334103	0.395408	-0.000023
1589	1.5801e+02	4.1956	0.276178	0.000238	2.375052	0.402345	-0.000024
1590	1.5811e+02	4.1863	0.250516	0.000258	2.579798	0.437030	-0.000026
1591	1.5821e+02	4.1747	0.228112	0.000225	2.252205	0.381534	-0.000023
1592	1.5830e+02	4.1676	0.202449	0.000258	2.579798	0.437030	-0.000026
1593	1.5840e+02	4.1570	0.174750	0.000278	2.784544	0.471714	-0.000028
1594	1.5850e+02	4.1436	0.146643	0.000283	2.825493	0.478651	-0.000028
1595	1.5860e+02	4.1348	0.118129	0.000287	2.866442	0.485588	-0.000029
1596	1.5870e+02	4.1240	0.094096	0.000242	2.416001	0.409282	-0.000024
1597	1.5880e+02	4.1152	0.068841	0.000254	2.538849	0.430093	-0.000025
1598	1.5890e+02	4.1045	0.043993	0.000250	2.497900	0.423156	-0.000025
1599	1.5900e+02	4.0951	0.014664	0.000295	2.948340	0.499462	-0.000029
1600	1.5910e+02	4.0842	-0.007740	0.000225	2.252205	0.381534	-0.000023
1601	1.5920e+02	4.0731	-0.036253	0.000287	2.866442	0.485588	-0.000029
1602	1.5930e+02	4.0665	-0.057843	0.000217	2.170306	0.367660	-0.000022
1603	1.5940e+02	4.0569	-0.090023	0.000323	3.234985	0.548021	-0.000032
1604	1.5950e+02	4.0456	-0.111205	0.000213	2.129357	0.360723	-0.000021
1605	1.5960e+02	4.0383	-0.137682	0.000266	2.661696	0.450904	-0.000027
1606	1.5970e+02	4.0273	-0.162937	0.000254	2.538849	0.430093	-0.000025
1607	1.5980e+02	4.0163	-0.186970	0.000242	2.416001	0.409282	-0.000024
1608	1.5990e+02	4.0065	-0.209374	0.000225	2.252205	0.381534	-0.000023
1609	1.6000e+02	3.9966	-0.229741	0.000205	2.047459	0.346849	-0.000020
1610	1.6010e+02	3.9869	-0.257440	0.000278	2.784544	0.471714	-0.000028
1611	1.6019e+02	3.9738	-0.276993	0.000197	1.965560	0.332975	-0.000020
1612	1.6029e+02	3.9680	-0.301026	0.000242	2.416001	0.409282	-0.000024
1613	1.6039e+02	3.9568	-0.326281	0.000254	2.538849	0.430093	-0.000025
1614	1.6049e+02	3.9442	-0.347463	0.000213	2.129357	0.360723	-0.000021
1615	1.6059e+02	3.9355	-0.371089	0.000238	2.375052	0.402345	-0.000024
1616	1.6069e+02	3.9243	-0.396752	0.000258	2.579798	0.437030	-0.000026
1617	1.6079e+02	3.9170	-0.417119	0.000205	2.047459	0.346849	-0.000020
1618	1.6089e+02	3.9043	-0.435449	0.000184	1.842713	0.312164	-0.000018
1619	1.6099e+02	3.8955	-0.455409	0.000201	2.006509	0.339912	-0.000020
1620	1.6109e+02	3.8855	-0.480257	0.000250	2.497900	0.423156	-0.000025
1621	1.6119e+02	3.8745	-0.500624	0.000205	2.047459	0.346849	-0.000020
1622	1.6129e+02	3.8677	-0.523843	0.000233	2.334103	0.395408	-0.000023
1623	1.6139e+02	3.8580	-0.545024	0.000213	2.129357	0.360723	-0.000021
1624	1.6149e+02	3.8432	-0.570687	0.000258	2.579798	0.437030	-0.000026
1625	1.6159e+02	3.8352	-0.592683	0.000221	2.211255	0.374597	-0.000022
1626	1.6169e+02	3.8251	-0.619161	0.000266	2.661696	0.450904	-0.000027
1627	1.6179e+02	3.8151	-0.641565	0.000225	2.252205	0.381534	-0.000023
1628	1.6189e+02	3.8070	-0.663968	0.000225	2.252205	0.381534	-0.000023
1629	1.6199e+02	3.7960	-0.690038	0.000262	2.620747	0.443967	-0.000026
1630	1.6209e+02	3.7846	-0.709998	0.000201	2.006509	0.339912	-0.000020
1631	1.6219e+02	3.7783	-0.735661	0.000258	2.579798	0.437030	-0.000026
1632	1.6228e+02	3.7641	-0.759694	0.000242	2.416001	0.409282	-0.000024
1633	1.6238e+02	3.7556	-0.782912	0.000233	2.334103	0.395408	-0.000023
1634	1.6248e+02	3.7453	-0.805316	0.000225	2.252205	0.381534	-0.000023
1635	1.6258e+02	3.7374	-0.831386	0.000262	2.620747	0.443967	-0.000026
1636	1.6268e+02	3.7279	-0.857049	0.000258	2.579798	0.437030	-0.000026
1637	1.6278e+02	3.7200	-0.877416	0.000205	2.047459	0.346849	-0.000020
1638	1.6288e+02	3.7078	-0.906337	0.000291	2.907391	0.492525	-0.000029
1639	1.6298e+02	3.6939	-0.931185	0.000250	2.497900	0.423156	-0.000025
1640	1.6308e+02	3.6901	-0.956033	0.000250	2.497900	0.423156	-0.000025
1641	1.6318e+02	3.6787	-0.982103	0.000262	2.620747	0.443967	-0.000026
1642	1.6328e+02	3.6694	-1.006136	0.000242	2.416001	0.409282	-0.000024
1643	1.6338e+02	3.6581	-1.027725	0.000217	2.170306	0.367660	-0.000022
1644	1.6348e+02	3.6485	-1.051758	0.000242	2.416001	0.409282	-0.000024
1645	1.6358e+02	3.6378	-1.075384	0.000238	2.375052	0.402345	-0.000024
1646	1.6368e+02	3.6288	-1.102676	0.000274	2.743595	0.464778	-0.000027
1647	1.6378e+02	3.6175	-1.122229	0.000197	1.965560	0.332975	-0.000020
1648	1.6388e+02	3.6068	-1.147891	0.000258	2.579798	0.437030	-0.000026
1649	1.6398e+02	3.6004	-1.173554	0.000258	2.579798	0.437030	-0.000026
1650	1.6408e+02	3.5876	-1.197994	0.000246	2.456950	0.416219	-0.000025
1651	1.6418e+02	3.5769	-1.222435	0.000246	2.456950	0.416219	-0.000025
1652	1.6427e+02	3.5685	-1.247283	0.000250	2.497900	0.423156	-0.000025
1653	1.6437e+02	3.5588	-1.270501	0.000233	2.334103	0.395408	-0.000023
1654	1.6447e+02	3.5505	-1.295757	0.000254	2.538849	0.430093	-0.000025
1655	1.6457e+02	3.5366	-1.317753	0.000221	2.211255	0.374597	-0.000022
1656	1.6467e+02	3.5275	-1.344638	0.000270	2.702645	0.457841	-0.000027
1657	1.6477e+02	3.5198	-1.370708	0.000262	2.620747	0.443967	-0.000026
1658	1.6487e+02	3.5083	-1.395148	0.000246	2.456950	0.416219	-0.000025
1659	1.6497e+02	3.4988	-1.420811	0.000258	2.579798	0.437030	-0.000026
1660	1.6507e+02	3.4872	-1.446066	0.000254	2.538849	0.430093	-0.000025
1661	1.6517e+02	3.4760	-1.469285	0.000233	2.334103	0.395408	-0.000023
1662	1.6527e+02	3.4689	-1.495762	0.000266	2.661696	0.450904	-0.000027
1663	1.6537e+02	3.4579	-1.521832	0.000262	2.620747	0.443967	-0.000026
1664	1.6547e+02	3.4518	-1.543828	0.000221	2.211255	0.374597	-0.000022
1665	1.6557e+02	3.4371	-1.570713	0.000270	2.702645	0.457841	-0.000027
1666	1.6567e+02	3.4301	-1.594746	0.000242	2.416001	0.409282	-0.000024
1667	1.6577e+02	3.4208	-1.617150	0.000225	2.252205	0.381534	-0.000023
1668	1.6587e+02	3.4106	-1.644442	0.000274	2.743595	0.464778	-0.000027
1669	1.6597e+02	3.3972	-1.672956	0.000287	2.866442	0.485588	-0.000029
1670	1.6607e+02	3.3880	-1.692101	0.000192	1.924611	0.326038	-0.000019
1671	1.6616e+02	3.3808	-1.723874	0.000319	3.194036	0.541084	-0.000032
1672	1.6626e+02	3.3695	-1.748722	0.000250	2.497900	0.423156	-0.000025
1673	1.6636e+02	3.3598	-1.772347	0.000238	2.375052	0.402345	-0.000024
1674	1.6646e+02	3.3524	-1.796381	0.000242	2.416001	0.409282	-0.000024
1675	1.6656e+02	3.3389	-1.820414	0.000242	2.416001	0.409282	-0.000024
1676	1.6666e+02	3.3305	-1.842003	0.000217	2.170306	0.367660	-0.000022
1677	1.6676e+02	3.3210	-1.867666	0.000258	2.579798	0.437030	-0.000026
1678	1.6686e+02	3.3095	-1.889662	0.000221	2.211255	0.374597	-0.000022
1679	1.6696e+02	3.2990	-1.915732	0.000262	2.620747	0.443967	-0.000026
1680	1.6706e+02	3.2885	-1.938136	0.000225	2.252205	0.381534	-0.000023
1681	1.6716e+02	3.2798	-1.960540	0.000225	2.252205	0.381534	-0.000023
1682	1.6726e+02	3.2687	-1.983351	0.000229	2.293154	0.388471	-0.000023
1683	1.6736e+02	3.2606	-2.006977	0.000238	2.375052	0.402345	-0.000024
1684	1.6746e+02	3.2479	-2.030195	0.000233	2.334103	0.395408	-0.000023
1685	1.6756e+02	3.2417	-2.058709	0.000287	2.866442	0.485588	-0.000029
1686	1.6766e+02	3.2304	-2.079891	0.000213	2.129357	0.360723	-0.000021
1687	1.6776e+02	3.2169	-2.105146	0.000254	2.538849	0.430093	-0.000025
1688	1.6786e+02	3.2082	-2.127957	0.000229	2.293154	0.388471	-0.000023
1689	1.6796e+02	3.2005	-2.154435	0.000266	2.661696	0.450904	-0.000027
1690	1.6806e+02	3.1889	-2.176024	0.000217	2.170306	0.367660	-0.000022
1691	1.6816e+02	3.1804	-2.205353	0.000295	2.948340	0.499462	-0.000029
1692	1.6825e+02	3.1708	-2.228978	0.000238	2.375052	0.402345	-0.000024
1693	1.6835e+02	3.1592	-2.257492	0.000287	2.866442	0.485588	-0.000029
1694	1.6845e+02	3.1499	-2.287636	0.000303	3.030239	0.513336	-0.000030
1695	1.6855e+02	3.1400	-2.312076	0.000246	2.456950	0.416219	-0.000025
1696	1.6865e+02	3.1277	-2.341812	0.000299	2.989290	0.506399	-0.000030
1697	1.6875e+02	3.1219	-2.367475	0.000258	2.579798	0.437030	-0.000026
1698	1.6885e+02	3.1080	-2.393952	0.000266	2.661696	0.450904	-0.000027
1699	1.6895e+02	3.1018	-2.421244	0.000274	2.743595	0.464778	-0.000027
1700	1.6905e+02	3.0898	-2.447721	0.000266	2.661696	0.450904	-0.000027
1701	1.6915e+02	3.0806	-2.476235	0.000287	2.866442	0.485588	-0.000029
1702	1.6925e+02	3.0706	-2.507601	0.000315	3.153086	0.534147	-0.000032
1703	1.6935e+02	3.0598	-2.531227	0.000238	2.375052	0.402345	-0.000024
1704	1.6945e+02	3.0532	-2.562185	0.000311	3.112137	0.527210	-0.000031
1705	1.6955e+02	3.0413	-2.592328	0.000303	3.030239	0.513336	-0.000030
1706	1.6965e+02	3.0303	-2.619213	0.000270	2.702645	0.457841	-0.000027
1707	1.6975e+02	3.0204	-2.646912	0.000278	2.784544	0.471714	-0.000028
1708	1.6985e+02	3.0096	-2.673797	0.000270	2.702645	0.457841	-0.000027
1709	1.6995e+02	3.0010	-2.701496	0.000278	2.784544	0.471714	-0.000028
1710	1.7005e+02	2.9897	-2.726344	0.000250	2.497900	0.423156	-0.000025
1711	1.7015e+02	2.9807	-2.754450	0.000283	2.825493	0.478651	-0.000028
1712	1.7024e+02	2.9692	-2.780520	0.000262	2.620747	0.443967	-0.000026
1713	1.7034e+02	2.9601	-2.808220	0.000278	2.784544	0.471714	-0.000028
1714	1.7044e+02	2.9507	-2.833067	0.000250	2.497900	0.423156	-0.000025
1715	1.7054e+02	2.9436	-2.859137	0.000262	2.620747	0.443967	-0.000026
1716	1.7064e+02	2.9308	-2.886429	0.000274	2.743595	0.464778	-0.000027
1717	1.7074e+02	2.9202	-2.910055	0.000238	2.375052	0.402345	-0.000024
1718	1.7084e+02	2.9093	-2.936532	0.000266	2.661696	0.450904	-0.000027
1719	1.7094e+02	2.9021	-2.967083	0.000307	3.071188	0.520273	-0.000031
1720	1.7104e+02	2.8918	-2.993153	0.000262	2.620747	0.443967	-0.000026
1721	1.7114e+02	2.8828	-3.017186	0.000242	2.416001	0.409282	-0.000024
1722	1.7124e+02	2.8716	-3.048959	0.000319	3.194036	0.541084	-0.000032
1723	1.7134e+02	2.8626	-3.070955	0.000221	2.211255	0.374597	-0.000022
1724	1.7144e+02	2.8551	-3.101914	0.000311	3.112137	0.527210	-0.000031
1725	1.7154e+02	2.8386	-3.127169	0.000254	2.538849	0.430093	-0.000025
1726	1.7164e+02	2.8316	-3.153239	0.000262	2.620747	0.443967	-0.000026
1727	1.7174e+02	2.8221	-3.176457	0.000233	2.334103	0.395408	-0.000023
1728	1.7184e+02	2.8149	-3.205786	0.000295	2.948340	0.499462	-0.000029
1729	1.7194e+02	2.8017	-3.228597	0.000229	2.293154	0.388471	-0.000023
1730	1.7204e+02	2.7905	-3.261184	0.000328	3.275934	0.554958	-0.000033
1731	1.7213e+02	2.7843	-3.284810	0.000238	2.375052	0.402345	-0.000024
1732	1.7223e+02	2.7721	-3.315361	0.000307	3.071188	0.520273	-0.000031
1733	1.7233e+02	2.7584	-3.338987	0.000238	2.375052	0.402345	-0.000024
1734	1.7243e+02	2.7532	-3.367908	0.000291	2.907391	0.492525	-0.000029
1735	1.7253e+02	2.7419	-3.396830	0.000291	2.907391	0.492525	-0.000029
1736	1.7263e+02	2.7315	-3.419641	0.000229	2.293154	0.388471	-0.000023
1737	1.7273e+02	2.7206	-3.446118	0.000266	2.661696	0.450904	-0.000027
1738	1.7283e+02	2.7116	-3.473410	0.000274	2.743595	0.464778	-0.000027
1739	1.7293e+02	2.7028	-3.495814	0.000225	2.252205	0.381534	-0.000023
1740	1.7303e+02	2.6919	-3.527994	0.000323	3.234985	0.548021	-0.000032
1741	1.7313e+02	2.6833	-3.554064	0.000262	2.620747	0.443967	-0.000026
1742	1.7323e+02	2.6737	-3.580948	0.000270	2.702645	0.457841	-0.000027
1743	1.7333e+02	2.6582	-3.607426	0.000266	2.661696	0.450904	-0.000027
1744	1.7343e+02	2.6528	-3.634310	0.000270	2.702645	0.457841	-0.000027
1745	1.7353e+02	2.6420	-3.659158	0.000250	2.497900	0.423156	-0.000025
1746	1.7363e+02	2.6363	-3.685228	0.000262	2.620747	0.443967	-0.000026
1747	1.7373e+02	2.6206	-3.709261	0.000242	2.416001	0.409282	-0.000024
1748	1.7383e+02	2.6138	-3.735739	0.000266	2.661696	0.450904	-0.000027
1749	1.7393e+02	2.6008	-3.762623	0.000270	2.702645	0.457841	-0.000027
1750	1.7403e+02	2.5917	-3.787471	0.000250	2.497900	0.423156	-0.000025
1751	1.7413e+02	2.5799	-3.815578	0.000283	2.825493	0.478651	-0.000028
1752	1.7422e+02	2.5709	-3.842055	0.000266	2.661696	0.450904	-0.000027
1753	1.7432e+02	2.5645	-3.867310	0.000254	2.538849	0.430093	-0.000025
1754	1.7442e+02	2.5533	-3.896232	0.000291	2.907391	0.492525	-0.000029
1755	1.7452e+02	2.5415	-3.922301	0.000262	2.620747	0.443967	-0.000026
1756	1.7462e+02	2.5312	-3.951223	0.000291	2.907391	0.492525	-0.000029
1757	1.7472e+02	2.5240	-3.973219	0.000221	2.211255	0.374597	-0.000022
1758	1.7482e+02	2.5130	-4.000511	0.000274	2.743595	0.464778	-0.000027
1759	1.7492e+02	2.5034	-4.032284	0.000319	3.194036	0.541084	-0.000032
1760	1.7502e+02	2.4941	-4.059576	0.000274	2.743595	0.464778	-0.000027
1761	1.7512e+02	2.4847	-4.084831	0.000254	2.538849	0.430093	-0.000025
1762	1.7522e+02	2.4728	-4.115382	0.000307	3.071188	0.520273	-0.000031
1763	1.7532e+02	2.4633	-4.143896	0.000287	2.866442	0.485588	-0.000029
1764	1.7542e+02	2.4548	-4.170373	0.000266	2.661696	0.450904	-0.000027
1765	1.7552e+02	2.4446	-4.202553	0.000323	3.234985	0.548021	-0.000032
1766	1.7562e+02	2.4339	-4.231474	0.000291	2.907391	0.492525	-0.000029
1767	1.7572e+02	2.4238	-4.261618	0.000303	3.030239	0.513336	-0.000030
1768	1.7582e+02	2.4113	-4.284022	0.000225	2.252205	0.381534	-0.000023
1769	1.7592e+02	2.4079	-4.315794	0.000319	3.194036	0.541084	-0.000032
1770	1.7602e+02	2.3934	-4.342272	0.000266	2.661696	0.450904	-0.000027
1771	1.7612e+02	2.3823	-4.370786	0.000287	2.866442	0.485588	-0.000029
1772	1.7621e+02	2.3738	-4.399300	0.000287	2.866442	0.485588	-0.000029
1773	1.7631e+02	2.3628	-4.430665	0.000315	3.153086	0.534147	-0.000032
1774	1.7641e+02	2.3534	-4.454291	0.000238	2.375052	0.402345	-0.000024
1775	1.7651e+02	2.3435	-4.482397	0.000283	2.825493	0.478651	-0.000028
1776	1.7661e+02	2.3338	-4.509689	0.000274	2.743595	0.464778	-0.000027
1777	1.7671e+02	2.3258	-4.530057	0.000205	2.047459	0.346849	-0.000020
1778	1.7681e+02	2.3144	-4.556126	0.000262	2.620747	0.443967	-0.000026
1779	1.7691e+02	2.3039	-4.587084	0.000311	3.112137	0.527210	-0.000031
1780	1.7701e+02	2.2933	-4.606230	0.000192	1.924611	0.326038	-0.000019
1781	1.7711e+02	2.2859	-4.633522	0.000274	2.743595	0.464778	-0.000027
1782	1.7721e+02	2.2767	-4.661221	0.000278	2.784544	0.471714	-0.000028
1783	1.7731e+02	2.2636	-4.685661	0.000246	2.456950	0.416219	-0.000025
1784	1.7741e+02	2.2559	-4.708065	0.000225	2.252205	0.381534	-0.000023
1785	1.7751e+02	2.2474	-4.733320	0.000254	2.538849	0.430093	-0.000025
1786	1.7761e+02	2.2330	-4.757761	0.000246	2.456950	0.416219	-0.000025
1787	1.7771e+02	2.2234	-4.780165	0.000225	2.252205	0.381534	-0.000023
1788	1.7781e+02	2.2167	-4.805420	0.000254	2.538849	0.430093	-0.000025
1789	1.7791e+02	2.2057	-4.827417	0.000221	2.211255	0.374597	-0.000022
1790	1.7801e+02	2.1978	-4.851857	0.000246	2.456950	0.416219	-0.000025
1791	1.7810e+02	2.1835	-4.874668	0.000229	2.293154	0.388471	-0.000023
1792	1.7820e+02	2.1744	-4.908070	0.000336	3.357832	0.568832	-0.000034
1793	1.7830e+02	2.1641	-4.930067	0.000221	2.211255	0.374597	-0.000022
1794	1.7840e+02	2.1560	-4.954100	0.000242	2.416001	0.409282	-0.000024
1795	1.7850e+02	2.1462	-4.978541	0.000246	2.456950	0.416219	-0.000025
1796	1.7860e+02	2.1380	-5.009499	0.000311	3.112137	0.527210	-0.000031
1797	1.7870e+02	2.1269	-5.033125	0.000238	2.375052	0.402345	-0.000024
1798	1.7880e+02	2.1165	-5.060009	0.000270	2.702645	0.457841	-0.000027
1799	1.7890e+02	2.1037	-5.088523	0.000287	2.866442	0.485588	-0.000029
1800	1.7900e+02	2.0942	-5.116222	0.000278	2.784544	0.471714	-0.000028
1801	1.7910e+02	2.0846	-5.140663	0.000246	2.456950	0.416219	-0.000025
1802	1.7920e+02	2.0753	-5.169177	0.000287	2.866442	0.485588	-0.000029
1803	1.7930e+02	2.0652	-5.195654	0.000266	2.661696	0.450904	-0.000027
1804	1.7940e+02	2.0557	-5.219280	0.000238	2.375052	0.402345	-0.000024
1805	1.7950e+02	2.0435	-5.249016	0.000299	2.989290	0.506399	-0.000030
1806	1.7960e+02	2.0350	-5.278752	0.000299	2.989290	0.506399	-0.000030
1807	1.7970e+02	2.0232	-5.305637	0.000270	2.702645	0.457841	-0.000027
1808	1.7980e+02	2.0148	-5.329263	0.000238	2.375052	0.402345	-0.000024
1809	1.7990e+02	2.0063	-5.358591	0.000295	2.948340	0.499462	-0.000029
1810	1.8000e+02	1.9936	-5.383847	0.000254	2.538849	0.430093	-0.000025
1811	1.8009e+02	1.9865	-5.410731	0.000270	2.702645	0.457841	-0.000027
1812	1.8019e+02	1.9747	-5.434764	0.000242	2.416001	0.409282	-0.000024
1813	1.8029e+02	1.9647	-5.460427	0.000258	2.579798	0.437030	-0.000026
1814	1.8039e+02	1.9547	-5.488941	0.000287	2.866442	0.485588	-0.000029
1815	1.8049e+02	1.9441	-5.515825	0.000270	2.702645	0.457841	-0.000027
1816	1.8059e+02	1.9357	-5.543525	0.000278	2.784544	0.471714	-0.000028
1817	1.8069e+02	1.9270	-5.568780	0.000254	2.538849	0.430093	-0.000025
1818	1.8079e+02	1.9151	-5.595257	0.000266	2.661696	0.450904	-0.000027
1819	1.8089e+02	1.9061	-5.625808	0.000307	3.071188	0.520273	-0.000031
1820	1.8099e+02	1.8972	-5.650249	0.000246	2.456950	0.416219	-0.000025
1821	1.8109e+02	1.8845	-5.678355	0.000283	2.825493	0.478651	-0.000028
1822	1.8119e+02	1.8740	-5.703203	0.000250	2.497900	0.423156	-0.000025
1823	1.8129e+02	1.8654	-5.732939	0.000299	2.989290	0.506399	-0.000030
1824	1.8139e+02	1.8559	-5.756972	0.000242	2.416001	0.409282	-0.000024
1825	1.8149e+02	1.8453	-5.784264	0.000274	2.743595	0.464778	-0.000027
1826	1.8159e+02	1.8383	-5.811964	0.000278	2.784544	0.471714	-0.000028
1827	1.8169e+02	1.8266	-5.841292	0.000295	2.948340	0.499462	-0.000029
1828	1.8179e+02	1.8169	-5.870621	0.000295	2.948340	0.499462	-0.000029
1829	1.8189e+02	1.8042	-5.895061	0.000246	2.456950	0.416219	-0.000025
1830	1.8199e+02	1.7982	-5.923983	0.000291	2.907391	0.492525	-0.000029
1831	1.8209e+02	1.7869	-5.950867	0.000270	2.702645	0.457841	-0.000027
1832	1.8218e+02	1.7768	-5.979381	0.000287	2.866442	0.485588	-0.000029
1833	1.8228e+02	1.7639	-6.004229	0.000250	2.497900	0.423156	-0.000025
1834	1.8238e+02	1.7592	-6.033151	0.000291	2.907391	0.492525	-0.000029
1835	1.8248e+02	1.7451	-6.062479	0.000295	2.948340	0.499462	-0.000029
1836	1.8258e+02	1.7368	-6.088549	0.000262	2.620747	0.443967	-0.000026
1837	1.8268e+02	1.7249	-6.117470	0.000291	2.907391	0.492525	-0.000029
1838	1.8278e+02	1.7167	-6.143540	0.000262	2.620747	0.443967	-0.000026
1839	1.8288e+02	1.7094	-6.172462	0.000291	2.907391	0.492525	-0.000029
1840	1.8298e+02	1.6969	-6.198939	0.000266	2.661696	0.450904	-0.000027
1841	1.8308e+02	1.6893	-6.227453	0.000287	2.866442	0.485588	-0.000029
1842	1.8318e+02	1.6759	-6.255560	0.000283	2.825493	0.478651	-0.000028
1843	1.8328e+02	1.6667	-6.285703	0.000303	3.030239	0.513336	-0.000030
1844	1.8338e+02	1.6560	-6.306885	0.000213	2.129357	0.360723	-0.000021
1845	1.8348e+02	1.6484	-6.333769	0.000270	2.702645	0.457841	-0.000027
1846	1.8358e+02	1.6376	-6.355766	0.000221	2.211255	0.374597	-0.000022
1847	1.8368e+02	1.6272	-6.385094	0.000295	2.948340	0.499462	-0.000029
1848	1.8378e+02	1.6161	-6.409942	0.000250	2.497900	0.423156	-0.000025
1849	1.8388e+02	1.6080	-6.434790	0.000250	2.497900	0.423156	-0.000025
1850	1.8398e+02	1.5990	-6.461268	0.000266	2.661696	0.450904	-0.000027
1851	1.8407e+02	1.5876	-6.489374	0.000283	2.825493	0.478651	-0.000028
1852	1.8417e+02	1.5757	-6.515444	0.000262	2.620747	0.443967	-0.000026
1853	1.8427e+02	1.5684	-6.541514	0.000262	2.620747	0.443967	-0.000026
1854	1.8437e+02	1.5633	-6.567991	0.000266	2.661696	0.450904	-0.000027
1855	1.8447e+02	1.5505	-6.589988	0.000221	2.211255	0.374597	-0.000022
1856	1.8457e+02	1.5360	-6.621353	0.000315	3.153086	0.534147	-0.000032
1857	1.8467e+02	1.5259	-6.647830	0.000266	2.661696	0.450904	-0.000027
1858	1.8477e+02	1.5183	-6.677566	0.000299	2.989290	0.506399	-0.000030
1859	1.8487e+02	1.5054	-6.706488	0.000291	2.907391	0.492525	-0.000029
1860	1.8497e+02	1.4976	-6.733780	0.000274	2.743595	0.464778	-0.000027
1861	1.8507e+02	1.4877	-6.764330	0.000307	3.071188	0.520273	-0.000031
1862	1.8517e+02	1.4792	-6.796103	0.000319	3.194036	0.541084	-0.000032
1863	1.8527e+02	1.4682	-6.820951	0.000250	2.497900	0.423156	-0.000025
1864	1.8537e+02	1.4581	-6.854760	0.000340	3.398781	0.575769	-0.000034
1865	1.8547e+02	1.4465	-6.882867	0.000283	2.825493	0.478651	-0.000028
1866	1.8557e+02	1.4384	-6.911381	0.000287	2.866442	0.485588	-0.000029
1867	1.8567e+02	1.4296	-6.940710	0.000295	2.948340	0.499462	-0.000029
1868	1.8577e+02	1.4204	-6.972482	0.000319	3.194036	0.541084	-0.000032
1869	1.8587e+02	1.4087	-7.002218	0.000299	2.989290	0.506399	-0.000030
1870	1.8597e+02	1.4014	-7.033991	0.000319	3.194036	0.541084	-0.000032
1871	1.8606e+02	1.3872	-7.064542	0.000307	3.071188	0.520273	-0.000031
1872	1.8616e+02	1.3831	-7.096722	0.000323	3.234985	0.548021	-0.000032
1873	1.8626e+02	1.3664	-7.122792	0.000262	2.620747	0.443967	-0.000026
1874	1.8636e+02	1.3586	-7.154972	0.000323	3.234985	0.548021	-0.000032
1875	1.8646e+02	1.3477	-7.189189	0.000344	3.439731	0.582706	-0.000034
1876	1.8656e+02	1.3362	-7.216888	0.000278	2.784544	0.471714	-0.000028
1877	1.8666e+02	1.3286	-7.241329	0.000246	2.456950	0.416219	-0.000025
1878	1.8676e+02	1.3190	-7.277989	0.000369	3.685426	0.624328	-0.000037
1879	1.8686e+02	1.3125	-7.304874	0.000270	2.702645	0.457841	-0.000027
1880	1.8696e+02	1.2987	-7.332981	0.000283	2.825493	0.478651	-0.000028
1881	1.8706e+02	1.2870	-7.359458	0.000266	2.661696	0.450904	-0.000027
1882	1.8716e+02	1.2795	-7.392045	0.000328	3.275934	0.554958	-0.000033
1883	1.8726e+02	1.2674	-7.418930	0.000270	2.702645	0.457841	-0.000027
1884	1.8736e+02	1.2588	-7.446629	0.000278	2.784544	0.471714	-0.000028
1885	1.8746e+02	1.2493	-7.474328	0.000278	2.784544	0.471714	-0.000028
1886	1.8756e+02	1.2424	-7.506101	0.000319	3.194036	0.541084	-0.000032
1887	1.8766e+02	1.2318	-7.536652	0.000307	3.071188	0.520273	-0.000031
1888	1.8776e+02	1.2200	-7.565166	0.000287	2.866442	0.485588	-0.000029
1889	1.8786e+02	1.2093	-7.588384	0.000233	2.334103	0.395408	-0.000023
1890	1.8796e+02	1.2005	-7.621786	0.000336	3.357832	0.568832	-0.000034
1891	1.8806e+02	1.1898	-7.647042	0.000254	2.538849	0.430093	-0.000025
1892	1.8815e+02	1.1799	-7.675148	0.000283	2.825493	0.478651	-0.000028
1893	1.8825e+02	1.1700	-7.707328	0.000323	3.234985	0.548021	-0.000032
1894	1.8835e+02	1.1593	-7.733398	0.000262	2.620747	0.443967	-0.000026
1895	1.8845e+02	1.1485	-7.763134	0.000299	2.989290	0.506399	-0.000030
1896	1.8855e+02	1.1385	-7.793685	0.000307	3.071188	0.520273	-0.000031
1897	1.8865e+02	1.1301	-7.825458	0.000319	3.194036	0.541084	-0.000032
1898	1.8875e+02	1.1185	-7.849491	0.000242	2.416001	0.409282	-0.000024
1899	1.8885e+02	1.1123	-7.886559	0.000373	3.726375	0.631265	-0.000037
1900	1.8895e+02	1.1015	-7.914258	0.000278	2.784544	0.471714	-0.000028
1901	1.8905e+02	1.0910	-7.942365	0.000283	2.825493	0.478651	-0.000028
1902	1.8915e+02	1.0822	-7.967620	0.000254	2.538849	0.430093	-0.000025
1903	1.8925e+02	1.0710	-7.998171	0.000307	3.071188	0.520273	-0.000031
1904	1.8935e+02	1.0625	-8.026685	0.000287	2.866442	0.485588	-0.000029
1905	1.8945e+02	1.0486	-8.057236	0.000307	3.071188	0.520273	-0.000031
1906	1.8955e+02	1.0438	-8.087786	0.000307	3.071188	0.520273	-0.000031
1907	1.8965e+02	1.0303	-8.111005	0.000233	2.334103	0.395408	-0.000023
1908	1.8975e+02	1.0205	-8.145222	0.000344	3.439731	0.582706	-0.000034
1909	1.8985e+02	1.0110	-8.174143	0.000291	2.907391	0.492525	-0.000029
1910	1.8995e+02	0.9998	-8.204694	0.000307	3.071188	0.520273	-0.000031
1911	1.9004e+02	0.9896	-8.233208	0.000287	2.866442	0.485588	-0.000029
1912	1.9014e+02	0.9793	-8.259685	0.000266	2.661696	0.450904	-0.000027
1913	1.9024e+02	0.9702	-8.293087	0.000336	3.357832	0.568832	-0.000034
1914	1.9034e+02	0.9635	-8.320786	0.000278	2.784544	0.471714	-0.000028
1915	1.9044e+02	0.9501	-8.346449	0.000258	2.579798	0.437030	-0.000026
1916	1.9054e+02	0.9413	-8.371704	0.000254	2.538849	0.430093	-0.000025
1917	1.9064e+02	0.9319	-8.403069	0.000315	3.153086	0.534147	-0.000032
1918	1.9074e+02	0.9212	-8.433213	0.000303	3.030239	0.513336	-0.000030
1919	1.9084e+02	0.9122	-8.460505	0.000274	2.743595	0.464778	-0.000027
1920	1.9094e+02	0.9018	-8.490648	0.000303	3.030239	0.513336	-0.000030
1921	1.9104e+02	0.8892	-8.517940	0.000274	2.743595	0.464778	-0.000027
1922	1.9114e+02	0.8778	-8.546861	0.000291	2.907391	0.492525	-0.000029
1923	1.9124e+02	0.8699	-8.579856	0.000332	3.316883	0.561895	-0.000033
1924	1.9134e+02	0.8598	-8.610407	0.000307	3.071188	0.520273	-0.000031
1925	1.9144e+02	0.8528	-8.638106	0.000278	2.784544	0.471714	-0.000028
1926	1.9154e+02	0.8429	-8.666213	0.000283	2.825493	0.478651	-0.000028
1927	1.9164e+02	0.8318	-8.695541	0.000295	2.948340	0.499462	-0.000029
1928	1.9174e+02	0.8215	-8.730980	0.000356	3.562578	0.603517	-0.000036
1929	1.9184e+02	0.8146	-8.757458	0.000266	2.661696	0.450904	-0.000027
1930	1.9194e+02	0.8039	-8.791674	0.000344	3.439731	0.582706	-0.000034
1931	1.9203e+02	0.7912	-8.818559	0.000270	2.702645	0.457841	-0.000027
1932	1.9213e+02	0.7841	-8.851554	0.000332	3.316883	0.561895	-0.000033
1933	1.9223e+02	0.7725	-8.880882	0.000295	2.948340	0.499462	-0.000029
1934	1.9233e+02	0.7631	-8.913877	0.000332	3.316883	0.561895	-0.000033
1935	1.9243e+02	0.7520	-8.945242	0.000315	3.153086	0.534147	-0.000032
1936	1.9253e+02	0.7414	-8.972534	0.000274	2.743595	0.464778	-0.000027
1937	1.9263e+02	0.7310	-9.010825	0.000385	3.849222	0.652076	-0.000038
1938	1.9273e+02	0.7227	-9.037302	0.000266	2.661696	0.450904	-0.000027
1939	1.9283e+02	0.7131	-9.066223	0.000291	2.907391	0.492525	-0.000029
1940	1.9293e+02	0.7002	-9.100847	0.000348	3.480680	0.589643	-0.000035
1941	1.9303e+02	0.6933	-9.128547	0.000278	2.784544	0.471714	-0.000028
1942	1.9313e+02	0.6843	-9.157875	0.000295	2.948340	0.499462	-0.000029
1943	1.9323e+02	0.6719	-9.184760	0.000270	2.702645	0.457841	-0.000027
1944	1.9333e+02	0.6638	-9.212052	0.000274	2.743595	0.464778	-0.000027
1945	1.9343e+02	0.6537	-9.243417	0.000315	3.153086	0.534147	-0.000032
1946	1.9353e+02	0.6441	-9.268265	0.000250	2.497900	0.423156	-0.000025
1947	1.9363e+02	0.6321	-9.295557	0.000274	2.743595	0.464778	-0.000027
1948	1.9373e+02	0.6235	-9.325293	0.000299	2.989290	0.506399	-0.000030
1949	1.9383e+02	0.6129	-9.352178	0.000270	2.702645	0.457841	-0.000027
1950	1.9393e+02	0.6033	-9.381506	0.000295	2.948340	0.499462	-0.000029
1951	1.9403e+02	0.5972	-9.406762	0.000254	2.538849	0.430093	-0.000025
1952	1.9412e+02	0.5819	-9.440164	0.000336	3.357832	0.568832	-0.000034
1953	1.9422e+02	0.5735	-9.460531	0.000205	2.047459	0.346849	-0.000020
1954	1.9432e+02	0.5630	-9.487415	0.000270	2.702645	0.457841	-0.000027
1955	1.9442e+02	0.5517	-9.515115	0.000278	2.784544	0.471714	-0.000028
1956	1.9452e+02	0.5434	-9.538741	0.000238	2.375052	0.402345	-0.000024
1957	1.9462e+02	0.5335	-9.566847	0.000283	2.825493	0.478651	-0.000028
1958	1.9472e+02	0.5209	-9.596583	0.000299	2.989290	0.506399	-0.000030
1959	1.9482e+02	0.5161	-9.623468	0.000270	2.702645	0.457841	-0.000027
1960	1.9492e+02	0.5018	-9.652389	0.000291	2.907391	0.492525	-0.000029
1961	1.9502e+02	0.4926	-9.676015	0.000238	2.375052	0.402345	-0.000024
1962	1.9512e+02	0.4847	-9.710232	0.000344	3.439731	0.582706	-0.000034
1963	1.9522e+02	0.4749	-9.732228	0.000221	2.211255	0.374597	-0.000022
1964	1.9532e+02	0.4665	-9.767260	0.000352	3.521629	0.596580	-0.000035
1965	1.9542e+02	0.4501	-9.794552	0.000274	2.743595	0.464778	-0.000027
1966	1.9552e+02	0.4439	-9.826732	0.000323	3.234985	0.548021	-0.000032
1967	1.9562e+02	0.4344	-9.853616	0.000270	2.702645	0.457841	-0.000027
1968	1.9572e+02	0.4226	-9.882538	0.000291	2.907391	0.492525	-0.000029
1969	1.9582e+02	0.4131	-9.912681	0.000303	3.030239	0.513336	-0.000030
1970	1.9592e+02	0.4061	-9.942010	0.000295	2.948340	0.499462	-0.000029
1971	1.9601e+02	0.3999	-9.971746	0.000299	2.989290	0.506399	-0.000030
1972	1.9611e+02	0.3838	-9.998630	0.000270	2.702645	0.457841	-0.000027
1973	1.9621e+02	0.3712	-10.029588	0.000311	3.112137	0.527210	-0.000031
1974	1.9631e+02	0.3642	-10.058510	0.000291	2.907391	0.492525	-0.000029
1975	1.9641e+02	0.3551	-10.089060	0.000307	3.071188	0.520273	-0.000031
1976	1.9651e+02	0.3437	-10.115130	0.000262	2.620747	0.443967	-0.000026
1977	1.9661e+02	0.3344	-10.149754	0.000348	3.480680	0.589643	-0.000035
1978	1.9671e+02	0.3247	-10.178676	0.000291	2.907391	0.492525	-0.000029
1979	1.9681e+02	0.3131	-10.205560	0.000270	2.702645	0.457841	-0.000027
1980	1.9691e+02	0.3029	-10.233667	0.000283	2.825493	0.478651	-0.000028
1981	1.9701e+02	0.2948	-10.264218	0.000307	3.071188	0.520273	-0.000031
1982	1.9711e+02	0.2828	-10.289473	0.000254	2.538849	0.430093	-0.000025
1983	1.9721e+02	0.2746	-10.322875	0.000336	3.357832	0.568832	-0.000034
1984	1.9731e+02	0.2632	-10.349352	0.000266	2.661696	0.450904	-0.000027
1985	1.9741e+02	0.2557	-10.380718	0.000315	3.153086	0.534147	-0.000032
1986	1.9751e+02	0.2460	-10.408010	0.000274	2.743595	0.464778	-0.000027
1987	1.9761e+02	0.2337	-10.438968	0.000311	3.112137	0.527210	-0.000031
1988	1.9771e+02	0.2241	-10.470333	0.000315	3.153086	0.534147	-0.000032
1989	1.9781e+02	0.2154	-10.499254	0.000291	2.907391	0.492525	-0.000029
1990	1.9791e+02	0.2004	-10.530620	0.000315	3.153086	0.534147	-0.000032
1991	1.9800e+02	0.1933	-10.556690	0.000262	2.620747	0.443967	-0.000026
1992	1.9810e+02	0.1856	-10.592536	0.000360	3.603527	0.610454	-0.000036
1993	1.9820e+02	0.1733	-10.619420	0.000270	2.702645	0.457841	-0.000027
1994	1.9830e+02	0.1651	-10.647120	0.000278	2.784544	0.471714	-0.000028
1995	1.9840e+02	0.1579	-10.680929	0.000340	3.398781	0.575769	-0.000034
1996	1.9850e+02	0.1450	-10.709036	0.000283	2.825493	0.478651	-0.000028
1997	1.9860e+02	0.1369	-10.738772	0.000299	2.989290	0.506399	-0.000030
1998	1.9870e+02	0.1252	-10.770952	0.000323	3.234985	0.548021	-0.000032
1999	1.9880e+02	0.1157	-10.799058	0.000283	2.825493	0.478651	-0.000028
2000	1.9890e+02	0.1044	-10.830016	0.000311	3.112137	0.527210	-0.000031
2001	1.9900e+02	0.0936	-10.859752	0.000299	2.989290	0.506399	-0.000030
2002	1.9910e+02	0.0840	-10.889081	0.000295	2.948340	0.499462	-0.000029
2003	1.9920e+02	0.0753	-10.920446	0.000315	3.153086	0.534147	-0.000032
2004	1.9930e+02	0.0630	-10.953849	0.000336	3.357832	0.568832	-0.000034
2005	1.9940e+02	0.0517	-10.982363	0.000287	2.866442	0.485588	-0.000029
2006	1.9950e+02	0.0430	-11.009247	0.000270	2.702645	0.457841	-0.000027
2007	1.9960e+02	0.0333	-11.041835	0.000328	3.275934	0.554958	-0.000033
2008	1.9970e+02	0.0241	-11.068312	0.000266	2.661696	0.450904	-0.000027
2009	1.9980e+02	0.0153	-11.102121	0.000340	3.398781	0.575769	-0.000034
2010	1.9990e+02	0.0070	-11.132265	0.000303	3.030239	0.513336	-0.000030
2011	2.0000e+02	-0.0049	-11.156705	0.000303	3.030239	0.513336	-0.000025

PMax (uC/cm2):	2.42e+01
Pr (uC/cm2):	9.61e-01
-Pr (uC/cm2):	0.00e+00
PLoss (uC/cm2):	0.00e+00
C (Max-Eff) (nF):	2.42e-01
K (Eff):	4.11e+02
Vert. (+/-Pr) Shift (uC/cm2):	4.80e-01
Offset (uC/cm2):	1.21e+01

A (Loop Area - uC/cm2·Volts):	-9.91e-03



Hysteresis Version: 5.48.1 - Radiant Technologies, Inc., 1999 - 9/12/24

