»»»»»»»»»»»»»»»»»»»»»»»»»»»»»»»»»»»» Hysteresis ««««««««««««««««««««««««««««««««««««
»»»  Executed Version:	5.48.1
»»»  Vision Version:	5.48.4 (R)
»»»  Vision Compiled:	9/18/24
»»»  Driver Version:	5.47.0
»»»  Windows Version:	Windows 8 or 8.1
»»»  Processor Information:	x86 (AMD or Intel) - 32 Processors
»»»  Tester Name:	PMF21124-494 (100V)
»»»  Tester S/N:	PMF21124-494
»»»  Internal Amp Type:	100V RevK 270k
»»»  Internal Amp S/N:	iAB2-596/K     
»»»  Execution Count:	1
»»»»»»»»»»»»»»»»»»»»»»»»»»»»»»»»»»»»»»»»»»««««««««««««««««««««««««««««««««««««««««««

Stored:	6/27/2025 - 15:9:27
Configured:	06/27/25 11:23:28 AM
Executed:	06/27/25 03:08:57 PM

»»»»»»»»»»»»»»»»»»»»»»»»»»»»»»»»»»» Sample Info ««««««««««««««««««««««««««««««««««««
Sample Name:	
Lot Name:	
Wafer Name:	
Die Row/Column:	0/0
Capacitor Number:	0
Sample Area (cm2):	1.00e-04
Sample Thickness (microns):	1.50e-01

Amplifier:	Internal

»»»»»»»»»»»»»»»»»»»»»»»»»»»»»»»»»»» Tester Info «««««««««««««««««««««««««««««««««««
Tester Name:	PMF21124-494 (100V)
Tester Serial Number:	PMF21124-494
Return Signal Amp. Level:	1.9 [Index: 2]

»»»»»»»»»»»»»»»»»»»»»»»»»»»»»»»» Hysteresis Info ««««««««««««««««««««««««««««««««««
Task Name:	Hyst-1276
Volts:	10.00
Field:	666.67 (kV/cm)
DCBias:	0.00
DCField:	0.00 (kV/cm)
Hysteresis Period (ms):	2.00e+02
Preset:	Enabled
Preset Delay (ms):	1.00e+03
Profile:	Standard Monopolar

»»»»»»»»»»»»»»»»»»»»»»»»»»»»»»»»»»»»»» Data «««««««««««««««««««««««««««««««««««««««
Points:	2011

Valid Data

Point	Time (ms)	Drive Voltage	Measured Polarization (uC/cm2)	Capacitance (uF)	Normalized Capacitance (uF/cm2)	Dielectric Constant	Instantaneous Current (mA)
   1	0.0000e+00	-0.0070	-20.807058	0.000504	5.035173	0.852981	0.000050
   2	9.9500e-02	0.0043	-20.756954	0.000504	5.035173	0.852981	0.000050
   3	1.9900e-01	0.0175	-20.704000	0.000532	5.321727	0.901525	0.000053
   4	2.9850e-01	0.0275	-20.649416	0.000549	5.485473	0.929264	0.000055
   5	3.9800e-01	0.0350	-20.594832	0.000549	5.485473	0.929264	0.000055
   6	4.9750e-01	0.0453	-20.541470	0.000536	5.362664	0.908460	0.000054
   7	5.9700e-01	0.0539	-20.490552	0.000512	5.117046	0.866851	0.000051
   8	6.9650e-01	0.0653	-20.438005	0.000528	5.280791	0.894590	0.000053
   9	7.9600e-01	0.0755	-20.385458	0.000528	5.280791	0.894590	0.000053
  10	8.9550e-01	0.0826	-20.324357	0.000614	6.140455	1.040221	0.000061
  11	9.9500e-01	0.0949	-20.272217	0.000524	5.239855	0.887655	0.000052
  12	1.0945e+00	0.1077	-20.220484	0.000520	5.198918	0.880721	0.000052
  13	1.1940e+00	0.1169	-20.168344	0.000524	5.239855	0.887655	0.000052
  14	1.2935e+00	0.1251	-20.114168	0.000544	5.444537	0.922329	0.000054
  15	1.3930e+00	0.1350	-20.058769	0.000557	5.567346	0.943134	0.000056
  16	1.4925e+00	0.1460	-20.005407	0.000536	5.362664	0.908460	0.000054
  17	1.5920e+00	0.1527	-19.950823	0.000549	5.485473	0.929264	0.000055
  18	1.6915e+00	0.1637	-19.898276	0.000528	5.280791	0.894590	0.000053
  19	1.7910e+00	0.1741	-19.842063	0.000565	5.649218	0.957003	0.000056
  20	1.8905e+00	0.1823	-19.791553	0.000508	5.076109	0.859916	0.000051
  21	1.9900e+00	0.1959	-19.738191	0.000536	5.362664	0.908460	0.000054
  22	2.0895e+00	0.2042	-19.681570	0.000569	5.690155	0.963938	0.000057
  23	2.1890e+00	0.2139	-19.629838	0.000520	5.198918	0.880721	0.000052
  24	2.2885e+00	0.2242	-19.578920	0.000512	5.117046	0.866851	0.000051
  25	2.3880e+00	0.2353	-19.517411	0.000618	6.181391	1.047156	0.000062
  26	2.4875e+00	0.2428	-19.464456	0.000532	5.321727	0.901525	0.000053
  27	2.5870e+00	0.2542	-19.411502	0.000532	5.321727	0.901525	0.000053
  28	2.6865e+00	0.2651	-19.360991	0.000508	5.076109	0.859916	0.000051
  29	2.7860e+00	0.2711	-19.306815	0.000544	5.444537	0.922329	0.000054
  30	2.8855e+00	0.2831	-19.251824	0.000553	5.526409	0.936199	0.000055
  31	2.9850e+00	0.2966	-19.198054	0.000540	5.403600	0.915395	0.000054
  32	3.0845e+00	0.3053	-19.147137	0.000512	5.117046	0.866851	0.000051
  33	3.1840e+00	0.3143	-19.088887	0.000585	5.853900	0.991678	0.000059
  34	3.2835e+00	0.3257	-19.035117	0.000540	5.403600	0.915395	0.000054
  35	3.3830e+00	0.3331	-18.980534	0.000549	5.485473	0.929264	0.000055
  36	3.4825e+00	0.3449	-18.923506	0.000573	5.731091	0.970873	0.000057
  37	3.5820e+00	0.3564	-18.866885	0.000569	5.690155	0.963938	0.000057
  38	3.6815e+00	0.3645	-18.812301	0.000549	5.485473	0.929264	0.000055
  39	3.7810e+00	0.3761	-18.757310	0.000553	5.526409	0.936199	0.000055
  40	3.8805e+00	0.3828	-18.701911	0.000557	5.567346	0.943134	0.000056
  41	3.9800e+00	0.3949	-18.646105	0.000561	5.608282	0.950069	0.000056
  42	4.0795e+00	0.4048	-18.591114	0.000553	5.526409	0.936199	0.000055
  43	4.1790e+00	0.4113	-18.537752	0.000536	5.362664	0.908460	0.000054
  44	4.2785e+00	0.4238	-18.486834	0.000512	5.117046	0.866851	0.000051
  45	4.3780e+00	0.4301	-18.431028	0.000561	5.608282	0.950069	0.000056
  46	4.4775e+00	0.4421	-18.380925	0.000504	5.035173	0.852981	0.000050
  47	4.5770e+00	0.4536	-18.324305	0.000569	5.690155	0.963938	0.000057
  48	4.6765e+00	0.4617	-18.267684	0.000569	5.690155	0.963938	0.000057
  49	4.7760e+00	0.4741	-18.215137	0.000528	5.280791	0.894590	0.000053
  50	4.8755e+00	0.4818	-18.162997	0.000524	5.239855	0.887655	0.000052
  51	4.9750e+00	0.4945	-18.105154	0.000581	5.812964	0.984743	0.000058
  52	5.0745e+00	0.5022	-18.050570	0.000549	5.485473	0.929264	0.000055
  53	5.1740e+00	0.5125	-17.995579	0.000553	5.526409	0.936199	0.000055
  54	5.2735e+00	0.5255	-17.950364	0.000454	4.543936	0.769764	0.000045
  55	5.3730e+00	0.5332	-17.890892	0.000598	5.976709	1.012482	0.000060
  56	5.4725e+00	0.5450	-17.841604	0.000495	4.953300	0.839112	0.000050
  57	5.5720e+00	0.5553	-17.791093	0.000508	5.076109	0.859916	0.000051
  58	5.6715e+00	0.5640	-17.738953	0.000524	5.239855	0.887655	0.000052
  59	5.7710e+00	0.5735	-17.687221	0.000520	5.198918	0.880721	0.000052
  60	5.8705e+00	0.5852	-17.631415	0.000561	5.608282	0.950069	0.000056
  61	5.9700e+00	0.5941	-17.578868	0.000528	5.280791	0.894590	0.000053
  62	6.0695e+00	0.6042	-17.529172	0.000499	4.994237	0.846047	0.000050
  63	6.1690e+00	0.6129	-17.474588	0.000549	5.485473	0.929264	0.000055
  64	6.2685e+00	0.6240	-17.421226	0.000536	5.362664	0.908460	0.000054
  65	6.3680e+00	0.6335	-17.364606	0.000569	5.690155	0.963938	0.000057
  66	6.4675e+00	0.6429	-17.314910	0.000499	4.994237	0.846047	0.000050
  67	6.5670e+00	0.6520	-17.263177	0.000520	5.198918	0.880721	0.000052
  68	6.6665e+00	0.6628	-17.205742	0.000577	5.772027	0.977808	0.000058
  69	6.7660e+00	0.6720	-17.155232	0.000508	5.076109	0.859916	0.000051
  70	6.8655e+00	0.6825	-17.099018	0.000565	5.649218	0.957003	0.000056
  71	6.9650e+00	0.6908	-17.049322	0.000499	4.994237	0.846047	0.000050
  72	7.0645e+00	0.7027	-16.997590	0.000520	5.198918	0.880721	0.000052
  73	7.1640e+00	0.7104	-16.945450	0.000524	5.239855	0.887655	0.000052
  74	7.2635e+00	0.7220	-16.888015	0.000577	5.772027	0.977808	0.000058
  75	7.3630e+00	0.7327	-16.837097	0.000512	5.117046	0.866851	0.000051
  76	7.4625e+00	0.7442	-16.781291	0.000561	5.608282	0.950069	0.000056
  77	7.5620e+00	0.7503	-16.728744	0.000528	5.280791	0.894590	0.000053
  78	7.6615e+00	0.7642	-16.674975	0.000540	5.403600	0.915395	0.000054
  79	7.7610e+00	0.7717	-16.623650	0.000516	5.157982	0.873786	0.000052
  80	7.8605e+00	0.7814	-16.568251	0.000557	5.567346	0.943134	0.000056
  81	7.9600e+00	0.7938	-16.513667	0.000549	5.485473	0.929264	0.000055
  82	8.0595e+00	0.8009	-16.461527	0.000524	5.239855	0.887655	0.000052
  83	8.1590e+00	0.8146	-16.410609	0.000512	5.117046	0.866851	0.000051
  84	8.2585e+00	0.8180	-16.358062	0.000528	5.280791	0.894590	0.000053
  85	8.3580e+00	0.8318	-16.305108	0.000532	5.321727	0.901525	0.000053
  86	8.4575e+00	0.8399	-16.255819	0.000495	4.953300	0.839112	0.000050
  87	8.5570e+00	0.8507	-16.199199	0.000569	5.690155	0.963938	0.000057
  88	8.6565e+00	0.8611	-16.147873	0.000516	5.157982	0.873786	0.000052
  89	8.7560e+00	0.8710	-16.094919	0.000532	5.321727	0.901525	0.000053
  90	8.8555e+00	0.8828	-16.042372	0.000528	5.280791	0.894590	0.000053
  91	8.9550e+00	0.8924	-15.993491	0.000491	4.912364	0.832177	0.000049
  92	9.0545e+00	0.9003	-15.938092	0.000557	5.567346	0.943134	0.000056
  93	9.1540e+00	0.9103	-15.886360	0.000520	5.198918	0.880721	0.000052
  94	9.2535e+00	0.9203	-15.832998	0.000536	5.362664	0.908460	0.000054
  95	9.3530e+00	0.9324	-15.783709	0.000495	4.953300	0.839112	0.000050
  96	9.4525e+00	0.9384	-15.725459	0.000585	5.853900	0.991678	0.000059
  97	9.5520e+00	0.9500	-15.674541	0.000512	5.117046	0.866851	0.000051
  98	9.6515e+00	0.9599	-15.619143	0.000557	5.567346	0.943134	0.000056
  99	9.7510e+00	0.9682	-15.571484	0.000479	4.789555	0.811373	0.000048
 100	9.8505e+00	0.9794	-15.515678	0.000561	5.608282	0.950069	0.000056
 101	9.9500e+00	0.9902	-15.458650	0.000573	5.731091	0.970873	0.000057
 102	1.0050e+01	1.0037	-15.408954	0.000499	4.994237	0.846047	0.000050
 103	1.0149e+01	1.0110	-15.357629	0.000516	5.157982	0.873786	0.000052
 104	1.0248e+01	1.0191	-15.305896	0.000520	5.198918	0.880721	0.000052
 105	1.0348e+01	1.0307	-15.254164	0.000520	5.198918	0.880721	0.000052
 106	1.0447e+01	1.0418	-15.197951	0.000565	5.649218	0.957003	0.000056
 107	1.0547e+01	1.0522	-15.144996	0.000532	5.321727	0.901525	0.000053
 108	1.0646e+01	1.0615	-15.094078	0.000512	5.117046	0.866851	0.000051
 109	1.0746e+01	1.0686	-15.044382	0.000499	4.994237	0.846047	0.000050
 110	1.0845e+01	1.0787	-14.989799	0.000549	5.485473	0.929264	0.000055
 111	1.0945e+01	1.0924	-14.935215	0.000549	5.485473	0.929264	0.000055
 112	1.1044e+01	1.1027	-14.885519	0.000499	4.994237	0.846047	0.000050
 113	1.1144e+01	1.1115	-14.826454	0.000594	5.935773	1.005547	0.000059
 114	1.1243e+01	1.1197	-14.776758	0.000499	4.994237	0.846047	0.000050
 115	1.1343e+01	1.1301	-14.726655	0.000504	5.035173	0.852981	0.000050
 116	1.1443e+01	1.1399	-14.673293	0.000536	5.362664	0.908460	0.000054
 117	1.1542e+01	1.1512	-14.621968	0.000516	5.157982	0.873786	0.000052
 118	1.1642e+01	1.1620	-14.569014	0.000532	5.321727	0.901525	0.000053
 119	1.1741e+01	1.1708	-14.519725	0.000495	4.953300	0.839112	0.000050
 120	1.1841e+01	1.1807	-14.468400	0.000516	5.157982	0.873786	0.000052
 121	1.1940e+01	1.1905	-14.416260	0.000524	5.239855	0.887655	0.000052
 122	1.2040e+01	1.2014	-14.371045	0.000454	4.543936	0.769764	0.000045
 123	1.2139e+01	1.2108	-14.321757	0.000495	4.953300	0.839112	0.000050
 124	1.2239e+01	1.2218	-14.269210	0.000528	5.280791	0.894590	0.000053
 125	1.2338e+01	1.2297	-14.220328	0.000491	4.912364	0.832177	0.000049
 126	1.2438e+01	1.2399	-14.166559	0.000540	5.403600	0.915395	0.000054
 127	1.2537e+01	1.2539	-14.116456	0.000504	5.035173	0.852981	0.000050
 128	1.2636e+01	1.2585	-14.066353	0.000504	5.035173	0.852981	0.000050
 129	1.2736e+01	1.2685	-14.013806	0.000528	5.280791	0.894590	0.000053
 130	1.2835e+01	1.2774	-13.962073	0.000520	5.198918	0.880721	0.000052
 131	1.2935e+01	1.2885	-13.902601	0.000598	5.976709	1.012482	0.000060
 132	1.3034e+01	1.2966	-13.854128	0.000487	4.871427	0.825242	0.000049
 133	1.3134e+01	1.3082	-13.806876	0.000475	4.748618	0.804438	0.000047
 134	1.3233e+01	1.3210	-13.755958	0.000512	5.117046	0.866851	0.000051
 135	1.3333e+01	1.3255	-13.706670	0.000495	4.953300	0.839112	0.000050
 136	1.3432e+01	1.3387	-13.653715	0.000532	5.321727	0.901525	0.000053
 137	1.3532e+01	1.3490	-13.601575	0.000524	5.239855	0.887655	0.000052
 138	1.3632e+01	1.3599	-13.548621	0.000532	5.321727	0.901525	0.000053
 139	1.3731e+01	1.3675	-13.498517	0.000504	5.035173	0.852981	0.000050
 140	1.3831e+01	1.3788	-13.441490	0.000573	5.731091	0.970873	0.000057
 141	1.3930e+01	1.3879	-13.385276	0.000565	5.649218	0.957003	0.000056
 142	1.4030e+01	1.3985	-13.332729	0.000528	5.280791	0.894590	0.000053
 143	1.4129e+01	1.4072	-13.278145	0.000549	5.485473	0.929264	0.000055
 144	1.4229e+01	1.4180	-13.234559	0.000438	4.380191	0.742024	0.000044
 145	1.4328e+01	1.4266	-13.175087	0.000598	5.976709	1.012482	0.000060
 146	1.4428e+01	1.4378	-13.125392	0.000499	4.994237	0.846047	0.000050
 147	1.4527e+01	1.4489	-13.073659	0.000520	5.198918	0.880721	0.000052
 148	1.4627e+01	1.4596	-13.018668	0.000553	5.526409	0.936199	0.000055
 149	1.4726e+01	1.4675	-12.972638	0.000463	4.625809	0.783633	0.000046
 150	1.4825e+01	1.4771	-12.920498	0.000524	5.239855	0.887655	0.000052
 151	1.4925e+01	1.4887	-12.866729	0.000540	5.403600	0.915395	0.000054
 152	1.5024e+01	1.4999	-12.816219	0.000508	5.076109	0.859916	0.000051
 153	1.5124e+01	1.5073	-12.766930	0.000495	4.953300	0.839112	0.000050
 154	1.5223e+01	1.5189	-12.715605	0.000516	5.157982	0.873786	0.000052
 155	1.5323e+01	1.5286	-12.661429	0.000544	5.444537	0.922329	0.000054
 156	1.5422e+01	1.5392	-12.613362	0.000483	4.830491	0.818307	0.000048
 157	1.5522e+01	1.5479	-12.561222	0.000524	5.239855	0.887655	0.000052
 158	1.5621e+01	1.5604	-12.506231	0.000553	5.526409	0.936199	0.000055
 159	1.5721e+01	1.5682	-12.462645	0.000438	4.380191	0.742024	0.000044
 160	1.5820e+01	1.5815	-12.408061	0.000549	5.485473	0.929264	0.000055
 161	1.5920e+01	1.5887	-12.354700	0.000536	5.362664	0.908460	0.000054
 162	1.6020e+01	1.5977	-12.308263	0.000467	4.666746	0.790568	0.000047
 163	1.6119e+01	1.6064	-12.256123	0.000524	5.239855	0.887655	0.000052
 164	1.6218e+01	1.6164	-12.202353	0.000540	5.403600	0.915395	0.000054
 165	1.6318e+01	1.6283	-12.150621	0.000520	5.198918	0.880721	0.000052
 166	1.6418e+01	1.6373	-12.102147	0.000487	4.871427	0.825242	0.000049
 167	1.6517e+01	1.6490	-12.052044	0.000504	5.035173	0.852981	0.000050
 168	1.6616e+01	1.6581	-12.002348	0.000499	4.994237	0.846047	0.000050
 169	1.6716e+01	1.6647	-11.951838	0.000508	5.076109	0.859916	0.000051
 170	1.6816e+01	1.6767	-11.900513	0.000516	5.157982	0.873786	0.000052
 171	1.6915e+01	1.6877	-11.846743	0.000540	5.403600	0.915395	0.000054
 172	1.7015e+01	1.6959	-11.797455	0.000495	4.953300	0.839112	0.000050
 173	1.7114e+01	1.7104	-11.748574	0.000491	4.912364	0.832177	0.000049
 174	1.7213e+01	1.7171	-11.700100	0.000487	4.871427	0.825242	0.000049
 175	1.7313e+01	1.7261	-11.644294	0.000561	5.608282	0.950069	0.000056
 176	1.7413e+01	1.7363	-11.594598	0.000499	4.994237	0.846047	0.000050
 177	1.7512e+01	1.7474	-11.544495	0.000504	5.035173	0.852981	0.000050
 178	1.7611e+01	1.7590	-11.495207	0.000495	4.953300	0.839112	0.000050
 179	1.7711e+01	1.7664	-11.445104	0.000504	5.035173	0.852981	0.000050
 180	1.7811e+01	1.7780	-11.393371	0.000520	5.198918	0.880721	0.000052
 181	1.7910e+01	1.7830	-11.344083	0.000495	4.953300	0.839112	0.000050
 182	1.8009e+01	1.7966	-11.297238	0.000471	4.707682	0.797503	0.000047
 183	1.8109e+01	1.8081	-11.241025	0.000565	5.649218	0.957003	0.000056
 184	1.8209e+01	1.8163	-11.198254	0.000430	4.298318	0.728155	0.000043
 185	1.8308e+01	1.8246	-11.147336	0.000512	5.117046	0.866851	0.000051
 186	1.8407e+01	1.8362	-11.095604	0.000520	5.198918	0.880721	0.000052
 187	1.8507e+01	1.8459	-11.047537	0.000483	4.830491	0.818307	0.000048
 188	1.8607e+01	1.8562	-10.994583	0.000532	5.321727	0.901525	0.000053
 189	1.8706e+01	1.8671	-10.947738	0.000471	4.707682	0.797503	0.000047
 190	1.8805e+01	1.8741	-10.898043	0.000499	4.994237	0.846047	0.000050
 191	1.8905e+01	1.8854	-10.845495	0.000528	5.280791	0.894590	0.000053
 192	1.9005e+01	1.8941	-10.797836	0.000479	4.789555	0.811373	0.000048
 193	1.9104e+01	1.9054	-10.747326	0.000508	5.076109	0.859916	0.000051
 194	1.9203e+01	1.9154	-10.700889	0.000467	4.666746	0.790568	0.000047
 195	1.9303e+01	1.9270	-10.649564	0.000516	5.157982	0.873786	0.000052
 196	1.9402e+01	1.9373	-10.598239	0.000516	5.157982	0.873786	0.000052
 197	1.9502e+01	1.9455	-10.548950	0.000495	4.953300	0.839112	0.000050
 198	1.9602e+01	1.9556	-10.504142	0.000450	4.503000	0.762829	0.000045
 199	1.9701e+01	1.9646	-10.454039	0.000504	5.035173	0.852981	0.000050
 200	1.9800e+01	1.9772	-10.402714	0.000516	5.157982	0.873786	0.000052
 201	1.9900e+01	1.9840	-10.352611	0.000504	5.035173	0.852981	0.000050
 202	2.0000e+01	1.9939	-10.306174	0.000467	4.666746	0.790568	0.000047
 203	2.0099e+01	2.0043	-10.251997	0.000544	5.444537	0.922329	0.000054
 204	2.0198e+01	2.0148	-10.201487	0.000508	5.076109	0.859916	0.000051
 205	2.0298e+01	2.0260	-10.150162	0.000516	5.157982	0.873786	0.000052
 206	2.0398e+01	2.0350	-10.098022	0.000524	5.239855	0.887655	0.000052
 207	2.0497e+01	2.0448	-10.049548	0.000487	4.871427	0.825242	0.000049
 208	2.0596e+01	2.0536	-9.998630	0.000512	5.117046	0.866851	0.000051
 209	2.0696e+01	2.0634	-9.949342	0.000495	4.953300	0.839112	0.000050
 210	2.0796e+01	2.0747	-9.899646	0.000499	4.994237	0.846047	0.000050
 211	2.0895e+01	2.0856	-9.847099	0.000528	5.280791	0.894590	0.000053
 212	2.0994e+01	2.0944	-9.801884	0.000454	4.543936	0.769764	0.000045
 213	2.1094e+01	2.1048	-9.754225	0.000479	4.789555	0.811373	0.000048
 214	2.1194e+01	2.1121	-9.706158	0.000483	4.830491	0.818307	0.000048
 215	2.1293e+01	2.1236	-9.656055	0.000504	5.035173	0.852981	0.000050
 216	2.1392e+01	2.1333	-9.608396	0.000479	4.789555	0.811373	0.000048
 217	2.1492e+01	2.1447	-9.558293	0.000504	5.035173	0.852981	0.000050
 218	2.1591e+01	2.1573	-9.510634	0.000479	4.789555	0.811373	0.000048
 219	2.1691e+01	2.1658	-9.461753	0.000491	4.912364	0.832177	0.000049
 220	2.1791e+01	2.1751	-9.411650	0.000504	5.035173	0.852981	0.000050
 221	2.1890e+01	2.1874	-9.360324	0.000516	5.157982	0.873786	0.000052
 222	2.1989e+01	2.1952	-9.318776	0.000418	4.175509	0.707350	0.000042
 223	2.2089e+01	2.2049	-9.270709	0.000483	4.830491	0.818307	0.000048
 224	2.2189e+01	2.2127	-9.225901	0.000450	4.503000	0.762829	0.000045
 225	2.2288e+01	2.2248	-9.177835	0.000483	4.830491	0.818307	0.000048
 226	2.2387e+01	2.2338	-9.131805	0.000463	4.625809	0.783633	0.000046
 227	2.2487e+01	2.2454	-9.083332	0.000487	4.871427	0.825242	0.000049
 228	2.2587e+01	2.2549	-9.033228	0.000504	5.035173	0.852981	0.000050
 229	2.2686e+01	2.2630	-8.995346	0.000381	3.807082	0.644937	0.000038
 230	2.2785e+01	2.2747	-8.941984	0.000536	5.362664	0.908460	0.000054
 231	2.2885e+01	2.2846	-8.893917	0.000483	4.830491	0.818307	0.000048
 232	2.2985e+01	2.2948	-8.850332	0.000438	4.380191	0.742024	0.000044
 233	2.3084e+01	2.3037	-8.800636	0.000499	4.994237	0.846047	0.000050
 234	2.3183e+01	2.3131	-8.749311	0.000516	5.157982	0.873786	0.000052
 235	2.3283e+01	2.3224	-8.699615	0.000499	4.994237	0.846047	0.000050
 236	2.3383e+01	2.3325	-8.655215	0.000446	4.462064	0.755894	0.000045
 237	2.3482e+01	2.3427	-8.607555	0.000479	4.789555	0.811373	0.000048
 238	2.3581e+01	2.3537	-8.559896	0.000479	4.789555	0.811373	0.000048
 239	2.3681e+01	2.3609	-8.509793	0.000504	5.035173	0.852981	0.000050
 240	2.3780e+01	2.3719	-8.465393	0.000446	4.462064	0.755894	0.000045
 241	2.3880e+01	2.3824	-8.416919	0.000487	4.871427	0.825242	0.000049
 242	2.3980e+01	2.3940	-8.366001	0.000512	5.117046	0.866851	0.000051
 243	2.4079e+01	2.4033	-8.321601	0.000446	4.462064	0.755894	0.000045
 244	2.4178e+01	2.4144	-8.273942	0.000479	4.789555	0.811373	0.000048
 245	2.4278e+01	2.4265	-8.224653	0.000495	4.953300	0.839112	0.000050
 246	2.4378e+01	2.4319	-8.179031	0.000458	4.584873	0.776698	0.000046
 247	2.4477e+01	2.4448	-8.133409	0.000458	4.584873	0.776698	0.000046
 248	2.4576e+01	2.4525	-8.082084	0.000516	5.157982	0.873786	0.000052
 249	2.4676e+01	2.4625	-8.040127	0.000422	4.216446	0.714285	0.000042
 250	2.4776e+01	2.4714	-7.991654	0.000487	4.871427	0.825242	0.000049
 251	2.4875e+01	2.4821	-7.939514	0.000524	5.239855	0.887655	0.000052
 252	2.4974e+01	2.4923	-7.894299	0.000454	4.543936	0.769764	0.000045
 253	2.5074e+01	2.5043	-7.846232	0.000483	4.830491	0.818307	0.000048
 254	2.5174e+01	2.5156	-7.800203	0.000463	4.625809	0.783633	0.000046
 255	2.5273e+01	2.5219	-7.751321	0.000491	4.912364	0.832177	0.000049
 256	2.5372e+01	2.5319	-7.707328	0.000442	4.421127	0.748959	0.000044
 257	2.5472e+01	2.5409	-7.660484	0.000471	4.707682	0.797503	0.000047
 258	2.5572e+01	2.5530	-7.613640	0.000471	4.707682	0.797503	0.000047
 259	2.5671e+01	2.5623	-7.566388	0.000475	4.748618	0.804438	0.000047
 260	2.5770e+01	2.5712	-7.521173	0.000454	4.543936	0.769764	0.000045
 261	2.5870e+01	2.5848	-7.477995	0.000434	4.339255	0.735090	0.000043
 262	2.5970e+01	2.5941	-7.429928	0.000483	4.830491	0.818307	0.000048
 263	2.6069e+01	2.6000	-7.383084	0.000471	4.707682	0.797503	0.000047
 264	2.6169e+01	2.6116	-7.336647	0.000467	4.666746	0.790568	0.000047
 265	2.6268e+01	2.6227	-7.289395	0.000475	4.748618	0.804438	0.000047
 266	2.6367e+01	2.6350	-7.238884	0.000508	5.076109	0.859916	0.000051
 267	2.6467e+01	2.6433	-7.190411	0.000487	4.871427	0.825242	0.000049
 268	2.6567e+01	2.6547	-7.144788	0.000458	4.584873	0.776698	0.000046
 269	2.6666e+01	2.6620	-7.099981	0.000450	4.503000	0.762829	0.000045
 270	2.6765e+01	2.6723	-7.054358	0.000458	4.584873	0.776698	0.000046
 271	2.6865e+01	2.6826	-7.006292	0.000483	4.830491	0.818307	0.000048
 272	2.6965e+01	2.6891	-6.961892	0.000446	4.462064	0.755894	0.000045
 273	2.7064e+01	2.7034	-6.912196	0.000499	4.994237	0.846047	0.000050
 274	2.7163e+01	2.7103	-6.867388	0.000450	4.503000	0.762829	0.000045
 275	2.7263e+01	2.7235	-6.820544	0.000471	4.707682	0.797503	0.000047
 276	2.7363e+01	2.7332	-6.771255	0.000495	4.953300	0.839112	0.000050
 277	2.7462e+01	2.7401	-6.727262	0.000442	4.421127	0.748959	0.000044
 278	2.7561e+01	2.7505	-6.679196	0.000483	4.830491	0.818307	0.000048
 279	2.7661e+01	2.7611	-6.631537	0.000479	4.789555	0.811373	0.000048
 280	2.7761e+01	2.7705	-6.586729	0.000450	4.503000	0.762829	0.000045
 281	2.7860e+01	2.7816	-6.535404	0.000516	5.157982	0.873786	0.000052
 282	2.7959e+01	2.7947	-6.490189	0.000454	4.543936	0.769764	0.000045
 283	2.8059e+01	2.8011	-6.447825	0.000426	4.257382	0.721220	0.000043
 284	2.8159e+01	2.8120	-6.398944	0.000491	4.912364	0.832177	0.000049
 285	2.8258e+01	2.8188	-6.353322	0.000458	4.584873	0.776698	0.000046
 286	2.8358e+01	2.8310	-6.308514	0.000450	4.503000	0.762829	0.000045
 287	2.8457e+01	2.8433	-6.262892	0.000458	4.584873	0.776698	0.000046
 288	2.8556e+01	2.8540	-6.219713	0.000434	4.339255	0.735090	0.000043
 289	2.8656e+01	2.8616	-6.176535	0.000434	4.339255	0.735090	0.000043
 290	2.8756e+01	2.8724	-6.133764	0.000430	4.298318	0.728155	0.000043
 291	2.8855e+01	2.8819	-6.088549	0.000454	4.543936	0.769764	0.000045
 292	2.8954e+01	2.8905	-6.043334	0.000454	4.543936	0.769764	0.000045
 293	2.9054e+01	2.9032	-5.999748	0.000438	4.380191	0.742024	0.000044
 294	2.9154e+01	2.9096	-5.952904	0.000471	4.707682	0.797503	0.000047
 295	2.9253e+01	2.9194	-5.906467	0.000467	4.666746	0.790568	0.000047
 296	2.9352e+01	2.9328	-5.857993	0.000487	4.871427	0.825242	0.000049
 297	2.9452e+01	2.9420	-5.816037	0.000422	4.216446	0.714285	0.000042
 298	2.9552e+01	2.9548	-5.766341	0.000499	4.994237	0.846047	0.000050
 299	2.9651e+01	2.9624	-5.719497	0.000471	4.707682	0.797503	0.000047
 300	2.9750e+01	2.9691	-5.673874	0.000458	4.584873	0.776698	0.000046
 301	2.9850e+01	2.9826	-5.632325	0.000418	4.175509	0.707350	0.000042
 302	2.9950e+01	2.9900	-5.587925	0.000446	4.462064	0.755894	0.000045
 303	3.0049e+01	2.9997	-5.540673	0.000475	4.748618	0.804438	0.000047
 304	3.0148e+01	3.0129	-5.497088	0.000438	4.380191	0.742024	0.000044
 305	3.0248e+01	3.0213	-5.450243	0.000471	4.707682	0.797503	0.000047
 306	3.0348e+01	3.0297	-5.399733	0.000508	5.076109	0.859916	0.000051
 307	3.0447e+01	3.0377	-5.352074	0.000479	4.789555	0.811373	0.000048
 308	3.0547e+01	3.0513	-5.306859	0.000454	4.543936	0.769764	0.000045
 309	3.0646e+01	3.0608	-5.257978	0.000491	4.912364	0.832177	0.000049
 310	3.0745e+01	3.0676	-5.211948	0.000463	4.625809	0.783633	0.000046
 311	3.0845e+01	3.0811	-5.167955	0.000442	4.421127	0.748959	0.000044
 312	3.0945e+01	3.0919	-5.120296	0.000479	4.789555	0.811373	0.000048
 313	3.1044e+01	3.1027	-5.071007	0.000495	4.953300	0.839112	0.000050
 314	3.1143e+01	3.1114	-5.024978	0.000463	4.625809	0.783633	0.000046
 315	3.1243e+01	3.1188	-4.981799	0.000434	4.339255	0.735090	0.000043
 316	3.1343e+01	3.1280	-4.932918	0.000491	4.912364	0.832177	0.000049
 317	3.1442e+01	3.1396	-4.890147	0.000430	4.298318	0.728155	0.000043
 318	3.1541e+01	3.1530	-4.845340	0.000450	4.503000	0.762829	0.000045
 319	3.1641e+01	3.1575	-4.798495	0.000471	4.707682	0.797503	0.000047
 320	3.1741e+01	3.1716	-4.754502	0.000442	4.421127	0.748959	0.000044
 321	3.1840e+01	3.1791	-4.709287	0.000454	4.543936	0.769764	0.000045
 322	3.1939e+01	3.1889	-4.664887	0.000446	4.462064	0.755894	0.000045
 323	3.2039e+01	3.2001	-4.615598	0.000495	4.953300	0.839112	0.000050
 324	3.2139e+01	3.2085	-4.574050	0.000418	4.175509	0.707350	0.000042
 325	3.2238e+01	3.2185	-4.527612	0.000467	4.666746	0.790568	0.000047
 326	3.2337e+01	3.2295	-4.484841	0.000430	4.298318	0.728155	0.000043
 327	3.2437e+01	3.2404	-4.439626	0.000454	4.543936	0.769764	0.000045
 328	3.2536e+01	3.2495	-4.392782	0.000471	4.707682	0.797503	0.000047
 329	3.2636e+01	3.2603	-4.346752	0.000463	4.625809	0.783633	0.000046
 330	3.2736e+01	3.2705	-4.305203	0.000418	4.175509	0.707350	0.000042
 331	3.2835e+01	3.2784	-4.257544	0.000479	4.789555	0.811373	0.000048
 332	3.2934e+01	3.2883	-4.212329	0.000454	4.543936	0.769764	0.000045
 333	3.3034e+01	3.2987	-4.169151	0.000434	4.339255	0.735090	0.000043
 334	3.3133e+01	3.3085	-4.122307	0.000471	4.707682	0.797503	0.000047
 335	3.3233e+01	3.3198	-4.080350	0.000422	4.216446	0.714285	0.000042
 336	3.3333e+01	3.3308	-4.035135	0.000454	4.543936	0.769764	0.000045
 337	3.3432e+01	3.3379	-3.995216	0.000401	4.011764	0.679611	0.000040
 338	3.3532e+01	3.3491	-3.948779	0.000467	4.666746	0.790568	0.000047
 339	3.3631e+01	3.3591	-3.902342	0.000467	4.666746	0.790568	0.000047
 340	3.3730e+01	3.3675	-3.858349	0.000442	4.421127	0.748959	0.000044
 341	3.3830e+01	3.3786	-3.813541	0.000450	4.503000	0.762829	0.000045
 342	3.3929e+01	3.3865	-3.766289	0.000475	4.748618	0.804438	0.000047
 343	3.4029e+01	3.3995	-3.723518	0.000430	4.298318	0.728155	0.000043
 344	3.4129e+01	3.4095	-3.677489	0.000463	4.625809	0.783633	0.000046
 345	3.4228e+01	3.4193	-3.632274	0.000454	4.543936	0.769764	0.000045
 346	3.4328e+01	3.4277	-3.589910	0.000426	4.257382	0.721220	0.000043
 347	3.4427e+01	3.4401	-3.546732	0.000434	4.339255	0.735090	0.000043
 348	3.4526e+01	3.4489	-3.498665	0.000483	4.830491	0.818307	0.000048
 349	3.4626e+01	3.4574	-3.456302	0.000426	4.257382	0.721220	0.000043
 350	3.4725e+01	3.4684	-3.414345	0.000422	4.216446	0.714285	0.000042
 351	3.4825e+01	3.4812	-3.367094	0.000475	4.748618	0.804438	0.000047
 352	3.4925e+01	3.4888	-3.327989	0.000393	3.929891	0.665742	0.000039
 353	3.5024e+01	3.4990	-3.283181	0.000450	4.503000	0.762829	0.000045
 354	3.5123e+01	3.5095	-3.237151	0.000463	4.625809	0.783633	0.000046
 355	3.5223e+01	3.5173	-3.197232	0.000401	4.011764	0.679611	0.000040
 356	3.5322e+01	3.5313	-3.144684	0.000528	5.280791	0.894590	0.000053
 357	3.5422e+01	3.5357	-3.105580	0.000393	3.929891	0.665742	0.000039
 358	3.5522e+01	3.5462	-3.060772	0.000450	4.503000	0.762829	0.000045
 359	3.5621e+01	3.5605	-3.018408	0.000426	4.257382	0.721220	0.000043
 360	3.5721e+01	3.5673	-2.976045	0.000426	4.257382	0.721220	0.000043
 361	3.5820e+01	3.5802	-2.930830	0.000454	4.543936	0.769764	0.000045
 362	3.5919e+01	3.5899	-2.888873	0.000422	4.216446	0.714285	0.000042
 363	3.6019e+01	3.5995	-2.846917	0.000422	4.216446	0.714285	0.000042
 364	3.6118e+01	3.6091	-2.801295	0.000458	4.584873	0.776698	0.000046
 365	3.6218e+01	3.6167	-2.758524	0.000430	4.298318	0.728155	0.000043
 366	3.6318e+01	3.6263	-2.714123	0.000446	4.462064	0.755894	0.000045
 367	3.6417e+01	3.6373	-2.674611	0.000397	3.970827	0.672676	0.000040
 368	3.6517e+01	3.6460	-2.624915	0.000499	4.994237	0.846047	0.000050
 369	3.6616e+01	3.6576	-2.582552	0.000426	4.257382	0.721220	0.000043
 370	3.6715e+01	3.6694	-2.536115	0.000467	4.666746	0.790568	0.000047
 371	3.6815e+01	3.6755	-2.492936	0.000434	4.339255	0.735090	0.000043
 372	3.6914e+01	3.6898	-2.447721	0.000454	4.543936	0.769764	0.000045
 373	3.7014e+01	3.6983	-2.401692	0.000463	4.625809	0.783633	0.000046
 374	3.7114e+01	3.7080	-2.358921	0.000430	4.298318	0.728155	0.000043
 375	3.7213e+01	3.7163	-2.314113	0.000450	4.503000	0.762829	0.000045
 376	3.7313e+01	3.7287	-2.269713	0.000446	4.462064	0.755894	0.000045
 377	3.7412e+01	3.7383	-2.225720	0.000442	4.421127	0.748959	0.000044
 378	3.7511e+01	3.7484	-2.182949	0.000430	4.298318	0.728155	0.000043
 379	3.7611e+01	3.7567	-2.140585	0.000426	4.257382	0.721220	0.000043
 380	3.7711e+01	3.7679	-2.099036	0.000418	4.175509	0.707350	0.000042
 381	3.7810e+01	3.7758	-2.055451	0.000438	4.380191	0.742024	0.000044
 382	3.7910e+01	3.7888	-2.017568	0.000381	3.807082	0.644937	0.000038
 383	3.8009e+01	3.7948	-1.974389	0.000434	4.339255	0.735090	0.000043
 384	3.8108e+01	3.8067	-1.927545	0.000471	4.707682	0.797503	0.000047
 385	3.8208e+01	3.8165	-1.880701	0.000471	4.707682	0.797503	0.000047
 386	3.8307e+01	3.8247	-1.837522	0.000434	4.339255	0.735090	0.000043
 387	3.8407e+01	3.8351	-1.798825	0.000389	3.888955	0.658807	0.000039
 388	3.8507e+01	3.8453	-1.753610	0.000454	4.543936	0.769764	0.000045
 389	3.8606e+01	3.8560	-1.712061	0.000418	4.175509	0.707350	0.000042
 390	3.8706e+01	3.8672	-1.668882	0.000434	4.339255	0.735090	0.000043
 391	3.8805e+01	3.8788	-1.631407	0.000377	3.766146	0.638002	0.000038
 392	3.8904e+01	3.8848	-1.593117	0.000385	3.848018	0.651872	0.000038
 393	3.9004e+01	3.8985	-1.550753	0.000426	4.257382	0.721220	0.000043
 394	3.9103e+01	3.9056	-1.510019	0.000409	4.093636	0.693481	0.000041
 395	3.9203e+01	3.9161	-1.468877	0.000413	4.134573	0.700416	0.000041
 396	3.9303e+01	3.9252	-1.427736	0.000413	4.134573	0.700416	0.000041
 397	3.9402e+01	3.9358	-1.382521	0.000454	4.543936	0.769764	0.000045
 398	3.9502e+01	3.9443	-1.340972	0.000418	4.175509	0.707350	0.000042
 399	3.9601e+01	3.9574	-1.298608	0.000426	4.257382	0.721220	0.000043
 400	3.9700e+01	3.9651	-1.259911	0.000389	3.888955	0.658807	0.000039
 401	3.9800e+01	3.9741	-1.214695	0.000454	4.543936	0.769764	0.000045
 402	3.9900e+01	3.9854	-1.172332	0.000426	4.257382	0.721220	0.000043
 403	3.9999e+01	3.9966	-1.132820	0.000397	3.970827	0.672676	0.000040
 404	4.0099e+01	4.0037	-1.090456	0.000426	4.257382	0.721220	0.000043
 405	4.0198e+01	4.0160	-1.048500	0.000422	4.216446	0.714285	0.000042
 406	4.0297e+01	4.0276	-1.006543	0.000422	4.216446	0.714285	0.000042
 407	4.0397e+01	4.0350	-0.963365	0.000434	4.339255	0.735090	0.000043
 408	4.0496e+01	4.0470	-0.920187	0.000434	4.339255	0.735090	0.000043
 409	4.0596e+01	4.0548	-0.874972	0.000454	4.543936	0.769764	0.000045
 410	4.0696e+01	4.0646	-0.837089	0.000381	3.807082	0.644937	0.000038
 411	4.0795e+01	4.0710	-0.799206	0.000381	3.807082	0.644937	0.000038
 412	4.0895e+01	4.0849	-0.752769	0.000467	4.666746	0.790568	0.000047
 413	4.0994e+01	4.0957	-0.711627	0.000413	4.134573	0.700416	0.000041
 414	4.1093e+01	4.1059	-0.668449	0.000434	4.339255	0.735090	0.000043
 415	4.1193e+01	4.1155	-0.627308	0.000413	4.134573	0.700416	0.000041
 416	4.1292e+01	4.1244	-0.586166	0.000413	4.134573	0.700416	0.000041
 417	4.1392e+01	4.1346	-0.546654	0.000397	3.970827	0.672676	0.000040
 418	4.1492e+01	4.1469	-0.503883	0.000430	4.298318	0.728155	0.000043
 419	4.1591e+01	4.1574	-0.463556	0.000405	4.052700	0.686546	0.000041
 420	4.1691e+01	4.1615	-0.420785	0.000430	4.298318	0.728155	0.000043
 421	4.1790e+01	4.1765	-0.376792	0.000442	4.421127	0.748959	0.000044
 422	4.1889e+01	4.1862	-0.338094	0.000389	3.888955	0.658807	0.000039
 423	4.1989e+01	4.1959	-0.292065	0.000463	4.625809	0.783633	0.000046
 424	4.2089e+01	4.2040	-0.254182	0.000381	3.807082	0.644937	0.000038
 425	4.2188e+01	4.2147	-0.213855	0.000405	4.052700	0.686546	0.000041
 426	4.2288e+01	4.2239	-0.173528	0.000405	4.052700	0.686546	0.000041
 427	4.2387e+01	4.2349	-0.134830	0.000389	3.888955	0.658807	0.000039
 428	4.2486e+01	4.2457	-0.090430	0.000446	4.462064	0.755894	0.000045
 429	4.2586e+01	4.2548	-0.049696	0.000409	4.093636	0.693481	0.000041
 430	4.2685e+01	4.2658	-0.008147	0.000418	4.175509	0.707350	0.000042
 431	4.2785e+01	4.2757	0.033402	0.000418	4.175509	0.707350	0.000042
 432	4.2885e+01	4.2843	0.074544	0.000413	4.134573	0.700416	0.000041
 433	4.2984e+01	4.2918	0.118129	0.000438	4.380191	0.742024	0.000044
 434	4.3084e+01	4.3018	0.159678	0.000418	4.175509	0.707350	0.000042
 435	4.3183e+01	4.3144	0.200005	0.000405	4.052700	0.686546	0.000041
 436	4.3282e+01	4.3264	0.246442	0.000467	4.666746	0.790568	0.000047
 437	4.3382e+01	4.3349	0.285140	0.000389	3.888955	0.658807	0.000039
 438	4.3481e+01	4.3462	0.325874	0.000409	4.093636	0.693481	0.000041
 439	4.3581e+01	4.3536	0.367423	0.000418	4.175509	0.707350	0.000042
 440	4.3681e+01	4.3629	0.408565	0.000413	4.134573	0.700416	0.000041
 441	4.3780e+01	4.3737	0.450928	0.000426	4.257382	0.721220	0.000043
 442	4.3880e+01	4.3840	0.486367	0.000356	3.561464	0.603328	0.000036
 443	4.3979e+01	4.3952	0.531582	0.000454	4.543936	0.769764	0.000045
 444	4.4078e+01	4.4024	0.569872	0.000385	3.848018	0.651872	0.000038
 445	4.4178e+01	4.4137	0.612236	0.000426	4.257382	0.721220	0.000043
 446	4.4278e+01	4.4231	0.652155	0.000401	4.011764	0.679611	0.000040
 447	4.4377e+01	4.4328	0.695334	0.000434	4.339255	0.735090	0.000043
 448	4.4477e+01	4.4431	0.736068	0.000409	4.093636	0.693481	0.000041
 449	4.4576e+01	4.4531	0.778432	0.000426	4.257382	0.721220	0.000043
 450	4.4675e+01	4.4636	0.818351	0.000401	4.011764	0.679611	0.000040
 451	4.4775e+01	4.4725	0.859085	0.000409	4.093636	0.693481	0.000041
 452	4.4874e+01	4.4839	0.895339	0.000364	3.643336	0.617198	0.000036
 453	4.4974e+01	4.4918	0.939332	0.000442	4.421127	0.748959	0.000044
 454	4.5074e+01	4.5000	0.978844	0.000397	3.970827	0.672676	0.000040
 455	4.5173e+01	4.5103	1.018356	0.000397	3.970827	0.672676	0.000040
 456	4.5273e+01	4.5235	1.053795	0.000356	3.561464	0.603328	0.000036
 457	4.5372e+01	4.5332	1.092900	0.000393	3.929891	0.665742	0.000039
 458	4.5471e+01	4.5423	1.134449	0.000418	4.175509	0.707350	0.000042
 459	4.5571e+01	4.5525	1.176813	0.000426	4.257382	0.721220	0.000043
 460	4.5670e+01	4.5632	1.215918	0.000393	3.929891	0.665742	0.000039
 461	4.5770e+01	4.5717	1.255837	0.000401	4.011764	0.679611	0.000040
 462	4.5870e+01	4.5824	1.295349	0.000397	3.970827	0.672676	0.000040
 463	4.5969e+01	4.5928	1.336491	0.000413	4.134573	0.700416	0.000041
 464	4.6069e+01	4.6026	1.385372	0.000491	4.912364	0.832177	0.000049
 465	4.6168e+01	4.6127	1.423662	0.000385	3.848018	0.651872	0.000038
 466	4.6267e+01	4.6221	1.458286	0.000348	3.479591	0.589459	0.000035
 467	4.6367e+01	4.6323	1.501465	0.000434	4.339255	0.735090	0.000043
 468	4.6467e+01	4.6441	1.536903	0.000356	3.561464	0.603328	0.000036
 469	4.6566e+01	4.6525	1.580896	0.000442	4.421127	0.748959	0.000044
 470	4.6666e+01	4.6612	1.615113	0.000344	3.438655	0.582524	0.000034
 471	4.6765e+01	4.6735	1.657884	0.000430	4.298318	0.728155	0.000043
 472	4.6864e+01	4.6810	1.699026	0.000413	4.134573	0.700416	0.000041
 473	4.6964e+01	4.6925	1.739353	0.000405	4.052700	0.686546	0.000041
 474	4.7063e+01	4.7038	1.782124	0.000430	4.298318	0.728155	0.000043
 475	4.7163e+01	4.7121	1.823673	0.000418	4.175509	0.707350	0.000042
 476	4.7263e+01	4.7231	1.869702	0.000463	4.625809	0.783633	0.000046
 477	4.7362e+01	4.7300	1.906770	0.000373	3.725209	0.631068	0.000037
 478	4.7462e+01	4.7432	1.950763	0.000442	4.421127	0.748959	0.000044
 479	4.7561e+01	4.7501	1.990276	0.000397	3.970827	0.672676	0.000040
 480	4.7660e+01	4.7622	2.031010	0.000409	4.093636	0.693481	0.000041
 481	4.7760e+01	4.7703	2.074188	0.000434	4.339255	0.735090	0.000043
 482	4.7859e+01	4.7829	2.113700	0.000397	3.970827	0.672676	0.000040
 483	4.7959e+01	4.7939	2.157286	0.000438	4.380191	0.742024	0.000044
 484	4.8059e+01	4.8060	2.195984	0.000389	3.888955	0.658807	0.000039
 485	4.8158e+01	4.8115	2.235496	0.000397	3.970827	0.672676	0.000040
 486	4.8258e+01	4.8220	2.280711	0.000454	4.543936	0.769764	0.000045
 487	4.8357e+01	4.8314	2.315742	0.000352	3.520527	0.596393	0.000035
 488	4.8456e+01	4.8391	2.355662	0.000401	4.011764	0.679611	0.000040
 489	4.8556e+01	4.8541	2.398026	0.000426	4.257382	0.721220	0.000043
 490	4.8656e+01	4.8633	2.439167	0.000413	4.134573	0.700416	0.000041
 491	4.8755e+01	4.8701	2.478679	0.000397	3.970827	0.672676	0.000040
 492	4.8855e+01	4.8792	2.516562	0.000381	3.807082	0.644937	0.000038
 493	4.8954e+01	4.8908	2.556889	0.000405	4.052700	0.686546	0.000041
 494	4.9053e+01	4.9008	2.597216	0.000405	4.052700	0.686546	0.000041
 495	4.9153e+01	4.9123	2.633877	0.000368	3.684273	0.624133	0.000037
 496	4.9252e+01	4.9219	2.676648	0.000430	4.298318	0.728155	0.000043
 497	4.9352e+01	4.9349	2.716567	0.000401	4.011764	0.679611	0.000040
 498	4.9452e+01	4.9415	2.757302	0.000409	4.093636	0.693481	0.000041
 499	4.9551e+01	4.9499	2.798443	0.000413	4.134573	0.700416	0.000041
 500	4.9651e+01	4.9601	2.837141	0.000389	3.888955	0.658807	0.000039
 501	4.9750e+01	4.9697	2.876653	0.000397	3.970827	0.672676	0.000040
 502	4.9849e+01	4.9796	2.912092	0.000356	3.561464	0.603328	0.000036
 503	4.9949e+01	4.9923	2.951604	0.000397	3.970827	0.672676	0.000040
 504	5.0048e+01	5.0024	2.995597	0.000442	4.421127	0.748959	0.000044
 505	5.0148e+01	5.0101	3.033073	0.000377	3.766146	0.638002	0.000038
 506	5.0248e+01	5.0219	3.072178	0.000393	3.929891	0.665742	0.000039
 507	5.0347e+01	5.0314	3.113726	0.000418	4.175509	0.707350	0.000042
 508	5.0447e+01	5.0362	3.150387	0.000368	3.684273	0.624133	0.000037
 509	5.0546e+01	5.0507	3.193973	0.000438	4.380191	0.742024	0.000044
 510	5.0645e+01	5.0585	3.234707	0.000409	4.093636	0.693481	0.000041
 511	5.0745e+01	5.0706	3.271368	0.000368	3.684273	0.624133	0.000037
 512	5.0844e+01	5.0782	3.313324	0.000422	4.216446	0.714285	0.000042
 513	5.0944e+01	5.0879	3.352837	0.000397	3.970827	0.672676	0.000040
 514	5.1044e+01	5.1025	3.390312	0.000377	3.766146	0.638002	0.000038
 515	5.1143e+01	5.1101	3.430639	0.000405	4.052700	0.686546	0.000041
 516	5.1242e+01	5.1211	3.470151	0.000397	3.970827	0.672676	0.000040
 517	5.1342e+01	5.1290	3.507219	0.000373	3.725209	0.631068	0.000037
 518	5.1441e+01	5.1414	3.545917	0.000389	3.888955	0.658807	0.000039
 519	5.1541e+01	5.1486	3.582985	0.000373	3.725209	0.631068	0.000037
 520	5.1641e+01	5.1595	3.622905	0.000401	4.011764	0.679611	0.000040
 521	5.1740e+01	5.1709	3.660380	0.000377	3.766146	0.638002	0.000038
 522	5.1840e+01	5.1819	3.701114	0.000409	4.093636	0.693481	0.000041
 523	5.1939e+01	5.1889	3.741849	0.000409	4.093636	0.693481	0.000041
 524	5.2038e+01	5.2011	3.782176	0.000405	4.052700	0.686546	0.000041
 525	5.2138e+01	5.2108	3.820466	0.000385	3.848018	0.651872	0.000038
 526	5.2237e+01	5.2206	3.859163	0.000389	3.888955	0.658807	0.000039
 527	5.2337e+01	5.2303	3.894602	0.000356	3.561464	0.603328	0.000036
 528	5.2437e+01	5.2352	3.932892	0.000385	3.848018	0.651872	0.000038
 529	5.2536e+01	5.2503	3.974034	0.000413	4.134573	0.700416	0.000041
 530	5.2636e+01	5.2584	4.011102	0.000373	3.725209	0.631068	0.000037
 531	5.2735e+01	5.2725	4.053873	0.000430	4.298318	0.728155	0.000043
 532	5.2834e+01	5.2783	4.088497	0.000348	3.479591	0.589459	0.000035
 533	5.2934e+01	5.2890	4.126380	0.000381	3.807082	0.644937	0.000038
 534	5.3033e+01	5.2990	4.168336	0.000422	4.216446	0.714285	0.000042
 535	5.3133e+01	5.3060	4.205405	0.000373	3.725209	0.631068	0.000037
 536	5.3233e+01	5.3190	4.244509	0.000393	3.929891	0.665742	0.000039
 537	5.3332e+01	5.3288	4.285244	0.000409	4.093636	0.693481	0.000041
 538	5.3431e+01	5.3388	4.325163	0.000401	4.011764	0.679611	0.000040
 539	5.3531e+01	5.3490	4.361009	0.000360	3.602400	0.610263	0.000036
 540	5.3630e+01	5.3573	4.405410	0.000446	4.462064	0.755894	0.000045
 541	5.3730e+01	5.3695	4.448995	0.000438	4.380191	0.742024	0.000044
 542	5.3830e+01	5.3803	4.486064	0.000373	3.725209	0.631068	0.000037
 543	5.3929e+01	5.3863	4.524761	0.000389	3.888955	0.658807	0.000039
 544	5.4029e+01	5.3973	4.564273	0.000397	3.970827	0.672676	0.000040
 545	5.4128e+01	5.4096	4.604193	0.000401	4.011764	0.679611	0.000040
 546	5.4227e+01	5.4195	4.640446	0.000364	3.643336	0.617198	0.000036
 547	5.4327e+01	5.4299	4.676700	0.000364	3.643336	0.617198	0.000036
 548	5.4426e+01	5.4398	4.717434	0.000409	4.093636	0.693481	0.000041
 549	5.4526e+01	5.4501	4.756946	0.000397	3.970827	0.672676	0.000040
 550	5.4626e+01	5.4609	4.791570	0.000348	3.479591	0.589459	0.000035
 551	5.4725e+01	5.4678	4.831490	0.000401	4.011764	0.679611	0.000040
 552	5.4825e+01	5.4787	4.874668	0.000434	4.339255	0.735090	0.000043
 553	5.4924e+01	5.4859	4.912551	0.000381	3.807082	0.644937	0.000038
 554	5.5023e+01	5.4967	4.947990	0.000356	3.561464	0.603328	0.000036
 555	5.5123e+01	5.5074	4.987910	0.000401	4.011764	0.679611	0.000040
 556	5.5222e+01	5.5171	5.022941	0.000352	3.520527	0.596393	0.000035
 557	5.5322e+01	5.5264	5.061231	0.000385	3.848018	0.651872	0.000038
 558	5.5422e+01	5.5366	5.092597	0.000315	3.152100	0.533980	0.000032
 559	5.5521e+01	5.5477	5.129665	0.000373	3.725209	0.631068	0.000037
 560	5.5620e+01	5.5567	5.167140	0.000377	3.766146	0.638002	0.000038
 561	5.5720e+01	5.5688	5.205838	0.000389	3.888955	0.658807	0.000039
 562	5.5819e+01	5.5765	5.242091	0.000364	3.643336	0.617198	0.000036
 563	5.5919e+01	5.5904	5.279567	0.000377	3.766146	0.638002	0.000038
 564	5.6019e+01	5.5994	5.313784	0.000344	3.438655	0.582524	0.000034
 565	5.6118e+01	5.6074	5.351666	0.000381	3.807082	0.644937	0.000038
 566	5.6218e+01	5.6171	5.389549	0.000381	3.807082	0.644937	0.000038
 567	5.6317e+01	5.6257	5.431506	0.000422	4.216446	0.714285	0.000042
 568	5.6416e+01	5.6381	5.469388	0.000381	3.807082	0.644937	0.000038
 569	5.6516e+01	5.6495	5.506864	0.000377	3.766146	0.638002	0.000038
 570	5.6615e+01	5.6553	5.537415	0.000307	3.070227	0.520111	0.000031
 571	5.6715e+01	5.6673	5.578964	0.000418	4.175509	0.707350	0.000042
 572	5.6815e+01	5.6773	5.617254	0.000385	3.848018	0.651872	0.000038
 573	5.6914e+01	5.6885	5.653100	0.000360	3.602400	0.610263	0.000036
 574	5.7014e+01	5.6933	5.693834	0.000409	4.093636	0.693481	0.000041
 575	5.7113e+01	5.7056	5.726829	0.000332	3.315846	0.561719	0.000033
 576	5.7212e+01	5.7163	5.765526	0.000389	3.888955	0.658807	0.000039
 577	5.7312e+01	5.7262	5.800965	0.000356	3.561464	0.603328	0.000036
 578	5.7411e+01	5.7362	5.838033	0.000373	3.725209	0.631068	0.000037
 579	5.7511e+01	5.7468	5.875916	0.000381	3.807082	0.644937	0.000038
 580	5.7611e+01	5.7574	5.917465	0.000418	4.175509	0.707350	0.000042
 581	5.7710e+01	5.7688	5.954126	0.000368	3.684273	0.624133	0.000037
 582	5.7809e+01	5.7748	5.987528	0.000336	3.356782	0.568654	0.000034
 583	5.7909e+01	5.7863	6.026633	0.000393	3.929891	0.665742	0.000039
 584	5.8008e+01	5.7972	6.063294	0.000368	3.684273	0.624133	0.000037
 585	5.8108e+01	5.8057	6.101177	0.000381	3.807082	0.644937	0.000038
 586	5.8208e+01	5.8169	6.142318	0.000413	4.134573	0.700416	0.000041
 587	5.8307e+01	5.8303	6.174906	0.000327	3.274909	0.554785	0.000033
 588	5.8407e+01	5.8376	6.211974	0.000373	3.725209	0.631068	0.000037
 589	5.8506e+01	5.8458	6.250264	0.000385	3.848018	0.651872	0.000038
 590	5.8605e+01	5.8569	6.291406	0.000413	4.134573	0.700416	0.000041
 591	5.8705e+01	5.8630	6.326030	0.000348	3.479591	0.589459	0.000035
 592	5.8804e+01	5.8739	6.361469	0.000356	3.561464	0.603328	0.000036
 593	5.8904e+01	5.8845	6.394871	0.000336	3.356782	0.568654	0.000034
 594	5.9004e+01	5.8939	6.432754	0.000381	3.807082	0.644937	0.000038
 595	5.9103e+01	5.9068	6.470229	0.000377	3.766146	0.638002	0.000038
 596	5.9203e+01	5.9138	6.509741	0.000397	3.970827	0.672676	0.000040
 597	5.9302e+01	5.9244	6.542329	0.000327	3.274909	0.554785	0.000033
 598	5.9401e+01	5.9347	6.582248	0.000401	4.011764	0.679611	0.000040
 599	5.9501e+01	5.9460	6.617280	0.000352	3.520527	0.596393	0.000035
 600	5.9600e+01	5.9550	6.658829	0.000418	4.175509	0.707350	0.000042
 601	5.9700e+01	5.9664	6.694267	0.000356	3.561464	0.603328	0.000036
 602	5.9800e+01	5.9758	6.733372	0.000393	3.929891	0.665742	0.000039
 603	5.9899e+01	5.9839	6.771255	0.000381	3.807082	0.644937	0.000038
 604	5.9998e+01	5.9948	6.806694	0.000356	3.561464	0.603328	0.000036
 605	6.0098e+01	6.0049	6.842540	0.000360	3.602400	0.610263	0.000036
 606	6.0197e+01	6.0169	6.878794	0.000364	3.643336	0.617198	0.000036
 607	6.0297e+01	6.0271	6.917899	0.000393	3.929891	0.665742	0.000039
 608	6.0397e+01	6.0326	6.955374	0.000377	3.766146	0.638002	0.000038
 609	6.0496e+01	6.0445	6.989998	0.000348	3.479591	0.589459	0.000035
 610	6.0596e+01	6.0555	7.026252	0.000364	3.643336	0.617198	0.000036
 611	6.0695e+01	6.0622	7.062505	0.000364	3.643336	0.617198	0.000036
 612	6.0794e+01	6.0772	7.102425	0.000401	4.011764	0.679611	0.000040
 613	6.0894e+01	6.0905	7.140308	0.000381	3.807082	0.644937	0.000038
 614	6.0993e+01	6.0915	7.179412	0.000393	3.929891	0.665742	0.000039
 615	6.1093e+01	6.1043	7.211593	0.000323	3.233973	0.547850	0.000032
 616	6.1193e+01	6.1137	7.251512	0.000401	4.011764	0.679611	0.000040
 617	6.1292e+01	6.1253	7.282877	0.000315	3.152100	0.533980	0.000032
 618	6.1392e+01	6.1359	7.320760	0.000381	3.807082	0.644937	0.000038
 619	6.1491e+01	6.1451	7.359865	0.000393	3.929891	0.665742	0.000039
 620	6.1590e+01	6.1529	7.392453	0.000327	3.274909	0.554785	0.000033
 621	6.1690e+01	6.1649	7.431558	0.000393	3.929891	0.665742	0.000039
 622	6.1789e+01	6.1753	7.466996	0.000356	3.561464	0.603328	0.000036
 623	6.1889e+01	6.1842	7.500806	0.000340	3.397718	0.575589	0.000034
 624	6.1989e+01	6.1938	7.534615	0.000340	3.397718	0.575589	0.000034
 625	6.2088e+01	6.2026	7.570461	0.000360	3.602400	0.610263	0.000036
 626	6.2188e+01	6.2159	7.608344	0.000381	3.807082	0.644937	0.000038
 627	6.2287e+01	6.2254	7.641746	0.000336	3.356782	0.568654	0.000034
 628	6.2386e+01	6.2348	7.676778	0.000352	3.520527	0.596393	0.000035
 629	6.2486e+01	6.2457	7.712217	0.000356	3.561464	0.603328	0.000036
 630	6.2586e+01	6.2556	7.751729	0.000397	3.970827	0.672676	0.000040
 631	6.2685e+01	6.2643	7.787982	0.000364	3.643336	0.617198	0.000036
 632	6.2785e+01	6.2779	7.823828	0.000360	3.602400	0.610263	0.000036
 633	6.2884e+01	6.2862	7.862933	0.000393	3.929891	0.665742	0.000039
 634	6.2983e+01	6.2934	7.896743	0.000340	3.397718	0.575589	0.000034
 635	6.3083e+01	6.3044	7.932589	0.000360	3.602400	0.610263	0.000036
 636	6.3182e+01	6.3149	7.967213	0.000348	3.479591	0.589459	0.000035
 637	6.3282e+01	6.3250	7.998578	0.000315	3.152100	0.533980	0.000032
 638	6.3382e+01	6.3335	8.036869	0.000385	3.848018	0.651872	0.000038
 639	6.3481e+01	6.3428	8.073529	0.000368	3.684273	0.624133	0.000037
 640	6.3581e+01	6.3525	8.106931	0.000336	3.356782	0.568654	0.000034
 641	6.3680e+01	6.3628	8.146444	0.000397	3.970827	0.672676	0.000040
 642	6.3779e+01	6.3712	8.186771	0.000405	4.052700	0.686546	0.000041
 643	6.3879e+01	6.3836	8.226283	0.000397	3.970827	0.672676	0.000040
 644	6.3978e+01	6.3949	8.264573	0.000385	3.848018	0.651872	0.000038
 645	6.4078e+01	6.4008	8.300419	0.000360	3.602400	0.610263	0.000036
 646	6.4177e+01	6.4161	8.338709	0.000385	3.848018	0.651872	0.000038
 647	6.4277e+01	6.4245	8.375778	0.000373	3.725209	0.631068	0.000037
 648	6.4376e+01	6.4336	8.413660	0.000381	3.807082	0.644937	0.000038
 649	6.4476e+01	6.4417	8.450321	0.000368	3.684273	0.624133	0.000037
 650	6.4576e+01	6.4530	8.488204	0.000381	3.807082	0.644937	0.000038
 651	6.4675e+01	6.4652	8.521606	0.000336	3.356782	0.568654	0.000034
 652	6.4775e+01	6.4712	8.560304	0.000389	3.888955	0.658807	0.000039
 653	6.4874e+01	6.4805	8.593706	0.000336	3.356782	0.568654	0.000034
 654	6.4974e+01	6.4913	8.630774	0.000373	3.725209	0.631068	0.000037
 655	6.5073e+01	6.5012	8.666620	0.000360	3.602400	0.610263	0.000036
 656	6.5172e+01	6.5130	8.701244	0.000348	3.479591	0.589459	0.000035
 657	6.5272e+01	6.5214	8.739942	0.000389	3.888955	0.658807	0.000039
 658	6.5371e+01	6.5340	8.774566	0.000348	3.479591	0.589459	0.000035
 659	6.5471e+01	6.5430	8.813263	0.000389	3.888955	0.658807	0.000039
 660	6.5570e+01	6.5553	8.845444	0.000323	3.233973	0.547850	0.000032
 661	6.5670e+01	6.5601	8.884956	0.000397	3.970827	0.672676	0.000040
 662	6.5769e+01	6.5730	8.922839	0.000381	3.807082	0.644937	0.000038
 663	6.5869e+01	6.5819	8.956648	0.000340	3.397718	0.575589	0.000034
 664	6.5969e+01	6.5924	8.990457	0.000340	3.397718	0.575589	0.000034
 665	6.6068e+01	6.6022	9.029562	0.000393	3.929891	0.665742	0.000039
 666	6.6168e+01	6.6106	9.062557	0.000332	3.315846	0.561719	0.000033
 667	6.6267e+01	6.6222	9.098811	0.000364	3.643336	0.617198	0.000036
 668	6.6367e+01	6.6329	9.134657	0.000360	3.602400	0.610263	0.000036
 669	6.6466e+01	6.6431	9.171725	0.000373	3.725209	0.631068	0.000037
 670	6.6566e+01	6.6512	9.205127	0.000336	3.356782	0.568654	0.000034
 671	6.6665e+01	6.6619	9.242195	0.000373	3.725209	0.631068	0.000037
 672	6.6764e+01	6.6711	9.278856	0.000368	3.684273	0.624133	0.000037
 673	6.6864e+01	6.6805	9.310221	0.000315	3.152100	0.533980	0.000032
 674	6.6963e+01	6.6927	9.350548	0.000405	4.052700	0.686546	0.000041
 675	6.7063e+01	6.7023	9.385580	0.000352	3.520527	0.596393	0.000035
 676	6.7162e+01	6.7131	9.419797	0.000344	3.438655	0.582524	0.000034
 677	6.7262e+01	6.7195	9.460938	0.000413	4.134573	0.700416	0.000041
 678	6.7362e+01	6.7313	9.492711	0.000319	3.193036	0.540915	0.000032
 679	6.7461e+01	6.7419	9.530594	0.000381	3.807082	0.644937	0.000038
 680	6.7561e+01	6.7510	9.566440	0.000360	3.602400	0.610263	0.000036
 681	6.7660e+01	6.7611	9.599435	0.000332	3.315846	0.561719	0.000033
 682	6.7760e+01	6.7713	9.636910	0.000377	3.766146	0.638002	0.000038
 683	6.7859e+01	6.7834	9.671942	0.000352	3.520527	0.596393	0.000035
 684	6.7959e+01	6.7896	9.704936	0.000332	3.315846	0.561719	0.000033
 685	6.8058e+01	6.7992	9.742412	0.000377	3.766146	0.638002	0.000038
 686	6.8157e+01	6.8124	9.778258	0.000360	3.602400	0.610263	0.000036
 687	6.8257e+01	6.8221	9.810438	0.000323	3.233973	0.547850	0.000032
 688	6.8356e+01	6.8303	9.847506	0.000373	3.725209	0.631068	0.000037
 689	6.8456e+01	6.8420	9.884574	0.000373	3.725209	0.631068	0.000037
 690	6.8555e+01	6.8529	9.916347	0.000319	3.193036	0.540915	0.000032
 691	6.8655e+01	6.8621	9.955045	0.000389	3.888955	0.658807	0.000039
 692	6.8754e+01	6.8722	9.993742	0.000389	3.888955	0.658807	0.000039
 693	6.8854e+01	6.8783	10.026737	0.000332	3.315846	0.561719	0.000033
 694	6.8954e+01	6.8902	10.062176	0.000356	3.561464	0.603328	0.000036
 695	6.9053e+01	6.9029	10.099244	0.000373	3.725209	0.631068	0.000037
 696	6.9153e+01	6.9123	10.131017	0.000319	3.193036	0.540915	0.000032
 697	6.9252e+01	6.9205	10.165233	0.000344	3.438655	0.582524	0.000034
 698	6.9352e+01	6.9308	10.202709	0.000377	3.766146	0.638002	0.000038
 699	6.9451e+01	6.9387	10.234889	0.000323	3.233973	0.547850	0.000032
 700	6.9550e+01	6.9527	10.270735	0.000360	3.602400	0.610263	0.000036
 701	6.9650e+01	6.9574	10.301693	0.000311	3.111164	0.527045	0.000031
 702	6.9749e+01	6.9717	10.341613	0.000401	4.011764	0.679611	0.000040
 703	6.9849e+01	6.9772	10.376644	0.000352	3.520527	0.596393	0.000035
 704	6.9948e+01	6.9900	10.410454	0.000340	3.397718	0.575589	0.000034
 705	7.0048e+01	7.0021	10.444670	0.000344	3.438655	0.582524	0.000034
 706	7.0147e+01	7.0095	10.486627	0.000422	4.216446	0.714285	0.000042
 707	7.0247e+01	7.0210	10.521658	0.000352	3.520527	0.596393	0.000035
 708	7.0347e+01	7.0289	10.557912	0.000364	3.643336	0.617198	0.000036
 709	7.0446e+01	7.0393	10.591314	0.000336	3.356782	0.568654	0.000034
 710	7.0546e+01	7.0495	10.627975	0.000368	3.684273	0.624133	0.000037
 711	7.0645e+01	7.0606	10.665857	0.000381	3.807082	0.644937	0.000038
 712	7.0745e+01	7.0707	10.700481	0.000348	3.479591	0.589459	0.000035
 713	7.0844e+01	7.0822	10.735920	0.000356	3.561464	0.603328	0.000036
 714	7.0944e+01	7.0900	10.769322	0.000336	3.356782	0.568654	0.000034
 715	7.1043e+01	7.0980	10.802724	0.000336	3.356782	0.568654	0.000034
 716	7.1142e+01	7.1105	10.834497	0.000319	3.193036	0.540915	0.000032
 717	7.1242e+01	7.1188	10.876046	0.000418	4.175509	0.707350	0.000042
 718	7.1341e+01	7.1275	10.912300	0.000364	3.643336	0.617198	0.000036
 719	7.1441e+01	7.1392	10.945702	0.000336	3.356782	0.568654	0.000034
 720	7.1540e+01	7.1506	10.979511	0.000340	3.397718	0.575589	0.000034
 721	7.1640e+01	7.1587	11.015765	0.000364	3.643336	0.617198	0.000036
 722	7.1740e+01	7.1692	11.051203	0.000356	3.561464	0.603328	0.000036
 723	7.1839e+01	7.1802	11.086235	0.000352	3.520527	0.596393	0.000035
 724	7.1939e+01	7.1887	11.120452	0.000344	3.438655	0.582524	0.000034
 725	7.2038e+01	7.1975	11.152632	0.000323	3.233973	0.547850	0.000032
 726	7.2138e+01	7.2076	11.183997	0.000315	3.152100	0.533980	0.000032
 727	7.2237e+01	7.2186	11.216584	0.000327	3.274909	0.554785	0.000033
 728	7.2337e+01	7.2292	11.247950	0.000315	3.152100	0.533980	0.000032
 729	7.2436e+01	7.2380	11.281759	0.000340	3.397718	0.575589	0.000034
 730	7.2535e+01	7.2486	11.318420	0.000368	3.684273	0.624133	0.000037
 731	7.2635e+01	7.2597	11.351822	0.000336	3.356782	0.568654	0.000034
 732	7.2734e+01	7.2694	11.383595	0.000319	3.193036	0.540915	0.000032
 733	7.2834e+01	7.2779	11.417404	0.000340	3.397718	0.575589	0.000034
 734	7.2933e+01	7.2896	11.451621	0.000344	3.438655	0.582524	0.000034
 735	7.3033e+01	7.2984	11.480950	0.000295	2.947418	0.499306	0.000029
 736	7.3132e+01	7.3071	11.522499	0.000418	4.175509	0.707350	0.000042
 737	7.3232e+01	7.3201	11.554271	0.000319	3.193036	0.540915	0.000032
 738	7.3332e+01	7.3291	11.588081	0.000340	3.397718	0.575589	0.000034
 739	7.3431e+01	7.3428	11.621076	0.000332	3.315846	0.561719	0.000033
 740	7.3531e+01	7.3483	11.658551	0.000377	3.766146	0.638002	0.000038
 741	7.3630e+01	7.3562	11.692361	0.000340	3.397718	0.575589	0.000034
 742	7.3730e+01	7.3672	11.722911	0.000307	3.070227	0.520111	0.000031
 743	7.3829e+01	7.3785	11.760387	0.000377	3.766146	0.638002	0.000038
 744	7.3928e+01	7.3893	11.792974	0.000327	3.274909	0.554785	0.000033
 745	7.4028e+01	7.3962	11.831264	0.000385	3.848018	0.651872	0.000038
 746	7.4127e+01	7.4081	11.861815	0.000307	3.070227	0.520111	0.000031
 747	7.4227e+01	7.4189	11.895625	0.000340	3.397718	0.575589	0.000034
 748	7.4326e+01	7.4290	11.932285	0.000368	3.684273	0.624133	0.000037
 749	7.4426e+01	7.4381	11.960799	0.000287	2.865546	0.485437	0.000029
 750	7.4525e+01	7.4491	11.999497	0.000389	3.888955	0.658807	0.000039
 751	7.4625e+01	7.4571	12.030048	0.000307	3.070227	0.520111	0.000031
 752	7.4725e+01	7.4699	12.067930	0.000381	3.807082	0.644937	0.000038
 753	7.4824e+01	7.4767	12.101333	0.000336	3.356782	0.568654	0.000034
 754	7.4924e+01	7.4886	12.135957	0.000348	3.479591	0.589459	0.000035
 755	7.5023e+01	7.4963	12.168951	0.000332	3.315846	0.561719	0.000033
 756	7.5123e+01	7.5103	12.205612	0.000368	3.684273	0.624133	0.000037
 757	7.5222e+01	7.5160	12.236570	0.000311	3.111164	0.527045	0.000031
 758	7.5322e+01	7.5267	12.272824	0.000364	3.643336	0.617198	0.000036
 759	7.5421e+01	7.5368	12.306633	0.000340	3.397718	0.575589	0.000034
 760	7.5520e+01	7.5464	12.337591	0.000311	3.111164	0.527045	0.000031
 761	7.5620e+01	7.5574	12.372215	0.000348	3.479591	0.589459	0.000035
 762	7.5719e+01	7.5655	12.408876	0.000368	3.684273	0.624133	0.000037
 763	7.5819e+01	7.5776	12.438612	0.000299	2.988355	0.506241	0.000030
 764	7.5918e+01	7.5883	12.470792	0.000323	3.233973	0.547850	0.000032
 765	7.6018e+01	7.5977	12.506231	0.000356	3.561464	0.603328	0.000036
 766	7.6118e+01	7.6080	12.540448	0.000344	3.438655	0.582524	0.000034
 767	7.6217e+01	7.6172	12.575887	0.000356	3.561464	0.603328	0.000036
 768	7.6317e+01	7.6272	12.612955	0.000373	3.725209	0.631068	0.000037
 769	7.6416e+01	7.6363	12.645542	0.000327	3.274909	0.554785	0.000033
 770	7.6516e+01	7.6474	12.680166	0.000348	3.479591	0.589459	0.000035
 771	7.6615e+01	7.6552	12.713976	0.000340	3.397718	0.575589	0.000034
 772	7.6715e+01	7.6656	12.749415	0.000356	3.561464	0.603328	0.000036
 773	7.6814e+01	7.6775	12.783631	0.000344	3.438655	0.582524	0.000034
 774	7.6913e+01	7.6865	12.817848	0.000344	3.438655	0.582524	0.000034
 775	7.7013e+01	7.6965	12.848806	0.000311	3.111164	0.527045	0.000031
 776	7.7112e+01	7.7044	12.883023	0.000344	3.438655	0.582524	0.000034
 777	7.7212e+01	7.7127	12.917647	0.000348	3.479591	0.589459	0.000035
 778	7.7311e+01	7.7264	12.950642	0.000332	3.315846	0.561719	0.000033
 779	7.7411e+01	7.7377	12.984859	0.000344	3.438655	0.582524	0.000034
 780	7.7510e+01	7.7446	13.018668	0.000340	3.397718	0.575589	0.000034
 781	7.7610e+01	7.7555	13.052477	0.000340	3.397718	0.575589	0.000034
 782	7.7710e+01	7.7680	13.086287	0.000340	3.397718	0.575589	0.000034
 783	7.7809e+01	7.7747	13.120911	0.000348	3.479591	0.589459	0.000035
 784	7.7909e+01	7.7858	13.157572	0.000368	3.684273	0.624133	0.000037
 785	7.8008e+01	7.7959	13.193825	0.000364	3.643336	0.617198	0.000036
 786	7.8108e+01	7.8076	13.227635	0.000340	3.397718	0.575589	0.000034
 787	7.8207e+01	7.8164	13.257371	0.000299	2.988355	0.506241	0.000030
 788	7.8306e+01	7.8271	13.293624	0.000364	3.643336	0.617198	0.000036
 789	7.8406e+01	7.8369	13.325804	0.000323	3.233973	0.547850	0.000032
 790	7.8505e+01	7.8455	13.355133	0.000295	2.947418	0.499306	0.000029
 791	7.8605e+01	7.8548	13.389757	0.000348	3.479591	0.589459	0.000035
 792	7.8704e+01	7.8638	13.418271	0.000287	2.865546	0.485437	0.000029
 793	7.8804e+01	7.8748	13.449636	0.000315	3.152100	0.533980	0.000032
 794	7.8903e+01	7.8840	13.485483	0.000360	3.602400	0.610263	0.000036
 795	7.9003e+01	7.8944	13.519699	0.000344	3.438655	0.582524	0.000034
 796	7.9103e+01	7.9066	13.549843	0.000303	3.029291	0.513176	0.000030
 797	7.9202e+01	7.9169	13.580801	0.000311	3.111164	0.527045	0.000031
 798	7.9302e+01	7.9236	13.618684	0.000381	3.807082	0.644937	0.000038
 799	7.9401e+01	7.9347	13.653715	0.000352	3.520527	0.596393	0.000035
 800	7.9501e+01	7.9467	13.682229	0.000287	2.865546	0.485437	0.000029
 801	7.9600e+01	7.9566	13.719297	0.000373	3.725209	0.631068	0.000037
 802	7.9700e+01	7.9650	13.755143	0.000360	3.602400	0.610263	0.000036
 803	7.9799e+01	7.9751	13.787731	0.000327	3.274909	0.554785	0.000033
 804	7.9898e+01	7.9838	13.819911	0.000323	3.233973	0.547850	0.000032
 805	7.9998e+01	7.9960	13.852498	0.000327	3.274909	0.554785	0.000033
 806	8.0097e+01	8.0050	13.883864	0.000315	3.152100	0.533980	0.000032
 807	8.0197e+01	8.0155	13.921339	0.000377	3.766146	0.638002	0.000038
 808	8.0296e+01	8.0244	13.953519	0.000323	3.233973	0.547850	0.000032
 809	8.0396e+01	8.0328	13.993031	0.000397	3.970827	0.672676	0.000040
 810	8.0496e+01	8.0453	14.026841	0.000340	3.397718	0.575589	0.000034
 811	8.0595e+01	8.0544	14.061872	0.000352	3.520527	0.596393	0.000035
 812	8.0695e+01	8.0621	14.098126	0.000364	3.643336	0.617198	0.000036
 813	8.0794e+01	8.0771	14.132750	0.000348	3.479591	0.589459	0.000035
 814	8.0894e+01	8.0826	14.167374	0.000348	3.479591	0.589459	0.000035
 815	8.0993e+01	8.0959	14.199147	0.000319	3.193036	0.540915	0.000032
 816	8.1093e+01	8.1059	14.234585	0.000356	3.561464	0.603328	0.000036
 817	8.1192e+01	8.1158	14.267988	0.000336	3.356782	0.568654	0.000034
 818	8.1291e+01	8.1242	14.304648	0.000368	3.684273	0.624133	0.000037
 819	8.1391e+01	8.1352	14.338458	0.000340	3.397718	0.575589	0.000034
 820	8.1490e+01	8.1441	14.371860	0.000336	3.356782	0.568654	0.000034
 821	8.1590e+01	8.1529	14.408521	0.000368	3.684273	0.624133	0.000037
 822	8.1689e+01	8.1656	14.443145	0.000348	3.479591	0.589459	0.000035
 823	8.1789e+01	8.1733	14.473288	0.000303	3.029291	0.513176	0.000030
 824	8.1888e+01	8.1842	14.510764	0.000377	3.766146	0.638002	0.000038
 825	8.1988e+01	8.1921	14.541314	0.000307	3.070227	0.520111	0.000031
 826	8.2088e+01	8.2046	14.573494	0.000323	3.233973	0.547850	0.000032
 827	8.2187e+01	8.2140	14.610155	0.000368	3.684273	0.624133	0.000037
 828	8.2287e+01	8.2217	14.640299	0.000303	3.029291	0.513176	0.000030
 829	8.2386e+01	8.2340	14.678182	0.000381	3.807082	0.644937	0.000038
 830	8.2486e+01	8.2430	14.709140	0.000311	3.111164	0.527045	0.000031
 831	8.2585e+01	8.2546	14.738468	0.000295	2.947418	0.499306	0.000029
 832	8.2684e+01	8.2621	14.777166	0.000389	3.888955	0.658807	0.000039
 833	8.2784e+01	8.2734	14.811383	0.000344	3.438655	0.582524	0.000034
 834	8.2883e+01	8.2838	14.846821	0.000356	3.561464	0.603328	0.000036
 835	8.2983e+01	8.2971	14.878594	0.000319	3.193036	0.540915	0.000032
 836	8.3082e+01	8.3041	14.913218	0.000348	3.479591	0.589459	0.000035
 837	8.3182e+01	8.3141	14.946620	0.000336	3.356782	0.568654	0.000034
 838	8.3281e+01	8.3237	14.976764	0.000303	3.029291	0.513176	0.000030
 839	8.3381e+01	8.3315	15.013017	0.000364	3.643336	0.617198	0.000036
 840	8.3481e+01	8.3436	15.046827	0.000340	3.397718	0.575589	0.000034
 841	8.3580e+01	8.3521	15.078599	0.000319	3.193036	0.540915	0.000032
 842	8.3680e+01	8.3618	15.113223	0.000348	3.479591	0.589459	0.000035
 843	8.3779e+01	8.3728	15.145403	0.000323	3.233973	0.547850	0.000032
 844	8.3879e+01	8.3829	15.181657	0.000364	3.643336	0.617198	0.000036
 845	8.3978e+01	8.3913	15.213022	0.000315	3.152100	0.533980	0.000032
 846	8.4078e+01	8.4013	15.250090	0.000373	3.725209	0.631068	0.000037
 847	8.4177e+01	8.4167	15.286751	0.000368	3.684273	0.624133	0.000037
 848	8.4276e+01	8.4222	15.314043	0.000274	2.742736	0.464632	0.000027
 849	8.4376e+01	8.4361	15.351926	0.000381	3.807082	0.644937	0.000038
 850	8.4475e+01	8.4436	15.382069	0.000303	3.029291	0.513176	0.000030
 851	8.4575e+01	8.4533	15.416286	0.000344	3.438655	0.582524	0.000034
 852	8.4674e+01	8.4605	15.449281	0.000332	3.315846	0.561719	0.000033
 853	8.4774e+01	8.4724	15.481054	0.000319	3.193036	0.540915	0.000032
 854	8.4874e+01	8.4832	15.514048	0.000332	3.315846	0.561719	0.000033
 855	8.4973e+01	8.4930	15.547451	0.000336	3.356782	0.568654	0.000034
 856	8.5073e+01	8.5015	15.580445	0.000332	3.315846	0.561719	0.000033
 857	8.5172e+01	8.5146	15.614662	0.000344	3.438655	0.582524	0.000034
 858	8.5272e+01	8.5242	15.650101	0.000356	3.561464	0.603328	0.000036
 859	8.5371e+01	8.5321	15.684318	0.000344	3.438655	0.582524	0.000034
 860	8.5471e+01	8.5449	15.720164	0.000360	3.602400	0.610263	0.000036
 861	8.5570e+01	8.5556	15.753566	0.000336	3.356782	0.568654	0.000034
 862	8.5669e+01	8.5639	15.788190	0.000348	3.479591	0.589459	0.000035
 863	8.5769e+01	8.5725	15.819555	0.000315	3.152100	0.533980	0.000032
 864	8.5868e+01	8.5815	15.852957	0.000336	3.356782	0.568654	0.000034
 865	8.5968e+01	8.5940	15.886767	0.000340	3.397718	0.575589	0.000034
 866	8.6067e+01	8.6024	15.912022	0.000254	2.538055	0.429958	0.000025
 867	8.6167e+01	8.6115	15.947054	0.000352	3.520527	0.596393	0.000035
 868	8.6266e+01	8.6219	15.981678	0.000348	3.479591	0.589459	0.000035
 869	8.6366e+01	8.6306	16.013858	0.000323	3.233973	0.547850	0.000032
 870	8.6466e+01	8.6426	16.048889	0.000352	3.520527	0.596393	0.000035
 871	8.6565e+01	8.6536	16.083106	0.000344	3.438655	0.582524	0.000034
 872	8.6665e+01	8.6617	16.118545	0.000356	3.561464	0.603328	0.000036
 873	8.6764e+01	8.6714	16.153984	0.000356	3.561464	0.603328	0.000036
 874	8.6864e+01	8.6807	16.188608	0.000348	3.479591	0.589459	0.000035
 875	8.6963e+01	8.6935	16.228935	0.000405	4.052700	0.686546	0.000041
 876	8.7063e+01	8.7015	16.261929	0.000332	3.315846	0.561719	0.000033
 877	8.7162e+01	8.7110	16.296553	0.000348	3.479591	0.589459	0.000035
 878	8.7261e+01	8.7217	16.330770	0.000344	3.438655	0.582524	0.000034
 879	8.7361e+01	8.7321	16.364987	0.000344	3.438655	0.582524	0.000034
 880	8.7460e+01	8.7421	16.398796	0.000340	3.397718	0.575589	0.000034
 881	8.7560e+01	8.7488	16.433828	0.000352	3.520527	0.596393	0.000035
 882	8.7659e+01	8.7605	16.463971	0.000303	3.029291	0.513176	0.000030
 883	8.7759e+01	8.7705	16.496966	0.000332	3.315846	0.561719	0.000033
 884	8.7859e+01	8.7801	16.534034	0.000373	3.725209	0.631068	0.000037
 885	8.7958e+01	8.7891	16.568251	0.000344	3.438655	0.582524	0.000034
 886	8.8058e+01	8.8037	16.603690	0.000356	3.561464	0.603328	0.000036
 887	8.8157e+01	8.8123	16.635462	0.000319	3.193036	0.540915	0.000032
 888	8.8257e+01	8.8212	16.673753	0.000385	3.848018	0.651872	0.000038
 889	8.8356e+01	8.8321	16.705933	0.000323	3.233973	0.547850	0.000032
 890	8.8456e+01	8.8407	16.740149	0.000344	3.438655	0.582524	0.000034
 891	8.8555e+01	8.8501	16.772330	0.000323	3.233973	0.547850	0.000032
 892	8.8654e+01	8.8602	16.804510	0.000323	3.233973	0.547850	0.000032
 893	8.8754e+01	8.8705	16.835875	0.000315	3.152100	0.533980	0.000032
 894	8.8853e+01	8.8818	16.868055	0.000323	3.233973	0.547850	0.000032
 895	8.8953e+01	8.8916	16.901457	0.000336	3.356782	0.568654	0.000034
 896	8.9052e+01	8.8989	16.930378	0.000291	2.906482	0.492371	0.000029
 897	8.9152e+01	8.9105	16.964595	0.000344	3.438655	0.582524	0.000034
 898	8.9251e+01	8.9225	16.999219	0.000348	3.479591	0.589459	0.000035
 899	8.9351e+01	8.9307	17.033843	0.000348	3.479591	0.589459	0.000035
 900	8.9451e+01	8.9381	17.064802	0.000311	3.111164	0.527045	0.000031
 901	8.9550e+01	8.9502	17.098204	0.000336	3.356782	0.568654	0.000034
 902	8.9650e+01	8.9600	17.133235	0.000352	3.520527	0.596393	0.000035
 903	8.9749e+01	8.9707	17.169081	0.000360	3.602400	0.610263	0.000036
 904	8.9849e+01	8.9764	17.203298	0.000344	3.438655	0.582524	0.000034
 905	8.9948e+01	8.9893	17.240366	0.000373	3.725209	0.631068	0.000037
 906	9.0047e+01	8.9990	17.268065	0.000278	2.783673	0.471567	0.000028
 907	9.0147e+01	9.0116	17.303504	0.000356	3.561464	0.603328	0.000036
 908	9.0246e+01	9.0186	17.335684	0.000323	3.233973	0.547850	0.000032
 909	9.0346e+01	9.0287	17.367864	0.000323	3.233973	0.547850	0.000032
 910	9.0445e+01	9.0404	17.402896	0.000352	3.520527	0.596393	0.000035
 911	9.0545e+01	9.0532	17.439557	0.000368	3.684273	0.624133	0.000037
 912	9.0644e+01	9.0561	17.470922	0.000315	3.152100	0.533980	0.000032
 913	9.0744e+01	9.0685	17.504324	0.000336	3.356782	0.568654	0.000034
 914	9.0844e+01	9.0800	17.532431	0.000282	2.824609	0.478502	0.000028
 915	9.0943e+01	9.0910	17.572350	0.000401	4.011764	0.679611	0.000040
 916	9.1043e+01	9.0988	17.604530	0.000323	3.233973	0.547850	0.000032
 917	9.1142e+01	9.1104	17.638747	0.000344	3.438655	0.582524	0.000034
 918	9.1242e+01	9.1190	17.672557	0.000340	3.397718	0.575589	0.000034
 919	9.1341e+01	9.1297	17.708810	0.000364	3.643336	0.617198	0.000036
 920	9.1441e+01	9.1400	17.743842	0.000352	3.520527	0.596393	0.000035
 921	9.1540e+01	9.1465	17.773170	0.000295	2.947418	0.499306	0.000029
 922	9.1639e+01	9.1570	17.813090	0.000401	4.011764	0.679611	0.000040
 923	9.1739e+01	9.1724	17.846899	0.000340	3.397718	0.575589	0.000034
 924	9.1838e+01	9.1797	17.879079	0.000323	3.233973	0.547850	0.000032
 925	9.1938e+01	9.1866	17.913703	0.000348	3.479591	0.589459	0.000035
 926	9.2037e+01	9.1982	17.948735	0.000352	3.520527	0.596393	0.000035
 927	9.2137e+01	9.2091	17.987432	0.000389	3.888955	0.658807	0.000039
 928	9.2237e+01	9.2206	18.014317	0.000270	2.701800	0.457697	0.000027
 929	9.2336e+01	9.2279	18.048534	0.000344	3.438655	0.582524	0.000034
 930	9.2436e+01	9.2373	18.081529	0.000332	3.315846	0.561719	0.000033
 931	9.2535e+01	9.2484	18.118597	0.000373	3.725209	0.631068	0.000037
 932	9.2635e+01	9.2585	18.152406	0.000340	3.397718	0.575589	0.000034
 933	9.2734e+01	9.2709	18.186623	0.000344	3.438655	0.582524	0.000034
 934	9.2834e+01	9.2768	18.222062	0.000356	3.561464	0.603328	0.000036
 935	9.2933e+01	9.2884	18.259945	0.000381	3.807082	0.644937	0.000038
 936	9.3032e+01	9.2994	18.290495	0.000307	3.070227	0.520111	0.000031
 937	9.3132e+01	9.3079	18.328785	0.000385	3.848018	0.651872	0.000038
 938	9.3231e+01	9.3154	18.363410	0.000348	3.479591	0.589459	0.000035
 939	9.3331e+01	9.3252	18.396812	0.000336	3.356782	0.568654	0.000034
 940	9.3430e+01	9.3398	18.432658	0.000360	3.602400	0.610263	0.000036
 941	9.3530e+01	9.3481	18.466060	0.000336	3.356782	0.568654	0.000034
 942	9.3629e+01	9.3583	18.502721	0.000368	3.684273	0.624133	0.000037
 943	9.3729e+01	9.3677	18.533679	0.000311	3.111164	0.527045	0.000031
 944	9.3829e+01	9.3775	18.569118	0.000356	3.561464	0.603328	0.000036
 945	9.3928e+01	9.3896	18.602520	0.000336	3.356782	0.568654	0.000034
 946	9.4028e+01	9.3935	18.636329	0.000340	3.397718	0.575589	0.000034
 947	9.4127e+01	9.4068	18.674212	0.000381	3.807082	0.644937	0.000038
 948	9.4227e+01	9.4155	18.704355	0.000303	3.029291	0.513176	0.000030
 949	9.4326e+01	9.4287	18.742238	0.000381	3.807082	0.644937	0.000038
 950	9.4425e+01	9.4361	18.779306	0.000373	3.725209	0.631068	0.000037
 951	9.4525e+01	9.4470	18.816374	0.000373	3.725209	0.631068	0.000037
 952	9.4624e+01	9.4569	18.849777	0.000336	3.356782	0.568654	0.000034
 953	9.4724e+01	9.4657	18.884808	0.000352	3.520527	0.596393	0.000035
 954	9.4823e+01	9.4757	18.919839	0.000352	3.520527	0.596393	0.000035
 955	9.4923e+01	9.4873	18.954871	0.000352	3.520527	0.596393	0.000035
 956	9.5022e+01	9.4952	18.987458	0.000327	3.274909	0.554785	0.000033
 957	9.5122e+01	9.5081	19.018824	0.000315	3.152100	0.533980	0.000032
 958	9.5222e+01	9.5171	19.056299	0.000377	3.766146	0.638002	0.000038
 959	9.5321e+01	9.5288	19.088072	0.000319	3.193036	0.540915	0.000032
 960	9.5421e+01	9.5377	19.120659	0.000327	3.274909	0.554785	0.000033
 961	9.5520e+01	9.5459	19.158135	0.000377	3.766146	0.638002	0.000038
 962	9.5620e+01	9.5558	19.189093	0.000311	3.111164	0.527045	0.000031
 963	9.5719e+01	9.5657	19.227790	0.000389	3.888955	0.658807	0.000039
 964	9.5819e+01	9.5767	19.261193	0.000336	3.356782	0.568654	0.000034
 965	9.5918e+01	9.5870	19.297853	0.000368	3.684273	0.624133	0.000037
 966	9.6017e+01	9.5972	19.333700	0.000360	3.602400	0.610263	0.000036
 967	9.6117e+01	9.6069	19.371990	0.000385	3.848018	0.651872	0.000038
 968	9.6216e+01	9.6156	19.404984	0.000332	3.315846	0.561719	0.000033
 969	9.6316e+01	9.6243	19.442867	0.000381	3.807082	0.644937	0.000038
 970	9.6415e+01	9.6320	19.477084	0.000344	3.438655	0.582524	0.000034
 971	9.6515e+01	9.6461	19.508042	0.000311	3.111164	0.527045	0.000031
 972	9.6615e+01	9.6545	19.544703	0.000368	3.684273	0.624133	0.000037
 973	9.6714e+01	9.6662	19.581364	0.000368	3.684273	0.624133	0.000037
 974	9.6814e+01	9.6760	19.615988	0.000348	3.479591	0.589459	0.000035
 975	9.6913e+01	9.6875	19.655500	0.000397	3.970827	0.672676	0.000040
 976	9.7013e+01	9.6957	19.690939	0.000356	3.561464	0.603328	0.000036
 977	9.7112e+01	9.7052	19.730451	0.000397	3.970827	0.672676	0.000040
 978	9.7212e+01	9.7137	19.767519	0.000373	3.725209	0.631068	0.000037
 979	9.7311e+01	9.7247	19.811512	0.000442	4.421127	0.748959	0.000044
 980	9.7410e+01	9.7363	19.847358	0.000360	3.602400	0.610263	0.000036
 981	9.7510e+01	9.7439	19.885241	0.000381	3.807082	0.644937	0.000038
 982	9.7609e+01	9.7559	19.919865	0.000348	3.479591	0.589459	0.000035
 983	9.7709e+01	9.7646	19.958563	0.000389	3.888955	0.658807	0.000039
 984	9.7808e+01	9.7757	19.992780	0.000344	3.438655	0.582524	0.000034
 985	9.7908e+01	9.7852	20.031477	0.000389	3.888955	0.658807	0.000039
 986	9.8007e+01	9.7961	20.066916	0.000356	3.561464	0.603328	0.000036
 987	9.8107e+01	9.8047	20.102355	0.000356	3.561464	0.603328	0.000036
 988	9.8207e+01	9.8151	20.137386	0.000352	3.520527	0.596393	0.000035
 989	9.8306e+01	9.8262	20.177306	0.000401	4.011764	0.679611	0.000040
 990	9.8406e+01	9.8357	20.214374	0.000373	3.725209	0.631068	0.000037
 991	9.8505e+01	9.8447	20.248591	0.000344	3.438655	0.582524	0.000034
 992	9.8605e+01	9.8560	20.290955	0.000426	4.257382	0.721220	0.000043
 993	9.8704e+01	9.8633	20.321913	0.000311	3.111164	0.527045	0.000031
 994	9.8803e+01	9.8763	20.363461	0.000418	4.175509	0.707350	0.000042
 995	9.8903e+01	9.8853	20.397271	0.000340	3.397718	0.575589	0.000034
 996	9.9002e+01	9.8940	20.432710	0.000356	3.561464	0.603328	0.000036
 997	9.9102e+01	9.9043	20.469778	0.000373	3.725209	0.631068	0.000037
 998	9.9201e+01	9.9125	20.506031	0.000364	3.643336	0.617198	0.000036
 999	9.9301e+01	9.9243	20.543507	0.000377	3.766146	0.638002	0.000038
1000	9.9400e+01	9.9341	20.581390	0.000381	3.807082	0.644937	0.000038
1001	9.9500e+01	9.9466	20.617236	0.000360	3.602400	0.610263	0.000036
1002	9.9600e+01	9.9554	20.656341	0.000393	3.929891	0.665742	0.000039
1003	9.9699e+01	9.9646	20.693816	0.000377	3.766146	0.638002	0.000038
1004	9.9799e+01	9.9723	20.728440	0.000348	3.479591	0.589459	0.000035
1005	9.9898e+01	9.9838	20.767545	0.000393	3.929891	0.665742	0.000039
1006	9.9998e+01	9.9951	20.807058	0.000397	3.970827	0.672676	0.000040
1007	1.0010e+02	9.9870	20.789542	0.000176	1.760264	0.298197	-0.000018
1008	1.0020e+02	9.9723	20.772433	0.000172	1.719327	0.291262	-0.000017
1009	1.0030e+02	9.9665	20.756140	0.000164	1.637455	0.277392	-0.000016
1010	1.0040e+02	9.9561	20.738624	0.000176	1.760264	0.298197	-0.000018
1011	1.0050e+02	9.9445	20.722330	0.000164	1.637455	0.277392	-0.000016
1012	1.0059e+02	9.9362	20.707259	0.000151	1.514645	0.256588	-0.000015
1013	1.0069e+02	9.9268	20.691372	0.000160	1.596518	0.270458	-0.000016
1014	1.0079e+02	9.9147	20.668561	0.000229	2.292436	0.388349	-0.000023
1015	1.0089e+02	9.9057	20.653897	0.000147	1.473709	0.249653	-0.000015
1016	1.0099e+02	9.8950	20.638418	0.000156	1.555582	0.263523	-0.000016
1017	1.0109e+02	9.8828	20.620495	0.000180	1.801200	0.305132	-0.000018
1018	1.0119e+02	9.8761	20.596461	0.000242	2.415246	0.409154	-0.000024
1019	1.0129e+02	9.8665	20.581797	0.000147	1.473709	0.249653	-0.000015
1020	1.0139e+02	9.8554	20.559393	0.000225	2.251500	0.381414	-0.000023
1021	1.0149e+02	9.8455	20.538619	0.000209	2.087755	0.353675	-0.000021
1022	1.0159e+02	9.8371	20.519066	0.000196	1.964946	0.332871	-0.000020
1023	1.0169e+02	9.8248	20.497885	0.000213	2.128691	0.360610	-0.000021
1024	1.0179e+02	9.8145	20.477517	0.000205	2.046818	0.346740	-0.000020
1025	1.0189e+02	9.8038	20.458372	0.000192	1.924009	0.325936	-0.000019
1026	1.0199e+02	9.7956	20.435968	0.000225	2.251500	0.381414	-0.000023
1027	1.0209e+02	9.7856	20.413972	0.000221	2.210564	0.374480	-0.000022
1028	1.0219e+02	9.7746	20.395642	0.000184	1.842136	0.312066	-0.000018
1029	1.0229e+02	9.7644	20.372830	0.000229	2.292436	0.388349	-0.000023
1030	1.0239e+02	9.7549	20.356944	0.000160	1.596518	0.270458	-0.000016
1031	1.0248e+02	9.7467	20.332096	0.000250	2.497118	0.423023	-0.000025
1032	1.0258e+02	9.7343	20.313358	0.000188	1.883073	0.319001	-0.000019
1033	1.0268e+02	9.7272	20.291362	0.000221	2.210564	0.374480	-0.000022
1034	1.0278e+02	9.7144	20.271402	0.000201	2.005882	0.339806	-0.000020
1035	1.0288e+02	9.7095	20.249406	0.000221	2.210564	0.374480	-0.000022
1036	1.0298e+02	9.6951	20.225372	0.000242	2.415246	0.409154	-0.000024
1037	1.0308e+02	9.6864	20.205413	0.000201	2.005882	0.339806	-0.000020
1038	1.0318e+02	9.6735	20.185453	0.000201	2.005882	0.339806	-0.000020
1039	1.0328e+02	9.6680	20.163864	0.000217	2.169627	0.367545	-0.000022
1040	1.0338e+02	9.6554	20.142682	0.000213	2.128691	0.360610	-0.000021
1041	1.0348e+02	9.6460	20.123129	0.000196	1.964946	0.332871	-0.000020
1042	1.0358e+02	9.6344	20.097874	0.000254	2.538055	0.429958	-0.000025
1043	1.0368e+02	9.6254	20.078729	0.000192	1.924009	0.325936	-0.000019
1044	1.0378e+02	9.6185	20.059177	0.000196	1.964946	0.332871	-0.000020
1045	1.0388e+02	9.6045	20.034329	0.000250	2.497118	0.423023	-0.000025
1046	1.0398e+02	9.5966	20.015591	0.000188	1.883073	0.319001	-0.000019
1047	1.0408e+02	9.5850	19.990336	0.000254	2.538055	0.429958	-0.000025
1048	1.0418e+02	9.5765	19.971598	0.000188	1.883073	0.319001	-0.000019
1049	1.0428e+02	9.5654	19.947972	0.000237	2.374309	0.402219	-0.000024
1050	1.0438e+02	9.5560	19.920273	0.000278	2.783673	0.471567	-0.000028
1051	1.0447e+02	9.5467	19.897869	0.000225	2.251500	0.381414	-0.000023
1052	1.0457e+02	9.5381	19.870170	0.000278	2.783673	0.471567	-0.000028
1053	1.0467e+02	9.5251	19.852247	0.000180	1.801200	0.305132	-0.000018
1054	1.0477e+02	9.5177	19.829843	0.000225	2.251500	0.381414	-0.000023
1055	1.0487e+02	9.5072	19.807846	0.000221	2.210564	0.374480	-0.000022
1056	1.0497e+02	9.4964	19.787072	0.000209	2.087755	0.353675	-0.000021
1057	1.0507e+02	9.4873	19.759780	0.000274	2.742736	0.464632	-0.000027
1058	1.0517e+02	9.4757	19.734932	0.000250	2.497118	0.423023	-0.000025
1059	1.0527e+02	9.4669	19.713343	0.000217	2.169627	0.367545	-0.000022
1060	1.0537e+02	9.4581	19.686051	0.000274	2.742736	0.464632	-0.000027
1061	1.0547e+02	9.4476	19.662018	0.000242	2.415246	0.409154	-0.000024
1062	1.0557e+02	9.4351	19.634726	0.000274	2.742736	0.464632	-0.000027
1063	1.0567e+02	9.4288	19.607841	0.000270	2.701800	0.457697	-0.000027
1064	1.0577e+02	9.4198	19.581364	0.000266	2.660864	0.450763	-0.000027
1065	1.0587e+02	9.4062	19.554479	0.000270	2.701800	0.457697	-0.000027
1066	1.0597e+02	9.3965	19.532890	0.000217	2.169627	0.367545	-0.000022
1067	1.0607e+02	9.3897	19.506005	0.000270	2.701800	0.457697	-0.000027
1068	1.0617e+02	9.3769	19.480343	0.000258	2.578991	0.436893	-0.000026
1069	1.0627e+02	9.3652	19.456717	0.000237	2.374309	0.402219	-0.000024
1070	1.0637e+02	9.3604	19.429018	0.000278	2.783673	0.471567	-0.000028
1071	1.0647e+02	9.3461	19.404170	0.000250	2.497118	0.423023	-0.000025
1072	1.0656e+02	9.3375	19.379322	0.000250	2.497118	0.423023	-0.000025
1073	1.0666e+02	9.3256	19.356511	0.000229	2.292436	0.388349	-0.000023
1074	1.0676e+02	9.3198	19.332070	0.000246	2.456182	0.416088	-0.000025
1075	1.0686e+02	9.3085	19.306408	0.000258	2.578991	0.436893	-0.000026
1076	1.0696e+02	9.2973	19.279523	0.000270	2.701800	0.457697	-0.000027
1077	1.0706e+02	9.2871	19.255490	0.000242	2.415246	0.409154	-0.000024
1078	1.0716e+02	9.2786	19.230642	0.000250	2.497118	0.423023	-0.000025
1079	1.0726e+02	9.2676	19.207423	0.000233	2.333373	0.395284	-0.000023
1080	1.0736e+02	9.2567	19.181761	0.000258	2.578991	0.436893	-0.000026
1081	1.0746e+02	9.2462	19.154061	0.000278	2.783673	0.471567	-0.000028
1082	1.0756e+02	9.2405	19.132065	0.000221	2.210564	0.374480	-0.000022
1083	1.0766e+02	9.2285	19.101107	0.000311	3.111164	0.527045	-0.000031
1084	1.0776e+02	9.2152	19.077888	0.000233	2.333373	0.395284	-0.000023
1085	1.0786e+02	9.2090	19.052226	0.000258	2.578991	0.436893	-0.000026
1086	1.0796e+02	9.1964	19.029415	0.000229	2.292436	0.388349	-0.000023
1087	1.0806e+02	9.1872	19.003752	0.000258	2.578991	0.436893	-0.000026
1088	1.0816e+02	9.1761	18.974016	0.000299	2.988355	0.506241	-0.000030
1089	1.0826e+02	9.1684	18.948761	0.000254	2.538055	0.429958	-0.000025
1090	1.0836e+02	9.1608	18.925135	0.000237	2.374309	0.402219	-0.000024
1091	1.0845e+02	9.1487	18.897028	0.000282	2.824609	0.478502	-0.000028
1092	1.0855e+02	9.1373	18.870958	0.000262	2.619927	0.443828	-0.000026
1093	1.0865e+02	9.1288	18.845703	0.000254	2.538055	0.429958	-0.000025
1094	1.0875e+02	9.1174	18.818411	0.000274	2.742736	0.464632	-0.000027
1095	1.0885e+02	9.1103	18.791527	0.000270	2.701800	0.457697	-0.000027
1096	1.0895e+02	9.1003	18.767086	0.000246	2.456182	0.416088	-0.000025
1097	1.0905e+02	9.0891	18.736535	0.000307	3.070227	0.520111	-0.000031
1098	1.0915e+02	9.0771	18.709651	0.000270	2.701800	0.457697	-0.000027
1099	1.0925e+02	9.0699	18.685210	0.000246	2.456182	0.416088	-0.000025
1100	1.0935e+02	9.0601	18.659140	0.000262	2.619927	0.443828	-0.000026
1101	1.0945e+02	9.0488	18.632663	0.000266	2.660864	0.450763	-0.000027
1102	1.0955e+02	9.0399	18.604964	0.000278	2.783673	0.471567	-0.000028
1103	1.0965e+02	9.0295	18.581338	0.000237	2.374309	0.402219	-0.000024
1104	1.0975e+02	9.0176	18.556897	0.000246	2.456182	0.416088	-0.000025
1105	1.0985e+02	9.0081	18.530827	0.000262	2.619927	0.443828	-0.000026
1106	1.0995e+02	9.0009	18.502721	0.000282	2.824609	0.478502	-0.000028
1107	1.1005e+02	8.9896	18.477058	0.000258	2.578991	0.436893	-0.000026
1108	1.1015e+02	8.9773	18.450581	0.000266	2.660864	0.450763	-0.000027
1109	1.1025e+02	8.9678	18.426955	0.000237	2.374309	0.402219	-0.000024
1110	1.1035e+02	8.9600	18.392331	0.000348	3.479591	0.589459	-0.000035
1111	1.1044e+02	8.9514	18.367076	0.000254	2.538055	0.429958	-0.000025
1112	1.1054e+02	8.9395	18.339376	0.000278	2.783673	0.471567	-0.000028
1113	1.1064e+02	8.9307	18.315343	0.000242	2.415246	0.409154	-0.000024
1114	1.1074e+02	8.9209	18.288866	0.000266	2.660864	0.450763	-0.000027
1115	1.1084e+02	8.9120	18.262796	0.000262	2.619927	0.443828	-0.000026
1116	1.1094e+02	8.8979	18.232245	0.000307	3.070227	0.520111	-0.000031
1117	1.1104e+02	8.8903	18.209434	0.000229	2.292436	0.388349	-0.000023
1118	1.1114e+02	8.8781	18.181735	0.000278	2.783673	0.471567	-0.000028
1119	1.1124e+02	8.8715	18.151999	0.000299	2.988355	0.506241	-0.000030
1120	1.1134e+02	8.8608	18.130817	0.000213	2.128691	0.360610	-0.000021
1121	1.1144e+02	8.8525	18.105562	0.000254	2.538055	0.429958	-0.000025
1122	1.1154e+02	8.8392	18.074196	0.000315	3.152100	0.533980	-0.000032
1123	1.1164e+02	8.8291	18.046497	0.000278	2.783673	0.471567	-0.000028
1124	1.1174e+02	8.8192	18.017983	0.000287	2.865546	0.485437	-0.000029
1125	1.1184e+02	8.8086	17.990284	0.000278	2.783673	0.471567	-0.000028
1126	1.1194e+02	8.8024	17.960548	0.000299	2.988355	0.506241	-0.000030
1127	1.1204e+02	8.7904	17.933663	0.000270	2.701800	0.457697	-0.000027
1128	1.1214e+02	8.7807	17.903112	0.000307	3.070227	0.520111	-0.000031
1129	1.1224e+02	8.7712	17.873784	0.000295	2.947418	0.499306	-0.000029
1130	1.1234e+02	8.7604	17.846085	0.000278	2.783673	0.471567	-0.000028
1131	1.1244e+02	8.7518	17.816756	0.000295	2.947418	0.499306	-0.000029
1132	1.1253e+02	8.7404	17.791093	0.000258	2.578991	0.436893	-0.000026
1133	1.1263e+02	8.7342	17.764616	0.000266	2.660864	0.450763	-0.000027
1134	1.1273e+02	8.7220	17.739361	0.000254	2.538055	0.429958	-0.000025
1135	1.1283e+02	8.7109	17.710439	0.000291	2.906482	0.492371	-0.000029
1136	1.1293e+02	8.7064	17.681518	0.000291	2.906482	0.492371	-0.000029
1137	1.1303e+02	8.6896	17.656263	0.000254	2.538055	0.429958	-0.000025
1138	1.1313e+02	8.6829	17.628564	0.000278	2.783673	0.471567	-0.000028
1139	1.1323e+02	8.6735	17.597606	0.000311	3.111164	0.527045	-0.000031
1140	1.1333e+02	8.6615	17.568277	0.000295	2.947418	0.499306	-0.000029
1141	1.1343e+02	8.6510	17.542614	0.000258	2.578991	0.436893	-0.000026
1142	1.1353e+02	8.6426	17.512064	0.000307	3.070227	0.520111	-0.000031
1143	1.1363e+02	8.6320	17.488030	0.000242	2.415246	0.409154	-0.000024
1144	1.1373e+02	8.6219	17.459516	0.000287	2.865546	0.485437	-0.000029
1145	1.1383e+02	8.6127	17.437113	0.000225	2.251500	0.381414	-0.000023
1146	1.1393e+02	8.6002	17.409413	0.000278	2.783673	0.471567	-0.000028
1147	1.1403e+02	8.5938	17.382936	0.000266	2.660864	0.450763	-0.000027
1148	1.1413e+02	8.5807	17.356866	0.000262	2.619927	0.443828	-0.000026
1149	1.1423e+02	8.5719	17.329982	0.000270	2.701800	0.457697	-0.000027
1150	1.1433e+02	8.5628	17.302282	0.000278	2.783673	0.471567	-0.000028
1151	1.1442e+02	8.5529	17.275805	0.000266	2.660864	0.450763	-0.000027
1152	1.1452e+02	8.5410	17.250142	0.000258	2.578991	0.436893	-0.000026
1153	1.1462e+02	8.5320	17.219592	0.000307	3.070227	0.520111	-0.000031
1154	1.1472e+02	8.5241	17.194744	0.000250	2.497118	0.423023	-0.000025
1155	1.1482e+02	8.5123	17.165008	0.000299	2.988355	0.506241	-0.000030
1156	1.1492e+02	8.4988	17.138938	0.000262	2.619927	0.443828	-0.000026
1157	1.1502e+02	8.4934	17.109609	0.000295	2.947418	0.499306	-0.000029
1158	1.1512e+02	8.4840	17.083132	0.000266	2.660864	0.450763	-0.000027
1159	1.1522e+02	8.4725	17.054211	0.000291	2.906482	0.492371	-0.000029
1160	1.1532e+02	8.4620	17.026511	0.000278	2.783673	0.471567	-0.000028
1161	1.1542e+02	8.4531	16.996368	0.000303	3.029291	0.513176	-0.000030
1162	1.1552e+02	8.4412	16.966632	0.000299	2.988355	0.506241	-0.000030
1163	1.1562e+02	8.4351	16.938933	0.000278	2.783673	0.471567	-0.000028
1164	1.1572e+02	8.4233	16.910826	0.000282	2.824609	0.478502	-0.000028
1165	1.1582e+02	8.4136	16.883941	0.000270	2.701800	0.457697	-0.000027
1166	1.1592e+02	8.4045	16.852983	0.000311	3.111164	0.527045	-0.000031
1167	1.1602e+02	8.3902	16.825284	0.000278	2.783673	0.471567	-0.000028
1168	1.1612e+02	8.3795	16.799214	0.000262	2.619927	0.443828	-0.000026
1169	1.1622e+02	8.3732	16.769478	0.000299	2.988355	0.506241	-0.000030
1170	1.1632e+02	8.3621	16.741779	0.000278	2.783673	0.471567	-0.000028
1171	1.1642e+02	8.3538	16.713265	0.000287	2.865546	0.485437	-0.000029
1172	1.1651e+02	8.3423	16.689639	0.000237	2.374309	0.402219	-0.000024
1173	1.1661e+02	8.3335	16.654608	0.000352	3.520527	0.596393	-0.000035
1174	1.1671e+02	8.3228	16.626094	0.000287	2.865546	0.485437	-0.000029
1175	1.1681e+02	8.3173	16.595136	0.000311	3.111164	0.527045	-0.000031
1176	1.1691e+02	8.3044	16.572732	0.000225	2.251500	0.381414	-0.000023
1177	1.1701e+02	8.2925	16.542181	0.000307	3.070227	0.520111	-0.000031
1178	1.1711e+02	8.2844	16.514074	0.000282	2.824609	0.478502	-0.000028
1179	1.1721e+02	8.2735	16.484746	0.000295	2.947418	0.499306	-0.000029
1180	1.1731e+02	8.2636	16.460713	0.000242	2.415246	0.409154	-0.000024
1181	1.1741e+02	8.2549	16.427718	0.000332	3.315846	0.561719	-0.000033
1182	1.1751e+02	8.2459	16.401240	0.000266	2.660864	0.450763	-0.000027
1183	1.1761e+02	8.2339	16.375985	0.000254	2.538055	0.429958	-0.000025
1184	1.1771e+02	8.2239	16.342991	0.000332	3.315846	0.561719	-0.000033
1185	1.1781e+02	8.2146	16.314477	0.000287	2.865546	0.485437	-0.000029
1186	1.1791e+02	8.2037	16.281889	0.000327	3.274909	0.554785	-0.000033
1187	1.1801e+02	8.1935	16.255005	0.000270	2.701800	0.457697	-0.000027
1188	1.1811e+02	8.1823	16.225676	0.000295	2.947418	0.499306	-0.000029
1189	1.1821e+02	8.1748	16.196347	0.000295	2.947418	0.499306	-0.000029
1190	1.1831e+02	8.1666	16.165796	0.000307	3.070227	0.520111	-0.000031
1191	1.1841e+02	8.1516	16.132394	0.000336	3.356782	0.568654	-0.000034
1192	1.1850e+02	8.1445	16.104288	0.000282	2.824609	0.478502	-0.000028
1193	1.1860e+02	8.1355	16.081069	0.000233	2.333373	0.395284	-0.000023
1194	1.1870e+02	8.1245	16.050519	0.000307	3.070227	0.520111	-0.000031
1195	1.1880e+02	8.1154	16.022819	0.000278	2.783673	0.471567	-0.000028
1196	1.1890e+02	8.1041	15.993083	0.000299	2.988355	0.506241	-0.000030
1197	1.1900e+02	8.0952	15.962533	0.000307	3.070227	0.520111	-0.000031
1198	1.1910e+02	8.0860	15.933204	0.000295	2.947418	0.499306	-0.000029
1199	1.1920e+02	8.0773	15.904283	0.000291	2.906482	0.492371	-0.000029
1200	1.1930e+02	8.0654	15.874139	0.000303	3.029291	0.513176	-0.000030
1201	1.1940e+02	8.0555	15.845625	0.000287	2.865546	0.485437	-0.000029
1202	1.1950e+02	8.0451	15.812223	0.000336	3.356782	0.568654	-0.000034
1203	1.1960e+02	8.0347	15.789819	0.000225	2.251500	0.381414	-0.000023
1204	1.1970e+02	8.0247	15.757639	0.000323	3.233973	0.547850	-0.000032
1205	1.1980e+02	8.0149	15.729125	0.000287	2.865546	0.485437	-0.000029
1206	1.1990e+02	8.0049	15.697353	0.000319	3.193036	0.540915	-0.000032
1207	1.2000e+02	7.9940	15.672097	0.000254	2.538055	0.429958	-0.000025
1208	1.2010e+02	7.9891	15.639917	0.000323	3.233973	0.547850	-0.000032
1209	1.2020e+02	7.9778	15.613440	0.000266	2.660864	0.450763	-0.000027
1210	1.2030e+02	7.9651	15.582889	0.000307	3.070227	0.520111	-0.000031
1211	1.2039e+02	7.9554	15.559263	0.000237	2.374309	0.402219	-0.000024
1212	1.2049e+02	7.9444	15.523417	0.000360	3.602400	0.610263	-0.000036
1213	1.2059e+02	7.9338	15.496940	0.000266	2.660864	0.450763	-0.000027
1214	1.2069e+02	7.9248	15.471685	0.000254	2.538055	0.429958	-0.000025
1215	1.2079e+02	7.9206	15.440727	0.000311	3.111164	0.527045	-0.000031
1216	1.2089e+02	7.9026	15.407732	0.000332	3.315846	0.561719	-0.000033
1217	1.2099e+02	7.8983	15.380847	0.000270	2.701800	0.457697	-0.000027
1218	1.2109e+02	7.8898	15.348260	0.000327	3.274909	0.554785	-0.000033
1219	1.2119e+02	7.8769	15.321375	0.000270	2.701800	0.457697	-0.000027
1220	1.2129e+02	7.8650	15.290010	0.000315	3.152100	0.533980	-0.000032
1221	1.2139e+02	7.8569	15.257015	0.000332	3.315846	0.561719	-0.000033
1222	1.2149e+02	7.8467	15.230538	0.000266	2.660864	0.450763	-0.000027
1223	1.2159e+02	7.8381	15.202839	0.000278	2.783673	0.471567	-0.000028
1224	1.2169e+02	7.8259	15.175139	0.000278	2.783673	0.471567	-0.000028
1225	1.2179e+02	7.8161	15.144996	0.000303	3.029291	0.513176	-0.000030
1226	1.2189e+02	7.8067	15.115667	0.000295	2.947418	0.499306	-0.000029
1227	1.2199e+02	7.7969	15.080636	0.000352	3.520527	0.596393	-0.000035
1228	1.2209e+02	7.7855	15.051307	0.000295	2.947418	0.499306	-0.000029
1229	1.2219e+02	7.7776	15.019942	0.000315	3.152100	0.533980	-0.000032
1230	1.2229e+02	7.7673	14.989391	0.000307	3.070227	0.520111	-0.000031
1231	1.2239e+02	7.7555	14.953138	0.000364	3.643336	0.617198	-0.000036
1232	1.2248e+02	7.7474	14.922180	0.000311	3.111164	0.527045	-0.000031
1233	1.2258e+02	7.7378	14.892444	0.000299	2.988355	0.506241	-0.000030
1234	1.2268e+02	7.7253	14.861486	0.000311	3.111164	0.527045	-0.000031
1235	1.2278e+02	7.7177	14.828898	0.000327	3.274909	0.554785	-0.000033
1236	1.2288e+02	7.7068	14.797126	0.000319	3.193036	0.540915	-0.000032
1237	1.2298e+02	7.6953	14.767390	0.000299	2.988355	0.506241	-0.000030
1238	1.2308e+02	7.6868	14.735617	0.000319	3.193036	0.540915	-0.000032
1239	1.2318e+02	7.6743	14.707510	0.000282	2.824609	0.478502	-0.000028
1240	1.2328e+02	7.6662	14.678182	0.000295	2.947418	0.499306	-0.000029
1241	1.2338e+02	7.6564	14.640706	0.000377	3.766146	0.638002	-0.000038
1242	1.2348e+02	7.6471	14.613821	0.000270	2.701800	0.457697	-0.000027
1243	1.2358e+02	7.6383	14.585307	0.000287	2.865546	0.485437	-0.000029
1244	1.2368e+02	7.6273	14.554349	0.000311	3.111164	0.527045	-0.000031
1245	1.2378e+02	7.6148	14.519725	0.000348	3.479591	0.589459	-0.000035
1246	1.2388e+02	7.6080	14.489175	0.000307	3.070227	0.520111	-0.000031
1247	1.2398e+02	7.5952	14.456587	0.000327	3.274909	0.554785	-0.000033
1248	1.2408e+02	7.5857	14.428073	0.000287	2.865546	0.485437	-0.000029
1249	1.2418e+02	7.5809	14.394671	0.000336	3.356782	0.568654	-0.000034
1250	1.2428e+02	7.5685	14.366972	0.000278	2.783673	0.471567	-0.000028
1251	1.2438e+02	7.5567	14.338458	0.000287	2.865546	0.485437	-0.000029
1252	1.2447e+02	7.5461	14.302204	0.000364	3.643336	0.617198	-0.000036
1253	1.2457e+02	7.5368	14.273690	0.000287	2.865546	0.485437	-0.000029
1254	1.2467e+02	7.5293	14.244769	0.000291	2.906482	0.492371	-0.000029
1255	1.2477e+02	7.5179	14.215033	0.000299	2.988355	0.506241	-0.000030
1256	1.2487e+02	7.5093	14.182853	0.000323	3.233973	0.547850	-0.000032
1257	1.2497e+02	7.5001	14.150673	0.000323	3.233973	0.547850	-0.000032
1258	1.2507e+02	7.4873	14.120122	0.000307	3.070227	0.520111	-0.000031
1259	1.2517e+02	7.4792	14.091201	0.000291	2.906482	0.492371	-0.000029
1260	1.2527e+02	7.4685	14.058613	0.000327	3.274909	0.554785	-0.000033
1261	1.2537e+02	7.4606	14.027655	0.000311	3.111164	0.527045	-0.000031
1262	1.2547e+02	7.4490	13.994661	0.000332	3.315846	0.561719	-0.000033
1263	1.2557e+02	7.4390	13.963703	0.000311	3.111164	0.527045	-0.000031
1264	1.2567e+02	7.4276	13.933559	0.000303	3.029291	0.513176	-0.000030
1265	1.2577e+02	7.4197	13.899343	0.000344	3.438655	0.582524	-0.000034
1266	1.2587e+02	7.4065	13.865126	0.000344	3.438655	0.582524	-0.000034
1267	1.2597e+02	7.3963	13.835797	0.000295	2.947418	0.499306	-0.000029
1268	1.2607e+02	7.3894	13.808098	0.000278	2.783673	0.471567	-0.000028
1269	1.2617e+02	7.3780	13.777547	0.000307	3.070227	0.520111	-0.000031
1270	1.2627e+02	7.3705	13.745367	0.000323	3.233973	0.547850	-0.000032
1271	1.2636e+02	7.3560	13.716853	0.000287	2.865546	0.485437	-0.000029
1272	1.2646e+02	7.3483	13.685488	0.000315	3.152100	0.533980	-0.000032
1273	1.2656e+02	7.3424	13.652493	0.000332	3.315846	0.561719	-0.000033
1274	1.2666e+02	7.3254	13.622757	0.000299	2.988355	0.506241	-0.000030
1275	1.2676e+02	7.3178	13.592614	0.000303	3.029291	0.513176	-0.000030
1276	1.2686e+02	7.3083	13.561248	0.000315	3.152100	0.533980	-0.000032
1277	1.2696e+02	7.2976	13.524995	0.000364	3.643336	0.617198	-0.000036
1278	1.2706e+02	7.2887	13.499739	0.000254	2.538055	0.429958	-0.000025
1279	1.2716e+02	7.2803	13.466337	0.000336	3.356782	0.568654	-0.000034
1280	1.2726e+02	7.2698	13.432528	0.000340	3.397718	0.575589	-0.000034
1281	1.2736e+02	7.2607	13.400755	0.000319	3.193036	0.540915	-0.000032
1282	1.2746e+02	7.2477	13.371834	0.000291	2.906482	0.492371	-0.000029
1283	1.2756e+02	7.2402	13.338025	0.000340	3.397718	0.575589	-0.000034
1284	1.2766e+02	7.2298	13.304215	0.000340	3.397718	0.575589	-0.000034
1285	1.2776e+02	7.2186	13.280589	0.000237	2.374309	0.402219	-0.000024
1286	1.2786e+02	7.2099	13.246780	0.000340	3.397718	0.575589	-0.000034
1287	1.2796e+02	7.2011	13.216229	0.000307	3.070227	0.520111	-0.000031
1288	1.2806e+02	7.1899	13.188530	0.000278	2.783673	0.471567	-0.000028
1289	1.2816e+02	7.1806	13.150240	0.000385	3.848018	0.651872	-0.000038
1290	1.2826e+02	7.1688	13.124170	0.000262	2.619927	0.443828	-0.000026
1291	1.2835e+02	7.1587	13.089138	0.000352	3.520527	0.596393	-0.000035
1292	1.2845e+02	7.1485	13.052885	0.000364	3.643336	0.617198	-0.000036
1293	1.2855e+02	7.1397	13.023963	0.000291	2.906482	0.492371	-0.000029
1294	1.2865e+02	7.1301	12.987303	0.000368	3.684273	0.624133	-0.000037
1295	1.2875e+02	7.1175	12.957159	0.000303	3.029291	0.513176	-0.000030
1296	1.2885e+02	7.1088	12.922942	0.000344	3.438655	0.582524	-0.000034
1297	1.2895e+02	7.0972	12.889133	0.000340	3.397718	0.575589	-0.000034
1298	1.2905e+02	7.0891	12.854102	0.000352	3.520527	0.596393	-0.000035
1299	1.2915e+02	7.0821	12.824773	0.000295	2.947418	0.499306	-0.000029
1300	1.2925e+02	7.0718	12.791778	0.000332	3.315846	0.561719	-0.000033
1301	1.2935e+02	7.0591	12.759598	0.000323	3.233973	0.547850	-0.000032
1302	1.2945e+02	7.0492	12.729862	0.000299	2.988355	0.506241	-0.000030
1303	1.2955e+02	7.0425	12.698089	0.000319	3.193036	0.540915	-0.000032
1304	1.2965e+02	7.0298	12.664280	0.000340	3.397718	0.575589	-0.000034
1305	1.2975e+02	7.0229	12.632507	0.000319	3.193036	0.540915	-0.000032
1306	1.2985e+02	7.0093	12.599105	0.000336	3.356782	0.568654	-0.000034
1307	1.2995e+02	6.9991	12.570591	0.000287	2.865546	0.485437	-0.000029
1308	1.3005e+02	6.9888	12.535560	0.000352	3.520527	0.596393	-0.000035
1309	1.3015e+02	6.9827	12.504602	0.000311	3.111164	0.527045	-0.000031
1310	1.3025e+02	6.9698	12.474051	0.000307	3.070227	0.520111	-0.000031
1311	1.3034e+02	6.9582	12.440649	0.000336	3.356782	0.568654	-0.000034
1312	1.3044e+02	6.9485	12.408469	0.000323	3.233973	0.547850	-0.000032
1313	1.3054e+02	6.9413	12.385250	0.000233	2.333373	0.395284	-0.000023
1314	1.3064e+02	6.9334	12.351034	0.000344	3.438655	0.582524	-0.000034
1315	1.3074e+02	6.9219	12.318853	0.000323	3.233973	0.547850	-0.000032
1316	1.3084e+02	6.9094	12.289932	0.000291	2.906482	0.492371	-0.000029
1317	1.3094e+02	6.9011	12.261418	0.000287	2.865546	0.485437	-0.000029
1318	1.3104e+02	6.8884	12.226794	0.000348	3.479591	0.589459	-0.000035
1319	1.3114e+02	6.8800	12.199095	0.000278	2.783673	0.471567	-0.000028
1320	1.3124e+02	6.8723	12.162841	0.000364	3.643336	0.617198	-0.000036
1321	1.3134e+02	6.8604	12.131476	0.000315	3.152100	0.533980	-0.000032
1322	1.3144e+02	6.8510	12.099296	0.000323	3.233973	0.547850	-0.000032
1323	1.3154e+02	6.8409	12.067523	0.000319	3.193036	0.540915	-0.000032
1324	1.3164e+02	6.8311	12.032492	0.000352	3.520527	0.596393	-0.000035
1325	1.3174e+02	6.8200	12.005200	0.000274	2.742736	0.464632	-0.000027
1326	1.3184e+02	6.8156	11.971390	0.000340	3.397718	0.575589	-0.000034
1327	1.3194e+02	6.8005	11.942062	0.000295	2.947418	0.499306	-0.000029
1328	1.3204e+02	6.7923	11.907845	0.000344	3.438655	0.582524	-0.000034
1329	1.3214e+02	6.7807	11.876072	0.000319	3.193036	0.540915	-0.000032
1330	1.3224e+02	6.7725	11.843485	0.000327	3.274909	0.554785	-0.000033
1331	1.3234e+02	6.7611	11.809675	0.000340	3.397718	0.575589	-0.000034
1332	1.3243e+02	6.7483	11.778310	0.000315	3.152100	0.533980	-0.000032
1333	1.3253e+02	6.7419	11.747352	0.000311	3.111164	0.527045	-0.000031
1334	1.3263e+02	6.7296	11.712728	0.000348	3.479591	0.589459	-0.000035
1335	1.3273e+02	6.7223	11.681770	0.000311	3.111164	0.527045	-0.000031
1336	1.3283e+02	6.7114	11.645924	0.000360	3.602400	0.610263	-0.000036
1337	1.3293e+02	6.7019	11.617817	0.000282	2.824609	0.478502	-0.000028
1338	1.3303e+02	6.6912	11.582785	0.000352	3.520527	0.596393	-0.000035
1339	1.3313e+02	6.6826	11.551013	0.000319	3.193036	0.540915	-0.000032
1340	1.3323e+02	6.6694	11.520462	0.000307	3.070227	0.520111	-0.000031
1341	1.3333e+02	6.6602	11.485431	0.000352	3.520527	0.596393	-0.000035
1342	1.3343e+02	6.6512	11.451621	0.000340	3.397718	0.575589	-0.000034
1343	1.3353e+02	6.6434	11.424329	0.000274	2.742736	0.464632	-0.000027
1344	1.3363e+02	6.6339	11.388890	0.000356	3.561464	0.603328	-0.000036
1345	1.3373e+02	6.6216	11.356710	0.000323	3.233973	0.547850	-0.000032
1346	1.3383e+02	6.6103	11.322494	0.000344	3.438655	0.582524	-0.000034
1347	1.3393e+02	6.6061	11.289499	0.000332	3.315846	0.561719	-0.000033
1348	1.3403e+02	6.5919	11.258133	0.000315	3.152100	0.533980	-0.000032
1349	1.3413e+02	6.5836	11.222695	0.000356	3.561464	0.603328	-0.000036
1350	1.3423e+02	6.5751	11.196217	0.000266	2.660864	0.450763	-0.000027
1351	1.3432e+02	6.5622	11.166889	0.000295	2.947418	0.499306	-0.000029
1352	1.3442e+02	6.5521	11.130228	0.000368	3.684273	0.624133	-0.000037
1353	1.3452e+02	6.5427	11.094789	0.000356	3.561464	0.603328	-0.000036
1354	1.3462e+02	6.5337	11.059758	0.000352	3.520527	0.596393	-0.000035
1355	1.3472e+02	6.5225	11.025948	0.000340	3.397718	0.575589	-0.000034
1356	1.3482e+02	6.5146	10.992953	0.000332	3.315846	0.561719	-0.000033
1357	1.3492e+02	6.5045	10.961181	0.000319	3.193036	0.540915	-0.000032
1358	1.3502e+02	6.4920	10.931037	0.000303	3.029291	0.513176	-0.000030
1359	1.3512e+02	6.4825	10.894784	0.000364	3.643336	0.617198	-0.000036
1360	1.3522e+02	6.4705	10.858530	0.000364	3.643336	0.617198	-0.000036
1361	1.3532e+02	6.4665	10.832053	0.000266	2.660864	0.450763	-0.000027
1362	1.3542e+02	6.4556	10.796614	0.000356	3.561464	0.603328	-0.000036
1363	1.3552e+02	6.4465	10.759546	0.000373	3.725209	0.631068	-0.000037
1364	1.3562e+02	6.4333	10.726551	0.000332	3.315846	0.561719	-0.000033
1365	1.3572e+02	6.4239	10.696815	0.000299	2.988355	0.506241	-0.000030
1366	1.3582e+02	6.4129	10.665043	0.000319	3.193036	0.540915	-0.000032
1367	1.3592e+02	6.4026	10.630011	0.000352	3.520527	0.596393	-0.000035
1368	1.3602e+02	6.3949	10.594980	0.000352	3.520527	0.596393	-0.000035
1369	1.3612e+02	6.3835	10.559541	0.000356	3.561464	0.603328	-0.000036
1370	1.3622e+02	6.3721	10.527768	0.000319	3.193036	0.540915	-0.000032
1371	1.3631e+02	6.3634	10.493551	0.000344	3.438655	0.582524	-0.000034
1372	1.3641e+02	6.3537	10.456076	0.000377	3.766146	0.638002	-0.000038
1373	1.3651e+02	6.3442	10.427969	0.000282	2.824609	0.478502	-0.000028
1374	1.3661e+02	6.3338	10.393753	0.000344	3.438655	0.582524	-0.000034
1375	1.3671e+02	6.3224	10.361572	0.000323	3.233973	0.547850	-0.000032
1376	1.3681e+02	6.3131	10.330614	0.000311	3.111164	0.527045	-0.000031
1377	1.3691e+02	6.3035	10.297212	0.000336	3.356782	0.568654	-0.000034
1378	1.3701e+02	6.2975	10.269920	0.000274	2.742736	0.464632	-0.000027
1379	1.3711e+02	6.2817	10.233260	0.000368	3.684273	0.624133	-0.000037
1380	1.3721e+02	6.2735	10.205153	0.000282	2.824609	0.478502	-0.000028
1381	1.3731e+02	6.2637	10.170529	0.000348	3.479591	0.589459	-0.000035
1382	1.3741e+02	6.2537	10.139163	0.000315	3.152100	0.533980	-0.000032
1383	1.3751e+02	6.2444	10.102503	0.000368	3.684273	0.624133	-0.000037
1384	1.3761e+02	6.2360	10.069915	0.000327	3.274909	0.554785	-0.000033
1385	1.3771e+02	6.2251	10.034476	0.000356	3.561464	0.603328	-0.000036
1386	1.3781e+02	6.2155	10.002296	0.000323	3.233973	0.547850	-0.000032
1387	1.3791e+02	6.2057	9.965636	0.000368	3.684273	0.624133	-0.000037
1388	1.3801e+02	6.1959	9.933455	0.000323	3.233973	0.547850	-0.000032
1389	1.3811e+02	6.1829	9.900053	0.000336	3.356782	0.568654	-0.000034
1390	1.3821e+02	6.1709	9.867873	0.000323	3.233973	0.547850	-0.000032
1391	1.3831e+02	6.1656	9.835286	0.000327	3.274909	0.554785	-0.000033
1392	1.3840e+02	6.1555	9.802291	0.000332	3.315846	0.561719	-0.000033
1393	1.3850e+02	6.1459	9.768074	0.000344	3.438655	0.582524	-0.000034
1394	1.3860e+02	6.1356	9.732228	0.000360	3.602400	0.610263	-0.000036
1395	1.3870e+02	6.1250	9.695160	0.000373	3.725209	0.631068	-0.000037
1396	1.3880e+02	6.1149	9.658907	0.000364	3.643336	0.617198	-0.000036
1397	1.3890e+02	6.1047	9.618580	0.000405	4.052700	0.686546	-0.000041
1398	1.3900e+02	6.0935	9.588029	0.000307	3.070227	0.520111	-0.000031
1399	1.3910e+02	6.0841	9.554220	0.000340	3.397718	0.575589	-0.000034
1400	1.3920e+02	6.0735	9.517151	0.000373	3.725209	0.631068	-0.000037
1401	1.3930e+02	6.0635	9.482120	0.000352	3.520527	0.596393	-0.000035
1402	1.3940e+02	6.0569	9.446274	0.000360	3.602400	0.610263	-0.000036
1403	1.3950e+02	6.0474	9.410428	0.000360	3.602400	0.610263	-0.000036
1404	1.3960e+02	6.0336	9.374174	0.000364	3.643336	0.617198	-0.000036
1405	1.3970e+02	6.0279	9.344438	0.000299	2.988355	0.506241	-0.000030
1406	1.3980e+02	6.0166	9.308592	0.000360	3.602400	0.610263	-0.000036
1407	1.3990e+02	6.0059	9.273561	0.000352	3.520527	0.596393	-0.000035
1408	1.4000e+02	5.9962	9.240566	0.000332	3.315846	0.561719	-0.000033
1409	1.4010e+02	5.9832	9.202683	0.000381	3.807082	0.644937	-0.000038
1410	1.4020e+02	5.9762	9.172132	0.000307	3.070227	0.520111	-0.000031
1411	1.4029e+02	5.9658	9.131805	0.000405	4.052700	0.686546	-0.000041
1412	1.4039e+02	5.9539	9.100440	0.000315	3.152100	0.533980	-0.000032
1413	1.4049e+02	5.9466	9.063779	0.000368	3.684273	0.624133	-0.000037
1414	1.4059e+02	5.9365	9.027118	0.000368	3.684273	0.624133	-0.000037
1415	1.4069e+02	5.9259	8.994124	0.000332	3.315846	0.561719	-0.000033
1416	1.4079e+02	5.9174	8.958277	0.000360	3.602400	0.610263	-0.000036
1417	1.4089e+02	5.9043	8.922431	0.000360	3.602400	0.610263	-0.000036
1418	1.4099e+02	5.8978	8.886585	0.000360	3.602400	0.610263	-0.000036
1419	1.4109e+02	5.8862	8.855220	0.000315	3.152100	0.533980	-0.000032
1420	1.4119e+02	5.8767	8.821003	0.000344	3.438655	0.582524	-0.000034
1421	1.4129e+02	5.8640	8.785564	0.000356	3.561464	0.603328	-0.000036
1422	1.4139e+02	5.8562	8.747681	0.000381	3.807082	0.644937	-0.000038
1423	1.4149e+02	5.8479	8.717131	0.000307	3.070227	0.520111	-0.000031
1424	1.4159e+02	5.8381	8.680470	0.000368	3.684273	0.624133	-0.000037
1425	1.4169e+02	5.8256	8.648697	0.000319	3.193036	0.540915	-0.000032
1426	1.4179e+02	5.8196	8.613666	0.000352	3.520527	0.596393	-0.000035
1427	1.4189e+02	5.8053	8.572931	0.000409	4.093636	0.693481	-0.000041
1428	1.4199e+02	5.7986	8.539122	0.000340	3.397718	0.575589	-0.000034
1429	1.4209e+02	5.7843	8.504090	0.000352	3.520527	0.596393	-0.000035
1430	1.4219e+02	5.7767	8.466208	0.000381	3.807082	0.644937	-0.000038
1431	1.4228e+02	5.7681	8.432398	0.000340	3.397718	0.575589	-0.000034
1432	1.4238e+02	5.7542	8.397367	0.000352	3.520527	0.596393	-0.000035
1433	1.4248e+02	5.7493	8.357854	0.000397	3.970827	0.672676	-0.000040
1434	1.4258e+02	5.7365	8.326896	0.000311	3.111164	0.527045	-0.000031
1435	1.4268e+02	5.7282	8.289014	0.000381	3.807082	0.644937	-0.000038
1436	1.4278e+02	5.7179	8.258463	0.000307	3.070227	0.520111	-0.000031
1437	1.4288e+02	5.7082	8.227505	0.000311	3.111164	0.527045	-0.000031
1438	1.4298e+02	5.6960	8.190437	0.000373	3.725209	0.631068	-0.000037
1439	1.4308e+02	5.6877	8.152554	0.000381	3.807082	0.644937	-0.000038
1440	1.4318e+02	5.6802	8.119152	0.000336	3.356782	0.568654	-0.000034
1441	1.4328e+02	5.6655	8.085750	0.000336	3.356782	0.568654	-0.000034
1442	1.4338e+02	5.6544	8.049089	0.000368	3.684273	0.624133	-0.000037
1443	1.4348e+02	5.6494	8.013243	0.000360	3.602400	0.610263	-0.000036
1444	1.4358e+02	5.6365	7.980248	0.000332	3.315846	0.561719	-0.000033
1445	1.4368e+02	5.6296	7.941550	0.000389	3.888955	0.658807	-0.000039
1446	1.4378e+02	5.6160	7.905704	0.000360	3.602400	0.610263	-0.000036
1447	1.4388e+02	5.6098	7.870673	0.000352	3.520527	0.596393	-0.000035
1448	1.4398e+02	5.5990	7.834419	0.000364	3.643336	0.617198	-0.000036
1449	1.4408e+02	5.5871	7.798980	0.000356	3.561464	0.603328	-0.000036
1450	1.4418e+02	5.5762	7.765578	0.000336	3.356782	0.568654	-0.000034
1451	1.4428e+02	5.5703	7.728918	0.000368	3.684273	0.624133	-0.000037
1452	1.4437e+02	5.5587	7.692664	0.000364	3.643336	0.617198	-0.000036
1453	1.4447e+02	5.5486	7.656818	0.000360	3.602400	0.610263	-0.000036
1454	1.4457e+02	5.5382	7.623009	0.000340	3.397718	0.575589	-0.000034
1455	1.4467e+02	5.5312	7.587977	0.000352	3.520527	0.596393	-0.000035
1456	1.4477e+02	5.5183	7.554168	0.000340	3.397718	0.575589	-0.000034
1457	1.4487e+02	5.5093	7.515877	0.000385	3.848018	0.651872	-0.000038
1458	1.4497e+02	5.4990	7.482475	0.000336	3.356782	0.568654	-0.000034
1459	1.4507e+02	5.4876	7.439297	0.000434	4.339255	0.735090	-0.000043
1460	1.4517e+02	5.4778	7.406710	0.000327	3.274909	0.554785	-0.000033
1461	1.4527e+02	5.4668	7.368419	0.000385	3.848018	0.651872	-0.000038
1462	1.4537e+02	5.4571	7.331351	0.000373	3.725209	0.631068	-0.000037
1463	1.4547e+02	5.4476	7.292654	0.000389	3.888955	0.658807	-0.000039
1464	1.4557e+02	5.4360	7.256808	0.000360	3.602400	0.610263	-0.000036
1465	1.4567e+02	5.4284	7.218925	0.000381	3.807082	0.644937	-0.000038
1466	1.4577e+02	5.4198	7.182671	0.000364	3.643336	0.617198	-0.000036
1467	1.4587e+02	5.4084	7.147640	0.000352	3.520527	0.596393	-0.000035
1468	1.4597e+02	5.3992	7.112201	0.000356	3.561464	0.603328	-0.000036
1469	1.4607e+02	5.3893	7.075540	0.000368	3.684273	0.624133	-0.000037
1470	1.4617e+02	5.3799	7.038065	0.000377	3.766146	0.638002	-0.000038
1471	1.4626e+02	5.3692	7.005885	0.000323	3.233973	0.547850	-0.000032
1472	1.4636e+02	5.3585	6.965965	0.000401	4.011764	0.679611	-0.000040
1473	1.4646e+02	5.3506	6.931341	0.000348	3.479591	0.589459	-0.000035
1474	1.4656e+02	5.3398	6.893458	0.000381	3.807082	0.644937	-0.000038
1475	1.4666e+02	5.3329	6.858019	0.000356	3.561464	0.603328	-0.000036
1476	1.4676e+02	5.3182	6.820136	0.000381	3.807082	0.644937	-0.000038
1477	1.4686e+02	5.3088	6.785512	0.000348	3.479591	0.589459	-0.000035
1478	1.4696e+02	5.2979	6.749259	0.000364	3.643336	0.617198	-0.000036
1479	1.4706e+02	5.2866	6.713413	0.000360	3.602400	0.610263	-0.000036
1480	1.4716e+02	5.2789	6.677974	0.000356	3.561464	0.603328	-0.000036
1481	1.4726e+02	5.2692	6.647423	0.000307	3.070227	0.520111	-0.000031
1482	1.4736e+02	5.2609	6.610762	0.000368	3.684273	0.624133	-0.000037
1483	1.4746e+02	5.2499	6.578582	0.000323	3.233973	0.547850	-0.000032
1484	1.4756e+02	5.2385	6.543551	0.000352	3.520527	0.596393	-0.000035
1485	1.4766e+02	5.2272	6.507297	0.000364	3.643336	0.617198	-0.000036
1486	1.4776e+02	5.2197	6.469414	0.000381	3.807082	0.644937	-0.000038
1487	1.4786e+02	5.2116	6.431939	0.000377	3.766146	0.638002	-0.000038
1488	1.4796e+02	5.1978	6.403832	0.000282	2.824609	0.478502	-0.000028
1489	1.4806e+02	5.1906	6.363098	0.000409	4.093636	0.693481	-0.000041
1490	1.4816e+02	5.1785	6.326437	0.000368	3.684273	0.624133	-0.000037
1491	1.4825e+02	5.1698	6.289776	0.000368	3.684273	0.624133	-0.000037
1492	1.4835e+02	5.1592	6.252301	0.000377	3.766146	0.638002	-0.000038
1493	1.4845e+02	5.1504	6.219713	0.000327	3.274909	0.554785	-0.000033
1494	1.4855e+02	5.1395	6.183460	0.000364	3.643336	0.617198	-0.000036
1495	1.4865e+02	5.1296	6.146392	0.000373	3.725209	0.631068	-0.000037
1496	1.4875e+02	5.1193	6.106472	0.000401	4.011764	0.679611	-0.000040
1497	1.4885e+02	5.1076	6.070626	0.000360	3.602400	0.610263	-0.000036
1498	1.4895e+02	5.1003	6.037224	0.000336	3.356782	0.568654	-0.000034
1499	1.4905e+02	5.0898	5.996082	0.000413	4.134573	0.700416	-0.000041
1500	1.4915e+02	5.0803	5.960236	0.000360	3.602400	0.610263	-0.000036
1501	1.4925e+02	5.0703	5.924797	0.000356	3.561464	0.603328	-0.000036
1502	1.4935e+02	5.0635	5.887322	0.000377	3.766146	0.638002	-0.000038
1503	1.4945e+02	5.0495	5.853920	0.000336	3.356782	0.568654	-0.000034
1504	1.4955e+02	5.0420	5.814815	0.000393	3.929891	0.665742	-0.000039
1505	1.4965e+02	5.0316	5.776932	0.000381	3.807082	0.644937	-0.000038
1506	1.4975e+02	5.0219	5.740271	0.000368	3.684273	0.624133	-0.000037
1507	1.4985e+02	5.0103	5.700759	0.000397	3.970827	0.672676	-0.000040
1508	1.4995e+02	4.9987	5.666135	0.000348	3.479591	0.589459	-0.000035
1509	1.5005e+02	4.9911	5.631103	0.000352	3.520527	0.596393	-0.000035
1510	1.5015e+02	4.9807	5.594850	0.000364	3.643336	0.617198	-0.000036
1511	1.5025e+02	4.9712	5.556560	0.000385	3.848018	0.651872	-0.000038
1512	1.5034e+02	4.9612	5.520306	0.000364	3.643336	0.617198	-0.000036
1513	1.5044e+02	4.9533	5.483238	0.000373	3.725209	0.631068	-0.000037
1514	1.5054e+02	4.9422	5.447392	0.000360	3.602400	0.610263	-0.000036
1515	1.5064e+02	4.9305	5.409916	0.000377	3.766146	0.638002	-0.000038
1516	1.5074e+02	4.9198	5.374478	0.000356	3.561464	0.603328	-0.000036
1517	1.5084e+02	4.9126	5.339039	0.000356	3.561464	0.603328	-0.000036
1518	1.5094e+02	4.9007	5.299934	0.000393	3.929891	0.665742	-0.000039
1519	1.5104e+02	4.8919	5.265717	0.000344	3.438655	0.582524	-0.000034
1520	1.5114e+02	4.8788	5.226612	0.000393	3.929891	0.665742	-0.000039
1521	1.5124e+02	4.8711	5.185063	0.000418	4.175509	0.707350	-0.000042
1522	1.5134e+02	4.8627	5.149217	0.000360	3.602400	0.610263	-0.000036
1523	1.5144e+02	4.8512	5.107668	0.000418	4.175509	0.707350	-0.000042
1524	1.5154e+02	4.8405	5.075488	0.000323	3.233973	0.547850	-0.000032
1525	1.5164e+02	4.8301	5.036791	0.000389	3.888955	0.658807	-0.000039
1526	1.5174e+02	4.8209	5.001352	0.000356	3.561464	0.603328	-0.000036
1527	1.5184e+02	4.8121	4.962247	0.000393	3.929891	0.665742	-0.000039
1528	1.5194e+02	4.8016	4.924771	0.000377	3.766146	0.638002	-0.000038
1529	1.5204e+02	4.7932	4.887296	0.000377	3.766146	0.638002	-0.000038
1530	1.5214e+02	4.7823	4.851450	0.000360	3.602400	0.610263	-0.000036
1531	1.5224e+02	4.7731	4.813160	0.000385	3.848018	0.651872	-0.000038
1532	1.5233e+02	4.7589	4.774462	0.000389	3.888955	0.658807	-0.000039
1533	1.5243e+02	4.7558	4.736579	0.000381	3.807082	0.644937	-0.000038
1534	1.5253e+02	4.7420	4.700733	0.000360	3.602400	0.610263	-0.000036
1535	1.5263e+02	4.7308	4.660813	0.000401	4.011764	0.679611	-0.000040
1536	1.5273e+02	4.7228	4.624967	0.000360	3.602400	0.610263	-0.000036
1537	1.5283e+02	4.7129	4.582604	0.000426	4.257382	0.721220	-0.000043
1538	1.5293e+02	4.7041	4.547572	0.000352	3.520527	0.596393	-0.000035
1539	1.5303e+02	4.6957	4.508875	0.000389	3.888955	0.658807	-0.000039
1540	1.5313e+02	4.6822	4.466511	0.000426	4.257382	0.721220	-0.000043
1541	1.5323e+02	4.6708	4.431480	0.000352	3.520527	0.596393	-0.000035
1542	1.5333e+02	4.6619	4.391153	0.000405	4.052700	0.686546	-0.000041
1543	1.5343e+02	4.6517	4.361417	0.000299	2.988355	0.506241	-0.000030
1544	1.5353e+02	4.6438	4.322719	0.000389	3.888955	0.658807	-0.000039
1545	1.5363e+02	4.6322	4.286873	0.000360	3.602400	0.610263	-0.000036
1546	1.5373e+02	4.6215	4.253471	0.000336	3.356782	0.568654	-0.000034
1547	1.5383e+02	4.6130	4.212329	0.000413	4.134573	0.700416	-0.000041
1548	1.5393e+02	4.6006	4.172410	0.000401	4.011764	0.679611	-0.000040
1549	1.5403e+02	4.5905	4.138600	0.000340	3.397718	0.575589	-0.000034
1550	1.5413e+02	4.5846	4.101125	0.000377	3.766146	0.638002	-0.000038
1551	1.5422e+02	4.5732	4.062427	0.000389	3.888955	0.658807	-0.000039
1552	1.5432e+02	4.5667	4.019249	0.000434	4.339255	0.735090	-0.000043
1553	1.5442e+02	4.5534	3.985440	0.000340	3.397718	0.575589	-0.000034
1554	1.5452e+02	4.5415	3.942669	0.000430	4.298318	0.728155	-0.000043
1555	1.5462e+02	4.5341	3.903564	0.000393	3.929891	0.665742	-0.000039
1556	1.5472e+02	4.5225	3.864051	0.000397	3.970827	0.672676	-0.000040
1557	1.5482e+02	4.5136	3.829835	0.000344	3.438655	0.582524	-0.000034
1558	1.5492e+02	4.5046	3.793989	0.000360	3.602400	0.610263	-0.000036
1559	1.5502e+02	4.4935	3.755291	0.000389	3.888955	0.658807	-0.000039
1560	1.5512e+02	4.4839	3.718630	0.000368	3.684273	0.624133	-0.000037
1561	1.5522e+02	4.4740	3.678711	0.000401	4.011764	0.679611	-0.000040
1562	1.5532e+02	4.4633	3.636347	0.000426	4.257382	0.721220	-0.000043
1563	1.5542e+02	4.4544	3.600501	0.000360	3.602400	0.610263	-0.000036
1564	1.5552e+02	4.4430	3.558137	0.000426	4.257382	0.721220	-0.000043
1565	1.5562e+02	4.4345	3.518218	0.000401	4.011764	0.679611	-0.000040
1566	1.5572e+02	4.4222	3.474632	0.000438	4.380191	0.742024	-0.000044
1567	1.5582e+02	4.4125	3.434305	0.000405	4.052700	0.686546	-0.000041
1568	1.5592e+02	4.4043	3.392756	0.000418	4.175509	0.707350	-0.000042
1569	1.5602e+02	4.3940	3.354059	0.000389	3.888955	0.658807	-0.000039
1570	1.5612e+02	4.3848	3.315768	0.000385	3.848018	0.651872	-0.000038
1571	1.5622e+02	4.3731	3.278293	0.000377	3.766146	0.638002	-0.000038
1572	1.5631e+02	4.3620	3.236337	0.000422	4.216446	0.714285	-0.000042
1573	1.5641e+02	4.3533	3.198454	0.000381	3.807082	0.644937	-0.000038
1574	1.5651e+02	4.3432	3.158127	0.000405	4.052700	0.686546	-0.000041
1575	1.5661e+02	4.3333	3.117393	0.000409	4.093636	0.693481	-0.000041
1576	1.5671e+02	4.3245	3.079917	0.000377	3.766146	0.638002	-0.000038
1577	1.5681e+02	4.3137	3.037146	0.000430	4.298318	0.728155	-0.000043
1578	1.5691e+02	4.3034	3.001707	0.000356	3.561464	0.603328	-0.000036
1579	1.5701e+02	4.2931	2.962602	0.000393	3.929891	0.665742	-0.000039
1580	1.5711e+02	4.2847	2.923905	0.000389	3.888955	0.658807	-0.000039
1581	1.5721e+02	4.2736	2.880319	0.000438	4.380191	0.742024	-0.000044
1582	1.5731e+02	4.2661	2.844066	0.000364	3.643336	0.617198	-0.000036
1583	1.5741e+02	4.2559	2.803331	0.000409	4.093636	0.693481	-0.000041
1584	1.5751e+02	4.2461	2.763412	0.000401	4.011764	0.679611	-0.000040
1585	1.5761e+02	4.2345	2.723492	0.000401	4.011764	0.679611	-0.000040
1586	1.5771e+02	4.2236	2.686424	0.000373	3.725209	0.631068	-0.000037
1587	1.5781e+02	4.2118	2.644875	0.000418	4.175509	0.707350	-0.000042
1588	1.5791e+02	4.2044	2.604141	0.000409	4.093636	0.693481	-0.000041
1589	1.5801e+02	4.1943	2.561777	0.000426	4.257382	0.721220	-0.000043
1590	1.5811e+02	4.1851	2.525524	0.000364	3.643336	0.617198	-0.000036
1591	1.5821e+02	4.1766	2.486012	0.000397	3.970827	0.672676	-0.000040
1592	1.5830e+02	4.1642	2.448943	0.000373	3.725209	0.631068	-0.000037
1593	1.5840e+02	4.1525	2.407802	0.000413	4.134573	0.700416	-0.000041
1594	1.5850e+02	4.1451	2.368697	0.000393	3.929891	0.665742	-0.000039
1595	1.5860e+02	4.1341	2.328370	0.000405	4.052700	0.686546	-0.000041
1596	1.5870e+02	4.1264	2.286821	0.000418	4.175509	0.707350	-0.000042
1597	1.5880e+02	4.1152	2.246494	0.000405	4.052700	0.686546	-0.000041
1598	1.5890e+02	4.1065	2.205760	0.000409	4.093636	0.693481	-0.000041
1599	1.5900e+02	4.0978	2.171136	0.000348	3.479591	0.589459	-0.000035
1600	1.5910e+02	4.0829	2.127957	0.000434	4.339255	0.735090	-0.000043
1601	1.5920e+02	4.0751	2.086816	0.000413	4.134573	0.700416	-0.000041
1602	1.5930e+02	4.0641	2.044860	0.000422	4.216446	0.714285	-0.000042
1603	1.5940e+02	4.0556	2.006569	0.000385	3.848018	0.651872	-0.000038
1604	1.5950e+02	4.0430	1.965428	0.000413	4.134573	0.700416	-0.000041
1605	1.5960e+02	4.0356	1.925101	0.000405	4.052700	0.686546	-0.000041
1606	1.5970e+02	4.0257	1.883959	0.000413	4.134573	0.700416	-0.000041
1607	1.5980e+02	4.0170	1.846484	0.000377	3.766146	0.638002	-0.000038
1608	1.5990e+02	4.0031	1.806157	0.000405	4.052700	0.686546	-0.000041
1609	1.6000e+02	3.9951	1.766645	0.000397	3.970827	0.672676	-0.000040
1610	1.6010e+02	3.9850	1.724281	0.000426	4.257382	0.721220	-0.000043
1611	1.6019e+02	3.9764	1.687213	0.000373	3.725209	0.631068	-0.000037
1612	1.6029e+02	3.9625	1.645257	0.000422	4.216446	0.714285	-0.000042
1613	1.6039e+02	3.9553	1.604930	0.000405	4.052700	0.686546	-0.000041
1614	1.6049e+02	3.9449	1.562566	0.000426	4.257382	0.721220	-0.000043
1615	1.6059e+02	3.9348	1.521017	0.000418	4.175509	0.707350	-0.000042
1616	1.6069e+02	3.9277	1.480690	0.000405	4.052700	0.686546	-0.000041
1617	1.6079e+02	3.9169	1.441993	0.000389	3.888955	0.658807	-0.000039
1618	1.6089e+02	3.9066	1.402073	0.000401	4.011764	0.679611	-0.000040
1619	1.6099e+02	3.8979	1.362153	0.000401	4.011764	0.679611	-0.000040
1620	1.6109e+02	3.8844	1.321419	0.000409	4.093636	0.693481	-0.000041
1621	1.6119e+02	3.8760	1.283536	0.000381	3.807082	0.644937	-0.000038
1622	1.6129e+02	3.8662	1.241987	0.000418	4.175509	0.707350	-0.000042
1623	1.6139e+02	3.8587	1.204105	0.000381	3.807082	0.644937	-0.000038
1624	1.6149e+02	3.8467	1.162963	0.000413	4.134573	0.700416	-0.000041
1625	1.6159e+02	3.8367	1.119377	0.000438	4.380191	0.742024	-0.000044
1626	1.6169e+02	3.8299	1.078643	0.000409	4.093636	0.693481	-0.000041
1627	1.6179e+02	3.8165	1.033835	0.000450	4.503000	0.762829	-0.000045
1628	1.6189e+02	3.8062	0.993916	0.000401	4.011764	0.679611	-0.000040
1629	1.6199e+02	3.7967	0.950738	0.000434	4.339255	0.735090	-0.000043
1630	1.6209e+02	3.7848	0.904708	0.000463	4.625809	0.783633	-0.000046
1631	1.6219e+02	3.7785	0.866010	0.000389	3.888955	0.658807	-0.000039
1632	1.6228e+02	3.7658	0.826498	0.000397	3.970827	0.672676	-0.000040
1633	1.6238e+02	3.7589	0.782505	0.000442	4.421127	0.748959	-0.000044
1634	1.6248e+02	3.7480	0.737697	0.000450	4.503000	0.762829	-0.000045
1635	1.6258e+02	3.7362	0.699000	0.000389	3.888955	0.658807	-0.000039
1636	1.6268e+02	3.7275	0.661117	0.000381	3.807082	0.644937	-0.000038
1637	1.6278e+02	3.7136	0.623641	0.000377	3.766146	0.638002	-0.000038
1638	1.6288e+02	3.7090	0.580056	0.000438	4.380191	0.742024	-0.000044
1639	1.6298e+02	3.6954	0.539322	0.000409	4.093636	0.693481	-0.000041
1640	1.6308e+02	3.6869	0.496551	0.000430	4.298318	0.728155	-0.000043
1641	1.6318e+02	3.6803	0.457038	0.000397	3.970827	0.672676	-0.000040
1642	1.6328e+02	3.6682	0.410194	0.000471	4.707682	0.797503	-0.000047
1643	1.6338e+02	3.6561	0.367423	0.000430	4.298318	0.728155	-0.000043
1644	1.6348e+02	3.6486	0.324245	0.000434	4.339255	0.735090	-0.000043
1645	1.6358e+02	3.6366	0.282288	0.000422	4.216446	0.714285	-0.000042
1646	1.6368e+02	3.6287	0.251330	0.000311	3.111164	0.527045	-0.000031
1647	1.6378e+02	3.6163	0.203671	0.000479	4.789555	0.811373	-0.000048
1648	1.6388e+02	3.6086	0.166196	0.000377	3.766146	0.638002	-0.000038
1649	1.6398e+02	3.5987	0.125869	0.000405	4.052700	0.686546	-0.000041
1650	1.6408e+02	3.5869	0.085949	0.000401	4.011764	0.679611	-0.000040
1651	1.6418e+02	3.5780	0.048474	0.000377	3.766146	0.638002	-0.000038
1652	1.6427e+02	3.5676	0.006517	0.000422	4.216446	0.714285	-0.000042
1653	1.6437e+02	3.5603	-0.030958	0.000377	3.766146	0.638002	-0.000038
1654	1.6447e+02	3.5475	-0.072914	0.000422	4.216446	0.714285	-0.000042
1655	1.6457e+02	3.5381	-0.114463	0.000418	4.175509	0.707350	-0.000042
1656	1.6467e+02	3.5274	-0.156827	0.000426	4.257382	0.721220	-0.000043
1657	1.6477e+02	3.5180	-0.200005	0.000434	4.339255	0.735090	-0.000043
1658	1.6487e+02	3.5072	-0.236666	0.000368	3.684273	0.624133	-0.000037
1659	1.6497e+02	3.5006	-0.279437	0.000430	4.298318	0.728155	-0.000043
1660	1.6507e+02	3.4893	-0.323430	0.000442	4.421127	0.748959	-0.000044
1661	1.6517e+02	3.4809	-0.362128	0.000389	3.888955	0.658807	-0.000039
1662	1.6527e+02	3.4716	-0.403269	0.000413	4.134573	0.700416	-0.000041
1663	1.6537e+02	3.4584	-0.450928	0.000479	4.789555	0.811373	-0.000048
1664	1.6547e+02	3.4483	-0.487589	0.000368	3.684273	0.624133	-0.000037
1665	1.6557e+02	3.4354	-0.534026	0.000467	4.666746	0.790568	-0.000047
1666	1.6567e+02	3.4308	-0.572724	0.000389	3.888955	0.658807	-0.000039
1667	1.6577e+02	3.4187	-0.615087	0.000426	4.257382	0.721220	-0.000043
1668	1.6587e+02	3.4090	-0.655007	0.000401	4.011764	0.679611	-0.000040
1669	1.6597e+02	3.4019	-0.701037	0.000463	4.625809	0.783633	-0.000046
1670	1.6607e+02	3.3897	-0.746252	0.000454	4.543936	0.769764	-0.000045
1671	1.6616e+02	3.3761	-0.785356	0.000393	3.929891	0.665742	-0.000039
1672	1.6626e+02	3.3675	-0.826905	0.000418	4.175509	0.707350	-0.000042
1673	1.6636e+02	3.3642	-0.868454	0.000418	4.175509	0.707350	-0.000042
1674	1.6646e+02	3.3474	-0.909189	0.000409	4.093636	0.693481	-0.000041
1675	1.6656e+02	3.3393	-0.956033	0.000471	4.707682	0.797503	-0.000047
1676	1.6666e+02	3.3309	-0.996767	0.000409	4.093636	0.693481	-0.000041
1677	1.6676e+02	3.3184	-1.039538	0.000430	4.298318	0.728155	-0.000043
1678	1.6686e+02	3.3071	-1.081087	0.000418	4.175509	0.707350	-0.000042
1679	1.6696e+02	3.2996	-1.124673	0.000438	4.380191	0.742024	-0.000044
1680	1.6706e+02	3.2883	-1.166222	0.000418	4.175509	0.707350	-0.000042
1681	1.6716e+02	3.2804	-1.209400	0.000434	4.339255	0.735090	-0.000043
1682	1.6726e+02	3.2699	-1.249320	0.000401	4.011764	0.679611	-0.000040
1683	1.6736e+02	3.2613	-1.292905	0.000438	4.380191	0.742024	-0.000044
1684	1.6746e+02	3.2488	-1.334047	0.000413	4.134573	0.700416	-0.000041
1685	1.6756e+02	3.2408	-1.376410	0.000426	4.257382	0.721220	-0.000043
1686	1.6766e+02	3.2294	-1.420403	0.000442	4.421127	0.748959	-0.000044
1687	1.6776e+02	3.2163	-1.462767	0.000426	4.257382	0.721220	-0.000043
1688	1.6786e+02	3.2108	-1.503094	0.000405	4.052700	0.686546	-0.000041
1689	1.6796e+02	3.2016	-1.547494	0.000446	4.462064	0.755894	-0.000045
1690	1.6806e+02	3.1886	-1.593931	0.000467	4.666746	0.790568	-0.000047
1691	1.6816e+02	3.1845	-1.633851	0.000401	4.011764	0.679611	-0.000040
1692	1.6825e+02	3.1680	-1.679473	0.000458	4.584873	0.776698	-0.000046
1693	1.6835e+02	3.1602	-1.720208	0.000409	4.093636	0.693481	-0.000041
1694	1.6845e+02	3.1494	-1.765015	0.000450	4.503000	0.762829	-0.000045
1695	1.6855e+02	3.1404	-1.809008	0.000442	4.421127	0.748959	-0.000044
1696	1.6865e+02	3.1271	-1.850150	0.000413	4.134573	0.700416	-0.000041
1697	1.6875e+02	3.1199	-1.894550	0.000446	4.462064	0.755894	-0.000045
1698	1.6885e+02	3.1107	-1.936506	0.000422	4.216446	0.714285	-0.000042
1699	1.6895e+02	3.0994	-1.979277	0.000430	4.298318	0.728155	-0.000043
1700	1.6905e+02	3.0894	-2.023678	0.000446	4.462064	0.755894	-0.000045
1701	1.6915e+02	3.0804	-2.064005	0.000405	4.052700	0.686546	-0.000041
1702	1.6925e+02	3.0752	-2.110849	0.000471	4.707682	0.797503	-0.000047
1703	1.6935e+02	3.0608	-2.154027	0.000434	4.339255	0.735090	-0.000043
1704	1.6945e+02	3.0479	-2.199242	0.000454	4.543936	0.769764	-0.000045
1705	1.6955e+02	3.0415	-2.243643	0.000446	4.462064	0.755894	-0.000045
1706	1.6965e+02	3.0307	-2.286006	0.000426	4.257382	0.721220	-0.000043
1707	1.6975e+02	3.0196	-2.332851	0.000471	4.707682	0.797503	-0.000047
1708	1.6985e+02	3.0126	-2.371956	0.000393	3.929891	0.665742	-0.000039
1709	1.6995e+02	3.0019	-2.417578	0.000458	4.584873	0.776698	-0.000046
1710	1.7005e+02	2.9890	-2.461978	0.000446	4.462064	0.755894	-0.000045
1711	1.7015e+02	2.9824	-2.503527	0.000418	4.175509	0.707350	-0.000042
1712	1.7024e+02	2.9699	-2.548335	0.000450	4.503000	0.762829	-0.000045
1713	1.7034e+02	2.9583	-2.585403	0.000373	3.725209	0.631068	-0.000037
1714	1.7044e+02	2.9517	-2.629396	0.000442	4.421127	0.748959	-0.000044
1715	1.7054e+02	2.9433	-2.672574	0.000434	4.339255	0.735090	-0.000043
1716	1.7064e+02	2.9295	-2.714938	0.000426	4.257382	0.721220	-0.000043
1717	1.7074e+02	2.9208	-2.758116	0.000434	4.339255	0.735090	-0.000043
1718	1.7084e+02	2.9119	-2.800073	0.000422	4.216446	0.714285	-0.000042
1719	1.7094e+02	2.8992	-2.844880	0.000450	4.503000	0.762829	-0.000045
1720	1.7104e+02	2.8905	-2.892539	0.000479	4.789555	0.811373	-0.000048
1721	1.7114e+02	2.8803	-2.938977	0.000467	4.666746	0.790568	-0.000047
1722	1.7124e+02	2.8709	-2.980933	0.000422	4.216446	0.714285	-0.000042
1723	1.7134e+02	2.8605	-3.026555	0.000458	4.584873	0.776698	-0.000046
1724	1.7144e+02	2.8509	-3.070141	0.000438	4.380191	0.742024	-0.000044
1725	1.7154e+02	2.8427	-3.112097	0.000422	4.216446	0.714285	-0.000042
1726	1.7164e+02	2.8329	-3.154461	0.000426	4.257382	0.721220	-0.000043
1727	1.7174e+02	2.8207	-3.199676	0.000454	4.543936	0.769764	-0.000045
1728	1.7184e+02	2.8113	-3.245705	0.000463	4.625809	0.783633	-0.000046
1729	1.7194e+02	2.8012	-3.289291	0.000438	4.380191	0.742024	-0.000044
1730	1.7204e+02	2.7911	-3.336950	0.000479	4.789555	0.811373	-0.000048
1731	1.7213e+02	2.7802	-3.378906	0.000422	4.216446	0.714285	-0.000042
1732	1.7223e+02	2.7695	-3.433083	0.000544	5.444537	0.922329	-0.000054
1733	1.7233e+02	2.7621	-3.476261	0.000434	4.339255	0.735090	-0.000043
1734	1.7243e+02	2.7509	-3.521476	0.000454	4.543936	0.769764	-0.000045
1735	1.7253e+02	2.7423	-3.569543	0.000483	4.830491	0.818307	-0.000048
1736	1.7263e+02	2.7312	-3.613128	0.000438	4.380191	0.742024	-0.000044
1737	1.7273e+02	2.7201	-3.658343	0.000454	4.543936	0.769764	-0.000045
1738	1.7283e+02	2.7121	-3.708854	0.000508	5.076109	0.859916	-0.000051
1739	1.7293e+02	2.7008	-3.752032	0.000434	4.339255	0.735090	-0.000043
1740	1.7303e+02	2.6903	-3.800099	0.000483	4.830491	0.818307	-0.000048
1741	1.7313e+02	2.6823	-3.843684	0.000438	4.380191	0.742024	-0.000044
1742	1.7323e+02	2.6736	-3.888899	0.000454	4.543936	0.769764	-0.000045
1743	1.7333e+02	2.6616	-3.933300	0.000446	4.462064	0.755894	-0.000045
1744	1.7343e+02	2.6499	-3.982181	0.000491	4.912364	0.832177	-0.000049
1745	1.7353e+02	2.6447	-4.027803	0.000458	4.584873	0.776698	-0.000046
1746	1.7363e+02	2.6330	-4.070574	0.000430	4.298318	0.728155	-0.000043
1747	1.7373e+02	2.6229	-4.116604	0.000463	4.625809	0.783633	-0.000046
1748	1.7383e+02	2.6118	-4.161819	0.000454	4.543936	0.769764	-0.000045
1749	1.7393e+02	2.6012	-4.206219	0.000446	4.462064	0.755894	-0.000045
1750	1.7403e+02	2.5910	-4.251842	0.000458	4.584873	0.776698	-0.000046
1751	1.7413e+02	2.5851	-4.298686	0.000471	4.707682	0.797503	-0.000047
1752	1.7422e+02	2.5721	-4.347160	0.000487	4.871427	0.825242	-0.000049
1753	1.7432e+02	2.5613	-4.394411	0.000475	4.748618	0.804438	-0.000047
1754	1.7442e+02	2.5515	-4.437182	0.000430	4.298318	0.728155	-0.000043
1755	1.7452e+02	2.5419	-4.483212	0.000463	4.625809	0.783633	-0.000046
1756	1.7462e+02	2.5299	-4.526798	0.000438	4.380191	0.742024	-0.000044
1757	1.7472e+02	2.5237	-4.576086	0.000495	4.953300	0.839112	-0.000050
1758	1.7482e+02	2.5142	-4.619672	0.000438	4.380191	0.742024	-0.000044
1759	1.7492e+02	2.5022	-4.666516	0.000471	4.707682	0.797503	-0.000047
1760	1.7502e+02	2.4943	-4.709695	0.000434	4.339255	0.735090	-0.000043
1761	1.7512e+02	2.4838	-4.757354	0.000479	4.789555	0.811373	-0.000048
1762	1.7522e+02	2.4715	-4.805420	0.000483	4.830491	0.818307	-0.000048
1763	1.7532e+02	2.4612	-4.851450	0.000463	4.625809	0.783633	-0.000046
1764	1.7542e+02	2.4543	-4.895850	0.000446	4.462064	0.755894	-0.000045
1765	1.7552e+02	2.4428	-4.945953	0.000504	5.035173	0.852981	-0.000050
1766	1.7562e+02	2.4335	-4.993205	0.000475	4.748618	0.804438	-0.000047
1767	1.7572e+02	2.4240	-5.039642	0.000467	4.666746	0.790568	-0.000047
1768	1.7582e+02	2.4147	-5.087301	0.000479	4.789555	0.811373	-0.000048
1769	1.7592e+02	2.4036	-5.131701	0.000446	4.462064	0.755894	-0.000045
1770	1.7602e+02	2.3927	-5.176916	0.000454	4.543936	0.769764	-0.000045
1771	1.7612e+02	2.3866	-5.221724	0.000450	4.503000	0.762829	-0.000045
1772	1.7621e+02	2.3750	-5.270198	0.000487	4.871427	0.825242	-0.000049
1773	1.7631e+02	2.3631	-5.318672	0.000487	4.871427	0.825242	-0.000049
1774	1.7641e+02	2.3537	-5.358591	0.000401	4.011764	0.679611	-0.000040
1775	1.7651e+02	2.3448	-5.405028	0.000467	4.666746	0.790568	-0.000047
1776	1.7661e+02	2.3328	-5.456761	0.000520	5.198918	0.880721	-0.000052
1777	1.7671e+02	2.3239	-5.500754	0.000442	4.421127	0.748959	-0.000044
1778	1.7681e+02	2.3129	-5.553301	0.000528	5.280791	0.894590	-0.000053
1779	1.7691e+02	2.3052	-5.592406	0.000393	3.929891	0.665742	-0.000039
1780	1.7701e+02	2.2933	-5.643731	0.000516	5.157982	0.873786	-0.000052
1781	1.7711e+02	2.2856	-5.688946	0.000454	4.543936	0.769764	-0.000045
1782	1.7721e+02	2.2769	-5.739049	0.000504	5.035173	0.852981	-0.000050
1783	1.7731e+02	2.2639	-5.785079	0.000463	4.625809	0.783633	-0.000046
1784	1.7741e+02	2.2549	-5.831923	0.000471	4.707682	0.797503	-0.000047
1785	1.7751e+02	2.2439	-5.879175	0.000475	4.748618	0.804438	-0.000047
1786	1.7761e+02	2.2351	-5.925612	0.000467	4.666746	0.790568	-0.000047
1787	1.7771e+02	2.2217	-5.974086	0.000487	4.871427	0.825242	-0.000049
1788	1.7781e+02	2.2138	-6.018486	0.000446	4.462064	0.755894	-0.000045
1789	1.7791e+02	2.2025	-6.065331	0.000471	4.707682	0.797503	-0.000047
1790	1.7801e+02	2.1975	-6.111768	0.000467	4.666746	0.790568	-0.000047
1791	1.7810e+02	2.1864	-6.158612	0.000471	4.707682	0.797503	-0.000047
1792	1.7820e+02	2.1755	-6.208715	0.000504	5.035173	0.852981	-0.000050
1793	1.7830e+02	2.1658	-6.253930	0.000454	4.543936	0.769764	-0.000045
1794	1.7840e+02	2.1574	-6.302404	0.000487	4.871427	0.825242	-0.000049
1795	1.7850e+02	2.1468	-6.352100	0.000499	4.994237	0.846047	-0.000050
1796	1.7860e+02	2.1357	-6.405462	0.000536	5.362664	0.908460	-0.000054
1797	1.7870e+02	2.1267	-6.451084	0.000458	4.584873	0.776698	-0.000046
1798	1.7880e+02	2.1133	-6.499558	0.000487	4.871427	0.825242	-0.000049
1799	1.7890e+02	2.1043	-6.549661	0.000504	5.035173	0.852981	-0.000050
1800	1.7900e+02	2.0939	-6.599764	0.000504	5.035173	0.852981	-0.000050
1801	1.7910e+02	2.0846	-6.647423	0.000479	4.789555	0.811373	-0.000048
1802	1.7920e+02	2.0736	-6.698341	0.000512	5.117046	0.866851	-0.000051
1803	1.7930e+02	2.0657	-6.743149	0.000450	4.503000	0.762829	-0.000045
1804	1.7940e+02	2.0543	-6.793659	0.000508	5.076109	0.859916	-0.000051
1805	1.7950e+02	2.0477	-6.840096	0.000467	4.666746	0.790568	-0.000047
1806	1.7960e+02	2.0346	-6.887755	0.000479	4.789555	0.811373	-0.000048
1807	1.7970e+02	2.0254	-6.935822	0.000483	4.830491	0.818307	-0.000048
1808	1.7980e+02	2.0140	-6.982666	0.000471	4.707682	0.797503	-0.000047
1809	1.7990e+02	2.0055	-7.032362	0.000499	4.994237	0.846047	-0.000050
1810	1.8000e+02	1.9945	-7.083280	0.000512	5.117046	0.866851	-0.000051
1811	1.8009e+02	1.9820	-7.130531	0.000475	4.748618	0.804438	-0.000047
1812	1.8019e+02	1.9771	-7.178598	0.000483	4.830491	0.818307	-0.000048
1813	1.8029e+02	1.9658	-7.227072	0.000487	4.871427	0.825242	-0.000049
1814	1.8039e+02	1.9561	-7.275545	0.000487	4.871427	0.825242	-0.000049
1815	1.8049e+02	1.9460	-7.321575	0.000463	4.625809	0.783633	-0.000046
1816	1.8059e+02	1.9350	-7.365161	0.000438	4.380191	0.742024	-0.000044
1817	1.8069e+02	1.9226	-7.416078	0.000512	5.117046	0.866851	-0.000051
1818	1.8079e+02	1.9159	-7.459257	0.000434	4.339255	0.735090	-0.000043
1819	1.8089e+02	1.9044	-7.505287	0.000463	4.625809	0.783633	-0.000046
1820	1.8099e+02	1.8963	-7.557426	0.000524	5.239855	0.887655	-0.000052
1821	1.8109e+02	1.8848	-7.604271	0.000471	4.707682	0.797503	-0.000047
1822	1.8119e+02	1.8763	-7.647856	0.000438	4.380191	0.742024	-0.000044
1823	1.8129e+02	1.8666	-7.698367	0.000508	5.076109	0.859916	-0.000051
1824	1.8139e+02	1.8594	-7.747655	0.000495	4.953300	0.839112	-0.000050
1825	1.8149e+02	1.8452	-7.792463	0.000450	4.503000	0.762829	-0.000045
1826	1.8159e+02	1.8363	-7.843381	0.000512	5.117046	0.866851	-0.000051
1827	1.8169e+02	1.8242	-7.892669	0.000495	4.953300	0.839112	-0.000050
1828	1.8179e+02	1.8142	-7.940328	0.000479	4.789555	0.811373	-0.000048
1829	1.8189e+02	1.8048	-7.988802	0.000487	4.871427	0.825242	-0.000049
1830	1.8199e+02	1.7936	-8.039720	0.000512	5.117046	0.866851	-0.000051
1831	1.8209e+02	1.7863	-8.087786	0.000483	4.830491	0.818307	-0.000048
1832	1.8218e+02	1.7758	-8.138704	0.000512	5.117046	0.866851	-0.000051
1833	1.8228e+02	1.7665	-8.184734	0.000463	4.625809	0.783633	-0.000046
1834	1.8238e+02	1.7552	-8.234022	0.000495	4.953300	0.839112	-0.000050
1835	1.8248e+02	1.7488	-8.286977	0.000532	5.321727	0.901525	-0.000053
1836	1.8258e+02	1.7376	-8.334229	0.000475	4.748618	0.804438	-0.000047
1837	1.8268e+02	1.7267	-8.383924	0.000499	4.994237	0.846047	-0.000050
1838	1.8278e+02	1.7161	-8.436879	0.000532	5.321727	0.901525	-0.000053
1839	1.8288e+02	1.7070	-8.482501	0.000458	4.584873	0.776698	-0.000046
1840	1.8298e+02	1.6964	-8.530975	0.000487	4.871427	0.825242	-0.000049
1841	1.8308e+02	1.6895	-8.584744	0.000540	5.403600	0.915395	-0.000054
1842	1.8318e+02	1.6755	-8.634033	0.000495	4.953300	0.839112	-0.000050
1843	1.8328e+02	1.6650	-8.682506	0.000487	4.871427	0.825242	-0.000049
1844	1.8338e+02	1.6568	-8.733832	0.000516	5.157982	0.873786	-0.000052
1845	1.8348e+02	1.6439	-8.783120	0.000495	4.953300	0.839112	-0.000050
1846	1.8358e+02	1.6364	-8.830372	0.000475	4.748618	0.804438	-0.000047
1847	1.8368e+02	1.6248	-8.877624	0.000475	4.748618	0.804438	-0.000047
1848	1.8378e+02	1.6175	-8.931800	0.000544	5.444537	0.922329	-0.000054
1849	1.8388e+02	1.6053	-8.983125	0.000516	5.157982	0.873786	-0.000052
1850	1.8398e+02	1.5968	-9.029155	0.000463	4.625809	0.783633	-0.000046
1851	1.8407e+02	1.5894	-9.078851	0.000499	4.994237	0.846047	-0.000050
1852	1.8417e+02	1.5749	-9.132620	0.000540	5.403600	0.915395	-0.000054
1853	1.8427e+02	1.5680	-9.178242	0.000458	4.584873	0.776698	-0.000046
1854	1.8437e+02	1.5586	-9.227531	0.000495	4.953300	0.839112	-0.000050
1855	1.8447e+02	1.5447	-9.283744	0.000565	5.649218	0.957003	-0.000056
1856	1.8457e+02	1.5348	-9.332625	0.000491	4.912364	0.832177	-0.000049
1857	1.8467e+02	1.5255	-9.384358	0.000520	5.198918	0.880721	-0.000052
1858	1.8477e+02	1.5162	-9.434461	0.000504	5.035173	0.852981	-0.000050
1859	1.8487e+02	1.5090	-9.485786	0.000516	5.157982	0.873786	-0.000052
1860	1.8497e+02	1.4993	-9.535889	0.000504	5.035173	0.852981	-0.000050
1861	1.8507e+02	1.4887	-9.586807	0.000512	5.117046	0.866851	-0.000051
1862	1.8517e+02	1.4776	-9.638132	0.000516	5.157982	0.873786	-0.000052
1863	1.8527e+02	1.4685	-9.689050	0.000512	5.117046	0.866851	-0.000051
1864	1.8537e+02	1.4577	-9.739153	0.000504	5.035173	0.852981	-0.000050
1865	1.8547e+02	1.4483	-9.790478	0.000516	5.157982	0.873786	-0.000052
1866	1.8557e+02	1.4358	-9.840174	0.000499	4.994237	0.846047	-0.000050
1867	1.8567e+02	1.4323	-9.887833	0.000479	4.789555	0.811373	-0.000048
1868	1.8577e+02	1.4188	-9.945268	0.000577	5.772027	0.977808	-0.000058
1869	1.8587e+02	1.4087	-9.992113	0.000471	4.707682	0.797503	-0.000047
1870	1.8597e+02	1.3976	-10.045475	0.000536	5.362664	0.908460	-0.000054
1871	1.8606e+02	1.3892	-10.100466	0.000553	5.526409	0.936199	-0.000055
1872	1.8616e+02	1.3767	-10.147718	0.000475	4.748618	0.804438	-0.000047
1873	1.8626e+02	1.3672	-10.201487	0.000540	5.403600	0.915395	-0.000054
1874	1.8636e+02	1.3584	-10.249553	0.000483	4.830491	0.818307	-0.000048
1875	1.8646e+02	1.3458	-10.302508	0.000532	5.321727	0.901525	-0.000053
1876	1.8656e+02	1.3394	-10.356277	0.000540	5.403600	0.915395	-0.000054
1877	1.8666e+02	1.3288	-10.405973	0.000499	4.994237	0.846047	-0.000050
1878	1.8676e+02	1.3171	-10.457705	0.000520	5.198918	0.880721	-0.000052
1879	1.8686e+02	1.3139	-10.508623	0.000512	5.117046	0.866851	-0.000051
1880	1.8696e+02	1.3004	-10.557912	0.000495	4.953300	0.839112	-0.000050
1881	1.8706e+02	1.2887	-10.606793	0.000491	4.912364	0.832177	-0.000049
1882	1.8716e+02	1.2787	-10.659340	0.000528	5.280791	0.894590	-0.000053
1883	1.8726e+02	1.2691	-10.707814	0.000487	4.871427	0.825242	-0.000049
1884	1.8736e+02	1.2566	-10.759139	0.000516	5.157982	0.873786	-0.000052
1885	1.8746e+02	1.2489	-10.805169	0.000463	4.625809	0.783633	-0.000046
1886	1.8756e+02	1.2400	-10.864233	0.000594	5.935773	1.005547	-0.000059
1887	1.8766e+02	1.2297	-10.915558	0.000516	5.157982	0.873786	-0.000052
1888	1.8776e+02	1.2209	-10.968920	0.000536	5.362664	0.908460	-0.000054
1889	1.8786e+02	1.2086	-11.018616	0.000499	4.994237	0.846047	-0.000050
1890	1.8796e+02	1.2000	-11.076866	0.000585	5.853900	0.991678	-0.000059
1891	1.8806e+02	1.1879	-11.124525	0.000479	4.789555	0.811373	-0.000048
1892	1.8815e+02	1.1798	-11.173814	0.000495	4.953300	0.839112	-0.000050
1893	1.8825e+02	1.1708	-11.227990	0.000544	5.444537	0.922329	-0.000054
1894	1.8835e+02	1.1624	-11.279723	0.000520	5.198918	0.880721	-0.000052
1895	1.8845e+02	1.1485	-11.329826	0.000504	5.035173	0.852981	-0.000050
1896	1.8855e+02	1.1374	-11.384410	0.000549	5.485473	0.929264	-0.000055
1897	1.8865e+02	1.1320	-11.438994	0.000549	5.485473	0.929264	-0.000055
1898	1.8875e+02	1.1202	-11.493170	0.000544	5.444537	0.922329	-0.000054
1899	1.8885e+02	1.1122	-11.550605	0.000577	5.772027	0.977808	-0.000058
1900	1.8895e+02	1.1011	-11.601523	0.000512	5.117046	0.866851	-0.000051
1901	1.8905e+02	1.0905	-11.658959	0.000577	5.772027	0.977808	-0.000058
1902	1.8915e+02	1.0813	-11.712320	0.000536	5.362664	0.908460	-0.000054
1903	1.8925e+02	1.0689	-11.767719	0.000557	5.567346	0.943134	-0.000056
1904	1.8935e+02	1.0597	-11.820674	0.000532	5.321727	0.901525	-0.000053
1905	1.8945e+02	1.0509	-11.875665	0.000553	5.526409	0.936199	-0.000055
1906	1.8955e+02	1.0400	-11.930656	0.000553	5.526409	0.936199	-0.000055
1907	1.8965e+02	1.0295	-11.982796	0.000524	5.239855	0.887655	-0.000052
1908	1.8975e+02	1.0191	-12.036972	0.000544	5.444537	0.922329	-0.000054
1909	1.8985e+02	1.0107	-12.094408	0.000577	5.772027	0.977808	-0.000058
1910	1.8995e+02	0.9983	-12.145733	0.000516	5.157982	0.873786	-0.000052
1911	1.9004e+02	0.9929	-12.197465	0.000520	5.198918	0.880721	-0.000052
1912	1.9014e+02	0.9801	-12.253679	0.000565	5.649218	0.957003	-0.000056
1913	1.9024e+02	0.9724	-12.306226	0.000528	5.280791	0.894590	-0.000053
1914	1.9034e+02	0.9613	-12.359588	0.000536	5.362664	0.908460	-0.000054
1915	1.9044e+02	0.9519	-12.414579	0.000553	5.526409	0.936199	-0.000055
1916	1.9054e+02	0.9447	-12.468756	0.000544	5.444537	0.922329	-0.000054
1917	1.9064e+02	0.9328	-12.524969	0.000565	5.649218	0.957003	-0.000056
1918	1.9074e+02	0.9212	-12.576294	0.000516	5.157982	0.873786	-0.000052
1919	1.9084e+02	0.9113	-12.633729	0.000577	5.772027	0.977808	-0.000058
1920	1.9094e+02	0.9009	-12.686684	0.000532	5.321727	0.901525	-0.000053
1921	1.9104e+02	0.8912	-12.742897	0.000565	5.649218	0.957003	-0.000056
1922	1.9114e+02	0.8819	-12.798703	0.000561	5.608282	0.950069	-0.000056
1923	1.9124e+02	0.8688	-12.852065	0.000536	5.362664	0.908460	-0.000054
1924	1.9134e+02	0.8627	-12.907056	0.000553	5.526409	0.936199	-0.000055
1925	1.9144e+02	0.8527	-12.958381	0.000516	5.157982	0.873786	-0.000052
1926	1.9154e+02	0.8423	-13.011743	0.000536	5.362664	0.908460	-0.000054
1927	1.9164e+02	0.8350	-13.069178	0.000577	5.772027	0.977808	-0.000058
1928	1.9174e+02	0.8249	-13.123762	0.000549	5.485473	0.929264	-0.000055
1929	1.9184e+02	0.8118	-13.175495	0.000520	5.198918	0.880721	-0.000052
1930	1.9194e+02	0.8002	-13.230079	0.000549	5.485473	0.929264	-0.000055
1931	1.9203e+02	0.7940	-13.284255	0.000544	5.444537	0.922329	-0.000054
1932	1.9213e+02	0.7794	-13.341691	0.000577	5.772027	0.977808	-0.000058
1933	1.9223e+02	0.7726	-13.397904	0.000565	5.649218	0.957003	-0.000056
1934	1.9233e+02	0.7628	-13.457376	0.000598	5.976709	1.012482	-0.000060
1935	1.9243e+02	0.7546	-13.512367	0.000553	5.526409	0.936199	-0.000055
1936	1.9253e+02	0.7375	-13.564507	0.000524	5.239855	0.887655	-0.000052
1937	1.9263e+02	0.7332	-13.622757	0.000585	5.853900	0.991678	-0.000059
1938	1.9273e+02	0.7217	-13.678563	0.000561	5.608282	0.950069	-0.000056
1939	1.9283e+02	0.7159	-13.727444	0.000491	4.912364	0.832177	-0.000049
1940	1.9293e+02	0.7026	-13.790989	0.000639	6.386073	1.081830	-0.000064
1941	1.9303e+02	0.6932	-13.841907	0.000512	5.117046	0.866851	-0.000051
1942	1.9313e+02	0.6818	-13.898121	0.000565	5.649218	0.957003	-0.000056
1943	1.9323e+02	0.6715	-13.951482	0.000536	5.362664	0.908460	-0.000054
1944	1.9333e+02	0.6635	-14.006474	0.000553	5.526409	0.936199	-0.000055
1945	1.9343e+02	0.6539	-14.061058	0.000549	5.485473	0.929264	-0.000055
1946	1.9353e+02	0.6419	-14.118085	0.000573	5.731091	0.970873	-0.000057
1947	1.9363e+02	0.6316	-14.173484	0.000557	5.567346	0.943134	-0.000056
1948	1.9373e+02	0.6222	-14.234178	0.000610	6.099518	1.033286	-0.000061
1949	1.9383e+02	0.6151	-14.287133	0.000532	5.321727	0.901525	-0.000053
1950	1.9393e+02	0.6051	-14.345383	0.000585	5.853900	0.991678	-0.000059
1951	1.9403e+02	0.5928	-14.399967	0.000549	5.485473	0.929264	-0.000055
1952	1.9412e+02	0.5829	-14.452921	0.000532	5.321727	0.901525	-0.000053
1953	1.9422e+02	0.5720	-14.512800	0.000602	6.017646	1.019417	-0.000060
1954	1.9432e+02	0.5629	-14.569014	0.000565	5.649218	0.957003	-0.000056
1955	1.9442e+02	0.5538	-14.626042	0.000573	5.731091	0.970873	-0.000057
1956	1.9452e+02	0.5474	-14.678182	0.000524	5.239855	0.887655	-0.000052
1957	1.9462e+02	0.5331	-14.736024	0.000581	5.812964	0.984743	-0.000058
1958	1.9472e+02	0.5228	-14.790608	0.000549	5.485473	0.929264	-0.000055
1959	1.9482e+02	0.5119	-14.849673	0.000594	5.935773	1.005547	-0.000059
1960	1.9492e+02	0.5043	-14.904664	0.000553	5.526409	0.936199	-0.000055
1961	1.9502e+02	0.4929	-14.958841	0.000544	5.444537	0.922329	-0.000054
1962	1.9512e+02	0.4832	-15.021164	0.000626	6.263264	1.061026	-0.000063
1963	1.9522e+02	0.4737	-15.077785	0.000569	5.690155	0.963938	-0.000057
1964	1.9532e+02	0.4645	-15.136442	0.000589	5.894837	0.998612	-0.000059
1965	1.9542e+02	0.4542	-15.196729	0.000606	6.058582	1.026352	-0.000061
1966	1.9552e+02	0.4445	-15.257423	0.000610	6.099518	1.033286	-0.000061
1967	1.9562e+02	0.4338	-15.315265	0.000581	5.812964	0.984743	-0.000058
1968	1.9572e+02	0.4223	-15.372293	0.000573	5.731091	0.970873	-0.000057
1969	1.9582e+02	0.4131	-15.431765	0.000598	5.976709	1.012482	-0.000060
1970	1.9592e+02	0.4035	-15.487164	0.000557	5.567346	0.943134	-0.000056
1971	1.9601e+02	0.3940	-15.541340	0.000544	5.444537	0.922329	-0.000054
1972	1.9611e+02	0.3874	-15.599590	0.000585	5.853900	0.991678	-0.000059
1973	1.9621e+02	0.3745	-15.655804	0.000565	5.649218	0.957003	-0.000056
1974	1.9631e+02	0.3630	-15.710388	0.000549	5.485473	0.929264	-0.000055
1975	1.9641e+02	0.3528	-15.771896	0.000618	6.181391	1.047156	-0.000062
1976	1.9651e+02	0.3429	-15.829739	0.000581	5.812964	0.984743	-0.000058
1977	1.9661e+02	0.3337	-15.890026	0.000606	6.058582	1.026352	-0.000061
1978	1.9671e+02	0.3246	-15.949498	0.000598	5.976709	1.012482	-0.000060
1979	1.9681e+02	0.3159	-16.002452	0.000532	5.321727	0.901525	-0.000053
1980	1.9691e+02	0.3006	-16.061924	0.000598	5.976709	1.012482	-0.000060
1981	1.9701e+02	0.2938	-16.119767	0.000581	5.812964	0.984743	-0.000058
1982	1.9711e+02	0.2843	-16.175165	0.000557	5.567346	0.943134	-0.000056
1983	1.9721e+02	0.2732	-16.230971	0.000561	5.608282	0.950069	-0.000056
1984	1.9731e+02	0.2652	-16.286777	0.000561	5.608282	0.950069	-0.000056
1985	1.9741e+02	0.2550	-16.339732	0.000532	5.321727	0.901525	-0.000053
1986	1.9751e+02	0.2445	-16.396760	0.000573	5.731091	0.970873	-0.000057
1987	1.9761e+02	0.2349	-16.455010	0.000585	5.853900	0.991678	-0.000059
1988	1.9771e+02	0.2240	-16.514482	0.000598	5.976709	1.012482	-0.000060
1989	1.9781e+02	0.2161	-16.572324	0.000581	5.812964	0.984743	-0.000058
1990	1.9791e+02	0.2029	-16.632204	0.000602	6.017646	1.019417	-0.000060
1991	1.9800e+02	0.1953	-16.685566	0.000536	5.362664	0.908460	-0.000054
1992	1.9810e+02	0.1833	-16.744223	0.000589	5.894837	0.998612	-0.000059
1993	1.9820e+02	0.1759	-16.804102	0.000602	6.017646	1.019417	-0.000060
1994	1.9830e+02	0.1631	-16.862760	0.000589	5.894837	0.998612	-0.000059
1995	1.9840e+02	0.1547	-16.918566	0.000561	5.608282	0.950069	-0.000056
1996	1.9850e+02	0.1435	-16.978038	0.000598	5.976709	1.012482	-0.000060
1997	1.9860e+02	0.1358	-17.037917	0.000602	6.017646	1.019417	-0.000060
1998	1.9870e+02	0.1257	-17.101055	0.000635	6.345137	1.074895	-0.000063
1999	1.9880e+02	0.1147	-17.155232	0.000544	5.444537	0.922329	-0.000054
2000	1.9890e+02	0.1041	-17.212260	0.000573	5.731091	0.970873	-0.000057
2001	1.9900e+02	0.0969	-17.268473	0.000565	5.649218	0.957003	-0.000056
2002	1.9910e+02	0.0841	-17.328759	0.000606	6.058582	1.026352	-0.000061
2003	1.9920e+02	0.0710	-17.394749	0.000663	6.631691	1.123439	-0.000066
2004	1.9930e+02	0.0638	-17.452184	0.000577	5.772027	0.977808	-0.000058
2005	1.9940e+02	0.0556	-17.509212	0.000573	5.731091	0.970873	-0.000057
2006	1.9950e+02	0.0482	-17.566648	0.000577	5.772027	0.977808	-0.000058
2007	1.9960e+02	0.0345	-17.626527	0.000602	6.017646	1.019417	-0.000060
2008	1.9970e+02	0.0247	-17.686406	0.000602	6.017646	1.019417	-0.000060
2009	1.9980e+02	0.0148	-17.748322	0.000622	6.222327	1.054091	-0.000062
2010	1.9990e+02	0.0075	-17.807794	0.000598	5.976709	1.012482	-0.000060
2011	2.0000e+02	-0.0035	-17.863600	0.000598	5.976709	1.012482	-0.000056

PMax (uC/cm2):	4.16e+01
Pr (uC/cm2):	2.94e+00
-Pr (uC/cm2):	0.00e+00
PLoss (uC/cm2):	0.00e+00
C (Max-Eff) (nF):	4.16e-01
K (Eff):	7.05e+02
Vert. (+/-Pr) Shift (uC/cm2):	1.47e+00
Offset (uC/cm2):	2.08e+01

A (Loop Area - uC/cm2·Volts):	-2.96e-02



Hysteresis Version: 5.48.1 - Radiant Technologies, Inc., 1999 - 9/12/24

