»»»»»»»»»»»»»»»»»»»»»»»»»»»»»»»»»»»» Hysteresis ««««««««««««««««««««««««««««««««««««
»»»  Executed Version:	5.48.1
»»»  Vision Version:	5.48.4 (R)
»»»  Vision Compiled:	9/18/24
»»»  Driver Version:	5.47.0
»»»  Windows Version:	Windows 8 or 8.1
»»»  Processor Information:	x86 (AMD or Intel) - 32 Processors
»»»  Tester Name:	PMF21124-494 (100V)
»»»  Tester S/N:	PMF21124-494
»»»  Internal Amp Type:	100V RevK 270k
»»»  Internal Amp S/N:	iAB2-596/K     
»»»  Execution Count:	1
»»»»»»»»»»»»»»»»»»»»»»»»»»»»»»»»»»»»»»»»»»««««««««««««««««««««««««««««««««««««««««««

Stored:	6/27/2025 - 15:13:33
Configured:	06/27/25 11:23:28 AM
Executed:	06/27/25 03:12:47 PM

»»»»»»»»»»»»»»»»»»»»»»»»»»»»»»»»»»» Sample Info ««««««««««««««««««««««««««««««««««««
Sample Name:	
Lot Name:	
Wafer Name:	
Die Row/Column:	0/0
Capacitor Number:	0
Sample Area (cm2):	1.00e-04
Sample Thickness (microns):	1.50e-01

Amplifier:	Internal

»»»»»»»»»»»»»»»»»»»»»»»»»»»»»»»»»»» Tester Info «««««««««««««««««««««««««««««««««««
Tester Name:	PMF21124-494 (100V)
Tester Serial Number:	PMF21124-494
Return Signal Amp. Level:	1.9 [Index: 2]

»»»»»»»»»»»»»»»»»»»»»»»»»»»»»»»» Hysteresis Info ««««««««««««««««««««««««««««««««««
Task Name:	Hyst-1276
Volts:	10.00
Field:	666.67 (kV/cm)
DCBias:	0.00
DCField:	0.00 (kV/cm)
Hysteresis Period (ms):	2.00e+02
Preset:	Enabled
Preset Delay (ms):	1.00e+03
Profile:	Standard Monopolar

»»»»»»»»»»»»»»»»»»»»»»»»»»»»»»»»»»»»»» Data «««««««««««««««««««««««««««««««««««««««
Points:	2011

Valid Data

Point	Time (ms)	Drive Voltage	Measured Polarization (uC/cm2)	Capacitance (uF)	Normalized Capacitance (uF/cm2)	Dielectric Constant	Instantaneous Current (mA)
   1	0.0000e+00	-0.0050	-10.231834	0.000274	2.742736	0.464632	0.000027
   2	9.9500e-02	0.0018	-10.204542	0.000274	2.742736	0.464632	0.000027
   3	1.9900e-01	0.0172	-10.177250	0.000274	2.742736	0.464632	0.000027
   4	2.9850e-01	0.0262	-10.153624	0.000237	2.374309	0.402219	0.000024
   5	3.9800e-01	0.0357	-10.126332	0.000274	2.742736	0.464632	0.000027
   6	4.9750e-01	0.0465	-10.100670	0.000258	2.578991	0.436893	0.000026
   7	5.9700e-01	0.0542	-10.078266	0.000225	2.251500	0.381414	0.000023
   8	6.9650e-01	0.0635	-10.048937	0.000295	2.947418	0.499306	0.000029
   9	7.9600e-01	0.0732	-10.022052	0.000270	2.701800	0.457697	0.000027
  10	8.9550e-01	0.0865	-9.994761	0.000274	2.742736	0.464632	0.000027
  11	9.9500e-01	0.0941	-9.970727	0.000242	2.415246	0.409154	0.000024
  12	1.0945e+00	0.1044	-9.940991	0.000299	2.988355	0.506241	0.000030
  13	1.1940e+00	0.1166	-9.915329	0.000258	2.578991	0.436893	0.000026
  14	1.2935e+00	0.1240	-9.886815	0.000287	2.865546	0.485437	0.000029
  15	1.3930e+00	0.1350	-9.865633	0.000213	2.128691	0.360610	0.000021
  16	1.4925e+00	0.1445	-9.833860	0.000319	3.193036	0.540915	0.000032
  17	1.5920e+00	0.1546	-9.809012	0.000250	2.497118	0.423023	0.000025
  18	1.6915e+00	0.1666	-9.784164	0.000250	2.497118	0.423023	0.000025
  19	1.7910e+00	0.1733	-9.757687	0.000266	2.660864	0.450763	0.000027
  20	1.8905e+00	0.1849	-9.729173	0.000287	2.865546	0.485437	0.000029
  21	1.9900e+00	0.1964	-9.702289	0.000270	2.701800	0.457697	0.000027
  22	2.0895e+00	0.2049	-9.681921	0.000205	2.046818	0.346740	0.000020
  23	2.1890e+00	0.2158	-9.657888	0.000242	2.415246	0.409154	0.000024
  24	2.2885e+00	0.2234	-9.628152	0.000299	2.988355	0.506241	0.000030
  25	2.3880e+00	0.2353	-9.602490	0.000258	2.578991	0.436893	0.000026
  26	2.4875e+00	0.2464	-9.579271	0.000233	2.333373	0.395284	0.000023
  27	2.5870e+00	0.2523	-9.553609	0.000258	2.578991	0.436893	0.000026
  28	2.6865e+00	0.2647	-9.528761	0.000250	2.497118	0.423023	0.000025
  29	2.7860e+00	0.2721	-9.497803	0.000311	3.111164	0.527045	0.000031
  30	2.8855e+00	0.2817	-9.479472	0.000184	1.842136	0.312066	0.000018
  31	2.9850e+00	0.2943	-9.454217	0.000254	2.538055	0.429958	0.000025
  32	3.0845e+00	0.3038	-9.424074	0.000303	3.029291	0.513176	0.000030
  33	3.1840e+00	0.3126	-9.405743	0.000184	1.842136	0.312066	0.000018
  34	3.2835e+00	0.3254	-9.378859	0.000270	2.701800	0.457697	0.000027
  35	3.3830e+00	0.3345	-9.352381	0.000266	2.660864	0.450763	0.000027
  36	3.4825e+00	0.3435	-9.327126	0.000254	2.538055	0.429958	0.000025
  37	3.5820e+00	0.3521	-9.301463	0.000258	2.578991	0.436893	0.000026
  38	3.6815e+00	0.3640	-9.277023	0.000246	2.456182	0.416088	0.000025
  39	3.7810e+00	0.3725	-9.248916	0.000282	2.824609	0.478502	0.000028
  40	3.8805e+00	0.3822	-9.223661	0.000254	2.538055	0.429958	0.000025
  41	3.9800e+00	0.3928	-9.191481	0.000323	3.233973	0.547850	0.000032
  42	4.0795e+00	0.4012	-9.165411	0.000262	2.619927	0.443828	0.000026
  43	4.1790e+00	0.4131	-9.142193	0.000233	2.333373	0.395284	0.000023
  44	4.2785e+00	0.4208	-9.113271	0.000291	2.906482	0.492371	0.000029
  45	4.3780e+00	0.4345	-9.084757	0.000287	2.865546	0.485437	0.000029
  46	4.4775e+00	0.4430	-9.058687	0.000262	2.619927	0.443828	0.000026
  47	4.5770e+00	0.4542	-9.036691	0.000221	2.210564	0.374480	0.000022
  48	4.6765e+00	0.4636	-9.007362	0.000295	2.947418	0.499306	0.000029
  49	4.7760e+00	0.4716	-8.975589	0.000319	3.193036	0.540915	0.000032
  50	4.8755e+00	0.4845	-8.946668	0.000291	2.906482	0.492371	0.000029
  51	4.9750e+00	0.4963	-8.918154	0.000287	2.865546	0.485437	0.000029
  52	5.0745e+00	0.5052	-8.889233	0.000291	2.906482	0.492371	0.000029
  53	5.1740e+00	0.5111	-8.855423	0.000340	3.397718	0.575589	0.000034
  54	5.2735e+00	0.5254	-8.829353	0.000262	2.619927	0.443828	0.000026
  55	5.3730e+00	0.5341	-8.802062	0.000274	2.742736	0.464632	0.000027
  56	5.4725e+00	0.5439	-8.772326	0.000299	2.988355	0.506241	0.000030
  57	5.5720e+00	0.5547	-8.740145	0.000323	3.233973	0.547850	0.000032
  58	5.6715e+00	0.5603	-8.710409	0.000299	2.988355	0.506241	0.000030
  59	5.7710e+00	0.5732	-8.687598	0.000229	2.292436	0.388349	0.000023
  60	5.8705e+00	0.5847	-8.655011	0.000327	3.274909	0.554785	0.000033
  61	5.9700e+00	0.5923	-8.625275	0.000299	2.988355	0.506241	0.000030
  62	6.0695e+00	0.6008	-8.597983	0.000274	2.742736	0.464632	0.000027
  63	6.1690e+00	0.6130	-8.568247	0.000299	2.988355	0.506241	0.000030
  64	6.2685e+00	0.6216	-8.540548	0.000278	2.783673	0.471567	0.000028
  65	6.3680e+00	0.6324	-8.507553	0.000332	3.315846	0.561719	0.000033
  66	6.4675e+00	0.6471	-8.479446	0.000282	2.824609	0.478502	0.000028
  67	6.5670e+00	0.6545	-8.448896	0.000307	3.070227	0.520111	0.000031
  68	6.6665e+00	0.6618	-8.419567	0.000295	2.947418	0.499306	0.000029
  69	6.7660e+00	0.6749	-8.392275	0.000274	2.742736	0.464632	0.000027
  70	6.8655e+00	0.6812	-8.360502	0.000319	3.193036	0.540915	0.000032
  71	6.9650e+00	0.6918	-8.331581	0.000291	2.906482	0.492371	0.000029
  72	7.0645e+00	0.7000	-8.309177	0.000225	2.251500	0.381414	0.000023
  73	7.1640e+00	0.7137	-8.281070	0.000282	2.824609	0.478502	0.000028
  74	7.2635e+00	0.7224	-8.249705	0.000315	3.152100	0.533980	0.000032
  75	7.3630e+00	0.7362	-8.230560	0.000192	1.924009	0.325936	0.000019
  76	7.4625e+00	0.7430	-8.200009	0.000307	3.070227	0.520111	0.000031
  77	7.5620e+00	0.7526	-8.171903	0.000282	2.824609	0.478502	0.000028
  78	7.6615e+00	0.7640	-8.146647	0.000254	2.538055	0.429958	0.000025
  79	7.7610e+00	0.7724	-8.117319	0.000295	2.947418	0.499306	0.000029
  80	7.8605e+00	0.7818	-8.093285	0.000242	2.415246	0.409154	0.000024
  81	7.9600e+00	0.7934	-8.063142	0.000303	3.029291	0.513176	0.000030
  82	8.0595e+00	0.8029	-8.039516	0.000237	2.374309	0.402219	0.000024
  83	8.1590e+00	0.8125	-8.008966	0.000307	3.070227	0.520111	0.000031
  84	8.2585e+00	0.8216	-7.984525	0.000246	2.456182	0.416088	0.000025
  85	8.3580e+00	0.8318	-7.958862	0.000258	2.578991	0.436893	0.000026
  86	8.4575e+00	0.8411	-7.931163	0.000278	2.783673	0.471567	0.000028
  87	8.5570e+00	0.8505	-7.903871	0.000274	2.742736	0.464632	0.000027
  88	8.6565e+00	0.8607	-7.879023	0.000250	2.497118	0.423023	0.000025
  89	8.7560e+00	0.8710	-7.850509	0.000287	2.865546	0.485437	0.000029
  90	8.8555e+00	0.8836	-7.819959	0.000307	3.070227	0.520111	0.000031
  91	8.9550e+00	0.8910	-7.796740	0.000233	2.333373	0.395284	0.000023
  92	9.0545e+00	0.9003	-7.766189	0.000307	3.070227	0.520111	0.000031
  93	9.1540e+00	0.9108	-7.739712	0.000266	2.660864	0.450763	0.000027
  94	9.2535e+00	0.9207	-7.715272	0.000246	2.456182	0.416088	0.000025
  95	9.3530e+00	0.9317	-7.686758	0.000287	2.865546	0.485437	0.000029
  96	9.4525e+00	0.9388	-7.661095	0.000258	2.578991	0.436893	0.000026
  97	9.5520e+00	0.9539	-7.637469	0.000237	2.374309	0.402219	0.000024
  98	9.6515e+00	0.9611	-7.608548	0.000291	2.906482	0.492371	0.000029
  99	9.7510e+00	0.9712	-7.586144	0.000225	2.251500	0.381414	0.000023
 100	9.8505e+00	0.9805	-7.554779	0.000315	3.152100	0.533980	0.000032
 101	9.9500e+00	0.9917	-7.531560	0.000233	2.333373	0.395284	0.000023
 102	1.0050e+01	0.9995	-7.505898	0.000258	2.578991	0.436893	0.000026
 103	1.0149e+01	1.0102	-7.475754	0.000303	3.029291	0.513176	0.000030
 104	1.0248e+01	1.0176	-7.447240	0.000287	2.865546	0.485437	0.000029
 105	1.0348e+01	1.0314	-7.421578	0.000258	2.578991	0.436893	0.000026
 106	1.0447e+01	1.0400	-7.392656	0.000291	2.906482	0.492371	0.000029
 107	1.0547e+01	1.0499	-7.369438	0.000233	2.333373	0.395284	0.000023
 108	1.0646e+01	1.0619	-7.339294	0.000303	3.029291	0.513176	0.000030
 109	1.0746e+01	1.0688	-7.309151	0.000303	3.029291	0.513176	0.000030
 110	1.0845e+01	1.0809	-7.285525	0.000237	2.374309	0.402219	0.000024
 111	1.0945e+01	1.0921	-7.259455	0.000262	2.619927	0.443828	0.000026
 112	1.1044e+01	1.1000	-7.233385	0.000262	2.619927	0.443828	0.000026
 113	1.1144e+01	1.1087	-7.204057	0.000295	2.947418	0.499306	0.000029
 114	1.1243e+01	1.1235	-7.179209	0.000250	2.497118	0.423023	0.000025
 115	1.1343e+01	1.1289	-7.149065	0.000303	3.029291	0.513176	0.000030
 116	1.1443e+01	1.1412	-7.125032	0.000242	2.415246	0.409154	0.000024
 117	1.1542e+01	1.1504	-7.094074	0.000311	3.111164	0.527045	0.000031
 118	1.1642e+01	1.1601	-7.066782	0.000274	2.742736	0.464632	0.000027
 119	1.1741e+01	1.1704	-7.038268	0.000287	2.865546	0.485437	0.000029
 120	1.1841e+01	1.1786	-7.008940	0.000295	2.947418	0.499306	0.000029
 121	1.1940e+01	1.1884	-6.983277	0.000258	2.578991	0.436893	0.000026
 122	1.2040e+01	1.1984	-6.958022	0.000254	2.538055	0.429958	0.000025
 123	1.2139e+01	1.2084	-6.932359	0.000258	2.578991	0.436893	0.000026
 124	1.2239e+01	1.2173	-6.907511	0.000250	2.497118	0.423023	0.000025
 125	1.2338e+01	1.2283	-6.884700	0.000229	2.292436	0.388349	0.000023
 126	1.2438e+01	1.2394	-6.858630	0.000262	2.619927	0.443828	0.000026
 127	1.2537e+01	1.2479	-6.834597	0.000242	2.415246	0.409154	0.000024
 128	1.2636e+01	1.2600	-6.803232	0.000315	3.152100	0.533980	0.000032
 129	1.2736e+01	1.2719	-6.784901	0.000184	1.842136	0.312066	0.000018
 130	1.2835e+01	1.2766	-6.755573	0.000295	2.947418	0.499306	0.000029
 131	1.2935e+01	1.2895	-6.731132	0.000246	2.456182	0.416088	0.000025
 132	1.3034e+01	1.2969	-6.705877	0.000254	2.538055	0.429958	0.000025
 133	1.3134e+01	1.3103	-6.682251	0.000237	2.374309	0.402219	0.000024
 134	1.3233e+01	1.3180	-6.663920	0.000184	1.842136	0.312066	0.000018
 135	1.3333e+01	1.3285	-6.633777	0.000303	3.029291	0.513176	0.000030
 136	1.3432e+01	1.3407	-6.617483	0.000164	1.637455	0.277392	0.000016
 137	1.3532e+01	1.3480	-6.590191	0.000274	2.742736	0.464632	0.000027
 138	1.3632e+01	1.3575	-6.569417	0.000209	2.087755	0.353675	0.000021
 139	1.3731e+01	1.3651	-6.549457	0.000201	2.005882	0.339806	0.000020
 140	1.3831e+01	1.3770	-6.524609	0.000250	2.497118	0.423023	0.000025
 141	1.3930e+01	1.3905	-6.501391	0.000233	2.333373	0.395284	0.000023
 142	1.4030e+01	1.3992	-6.475321	0.000262	2.619927	0.443828	0.000026
 143	1.4129e+01	1.4074	-6.454954	0.000205	2.046818	0.346740	0.000020
 144	1.4229e+01	1.4181	-6.434994	0.000201	2.005882	0.339806	0.000020
 145	1.4328e+01	1.4298	-6.406480	0.000287	2.865546	0.485437	0.000029
 146	1.4428e+01	1.4377	-6.390186	0.000164	1.637455	0.277392	0.000016
 147	1.4527e+01	1.4474	-6.366560	0.000237	2.374309	0.402219	0.000024
 148	1.4627e+01	1.4581	-6.342120	0.000246	2.456182	0.416088	0.000025
 149	1.4726e+01	1.4674	-6.321345	0.000209	2.087755	0.353675	0.000021
 150	1.4825e+01	1.4805	-6.302200	0.000192	1.924009	0.325936	0.000019
 151	1.4925e+01	1.4873	-6.279796	0.000225	2.251500	0.381414	0.000023
 152	1.5024e+01	1.4993	-6.254541	0.000254	2.538055	0.429958	0.000025
 153	1.5124e+01	1.5074	-6.231323	0.000233	2.333373	0.395284	0.000023
 154	1.5223e+01	1.5162	-6.210141	0.000213	2.128691	0.360610	0.000021
 155	1.5323e+01	1.5289	-6.187330	0.000229	2.292436	0.388349	0.000023
 156	1.5422e+01	1.5371	-6.164926	0.000225	2.251500	0.381414	0.000023
 157	1.5522e+01	1.5458	-6.139671	0.000254	2.538055	0.429958	0.000025
 158	1.5621e+01	1.5579	-6.113601	0.000262	2.619927	0.443828	0.000026
 159	1.5721e+01	1.5682	-6.093641	0.000201	2.005882	0.339806	0.000020
 160	1.5820e+01	1.5797	-6.065534	0.000282	2.824609	0.478502	0.000028
 161	1.5920e+01	1.5867	-6.042316	0.000233	2.333373	0.395284	0.000023
 162	1.6020e+01	1.5990	-6.023171	0.000192	1.924009	0.325936	0.000019
 163	1.6119e+01	1.6057	-5.998730	0.000246	2.456182	0.416088	0.000025
 164	1.6218e+01	1.6161	-5.976734	0.000221	2.210564	0.374480	0.000022
 165	1.6318e+01	1.6282	-5.953108	0.000237	2.374309	0.402219	0.000024
 166	1.6418e+01	1.6363	-5.927445	0.000258	2.578991	0.436893	0.000026
 167	1.6517e+01	1.6469	-5.905856	0.000217	2.169627	0.367545	0.000022
 168	1.6616e+01	1.6573	-5.881823	0.000242	2.415246	0.409154	0.000024
 169	1.6716e+01	1.6691	-5.857790	0.000242	2.415246	0.409154	0.000024
 170	1.6816e+01	1.6766	-5.833756	0.000242	2.415246	0.409154	0.000024
 171	1.6915e+01	1.6865	-5.807279	0.000266	2.660864	0.450763	0.000027
 172	1.7015e+01	1.6983	-5.785690	0.000217	2.169627	0.367545	0.000022
 173	1.7114e+01	1.7066	-5.759620	0.000262	2.619927	0.443828	0.000026
 174	1.7213e+01	1.7165	-5.735179	0.000246	2.456182	0.416088	0.000025
 175	1.7313e+01	1.7252	-5.713998	0.000213	2.128691	0.360610	0.000021
 176	1.7413e+01	1.7355	-5.689557	0.000246	2.456182	0.416088	0.000025
 177	1.7512e+01	1.7441	-5.665931	0.000237	2.374309	0.402219	0.000024
 178	1.7611e+01	1.7538	-5.642305	0.000237	2.374309	0.402219	0.000024
 179	1.7711e+01	1.7682	-5.618679	0.000237	2.374309	0.402219	0.000024
 180	1.7811e+01	1.7759	-5.594646	0.000242	2.415246	0.409154	0.000024
 181	1.7910e+01	1.7858	-5.571428	0.000233	2.333373	0.395284	0.000023
 182	1.8009e+01	1.7958	-5.546580	0.000250	2.497118	0.423023	0.000025
 183	1.8109e+01	1.8058	-5.522139	0.000246	2.456182	0.416088	0.000025
 184	1.8209e+01	1.8177	-5.498106	0.000242	2.415246	0.409154	0.000024
 185	1.8308e+01	1.8266	-5.472036	0.000262	2.619927	0.443828	0.000026
 186	1.8407e+01	1.8384	-5.450854	0.000213	2.128691	0.360610	0.000021
 187	1.8507e+01	1.8471	-5.423562	0.000274	2.742736	0.464632	0.000027
 188	1.8607e+01	1.8568	-5.401973	0.000217	2.169627	0.367545	0.000022
 189	1.8706e+01	1.8659	-5.380791	0.000213	2.128691	0.360610	0.000021
 190	1.8805e+01	1.8763	-5.356351	0.000246	2.456182	0.416088	0.000025
 191	1.8905e+01	1.8854	-5.335984	0.000205	2.046818	0.346740	0.000020
 192	1.9005e+01	1.8948	-5.316839	0.000192	1.924009	0.325936	0.000019
 193	1.9104e+01	1.9059	-5.294435	0.000225	2.251500	0.381414	0.000023
 194	1.9203e+01	1.9157	-5.273253	0.000213	2.128691	0.360610	0.000021
 195	1.9303e+01	1.9278	-5.248405	0.000250	2.497118	0.423023	0.000025
 196	1.9402e+01	1.9344	-5.224372	0.000242	2.415246	0.409154	0.000024
 197	1.9502e+01	1.9453	-5.201561	0.000229	2.292436	0.388349	0.000023
 198	1.9602e+01	1.9556	-5.179972	0.000217	2.169627	0.367545	0.000022
 199	1.9701e+01	1.9648	-5.157568	0.000225	2.251500	0.381414	0.000023
 200	1.9800e+01	1.9741	-5.134349	0.000233	2.333373	0.395284	0.000023
 201	1.9900e+01	1.9834	-5.112760	0.000217	2.169627	0.367545	0.000022
 202	2.0000e+01	1.9953	-5.096059	0.000168	1.678391	0.284327	0.000017
 203	2.0099e+01	2.0050	-5.069989	0.000262	2.619927	0.443828	0.000026
 204	2.0198e+01	2.0147	-5.047585	0.000225	2.251500	0.381414	0.000023
 205	2.0298e+01	2.0249	-5.022330	0.000254	2.538055	0.429958	0.000025
 206	2.0398e+01	2.0314	-5.000741	0.000217	2.169627	0.367545	0.000022
 207	2.0497e+01	2.0456	-4.976300	0.000246	2.456182	0.416088	0.000025
 208	2.0596e+01	2.0562	-4.951860	0.000246	2.456182	0.416088	0.000025
 209	2.0696e+01	2.0660	-4.927419	0.000246	2.456182	0.416088	0.000025
 210	2.0796e+01	2.0751	-4.902571	0.000250	2.497118	0.423023	0.000025
 211	2.0895e+01	2.0882	-4.876501	0.000262	2.619927	0.443828	0.000026
 212	2.0994e+01	2.0954	-4.855320	0.000213	2.128691	0.360610	0.000021
 213	2.1094e+01	2.1037	-4.830472	0.000250	2.497118	0.423023	0.000025
 214	2.1194e+01	2.1136	-4.805216	0.000254	2.538055	0.429958	0.000025
 215	2.1293e+01	2.1213	-4.780369	0.000250	2.497118	0.423023	0.000025
 216	2.1392e+01	2.1369	-4.755928	0.000246	2.456182	0.416088	0.000025
 217	2.1492e+01	2.1449	-4.729043	0.000270	2.701800	0.457697	0.000027
 218	2.1591e+01	2.1547	-4.707454	0.000217	2.169627	0.367545	0.000022
 219	2.1691e+01	2.1651	-4.680570	0.000270	2.701800	0.457697	0.000027
 220	2.1791e+01	2.1744	-4.652870	0.000278	2.783673	0.471567	0.000028
 221	2.1890e+01	2.1840	-4.622320	0.000307	3.070227	0.520111	0.000031
 222	2.1989e+01	2.1940	-4.598286	0.000242	2.415246	0.409154	0.000024
 223	2.2089e+01	2.2034	-4.570180	0.000282	2.824609	0.478502	0.000028
 224	2.2189e+01	2.2150	-4.542480	0.000278	2.783673	0.471567	0.000028
 225	2.2288e+01	2.2228	-4.518040	0.000246	2.456182	0.416088	0.000025
 226	2.2387e+01	2.2339	-4.490341	0.000278	2.783673	0.471567	0.000028
 227	2.2487e+01	2.2443	-4.466715	0.000237	2.374309	0.402219	0.000024
 228	2.2587e+01	2.2566	-4.442682	0.000242	2.415246	0.409154	0.000024
 229	2.2686e+01	2.2639	-4.417426	0.000254	2.538055	0.429958	0.000025
 230	2.2785e+01	2.2736	-4.392171	0.000254	2.538055	0.429958	0.000025
 231	2.2885e+01	2.2843	-4.361213	0.000311	3.111164	0.527045	0.000031
 232	2.2985e+01	2.2927	-4.335958	0.000254	2.538055	0.429958	0.000025
 233	2.3084e+01	2.3062	-4.308666	0.000274	2.742736	0.464632	0.000027
 234	2.3183e+01	2.3176	-4.280967	0.000278	2.783673	0.471567	0.000028
 235	2.3283e+01	2.3216	-4.256526	0.000246	2.456182	0.416088	0.000025
 236	2.3383e+01	2.3338	-4.228827	0.000278	2.783673	0.471567	0.000028
 237	2.3482e+01	2.3428	-4.203979	0.000250	2.497118	0.423023	0.000025
 238	2.3581e+01	2.3532	-4.181168	0.000229	2.292436	0.388349	0.000023
 239	2.3681e+01	2.3644	-4.152654	0.000287	2.865546	0.485437	0.000029
 240	2.3780e+01	2.3748	-4.129435	0.000233	2.333373	0.395284	0.000023
 241	2.3880e+01	2.3891	-4.104180	0.000254	2.538055	0.429958	0.000025
 242	2.3980e+01	2.3936	-4.080554	0.000237	2.374309	0.402219	0.000024
 243	2.4079e+01	2.4043	-4.053669	0.000270	2.701800	0.457697	0.000027
 244	2.4178e+01	2.4128	-4.031673	0.000221	2.210564	0.374480	0.000022
 245	2.4278e+01	2.4252	-4.006825	0.000250	2.497118	0.423023	0.000025
 246	2.4378e+01	2.4333	-3.982384	0.000246	2.456182	0.416088	0.000025
 247	2.4477e+01	2.4431	-3.958351	0.000242	2.415246	0.409154	0.000024
 248	2.4576e+01	2.4543	-3.935133	0.000233	2.333373	0.395284	0.000023
 249	2.4676e+01	2.4625	-3.912322	0.000229	2.292436	0.388349	0.000023
 250	2.4776e+01	2.4760	-3.886252	0.000262	2.619927	0.443828	0.000026
 251	2.4875e+01	2.4825	-3.863440	0.000229	2.292436	0.388349	0.000023
 252	2.4974e+01	2.4928	-3.836556	0.000270	2.701800	0.457697	0.000027
 253	2.5074e+01	2.5037	-3.815374	0.000213	2.128691	0.360610	0.000021
 254	2.5174e+01	2.5117	-3.788897	0.000266	2.660864	0.450763	0.000027
 255	2.5273e+01	2.5245	-3.770159	0.000188	1.883073	0.319001	0.000019
 256	2.5372e+01	2.5326	-3.742867	0.000274	2.742736	0.464632	0.000027
 257	2.5472e+01	2.5426	-3.719649	0.000233	2.333373	0.395284	0.000023
 258	2.5572e+01	2.5539	-3.693579	0.000262	2.619927	0.443828	0.000026
 259	2.5671e+01	2.5620	-3.671582	0.000221	2.210564	0.374480	0.000022
 260	2.5770e+01	2.5716	-3.649993	0.000217	2.169627	0.367545	0.000022
 261	2.5870e+01	2.5816	-3.617813	0.000323	3.233973	0.547850	0.000032
 262	2.5970e+01	2.5935	-3.594594	0.000233	2.333373	0.395284	0.000023
 263	2.6069e+01	2.6012	-3.576264	0.000184	1.842136	0.312066	0.000018
 264	2.6169e+01	2.6119	-3.554675	0.000217	2.169627	0.367545	0.000022
 265	2.6268e+01	2.6221	-3.529420	0.000254	2.538055	0.429958	0.000025
 266	2.6367e+01	2.6314	-3.505794	0.000237	2.374309	0.402219	0.000024
 267	2.6467e+01	2.6408	-3.482982	0.000229	2.292436	0.388349	0.000023
 268	2.6567e+01	2.6523	-3.458135	0.000250	2.497118	0.423023	0.000025
 269	2.6666e+01	2.6628	-3.436953	0.000213	2.128691	0.360610	0.000021
 270	2.6765e+01	2.6701	-3.414142	0.000229	2.292436	0.388349	0.000023
 271	2.6865e+01	2.6822	-3.390516	0.000237	2.374309	0.402219	0.000024
 272	2.6965e+01	2.6928	-3.364446	0.000262	2.619927	0.443828	0.000026
 273	2.7064e+01	2.7006	-3.336339	0.000282	2.824609	0.478502	0.000028
 274	2.7163e+01	2.7151	-3.315972	0.000205	2.046818	0.346740	0.000020
 275	2.7263e+01	2.7209	-3.291124	0.000250	2.497118	0.423023	0.000025
 276	2.7363e+01	2.7312	-3.264240	0.000270	2.701800	0.457697	0.000027
 277	2.7462e+01	2.7409	-3.238170	0.000262	2.619927	0.443828	0.000026
 278	2.7561e+01	2.7519	-3.216988	0.000213	2.128691	0.360610	0.000021
 279	2.7661e+01	2.7629	-3.190511	0.000266	2.660864	0.450763	0.000027
 280	2.7761e+01	2.7681	-3.168107	0.000225	2.251500	0.381414	0.000023
 281	2.7860e+01	2.7844	-3.143259	0.000250	2.497118	0.423023	0.000025
 282	2.7959e+01	2.7914	-3.117189	0.000262	2.619927	0.443828	0.000026
 283	2.8059e+01	2.8021	-3.092341	0.000250	2.497118	0.423023	0.000025
 284	2.8159e+01	2.8110	-3.067086	0.000254	2.538055	0.429958	0.000025
 285	2.8258e+01	2.8231	-3.041423	0.000258	2.578991	0.436893	0.000026
 286	2.8358e+01	2.8300	-3.019427	0.000221	2.210564	0.374480	0.000022
 287	2.8457e+01	2.8431	-2.995801	0.000237	2.374309	0.402219	0.000024
 288	2.8556e+01	2.8526	-2.968916	0.000270	2.701800	0.457697	0.000027
 289	2.8656e+01	2.8606	-2.942032	0.000270	2.701800	0.457697	0.000027
 290	2.8756e+01	2.8719	-2.925331	0.000168	1.678391	0.284327	0.000017
 291	2.8855e+01	2.8803	-2.898039	0.000274	2.742736	0.464632	0.000027
 292	2.8954e+01	2.8902	-2.877264	0.000209	2.087755	0.353675	0.000021
 293	2.9054e+01	2.8998	-2.855268	0.000221	2.210564	0.374480	0.000022
 294	2.9154e+01	2.9107	-2.834086	0.000213	2.128691	0.360610	0.000021
 295	2.9253e+01	2.9221	-2.811682	0.000225	2.251500	0.381414	0.000023
 296	2.9352e+01	2.9327	-2.787241	0.000246	2.456182	0.416088	0.000025
 297	2.9452e+01	2.9449	-2.766060	0.000213	2.128691	0.360610	0.000021
 298	2.9552e+01	2.9520	-2.743656	0.000225	2.251500	0.381414	0.000023
 299	2.9651e+01	2.9603	-2.721659	0.000221	2.210564	0.374480	0.000022
 300	2.9750e+01	2.9713	-2.700477	0.000213	2.128691	0.360610	0.000021
 301	2.9850e+01	2.9812	-2.673593	0.000270	2.701800	0.457697	0.000027
 302	2.9950e+01	2.9897	-2.655670	0.000180	1.801200	0.305132	0.000018
 303	3.0049e+01	3.0029	-2.635303	0.000205	2.046818	0.346740	0.000020
 304	3.0148e+01	3.0110	-2.616158	0.000192	1.924009	0.325936	0.000019
 305	3.0248e+01	3.0180	-2.592939	0.000233	2.333373	0.395284	0.000023
 306	3.0348e+01	3.0300	-2.577053	0.000160	1.596518	0.270458	0.000016
 307	3.0447e+01	3.0381	-2.557500	0.000196	1.964946	0.332871	0.000020
 308	3.0547e+01	3.0512	-2.537540	0.000201	2.005882	0.339806	0.000020
 309	3.0646e+01	3.0607	-2.518803	0.000188	1.883073	0.319001	0.000019
 310	3.0745e+01	3.0697	-2.498028	0.000209	2.087755	0.353675	0.000021
 311	3.0845e+01	3.0810	-2.475217	0.000229	2.292436	0.388349	0.000023
 312	3.0945e+01	3.0885	-2.455257	0.000201	2.005882	0.339806	0.000020
 313	3.1044e+01	3.0991	-2.434890	0.000205	2.046818	0.346740	0.000020
 314	3.1143e+01	3.1136	-2.416152	0.000188	1.883073	0.319001	0.000019
 315	3.1243e+01	3.1194	-2.397822	0.000184	1.842136	0.312066	0.000018
 316	3.1343e+01	3.1292	-2.379899	0.000180	1.801200	0.305132	0.000018
 317	3.1442e+01	3.1433	-2.358717	0.000213	2.128691	0.360610	0.000021
 318	3.1541e+01	3.1506	-2.341201	0.000176	1.760264	0.298197	0.000018
 319	3.1641e+01	3.1599	-2.319612	0.000217	2.169627	0.367545	0.000022
 320	3.1741e+01	3.1698	-2.305355	0.000143	1.432773	0.242718	0.000014
 321	3.1840e+01	3.1809	-2.281729	0.000237	2.374309	0.402219	0.000024
 322	3.1939e+01	3.1878	-2.263399	0.000184	1.842136	0.312066	0.000018
 323	3.2039e+01	3.2014	-2.238958	0.000246	2.456182	0.416088	0.000025
 324	3.2139e+01	3.2095	-2.220628	0.000184	1.842136	0.312066	0.000018
 325	3.2238e+01	3.2168	-2.196595	0.000242	2.415246	0.409154	0.000024
 326	3.2337e+01	3.2299	-2.177450	0.000192	1.924009	0.325936	0.000019
 327	3.2437e+01	3.2382	-2.156268	0.000213	2.128691	0.360610	0.000021
 328	3.2536e+01	3.2495	-2.134271	0.000221	2.210564	0.374480	0.000022
 329	3.2636e+01	3.2615	-2.114719	0.000196	1.964946	0.332871	0.000020
 330	3.2736e+01	3.2694	-2.095166	0.000196	1.964946	0.332871	0.000020
 331	3.2835e+01	3.2787	-2.069504	0.000258	2.578991	0.436893	0.000026
 332	3.2934e+01	3.2908	-2.055654	0.000139	1.391836	0.235783	0.000014
 333	3.3034e+01	3.2990	-2.036102	0.000196	1.964946	0.332871	0.000020
 334	3.3133e+01	3.3075	-2.011661	0.000246	2.456182	0.416088	0.000025
 335	3.3233e+01	3.3194	-1.990479	0.000213	2.128691	0.360610	0.000021
 336	3.3333e+01	3.3279	-1.965631	0.000250	2.497118	0.423023	0.000025
 337	3.3432e+01	3.3439	-1.947301	0.000184	1.842136	0.312066	0.000018
 338	3.3532e+01	3.3469	-1.927341	0.000201	2.005882	0.339806	0.000020
 339	3.3631e+01	3.3584	-1.902901	0.000246	2.456182	0.416088	0.000025
 340	3.3730e+01	3.3688	-1.884570	0.000184	1.842136	0.312066	0.000018
 341	3.3830e+01	3.3800	-1.860944	0.000237	2.374309	0.402219	0.000024
 342	3.3929e+01	3.3884	-1.840170	0.000209	2.087755	0.353675	0.000021
 343	3.4029e+01	3.3982	-1.823469	0.000168	1.678391	0.284327	0.000017
 344	3.4129e+01	3.4084	-1.801880	0.000217	2.169627	0.367545	0.000022
 345	3.4228e+01	3.4193	-1.777032	0.000250	2.497118	0.423023	0.000025
 346	3.4328e+01	3.4280	-1.754628	0.000225	2.251500	0.381414	0.000023
 347	3.4427e+01	3.4399	-1.736298	0.000184	1.842136	0.312066	0.000018
 348	3.4526e+01	3.4526	-1.712264	0.000242	2.415246	0.409154	0.000024
 349	3.4626e+01	3.4595	-1.691083	0.000213	2.128691	0.360610	0.000021
 350	3.4725e+01	3.4698	-1.671123	0.000201	2.005882	0.339806	0.000020
 351	3.4825e+01	3.4791	-1.648312	0.000229	2.292436	0.388349	0.000023
 352	3.4925e+01	3.4891	-1.623871	0.000246	2.456182	0.416088	0.000025
 353	3.5024e+01	3.4972	-1.607170	0.000168	1.678391	0.284327	0.000017
 354	3.5123e+01	3.5085	-1.583952	0.000233	2.333373	0.395284	0.000023
 355	3.5223e+01	3.5201	-1.566436	0.000176	1.760264	0.298197	0.000018
 356	3.5322e+01	3.5264	-1.548920	0.000176	1.760264	0.298197	0.000018
 357	3.5422e+01	3.5378	-1.528146	0.000209	2.087755	0.353675	0.000021
 358	3.5522e+01	3.5479	-1.506964	0.000213	2.128691	0.360610	0.000021
 359	3.5621e+01	3.5602	-1.486189	0.000209	2.087755	0.353675	0.000021
 360	3.5721e+01	3.5727	-1.466230	0.000201	2.005882	0.339806	0.000020
 361	3.5820e+01	3.5779	-1.446677	0.000196	1.964946	0.332871	0.000020
 362	3.5919e+01	3.5878	-1.428347	0.000184	1.842136	0.312066	0.000018
 363	3.6019e+01	3.6001	-1.409202	0.000192	1.924009	0.325936	0.000019
 364	3.6118e+01	3.6079	-1.390056	0.000192	1.924009	0.325936	0.000019
 365	3.6218e+01	3.6183	-1.363987	0.000262	2.619927	0.443828	0.000026
 366	3.6318e+01	3.6274	-1.345249	0.000188	1.883073	0.319001	0.000019
 367	3.6417e+01	3.6365	-1.329362	0.000160	1.596518	0.270458	0.000016
 368	3.6517e+01	3.6466	-1.309810	0.000196	1.964946	0.332871	0.000020
 369	3.6616e+01	3.6590	-1.287813	0.000221	2.210564	0.374480	0.000022
 370	3.6715e+01	3.6673	-1.268668	0.000192	1.924009	0.325936	0.000019
 371	3.6815e+01	3.6771	-1.250338	0.000184	1.842136	0.312066	0.000018
 372	3.6914e+01	3.6868	-1.230786	0.000196	1.964946	0.332871	0.000020
 373	3.7014e+01	3.6964	-1.207567	0.000233	2.333373	0.395284	0.000023
 374	3.7114e+01	3.7053	-1.190459	0.000172	1.719327	0.291262	0.000017
 375	3.7213e+01	3.7179	-1.165611	0.000250	2.497118	0.423023	0.000025
 376	3.7313e+01	3.7273	-1.144022	0.000217	2.169627	0.367545	0.000022
 377	3.7412e+01	3.7379	-1.122432	0.000217	2.169627	0.367545	0.000022
 378	3.7511e+01	3.7469	-1.104102	0.000184	1.842136	0.312066	0.000018
 379	3.7611e+01	3.7560	-1.078847	0.000254	2.538055	0.429958	0.000025
 380	3.7711e+01	3.7666	-1.058480	0.000205	2.046818	0.346740	0.000020
 381	3.7810e+01	3.7759	-1.036890	0.000217	2.169627	0.367545	0.000022
 382	3.7910e+01	3.7888	-1.015301	0.000217	2.169627	0.367545	0.000022
 383	3.8009e+01	3.7984	-0.992897	0.000225	2.251500	0.381414	0.000023
 384	3.8108e+01	3.8046	-0.970086	0.000229	2.292436	0.388349	0.000023
 385	3.8208e+01	3.8150	-0.948090	0.000221	2.210564	0.374480	0.000022
 386	3.8307e+01	3.8259	-0.925279	0.000229	2.292436	0.388349	0.000023
 387	3.8407e+01	3.8338	-0.901653	0.000237	2.374309	0.402219	0.000024
 388	3.8507e+01	3.8470	-0.877620	0.000242	2.415246	0.409154	0.000024
 389	3.8606e+01	3.8561	-0.852772	0.000250	2.497118	0.423023	0.000025
 390	3.8706e+01	3.8679	-0.831997	0.000209	2.087755	0.353675	0.000021
 391	3.8805e+01	3.8765	-0.804705	0.000274	2.742736	0.464632	0.000027
 392	3.8904e+01	3.8869	-0.782709	0.000221	2.210564	0.374480	0.000022
 393	3.9004e+01	3.8955	-0.757046	0.000258	2.578991	0.436893	0.000026
 394	3.9103e+01	3.9061	-0.732606	0.000246	2.456182	0.416088	0.000025
 395	3.9203e+01	3.9159	-0.710202	0.000225	2.251500	0.381414	0.000023
 396	3.9303e+01	3.9274	-0.685761	0.000246	2.456182	0.416088	0.000025
 397	3.9402e+01	3.9385	-0.662135	0.000237	2.374309	0.402219	0.000024
 398	3.9502e+01	3.9469	-0.638509	0.000237	2.374309	0.402219	0.000024
 399	3.9601e+01	3.9567	-0.616513	0.000221	2.210564	0.374480	0.000022
 400	3.9700e+01	3.9629	-0.587999	0.000287	2.865546	0.485437	0.000029
 401	3.9800e+01	3.9766	-0.566002	0.000221	2.210564	0.374480	0.000022
 402	3.9900e+01	3.9843	-0.542784	0.000233	2.333373	0.395284	0.000023
 403	3.9999e+01	3.9941	-0.521195	0.000217	2.169627	0.367545	0.000022
 404	4.0099e+01	4.0031	-0.493496	0.000278	2.783673	0.471567	0.000028
 405	4.0198e+01	4.0151	-0.474758	0.000188	1.883073	0.319001	0.000019
 406	4.0297e+01	4.0260	-0.445429	0.000295	2.947418	0.499306	0.000029
 407	4.0397e+01	4.0368	-0.427913	0.000176	1.760264	0.298197	0.000018
 408	4.0496e+01	4.0455	-0.405917	0.000221	2.210564	0.374480	0.000022
 409	4.0596e+01	4.0571	-0.384735	0.000213	2.128691	0.360610	0.000021
 410	4.0696e+01	4.0682	-0.362739	0.000221	2.210564	0.374480	0.000022
 411	4.0795e+01	4.0754	-0.343186	0.000196	1.964946	0.332871	0.000020
 412	4.0895e+01	4.0858	-0.317931	0.000254	2.538055	0.429958	0.000025
 413	4.0994e+01	4.0954	-0.297156	0.000209	2.087755	0.353675	0.000021
 414	4.1093e+01	4.1055	-0.276382	0.000209	2.087755	0.353675	0.000021
 415	4.1193e+01	4.1146	-0.253571	0.000229	2.292436	0.388349	0.000023
 416	4.1292e+01	4.1251	-0.231574	0.000221	2.210564	0.374480	0.000022
 417	4.1392e+01	4.1342	-0.209578	0.000221	2.210564	0.374480	0.000022
 418	4.1492e+01	4.1450	-0.187174	0.000225	2.251500	0.381414	0.000023
 419	4.1591e+01	4.1529	-0.165177	0.000221	2.210564	0.374480	0.000022
 420	4.1691e+01	4.1653	-0.147662	0.000176	1.760264	0.298197	0.000018
 421	4.1790e+01	4.1753	-0.121999	0.000258	2.578991	0.436893	0.000026
 422	4.1889e+01	4.1840	-0.102039	0.000201	2.005882	0.339806	0.000020
 423	4.1989e+01	4.1946	-0.082080	0.000201	2.005882	0.339806	0.000020
 424	4.2089e+01	4.2028	-0.055602	0.000266	2.660864	0.450763	0.000027
 425	4.2188e+01	4.2140	-0.038087	0.000176	1.760264	0.298197	0.000018
 426	4.2288e+01	4.2229	-0.014461	0.000237	2.374309	0.402219	0.000024
 427	4.2387e+01	4.2347	0.006314	0.000209	2.087755	0.353675	0.000021
 428	4.2486e+01	4.2467	0.028310	0.000221	2.210564	0.374480	0.000022
 429	4.2586e+01	4.2551	0.048270	0.000201	2.005882	0.339806	0.000020
 430	4.2685e+01	4.2638	0.068637	0.000205	2.046818	0.346740	0.000020
 431	4.2785e+01	4.2744	0.091856	0.000233	2.333373	0.395284	0.000023
 432	4.2885e+01	4.2826	0.109371	0.000176	1.760264	0.298197	0.000018
 433	4.2984e+01	4.2954	0.133405	0.000242	2.415246	0.409154	0.000024
 434	4.3084e+01	4.3048	0.152957	0.000196	1.964946	0.332871	0.000020
 435	4.3183e+01	4.3151	0.172102	0.000192	1.924009	0.325936	0.000019
 436	4.3282e+01	4.3252	0.196950	0.000250	2.497118	0.423023	0.000025
 437	4.3382e+01	4.3355	0.216503	0.000196	1.964946	0.332871	0.000020
 438	4.3481e+01	4.3435	0.236870	0.000205	2.046818	0.346740	0.000020
 439	4.3581e+01	4.3520	0.256015	0.000192	1.924009	0.325936	0.000019
 440	4.3681e+01	4.3624	0.281270	0.000254	2.538055	0.429958	0.000025
 441	4.3780e+01	4.3712	0.307340	0.000262	2.619927	0.443828	0.000026
 442	4.3880e+01	4.3822	0.322004	0.000147	1.473709	0.249653	0.000015
 443	4.3979e+01	4.3941	0.349704	0.000278	2.783673	0.471567	0.000028
 444	4.4078e+01	4.4035	0.368441	0.000188	1.883073	0.319001	0.000019
 445	4.4178e+01	4.4125	0.393289	0.000250	2.497118	0.423023	0.000025
 446	4.4278e+01	4.4235	0.414064	0.000209	2.087755	0.353675	0.000021
 447	4.4377e+01	4.4349	0.434023	0.000201	2.005882	0.339806	0.000020
 448	4.4477e+01	4.4417	0.455613	0.000217	2.169627	0.367545	0.000022
 449	4.4576e+01	4.4537	0.480461	0.000250	2.497118	0.423023	0.000025
 450	4.4675e+01	4.4605	0.500013	0.000196	1.964946	0.332871	0.000020
 451	4.4775e+01	4.4727	0.524454	0.000246	2.456182	0.416088	0.000025
 452	4.4874e+01	4.4827	0.544821	0.000205	2.046818	0.346740	0.000020
 453	4.4974e+01	4.4923	0.570076	0.000254	2.538055	0.429958	0.000025
 454	4.5074e+01	4.5039	0.591258	0.000213	2.128691	0.360610	0.000021
 455	4.5173e+01	4.5116	0.614476	0.000233	2.333373	0.395284	0.000023
 456	4.5273e+01	4.5233	0.632399	0.000180	1.801200	0.305132	0.000018
 457	4.5372e+01	4.5325	0.658877	0.000266	2.660864	0.450763	0.000027
 458	4.5471e+01	4.5433	0.676800	0.000180	1.801200	0.305132	0.000018
 459	4.5571e+01	4.5547	0.694723	0.000180	1.801200	0.305132	0.000018
 460	4.5670e+01	4.5629	0.715497	0.000209	2.087755	0.353675	0.000021
 461	4.5770e+01	4.5718	0.737086	0.000217	2.169627	0.367545	0.000022
 462	4.5870e+01	4.5834	0.757861	0.000209	2.087755	0.353675	0.000021
 463	4.5969e+01	4.5916	0.778635	0.000209	2.087755	0.353675	0.000021
 464	4.6069e+01	4.6017	0.797373	0.000188	1.883073	0.319001	0.000019
 465	4.6168e+01	4.6124	0.820999	0.000237	2.374309	0.402219	0.000024
 466	4.6267e+01	4.6212	0.836071	0.000151	1.514645	0.256588	0.000015
 467	4.6367e+01	4.6320	0.854401	0.000184	1.842136	0.312066	0.000018
 468	4.6467e+01	4.6436	0.877620	0.000233	2.333373	0.395284	0.000023
 469	4.6566e+01	4.6529	0.894728	0.000172	1.719327	0.291262	0.000017
 470	4.6666e+01	4.6613	0.913873	0.000192	1.924009	0.325936	0.000019
 471	4.6765e+01	4.6719	0.933833	0.000201	2.005882	0.339806	0.000020
 472	4.6864e+01	4.6851	0.947682	0.000139	1.391836	0.235783	0.000014
 473	4.6964e+01	4.6913	0.966420	0.000188	1.883073	0.319001	0.000019
 474	4.7063e+01	4.7015	0.985565	0.000192	1.924009	0.325936	0.000019
 475	4.7163e+01	4.7108	1.002674	0.000172	1.719327	0.291262	0.000017
 476	4.7263e+01	4.7211	1.018560	0.000160	1.596518	0.270458	0.000016
 477	4.7362e+01	4.7308	1.038520	0.000201	2.005882	0.339806	0.000020
 478	4.7462e+01	4.7411	1.052369	0.000139	1.391836	0.235783	0.000014
 479	4.7561e+01	4.7514	1.069885	0.000176	1.760264	0.298197	0.000018
 480	4.7660e+01	4.7607	1.089845	0.000201	2.005882	0.339806	0.000020
 481	4.7760e+01	4.7755	1.110212	0.000205	2.046818	0.346740	0.000020
 482	4.7859e+01	4.7831	1.124062	0.000139	1.391836	0.235783	0.000014
 483	4.7959e+01	4.7919	1.140763	0.000168	1.678391	0.284327	0.000017
 484	4.8059e+01	4.8024	1.152983	0.000123	1.228091	0.208044	0.000012
 485	4.8158e+01	4.8121	1.172943	0.000201	2.005882	0.339806	0.000020
 486	4.8258e+01	4.8205	1.184756	0.000119	1.187155	0.201109	0.000012
 487	4.8357e+01	4.8296	1.204716	0.000201	2.005882	0.339806	0.000020
 488	4.8456e+01	4.8402	1.225490	0.000209	2.087755	0.353675	0.000021
 489	4.8556e+01	4.8533	1.245043	0.000196	1.964946	0.332871	0.000020
 490	4.8656e+01	4.8622	1.260114	0.000151	1.514645	0.256588	0.000015
 491	4.8755e+01	4.8716	1.284555	0.000246	2.456182	0.416088	0.000025
 492	4.8855e+01	4.8815	1.298404	0.000139	1.391836	0.235783	0.000014
 493	4.8954e+01	4.8903	1.320401	0.000221	2.210564	0.374480	0.000022
 494	4.9053e+01	4.9016	1.338324	0.000180	1.801200	0.305132	0.000018
 495	4.9153e+01	4.9101	1.355025	0.000168	1.678391	0.284327	0.000017
 496	4.9252e+01	4.9242	1.372948	0.000180	1.801200	0.305132	0.000018
 497	4.9352e+01	4.9300	1.390871	0.000180	1.801200	0.305132	0.000018
 498	4.9452e+01	4.9414	1.409202	0.000184	1.842136	0.312066	0.000018
 499	4.9551e+01	4.9506	1.430383	0.000213	2.128691	0.360610	0.000021
 500	4.9651e+01	4.9586	1.447492	0.000172	1.719327	0.291262	0.000017
 501	4.9750e+01	4.9711	1.465007	0.000176	1.760264	0.298197	0.000018
 502	4.9849e+01	4.9789	1.483745	0.000188	1.883073	0.319001	0.000019
 503	4.9949e+01	4.9920	1.503705	0.000201	2.005882	0.339806	0.000020
 504	5.0048e+01	5.0006	1.519184	0.000156	1.555582	0.263523	0.000016
 505	5.0148e+01	5.0108	1.542810	0.000237	2.374309	0.402219	0.000024
 506	5.0248e+01	5.0204	1.561140	0.000184	1.842136	0.312066	0.000018
 507	5.0347e+01	5.0282	1.576212	0.000151	1.514645	0.256588	0.000015
 508	5.0447e+01	5.0424	1.593728	0.000176	1.760264	0.298197	0.000018
 509	5.0546e+01	5.0525	1.615724	0.000221	2.210564	0.374480	0.000022
 510	5.0645e+01	5.0619	1.634869	0.000192	1.924009	0.325936	0.000019
 511	5.0745e+01	5.0697	1.652385	0.000176	1.760264	0.298197	0.000018
 512	5.0844e+01	5.0794	1.669901	0.000176	1.760264	0.298197	0.000018
 513	5.0944e+01	5.0898	1.691083	0.000213	2.128691	0.360610	0.000021
 514	5.1044e+01	5.1023	1.711857	0.000209	2.087755	0.353675	0.000021
 515	5.1143e+01	5.1104	1.728965	0.000172	1.719327	0.291262	0.000017
 516	5.1242e+01	5.1208	1.749333	0.000205	2.046818	0.346740	0.000020
 517	5.1342e+01	5.1305	1.769292	0.000201	2.005882	0.339806	0.000020
 518	5.1441e+01	5.1411	1.787215	0.000180	1.801200	0.305132	0.000018
 519	5.1541e+01	5.1510	1.807990	0.000209	2.087755	0.353675	0.000021
 520	5.1641e+01	5.1608	1.821025	0.000131	1.309964	0.221914	0.000013
 521	5.1740e+01	5.1687	1.841799	0.000209	2.087755	0.353675	0.000021
 522	5.1840e+01	5.1791	1.860130	0.000184	1.842136	0.312066	0.000018
 523	5.1939e+01	5.1898	1.879682	0.000196	1.964946	0.332871	0.000020
 524	5.2038e+01	5.1995	1.897198	0.000176	1.760264	0.298197	0.000018
 525	5.2138e+01	5.2096	1.917565	0.000205	2.046818	0.346740	0.000020
 526	5.2237e+01	5.2197	1.933451	0.000160	1.596518	0.270458	0.000016
 527	5.2337e+01	5.2281	1.951782	0.000184	1.842136	0.312066	0.000018
 528	5.2437e+01	5.2390	1.966854	0.000151	1.514645	0.256588	0.000015
 529	5.2536e+01	5.2519	1.988850	0.000221	2.210564	0.374480	0.000022
 530	5.2636e+01	5.2593	2.003922	0.000151	1.514645	0.256588	0.000015
 531	5.2735e+01	5.2705	2.023067	0.000192	1.924009	0.325936	0.000019
 532	5.2834e+01	5.2784	2.039768	0.000168	1.678391	0.284327	0.000017
 533	5.2934e+01	5.2882	2.059320	0.000196	1.964946	0.332871	0.000020
 534	5.3033e+01	5.3007	2.075207	0.000160	1.596518	0.270458	0.000016
 535	5.3133e+01	5.3103	2.092315	0.000172	1.719327	0.291262	0.000017
 536	5.3233e+01	5.3199	2.110238	0.000180	1.801200	0.305132	0.000018
 537	5.3332e+01	5.3289	2.125310	0.000151	1.514645	0.256588	0.000015
 538	5.3431e+01	5.3396	2.142418	0.000172	1.719327	0.291262	0.000017
 539	5.3531e+01	5.3491	2.160749	0.000184	1.842136	0.312066	0.000018
 540	5.3630e+01	5.3583	2.179486	0.000188	1.883073	0.319001	0.000019
 541	5.3730e+01	5.3673	2.197002	0.000176	1.760264	0.298197	0.000018
 542	5.3830e+01	5.3782	2.214925	0.000180	1.801200	0.305132	0.000018
 543	5.3929e+01	5.3893	2.235292	0.000205	2.046818	0.346740	0.000020
 544	5.4029e+01	5.4009	2.255659	0.000205	2.046818	0.346740	0.000020
 545	5.4128e+01	5.4089	2.276434	0.000209	2.087755	0.353675	0.000021
 546	5.4227e+01	5.4174	2.291913	0.000156	1.555582	0.263523	0.000016
 547	5.4327e+01	5.4276	2.317168	0.000254	2.538055	0.429958	0.000025
 548	5.4426e+01	5.4426	2.333869	0.000168	1.678391	0.284327	0.000017
 549	5.4526e+01	5.4485	2.354236	0.000205	2.046818	0.346740	0.000020
 550	5.4626e+01	5.4588	2.373789	0.000196	1.964946	0.332871	0.000020
 551	5.4725e+01	5.4682	2.393749	0.000201	2.005882	0.339806	0.000020
 552	5.4825e+01	5.4787	2.415338	0.000217	2.169627	0.367545	0.000022
 553	5.4924e+01	5.4877	2.434483	0.000192	1.924009	0.325936	0.000019
 554	5.5023e+01	5.5004	2.456072	0.000217	2.169627	0.367545	0.000022
 555	5.5123e+01	5.5087	2.478476	0.000225	2.251500	0.381414	0.000023
 556	5.5222e+01	5.5186	2.498028	0.000196	1.964946	0.332871	0.000020
 557	5.5322e+01	5.5273	2.522876	0.000250	2.497118	0.423023	0.000025
 558	5.5422e+01	5.5360	2.540799	0.000180	1.801200	0.305132	0.000018
 559	5.5521e+01	5.5480	2.562796	0.000221	2.210564	0.374480	0.000022
 560	5.5620e+01	5.5590	2.585607	0.000229	2.292436	0.388349	0.000023
 561	5.5720e+01	5.5697	2.608011	0.000225	2.251500	0.381414	0.000023
 562	5.5819e+01	5.5766	2.630007	0.000221	2.210564	0.374480	0.000022
 563	5.5919e+01	5.5868	2.652004	0.000221	2.210564	0.374480	0.000022
 564	5.6019e+01	5.5989	2.671149	0.000192	1.924009	0.325936	0.000019
 565	5.6118e+01	5.6070	2.693960	0.000229	2.292436	0.388349	0.000023
 566	5.6218e+01	5.6178	2.713105	0.000192	1.924009	0.325936	0.000019
 567	5.6317e+01	5.6286	2.738768	0.000258	2.578991	0.436893	0.000026
 568	5.6416e+01	5.6358	2.762801	0.000242	2.415246	0.409154	0.000024
 569	5.6516e+01	5.6483	2.783983	0.000213	2.128691	0.360610	0.000021
 570	5.6615e+01	5.6581	2.804350	0.000205	2.046818	0.346740	0.000020
 571	5.6715e+01	5.6680	2.825124	0.000209	2.087755	0.353675	0.000021
 572	5.6815e+01	5.6788	2.845491	0.000205	2.046818	0.346740	0.000020
 573	5.6914e+01	5.6864	2.866266	0.000209	2.087755	0.353675	0.000021
 574	5.7014e+01	5.6968	2.888262	0.000221	2.210564	0.374480	0.000022
 575	5.7113e+01	5.7095	2.905778	0.000176	1.760264	0.298197	0.000018
 576	5.7212e+01	5.7178	2.924109	0.000184	1.842136	0.312066	0.000018
 577	5.7312e+01	5.7302	2.946105	0.000221	2.210564	0.374480	0.000022
 578	5.7411e+01	5.7375	2.965250	0.000192	1.924009	0.325936	0.000019
 579	5.7511e+01	5.7487	2.985210	0.000201	2.005882	0.339806	0.000020
 580	5.7611e+01	5.7552	3.003133	0.000180	1.801200	0.305132	0.000018
 581	5.7710e+01	5.7685	3.025944	0.000229	2.292436	0.388349	0.000023
 582	5.7809e+01	5.7766	3.045497	0.000196	1.964946	0.332871	0.000020
 583	5.7909e+01	5.7841	3.063012	0.000176	1.760264	0.298197	0.000018
 584	5.8008e+01	5.7978	3.082565	0.000196	1.964946	0.332871	0.000020
 585	5.8108e+01	5.8077	3.103339	0.000209	2.087755	0.353675	0.000021
 586	5.8208e+01	5.8141	3.122484	0.000192	1.924009	0.325936	0.000019
 587	5.8307e+01	5.8273	3.137963	0.000156	1.555582	0.263523	0.000016
 588	5.8407e+01	5.8355	3.158738	0.000209	2.087755	0.353675	0.000021
 589	5.8506e+01	5.8454	3.179920	0.000213	2.128691	0.360610	0.000021
 590	5.8605e+01	5.8602	3.199472	0.000196	1.964946	0.332871	0.000020
 591	5.8705e+01	5.8678	3.219839	0.000205	2.046818	0.346740	0.000020
 592	5.8804e+01	5.8779	3.240614	0.000209	2.087755	0.353675	0.000021
 593	5.8904e+01	5.8870	3.257722	0.000172	1.719327	0.291262	0.000017
 594	5.9004e+01	5.8967	3.278089	0.000205	2.046818	0.346740	0.000020
 595	5.9103e+01	5.9090	3.297234	0.000192	1.924009	0.325936	0.000019
 596	5.9203e+01	5.9164	3.320860	0.000237	2.374309	0.402219	0.000024
 597	5.9302e+01	5.9283	3.333895	0.000131	1.309964	0.221914	0.000013
 598	5.9401e+01	5.9362	3.356299	0.000225	2.251500	0.381414	0.000023
 599	5.9501e+01	5.9463	3.377481	0.000213	2.128691	0.360610	0.000021
 600	5.9600e+01	5.9579	3.393367	0.000160	1.596518	0.270458	0.000016
 601	5.9700e+01	5.9653	3.413327	0.000201	2.005882	0.339806	0.000020
 602	5.9800e+01	5.9737	3.427991	0.000147	1.473709	0.249653	0.000015
 603	5.9899e+01	5.9865	3.447951	0.000201	2.005882	0.339806	0.000020
 604	5.9998e+01	5.9949	3.467911	0.000201	2.005882	0.339806	0.000020
 605	6.0098e+01	6.0046	3.487871	0.000201	2.005882	0.339806	0.000020
 606	6.0197e+01	6.0174	3.506608	0.000188	1.883073	0.319001	0.000019
 607	6.0297e+01	6.0267	3.525753	0.000192	1.924009	0.325936	0.000019
 608	6.0397e+01	6.0349	3.547750	0.000221	2.210564	0.374480	0.000022
 609	6.0496e+01	6.0454	3.566488	0.000188	1.883073	0.319001	0.000019
 610	6.0596e+01	6.0554	3.588484	0.000221	2.210564	0.374480	0.000022
 611	6.0695e+01	6.0635	3.610073	0.000217	2.169627	0.367545	0.000022
 612	6.0794e+01	6.0744	3.627996	0.000180	1.801200	0.305132	0.000018
 613	6.0894e+01	6.0863	3.649586	0.000217	2.169627	0.367545	0.000022
 614	6.0993e+01	6.0961	3.668323	0.000188	1.883073	0.319001	0.000019
 615	6.1093e+01	6.1055	3.687061	0.000188	1.883073	0.319001	0.000019
 616	6.1193e+01	6.1155	3.708650	0.000217	2.169627	0.367545	0.000022
 617	6.1292e+01	6.1275	3.727795	0.000192	1.924009	0.325936	0.000019
 618	6.1392e+01	6.1337	3.747755	0.000201	2.005882	0.339806	0.000020
 619	6.1491e+01	6.1431	3.767715	0.000201	2.005882	0.339806	0.000020
 620	6.1590e+01	6.1536	3.790526	0.000229	2.292436	0.388349	0.000023
 621	6.1690e+01	6.1641	3.811301	0.000209	2.087755	0.353675	0.000021
 622	6.1789e+01	6.1746	3.830038	0.000188	1.883073	0.319001	0.000019
 623	6.1889e+01	6.1839	3.849998	0.000201	2.005882	0.339806	0.000020
 624	6.1989e+01	6.1924	3.869958	0.000201	2.005882	0.339806	0.000020
 625	6.2088e+01	6.2054	3.886252	0.000164	1.637455	0.277392	0.000016
 626	6.2188e+01	6.2136	3.905804	0.000196	1.964946	0.332871	0.000020
 627	6.2287e+01	6.2257	3.924542	0.000188	1.883073	0.319001	0.000019
 628	6.2386e+01	6.2355	3.941650	0.000172	1.719327	0.291262	0.000017
 629	6.2486e+01	6.2441	3.961203	0.000196	1.964946	0.332871	0.000020
 630	6.2586e+01	6.2569	3.977496	0.000164	1.637455	0.277392	0.000016
 631	6.2685e+01	6.2646	3.995012	0.000176	1.760264	0.298197	0.000018
 632	6.2785e+01	6.2742	4.014565	0.000196	1.964946	0.332871	0.000020
 633	6.2884e+01	6.2868	4.030044	0.000156	1.555582	0.263523	0.000016
 634	6.2983e+01	6.2926	4.051225	0.000213	2.128691	0.360610	0.000021
 635	6.3083e+01	6.3024	4.064668	0.000135	1.350900	0.228849	0.000014
 636	6.3182e+01	6.3107	4.083405	0.000188	1.883073	0.319001	0.000019
 637	6.3282e+01	6.3250	4.102143	0.000188	1.883073	0.319001	0.000019
 638	6.3382e+01	6.3320	4.118030	0.000160	1.596518	0.270458	0.000016
 639	6.3481e+01	6.3436	4.132694	0.000147	1.473709	0.249653	0.000015
 640	6.3581e+01	6.3563	4.146544	0.000139	1.391836	0.235783	0.000014
 641	6.3680e+01	6.3645	4.162023	0.000156	1.555582	0.263523	0.000016
 642	6.3779e+01	6.3711	4.176280	0.000143	1.432773	0.242718	0.000014
 643	6.3879e+01	6.3833	4.195425	0.000192	1.924009	0.325936	0.000019
 644	6.3978e+01	6.3941	4.211311	0.000160	1.596518	0.270458	0.000016
 645	6.4078e+01	6.4014	4.223531	0.000123	1.228091	0.208044	0.000012
 646	6.4177e+01	6.4141	4.244306	0.000209	2.087755	0.353675	0.000021
 647	6.4277e+01	6.4220	4.260192	0.000160	1.596518	0.270458	0.000016
 648	6.4376e+01	6.4339	4.273634	0.000135	1.350900	0.228849	0.000014
 649	6.4476e+01	6.4437	4.290335	0.000168	1.678391	0.284327	0.000017
 650	6.4576e+01	6.4510	4.303370	0.000131	1.309964	0.221914	0.000013
 651	6.4675e+01	6.4641	4.320071	0.000168	1.678391	0.284327	0.000017
 652	6.4775e+01	6.4738	4.329848	0.000098	0.982473	0.166435	0.000010
 653	6.4874e+01	6.4818	4.347363	0.000176	1.760264	0.298197	0.000018
 654	6.4974e+01	6.4933	4.363250	0.000160	1.596518	0.270458	0.000016
 655	6.5073e+01	6.5044	4.379543	0.000164	1.637455	0.277392	0.000016
 656	6.5172e+01	6.5147	4.393393	0.000139	1.391836	0.235783	0.000014
 657	6.5272e+01	6.5221	4.412946	0.000196	1.964946	0.332871	0.000020
 658	6.5371e+01	6.5333	4.429647	0.000168	1.678391	0.284327	0.000017
 659	6.5471e+01	6.5412	4.446755	0.000172	1.719327	0.291262	0.000017
 660	6.5570e+01	6.5522	4.463456	0.000168	1.678391	0.284327	0.000017
 661	6.5670e+01	6.5592	4.475676	0.000123	1.228091	0.208044	0.000012
 662	6.5769e+01	6.5734	4.494414	0.000188	1.883073	0.319001	0.000019
 663	6.5869e+01	6.5815	4.509486	0.000151	1.514645	0.256588	0.000015
 664	6.5969e+01	6.5927	4.528223	0.000188	1.883073	0.319001	0.000019
 665	6.6068e+01	6.6038	4.541666	0.000135	1.350900	0.228849	0.000014
 666	6.6168e+01	6.6109	4.559589	0.000180	1.801200	0.305132	0.000018
 667	6.6267e+01	6.6221	4.576697	0.000172	1.719327	0.291262	0.000017
 668	6.6367e+01	6.6297	4.591362	0.000147	1.473709	0.249653	0.000015
 669	6.6466e+01	6.6442	4.611729	0.000205	2.046818	0.346740	0.000020
 670	6.6566e+01	6.6518	4.628022	0.000164	1.637455	0.277392	0.000016
 671	6.6665e+01	6.6634	4.643094	0.000151	1.514645	0.256588	0.000015
 672	6.6764e+01	6.6714	4.664683	0.000217	2.169627	0.367545	0.000022
 673	6.6864e+01	6.6836	4.676496	0.000119	1.187155	0.201109	0.000012
 674	6.6963e+01	6.6917	4.695641	0.000192	1.924009	0.325936	0.000019
 675	6.7063e+01	6.6994	4.711120	0.000156	1.555582	0.263523	0.000016
 676	6.7162e+01	6.7113	4.727414	0.000164	1.637455	0.277392	0.000016
 677	6.7262e+01	6.7199	4.746559	0.000192	1.924009	0.325936	0.000019
 678	6.7362e+01	6.7326	4.764075	0.000176	1.760264	0.298197	0.000018
 679	6.7461e+01	6.7434	4.779146	0.000151	1.514645	0.256588	0.000015
 680	6.7561e+01	6.7494	4.796662	0.000176	1.760264	0.298197	0.000018
 681	6.7660e+01	6.7610	4.814585	0.000180	1.801200	0.305132	0.000018
 682	6.7760e+01	6.7718	4.829250	0.000147	1.473709	0.249653	0.000015
 683	6.7859e+01	6.7837	4.850431	0.000213	2.128691	0.360610	0.000021
 684	6.7959e+01	6.7907	4.866725	0.000164	1.637455	0.277392	0.000016
 685	6.8058e+01	6.8018	4.884648	0.000180	1.801200	0.305132	0.000018
 686	6.8157e+01	6.8104	4.901757	0.000172	1.719327	0.291262	0.000017
 687	6.8257e+01	6.8230	4.920902	0.000192	1.924009	0.325936	0.000019
 688	6.8356e+01	6.8314	4.935973	0.000151	1.514645	0.256588	0.000015
 689	6.8456e+01	6.8386	4.950638	0.000147	1.473709	0.249653	0.000015
 690	6.8555e+01	6.8493	4.966524	0.000160	1.596518	0.270458	0.000016
 691	6.8655e+01	6.8600	4.986891	0.000205	2.046818	0.346740	0.000020
 692	6.8754e+01	6.8710	5.001963	0.000151	1.514645	0.256588	0.000015
 693	6.8854e+01	6.8797	5.016627	0.000147	1.473709	0.249653	0.000015
 694	6.8954e+01	6.8908	5.032514	0.000160	1.596518	0.270458	0.000016
 695	6.9053e+01	6.9024	5.047585	0.000151	1.514645	0.256588	0.000015
 696	6.9153e+01	6.9112	5.065101	0.000176	1.760264	0.298197	0.000018
 697	6.9252e+01	6.9193	5.080580	0.000156	1.555582	0.263523	0.000016
 698	6.9352e+01	6.9302	5.094837	0.000143	1.432773	0.242718	0.000014
 699	6.9451e+01	6.9402	5.111945	0.000172	1.719327	0.291262	0.000017
 700	6.9550e+01	6.9514	5.127424	0.000156	1.555582	0.263523	0.000016
 701	6.9650e+01	6.9582	5.144940	0.000176	1.760264	0.298197	0.000018
 702	6.9749e+01	6.9695	5.160826	0.000160	1.596518	0.270458	0.000016
 703	6.9849e+01	6.9814	5.173861	0.000131	1.309964	0.221914	0.000013
 704	6.9948e+01	6.9910	5.187711	0.000139	1.391836	0.235783	0.000014
 705	7.0048e+01	6.9988	5.205227	0.000176	1.760264	0.298197	0.000018
 706	7.0147e+01	7.0107	5.220298	0.000151	1.514645	0.256588	0.000015
 707	7.0247e+01	7.0224	5.232519	0.000123	1.228091	0.208044	0.000012
 708	7.0347e+01	7.0281	5.251664	0.000192	1.924009	0.325936	0.000019
 709	7.0446e+01	7.0422	5.272031	0.000205	2.046818	0.346740	0.000020
 710	7.0546e+01	7.0509	5.286288	0.000143	1.432773	0.242718	0.000014
 711	7.0645e+01	7.0601	5.304211	0.000180	1.801200	0.305132	0.000018
 712	7.0745e+01	7.0699	5.324986	0.000209	2.087755	0.353675	0.000021
 713	7.0844e+01	7.0787	5.342909	0.000180	1.801200	0.305132	0.000018
 714	7.0944e+01	7.0886	5.360424	0.000176	1.760264	0.298197	0.000018
 715	7.1043e+01	7.1008	5.376718	0.000164	1.637455	0.277392	0.000016
 716	7.1142e+01	7.1113	5.396270	0.000196	1.964946	0.332871	0.000020
 717	7.1242e+01	7.1241	5.411749	0.000156	1.555582	0.263523	0.000016
 718	7.1341e+01	7.1297	5.431302	0.000196	1.964946	0.332871	0.000020
 719	7.1441e+01	7.1421	5.445966	0.000147	1.473709	0.249653	0.000015
 720	7.1540e+01	7.1484	5.468370	0.000225	2.251500	0.381414	0.000023
 721	7.1640e+01	7.1575	5.484256	0.000160	1.596518	0.270458	0.000016
 722	7.1740e+01	7.1688	5.505846	0.000217	2.169627	0.367545	0.000022
 723	7.1839e+01	7.1799	5.527435	0.000217	2.169627	0.367545	0.000022
 724	7.1939e+01	7.1885	5.546580	0.000192	1.924009	0.325936	0.000019
 725	7.2038e+01	7.2002	5.568169	0.000217	2.169627	0.367545	0.000022
 726	7.2138e+01	7.2100	5.588129	0.000201	2.005882	0.339806	0.000020
 727	7.2237e+01	7.2204	5.608496	0.000205	2.046818	0.346740	0.000020
 728	7.2337e+01	7.2278	5.630085	0.000217	2.169627	0.367545	0.000022
 729	7.2436e+01	7.2375	5.645157	0.000151	1.514645	0.256588	0.000015
 730	7.2535e+01	7.2485	5.666339	0.000213	2.128691	0.360610	0.000021
 731	7.2635e+01	7.2615	5.685891	0.000196	1.964946	0.332871	0.000020
 732	7.2734e+01	7.2698	5.704629	0.000188	1.883073	0.319001	0.000019
 733	7.2834e+01	7.2771	5.722144	0.000176	1.760264	0.298197	0.000018
 734	7.2933e+01	7.2904	5.749436	0.000274	2.742736	0.464632	0.000027
 735	7.3033e+01	7.2982	5.766545	0.000172	1.719327	0.291262	0.000017
 736	7.3132e+01	7.3099	5.786912	0.000205	2.046818	0.346740	0.000020
 737	7.3232e+01	7.3199	5.807686	0.000209	2.087755	0.353675	0.000021
 738	7.3332e+01	7.3295	5.826424	0.000188	1.883073	0.319001	0.000019
 739	7.3431e+01	7.3414	5.845569	0.000192	1.924009	0.325936	0.000019
 740	7.3531e+01	7.3500	5.867158	0.000217	2.169627	0.367545	0.000022
 741	7.3630e+01	7.3584	5.885489	0.000184	1.842136	0.312066	0.000018
 742	7.3730e+01	7.3704	5.903819	0.000184	1.842136	0.312066	0.000018
 743	7.3829e+01	7.3782	5.918891	0.000151	1.514645	0.256588	0.000015
 744	7.3928e+01	7.3890	5.940887	0.000221	2.210564	0.374480	0.000022
 745	7.4028e+01	7.3966	5.957588	0.000168	1.678391	0.284327	0.000017
 746	7.4127e+01	7.4065	5.972253	0.000147	1.473709	0.249653	0.000015
 747	7.4227e+01	7.4206	5.994657	0.000225	2.251500	0.381414	0.000023
 748	7.4326e+01	7.4272	6.013394	0.000188	1.883073	0.319001	0.000019
 749	7.4426e+01	7.4341	6.030503	0.000172	1.719327	0.291262	0.000017
 750	7.4525e+01	7.4477	6.049241	0.000188	1.883073	0.319001	0.000019
 751	7.4625e+01	7.4583	6.067978	0.000188	1.883073	0.319001	0.000019
 752	7.4725e+01	7.4676	6.087123	0.000192	1.924009	0.325936	0.000019
 753	7.4824e+01	7.4760	6.102195	0.000151	1.514645	0.256588	0.000015
 754	7.4924e+01	7.4889	6.119303	0.000172	1.719327	0.291262	0.000017
 755	7.5023e+01	7.4965	6.135597	0.000164	1.637455	0.277392	0.000016
 756	7.5123e+01	7.5073	6.155150	0.000196	1.964946	0.332871	0.000020
 757	7.5222e+01	7.5180	6.174295	0.000192	1.924009	0.325936	0.000019
 758	7.5322e+01	7.5278	6.191810	0.000176	1.760264	0.298197	0.000018
 759	7.5421e+01	7.5368	6.207697	0.000160	1.596518	0.270458	0.000016
 760	7.5520e+01	7.5475	6.227249	0.000196	1.964946	0.332871	0.000020
 761	7.5620e+01	7.5592	6.243950	0.000168	1.678391	0.284327	0.000017
 762	7.5719e+01	7.5668	6.261873	0.000180	1.801200	0.305132	0.000018
 763	7.5819e+01	7.5780	6.278982	0.000172	1.719327	0.291262	0.000017
 764	7.5918e+01	7.5857	6.297720	0.000188	1.883073	0.319001	0.000019
 765	7.6018e+01	7.5986	6.313199	0.000156	1.555582	0.263523	0.000016
 766	7.6118e+01	7.6052	6.329900	0.000168	1.678391	0.284327	0.000017
 767	7.6217e+01	7.6176	6.349045	0.000192	1.924009	0.325936	0.000019
 768	7.6317e+01	7.6254	6.367375	0.000184	1.842136	0.312066	0.000018
 769	7.6416e+01	7.6345	6.384483	0.000172	1.719327	0.291262	0.000017
 770	7.6516e+01	7.6469	6.399962	0.000156	1.555582	0.263523	0.000016
 771	7.6615e+01	7.6597	6.416664	0.000168	1.678391	0.284327	0.000017
 772	7.6715e+01	7.6653	6.434994	0.000184	1.842136	0.312066	0.000018
 773	7.6814e+01	7.6789	6.454546	0.000196	1.964946	0.332871	0.000020
 774	7.6913e+01	7.6873	6.473691	0.000192	1.924009	0.325936	0.000019
 775	7.7013e+01	7.6957	6.489171	0.000156	1.555582	0.263523	0.000016
 776	7.7112e+01	7.7100	6.510352	0.000213	2.128691	0.360610	0.000021
 777	7.7212e+01	7.7181	6.529497	0.000192	1.924009	0.325936	0.000019
 778	7.7311e+01	7.7259	6.545384	0.000160	1.596518	0.270458	0.000016
 779	7.7411e+01	7.7365	6.565751	0.000205	2.046818	0.346740	0.000020
 780	7.7510e+01	7.7471	6.585711	0.000201	2.005882	0.339806	0.000020
 781	7.7610e+01	7.7568	6.606078	0.000205	2.046818	0.346740	0.000020
 782	7.7710e+01	7.7660	6.620742	0.000147	1.473709	0.249653	0.000015
 783	7.7809e+01	7.7748	6.639887	0.000192	1.924009	0.325936	0.000019
 784	7.7909e+01	7.7844	6.656996	0.000172	1.719327	0.291262	0.000017
 785	7.8008e+01	7.7979	6.676955	0.000201	2.005882	0.339806	0.000020
 786	7.8108e+01	7.8072	6.694879	0.000180	1.801200	0.305132	0.000018
 787	7.8207e+01	7.8156	6.710765	0.000160	1.596518	0.270458	0.000016
 788	7.8306e+01	7.8250	6.732354	0.000217	2.169627	0.367545	0.000022
 789	7.8406e+01	7.8362	6.751906	0.000196	1.964946	0.332871	0.000020
 790	7.8505e+01	7.8458	6.766163	0.000143	1.432773	0.242718	0.000014
 791	7.8605e+01	7.8579	6.791011	0.000250	2.497118	0.423023	0.000025
 792	7.8704e+01	7.8652	6.806898	0.000160	1.596518	0.270458	0.000016
 793	7.8804e+01	7.8746	6.819525	0.000127	1.269027	0.214979	0.000013
 794	7.8903e+01	7.8872	6.840707	0.000213	2.128691	0.360610	0.000021
 795	7.9003e+01	7.8940	6.858630	0.000180	1.801200	0.305132	0.000018
 796	7.9103e+01	7.9083	6.871258	0.000127	1.269027	0.214979	0.000013
 797	7.9202e+01	7.9154	6.888366	0.000172	1.719327	0.291262	0.000017
 798	7.9302e+01	7.9249	6.905475	0.000172	1.719327	0.291262	0.000017
 799	7.9401e+01	7.9355	6.924212	0.000188	1.883073	0.319001	0.000019
 800	7.9501e+01	7.9449	6.936025	0.000119	1.187155	0.201109	0.000012
 801	7.9600e+01	7.9543	6.955170	0.000192	1.924009	0.325936	0.000019
 802	7.9700e+01	7.9658	6.971871	0.000168	1.678391	0.284327	0.000017
 803	7.9799e+01	7.9778	6.985721	0.000139	1.391836	0.235783	0.000014
 804	7.9898e+01	7.9867	7.002015	0.000164	1.637455	0.277392	0.000016
 805	7.9998e+01	7.9956	7.019531	0.000176	1.760264	0.298197	0.000018
 806	8.0097e+01	8.0078	7.034195	0.000147	1.473709	0.249653	0.000015
 807	8.0197e+01	8.0147	7.048044	0.000139	1.391836	0.235783	0.000014
 808	8.0296e+01	8.0236	7.062301	0.000143	1.432773	0.242718	0.000014
 809	8.0396e+01	8.0373	7.079003	0.000168	1.678391	0.284327	0.000017
 810	8.0496e+01	8.0469	7.091630	0.000127	1.269027	0.214979	0.000013
 811	8.0595e+01	8.0543	7.105480	0.000139	1.391836	0.235783	0.000014
 812	8.0695e+01	8.0647	7.113627	0.000082	0.818727	0.138696	0.000008
 813	8.0794e+01	8.0741	7.129106	0.000156	1.555582	0.263523	0.000016
 814	8.0894e+01	8.0849	7.147843	0.000188	1.883073	0.319001	0.000019
 815	8.0993e+01	8.0951	7.160064	0.000123	1.228091	0.208044	0.000012
 816	8.1093e+01	8.1052	7.174728	0.000147	1.473709	0.249653	0.000015
 817	8.1192e+01	8.1139	7.187763	0.000131	1.309964	0.221914	0.000013
 818	8.1291e+01	8.1270	7.201613	0.000139	1.391836	0.235783	0.000014
 819	8.1391e+01	8.1364	7.214240	0.000127	1.269027	0.214979	0.000013
 820	8.1490e+01	8.1437	7.227683	0.000135	1.350900	0.228849	0.000014
 821	8.1590e+01	8.1553	7.240718	0.000131	1.309964	0.221914	0.000013
 822	8.1689e+01	8.1655	7.257419	0.000168	1.678391	0.284327	0.000017
 823	8.1789e+01	8.1744	7.272490	0.000151	1.514645	0.256588	0.000015
 824	8.1888e+01	8.1854	7.284303	0.000119	1.187155	0.201109	0.000012
 825	8.1988e+01	8.1936	7.301412	0.000172	1.719327	0.291262	0.000017
 826	8.2088e+01	8.2061	7.315261	0.000139	1.391836	0.235783	0.000014
 827	8.2187e+01	8.2144	7.331555	0.000164	1.637455	0.277392	0.000016
 828	8.2287e+01	8.2227	7.345405	0.000139	1.391836	0.235783	0.000014
 829	8.2386e+01	8.2336	7.358847	0.000135	1.350900	0.228849	0.000014
 830	8.2486e+01	8.2458	7.376770	0.000180	1.801200	0.305132	0.000018
 831	8.2585e+01	8.2533	7.391434	0.000147	1.473709	0.249653	0.000015
 832	8.2684e+01	8.2618	7.404469	0.000131	1.309964	0.221914	0.000013
 833	8.2784e+01	8.2737	7.419541	0.000151	1.514645	0.256588	0.000015
 834	8.2883e+01	8.2854	7.435427	0.000160	1.596518	0.270458	0.000016
 835	8.2983e+01	8.2947	7.448870	0.000135	1.350900	0.228849	0.000014
 836	8.3082e+01	8.3021	7.465571	0.000168	1.678391	0.284327	0.000017
 837	8.3182e+01	8.3149	7.482679	0.000172	1.719327	0.291262	0.000017
 838	8.3281e+01	8.3228	7.498158	0.000156	1.555582	0.263523	0.000016
 839	8.3381e+01	8.3333	7.513230	0.000151	1.514645	0.256588	0.000015
 840	8.3481e+01	8.3428	7.527894	0.000147	1.473709	0.249653	0.000015
 841	8.3580e+01	8.3530	7.544188	0.000164	1.637455	0.277392	0.000016
 842	8.3680e+01	8.3635	7.558852	0.000147	1.473709	0.249653	0.000015
 843	8.3779e+01	8.3751	7.575553	0.000168	1.678391	0.284327	0.000017
 844	8.3879e+01	8.3828	7.593476	0.000180	1.801200	0.305132	0.000018
 845	8.3978e+01	8.3905	7.607733	0.000143	1.432773	0.242718	0.000014
 846	8.4078e+01	8.4044	7.622805	0.000151	1.514645	0.256588	0.000015
 847	8.4177e+01	8.4131	7.636654	0.000139	1.391836	0.235783	0.000014
 848	8.4276e+01	8.4221	7.656207	0.000196	1.964946	0.332871	0.000020
 849	8.4376e+01	8.4336	7.670464	0.000143	1.432773	0.242718	0.000014
 850	8.4475e+01	8.4436	7.688794	0.000184	1.842136	0.312066	0.000018
 851	8.4575e+01	8.4522	7.704273	0.000156	1.555582	0.263523	0.000016
 852	8.4674e+01	8.4623	7.718938	0.000147	1.473709	0.249653	0.000015
 853	8.4774e+01	8.4747	7.736453	0.000176	1.760264	0.298197	0.000018
 854	8.4874e+01	8.4832	7.753154	0.000168	1.678391	0.284327	0.000017
 855	8.4973e+01	8.4921	7.768633	0.000156	1.555582	0.263523	0.000016
 856	8.5073e+01	8.5010	7.786149	0.000176	1.760264	0.298197	0.000018
 857	8.5172e+01	8.5117	7.799999	0.000139	1.391836	0.235783	0.000014
 858	8.5272e+01	8.5221	7.815478	0.000156	1.555582	0.263523	0.000016
 859	8.5371e+01	8.5342	7.829328	0.000139	1.391836	0.235783	0.000014
 860	8.5471e+01	8.5444	7.841955	0.000127	1.269027	0.214979	0.000013
 861	8.5570e+01	8.5532	7.855397	0.000135	1.350900	0.228849	0.000014
 862	8.5669e+01	8.5624	7.869654	0.000143	1.432773	0.242718	0.000014
 863	8.5769e+01	8.5712	7.886763	0.000172	1.719327	0.291262	0.000017
 864	8.5868e+01	8.5840	7.900612	0.000139	1.391836	0.235783	0.000014
 865	8.5968e+01	8.5913	7.917314	0.000168	1.678391	0.284327	0.000017
 866	8.6067e+01	8.6026	7.929126	0.000119	1.187155	0.201109	0.000012
 867	8.6167e+01	8.6102	7.945420	0.000164	1.637455	0.277392	0.000016
 868	8.6266e+01	8.6230	7.959270	0.000139	1.391836	0.235783	0.000014
 869	8.6366e+01	8.6317	7.973527	0.000143	1.432773	0.242718	0.000014
 870	8.6466e+01	8.6431	7.987376	0.000139	1.391836	0.235783	0.000014
 871	8.6565e+01	8.6526	8.002855	0.000156	1.555582	0.263523	0.000016
 872	8.6665e+01	8.6611	8.019964	0.000172	1.719327	0.291262	0.000017
 873	8.6764e+01	8.6691	8.031777	0.000119	1.187155	0.201109	0.000012
 874	8.6864e+01	8.6823	8.046441	0.000147	1.473709	0.249653	0.000015
 875	8.6963e+01	8.6954	8.060291	0.000139	1.391836	0.235783	0.000014
 876	8.7063e+01	8.7033	8.076177	0.000160	1.596518	0.270458	0.000016
 877	8.7162e+01	8.7098	8.092471	0.000164	1.637455	0.277392	0.000016
 878	8.7261e+01	8.7216	8.109172	0.000168	1.678391	0.284327	0.000017
 879	8.7361e+01	8.7330	8.129946	0.000209	2.087755	0.353675	0.000021
 880	8.7460e+01	8.7415	8.141759	0.000119	1.187155	0.201109	0.000012
 881	8.7560e+01	8.7537	8.161719	0.000201	2.005882	0.339806	0.000020
 882	8.7659e+01	8.7601	8.175161	0.000135	1.350900	0.228849	0.000014
 883	8.7759e+01	8.7712	8.191862	0.000168	1.678391	0.284327	0.000017
 884	8.7859e+01	8.7818	8.207341	0.000156	1.555582	0.263523	0.000016
 885	8.7958e+01	8.7901	8.224857	0.000176	1.760264	0.298197	0.000018
 886	8.8058e+01	8.8003	8.243595	0.000188	1.883073	0.319001	0.000019
 887	8.8157e+01	8.8110	8.263147	0.000196	1.964946	0.332871	0.000020
 888	8.8257e+01	8.8211	8.276997	0.000139	1.391836	0.235783	0.000014
 889	8.8356e+01	8.8293	8.293291	0.000164	1.637455	0.277392	0.000016
 890	8.8456e+01	8.8379	8.314880	0.000217	2.169627	0.367545	0.000022
 891	8.8555e+01	8.8514	8.333618	0.000188	1.883073	0.319001	0.000019
 892	8.8654e+01	8.8584	8.352355	0.000188	1.883073	0.319001	0.000019
 893	8.8754e+01	8.8703	8.371500	0.000192	1.924009	0.325936	0.000019
 894	8.8853e+01	8.8809	8.391868	0.000205	2.046818	0.346740	0.000020
 895	8.8953e+01	8.8916	8.408161	0.000164	1.637455	0.277392	0.000016
 896	8.9052e+01	8.8998	8.428528	0.000205	2.046818	0.346740	0.000020
 897	8.9152e+01	8.9117	8.448081	0.000196	1.964946	0.332871	0.000020
 898	8.9251e+01	8.9179	8.466004	0.000180	1.801200	0.305132	0.000018
 899	8.9351e+01	8.9291	8.485556	0.000196	1.964946	0.332871	0.000020
 900	8.9451e+01	8.9415	8.501443	0.000160	1.596518	0.270458	0.000016
 901	8.9550e+01	8.9494	8.523847	0.000225	2.251500	0.381414	0.000023
 902	8.9650e+01	8.9588	8.544214	0.000205	2.046818	0.346740	0.000020
 903	8.9749e+01	8.9712	8.562544	0.000184	1.842136	0.312066	0.000018
 904	8.9849e+01	8.9802	8.584541	0.000221	2.210564	0.374480	0.000022
 905	8.9948e+01	8.9907	8.599612	0.000151	1.514645	0.256588	0.000015
 906	9.0047e+01	8.9994	8.619165	0.000196	1.964946	0.332871	0.000020
 907	9.0147e+01	9.0101	8.639125	0.000201	2.005882	0.339806	0.000020
 908	9.0246e+01	9.0179	8.656640	0.000176	1.760264	0.298197	0.000018
 909	9.0346e+01	9.0278	8.674156	0.000176	1.760264	0.298197	0.000018
 910	9.0445e+01	9.0393	8.692486	0.000184	1.842136	0.312066	0.000018
 911	9.0545e+01	9.0485	8.707558	0.000151	1.514645	0.256588	0.000015
 912	9.0644e+01	9.0605	8.725481	0.000180	1.801200	0.305132	0.000018
 913	9.0744e+01	9.0702	8.742590	0.000172	1.719327	0.291262	0.000017
 914	9.0844e+01	9.0771	8.761735	0.000192	1.924009	0.325936	0.000019
 915	9.0943e+01	9.0885	8.776399	0.000147	1.473709	0.249653	0.000015
 916	9.1043e+01	9.1001	8.793100	0.000168	1.678391	0.284327	0.000017
 917	9.1142e+01	9.1080	8.810208	0.000172	1.719327	0.291262	0.000017
 918	9.1242e+01	9.1175	8.828131	0.000180	1.801200	0.305132	0.000018
 919	9.1341e+01	9.1272	8.843610	0.000156	1.555582	0.263523	0.000016
 920	9.1441e+01	9.1406	8.862756	0.000192	1.924009	0.325936	0.000019
 921	9.1540e+01	9.1483	8.879864	0.000172	1.719327	0.291262	0.000017
 922	9.1639e+01	9.1602	8.895343	0.000156	1.555582	0.263523	0.000016
 923	9.1739e+01	9.1701	8.914081	0.000188	1.883073	0.319001	0.000019
 924	9.1838e+01	9.1782	8.931189	0.000172	1.719327	0.291262	0.000017
 925	9.1938e+01	9.1877	8.943409	0.000123	1.228091	0.208044	0.000012
 926	9.2037e+01	9.2007	8.963369	0.000201	2.005882	0.339806	0.000020
 927	9.2137e+01	9.2104	8.981292	0.000180	1.801200	0.305132	0.000018
 928	9.2237e+01	9.2179	8.995957	0.000147	1.473709	0.249653	0.000015
 929	9.2336e+01	9.2290	9.015102	0.000192	1.924009	0.325936	0.000019
 930	9.2436e+01	9.2358	9.030581	0.000156	1.555582	0.263523	0.000016
 931	9.2535e+01	9.2480	9.046467	0.000160	1.596518	0.270458	0.000016
 932	9.2635e+01	9.2566	9.063983	0.000176	1.760264	0.298197	0.000018
 933	9.2734e+01	9.2670	9.081906	0.000180	1.801200	0.305132	0.000018
 934	9.2834e+01	9.2795	9.096978	0.000151	1.514645	0.256588	0.000015
 935	9.2933e+01	9.2883	9.114901	0.000180	1.801200	0.305132	0.000018
 936	9.3032e+01	9.2969	9.133231	0.000184	1.842136	0.312066	0.000018
 937	9.3132e+01	9.3079	9.146673	0.000135	1.350900	0.228849	0.000014
 938	9.3231e+01	9.3166	9.162560	0.000160	1.596518	0.270458	0.000016
 939	9.3331e+01	9.3287	9.179668	0.000172	1.719327	0.291262	0.000017
 940	9.3430e+01	9.3390	9.198813	0.000192	1.924009	0.325936	0.000019
 941	9.3530e+01	9.3478	9.212663	0.000139	1.391836	0.235783	0.000014
 942	9.3629e+01	9.3592	9.232215	0.000196	1.964946	0.332871	0.000020
 943	9.3729e+01	9.3662	9.250953	0.000188	1.883073	0.319001	0.000019
 944	9.3829e+01	9.3784	9.270505	0.000196	1.964946	0.332871	0.000020
 945	9.3928e+01	9.3866	9.288836	0.000184	1.842136	0.312066	0.000018
 946	9.4028e+01	9.3971	9.303908	0.000151	1.514645	0.256588	0.000015
 947	9.4127e+01	9.4077	9.323867	0.000201	2.005882	0.339806	0.000020
 948	9.4227e+01	9.4193	9.338939	0.000151	1.514645	0.256588	0.000015
 949	9.4326e+01	9.4273	9.358899	0.000201	2.005882	0.339806	0.000020
 950	9.4425e+01	9.4369	9.376822	0.000180	1.801200	0.305132	0.000018
 951	9.4525e+01	9.4458	9.392301	0.000156	1.555582	0.263523	0.000016
 952	9.4624e+01	9.4542	9.413483	0.000213	2.128691	0.360610	0.000021
 953	9.4724e+01	9.4678	9.430998	0.000176	1.760264	0.298197	0.000018
 954	9.4823e+01	9.4763	9.444848	0.000139	1.391836	0.235783	0.000014
 955	9.4923e+01	9.4861	9.465215	0.000205	2.046818	0.346740	0.000020
 956	9.5022e+01	9.4987	9.485175	0.000201	2.005882	0.339806	0.000020
 957	9.5122e+01	9.5068	9.502283	0.000172	1.719327	0.291262	0.000017
 958	9.5222e+01	9.5171	9.521836	0.000196	1.964946	0.332871	0.000020
 959	9.5321e+01	9.5273	9.537315	0.000156	1.555582	0.263523	0.000016
 960	9.5421e+01	9.5361	9.554831	0.000176	1.760264	0.298197	0.000018
 961	9.5520e+01	9.5479	9.571124	0.000164	1.637455	0.277392	0.000016
 962	9.5620e+01	9.5557	9.586196	0.000151	1.514645	0.256588	0.000015
 963	9.5719e+01	9.5671	9.603712	0.000176	1.760264	0.298197	0.000018
 964	9.5819e+01	9.5744	9.617154	0.000135	1.350900	0.228849	0.000014
 965	9.5918e+01	9.5868	9.633448	0.000164	1.637455	0.277392	0.000016
 966	9.6017e+01	9.5975	9.651778	0.000184	1.842136	0.312066	0.000018
 967	9.6117e+01	9.6103	9.670109	0.000184	1.842136	0.312066	0.000018
 968	9.6216e+01	9.6161	9.681921	0.000119	1.187155	0.201109	0.000012
 969	9.6316e+01	9.6252	9.698622	0.000168	1.678391	0.284327	0.000017
 970	9.6415e+01	9.6357	9.712879	0.000143	1.432773	0.242718	0.000014
 971	9.6515e+01	9.6455	9.733247	0.000205	2.046818	0.346740	0.000020
 972	9.6615e+01	9.6562	9.745467	0.000123	1.228091	0.208044	0.000012
 973	9.6714e+01	9.6671	9.757687	0.000123	1.228091	0.208044	0.000012
 974	9.6814e+01	9.6745	9.775203	0.000176	1.760264	0.298197	0.000018
 975	9.6913e+01	9.6890	9.784979	0.000098	0.982473	0.166435	0.000010
 976	9.7013e+01	9.6948	9.800051	0.000151	1.514645	0.256588	0.000015
 977	9.7112e+01	9.7046	9.813493	0.000135	1.350900	0.228849	0.000014
 978	9.7212e+01	9.7137	9.826528	0.000131	1.309964	0.221914	0.000013
 979	9.7311e+01	9.7256	9.840378	0.000139	1.391836	0.235783	0.000014
 980	9.7410e+01	9.7350	9.854227	0.000139	1.391836	0.235783	0.000014
 981	9.7510e+01	9.7473	9.868484	0.000143	1.432773	0.242718	0.000014
 982	9.7609e+01	9.7542	9.884778	0.000164	1.637455	0.277392	0.000016
 983	9.7709e+01	9.7671	9.895776	0.000111	1.105282	0.187240	0.000011
 984	9.7808e+01	9.7745	9.910848	0.000151	1.514645	0.256588	0.000015
 985	9.7908e+01	9.7900	9.926327	0.000156	1.555582	0.263523	0.000016
 986	9.8007e+01	9.7937	9.937733	0.000115	1.146218	0.194175	0.000011
 987	9.8107e+01	9.8049	9.947509	0.000098	0.982473	0.166435	0.000010
 988	9.8207e+01	9.8166	9.961766	0.000143	1.432773	0.242718	0.000014
 989	9.8306e+01	9.8242	9.975615	0.000139	1.391836	0.235783	0.000014
 990	9.8406e+01	9.8309	9.992724	0.000172	1.719327	0.291262	0.000017
 991	9.8505e+01	9.8450	10.002907	0.000102	1.023409	0.173370	0.000010
 992	9.8605e+01	9.8550	10.017979	0.000151	1.514645	0.256588	0.000015
 993	9.8704e+01	9.8639	10.033865	0.000160	1.596518	0.270458	0.000016
 994	9.8803e+01	9.8736	10.050159	0.000164	1.637455	0.277392	0.000016
 995	9.8903e+01	9.8845	10.066453	0.000164	1.637455	0.277392	0.000016
 996	9.9002e+01	9.8927	10.079895	0.000135	1.350900	0.228849	0.000014
 997	9.9102e+01	9.9038	10.094967	0.000151	1.514645	0.256588	0.000015
 998	9.9201e+01	9.9149	10.108002	0.000131	1.309964	0.221914	0.000013
 999	9.9301e+01	9.9249	10.123481	0.000156	1.555582	0.263523	0.000016
1000	9.9400e+01	9.9359	10.137330	0.000139	1.391836	0.235783	0.000014
1001	9.9500e+01	9.9426	10.153624	0.000164	1.637455	0.277392	0.000016
1002	9.9600e+01	9.9533	10.166659	0.000131	1.309964	0.221914	0.000013
1003	9.9699e+01	9.9646	10.184989	0.000184	1.842136	0.312066	0.000018
1004	9.9799e+01	9.9734	10.198839	0.000139	1.391836	0.235783	0.000014
1005	9.9898e+01	9.9838	10.214725	0.000160	1.596518	0.270458	0.000016
1006	9.9998e+01	9.9953	10.231834	0.000172	1.719327	0.291262	0.000017
1007	1.0010e+02	9.9854	10.220021	0.000119	1.187155	0.201109	-0.000012
1008	1.0020e+02	9.9725	10.209023	0.000111	1.105282	0.187240	-0.000011
1009	1.0030e+02	9.9653	10.199654	0.000094	0.941536	0.159501	-0.000009
1010	1.0040e+02	9.9542	10.185397	0.000143	1.432773	0.242718	-0.000014
1011	1.0050e+02	9.9445	10.172769	0.000127	1.269027	0.214979	-0.000013
1012	1.0059e+02	9.9365	10.158920	0.000139	1.391836	0.235783	-0.000014
1013	1.0069e+02	9.9274	10.149551	0.000094	0.941536	0.159501	-0.000009
1014	1.0079e+02	9.9139	10.136923	0.000127	1.269027	0.214979	-0.000013
1015	1.0089e+02	9.9037	10.124295	0.000127	1.269027	0.214979	-0.000013
1016	1.0099e+02	9.8938	10.110853	0.000135	1.350900	0.228849	-0.000014
1017	1.0109e+02	9.8817	10.101892	0.000090	0.900600	0.152566	-0.000009
1018	1.0119e+02	9.8734	10.088449	0.000135	1.350900	0.228849	-0.000014
1019	1.0129e+02	9.8627	10.077858	0.000106	1.064345	0.180305	-0.000011
1020	1.0139e+02	9.8538	10.068490	0.000094	0.941536	0.159501	-0.000009
1021	1.0149e+02	9.8444	10.055455	0.000131	1.309964	0.221914	-0.000013
1022	1.0159e+02	9.8355	10.042827	0.000127	1.269027	0.214979	-0.000013
1023	1.0169e+02	9.8264	10.028163	0.000147	1.473709	0.249653	-0.000015
1024	1.0179e+02	9.8145	10.018386	0.000098	0.982473	0.166435	-0.000010
1025	1.0189e+02	9.8053	10.003315	0.000151	1.514645	0.256588	-0.000015
1026	1.0199e+02	9.7943	9.994761	0.000086	0.859664	0.145631	-0.000009
1027	1.0209e+02	9.7876	9.976837	0.000180	1.801200	0.305132	-0.000018
1028	1.0219e+02	9.7754	9.965025	0.000119	1.187155	0.201109	-0.000012
1029	1.0229e+02	9.7656	9.954841	0.000102	1.023409	0.173370	-0.000010
1030	1.0239e+02	9.7540	9.939362	0.000156	1.555582	0.263523	-0.000016
1031	1.0248e+02	9.7451	9.922661	0.000168	1.678391	0.284327	-0.000017
1032	1.0258e+02	9.7363	9.912477	0.000102	1.023409	0.173370	-0.000010
1033	1.0268e+02	9.7258	9.893740	0.000188	1.883073	0.319001	-0.000019
1034	1.0278e+02	9.7152	9.880297	0.000135	1.350900	0.228849	-0.000014
1035	1.0288e+02	9.7052	9.870928	0.000094	0.941536	0.159501	-0.000009
1036	1.0298e+02	9.6933	9.852191	0.000188	1.883073	0.319001	-0.000019
1037	1.0308e+02	9.6863	9.835897	0.000164	1.637455	0.277392	-0.000016
1038	1.0318e+02	9.6748	9.823677	0.000123	1.228091	0.208044	-0.000012
1039	1.0328e+02	9.6656	9.807383	0.000164	1.637455	0.277392	-0.000016
1040	1.0338e+02	9.6533	9.796792	0.000106	1.064345	0.180305	-0.000011
1041	1.0348e+02	9.6451	9.782535	0.000143	1.432773	0.242718	-0.000014
1042	1.0358e+02	9.6352	9.767871	0.000147	1.473709	0.249653	-0.000015
1043	1.0368e+02	9.6253	9.754836	0.000131	1.309964	0.221914	-0.000013
1044	1.0378e+02	9.6182	9.743838	0.000111	1.105282	0.187240	-0.000011
1045	1.0388e+02	9.6078	9.730395	0.000135	1.350900	0.228849	-0.000014
1046	1.0398e+02	9.5985	9.714509	0.000160	1.596518	0.270458	-0.000016
1047	1.0408e+02	9.5853	9.705140	0.000094	0.941536	0.159501	-0.000009
1048	1.0418e+02	9.5741	9.692920	0.000123	1.228091	0.208044	-0.000012
1049	1.0428e+02	9.5654	9.679070	0.000139	1.391836	0.235783	-0.000014
1050	1.0438e+02	9.5557	9.667257	0.000119	1.187155	0.201109	-0.000012
1051	1.0447e+02	9.5474	9.651778	0.000156	1.555582	0.263523	-0.000016
1052	1.0457e+02	9.5368	9.644039	0.000078	0.777791	0.131761	-0.000008
1053	1.0467e+02	9.5280	9.629374	0.000147	1.473709	0.249653	-0.000015
1054	1.0477e+02	9.5152	9.619191	0.000102	1.023409	0.173370	-0.000010
1055	1.0487e+02	9.5058	9.606156	0.000131	1.309964	0.221914	-0.000013
1056	1.0497e+02	9.4971	9.593935	0.000123	1.228091	0.208044	-0.000012
1057	1.0507e+02	9.4849	9.587825	0.000061	0.614045	0.104022	-0.000006
1058	1.0517e+02	9.4763	9.578864	0.000090	0.900600	0.152566	-0.000009
1059	1.0527e+02	9.4678	9.566236	0.000127	1.269027	0.214979	-0.000013
1060	1.0537e+02	9.4580	9.556053	0.000102	1.023409	0.173370	-0.000010
1061	1.0547e+02	9.4464	9.547091	0.000090	0.900600	0.152566	-0.000009
1062	1.0557e+02	9.4373	9.536500	0.000106	1.064345	0.180305	-0.000011
1063	1.0567e+02	9.4273	9.527131	0.000094	0.941536	0.159501	-0.000009
1064	1.0577e+02	9.4189	9.515318	0.000119	1.187155	0.201109	-0.000012
1065	1.0587e+02	9.4086	9.504727	0.000106	1.064345	0.180305	-0.000011
1066	1.0597e+02	9.3946	9.493322	0.000115	1.146218	0.194175	-0.000011
1067	1.0607e+02	9.3878	9.482731	0.000106	1.064345	0.180305	-0.000011
1068	1.0617e+02	9.3790	9.470918	0.000119	1.187155	0.201109	-0.000012
1069	1.0627e+02	9.3681	9.462771	0.000082	0.818727	0.138696	-0.000008
1070	1.0637e+02	9.3592	9.449736	0.000131	1.309964	0.221914	-0.000013
1071	1.0647e+02	9.3497	9.443626	0.000061	0.614045	0.104022	-0.000006
1072	1.0656e+02	9.3399	9.434665	0.000090	0.900600	0.152566	-0.000009
1073	1.0666e+02	9.3296	9.424888	0.000098	0.982473	0.166435	-0.000010
1074	1.0676e+02	9.3188	9.413483	0.000115	1.146218	0.194175	-0.000011
1075	1.0686e+02	9.3070	9.401262	0.000123	1.228091	0.208044	-0.000012
1076	1.0696e+02	9.2973	9.387413	0.000139	1.391836	0.235783	-0.000014
1077	1.0706e+02	9.2876	9.376415	0.000111	1.105282	0.187240	-0.000011
1078	1.0716e+02	9.2773	9.362972	0.000135	1.350900	0.228849	-0.000014
1079	1.0726e+02	9.2683	9.348715	0.000143	1.432773	0.242718	-0.000014
1080	1.0736e+02	9.2560	9.340161	0.000086	0.859664	0.145631	-0.000009
1081	1.0746e+02	9.2487	9.327533	0.000127	1.269027	0.214979	-0.000013
1082	1.0756e+02	9.2375	9.316943	0.000106	1.064345	0.180305	-0.000011
1083	1.0766e+02	9.2299	9.303908	0.000131	1.309964	0.221914	-0.000013
1084	1.0776e+02	9.2181	9.289243	0.000147	1.473709	0.249653	-0.000015
1085	1.0786e+02	9.2090	9.274579	0.000147	1.473709	0.249653	-0.000015
1086	1.0796e+02	9.1973	9.265617	0.000090	0.900600	0.152566	-0.000009
1087	1.0806e+02	9.1891	9.254619	0.000111	1.105282	0.187240	-0.000011
1088	1.0816e+02	9.1779	9.241991	0.000127	1.269027	0.214979	-0.000013
1089	1.0826e+02	9.1667	9.226512	0.000156	1.555582	0.263523	-0.000016
1090	1.0836e+02	9.1608	9.210626	0.000160	1.596518	0.270458	-0.000016
1091	1.0845e+02	9.1509	9.200850	0.000098	0.982473	0.166435	-0.000010
1092	1.0855e+02	9.1392	9.184556	0.000164	1.637455	0.277392	-0.000016
1093	1.0865e+02	9.1300	9.176002	0.000086	0.859664	0.145631	-0.000009
1094	1.0875e+02	9.1174	9.163782	0.000123	1.228091	0.208044	-0.000012
1095	1.0885e+02	9.1089	9.151154	0.000127	1.269027	0.214979	-0.000013
1096	1.0895e+02	9.1000	9.136082	0.000151	1.514645	0.256588	-0.000015
1097	1.0905e+02	9.0903	9.123455	0.000127	1.269027	0.214979	-0.000013
1098	1.0915e+02	9.0785	9.111235	0.000123	1.228091	0.208044	-0.000012
1099	1.0925e+02	9.0720	9.099829	0.000115	1.146218	0.194175	-0.000011
1100	1.0935e+02	9.0613	9.083535	0.000164	1.637455	0.277392	-0.000016
1101	1.0945e+02	9.0473	9.070500	0.000131	1.309964	0.221914	-0.000013
1102	1.0955e+02	9.0396	9.061946	0.000086	0.859664	0.145631	-0.000009
1103	1.0965e+02	9.0321	9.044838	0.000172	1.719327	0.291262	-0.000017
1104	1.0975e+02	9.0186	9.034247	0.000106	1.064345	0.180305	-0.000011
1105	1.0985e+02	9.0088	9.020397	0.000139	1.391836	0.235783	-0.000014
1106	1.0995e+02	8.9990	9.006547	0.000139	1.391836	0.235783	-0.000014
1107	1.1005e+02	8.9897	8.992290	0.000143	1.432773	0.242718	-0.000014
1108	1.1015e+02	8.9801	8.979663	0.000127	1.269027	0.214979	-0.000013
1109	1.1025e+02	8.9683	8.966628	0.000131	1.309964	0.221914	-0.000013
1110	1.1035e+02	8.9600	8.954000	0.000127	1.269027	0.214979	-0.000013
1111	1.1044e+02	8.9490	8.940558	0.000135	1.350900	0.228849	-0.000014
1112	1.1054e+02	8.9386	8.931189	0.000094	0.941536	0.159501	-0.000009
1113	1.1064e+02	8.9285	8.917339	0.000139	1.391836	0.235783	-0.000014
1114	1.1074e+02	8.9209	8.907971	0.000094	0.941536	0.159501	-0.000009
1115	1.1084e+02	8.9107	8.894121	0.000139	1.391836	0.235783	-0.000014
1116	1.1094e+02	8.8999	8.883530	0.000106	1.064345	0.180305	-0.000011
1117	1.1104e+02	8.8895	8.868458	0.000151	1.514645	0.256588	-0.000015
1118	1.1114e+02	8.8806	8.856238	0.000123	1.228091	0.208044	-0.000012
1119	1.1124e+02	8.8690	8.843203	0.000131	1.309964	0.221914	-0.000013
1120	1.1134e+02	8.8599	8.831390	0.000119	1.187155	0.201109	-0.000012
1121	1.1144e+02	8.8503	8.819577	0.000119	1.187155	0.201109	-0.000012
1122	1.1154e+02	8.8403	8.805728	0.000139	1.391836	0.235783	-0.000014
1123	1.1164e+02	8.8315	8.798395	0.000074	0.736855	0.124827	-0.000007
1124	1.1174e+02	8.8214	8.784953	0.000135	1.350900	0.228849	-0.000014
1125	1.1184e+02	8.8098	8.769881	0.000151	1.514645	0.256588	-0.000015
1126	1.1194e+02	8.8010	8.762142	0.000078	0.777791	0.131761	-0.000008
1127	1.1204e+02	8.7923	8.748700	0.000135	1.350900	0.228849	-0.000014
1128	1.1214e+02	8.7814	8.737701	0.000111	1.105282	0.187240	-0.000011
1129	1.1224e+02	8.7711	8.718964	0.000188	1.883073	0.319001	-0.000019
1130	1.1234e+02	8.7605	8.703077	0.000160	1.596518	0.270458	-0.000016
1131	1.1244e+02	8.7519	8.690450	0.000127	1.269027	0.214979	-0.000013
1132	1.1253e+02	8.7430	8.676193	0.000143	1.432773	0.242718	-0.000014
1133	1.1263e+02	8.7316	8.663158	0.000131	1.309964	0.221914	-0.000013
1134	1.1273e+02	8.7222	8.649715	0.000135	1.350900	0.228849	-0.000014
1135	1.1283e+02	8.7092	8.633829	0.000160	1.596518	0.270458	-0.000016
1136	1.1293e+02	8.7041	8.621201	0.000127	1.269027	0.214979	-0.000013
1137	1.1303e+02	8.6938	8.602056	0.000192	1.924009	0.325936	-0.000019
1138	1.1313e+02	8.6808	8.590243	0.000119	1.187155	0.201109	-0.000012
1139	1.1323e+02	8.6707	8.575986	0.000143	1.432773	0.242718	-0.000014
1140	1.1333e+02	8.6637	8.561322	0.000147	1.473709	0.249653	-0.000015
1141	1.1343e+02	8.6531	8.546658	0.000147	1.473709	0.249653	-0.000015
1142	1.1353e+02	8.6414	8.527513	0.000192	1.924009	0.325936	-0.000019
1143	1.1363e+02	8.6344	8.510404	0.000172	1.719327	0.291262	-0.000017
1144	1.1373e+02	8.6197	8.491259	0.000192	1.924009	0.325936	-0.000019
1145	1.1383e+02	8.6124	8.476595	0.000147	1.473709	0.249653	-0.000015
1146	1.1393e+02	8.6035	8.458672	0.000180	1.801200	0.305132	-0.000018
1147	1.1403e+02	8.5924	8.441156	0.000176	1.760264	0.298197	-0.000018
1148	1.1413e+02	8.5807	8.426899	0.000143	1.432773	0.242718	-0.000014
1149	1.1423e+02	8.5708	8.408976	0.000180	1.801200	0.305132	-0.000018
1150	1.1433e+02	8.5622	8.393090	0.000160	1.596518	0.270458	-0.000016
1151	1.1442e+02	8.5522	8.375574	0.000176	1.760264	0.298197	-0.000018
1152	1.1452e+02	8.5435	8.361724	0.000139	1.391836	0.235783	-0.000014
1153	1.1462e+02	8.5303	8.345023	0.000168	1.678391	0.284327	-0.000017
1154	1.1472e+02	8.5210	8.323027	0.000221	2.210564	0.374480	-0.000022
1155	1.1482e+02	8.5114	8.303474	0.000196	1.964946	0.332871	-0.000020
1156	1.1492e+02	8.5022	8.290032	0.000135	1.350900	0.228849	-0.000014
1157	1.1502e+02	8.4930	8.269665	0.000205	2.046818	0.346740	-0.000020
1158	1.1512e+02	8.4825	8.252964	0.000168	1.678391	0.284327	-0.000017
1159	1.1522e+02	8.4759	8.239521	0.000135	1.350900	0.228849	-0.000014
1160	1.1532e+02	8.4628	8.222820	0.000168	1.678391	0.284327	-0.000017
1161	1.1542e+02	8.4525	8.205712	0.000172	1.719327	0.291262	-0.000017
1162	1.1552e+02	8.4448	8.193899	0.000119	1.187155	0.201109	-0.000012
1163	1.1562e+02	8.4354	8.175976	0.000180	1.801200	0.305132	-0.000018
1164	1.1572e+02	8.4245	8.157646	0.000184	1.842136	0.312066	-0.000018
1165	1.1582e+02	8.4131	8.144611	0.000131	1.309964	0.221914	-0.000013
1166	1.1592e+02	8.4034	8.127095	0.000176	1.760264	0.298197	-0.000018
1167	1.1602e+02	8.3911	8.109579	0.000176	1.760264	0.298197	-0.000018
1168	1.1612e+02	8.3838	8.091656	0.000180	1.801200	0.305132	-0.000018
1169	1.1622e+02	8.3730	8.077806	0.000139	1.391836	0.235783	-0.000014
1170	1.1632e+02	8.3630	8.061513	0.000164	1.637455	0.277392	-0.000016
1171	1.1642e+02	8.3545	8.043182	0.000184	1.842136	0.312066	-0.000018
1172	1.1651e+02	8.3405	8.031369	0.000119	1.187155	0.201109	-0.000012
1173	1.1661e+02	8.3313	8.017927	0.000135	1.350900	0.228849	-0.000014
1174	1.1671e+02	8.3249	8.003263	0.000147	1.473709	0.249653	-0.000015
1175	1.1681e+02	8.3148	7.987784	0.000156	1.555582	0.263523	-0.000016
1176	1.1691e+02	8.3021	7.968639	0.000192	1.924009	0.325936	-0.000019
1177	1.1701e+02	8.2939	7.954789	0.000139	1.391836	0.235783	-0.000014
1178	1.1711e+02	8.2825	7.938495	0.000164	1.637455	0.277392	-0.000016
1179	1.1721e+02	8.2744	7.921794	0.000168	1.678391	0.284327	-0.000017
1180	1.1731e+02	8.2632	7.905093	0.000168	1.678391	0.284327	-0.000017
1181	1.1741e+02	8.2533	7.894910	0.000102	1.023409	0.173370	-0.000010
1182	1.1751e+02	8.2436	7.874950	0.000201	2.005882	0.339806	-0.000020
1183	1.1761e+02	8.2336	7.864359	0.000106	1.064345	0.180305	-0.000011
1184	1.1771e+02	8.2241	7.846436	0.000180	1.801200	0.305132	-0.000018
1185	1.1781e+02	8.2131	7.833401	0.000131	1.309964	0.221914	-0.000013
1186	1.1791e+02	8.2041	7.817107	0.000164	1.637455	0.277392	-0.000016
1187	1.1801e+02	8.1951	7.800814	0.000164	1.637455	0.277392	-0.000016
1188	1.1811e+02	8.1857	7.786149	0.000147	1.473709	0.249653	-0.000015
1189	1.1821e+02	8.1717	7.770670	0.000156	1.555582	0.263523	-0.000016
1190	1.1831e+02	8.1643	7.756006	0.000147	1.473709	0.249653	-0.000015
1191	1.1841e+02	8.1555	7.740527	0.000156	1.555582	0.263523	-0.000016
1192	1.1850e+02	8.1433	7.725455	0.000151	1.514645	0.256588	-0.000015
1193	1.1860e+02	8.1359	7.710383	0.000151	1.514645	0.256588	-0.000015
1194	1.1870e+02	8.1253	7.696126	0.000143	1.432773	0.242718	-0.000014
1195	1.1880e+02	8.1155	7.673315	0.000229	2.292436	0.388349	-0.000023
1196	1.1890e+02	8.1042	7.657836	0.000156	1.555582	0.263523	-0.000016
1197	1.1900e+02	8.0921	7.642765	0.000151	1.514645	0.256588	-0.000015
1198	1.1910e+02	8.0832	7.624434	0.000184	1.842136	0.312066	-0.000018
1199	1.1920e+02	8.0737	7.611399	0.000131	1.309964	0.221914	-0.000013
1200	1.1930e+02	8.0649	7.589810	0.000217	2.169627	0.367545	-0.000022
1201	1.1940e+02	8.0553	7.576368	0.000135	1.350900	0.228849	-0.000014
1202	1.1950e+02	8.0433	7.558852	0.000176	1.760264	0.298197	-0.000018
1203	1.1960e+02	8.0356	7.541336	0.000176	1.760264	0.298197	-0.000018
1204	1.1970e+02	8.0238	7.529116	0.000123	1.228091	0.208044	-0.000012
1205	1.1980e+02	8.0127	7.512415	0.000168	1.678391	0.284327	-0.000017
1206	1.1990e+02	8.0047	7.490419	0.000221	2.210564	0.374480	-0.000022
1207	1.2000e+02	7.9947	7.473310	0.000172	1.719327	0.291262	-0.000017
1208	1.2010e+02	7.9865	7.454572	0.000188	1.883073	0.319001	-0.000019
1209	1.2020e+02	7.9785	7.441945	0.000127	1.269027	0.214979	-0.000013
1210	1.2030e+02	7.9623	7.424429	0.000176	1.760264	0.298197	-0.000018
1211	1.2039e+02	7.9543	7.406913	0.000176	1.760264	0.298197	-0.000018
1212	1.2049e+02	7.9445	7.393064	0.000139	1.391836	0.235783	-0.000014
1213	1.2059e+02	7.9340	7.375955	0.000172	1.719327	0.291262	-0.000017
1214	1.2069e+02	7.9258	7.364957	0.000111	1.105282	0.187240	-0.000011
1215	1.2079e+02	7.9165	7.350293	0.000147	1.473709	0.249653	-0.000015
1216	1.2089e+02	7.9081	7.335221	0.000151	1.514645	0.256588	-0.000015
1217	1.2099e+02	7.8961	7.322593	0.000127	1.269027	0.214979	-0.000013
1218	1.2109e+02	7.8882	7.305485	0.000172	1.719327	0.291262	-0.000017
1219	1.2119e+02	7.8747	7.289191	0.000164	1.637455	0.277392	-0.000016
1220	1.2129e+02	7.8653	7.275342	0.000139	1.391836	0.235783	-0.000014
1221	1.2139e+02	7.8540	7.258641	0.000168	1.678391	0.284327	-0.000017
1222	1.2149e+02	7.8446	7.246420	0.000123	1.228091	0.208044	-0.000012
1223	1.2159e+02	7.8348	7.230941	0.000156	1.555582	0.263523	-0.000016
1224	1.2169e+02	7.8254	7.217499	0.000135	1.350900	0.228849	-0.000014
1225	1.2179e+02	7.8195	7.207723	0.000098	0.982473	0.166435	-0.000010
1226	1.2189e+02	7.8067	7.199169	0.000086	0.859664	0.145631	-0.000009
1227	1.2199e+02	7.7950	7.186541	0.000127	1.269027	0.214979	-0.000013
1228	1.2209e+02	7.7881	7.171877	0.000147	1.473709	0.249653	-0.000015
1229	1.2219e+02	7.7767	7.160471	0.000115	1.146218	0.194175	-0.000011
1230	1.2229e+02	7.7673	7.148251	0.000123	1.228091	0.208044	-0.000012
1231	1.2239e+02	7.7567	7.133179	0.000151	1.514645	0.256588	-0.000015
1232	1.2248e+02	7.7459	7.121773	0.000115	1.146218	0.194175	-0.000011
1233	1.2258e+02	7.7357	7.108331	0.000135	1.350900	0.228849	-0.000014
1234	1.2268e+02	7.7274	7.092445	0.000160	1.596518	0.270458	-0.000016
1235	1.2278e+02	7.7179	7.082261	0.000102	1.023409	0.173370	-0.000010
1236	1.2288e+02	7.7051	7.069634	0.000127	1.269027	0.214979	-0.000013
1237	1.2298e+02	7.6980	7.059043	0.000106	1.064345	0.180305	-0.000011
1238	1.2308e+02	7.6880	7.044378	0.000147	1.473709	0.249653	-0.000015
1239	1.2318e+02	7.6785	7.034195	0.000102	1.023409	0.173370	-0.000010
1240	1.2328e+02	7.6644	7.022789	0.000115	1.146218	0.194175	-0.000011
1241	1.2338e+02	7.6586	7.013828	0.000090	0.900600	0.152566	-0.000009
1242	1.2348e+02	7.6471	6.993461	0.000205	2.046818	0.346740	-0.000020
1243	1.2358e+02	7.6350	6.982870	0.000106	1.064345	0.180305	-0.000011
1244	1.2368e+02	7.6272	6.964539	0.000184	1.842136	0.312066	-0.000018
1245	1.2378e+02	7.6178	6.952319	0.000123	1.228091	0.208044	-0.000012
1246	1.2388e+02	7.6055	6.939284	0.000131	1.309964	0.221914	-0.000013
1247	1.2398e+02	7.5970	6.924212	0.000151	1.514645	0.256588	-0.000015
1248	1.2408e+02	7.5880	6.908733	0.000156	1.555582	0.263523	-0.000016
1249	1.2418e+02	7.5763	6.898142	0.000106	1.064345	0.180305	-0.000011
1250	1.2428e+02	7.5659	6.878997	0.000192	1.924009	0.325936	-0.000019
1251	1.2438e+02	7.5552	6.866777	0.000123	1.228091	0.208044	-0.000012
1252	1.2447e+02	7.5473	6.848854	0.000180	1.801200	0.305132	-0.000018
1253	1.2457e+02	7.5371	6.838263	0.000106	1.064345	0.180305	-0.000011
1254	1.2467e+02	7.5282	6.822377	0.000160	1.596518	0.270458	-0.000016
1255	1.2477e+02	7.5196	6.807712	0.000147	1.473709	0.249653	-0.000015
1256	1.2487e+02	7.5085	6.791826	0.000160	1.596518	0.270458	-0.000016
1257	1.2497e+02	7.5000	6.778791	0.000131	1.309964	0.221914	-0.000013
1258	1.2507e+02	7.4882	6.762905	0.000160	1.596518	0.270458	-0.000016
1259	1.2517e+02	7.4770	6.748648	0.000143	1.432773	0.242718	-0.000014
1260	1.2527e+02	7.4737	6.735205	0.000135	1.350900	0.228849	-0.000014
1261	1.2537e+02	7.4574	6.718097	0.000172	1.719327	0.291262	-0.000017
1262	1.2547e+02	7.4468	6.706284	0.000119	1.187155	0.201109	-0.000012
1263	1.2557e+02	7.4365	6.689176	0.000172	1.719327	0.291262	-0.000017
1264	1.2567e+02	7.4290	6.672882	0.000164	1.637455	0.277392	-0.000016
1265	1.2577e+02	7.4160	6.659440	0.000135	1.350900	0.228849	-0.000014
1266	1.2587e+02	7.4062	6.645997	0.000135	1.350900	0.228849	-0.000014
1267	1.2597e+02	7.3984	6.628889	0.000172	1.719327	0.291262	-0.000017
1268	1.2607e+02	7.3877	6.613817	0.000151	1.514645	0.256588	-0.000015
1269	1.2617e+02	7.3776	6.601190	0.000127	1.269027	0.214979	-0.000013
1270	1.2627e+02	7.3687	6.582452	0.000188	1.883073	0.319001	-0.000019
1271	1.2636e+02	7.3573	6.567380	0.000151	1.514645	0.256588	-0.000015
1272	1.2646e+02	7.3488	6.553123	0.000143	1.432773	0.242718	-0.000014
1273	1.2656e+02	7.3377	6.537644	0.000156	1.555582	0.263523	-0.000016
1274	1.2666e+02	7.3309	6.518907	0.000188	1.883073	0.319001	-0.000019
1275	1.2676e+02	7.3180	6.506279	0.000127	1.269027	0.214979	-0.000013
1276	1.2686e+02	7.3107	6.494059	0.000123	1.228091	0.208044	-0.000012
1277	1.2696e+02	7.2980	6.476950	0.000172	1.719327	0.291262	-0.000017
1278	1.2706e+02	7.2884	6.465137	0.000119	1.187155	0.201109	-0.000012
1279	1.2716e+02	7.2771	6.450473	0.000147	1.473709	0.249653	-0.000015
1280	1.2726e+02	7.2683	6.434994	0.000156	1.555582	0.263523	-0.000016
1281	1.2736e+02	7.2590	6.424810	0.000102	1.023409	0.173370	-0.000010
1282	1.2746e+02	7.2488	6.408517	0.000164	1.637455	0.277392	-0.000016
1283	1.2756e+02	7.2371	6.391001	0.000176	1.760264	0.298197	-0.000018
1284	1.2766e+02	7.2290	6.377966	0.000131	1.309964	0.221914	-0.000013
1285	1.2776e+02	7.2205	6.365338	0.000127	1.269027	0.214979	-0.000013
1286	1.2786e+02	7.2076	6.349452	0.000160	1.596518	0.270458	-0.000016
1287	1.2796e+02	7.1980	6.336417	0.000131	1.309964	0.221914	-0.000013
1288	1.2806e+02	7.1905	6.321753	0.000147	1.473709	0.249653	-0.000015
1289	1.2816e+02	7.1798	6.305459	0.000164	1.637455	0.277392	-0.000016
1290	1.2826e+02	7.1712	6.292424	0.000131	1.309964	0.221914	-0.000013
1291	1.2835e+02	7.1616	6.283463	0.000090	0.900600	0.152566	-0.000009
1292	1.2845e+02	7.1496	6.265132	0.000184	1.842136	0.312066	-0.000018
1293	1.2855e+02	7.1400	6.254949	0.000102	1.023409	0.173370	-0.000010
1294	1.2865e+02	7.1292	6.238655	0.000164	1.637455	0.277392	-0.000016
1295	1.2875e+02	7.1234	6.223176	0.000156	1.555582	0.263523	-0.000016
1296	1.2885e+02	7.1091	6.208919	0.000143	1.432773	0.242718	-0.000014
1297	1.2895e+02	7.0996	6.189366	0.000196	1.964946	0.332871	-0.000020
1298	1.2905e+02	7.0929	6.175109	0.000143	1.432773	0.242718	-0.000014
1299	1.2915e+02	7.0827	6.157186	0.000180	1.801200	0.305132	-0.000018
1300	1.2925e+02	7.0702	6.143337	0.000139	1.391836	0.235783	-0.000014
1301	1.2935e+02	7.0596	6.125414	0.000180	1.801200	0.305132	-0.000018
1302	1.2945e+02	7.0498	6.114823	0.000106	1.064345	0.180305	-0.000011
1303	1.2955e+02	7.0406	6.093641	0.000213	2.128691	0.360610	-0.000021
1304	1.2965e+02	7.0306	6.074088	0.000196	1.964946	0.332871	-0.000020
1305	1.2975e+02	7.0208	6.058202	0.000160	1.596518	0.270458	-0.000016
1306	1.2985e+02	7.0087	6.043538	0.000147	1.473709	0.249653	-0.000015
1307	1.2995e+02	6.9979	6.025207	0.000184	1.842136	0.312066	-0.000018
1308	1.3005e+02	6.9906	6.010950	0.000143	1.432773	0.242718	-0.000014
1309	1.3015e+02	6.9827	5.992213	0.000188	1.883073	0.319001	-0.000019
1310	1.3025e+02	6.9721	5.971438	0.000209	2.087755	0.353675	-0.000021
1311	1.3034e+02	6.9573	5.954330	0.000172	1.719327	0.291262	-0.000017
1312	1.3044e+02	6.9508	5.933555	0.000209	2.087755	0.353675	-0.000021
1313	1.3054e+02	6.9416	5.914003	0.000196	1.964946	0.332871	-0.000020
1314	1.3064e+02	6.9311	5.896080	0.000180	1.801200	0.305132	-0.000018
1315	1.3074e+02	6.9217	5.877342	0.000188	1.883073	0.319001	-0.000019
1316	1.3084e+02	6.9115	5.858197	0.000192	1.924009	0.325936	-0.000019
1317	1.3094e+02	6.9027	5.841903	0.000164	1.637455	0.277392	-0.000016
1318	1.3104e+02	6.8900	5.824387	0.000176	1.760264	0.298197	-0.000018
1319	1.3114e+02	6.8804	5.804835	0.000196	1.964946	0.332871	-0.000020
1320	1.3124e+02	6.8720	5.784875	0.000201	2.005882	0.339806	-0.000020
1321	1.3134e+02	6.8600	5.766952	0.000180	1.801200	0.305132	-0.000018
1322	1.3144e+02	6.8490	5.744141	0.000229	2.292436	0.388349	-0.000023
1323	1.3154e+02	6.8433	5.725403	0.000188	1.883073	0.319001	-0.000019
1324	1.3164e+02	6.8319	5.707480	0.000180	1.801200	0.305132	-0.000018
1325	1.3174e+02	6.8243	5.687520	0.000201	2.005882	0.339806	-0.000020
1326	1.3184e+02	6.8140	5.669597	0.000180	1.801200	0.305132	-0.000018
1327	1.3194e+02	6.7986	5.650452	0.000192	1.924009	0.325936	-0.000019
1328	1.3204e+02	6.7927	5.634566	0.000160	1.596518	0.270458	-0.000016
1329	1.3214e+02	6.7811	5.619087	0.000156	1.555582	0.263523	-0.000016
1330	1.3224e+02	6.7699	5.601164	0.000180	1.801200	0.305132	-0.000018
1331	1.3234e+02	6.7627	5.580389	0.000209	2.087755	0.353675	-0.000021
1332	1.3243e+02	6.7500	5.560429	0.000201	2.005882	0.339806	-0.000020
1333	1.3253e+02	6.7432	5.541692	0.000188	1.883073	0.319001	-0.000019
1334	1.3263e+02	6.7316	5.527435	0.000143	1.432773	0.242718	-0.000014
1335	1.3273e+02	6.7188	5.509919	0.000176	1.760264	0.298197	-0.000018
1336	1.3283e+02	6.7121	5.490774	0.000192	1.924009	0.325936	-0.000019
1337	1.3293e+02	6.7007	5.476110	0.000147	1.473709	0.249653	-0.000015
1338	1.3303e+02	6.6921	5.455742	0.000205	2.046818	0.346740	-0.000020
1339	1.3313e+02	6.6828	5.440263	0.000156	1.555582	0.263523	-0.000016
1340	1.3323e+02	6.6732	5.422748	0.000176	1.760264	0.298197	-0.000018
1341	1.3333e+02	6.6637	5.404825	0.000180	1.801200	0.305132	-0.000018
1342	1.3343e+02	6.6518	5.386494	0.000184	1.842136	0.312066	-0.000018
1343	1.3353e+02	6.6424	5.369793	0.000168	1.678391	0.284327	-0.000017
1344	1.3363e+02	6.6333	5.352277	0.000176	1.760264	0.298197	-0.000018
1345	1.3373e+02	6.6253	5.334354	0.000180	1.801200	0.305132	-0.000018
1346	1.3383e+02	6.6122	5.317246	0.000172	1.719327	0.291262	-0.000017
1347	1.3393e+02	6.6018	5.301767	0.000156	1.555582	0.263523	-0.000016
1348	1.3403e+02	6.5911	5.285881	0.000160	1.596518	0.270458	-0.000016
1349	1.3413e+02	6.5807	5.265513	0.000205	2.046818	0.346740	-0.000020
1350	1.3423e+02	6.5761	5.250442	0.000151	1.514645	0.256588	-0.000015
1351	1.3432e+02	6.5642	5.232519	0.000180	1.801200	0.305132	-0.000018
1352	1.3442e+02	6.5536	5.214188	0.000184	1.842136	0.312066	-0.000018
1353	1.3452e+02	6.5398	5.198302	0.000160	1.596518	0.270458	-0.000016
1354	1.3462e+02	6.5328	5.179157	0.000192	1.924009	0.325936	-0.000019
1355	1.3472e+02	6.5224	5.162456	0.000168	1.678391	0.284327	-0.000017
1356	1.3482e+02	6.5118	5.146569	0.000160	1.596518	0.270458	-0.000016
1357	1.3492e+02	6.5041	5.129868	0.000168	1.678391	0.284327	-0.000017
1358	1.3502e+02	6.4912	5.114389	0.000156	1.555582	0.263523	-0.000016
1359	1.3512e+02	6.4840	5.092800	0.000217	2.169627	0.367545	-0.000022
1360	1.3522e+02	6.4715	5.078543	0.000143	1.432773	0.242718	-0.000014
1361	1.3532e+02	6.4619	5.060213	0.000184	1.842136	0.312066	-0.000018
1362	1.3542e+02	6.4514	5.037809	0.000225	2.251500	0.381414	-0.000023
1363	1.3552e+02	6.4456	5.020701	0.000172	1.719327	0.291262	-0.000017
1364	1.3562e+02	6.4312	5.000741	0.000201	2.005882	0.339806	-0.000020
1365	1.3572e+02	6.4235	4.979966	0.000209	2.087755	0.353675	-0.000021
1366	1.3582e+02	6.4124	4.964895	0.000151	1.514645	0.256588	-0.000015
1367	1.3592e+02	6.4037	4.949008	0.000160	1.596518	0.270458	-0.000016
1368	1.3602e+02	6.3946	4.927419	0.000217	2.169627	0.367545	-0.000022
1369	1.3612e+02	6.3844	4.910311	0.000172	1.719327	0.291262	-0.000017
1370	1.3622e+02	6.3735	4.891980	0.000184	1.842136	0.312066	-0.000018
1371	1.3631e+02	6.3650	4.874872	0.000172	1.719327	0.291262	-0.000017
1372	1.3641e+02	6.3531	4.854912	0.000201	2.005882	0.339806	-0.000020
1373	1.3651e+02	6.3428	4.835360	0.000196	1.964946	0.332871	-0.000020
1374	1.3661e+02	6.3314	4.817437	0.000180	1.801200	0.305132	-0.000018
1375	1.3671e+02	6.3258	4.799514	0.000180	1.801200	0.305132	-0.000018
1376	1.3681e+02	6.3129	4.777517	0.000221	2.210564	0.374480	-0.000022
1377	1.3691e+02	6.3037	4.763260	0.000143	1.432773	0.242718	-0.000014
1378	1.3701e+02	6.2933	4.743708	0.000196	1.964946	0.332871	-0.000020
1379	1.3711e+02	6.2847	4.729043	0.000147	1.473709	0.249653	-0.000015
1380	1.3721e+02	6.2746	4.706640	0.000225	2.251500	0.381414	-0.000023
1381	1.3731e+02	6.2659	4.691160	0.000156	1.555582	0.263523	-0.000016
1382	1.3741e+02	6.2566	4.676089	0.000151	1.514645	0.256588	-0.000015
1383	1.3751e+02	6.2457	4.658980	0.000172	1.719327	0.291262	-0.000017
1384	1.3761e+02	6.2336	4.645538	0.000135	1.350900	0.228849	-0.000014
1385	1.3771e+02	6.2249	4.624356	0.000213	2.128691	0.360610	-0.000021
1386	1.3781e+02	6.2139	4.608063	0.000164	1.637455	0.277392	-0.000016
1387	1.3791e+02	6.2025	4.592991	0.000151	1.514645	0.256588	-0.000015
1388	1.3801e+02	6.1967	4.576697	0.000164	1.637455	0.277392	-0.000016
1389	1.3811e+02	6.1848	4.559182	0.000176	1.760264	0.298197	-0.000018
1390	1.3821e+02	6.1755	4.542073	0.000172	1.719327	0.291262	-0.000017
1391	1.3831e+02	6.1654	4.532297	0.000098	0.982473	0.166435	-0.000010
1392	1.3840e+02	6.1546	4.515189	0.000172	1.719327	0.291262	-0.000017
1393	1.3850e+02	6.1452	4.501339	0.000139	1.391836	0.235783	-0.000014
1394	1.3860e+02	6.1365	4.485045	0.000164	1.637455	0.277392	-0.000016
1395	1.3870e+02	6.1247	4.472010	0.000131	1.309964	0.221914	-0.000013
1396	1.3880e+02	6.1147	4.456531	0.000156	1.555582	0.263523	-0.000016
1397	1.3890e+02	6.1040	4.443904	0.000127	1.269027	0.214979	-0.000013
1398	1.3900e+02	6.0947	4.428832	0.000151	1.514645	0.256588	-0.000015
1399	1.3910e+02	6.0854	4.412946	0.000160	1.596518	0.270458	-0.000016
1400	1.3920e+02	6.0749	4.401133	0.000119	1.187155	0.201109	-0.000012
1401	1.3930e+02	6.0656	4.383617	0.000176	1.760264	0.298197	-0.000018
1402	1.3940e+02	6.0577	4.368545	0.000151	1.514645	0.256588	-0.000015
1403	1.3950e+02	6.0424	4.354696	0.000139	1.391836	0.235783	-0.000014
1404	1.3960e+02	6.0360	4.334736	0.000201	2.005882	0.339806	-0.000020
1405	1.3970e+02	6.0263	4.329848	0.000049	0.491236	0.083218	-0.000005
1406	1.3980e+02	6.0147	4.317220	0.000127	1.269027	0.214979	-0.000013
1407	1.3990e+02	6.0052	4.301741	0.000156	1.555582	0.263523	-0.000016
1408	1.4000e+02	5.9945	4.284225	0.000176	1.760264	0.298197	-0.000018
1409	1.4010e+02	5.9859	4.269561	0.000147	1.473709	0.249653	-0.000015
1410	1.4020e+02	5.9760	4.254897	0.000147	1.473709	0.249653	-0.000015
1411	1.4029e+02	5.9661	4.238196	0.000168	1.678391	0.284327	-0.000017
1412	1.4039e+02	5.9582	4.222717	0.000156	1.555582	0.263523	-0.000016
1413	1.4049e+02	5.9478	4.206423	0.000164	1.637455	0.277392	-0.000016
1414	1.4059e+02	5.9364	4.186870	0.000196	1.964946	0.332871	-0.000020
1415	1.4069e+02	5.9260	4.172206	0.000147	1.473709	0.249653	-0.000015
1416	1.4079e+02	5.9148	4.158356	0.000139	1.391836	0.235783	-0.000014
1417	1.4089e+02	5.9068	4.140433	0.000180	1.801200	0.305132	-0.000018
1418	1.4099e+02	5.8964	4.127398	0.000131	1.309964	0.221914	-0.000013
1419	1.4109e+02	5.8845	4.108253	0.000192	1.924009	0.325936	-0.000019
1420	1.4119e+02	5.8769	4.091145	0.000172	1.719327	0.291262	-0.000017
1421	1.4129e+02	5.8652	4.074444	0.000168	1.678391	0.284327	-0.000017
1422	1.4139e+02	5.8541	4.057743	0.000168	1.678391	0.284327	-0.000017
1423	1.4149e+02	5.8469	4.043078	0.000147	1.473709	0.249653	-0.000015
1424	1.4159e+02	5.8361	4.024341	0.000188	1.883073	0.319001	-0.000019
1425	1.4169e+02	5.8256	4.006418	0.000180	1.801200	0.305132	-0.000018
1426	1.4179e+02	5.8163	3.989309	0.000172	1.719327	0.291262	-0.000017
1427	1.4189e+02	5.8083	3.973830	0.000156	1.555582	0.263523	-0.000016
1428	1.4199e+02	5.7960	3.957944	0.000160	1.596518	0.270458	-0.000016
1429	1.4209e+02	5.7879	3.938799	0.000192	1.924009	0.325936	-0.000019
1430	1.4219e+02	5.7801	3.927801	0.000111	1.105282	0.187240	-0.000011
1431	1.4228e+02	5.7656	3.911507	0.000164	1.637455	0.277392	-0.000016
1432	1.4238e+02	5.7555	3.893176	0.000184	1.842136	0.312066	-0.000018
1433	1.4248e+02	5.7482	3.874846	0.000184	1.842136	0.312066	-0.000018
1434	1.4258e+02	5.7378	3.856923	0.000180	1.801200	0.305132	-0.000018
1435	1.4268e+02	5.7256	3.842666	0.000143	1.432773	0.242718	-0.000014
1436	1.4278e+02	5.7185	3.821077	0.000217	2.169627	0.367545	-0.000022
1437	1.4288e+02	5.7085	3.804376	0.000168	1.678391	0.284327	-0.000017
1438	1.4298e+02	5.6970	3.784416	0.000201	2.005882	0.339806	-0.000020
1439	1.4308e+02	5.6893	3.769344	0.000151	1.514645	0.256588	-0.000015
1440	1.4318e+02	5.6769	3.755495	0.000139	1.391836	0.235783	-0.000014
1441	1.4328e+02	5.6683	3.736350	0.000192	1.924009	0.325936	-0.000019
1442	1.4338e+02	5.6583	3.714760	0.000217	2.169627	0.367545	-0.000022
1443	1.4348e+02	5.6466	3.702947	0.000119	1.187155	0.201109	-0.000012
1444	1.4358e+02	5.6390	3.686246	0.000168	1.678391	0.284327	-0.000017
1445	1.4368e+02	5.6263	3.669545	0.000168	1.678391	0.284327	-0.000017
1446	1.4378e+02	5.6145	3.654881	0.000147	1.473709	0.249653	-0.000015
1447	1.4388e+02	5.6068	3.638995	0.000160	1.596518	0.270458	-0.000016
1448	1.4398e+02	5.6001	3.620257	0.000188	1.883073	0.319001	-0.000019
1449	1.4408e+02	5.5882	3.606815	0.000135	1.350900	0.228849	-0.000014
1450	1.4418e+02	5.5782	3.590521	0.000164	1.637455	0.277392	-0.000016
1451	1.4428e+02	5.5698	3.575042	0.000156	1.555582	0.263523	-0.000016
1452	1.4437e+02	5.5577	3.556304	0.000188	1.883073	0.319001	-0.000019
1453	1.4447e+02	5.5488	3.540010	0.000164	1.637455	0.277392	-0.000016
1454	1.4457e+02	5.5373	3.524939	0.000151	1.514645	0.256588	-0.000015
1455	1.4467e+02	5.5288	3.507830	0.000172	1.719327	0.291262	-0.000017
1456	1.4477e+02	5.5180	3.490315	0.000176	1.760264	0.298197	-0.000018
1457	1.4487e+02	5.5067	3.476872	0.000135	1.350900	0.228849	-0.000014
1458	1.4497e+02	5.4969	3.458542	0.000184	1.842136	0.312066	-0.000018
1459	1.4507e+02	5.4906	3.442248	0.000164	1.637455	0.277392	-0.000016
1460	1.4517e+02	5.4784	3.426362	0.000160	1.596518	0.270458	-0.000016
1461	1.4527e+02	5.4690	3.411698	0.000147	1.473709	0.249653	-0.000015
1462	1.4537e+02	5.4583	3.393367	0.000184	1.842136	0.312066	-0.000018
1463	1.4547e+02	5.4498	3.378295	0.000151	1.514645	0.256588	-0.000015
1464	1.4557e+02	5.4366	3.358336	0.000201	2.005882	0.339806	-0.000020
1465	1.4567e+02	5.4297	3.340005	0.000184	1.842136	0.312066	-0.000018
1466	1.4577e+02	5.4188	3.324526	0.000156	1.555582	0.263523	-0.000016
1467	1.4587e+02	5.4080	3.305381	0.000192	1.924009	0.325936	-0.000019
1468	1.4597e+02	5.3998	3.285014	0.000205	2.046818	0.346740	-0.000020
1469	1.4607e+02	5.3899	3.270350	0.000147	1.473709	0.249653	-0.000015
1470	1.4617e+02	5.3799	3.252427	0.000180	1.801200	0.305132	-0.000018
1471	1.4626e+02	5.3663	3.233282	0.000192	1.924009	0.325936	-0.000019
1472	1.4636e+02	5.3603	3.216580	0.000168	1.678391	0.284327	-0.000017
1473	1.4646e+02	5.3496	3.195806	0.000209	2.087755	0.353675	-0.000021
1474	1.4656e+02	5.3359	3.175439	0.000205	2.046818	0.346740	-0.000020
1475	1.4666e+02	5.3289	3.155072	0.000205	2.046818	0.346740	-0.000020
1476	1.4676e+02	5.3185	3.138778	0.000164	1.637455	0.277392	-0.000016
1477	1.4686e+02	5.3103	3.113115	0.000258	2.578991	0.436893	-0.000026
1478	1.4696e+02	5.3002	3.094378	0.000188	1.883073	0.319001	-0.000019
1479	1.4706e+02	5.2898	3.074825	0.000196	1.964946	0.332871	-0.000020
1480	1.4716e+02	5.2808	3.052421	0.000225	2.251500	0.381414	-0.000023
1481	1.4726e+02	5.2705	3.034498	0.000180	1.801200	0.305132	-0.000018
1482	1.4736e+02	5.2584	3.009243	0.000254	2.538055	0.429958	-0.000025
1483	1.4746e+02	5.2508	2.993357	0.000160	1.596518	0.270458	-0.000016
1484	1.4756e+02	5.2403	2.970546	0.000229	2.292436	0.388349	-0.000023
1485	1.4766e+02	5.2270	2.951400	0.000192	1.924009	0.325936	-0.000019
1486	1.4776e+02	5.2187	2.929404	0.000221	2.210564	0.374480	-0.000022
1487	1.4786e+02	5.2097	2.910666	0.000188	1.883073	0.319001	-0.000019
1488	1.4796e+02	5.1999	2.889077	0.000217	2.169627	0.367545	-0.000022
1489	1.4806e+02	5.1905	2.867081	0.000221	2.210564	0.374480	-0.000022
1490	1.4816e+02	5.1783	2.843047	0.000242	2.415246	0.409154	-0.000024
1491	1.4825e+02	5.1688	2.824310	0.000188	1.883073	0.319001	-0.000019
1492	1.4835e+02	5.1620	2.799462	0.000250	2.497118	0.423023	-0.000025
1493	1.4845e+02	5.1501	2.781946	0.000176	1.760264	0.298197	-0.000018
1494	1.4855e+02	5.1403	2.763616	0.000184	1.842136	0.312066	-0.000018
1495	1.4865e+02	5.1300	2.742026	0.000217	2.169627	0.367545	-0.000022
1496	1.4875e+02	5.1188	2.722881	0.000192	1.924009	0.325936	-0.000019
1497	1.4885e+02	5.1087	2.701699	0.000213	2.128691	0.360610	-0.000021
1498	1.4895e+02	5.0994	2.684998	0.000168	1.678391	0.284327	-0.000017
1499	1.4905e+02	5.0899	2.663002	0.000221	2.210564	0.374480	-0.000022
1500	1.4915e+02	5.0775	2.643857	0.000192	1.924009	0.325936	-0.000019
1501	1.4925e+02	5.0719	2.622675	0.000213	2.128691	0.360610	-0.000021
1502	1.4935e+02	5.0610	2.599864	0.000229	2.292436	0.388349	-0.000023
1503	1.4945e+02	5.0495	2.581941	0.000180	1.801200	0.305132	-0.000018
1504	1.4955e+02	5.0436	2.559944	0.000221	2.210564	0.374480	-0.000022
1505	1.4965e+02	5.0320	2.545280	0.000147	1.473709	0.249653	-0.000015
1506	1.4975e+02	5.0202	2.523283	0.000221	2.210564	0.374480	-0.000022
1507	1.4985e+02	5.0095	2.506175	0.000172	1.719327	0.291262	-0.000017
1508	1.4995e+02	5.0011	2.485401	0.000209	2.087755	0.353675	-0.000021
1509	1.5005e+02	4.9928	2.463404	0.000221	2.210564	0.374480	-0.000022
1510	1.5015e+02	4.9804	2.445481	0.000180	1.801200	0.305132	-0.000018
1511	1.5025e+02	4.9722	2.424707	0.000209	2.087755	0.353675	-0.000021
1512	1.5034e+02	4.9611	2.409228	0.000156	1.555582	0.263523	-0.000016
1513	1.5044e+02	4.9511	2.387231	0.000221	2.210564	0.374480	-0.000022
1514	1.5054e+02	4.9426	2.365642	0.000217	2.169627	0.367545	-0.000022
1515	1.5064e+02	4.9305	2.348126	0.000176	1.760264	0.298197	-0.000018
1516	1.5074e+02	4.9222	2.329388	0.000188	1.883073	0.319001	-0.000019
1517	1.5084e+02	4.9108	2.310651	0.000188	1.883073	0.319001	-0.000019
1518	1.5094e+02	4.9010	2.291913	0.000188	1.883073	0.319001	-0.000019
1519	1.5104e+02	4.8920	2.267880	0.000242	2.415246	0.409154	-0.000024
1520	1.5114e+02	4.8789	2.254030	0.000139	1.391836	0.235783	-0.000014
1521	1.5124e+02	4.8724	2.229589	0.000246	2.456182	0.416088	-0.000025
1522	1.5134e+02	4.8634	2.213703	0.000160	1.596518	0.270458	-0.000016
1523	1.5144e+02	4.8510	2.194151	0.000196	1.964946	0.332871	-0.000020
1524	1.5154e+02	4.8406	2.178672	0.000156	1.555582	0.263523	-0.000016
1525	1.5164e+02	4.8322	2.156268	0.000225	2.251500	0.381414	-0.000023
1526	1.5174e+02	4.8219	2.135086	0.000213	2.128691	0.360610	-0.000021
1527	1.5184e+02	4.8124	2.114312	0.000209	2.087755	0.353675	-0.000021
1528	1.5194e+02	4.8013	2.098018	0.000164	1.637455	0.277392	-0.000016
1529	1.5204e+02	4.7907	2.074799	0.000233	2.333373	0.395284	-0.000023
1530	1.5214e+02	4.7800	2.054840	0.000201	2.005882	0.339806	-0.000020
1531	1.5224e+02	4.7737	2.033658	0.000213	2.128691	0.360610	-0.000021
1532	1.5233e+02	4.7644	2.014920	0.000188	1.883073	0.319001	-0.000019
1533	1.5243e+02	4.7517	1.995367	0.000196	1.964946	0.332871	-0.000020
1534	1.5253e+02	4.7437	1.976630	0.000188	1.883073	0.319001	-0.000019
1535	1.5263e+02	4.7340	1.952597	0.000242	2.415246	0.409154	-0.000024
1536	1.5273e+02	4.7224	1.932229	0.000205	2.046818	0.346740	-0.000020
1537	1.5283e+02	4.7120	1.912270	0.000201	2.005882	0.339806	-0.000020
1538	1.5293e+02	4.7026	1.894347	0.000180	1.801200	0.305132	-0.000018
1539	1.5303e+02	4.6935	1.871128	0.000233	2.333373	0.395284	-0.000023
1540	1.5313e+02	4.6818	1.851576	0.000196	1.964946	0.332871	-0.000020
1541	1.5323e+02	4.6727	1.829986	0.000217	2.169627	0.367545	-0.000022
1542	1.5333e+02	4.6618	1.805953	0.000242	2.415246	0.409154	-0.000024
1543	1.5343e+02	4.6534	1.786808	0.000192	1.924009	0.325936	-0.000019
1544	1.5353e+02	4.6424	1.765626	0.000213	2.128691	0.360610	-0.000021
1545	1.5363e+02	4.6319	1.746889	0.000188	1.883073	0.319001	-0.000019
1546	1.5373e+02	4.6208	1.725299	0.000217	2.169627	0.367545	-0.000022
1547	1.5383e+02	4.6128	1.707376	0.000180	1.801200	0.305132	-0.000018
1548	1.5393e+02	4.6020	1.685380	0.000221	2.210564	0.374480	-0.000022
1549	1.5403e+02	4.5919	1.666642	0.000188	1.883073	0.319001	-0.000019
1550	1.5413e+02	4.5846	1.647904	0.000188	1.883073	0.319001	-0.000019
1551	1.5422e+02	4.5715	1.629574	0.000184	1.842136	0.312066	-0.000018
1552	1.5432e+02	4.5617	1.611243	0.000184	1.842136	0.312066	-0.000018
1553	1.5442e+02	4.5547	1.592506	0.000188	1.883073	0.319001	-0.000019
1554	1.5452e+02	4.5435	1.571324	0.000213	2.128691	0.360610	-0.000021
1555	1.5462e+02	4.5330	1.553401	0.000180	1.801200	0.305132	-0.000018
1556	1.5472e+02	4.5226	1.538329	0.000151	1.514645	0.256588	-0.000015
1557	1.5482e+02	4.5117	1.517555	0.000209	2.087755	0.353675	-0.000021
1558	1.5492e+02	4.5051	1.502483	0.000151	1.514645	0.256588	-0.000015
1559	1.5502e+02	4.4949	1.482931	0.000196	1.964946	0.332871	-0.000020
1560	1.5512e+02	4.4840	1.467044	0.000160	1.596518	0.270458	-0.000016
1561	1.5522e+02	4.4772	1.449936	0.000172	1.719327	0.291262	-0.000017
1562	1.5532e+02	4.4620	1.436494	0.000135	1.350900	0.228849	-0.000014
1563	1.5542e+02	4.4524	1.414497	0.000221	2.210564	0.374480	-0.000022
1564	1.5552e+02	4.4444	1.401462	0.000131	1.309964	0.221914	-0.000013
1565	1.5562e+02	4.4357	1.384761	0.000168	1.678391	0.284327	-0.000017
1566	1.5572e+02	4.4225	1.368060	0.000168	1.678391	0.284327	-0.000017
1567	1.5582e+02	4.4152	1.349322	0.000188	1.883073	0.319001	-0.000019
1568	1.5592e+02	4.4025	1.335880	0.000135	1.350900	0.228849	-0.000014
1569	1.5602e+02	4.3941	1.317957	0.000180	1.801200	0.305132	-0.000018
1570	1.5612e+02	4.3813	1.299219	0.000188	1.883073	0.319001	-0.000019
1571	1.5622e+02	4.3745	1.281703	0.000176	1.760264	0.298197	-0.000018
1572	1.5631e+02	4.3642	1.265817	0.000160	1.596518	0.270458	-0.000016
1573	1.5641e+02	4.3554	1.249931	0.000160	1.596518	0.270458	-0.000016
1574	1.5651e+02	4.3444	1.235674	0.000143	1.432773	0.242718	-0.000014
1575	1.5661e+02	4.3354	1.218158	0.000176	1.760264	0.298197	-0.000018
1576	1.5671e+02	4.3238	1.202272	0.000160	1.596518	0.270458	-0.000016
1577	1.5681e+02	4.3091	1.184348	0.000180	1.801200	0.305132	-0.000018
1578	1.5691e+02	4.3042	1.170091	0.000143	1.432773	0.242718	-0.000014
1579	1.5701e+02	4.2957	1.152168	0.000180	1.801200	0.305132	-0.000018
1580	1.5711e+02	4.2824	1.130579	0.000217	2.169627	0.367545	-0.000022
1581	1.5721e+02	4.2744	1.113471	0.000172	1.719327	0.291262	-0.000017
1582	1.5731e+02	4.2651	1.093104	0.000205	2.046818	0.346740	-0.000020
1583	1.5741e+02	4.2557	1.073144	0.000201	2.005882	0.339806	-0.000020
1584	1.5751e+02	4.2429	1.053184	0.000201	2.005882	0.339806	-0.000020
1585	1.5761e+02	4.2343	1.037705	0.000156	1.555582	0.263523	-0.000016
1586	1.5771e+02	4.2238	1.015301	0.000225	2.251500	0.381414	-0.000023
1587	1.5781e+02	4.2132	1.003081	0.000123	1.228091	0.208044	-0.000012
1588	1.5791e+02	4.2036	0.980677	0.000225	2.251500	0.381414	-0.000023
1589	1.5801e+02	4.1933	0.961125	0.000196	1.964946	0.332871	-0.000020
1590	1.5811e+02	4.1845	0.941572	0.000196	1.964946	0.332871	-0.000020
1591	1.5821e+02	4.1720	0.924464	0.000172	1.719327	0.291262	-0.000017
1592	1.5830e+02	4.1640	0.904504	0.000201	2.005882	0.339806	-0.000020
1593	1.5840e+02	4.1543	0.884952	0.000196	1.964946	0.332871	-0.000020
1594	1.5850e+02	4.1460	0.867029	0.000180	1.801200	0.305132	-0.000018
1595	1.5860e+02	4.1323	0.848291	0.000188	1.883073	0.319001	-0.000019
1596	1.5870e+02	4.1236	0.828331	0.000201	2.005882	0.339806	-0.000020
1597	1.5880e+02	4.1129	0.805520	0.000229	2.292436	0.388349	-0.000023
1598	1.5890e+02	4.1051	0.792078	0.000135	1.350900	0.228849	-0.000014
1599	1.5900e+02	4.0975	0.769266	0.000229	2.292436	0.388349	-0.000023
1600	1.5910e+02	4.0852	0.750121	0.000192	1.924009	0.325936	-0.000019
1601	1.5920e+02	4.0739	0.733420	0.000168	1.678391	0.284327	-0.000017
1602	1.5930e+02	4.0655	0.714275	0.000192	1.924009	0.325936	-0.000019
1603	1.5940e+02	4.0576	0.696352	0.000180	1.801200	0.305132	-0.000018
1604	1.5950e+02	4.0456	0.674356	0.000221	2.210564	0.374480	-0.000022
1605	1.5960e+02	4.0334	0.656433	0.000180	1.801200	0.305132	-0.000018
1606	1.5970e+02	4.0253	0.632399	0.000242	2.415246	0.409154	-0.000024
1607	1.5980e+02	4.0154	0.617735	0.000147	1.473709	0.249653	-0.000015
1608	1.5990e+02	4.0041	0.594924	0.000229	2.292436	0.388349	-0.000023
1609	1.6000e+02	3.9962	0.577001	0.000180	1.801200	0.305132	-0.000018
1610	1.6010e+02	3.9835	0.556226	0.000209	2.087755	0.353675	-0.000021
1611	1.6019e+02	3.9747	0.535452	0.000209	2.087755	0.353675	-0.000021
1612	1.6029e+02	3.9634	0.518343	0.000172	1.719327	0.291262	-0.000017
1613	1.6039e+02	3.9561	0.500013	0.000184	1.842136	0.312066	-0.000018
1614	1.6049e+02	3.9469	0.481683	0.000184	1.842136	0.312066	-0.000018
1615	1.6059e+02	3.9369	0.465796	0.000160	1.596518	0.270458	-0.000016
1616	1.6069e+02	3.9300	0.446244	0.000196	1.964946	0.332871	-0.000020
1617	1.6079e+02	3.9161	0.425877	0.000205	2.046818	0.346740	-0.000020
1618	1.6089e+02	3.9055	0.407954	0.000180	1.801200	0.305132	-0.000018
1619	1.6099e+02	3.8943	0.391660	0.000164	1.637455	0.277392	-0.000016
1620	1.6109e+02	3.8883	0.370071	0.000217	2.169627	0.367545	-0.000022
1621	1.6119e+02	3.8758	0.349704	0.000205	2.046818	0.346740	-0.000020
1622	1.6129e+02	3.8694	0.331781	0.000180	1.801200	0.305132	-0.000018
1623	1.6139e+02	3.8562	0.315487	0.000164	1.637455	0.277392	-0.000016
1624	1.6149e+02	3.8432	0.294712	0.000209	2.087755	0.353675	-0.000021
1625	1.6159e+02	3.8377	0.278419	0.000164	1.637455	0.277392	-0.000016
1626	1.6169e+02	3.8274	0.262532	0.000160	1.596518	0.270458	-0.000016
1627	1.6179e+02	3.8154	0.242980	0.000196	1.964946	0.332871	-0.000020
1628	1.6189e+02	3.8090	0.221391	0.000217	2.169627	0.367545	-0.000022
1629	1.6199e+02	3.7963	0.204690	0.000168	1.678391	0.284327	-0.000017
1630	1.6209e+02	3.7874	0.187174	0.000176	1.760264	0.298197	-0.000018
1631	1.6219e+02	3.7793	0.164770	0.000225	2.251500	0.381414	-0.000023
1632	1.6228e+02	3.7662	0.142774	0.000221	2.210564	0.374480	-0.000022
1633	1.6238e+02	3.7574	0.124850	0.000180	1.801200	0.305132	-0.000018
1634	1.6248e+02	3.7458	0.104076	0.000209	2.087755	0.353675	-0.000021
1635	1.6258e+02	3.7371	0.085338	0.000188	1.883073	0.319001	-0.000019
1636	1.6268e+02	3.7279	0.067823	0.000176	1.760264	0.298197	-0.000018
1637	1.6278e+02	3.7161	0.041753	0.000262	2.619927	0.443828	-0.000026
1638	1.6288e+02	3.7060	0.020978	0.000209	2.087755	0.353675	-0.000021
1639	1.6298e+02	3.6984	0.002240	0.000188	1.883073	0.319001	-0.000019
1640	1.6308e+02	3.6874	-0.016497	0.000188	1.883073	0.319001	-0.000019
1641	1.6318e+02	3.6758	-0.042567	0.000262	2.619927	0.443828	-0.000026
1642	1.6328e+02	3.6681	-0.063342	0.000209	2.087755	0.353675	-0.000021
1643	1.6338e+02	3.6599	-0.084931	0.000217	2.169627	0.367545	-0.000022
1644	1.6348e+02	3.6469	-0.108149	0.000233	2.333373	0.395284	-0.000023
1645	1.6358e+02	3.6362	-0.132997	0.000250	2.497118	0.423023	-0.000025
1646	1.6368e+02	3.6256	-0.153364	0.000205	2.046818	0.346740	-0.000020
1647	1.6378e+02	3.6183	-0.177398	0.000242	2.415246	0.409154	-0.000024
1648	1.6388e+02	3.6100	-0.201838	0.000246	2.456182	0.416088	-0.000025
1649	1.6398e+02	3.5957	-0.225464	0.000237	2.374309	0.402219	-0.000024
1650	1.6408e+02	3.5883	-0.250312	0.000250	2.497118	0.423023	-0.000025
1651	1.6418e+02	3.5769	-0.271086	0.000209	2.087755	0.353675	-0.000021
1652	1.6427e+02	3.5671	-0.291454	0.000205	2.046818	0.346740	-0.000020
1653	1.6437e+02	3.5595	-0.317931	0.000266	2.660864	0.450763	-0.000027
1654	1.6447e+02	3.5479	-0.337891	0.000201	2.005882	0.339806	-0.000020
1655	1.6457e+02	3.5400	-0.363553	0.000258	2.578991	0.436893	-0.000026
1656	1.6467e+02	3.5281	-0.386772	0.000233	2.333373	0.395284	-0.000023
1657	1.6477e+02	3.5174	-0.414471	0.000278	2.783673	0.471567	-0.000028
1658	1.6487e+02	3.5072	-0.434023	0.000196	1.964946	0.332871	-0.000020
1659	1.6497e+02	3.4978	-0.461315	0.000274	2.742736	0.464632	-0.000027
1660	1.6507e+02	3.4897	-0.482905	0.000217	2.169627	0.367545	-0.000022
1661	1.6517e+02	3.4805	-0.504086	0.000213	2.128691	0.360610	-0.000021
1662	1.6527e+02	3.4656	-0.530971	0.000270	2.701800	0.457697	-0.000027
1663	1.6537e+02	3.4584	-0.552153	0.000213	2.128691	0.360610	-0.000021
1664	1.6547e+02	3.4480	-0.572927	0.000209	2.087755	0.353675	-0.000021
1665	1.6557e+02	3.4359	-0.595331	0.000225	2.251500	0.381414	-0.000023
1666	1.6567e+02	3.4302	-0.619364	0.000242	2.415246	0.409154	-0.000024
1667	1.6577e+02	3.4167	-0.637695	0.000184	1.842136	0.312066	-0.000018
1668	1.6587e+02	3.4075	-0.665394	0.000278	2.783673	0.471567	-0.000028
1669	1.6597e+02	3.3973	-0.683317	0.000180	1.801200	0.305132	-0.000018
1670	1.6607e+02	3.3867	-0.710609	0.000274	2.742736	0.464632	-0.000027
1671	1.6616e+02	3.3784	-0.733828	0.000233	2.333373	0.395284	-0.000023
1672	1.6626e+02	3.3683	-0.752973	0.000192	1.924009	0.325936	-0.000019
1673	1.6636e+02	3.3588	-0.776191	0.000233	2.333373	0.395284	-0.000023
1674	1.6646e+02	3.3462	-0.795336	0.000192	1.924009	0.325936	-0.000019
1675	1.6656e+02	3.3387	-0.823036	0.000278	2.783673	0.471567	-0.000028
1676	1.6666e+02	3.3302	-0.838515	0.000156	1.555582	0.263523	-0.000016
1677	1.6676e+02	3.3193	-0.863363	0.000250	2.497118	0.423023	-0.000025
1678	1.6686e+02	3.3071	-0.884137	0.000209	2.087755	0.353675	-0.000021
1679	1.6696e+02	3.2992	-0.906541	0.000225	2.251500	0.381414	-0.000023
1680	1.6706e+02	3.2880	-0.929352	0.000229	2.292436	0.388349	-0.000023
1681	1.6716e+02	3.2796	-0.949719	0.000205	2.046818	0.346740	-0.000020
1682	1.6726e+02	3.2691	-0.973752	0.000242	2.415246	0.409154	-0.000024
1683	1.6736e+02	3.2593	-0.994527	0.000209	2.087755	0.353675	-0.000021
1684	1.6746e+02	3.2494	-1.016523	0.000221	2.210564	0.374480	-0.000022
1685	1.6756e+02	3.2390	-1.036890	0.000205	2.046818	0.346740	-0.000020
1686	1.6766e+02	3.2316	-1.063368	0.000266	2.660864	0.450763	-0.000027
1687	1.6776e+02	3.2175	-1.084550	0.000213	2.128691	0.360610	-0.000021
1688	1.6786e+02	3.2104	-1.102880	0.000184	1.842136	0.312066	-0.000018
1689	1.6796e+02	3.1991	-1.125284	0.000225	2.251500	0.381414	-0.000023
1690	1.6806e+02	3.1890	-1.145244	0.000201	2.005882	0.339806	-0.000020
1691	1.6816e+02	3.1810	-1.168462	0.000233	2.333373	0.395284	-0.000023
1692	1.6825e+02	3.1707	-1.190459	0.000221	2.210564	0.374480	-0.000022
1693	1.6835e+02	3.1590	-1.212048	0.000217	2.169627	0.367545	-0.000022
1694	1.6845e+02	3.1482	-1.234859	0.000229	2.292436	0.388349	-0.000023
1695	1.6855e+02	3.1403	-1.259707	0.000250	2.497118	0.423023	-0.000025
1696	1.6865e+02	3.1322	-1.278445	0.000188	1.883073	0.319001	-0.000019
1697	1.6875e+02	3.1209	-1.302885	0.000246	2.456182	0.416088	-0.000025
1698	1.6885e+02	3.1099	-1.324067	0.000213	2.128691	0.360610	-0.000021
1699	1.6895e+02	3.1023	-1.350544	0.000266	2.660864	0.450763	-0.000027
1700	1.6905e+02	3.0905	-1.376614	0.000262	2.619927	0.443828	-0.000026
1701	1.6915e+02	3.0795	-1.396981	0.000205	2.046818	0.346740	-0.000020
1702	1.6925e+02	3.0688	-1.422644	0.000258	2.578991	0.436893	-0.000026
1703	1.6935e+02	3.0603	-1.441789	0.000192	1.924009	0.325936	-0.000019
1704	1.6945e+02	3.0482	-1.464193	0.000225	2.251500	0.381414	-0.000023
1705	1.6955e+02	3.0400	-1.489855	0.000258	2.578991	0.436893	-0.000026
1706	1.6965e+02	3.0302	-1.510630	0.000209	2.087755	0.353675	-0.000021
1707	1.6975e+02	3.0222	-1.537514	0.000270	2.701800	0.457697	-0.000027
1708	1.6985e+02	3.0093	-1.557882	0.000205	2.046818	0.346740	-0.000020
1709	1.6995e+02	3.0013	-1.581915	0.000242	2.415246	0.409154	-0.000024
1710	1.7005e+02	2.9894	-1.612058	0.000303	3.029291	0.513176	-0.000030
1711	1.7015e+02	2.9826	-1.633647	0.000217	2.169627	0.367545	-0.000022
1712	1.7024e+02	2.9700	-1.657273	0.000237	2.374309	0.402219	-0.000024
1713	1.7034e+02	2.9621	-1.677640	0.000205	2.046818	0.346740	-0.000020
1714	1.7044e+02	2.9489	-1.699637	0.000221	2.210564	0.374480	-0.000022
1715	1.7054e+02	2.9417	-1.724892	0.000254	2.538055	0.429958	-0.000025
1716	1.7064e+02	2.9305	-1.745259	0.000205	2.046818	0.346740	-0.000020
1717	1.7074e+02	2.9217	-1.770922	0.000258	2.578991	0.436893	-0.000026
1718	1.7084e+02	2.9108	-1.786401	0.000156	1.555582	0.263523	-0.000016
1719	1.7094e+02	2.9028	-1.809212	0.000229	2.292436	0.388349	-0.000023
1720	1.7104e+02	2.8898	-1.832430	0.000233	2.333373	0.395284	-0.000023
1721	1.7114e+02	2.8808	-1.851576	0.000192	1.924009	0.325936	-0.000019
1722	1.7124e+02	2.8704	-1.878053	0.000266	2.660864	0.450763	-0.000027
1723	1.7134e+02	2.8641	-1.891495	0.000135	1.350900	0.228849	-0.000014
1724	1.7144e+02	2.8516	-1.912677	0.000213	2.128691	0.360610	-0.000021
1725	1.7154e+02	2.8423	-1.933859	0.000213	2.128691	0.360610	-0.000021
1726	1.7164e+02	2.8283	-1.957892	0.000242	2.415246	0.409154	-0.000024
1727	1.7174e+02	2.8205	-1.977037	0.000192	1.924009	0.325936	-0.000019
1728	1.7184e+02	2.8126	-1.995367	0.000184	1.842136	0.312066	-0.000018
1729	1.7194e+02	2.8019	-2.015735	0.000205	2.046818	0.346740	-0.000020
1730	1.7204e+02	2.7921	-2.034065	0.000184	1.842136	0.312066	-0.000018
1731	1.7213e+02	2.7812	-2.055247	0.000213	2.128691	0.360610	-0.000021
1732	1.7223e+02	2.7695	-2.072763	0.000176	1.760264	0.298197	-0.000018
1733	1.7233e+02	2.7611	-2.090278	0.000176	1.760264	0.298197	-0.000018
1734	1.7243e+02	2.7517	-2.111053	0.000209	2.087755	0.353675	-0.000021
1735	1.7253e+02	2.7422	-2.136715	0.000258	2.578991	0.436893	-0.000026
1736	1.7263e+02	2.7336	-2.151787	0.000151	1.514645	0.256588	-0.000015
1737	1.7273e+02	2.7213	-2.173784	0.000221	2.210564	0.374480	-0.000022
1738	1.7283e+02	2.7129	-2.194965	0.000213	2.128691	0.360610	-0.000021
1739	1.7293e+02	2.7010	-2.210852	0.000160	1.596518	0.270458	-0.000016
1740	1.7303e+02	2.6931	-2.231219	0.000205	2.046818	0.346740	-0.000020
1741	1.7313e+02	2.6823	-2.246698	0.000156	1.555582	0.263523	-0.000016
1742	1.7323e+02	2.6708	-2.265028	0.000184	1.842136	0.312066	-0.000018
1743	1.7333e+02	2.6608	-2.284988	0.000201	2.005882	0.339806	-0.000020
1744	1.7343e+02	2.6517	-2.306577	0.000217	2.169627	0.367545	-0.000022
1745	1.7353e+02	2.6418	-2.325315	0.000188	1.883073	0.319001	-0.000019
1746	1.7363e+02	2.6333	-2.344867	0.000196	1.964946	0.332871	-0.000020
1747	1.7373e+02	2.6231	-2.368901	0.000242	2.415246	0.409154	-0.000024
1748	1.7383e+02	2.6105	-2.392934	0.000242	2.415246	0.409154	-0.000024
1749	1.7393e+02	2.6020	-2.414523	0.000217	2.169627	0.367545	-0.000022
1750	1.7403e+02	2.5921	-2.432446	0.000180	1.801200	0.305132	-0.000018
1751	1.7413e+02	2.5814	-2.455257	0.000229	2.292436	0.388349	-0.000023
1752	1.7422e+02	2.5724	-2.479290	0.000242	2.415246	0.409154	-0.000024
1753	1.7432e+02	2.5621	-2.499250	0.000201	2.005882	0.339806	-0.000020
1754	1.7442e+02	2.5521	-2.519210	0.000201	2.005882	0.339806	-0.000020
1755	1.7452e+02	2.5438	-2.537948	0.000188	1.883073	0.319001	-0.000019
1756	1.7462e+02	2.5328	-2.566869	0.000291	2.906482	0.492371	-0.000029
1757	1.7472e+02	2.5218	-2.583977	0.000172	1.719327	0.291262	-0.000017
1758	1.7482e+02	2.5121	-2.608418	0.000246	2.456182	0.416088	-0.000025
1759	1.7492e+02	2.5016	-2.627156	0.000188	1.883073	0.319001	-0.000019
1760	1.7502e+02	2.4931	-2.653226	0.000262	2.619927	0.443828	-0.000026
1761	1.7512e+02	2.4837	-2.671149	0.000180	1.801200	0.305132	-0.000018
1762	1.7522e+02	2.4751	-2.694367	0.000233	2.333373	0.395284	-0.000023
1763	1.7532e+02	2.4645	-2.717993	0.000237	2.374309	0.402219	-0.000024
1764	1.7542e+02	2.4538	-2.740397	0.000225	2.251500	0.381414	-0.000023
1765	1.7552e+02	2.4442	-2.759135	0.000188	1.883073	0.319001	-0.000019
1766	1.7562e+02	2.4352	-2.781131	0.000221	2.210564	0.374480	-0.000022
1767	1.7572e+02	2.4248	-2.804757	0.000237	2.374309	0.402219	-0.000024
1768	1.7582e+02	2.4132	-2.823495	0.000188	1.883073	0.319001	-0.000019
1769	1.7592e+02	2.4057	-2.849157	0.000258	2.578991	0.436893	-0.000026
1770	1.7602e+02	2.3948	-2.871561	0.000225	2.251500	0.381414	-0.000023
1771	1.7612e+02	2.3827	-2.894372	0.000229	2.292436	0.388349	-0.000023
1772	1.7621e+02	2.3733	-2.916369	0.000221	2.210564	0.374480	-0.000022
1773	1.7631e+02	2.3626	-2.942032	0.000258	2.578991	0.436893	-0.000026
1774	1.7641e+02	2.3548	-2.960769	0.000188	1.883073	0.319001	-0.000019
1775	1.7651e+02	2.3438	-2.985210	0.000246	2.456182	0.416088	-0.000025
1776	1.7661e+02	2.3335	-3.004355	0.000192	1.924009	0.325936	-0.000019
1777	1.7671e+02	2.3259	-3.029610	0.000254	2.538055	0.429958	-0.000025
1778	1.7681e+02	2.3136	-3.053236	0.000237	2.374309	0.402219	-0.000024
1779	1.7691e+02	2.3046	-3.074011	0.000209	2.087755	0.353675	-0.000021
1780	1.7701e+02	2.2953	-3.095192	0.000213	2.128691	0.360610	-0.000021
1781	1.7711e+02	2.2847	-3.113930	0.000188	1.883073	0.319001	-0.000019
1782	1.7721e+02	2.2720	-3.136741	0.000229	2.292436	0.388349	-0.000023
1783	1.7731e+02	2.2675	-3.160775	0.000242	2.415246	0.409154	-0.000024
1784	1.7741e+02	2.2538	-3.177476	0.000168	1.678391	0.284327	-0.000017
1785	1.7751e+02	2.2438	-3.203953	0.000266	2.660864	0.450763	-0.000027
1786	1.7761e+02	2.2356	-3.227171	0.000233	2.333373	0.395284	-0.000023
1787	1.7771e+02	2.2242	-3.245909	0.000188	1.883073	0.319001	-0.000019
1788	1.7781e+02	2.2134	-3.267498	0.000217	2.169627	0.367545	-0.000022
1789	1.7791e+02	2.2022	-3.287458	0.000201	2.005882	0.339806	-0.000020
1790	1.7801e+02	2.1949	-3.313121	0.000258	2.578991	0.436893	-0.000026
1791	1.7810e+02	2.1852	-3.333080	0.000201	2.005882	0.339806	-0.000020
1792	1.7820e+02	2.1777	-3.350596	0.000176	1.760264	0.298197	-0.000018
1793	1.7830e+02	2.1662	-3.374222	0.000237	2.374309	0.402219	-0.000024
1794	1.7840e+02	2.1556	-3.394589	0.000205	2.046818	0.346740	-0.000020
1795	1.7850e+02	2.1458	-3.419030	0.000246	2.456182	0.416088	-0.000025
1796	1.7860e+02	2.1337	-3.441434	0.000225	2.251500	0.381414	-0.000023
1797	1.7870e+02	2.1233	-3.462208	0.000209	2.087755	0.353675	-0.000021
1798	1.7880e+02	2.1149	-3.483390	0.000213	2.128691	0.360610	-0.000021
1799	1.7890e+02	2.1032	-3.511496	0.000282	2.824609	0.478502	-0.000028
1800	1.7900e+02	2.0948	-3.531049	0.000196	1.964946	0.332871	-0.000020
1801	1.7910e+02	2.0873	-3.554267	0.000233	2.333373	0.395284	-0.000023
1802	1.7920e+02	2.0726	-3.579115	0.000250	2.497118	0.423023	-0.000025
1803	1.7930e+02	2.0638	-3.605185	0.000262	2.619927	0.443828	-0.000026
1804	1.7940e+02	2.0535	-3.625552	0.000205	2.046818	0.346740	-0.000020
1805	1.7950e+02	2.0439	-3.649993	0.000246	2.456182	0.416088	-0.000025
1806	1.7960e+02	2.0349	-3.672397	0.000225	2.251500	0.381414	-0.000023
1807	1.7970e+02	2.0247	-3.699281	0.000270	2.701800	0.457697	-0.000027
1808	1.7980e+02	2.0164	-3.721685	0.000225	2.251500	0.381414	-0.000023
1809	1.7990e+02	2.0052	-3.748162	0.000266	2.660864	0.450763	-0.000027
1810	1.8000e+02	1.9951	-3.773418	0.000254	2.538055	0.429958	-0.000025
1811	1.8009e+02	1.9849	-3.798266	0.000250	2.497118	0.423023	-0.000025
1812	1.8019e+02	1.9759	-3.824336	0.000262	2.619927	0.443828	-0.000026
1813	1.8029e+02	1.9644	-3.852442	0.000282	2.824609	0.478502	-0.000028
1814	1.8039e+02	1.9542	-3.879327	0.000270	2.701800	0.457697	-0.000027
1815	1.8049e+02	1.9464	-3.903360	0.000242	2.415246	0.409154	-0.000024
1816	1.8059e+02	1.9357	-3.928615	0.000254	2.538055	0.429958	-0.000025
1817	1.8069e+02	1.9240	-3.957129	0.000287	2.865546	0.485437	-0.000029
1818	1.8079e+02	1.9159	-3.985643	0.000287	2.865546	0.485437	-0.000029
1819	1.8089e+02	1.9067	-4.010491	0.000250	2.497118	0.423023	-0.000025
1820	1.8099e+02	1.8959	-4.034524	0.000242	2.415246	0.409154	-0.000024
1821	1.8109e+02	1.8855	-4.059780	0.000254	2.538055	0.429958	-0.000025
1822	1.8119e+02	1.8768	-4.085849	0.000262	2.619927	0.443828	-0.000026
1823	1.8129e+02	1.8661	-4.116400	0.000307	3.070227	0.520111	-0.000031
1824	1.8139e+02	1.8591	-4.144507	0.000282	2.824609	0.478502	-0.000028
1825	1.8149e+02	1.8461	-4.172206	0.000278	2.783673	0.471567	-0.000028
1826	1.8159e+02	1.8359	-4.199091	0.000270	2.701800	0.457697	-0.000027
1827	1.8169e+02	1.8269	-4.223124	0.000242	2.415246	0.409154	-0.000024
1828	1.8179e+02	1.8169	-4.251638	0.000287	2.865546	0.485437	-0.000029
1829	1.8189e+02	1.8054	-4.274449	0.000229	2.292436	0.388349	-0.000023
1830	1.8199e+02	1.7973	-4.301741	0.000274	2.742736	0.464632	-0.000027
1831	1.8209e+02	1.7832	-4.326589	0.000250	2.497118	0.423023	-0.000025
1832	1.8218e+02	1.7757	-4.352251	0.000258	2.578991	0.436893	-0.000026
1833	1.8228e+02	1.7652	-4.378321	0.000262	2.619927	0.443828	-0.000026
1834	1.8238e+02	1.7594	-4.403169	0.000250	2.497118	0.423023	-0.000025
1835	1.8248e+02	1.7500	-4.434127	0.000311	3.111164	0.527045	-0.000031
1836	1.8258e+02	1.7374	-4.457346	0.000233	2.333373	0.395284	-0.000023
1837	1.8268e+02	1.7268	-4.486675	0.000295	2.947418	0.499306	-0.000029
1838	1.8278e+02	1.7146	-4.509078	0.000225	2.251500	0.381414	-0.000023
1839	1.8288e+02	1.7067	-4.531890	0.000229	2.292436	0.388349	-0.000023
1840	1.8298e+02	1.6967	-4.559182	0.000274	2.742736	0.464632	-0.000027
1841	1.8308e+02	1.6884	-4.581993	0.000229	2.292436	0.388349	-0.000023
1842	1.8318e+02	1.6795	-4.610507	0.000287	2.865546	0.485437	-0.000029
1843	1.8328e+02	1.6657	-4.633725	0.000233	2.333373	0.395284	-0.000023
1844	1.8338e+02	1.6573	-4.659388	0.000258	2.578991	0.436893	-0.000026
1845	1.8348e+02	1.6468	-4.685865	0.000266	2.660864	0.450763	-0.000027
1846	1.8358e+02	1.6381	-4.713972	0.000282	2.824609	0.478502	-0.000028
1847	1.8368e+02	1.6284	-4.740856	0.000270	2.701800	0.457697	-0.000027
1848	1.8378e+02	1.6174	-4.760816	0.000201	2.005882	0.339806	-0.000020
1849	1.8388e+02	1.6063	-4.791774	0.000311	3.111164	0.527045	-0.000031
1850	1.8398e+02	1.5955	-4.815400	0.000237	2.374309	0.402219	-0.000024
1851	1.8407e+02	1.5907	-4.839026	0.000237	2.374309	0.402219	-0.000024
1852	1.8417e+02	1.5829	-4.865910	0.000270	2.701800	0.457697	-0.000027
1853	1.8427e+02	1.5681	-4.888722	0.000229	2.292436	0.388349	-0.000023
1854	1.8437e+02	1.5572	-4.913162	0.000246	2.456182	0.416088	-0.000025
1855	1.8447e+02	1.5461	-4.942491	0.000295	2.947418	0.499306	-0.000029
1856	1.8457e+02	1.5369	-4.962858	0.000205	2.046818	0.346740	-0.000020
1857	1.8467e+02	1.5269	-4.986891	0.000242	2.415246	0.409154	-0.000024
1858	1.8477e+02	1.5165	-5.015813	0.000291	2.906482	0.492371	-0.000029
1859	1.8487e+02	1.5077	-5.039438	0.000237	2.374309	0.402219	-0.000024
1860	1.8497e+02	1.4971	-5.066323	0.000270	2.701800	0.457697	-0.000027
1861	1.8507e+02	1.4877	-5.089949	0.000237	2.374309	0.402219	-0.000024
1862	1.8517e+02	1.4788	-5.115204	0.000254	2.538055	0.429958	-0.000025
1863	1.8527e+02	1.4680	-5.140867	0.000258	2.578991	0.436893	-0.000026
1864	1.8537e+02	1.4588	-5.167751	0.000270	2.701800	0.457697	-0.000027
1865	1.8547e+02	1.4478	-5.197080	0.000295	2.947418	0.499306	-0.000029
1866	1.8557e+02	1.4379	-5.225187	0.000282	2.824609	0.478502	-0.000028
1867	1.8567e+02	1.4284	-5.250442	0.000254	2.538055	0.429958	-0.000025
1868	1.8577e+02	1.4187	-5.280585	0.000303	3.029291	0.513176	-0.000030
1869	1.8587e+02	1.4081	-5.305433	0.000250	2.497118	0.423023	-0.000025
1870	1.8597e+02	1.3987	-5.329059	0.000237	2.374309	0.402219	-0.000024
1871	1.8606e+02	1.3877	-5.355944	0.000270	2.701800	0.457697	-0.000027
1872	1.8616e+02	1.3771	-5.386087	0.000303	3.029291	0.513176	-0.000030
1873	1.8626e+02	1.3670	-5.411342	0.000254	2.538055	0.429958	-0.000025
1874	1.8636e+02	1.3601	-5.437412	0.000262	2.619927	0.443828	-0.000026
1875	1.8646e+02	1.3503	-5.465111	0.000278	2.783673	0.471567	-0.000028
1876	1.8656e+02	1.3392	-5.492403	0.000274	2.742736	0.464632	-0.000027
1877	1.8666e+02	1.3293	-5.520103	0.000278	2.783673	0.471567	-0.000028
1878	1.8676e+02	1.3203	-5.548617	0.000287	2.865546	0.485437	-0.000029
1879	1.8686e+02	1.3112	-5.576316	0.000278	2.783673	0.471567	-0.000028
1880	1.8696e+02	1.2963	-5.601978	0.000258	2.578991	0.436893	-0.000026
1881	1.8706e+02	1.2890	-5.628048	0.000262	2.619927	0.443828	-0.000026
1882	1.8716e+02	1.2769	-5.656970	0.000291	2.906482	0.492371	-0.000029
1883	1.8726e+02	1.2698	-5.682225	0.000254	2.538055	0.429958	-0.000025
1884	1.8736e+02	1.2592	-5.707888	0.000258	2.578991	0.436893	-0.000026
1885	1.8746e+02	1.2487	-5.728255	0.000205	2.046818	0.346740	-0.000020
1886	1.8756e+02	1.2402	-5.753510	0.000254	2.538055	0.429958	-0.000025
1887	1.8766e+02	1.2297	-5.776321	0.000229	2.292436	0.388349	-0.000023
1888	1.8776e+02	1.2194	-5.806057	0.000299	2.988355	0.506241	-0.000030
1889	1.8786e+02	1.2096	-5.828868	0.000229	2.292436	0.388349	-0.000023
1890	1.8796e+02	1.2010	-5.855753	0.000270	2.701800	0.457697	-0.000027
1891	1.8806e+02	1.1879	-5.878157	0.000225	2.251500	0.381414	-0.000023
1892	1.8815e+02	1.1825	-5.905041	0.000270	2.701800	0.457697	-0.000027
1893	1.8825e+02	1.1701	-5.930297	0.000254	2.538055	0.429958	-0.000025
1894	1.8835e+02	1.1581	-5.953922	0.000237	2.374309	0.402219	-0.000024
1895	1.8845e+02	1.1500	-5.973882	0.000201	2.005882	0.339806	-0.000020
1896	1.8855e+02	1.1401	-5.999545	0.000258	2.578991	0.436893	-0.000026
1897	1.8865e+02	1.1306	-6.020319	0.000209	2.087755	0.353675	-0.000021
1898	1.8875e+02	1.1207	-6.043538	0.000233	2.333373	0.395284	-0.000023
1899	1.8885e+02	1.1098	-6.067571	0.000242	2.415246	0.409154	-0.000024
1900	1.8895e+02	1.0996	-6.088753	0.000213	2.128691	0.360610	-0.000021
1901	1.8905e+02	1.0913	-6.111971	0.000233	2.333373	0.395284	-0.000023
1902	1.8915e+02	1.0787	-6.142115	0.000303	3.029291	0.513176	-0.000030
1903	1.8925e+02	1.0715	-6.164111	0.000221	2.210564	0.374480	-0.000022
1904	1.8935e+02	1.0608	-6.186515	0.000225	2.251500	0.381414	-0.000023
1905	1.8945e+02	1.0497	-6.209326	0.000229	2.292436	0.388349	-0.000023
1906	1.8955e+02	1.0409	-6.229693	0.000205	2.046818	0.346740	-0.000020
1907	1.8965e+02	1.0297	-6.259022	0.000295	2.947418	0.499306	-0.000029
1908	1.8975e+02	1.0201	-6.279796	0.000209	2.087755	0.353675	-0.000021
1909	1.8985e+02	1.0120	-6.299756	0.000201	2.005882	0.339806	-0.000020
1910	1.8995e+02	1.0003	-6.326641	0.000270	2.701800	0.457697	-0.000027
1911	1.9004e+02	0.9908	-6.347823	0.000213	2.128691	0.360610	-0.000021
1912	1.9014e+02	0.9788	-6.373485	0.000258	2.578991	0.436893	-0.000026
1913	1.9024e+02	0.9690	-6.396704	0.000233	2.333373	0.395284	-0.000023
1914	1.9034e+02	0.9595	-6.423588	0.000270	2.701800	0.457697	-0.000027
1915	1.9044e+02	0.9527	-6.446807	0.000233	2.333373	0.395284	-0.000023
1916	1.9054e+02	0.9409	-6.473284	0.000266	2.660864	0.450763	-0.000027
1917	1.9064e+02	0.9339	-6.498132	0.000250	2.497118	0.423023	-0.000025
1918	1.9074e+02	0.9206	-6.526239	0.000282	2.824609	0.478502	-0.000028
1919	1.9084e+02	0.9105	-6.548235	0.000221	2.210564	0.374480	-0.000022
1920	1.9094e+02	0.9008	-6.575120	0.000270	2.701800	0.457697	-0.000027
1921	1.9104e+02	0.8927	-6.604448	0.000295	2.947418	0.499306	-0.000029
1922	1.9114e+02	0.8826	-6.624816	0.000205	2.046818	0.346740	-0.000020
1923	1.9124e+02	0.8698	-6.650478	0.000258	2.578991	0.436893	-0.000026
1924	1.9134e+02	0.8611	-6.678992	0.000287	2.865546	0.485437	-0.000029
1925	1.9144e+02	0.8489	-6.703840	0.000250	2.497118	0.423023	-0.000025
1926	1.9154e+02	0.8430	-6.727873	0.000242	2.415246	0.409154	-0.000024
1927	1.9164e+02	0.8314	-6.754351	0.000266	2.660864	0.450763	-0.000027
1928	1.9174e+02	0.8208	-6.782864	0.000287	2.865546	0.485437	-0.000029
1929	1.9184e+02	0.8117	-6.806490	0.000237	2.374309	0.402219	-0.000024
1930	1.9194e+02	0.8016	-6.830116	0.000237	2.374309	0.402219	-0.000024
1931	1.9203e+02	0.7919	-6.859445	0.000295	2.947418	0.499306	-0.000029
1932	1.9213e+02	0.7842	-6.887552	0.000282	2.824609	0.478502	-0.000028
1933	1.9223e+02	0.7708	-6.909955	0.000225	2.251500	0.381414	-0.000023
1934	1.9233e+02	0.7604	-6.938469	0.000287	2.865546	0.485437	-0.000029
1935	1.9243e+02	0.7505	-6.966576	0.000282	2.824609	0.478502	-0.000028
1936	1.9253e+02	0.7414	-6.991424	0.000250	2.497118	0.423023	-0.000025
1937	1.9263e+02	0.7336	-7.015050	0.000237	2.374309	0.402219	-0.000024
1938	1.9273e+02	0.7213	-7.043156	0.000282	2.824609	0.478502	-0.000028
1939	1.9283e+02	0.7125	-7.070448	0.000274	2.742736	0.464632	-0.000027
1940	1.9293e+02	0.7027	-7.097740	0.000274	2.742736	0.464632	-0.000027
1941	1.9303e+02	0.6959	-7.125847	0.000282	2.824609	0.478502	-0.000028
1942	1.9313e+02	0.6811	-7.152324	0.000266	2.660864	0.450763	-0.000027
1943	1.9323e+02	0.6731	-7.177987	0.000258	2.578991	0.436893	-0.000026
1944	1.9333e+02	0.6655	-7.205686	0.000278	2.783673	0.471567	-0.000028
1945	1.9343e+02	0.6509	-7.235015	0.000295	2.947418	0.499306	-0.000029
1946	1.9353e+02	0.6439	-7.256197	0.000213	2.128691	0.360610	-0.000021
1947	1.9363e+02	0.6364	-7.282674	0.000266	2.660864	0.450763	-0.000027
1948	1.9373e+02	0.6239	-7.310780	0.000282	2.824609	0.478502	-0.000028
1949	1.9383e+02	0.6133	-7.331555	0.000209	2.087755	0.353675	-0.000021
1950	1.9393e+02	0.6013	-7.360476	0.000291	2.906482	0.492371	-0.000029
1951	1.9403e+02	0.5926	-7.389805	0.000295	2.947418	0.499306	-0.000029
1952	1.9412e+02	0.5822	-7.413023	0.000233	2.333373	0.395284	-0.000023
1953	1.9422e+02	0.5727	-7.434205	0.000213	2.128691	0.360610	-0.000021
1954	1.9432e+02	0.5614	-7.460275	0.000262	2.619927	0.443828	-0.000026
1955	1.9442e+02	0.5543	-7.487160	0.000270	2.701800	0.457697	-0.000027
1956	1.9452e+02	0.5434	-7.515266	0.000282	2.824609	0.478502	-0.000028
1957	1.9462e+02	0.5362	-7.542558	0.000274	2.742736	0.464632	-0.000027
1958	1.9472e+02	0.5228	-7.568628	0.000262	2.619927	0.443828	-0.000026
1959	1.9482e+02	0.5146	-7.597957	0.000295	2.947418	0.499306	-0.000029
1960	1.9492e+02	0.5021	-7.622805	0.000250	2.497118	0.423023	-0.000025
1961	1.9502e+02	0.4922	-7.641135	0.000184	1.842136	0.312066	-0.000018
1962	1.9512e+02	0.4826	-7.672093	0.000311	3.111164	0.527045	-0.000031
1963	1.9522e+02	0.4745	-7.694904	0.000229	2.292436	0.388349	-0.000023
1964	1.9532e+02	0.4636	-7.723826	0.000291	2.906482	0.492371	-0.000029
1965	1.9542e+02	0.4514	-7.753562	0.000299	2.988355	0.506241	-0.000030
1966	1.9552e+02	0.4454	-7.778817	0.000254	2.538055	0.429958	-0.000025
1967	1.9562e+02	0.4327	-7.803665	0.000250	2.497118	0.423023	-0.000025
1968	1.9572e+02	0.4214	-7.835030	0.000315	3.152100	0.533980	-0.000032
1969	1.9582e+02	0.4106	-7.864359	0.000295	2.947418	0.499306	-0.000029
1970	1.9592e+02	0.4042	-7.893280	0.000291	2.906482	0.492371	-0.000029
1971	1.9601e+02	0.3934	-7.917721	0.000246	2.456182	0.416088	-0.000025
1972	1.9611e+02	0.3831	-7.944198	0.000266	2.660864	0.450763	-0.000027
1973	1.9621e+02	0.3752	-7.975971	0.000319	3.193036	0.540915	-0.000032
1974	1.9631e+02	0.3620	-8.004892	0.000291	2.906482	0.492371	-0.000029
1975	1.9641e+02	0.3525	-8.029740	0.000250	2.497118	0.423023	-0.000025
1976	1.9651e+02	0.3424	-8.062327	0.000327	3.274909	0.554785	-0.000033
1977	1.9661e+02	0.3357	-8.090841	0.000287	2.865546	0.485437	-0.000029
1978	1.9671e+02	0.3237	-8.126688	0.000360	3.602400	0.610263	-0.000036
1979	1.9681e+02	0.3127	-8.154794	0.000282	2.824609	0.478502	-0.000028
1980	1.9691e+02	0.3036	-8.184123	0.000295	2.947418	0.499306	-0.000029
1981	1.9701e+02	0.2959	-8.215896	0.000319	3.193036	0.540915	-0.000032
1982	1.9711e+02	0.2853	-8.244410	0.000287	2.865546	0.485437	-0.000029
1983	1.9721e+02	0.2734	-8.276997	0.000327	3.274909	0.554785	-0.000033
1984	1.9731e+02	0.2620	-8.309177	0.000323	3.233973	0.547850	-0.000032
1985	1.9741e+02	0.2545	-8.340950	0.000319	3.193036	0.540915	-0.000032
1986	1.9751e+02	0.2436	-8.370278	0.000295	2.947418	0.499306	-0.000029
1987	1.9761e+02	0.2342	-8.402866	0.000327	3.274909	0.554785	-0.000033
1988	1.9771e+02	0.2261	-8.433824	0.000311	3.111164	0.527045	-0.000031
1989	1.9781e+02	0.2132	-8.463967	0.000303	3.029291	0.513176	-0.000030
1990	1.9791e+02	0.2027	-8.492889	0.000291	2.906482	0.492371	-0.000029
1991	1.9800e+02	0.1941	-8.527920	0.000352	3.520527	0.596393	-0.000035
1992	1.9810e+02	0.1845	-8.558878	0.000311	3.111164	0.527045	-0.000031
1993	1.9820e+02	0.1752	-8.592687	0.000340	3.397718	0.575589	-0.000034
1994	1.9830e+02	0.1649	-8.624053	0.000315	3.152100	0.533980	-0.000032
1995	1.9840e+02	0.1546	-8.653789	0.000299	2.988355	0.506241	-0.000030
1996	1.9850e+02	0.1446	-8.689228	0.000356	3.561464	0.603328	-0.000036
1997	1.9860e+02	0.1355	-8.716927	0.000278	2.783673	0.471567	-0.000028
1998	1.9870e+02	0.1222	-8.749514	0.000327	3.274909	0.554785	-0.000033
1999	1.9880e+02	0.1154	-8.778843	0.000295	2.947418	0.499306	-0.000029
2000	1.9890e+02	0.1047	-8.813060	0.000344	3.438655	0.582524	-0.000034
2001	1.9900e+02	0.0946	-8.838315	0.000254	2.538055	0.429958	-0.000025
2002	1.9910e+02	0.0874	-8.871717	0.000336	3.356782	0.568654	-0.000034
2003	1.9920e+02	0.0750	-8.904712	0.000332	3.315846	0.561719	-0.000033
2004	1.9930e+02	0.0647	-8.928338	0.000237	2.374309	0.402219	-0.000024
2005	1.9940e+02	0.0529	-8.963777	0.000356	3.561464	0.603328	-0.000036
2006	1.9950e+02	0.0455	-8.996364	0.000327	3.274909	0.554785	-0.000033
2007	1.9960e+02	0.0317	-9.023249	0.000270	2.701800	0.457697	-0.000027
2008	1.9970e+02	0.0279	-9.054207	0.000311	3.111164	0.527045	-0.000031
2009	1.9980e+02	0.0155	-9.085572	0.000315	3.152100	0.533980	-0.000032
2010	1.9990e+02	0.0078	-9.114901	0.000295	2.947418	0.499306	-0.000029
2011	2.0000e+02	-0.0053	-9.147081	0.000295	2.947418	0.499306	-0.000032

PMax (uC/cm2):	2.05e+01
Pr (uC/cm2):	1.07e+00
-Pr (uC/cm2):	0.00e+00
PLoss (uC/cm2):	0.00e+00
C (Max-Eff) (nF):	2.05e-01
K (Eff):	3.47e+02
Vert. (+/-Pr) Shift (uC/cm2):	5.36e-01
Offset (uC/cm2):	1.02e+01

A (Loop Area - uC/cm2·Volts):	-1.08e-02



Hysteresis Version: 5.48.1 - Radiant Technologies, Inc., 1999 - 9/12/24

