»»»»»»»»»»»»»»»»»»»»»»»»»»»»»»»»»»»» Hysteresis ««««««««««««««««««««««««««««««««««««
»»»  Executed Version:	5.48.1
»»»  Vision Version:	5.48.4 (R)
»»»  Vision Compiled:	9/18/24
»»»  Driver Version:	5.47.0
»»»  Windows Version:	Windows 8 or 8.1
»»»  Processor Information:	x86 (AMD or Intel) - 32 Processors
»»»  Tester Name:	PMF21124-494 (100V)
»»»  Tester S/N:	PMF21124-494
»»»  Internal Amp Type:	100V RevK 270k
»»»  Internal Amp S/N:	iAB2-596/K     
»»»  Execution Count:	1
»»»»»»»»»»»»»»»»»»»»»»»»»»»»»»»»»»»»»»»»»»««««««««««««««««««««««««««««««««««««««««««

Stored:	6/27/2025 - 16:46:27
Configured:	06/27/25 11:23:28 AM
Executed:	06/27/25 04:43:39 PM

»»»»»»»»»»»»»»»»»»»»»»»»»»»»»»»»»»» Sample Info ««««««««««««««««««««««««««««««««««««
Sample Name:	
Lot Name:	
Wafer Name:	
Die Row/Column:	0/0
Capacitor Number:	0
Sample Area (cm2):	1.00e-04
Sample Thickness (microns):	1.50e-01

Amplifier:	Internal

»»»»»»»»»»»»»»»»»»»»»»»»»»»»»»»»»»» Tester Info «««««««««««««««««««««««««««««««««««
Tester Name:	PMF21124-494 (100V)
Tester Serial Number:	PMF21124-494
Return Signal Amp. Level:	1.9 [Index: 2]

»»»»»»»»»»»»»»»»»»»»»»»»»»»»»»»» Hysteresis Info ««««««««««««««««««««««««««««««««««
Task Name:	Hyst-1276
Volts:	10.00
Field:	666.67 (kV/cm)
DCBias:	0.00
DCField:	0.00 (kV/cm)
Hysteresis Period (ms):	2.00e+02
Preset:	Enabled
Preset Delay (ms):	1.00e+03
Profile:	Standard Monopolar

»»»»»»»»»»»»»»»»»»»»»»»»»»»»»»»»»»»»»» Data «««««««««««««««««««««««««««««««««««««««
Points:	2011

Valid Data

Point	Time (ms)	Drive Voltage	Measured Polarization (uC/cm2)	Capacitance (uF)	Normalized Capacitance (uF/cm2)	Dielectric Constant	Instantaneous Current (mA)
   1	0.0000e+00	-0.0051	-15.210782	0.000295	2.948116	0.499424	0.000029
   2	9.9500e-02	0.0043	-15.181453	0.000295	2.948116	0.499424	0.000029
   3	1.9900e-01	0.0156	-15.154161	0.000274	2.743385	0.464742	0.000027
   4	2.9850e-01	0.0270	-15.122389	0.000319	3.193792	0.541043	0.000032
   5	3.9800e-01	0.0345	-15.094689	0.000278	2.784331	0.471678	0.000028
   6	4.9750e-01	0.0438	-15.065361	0.000295	2.948116	0.499424	0.000029
   7	5.9700e-01	0.0533	-15.039698	0.000258	2.579601	0.436996	0.000026
   8	6.9650e-01	0.0667	-15.010369	0.000295	2.948116	0.499424	0.000029
   9	7.9600e-01	0.0735	-14.982263	0.000283	2.825277	0.478615	0.000028
  10	8.9550e-01	0.0870	-14.953341	0.000291	2.907169	0.492488	0.000029
  11	9.9500e-01	0.0943	-14.924420	0.000291	2.907169	0.492488	0.000029
  12	1.0945e+00	0.1049	-14.889796	0.000348	3.480414	0.589598	0.000035
  13	1.1940e+00	0.1142	-14.863726	0.000262	2.620547	0.443933	0.000026
  14	1.2935e+00	0.1248	-14.833990	0.000299	2.989062	0.506361	0.000030
  15	1.3930e+00	0.1321	-14.807105	0.000270	2.702439	0.457806	0.000027
  16	1.4925e+00	0.1458	-14.771259	0.000360	3.603252	0.610407	0.000036
  17	1.5920e+00	0.1543	-14.744782	0.000266	2.661493	0.450869	0.000027
  18	1.6915e+00	0.1662	-14.712602	0.000323	3.234738	0.547979	0.000032
  19	1.7910e+00	0.1757	-14.684495	0.000283	2.825277	0.478615	0.000028
  20	1.8905e+00	0.1840	-14.654759	0.000299	2.989062	0.506361	0.000030
  21	1.9900e+00	0.1934	-14.625431	0.000295	2.948116	0.499424	0.000029
  22	2.0895e+00	0.2056	-14.600583	0.000250	2.497709	0.423123	0.000025
  23	2.1890e+00	0.2135	-14.567588	0.000332	3.316630	0.561852	0.000033
  24	2.2885e+00	0.2248	-14.539889	0.000278	2.784331	0.471678	0.000028
  25	2.3880e+00	0.2339	-14.509338	0.000307	3.070954	0.520234	0.000031
  26	2.4875e+00	0.2434	-14.485305	0.000242	2.415817	0.409250	0.000024
  27	2.5870e+00	0.2546	-14.456383	0.000291	2.907169	0.492488	0.000029
  28	2.6865e+00	0.2640	-14.427462	0.000291	2.907169	0.492488	0.000029
  29	2.7860e+00	0.2740	-14.404244	0.000233	2.333925	0.395378	0.000023
  30	2.8855e+00	0.2833	-14.374508	0.000299	2.989062	0.506361	0.000030
  31	2.9850e+00	0.2943	-14.343957	0.000307	3.070954	0.520234	0.000031
  32	3.0845e+00	0.3049	-14.317480	0.000266	2.661493	0.450869	0.000027
  33	3.1840e+00	0.3127	-14.287744	0.000299	2.989062	0.506361	0.000030
  34	3.2835e+00	0.3245	-14.263303	0.000246	2.456763	0.416187	0.000025
  35	3.3830e+00	0.3340	-14.231530	0.000319	3.193792	0.541043	0.000032
  36	3.4825e+00	0.3435	-14.208719	0.000229	2.292979	0.388441	0.000023
  37	3.5820e+00	0.3526	-14.178169	0.000307	3.070954	0.520234	0.000031
  38	3.6815e+00	0.3625	-14.150877	0.000274	2.743385	0.464742	0.000027
  39	3.7810e+00	0.3733	-14.121548	0.000295	2.948116	0.499424	0.000029
  40	3.8805e+00	0.3822	-14.093441	0.000283	2.825277	0.478615	0.000028
  41	3.9800e+00	0.3932	-14.064927	0.000287	2.866223	0.485551	0.000029
  42	4.0795e+00	0.4033	-14.035191	0.000299	2.989062	0.506361	0.000030
  43	4.1790e+00	0.4130	-14.006270	0.000291	2.907169	0.492488	0.000029
  44	4.2785e+00	0.4227	-13.978571	0.000278	2.784331	0.471678	0.000028
  45	4.3780e+00	0.4333	-13.944761	0.000340	3.398522	0.575725	0.000034
  46	4.4775e+00	0.4430	-13.917469	0.000274	2.743385	0.464742	0.000027
  47	4.5770e+00	0.4556	-13.887326	0.000303	3.030008	0.513297	0.000030
  48	4.6765e+00	0.4612	-13.856368	0.000311	3.111900	0.527170	0.000031
  49	4.7760e+00	0.4740	-13.827039	0.000295	2.948116	0.499424	0.000029
  50	4.8755e+00	0.4826	-13.794452	0.000328	3.275684	0.554916	0.000033
  51	4.9750e+00	0.4919	-13.761457	0.000332	3.316630	0.561852	0.000033
  52	5.0745e+00	0.5027	-13.731721	0.000299	2.989062	0.506361	0.000030
  53	5.1740e+00	0.5122	-13.697097	0.000348	3.480414	0.589598	0.000035
  54	5.2735e+00	0.5228	-13.663288	0.000340	3.398522	0.575725	0.000034
  55	5.3730e+00	0.5310	-13.634774	0.000287	2.866223	0.485551	0.000029
  56	5.4725e+00	0.5416	-13.603816	0.000311	3.111900	0.527170	0.000031
  57	5.5720e+00	0.5540	-13.573265	0.000307	3.070954	0.520234	0.000031
  58	5.6715e+00	0.5617	-13.537826	0.000356	3.562306	0.603471	0.000036
  59	5.7710e+00	0.5720	-13.506868	0.000311	3.111900	0.527170	0.000031
  60	5.8705e+00	0.5816	-13.475910	0.000311	3.111900	0.527170	0.000031
  61	5.9700e+00	0.5926	-13.442915	0.000332	3.316630	0.561852	0.000033
  62	6.0695e+00	0.6018	-13.407476	0.000356	3.562306	0.603471	0.000036
  63	6.1690e+00	0.6116	-13.375296	0.000323	3.234738	0.547979	0.000032
  64	6.2685e+00	0.6206	-13.345153	0.000303	3.030008	0.513297	0.000030
  65	6.3680e+00	0.6313	-13.315824	0.000295	2.948116	0.499424	0.000029
  66	6.4675e+00	0.6399	-13.278756	0.000373	3.726090	0.631217	0.000037
  67	6.5670e+00	0.6519	-13.250650	0.000283	2.825277	0.478615	0.000028
  68	6.6665e+00	0.6618	-13.218877	0.000319	3.193792	0.541043	0.000032
  69	6.7660e+00	0.6714	-13.185882	0.000332	3.316630	0.561852	0.000033
  70	6.8655e+00	0.6808	-13.157368	0.000287	2.866223	0.485551	0.000029
  71	6.9650e+00	0.6928	-13.125188	0.000323	3.234738	0.547979	0.000032
  72	7.0645e+00	0.7021	-13.095045	0.000303	3.030008	0.513297	0.000030
  73	7.1640e+00	0.7135	-13.064901	0.000303	3.030008	0.513297	0.000030
  74	7.2635e+00	0.7230	-13.035573	0.000295	2.948116	0.499424	0.000029
  75	7.3630e+00	0.7320	-13.006651	0.000291	2.907169	0.492488	0.000029
  76	7.4625e+00	0.7421	-12.974879	0.000319	3.193792	0.541043	0.000032
  77	7.5620e+00	0.7539	-12.944735	0.000303	3.030008	0.513297	0.000030
  78	7.6615e+00	0.7624	-12.910518	0.000344	3.439468	0.582662	0.000034
  79	7.7610e+00	0.7734	-12.879968	0.000307	3.070954	0.520234	0.000031
  80	7.8605e+00	0.7820	-12.848602	0.000315	3.152846	0.534107	0.000032
  81	7.9600e+00	0.7925	-12.817644	0.000311	3.111900	0.527170	0.000031
  82	8.0595e+00	0.8027	-12.788316	0.000295	2.948116	0.499424	0.000029
  83	8.1590e+00	0.8125	-12.759394	0.000291	2.907169	0.492488	0.000029
  84	8.2585e+00	0.8204	-12.734139	0.000254	2.538655	0.430060	0.000025
  85	8.3580e+00	0.8324	-12.702366	0.000319	3.193792	0.541043	0.000032
  86	8.4575e+00	0.8435	-12.669372	0.000332	3.316630	0.561852	0.000033
  87	8.5570e+00	0.8521	-12.640858	0.000287	2.866223	0.485551	0.000029
  88	8.6565e+00	0.8614	-12.609492	0.000315	3.152846	0.534107	0.000032
  89	8.7560e+00	0.8710	-12.582200	0.000274	2.743385	0.464742	0.000027
  90	8.8555e+00	0.8839	-12.551650	0.000307	3.070954	0.520234	0.000031
  91	8.9550e+00	0.8896	-12.520284	0.000315	3.152846	0.534107	0.000032
  92	9.0545e+00	0.9043	-12.489734	0.000307	3.070954	0.520234	0.000031
  93	9.1540e+00	0.9116	-12.465700	0.000242	2.415817	0.409250	0.000024
  94	9.2535e+00	0.9218	-12.432706	0.000332	3.316630	0.561852	0.000033
  95	9.3530e+00	0.9332	-12.402970	0.000299	2.989062	0.506361	0.000030
  96	9.4525e+00	0.9425	-12.372419	0.000307	3.070954	0.520234	0.000031
  97	9.5520e+00	0.9502	-12.341054	0.000315	3.152846	0.534107	0.000032
  98	9.6515e+00	0.9600	-12.314576	0.000266	2.661493	0.450869	0.000027
  99	9.7510e+00	0.9698	-12.282804	0.000319	3.193792	0.541043	0.000032
 100	9.8505e+00	0.9782	-12.254290	0.000287	2.866223	0.485551	0.000029
 101	9.9500e+00	0.9935	-12.226590	0.000278	2.784331	0.471678	0.000028
 102	1.0050e+01	1.0005	-12.197262	0.000295	2.948116	0.499424	0.000029
 103	1.0149e+01	1.0103	-12.165489	0.000319	3.193792	0.541043	0.000032
 104	1.0248e+01	1.0185	-12.140234	0.000254	2.538655	0.430060	0.000025
 105	1.0348e+01	1.0307	-12.108054	0.000323	3.234738	0.547979	0.000032
 106	1.0447e+01	1.0426	-12.080354	0.000278	2.784331	0.471678	0.000028
 107	1.0547e+01	1.0508	-12.048582	0.000319	3.193792	0.541043	0.000032
 108	1.0646e+01	1.0590	-12.022919	0.000258	2.579601	0.436996	0.000026
 109	1.0746e+01	1.0712	-11.989110	0.000340	3.398522	0.575725	0.000034
 110	1.0845e+01	1.0802	-11.958152	0.000311	3.111900	0.527170	0.000031
 111	1.0945e+01	1.0930	-11.928823	0.000295	2.948116	0.499424	0.000029
 112	1.1044e+01	1.1004	-11.894199	0.000348	3.480414	0.589598	0.000035
 113	1.1144e+01	1.1118	-11.866092	0.000283	2.825277	0.478615	0.000028
 114	1.1243e+01	1.1214	-11.834727	0.000315	3.152846	0.534107	0.000032
 115	1.1343e+01	1.1301	-11.804991	0.000299	2.989062	0.506361	0.000030
 116	1.1443e+01	1.1403	-11.772403	0.000328	3.275684	0.554916	0.000033
 117	1.1542e+01	1.1483	-11.745519	0.000270	2.702439	0.457806	0.000027
 118	1.1642e+01	1.1584	-11.712524	0.000332	3.316630	0.561852	0.000033
 119	1.1741e+01	1.1694	-11.680344	0.000323	3.234738	0.547979	0.000032
 120	1.1841e+01	1.1797	-11.649386	0.000311	3.111900	0.527170	0.000031
 121	1.1940e+01	1.1904	-11.624538	0.000250	2.497709	0.423123	0.000025
 122	1.2040e+01	1.2003	-11.590321	0.000344	3.439468	0.582662	0.000034
 123	1.2139e+01	1.2092	-11.557734	0.000328	3.275684	0.554916	0.000033
 124	1.2239e+01	1.2200	-11.531257	0.000266	2.661493	0.450869	0.000027
 125	1.2338e+01	1.2291	-11.499484	0.000319	3.193792	0.541043	0.000032
 126	1.2438e+01	1.2411	-11.472599	0.000270	2.702439	0.457806	0.000027
 127	1.2537e+01	1.2475	-11.438790	0.000340	3.398522	0.575725	0.000034
 128	1.2636e+01	1.2588	-11.413535	0.000254	2.538655	0.430060	0.000025
 129	1.2736e+01	1.2672	-11.387057	0.000266	2.661493	0.450869	0.000027
 130	1.2835e+01	1.2774	-11.355692	0.000315	3.152846	0.534107	0.000032
 131	1.2935e+01	1.2887	-11.324327	0.000315	3.152846	0.534107	0.000032
 132	1.3034e+01	1.3001	-11.298664	0.000258	2.579601	0.436996	0.000026
 133	1.3134e+01	1.3111	-11.273001	0.000258	2.579601	0.436996	0.000026
 134	1.3233e+01	1.3187	-11.244895	0.000283	2.825277	0.478615	0.000028
 135	1.3333e+01	1.3302	-11.219640	0.000254	2.538655	0.430060	0.000025
 136	1.3432e+01	1.3405	-11.193570	0.000262	2.620547	0.443933	0.000026
 137	1.3532e+01	1.3496	-11.168314	0.000254	2.538655	0.430060	0.000025
 138	1.3632e+01	1.3552	-11.143467	0.000250	2.497709	0.423123	0.000025
 139	1.3731e+01	1.3712	-11.117804	0.000258	2.579601	0.436996	0.000026
 140	1.3831e+01	1.3785	-11.091734	0.000262	2.620547	0.443933	0.000026
 141	1.3930e+01	1.3856	-11.059554	0.000323	3.234738	0.547979	0.000032
 142	1.4030e+01	1.3991	-11.038779	0.000209	2.088248	0.353759	0.000021
 143	1.4129e+01	1.4069	-11.009451	0.000295	2.948116	0.499424	0.000029
 144	1.4229e+01	1.4143	-10.987047	0.000225	2.252033	0.381505	0.000023
 145	1.4328e+01	1.4286	-10.959348	0.000278	2.784331	0.471678	0.000028
 146	1.4428e+01	1.4379	-10.933685	0.000258	2.579601	0.436996	0.000026
 147	1.4527e+01	1.4488	-10.910467	0.000233	2.333925	0.395378	0.000023
 148	1.4627e+01	1.4597	-10.881545	0.000291	2.907169	0.492488	0.000029
 149	1.4726e+01	1.4705	-10.857919	0.000237	2.374871	0.402314	0.000024
 150	1.4825e+01	1.4784	-10.831442	0.000266	2.661493	0.450869	0.000027
 151	1.4925e+01	1.4869	-10.802928	0.000287	2.866223	0.485551	0.000029
 152	1.5024e+01	1.4993	-10.779710	0.000233	2.333925	0.395378	0.000023
 153	1.5124e+01	1.5085	-10.752418	0.000274	2.743385	0.464742	0.000027
 154	1.5223e+01	1.5170	-10.725126	0.000274	2.743385	0.464742	0.000027
 155	1.5323e+01	1.5290	-10.697426	0.000278	2.784331	0.471678	0.000028
 156	1.5422e+01	1.5357	-10.670542	0.000270	2.702439	0.457806	0.000027
 157	1.5522e+01	1.5457	-10.642435	0.000283	2.825277	0.478615	0.000028
 158	1.5621e+01	1.5557	-10.613921	0.000287	2.866223	0.485551	0.000029
 159	1.5721e+01	1.5697	-10.591517	0.000225	2.252033	0.381505	0.000023
 160	1.5820e+01	1.5757	-10.562189	0.000295	2.948116	0.499424	0.000029
 161	1.5920e+01	1.5861	-10.532860	0.000295	2.948116	0.499424	0.000029
 162	1.6020e+01	1.5968	-10.503531	0.000295	2.948116	0.499424	0.000029
 163	1.6119e+01	1.6064	-10.477869	0.000258	2.579601	0.436996	0.000026
 164	1.6218e+01	1.6171	-10.450577	0.000274	2.743385	0.464742	0.000027
 165	1.6318e+01	1.6263	-10.424100	0.000266	2.661493	0.450869	0.000027
 166	1.6418e+01	1.6361	-10.395178	0.000291	2.907169	0.492488	0.000029
 167	1.6517e+01	1.6483	-10.367886	0.000274	2.743385	0.464742	0.000027
 168	1.6616e+01	1.6552	-10.342224	0.000258	2.579601	0.436996	0.000026
 169	1.6716e+01	1.6684	-10.312895	0.000295	2.948116	0.499424	0.000029
 170	1.6816e+01	1.6769	-10.284788	0.000283	2.825277	0.478615	0.000028
 171	1.6915e+01	1.6857	-10.258718	0.000262	2.620547	0.443933	0.000026
 172	1.7015e+01	1.7008	-10.230205	0.000287	2.866223	0.485551	0.000029
 173	1.7114e+01	1.7073	-10.199246	0.000311	3.111900	0.527170	0.000031
 174	1.7213e+01	1.7142	-10.175621	0.000237	2.374871	0.402314	0.000024
 175	1.7313e+01	1.7271	-10.150365	0.000254	2.538655	0.430060	0.000025
 176	1.7413e+01	1.7363	-10.121851	0.000287	2.866223	0.485551	0.000029
 177	1.7512e+01	1.7477	-10.093337	0.000287	2.866223	0.485551	0.000029
 178	1.7611e+01	1.7535	-10.061565	0.000319	3.193792	0.541043	0.000032
 179	1.7711e+01	1.7667	-10.036309	0.000254	2.538655	0.430060	0.000025
 180	1.7811e+01	1.7762	-10.007795	0.000287	2.866223	0.485551	0.000029
 181	1.7910e+01	1.7860	-9.978059	0.000299	2.989062	0.506361	0.000030
 182	1.8009e+01	1.7978	-9.956470	0.000217	2.170141	0.367632	0.000022
 183	1.8109e+01	1.8061	-9.926327	0.000303	3.030008	0.513297	0.000030
 184	1.8209e+01	1.8149	-9.898220	0.000283	2.825277	0.478615	0.000028
 185	1.8308e+01	1.8271	-9.870114	0.000283	2.825277	0.478615	0.000028
 186	1.8407e+01	1.8365	-9.837526	0.000328	3.275684	0.554916	0.000033
 187	1.8507e+01	1.8472	-9.815937	0.000217	2.170141	0.367632	0.000022
 188	1.8607e+01	1.8568	-9.785386	0.000307	3.070954	0.520234	0.000031
 189	1.8706e+01	1.8652	-9.757280	0.000283	2.825277	0.478615	0.000028
 190	1.8805e+01	1.8787	-9.728766	0.000287	2.866223	0.485551	0.000029
 191	1.8905e+01	1.8890	-9.705140	0.000237	2.374871	0.402314	0.000024
 192	1.9005e+01	1.8970	-9.677033	0.000283	2.825277	0.478615	0.000028
 193	1.9104e+01	1.9070	-9.651778	0.000254	2.538655	0.430060	0.000025
 194	1.9203e+01	1.9135	-9.626116	0.000258	2.579601	0.436996	0.000026
 195	1.9303e+01	1.9264	-9.601675	0.000246	2.456763	0.416187	0.000025
 196	1.9402e+01	1.9366	-9.572346	0.000295	2.948116	0.499424	0.000029
 197	1.9502e+01	1.9469	-9.547906	0.000246	2.456763	0.416187	0.000025
 198	1.9602e+01	1.9564	-9.522650	0.000254	2.538655	0.430060	0.000025
 199	1.9701e+01	1.9642	-9.494951	0.000278	2.784331	0.471678	0.000028
 200	1.9800e+01	1.9760	-9.466845	0.000283	2.825277	0.478615	0.000028
 201	1.9900e+01	1.9849	-9.437516	0.000295	2.948116	0.499424	0.000029
 202	2.0000e+01	1.9951	-9.415519	0.000221	2.211087	0.374568	0.000022
 203	2.0099e+01	2.0040	-9.388635	0.000270	2.702439	0.457806	0.000027
 204	2.0198e+01	2.0144	-9.362158	0.000266	2.661493	0.450869	0.000027
 205	2.0298e+01	2.0242	-9.335680	0.000266	2.661493	0.450869	0.000027
 206	2.0398e+01	2.0354	-9.309203	0.000266	2.661493	0.450869	0.000027
 207	2.0497e+01	2.0465	-9.286392	0.000229	2.292979	0.388441	0.000023
 208	2.0596e+01	2.0536	-9.256656	0.000299	2.989062	0.506361	0.000030
 209	2.0696e+01	2.0667	-9.231808	0.000250	2.497709	0.423123	0.000025
 210	2.0796e+01	2.0765	-9.200850	0.000311	3.111900	0.527170	0.000031
 211	2.0895e+01	2.0823	-9.176002	0.000250	2.497709	0.423123	0.000025
 212	2.0994e+01	2.0947	-9.147895	0.000283	2.825277	0.478615	0.000028
 213	2.1094e+01	2.1060	-9.120603	0.000274	2.743385	0.464742	0.000027
 214	2.1194e+01	2.1167	-9.092497	0.000283	2.825277	0.478615	0.000028
 215	2.1293e+01	2.1259	-9.059909	0.000328	3.275684	0.554916	0.000033
 216	2.1392e+01	2.1358	-9.032210	0.000278	2.784331	0.471678	0.000028
 217	2.1492e+01	2.1476	-9.002067	0.000303	3.030008	0.513297	0.000030
 218	2.1591e+01	2.1557	-8.973553	0.000287	2.866223	0.485551	0.000029
 219	2.1691e+01	2.1638	-8.943002	0.000307	3.070954	0.520234	0.000031
 220	2.1791e+01	2.1770	-8.910007	0.000332	3.316630	0.561852	0.000033
 221	2.1890e+01	2.1853	-8.881901	0.000283	2.825277	0.478615	0.000028
 222	2.1989e+01	2.1941	-8.850128	0.000319	3.193792	0.541043	0.000032
 223	2.2089e+01	2.2058	-8.819985	0.000303	3.030008	0.513297	0.000030
 224	2.2189e+01	2.2149	-8.791471	0.000287	2.866223	0.485551	0.000029
 225	2.2288e+01	2.2245	-8.763364	0.000283	2.825277	0.478615	0.000028
 226	2.2387e+01	2.2392	-8.731184	0.000323	3.234738	0.547979	0.000032
 227	2.2487e+01	2.2398	-8.701855	0.000295	2.948116	0.499424	0.000029
 228	2.2587e+01	2.2537	-8.671712	0.000303	3.030008	0.513297	0.000030
 229	2.2686e+01	2.2632	-8.642791	0.000291	2.907169	0.492488	0.000029
 230	2.2785e+01	2.2726	-8.610611	0.000323	3.234738	0.547979	0.000032
 231	2.2885e+01	2.2820	-8.577208	0.000336	3.357576	0.568789	0.000034
 232	2.2985e+01	2.2950	-8.550731	0.000266	2.661493	0.450869	0.000027
 233	2.3084e+01	2.3045	-8.517329	0.000336	3.357576	0.568789	0.000034
 234	2.3183e+01	2.3140	-8.489630	0.000278	2.784331	0.471678	0.000028
 235	2.3283e+01	2.3239	-8.457042	0.000328	3.275684	0.554916	0.000033
 236	2.3383e+01	2.3373	-8.425677	0.000315	3.152846	0.534107	0.000032
 237	2.3482e+01	2.3431	-8.400829	0.000250	2.497709	0.423123	0.000025
 238	2.3581e+01	2.3559	-8.369871	0.000311	3.111900	0.527170	0.000031
 239	2.3681e+01	2.3631	-8.344208	0.000258	2.579601	0.436996	0.000026
 240	2.3780e+01	2.3743	-8.315695	0.000287	2.866223	0.485551	0.000029
 241	2.3880e+01	2.3832	-8.281885	0.000340	3.398522	0.575725	0.000034
 242	2.3980e+01	2.3928	-8.257445	0.000246	2.456763	0.416187	0.000025
 243	2.4079e+01	2.4052	-8.227301	0.000303	3.030008	0.513297	0.000030
 244	2.4178e+01	2.4140	-8.197565	0.000299	2.989062	0.506361	0.000030
 245	2.4278e+01	2.4258	-8.165792	0.000319	3.193792	0.541043	0.000032
 246	2.4378e+01	2.4330	-8.142981	0.000229	2.292979	0.388441	0.000023
 247	2.4477e+01	2.4445	-8.112431	0.000307	3.070954	0.520234	0.000031
 248	2.4576e+01	2.4541	-8.082695	0.000299	2.989062	0.506361	0.000030
 249	2.4676e+01	2.4676	-8.055810	0.000270	2.702439	0.457806	0.000027
 250	2.4776e+01	2.4719	-8.025259	0.000307	3.070954	0.520234	0.000031
 251	2.4875e+01	2.4828	-7.998375	0.000270	2.702439	0.457806	0.000027
 252	2.4974e+01	2.4928	-7.968639	0.000299	2.989062	0.506361	0.000030
 253	2.5074e+01	2.5051	-7.941347	0.000274	2.743385	0.464742	0.000027
 254	2.5174e+01	2.5130	-7.915277	0.000262	2.620547	0.443933	0.000026
 255	2.5273e+01	2.5231	-7.885133	0.000303	3.030008	0.513297	0.000030
 256	2.5372e+01	2.5332	-7.858656	0.000266	2.661493	0.450869	0.000027
 257	2.5472e+01	2.5428	-7.835030	0.000237	2.374871	0.402314	0.000024
 258	2.5572e+01	2.5541	-7.799999	0.000352	3.521360	0.596535	0.000035
 259	2.5671e+01	2.5671	-7.773114	0.000270	2.702439	0.457806	0.000027
 260	2.5770e+01	2.5726	-7.747452	0.000258	2.579601	0.436996	0.000026
 261	2.5870e+01	2.5828	-7.717716	0.000299	2.989062	0.506361	0.000030
 262	2.5970e+01	2.5937	-7.686758	0.000311	3.111900	0.527170	0.000031
 263	2.6069e+01	2.6029	-7.664761	0.000221	2.211087	0.374568	0.000022
 264	2.6169e+01	2.6113	-7.634210	0.000307	3.070954	0.520234	0.000031
 265	2.6268e+01	2.6225	-7.605289	0.000291	2.907169	0.492488	0.000029
 266	2.6367e+01	2.6331	-7.574738	0.000307	3.070954	0.520234	0.000031
 267	2.6467e+01	2.6431	-7.552335	0.000225	2.252033	0.381505	0.000023
 268	2.6567e+01	2.6517	-7.527487	0.000250	2.497709	0.423123	0.000025
 269	2.6666e+01	2.6644	-7.497751	0.000299	2.989062	0.506361	0.000030
 270	2.6765e+01	2.6717	-7.472088	0.000258	2.579601	0.436996	0.000026
 271	2.6865e+01	2.6821	-7.443574	0.000287	2.866223	0.485551	0.000029
 272	2.6965e+01	2.6913	-7.412209	0.000315	3.152846	0.534107	0.000032
 273	2.7064e+01	2.7025	-7.386139	0.000262	2.620547	0.443933	0.000026
 274	2.7163e+01	2.7135	-7.360069	0.000262	2.620547	0.443933	0.000026
 275	2.7263e+01	2.7216	-7.331148	0.000291	2.907169	0.492488	0.000029
 276	2.7363e+01	2.7335	-7.301004	0.000303	3.030008	0.513297	0.000030
 277	2.7462e+01	2.7424	-7.271268	0.000299	2.989062	0.506361	0.000030
 278	2.7561e+01	2.7511	-7.241125	0.000303	3.030008	0.513297	0.000030
 279	2.7661e+01	2.7622	-7.214240	0.000270	2.702439	0.457806	0.000027
 280	2.7761e+01	2.7701	-7.185319	0.000291	2.907169	0.492488	0.000029
 281	2.7860e+01	2.7808	-7.154768	0.000307	3.070954	0.520234	0.000031
 282	2.7959e+01	2.7906	-7.129513	0.000254	2.538655	0.430060	0.000025
 283	2.8059e+01	2.7994	-7.098555	0.000311	3.111900	0.527170	0.000031
 284	2.8159e+01	2.8102	-7.070448	0.000283	2.825277	0.478615	0.000028
 285	2.8258e+01	2.8205	-7.044378	0.000262	2.620547	0.443933	0.000026
 286	2.8358e+01	2.8307	-7.012606	0.000319	3.193792	0.541043	0.000032
 287	2.8457e+01	2.8416	-6.980426	0.000323	3.234738	0.547979	0.000032
 288	2.8556e+01	2.8513	-6.958429	0.000221	2.211087	0.374568	0.000022
 289	2.8656e+01	2.8606	-6.925027	0.000336	3.357576	0.568789	0.000034
 290	2.8756e+01	2.8728	-6.893662	0.000315	3.152846	0.534107	0.000032
 291	2.8855e+01	2.8822	-6.866777	0.000270	2.702439	0.457806	0.000027
 292	2.8954e+01	2.8902	-6.840707	0.000262	2.620547	0.443933	0.000026
 293	2.9054e+01	2.8987	-6.814637	0.000262	2.620547	0.443933	0.000026
 294	2.9154e+01	2.9117	-6.784087	0.000307	3.070954	0.520234	0.000031
 295	2.9253e+01	2.9210	-6.758017	0.000262	2.620547	0.443933	0.000026
 296	2.9352e+01	2.9336	-6.726244	0.000319	3.193792	0.541043	0.000032
 297	2.9452e+01	2.9401	-6.702618	0.000237	2.374871	0.402314	0.000024
 298	2.9552e+01	2.9502	-6.675733	0.000270	2.702439	0.457806	0.000027
 299	2.9651e+01	2.9598	-6.652108	0.000237	2.374871	0.402314	0.000024
 300	2.9750e+01	2.9701	-6.627667	0.000246	2.456763	0.416187	0.000025
 301	2.9850e+01	2.9797	-6.599560	0.000283	2.825277	0.478615	0.000028
 302	2.9950e+01	2.9906	-6.577564	0.000221	2.211087	0.374568	0.000022
 303	3.0049e+01	2.9991	-6.553123	0.000246	2.456763	0.416187	0.000025
 304	3.0148e+01	3.0096	-6.526646	0.000266	2.661493	0.450869	0.000027
 305	3.0248e+01	3.0206	-6.505057	0.000217	2.170141	0.367632	0.000022
 306	3.0348e+01	3.0320	-6.476950	0.000283	2.825277	0.478615	0.000028
 307	3.0447e+01	3.0379	-6.454139	0.000229	2.292979	0.388441	0.000023
 308	3.0547e+01	3.0502	-6.428884	0.000254	2.538655	0.430060	0.000025
 309	3.0646e+01	3.0605	-6.406480	0.000225	2.252033	0.381505	0.000023
 310	3.0745e+01	3.0689	-6.381225	0.000254	2.538655	0.430060	0.000025
 311	3.0845e+01	3.0797	-6.357599	0.000237	2.374871	0.402314	0.000024
 312	3.0945e+01	3.0878	-6.331122	0.000266	2.661493	0.450869	0.000027
 313	3.1044e+01	3.0987	-6.309125	0.000221	2.211087	0.374568	0.000022
 314	3.1143e+01	3.1087	-6.285499	0.000237	2.374871	0.402314	0.000024
 315	3.1243e+01	3.1184	-6.263095	0.000225	2.252033	0.381505	0.000023
 316	3.1343e+01	3.1304	-6.237433	0.000258	2.579601	0.436996	0.000026
 317	3.1442e+01	3.1387	-6.212178	0.000254	2.538655	0.430060	0.000025
 318	3.1541e+01	3.1487	-6.191403	0.000209	2.088248	0.353759	0.000021
 319	3.1641e+01	3.1603	-6.165741	0.000258	2.579601	0.436996	0.000026
 320	3.1741e+01	3.1695	-6.143337	0.000225	2.252033	0.381505	0.000023
 321	3.1840e+01	3.1794	-6.117267	0.000262	2.620547	0.443933	0.000026
 322	3.1939e+01	3.1915	-6.091197	0.000262	2.620547	0.443933	0.000026
 323	3.2039e+01	3.2003	-6.063905	0.000274	2.743385	0.464742	0.000027
 324	3.2139e+01	3.2106	-6.037835	0.000262	2.620547	0.443933	0.000026
 325	3.2238e+01	3.2206	-6.013394	0.000246	2.456763	0.416187	0.000025
 326	3.2337e+01	3.2291	-5.989769	0.000237	2.374871	0.402314	0.000024
 327	3.2437e+01	3.2386	-5.964106	0.000258	2.579601	0.436996	0.000026
 328	3.2536e+01	3.2478	-5.939258	0.000250	2.497709	0.423123	0.000025
 329	3.2636e+01	3.2584	-5.911559	0.000278	2.784331	0.471678	0.000028
 330	3.2736e+01	3.2708	-5.886711	0.000250	2.497709	0.423123	0.000025
 331	3.2835e+01	3.2762	-5.861863	0.000250	2.497709	0.423123	0.000025
 332	3.2934e+01	3.2876	-5.834164	0.000278	2.784331	0.471678	0.000028
 333	3.3034e+01	3.2998	-5.810538	0.000237	2.374871	0.402314	0.000024
 334	3.3133e+01	3.3079	-5.783653	0.000270	2.702439	0.457806	0.000027
 335	3.3233e+01	3.3192	-5.758805	0.000250	2.497709	0.423123	0.000025
 336	3.3333e+01	3.3295	-5.733957	0.000250	2.497709	0.423123	0.000025
 337	3.3432e+01	3.3375	-5.708295	0.000258	2.579601	0.436996	0.000026
 338	3.3532e+01	3.3506	-5.682632	0.000258	2.579601	0.436996	0.000026
 339	3.3631e+01	3.3590	-5.654933	0.000278	2.784331	0.471678	0.000028
 340	3.3730e+01	3.3692	-5.631307	0.000237	2.374871	0.402314	0.000024
 341	3.3830e+01	3.3764	-5.601978	0.000295	2.948116	0.499424	0.000029
 342	3.3929e+01	3.3865	-5.576316	0.000258	2.579601	0.436996	0.000026
 343	3.4029e+01	3.3991	-5.554319	0.000221	2.211087	0.374568	0.000022
 344	3.4129e+01	3.4075	-5.528249	0.000262	2.620547	0.443933	0.000026
 345	3.4228e+01	3.4191	-5.500143	0.000283	2.825277	0.478615	0.000028
 346	3.4328e+01	3.4292	-5.479368	0.000209	2.088248	0.353759	0.000021
 347	3.4427e+01	3.4378	-5.450040	0.000295	2.948116	0.499424	0.000029
 348	3.4526e+01	3.4493	-5.425599	0.000246	2.456763	0.416187	0.000025
 349	3.4626e+01	3.4582	-5.397085	0.000287	2.866223	0.485551	0.000029
 350	3.4725e+01	3.4645	-5.372645	0.000246	2.456763	0.416187	0.000025
 351	3.4825e+01	3.4779	-5.345353	0.000274	2.743385	0.464742	0.000027
 352	3.4925e+01	3.4881	-5.319690	0.000258	2.579601	0.436996	0.000026
 353	3.5024e+01	3.5003	-5.292398	0.000274	2.743385	0.464742	0.000027
 354	3.5123e+01	3.5096	-5.267143	0.000254	2.538655	0.430060	0.000025
 355	3.5223e+01	3.5167	-5.241888	0.000254	2.538655	0.430060	0.000025
 356	3.5322e+01	3.5261	-5.217040	0.000250	2.497709	0.423123	0.000025
 357	3.5422e+01	3.5364	-5.190562	0.000266	2.661493	0.450869	0.000027
 358	3.5522e+01	3.5493	-5.165307	0.000254	2.538655	0.430060	0.000025
 359	3.5621e+01	3.5589	-5.140459	0.000250	2.497709	0.423123	0.000025
 360	3.5721e+01	3.5677	-5.115204	0.000254	2.538655	0.430060	0.000025
 361	3.5820e+01	3.5796	-5.090356	0.000250	2.497709	0.423123	0.000025
 362	3.5919e+01	3.5892	-5.067138	0.000233	2.333925	0.395378	0.000023
 363	3.6019e+01	3.6008	-5.045549	0.000217	2.170141	0.367632	0.000022
 364	3.6118e+01	3.6086	-5.019479	0.000262	2.620547	0.443933	0.000026
 365	3.6218e+01	3.6195	-4.995445	0.000242	2.415817	0.409250	0.000024
 366	3.6318e+01	3.6271	-4.966931	0.000287	2.866223	0.485551	0.000029
 367	3.6417e+01	3.6369	-4.947379	0.000197	1.965410	0.332950	0.000020
 368	3.6517e+01	3.6477	-4.918865	0.000287	2.866223	0.485551	0.000029
 369	3.6616e+01	3.6582	-4.894832	0.000242	2.415817	0.409250	0.000024
 370	3.6715e+01	3.6671	-4.871206	0.000237	2.374871	0.402314	0.000024
 371	3.6815e+01	3.6785	-4.847173	0.000242	2.415817	0.409250	0.000024
 372	3.6914e+01	3.6869	-4.823139	0.000242	2.415817	0.409250	0.000024
 373	3.7014e+01	3.6970	-4.800736	0.000225	2.252033	0.381505	0.000023
 374	3.7114e+01	3.7096	-4.771814	0.000291	2.907169	0.492488	0.000029
 375	3.7213e+01	3.7179	-4.749410	0.000225	2.252033	0.381505	0.000023
 376	3.7313e+01	3.7273	-4.721304	0.000283	2.825277	0.478615	0.000028
 377	3.7412e+01	3.7366	-4.701344	0.000201	2.006356	0.339886	0.000020
 378	3.7511e+01	3.7473	-4.674459	0.000270	2.702439	0.457806	0.000027
 379	3.7611e+01	3.7558	-4.646760	0.000278	2.784331	0.471678	0.000028
 380	3.7711e+01	3.7673	-4.623542	0.000233	2.333925	0.395378	0.000023
 381	3.7810e+01	3.7737	-4.597064	0.000266	2.661493	0.450869	0.000027
 382	3.7910e+01	3.7873	-4.569365	0.000278	2.784331	0.471678	0.000028
 383	3.8009e+01	3.7992	-4.546147	0.000233	2.333925	0.395378	0.000023
 384	3.8108e+01	3.8071	-4.512744	0.000336	3.357576	0.568789	0.000034
 385	3.8208e+01	3.8181	-4.490341	0.000225	2.252033	0.381505	0.000023
 386	3.8307e+01	3.8283	-4.458161	0.000323	3.234738	0.547979	0.000032
 387	3.8407e+01	3.8363	-4.434127	0.000242	2.415817	0.409250	0.000024
 388	3.8507e+01	3.8469	-4.398689	0.000356	3.562306	0.603471	0.000036
 389	3.8606e+01	3.8555	-4.375063	0.000237	2.374871	0.402314	0.000024
 390	3.8706e+01	3.8653	-4.346141	0.000291	2.907169	0.492488	0.000029
 391	3.8805e+01	3.8770	-4.316405	0.000299	2.989062	0.506361	0.000030
 392	3.8904e+01	3.8873	-4.290743	0.000258	2.579601	0.436996	0.000026
 393	3.9004e+01	3.8992	-4.264673	0.000262	2.620547	0.443933	0.000026
 394	3.9103e+01	3.9039	-4.234529	0.000303	3.030008	0.513297	0.000030
 395	3.9203e+01	3.9121	-4.207238	0.000274	2.743385	0.464742	0.000027
 396	3.9303e+01	3.9263	-4.178316	0.000291	2.907169	0.492488	0.000029
 397	3.9402e+01	3.9358	-4.145321	0.000332	3.316630	0.561852	0.000033
 398	3.9502e+01	3.9477	-4.118437	0.000270	2.702439	0.457806	0.000027
 399	3.9601e+01	3.9542	-4.087886	0.000307	3.070954	0.520234	0.000031
 400	3.9700e+01	3.9658	-4.058558	0.000295	2.948116	0.499424	0.000029
 401	3.9800e+01	3.9763	-4.033710	0.000250	2.497709	0.423123	0.000025
 402	3.9900e+01	3.9887	-4.005603	0.000283	2.825277	0.478615	0.000028
 403	3.9999e+01	3.9944	-3.973016	0.000328	3.275684	0.554916	0.000033
 404	4.0099e+01	4.0051	-3.949390	0.000237	2.374871	0.402314	0.000024
 405	4.0198e+01	4.0157	-3.919246	0.000303	3.030008	0.513297	0.000030
 406	4.0297e+01	4.0274	-3.893584	0.000258	2.579601	0.436996	0.000026
 407	4.0397e+01	4.0357	-3.869143	0.000246	2.456763	0.416187	0.000025
 408	4.0496e+01	4.0450	-3.842666	0.000266	2.661493	0.450869	0.000027
 409	4.0596e+01	4.0580	-3.819447	0.000233	2.333925	0.395378	0.000023
 410	4.0696e+01	4.0654	-3.787267	0.000323	3.234738	0.547979	0.000032
 411	4.0795e+01	4.0801	-3.765271	0.000221	2.211087	0.374568	0.000022
 412	4.0895e+01	4.0858	-3.734313	0.000311	3.111900	0.527170	0.000031
 413	4.0994e+01	4.0957	-3.708243	0.000262	2.620547	0.443933	0.000026
 414	4.1093e+01	4.1055	-3.677692	0.000307	3.070954	0.520234	0.000031
 415	4.1193e+01	4.1128	-3.650400	0.000274	2.743385	0.464742	0.000027
 416	4.1292e+01	4.1241	-3.626774	0.000237	2.374871	0.402314	0.000024
 417	4.1392e+01	4.1358	-3.602334	0.000246	2.456763	0.416187	0.000025
 418	4.1492e+01	4.1427	-3.576264	0.000262	2.620547	0.443933	0.000026
 419	4.1591e+01	4.1555	-3.547750	0.000287	2.866223	0.485551	0.000029
 420	4.1691e+01	4.1679	-3.523717	0.000242	2.415817	0.409250	0.000024
 421	4.1790e+01	4.1745	-3.496425	0.000274	2.743385	0.464742	0.000027
 422	4.1889e+01	4.1848	-3.470762	0.000258	2.579601	0.436996	0.000026
 423	4.1989e+01	4.1947	-3.445507	0.000254	2.538655	0.430060	0.000025
 424	4.2089e+01	4.2045	-3.417808	0.000278	2.784331	0.471678	0.000028
 425	4.2188e+01	4.2144	-3.393367	0.000246	2.456763	0.416187	0.000025
 426	4.2288e+01	4.2233	-3.362816	0.000307	3.070954	0.520234	0.000031
 427	4.2387e+01	4.2342	-3.338783	0.000242	2.415817	0.409250	0.000024
 428	4.2486e+01	4.2432	-3.311084	0.000278	2.784331	0.471678	0.000028
 429	4.2586e+01	4.2522	-3.287865	0.000233	2.333925	0.395378	0.000023
 430	4.2685e+01	4.2640	-3.261388	0.000266	2.661493	0.450869	0.000027
 431	4.2785e+01	4.2750	-3.236540	0.000250	2.497709	0.423123	0.000025
 432	4.2885e+01	4.2831	-3.209656	0.000270	2.702439	0.457806	0.000027
 433	4.2984e+01	4.2954	-3.184400	0.000254	2.538655	0.430060	0.000025
 434	4.3084e+01	4.3031	-3.155072	0.000295	2.948116	0.499424	0.000029
 435	4.3183e+01	4.3127	-3.133890	0.000213	2.129195	0.360695	0.000021
 436	4.3282e+01	4.3214	-3.107820	0.000262	2.620547	0.443933	0.000026
 437	4.3382e+01	4.3353	-3.081343	0.000266	2.661493	0.450869	0.000027
 438	4.3481e+01	4.3439	-3.054865	0.000266	2.661493	0.450869	0.000027
 439	4.3581e+01	4.3525	-3.028388	0.000266	2.661493	0.450869	0.000027
 440	4.3681e+01	4.3658	-3.005984	0.000225	2.252033	0.381505	0.000023
 441	4.3780e+01	4.3740	-2.980322	0.000258	2.579601	0.436996	0.000026
 442	4.3880e+01	4.3852	-2.953845	0.000266	2.661493	0.450869	0.000027
 443	4.3979e+01	4.3945	-2.927367	0.000266	2.661493	0.450869	0.000027
 444	4.4078e+01	4.4046	-2.900075	0.000274	2.743385	0.464742	0.000027
 445	4.4178e+01	4.4140	-2.873598	0.000266	2.661493	0.450869	0.000027
 446	4.4278e+01	4.4241	-2.847528	0.000262	2.620547	0.443933	0.000026
 447	4.4377e+01	4.4328	-2.815755	0.000319	3.193792	0.541043	0.000032
 448	4.4477e+01	4.4422	-2.792537	0.000233	2.333925	0.395378	0.000023
 449	4.4576e+01	4.4537	-2.761579	0.000311	3.111900	0.527170	0.000031
 450	4.4675e+01	4.4628	-2.735102	0.000266	2.661493	0.450869	0.000027
 451	4.4775e+01	4.4743	-2.711476	0.000237	2.374871	0.402314	0.000024
 452	4.4874e+01	4.4812	-2.682554	0.000291	2.907169	0.492488	0.000029
 453	4.4974e+01	4.4947	-2.656892	0.000258	2.579601	0.436996	0.000026
 454	4.5074e+01	4.5028	-2.630822	0.000262	2.620547	0.443933	0.000026
 455	4.5173e+01	4.5132	-2.602715	0.000283	2.825277	0.478615	0.000028
 456	4.5273e+01	4.5225	-2.574201	0.000287	2.866223	0.485551	0.000029
 457	4.5372e+01	4.5338	-2.548131	0.000262	2.620547	0.443933	0.000026
 458	4.5471e+01	4.5431	-2.519210	0.000291	2.907169	0.492488	0.000029
 459	4.5571e+01	4.5571	-2.492325	0.000270	2.702439	0.457806	0.000027
 460	4.5670e+01	4.5608	-2.471144	0.000213	2.129195	0.360695	0.000021
 461	4.5770e+01	4.5725	-2.441408	0.000299	2.989062	0.506361	0.000030
 462	4.5870e+01	4.5824	-2.415338	0.000262	2.620547	0.443933	0.000026
 463	4.5969e+01	4.5925	-2.393341	0.000221	2.211087	0.374568	0.000022
 464	4.6069e+01	4.6027	-2.366864	0.000266	2.661493	0.450869	0.000027
 465	4.6168e+01	4.6120	-2.344867	0.000221	2.211087	0.374568	0.000022
 466	4.6267e+01	4.6236	-2.316353	0.000287	2.866223	0.485551	0.000029
 467	4.6367e+01	4.6320	-2.293950	0.000225	2.252033	0.381505	0.000023
 468	4.6467e+01	4.6438	-2.271138	0.000229	2.292979	0.388441	0.000023
 469	4.6566e+01	4.6508	-2.247920	0.000233	2.333925	0.395378	0.000023
 470	4.6666e+01	4.6625	-2.225109	0.000229	2.292979	0.388441	0.000023
 471	4.6765e+01	4.6717	-2.201890	0.000233	2.333925	0.395378	0.000023
 472	4.6864e+01	4.6816	-2.181523	0.000205	2.047302	0.346822	0.000020
 473	4.6964e+01	4.6914	-2.158712	0.000229	2.292979	0.388441	0.000023
 474	4.7063e+01	4.7028	-2.137937	0.000209	2.088248	0.353759	0.000021
 475	4.7163e+01	4.7108	-2.113904	0.000242	2.415817	0.409250	0.000024
 476	4.7263e+01	4.7210	-2.091093	0.000229	2.292979	0.388441	0.000023
 477	4.7362e+01	4.7323	-2.069096	0.000221	2.211087	0.374568	0.000022
 478	4.7462e+01	4.7431	-2.044249	0.000250	2.497709	0.423123	0.000025
 479	4.7561e+01	4.7526	-2.023067	0.000213	2.129195	0.360695	0.000021
 480	4.7660e+01	4.7620	-2.001478	0.000217	2.170141	0.367632	0.000022
 481	4.7760e+01	4.7713	-1.977444	0.000242	2.415817	0.409250	0.000024
 482	4.7859e+01	4.7823	-1.958707	0.000188	1.883518	0.319077	0.000019
 483	4.7959e+01	4.7912	-1.937932	0.000209	2.088248	0.353759	0.000021
 484	4.8059e+01	4.8002	-1.914714	0.000233	2.333925	0.395378	0.000023
 485	4.8158e+01	4.8153	-1.891495	0.000233	2.333925	0.395378	0.000023
 486	4.8258e+01	4.8230	-1.867055	0.000246	2.456763	0.416187	0.000025
 487	4.8357e+01	4.8309	-1.847909	0.000192	1.924464	0.326013	0.000019
 488	4.8456e+01	4.8422	-1.824284	0.000237	2.374871	0.402314	0.000024
 489	4.8556e+01	4.8531	-1.799843	0.000246	2.456763	0.416187	0.000025
 490	4.8656e+01	4.8617	-1.777032	0.000229	2.292979	0.388441	0.000023
 491	4.8755e+01	4.8728	-1.751369	0.000258	2.579601	0.436996	0.000026
 492	4.8855e+01	4.8800	-1.730187	0.000213	2.129195	0.360695	0.000021
 493	4.8954e+01	4.8906	-1.704932	0.000254	2.538655	0.430060	0.000025
 494	4.9053e+01	4.9017	-1.682936	0.000221	2.211087	0.374568	0.000022
 495	4.9153e+01	4.9126	-1.657273	0.000258	2.579601	0.436996	0.000026
 496	4.9252e+01	4.9215	-1.631203	0.000262	2.620547	0.443933	0.000026
 497	4.9352e+01	4.9312	-1.608799	0.000225	2.252033	0.381505	0.000023
 498	4.9452e+01	4.9404	-1.585581	0.000233	2.333925	0.395378	0.000023
 499	4.9551e+01	4.9493	-1.562362	0.000233	2.333925	0.395378	0.000023
 500	4.9651e+01	4.9596	-1.538736	0.000237	2.374871	0.402314	0.000024
 501	4.9750e+01	4.9725	-1.512259	0.000266	2.661493	0.450869	0.000027
 502	4.9849e+01	4.9813	-1.491485	0.000209	2.088248	0.353759	0.000021
 503	4.9949e+01	4.9918	-1.465007	0.000266	2.661493	0.450869	0.000027
 504	5.0048e+01	5.0027	-1.441382	0.000237	2.374871	0.402314	0.000024
 505	5.0148e+01	5.0098	-1.416941	0.000246	2.456763	0.416187	0.000025
 506	5.0248e+01	5.0196	-1.392501	0.000246	2.456763	0.416187	0.000025
 507	5.0347e+01	5.0298	-1.371726	0.000209	2.088248	0.353759	0.000021
 508	5.0447e+01	5.0413	-1.341990	0.000299	2.989062	0.506361	0.000030
 509	5.0546e+01	5.0498	-1.323660	0.000184	1.842572	0.312140	0.000018
 510	5.0645e+01	5.0636	-1.298812	0.000250	2.497709	0.423123	0.000025
 511	5.0745e+01	5.0698	-1.275186	0.000237	2.374871	0.402314	0.000024
 512	5.0844e+01	5.0806	-1.253189	0.000221	2.211087	0.374568	0.000022
 513	5.0944e+01	5.0890	-1.229563	0.000237	2.374871	0.402314	0.000024
 514	5.1044e+01	5.1002	-1.205530	0.000242	2.415817	0.409250	0.000024
 515	5.1143e+01	5.1112	-1.179868	0.000258	2.579601	0.436996	0.000026
 516	5.1242e+01	5.1196	-1.155834	0.000242	2.415817	0.409250	0.000024
 517	5.1342e+01	5.1321	-1.130172	0.000258	2.579601	0.436996	0.000026
 518	5.1441e+01	5.1405	-1.104917	0.000254	2.538655	0.430060	0.000025
 519	5.1541e+01	5.1488	-1.080476	0.000246	2.456763	0.416187	0.000025
 520	5.1641e+01	5.1620	-1.063368	0.000172	1.719734	0.291331	0.000017
 521	5.1740e+01	5.1682	-1.033632	0.000299	2.989062	0.506361	0.000030
 522	5.1840e+01	5.1801	-1.010821	0.000229	2.292979	0.388441	0.000023
 523	5.1939e+01	5.1886	-0.985973	0.000250	2.497709	0.423123	0.000025
 524	5.2038e+01	5.2006	-0.959088	0.000270	2.702439	0.457806	0.000027
 525	5.2138e+01	5.2070	-0.937092	0.000221	2.211087	0.374568	0.000022
 526	5.2237e+01	5.2197	-0.913466	0.000237	2.374871	0.402314	0.000024
 527	5.2337e+01	5.2290	-0.891062	0.000225	2.252033	0.381505	0.000023
 528	5.2437e+01	5.2389	-0.870287	0.000209	2.088248	0.353759	0.000021
 529	5.2536e+01	5.2484	-0.847069	0.000233	2.333925	0.395378	0.000023
 530	5.2636e+01	5.2607	-0.820999	0.000262	2.620547	0.443933	0.000026
 531	5.2735e+01	5.2712	-0.801039	0.000201	2.006356	0.339886	0.000020
 532	5.2834e+01	5.2767	-0.777006	0.000242	2.415817	0.409250	0.000024
 533	5.2934e+01	5.2885	-0.756231	0.000209	2.088248	0.353759	0.000021
 534	5.3033e+01	5.2975	-0.731791	0.000246	2.456763	0.416187	0.000025
 535	5.3133e+01	5.3078	-0.709387	0.000225	2.252033	0.381505	0.000023
 536	5.3233e+01	5.3194	-0.687798	0.000217	2.170141	0.367632	0.000022
 537	5.3332e+01	5.3306	-0.661321	0.000266	2.661493	0.450869	0.000027
 538	5.3431e+01	5.3385	-0.642583	0.000188	1.883518	0.319077	0.000019
 539	5.3531e+01	5.3503	-0.621401	0.000213	2.129195	0.360695	0.000021
 540	5.3630e+01	5.3579	-0.594924	0.000266	2.661493	0.450869	0.000027
 541	5.3730e+01	5.3683	-0.573742	0.000213	2.129195	0.360695	0.000021
 542	5.3830e+01	5.3817	-0.551745	0.000221	2.211087	0.374568	0.000022
 543	5.3929e+01	5.3873	-0.525268	0.000266	2.661493	0.450869	0.000027
 544	5.4029e+01	5.3989	-0.503679	0.000217	2.170141	0.367632	0.000022
 545	5.4128e+01	5.4086	-0.479646	0.000242	2.415817	0.409250	0.000024
 546	5.4227e+01	5.4220	-0.453983	0.000258	2.579601	0.436996	0.000026
 547	5.4327e+01	5.4298	-0.428728	0.000254	2.538655	0.430060	0.000025
 548	5.4426e+01	5.4391	-0.406732	0.000221	2.211087	0.374568	0.000022
 549	5.4526e+01	5.4476	-0.379847	0.000270	2.702439	0.457806	0.000027
 550	5.4626e+01	5.4587	-0.357036	0.000229	2.292979	0.388441	0.000023
 551	5.4725e+01	5.4681	-0.328929	0.000283	2.825277	0.478615	0.000028
 552	5.4825e+01	5.4780	-0.303267	0.000258	2.579601	0.436996	0.000026
 553	5.4924e+01	5.4885	-0.278011	0.000254	2.538655	0.430060	0.000025
 554	5.5023e+01	5.4974	-0.249905	0.000283	2.825277	0.478615	0.000028
 555	5.5123e+01	5.5074	-0.222613	0.000274	2.743385	0.464742	0.000027
 556	5.5222e+01	5.5189	-0.196950	0.000258	2.579601	0.436996	0.000026
 557	5.5322e+01	5.5288	-0.168436	0.000287	2.866223	0.485551	0.000029
 558	5.5422e+01	5.5376	-0.142366	0.000262	2.620547	0.443933	0.000026
 559	5.5521e+01	5.5494	-0.115074	0.000274	2.743385	0.464742	0.000027
 560	5.5620e+01	5.5587	-0.087782	0.000274	2.743385	0.464742	0.000027
 561	5.5720e+01	5.5688	-0.061712	0.000262	2.620547	0.443933	0.000026
 562	5.5819e+01	5.5787	-0.038087	0.000237	2.374871	0.402314	0.000024
 563	5.5919e+01	5.5854	-0.010795	0.000274	2.743385	0.464742	0.000027
 564	5.6019e+01	5.5965	0.018941	0.000299	2.989062	0.506361	0.000030
 565	5.6118e+01	5.6049	0.046233	0.000274	2.743385	0.464742	0.000027
 566	5.6218e+01	5.6170	0.073933	0.000278	2.784331	0.471678	0.000028
 567	5.6317e+01	5.6258	0.099188	0.000254	2.538655	0.430060	0.000025
 568	5.6416e+01	5.6405	0.126480	0.000274	2.743385	0.464742	0.000027
 569	5.6516e+01	5.6490	0.155401	0.000291	2.907169	0.492488	0.000029
 570	5.6615e+01	5.6577	0.181471	0.000262	2.620547	0.443933	0.000026
 571	5.6715e+01	5.6667	0.205912	0.000246	2.456763	0.416187	0.000025
 572	5.6815e+01	5.6792	0.232389	0.000266	2.661493	0.450869	0.000027
 573	5.6914e+01	5.6885	0.261718	0.000295	2.948116	0.499424	0.000029
 574	5.7014e+01	5.6976	0.283714	0.000221	2.211087	0.374568	0.000022
 575	5.7113e+01	5.7063	0.308155	0.000246	2.456763	0.416187	0.000025
 576	5.7212e+01	5.7178	0.334632	0.000266	2.661493	0.450869	0.000027
 577	5.7312e+01	5.7273	0.361517	0.000270	2.702439	0.457806	0.000027
 578	5.7411e+01	5.7368	0.385142	0.000237	2.374871	0.402314	0.000024
 579	5.7511e+01	5.7467	0.412027	0.000270	2.702439	0.457806	0.000027
 580	5.7611e+01	5.7546	0.437282	0.000254	2.538655	0.430060	0.000025
 581	5.7710e+01	5.7673	0.462130	0.000250	2.497709	0.423123	0.000025
 582	5.7809e+01	5.7789	0.488200	0.000262	2.620547	0.443933	0.000026
 583	5.7909e+01	5.7872	0.511826	0.000237	2.374871	0.402314	0.000024
 584	5.8008e+01	5.7979	0.536266	0.000246	2.456763	0.416187	0.000025
 585	5.8108e+01	5.8092	0.565595	0.000295	2.948116	0.499424	0.000029
 586	5.8208e+01	5.8190	0.588814	0.000233	2.333925	0.395378	0.000023
 587	5.8307e+01	5.8267	0.613662	0.000250	2.497709	0.423123	0.000025
 588	5.8407e+01	5.8381	0.640546	0.000270	2.702439	0.457806	0.000027
 589	5.8506e+01	5.8453	0.664987	0.000246	2.456763	0.416187	0.000025
 590	5.8605e+01	5.8582	0.687798	0.000229	2.292979	0.388441	0.000023
 591	5.8705e+01	5.8681	0.715497	0.000278	2.784331	0.471678	0.000028
 592	5.8804e+01	5.8823	0.740752	0.000254	2.538655	0.430060	0.000025
 593	5.8904e+01	5.8877	0.762749	0.000221	2.211087	0.374568	0.000022
 594	5.9004e+01	5.8967	0.788412	0.000258	2.579601	0.436996	0.000026
 595	5.9103e+01	5.9075	0.813667	0.000254	2.538655	0.430060	0.000025
 596	5.9203e+01	5.9175	0.838922	0.000254	2.538655	0.430060	0.000025
 597	5.9302e+01	5.9304	0.864585	0.000258	2.579601	0.436996	0.000026
 598	5.9401e+01	5.9367	0.886988	0.000225	2.252033	0.381505	0.000023
 599	5.9501e+01	5.9466	0.912244	0.000254	2.538655	0.430060	0.000025
 600	5.9600e+01	5.9565	0.935870	0.000237	2.374871	0.402314	0.000024
 601	5.9700e+01	5.9643	0.961125	0.000254	2.538655	0.430060	0.000025
 602	5.9800e+01	5.9731	0.985973	0.000250	2.497709	0.423123	0.000025
 603	5.9899e+01	5.9832	1.010413	0.000246	2.456763	0.416187	0.000025
 604	5.9998e+01	5.9937	1.032817	0.000225	2.252033	0.381505	0.000023
 605	6.0098e+01	6.0070	1.056850	0.000242	2.415817	0.409250	0.000024
 606	6.0197e+01	6.0143	1.080883	0.000242	2.415817	0.409250	0.000024
 607	6.0297e+01	6.0238	1.104917	0.000242	2.415817	0.409250	0.000024
 608	6.0397e+01	6.0355	1.126913	0.000221	2.211087	0.374568	0.000022
 609	6.0496e+01	6.0480	1.157464	0.000307	3.070954	0.520234	0.000031
 610	6.0596e+01	6.0557	1.181090	0.000237	2.374871	0.402314	0.000024
 611	6.0695e+01	6.0670	1.206345	0.000254	2.538655	0.430060	0.000025
 612	6.0794e+01	6.0772	1.234452	0.000283	2.825277	0.478615	0.000028
 613	6.0894e+01	6.0880	1.258077	0.000237	2.374871	0.402314	0.000024
 614	6.0993e+01	6.0975	1.287813	0.000299	2.989062	0.506361	0.000030
 615	6.1093e+01	6.1047	1.311032	0.000233	2.333925	0.395378	0.000023
 616	6.1193e+01	6.1176	1.339546	0.000287	2.866223	0.485551	0.000029
 617	6.1292e+01	6.1250	1.364801	0.000254	2.538655	0.430060	0.000025
 618	6.1392e+01	6.1337	1.388427	0.000237	2.374871	0.402314	0.000024
 619	6.1491e+01	6.1472	1.414497	0.000262	2.620547	0.443933	0.000026
 620	6.1590e+01	6.1549	1.444233	0.000299	2.989062	0.506361	0.000030
 621	6.1690e+01	6.1645	1.468266	0.000242	2.415817	0.409250	0.000024
 622	6.1789e+01	6.1770	1.495151	0.000270	2.702439	0.457806	0.000027
 623	6.1889e+01	6.1864	1.520406	0.000254	2.538655	0.430060	0.000025
 624	6.1989e+01	6.1958	1.548105	0.000278	2.784331	0.471678	0.000028
 625	6.2088e+01	6.2039	1.568472	0.000205	2.047302	0.346822	0.000020
 626	6.2188e+01	6.2148	1.596172	0.000278	2.784331	0.471678	0.000028
 627	6.2287e+01	6.2244	1.623056	0.000270	2.702439	0.457806	0.000027
 628	6.2386e+01	6.2347	1.648719	0.000258	2.579601	0.436996	0.000026
 629	6.2486e+01	6.2472	1.674382	0.000258	2.579601	0.436996	0.000026
 630	6.2586e+01	6.2550	1.698822	0.000246	2.456763	0.416187	0.000025
 631	6.2685e+01	6.2634	1.720004	0.000213	2.129195	0.360695	0.000021
 632	6.2785e+01	6.2760	1.745259	0.000254	2.538655	0.430060	0.000025
 633	6.2884e+01	6.2842	1.771736	0.000266	2.661493	0.450869	0.000027
 634	6.2983e+01	6.2969	1.794548	0.000229	2.292979	0.388441	0.000023
 635	6.3083e+01	6.3039	1.814915	0.000205	2.047302	0.346822	0.000020
 636	6.3182e+01	6.3173	1.837726	0.000229	2.292979	0.388441	0.000023
 637	6.3282e+01	6.3244	1.857686	0.000201	2.006356	0.339886	0.000020
 638	6.3382e+01	6.3343	1.880904	0.000233	2.333925	0.395378	0.000023
 639	6.3481e+01	6.3457	1.902086	0.000213	2.129195	0.360695	0.000021
 640	6.3581e+01	6.3539	1.921231	0.000192	1.924464	0.326013	0.000019
 641	6.3680e+01	6.3625	1.944042	0.000229	2.292979	0.388441	0.000023
 642	6.3779e+01	6.3750	1.964817	0.000209	2.088248	0.353759	0.000021
 643	6.3879e+01	6.3833	1.985591	0.000209	2.088248	0.353759	0.000021
 644	6.3978e+01	6.3946	2.010032	0.000246	2.456763	0.416187	0.000025
 645	6.4078e+01	6.4014	2.031214	0.000213	2.129195	0.360695	0.000021
 646	6.4177e+01	6.4126	2.052395	0.000213	2.129195	0.360695	0.000021
 647	6.4277e+01	6.4245	2.076429	0.000242	2.415817	0.409250	0.000024
 648	6.4376e+01	6.4327	2.097203	0.000209	2.088248	0.353759	0.000021
 649	6.4476e+01	6.4431	2.117978	0.000209	2.088248	0.353759	0.000021
 650	6.4576e+01	6.4529	2.137937	0.000201	2.006356	0.339886	0.000020
 651	6.4675e+01	6.4619	2.161156	0.000233	2.333925	0.395378	0.000023
 652	6.4775e+01	6.4736	2.179894	0.000188	1.883518	0.319077	0.000019
 653	6.4874e+01	6.4831	2.199853	0.000201	2.006356	0.339886	0.000020
 654	6.4974e+01	6.4937	2.223887	0.000242	2.415817	0.409250	0.000024
 655	6.5073e+01	6.5051	2.246291	0.000225	2.252033	0.381505	0.000023
 656	6.5172e+01	6.5117	2.270324	0.000242	2.415817	0.409250	0.000024
 657	6.5272e+01	6.5218	2.296394	0.000262	2.620547	0.443933	0.000026
 658	6.5371e+01	6.5345	2.318390	0.000221	2.211087	0.374568	0.000022
 659	6.5471e+01	6.5411	2.342016	0.000237	2.374871	0.402314	0.000024
 660	6.5570e+01	6.5500	2.362383	0.000205	2.047302	0.346822	0.000020
 661	6.5670e+01	6.5644	2.388453	0.000262	2.620547	0.443933	0.000026
 662	6.5769e+01	6.5754	2.408005	0.000197	1.965410	0.332950	0.000020
 663	6.5869e+01	6.5836	2.437334	0.000295	2.948116	0.499424	0.000029
 664	6.5969e+01	6.5919	2.452406	0.000152	1.515004	0.256649	0.000015
 665	6.6068e+01	6.6000	2.483771	0.000315	3.152846	0.534107	0.000032
 666	6.6168e+01	6.6106	2.501694	0.000180	1.801626	0.305204	0.000018
 667	6.6267e+01	6.6220	2.526542	0.000250	2.497709	0.423123	0.000025
 668	6.6367e+01	6.6310	2.552205	0.000258	2.579601	0.436996	0.000026
 669	6.6466e+01	6.6409	2.571757	0.000197	1.965410	0.332950	0.000020
 670	6.6566e+01	6.6509	2.596605	0.000250	2.497709	0.423123	0.000025
 671	6.6665e+01	6.6611	2.618194	0.000217	2.170141	0.367632	0.000022
 672	6.6764e+01	6.6716	2.646708	0.000287	2.866223	0.485551	0.000029
 673	6.6864e+01	6.6813	2.669927	0.000233	2.333925	0.395378	0.000023
 674	6.6963e+01	6.6926	2.692738	0.000229	2.292979	0.388441	0.000023
 675	6.7063e+01	6.6999	2.720030	0.000274	2.743385	0.464742	0.000027
 676	6.7162e+01	6.7104	2.741212	0.000213	2.129195	0.360695	0.000021
 677	6.7262e+01	6.7205	2.764838	0.000237	2.374871	0.402314	0.000024
 678	6.7362e+01	6.7292	2.787241	0.000225	2.252033	0.381505	0.000023
 679	6.7461e+01	6.7410	2.812904	0.000258	2.579601	0.436996	0.000026
 680	6.7561e+01	6.7500	2.833678	0.000209	2.088248	0.353759	0.000021
 681	6.7660e+01	6.7616	2.858934	0.000254	2.538655	0.430060	0.000025
 682	6.7760e+01	6.7725	2.885411	0.000266	2.661493	0.450869	0.000027
 683	6.7859e+01	6.7803	2.904963	0.000197	1.965410	0.332950	0.000020
 684	6.7959e+01	6.7921	2.931848	0.000270	2.702439	0.457806	0.000027
 685	6.8058e+01	6.7996	2.956696	0.000250	2.497709	0.423123	0.000025
 686	6.8157e+01	6.8098	2.979914	0.000233	2.333925	0.395378	0.000023
 687	6.8257e+01	6.8197	3.003948	0.000242	2.415817	0.409250	0.000024
 688	6.8356e+01	6.8302	3.028796	0.000250	2.497709	0.423123	0.000025
 689	6.8456e+01	6.8394	3.055273	0.000266	2.661493	0.450869	0.000027
 690	6.8555e+01	6.8488	3.076862	0.000217	2.170141	0.367632	0.000022
 691	6.8655e+01	6.8604	3.104969	0.000283	2.825277	0.478615	0.000028
 692	6.8754e+01	6.8722	3.130224	0.000254	2.538655	0.430060	0.000025
 693	6.8854e+01	6.8835	3.150998	0.000209	2.088248	0.353759	0.000021
 694	6.8954e+01	6.8911	3.170958	0.000201	2.006356	0.339886	0.000020
 695	6.9053e+01	6.8995	3.196213	0.000254	2.538655	0.430060	0.000025
 696	6.9153e+01	6.9102	3.217802	0.000217	2.170141	0.367632	0.000022
 697	6.9252e+01	6.9209	3.240206	0.000225	2.252033	0.381505	0.000023
 698	6.9352e+01	6.9301	3.265054	0.000250	2.497709	0.423123	0.000025
 699	6.9451e+01	6.9393	3.287051	0.000221	2.211087	0.374568	0.000022
 700	6.9550e+01	6.9482	3.312306	0.000254	2.538655	0.430060	0.000025
 701	6.9650e+01	6.9607	3.334302	0.000221	2.211087	0.374568	0.000022
 702	6.9749e+01	6.9724	3.361187	0.000270	2.702439	0.457806	0.000027
 703	6.9849e+01	6.9805	3.381147	0.000201	2.006356	0.339886	0.000020
 704	6.9948e+01	6.9882	3.406809	0.000258	2.579601	0.436996	0.000026
 705	7.0048e+01	7.0021	3.427991	0.000213	2.129195	0.360695	0.000021
 706	7.0147e+01	7.0092	3.450395	0.000225	2.252033	0.381505	0.000023
 707	7.0247e+01	7.0234	3.473206	0.000229	2.292979	0.388441	0.000023
 708	7.0347e+01	7.0290	3.495610	0.000225	2.252033	0.381505	0.000023
 709	7.0446e+01	7.0404	3.520865	0.000254	2.538655	0.430060	0.000025
 710	7.0546e+01	7.0501	3.542862	0.000221	2.211087	0.374568	0.000022
 711	7.0645e+01	7.0653	3.570968	0.000283	2.825277	0.478615	0.000028
 712	7.0745e+01	7.0686	3.595816	0.000250	2.497709	0.423123	0.000025
 713	7.0844e+01	7.0801	3.616591	0.000209	2.088248	0.353759	0.000021
 714	7.0944e+01	7.0888	3.643068	0.000266	2.661493	0.450869	0.000027
 715	7.1043e+01	7.0976	3.667916	0.000250	2.497709	0.423123	0.000025
 716	7.1142e+01	7.1094	3.693986	0.000262	2.620547	0.443933	0.000026
 717	7.1242e+01	7.1202	3.724129	0.000303	3.030008	0.513297	0.000030
 718	7.1341e+01	7.1285	3.746940	0.000229	2.292979	0.388441	0.000023
 719	7.1441e+01	7.1404	3.774232	0.000274	2.743385	0.464742	0.000027
 720	7.1540e+01	7.1490	3.802339	0.000283	2.825277	0.478615	0.000028
 721	7.1640e+01	7.1582	3.827594	0.000254	2.538655	0.430060	0.000025
 722	7.1740e+01	7.1670	3.856108	0.000287	2.866223	0.485551	0.000029
 723	7.1839e+01	7.1827	3.884215	0.000283	2.825277	0.478615	0.000028
 724	7.1939e+01	7.1915	3.911507	0.000274	2.743385	0.464742	0.000027
 725	7.2038e+01	7.2015	3.939613	0.000283	2.825277	0.478615	0.000028
 726	7.2138e+01	7.2070	3.968535	0.000291	2.907169	0.492488	0.000029
 727	7.2237e+01	7.2179	3.999900	0.000315	3.152846	0.534107	0.000032
 728	7.2337e+01	7.2295	4.024748	0.000250	2.497709	0.423123	0.000025
 729	7.2436e+01	7.2386	4.052447	0.000278	2.784331	0.471678	0.000028
 730	7.2535e+01	7.2504	4.076073	0.000237	2.374871	0.402314	0.000024
 731	7.2635e+01	7.2594	4.107031	0.000311	3.111900	0.527170	0.000031
 732	7.2734e+01	7.2688	4.133916	0.000270	2.702439	0.457806	0.000027
 733	7.2834e+01	7.2784	4.162837	0.000291	2.907169	0.492488	0.000029
 734	7.2933e+01	7.2901	4.195017	0.000323	3.234738	0.547979	0.000032
 735	7.3033e+01	7.2983	4.219865	0.000250	2.497709	0.423123	0.000025
 736	7.3132e+01	7.3104	4.250009	0.000303	3.030008	0.513297	0.000030
 737	7.3232e+01	7.3200	4.278522	0.000287	2.866223	0.485551	0.000029
 738	7.3332e+01	7.3293	4.305814	0.000274	2.743385	0.464742	0.000027
 739	7.3431e+01	7.3389	4.332292	0.000266	2.661493	0.450869	0.000027
 740	7.3531e+01	7.3485	4.361213	0.000291	2.907169	0.492488	0.000029
 741	7.3630e+01	7.3602	4.387283	0.000262	2.620547	0.443933	0.000026
 742	7.3730e+01	7.3690	4.410094	0.000229	2.292979	0.388441	0.000023
 743	7.3829e+01	7.3799	4.443904	0.000340	3.398522	0.575725	0.000034
 744	7.3928e+01	7.3892	4.467529	0.000237	2.374871	0.402314	0.000024
 745	7.4028e+01	7.3989	4.494821	0.000274	2.743385	0.464742	0.000027
 746	7.4127e+01	7.4082	4.524557	0.000299	2.989062	0.506361	0.000030
 747	7.4227e+01	7.4210	4.552664	0.000283	2.825277	0.478615	0.000028
 748	7.4326e+01	7.4287	4.577919	0.000254	2.538655	0.430060	0.000025
 749	7.4426e+01	7.4366	4.603175	0.000254	2.538655	0.430060	0.000025
 750	7.4525e+01	7.4466	4.632096	0.000291	2.907169	0.492488	0.000029
 751	7.4625e+01	7.4583	4.661424	0.000295	2.948116	0.499424	0.000029
 752	7.4725e+01	7.4679	4.685458	0.000242	2.415817	0.409250	0.000024
 753	7.4824e+01	7.4780	4.717638	0.000323	3.234738	0.547979	0.000032
 754	7.4924e+01	7.4892	4.742893	0.000254	2.538655	0.430060	0.000025
 755	7.5023e+01	7.4989	4.771000	0.000283	2.825277	0.478615	0.000028
 756	7.5123e+01	7.5088	4.797070	0.000262	2.620547	0.443933	0.000026
 757	7.5222e+01	7.5180	4.822732	0.000258	2.579601	0.436996	0.000026
 758	7.5322e+01	7.5293	4.851246	0.000287	2.866223	0.485551	0.000029
 759	7.5421e+01	7.5391	4.879760	0.000287	2.866223	0.485551	0.000029
 760	7.5520e+01	7.5474	4.902979	0.000233	2.333925	0.395378	0.000023
 761	7.5620e+01	7.5578	4.932307	0.000295	2.948116	0.499424	0.000029
 762	7.5719e+01	7.5659	4.959599	0.000274	2.743385	0.464742	0.000027
 763	7.5819e+01	7.5768	4.984040	0.000246	2.456763	0.416187	0.000025
 764	7.5918e+01	7.5869	5.014183	0.000303	3.030008	0.513297	0.000030
 765	7.6018e+01	7.5990	5.040660	0.000266	2.661493	0.450869	0.000027
 766	7.6118e+01	7.6070	5.068360	0.000278	2.784331	0.471678	0.000028
 767	7.6217e+01	7.6140	5.093615	0.000254	2.538655	0.430060	0.000025
 768	7.6317e+01	7.6270	5.121314	0.000278	2.784331	0.471678	0.000028
 769	7.6416e+01	7.6376	5.147384	0.000262	2.620547	0.443933	0.000026
 770	7.6516e+01	7.6468	5.173454	0.000262	2.620547	0.443933	0.000026
 771	7.6615e+01	7.6581	5.201153	0.000278	2.784331	0.471678	0.000028
 772	7.6715e+01	7.6671	5.232111	0.000311	3.111900	0.527170	0.000031
 773	7.6814e+01	7.6778	5.254923	0.000229	2.292979	0.388441	0.000023
 774	7.6913e+01	7.6846	5.282215	0.000274	2.743385	0.464742	0.000027
 775	7.7013e+01	7.6961	5.313173	0.000311	3.111900	0.527170	0.000031
 776	7.7112e+01	7.7068	5.336391	0.000233	2.333925	0.395378	0.000023
 777	7.7212e+01	7.7181	5.364905	0.000287	2.866223	0.485551	0.000029
 778	7.7311e+01	7.7288	5.392604	0.000278	2.784331	0.471678	0.000028
 779	7.7411e+01	7.7389	5.423970	0.000315	3.152846	0.534107	0.000032
 780	7.7510e+01	7.7469	5.451262	0.000274	2.743385	0.464742	0.000027
 781	7.7610e+01	7.7573	5.483034	0.000319	3.193792	0.541043	0.000032
 782	7.7710e+01	7.7664	5.515214	0.000323	3.234738	0.547979	0.000032
 783	7.7809e+01	7.7763	5.541284	0.000262	2.620547	0.443933	0.000026
 784	7.7909e+01	7.7876	5.575094	0.000340	3.398522	0.575725	0.000034
 785	7.8008e+01	7.7979	5.600349	0.000254	2.538655	0.430060	0.000025
 786	7.8108e+01	7.8052	5.626826	0.000266	2.661493	0.450869	0.000027
 787	7.8207e+01	7.8161	5.660228	0.000336	3.357576	0.568789	0.000034
 788	7.8306e+01	7.8288	5.690779	0.000307	3.070954	0.520234	0.000031
 789	7.8406e+01	7.8345	5.718886	0.000283	2.825277	0.478615	0.000028
 790	7.8505e+01	7.8464	5.748622	0.000299	2.989062	0.506361	0.000030
 791	7.8605e+01	7.8573	5.775914	0.000274	2.743385	0.464742	0.000027
 792	7.8704e+01	7.8667	5.806872	0.000311	3.111900	0.527170	0.000031
 793	7.8804e+01	7.8746	5.837015	0.000303	3.030008	0.513297	0.000030
 794	7.8903e+01	7.8849	5.867158	0.000303	3.030008	0.513297	0.000030
 795	7.9003e+01	7.8942	5.895265	0.000283	2.825277	0.478615	0.000028
 796	7.9103e+01	7.9060	5.922964	0.000278	2.784331	0.471678	0.000028
 797	7.9202e+01	7.9156	5.948627	0.000258	2.579601	0.436996	0.000026
 798	7.9302e+01	7.9248	5.982029	0.000336	3.357576	0.568789	0.000034
 799	7.9401e+01	7.9361	6.008099	0.000262	2.620547	0.443933	0.000026
 800	7.9501e+01	7.9433	6.033354	0.000254	2.538655	0.430060	0.000025
 801	7.9600e+01	7.9541	6.063905	0.000307	3.070954	0.520234	0.000031
 802	7.9700e+01	7.9655	6.091604	0.000278	2.784331	0.471678	0.000028
 803	7.9799e+01	7.9770	6.116859	0.000254	2.538655	0.430060	0.000025
 804	7.9898e+01	7.9845	6.142929	0.000262	2.620547	0.443933	0.000026
 805	7.9998e+01	7.9943	6.166555	0.000237	2.374871	0.402314	0.000024
 806	8.0097e+01	8.0059	6.191810	0.000254	2.538655	0.430060	0.000025
 807	8.0197e+01	8.0153	6.221954	0.000303	3.030008	0.513297	0.000030
 808	8.0296e+01	8.0254	6.247616	0.000258	2.579601	0.436996	0.000026
 809	8.0396e+01	8.0357	6.272464	0.000250	2.497709	0.423123	0.000025
 810	8.0496e+01	8.0469	6.298534	0.000262	2.620547	0.443933	0.000026
 811	8.0595e+01	8.0535	6.323382	0.000250	2.497709	0.423123	0.000025
 812	8.0695e+01	8.0642	6.350674	0.000274	2.743385	0.464742	0.000027
 813	8.0794e+01	8.0746	6.377151	0.000266	2.661493	0.450869	0.000027
 814	8.0894e+01	8.0862	6.401185	0.000242	2.415817	0.409250	0.000024
 815	8.0993e+01	8.0929	6.425625	0.000246	2.456763	0.416187	0.000025
 816	8.1093e+01	8.1064	6.454139	0.000287	2.866223	0.485551	0.000029
 817	8.1192e+01	8.1156	6.478987	0.000250	2.497709	0.423123	0.000025
 818	8.1291e+01	8.1262	6.504650	0.000258	2.579601	0.436996	0.000026
 819	8.1391e+01	8.1321	6.533978	0.000295	2.948116	0.499424	0.000029
 820	8.1490e+01	8.1446	6.552716	0.000188	1.883518	0.319077	0.000019
 821	8.1590e+01	8.1525	6.582859	0.000303	3.030008	0.513297	0.000030
 822	8.1689e+01	8.1646	6.612595	0.000299	2.989062	0.506361	0.000030
 823	8.1789e+01	8.1723	6.640702	0.000283	2.825277	0.478615	0.000028
 824	8.1888e+01	8.1836	6.665142	0.000246	2.456763	0.416187	0.000025
 825	8.1988e+01	8.1943	6.694879	0.000299	2.989062	0.506361	0.000030
 826	8.2088e+01	8.2023	6.726651	0.000319	3.193792	0.541043	0.000032
 827	8.2187e+01	8.2134	6.754351	0.000278	2.784331	0.471678	0.000028
 828	8.2287e+01	8.2256	6.781642	0.000274	2.743385	0.464742	0.000027
 829	8.2386e+01	8.2314	6.813008	0.000315	3.152846	0.534107	0.000032
 830	8.2486e+01	8.2444	6.841522	0.000287	2.866223	0.485551	0.000029
 831	8.2585e+01	8.2544	6.867999	0.000266	2.661493	0.450869	0.000027
 832	8.2684e+01	8.2624	6.903031	0.000352	3.521360	0.596535	0.000035
 833	8.2784e+01	8.2738	6.930730	0.000278	2.784331	0.471678	0.000028
 834	8.2883e+01	8.2829	6.961281	0.000307	3.070954	0.520234	0.000031
 835	8.2983e+01	8.2952	6.991424	0.000303	3.030008	0.513297	0.000030
 836	8.3082e+01	8.3048	7.021160	0.000299	2.989062	0.506361	0.000030
 837	8.3182e+01	8.3127	7.048452	0.000274	2.743385	0.464742	0.000027
 838	8.3281e+01	8.3234	7.077781	0.000295	2.948116	0.499424	0.000029
 839	8.3381e+01	8.3330	7.109146	0.000315	3.152846	0.534107	0.000032
 840	8.3481e+01	8.3450	7.139697	0.000307	3.070954	0.520234	0.000031
 841	8.3580e+01	8.3514	7.169025	0.000295	2.948116	0.499424	0.000029
 842	8.3680e+01	8.3646	7.197947	0.000291	2.907169	0.492488	0.000029
 843	8.3779e+01	8.3723	7.230534	0.000328	3.275684	0.554916	0.000033
 844	8.3879e+01	8.3826	7.261899	0.000315	3.152846	0.534107	0.000032
 845	8.3978e+01	8.3911	7.291228	0.000295	2.948116	0.499424	0.000029
 846	8.4078e+01	8.4033	7.320557	0.000295	2.948116	0.499424	0.000029
 847	8.4177e+01	8.4124	7.354773	0.000344	3.439468	0.582662	0.000034
 848	8.4276e+01	8.4237	7.382473	0.000278	2.784331	0.471678	0.000028
 849	8.4376e+01	8.4323	7.413023	0.000307	3.070954	0.520234	0.000031
 850	8.4475e+01	8.4440	7.443981	0.000311	3.111900	0.527170	0.000031
 851	8.4575e+01	8.4546	7.472903	0.000291	2.907169	0.492488	0.000029
 852	8.4674e+01	8.4623	7.506712	0.000340	3.398522	0.575725	0.000034
 853	8.4774e+01	8.4712	7.535634	0.000291	2.907169	0.492488	0.000029
 854	8.4874e+01	8.4811	7.569036	0.000336	3.357576	0.568789	0.000034
 855	8.4973e+01	8.4930	7.599179	0.000303	3.030008	0.513297	0.000030
 856	8.5073e+01	8.5023	7.631359	0.000323	3.234738	0.547979	0.000032
 857	8.5172e+01	8.5130	7.661502	0.000303	3.030008	0.513297	0.000030
 858	8.5272e+01	8.5235	7.691646	0.000303	3.030008	0.513297	0.000030
 859	8.5371e+01	8.5342	7.726677	0.000352	3.521360	0.596535	0.000035
 860	8.5471e+01	8.5437	7.755191	0.000287	2.866223	0.485551	0.000029
 861	8.5570e+01	8.5508	7.789408	0.000344	3.439468	0.582662	0.000034
 862	8.5669e+01	8.5627	7.820773	0.000315	3.152846	0.534107	0.000032
 863	8.5769e+01	8.5715	7.850509	0.000299	2.989062	0.506361	0.000030
 864	8.5868e+01	8.5818	7.883097	0.000328	3.275684	0.554916	0.000033
 865	8.5968e+01	8.5946	7.915277	0.000323	3.234738	0.547979	0.000032
 866	8.6067e+01	8.6015	7.943791	0.000287	2.866223	0.485551	0.000029
 867	8.6167e+01	8.6125	7.973527	0.000299	2.989062	0.506361	0.000030
 868	8.6266e+01	8.6219	8.004892	0.000315	3.152846	0.534107	0.000032
 869	8.6366e+01	8.6349	8.037887	0.000332	3.316630	0.561852	0.000033
 870	8.6466e+01	8.6420	8.067216	0.000295	2.948116	0.499424	0.000029
 871	8.6565e+01	8.6536	8.098174	0.000311	3.111900	0.527170	0.000031
 872	8.6665e+01	8.6621	8.129539	0.000315	3.152846	0.534107	0.000032
 873	8.6764e+01	8.6719	8.158868	0.000295	2.948116	0.499424	0.000029
 874	8.6864e+01	8.6830	8.188604	0.000299	2.989062	0.506361	0.000030
 875	8.6963e+01	8.6938	8.223228	0.000348	3.480414	0.589598	0.000035
 876	8.7063e+01	8.7016	8.248890	0.000258	2.579601	0.436996	0.000026
 877	8.7162e+01	8.7092	8.284329	0.000356	3.562306	0.603471	0.000036
 878	8.7261e+01	8.7212	8.314472	0.000303	3.030008	0.513297	0.000030
 879	8.7361e+01	8.7329	8.351541	0.000373	3.726090	0.631217	0.000037
 880	8.7460e+01	8.7415	8.381684	0.000303	3.030008	0.513297	0.000030
 881	8.7560e+01	8.7518	8.416715	0.000352	3.521360	0.596535	0.000035
 882	8.7659e+01	8.7595	8.450932	0.000344	3.439468	0.582662	0.000034
 883	8.7759e+01	8.7714	8.485964	0.000352	3.521360	0.596535	0.000035
 884	8.7859e+01	8.7815	8.519773	0.000340	3.398522	0.575725	0.000034
 885	8.7958e+01	8.7903	8.555619	0.000360	3.603252	0.610407	0.000036
 886	8.8058e+01	8.8004	8.593502	0.000381	3.807983	0.645090	0.000038
 887	8.8157e+01	8.8143	8.631385	0.000381	3.807983	0.645090	0.000038
 888	8.8257e+01	8.8194	8.666824	0.000356	3.562306	0.603471	0.000036
 889	8.8356e+01	8.8330	8.707558	0.000409	4.094605	0.693645	0.000041
 890	8.8456e+01	8.8391	8.740960	0.000336	3.357576	0.568789	0.000034
 891	8.8555e+01	8.8502	8.782509	0.000418	4.176497	0.707518	0.000042
 892	8.8654e+01	8.8609	8.817541	0.000352	3.521360	0.596535	0.000035
 893	8.8754e+01	8.8697	8.856645	0.000393	3.930821	0.665899	0.000039
 894	8.8853e+01	8.8773	8.896158	0.000397	3.971767	0.672835	0.000040
 895	8.8953e+01	8.8910	8.935670	0.000397	3.971767	0.672835	0.000040
 896	8.9052e+01	8.8989	8.973553	0.000381	3.807983	0.645090	0.000038
 897	8.9152e+01	8.9117	9.009399	0.000360	3.603252	0.610407	0.000036
 898	8.9251e+01	8.9198	9.050948	0.000418	4.176497	0.707518	0.000042
 899	8.9351e+01	8.9328	9.088016	0.000373	3.726090	0.631217	0.000037
 900	8.9451e+01	8.9429	9.128750	0.000409	4.094605	0.693645	0.000041
 901	8.9550e+01	8.9502	9.170707	0.000422	4.217443	0.714454	0.000042
 902	8.9650e+01	8.9584	9.207775	0.000373	3.726090	0.631217	0.000037
 903	8.9749e+01	8.9704	9.250138	0.000426	4.258389	0.721391	0.000043
 904	8.9849e+01	8.9788	9.290058	0.000401	4.012713	0.679772	0.000040
 905	8.9948e+01	8.9895	9.331199	0.000414	4.135551	0.700581	0.000041
 906	9.0047e+01	9.0000	9.369490	0.000385	3.848929	0.652026	0.000038
 907	9.0147e+01	9.0121	9.405336	0.000360	3.603252	0.610407	0.000036
 908	9.0246e+01	9.0172	9.449329	0.000442	4.422173	0.749136	0.000044
 909	9.0346e+01	9.0292	9.486804	0.000377	3.767036	0.638153	0.000038
 910	9.0445e+01	9.0417	9.525095	0.000385	3.848929	0.652026	0.000038
 911	9.0545e+01	9.0513	9.562163	0.000373	3.726090	0.631217	0.000037
 912	9.0644e+01	9.0598	9.602490	0.000405	4.053659	0.686708	0.000041
 913	9.0744e+01	9.0690	9.648927	0.000467	4.667850	0.790755	0.000047
 914	9.0844e+01	9.0771	9.685995	0.000373	3.726090	0.631217	0.000037
 915	9.0943e+01	9.0902	9.734469	0.000487	4.872580	0.825437	0.000049
 916	9.1043e+01	9.0970	9.798829	0.000647	6.469476	1.095959	0.000065
 917	9.1142e+01	9.1089	9.854635	0.000561	5.609609	0.950293	0.000056
 918	9.1242e+01	9.1167	9.898220	0.000438	4.381227	0.742200	0.000044
 919	9.1341e+01	9.1300	9.936511	0.000385	3.848929	0.652026	0.000038
 920	9.1441e+01	9.1393	9.980504	0.000442	4.422173	0.749136	0.000044
 921	9.1540e+01	9.1492	10.020830	0.000405	4.053659	0.686708	0.000041
 922	9.1639e+01	9.1561	10.063194	0.000426	4.258389	0.721391	0.000043
 923	9.1739e+01	9.1680	10.105150	0.000422	4.217443	0.714454	0.000042
 924	9.1838e+01	9.1779	10.149143	0.000442	4.422173	0.749136	0.000044
 925	9.1938e+01	9.1895	10.187841	0.000389	3.889875	0.658963	0.000039
 926	9.2037e+01	9.1987	10.231019	0.000434	4.340281	0.735264	0.000043
 927	9.2137e+01	9.2096	10.272975	0.000422	4.217443	0.714454	0.000042
 928	9.2237e+01	9.2178	10.314117	0.000414	4.135551	0.700581	0.000041
 929	9.2336e+01	9.2298	10.356481	0.000426	4.258389	0.721391	0.000043
 930	9.2436e+01	9.2384	10.396808	0.000405	4.053659	0.686708	0.000041
 931	9.2535e+01	9.2460	10.439171	0.000426	4.258389	0.721391	0.000043
 932	9.2635e+01	9.2564	10.480313	0.000414	4.135551	0.700581	0.000041
 933	9.2734e+01	9.2667	10.525935	0.000459	4.585957	0.776882	0.000046
 934	9.2834e+01	9.2798	10.569114	0.000434	4.340281	0.735264	0.000043
 935	9.2933e+01	9.2864	10.610255	0.000414	4.135551	0.700581	0.000041
 936	9.3032e+01	9.2995	10.646916	0.000369	3.685144	0.624280	0.000037
 937	9.3132e+01	9.3069	10.690502	0.000438	4.381227	0.742200	0.000044
 938	9.3231e+01	9.3154	10.731236	0.000409	4.094605	0.693645	0.000041
 939	9.3331e+01	9.3289	10.772377	0.000414	4.135551	0.700581	0.000041
 940	9.3430e+01	9.3374	10.820444	0.000483	4.831634	0.818501	0.000048
 941	9.3530e+01	9.3473	10.862400	0.000422	4.217443	0.714454	0.000042
 942	9.3629e+01	9.3579	10.905578	0.000434	4.340281	0.735264	0.000043
 943	9.3729e+01	9.3694	10.949571	0.000442	4.422173	0.749136	0.000044
 944	9.3829e+01	9.3781	10.993564	0.000442	4.422173	0.749136	0.000044
 945	9.3928e+01	9.3876	11.043668	0.000504	5.036364	0.853183	0.000050
 946	9.4028e+01	9.3970	11.093363	0.000500	4.995418	0.846247	0.000050
 947	9.4127e+01	9.4092	11.147133	0.000540	5.404878	0.915611	0.000054
 948	9.4227e+01	9.4175	11.198865	0.000520	5.200148	0.880929	0.000052
 949	9.4326e+01	9.4267	11.246524	0.000479	4.790688	0.811564	0.000048
 950	9.4425e+01	9.4367	11.295405	0.000491	4.913526	0.832374	0.000049
 951	9.4525e+01	9.4473	11.347138	0.000520	5.200148	0.880929	0.000052
 952	9.4624e+01	9.4583	11.399685	0.000528	5.282040	0.894802	0.000053
 953	9.4724e+01	9.4642	11.463638	0.000643	6.428530	1.089022	0.000064
 954	9.4823e+01	9.4769	11.519851	0.000565	5.650555	0.957230	0.000056
 955	9.4923e+01	9.4855	11.575657	0.000561	5.609609	0.950293	0.000056
 956	9.5022e+01	9.4978	11.629426	0.000540	5.404878	0.915611	0.000054
 957	9.5122e+01	9.5070	11.686454	0.000573	5.732447	0.971103	0.000057
 958	9.5222e+01	9.5143	11.741853	0.000557	5.568663	0.943357	0.000056
 959	9.5321e+01	9.5254	11.801732	0.000602	6.019069	1.019658	0.000060
 960	9.5421e+01	9.5382	11.860389	0.000590	5.896231	0.998849	0.000059
 961	9.5520e+01	9.5473	11.917010	0.000569	5.691501	0.964166	0.000057
 962	9.5620e+01	9.5584	11.971187	0.000545	5.445824	0.922548	0.000054
 963	9.5719e+01	9.5660	12.020475	0.000495	4.954472	0.839310	0.000050
 964	9.5819e+01	9.5759	12.080354	0.000602	6.019069	1.019658	0.000060
 965	9.5918e+01	9.5874	12.128013	0.000479	4.790688	0.811564	0.000048
 966	9.6017e+01	9.5953	12.182597	0.000549	5.486771	0.929484	0.000055
 967	9.6117e+01	9.6063	12.234737	0.000524	5.241094	0.887865	0.000052
 968	9.6216e+01	9.6143	12.288506	0.000540	5.404878	0.915611	0.000054
 969	9.6316e+01	9.6265	12.333314	0.000450	4.504065	0.763009	0.000045
 970	9.6415e+01	9.6350	12.387083	0.000540	5.404878	0.915611	0.000054
 971	9.6515e+01	9.6439	12.441260	0.000545	5.445824	0.922548	0.000054
 972	9.6615e+01	9.6564	12.488919	0.000479	4.790688	0.811564	0.000048
 973	9.6714e+01	9.6674	12.539022	0.000504	5.036364	0.853183	0.000050
 974	9.6814e+01	9.6754	12.587089	0.000483	4.831634	0.818501	0.000048
 975	9.6913e+01	9.6875	12.637192	0.000504	5.036364	0.853183	0.000050
 976	9.7013e+01	9.6960	12.681999	0.000450	4.504065	0.763009	0.000045
 977	9.7112e+01	9.7060	12.730880	0.000491	4.913526	0.832374	0.000049
 978	9.7212e+01	9.7169	12.780169	0.000495	4.954472	0.839310	0.000050
 979	9.7311e+01	9.7256	12.825791	0.000459	4.585957	0.776882	0.000046
 980	9.7410e+01	9.7363	12.873858	0.000483	4.831634	0.818501	0.000048
 981	9.7510e+01	9.7461	12.924775	0.000512	5.118256	0.867056	0.000051
 982	9.7609e+01	9.7549	12.974879	0.000504	5.036364	0.853183	0.000050
 983	9.7709e+01	9.7665	13.026204	0.000516	5.159202	0.873993	0.000052
 984	9.7808e+01	9.7766	13.075085	0.000491	4.913526	0.832374	0.000049
 985	9.7908e+01	9.7843	13.129261	0.000545	5.445824	0.922548	0.000054
 986	9.8007e+01	9.7949	13.185067	0.000561	5.609609	0.950293	0.000056
 987	9.8107e+01	9.8048	13.245354	0.000606	6.060015	1.026594	0.000061
 988	9.8207e+01	9.8157	13.297087	0.000520	5.200148	0.880929	0.000052
 989	9.8306e+01	9.8268	13.348819	0.000520	5.200148	0.880929	0.000052
 990	9.8406e+01	9.8353	13.401774	0.000532	5.322986	0.901738	0.000053
 991	9.8505e+01	9.8452	13.456358	0.000549	5.486771	0.929484	0.000055
 992	9.8605e+01	9.8560	13.511349	0.000553	5.527717	0.936421	0.000055
 993	9.8704e+01	9.8657	13.560230	0.000491	4.913526	0.832374	0.000049
 994	9.8803e+01	9.8722	13.616036	0.000561	5.609609	0.950293	0.000056
 995	9.8903e+01	9.8869	13.670212	0.000545	5.445824	0.922548	0.000054
 996	9.9002e+01	9.8943	13.720723	0.000508	5.077310	0.860120	0.000051
 997	9.9102e+01	9.9033	13.777343	0.000569	5.691501	0.964166	0.000057
 998	9.9201e+01	9.9121	13.830705	0.000536	5.363932	0.908675	0.000054
 999	9.9301e+01	9.9252	13.885697	0.000553	5.527717	0.936421	0.000055
1000	9.9400e+01	9.9359	13.941910	0.000565	5.650555	0.957230	0.000056
1001	9.9500e+01	9.9432	14.000567	0.000590	5.896231	0.998849	0.000059
1002	9.9600e+01	9.9554	14.058002	0.000577	5.773393	0.978039	0.000058
1003	9.9699e+01	9.9625	14.117474	0.000598	5.978123	1.012721	0.000060
1004	9.9799e+01	9.9741	14.174502	0.000573	5.732447	0.971103	0.000057
1005	9.9898e+01	9.9854	14.234382	0.000602	6.019069	1.019658	0.000060
1006	9.9998e+01	9.9931	14.296298	0.000622	6.223799	1.054340	0.000062
1007	1.0010e+02	9.9862	14.317480	-0.000213	-2.129195	-0.360695	0.000021
1008	1.0020e+02	9.9728	14.337032	-0.000197	-1.965410	-0.332950	0.000020
1009	1.0030e+02	9.9643	14.358621	-0.000217	-2.170141	-0.367632	0.000022
1010	1.0040e+02	9.9567	14.389172	-0.000307	-3.070954	-0.520234	0.000031
1011	1.0050e+02	9.9472	14.407095	-0.000180	-1.801626	-0.305204	0.000018
1012	1.0059e+02	9.9375	14.425833	-0.000188	-1.883518	-0.319077	0.000019
1013	1.0069e+02	9.9241	14.447015	-0.000213	-2.129195	-0.360695	0.000021
1014	1.0079e+02	9.9154	14.466567	-0.000197	-1.965410	-0.332950	0.000020
1015	1.0089e+02	9.9030	14.485305	-0.000188	-1.883518	-0.319077	0.000019
1016	1.0099e+02	9.8929	14.499562	-0.000143	-1.433112	-0.242776	0.000014
1017	1.0109e+02	9.8865	14.520744	-0.000213	-2.129195	-0.360695	0.000021
1018	1.0119e+02	9.8772	14.536630	-0.000160	-1.596896	-0.270521	0.000016
1019	1.0129e+02	9.8682	14.550480	-0.000139	-1.392166	-0.235839	0.000014
1020	1.0139e+02	9.8547	14.567588	-0.000172	-1.719734	-0.291331	0.000017
1021	1.0149e+02	9.8490	14.584289	-0.000168	-1.678788	-0.284394	0.000017
1022	1.0159e+02	9.8343	14.598546	-0.000143	-1.433112	-0.242776	0.000014
1023	1.0169e+02	9.8260	14.616469	-0.000180	-1.801626	-0.305204	0.000018
1024	1.0179e+02	9.8136	14.632763	-0.000164	-1.637842	-0.277458	0.000016
1025	1.0189e+02	9.8047	14.655167	-0.000225	-2.252033	-0.381505	0.000023
1026	1.0199e+02	9.7974	14.668609	-0.000135	-1.351220	-0.228903	0.000014
1027	1.0209e+02	9.7852	14.686939	-0.000184	-1.842572	-0.312140	0.000018
1028	1.0219e+02	9.7743	14.701196	-0.000143	-1.433112	-0.242776	0.000014
1029	1.0229e+02	9.7687	14.717083	-0.000160	-1.596896	-0.270521	0.000016
1030	1.0239e+02	9.7541	14.725230	-0.000082	-0.818921	-0.138729	0.000008
1031	1.0248e+02	9.7446	14.740709	-0.000156	-1.555950	-0.263585	0.000016
1032	1.0258e+02	9.7346	14.753744	-0.000131	-1.310274	-0.221966	0.000013
1033	1.0268e+02	9.7266	14.765964	-0.000123	-1.228381	-0.208093	0.000012
1034	1.0278e+02	9.7170	14.776147	-0.000102	-1.023651	-0.173411	0.000010
1035	1.0288e+02	9.7058	14.787553	-0.000115	-1.146489	-0.194221	0.000011
1036	1.0298e+02	9.6966	14.801810	-0.000143	-1.433112	-0.242776	0.000014
1037	1.0308e+02	9.6844	14.809957	-0.000082	-0.818921	-0.138729	0.000008
1038	1.0318e+02	9.6777	14.822584	-0.000127	-1.269328	-0.215030	0.000013
1039	1.0328e+02	9.6656	14.827065	-0.000045	-0.450407	-0.076301	0.000005
1040	1.0338e+02	9.6570	14.838878	-0.000119	-1.187435	-0.201157	0.000012
1041	1.0348e+02	9.6457	14.856801	-0.000180	-1.801626	-0.305204	0.000018
1042	1.0358e+02	9.6354	14.879205	-0.000225	-2.252033	-0.381505	0.000023
1043	1.0368e+02	9.6234	14.897535	-0.000184	-1.842572	-0.312140	0.000018
1044	1.0378e+02	9.6143	14.906904	-0.000094	-0.941759	-0.159538	0.000009
1045	1.0388e+02	9.6045	14.919939	-0.000131	-1.310274	-0.221966	0.000013
1046	1.0398e+02	9.5956	14.926864	-0.000070	-0.696083	-0.117920	0.000007
1047	1.0408e+02	9.5858	14.937048	-0.000102	-1.023651	-0.173411	0.000010
1048	1.0418e+02	9.5734	14.943565	-0.000066	-0.655137	-0.110983	0.000007
1049	1.0428e+02	9.5667	14.954156	-0.000106	-1.064597	-0.180348	0.000011
1050	1.0438e+02	9.5557	14.962710	-0.000086	-0.859867	-0.145665	0.000009
1051	1.0447e+02	9.5459	14.976153	-0.000135	-1.351220	-0.228903	0.000014
1052	1.0457e+02	9.5363	14.985114	-0.000090	-0.900813	-0.152602	0.000009
1053	1.0467e+02	9.5264	14.998964	-0.000139	-1.392166	-0.235839	0.000014
1054	1.0477e+02	9.5166	15.010777	-0.000119	-1.187435	-0.201157	0.000012
1055	1.0487e+02	9.5063	15.022997	-0.000123	-1.228381	-0.208093	0.000012
1056	1.0497e+02	9.4931	15.028292	-0.000053	-0.532299	-0.090174	0.000005
1057	1.0507e+02	9.4873	15.041327	-0.000131	-1.310274	-0.221966	0.000013
1058	1.0517e+02	9.4759	15.050696	-0.000094	-0.941759	-0.159538	0.000009
1059	1.0527e+02	9.4678	15.062917	-0.000123	-1.228381	-0.208093	0.000012
1060	1.0537e+02	9.4559	15.070249	-0.000074	-0.737029	-0.124856	0.000007
1061	1.0547e+02	9.4486	15.078803	-0.000086	-0.859867	-0.145665	0.000009
1062	1.0557e+02	9.4373	15.090208	-0.000115	-1.146489	-0.194221	0.000011
1063	1.0567e+02	9.4287	15.097948	-0.000078	-0.777975	-0.131793	0.000008
1064	1.0577e+02	9.4168	15.105688	-0.000078	-0.777975	-0.131793	0.000008
1065	1.0587e+02	9.4063	15.110576	-0.000049	-0.491353	-0.083237	0.000005
1066	1.0597e+02	9.3958	15.119537	-0.000090	-0.900813	-0.152602	0.000009
1067	1.0607e+02	9.3888	15.127277	-0.000078	-0.777975	-0.131793	0.000008
1068	1.0617e+02	9.3781	15.134201	-0.000070	-0.696083	-0.117920	0.000007
1069	1.0627e+02	9.3662	15.138275	-0.000041	-0.409460	-0.069364	0.000004
1070	1.0637e+02	9.3570	15.149273	-0.000111	-1.105543	-0.187284	0.000011
1071	1.0647e+02	9.3508	15.154976	-0.000057	-0.573245	-0.097110	0.000006
1072	1.0656e+02	9.3396	15.159457	-0.000045	-0.450407	-0.076301	0.000005
1073	1.0666e+02	9.3276	15.165567	-0.000061	-0.614191	-0.104047	0.000006
1074	1.0676e+02	9.3182	15.167196	-0.000016	-0.163784	-0.027746	0.000002
1075	1.0686e+02	9.3070	15.174121	-0.000070	-0.696083	-0.117920	0.000007
1076	1.0696e+02	9.2957	15.176565	-0.000025	-0.245676	-0.041619	0.000002
1077	1.0706e+02	9.2876	15.181046	-0.000045	-0.450407	-0.076301	0.000005
1078	1.0716e+02	9.2786	15.184712	-0.000037	-0.368514	-0.062428	0.000004
1079	1.0726e+02	9.2683	15.183490	0.000012	0.122838	0.020809	-0.000001
1080	1.0736e+02	9.2585	15.189600	-0.000061	-0.614191	-0.104047	0.000006
1081	1.0746e+02	9.2497	15.193673	-0.000041	-0.409460	-0.069364	0.000004
1082	1.0756e+02	9.2396	15.190007	0.000037	0.368514	0.062428	-0.000004
1083	1.0766e+02	9.2285	15.196118	-0.000061	-0.614191	-0.104047	0.000006
1084	1.0776e+02	9.2191	15.195710	0.000004	0.040946	0.006936	-0.000000
1085	1.0786e+02	9.2078	15.199784	-0.000041	-0.409460	-0.069364	0.000004
1086	1.0796e+02	9.1981	15.203857	-0.000041	-0.409460	-0.069364	0.000004
1087	1.0806e+02	9.1870	15.203450	0.000004	0.040946	0.006936	-0.000000
1088	1.0816e+02	9.1786	15.203042	0.000004	0.040946	0.006936	-0.000000
1089	1.0826e+02	9.1679	15.203450	-0.000004	-0.040946	-0.006936	0.000000
1090	1.0836e+02	9.1602	15.206301	-0.000029	-0.286622	-0.048555	0.000003
1091	1.0845e+02	9.1499	15.204672	0.000016	0.163784	0.027746	-0.000002
1092	1.0855e+02	9.1382	15.207116	-0.000025	-0.245676	-0.041619	0.000002
1093	1.0865e+02	9.1268	15.206301	0.000008	0.081892	0.013873	-0.000001
1094	1.0875e+02	9.1205	15.208338	-0.000020	-0.204730	-0.034682	0.000002
1095	1.0885e+02	9.1106	15.205486	0.000029	0.286622	0.048555	-0.000003
1096	1.0895e+02	9.1006	15.210782	-0.000053	-0.532299	-0.090174	0.000005
1097	1.0905e+02	9.0874	15.204672	0.000061	0.614191	0.104047	-0.000006
1098	1.0915e+02	9.0791	15.205486	-0.000008	-0.081892	-0.013873	0.000001
1099	1.0925e+02	9.0685	15.204672	0.000008	0.081892	0.013873	-0.000001
1100	1.0935e+02	9.0597	15.202635	0.000020	0.204730	0.034682	-0.000002
1101	1.0945e+02	9.0493	15.201413	0.000012	0.122838	0.020809	-0.000001
1102	1.0955e+02	9.0398	15.205486	-0.000041	-0.409460	-0.069364	0.000004
1103	1.0965e+02	9.0270	15.200598	0.000049	0.491353	0.083237	-0.000005
1104	1.0975e+02	9.0192	15.200598	-0.000000	-0.000000	-0.000000	0.000000
1105	1.0985e+02	9.0121	15.192044	0.000086	0.859867	0.145665	-0.000009
1106	1.0995e+02	8.9965	15.198969	-0.000070	-0.696083	-0.117920	0.000007
1107	1.1005e+02	8.9900	15.192859	0.000061	0.614191	0.104047	-0.000006
1108	1.1015e+02	8.9782	15.191637	0.000012	0.122838	0.020809	-0.000001
1109	1.1025e+02	8.9697	15.190822	0.000008	0.081892	0.013873	-0.000001
1110	1.1035e+02	8.9588	15.185934	0.000049	0.491353	0.083237	-0.000005
1111	1.1044e+02	8.9497	15.184712	0.000012	0.122838	0.020809	-0.000001
1112	1.1054e+02	8.9410	15.183490	0.000012	0.122838	0.020809	-0.000001
1113	1.1064e+02	8.9282	15.181453	0.000020	0.204730	0.034682	-0.000002
1114	1.1074e+02	8.9203	15.176158	0.000053	0.532299	0.090174	-0.000005
1115	1.1084e+02	8.9075	15.177787	-0.000016	-0.163784	-0.027746	0.000002
1116	1.1094e+02	8.9017	15.175750	0.000020	0.204730	0.034682	-0.000002
1117	1.1104e+02	8.8940	15.171270	0.000045	0.450407	0.076301	-0.000005
1118	1.1114e+02	8.8818	15.170455	0.000008	0.081892	0.013873	-0.000001
1119	1.1124e+02	8.8703	15.164752	0.000057	0.573245	0.097110	-0.000006
1120	1.1134e+02	8.8601	15.164345	0.000004	0.040946	0.006936	-0.000000
1121	1.1144e+02	8.8492	15.159457	0.000049	0.491353	0.083237	-0.000005
1122	1.1154e+02	8.8383	15.153754	0.000057	0.573245	0.097110	-0.000006
1123	1.1164e+02	8.8319	15.150903	0.000029	0.286622	0.048555	-0.000003
1124	1.1174e+02	8.8213	15.141941	0.000090	0.900813	0.152602	-0.000009
1125	1.1184e+02	8.8098	15.145200	-0.000033	-0.327568	-0.055492	0.000003
1126	1.1194e+02	8.8021	15.136238	0.000090	0.900813	0.152602	-0.000009
1127	1.1204e+02	8.7927	15.132165	0.000041	0.409460	0.069364	-0.000004
1128	1.1214e+02	8.7799	15.128499	0.000037	0.368514	0.062428	-0.000004
1129	1.1224e+02	8.7695	15.120759	0.000078	0.777975	0.131793	-0.000008
1130	1.1234e+02	8.7611	15.112205	0.000086	0.859867	0.145665	-0.000009
1131	1.1244e+02	8.7507	15.110168	0.000020	0.204730	0.034682	-0.000002
1132	1.1253e+02	8.7434	15.102021	0.000082	0.818921	0.138729	-0.000008
1133	1.1263e+02	8.7305	15.093875	0.000082	0.818921	0.138729	-0.000008
1134	1.1273e+02	8.7217	15.088172	0.000057	0.573245	0.097110	-0.000006
1135	1.1283e+02	8.7132	15.082469	0.000057	0.573245	0.097110	-0.000006
1136	1.1293e+02	8.7022	15.067397	0.000152	1.515004	0.256649	-0.000015
1137	1.1303e+02	8.6911	15.060472	0.000070	0.696083	0.117920	-0.000007
1138	1.1313e+02	8.6816	15.052326	0.000082	0.818921	0.138729	-0.000008
1139	1.1323e+02	8.6726	15.041327	0.000111	1.105543	0.187284	-0.000011
1140	1.1333e+02	8.6600	15.030736	0.000106	1.064597	0.180348	-0.000011
1141	1.1343e+02	8.6527	15.016887	0.000139	1.392166	0.235839	-0.000014
1142	1.1353e+02	8.6417	15.009555	0.000074	0.737029	0.124856	-0.000007
1143	1.1363e+02	8.6329	14.994483	0.000152	1.515004	0.256649	-0.000015
1144	1.1373e+02	8.6220	14.984707	0.000098	0.982705	0.166475	-0.000010
1145	1.1383e+02	8.6127	14.974931	0.000098	0.982705	0.166475	-0.000010
1146	1.1393e+02	8.6017	14.966784	0.000082	0.818921	0.138729	-0.000008
1147	1.1403e+02	8.5934	14.958230	0.000086	0.859867	0.145665	-0.000009
1148	1.1413e+02	8.5825	14.943158	0.000152	1.515004	0.256649	-0.000015
1149	1.1423e+02	8.5728	14.928493	0.000147	1.474058	0.249712	-0.000015
1150	1.1433e+02	8.5600	14.918310	0.000102	1.023651	0.173411	-0.000010
1151	1.1442e+02	8.5518	14.902831	0.000156	1.555950	0.263585	-0.000016
1152	1.1452e+02	8.5429	14.892647	0.000102	1.023651	0.173411	-0.000010
1153	1.1462e+02	8.5345	14.878798	0.000139	1.392166	0.235839	-0.000014
1154	1.1472e+02	8.5220	14.866170	0.000127	1.269328	0.215030	-0.000013
1155	1.1482e+02	8.5107	14.855172	0.000111	1.105543	0.187284	-0.000011
1156	1.1492e+02	8.5006	14.841322	0.000139	1.392166	0.235839	-0.000014
1157	1.1502e+02	8.4906	14.830324	0.000111	1.105543	0.187284	-0.000011
1158	1.1512e+02	8.4827	14.814845	0.000156	1.555950	0.263585	-0.000016
1159	1.1522e+02	8.4718	14.803439	0.000115	1.146489	0.194221	-0.000011
1160	1.1532e+02	8.4644	14.793663	0.000098	0.982705	0.166475	-0.000010
1161	1.1542e+02	8.4511	14.779813	0.000139	1.392166	0.235839	-0.000014
1162	1.1552e+02	8.4440	14.767186	0.000127	1.269328	0.215030	-0.000013
1163	1.1562e+02	8.4338	14.757002	0.000102	1.023651	0.173411	-0.000010
1164	1.1572e+02	8.4234	14.743967	0.000131	1.310274	0.221966	-0.000013
1165	1.1582e+02	8.4124	14.728896	0.000152	1.515004	0.256649	-0.000015
1166	1.1592e+02	8.4013	14.716675	0.000123	1.228381	0.208093	-0.000012
1167	1.1602e+02	8.3936	14.705270	0.000115	1.146489	0.194221	-0.000011
1168	1.1612e+02	8.3871	14.690605	0.000147	1.474058	0.249712	-0.000015
1169	1.1622e+02	8.3731	14.679200	0.000115	1.146489	0.194221	-0.000011
1170	1.1632e+02	8.3636	14.668609	0.000106	1.064597	0.180348	-0.000011
1171	1.1642e+02	8.3533	14.658425	0.000102	1.023651	0.173411	-0.000010
1172	1.1651e+02	8.3415	14.644168	0.000143	1.433112	0.242776	-0.000014
1173	1.1661e+02	8.3324	14.633577	0.000106	1.064597	0.180348	-0.000011
1174	1.1671e+02	8.3244	14.616469	0.000172	1.719734	0.291331	-0.000017
1175	1.1681e+02	8.3130	14.606693	0.000098	0.982705	0.166475	-0.000010
1176	1.1691e+02	8.3039	14.592843	0.000139	1.392166	0.235839	-0.000014
1177	1.1701e+02	8.2948	14.581030	0.000119	1.187435	0.201157	-0.000012
1178	1.1711e+02	8.2833	14.568810	0.000123	1.228381	0.208093	-0.000012
1179	1.1721e+02	8.2733	14.556997	0.000119	1.187435	0.201157	-0.000012
1180	1.1731e+02	8.2635	14.542333	0.000147	1.474058	0.249712	-0.000015
1181	1.1741e+02	8.2547	14.529705	0.000127	1.269328	0.215030	-0.000013
1182	1.1751e+02	8.2437	14.517892	0.000119	1.187435	0.201157	-0.000012
1183	1.1761e+02	8.2357	14.506079	0.000119	1.187435	0.201157	-0.000012
1184	1.1771e+02	8.2240	14.494266	0.000119	1.187435	0.201157	-0.000012
1185	1.1781e+02	8.2146	14.482453	0.000119	1.187435	0.201157	-0.000012
1186	1.1791e+02	8.2034	14.464123	0.000184	1.842572	0.312140	-0.000018
1187	1.1801e+02	8.1949	14.453125	0.000111	1.105543	0.187284	-0.000011
1188	1.1811e+02	8.1819	14.444978	0.000082	0.818921	0.138729	-0.000008
1189	1.1821e+02	8.1719	14.427870	0.000172	1.719734	0.291331	-0.000017
1190	1.1831e+02	8.1666	14.417686	0.000102	1.023651	0.173411	-0.000010
1191	1.1841e+02	8.1538	14.405058	0.000127	1.269328	0.215030	-0.000013
1192	1.1850e+02	8.1432	14.393245	0.000119	1.187435	0.201157	-0.000012
1193	1.1860e+02	8.1369	14.381025	0.000123	1.228381	0.208093	-0.000012
1194	1.1870e+02	8.1247	14.368805	0.000123	1.228381	0.208093	-0.000012
1195	1.1880e+02	8.1158	14.355363	0.000135	1.351220	0.228903	-0.000014
1196	1.1890e+02	8.1030	14.336217	0.000192	1.924464	0.326013	-0.000019
1197	1.1900e+02	8.0928	14.322368	0.000139	1.392166	0.235839	-0.000014
1198	1.1910e+02	8.0846	14.305259	0.000172	1.719734	0.291331	-0.000017
1199	1.1920e+02	8.0756	14.293039	0.000123	1.228381	0.208093	-0.000012
1200	1.1930e+02	8.0634	14.272265	0.000209	2.088248	0.353759	-0.000021
1201	1.1940e+02	8.0551	14.259637	0.000127	1.269328	0.215030	-0.000013
1202	1.1950e+02	8.0426	14.241714	0.000180	1.801626	0.305204	-0.000018
1203	1.1960e+02	8.0344	14.229901	0.000119	1.187435	0.201157	-0.000012
1204	1.1970e+02	8.0247	14.217273	0.000127	1.269328	0.215030	-0.000013
1205	1.1980e+02	8.0145	14.198536	0.000188	1.883518	0.319077	-0.000019
1206	1.1990e+02	8.0050	14.182242	0.000164	1.637842	0.277458	-0.000016
1207	1.2000e+02	7.9947	14.167170	0.000152	1.515004	0.256649	-0.000015
1208	1.2010e+02	7.9850	14.150062	0.000172	1.719734	0.291331	-0.000017
1209	1.2020e+02	7.9752	14.133768	0.000164	1.637842	0.277458	-0.000016
1210	1.2030e+02	7.9647	14.119104	0.000147	1.474058	0.249712	-0.000015
1211	1.2039e+02	7.9556	14.101995	0.000172	1.719734	0.291331	-0.000017
1212	1.2049e+02	7.9445	14.088146	0.000139	1.392166	0.235839	-0.000014
1213	1.2059e+02	7.9363	14.069001	0.000192	1.924464	0.326013	-0.000019
1214	1.2069e+02	7.9229	14.055966	0.000131	1.310274	0.221966	-0.000013
1215	1.2079e+02	7.9149	14.036006	0.000201	2.006356	0.339886	-0.000020
1216	1.2089e+02	7.9053	14.025008	0.000111	1.105543	0.187284	-0.000011
1217	1.2099e+02	7.8959	14.009121	0.000160	1.596896	0.270521	-0.000016
1218	1.2109e+02	7.8857	13.997308	0.000119	1.187435	0.201157	-0.000012
1219	1.2119e+02	7.8745	13.981015	0.000164	1.637842	0.277458	-0.000016
1220	1.2129e+02	7.8662	13.966350	0.000147	1.474058	0.249712	-0.000015
1221	1.2139e+02	7.8556	13.951279	0.000152	1.515004	0.256649	-0.000015
1222	1.2149e+02	7.8445	13.935800	0.000156	1.555950	0.263585	-0.000016
1223	1.2159e+02	7.8365	13.925616	0.000102	1.023651	0.173411	-0.000010
1224	1.2169e+02	7.8247	13.914618	0.000111	1.105543	0.187284	-0.000011
1225	1.2179e+02	7.8178	13.900361	0.000143	1.433112	0.242776	-0.000014
1226	1.2189e+02	7.8052	13.885697	0.000147	1.474058	0.249712	-0.000015
1227	1.2199e+02	7.7934	13.875106	0.000106	1.064597	0.180348	-0.000011
1228	1.2209e+02	7.7886	13.863293	0.000119	1.187435	0.201157	-0.000012
1229	1.2219e+02	7.7763	13.849850	0.000135	1.351220	0.228903	-0.000014
1230	1.2229e+02	7.7658	13.836408	0.000135	1.351220	0.228903	-0.000014
1231	1.2239e+02	7.7540	13.822558	0.000139	1.392166	0.235839	-0.000014
1232	1.2248e+02	7.7490	13.806672	0.000160	1.596896	0.270521	-0.000016
1233	1.2258e+02	7.7377	13.796081	0.000106	1.064597	0.180348	-0.000011
1234	1.2268e+02	7.7289	13.785083	0.000111	1.105543	0.187284	-0.000011
1235	1.2278e+02	7.7172	13.771233	0.000139	1.392166	0.235839	-0.000014
1236	1.2288e+02	7.7075	13.756162	0.000152	1.515004	0.256649	-0.000015
1237	1.2298e+02	7.6983	13.747607	0.000086	0.859867	0.145665	-0.000009
1238	1.2308e+02	7.6835	13.735795	0.000119	1.187435	0.201157	-0.000012
1239	1.2318e+02	7.6767	13.715427	0.000205	2.047302	0.346822	-0.000020
1240	1.2328e+02	7.6679	13.704429	0.000111	1.105543	0.187284	-0.000011
1241	1.2338e+02	7.6569	13.689765	0.000147	1.474058	0.249712	-0.000015
1242	1.2348e+02	7.6466	13.673471	0.000164	1.637842	0.277458	-0.000016
1243	1.2358e+02	7.6389	13.660843	0.000127	1.269328	0.215030	-0.000013
1244	1.2368e+02	7.6256	13.645364	0.000156	1.555950	0.263585	-0.000016
1245	1.2378e+02	7.6171	13.631107	0.000143	1.433112	0.242776	-0.000014
1246	1.2388e+02	7.6090	13.617665	0.000135	1.351220	0.228903	-0.000014
1247	1.2398e+02	7.5967	13.598927	0.000188	1.883518	0.319077	-0.000019
1248	1.2408e+02	7.5859	13.586707	0.000123	1.228381	0.208093	-0.000012
1249	1.2418e+02	7.5764	13.571228	0.000156	1.555950	0.263585	-0.000016
1250	1.2428e+02	7.5668	13.553712	0.000176	1.760680	0.298267	-0.000018
1251	1.2438e+02	7.5579	13.537419	0.000164	1.637842	0.277458	-0.000016
1252	1.2447e+02	7.5472	13.523569	0.000139	1.392166	0.235839	-0.000014
1253	1.2457e+02	7.5380	13.508090	0.000156	1.555950	0.263585	-0.000016
1254	1.2467e+02	7.5250	13.492611	0.000156	1.555950	0.263585	-0.000016
1255	1.2477e+02	7.5183	13.476317	0.000164	1.637842	0.277458	-0.000016
1256	1.2487e+02	7.5066	13.458802	0.000176	1.760680	0.298267	-0.000018
1257	1.2497e+02	7.4970	13.445359	0.000135	1.351220	0.228903	-0.000014
1258	1.2507e+02	7.4883	13.430288	0.000152	1.515004	0.256649	-0.000015
1259	1.2517e+02	7.4786	13.414401	0.000160	1.596896	0.270521	-0.000016
1260	1.2527e+02	7.4694	13.396886	0.000176	1.760680	0.298267	-0.000018
1261	1.2537e+02	7.4561	13.383036	0.000139	1.392166	0.235839	-0.000014
1262	1.2547e+02	7.4480	13.366742	0.000164	1.637842	0.277458	-0.000016
1263	1.2557e+02	7.4380	13.351670	0.000152	1.515004	0.256649	-0.000015
1264	1.2567e+02	7.4277	13.334562	0.000172	1.719734	0.291331	-0.000017
1265	1.2577e+02	7.4178	13.318676	0.000160	1.596896	0.270521	-0.000016
1266	1.2587e+02	7.4083	13.301567	0.000172	1.719734	0.291331	-0.000017
1267	1.2597e+02	7.3978	13.282015	0.000197	1.965410	0.332950	-0.000020
1268	1.2607e+02	7.3884	13.268165	0.000139	1.392166	0.235839	-0.000014
1269	1.2617e+02	7.3775	13.250650	0.000176	1.760680	0.298267	-0.000018
1270	1.2627e+02	7.3682	13.233948	0.000168	1.678788	0.284394	-0.000017
1271	1.2636e+02	7.3576	13.220506	0.000135	1.351220	0.228903	-0.000014
1272	1.2646e+02	7.3487	13.199732	0.000209	2.088248	0.353759	-0.000021
1273	1.2656e+02	7.3394	13.189141	0.000106	1.064597	0.180348	-0.000011
1274	1.2666e+02	7.3284	13.169181	0.000201	2.006356	0.339886	-0.000020
1275	1.2676e+02	7.3179	13.152480	0.000168	1.678788	0.284394	-0.000017
1276	1.2686e+02	7.3116	13.130076	0.000225	2.252033	0.381505	-0.000023
1277	1.2696e+02	7.3003	13.120707	0.000094	0.941759	0.159538	-0.000009
1278	1.2706e+02	7.2907	13.097489	0.000233	2.333925	0.395378	-0.000023
1279	1.2716e+02	7.2771	13.081195	0.000164	1.637842	0.277458	-0.000016
1280	1.2726e+02	7.2717	13.062865	0.000184	1.842572	0.312140	-0.000018
1281	1.2736e+02	7.2575	13.049015	0.000139	1.392166	0.235839	-0.000014
1282	1.2746e+02	7.2492	13.036795	0.000123	1.228381	0.208093	-0.000012
1283	1.2756e+02	7.2405	13.018057	0.000188	1.883518	0.319077	-0.000019
1284	1.2766e+02	7.2293	13.000949	0.000172	1.719734	0.291331	-0.000017
1285	1.2776e+02	7.2213	12.987914	0.000131	1.310274	0.221966	-0.000013
1286	1.2786e+02	7.2096	12.967954	0.000201	2.006356	0.339886	-0.000020
1287	1.2796e+02	7.2002	12.951253	0.000168	1.678788	0.284394	-0.000017
1288	1.2806e+02	7.1928	12.931700	0.000197	1.965410	0.332950	-0.000020
1289	1.2816e+02	7.1801	12.919073	0.000127	1.269328	0.215030	-0.000013
1290	1.2826e+02	7.1734	12.904001	0.000152	1.515004	0.256649	-0.000015
1291	1.2835e+02	7.1605	12.886485	0.000176	1.760680	0.298267	-0.000018
1292	1.2845e+02	7.1490	12.875080	0.000115	1.146489	0.194221	-0.000011
1293	1.2855e+02	7.1401	12.854713	0.000205	2.047302	0.346822	-0.000020
1294	1.2865e+02	7.1289	12.834345	0.000205	2.047302	0.346822	-0.000020
1295	1.2875e+02	7.1194	12.822533	0.000119	1.187435	0.201157	-0.000012
1296	1.2885e+02	7.1089	12.805424	0.000172	1.719734	0.291331	-0.000017
1297	1.2895e+02	7.1018	12.789538	0.000160	1.596896	0.270521	-0.000016
1298	1.2905e+02	7.0887	12.768763	0.000209	2.088248	0.353759	-0.000021
1299	1.2915e+02	7.0795	12.749618	0.000192	1.924464	0.326013	-0.000019
1300	1.2925e+02	7.0699	12.734139	0.000156	1.555950	0.263585	-0.000016
1301	1.2935e+02	7.0614	12.715401	0.000188	1.883518	0.319077	-0.000019
1302	1.2945e+02	7.0527	12.699515	0.000160	1.596896	0.270521	-0.000016
1303	1.2955e+02	7.0400	12.677926	0.000217	2.170141	0.367632	-0.000022
1304	1.2965e+02	7.0290	12.657559	0.000205	2.047302	0.346822	-0.000020
1305	1.2975e+02	7.0197	12.638821	0.000188	1.883518	0.319077	-0.000019
1306	1.2985e+02	7.0122	12.619269	0.000197	1.965410	0.332950	-0.000020
1307	1.2995e+02	7.0040	12.593199	0.000262	2.620547	0.443933	-0.000026
1308	1.3005e+02	6.9894	12.574461	0.000188	1.883518	0.319077	-0.000019
1309	1.3015e+02	6.9807	12.554501	0.000201	2.006356	0.339886	-0.000020
1310	1.3025e+02	6.9726	12.530468	0.000242	2.415817	0.409250	-0.000024
1311	1.3034e+02	6.9585	12.510508	0.000201	2.006356	0.339886	-0.000020
1312	1.3044e+02	6.9524	12.490141	0.000205	2.047302	0.346822	-0.000020
1313	1.3054e+02	6.9393	12.470181	0.000201	2.006356	0.339886	-0.000020
1314	1.3064e+02	6.9303	12.446963	0.000233	2.333925	0.395378	-0.000023
1315	1.3074e+02	6.9206	12.426188	0.000209	2.088248	0.353759	-0.000021
1316	1.3084e+02	6.9103	12.404599	0.000217	2.170141	0.367632	-0.000022
1317	1.3094e+02	6.9001	12.381381	0.000233	2.333925	0.395378	-0.000023
1318	1.3104e+02	6.8901	12.358569	0.000229	2.292979	0.388441	-0.000023
1319	1.3114e+02	6.8836	12.337388	0.000213	2.129195	0.360695	-0.000021
1320	1.3124e+02	6.8707	12.313762	0.000237	2.374871	0.402314	-0.000024
1321	1.3134e+02	6.8584	12.292173	0.000217	2.170141	0.367632	-0.000022
1322	1.3144e+02	6.8508	12.270991	0.000213	2.129195	0.360695	-0.000021
1323	1.3154e+02	6.8392	12.248180	0.000229	2.292979	0.388441	-0.000023
1324	1.3164e+02	6.8311	12.230664	0.000176	1.760680	0.298267	-0.000018
1325	1.3174e+02	6.8223	12.207853	0.000229	2.292979	0.388441	-0.000023
1326	1.3184e+02	6.8110	12.188300	0.000197	1.965410	0.332950	-0.000020
1327	1.3194e+02	6.8024	12.165896	0.000225	2.252033	0.381505	-0.000023
1328	1.3204e+02	6.7941	12.145122	0.000209	2.088248	0.353759	-0.000021
1329	1.3214e+02	6.7859	12.123125	0.000221	2.211087	0.374568	-0.000022
1330	1.3224e+02	6.7725	12.105202	0.000180	1.801626	0.305204	-0.000018
1331	1.3234e+02	6.7608	12.083206	0.000221	2.211087	0.374568	-0.000022
1332	1.3243e+02	6.7545	12.061209	0.000221	2.211087	0.374568	-0.000022
1333	1.3253e+02	6.7432	12.038805	0.000225	2.252033	0.381505	-0.000023
1334	1.3263e+02	6.7315	12.020882	0.000180	1.801626	0.305204	-0.000018
1335	1.3273e+02	6.7216	12.001737	0.000192	1.924464	0.326013	-0.000019
1336	1.3283e+02	6.7113	11.980963	0.000209	2.088248	0.353759	-0.000021
1337	1.3293e+02	6.7018	11.959374	0.000217	2.170141	0.367632	-0.000022
1338	1.3303e+02	6.6926	11.941451	0.000180	1.801626	0.305204	-0.000018
1339	1.3313e+02	6.6814	11.919454	0.000221	2.211087	0.374568	-0.000022
1340	1.3323e+02	6.6732	11.901124	0.000184	1.842572	0.312140	-0.000018
1341	1.3333e+02	6.6602	11.875054	0.000262	2.620547	0.443933	-0.000026
1342	1.3343e+02	6.6502	11.854687	0.000205	2.047302	0.346822	-0.000020
1343	1.3353e+02	6.6423	11.837986	0.000168	1.678788	0.284394	-0.000017
1344	1.3363e+02	6.6357	11.817618	0.000205	2.047302	0.346822	-0.000020
1345	1.3373e+02	6.6232	11.795622	0.000221	2.211087	0.374568	-0.000022
1346	1.3383e+02	6.6119	11.775662	0.000201	2.006356	0.339886	-0.000020
1347	1.3393e+02	6.6042	11.756517	0.000192	1.924464	0.326013	-0.000019
1348	1.3403e+02	6.5932	11.734928	0.000217	2.170141	0.367632	-0.000022
1349	1.3413e+02	6.5829	11.711709	0.000233	2.333925	0.395378	-0.000023
1350	1.3423e+02	6.5762	11.693786	0.000180	1.801626	0.305204	-0.000018
1351	1.3432e+02	6.5626	11.673827	0.000201	2.006356	0.339886	-0.000020
1352	1.3442e+02	6.5527	11.650608	0.000233	2.333925	0.395378	-0.000023
1353	1.3452e+02	6.5417	11.631056	0.000197	1.965410	0.332950	-0.000020
1354	1.3462e+02	6.5340	11.613540	0.000176	1.760680	0.298267	-0.000018
1355	1.3472e+02	6.5215	11.592358	0.000213	2.129195	0.360695	-0.000021
1356	1.3482e+02	6.5128	11.570362	0.000221	2.211087	0.374568	-0.000022
1357	1.3492e+02	6.5028	11.546736	0.000237	2.374871	0.402314	-0.000024
1358	1.3502e+02	6.4925	11.528813	0.000180	1.801626	0.305204	-0.000018
1359	1.3512e+02	6.4840	11.507631	0.000213	2.129195	0.360695	-0.000021
1360	1.3522e+02	6.4722	11.487671	0.000201	2.006356	0.339886	-0.000020
1361	1.3532e+02	6.4651	11.469341	0.000184	1.842572	0.312140	-0.000018
1362	1.3542e+02	6.4545	11.447751	0.000217	2.170141	0.367632	-0.000022
1363	1.3552e+02	6.4422	11.426977	0.000209	2.088248	0.353759	-0.000021
1364	1.3562e+02	6.4307	11.404166	0.000229	2.292979	0.388441	-0.000023
1365	1.3572e+02	6.4230	11.385428	0.000188	1.883518	0.319077	-0.000019
1366	1.3582e+02	6.4116	11.361802	0.000237	2.374871	0.402314	-0.000024
1367	1.3592e+02	6.4034	11.338584	0.000233	2.333925	0.395378	-0.000023
1368	1.3602e+02	6.3908	11.314143	0.000246	2.456763	0.416187	-0.000025
1369	1.3612e+02	6.3837	11.292147	0.000221	2.211087	0.374568	-0.000022
1370	1.3622e+02	6.3732	11.269743	0.000225	2.252033	0.381505	-0.000023
1371	1.3631e+02	6.3625	11.247746	0.000221	2.211087	0.374568	-0.000022
1372	1.3641e+02	6.3532	11.225342	0.000225	2.252033	0.381505	-0.000023
1373	1.3651e+02	6.3447	11.209049	0.000164	1.637842	0.277458	-0.000016
1374	1.3661e+02	6.3338	11.180127	0.000291	2.907169	0.492488	-0.000029
1375	1.3671e+02	6.3271	11.158538	0.000217	2.170141	0.367632	-0.000022
1376	1.3681e+02	6.3126	11.137764	0.000209	2.088248	0.353759	-0.000021
1377	1.3691e+02	6.3017	11.111694	0.000262	2.620547	0.443933	-0.000026
1378	1.3701e+02	6.2942	11.089290	0.000225	2.252033	0.381505	-0.000023
1379	1.3711e+02	6.2853	11.070145	0.000192	1.924464	0.326013	-0.000019
1380	1.3721e+02	6.2767	11.048148	0.000221	2.211087	0.374568	-0.000022
1381	1.3731e+02	6.2656	11.029003	0.000192	1.924464	0.326013	-0.000019
1382	1.3741e+02	6.2537	11.004155	0.000250	2.497709	0.423123	-0.000025
1383	1.3751e+02	6.2429	10.982974	0.000213	2.129195	0.360695	-0.000021
1384	1.3761e+02	6.2330	10.960977	0.000221	2.211087	0.374568	-0.000022
1385	1.3771e+02	6.2245	10.943054	0.000180	1.801626	0.305204	-0.000018
1386	1.3781e+02	6.2139	10.923909	0.000192	1.924464	0.326013	-0.000019
1387	1.3791e+02	6.2048	10.898654	0.000254	2.538655	0.430060	-0.000025
1388	1.3801e+02	6.1956	10.876657	0.000221	2.211087	0.374568	-0.000022
1389	1.3811e+02	6.1852	10.860363	0.000164	1.637842	0.277458	-0.000016
1390	1.3821e+02	6.1749	10.842848	0.000176	1.760680	0.298267	-0.000018
1391	1.3831e+02	6.1642	10.823295	0.000197	1.965410	0.332950	-0.000020
1392	1.3840e+02	6.1532	10.804965	0.000184	1.842572	0.312140	-0.000018
1393	1.3850e+02	6.1475	10.785005	0.000201	2.006356	0.339886	-0.000020
1394	1.3860e+02	6.1347	10.766675	0.000184	1.842572	0.312140	-0.000018
1395	1.3870e+02	6.1238	10.747530	0.000192	1.924464	0.326013	-0.000019
1396	1.3880e+02	6.1135	10.729199	0.000184	1.842572	0.312140	-0.000018
1397	1.3890e+02	6.1044	10.706795	0.000225	2.252033	0.381505	-0.000023
1398	1.3900e+02	6.0957	10.690502	0.000164	1.637842	0.277458	-0.000016
1399	1.3910e+02	6.0855	10.670134	0.000205	2.047302	0.346822	-0.000020
1400	1.3920e+02	6.0754	10.654248	0.000160	1.596896	0.270521	-0.000016
1401	1.3930e+02	6.0671	10.634288	0.000201	2.006356	0.339886	-0.000020
1402	1.3940e+02	6.0574	10.617995	0.000164	1.637842	0.277458	-0.000016
1403	1.3950e+02	6.0458	10.598850	0.000192	1.924464	0.326013	-0.000019
1404	1.3960e+02	6.0344	10.579297	0.000197	1.965410	0.332950	-0.000020
1405	1.3970e+02	6.0259	10.561374	0.000180	1.801626	0.305204	-0.000018
1406	1.3980e+02	6.0156	10.540192	0.000213	2.129195	0.360695	-0.000021
1407	1.3990e+02	6.0030	10.524713	0.000156	1.555950	0.263585	-0.000016
1408	1.4000e+02	5.9963	10.505568	0.000192	1.924464	0.326013	-0.000019
1409	1.4010e+02	5.9875	10.484794	0.000209	2.088248	0.353759	-0.000021
1410	1.4020e+02	5.9736	10.461575	0.000233	2.333925	0.395378	-0.000023
1411	1.4029e+02	5.9655	10.443652	0.000180	1.801626	0.305204	-0.000018
1412	1.4039e+02	5.9541	10.425729	0.000180	1.801626	0.305204	-0.000018
1413	1.4049e+02	5.9457	10.399252	0.000266	2.661493	0.450869	-0.000027
1414	1.4059e+02	5.9347	10.378477	0.000209	2.088248	0.353759	-0.000021
1415	1.4069e+02	5.9274	10.358925	0.000197	1.965410	0.332950	-0.000020
1416	1.4079e+02	5.9158	10.342631	0.000164	1.637842	0.277458	-0.000016
1417	1.4089e+02	5.9051	10.318598	0.000242	2.415817	0.409250	-0.000024
1418	1.4099e+02	5.8973	10.296601	0.000221	2.211087	0.374568	-0.000022
1419	1.4109e+02	5.8854	10.281122	0.000156	1.555950	0.263585	-0.000016
1420	1.4119e+02	5.8778	10.259533	0.000217	2.170141	0.367632	-0.000022
1421	1.4129e+02	5.8672	10.239166	0.000205	2.047302	0.346822	-0.000020
1422	1.4139e+02	5.8559	10.217984	0.000213	2.129195	0.360695	-0.000021
1423	1.4149e+02	5.8476	10.192322	0.000258	2.579601	0.436996	-0.000026
1424	1.4159e+02	5.8370	10.176843	0.000156	1.555950	0.263585	-0.000016
1425	1.4169e+02	5.8253	10.151587	0.000254	2.538655	0.430060	-0.000025
1426	1.4179e+02	5.8178	10.129184	0.000225	2.252033	0.381505	-0.000023
1427	1.4189e+02	5.8062	10.109224	0.000201	2.006356	0.339886	-0.000020
1428	1.4199e+02	5.7964	10.086413	0.000229	2.292979	0.388441	-0.000023
1429	1.4209e+02	5.7871	10.064009	0.000225	2.252033	0.381505	-0.000023
1430	1.4219e+02	5.7767	10.047715	0.000164	1.637842	0.277458	-0.000016
1431	1.4228e+02	5.7684	10.024089	0.000237	2.374871	0.402314	-0.000024
1432	1.4238e+02	5.7542	10.002500	0.000217	2.170141	0.367632	-0.000022
1433	1.4248e+02	5.7473	9.980096	0.000225	2.252033	0.381505	-0.000023
1434	1.4258e+02	5.7369	9.960136	0.000201	2.006356	0.339886	-0.000020
1435	1.4268e+02	5.7281	9.937733	0.000225	2.252033	0.381505	-0.000023
1436	1.4278e+02	5.7166	9.916143	0.000217	2.170141	0.367632	-0.000022
1437	1.4288e+02	5.7096	9.893740	0.000225	2.252033	0.381505	-0.000023
1438	1.4298e+02	5.6963	9.873780	0.000201	2.006356	0.339886	-0.000020
1439	1.4308e+02	5.6856	9.853005	0.000209	2.088248	0.353759	-0.000021
1440	1.4318e+02	5.6763	9.823677	0.000295	2.948116	0.499424	-0.000029
1441	1.4328e+02	5.6667	9.804532	0.000192	1.924464	0.326013	-0.000019
1442	1.4338e+02	5.6559	9.782535	0.000221	2.211087	0.374568	-0.000022
1443	1.4348e+02	5.6474	9.762575	0.000201	2.006356	0.339886	-0.000020
1444	1.4358e+02	5.6365	9.740579	0.000221	2.211087	0.374568	-0.000022
1445	1.4368e+02	5.6258	9.719397	0.000213	2.129195	0.360695	-0.000021
1446	1.4378e+02	5.6196	9.697808	0.000217	2.170141	0.367632	-0.000022
1447	1.4388e+02	5.6087	9.676626	0.000213	2.129195	0.360695	-0.000021
1448	1.4398e+02	5.5970	9.657074	0.000197	1.965410	0.332950	-0.000020
1449	1.4408e+02	5.5889	9.635484	0.000217	2.170141	0.367632	-0.000022
1450	1.4418e+02	5.5770	9.617969	0.000176	1.760680	0.298267	-0.000018
1451	1.4428e+02	5.5676	9.595565	0.000225	2.252033	0.381505	-0.000023
1452	1.4437e+02	5.5585	9.573161	0.000225	2.252033	0.381505	-0.000023
1453	1.4447e+02	5.5473	9.551572	0.000217	2.170141	0.367632	-0.000022
1454	1.4457e+02	5.5392	9.530797	0.000209	2.088248	0.353759	-0.000021
1455	1.4467e+02	5.5279	9.509208	0.000217	2.170141	0.367632	-0.000022
1456	1.4477e+02	5.5186	9.485582	0.000237	2.374871	0.402314	-0.000024
1457	1.4487e+02	5.5070	9.467252	0.000184	1.842572	0.312140	-0.000018
1458	1.4497e+02	5.4997	9.448514	0.000188	1.883518	0.319077	-0.000019
1459	1.4507e+02	5.4888	9.423259	0.000254	2.538655	0.430060	-0.000025
1460	1.4517e+02	5.4821	9.407780	0.000156	1.555950	0.263585	-0.000016
1461	1.4527e+02	5.4671	9.384154	0.000237	2.374871	0.402314	-0.000024
1462	1.4537e+02	5.4583	9.363787	0.000205	2.047302	0.346822	-0.000020
1463	1.4547e+02	5.4479	9.343827	0.000201	2.006356	0.339886	-0.000020
1464	1.4557e+02	5.4391	9.323867	0.000201	2.006356	0.339886	-0.000020
1465	1.4567e+02	5.4292	9.296983	0.000270	2.702439	0.457806	-0.000027
1466	1.4577e+02	5.4165	9.278652	0.000184	1.842572	0.312140	-0.000018
1467	1.4587e+02	5.4090	9.255841	0.000229	2.292979	0.388441	-0.000023
1468	1.4597e+02	5.4015	9.230179	0.000258	2.579601	0.436996	-0.000026
1469	1.4607e+02	5.3875	9.209811	0.000205	2.047302	0.346822	-0.000020
1470	1.4617e+02	5.3782	9.190259	0.000197	1.965410	0.332950	-0.000020
1471	1.4626e+02	5.3730	9.161745	0.000287	2.866223	0.485551	-0.000029
1472	1.4636e+02	5.3589	9.141378	0.000205	2.047302	0.346822	-0.000020
1473	1.4646e+02	5.3503	9.114086	0.000274	2.743385	0.464742	-0.000027
1474	1.4656e+02	5.3385	9.093311	0.000209	2.088248	0.353759	-0.000021
1475	1.4666e+02	5.3300	9.061131	0.000323	3.234738	0.547979	-0.000032
1476	1.4676e+02	5.3201	9.035469	0.000258	2.579601	0.436996	-0.000026
1477	1.4686e+02	5.3068	9.008584	0.000270	2.702439	0.457806	-0.000027
1478	1.4696e+02	5.3005	8.983736	0.000250	2.497709	0.423123	-0.000025
1479	1.4706e+02	5.2903	8.960925	0.000229	2.292979	0.388441	-0.000023
1480	1.4716e+02	5.2789	8.934855	0.000262	2.620547	0.443933	-0.000026
1481	1.4726e+02	5.2702	8.907156	0.000278	2.784331	0.471678	-0.000028
1482	1.4736e+02	5.2583	8.884752	0.000225	2.252033	0.381505	-0.000023
1483	1.4746e+02	5.2491	8.860312	0.000246	2.456763	0.416187	-0.000025
1484	1.4756e+02	5.2422	8.831798	0.000287	2.866223	0.485551	-0.000029
1485	1.4766e+02	5.2284	8.807357	0.000246	2.456763	0.416187	-0.000025
1486	1.4776e+02	5.2197	8.782509	0.000250	2.497709	0.423123	-0.000025
1487	1.4786e+02	5.2106	8.753995	0.000287	2.866223	0.485551	-0.000029
1488	1.4796e+02	5.1989	8.730369	0.000237	2.374871	0.402314	-0.000024
1489	1.4806e+02	5.1910	8.702670	0.000278	2.784331	0.471678	-0.000028
1490	1.4816e+02	5.1815	8.673749	0.000291	2.907169	0.492488	-0.000029
1491	1.4825e+02	5.1698	8.647271	0.000266	2.661493	0.450869	-0.000027
1492	1.4835e+02	5.1601	8.627719	0.000197	1.965410	0.332950	-0.000020
1493	1.4845e+02	5.1495	8.601649	0.000262	2.620547	0.443933	-0.000026
1494	1.4855e+02	5.1397	8.576801	0.000250	2.497709	0.423123	-0.000025
1495	1.4865e+02	5.1288	8.553990	0.000229	2.292979	0.388441	-0.000023
1496	1.4875e+02	5.1214	8.528327	0.000258	2.579601	0.436996	-0.000026
1497	1.4885e+02	5.1121	8.503479	0.000250	2.497709	0.423123	-0.000025
1498	1.4895e+02	5.0990	8.478224	0.000254	2.538655	0.430060	-0.000025
1499	1.4905e+02	5.0881	8.455006	0.000233	2.333925	0.395378	-0.000023
1500	1.4915e+02	5.0808	8.433417	0.000217	2.170141	0.367632	-0.000022
1501	1.4925e+02	5.0709	8.406125	0.000274	2.743385	0.464742	-0.000027
1502	1.4935e+02	5.0587	8.381684	0.000246	2.456763	0.416187	-0.000025
1503	1.4945e+02	5.0504	8.358465	0.000233	2.333925	0.395378	-0.000023
1504	1.4955e+02	5.0405	8.333618	0.000250	2.497709	0.423123	-0.000025
1505	1.4965e+02	5.0295	8.309992	0.000237	2.374871	0.402314	-0.000024
1506	1.4975e+02	5.0211	8.287588	0.000225	2.252033	0.381505	-0.000023
1507	1.4985e+02	5.0152	8.259074	0.000287	2.866223	0.485551	-0.000029
1508	1.4995e+02	5.0024	8.233411	0.000258	2.579601	0.436996	-0.000026
1509	1.5005e+02	4.9934	8.212230	0.000213	2.129195	0.360695	-0.000021
1510	1.5015e+02	4.9820	8.188604	0.000237	2.374871	0.402314	-0.000024
1511	1.5025e+02	4.9732	8.167014	0.000217	2.170141	0.367632	-0.000022
1512	1.5034e+02	4.9602	8.142981	0.000242	2.415817	0.409250	-0.000024
1513	1.5044e+02	4.9514	8.119355	0.000237	2.374871	0.402314	-0.000024
1514	1.5054e+02	4.9363	8.088805	0.000307	3.070954	0.520234	-0.000031
1515	1.5064e+02	4.9306	8.065994	0.000229	2.292979	0.388441	-0.000023
1516	1.5074e+02	4.9206	8.039924	0.000262	2.620547	0.443933	-0.000026
1517	1.5084e+02	4.9113	8.015890	0.000242	2.415817	0.409250	-0.000024
1518	1.5094e+02	4.9006	7.991043	0.000250	2.497709	0.423123	-0.000025
1519	1.5104e+02	4.8914	7.968639	0.000225	2.252033	0.381505	-0.000023
1520	1.5114e+02	4.8823	7.946235	0.000225	2.252033	0.381505	-0.000023
1521	1.5124e+02	4.8707	7.920572	0.000258	2.579601	0.436996	-0.000026
1522	1.5134e+02	4.8608	7.898983	0.000217	2.170141	0.367632	-0.000022
1523	1.5144e+02	4.8516	7.873321	0.000258	2.579601	0.436996	-0.000026
1524	1.5154e+02	4.8399	7.850102	0.000233	2.333925	0.395378	-0.000023
1525	1.5164e+02	4.8302	7.824847	0.000254	2.538655	0.430060	-0.000025
1526	1.5174e+02	4.8200	7.802036	0.000229	2.292979	0.388441	-0.000023
1527	1.5184e+02	4.8118	7.779632	0.000225	2.252033	0.381505	-0.000023
1528	1.5194e+02	4.8029	7.751932	0.000278	2.784331	0.471678	-0.000028
1529	1.5204e+02	4.7913	7.730751	0.000213	2.129195	0.360695	-0.000021
1530	1.5214e+02	4.7846	7.705903	0.000250	2.497709	0.423123	-0.000025
1531	1.5224e+02	4.7712	7.677796	0.000283	2.825277	0.478615	-0.000028
1532	1.5233e+02	4.7643	7.654170	0.000237	2.374871	0.402314	-0.000024
1533	1.5243e+02	4.7530	7.626064	0.000283	2.825277	0.478615	-0.000028
1534	1.5253e+02	4.7433	7.599994	0.000262	2.620547	0.443933	-0.000026
1535	1.5263e+02	4.7337	7.574738	0.000254	2.538655	0.430060	-0.000025
1536	1.5273e+02	4.7234	7.548668	0.000262	2.620547	0.443933	-0.000026
1537	1.5283e+02	4.7097	7.523006	0.000258	2.579601	0.436996	-0.000026
1538	1.5293e+02	4.7035	7.496529	0.000266	2.661493	0.450869	-0.000027
1539	1.5303e+02	4.6928	7.472088	0.000246	2.456763	0.416187	-0.000025
1540	1.5313e+02	4.6821	7.449684	0.000225	2.252033	0.381505	-0.000023
1541	1.5323e+02	4.6737	7.422392	0.000274	2.743385	0.464742	-0.000027
1542	1.5333e+02	4.6633	7.393878	0.000287	2.866223	0.485551	-0.000029
1543	1.5343e+02	4.6550	7.373919	0.000201	2.006356	0.339886	-0.000020
1544	1.5353e+02	4.6404	7.344997	0.000291	2.907169	0.492488	-0.000029
1545	1.5363e+02	4.6302	7.315261	0.000299	2.989062	0.506361	-0.000030
1546	1.5373e+02	4.6222	7.294487	0.000209	2.088248	0.353759	-0.000021
1547	1.5383e+02	4.6128	7.268009	0.000266	2.661493	0.450869	-0.000027
1548	1.5393e+02	4.6032	7.242347	0.000258	2.579601	0.436996	-0.000026
1549	1.5403e+02	4.5911	7.215870	0.000266	2.661493	0.450869	-0.000027
1550	1.5413e+02	4.5840	7.191022	0.000250	2.497709	0.423123	-0.000025
1551	1.5422e+02	4.5729	7.167803	0.000233	2.333925	0.395378	-0.000023
1552	1.5432e+02	4.5623	7.142548	0.000254	2.538655	0.430060	-0.000025
1553	1.5442e+02	4.5528	7.118922	0.000237	2.374871	0.402314	-0.000024
1554	1.5452e+02	4.5451	7.096111	0.000229	2.292979	0.388441	-0.000023
1555	1.5462e+02	4.5332	7.074929	0.000213	2.129195	0.360695	-0.000021
1556	1.5472e+02	4.5213	7.050489	0.000246	2.456763	0.416187	-0.000025
1557	1.5482e+02	4.5135	7.030121	0.000205	2.047302	0.346822	-0.000020
1558	1.5492e+02	4.5025	7.005681	0.000246	2.456763	0.416187	-0.000025
1559	1.5502e+02	4.4921	6.988980	0.000168	1.678788	0.284394	-0.000017
1560	1.5512e+02	4.4839	6.962503	0.000266	2.661493	0.450869	-0.000027
1561	1.5522e+02	4.4753	6.941321	0.000213	2.129195	0.360695	-0.000021
1562	1.5532e+02	4.4637	6.917695	0.000237	2.374871	0.402314	-0.000024
1563	1.5542e+02	4.4529	6.898142	0.000197	1.965410	0.332950	-0.000020
1564	1.5552e+02	4.4425	6.874924	0.000233	2.333925	0.395378	-0.000023
1565	1.5562e+02	4.4326	6.853335	0.000217	2.170141	0.367632	-0.000022
1566	1.5572e+02	4.4253	6.829709	0.000237	2.374871	0.402314	-0.000024
1567	1.5582e+02	4.4152	6.809342	0.000205	2.047302	0.346822	-0.000020
1568	1.5592e+02	4.4044	6.786938	0.000225	2.252033	0.381505	-0.000023
1569	1.5602e+02	4.3931	6.764941	0.000221	2.211087	0.374568	-0.000022
1570	1.5612e+02	4.3816	6.745796	0.000192	1.924464	0.326013	-0.000019
1571	1.5622e+02	4.3731	6.725429	0.000205	2.047302	0.346822	-0.000020
1572	1.5631e+02	4.3650	6.702618	0.000229	2.292979	0.388441	-0.000023
1573	1.5641e+02	4.3531	6.681844	0.000209	2.088248	0.353759	-0.000021
1574	1.5651e+02	4.3444	6.656181	0.000258	2.579601	0.436996	-0.000026
1575	1.5661e+02	4.3316	6.637036	0.000192	1.924464	0.326013	-0.000019
1576	1.5671e+02	4.3250	6.614632	0.000225	2.252033	0.381505	-0.000023
1577	1.5681e+02	4.3159	6.592228	0.000225	2.252033	0.381505	-0.000023
1578	1.5691e+02	4.3032	6.566566	0.000258	2.579601	0.436996	-0.000026
1579	1.5701e+02	4.2941	6.541718	0.000250	2.497709	0.423123	-0.000025
1580	1.5711e+02	4.2886	6.520129	0.000217	2.170141	0.367632	-0.000022
1581	1.5721e+02	4.2747	6.494873	0.000254	2.538655	0.430060	-0.000025
1582	1.5731e+02	4.2654	6.471247	0.000237	2.374871	0.402314	-0.000024
1583	1.5741e+02	4.2544	6.446400	0.000250	2.497709	0.423123	-0.000025
1584	1.5751e+02	4.2442	6.424403	0.000221	2.211087	0.374568	-0.000022
1585	1.5761e+02	4.2339	6.405258	0.000192	1.924464	0.326013	-0.000019
1586	1.5771e+02	4.2248	6.380817	0.000246	2.456763	0.416187	-0.000025
1587	1.5781e+02	4.2139	6.355155	0.000258	2.579601	0.436996	-0.000026
1588	1.5791e+02	4.2046	6.331529	0.000237	2.374871	0.402314	-0.000024
1589	1.5801e+02	4.1955	6.306274	0.000254	2.538655	0.430060	-0.000025
1590	1.5811e+02	4.1839	6.284685	0.000217	2.170141	0.367632	-0.000022
1591	1.5821e+02	4.1764	6.259429	0.000254	2.538655	0.430060	-0.000025
1592	1.5830e+02	4.1673	6.236211	0.000233	2.333925	0.395378	-0.000023
1593	1.5840e+02	4.1569	6.212585	0.000237	2.374871	0.402314	-0.000024
1594	1.5850e+02	4.1426	6.188144	0.000246	2.456763	0.416187	-0.000025
1595	1.5860e+02	4.1343	6.164926	0.000233	2.333925	0.395378	-0.000023
1596	1.5870e+02	4.1244	6.138856	0.000262	2.620547	0.443933	-0.000026
1597	1.5880e+02	4.1158	6.114823	0.000242	2.415817	0.409250	-0.000024
1598	1.5890e+02	4.1031	6.089160	0.000258	2.579601	0.436996	-0.000026
1599	1.5900e+02	4.0958	6.068793	0.000205	2.047302	0.346822	-0.000020
1600	1.5910e+02	4.0849	6.039057	0.000299	2.989062	0.506361	-0.000030
1601	1.5920e+02	4.0764	6.015431	0.000237	2.374871	0.402314	-0.000024
1602	1.5930e+02	4.0664	5.992620	0.000229	2.292979	0.388441	-0.000023
1603	1.5940e+02	4.0556	5.969809	0.000229	2.292979	0.388441	-0.000023
1604	1.5950e+02	4.0470	5.942109	0.000278	2.784331	0.471678	-0.000028
1605	1.5960e+02	4.0358	5.921335	0.000209	2.088248	0.353759	-0.000021
1606	1.5970e+02	4.0272	5.896080	0.000254	2.538655	0.430060	-0.000025
1607	1.5980e+02	4.0166	5.871232	0.000250	2.497709	0.423123	-0.000025
1608	1.5990e+02	4.0057	5.843533	0.000278	2.784331	0.471678	-0.000028
1609	1.6000e+02	3.9986	5.819499	0.000242	2.415817	0.409250	-0.000024
1610	1.6010e+02	3.9848	5.795873	0.000237	2.374871	0.402314	-0.000024
1611	1.6019e+02	3.9787	5.768582	0.000274	2.743385	0.464742	-0.000027
1612	1.6029e+02	3.9662	5.742512	0.000262	2.620547	0.443933	-0.000026
1613	1.6039e+02	3.9563	5.718071	0.000246	2.456763	0.416187	-0.000025
1614	1.6049e+02	3.9462	5.692408	0.000258	2.579601	0.436996	-0.000026
1615	1.6059e+02	3.9384	5.670819	0.000217	2.170141	0.367632	-0.000022
1616	1.6069e+02	3.9263	5.649230	0.000217	2.170141	0.367632	-0.000022
1617	1.6079e+02	3.9153	5.628456	0.000209	2.088248	0.353759	-0.000021
1618	1.6089e+02	3.9106	5.603608	0.000250	2.497709	0.423123	-0.000025
1619	1.6099e+02	3.8961	5.577131	0.000266	2.661493	0.450869	-0.000027
1620	1.6109e+02	3.8869	5.554319	0.000229	2.292979	0.388441	-0.000023
1621	1.6119e+02	3.8754	5.532730	0.000217	2.170141	0.367632	-0.000022
1622	1.6129e+02	3.8653	5.505846	0.000270	2.702439	0.457806	-0.000027
1623	1.6139e+02	3.8563	5.485886	0.000201	2.006356	0.339886	-0.000020
1624	1.6149e+02	3.8482	5.459816	0.000262	2.620547	0.443933	-0.000026
1625	1.6159e+02	3.8369	5.437005	0.000229	2.292979	0.388441	-0.000023
1626	1.6169e+02	3.8261	5.410935	0.000262	2.620547	0.443933	-0.000026
1627	1.6179e+02	3.8171	5.392197	0.000188	1.883518	0.319077	-0.000019
1628	1.6189e+02	3.8054	5.367349	0.000250	2.497709	0.423123	-0.000025
1629	1.6199e+02	3.7955	5.345760	0.000217	2.170141	0.367632	-0.000022
1630	1.6209e+02	3.7858	5.314395	0.000315	3.152846	0.534107	-0.000032
1631	1.6219e+02	3.7761	5.298101	0.000164	1.637842	0.277458	-0.000016
1632	1.6228e+02	3.7691	5.268772	0.000295	2.948116	0.499424	-0.000029
1633	1.6238e+02	3.7569	5.246776	0.000221	2.211087	0.374568	-0.000022
1634	1.6248e+02	3.7487	5.221113	0.000258	2.579601	0.436996	-0.000026
1635	1.6258e+02	3.7368	5.198302	0.000229	2.292979	0.388441	-0.000023
1636	1.6268e+02	3.7284	5.171417	0.000270	2.702439	0.457806	-0.000027
1637	1.6278e+02	3.7165	5.147791	0.000237	2.374871	0.402314	-0.000024
1638	1.6288e+02	3.7090	5.120092	0.000278	2.784331	0.471678	-0.000028
1639	1.6298e+02	3.6960	5.092393	0.000278	2.784331	0.471678	-0.000028
1640	1.6308e+02	3.6883	5.069174	0.000233	2.333925	0.395378	-0.000023
1641	1.6318e+02	3.6753	5.038624	0.000307	3.070954	0.520234	-0.000031
1642	1.6328e+02	3.6674	5.011739	0.000270	2.702439	0.457806	-0.000027
1643	1.6338e+02	3.6591	4.981596	0.000303	3.030008	0.513297	-0.000030
1644	1.6348e+02	3.6479	4.954304	0.000274	2.743385	0.464742	-0.000027
1645	1.6358e+02	3.6369	4.922531	0.000319	3.193792	0.541043	-0.000032
1646	1.6368e+02	3.6283	4.898905	0.000237	2.374871	0.402314	-0.000024
1647	1.6378e+02	3.6156	4.865910	0.000332	3.316630	0.561852	-0.000033
1648	1.6388e+02	3.6071	4.840655	0.000254	2.538655	0.430060	-0.000025
1649	1.6398e+02	3.5985	4.815400	0.000254	2.538655	0.430060	-0.000025
1650	1.6408e+02	3.5864	4.785257	0.000303	3.030008	0.513297	-0.000030
1651	1.6418e+02	3.5787	4.757557	0.000278	2.784331	0.471678	-0.000028
1652	1.6427e+02	3.5674	4.731080	0.000266	2.661493	0.450869	-0.000027
1653	1.6437e+02	3.5572	4.696049	0.000352	3.521360	0.596535	-0.000035
1654	1.6447e+02	3.5452	4.671201	0.000250	2.497709	0.423123	-0.000025
1655	1.6457e+02	3.5381	4.639021	0.000323	3.234738	0.547979	-0.000032
1656	1.6467e+02	3.5276	4.612136	0.000270	2.702439	0.457806	-0.000027
1657	1.6477e+02	3.5169	4.584844	0.000274	2.743385	0.464742	-0.000027
1658	1.6487e+02	3.5094	4.558367	0.000266	2.661493	0.450869	-0.000027
1659	1.6497e+02	3.4976	4.527816	0.000307	3.070954	0.520234	-0.000031
1660	1.6507e+02	3.4884	4.501746	0.000262	2.620547	0.443933	-0.000026
1661	1.6517e+02	3.4777	4.474454	0.000274	2.743385	0.464742	-0.000027
1662	1.6527e+02	3.4689	4.445126	0.000295	2.948116	0.499424	-0.000029
1663	1.6537e+02	3.4585	4.419056	0.000262	2.620547	0.443933	-0.000026
1664	1.6547e+02	3.4502	4.395430	0.000237	2.374871	0.402314	-0.000024
1665	1.6557e+02	3.4368	4.365694	0.000299	2.989062	0.506361	-0.000030
1666	1.6567e+02	3.4335	4.337180	0.000287	2.866223	0.485551	-0.000029
1667	1.6577e+02	3.4179	4.311517	0.000258	2.579601	0.436996	-0.000026
1668	1.6587e+02	3.4106	4.283003	0.000287	2.866223	0.485551	-0.000029
1669	1.6597e+02	3.3997	4.257748	0.000254	2.538655	0.430060	-0.000025
1670	1.6607e+02	3.3887	4.228012	0.000299	2.989062	0.506361	-0.000030
1671	1.6616e+02	3.3799	4.201942	0.000262	2.620547	0.443933	-0.000026
1672	1.6626e+02	3.3712	4.172206	0.000299	2.989062	0.506361	-0.000030
1673	1.6636e+02	3.3588	4.151024	0.000213	2.129195	0.360695	-0.000021
1674	1.6646e+02	3.3485	4.122918	0.000283	2.825277	0.478615	-0.000028
1675	1.6656e+02	3.3385	4.098884	0.000242	2.415817	0.409250	-0.000024
1676	1.6666e+02	3.3302	4.067112	0.000319	3.193792	0.541043	-0.000032
1677	1.6676e+02	3.3195	4.041449	0.000258	2.579601	0.436996	-0.000026
1678	1.6686e+02	3.3112	4.013342	0.000283	2.825277	0.478615	-0.000028
1679	1.6696e+02	3.2999	3.986051	0.000274	2.743385	0.464742	-0.000027
1680	1.6706e+02	3.2900	3.958351	0.000278	2.784331	0.471678	-0.000028
1681	1.6716e+02	3.2830	3.935947	0.000225	2.252033	0.381505	-0.000023
1682	1.6726e+02	3.2684	3.905804	0.000303	3.030008	0.513297	-0.000030
1683	1.6736e+02	3.2601	3.881364	0.000246	2.456763	0.416187	-0.000025
1684	1.6746e+02	3.2489	3.850813	0.000307	3.070954	0.520234	-0.000031
1685	1.6756e+02	3.2373	3.826372	0.000246	2.456763	0.416187	-0.000025
1686	1.6766e+02	3.2281	3.798266	0.000283	2.825277	0.478615	-0.000028
1687	1.6776e+02	3.2188	3.768530	0.000299	2.989062	0.506361	-0.000030
1688	1.6786e+02	3.2073	3.748570	0.000201	2.006356	0.339886	-0.000020
1689	1.6796e+02	3.1985	3.717204	0.000315	3.152846	0.534107	-0.000032
1690	1.6806e+02	3.1889	3.687876	0.000295	2.948116	0.499424	-0.000029
1691	1.6816e+02	3.1801	3.667509	0.000205	2.047302	0.346822	-0.000020
1692	1.6825e+02	3.1684	3.638995	0.000287	2.866223	0.485551	-0.000029
1693	1.6835e+02	3.1590	3.612517	0.000266	2.661493	0.450869	-0.000027
1694	1.6845e+02	3.1496	3.585225	0.000274	2.743385	0.464742	-0.000027
1695	1.6855e+02	3.1394	3.557119	0.000283	2.825277	0.478615	-0.000028
1696	1.6865e+02	3.1318	3.532271	0.000250	2.497709	0.423123	-0.000025
1697	1.6875e+02	3.1225	3.505794	0.000266	2.661493	0.450869	-0.000027
1698	1.6885e+02	3.1113	3.479724	0.000262	2.620547	0.443933	-0.000026
1699	1.6895e+02	3.0991	3.451617	0.000283	2.825277	0.478615	-0.000028
1700	1.6905e+02	3.0901	3.415771	0.000360	3.603252	0.610407	-0.000036
1701	1.6915e+02	3.0781	3.389294	0.000266	2.661493	0.450869	-0.000027
1702	1.6925e+02	3.0701	3.365260	0.000242	2.415817	0.409250	-0.000024
1703	1.6935e+02	3.0614	3.335932	0.000295	2.948116	0.499424	-0.000029
1704	1.6945e+02	3.0511	3.307418	0.000287	2.866223	0.485551	-0.000029
1705	1.6955e+02	3.0395	3.284199	0.000233	2.333925	0.395378	-0.000023
1706	1.6965e+02	3.0291	3.254056	0.000303	3.030008	0.513297	-0.000030
1707	1.6975e+02	3.0224	3.222691	0.000315	3.152846	0.534107	-0.000032
1708	1.6985e+02	3.0099	3.198250	0.000246	2.456763	0.416187	-0.000025
1709	1.6995e+02	2.9994	3.164441	0.000340	3.398522	0.575725	-0.000034
1710	1.7005e+02	2.9906	3.137149	0.000274	2.743385	0.464742	-0.000027
1711	1.7015e+02	2.9799	3.108635	0.000287	2.866223	0.485551	-0.000029
1712	1.7024e+02	2.9720	3.078899	0.000299	2.989062	0.506361	-0.000030
1713	1.7034e+02	2.9587	3.052829	0.000262	2.620547	0.443933	-0.000026
1714	1.7044e+02	2.9521	3.022278	0.000307	3.070954	0.520234	-0.000031
1715	1.7054e+02	2.9399	3.000689	0.000217	2.170141	0.367632	-0.000022
1716	1.7064e+02	2.9302	2.968916	0.000319	3.193792	0.541043	-0.000032
1717	1.7074e+02	2.9211	2.940810	0.000283	2.825277	0.478615	-0.000028
1718	1.7084e+02	2.9111	2.911481	0.000295	2.948116	0.499424	-0.000029
1719	1.7094e+02	2.9021	2.890706	0.000209	2.088248	0.353759	-0.000021
1720	1.7104e+02	2.8912	2.859748	0.000311	3.111900	0.527170	-0.000031
1721	1.7114e+02	2.8808	2.836123	0.000237	2.374871	0.402314	-0.000024
1722	1.7124e+02	2.8707	2.810867	0.000254	2.538655	0.430060	-0.000025
1723	1.7134e+02	2.8605	2.786427	0.000246	2.456763	0.416187	-0.000025
1724	1.7144e+02	2.8516	2.759135	0.000274	2.743385	0.464742	-0.000027
1725	1.7154e+02	2.8414	2.731843	0.000274	2.743385	0.464742	-0.000027
1726	1.7164e+02	2.8313	2.710661	0.000213	2.129195	0.360695	-0.000021
1727	1.7174e+02	2.8218	2.686628	0.000242	2.415817	0.409250	-0.000024
1728	1.7184e+02	2.8130	2.660965	0.000258	2.579601	0.436996	-0.000026
1729	1.7194e+02	2.7996	2.636117	0.000250	2.497709	0.423123	-0.000025
1730	1.7204e+02	2.7913	2.613306	0.000229	2.292979	0.388441	-0.000023
1731	1.7213e+02	2.7807	2.587236	0.000262	2.620547	0.443933	-0.000026
1732	1.7223e+02	2.7696	2.562796	0.000246	2.456763	0.416187	-0.000025
1733	1.7233e+02	2.7630	2.538355	0.000246	2.456763	0.416187	-0.000025
1734	1.7243e+02	2.7523	2.509026	0.000295	2.948116	0.499424	-0.000029
1735	1.7253e+02	2.7404	2.484179	0.000250	2.497709	0.423123	-0.000025
1736	1.7263e+02	2.7325	2.464219	0.000201	2.006356	0.339886	-0.000020
1737	1.7273e+02	2.7219	2.439371	0.000250	2.497709	0.423123	-0.000025
1738	1.7283e+02	2.7142	2.414930	0.000246	2.456763	0.416187	-0.000025
1739	1.7293e+02	2.7004	2.392934	0.000221	2.211087	0.374568	-0.000022
1740	1.7303e+02	2.6913	2.370123	0.000229	2.292979	0.388441	-0.000023
1741	1.7313e+02	2.6839	2.345682	0.000246	2.456763	0.416187	-0.000025
1742	1.7323e+02	2.6708	2.319612	0.000262	2.620547	0.443933	-0.000026
1743	1.7333e+02	2.6604	2.291098	0.000287	2.866223	0.485551	-0.000029
1744	1.7343e+02	2.6524	2.266658	0.000246	2.456763	0.416187	-0.000025
1745	1.7353e+02	2.6455	2.243846	0.000229	2.292979	0.388441	-0.000023
1746	1.7363e+02	2.6328	2.214925	0.000291	2.907169	0.492488	-0.000029
1747	1.7373e+02	2.6247	2.190077	0.000250	2.497709	0.423123	-0.000025
1748	1.7383e+02	2.6130	2.161156	0.000291	2.907169	0.492488	-0.000029
1749	1.7393e+02	2.6029	2.136715	0.000246	2.456763	0.416187	-0.000025
1750	1.7403e+02	2.5906	2.111053	0.000258	2.579601	0.436996	-0.000026
1751	1.7413e+02	2.5816	2.083761	0.000274	2.743385	0.464742	-0.000027
1752	1.7422e+02	2.5722	2.059728	0.000242	2.415817	0.409250	-0.000024
1753	1.7432e+02	2.5660	2.035694	0.000242	2.415817	0.409250	-0.000024
1754	1.7442e+02	2.5495	2.006773	0.000291	2.907169	0.492488	-0.000029
1755	1.7452e+02	2.5437	1.980703	0.000262	2.620547	0.443933	-0.000026
1756	1.7462e+02	2.5325	1.950967	0.000299	2.989062	0.506361	-0.000030
1757	1.7472e+02	2.5211	1.928156	0.000229	2.292979	0.388441	-0.000023
1758	1.7482e+02	2.5149	1.902901	0.000254	2.538655	0.430060	-0.000025
1759	1.7492e+02	2.5039	1.873979	0.000291	2.907169	0.492488	-0.000029
1760	1.7502e+02	2.4934	1.847502	0.000266	2.661493	0.450869	-0.000027
1761	1.7512e+02	2.4831	1.821840	0.000258	2.579601	0.436996	-0.000026
1762	1.7522e+02	2.4731	1.794140	0.000278	2.784331	0.471678	-0.000028
1763	1.7532e+02	2.4628	1.766441	0.000278	2.784331	0.471678	-0.000028
1764	1.7542e+02	2.4524	1.739556	0.000270	2.702439	0.457806	-0.000027
1765	1.7552e+02	2.4413	1.715523	0.000242	2.415817	0.409250	-0.000024
1766	1.7562e+02	2.4326	1.688639	0.000270	2.702439	0.457806	-0.000027
1767	1.7572e+02	2.4236	1.660939	0.000278	2.784331	0.471678	-0.000028
1768	1.7582e+02	2.4136	1.633647	0.000274	2.743385	0.464742	-0.000027
1769	1.7592e+02	2.4026	1.607577	0.000262	2.620547	0.443933	-0.000026
1770	1.7602e+02	2.3962	1.581100	0.000266	2.661493	0.450869	-0.000027
1771	1.7612e+02	2.3867	1.551364	0.000299	2.989062	0.506361	-0.000030
1772	1.7621e+02	2.3727	1.525294	0.000262	2.620547	0.443933	-0.000026
1773	1.7631e+02	2.3627	1.497188	0.000283	2.825277	0.478615	-0.000028
1774	1.7641e+02	2.3553	1.470710	0.000266	2.661493	0.450869	-0.000027
1775	1.7651e+02	2.3434	1.441789	0.000291	2.907169	0.492488	-0.000029
1776	1.7661e+02	2.3327	1.414904	0.000270	2.702439	0.457806	-0.000027
1777	1.7671e+02	2.3238	1.387205	0.000278	2.784331	0.471678	-0.000028
1778	1.7681e+02	2.3150	1.361135	0.000262	2.620547	0.443933	-0.000026
1779	1.7691e+02	2.3055	1.331806	0.000295	2.948116	0.499424	-0.000029
1780	1.7701e+02	2.2947	1.304107	0.000278	2.784331	0.471678	-0.000028
1781	1.7711e+02	2.2875	1.277223	0.000270	2.702439	0.457806	-0.000027
1782	1.7721e+02	2.2755	1.249931	0.000274	2.743385	0.464742	-0.000027
1783	1.7731e+02	2.2641	1.225083	0.000250	2.497709	0.423123	-0.000025
1784	1.7741e+02	2.2540	1.202679	0.000225	2.252033	0.381505	-0.000023
1785	1.7751e+02	2.2460	1.172943	0.000299	2.989062	0.506361	-0.000030
1786	1.7761e+02	2.2344	1.149317	0.000237	2.374871	0.402314	-0.000024
1787	1.7771e+02	2.2222	1.122025	0.000274	2.743385	0.464742	-0.000027
1788	1.7781e+02	2.2126	1.097177	0.000250	2.497709	0.423123	-0.000025
1789	1.7791e+02	2.2042	1.069478	0.000278	2.784331	0.471678	-0.000028
1790	1.7801e+02	2.1909	1.042186	0.000274	2.743385	0.464742	-0.000027
1791	1.7810e+02	2.1856	1.018967	0.000233	2.333925	0.395378	-0.000023
1792	1.7820e+02	2.1786	0.990861	0.000283	2.825277	0.478615	-0.000028
1793	1.7830e+02	2.1639	0.967235	0.000237	2.374871	0.402314	-0.000024
1794	1.7840e+02	2.1554	0.939128	0.000283	2.825277	0.478615	-0.000028
1795	1.7850e+02	2.1444	0.917132	0.000221	2.211087	0.374568	-0.000022
1796	1.7860e+02	2.1360	0.890654	0.000266	2.661493	0.450869	-0.000027
1797	1.7870e+02	2.1232	0.862141	0.000287	2.866223	0.485551	-0.000029
1798	1.7880e+02	2.1130	0.835663	0.000266	2.661493	0.450869	-0.000027
1799	1.7890e+02	2.1054	0.809186	0.000266	2.661493	0.450869	-0.000027
1800	1.7900e+02	2.0922	0.780265	0.000291	2.907169	0.492488	-0.000029
1801	1.7910e+02	2.0851	0.760305	0.000201	2.006356	0.339886	-0.000020
1802	1.7920e+02	2.0748	0.726495	0.000340	3.398522	0.575725	-0.000034
1803	1.7930e+02	2.0651	0.697981	0.000287	2.866223	0.485551	-0.000029
1804	1.7940e+02	2.0582	0.669467	0.000287	2.866223	0.485551	-0.000029
1805	1.7950e+02	2.0434	0.637695	0.000319	3.193792	0.541043	-0.000032
1806	1.7960e+02	2.0354	0.612440	0.000254	2.538655	0.430060	-0.000025
1807	1.7970e+02	2.0257	0.581481	0.000311	3.111900	0.527170	-0.000031
1808	1.7980e+02	2.0150	0.552560	0.000291	2.907169	0.492488	-0.000029
1809	1.7990e+02	2.0061	0.521602	0.000311	3.111900	0.527170	-0.000031
1810	1.8000e+02	1.9967	0.490644	0.000311	3.111900	0.527170	-0.000031
1811	1.8009e+02	1.9852	0.459279	0.000315	3.152846	0.534107	-0.000032
1812	1.8019e+02	1.9732	0.429950	0.000295	2.948116	0.499424	-0.000029
1813	1.8029e+02	1.9651	0.397363	0.000328	3.275684	0.554916	-0.000033
1814	1.8039e+02	1.9560	0.367219	0.000303	3.030008	0.513297	-0.000030
1815	1.8049e+02	1.9445	0.342371	0.000250	2.497709	0.423123	-0.000025
1816	1.8059e+02	1.9379	0.306525	0.000360	3.603252	0.610407	-0.000036
1817	1.8069e+02	1.9221	0.278011	0.000287	2.866223	0.485551	-0.000029
1818	1.8079e+02	1.9180	0.242572	0.000356	3.562306	0.603471	-0.000036
1819	1.8089e+02	1.9070	0.215688	0.000270	2.702439	0.457806	-0.000027
1820	1.8099e+02	1.8967	0.182286	0.000336	3.357576	0.568789	-0.000034
1821	1.8109e+02	1.8875	0.153772	0.000287	2.866223	0.485551	-0.000029
1822	1.8119e+02	1.8755	0.117926	0.000360	3.603252	0.610407	-0.000036
1823	1.8129e+02	1.8653	0.091041	0.000270	2.702439	0.457806	-0.000027
1824	1.8139e+02	1.8557	0.057639	0.000336	3.357576	0.568789	-0.000034
1825	1.8149e+02	1.8511	0.025866	0.000319	3.193792	0.541043	-0.000032
1826	1.8159e+02	1.8356	-0.000611	0.000266	2.661493	0.450869	-0.000027
1827	1.8169e+02	1.8272	-0.035642	0.000352	3.521360	0.596535	-0.000035
1828	1.8179e+02	1.8153	-0.064971	0.000295	2.948116	0.499424	-0.000029
1829	1.8189e+02	1.8075	-0.094300	0.000295	2.948116	0.499424	-0.000029
1830	1.8199e+02	1.7953	-0.124443	0.000303	3.030008	0.513297	-0.000030
1831	1.8209e+02	1.7871	-0.151328	0.000270	2.702439	0.457806	-0.000027
1832	1.8218e+02	1.7776	-0.180656	0.000295	2.948116	0.499424	-0.000029
1833	1.8228e+02	1.7667	-0.211614	0.000311	3.111900	0.527170	-0.000031
1834	1.8238e+02	1.7592	-0.242980	0.000315	3.152846	0.534107	-0.000032
1835	1.8248e+02	1.7458	-0.272308	0.000295	2.948116	0.499424	-0.000029
1836	1.8258e+02	1.7377	-0.303674	0.000315	3.152846	0.534107	-0.000032
1837	1.8268e+02	1.7281	-0.331373	0.000278	2.784331	0.471678	-0.000028
1838	1.8278e+02	1.7155	-0.363553	0.000323	3.234738	0.547979	-0.000032
1839	1.8288e+02	1.7097	-0.389216	0.000258	2.579601	0.436996	-0.000026
1840	1.8298e+02	1.6985	-0.419359	0.000303	3.030008	0.513297	-0.000030
1841	1.8308e+02	1.6867	-0.450317	0.000311	3.111900	0.527170	-0.000031
1842	1.8318e+02	1.6766	-0.483719	0.000336	3.357576	0.568789	-0.000034
1843	1.8328e+02	1.6651	-0.508975	0.000254	2.538655	0.430060	-0.000025
1844	1.8338e+02	1.6592	-0.533415	0.000246	2.456763	0.416187	-0.000025
1845	1.8348e+02	1.6477	-0.565595	0.000323	3.234738	0.547979	-0.000032
1846	1.8358e+02	1.6387	-0.592887	0.000274	2.743385	0.464742	-0.000027
1847	1.8368e+02	1.6254	-0.624660	0.000319	3.193792	0.541043	-0.000032
1848	1.8378e+02	1.6146	-0.655210	0.000307	3.070954	0.520234	-0.000031
1849	1.8388e+02	1.6094	-0.684132	0.000291	2.907169	0.492488	-0.000029
1850	1.8398e+02	1.5945	-0.716312	0.000323	3.234738	0.547979	-0.000032
1851	1.8407e+02	1.5911	-0.740752	0.000246	2.456763	0.416187	-0.000025
1852	1.8417e+02	1.5768	-0.774155	0.000336	3.357576	0.568789	-0.000034
1853	1.8427e+02	1.5676	-0.803076	0.000291	2.907169	0.492488	-0.000029
1854	1.8437e+02	1.5604	-0.832405	0.000295	2.948116	0.499424	-0.000029
1855	1.8447e+02	1.5482	-0.861326	0.000291	2.907169	0.492488	-0.000029
1856	1.8457e+02	1.5394	-0.891877	0.000307	3.070954	0.520234	-0.000031
1857	1.8467e+02	1.5260	-0.918354	0.000266	2.661493	0.450869	-0.000027
1858	1.8477e+02	1.5162	-0.951756	0.000336	3.357576	0.568789	-0.000034
1859	1.8487e+02	1.5099	-0.979455	0.000278	2.784331	0.471678	-0.000028
1860	1.8497e+02	1.4994	-1.003488	0.000242	2.415817	0.409250	-0.000024
1861	1.8507e+02	1.4857	-1.037298	0.000340	3.398522	0.575725	-0.000034
1862	1.8517e+02	1.4759	-1.067034	0.000299	2.989062	0.506361	-0.000030
1863	1.8527e+02	1.4686	-1.095548	0.000287	2.866223	0.485551	-0.000029
1864	1.8537e+02	1.4553	-1.119988	0.000246	2.456763	0.416187	-0.000025
1865	1.8547e+02	1.4485	-1.152983	0.000332	3.316630	0.561852	-0.000033
1866	1.8557e+02	1.4377	-1.182719	0.000299	2.989062	0.506361	-0.000030
1867	1.8567e+02	1.4284	-1.216936	0.000344	3.439468	0.582662	-0.000034
1868	1.8577e+02	1.4183	-1.248709	0.000319	3.193792	0.541043	-0.000032
1869	1.8587e+02	1.4076	-1.278852	0.000303	3.030008	0.513297	-0.000030
1870	1.8597e+02	1.4004	-1.308588	0.000299	2.989062	0.506361	-0.000030
1871	1.8606e+02	1.3875	-1.341583	0.000332	3.316630	0.561852	-0.000033
1872	1.8616e+02	1.3784	-1.374577	0.000332	3.316630	0.561852	-0.000033
1873	1.8626e+02	1.3686	-1.402684	0.000283	2.825277	0.478615	-0.000028
1874	1.8636e+02	1.3593	-1.431605	0.000291	2.907169	0.492488	-0.000029
1875	1.8646e+02	1.3470	-1.462156	0.000307	3.070954	0.520234	-0.000031
1876	1.8656e+02	1.3396	-1.490263	0.000283	2.825277	0.478615	-0.000028
1877	1.8666e+02	1.3287	-1.525702	0.000356	3.562306	0.603471	-0.000036
1878	1.8676e+02	1.3197	-1.560326	0.000348	3.480414	0.589598	-0.000035
1879	1.8686e+02	1.3084	-1.589247	0.000291	2.907169	0.492488	-0.000029
1880	1.8696e+02	1.2970	-1.621834	0.000328	3.275684	0.554916	-0.000033
1881	1.8706e+02	1.2891	-1.650756	0.000291	2.907169	0.492488	-0.000029
1882	1.8716e+02	1.2807	-1.681306	0.000307	3.070954	0.520234	-0.000031
1883	1.8726e+02	1.2701	-1.709820	0.000287	2.866223	0.485551	-0.000029
1884	1.8736e+02	1.2606	-1.741593	0.000319	3.193792	0.541043	-0.000032
1885	1.8746e+02	1.2481	-1.768070	0.000266	2.661493	0.450869	-0.000027
1886	1.8756e+02	1.2389	-1.798214	0.000303	3.030008	0.513297	-0.000030
1887	1.8766e+02	1.2295	-1.825506	0.000274	2.743385	0.464742	-0.000027
1888	1.8776e+02	1.2191	-1.859722	0.000344	3.439468	0.582662	-0.000034
1889	1.8786e+02	1.2105	-1.886200	0.000266	2.661493	0.450869	-0.000027
1890	1.8796e+02	1.1995	-1.915121	0.000291	2.907169	0.492488	-0.000029
1891	1.8806e+02	1.1919	-1.943228	0.000283	2.825277	0.478615	-0.000028
1892	1.8815e+02	1.1783	-1.968483	0.000254	2.538655	0.430060	-0.000025
1893	1.8825e+02	1.1710	-1.996997	0.000287	2.866223	0.485551	-0.000029
1894	1.8835e+02	1.1602	-2.020623	0.000237	2.374871	0.402314	-0.000024
1895	1.8845e+02	1.1530	-2.045063	0.000246	2.456763	0.416187	-0.000025
1896	1.8855e+02	1.1419	-2.076836	0.000319	3.193792	0.541043	-0.000032
1897	1.8865e+02	1.1303	-2.102499	0.000258	2.579601	0.436996	-0.000026
1898	1.8875e+02	1.1200	-2.129383	0.000270	2.702439	0.457806	-0.000027
1899	1.8885e+02	1.1087	-2.160749	0.000315	3.152846	0.534107	-0.000032
1900	1.8895e+02	1.1012	-2.185189	0.000246	2.456763	0.416187	-0.000025
1901	1.8905e+02	1.0896	-2.212888	0.000278	2.784331	0.471678	-0.000028
1902	1.8915e+02	1.0812	-2.242624	0.000299	2.989062	0.506361	-0.000030
1903	1.8925e+02	1.0709	-2.269102	0.000266	2.661493	0.450869	-0.000027
1904	1.8935e+02	1.0586	-2.293135	0.000242	2.415817	0.409250	-0.000024
1905	1.8945e+02	1.0499	-2.320834	0.000278	2.784331	0.471678	-0.000028
1906	1.8955e+02	1.0392	-2.346904	0.000262	2.620547	0.443933	-0.000026
1907	1.8965e+02	1.0298	-2.372567	0.000258	2.579601	0.436996	-0.000026
1908	1.8975e+02	1.0209	-2.399044	0.000266	2.661493	0.450869	-0.000027
1909	1.8985e+02	1.0098	-2.428780	0.000299	2.989062	0.506361	-0.000030
1910	1.8995e+02	1.0008	-2.456887	0.000283	2.825277	0.478615	-0.000028
1911	1.9004e+02	0.9907	-2.481734	0.000250	2.497709	0.423123	-0.000025
1912	1.9014e+02	0.9813	-2.511471	0.000299	2.989062	0.506361	-0.000030
1913	1.9024e+02	0.9719	-2.542429	0.000311	3.111900	0.527170	-0.000031
1914	1.9034e+02	0.9636	-2.569720	0.000274	2.743385	0.464742	-0.000027
1915	1.9044e+02	0.9476	-2.598642	0.000291	2.907169	0.492488	-0.000029
1916	1.9054e+02	0.9412	-2.626341	0.000278	2.784331	0.471678	-0.000028
1917	1.9064e+02	0.9304	-2.653226	0.000270	2.702439	0.457806	-0.000027
1918	1.9074e+02	0.9196	-2.682554	0.000295	2.948116	0.499424	-0.000029
1919	1.9084e+02	0.9117	-2.709846	0.000274	2.743385	0.464742	-0.000027
1920	1.9094e+02	0.9003	-2.742026	0.000323	3.234738	0.547979	-0.000032
1921	1.9104e+02	0.8913	-2.768504	0.000266	2.661493	0.450869	-0.000027
1922	1.9114e+02	0.8823	-2.796610	0.000283	2.825277	0.478615	-0.000028
1923	1.9124e+02	0.8731	-2.827976	0.000315	3.152846	0.534107	-0.000032
1924	1.9134e+02	0.8606	-2.856490	0.000287	2.866223	0.485551	-0.000029
1925	1.9144e+02	0.8518	-2.887448	0.000311	3.111900	0.527170	-0.000031
1926	1.9154e+02	0.8419	-2.913110	0.000258	2.579601	0.436996	-0.000026
1927	1.9164e+02	0.8334	-2.944476	0.000315	3.152846	0.534107	-0.000032
1928	1.9174e+02	0.8217	-2.975026	0.000307	3.070954	0.520234	-0.000031
1929	1.9184e+02	0.8111	-3.003948	0.000291	2.907169	0.492488	-0.000029
1930	1.9194e+02	0.7980	-3.034091	0.000303	3.030008	0.513297	-0.000030
1931	1.9203e+02	0.7920	-3.061790	0.000278	2.784331	0.471678	-0.000028
1932	1.9213e+02	0.7829	-3.091119	0.000295	2.948116	0.499424	-0.000029
1933	1.9223e+02	0.7734	-3.120855	0.000299	2.989062	0.506361	-0.000030
1934	1.9233e+02	0.7596	-3.148962	0.000283	2.825277	0.478615	-0.000028
1935	1.9243e+02	0.7516	-3.179920	0.000311	3.111900	0.527170	-0.000031
1936	1.9253e+02	0.7407	-3.206804	0.000270	2.702439	0.457806	-0.000027
1937	1.9263e+02	0.7317	-3.238577	0.000319	3.193792	0.541043	-0.000032
1938	1.9273e+02	0.7220	-3.268313	0.000299	2.989062	0.506361	-0.000030
1939	1.9283e+02	0.7129	-3.294383	0.000262	2.620547	0.443933	-0.000026
1940	1.9293e+02	0.7006	-3.328600	0.000344	3.439468	0.582662	-0.000034
1941	1.9303e+02	0.6911	-3.355484	0.000270	2.702439	0.457806	-0.000027
1942	1.9313e+02	0.6808	-3.391738	0.000364	3.644198	0.617344	-0.000036
1943	1.9323e+02	0.6701	-3.416993	0.000254	2.538655	0.430060	-0.000025
1944	1.9333e+02	0.6622	-3.449173	0.000323	3.234738	0.547979	-0.000032
1945	1.9343e+02	0.6532	-3.482168	0.000332	3.316630	0.561852	-0.000033
1946	1.9353e+02	0.6419	-3.509460	0.000274	2.743385	0.464742	-0.000027
1947	1.9363e+02	0.6300	-3.540825	0.000315	3.152846	0.534107	-0.000032
1948	1.9373e+02	0.6226	-3.573820	0.000332	3.316630	0.561852	-0.000033
1949	1.9383e+02	0.6115	-3.601519	0.000278	2.784331	0.471678	-0.000028
1950	1.9393e+02	0.6024	-3.626774	0.000254	2.538655	0.430060	-0.000025
1951	1.9403e+02	0.5901	-3.657325	0.000307	3.070954	0.520234	-0.000031
1952	1.9412e+02	0.5831	-3.682580	0.000254	2.538655	0.430060	-0.000025
1953	1.9422e+02	0.5721	-3.709058	0.000266	2.661493	0.450869	-0.000027
1954	1.9432e+02	0.5621	-3.742052	0.000332	3.316630	0.561852	-0.000033
1955	1.9442e+02	0.5515	-3.770159	0.000283	2.825277	0.478615	-0.000028
1956	1.9452e+02	0.5445	-3.795007	0.000250	2.497709	0.423123	-0.000025
1957	1.9462e+02	0.5309	-3.827594	0.000328	3.275684	0.554916	-0.000033
1958	1.9472e+02	0.5235	-3.856108	0.000287	2.866223	0.485551	-0.000029
1959	1.9482e+02	0.5128	-3.884622	0.000287	2.866223	0.485551	-0.000029
1960	1.9492e+02	0.5038	-3.913136	0.000287	2.866223	0.485551	-0.000029
1961	1.9502e+02	0.4930	-3.942465	0.000295	2.948116	0.499424	-0.000029
1962	1.9512e+02	0.4824	-3.967720	0.000254	2.538655	0.430060	-0.000025
1963	1.9522e+02	0.4744	-3.998678	0.000311	3.111900	0.527170	-0.000031
1964	1.9532e+02	0.4619	-4.028414	0.000299	2.989062	0.506361	-0.000030
1965	1.9542e+02	0.4536	-4.056521	0.000283	2.825277	0.478615	-0.000028
1966	1.9552e+02	0.4431	-4.085849	0.000295	2.948116	0.499424	-0.000029
1967	1.9562e+02	0.4329	-4.116807	0.000311	3.111900	0.527170	-0.000031
1968	1.9572e+02	0.4231	-4.145729	0.000291	2.907169	0.492488	-0.000029
1969	1.9582e+02	0.4131	-4.177094	0.000315	3.152846	0.534107	-0.000032
1970	1.9592e+02	0.4048	-4.210089	0.000332	3.316630	0.561852	-0.000033
1971	1.9601e+02	0.3928	-4.237381	0.000274	2.743385	0.464742	-0.000027
1972	1.9611e+02	0.3827	-4.269561	0.000323	3.234738	0.547979	-0.000032
1973	1.9621e+02	0.3720	-4.303370	0.000340	3.398522	0.575725	-0.000034
1974	1.9631e+02	0.3632	-4.331070	0.000278	2.784331	0.471678	-0.000028
1975	1.9641e+02	0.3529	-4.364472	0.000336	3.357576	0.568789	-0.000034
1976	1.9651e+02	0.3448	-4.395430	0.000311	3.111900	0.527170	-0.000031
1977	1.9661e+02	0.3333	-4.430461	0.000352	3.521360	0.596535	-0.000035
1978	1.9671e+02	0.3238	-4.461012	0.000307	3.070954	0.520234	-0.000031
1979	1.9681e+02	0.3135	-4.500117	0.000393	3.930821	0.665899	-0.000039
1980	1.9691e+02	0.3050	-4.533112	0.000332	3.316630	0.561852	-0.000033
1981	1.9701e+02	0.2943	-4.563662	0.000307	3.070954	0.520234	-0.000031
1982	1.9711e+02	0.2875	-4.598286	0.000348	3.480414	0.589598	-0.000035
1983	1.9721e+02	0.2747	-4.629652	0.000315	3.152846	0.534107	-0.000032
1984	1.9731e+02	0.2641	-4.663461	0.000340	3.398522	0.575725	-0.000034
1985	1.9741e+02	0.2530	-4.699307	0.000360	3.603252	0.610407	-0.000036
1986	1.9751e+02	0.2457	-4.728636	0.000295	2.948116	0.499424	-0.000029
1987	1.9761e+02	0.2345	-4.762038	0.000336	3.357576	0.568789	-0.000034
1988	1.9771e+02	0.2243	-4.795033	0.000332	3.316630	0.561852	-0.000033
1989	1.9781e+02	0.2126	-4.834138	0.000393	3.930821	0.665899	-0.000039
1990	1.9791e+02	0.2047	-4.870391	0.000364	3.644198	0.617344	-0.000036
1991	1.9800e+02	0.1939	-4.901349	0.000311	3.111900	0.527170	-0.000031
1992	1.9810e+02	0.1845	-4.934344	0.000332	3.316630	0.561852	-0.000033
1993	1.9820e+02	0.1744	-4.969375	0.000352	3.521360	0.596535	-0.000035
1994	1.9830e+02	0.1659	-5.004407	0.000352	3.521360	0.596535	-0.000035
1995	1.9840e+02	0.1558	-5.036180	0.000319	3.193792	0.541043	-0.000032
1996	1.9850e+02	0.1441	-5.064286	0.000283	2.825277	0.478615	-0.000028
1997	1.9860e+02	0.1360	-5.099725	0.000356	3.562306	0.603471	-0.000036
1998	1.9870e+02	0.1291	-5.129461	0.000299	2.989062	0.506361	-0.000030
1999	1.9880e+02	0.1169	-5.166937	0.000377	3.767036	0.638153	-0.000038
2000	1.9890e+02	0.1055	-5.196265	0.000295	2.948116	0.499424	-0.000029
2001	1.9900e+02	0.0979	-5.224779	0.000287	2.866223	0.485551	-0.000029
2002	1.9910e+02	0.0835	-5.262662	0.000381	3.807983	0.645090	-0.000038
2003	1.9920e+02	0.0767	-5.294027	0.000315	3.152846	0.534107	-0.000032
2004	1.9930e+02	0.0641	-5.325800	0.000319	3.193792	0.541043	-0.000032
2005	1.9940e+02	0.0552	-5.357980	0.000323	3.234738	0.547979	-0.000032
2006	1.9950e+02	0.0463	-5.390568	0.000328	3.275684	0.554916	-0.000033
2007	1.9960e+02	0.0360	-5.423562	0.000332	3.316630	0.561852	-0.000033
2008	1.9970e+02	0.0269	-5.457779	0.000344	3.439468	0.582662	-0.000034
2009	1.9980e+02	0.0147	-5.488737	0.000311	3.111900	0.527170	-0.000031
2010	1.9990e+02	0.0041	-5.518473	0.000299	2.989062	0.506361	-0.000030
2011	2.0000e+02	-0.0048	-5.550653	0.000299	2.989062	0.506361	-0.000032

PMax (uC/cm2):	2.95e+01
Pr (uC/cm2):	9.65e+00
-Pr (uC/cm2):	0.00e+00
PLoss (uC/cm2):	0.00e+00
C (Max-Eff) (nF):	2.95e-01
K (Eff):	5.00e+02
Vert. (+/-Pr) Shift (uC/cm2):	4.83e+00
Offset (uC/cm2):	1.52e+01

A (Loop Area - uC/cm2·Volts):	-7.72e-02



Hysteresis Version: 5.48.1 - Radiant Technologies, Inc., 1999 - 9/12/24

