»»»»»»»»»»»»»»»»»»»»»»»»»»»»»»»»»»»» Hysteresis ««««««««««««««««««««««««««««««««««««
»»»  Executed Version:	5.48.1
»»»  Vision Version:	5.48.4 (R)
»»»  Vision Compiled:	9/18/24
»»»  Driver Version:	5.47.0
»»»  Windows Version:	Windows 8 or 8.1
»»»  Processor Information:	x86 (AMD or Intel) - 32 Processors
»»»  Tester Name:	PMF21124-494 (100V)
»»»  Tester S/N:	PMF21124-494
»»»  Internal Amp Type:	100V RevK 270k
»»»  Internal Amp S/N:	iAB2-596/K     
»»»  Execution Count:	1
»»»»»»»»»»»»»»»»»»»»»»»»»»»»»»»»»»»»»»»»»»««««««««««««««««««««««««««««««««««««««««««

Stored:	6/27/2025 - 16:3:14
Configured:	06/27/25 11:23:28 AM
Executed:	06/27/25 04:02:46 PM

»»»»»»»»»»»»»»»»»»»»»»»»»»»»»»»»»»» Sample Info ««««««««««««««««««««««««««««««««««««
Sample Name:	
Lot Name:	
Wafer Name:	
Die Row/Column:	0/0
Capacitor Number:	0
Sample Area (cm2):	1.00e-04
Sample Thickness (microns):	1.50e-01

Amplifier:	Internal

»»»»»»»»»»»»»»»»»»»»»»»»»»»»»»»»»»» Tester Info «««««««««««««««««««««««««««««««««««
Tester Name:	PMF21124-494 (100V)
Tester Serial Number:	PMF21124-494
Return Signal Amp. Level:	1.9 [Index: 2]

»»»»»»»»»»»»»»»»»»»»»»»»»»»»»»»» Hysteresis Info ««««««««««««««««««««««««««««««««««
Task Name:	Hyst-1276
Volts:	10.00
Field:	666.67 (kV/cm)
DCBias:	0.00
DCField:	0.00 (kV/cm)
Hysteresis Period (ms):	2.00e+02
Preset:	Enabled
Preset Delay (ms):	1.00e+03
Profile:	Standard Monopolar

»»»»»»»»»»»»»»»»»»»»»»»»»»»»»»»»»»»»»» Data «««««««««««««««««««««««««««««««««««««««
Points:	2011

Valid Data

Point	Time (ms)	Drive Voltage	Measured Polarization (uC/cm2)	Capacitance (uF)	Normalized Capacitance (uF/cm2)	Dielectric Constant	Instantaneous Current (mA)
   1	0.0000e+00	-0.0047	-21.661662	0.000540	5.404693	0.915580	0.000054
   2	9.9500e-02	0.0060	-21.607893	0.000540	5.404693	0.915580	0.000054
   3	1.9900e-01	0.0165	-21.548014	0.000602	6.018862	1.019623	0.000060
   4	2.9850e-01	0.0252	-21.497096	0.000512	5.118080	0.867026	0.000051
   5	3.9800e-01	0.0347	-21.447807	0.000495	4.954302	0.839281	0.000050
   6	4.9750e-01	0.0424	-21.385077	0.000631	6.305475	1.068176	0.000063
   7	5.9700e-01	0.0552	-21.335381	0.000500	4.995246	0.846218	0.000050
   8	6.9650e-01	0.0626	-21.278353	0.000573	5.732250	0.971069	0.000057
   9	7.9600e-01	0.0734	-21.226213	0.000524	5.240914	0.887835	0.000052
  10	8.9550e-01	0.0864	-21.167963	0.000586	5.855084	0.991878	0.000059
  11	9.9500e-01	0.0936	-21.112972	0.000553	5.527527	0.936388	0.000055
  12	1.0945e+00	0.1067	-21.059610	0.000536	5.363748	0.908644	0.000054
  13	1.1940e+00	0.1131	-21.002175	0.000577	5.773195	0.978006	0.000058
  14	1.2935e+00	0.1248	-20.950035	0.000524	5.240914	0.887835	0.000052
  15	1.3930e+00	0.1338	-20.891785	0.000586	5.855084	0.991878	0.000059
  16	1.4925e+00	0.1443	-20.843311	0.000487	4.872412	0.825409	0.000049
  17	1.5920e+00	0.1571	-20.791579	0.000520	5.199970	0.880899	0.000052
  18	1.6915e+00	0.1631	-20.728848	0.000631	6.305475	1.068176	0.000063
  19	1.7910e+00	0.1748	-20.679559	0.000495	4.954302	0.839281	0.000050
  20	1.8905e+00	0.1833	-20.622124	0.000577	5.773195	0.978006	0.000058
  21	1.9900e+00	0.1963	-20.568762	0.000536	5.363748	0.908644	0.000054
  22	2.0895e+00	0.2020	-20.514178	0.000549	5.486582	0.929452	0.000055
  23	2.1890e+00	0.2137	-20.458372	0.000561	5.609416	0.950261	0.000056
  24	2.2885e+00	0.2249	-20.398493	0.000602	6.018862	1.019623	0.000060
  25	2.3880e+00	0.2326	-20.341872	0.000569	5.691305	0.964133	0.000057
  26	2.4875e+00	0.2453	-20.286066	0.000561	5.609416	0.950261	0.000056
  27	2.5870e+00	0.2550	-20.231075	0.000553	5.527527	0.936388	0.000055
  28	2.6865e+00	0.2618	-20.173640	0.000577	5.773195	0.978006	0.000058
  29	2.7860e+00	0.2769	-20.119871	0.000540	5.404693	0.915580	0.000054
  30	2.8855e+00	0.2827	-20.059991	0.000602	6.018862	1.019623	0.000060
  31	2.9850e+00	0.2940	-20.002149	0.000581	5.814139	0.984942	0.000058
  32	3.0845e+00	0.3034	-19.946750	0.000557	5.568471	0.943325	0.000056
  33	3.1840e+00	0.3148	-19.893388	0.000536	5.363748	0.908644	0.000054
  34	3.2835e+00	0.3242	-19.833509	0.000602	6.018862	1.019623	0.000060
  35	3.3830e+00	0.3329	-19.778110	0.000557	5.568471	0.943325	0.000056
  36	3.4825e+00	0.3444	-19.720675	0.000577	5.773195	0.978006	0.000058
  37	3.5820e+00	0.3510	-19.668942	0.000520	5.199970	0.880899	0.000052
  38	3.6815e+00	0.3650	-19.605397	0.000639	6.387364	1.082049	0.000064
  39	3.7810e+00	0.3761	-19.553664	0.000520	5.199970	0.880899	0.000052
  40	3.8805e+00	0.3818	-19.499081	0.000549	5.486582	0.929452	0.000055
  41	3.9800e+00	0.3924	-19.441645	0.000577	5.773195	0.978006	0.000058
  42	4.0795e+00	0.4036	-19.387876	0.000540	5.404693	0.915580	0.000054
  43	4.1790e+00	0.4128	-19.327997	0.000602	6.018862	1.019623	0.000060
  44	4.2785e+00	0.4235	-19.272191	0.000561	5.609416	0.950261	0.000056
  45	4.3780e+00	0.4364	-19.215978	0.000565	5.650361	0.957197	0.000056
  46	4.4775e+00	0.4430	-19.159764	0.000565	5.650361	0.957197	0.000056
  47	4.5770e+00	0.4556	-19.103551	0.000565	5.650361	0.957197	0.000056
  48	4.6765e+00	0.4620	-19.042857	0.000610	6.100752	1.033495	0.000061
  49	4.7760e+00	0.4748	-18.987866	0.000553	5.527527	0.936388	0.000055
  50	4.8755e+00	0.4850	-18.934911	0.000532	5.322804	0.901707	0.000053
  51	4.9750e+00	0.4973	-18.877883	0.000573	5.732250	0.971069	0.000057
  52	5.0745e+00	0.5039	-18.820041	0.000581	5.814139	0.984942	0.000058
  53	5.1740e+00	0.5152	-18.760976	0.000594	5.936973	1.005750	0.000059
  54	5.2735e+00	0.5225	-18.706799	0.000545	5.445637	0.922516	0.000054
  55	5.3730e+00	0.5312	-18.650179	0.000569	5.691305	0.964133	0.000057
  56	5.4725e+00	0.5428	-18.591114	0.000594	5.936973	1.005750	0.000059
  57	5.5720e+00	0.5525	-18.535308	0.000561	5.609416	0.950261	0.000056
  58	5.6715e+00	0.5623	-18.479095	0.000565	5.650361	0.957197	0.000056
  59	5.7710e+00	0.5727	-18.421660	0.000577	5.773195	0.978006	0.000058
  60	5.8705e+00	0.5816	-18.366261	0.000557	5.568471	0.943325	0.000056
  61	5.9700e+00	0.5930	-18.307604	0.000590	5.896029	0.998814	0.000059
  62	6.0695e+00	0.6021	-18.253834	0.000540	5.404693	0.915580	0.000054
  63	6.1690e+00	0.6094	-18.193140	0.000610	6.100752	1.033495	0.000061
  64	6.2685e+00	0.6218	-18.141408	0.000520	5.199970	0.880899	0.000052
  65	6.3680e+00	0.6322	-18.083973	0.000577	5.773195	0.978006	0.000058
  66	6.4675e+00	0.6439	-18.025723	0.000586	5.855084	0.991878	0.000059
  67	6.5670e+00	0.6516	-17.970731	0.000553	5.527527	0.936388	0.000055
  68	6.6665e+00	0.6630	-17.919406	0.000516	5.159025	0.873962	0.000052
  69	6.7660e+00	0.6703	-17.859119	0.000606	6.059807	1.026559	0.000061
  70	6.8655e+00	0.6818	-17.806572	0.000528	5.281859	0.894771	0.000053
  71	6.9650e+00	0.6911	-17.747508	0.000594	5.936973	1.005750	0.000059
  72	7.0645e+00	0.7037	-17.692516	0.000553	5.527527	0.936388	0.000055
  73	7.1640e+00	0.7150	-17.640784	0.000520	5.199970	0.880899	0.000052
  74	7.2635e+00	0.7210	-17.581312	0.000598	5.977918	1.012687	0.000060
  75	7.3630e+00	0.7322	-17.528765	0.000528	5.281859	0.894771	0.000053
  76	7.4625e+00	0.7402	-17.476625	0.000524	5.240914	0.887835	0.000052
  77	7.5620e+00	0.7493	-17.422041	0.000549	5.486582	0.929452	0.000055
  78	7.6615e+00	0.7610	-17.364198	0.000581	5.814139	0.984942	0.000058
  79	7.7610e+00	0.7742	-17.316947	0.000475	4.749579	0.804600	0.000047
  80	7.8605e+00	0.7821	-17.262363	0.000549	5.486582	0.929452	0.000055
  81	7.9600e+00	0.7922	-17.203298	0.000594	5.936973	1.005750	0.000059
  82	8.0595e+00	0.7998	-17.150343	0.000532	5.322804	0.901707	0.000053
  83	8.1590e+00	0.8110	-17.098204	0.000524	5.240914	0.887835	0.000052
  84	8.2585e+00	0.8240	-17.041990	0.000565	5.650361	0.957197	0.000056
  85	8.3580e+00	0.8327	-16.990665	0.000516	5.159025	0.873962	0.000052
  86	8.4575e+00	0.8418	-16.929564	0.000614	6.141696	1.040432	0.000061
  87	8.5570e+00	0.8501	-16.875795	0.000540	5.404693	0.915580	0.000054
  88	8.6565e+00	0.8638	-16.817137	0.000590	5.896029	0.998814	0.000059
  89	8.7560e+00	0.8721	-16.764590	0.000528	5.281859	0.894771	0.000053
  90	8.8555e+00	0.8817	-16.701859	0.000631	6.305475	1.068176	0.000063
  91	8.9550e+00	0.8920	-16.645239	0.000569	5.691305	0.964133	0.000057
  92	9.0545e+00	0.8989	-16.588618	0.000569	5.691305	0.964133	0.000057
  93	9.1540e+00	0.9097	-16.530368	0.000586	5.855084	0.991878	0.000059
  94	9.2535e+00	0.9225	-16.472933	0.000577	5.773195	0.978006	0.000058
  95	9.3530e+00	0.9319	-16.421608	0.000516	5.159025	0.873962	0.000052
  96	9.4525e+00	0.9417	-16.355211	0.000667	6.673977	1.130602	0.000067
  97	9.5520e+00	0.9501	-16.301034	0.000545	5.445637	0.922516	0.000054
  98	9.6515e+00	0.9618	-16.240340	0.000610	6.100752	1.033495	0.000061
  99	9.7510e+00	0.9718	-16.181683	0.000590	5.896029	0.998814	0.000059
 100	9.8505e+00	0.9807	-16.124655	0.000573	5.732250	0.971069	0.000057
 101	9.9500e+00	0.9907	-16.069256	0.000557	5.568471	0.943325	0.000056
 102	1.0050e+01	0.9992	-16.009377	0.000602	6.018862	1.019623	0.000060
 103	1.0149e+01	1.0106	-15.951127	0.000586	5.855084	0.991878	0.000059
 104	1.0248e+01	1.0204	-15.896136	0.000553	5.527527	0.936388	0.000055
 105	1.0348e+01	1.0312	-15.836256	0.000602	6.018862	1.019623	0.000060
 106	1.0447e+01	1.0415	-15.779636	0.000569	5.691305	0.964133	0.000057
 107	1.0547e+01	1.0511	-15.727496	0.000524	5.240914	0.887835	0.000052
 108	1.0646e+01	1.0571	-15.670875	0.000569	5.691305	0.964133	0.000057
 109	1.0746e+01	1.0674	-15.612218	0.000590	5.896029	0.998814	0.000059
 110	1.0845e+01	1.0824	-15.557227	0.000553	5.527527	0.936388	0.000055
 111	1.0945e+01	1.0884	-15.503050	0.000545	5.445637	0.922516	0.000054
 112	1.1044e+01	1.0995	-15.444800	0.000586	5.855084	0.991878	0.000059
 113	1.1144e+01	1.1095	-15.389402	0.000557	5.568471	0.943325	0.000056
 114	1.1243e+01	1.1214	-15.332374	0.000573	5.732250	0.971069	0.000057
 115	1.1343e+01	1.1317	-15.279419	0.000532	5.322804	0.901707	0.000053
 116	1.1443e+01	1.1399	-15.221984	0.000577	5.773195	0.978006	0.000058
 117	1.1542e+01	1.1472	-15.169029	0.000532	5.322804	0.901707	0.000053
 118	1.1642e+01	1.1603	-15.113631	0.000557	5.568471	0.943325	0.000056
 119	1.1741e+01	1.1718	-15.055788	0.000581	5.814139	0.984942	0.000058
 120	1.1841e+01	1.1798	-15.000389	0.000557	5.568471	0.943325	0.000056
 121	1.1940e+01	1.1903	-14.942547	0.000581	5.814139	0.984942	0.000058
 122	1.2040e+01	1.2010	-14.893258	0.000495	4.954302	0.839281	0.000050
 123	1.2139e+01	1.2091	-14.837452	0.000561	5.609416	0.950261	0.000056
 124	1.2239e+01	1.2207	-14.783276	0.000545	5.445637	0.922516	0.000054
 125	1.2338e+01	1.2291	-14.725026	0.000586	5.855084	0.991878	0.000059
 126	1.2438e+01	1.2399	-14.669220	0.000561	5.609416	0.950261	0.000056
 127	1.2537e+01	1.2509	-14.610970	0.000586	5.855084	0.991878	0.000059
 128	1.2636e+01	1.2582	-14.560052	0.000512	5.118080	0.867026	0.000051
 129	1.2736e+01	1.2690	-14.512393	0.000479	4.790523	0.811537	0.000048
 130	1.2835e+01	1.2796	-14.454958	0.000577	5.773195	0.978006	0.000058
 131	1.2935e+01	1.2900	-14.395078	0.000602	6.018862	1.019623	0.000060
 132	1.3034e+01	1.2976	-14.348641	0.000467	4.667689	0.790728	0.000047
 133	1.3134e+01	1.3066	-14.287540	0.000614	6.141696	1.040432	0.000061
 134	1.3233e+01	1.3173	-14.235807	0.000520	5.199970	0.880899	0.000052
 135	1.3333e+01	1.3274	-14.180002	0.000561	5.609416	0.950261	0.000056
 136	1.3432e+01	1.3377	-14.122566	0.000577	5.773195	0.978006	0.000058
 137	1.3532e+01	1.3483	-14.072056	0.000508	5.077136	0.860090	0.000051
 138	1.3632e+01	1.3597	-14.014213	0.000581	5.814139	0.984942	0.000058
 139	1.3731e+01	1.3700	-13.962073	0.000524	5.240914	0.887835	0.000052
 140	1.3831e+01	1.3792	-13.906675	0.000557	5.568471	0.943325	0.000056
 141	1.3930e+01	1.3915	-13.850869	0.000561	5.609416	0.950261	0.000056
 142	1.4030e+01	1.4041	-13.800358	0.000508	5.077136	0.860090	0.000051
 143	1.4129e+01	1.4071	-13.746996	0.000536	5.363748	0.908644	0.000054
 144	1.4229e+01	1.4187	-13.692820	0.000545	5.445637	0.922516	0.000054
 145	1.4328e+01	1.4283	-13.638236	0.000549	5.486582	0.929452	0.000055
 146	1.4428e+01	1.4385	-13.588948	0.000495	4.954302	0.839281	0.000050
 147	1.4527e+01	1.4473	-13.529883	0.000594	5.936973	1.005750	0.000059
 148	1.4627e+01	1.4569	-13.474077	0.000561	5.609416	0.950261	0.000056
 149	1.4726e+01	1.4654	-13.423974	0.000504	5.036191	0.853154	0.000050
 150	1.4825e+01	1.4800	-13.369797	0.000545	5.445637	0.922516	0.000054
 151	1.4925e+01	1.4876	-13.315621	0.000545	5.445637	0.922516	0.000054
 152	1.5024e+01	1.4977	-13.260629	0.000553	5.527527	0.936388	0.000055
 153	1.5124e+01	1.5059	-13.208490	0.000524	5.240914	0.887835	0.000052
 154	1.5223e+01	1.5199	-13.150240	0.000586	5.855084	0.991878	0.000059
 155	1.5323e+01	1.5280	-13.096878	0.000536	5.363748	0.908644	0.000054
 156	1.5422e+01	1.5372	-13.041479	0.000557	5.568471	0.943325	0.000056
 157	1.5522e+01	1.5478	-12.988117	0.000536	5.363748	0.908644	0.000054
 158	1.5621e+01	1.5592	-12.929053	0.000594	5.936973	1.005750	0.000059
 159	1.5721e+01	1.5661	-12.873654	0.000557	5.568471	0.943325	0.000056
 160	1.5820e+01	1.5782	-12.818255	0.000557	5.568471	0.943325	0.000056
 161	1.5920e+01	1.5878	-12.768560	0.000500	4.995246	0.846218	0.000050
 162	1.6020e+01	1.5994	-12.714790	0.000540	5.404693	0.915580	0.000054
 163	1.6119e+01	1.6067	-12.656948	0.000581	5.814139	0.984942	0.000058
 164	1.6218e+01	1.6193	-12.604401	0.000528	5.281859	0.894771	0.000053
 165	1.6318e+01	1.6256	-12.546151	0.000586	5.855084	0.991878	0.000059
 166	1.6418e+01	1.6378	-12.490345	0.000561	5.609416	0.950261	0.000056
 167	1.6517e+01	1.6451	-12.436983	0.000536	5.363748	0.908644	0.000054
 168	1.6616e+01	1.6572	-12.380362	0.000569	5.691305	0.964133	0.000057
 169	1.6716e+01	1.6669	-12.328630	0.000520	5.199970	0.880899	0.000052
 170	1.6816e+01	1.6767	-12.279749	0.000491	4.913357	0.832345	0.000049
 171	1.6915e+01	1.6880	-12.221906	0.000581	5.814139	0.984942	0.000058
 172	1.7015e+01	1.6983	-12.171803	0.000504	5.036191	0.853154	0.000050
 173	1.7114e+01	1.7078	-12.118848	0.000532	5.322804	0.901707	0.000053
 174	1.7213e+01	1.7169	-12.074041	0.000450	4.503911	0.762983	0.000045
 175	1.7313e+01	1.7255	-12.022715	0.000516	5.159025	0.873962	0.000052
 176	1.7413e+01	1.7373	-11.968946	0.000540	5.404693	0.915580	0.000054
 177	1.7512e+01	1.7465	-11.917214	0.000520	5.199970	0.880899	0.000052
 178	1.7611e+01	1.7570	-11.867518	0.000500	4.995246	0.846218	0.000050
 179	1.7711e+01	1.7662	-11.814563	0.000532	5.322804	0.901707	0.000053
 180	1.7811e+01	1.7773	-11.764460	0.000504	5.036191	0.853154	0.000050
 181	1.7910e+01	1.7903	-11.714764	0.000500	4.995246	0.846218	0.000050
 182	1.8009e+01	1.7955	-11.666698	0.000483	4.831468	0.818473	0.000048
 183	1.8109e+01	1.8076	-11.614558	0.000524	5.240914	0.887835	0.000052
 184	1.8209e+01	1.8174	-11.568121	0.000467	4.667689	0.790728	0.000047
 185	1.8308e+01	1.8268	-11.518425	0.000500	4.995246	0.846218	0.000050
 186	1.8407e+01	1.8350	-11.466693	0.000520	5.199970	0.880899	0.000052
 187	1.8507e+01	1.8463	-11.416182	0.000508	5.077136	0.860090	0.000051
 188	1.8607e+01	1.8573	-11.365672	0.000508	5.077136	0.860090	0.000051
 189	1.8706e+01	1.8664	-11.315161	0.000508	5.077136	0.860090	0.000051
 190	1.8805e+01	1.8759	-11.264244	0.000512	5.118080	0.867026	0.000051
 191	1.8905e+01	1.8850	-11.211696	0.000528	5.281859	0.894771	0.000053
 192	1.9005e+01	1.8964	-11.164445	0.000475	4.749579	0.804600	0.000047
 193	1.9104e+01	1.9051	-11.108639	0.000561	5.609416	0.950261	0.000056
 194	1.9203e+01	1.9148	-11.055684	0.000532	5.322804	0.901707	0.000053
 195	1.9303e+01	1.9242	-11.009654	0.000463	4.626745	0.783792	0.000046
 196	1.9402e+01	1.9376	-10.957515	0.000524	5.240914	0.887835	0.000052
 197	1.9502e+01	1.9472	-10.905782	0.000520	5.199970	0.880899	0.000052
 198	1.9602e+01	1.9568	-10.856494	0.000495	4.954302	0.839281	0.000050
 199	1.9701e+01	1.9668	-10.807205	0.000495	4.954302	0.839281	0.000050
 200	1.9800e+01	1.9748	-10.750585	0.000569	5.691305	0.964133	0.000057
 201	1.9900e+01	1.9872	-10.702111	0.000487	4.872412	0.825409	0.000049
 202	2.0000e+01	1.9970	-10.649156	0.000532	5.322804	0.901707	0.000053
 203	2.0099e+01	2.0052	-10.597016	0.000524	5.240914	0.887835	0.000052
 204	2.0198e+01	2.0159	-10.546913	0.000504	5.036191	0.853154	0.000050
 205	2.0298e+01	2.0229	-10.497625	0.000495	4.954302	0.839281	0.000050
 206	2.0398e+01	2.0364	-10.446707	0.000512	5.118080	0.867026	0.000051
 207	2.0497e+01	2.0451	-10.394160	0.000528	5.281859	0.894771	0.000053
 208	2.0596e+01	2.0554	-10.346501	0.000479	4.790523	0.811537	0.000048
 209	2.0696e+01	2.0641	-10.299656	0.000471	4.708634	0.797664	0.000047
 210	2.0796e+01	2.0744	-10.243443	0.000565	5.650361	0.957197	0.000056
 211	2.0895e+01	2.0853	-10.192933	0.000508	5.077136	0.860090	0.000051
 212	2.0994e+01	2.0927	-10.146088	0.000471	4.708634	0.797664	0.000047
 213	2.1094e+01	2.1046	-10.091504	0.000549	5.486582	0.929452	0.000055
 214	2.1194e+01	2.1122	-10.040994	0.000508	5.077136	0.860090	0.000051
 215	2.1293e+01	2.1265	-9.990483	0.000508	5.077136	0.860090	0.000051
 216	2.1392e+01	2.1353	-9.939158	0.000516	5.159025	0.873962	0.000052
 217	2.1492e+01	2.1459	-9.889870	0.000495	4.954302	0.839281	0.000050
 218	2.1591e+01	2.1543	-9.841396	0.000487	4.872412	0.825409	0.000049
 219	2.1691e+01	2.1662	-9.792108	0.000495	4.954302	0.839281	0.000050
 220	2.1791e+01	2.1768	-9.739153	0.000532	5.322804	0.901707	0.000053
 221	2.1890e+01	2.1851	-9.688643	0.000508	5.077136	0.860090	0.000051
 222	2.1989e+01	2.1952	-9.638947	0.000500	4.995246	0.846218	0.000050
 223	2.2089e+01	2.2036	-9.586400	0.000528	5.281859	0.894771	0.000053
 224	2.2189e+01	2.2137	-9.535889	0.000508	5.077136	0.860090	0.000051
 225	2.2288e+01	2.2237	-9.487823	0.000483	4.831468	0.818473	0.000048
 226	2.2387e+01	2.2353	-9.434868	0.000532	5.322804	0.901707	0.000053
 227	2.2487e+01	2.2445	-9.385172	0.000500	4.995246	0.846218	0.000050
 228	2.2587e+01	2.2552	-9.331811	0.000536	5.363748	0.908644	0.000054
 229	2.2686e+01	2.2636	-9.283744	0.000483	4.831468	0.818473	0.000048
 230	2.2785e+01	2.2719	-9.231197	0.000528	5.281859	0.894771	0.000053
 231	2.2885e+01	2.2864	-9.177020	0.000545	5.445637	0.922516	0.000054
 232	2.2985e+01	2.2935	-9.131398	0.000459	4.585800	0.776856	0.000046
 233	2.3084e+01	2.3037	-9.077629	0.000540	5.404693	0.915580	0.000054
 234	2.3183e+01	2.3138	-9.026711	0.000512	5.118080	0.867026	0.000051
 235	2.3283e+01	2.3226	-8.979459	0.000475	4.749579	0.804600	0.000047
 236	2.3383e+01	2.3337	-8.927727	0.000520	5.199970	0.880899	0.000052
 237	2.3482e+01	2.3418	-8.882919	0.000450	4.503911	0.762983	0.000045
 238	2.3581e+01	2.3544	-8.830779	0.000524	5.240914	0.887835	0.000052
 239	2.3681e+01	2.3637	-8.786379	0.000446	4.462966	0.756047	0.000045
 240	2.3780e+01	2.3723	-8.737905	0.000487	4.872412	0.825409	0.000049
 241	2.3880e+01	2.3840	-8.684951	0.000532	5.322804	0.901707	0.000053
 242	2.3980e+01	2.3940	-8.638513	0.000467	4.667689	0.790728	0.000047
 243	2.4079e+01	2.4035	-8.589632	0.000491	4.913357	0.832345	0.000049
 244	2.4178e+01	2.4142	-8.543603	0.000463	4.626745	0.783792	0.000046
 245	2.4278e+01	2.4250	-8.495944	0.000479	4.790523	0.811537	0.000048
 246	2.4378e+01	2.4339	-8.442989	0.000532	5.322804	0.901707	0.000053
 247	2.4477e+01	2.4418	-8.394515	0.000487	4.872412	0.825409	0.000049
 248	2.4576e+01	2.4554	-8.349300	0.000454	4.544855	0.769919	0.000045
 249	2.4676e+01	2.4628	-8.301641	0.000479	4.790523	0.811537	0.000048
 250	2.4776e+01	2.4733	-8.256019	0.000459	4.585800	0.776856	0.000046
 251	2.4875e+01	2.4841	-8.208360	0.000479	4.790523	0.811537	0.000048
 252	2.4974e+01	2.4960	-8.158257	0.000504	5.036191	0.853154	0.000050
 253	2.5074e+01	2.4993	-8.107746	0.000508	5.077136	0.860090	0.000051
 254	2.5174e+01	2.5131	-8.060902	0.000471	4.708634	0.797664	0.000047
 255	2.5273e+01	2.5213	-8.009984	0.000512	5.118080	0.867026	0.000051
 256	2.5372e+01	2.5330	-7.959473	0.000508	5.077136	0.860090	0.000051
 257	2.5472e+01	2.5449	-7.908556	0.000512	5.118080	0.867026	0.000051
 258	2.5572e+01	2.5536	-7.856416	0.000524	5.240914	0.887835	0.000052
 259	2.5671e+01	2.5627	-7.806313	0.000504	5.036191	0.853154	0.000050
 260	2.5770e+01	2.5737	-7.756617	0.000500	4.995246	0.846218	0.000050
 261	2.5870e+01	2.5808	-7.701218	0.000557	5.568471	0.943325	0.000056
 262	2.5970e+01	2.5921	-7.653152	0.000483	4.831468	0.818473	0.000048
 263	2.6069e+01	2.6008	-7.596939	0.000565	5.650361	0.957197	0.000056
 264	2.6169e+01	2.6160	-7.549687	0.000475	4.749579	0.804600	0.000047
 265	2.6268e+01	2.6229	-7.499991	0.000500	4.995246	0.846218	0.000050
 266	2.6367e+01	2.6344	-7.449481	0.000508	5.077136	0.860090	0.000051
 267	2.6467e+01	2.6402	-7.393675	0.000561	5.609416	0.950261	0.000056
 268	2.6567e+01	2.6511	-7.343979	0.000500	4.995246	0.846218	0.000050
 269	2.6666e+01	2.6612	-7.291839	0.000524	5.240914	0.887835	0.000052
 270	2.6765e+01	2.6748	-7.238884	0.000532	5.322804	0.901707	0.000053
 271	2.6865e+01	2.6781	-7.187559	0.000516	5.159025	0.873962	0.000052
 272	2.6965e+01	2.6916	-7.138678	0.000491	4.913357	0.832345	0.000049
 273	2.7064e+01	2.7033	-7.086946	0.000520	5.199970	0.880899	0.000052
 274	2.7163e+01	2.7102	-7.037657	0.000495	4.954302	0.839281	0.000050
 275	2.7263e+01	2.7197	-6.985110	0.000528	5.281859	0.894771	0.000053
 276	2.7363e+01	2.7319	-6.937044	0.000483	4.831468	0.818473	0.000048
 277	2.7462e+01	2.7425	-6.887755	0.000495	4.954302	0.839281	0.000050
 278	2.7561e+01	2.7515	-6.840096	0.000479	4.790523	0.811537	0.000048
 279	2.7661e+01	2.7613	-6.787549	0.000528	5.281859	0.894771	0.000053
 280	2.7761e+01	2.7725	-6.740705	0.000471	4.708634	0.797664	0.000047
 281	2.7860e+01	2.7809	-6.693860	0.000471	4.708634	0.797664	0.000047
 282	2.7959e+01	2.7956	-6.641313	0.000528	5.281859	0.894771	0.000053
 283	2.8059e+01	2.8001	-6.589580	0.000520	5.199970	0.880899	0.000052
 284	2.8159e+01	2.8106	-6.539885	0.000500	4.995246	0.846218	0.000050
 285	2.8258e+01	2.8219	-6.495892	0.000442	4.422021	0.749111	0.000044
 286	2.8358e+01	2.8308	-6.447418	0.000487	4.872412	0.825409	0.000049
 287	2.8457e+01	2.8413	-6.399759	0.000479	4.790523	0.811537	0.000048
 288	2.8556e+01	2.8541	-6.350063	0.000500	4.995246	0.846218	0.000050
 289	2.8656e+01	2.8620	-6.297923	0.000524	5.240914	0.887835	0.000052
 290	2.8756e+01	2.8723	-6.247820	0.000504	5.036191	0.853154	0.000050
 291	2.8855e+01	2.8837	-6.200568	0.000475	4.749579	0.804600	0.000047
 292	2.8954e+01	2.8903	-6.150873	0.000500	4.995246	0.846218	0.000050
 293	2.9054e+01	2.9031	-6.103621	0.000475	4.749579	0.804600	0.000047
 294	2.9154e+01	2.9102	-6.054332	0.000495	4.954302	0.839281	0.000050
 295	2.9253e+01	2.9230	-6.004229	0.000504	5.036191	0.853154	0.000050
 296	2.9352e+01	2.9263	-5.956570	0.000479	4.790523	0.811537	0.000048
 297	2.9452e+01	2.9385	-5.912170	0.000446	4.462966	0.756047	0.000045
 298	2.9552e+01	2.9488	-5.860845	0.000516	5.159025	0.873962	0.000052
 299	2.9651e+01	2.9626	-5.812778	0.000483	4.831468	0.818473	0.000048
 300	2.9750e+01	2.9684	-5.765934	0.000471	4.708634	0.797664	0.000047
 301	2.9850e+01	2.9823	-5.715423	0.000508	5.077136	0.860090	0.000051
 302	2.9950e+01	2.9929	-5.666542	0.000491	4.913357	0.832345	0.000049
 303	3.0049e+01	3.0005	-5.620513	0.000463	4.626745	0.783792	0.000046
 304	3.0148e+01	3.0120	-5.572039	0.000487	4.872412	0.825409	0.000049
 305	3.0248e+01	3.0184	-5.520714	0.000516	5.159025	0.873962	0.000052
 306	3.0348e+01	3.0297	-5.474277	0.000467	4.667689	0.790728	0.000047
 307	3.0447e+01	3.0412	-5.425395	0.000491	4.913357	0.832345	0.000049
 308	3.0547e+01	3.0500	-5.378958	0.000467	4.667689	0.790728	0.000047
 309	3.0646e+01	3.0609	-5.332114	0.000471	4.708634	0.797664	0.000047
 310	3.0745e+01	3.0691	-5.284455	0.000479	4.790523	0.811537	0.000048
 311	3.0845e+01	3.0816	-5.242499	0.000422	4.217298	0.714430	0.000042
 312	3.0945e+01	3.0875	-5.191988	0.000508	5.077136	0.860090	0.000051
 313	3.1044e+01	3.0984	-5.144736	0.000475	4.749579	0.804600	0.000047
 314	3.1143e+01	3.1112	-5.095041	0.000500	4.995246	0.846218	0.000050
 315	3.1243e+01	3.1227	-5.050233	0.000450	4.503911	0.762983	0.000045
 316	3.1343e+01	3.1289	-5.002167	0.000483	4.831468	0.818473	0.000048
 317	3.1442e+01	3.1399	-4.953693	0.000487	4.872412	0.825409	0.000049
 318	3.1541e+01	3.1503	-4.907256	0.000467	4.667689	0.790728	0.000047
 319	3.1641e+01	3.1594	-4.856745	0.000508	5.077136	0.860090	0.000051
 320	3.1741e+01	3.1715	-4.813974	0.000430	4.299187	0.728302	0.000043
 321	3.1840e+01	3.1812	-4.764686	0.000495	4.954302	0.839281	0.000050
 322	3.1939e+01	3.1897	-4.714175	0.000508	5.077136	0.860090	0.000051
 323	3.2039e+01	3.2009	-4.663665	0.000508	5.077136	0.860090	0.000051
 324	3.2139e+01	3.2101	-4.616413	0.000475	4.749579	0.804600	0.000047
 325	3.2238e+01	3.2172	-4.569569	0.000471	4.708634	0.797664	0.000047
 326	3.2337e+01	3.2282	-4.519466	0.000504	5.036191	0.853154	0.000050
 327	3.2437e+01	3.2363	-4.468955	0.000508	5.077136	0.860090	0.000051
 328	3.2536e+01	3.2486	-4.420889	0.000483	4.831468	0.818473	0.000048
 329	3.2636e+01	3.2597	-4.374859	0.000463	4.626745	0.783792	0.000046
 330	3.2736e+01	3.2683	-4.325571	0.000495	4.954302	0.839281	0.000050
 331	3.2835e+01	3.2766	-4.275060	0.000508	5.077136	0.860090	0.000051
 332	3.2934e+01	3.2936	-4.227808	0.000475	4.749579	0.804600	0.000047
 333	3.3034e+01	3.2997	-4.177298	0.000508	5.077136	0.860090	0.000051
 334	3.3133e+01	3.3086	-4.128417	0.000491	4.913357	0.832345	0.000049
 335	3.3233e+01	3.3211	-4.079536	0.000491	4.913357	0.832345	0.000049
 336	3.3333e+01	3.3303	-4.035950	0.000438	4.381077	0.742174	0.000044
 337	3.3432e+01	3.3392	-3.989513	0.000467	4.667689	0.790728	0.000047
 338	3.3532e+01	3.3492	-3.942261	0.000475	4.749579	0.804600	0.000047
 339	3.3631e+01	3.3601	-3.895009	0.000475	4.749579	0.804600	0.000047
 340	3.3730e+01	3.3709	-3.852646	0.000426	4.258243	0.721366	0.000043
 341	3.3830e+01	3.3781	-3.806209	0.000467	4.667689	0.790728	0.000047
 342	3.3929e+01	3.3887	-3.760994	0.000454	4.544855	0.769919	0.000045
 343	3.4029e+01	3.4002	-3.717815	0.000434	4.340132	0.735238	0.000043
 344	3.4129e+01	3.4098	-3.671786	0.000463	4.626745	0.783792	0.000046
 345	3.4228e+01	3.4217	-3.632274	0.000397	3.971630	0.672812	0.000040
 346	3.4328e+01	3.4278	-3.582985	0.000495	4.954302	0.839281	0.000050
 347	3.4427e+01	3.4397	-3.541029	0.000422	4.217298	0.714430	0.000042
 348	3.4526e+01	3.4499	-3.498258	0.000430	4.299187	0.728302	0.000043
 349	3.4626e+01	3.4576	-3.452228	0.000463	4.626745	0.783792	0.000046
 350	3.4725e+01	3.4692	-3.409457	0.000430	4.299187	0.728302	0.000043
 351	3.4825e+01	3.4734	-3.366279	0.000434	4.340132	0.735238	0.000043
 352	3.4925e+01	3.4864	-3.325137	0.000414	4.135409	0.700557	0.000041
 353	3.5024e+01	3.4993	-3.278700	0.000467	4.667689	0.790728	0.000047
 354	3.5123e+01	3.5104	-3.236337	0.000426	4.258243	0.721366	0.000043
 355	3.5223e+01	3.5184	-3.191529	0.000450	4.503911	0.762983	0.000045
 356	3.5322e+01	3.5287	-3.147536	0.000442	4.422021	0.749111	0.000044
 357	3.5422e+01	3.5379	-3.103136	0.000446	4.462966	0.756047	0.000045
 358	3.5522e+01	3.5487	-3.056699	0.000467	4.667689	0.790728	0.000047
 359	3.5621e+01	3.5579	-3.011891	0.000450	4.503911	0.762983	0.000045
 360	3.5721e+01	3.5673	-2.968713	0.000434	4.340132	0.735238	0.000043
 361	3.5820e+01	3.5784	-2.923497	0.000454	4.544855	0.769919	0.000045
 362	3.5919e+01	3.5876	-2.877060	0.000467	4.667689	0.790728	0.000047
 363	3.6019e+01	3.5979	-2.833475	0.000438	4.381077	0.742174	0.000044
 364	3.6118e+01	3.6062	-2.787852	0.000459	4.585800	0.776856	0.000046
 365	3.6218e+01	3.6191	-2.745081	0.000430	4.299187	0.728302	0.000043
 366	3.6318e+01	3.6282	-2.696608	0.000487	4.872412	0.825409	0.000049
 367	3.6417e+01	3.6395	-2.657503	0.000393	3.930686	0.665876	0.000039
 368	3.6517e+01	3.6459	-2.608214	0.000495	4.954302	0.839281	0.000050
 369	3.6616e+01	3.6599	-2.562185	0.000463	4.626745	0.783792	0.000046
 370	3.6715e+01	3.6688	-2.520636	0.000418	4.176354	0.707493	0.000042
 371	3.6815e+01	3.6800	-2.470533	0.000504	5.036191	0.853154	0.000050
 372	3.6914e+01	3.6871	-2.427762	0.000430	4.299187	0.728302	0.000043
 373	3.7014e+01	3.6976	-2.386620	0.000414	4.135409	0.700557	0.000041
 374	3.7114e+01	3.7063	-2.341812	0.000450	4.503911	0.762983	0.000045
 375	3.7213e+01	3.7181	-2.297005	0.000450	4.503911	0.762983	0.000045
 376	3.7313e+01	3.7261	-2.250160	0.000471	4.708634	0.797664	0.000047
 377	3.7412e+01	3.7334	-2.210648	0.000397	3.971630	0.672812	0.000040
 378	3.7511e+01	3.7489	-2.162989	0.000479	4.790523	0.811537	0.000048
 379	3.7611e+01	3.7579	-2.119403	0.000438	4.381077	0.742174	0.000044
 380	3.7711e+01	3.7675	-2.078262	0.000414	4.135409	0.700557	0.000041
 381	3.7810e+01	3.7783	-2.027751	0.000508	5.077136	0.860090	0.000051
 382	3.7910e+01	3.7850	-1.989054	0.000389	3.889741	0.658940	0.000039
 383	3.8009e+01	3.7962	-1.945061	0.000442	4.422021	0.749111	0.000044
 384	3.8108e+01	3.8073	-1.896994	0.000483	4.831468	0.818473	0.000048
 385	3.8208e+01	3.8168	-1.854223	0.000430	4.299187	0.728302	0.000043
 386	3.8307e+01	3.8264	-1.810230	0.000442	4.422021	0.749111	0.000044
 387	3.8407e+01	3.8358	-1.765423	0.000450	4.503911	0.762983	0.000045
 388	3.8507e+01	3.8473	-1.719393	0.000463	4.626745	0.783792	0.000046
 389	3.8606e+01	3.8552	-1.675807	0.000438	4.381077	0.742174	0.000044
 390	3.8706e+01	3.8657	-1.631407	0.000446	4.462966	0.756047	0.000045
 391	3.8805e+01	3.8782	-1.586192	0.000454	4.544855	0.769919	0.000045
 392	3.8904e+01	3.8860	-1.542199	0.000442	4.422021	0.749111	0.000044
 393	3.9004e+01	3.8953	-1.496984	0.000454	4.544855	0.769919	0.000045
 394	3.9103e+01	3.9056	-1.451362	0.000459	4.585800	0.776856	0.000046
 395	3.9203e+01	3.9196	-1.408591	0.000430	4.299187	0.728302	0.000043
 396	3.9303e+01	3.9268	-1.360931	0.000479	4.790523	0.811537	0.000048
 397	3.9402e+01	3.9346	-1.316531	0.000446	4.462966	0.756047	0.000045
 398	3.9502e+01	3.9458	-1.272131	0.000446	4.462966	0.756047	0.000045
 399	3.9601e+01	3.9555	-1.227730	0.000446	4.462966	0.756047	0.000045
 400	3.9700e+01	3.9669	-1.184145	0.000438	4.381077	0.742174	0.000044
 401	3.9800e+01	3.9742	-1.137708	0.000467	4.667689	0.790728	0.000047
 402	3.9900e+01	3.9852	-1.096159	0.000418	4.176354	0.707493	0.000042
 403	3.9999e+01	3.9954	-1.055425	0.000409	4.094464	0.693621	0.000041
 404	4.0099e+01	4.0047	-1.008173	0.000475	4.749579	0.804600	0.000047
 405	4.0198e+01	4.0147	-0.966624	0.000418	4.176354	0.707493	0.000042
 406	4.0297e+01	4.0263	-0.925075	0.000418	4.176354	0.707493	0.000042
 407	4.0397e+01	4.0347	-0.885155	0.000401	4.012575	0.679749	0.000040
 408	4.0496e+01	4.0449	-0.837089	0.000483	4.831468	0.818473	0.000048
 409	4.0596e+01	4.0538	-0.800835	0.000364	3.644073	0.617323	0.000036
 410	4.0696e+01	4.0659	-0.756842	0.000442	4.422021	0.749111	0.000044
 411	4.0795e+01	4.0768	-0.714071	0.000430	4.299187	0.728302	0.000043
 412	4.0895e+01	4.0838	-0.670486	0.000438	4.381077	0.742174	0.000044
 413	4.0994e+01	4.0954	-0.624863	0.000459	4.585800	0.776856	0.000046
 414	4.1093e+01	4.1076	-0.582500	0.000426	4.258243	0.721366	0.000043
 415	4.1193e+01	4.1134	-0.543802	0.000389	3.889741	0.658940	0.000039
 416	4.1292e+01	4.1248	-0.502253	0.000418	4.176354	0.707493	0.000042
 417	4.1392e+01	4.1338	-0.460297	0.000422	4.217298	0.714430	0.000042
 418	4.1492e+01	4.1448	-0.419970	0.000405	4.053520	0.686685	0.000041
 419	4.1591e+01	4.1537	-0.377199	0.000430	4.299187	0.728302	0.000043
 420	4.1691e+01	4.1670	-0.331169	0.000463	4.626745	0.783792	0.000046
 421	4.1790e+01	4.1745	-0.287176	0.000442	4.422021	0.749111	0.000044
 422	4.1889e+01	4.1839	-0.248479	0.000389	3.889741	0.658940	0.000039
 423	4.1989e+01	4.1965	-0.203671	0.000450	4.503911	0.762983	0.000045
 424	4.2089e+01	4.2034	-0.155198	0.000487	4.872412	0.825409	0.000049
 425	4.2188e+01	4.2159	-0.110797	0.000446	4.462966	0.756047	0.000045
 426	4.2288e+01	4.2254	-0.062731	0.000483	4.831468	0.818473	0.000048
 427	4.2387e+01	4.2349	-0.018330	0.000446	4.462966	0.756047	0.000045
 428	4.2486e+01	4.2458	0.030958	0.000495	4.954302	0.839281	0.000050
 429	4.2586e+01	4.2531	0.071692	0.000409	4.094464	0.693621	0.000041
 430	4.2685e+01	4.2648	0.113649	0.000422	4.217298	0.714430	0.000042
 431	4.2785e+01	4.2748	0.162937	0.000495	4.954302	0.839281	0.000050
 432	4.2885e+01	4.2831	0.203671	0.000409	4.094464	0.693621	0.000041
 433	4.2984e+01	4.2956	0.252145	0.000487	4.872412	0.825409	0.000049
 434	4.3084e+01	4.3055	0.301841	0.000500	4.995246	0.846218	0.000050
 435	4.3183e+01	4.3176	0.344612	0.000430	4.299187	0.728302	0.000043
 436	4.3282e+01	4.3259	0.392678	0.000483	4.831468	0.818473	0.000048
 437	4.3382e+01	4.3372	0.435449	0.000430	4.299187	0.728302	0.000043
 438	4.3481e+01	4.3458	0.484738	0.000495	4.954302	0.839281	0.000050
 439	4.3581e+01	4.3537	0.527101	0.000426	4.258243	0.721366	0.000043
 440	4.3681e+01	4.3644	0.569872	0.000430	4.299187	0.728302	0.000043
 441	4.3780e+01	4.3747	0.617531	0.000479	4.790523	0.811537	0.000048
 442	4.3880e+01	4.3826	0.660302	0.000430	4.299187	0.728302	0.000043
 443	4.3979e+01	4.3942	0.702666	0.000426	4.258243	0.721366	0.000043
 444	4.4078e+01	4.4045	0.748288	0.000459	4.585800	0.776856	0.000046
 445	4.4178e+01	4.4132	0.791467	0.000434	4.340132	0.735238	0.000043
 446	4.4278e+01	4.4259	0.833016	0.000418	4.176354	0.707493	0.000042
 447	4.4377e+01	4.4342	0.878231	0.000454	4.544855	0.769919	0.000045
 448	4.4477e+01	4.4421	0.923038	0.000450	4.503911	0.762983	0.000045
 449	4.4576e+01	4.4547	0.965809	0.000430	4.299187	0.728302	0.000043
 450	4.4675e+01	4.4650	1.007765	0.000422	4.217298	0.714430	0.000042
 451	4.4775e+01	4.4738	1.055017	0.000475	4.749579	0.804600	0.000047
 452	4.4874e+01	4.4843	1.094937	0.000401	4.012575	0.679749	0.000040
 453	4.4974e+01	4.4922	1.139337	0.000446	4.462966	0.756047	0.000045
 454	4.5074e+01	4.4991	1.182923	0.000438	4.381077	0.742174	0.000044
 455	4.5173e+01	4.5131	1.225694	0.000430	4.299187	0.728302	0.000043
 456	4.5273e+01	4.5245	1.266021	0.000405	4.053520	0.686685	0.000041
 457	4.5372e+01	4.5335	1.308384	0.000426	4.258243	0.721366	0.000043
 458	4.5471e+01	4.5434	1.355229	0.000471	4.708634	0.797664	0.000047
 459	4.5571e+01	4.5543	1.400036	0.000450	4.503911	0.762983	0.000045
 460	4.5670e+01	4.5640	1.439956	0.000401	4.012575	0.679749	0.000040
 461	4.5770e+01	4.5737	1.483134	0.000434	4.340132	0.735238	0.000043
 462	4.5870e+01	4.5824	1.527535	0.000446	4.462966	0.756047	0.000045
 463	4.5969e+01	4.5930	1.569898	0.000426	4.258243	0.721366	0.000043
 464	4.6069e+01	4.6028	1.615521	0.000459	4.585800	0.776856	0.000046
 465	4.6168e+01	4.6138	1.655847	0.000405	4.053520	0.686685	0.000041
 466	4.6267e+01	4.6253	1.699026	0.000434	4.340132	0.735238	0.000043
 467	4.6367e+01	4.6322	1.740982	0.000422	4.217298	0.714430	0.000042
 468	4.6467e+01	4.6449	1.785790	0.000450	4.503911	0.762983	0.000045
 469	4.6566e+01	4.6531	1.827339	0.000418	4.176354	0.707493	0.000042
 470	4.6666e+01	4.6619	1.869702	0.000426	4.258243	0.721366	0.000043
 471	4.6765e+01	4.6752	1.916547	0.000471	4.708634	0.797664	0.000047
 472	4.6864e+01	4.6827	1.955652	0.000393	3.930686	0.665876	0.000039
 473	4.6964e+01	4.6914	1.999237	0.000438	4.381077	0.742174	0.000044
 474	4.7063e+01	4.7047	2.041194	0.000422	4.217298	0.714430	0.000042
 475	4.7163e+01	4.7139	2.082335	0.000414	4.135409	0.700557	0.000041
 476	4.7263e+01	4.7226	2.124291	0.000422	4.217298	0.714430	0.000042
 477	4.7362e+01	4.7336	2.164211	0.000401	4.012575	0.679749	0.000040
 478	4.7462e+01	4.7427	2.208611	0.000446	4.462966	0.756047	0.000045
 479	4.7561e+01	4.7527	2.253012	0.000446	4.462966	0.756047	0.000045
 480	4.7660e+01	4.7621	2.290080	0.000373	3.725962	0.631195	0.000037
 481	4.7760e+01	4.7740	2.331629	0.000418	4.176354	0.707493	0.000042
 482	4.7859e+01	4.7820	2.373178	0.000418	4.176354	0.707493	0.000042
 483	4.7959e+01	4.7925	2.417578	0.000446	4.462966	0.756047	0.000045
 484	4.8059e+01	4.8020	2.455868	0.000385	3.848796	0.652004	0.000038
 485	4.8158e+01	4.8138	2.500269	0.000446	4.462966	0.756047	0.000045
 486	4.8258e+01	4.8212	2.544669	0.000446	4.462966	0.756047	0.000045
 487	4.8357e+01	4.8325	2.589884	0.000454	4.544855	0.769919	0.000045
 488	4.8456e+01	4.8422	2.628989	0.000393	3.930686	0.665876	0.000039
 489	4.8556e+01	4.8508	2.671760	0.000430	4.299187	0.728302	0.000043
 490	4.8656e+01	4.8616	2.716975	0.000454	4.544855	0.769919	0.000045
 491	4.8755e+01	4.8730	2.756487	0.000397	3.971630	0.672812	0.000040
 492	4.8855e+01	4.8817	2.802109	0.000459	4.585800	0.776856	0.000046
 493	4.8954e+01	4.8920	2.847732	0.000459	4.585800	0.776856	0.000046
 494	4.9053e+01	4.8998	2.889281	0.000418	4.176354	0.707493	0.000042
 495	4.9153e+01	4.9118	2.930422	0.000414	4.135409	0.700557	0.000041
 496	4.9252e+01	4.9223	2.974008	0.000438	4.381077	0.742174	0.000044
 497	4.9352e+01	4.9297	3.013113	0.000393	3.930686	0.665876	0.000039
 498	4.9452e+01	4.9438	3.058735	0.000459	4.585800	0.776856	0.000046
 499	4.9551e+01	4.9508	3.102321	0.000438	4.381077	0.742174	0.000044
 500	4.9651e+01	4.9635	3.145499	0.000434	4.340132	0.735238	0.000043
 501	4.9750e+01	4.9697	3.190714	0.000454	4.544855	0.769919	0.000045
 502	4.9849e+01	4.9839	3.232670	0.000422	4.217298	0.714430	0.000042
 503	4.9949e+01	4.9903	3.272590	0.000401	4.012575	0.679749	0.000040
 504	5.0048e+01	5.0027	3.317398	0.000450	4.503911	0.762983	0.000045
 505	5.0148e+01	5.0115	3.356095	0.000389	3.889741	0.658940	0.000039
 506	5.0248e+01	5.0199	3.399274	0.000434	4.340132	0.735238	0.000043
 507	5.0347e+01	5.0320	3.436749	0.000377	3.766907	0.638131	0.000038
 508	5.0447e+01	5.0384	3.479927	0.000434	4.340132	0.735238	0.000043
 509	5.0546e+01	5.0504	3.517403	0.000377	3.766907	0.638131	0.000038
 510	5.0645e+01	5.0607	3.550805	0.000336	3.357461	0.568769	0.000034
 511	5.0745e+01	5.0719	3.590317	0.000397	3.971630	0.672812	0.000040
 512	5.0844e+01	5.0799	3.630237	0.000401	4.012575	0.679749	0.000040
 513	5.0944e+01	5.0896	3.673008	0.000430	4.299187	0.728302	0.000043
 514	5.1044e+01	5.1002	3.715371	0.000426	4.258243	0.721366	0.000043
 515	5.1143e+01	5.1097	3.752032	0.000369	3.685018	0.624259	0.000037
 516	5.1242e+01	5.1168	3.787471	0.000356	3.562184	0.603450	0.000036
 517	5.1342e+01	5.1308	3.827391	0.000401	4.012575	0.679749	0.000040
 518	5.1441e+01	5.1391	3.866903	0.000397	3.971630	0.672812	0.000040
 519	5.1541e+01	5.1507	3.902342	0.000356	3.562184	0.603450	0.000036
 520	5.1641e+01	5.1583	3.945927	0.000438	4.381077	0.742174	0.000044
 521	5.1740e+01	5.1733	3.979329	0.000336	3.357461	0.568769	0.000034
 522	5.1840e+01	5.1806	4.019656	0.000405	4.053520	0.686685	0.000041
 523	5.1939e+01	5.1891	4.055910	0.000364	3.644073	0.617323	0.000036
 524	5.2038e+01	5.1994	4.099495	0.000438	4.381077	0.742174	0.000044
 525	5.2138e+01	5.2093	4.136564	0.000373	3.725962	0.631195	0.000037
 526	5.2237e+01	5.2210	4.175261	0.000389	3.889741	0.658940	0.000039
 527	5.2337e+01	5.2293	4.219254	0.000442	4.422021	0.749111	0.000044
 528	5.2437e+01	5.2394	4.255915	0.000369	3.685018	0.624259	0.000037
 529	5.2536e+01	5.2493	4.297464	0.000418	4.176354	0.707493	0.000042
 530	5.2636e+01	5.2590	4.332903	0.000356	3.562184	0.603450	0.000036
 531	5.2735e+01	5.2715	4.375266	0.000426	4.258243	0.721366	0.000043
 532	5.2834e+01	5.2789	4.415593	0.000405	4.053520	0.686685	0.000041
 533	5.2934e+01	5.2877	4.455513	0.000401	4.012575	0.679749	0.000040
 534	5.3033e+01	5.3023	4.497469	0.000422	4.217298	0.714430	0.000042
 535	5.3133e+01	5.3087	4.530871	0.000336	3.357461	0.568769	0.000034
 536	5.3233e+01	5.3223	4.574457	0.000438	4.381077	0.742174	0.000044
 537	5.3332e+01	5.3307	4.615191	0.000409	4.094464	0.693621	0.000041
 538	5.3431e+01	5.3420	4.655925	0.000409	4.094464	0.693621	0.000041
 539	5.3531e+01	5.3517	4.693808	0.000381	3.807852	0.645068	0.000038
 540	5.3630e+01	5.3586	4.732506	0.000389	3.889741	0.658940	0.000039
 541	5.3730e+01	5.3695	4.772425	0.000401	4.012575	0.679749	0.000040
 542	5.3830e+01	5.3777	4.813160	0.000409	4.094464	0.693621	0.000041
 543	5.3929e+01	5.3898	4.851450	0.000385	3.848796	0.652004	0.000038
 544	5.4029e+01	5.3997	4.888111	0.000369	3.685018	0.624259	0.000037
 545	5.4128e+01	5.4090	4.930067	0.000422	4.217298	0.714430	0.000042
 546	5.4227e+01	5.4168	4.967950	0.000381	3.807852	0.645068	0.000038
 547	5.4327e+01	5.4287	5.009906	0.000422	4.217298	0.714430	0.000042
 548	5.4426e+01	5.4386	5.046974	0.000373	3.725962	0.631195	0.000037
 549	5.4526e+01	5.4477	5.086486	0.000397	3.971630	0.672812	0.000040
 550	5.4626e+01	5.4591	5.126813	0.000405	4.053520	0.686685	0.000041
 551	5.4725e+01	5.4691	5.166326	0.000397	3.971630	0.672812	0.000040
 552	5.4825e+01	5.4774	5.206652	0.000405	4.053520	0.686685	0.000041
 553	5.4924e+01	5.4871	5.244943	0.000385	3.848796	0.652004	0.000038
 554	5.5023e+01	5.4987	5.286084	0.000414	4.135409	0.700557	0.000041
 555	5.5123e+01	5.5083	5.328041	0.000422	4.217298	0.714430	0.000042
 556	5.5222e+01	5.5172	5.366331	0.000385	3.848796	0.652004	0.000038
 557	5.5322e+01	5.5242	5.400548	0.000344	3.439350	0.582642	0.000034
 558	5.5422e+01	5.5379	5.444948	0.000446	4.462966	0.756047	0.000045
 559	5.5521e+01	5.5486	5.483645	0.000389	3.889741	0.658940	0.000039
 560	5.5620e+01	5.5553	5.521528	0.000381	3.807852	0.645068	0.000038
 561	5.5720e+01	5.5668	5.567965	0.000467	4.667689	0.790728	0.000047
 562	5.5819e+01	5.5792	5.602182	0.000344	3.439350	0.582642	0.000034
 563	5.5919e+01	5.5862	5.644138	0.000422	4.217298	0.714430	0.000042
 564	5.6019e+01	5.5965	5.682836	0.000389	3.889741	0.658940	0.000039
 565	5.6118e+01	5.6059	5.721533	0.000389	3.889741	0.658940	0.000039
 566	5.6218e+01	5.6179	5.761453	0.000401	4.012575	0.679749	0.000040
 567	5.6317e+01	5.6273	5.804631	0.000434	4.340132	0.735238	0.000043
 568	5.6416e+01	5.6350	5.841700	0.000373	3.725962	0.631195	0.000037
 569	5.6516e+01	5.6469	5.878360	0.000369	3.685018	0.624259	0.000037
 570	5.6615e+01	5.6577	5.919095	0.000409	4.094464	0.693621	0.000041
 571	5.6715e+01	5.6683	5.958200	0.000393	3.930686	0.665876	0.000039
 572	5.6815e+01	5.6774	5.994453	0.000364	3.644073	0.617323	0.000036
 573	5.6914e+01	5.6877	6.031521	0.000373	3.725962	0.631195	0.000037
 574	5.7014e+01	5.6980	6.071033	0.000397	3.971630	0.672812	0.000040
 575	5.7113e+01	5.7104	6.110138	0.000393	3.930686	0.665876	0.000039
 576	5.7212e+01	5.7172	6.146799	0.000369	3.685018	0.624259	0.000037
 577	5.7312e+01	5.7281	6.182645	0.000360	3.603129	0.610387	0.000036
 578	5.7411e+01	5.7355	6.219306	0.000369	3.685018	0.624259	0.000037
 579	5.7511e+01	5.7467	6.258411	0.000393	3.930686	0.665876	0.000039
 580	5.7611e+01	5.7601	6.295479	0.000373	3.725962	0.631195	0.000037
 581	5.7710e+01	5.7662	6.334177	0.000389	3.889741	0.658940	0.000039
 582	5.7809e+01	5.7745	6.372060	0.000381	3.807852	0.645068	0.000038
 583	5.7909e+01	5.7858	6.407091	0.000352	3.521239	0.596514	0.000035
 584	5.8008e+01	5.7973	6.447011	0.000401	4.012575	0.679749	0.000040
 585	5.8108e+01	5.8062	6.481227	0.000344	3.439350	0.582642	0.000034
 586	5.8208e+01	5.8201	6.520332	0.000393	3.930686	0.665876	0.000039
 587	5.8307e+01	5.8294	6.558215	0.000381	3.807852	0.645068	0.000038
 588	5.8407e+01	5.8360	6.594469	0.000364	3.644073	0.617323	0.000036
 589	5.8506e+01	5.8468	6.633981	0.000397	3.971630	0.672812	0.000040
 590	5.8605e+01	5.8570	6.672678	0.000389	3.889741	0.658940	0.000039
 591	5.8705e+01	5.8648	6.714635	0.000422	4.217298	0.714430	0.000042
 592	5.8804e+01	5.8785	6.754962	0.000405	4.053520	0.686685	0.000041
 593	5.8904e+01	5.8845	6.798140	0.000434	4.340132	0.735238	0.000043
 594	5.9004e+01	5.8941	6.836837	0.000389	3.889741	0.658940	0.000039
 595	5.9103e+01	5.9054	6.877979	0.000414	4.135409	0.700557	0.000041
 596	5.9203e+01	5.9173	6.921157	0.000434	4.340132	0.735238	0.000043
 597	5.9302e+01	5.9262	6.957411	0.000364	3.644073	0.617323	0.000036
 598	5.9401e+01	5.9347	6.998960	0.000418	4.176354	0.707493	0.000042
 599	5.9501e+01	5.9470	7.039287	0.000405	4.053520	0.686685	0.000041
 600	5.9600e+01	5.9565	7.079614	0.000405	4.053520	0.686685	0.000041
 601	5.9700e+01	5.9664	7.122792	0.000434	4.340132	0.735238	0.000043
 602	5.9800e+01	5.9795	7.161082	0.000385	3.848796	0.652004	0.000038
 603	5.9899e+01	5.9852	7.208334	0.000475	4.749579	0.804600	0.000047
 604	5.9998e+01	5.9939	7.242958	0.000348	3.480295	0.589578	0.000035
 605	6.0098e+01	6.0098	7.287358	0.000446	4.462966	0.756047	0.000045
 606	6.0197e+01	6.0160	7.325648	0.000385	3.848796	0.652004	0.000038
 607	6.0297e+01	6.0246	7.370456	0.000450	4.503911	0.762983	0.000045
 608	6.0397e+01	6.0364	7.407117	0.000369	3.685018	0.624259	0.000037
 609	6.0496e+01	6.0453	7.449073	0.000422	4.217298	0.714430	0.000042
 610	6.0596e+01	6.0534	7.488585	0.000397	3.971630	0.672812	0.000040
 611	6.0695e+01	6.0668	7.526876	0.000385	3.848796	0.652004	0.000038
 612	6.0794e+01	6.0764	7.566388	0.000397	3.971630	0.672812	0.000040
 613	6.0894e+01	6.0848	7.607122	0.000409	4.094464	0.693621	0.000041
 614	6.0993e+01	6.0964	7.642561	0.000356	3.562184	0.603450	0.000036
 615	6.1093e+01	6.1057	7.681258	0.000389	3.889741	0.658940	0.000039
 616	6.1193e+01	6.1160	7.721585	0.000405	4.053520	0.686685	0.000041
 617	6.1292e+01	6.1230	7.761505	0.000401	4.012575	0.679749	0.000040
 618	6.1392e+01	6.1324	7.801017	0.000397	3.971630	0.672812	0.000040
 619	6.1491e+01	6.1449	7.840937	0.000401	4.012575	0.679749	0.000040
 620	6.1590e+01	6.1538	7.878820	0.000381	3.807852	0.645068	0.000038
 621	6.1690e+01	6.1670	7.915480	0.000369	3.685018	0.624259	0.000037
 622	6.1789e+01	6.1745	7.955400	0.000401	4.012575	0.679749	0.000040
 623	6.1889e+01	6.1858	7.992468	0.000373	3.725962	0.631195	0.000037
 624	6.1989e+01	6.1950	8.032795	0.000405	4.053520	0.686685	0.000041
 625	6.2088e+01	6.2063	8.073122	0.000405	4.053520	0.686685	0.000041
 626	6.2188e+01	6.2170	8.108153	0.000352	3.521239	0.596514	0.000035
 627	6.2287e+01	6.2266	8.148888	0.000409	4.094464	0.693621	0.000041
 628	6.2386e+01	6.2354	8.187178	0.000385	3.848796	0.652004	0.000038
 629	6.2486e+01	6.2435	8.225061	0.000381	3.807852	0.645068	0.000038
 630	6.2586e+01	6.2530	8.262944	0.000381	3.807852	0.645068	0.000038
 631	6.2685e+01	6.2646	8.308159	0.000454	4.544855	0.769919	0.000045
 632	6.2785e+01	6.2754	8.344412	0.000364	3.644073	0.617323	0.000036
 633	6.2884e+01	6.2844	8.380258	0.000360	3.603129	0.610387	0.000036
 634	6.2983e+01	6.2936	8.418956	0.000389	3.889741	0.658940	0.000039
 635	6.3083e+01	6.3046	8.456024	0.000373	3.725962	0.631195	0.000037
 636	6.3182e+01	6.3131	8.490648	0.000348	3.480295	0.589578	0.000035
 637	6.3282e+01	6.3259	8.530568	0.000401	4.012575	0.679749	0.000040
 638	6.3382e+01	6.3340	8.567229	0.000369	3.685018	0.624259	0.000037
 639	6.3481e+01	6.3429	8.607963	0.000409	4.094464	0.693621	0.000041
 640	6.3581e+01	6.3550	8.645846	0.000381	3.807852	0.645068	0.000038
 641	6.3680e+01	6.3622	8.686987	0.000414	4.135409	0.700557	0.000041
 642	6.3779e+01	6.3730	8.720389	0.000336	3.357461	0.568769	0.000034
 643	6.3879e+01	6.3842	8.757458	0.000373	3.725962	0.631195	0.000037
 644	6.3978e+01	6.3960	8.797784	0.000405	4.053520	0.686685	0.000041
 645	6.4078e+01	6.4028	8.834445	0.000369	3.685018	0.624259	0.000037
 646	6.4177e+01	6.4169	8.871513	0.000373	3.725962	0.631195	0.000037
 647	6.4277e+01	6.4223	8.911026	0.000397	3.971630	0.672812	0.000040
 648	6.4376e+01	6.4339	8.943206	0.000323	3.234627	0.547961	0.000032
 649	6.4476e+01	6.4422	8.984755	0.000418	4.176354	0.707493	0.000042
 650	6.4576e+01	6.4535	9.018971	0.000344	3.439350	0.582642	0.000034
 651	6.4675e+01	6.4648	9.058484	0.000397	3.971630	0.672812	0.000040
 652	6.4775e+01	6.4749	9.096367	0.000381	3.807852	0.645068	0.000038
 653	6.4874e+01	6.4845	9.137101	0.000409	4.094464	0.693621	0.000041
 654	6.4974e+01	6.4942	9.174984	0.000381	3.807852	0.645068	0.000038
 655	6.5073e+01	6.5039	9.213681	0.000389	3.889741	0.658940	0.000039
 656	6.5172e+01	6.5113	9.248305	0.000348	3.480295	0.589578	0.000035
 657	6.5272e+01	6.5215	9.289447	0.000414	4.135409	0.700557	0.000041
 658	6.5371e+01	6.5304	9.327330	0.000381	3.807852	0.645068	0.000038
 659	6.5471e+01	6.5434	9.368471	0.000414	4.135409	0.700557	0.000041
 660	6.5570e+01	6.5519	9.405132	0.000369	3.685018	0.624259	0.000037
 661	6.5670e+01	6.5626	9.441386	0.000364	3.644073	0.617323	0.000036
 662	6.5769e+01	6.5730	9.482527	0.000414	4.135409	0.700557	0.000041
 663	6.5869e+01	6.5823	9.524891	0.000426	4.258243	0.721366	0.000043
 664	6.5969e+01	6.5945	9.562774	0.000381	3.807852	0.645068	0.000038
 665	6.6068e+01	6.6016	9.598213	0.000356	3.562184	0.603450	0.000036
 666	6.6168e+01	6.6109	9.639761	0.000418	4.176354	0.707493	0.000042
 667	6.6267e+01	6.6222	9.680903	0.000414	4.135409	0.700557	0.000041
 668	6.6367e+01	6.6323	9.715120	0.000344	3.439350	0.582642	0.000034
 669	6.6466e+01	6.6421	9.759520	0.000446	4.462966	0.756047	0.000045
 670	6.6566e+01	6.6508	9.795366	0.000360	3.603129	0.610387	0.000036
 671	6.6665e+01	6.6619	9.833249	0.000381	3.807852	0.645068	0.000038
 672	6.6764e+01	6.6699	9.876020	0.000430	4.299187	0.728302	0.000043
 673	6.6864e+01	6.6803	9.910237	0.000344	3.439350	0.582642	0.000034
 674	6.6963e+01	6.6904	9.944861	0.000348	3.480295	0.589578	0.000035
 675	6.7063e+01	6.7019	9.977856	0.000332	3.316516	0.561833	0.000033
 676	6.7162e+01	6.7123	10.014924	0.000373	3.725962	0.631195	0.000037
 677	6.7262e+01	6.7214	10.049141	0.000344	3.439350	0.582642	0.000034
 678	6.7362e+01	6.7303	10.084987	0.000360	3.603129	0.610387	0.000036
 679	6.7461e+01	6.7461	10.117982	0.000332	3.316516	0.561833	0.000033
 680	6.7561e+01	6.7500	10.155050	0.000373	3.725962	0.631195	0.000037
 681	6.7660e+01	6.7653	10.188859	0.000340	3.398405	0.575705	0.000034
 682	6.7760e+01	6.7722	10.225927	0.000373	3.725962	0.631195	0.000037
 683	6.7859e+01	6.7800	10.260959	0.000352	3.521239	0.596514	0.000035
 684	6.7959e+01	6.7912	10.293954	0.000332	3.316516	0.561833	0.000033
 685	6.8058e+01	6.8012	10.328985	0.000352	3.521239	0.596514	0.000035
 686	6.8157e+01	6.8114	10.364424	0.000356	3.562184	0.603450	0.000036
 687	6.8257e+01	6.8209	10.400677	0.000364	3.644073	0.617323	0.000036
 688	6.8356e+01	6.8308	10.431228	0.000307	3.070848	0.520216	0.000031
 689	6.8456e+01	6.8435	10.467482	0.000364	3.644073	0.617323	0.000036
 690	6.8555e+01	6.8510	10.498440	0.000311	3.111793	0.527152	0.000031
 691	6.8655e+01	6.8616	10.533878	0.000356	3.562184	0.603450	0.000036
 692	6.8754e+01	6.8690	10.572169	0.000385	3.848796	0.652004	0.000038
 693	6.8854e+01	6.8806	10.606385	0.000344	3.439350	0.582642	0.000034
 694	6.8954e+01	6.8892	10.643861	0.000377	3.766907	0.638131	0.000038
 695	6.9053e+01	6.8977	10.680522	0.000369	3.685018	0.624259	0.000037
 696	6.9153e+01	6.9109	10.713924	0.000336	3.357461	0.568769	0.000034
 697	6.9252e+01	6.9190	10.752214	0.000385	3.848796	0.652004	0.000038
 698	6.9352e+01	6.9318	10.786023	0.000340	3.398405	0.575705	0.000034
 699	6.9451e+01	6.9424	10.822277	0.000364	3.644073	0.617323	0.000036
 700	6.9550e+01	6.9500	10.855272	0.000332	3.316516	0.561833	0.000033
 701	6.9650e+01	6.9603	10.893969	0.000389	3.889741	0.658940	0.000039
 702	6.9749e+01	6.9698	10.926964	0.000332	3.316516	0.561833	0.000033
 703	6.9849e+01	6.9769	10.962403	0.000356	3.562184	0.603450	0.000036
 704	6.9948e+01	6.9894	11.002322	0.000401	4.012575	0.679749	0.000040
 705	7.0048e+01	7.0007	11.036946	0.000348	3.480295	0.589578	0.000035
 706	7.0147e+01	7.0116	11.070349	0.000336	3.357461	0.568769	0.000034
 707	7.0247e+01	7.0205	11.104973	0.000348	3.480295	0.589578	0.000035
 708	7.0347e+01	7.0301	11.144078	0.000393	3.930686	0.665876	0.000039
 709	7.0446e+01	7.0394	11.176665	0.000328	3.275571	0.554897	0.000033
 710	7.0546e+01	7.0477	11.214140	0.000377	3.766907	0.638131	0.000038
 711	7.0645e+01	7.0623	11.247135	0.000332	3.316516	0.561833	0.000033
 712	7.0745e+01	7.0675	11.285018	0.000381	3.807852	0.645068	0.000038
 713	7.0844e+01	7.0821	11.322494	0.000377	3.766907	0.638131	0.000038
 714	7.0944e+01	7.0900	11.355488	0.000332	3.316516	0.561833	0.000033
 715	7.1043e+01	7.1024	11.392149	0.000369	3.685018	0.624259	0.000037
 716	7.1142e+01	7.1086	11.427181	0.000352	3.521239	0.596514	0.000035
 717	7.1242e+01	7.1230	11.465063	0.000381	3.807852	0.645068	0.000038
 718	7.1341e+01	7.1284	11.497651	0.000328	3.275571	0.554897	0.000033
 719	7.1441e+01	7.1406	11.535941	0.000385	3.848796	0.652004	0.000038
 720	7.1540e+01	7.1481	11.570973	0.000352	3.521239	0.596514	0.000035
 721	7.1640e+01	7.1584	11.603967	0.000332	3.316516	0.561833	0.000033
 722	7.1740e+01	7.1671	11.639406	0.000356	3.562184	0.603450	0.000036
 723	7.1839e+01	7.1798	11.679326	0.000401	4.012575	0.679749	0.000040
 724	7.1939e+01	7.1889	11.715579	0.000364	3.644073	0.617323	0.000036
 725	7.2038e+01	7.1986	11.751425	0.000360	3.603129	0.610387	0.000036
 726	7.2138e+01	7.2110	11.784013	0.000328	3.275571	0.554897	0.000033
 727	7.2237e+01	7.2200	11.819451	0.000356	3.562184	0.603450	0.000036
 728	7.2337e+01	7.2298	11.857334	0.000381	3.807852	0.645068	0.000038
 729	7.2436e+01	7.2430	11.893995	0.000369	3.685018	0.624259	0.000037
 730	7.2535e+01	7.2472	11.930656	0.000369	3.685018	0.624259	0.000037
 731	7.2635e+01	7.2584	11.966909	0.000364	3.644073	0.617323	0.000036
 732	7.2734e+01	7.2684	12.001126	0.000344	3.439350	0.582642	0.000034
 733	7.2834e+01	7.2767	12.036565	0.000356	3.562184	0.603450	0.000036
 734	7.2933e+01	7.2887	12.073633	0.000373	3.725962	0.631195	0.000037
 735	7.3033e+01	7.3000	12.108257	0.000348	3.480295	0.589578	0.000035
 736	7.3132e+01	7.3136	12.145326	0.000373	3.725962	0.631195	0.000037
 737	7.3232e+01	7.3198	12.180357	0.000352	3.521239	0.596514	0.000035
 738	7.3332e+01	7.3292	12.215796	0.000356	3.562184	0.603450	0.000036
 739	7.3431e+01	7.3385	12.248383	0.000328	3.275571	0.554897	0.000033
 740	7.3531e+01	7.3504	12.283415	0.000352	3.521239	0.596514	0.000035
 741	7.3630e+01	7.3595	12.318039	0.000348	3.480295	0.589578	0.000035
 742	7.3730e+01	7.3694	12.353885	0.000360	3.603129	0.610387	0.000036
 743	7.3829e+01	7.3780	12.383621	0.000299	2.988959	0.506343	0.000030
 744	7.3928e+01	7.3864	12.420689	0.000373	3.725962	0.631195	0.000037
 745	7.4028e+01	7.3984	12.453276	0.000328	3.275571	0.554897	0.000033
 746	7.4127e+01	7.4081	12.488715	0.000356	3.562184	0.603450	0.000036
 747	7.4227e+01	7.4171	12.523747	0.000352	3.521239	0.596514	0.000035
 748	7.4326e+01	7.4272	12.558371	0.000348	3.480295	0.589578	0.000035
 749	7.4426e+01	7.4349	12.591366	0.000332	3.316516	0.561833	0.000033
 750	7.4525e+01	7.4474	12.625175	0.000340	3.398405	0.575705	0.000034
 751	7.4625e+01	7.4566	12.657762	0.000328	3.275571	0.554897	0.000033
 752	7.4725e+01	7.4682	12.689535	0.000319	3.193682	0.541024	0.000032
 753	7.4824e+01	7.4799	12.723345	0.000340	3.398405	0.575705	0.000034
 754	7.4924e+01	7.4874	12.757969	0.000348	3.480295	0.589578	0.000035
 755	7.5023e+01	7.4978	12.791778	0.000340	3.398405	0.575705	0.000034
 756	7.5123e+01	7.5079	12.830068	0.000385	3.848796	0.652004	0.000038
 757	7.5222e+01	7.5159	12.866322	0.000364	3.644073	0.617323	0.000036
 758	7.5322e+01	7.5290	12.900946	0.000348	3.480295	0.589578	0.000035
 759	7.5421e+01	7.5404	12.937199	0.000364	3.644073	0.617323	0.000036
 760	7.5520e+01	7.5483	12.978341	0.000414	4.135409	0.700557	0.000041
 761	7.5620e+01	7.5575	13.013780	0.000356	3.562184	0.603450	0.000036
 762	7.5719e+01	7.5666	13.047589	0.000340	3.398405	0.575705	0.000034
 763	7.5819e+01	7.5777	13.085065	0.000377	3.766907	0.638131	0.000038
 764	7.5918e+01	7.5863	13.124984	0.000401	4.012575	0.679749	0.000040
 765	7.6018e+01	7.5956	13.160423	0.000356	3.562184	0.603450	0.000036
 766	7.6118e+01	7.6103	13.193825	0.000336	3.357461	0.568769	0.000034
 767	7.6217e+01	7.6168	13.231301	0.000377	3.766907	0.638131	0.000038
 768	7.6317e+01	7.6270	13.273257	0.000422	4.217298	0.714430	0.000042
 769	7.6416e+01	7.6374	13.313177	0.000401	4.012575	0.679749	0.000040
 770	7.6516e+01	7.6477	13.347393	0.000344	3.439350	0.582642	0.000034
 771	7.6615e+01	7.6601	13.391794	0.000446	4.462966	0.756047	0.000045
 772	7.6715e+01	7.6687	13.426418	0.000348	3.480295	0.589578	0.000035
 773	7.6814e+01	7.6774	13.461449	0.000352	3.521239	0.596514	0.000035
 774	7.6913e+01	7.6867	13.500147	0.000389	3.889741	0.658940	0.000039
 775	7.7013e+01	7.6963	13.537622	0.000377	3.766907	0.638131	0.000038
 776	7.7112e+01	7.7079	13.573469	0.000360	3.603129	0.610387	0.000036
 777	7.7212e+01	7.7177	13.610944	0.000377	3.766907	0.638131	0.000038
 778	7.7311e+01	7.7264	13.644346	0.000336	3.357461	0.568769	0.000034
 779	7.7411e+01	7.7351	13.680192	0.000360	3.603129	0.610387	0.000036
 780	7.7510e+01	7.7480	13.714409	0.000344	3.439350	0.582642	0.000034
 781	7.7610e+01	7.7576	13.753514	0.000393	3.930686	0.665876	0.000039
 782	7.7710e+01	7.7663	13.790989	0.000377	3.766907	0.638131	0.000038
 783	7.7809e+01	7.7772	13.822762	0.000319	3.193682	0.541024	0.000032
 784	7.7909e+01	7.7854	13.863496	0.000409	4.094464	0.693621	0.000041
 785	7.8008e+01	7.7964	13.893232	0.000299	2.988959	0.506343	0.000030
 786	7.8108e+01	7.8064	13.931115	0.000381	3.807852	0.645068	0.000038
 787	7.8207e+01	7.8163	13.970627	0.000397	3.971630	0.672812	0.000040
 788	7.8306e+01	7.8263	14.000771	0.000303	3.029904	0.513280	0.000030
 789	7.8406e+01	7.8355	14.037024	0.000364	3.644073	0.617323	0.000036
 790	7.8505e+01	7.8448	14.075722	0.000389	3.889741	0.658940	0.000039
 791	7.8605e+01	7.8564	14.108717	0.000332	3.316516	0.561833	0.000033
 792	7.8704e+01	7.8669	14.143748	0.000352	3.521239	0.596514	0.000035
 793	7.8804e+01	7.8771	14.179187	0.000356	3.562184	0.603450	0.000036
 794	7.8903e+01	7.8843	14.215440	0.000364	3.644073	0.617323	0.000036
 795	7.9003e+01	7.8947	14.251694	0.000364	3.644073	0.617323	0.000036
 796	7.9103e+01	7.9037	14.285096	0.000336	3.357461	0.568769	0.000034
 797	7.9202e+01	7.9150	14.325016	0.000401	4.012575	0.679749	0.000040
 798	7.9302e+01	7.9270	14.359232	0.000344	3.439350	0.582642	0.000034
 799	7.9401e+01	7.9374	14.396708	0.000377	3.766907	0.638131	0.000038
 800	7.9501e+01	7.9445	14.429295	0.000328	3.275571	0.554897	0.000033
 801	7.9600e+01	7.9533	14.467178	0.000381	3.807852	0.645068	0.000038
 802	7.9700e+01	7.9675	14.503024	0.000360	3.603129	0.610387	0.000036
 803	7.9799e+01	7.9768	14.539685	0.000369	3.685018	0.624259	0.000037
 804	7.9898e+01	7.9865	14.573494	0.000340	3.398405	0.575705	0.000034
 805	7.9998e+01	7.9945	14.605267	0.000319	3.193682	0.541024	0.000032
 806	8.0097e+01	8.0039	14.642743	0.000377	3.766907	0.638131	0.000038
 807	8.0197e+01	8.0151	14.675330	0.000328	3.275571	0.554897	0.000033
 808	8.0296e+01	8.0258	14.711584	0.000364	3.644073	0.617323	0.000036
 809	8.0396e+01	8.0360	14.747837	0.000364	3.644073	0.617323	0.000036
 810	8.0496e+01	8.0444	14.780424	0.000328	3.275571	0.554897	0.000033
 811	8.0595e+01	8.0563	14.815456	0.000352	3.521239	0.596514	0.000035
 812	8.0695e+01	8.0634	14.850080	0.000348	3.480295	0.589578	0.000035
 813	8.0794e+01	8.0743	14.883482	0.000336	3.357461	0.568769	0.000034
 814	8.0894e+01	8.0841	14.922587	0.000393	3.930686	0.665876	0.000039
 815	8.0993e+01	8.0975	14.956396	0.000340	3.398405	0.575705	0.000034
 816	8.1093e+01	8.1043	14.989391	0.000332	3.316516	0.561833	0.000033
 817	8.1192e+01	8.1168	15.024423	0.000352	3.521239	0.596514	0.000035
 818	8.1291e+01	8.1236	15.059454	0.000352	3.521239	0.596514	0.000035
 819	8.1391e+01	8.1352	15.094078	0.000348	3.480295	0.589578	0.000035
 820	8.1490e+01	8.1416	15.131554	0.000377	3.766907	0.638131	0.000038
 821	8.1590e+01	8.1541	15.161290	0.000299	2.988959	0.506343	0.000030
 822	8.1689e+01	8.1651	15.200395	0.000393	3.930686	0.665876	0.000039
 823	8.1789e+01	8.1748	15.232575	0.000323	3.234627	0.547961	0.000032
 824	8.1888e+01	8.1844	15.268014	0.000356	3.562184	0.603450	0.000036
 825	8.1988e+01	8.1924	15.307526	0.000397	3.971630	0.672812	0.000040
 826	8.2088e+01	8.2027	15.343372	0.000360	3.603129	0.610387	0.000036
 827	8.2187e+01	8.2127	15.377589	0.000344	3.439350	0.582642	0.000034
 828	8.2287e+01	8.2246	15.417916	0.000405	4.053520	0.686685	0.000041
 829	8.2386e+01	8.2339	15.454576	0.000369	3.685018	0.624259	0.000037
 830	8.2486e+01	8.2430	15.489201	0.000348	3.480295	0.589578	0.000035
 831	8.2585e+01	8.2545	15.523417	0.000344	3.439350	0.582642	0.000034
 832	8.2684e+01	8.2625	15.562522	0.000393	3.930686	0.665876	0.000039
 833	8.2784e+01	8.2736	15.595517	0.000332	3.316516	0.561833	0.000033
 834	8.2883e+01	8.2827	15.634622	0.000393	3.930686	0.665876	0.000039
 835	8.2983e+01	8.2943	15.672097	0.000377	3.766907	0.638131	0.000038
 836	8.3082e+01	8.3036	15.710388	0.000385	3.848796	0.652004	0.000038
 837	8.3182e+01	8.3131	15.742568	0.000323	3.234627	0.547961	0.000032
 838	8.3281e+01	8.3236	15.779636	0.000373	3.725962	0.631195	0.000037
 839	8.3381e+01	8.3335	15.812631	0.000332	3.316516	0.561833	0.000033
 840	8.3481e+01	8.3423	15.851328	0.000389	3.889741	0.658940	0.000039
 841	8.3580e+01	8.3547	15.885137	0.000340	3.398405	0.575705	0.000034
 842	8.3680e+01	8.3618	15.916096	0.000311	3.111793	0.527152	0.000031
 843	8.3779e+01	8.3740	15.951127	0.000352	3.521239	0.596514	0.000035
 844	8.3879e+01	8.3817	15.983307	0.000323	3.234627	0.547961	0.000032
 845	8.3978e+01	8.3926	16.014265	0.000311	3.111793	0.527152	0.000031
 846	8.4078e+01	8.4043	16.047667	0.000336	3.357461	0.568769	0.000034
 847	8.4177e+01	8.4115	16.079847	0.000323	3.234627	0.547961	0.000032
 848	8.4276e+01	8.4245	16.109583	0.000299	2.988959	0.506343	0.000030
 849	8.4376e+01	8.4328	16.147059	0.000377	3.766907	0.638131	0.000038
 850	8.4475e+01	8.4424	16.174351	0.000274	2.743291	0.464726	0.000027
 851	8.4575e+01	8.4516	16.209789	0.000356	3.562184	0.603450	0.000036
 852	8.4674e+01	8.4632	16.240748	0.000311	3.111793	0.527152	0.000031
 853	8.4774e+01	8.4711	16.272520	0.000319	3.193682	0.541024	0.000032
 854	8.4874e+01	8.4832	16.304293	0.000319	3.193682	0.541024	0.000032
 855	8.4973e+01	8.4929	16.339732	0.000356	3.562184	0.603450	0.000036
 856	8.5073e+01	8.5035	16.371504	0.000319	3.193682	0.541024	0.000032
 857	8.5172e+01	8.5120	16.397574	0.000262	2.620457	0.443917	0.000026
 858	8.5272e+01	8.5205	16.435457	0.000381	3.807852	0.645068	0.000038
 859	8.5371e+01	8.5307	16.467230	0.000319	3.193682	0.541024	0.000032
 860	8.5471e+01	8.5442	16.497781	0.000307	3.070848	0.520216	0.000031
 861	8.5570e+01	8.5527	16.530775	0.000332	3.316516	0.561833	0.000033
 862	8.5669e+01	8.5630	16.569473	0.000389	3.889741	0.658940	0.000039
 863	8.5769e+01	8.5706	16.599209	0.000299	2.988959	0.506343	0.000030
 864	8.5868e+01	8.5849	16.635055	0.000360	3.603129	0.610387	0.000036
 865	8.5968e+01	8.5931	16.669679	0.000348	3.480295	0.589578	0.000035
 866	8.6067e+01	8.5988	16.701859	0.000323	3.234627	0.547961	0.000032
 867	8.6167e+01	8.6133	16.734854	0.000332	3.316516	0.561833	0.000033
 868	8.6266e+01	8.6224	16.769478	0.000348	3.480295	0.589578	0.000035
 869	8.6366e+01	8.6321	16.806546	0.000373	3.725962	0.631195	0.000037
 870	8.6466e+01	8.6446	16.837504	0.000311	3.111793	0.527152	0.000031
 871	8.6565e+01	8.6494	16.875795	0.000385	3.848796	0.652004	0.000038
 872	8.6665e+01	8.6621	16.908789	0.000332	3.316516	0.561833	0.000033
 873	8.6764e+01	8.6722	16.940562	0.000319	3.193682	0.541024	0.000032
 874	8.6864e+01	8.6792	16.973149	0.000328	3.275571	0.554897	0.000033
 875	8.6963e+01	8.6917	17.008588	0.000356	3.562184	0.603450	0.000036
 876	8.7063e+01	8.7035	17.044027	0.000356	3.562184	0.603450	0.000036
 877	8.7162e+01	8.7109	17.075800	0.000319	3.193682	0.541024	0.000032
 878	8.7261e+01	8.7195	17.108387	0.000328	3.275571	0.554897	0.000033
 879	8.7361e+01	8.7347	17.143826	0.000356	3.562184	0.603450	0.000036
 880	8.7460e+01	8.7391	17.175599	0.000319	3.193682	0.541024	0.000032
 881	8.7560e+01	8.7525	17.210630	0.000352	3.521239	0.596514	0.000035
 882	8.7659e+01	8.7640	17.245254	0.000348	3.480295	0.589578	0.000035
 883	8.7759e+01	8.7749	17.276212	0.000311	3.111793	0.527152	0.000031
 884	8.7859e+01	8.7809	17.314502	0.000385	3.848796	0.652004	0.000038
 885	8.7958e+01	8.7920	17.347090	0.000328	3.275571	0.554897	0.000033
 886	8.8058e+01	8.7996	17.383751	0.000369	3.685018	0.624259	0.000037
 887	8.8157e+01	8.8086	17.415931	0.000323	3.234627	0.547961	0.000032
 888	8.8257e+01	8.8195	17.450555	0.000348	3.480295	0.589578	0.000035
 889	8.8356e+01	8.8309	17.483142	0.000328	3.275571	0.554897	0.000033
 890	8.8456e+01	8.8410	17.516544	0.000336	3.357461	0.568769	0.000034
 891	8.8555e+01	8.8525	17.548724	0.000323	3.234627	0.547961	0.000032
 892	8.8654e+01	8.8614	17.584571	0.000360	3.603129	0.610387	0.000036
 893	8.8754e+01	8.8675	17.612270	0.000278	2.784236	0.471662	0.000028
 894	8.8853e+01	8.8783	17.652189	0.000401	4.012575	0.679749	0.000040
 895	8.8953e+01	8.8889	17.688443	0.000364	3.644073	0.617323	0.000036
 896	8.9052e+01	8.8989	17.722252	0.000340	3.398405	0.575705	0.000034
 897	8.9152e+01	8.9090	17.756877	0.000348	3.480295	0.589578	0.000035
 898	8.9251e+01	8.9172	17.793130	0.000364	3.644073	0.617323	0.000036
 899	8.9351e+01	8.9288	17.825717	0.000328	3.275571	0.554897	0.000033
 900	8.9451e+01	8.9384	17.862786	0.000373	3.725962	0.631195	0.000037
 901	8.9550e+01	8.9488	17.897817	0.000352	3.521239	0.596514	0.000035
 902	8.9650e+01	8.9590	17.932848	0.000352	3.521239	0.596514	0.000035
 903	8.9749e+01	8.9697	17.968695	0.000360	3.603129	0.610387	0.000036
 904	8.9849e+01	8.9787	17.998838	0.000303	3.029904	0.513280	0.000030
 905	8.9948e+01	8.9895	18.032647	0.000340	3.398405	0.575705	0.000034
 906	9.0047e+01	9.0015	18.069716	0.000373	3.725962	0.631195	0.000037
 907	9.0147e+01	9.0121	18.100266	0.000307	3.070848	0.520216	0.000031
 908	9.0246e+01	9.0208	18.129188	0.000291	2.907070	0.492471	0.000029
 909	9.0346e+01	9.0284	18.168700	0.000397	3.971630	0.672812	0.000040
 910	9.0445e+01	9.0381	18.195177	0.000266	2.661402	0.450854	0.000027
 911	9.0545e+01	9.0479	18.232653	0.000377	3.766907	0.638131	0.000038
 912	9.0644e+01	9.0614	18.263203	0.000307	3.070848	0.520216	0.000031
 913	9.0744e+01	9.0675	18.297420	0.000344	3.439350	0.582642	0.000034
 914	9.0844e+01	9.0786	18.335303	0.000381	3.807852	0.645068	0.000038
 915	9.0943e+01	9.0926	18.364224	0.000291	2.907070	0.492471	0.000029
 916	9.1043e+01	9.1010	18.396404	0.000323	3.234627	0.547961	0.000032
 917	9.1142e+01	9.1080	18.429806	0.000336	3.357461	0.568769	0.000034
 918	9.1242e+01	9.1193	18.458728	0.000291	2.907070	0.492471	0.000029
 919	9.1341e+01	9.1292	18.494167	0.000356	3.562184	0.603450	0.000036
 920	9.1441e+01	9.1393	18.527976	0.000340	3.398405	0.575705	0.000034
 921	9.1540e+01	9.1495	18.560156	0.000323	3.234627	0.547961	0.000032
 922	9.1639e+01	9.1630	18.592743	0.000328	3.275571	0.554897	0.000033
 923	9.1739e+01	9.1682	18.626553	0.000340	3.398405	0.575705	0.000034
 924	9.1838e+01	9.1792	18.662806	0.000364	3.644073	0.617323	0.000036
 925	9.1938e+01	9.1902	18.697430	0.000348	3.480295	0.589578	0.000035
 926	9.2037e+01	9.1969	18.730833	0.000336	3.357461	0.568769	0.000034
 927	9.2137e+01	9.2080	18.772381	0.000418	4.176354	0.707493	0.000042
 928	9.2237e+01	9.2151	18.808635	0.000364	3.644073	0.617323	0.000036
 929	9.2336e+01	9.2278	18.844481	0.000360	3.603129	0.610387	0.000036
 930	9.2436e+01	9.2387	18.882364	0.000381	3.807852	0.645068	0.000038
 931	9.2535e+01	9.2487	18.914137	0.000319	3.193682	0.541024	0.000032
 932	9.2635e+01	9.2572	18.950798	0.000369	3.685018	0.624259	0.000037
 933	9.2734e+01	9.2671	18.988680	0.000381	3.807852	0.645068	0.000038
 934	9.2834e+01	9.2786	19.028193	0.000397	3.971630	0.672812	0.000040
 935	9.2933e+01	9.2896	19.064039	0.000360	3.603129	0.610387	0.000036
 936	9.3032e+01	9.2998	19.103144	0.000393	3.930686	0.665876	0.000039
 937	9.3132e+01	9.3069	19.140619	0.000377	3.766907	0.638131	0.000038
 938	9.3231e+01	9.3196	19.179317	0.000389	3.889741	0.658940	0.000039
 939	9.3331e+01	9.3274	19.215163	0.000360	3.603129	0.610387	0.000036
 940	9.3430e+01	9.3391	19.249380	0.000344	3.439350	0.582642	0.000034
 941	9.3530e+01	9.3475	19.291743	0.000426	4.258243	0.721366	0.000043
 942	9.3629e+01	9.3575	19.327589	0.000360	3.603129	0.610387	0.000036
 943	9.3729e+01	9.3690	19.362213	0.000348	3.480295	0.589578	0.000035
 944	9.3829e+01	9.3787	19.401318	0.000393	3.930686	0.665876	0.000039
 945	9.3928e+01	9.3882	19.434720	0.000336	3.357461	0.568769	0.000034
 946	9.4028e+01	9.3983	19.470567	0.000360	3.603129	0.610387	0.000036
 947	9.4127e+01	9.4080	19.508857	0.000385	3.848796	0.652004	0.000038
 948	9.4227e+01	9.4157	19.543481	0.000348	3.480295	0.589578	0.000035
 949	9.4326e+01	9.4252	19.579734	0.000364	3.644073	0.617323	0.000036
 950	9.4425e+01	9.4395	19.614359	0.000348	3.480295	0.589578	0.000035
 951	9.4525e+01	9.4495	19.648575	0.000344	3.439350	0.582642	0.000034
 952	9.4624e+01	9.4546	19.688088	0.000397	3.971630	0.672812	0.000040
 953	9.4724e+01	9.4698	19.717416	0.000295	2.948014	0.499407	0.000029
 954	9.4823e+01	9.4763	19.756928	0.000397	3.971630	0.672812	0.000040
 955	9.4923e+01	9.4889	19.789923	0.000332	3.316516	0.561833	0.000033
 956	9.5022e+01	9.4958	19.825769	0.000360	3.603129	0.610387	0.000036
 957	9.5122e+01	9.5069	19.864874	0.000393	3.930686	0.665876	0.000039
 958	9.5222e+01	9.5190	19.899091	0.000344	3.439350	0.582642	0.000034
 959	9.5321e+01	9.5278	19.932900	0.000340	3.398405	0.575705	0.000034
 960	9.5421e+01	9.5402	19.974449	0.000418	4.176354	0.707493	0.000042
 961	9.5520e+01	9.5490	20.007444	0.000332	3.316516	0.561833	0.000033
 962	9.5620e+01	9.5565	20.042883	0.000356	3.562184	0.603450	0.000036
 963	9.5719e+01	9.5661	20.082395	0.000397	3.971630	0.672812	0.000040
 964	9.5819e+01	9.5776	20.119056	0.000369	3.685018	0.624259	0.000037
 965	9.5918e+01	9.5874	20.152051	0.000332	3.316516	0.561833	0.000033
 966	9.6017e+01	9.5953	20.189119	0.000373	3.725962	0.631195	0.000037
 967	9.6117e+01	9.6066	20.226187	0.000373	3.725962	0.631195	0.000037
 968	9.6216e+01	9.6158	20.257960	0.000319	3.193682	0.541024	0.000032
 969	9.6316e+01	9.6289	20.294213	0.000364	3.644073	0.617323	0.000036
 970	9.6415e+01	9.6350	20.331281	0.000373	3.725962	0.631195	0.000037
 971	9.6515e+01	9.6452	20.370386	0.000393	3.930686	0.665876	0.000039
 972	9.6615e+01	9.6571	20.407047	0.000369	3.685018	0.624259	0.000037
 973	9.6714e+01	9.6656	20.438005	0.000311	3.111793	0.527152	0.000031
 974	9.6814e+01	9.6761	20.476703	0.000389	3.889741	0.658940	0.000039
 975	9.6913e+01	9.6882	20.512142	0.000356	3.562184	0.603450	0.000036
 976	9.7013e+01	9.6938	20.548395	0.000364	3.644073	0.617323	0.000036
 977	9.7112e+01	9.7070	20.584241	0.000360	3.603129	0.610387	0.000036
 978	9.7212e+01	9.7180	20.618051	0.000340	3.398405	0.575705	0.000034
 979	9.7311e+01	9.7246	20.654304	0.000364	3.644073	0.617323	0.000036
 980	9.7410e+01	9.7351	20.688928	0.000348	3.480295	0.589578	0.000035
 981	9.7510e+01	9.7463	20.728033	0.000393	3.930686	0.665876	0.000039
 982	9.7609e+01	9.7544	20.762250	0.000344	3.439350	0.582642	0.000034
 983	9.7709e+01	9.7646	20.794837	0.000328	3.275571	0.554897	0.000033
 984	9.7808e+01	9.7748	20.831905	0.000373	3.725962	0.631195	0.000037
 985	9.7908e+01	9.7878	20.870196	0.000385	3.848796	0.652004	0.000038
 986	9.8007e+01	9.7954	20.907264	0.000373	3.725962	0.631195	0.000037
 987	9.8107e+01	9.8059	20.943110	0.000360	3.603129	0.610387	0.000036
 988	9.8207e+01	9.8158	20.977734	0.000348	3.480295	0.589578	0.000035
 989	9.8306e+01	9.8248	21.015617	0.000381	3.807852	0.645068	0.000038
 990	9.8406e+01	9.8364	21.054314	0.000389	3.889741	0.658940	0.000039
 991	9.8505e+01	9.8450	21.090161	0.000360	3.603129	0.610387	0.000036
 992	9.8605e+01	9.8553	21.128858	0.000389	3.889741	0.658940	0.000039
 993	9.8704e+01	9.8633	21.168778	0.000401	4.012575	0.679749	0.000040
 994	9.8803e+01	9.8730	21.205439	0.000369	3.685018	0.624259	0.000037
 995	9.8903e+01	9.8838	21.242099	0.000369	3.685018	0.624259	0.000037
 996	9.9002e+01	9.8927	21.279168	0.000373	3.725962	0.631195	0.000037
 997	9.9102e+01	9.9042	21.320716	0.000418	4.176354	0.707493	0.000042
 998	9.9201e+01	9.9176	21.354526	0.000340	3.398405	0.575705	0.000034
 999	9.9301e+01	9.9231	21.392816	0.000385	3.848796	0.652004	0.000038
1000	9.9400e+01	9.9365	21.430699	0.000381	3.807852	0.645068	0.000038
1001	9.9500e+01	9.9439	21.467767	0.000373	3.725962	0.631195	0.000037
1002	9.9600e+01	9.9570	21.508501	0.000409	4.094464	0.693621	0.000041
1003	9.9699e+01	9.9659	21.550458	0.000422	4.217298	0.714430	0.000042
1004	9.9799e+01	9.9726	21.587119	0.000369	3.685018	0.624259	0.000037
1005	9.9898e+01	9.9831	21.622557	0.000356	3.562184	0.603450	0.000036
1006	9.9998e+01	9.9943	21.661662	0.000393	3.930686	0.665876	0.000039
1007	1.0010e+02	9.9866	21.646183	0.000156	1.555896	0.263576	-0.000016
1008	1.0020e+02	9.9739	21.627038	0.000192	1.924398	0.326002	-0.000019
1009	1.0030e+02	9.9644	21.605856	0.000213	2.129121	0.360683	-0.000021
1010	1.0040e+02	9.9557	21.584674	0.000213	2.129121	0.360683	-0.000021
1011	1.0050e+02	9.9459	21.563493	0.000213	2.129121	0.360683	-0.000021
1012	1.0059e+02	9.9332	21.536201	0.000274	2.743291	0.464726	-0.000027
1013	1.0069e+02	9.9243	21.516648	0.000197	1.965343	0.332938	-0.000020
1014	1.0079e+02	9.9170	21.494244	0.000225	2.251955	0.381492	-0.000023
1015	1.0089e+02	9.9036	21.469804	0.000246	2.456679	0.416173	-0.000025
1016	1.0099e+02	9.8926	21.448622	0.000213	2.129121	0.360683	-0.000021
1017	1.0109e+02	9.8877	21.420515	0.000283	2.825180	0.478599	-0.000028
1018	1.0119e+02	9.8741	21.400963	0.000197	1.965343	0.332938	-0.000020
1019	1.0129e+02	9.8645	21.374486	0.000266	2.661402	0.450854	-0.000027
1020	1.0139e+02	9.8573	21.350045	0.000246	2.456679	0.416173	-0.000025
1021	1.0149e+02	9.8467	21.323568	0.000266	2.661402	0.450854	-0.000027
1022	1.0159e+02	9.8353	21.300757	0.000229	2.292900	0.388428	-0.000023
1023	1.0169e+02	9.8237	21.272650	0.000283	2.825180	0.478599	-0.000028
1024	1.0179e+02	9.8154	21.250246	0.000225	2.251955	0.381492	-0.000023
1025	1.0189e+02	9.8047	21.225398	0.000250	2.497623	0.423109	-0.000025
1026	1.0199e+02	9.7950	21.202587	0.000229	2.292900	0.388428	-0.000023
1027	1.0209e+02	9.7860	21.176925	0.000258	2.579512	0.436981	-0.000026
1028	1.0219e+02	9.7755	21.149633	0.000274	2.743291	0.464726	-0.000027
1029	1.0229e+02	9.7644	21.125599	0.000242	2.415734	0.409236	-0.000024
1030	1.0239e+02	9.7568	21.101566	0.000242	2.415734	0.409236	-0.000024
1031	1.0248e+02	9.7461	21.078755	0.000229	2.292900	0.388428	-0.000023
1032	1.0258e+02	9.7342	21.057981	0.000209	2.088177	0.353747	-0.000021
1033	1.0268e+02	9.7252	21.032318	0.000258	2.579512	0.436981	-0.000026
1034	1.0278e+02	9.7149	21.005841	0.000266	2.661402	0.450854	-0.000027
1035	1.0288e+02	9.7070	20.977327	0.000287	2.866125	0.485535	-0.000029
1036	1.0298e+02	9.6952	20.954108	0.000233	2.333845	0.395364	-0.000023
1037	1.0308e+02	9.6864	20.931297	0.000229	2.292900	0.388428	-0.000023
1038	1.0318e+02	9.6760	20.903190	0.000283	2.825180	0.478599	-0.000028
1039	1.0328e+02	9.6661	20.880787	0.000225	2.251955	0.381492	-0.000023
1040	1.0338e+02	9.6570	20.855939	0.000250	2.497623	0.423109	-0.000025
1041	1.0348e+02	9.6464	20.826610	0.000295	2.948014	0.499407	-0.000029
1042	1.0358e+02	9.6378	20.807872	0.000188	1.883454	0.319066	-0.000019
1043	1.0368e+02	9.6265	20.780580	0.000274	2.743291	0.464726	-0.000027
1044	1.0378e+02	9.6155	20.755732	0.000250	2.497623	0.423109	-0.000025
1045	1.0388e+02	9.6094	20.730884	0.000250	2.497623	0.423109	-0.000025
1046	1.0398e+02	9.5972	20.701556	0.000295	2.948014	0.499407	-0.000029
1047	1.0408e+02	9.5859	20.674264	0.000274	2.743291	0.464726	-0.000027
1048	1.0418e+02	9.5766	20.646565	0.000278	2.784236	0.471662	-0.000028
1049	1.0428e+02	9.5631	20.624568	0.000221	2.211011	0.374555	-0.000022
1050	1.0438e+02	9.5557	20.597683	0.000270	2.702346	0.457790	-0.000027
1051	1.0447e+02	9.5468	20.569169	0.000287	2.866125	0.485535	-0.000029
1052	1.0457e+02	9.5386	20.543914	0.000254	2.538568	0.430045	-0.000025
1053	1.0467e+02	9.5276	20.519474	0.000246	2.456679	0.416173	-0.000025
1054	1.0477e+02	9.5190	20.491367	0.000283	2.825180	0.478599	-0.000028
1055	1.0487e+02	9.5072	20.469371	0.000221	2.211011	0.374555	-0.000022
1056	1.0497e+02	9.4967	20.442486	0.000270	2.702346	0.457790	-0.000027
1057	1.0507e+02	9.4861	20.409084	0.000336	3.357461	0.568769	-0.000034
1058	1.0517e+02	9.4776	20.389939	0.000192	1.924398	0.326002	-0.000019
1059	1.0527e+02	9.4678	20.359388	0.000307	3.070848	0.520216	-0.000031
1060	1.0537e+02	9.4592	20.336577	0.000229	2.292900	0.388428	-0.000023
1061	1.0547e+02	9.4458	20.308470	0.000283	2.825180	0.478599	-0.000028
1062	1.0557e+02	9.4357	20.283622	0.000250	2.497623	0.423109	-0.000025
1063	1.0567e+02	9.4273	20.258774	0.000250	2.497623	0.423109	-0.000025
1064	1.0577e+02	9.4156	20.231890	0.000270	2.702346	0.457790	-0.000027
1065	1.0587e+02	9.4070	20.205005	0.000270	2.702346	0.457790	-0.000027
1066	1.0597e+02	9.3964	20.176084	0.000291	2.907070	0.492471	-0.000029
1067	1.0607e+02	9.3859	20.154495	0.000217	2.170066	0.367619	-0.000022
1068	1.0617e+02	9.3777	20.127203	0.000274	2.743291	0.464726	-0.000027
1069	1.0627e+02	9.3656	20.100726	0.000266	2.661402	0.450854	-0.000027
1070	1.0637e+02	9.3571	20.075063	0.000258	2.579512	0.436981	-0.000026
1071	1.0647e+02	9.3453	20.048586	0.000266	2.661402	0.450854	-0.000027
1072	1.0656e+02	9.3394	20.019257	0.000295	2.948014	0.499407	-0.000029
1073	1.0666e+02	9.3301	19.990336	0.000291	2.907070	0.492471	-0.000029
1074	1.0676e+02	9.3196	19.965488	0.000250	2.497623	0.423109	-0.000025
1075	1.0686e+02	9.3105	19.939418	0.000262	2.620457	0.443917	-0.000026
1076	1.0696e+02	9.2995	19.910089	0.000295	2.948014	0.499407	-0.000029
1077	1.0706e+02	9.2910	19.875465	0.000348	3.480295	0.589578	-0.000035
1078	1.0716e+02	9.2768	19.853061	0.000225	2.251955	0.381492	-0.000023
1079	1.0726e+02	9.2684	19.819659	0.000336	3.357461	0.568769	-0.000034
1080	1.0736e+02	9.2573	19.791553	0.000283	2.825180	0.478599	-0.000028
1081	1.0746e+02	9.2487	19.763039	0.000287	2.866125	0.485535	-0.000029
1082	1.0756e+02	9.2392	19.734525	0.000287	2.866125	0.485535	-0.000029
1083	1.0766e+02	9.2298	19.706825	0.000278	2.784236	0.471662	-0.000028
1084	1.0776e+02	9.2165	19.672609	0.000344	3.439350	0.582642	-0.000034
1085	1.0786e+02	9.2075	19.649797	0.000229	2.292900	0.388428	-0.000023
1086	1.0796e+02	9.1980	19.615581	0.000344	3.439350	0.582642	-0.000034
1087	1.0806e+02	9.1904	19.587881	0.000278	2.784236	0.471662	-0.000028
1088	1.0816e+02	9.1772	19.556923	0.000311	3.111793	0.527152	-0.000031
1089	1.0826e+02	9.1684	19.529224	0.000278	2.784236	0.471662	-0.000028
1090	1.0836e+02	9.1586	19.501932	0.000274	2.743291	0.464726	-0.000027
1091	1.0845e+02	9.1519	19.472603	0.000295	2.948014	0.499407	-0.000029
1092	1.0855e+02	9.1406	19.446533	0.000262	2.620457	0.443917	-0.000026
1093	1.0865e+02	9.1296	19.419241	0.000274	2.743291	0.464726	-0.000027
1094	1.0875e+02	9.1166	19.387469	0.000319	3.193682	0.541024	-0.000032
1095	1.0885e+02	9.1090	19.367102	0.000205	2.047232	0.346811	-0.000020
1096	1.0895e+02	9.0967	19.340624	0.000266	2.661402	0.450854	-0.000027
1097	1.0905e+02	9.0884	19.315369	0.000254	2.538568	0.430045	-0.000025
1098	1.0915e+02	9.0779	19.289299	0.000262	2.620457	0.443917	-0.000026
1099	1.0925e+02	9.0723	19.261193	0.000283	2.825180	0.478599	-0.000028
1100	1.0935e+02	9.0588	19.235530	0.000258	2.579512	0.436981	-0.000026
1101	1.0945e+02	9.0482	19.207423	0.000283	2.825180	0.478599	-0.000028
1102	1.0955e+02	9.0393	19.186649	0.000209	2.088177	0.353747	-0.000021
1103	1.0965e+02	9.0279	19.160579	0.000262	2.620457	0.443917	-0.000026
1104	1.0975e+02	9.0210	19.133287	0.000274	2.743291	0.464726	-0.000027
1105	1.0985e+02	9.0091	19.107217	0.000262	2.620457	0.443917	-0.000026
1106	1.0995e+02	9.0022	19.083184	0.000242	2.415734	0.409236	-0.000024
1107	1.1005e+02	8.9912	19.056299	0.000270	2.702346	0.457790	-0.000027
1108	1.1015e+02	8.9785	19.029007	0.000274	2.743291	0.464726	-0.000027
1109	1.1025e+02	8.9712	19.007011	0.000221	2.211011	0.374555	-0.000022
1110	1.1035e+02	8.9581	18.976053	0.000311	3.111793	0.527152	-0.000031
1111	1.1044e+02	8.9495	18.949575	0.000266	2.661402	0.450854	-0.000027
1112	1.1054e+02	8.9406	18.922691	0.000270	2.702346	0.457790	-0.000027
1113	1.1064e+02	8.9288	18.895399	0.000274	2.743291	0.464726	-0.000027
1114	1.1074e+02	8.9199	18.867292	0.000283	2.825180	0.478599	-0.000028
1115	1.1084e+02	8.9087	18.837964	0.000295	2.948014	0.499407	-0.000029
1116	1.1094e+02	8.9014	18.807413	0.000307	3.070848	0.520216	-0.000031
1117	1.1104e+02	8.8908	18.781750	0.000258	2.579512	0.436981	-0.000026
1118	1.1114e+02	8.8784	18.756088	0.000258	2.579512	0.436981	-0.000026
1119	1.1124e+02	8.8706	18.727981	0.000283	2.825180	0.478599	-0.000028
1120	1.1134e+02	8.8610	18.698245	0.000299	2.988959	0.506343	-0.000030
1121	1.1144e+02	8.8502	18.673397	0.000250	2.497623	0.423109	-0.000025
1122	1.1154e+02	8.8389	18.639588	0.000340	3.398405	0.575705	-0.000034
1123	1.1164e+02	8.8306	18.615555	0.000242	2.415734	0.409236	-0.000024
1124	1.1174e+02	8.8214	18.587041	0.000287	2.866125	0.485535	-0.000029
1125	1.1184e+02	8.8110	18.556490	0.000307	3.070848	0.520216	-0.000031
1126	1.1194e+02	8.8013	18.530420	0.000262	2.620457	0.443917	-0.000026
1127	1.1204e+02	8.7915	18.507201	0.000233	2.333845	0.395364	-0.000023
1128	1.1214e+02	8.7801	18.472170	0.000352	3.521239	0.596514	-0.000035
1129	1.1224e+02	8.7708	18.446100	0.000262	2.620457	0.443917	-0.000026
1130	1.1234e+02	8.7609	18.418401	0.000278	2.784236	0.471662	-0.000028
1131	1.1244e+02	8.7525	18.392738	0.000258	2.579512	0.436981	-0.000026
1132	1.1253e+02	8.7399	18.362595	0.000303	3.029904	0.513280	-0.000030
1133	1.1263e+02	8.7312	18.334896	0.000278	2.784236	0.471662	-0.000028
1134	1.1273e+02	8.7211	18.303530	0.000315	3.152737	0.534088	-0.000032
1135	1.1283e+02	8.7140	18.275016	0.000287	2.866125	0.485535	-0.000029
1136	1.1293e+02	8.7064	18.245688	0.000295	2.948014	0.499407	-0.000029
1137	1.1303e+02	8.6948	18.217988	0.000278	2.784236	0.471662	-0.000028
1138	1.1313e+02	8.6816	18.190289	0.000278	2.784236	0.471662	-0.000028
1139	1.1323e+02	8.6745	18.154443	0.000360	3.603129	0.610387	-0.000036
1140	1.1333e+02	8.6632	18.130410	0.000242	2.415734	0.409236	-0.000024
1141	1.1343e+02	8.6510	18.100674	0.000299	2.988959	0.506343	-0.000030
1142	1.1353e+02	8.6427	18.071345	0.000295	2.948014	0.499407	-0.000029
1143	1.1363e+02	8.6304	18.044053	0.000274	2.743291	0.464726	-0.000027
1144	1.1373e+02	8.6207	18.013910	0.000303	3.029904	0.513280	-0.000030
1145	1.1383e+02	8.6125	17.983766	0.000303	3.029904	0.513280	-0.000030
1146	1.1393e+02	8.5995	17.954030	0.000299	2.988959	0.506343	-0.000030
1147	1.1403e+02	8.5946	17.923887	0.000303	3.029904	0.513280	-0.000030
1148	1.1413e+02	8.5843	17.896188	0.000278	2.784236	0.471662	-0.000028
1149	1.1423e+02	8.5743	17.865230	0.000311	3.111793	0.527152	-0.000031
1150	1.1433e+02	8.5593	17.839160	0.000262	2.620457	0.443917	-0.000026
1151	1.1442e+02	8.5540	17.808202	0.000311	3.111793	0.527152	-0.000031
1152	1.1452e+02	8.5430	17.777244	0.000311	3.111793	0.527152	-0.000031
1153	1.1462e+02	8.5305	17.746693	0.000307	3.070848	0.520216	-0.000031
1154	1.1472e+02	8.5246	17.715735	0.000311	3.111793	0.527152	-0.000031
1155	1.1482e+02	8.5107	17.689258	0.000266	2.661402	0.450854	-0.000027
1156	1.1492e+02	8.5036	17.659522	0.000299	2.988959	0.506343	-0.000030
1157	1.1502e+02	8.4937	17.631822	0.000278	2.784236	0.471662	-0.000028
1158	1.1512e+02	8.4831	17.598828	0.000332	3.316516	0.561833	-0.000033
1159	1.1522e+02	8.4728	17.571536	0.000274	2.743291	0.464726	-0.000027
1160	1.1532e+02	8.4623	17.545466	0.000262	2.620457	0.443917	-0.000026
1161	1.1542e+02	8.4554	17.518174	0.000274	2.743291	0.464726	-0.000027
1162	1.1552e+02	8.4429	17.489252	0.000291	2.907070	0.492471	-0.000029
1163	1.1562e+02	8.4328	17.460738	0.000287	2.866125	0.485535	-0.000029
1164	1.1572e+02	8.4217	17.430188	0.000307	3.070848	0.520216	-0.000031
1165	1.1582e+02	8.4131	17.402081	0.000283	2.825180	0.478599	-0.000028
1166	1.1592e+02	8.4021	17.373160	0.000291	2.907070	0.492471	-0.000029
1167	1.1602e+02	8.3930	17.342202	0.000311	3.111793	0.527152	-0.000031
1168	1.1612e+02	8.3823	17.313280	0.000291	2.907070	0.492471	-0.000029
1169	1.1622e+02	8.3726	17.286803	0.000266	2.661402	0.450854	-0.000027
1170	1.1632e+02	8.3621	17.255845	0.000311	3.111793	0.527152	-0.000031
1171	1.1642e+02	8.3533	17.231812	0.000242	2.415734	0.409236	-0.000024
1172	1.1651e+02	8.3442	17.204927	0.000270	2.702346	0.457790	-0.000027
1173	1.1661e+02	8.3336	17.171118	0.000340	3.398405	0.575705	-0.000034
1174	1.1671e+02	8.3263	17.143826	0.000274	2.743291	0.464726	-0.000027
1175	1.1681e+02	8.3137	17.114497	0.000295	2.948014	0.499407	-0.000029
1176	1.1691e+02	8.3033	17.082317	0.000323	3.234627	0.547961	-0.000032
1177	1.1701e+02	8.2910	17.050137	0.000323	3.234627	0.547961	-0.000032
1178	1.1711e+02	8.2837	17.016735	0.000336	3.357461	0.568769	-0.000034
1179	1.1721e+02	8.2766	16.985370	0.000315	3.152737	0.534088	-0.000032
1180	1.1731e+02	8.2651	16.951560	0.000340	3.398405	0.575705	-0.000034
1181	1.1741e+02	8.2537	16.918973	0.000328	3.275571	0.554897	-0.000033
1182	1.1751e+02	8.2433	16.886385	0.000328	3.275571	0.554897	-0.000033
1183	1.1761e+02	8.2342	16.857057	0.000295	2.948014	0.499407	-0.000029
1184	1.1771e+02	8.2216	16.824062	0.000332	3.316516	0.561833	-0.000033
1185	1.1781e+02	8.2137	16.791067	0.000332	3.316516	0.561833	-0.000033
1186	1.1791e+02	8.2054	16.760924	0.000303	3.029904	0.513280	-0.000030
1187	1.1801e+02	8.1934	16.726707	0.000344	3.439350	0.582642	-0.000034
1188	1.1811e+02	8.1860	16.697379	0.000295	2.948014	0.499407	-0.000029
1189	1.1821e+02	8.1739	16.661125	0.000364	3.644073	0.617323	-0.000036
1190	1.1831e+02	8.1636	16.628538	0.000328	3.275571	0.554897	-0.000033
1191	1.1841e+02	8.1512	16.595543	0.000332	3.316516	0.561833	-0.000033
1192	1.1850e+02	8.1429	16.557253	0.000385	3.848796	0.652004	-0.000038
1193	1.1860e+02	8.1345	16.529146	0.000283	2.825180	0.478599	-0.000028
1194	1.1870e+02	8.1245	16.494115	0.000352	3.521239	0.596514	-0.000035
1195	1.1880e+02	8.1152	16.463564	0.000307	3.070848	0.520216	-0.000031
1196	1.1890e+02	8.1048	16.431384	0.000323	3.234627	0.547961	-0.000032
1197	1.1900e+02	8.0942	16.398389	0.000332	3.316516	0.561833	-0.000033
1198	1.1910e+02	8.0848	16.363765	0.000348	3.480295	0.589578	-0.000035
1199	1.1920e+02	8.0724	16.336066	0.000278	2.784236	0.471662	-0.000028
1200	1.1930e+02	8.0637	16.305515	0.000307	3.070848	0.520216	-0.000031
1201	1.1940e+02	8.0567	16.270484	0.000352	3.521239	0.596514	-0.000035
1202	1.1950e+02	8.0456	16.238711	0.000319	3.193682	0.541024	-0.000032
1203	1.1960e+02	8.0379	16.213456	0.000254	2.538568	0.430045	-0.000025
1204	1.1970e+02	8.0270	16.176387	0.000373	3.725962	0.631195	-0.000037
1205	1.1980e+02	8.0123	16.145022	0.000315	3.152737	0.534088	-0.000032
1206	1.1990e+02	8.0035	16.112027	0.000332	3.316516	0.561833	-0.000033
1207	1.2000e+02	7.9965	16.082291	0.000299	2.988959	0.506343	-0.000030
1208	1.2010e+02	7.9847	16.049297	0.000332	3.316516	0.561833	-0.000033
1209	1.2020e+02	7.9758	16.017931	0.000315	3.152737	0.534088	-0.000032
1210	1.2030e+02	7.9667	15.982900	0.000352	3.521239	0.596514	-0.000035
1211	1.2039e+02	7.9591	15.952756	0.000303	3.029904	0.513280	-0.000030
1212	1.2049e+02	7.9450	15.920169	0.000328	3.275571	0.554897	-0.000033
1213	1.2059e+02	7.9346	15.888804	0.000315	3.152737	0.534088	-0.000032
1214	1.2069e+02	7.9268	15.857438	0.000315	3.152737	0.534088	-0.000032
1215	1.2079e+02	7.9153	15.826887	0.000307	3.070848	0.520216	-0.000031
1216	1.2089e+02	7.9066	15.793485	0.000336	3.357461	0.568769	-0.000034
1217	1.2099e+02	7.8964	15.761305	0.000323	3.234627	0.547961	-0.000032
1218	1.2109e+02	7.8876	15.727496	0.000340	3.398405	0.575705	-0.000034
1219	1.2119e+02	7.8796	15.698167	0.000295	2.948014	0.499407	-0.000029
1220	1.2129e+02	7.8672	15.664765	0.000336	3.357461	0.568769	-0.000034
1221	1.2139e+02	7.8547	15.628919	0.000360	3.603129	0.610387	-0.000036
1222	1.2149e+02	7.8482	15.597554	0.000315	3.152737	0.534088	-0.000032
1223	1.2159e+02	7.8403	15.568632	0.000291	2.907070	0.492471	-0.000029
1224	1.2169e+02	7.8275	15.536045	0.000328	3.275571	0.554897	-0.000033
1225	1.2179e+02	7.8161	15.507938	0.000283	2.825180	0.478599	-0.000028
1226	1.2189e+02	7.8062	15.472907	0.000352	3.521239	0.596514	-0.000035
1227	1.2199e+02	7.7949	15.440727	0.000323	3.234627	0.547961	-0.000032
1228	1.2209e+02	7.7878	15.408547	0.000323	3.234627	0.547961	-0.000032
1229	1.2219e+02	7.7774	15.373923	0.000348	3.480295	0.589578	-0.000035
1230	1.2229e+02	7.7656	15.345816	0.000283	2.825180	0.478599	-0.000028
1231	1.2239e+02	7.7574	15.314451	0.000315	3.152737	0.534088	-0.000032
1232	1.2248e+02	7.7446	15.283085	0.000315	3.152737	0.534088	-0.000032
1233	1.2258e+02	7.7369	15.250498	0.000328	3.275571	0.554897	-0.000033
1234	1.2268e+02	7.7272	15.220762	0.000299	2.988959	0.506343	-0.000030
1235	1.2278e+02	7.7169	15.188989	0.000319	3.193682	0.541024	-0.000032
1236	1.2288e+02	7.7074	15.157216	0.000319	3.193682	0.541024	-0.000032
1237	1.2298e+02	7.6957	15.127480	0.000299	2.988959	0.506343	-0.000030
1238	1.2308e+02	7.6856	15.092042	0.000356	3.562184	0.603450	-0.000036
1239	1.2318e+02	7.6754	15.058232	0.000340	3.398405	0.575705	-0.000034
1240	1.2328e+02	7.6677	15.024423	0.000340	3.398405	0.575705	-0.000034
1241	1.2338e+02	7.6568	14.992243	0.000323	3.234627	0.547961	-0.000032
1242	1.2348e+02	7.6446	14.960470	0.000319	3.193682	0.541024	-0.000032
1243	1.2358e+02	7.6382	14.928697	0.000319	3.193682	0.541024	-0.000032
1244	1.2368e+02	7.6257	14.895295	0.000336	3.357461	0.568769	-0.000034
1245	1.2378e+02	7.6134	14.856190	0.000393	3.930686	0.665876	-0.000039
1246	1.2388e+02	7.6069	14.821566	0.000348	3.480295	0.589578	-0.000035
1247	1.2398e+02	7.5944	14.791015	0.000307	3.070848	0.520216	-0.000031
1248	1.2408e+02	7.5874	14.758428	0.000328	3.275571	0.554897	-0.000033
1249	1.2418e+02	7.5774	14.720138	0.000385	3.848796	0.652004	-0.000038
1250	1.2428e+02	7.5684	14.693253	0.000270	2.702346	0.457790	-0.000027
1251	1.2438e+02	7.5593	14.659851	0.000336	3.357461	0.568769	-0.000034
1252	1.2447e+02	7.5469	14.622376	0.000377	3.766907	0.638131	-0.000038
1253	1.2457e+02	7.5384	14.590603	0.000319	3.193682	0.541024	-0.000032
1254	1.2467e+02	7.5285	14.553127	0.000377	3.766907	0.638131	-0.000038
1255	1.2477e+02	7.5164	14.521355	0.000319	3.193682	0.541024	-0.000032
1256	1.2487e+02	7.5085	14.484694	0.000369	3.685018	0.624259	-0.000037
1257	1.2497e+02	7.5001	14.451292	0.000336	3.357461	0.568769	-0.000034
1258	1.2507e+02	7.4893	14.418704	0.000328	3.275571	0.554897	-0.000033
1259	1.2517e+02	7.4783	14.384488	0.000344	3.439350	0.582642	-0.000034
1260	1.2527e+02	7.4670	14.349863	0.000348	3.480295	0.589578	-0.000035
1261	1.2537e+02	7.4576	14.321757	0.000283	2.825180	0.478599	-0.000028
1262	1.2547e+02	7.4474	14.292835	0.000291	2.907070	0.492471	-0.000029
1263	1.2557e+02	7.4403	14.261063	0.000319	3.193682	0.541024	-0.000032
1264	1.2567e+02	7.4277	14.231327	0.000299	2.988959	0.506343	-0.000030
1265	1.2577e+02	7.4204	14.200776	0.000307	3.070848	0.520216	-0.000031
1266	1.2587e+02	7.4087	14.168189	0.000328	3.275571	0.554897	-0.000033
1267	1.2597e+02	7.3977	14.138453	0.000299	2.988959	0.506343	-0.000030
1268	1.2607e+02	7.3855	14.106680	0.000319	3.193682	0.541024	-0.000032
1269	1.2617e+02	7.3802	14.072870	0.000340	3.398405	0.575705	-0.000034
1270	1.2627e+02	7.3660	14.048430	0.000246	2.456679	0.416173	-0.000025
1271	1.2636e+02	7.3576	14.015435	0.000332	3.316516	0.561833	-0.000033
1272	1.2646e+02	7.3461	13.985292	0.000303	3.029904	0.513280	-0.000030
1273	1.2656e+02	7.3395	13.955148	0.000303	3.029904	0.513280	-0.000030
1274	1.2666e+02	7.3277	13.921746	0.000336	3.357461	0.568769	-0.000034
1275	1.2676e+02	7.3209	13.893640	0.000283	2.825180	0.478599	-0.000028
1276	1.2686e+02	7.3097	13.867162	0.000266	2.661402	0.450854	-0.000027
1277	1.2696e+02	7.2990	13.832131	0.000352	3.521239	0.596514	-0.000035
1278	1.2706e+02	7.2870	13.799136	0.000332	3.316516	0.561833	-0.000033
1279	1.2716e+02	7.2781	13.771030	0.000283	2.825180	0.478599	-0.000028
1280	1.2726e+02	7.2678	13.736406	0.000348	3.480295	0.589578	-0.000035
1281	1.2736e+02	7.2587	13.708706	0.000278	2.784236	0.471662	-0.000028
1282	1.2746e+02	7.2475	13.670823	0.000381	3.807852	0.645068	-0.000038
1283	1.2756e+02	7.2399	13.637829	0.000332	3.316516	0.561833	-0.000033
1284	1.2766e+02	7.2299	13.609722	0.000283	2.825180	0.478599	-0.000028
1285	1.2776e+02	7.2197	13.577949	0.000319	3.193682	0.541024	-0.000032
1286	1.2786e+02	7.2091	13.543325	0.000348	3.480295	0.589578	-0.000035
1287	1.2796e+02	7.2002	13.509923	0.000336	3.357461	0.568769	-0.000034
1288	1.2806e+02	7.1913	13.481002	0.000291	2.907070	0.492471	-0.000029
1289	1.2816e+02	7.1800	13.447600	0.000336	3.357461	0.568769	-0.000034
1290	1.2826e+02	7.1699	13.416234	0.000315	3.152737	0.534088	-0.000032
1291	1.2835e+02	7.1558	13.379981	0.000364	3.644073	0.617323	-0.000036
1292	1.2845e+02	7.1485	13.348615	0.000315	3.152737	0.534088	-0.000032
1293	1.2855e+02	7.1409	13.315213	0.000336	3.357461	0.568769	-0.000034
1294	1.2865e+02	7.1313	13.282219	0.000332	3.316516	0.561833	-0.000033
1295	1.2875e+02	7.1183	13.249224	0.000332	3.316516	0.561833	-0.000033
1296	1.2885e+02	7.1107	13.217858	0.000315	3.152737	0.534088	-0.000032
1297	1.2895e+02	7.1001	13.182420	0.000356	3.562184	0.603450	-0.000036
1298	1.2905e+02	7.0936	13.150240	0.000323	3.234627	0.547961	-0.000032
1299	1.2915e+02	7.0805	13.119282	0.000311	3.111793	0.527152	-0.000031
1300	1.2925e+02	7.0713	13.089546	0.000299	2.988959	0.506343	-0.000030
1301	1.2935e+02	7.0611	13.052070	0.000377	3.766907	0.638131	-0.000038
1302	1.2945e+02	7.0496	13.019075	0.000332	3.316516	0.561833	-0.000033
1303	1.2955e+02	7.0412	12.988525	0.000307	3.070848	0.520216	-0.000031
1304	1.2965e+02	7.0300	12.953493	0.000352	3.521239	0.596514	-0.000035
1305	1.2975e+02	7.0190	12.920906	0.000328	3.275571	0.554897	-0.000033
1306	1.2985e+02	7.0128	12.886282	0.000348	3.480295	0.589578	-0.000035
1307	1.2995e+02	7.0013	12.856138	0.000303	3.029904	0.513280	-0.000030
1308	1.3005e+02	6.9897	12.823144	0.000332	3.316516	0.561833	-0.000033
1309	1.3015e+02	6.9779	12.790963	0.000323	3.234627	0.547961	-0.000032
1310	1.3025e+02	6.9687	12.755932	0.000352	3.521239	0.596514	-0.000035
1311	1.3034e+02	6.9606	12.723345	0.000328	3.275571	0.554897	-0.000033
1312	1.3044e+02	6.9507	12.686276	0.000373	3.725962	0.631195	-0.000037
1313	1.3054e+02	6.9398	12.653689	0.000328	3.275571	0.554897	-0.000033
1314	1.3064e+02	6.9300	12.619065	0.000348	3.480295	0.589578	-0.000035
1315	1.3074e+02	6.9196	12.586070	0.000332	3.316516	0.561833	-0.000033
1316	1.3084e+02	6.9125	12.554705	0.000315	3.152737	0.534088	-0.000032
1317	1.3094e+02	6.8996	12.521303	0.000336	3.357461	0.568769	-0.000034
1318	1.3104e+02	6.8911	12.483827	0.000377	3.766907	0.638131	-0.000038
1319	1.3114e+02	6.8824	12.452462	0.000315	3.152737	0.534088	-0.000032
1320	1.3124e+02	6.8700	12.419874	0.000328	3.275571	0.554897	-0.000033
1321	1.3134e+02	6.8629	12.381992	0.000381	3.807852	0.645068	-0.000038
1322	1.3144e+02	6.8514	12.346553	0.000356	3.562184	0.603450	-0.000036
1323	1.3154e+02	6.8408	12.315595	0.000311	3.111793	0.527152	-0.000031
1324	1.3164e+02	6.8304	12.282193	0.000336	3.357461	0.568769	-0.000034
1325	1.3174e+02	6.8214	12.246346	0.000360	3.603129	0.610387	-0.000036
1326	1.3184e+02	6.8116	12.214166	0.000323	3.234627	0.547961	-0.000032
1327	1.3194e+02	6.8029	12.184023	0.000303	3.029904	0.513280	-0.000030
1328	1.3204e+02	6.7899	12.151028	0.000332	3.316516	0.561833	-0.000033
1329	1.3214e+02	6.7803	12.119256	0.000319	3.193682	0.541024	-0.000032
1330	1.3224e+02	6.7707	12.089927	0.000295	2.948014	0.499407	-0.000029
1331	1.3234e+02	6.7625	12.051637	0.000385	3.848796	0.652004	-0.000038
1332	1.3243e+02	6.7486	12.021086	0.000307	3.070848	0.520216	-0.000031
1333	1.3253e+02	6.7403	11.985240	0.000360	3.603129	0.610387	-0.000036
1334	1.3263e+02	6.7294	11.952245	0.000332	3.316516	0.561833	-0.000033
1335	1.3273e+02	6.7226	11.921287	0.000311	3.111793	0.527152	-0.000031
1336	1.3283e+02	6.7095	11.890329	0.000311	3.111793	0.527152	-0.000031
1337	1.3293e+02	6.7014	11.857334	0.000332	3.316516	0.561833	-0.000033
1338	1.3303e+02	6.6927	11.821896	0.000356	3.562184	0.603450	-0.000036
1339	1.3313e+02	6.6848	11.790530	0.000315	3.152737	0.534088	-0.000032
1340	1.3323e+02	6.6726	11.761609	0.000291	2.907070	0.492471	-0.000029
1341	1.3333e+02	6.6605	11.726985	0.000348	3.480295	0.589578	-0.000035
1342	1.3343e+02	6.6538	11.693990	0.000332	3.316516	0.561833	-0.000033
1343	1.3353e+02	6.6421	11.660588	0.000336	3.357461	0.568769	-0.000034
1344	1.3363e+02	6.6323	11.622298	0.000385	3.848796	0.652004	-0.000038
1345	1.3373e+02	6.6221	11.586044	0.000364	3.644073	0.617323	-0.000036
1346	1.3383e+02	6.6128	11.553049	0.000332	3.316516	0.561833	-0.000033
1347	1.3393e+02	6.6016	11.517611	0.000356	3.562184	0.603450	-0.000036
1348	1.3403e+02	6.5943	11.475247	0.000426	4.258243	0.721366	-0.000043
1349	1.3413e+02	6.5838	11.441030	0.000344	3.439350	0.582642	-0.000034
1350	1.3423e+02	6.5716	11.404777	0.000364	3.644073	0.617323	-0.000036
1351	1.3432e+02	6.5632	11.367709	0.000373	3.725962	0.631195	-0.000037
1352	1.3442e+02	6.5508	11.332270	0.000356	3.562184	0.603450	-0.000036
1353	1.3452e+02	6.5427	11.290721	0.000418	4.176354	0.707493	-0.000042
1354	1.3462e+02	6.5340	11.256911	0.000340	3.398405	0.575705	-0.000034
1355	1.3472e+02	6.5231	11.221065	0.000360	3.603129	0.610387	-0.000036
1356	1.3482e+02	6.5118	11.182775	0.000385	3.848796	0.652004	-0.000038
1357	1.3492e+02	6.5027	11.142448	0.000405	4.053520	0.686685	-0.000041
1358	1.3502e+02	6.4922	11.109861	0.000328	3.275571	0.554897	-0.000033
1359	1.3512e+02	6.4838	11.071571	0.000385	3.848796	0.652004	-0.000038
1360	1.3522e+02	6.4736	11.035317	0.000364	3.644073	0.617323	-0.000036
1361	1.3532e+02	6.4620	10.997027	0.000385	3.848796	0.652004	-0.000038
1362	1.3542e+02	6.4532	10.960366	0.000369	3.685018	0.624259	-0.000037
1363	1.3552e+02	6.4416	10.924113	0.000364	3.644073	0.617323	-0.000036
1364	1.3562e+02	6.4352	10.890303	0.000340	3.398405	0.575705	-0.000034
1365	1.3572e+02	6.4245	10.855679	0.000348	3.480295	0.589578	-0.000035
1366	1.3582e+02	6.4140	10.816167	0.000397	3.971630	0.672812	-0.000040
1367	1.3592e+02	6.4031	10.779913	0.000364	3.644073	0.617323	-0.000036
1368	1.3602e+02	6.3953	10.746511	0.000336	3.357461	0.568769	-0.000034
1369	1.3612e+02	6.3842	10.709850	0.000369	3.685018	0.624259	-0.000037
1370	1.3622e+02	6.3720	10.675226	0.000348	3.480295	0.589578	-0.000035
1371	1.3631e+02	6.3641	10.637343	0.000381	3.807852	0.645068	-0.000038
1372	1.3641e+02	6.3535	10.601905	0.000356	3.562184	0.603450	-0.000036
1373	1.3651e+02	6.3415	10.566466	0.000356	3.562184	0.603450	-0.000036
1374	1.3661e+02	6.3326	10.530212	0.000364	3.644073	0.617323	-0.000036
1375	1.3671e+02	6.3255	10.493551	0.000369	3.685018	0.624259	-0.000037
1376	1.3681e+02	6.3132	10.459335	0.000344	3.439350	0.582642	-0.000034
1377	1.3691e+02	6.3030	10.423489	0.000360	3.603129	0.610387	-0.000036
1378	1.3701e+02	6.2949	10.392123	0.000315	3.152737	0.534088	-0.000032
1379	1.3711e+02	6.2835	10.348130	0.000442	4.422021	0.749111	-0.000044
1380	1.3721e+02	6.2740	10.317987	0.000303	3.029904	0.513280	-0.000030
1381	1.3731e+02	6.2652	10.280511	0.000377	3.766907	0.638131	-0.000038
1382	1.3741e+02	6.2530	10.240592	0.000401	4.012575	0.679749	-0.000040
1383	1.3751e+02	6.2453	10.207190	0.000336	3.357461	0.568769	-0.000034
1384	1.3761e+02	6.2331	10.168899	0.000385	3.848796	0.652004	-0.000038
1385	1.3771e+02	6.2236	10.135090	0.000340	3.398405	0.575705	-0.000034
1386	1.3781e+02	6.2160	10.102095	0.000332	3.316516	0.561833	-0.000033
1387	1.3791e+02	6.2045	10.062176	0.000401	4.012575	0.679749	-0.000040
1388	1.3801e+02	6.1954	10.027144	0.000352	3.521239	0.596514	-0.000035
1389	1.3811e+02	6.1848	9.989669	0.000377	3.766907	0.638131	-0.000038
1390	1.3821e+02	6.1744	9.958303	0.000315	3.152737	0.534088	-0.000032
1391	1.3831e+02	6.1638	9.915532	0.000430	4.299187	0.728302	-0.000043
1392	1.3840e+02	6.1555	9.882538	0.000332	3.316516	0.561833	-0.000033
1393	1.3850e+02	6.1462	9.851580	0.000311	3.111793	0.527152	-0.000031
1394	1.3860e+02	6.1355	9.808401	0.000434	4.340132	0.735238	-0.000043
1395	1.3870e+02	6.1221	9.774999	0.000336	3.357461	0.568769	-0.000034
1396	1.3880e+02	6.1143	9.739560	0.000356	3.562184	0.603450	-0.000036
1397	1.3890e+02	6.1033	9.704936	0.000348	3.480295	0.589578	-0.000035
1398	1.3900e+02	6.0947	9.669905	0.000352	3.521239	0.596514	-0.000035
1399	1.3910e+02	6.0844	9.632429	0.000377	3.766907	0.638131	-0.000038
1400	1.3920e+02	6.0750	9.597398	0.000352	3.521239	0.596514	-0.000035
1401	1.3930e+02	6.0661	9.562774	0.000348	3.480295	0.589578	-0.000035
1402	1.3940e+02	6.0575	9.525706	0.000373	3.725962	0.631195	-0.000037
1403	1.3950e+02	6.0468	9.489452	0.000364	3.644073	0.617323	-0.000036
1404	1.3960e+02	6.0371	9.452791	0.000369	3.685018	0.624259	-0.000037
1405	1.3970e+02	6.0262	9.416130	0.000369	3.685018	0.624259	-0.000037
1406	1.3980e+02	6.0178	9.382728	0.000336	3.357461	0.568769	-0.000034
1407	1.3990e+02	6.0041	9.341179	0.000418	4.176354	0.707493	-0.000042
1408	1.4000e+02	5.9991	9.305741	0.000356	3.562184	0.603450	-0.000036
1409	1.4010e+02	5.9873	9.271116	0.000348	3.480295	0.589578	-0.000035
1410	1.4020e+02	5.9768	9.235678	0.000356	3.562184	0.603450	-0.000036
1411	1.4029e+02	5.9661	9.196165	0.000397	3.971630	0.672812	-0.000040
1412	1.4039e+02	5.9570	9.157468	0.000389	3.889741	0.658940	-0.000039
1413	1.4049e+02	5.9469	9.119585	0.000381	3.807852	0.645068	-0.000038
1414	1.4059e+02	5.9368	9.083332	0.000364	3.644073	0.617323	-0.000036
1415	1.4069e+02	5.9261	9.040561	0.000430	4.299187	0.728302	-0.000043
1416	1.4079e+02	5.9180	9.004307	0.000364	3.644073	0.617323	-0.000036
1417	1.4089e+02	5.9061	8.967239	0.000373	3.725962	0.631195	-0.000037
1418	1.4099e+02	5.8991	8.928949	0.000385	3.848796	0.652004	-0.000038
1419	1.4109e+02	5.8878	8.889437	0.000397	3.971630	0.672812	-0.000040
1420	1.4119e+02	5.8764	8.853183	0.000364	3.644073	0.617323	-0.000036
1421	1.4129e+02	5.8690	8.815300	0.000381	3.807852	0.645068	-0.000038
1422	1.4139e+02	5.8562	8.772937	0.000426	4.258243	0.721366	-0.000043
1423	1.4149e+02	5.8469	8.736683	0.000364	3.644073	0.617323	-0.000036
1424	1.4159e+02	5.8350	8.697986	0.000389	3.889741	0.658940	-0.000039
1425	1.4169e+02	5.8279	8.662954	0.000352	3.521239	0.596514	-0.000035
1426	1.4179e+02	5.8169	8.621812	0.000414	4.135409	0.700557	-0.000041
1427	1.4189e+02	5.8077	8.585559	0.000364	3.644073	0.617323	-0.000036
1428	1.4199e+02	5.7949	8.551750	0.000340	3.398405	0.575705	-0.000034
1429	1.4209e+02	5.7864	8.515496	0.000364	3.644073	0.617323	-0.000036
1430	1.4219e+02	5.7754	8.481279	0.000344	3.439350	0.582642	-0.000034
1431	1.4228e+02	5.7668	8.443804	0.000377	3.766907	0.638131	-0.000038
1432	1.4238e+02	5.7546	8.409994	0.000340	3.398405	0.575705	-0.000034
1433	1.4248e+02	5.7464	8.372519	0.000377	3.766907	0.638131	-0.000038
1434	1.4258e+02	5.7378	8.340339	0.000323	3.234627	0.547961	-0.000032
1435	1.4268e+02	5.7270	8.303271	0.000373	3.725962	0.631195	-0.000037
1436	1.4278e+02	5.7186	8.270276	0.000332	3.316516	0.561833	-0.000033
1437	1.4288e+02	5.7069	8.236059	0.000344	3.439350	0.582642	-0.000034
1438	1.4298e+02	5.6983	8.205101	0.000311	3.111793	0.527152	-0.000031
1439	1.4308e+02	5.6865	8.165181	0.000401	4.012575	0.679749	-0.000040
1440	1.4318e+02	5.6762	8.134631	0.000307	3.070848	0.520216	-0.000031
1441	1.4328e+02	5.6693	8.100414	0.000344	3.439350	0.582642	-0.000034
1442	1.4338e+02	5.6570	8.062938	0.000377	3.766907	0.638131	-0.000038
1443	1.4348e+02	5.6489	8.028314	0.000348	3.480295	0.589578	-0.000035
1444	1.4358e+02	5.6363	7.994912	0.000336	3.357461	0.568769	-0.000034
1445	1.4368e+02	5.6280	7.962325	0.000328	3.275571	0.554897	-0.000033
1446	1.4378e+02	5.6184	7.922813	0.000397	3.971630	0.672812	-0.000040
1447	1.4388e+02	5.6074	7.888189	0.000348	3.480295	0.589578	-0.000035
1448	1.4398e+02	5.5985	7.852342	0.000360	3.603129	0.610387	-0.000036
1449	1.4408e+02	5.5889	7.811608	0.000409	4.094464	0.693621	-0.000041
1450	1.4418e+02	5.5776	7.775762	0.000360	3.603129	0.610387	-0.000036
1451	1.4428e+02	5.5685	7.743582	0.000323	3.234627	0.547961	-0.000032
1452	1.4437e+02	5.5587	7.707736	0.000360	3.603129	0.610387	-0.000036
1453	1.4447e+02	5.5495	7.668631	0.000393	3.930686	0.665876	-0.000039
1454	1.4457e+02	5.5392	7.629119	0.000397	3.971630	0.672812	-0.000040
1455	1.4467e+02	5.5276	7.594902	0.000344	3.439350	0.582642	-0.000034
1456	1.4477e+02	5.5169	7.559056	0.000360	3.603129	0.610387	-0.000036
1457	1.4487e+02	5.5093	7.519544	0.000397	3.971630	0.672812	-0.000040
1458	1.4497e+02	5.4987	7.483290	0.000364	3.644073	0.617323	-0.000036
1459	1.4507e+02	5.4859	7.446222	0.000373	3.725962	0.631195	-0.000037
1460	1.4517e+02	5.4798	7.408339	0.000381	3.807852	0.645068	-0.000038
1461	1.4527e+02	5.4699	7.372900	0.000356	3.562184	0.603450	-0.000036
1462	1.4537e+02	5.4580	7.330537	0.000426	4.258243	0.721366	-0.000043
1463	1.4547e+02	5.4501	7.301208	0.000295	2.948014	0.499407	-0.000029
1464	1.4557e+02	5.4400	7.262103	0.000393	3.930686	0.665876	-0.000039
1465	1.4567e+02	5.4308	7.225035	0.000373	3.725962	0.631195	-0.000037
1466	1.4577e+02	5.4188	7.186337	0.000389	3.889741	0.658940	-0.000039
1467	1.4587e+02	5.4091	7.150898	0.000356	3.562184	0.603450	-0.000036
1468	1.4597e+02	5.3976	7.113016	0.000381	3.807852	0.645068	-0.000038
1469	1.4607e+02	5.3909	7.075540	0.000377	3.766907	0.638131	-0.000038
1470	1.4617e+02	5.3777	7.036843	0.000389	3.889741	0.658940	-0.000039
1471	1.4626e+02	5.3690	7.000996	0.000360	3.603129	0.610387	-0.000036
1472	1.4636e+02	5.3559	6.963114	0.000381	3.807852	0.645068	-0.000038
1473	1.4646e+02	5.3487	6.927675	0.000356	3.562184	0.603450	-0.000036
1474	1.4656e+02	5.3408	6.887348	0.000405	4.053520	0.686685	-0.000041
1475	1.4666e+02	5.3303	6.849465	0.000381	3.807852	0.645068	-0.000038
1476	1.4676e+02	5.3187	6.815656	0.000340	3.398405	0.575705	-0.000034
1477	1.4686e+02	5.3077	6.774107	0.000418	4.176354	0.707493	-0.000042
1478	1.4696e+02	5.2983	6.738668	0.000356	3.562184	0.603450	-0.000036
1479	1.4706e+02	5.2877	6.703229	0.000356	3.562184	0.603450	-0.000036
1480	1.4716e+02	5.2769	6.662902	0.000405	4.053520	0.686685	-0.000041
1481	1.4726e+02	5.2711	6.627056	0.000360	3.603129	0.610387	-0.000036
1482	1.4736e+02	5.2598	6.585507	0.000418	4.176354	0.707493	-0.000042
1483	1.4746e+02	5.2489	6.550883	0.000348	3.480295	0.589578	-0.000035
1484	1.4756e+02	5.2383	6.507297	0.000438	4.381077	0.742174	-0.000044
1485	1.4766e+02	5.2266	6.471858	0.000356	3.562184	0.603450	-0.000036
1486	1.4776e+02	5.2177	6.432346	0.000397	3.971630	0.672812	-0.000040
1487	1.4786e+02	5.2090	6.389575	0.000430	4.299187	0.728302	-0.000043
1488	1.4796e+02	5.2009	6.356988	0.000328	3.275571	0.554897	-0.000033
1489	1.4806e+02	5.1866	6.317068	0.000401	4.012575	0.679749	-0.000040
1490	1.4816e+02	5.1788	6.279185	0.000381	3.807852	0.645068	-0.000038
1491	1.4825e+02	5.1707	6.243747	0.000356	3.562184	0.603450	-0.000036
1492	1.4835e+02	5.1606	6.204642	0.000393	3.930686	0.665876	-0.000039
1493	1.4845e+02	5.1488	6.167981	0.000369	3.685018	0.624259	-0.000037
1494	1.4855e+02	5.1382	6.128876	0.000393	3.930686	0.665876	-0.000039
1495	1.4865e+02	5.1295	6.092215	0.000369	3.685018	0.624259	-0.000037
1496	1.4875e+02	5.1179	6.054740	0.000377	3.766907	0.638131	-0.000038
1497	1.4885e+02	5.1102	6.018079	0.000369	3.685018	0.624259	-0.000037
1498	1.4895e+02	5.1012	5.983862	0.000344	3.439350	0.582642	-0.000034
1499	1.4905e+02	5.0900	5.943943	0.000401	4.012575	0.679749	-0.000040
1500	1.4915e+02	5.0787	5.908504	0.000356	3.562184	0.603450	-0.000036
1501	1.4925e+02	5.0678	5.866955	0.000418	4.176354	0.707493	-0.000042
1502	1.4935e+02	5.0603	5.832331	0.000348	3.480295	0.589578	-0.000035
1503	1.4945e+02	5.0489	5.793226	0.000393	3.930686	0.665876	-0.000039
1504	1.4955e+02	5.0417	5.758194	0.000352	3.521239	0.596514	-0.000035
1505	1.4965e+02	5.0304	5.724792	0.000336	3.357461	0.568769	-0.000034
1506	1.4975e+02	5.0208	5.686909	0.000381	3.807852	0.645068	-0.000038
1507	1.4985e+02	5.0082	5.651471	0.000356	3.562184	0.603450	-0.000036
1508	1.4995e+02	4.9999	5.612773	0.000389	3.889741	0.658940	-0.000039
1509	1.5005e+02	4.9899	5.576112	0.000369	3.685018	0.624259	-0.000037
1510	1.5015e+02	4.9792	5.535785	0.000405	4.053520	0.686685	-0.000041
1511	1.5025e+02	4.9745	5.497088	0.000389	3.889741	0.658940	-0.000039
1512	1.5034e+02	4.9624	5.453095	0.000442	4.422021	0.749111	-0.000044
1513	1.5044e+02	4.9510	5.414397	0.000389	3.889741	0.658940	-0.000039
1514	1.5054e+02	4.9396	5.373256	0.000414	4.135409	0.700557	-0.000041
1515	1.5064e+02	4.9312	5.334558	0.000389	3.889741	0.658940	-0.000039
1516	1.5074e+02	4.9212	5.293009	0.000418	4.176354	0.707493	-0.000042
1517	1.5084e+02	4.9098	5.251053	0.000422	4.217298	0.714430	-0.000042
1518	1.5094e+02	4.9000	5.208282	0.000430	4.299187	0.728302	-0.000043
1519	1.5104e+02	4.8911	5.168362	0.000401	4.012575	0.679749	-0.000040
1520	1.5114e+02	4.8818	5.130072	0.000385	3.848796	0.652004	-0.000038
1521	1.5124e+02	4.8709	5.088930	0.000414	4.135409	0.700557	-0.000041
1522	1.5134e+02	4.8630	5.044938	0.000442	4.422021	0.749111	-0.000044
1523	1.5144e+02	4.8529	5.005425	0.000397	3.971630	0.672812	-0.000040
1524	1.5154e+02	4.8406	4.961025	0.000446	4.462966	0.756047	-0.000045
1525	1.5164e+02	4.8318	4.919069	0.000422	4.217298	0.714430	-0.000042
1526	1.5174e+02	4.8259	4.877112	0.000422	4.217298	0.714430	-0.000042
1527	1.5184e+02	4.8154	4.835156	0.000422	4.217298	0.714430	-0.000042
1528	1.5194e+02	4.8009	4.793607	0.000418	4.176354	0.707493	-0.000042
1529	1.5204e+02	4.7918	4.752873	0.000409	4.094464	0.693621	-0.000041
1530	1.5214e+02	4.7814	4.713361	0.000397	3.971630	0.672812	-0.000040
1531	1.5224e+02	4.7728	4.669368	0.000442	4.422021	0.749111	-0.000044
1532	1.5233e+02	4.7609	4.629041	0.000405	4.053520	0.686685	-0.000041
1533	1.5243e+02	4.7511	4.589936	0.000393	3.930686	0.665876	-0.000039
1534	1.5253e+02	4.7421	4.547980	0.000422	4.217298	0.714430	-0.000042
1535	1.5263e+02	4.7321	4.510504	0.000377	3.766907	0.638131	-0.000038
1536	1.5273e+02	4.7223	4.470177	0.000405	4.053520	0.686685	-0.000041
1537	1.5283e+02	4.7106	4.428628	0.000418	4.176354	0.707493	-0.000042
1538	1.5293e+02	4.7031	4.385857	0.000430	4.299187	0.728302	-0.000043
1539	1.5303e+02	4.6938	4.345123	0.000409	4.094464	0.693621	-0.000041
1540	1.5313e+02	4.6819	4.304796	0.000405	4.053520	0.686685	-0.000041
1541	1.5323e+02	4.6722	4.269357	0.000356	3.562184	0.603450	-0.000036
1542	1.5333e+02	4.6624	4.227401	0.000422	4.217298	0.714430	-0.000042
1543	1.5343e+02	4.6539	4.183408	0.000442	4.422021	0.749111	-0.000044
1544	1.5353e+02	4.6426	4.147969	0.000356	3.562184	0.603450	-0.000036
1545	1.5363e+02	4.6307	4.107235	0.000409	4.094464	0.693621	-0.000041
1546	1.5373e+02	4.6233	4.064464	0.000430	4.299187	0.728302	-0.000043
1547	1.5383e+02	4.6147	4.022508	0.000422	4.217298	0.714430	-0.000042
1548	1.5393e+02	4.6009	3.980551	0.000422	4.217298	0.714430	-0.000042
1549	1.5403e+02	4.5927	3.940225	0.000405	4.053520	0.686685	-0.000041
1550	1.5413e+02	4.5828	3.897861	0.000426	4.258243	0.721366	-0.000043
1551	1.5422e+02	4.5737	3.856312	0.000418	4.176354	0.707493	-0.000042
1552	1.5432e+02	4.5609	3.817614	0.000389	3.889741	0.658940	-0.000039
1553	1.5442e+02	4.5538	3.778917	0.000389	3.889741	0.658940	-0.000039
1554	1.5452e+02	4.5408	3.734924	0.000442	4.422021	0.749111	-0.000044
1555	1.5462e+02	4.5319	3.695004	0.000401	4.012575	0.679749	-0.000040
1556	1.5472e+02	4.5220	3.651419	0.000438	4.381077	0.742174	-0.000044
1557	1.5482e+02	4.5136	3.611906	0.000397	3.971630	0.672812	-0.000040
1558	1.5492e+02	4.5036	3.574024	0.000381	3.807852	0.645068	-0.000038
1559	1.5502e+02	4.4910	3.531660	0.000426	4.258243	0.721366	-0.000043
1560	1.5512e+02	4.4820	3.491740	0.000401	4.012575	0.679749	-0.000040
1561	1.5522e+02	4.4757	3.449784	0.000422	4.217298	0.714430	-0.000042
1562	1.5532e+02	4.4633	3.409864	0.000401	4.012575	0.679749	-0.000040
1563	1.5542e+02	4.4535	3.367908	0.000422	4.217298	0.714430	-0.000042
1564	1.5552e+02	4.4443	3.326767	0.000414	4.135409	0.700557	-0.000041
1565	1.5562e+02	4.4347	3.287254	0.000397	3.971630	0.672812	-0.000040
1566	1.5572e+02	4.4234	3.245705	0.000418	4.176354	0.707493	-0.000042
1567	1.5582e+02	4.4126	3.206193	0.000397	3.971630	0.672812	-0.000040
1568	1.5592e+02	4.4038	3.164237	0.000422	4.217298	0.714430	-0.000042
1569	1.5602e+02	4.3948	3.122281	0.000422	4.217298	0.714430	-0.000042
1570	1.5612e+02	4.3877	3.083583	0.000389	3.889741	0.658940	-0.000039
1571	1.5622e+02	4.3733	3.043664	0.000401	4.012575	0.679749	-0.000040
1572	1.5631e+02	4.3642	3.004559	0.000393	3.930686	0.665876	-0.000039
1573	1.5641e+02	4.3546	2.962602	0.000422	4.217298	0.714430	-0.000042
1574	1.5651e+02	4.3434	2.920646	0.000422	4.217298	0.714430	-0.000042
1575	1.5661e+02	4.3350	2.879097	0.000418	4.176354	0.707493	-0.000042
1576	1.5671e+02	4.3259	2.835104	0.000442	4.422021	0.749111	-0.000044
1577	1.5681e+02	4.3134	2.794370	0.000409	4.094464	0.693621	-0.000041
1578	1.5691e+02	4.3033	2.752821	0.000418	4.176354	0.707493	-0.000042
1579	1.5701e+02	4.2934	2.712901	0.000401	4.012575	0.679749	-0.000040
1580	1.5711e+02	4.2825	2.664835	0.000483	4.831468	0.818473	-0.000048
1581	1.5721e+02	4.2748	2.624915	0.000401	4.012575	0.679749	-0.000040
1582	1.5731e+02	4.2642	2.578886	0.000463	4.626745	0.783792	-0.000046
1583	1.5741e+02	4.2530	2.537337	0.000418	4.176354	0.707493	-0.000042
1584	1.5751e+02	4.2445	2.493344	0.000442	4.422021	0.749111	-0.000044
1585	1.5761e+02	4.2333	2.452202	0.000414	4.135409	0.700557	-0.000041
1586	1.5771e+02	4.2260	2.406987	0.000454	4.544855	0.769919	-0.000045
1587	1.5781e+02	4.2139	2.365438	0.000418	4.176354	0.707493	-0.000042
1588	1.5791e+02	4.2066	2.322260	0.000434	4.340132	0.735238	-0.000043
1589	1.5801e+02	4.1913	2.278674	0.000438	4.381077	0.742174	-0.000044
1590	1.5811e+02	4.1869	2.232645	0.000463	4.626745	0.783792	-0.000046
1591	1.5821e+02	4.1774	2.193540	0.000393	3.930686	0.665876	-0.000039
1592	1.5830e+02	4.1627	2.145881	0.000479	4.790523	0.811537	-0.000048
1593	1.5840e+02	4.1544	2.106776	0.000393	3.930686	0.665876	-0.000039
1594	1.5850e+02	4.1478	2.062783	0.000442	4.422021	0.749111	-0.000044
1595	1.5860e+02	4.1331	2.024492	0.000385	3.848796	0.652004	-0.000038
1596	1.5870e+02	4.1238	1.980499	0.000442	4.422021	0.749111	-0.000044
1597	1.5880e+02	4.1137	1.937729	0.000430	4.299187	0.728302	-0.000043
1598	1.5890e+02	4.1070	1.902697	0.000352	3.521239	0.596514	-0.000035
1599	1.5900e+02	4.0969	1.861555	0.000414	4.135409	0.700557	-0.000041
1600	1.5910e+02	4.0859	1.821229	0.000405	4.053520	0.686685	-0.000041
1601	1.5920e+02	4.0731	1.780902	0.000405	4.053520	0.686685	-0.000041
1602	1.5930e+02	4.0652	1.740575	0.000405	4.053520	0.686685	-0.000041
1603	1.5940e+02	4.0552	1.699840	0.000409	4.094464	0.693621	-0.000041
1604	1.5950e+02	4.0428	1.658699	0.000414	4.135409	0.700557	-0.000041
1605	1.5960e+02	4.0369	1.619594	0.000393	3.930686	0.665876	-0.000039
1606	1.5970e+02	4.0260	1.583340	0.000364	3.644073	0.617323	-0.000036
1607	1.5980e+02	4.0154	1.544236	0.000393	3.930686	0.665876	-0.000039
1608	1.5990e+02	4.0056	1.502279	0.000422	4.217298	0.714430	-0.000042
1609	1.6000e+02	3.9953	1.463174	0.000393	3.930686	0.665876	-0.000039
1610	1.6010e+02	3.9857	1.425699	0.000377	3.766907	0.638131	-0.000038
1611	1.6019e+02	3.9756	1.384557	0.000414	4.135409	0.700557	-0.000041
1612	1.6029e+02	3.9648	1.347082	0.000377	3.766907	0.638131	-0.000038
1613	1.6039e+02	3.9564	1.303904	0.000434	4.340132	0.735238	-0.000043
1614	1.6049e+02	3.9446	1.264799	0.000393	3.930686	0.665876	-0.000039
1615	1.6059e+02	3.9368	1.221620	0.000434	4.340132	0.735238	-0.000043
1616	1.6069e+02	3.9257	1.179664	0.000422	4.217298	0.714430	-0.000042
1617	1.6079e+02	3.9149	1.137300	0.000426	4.258243	0.721366	-0.000043
1618	1.6089e+02	3.9048	1.094937	0.000426	4.258243	0.721366	-0.000043
1619	1.6099e+02	3.8961	1.050944	0.000442	4.422021	0.749111	-0.000044
1620	1.6109e+02	3.8844	1.013876	0.000373	3.725962	0.631195	-0.000037
1621	1.6119e+02	3.8789	0.972734	0.000414	4.135409	0.700557	-0.000041
1622	1.6129e+02	3.8650	0.930778	0.000422	4.217298	0.714430	-0.000042
1623	1.6139e+02	3.8558	0.887599	0.000434	4.340132	0.735238	-0.000043
1624	1.6149e+02	3.8460	0.842792	0.000450	4.503911	0.762983	-0.000045
1625	1.6159e+02	3.8346	0.799206	0.000438	4.381077	0.742174	-0.000044
1626	1.6169e+02	3.8279	0.758472	0.000409	4.094464	0.693621	-0.000041
1627	1.6179e+02	3.8172	0.718145	0.000405	4.053520	0.686685	-0.000041
1628	1.6189e+02	3.8050	0.674559	0.000438	4.381077	0.742174	-0.000044
1629	1.6199e+02	3.7961	0.628937	0.000459	4.585800	0.776856	-0.000046
1630	1.6209e+02	3.7905	0.587795	0.000414	4.135409	0.700557	-0.000041
1631	1.6219e+02	3.7758	0.547468	0.000405	4.053520	0.686685	-0.000041
1632	1.6228e+02	3.7646	0.506327	0.000414	4.135409	0.700557	-0.000041
1633	1.6238e+02	3.7582	0.465593	0.000409	4.094464	0.693621	-0.000041
1634	1.6248e+02	3.7475	0.424858	0.000409	4.094464	0.693621	-0.000041
1635	1.6258e+02	3.7373	0.380865	0.000442	4.422021	0.749111	-0.000044
1636	1.6268e+02	3.7283	0.340131	0.000409	4.094464	0.693621	-0.000041
1637	1.6278e+02	3.7194	0.292879	0.000475	4.749579	0.804600	-0.000047
1638	1.6288e+02	3.7067	0.252145	0.000409	4.094464	0.693621	-0.000041
1639	1.6298e+02	3.6964	0.210596	0.000418	4.176354	0.707493	-0.000042
1640	1.6308e+02	3.6856	0.163344	0.000475	4.749579	0.804600	-0.000047
1641	1.6318e+02	3.6777	0.120573	0.000430	4.299187	0.728302	-0.000043
1642	1.6328e+02	3.6671	0.079839	0.000409	4.094464	0.693621	-0.000041
1643	1.6338e+02	3.6581	0.037883	0.000422	4.217298	0.714430	-0.000042
1644	1.6348e+02	3.6495	-0.008962	0.000471	4.708634	0.797664	-0.000047
1645	1.6358e+02	3.6349	-0.050918	0.000422	4.217298	0.714430	-0.000042
1646	1.6368e+02	3.6283	-0.090023	0.000393	3.930686	0.665876	-0.000039
1647	1.6378e+02	3.6192	-0.131979	0.000422	4.217298	0.714430	-0.000042
1648	1.6388e+02	3.6073	-0.176379	0.000446	4.462966	0.756047	-0.000045
1649	1.6398e+02	3.5989	-0.220780	0.000446	4.462966	0.756047	-0.000045
1650	1.6408e+02	3.5885	-0.268031	0.000475	4.749579	0.804600	-0.000047
1651	1.6418e+02	3.5766	-0.310802	0.000430	4.299187	0.728302	-0.000043
1652	1.6427e+02	3.5677	-0.355610	0.000450	4.503911	0.762983	-0.000045
1653	1.6437e+02	3.5580	-0.397159	0.000418	4.176354	0.707493	-0.000042
1654	1.6447e+02	3.5490	-0.441559	0.000446	4.462966	0.756047	-0.000045
1655	1.6457e+02	3.5387	-0.485960	0.000446	4.462966	0.756047	-0.000045
1656	1.6467e+02	3.5287	-0.530767	0.000450	4.503911	0.762983	-0.000045
1657	1.6477e+02	3.5215	-0.573946	0.000434	4.340132	0.735238	-0.000043
1658	1.6487e+02	3.5079	-0.619568	0.000459	4.585800	0.776856	-0.000046
1659	1.6497e+02	3.4986	-0.658266	0.000389	3.889741	0.658940	-0.000039
1660	1.6507e+02	3.4882	-0.705925	0.000479	4.790523	0.811537	-0.000048
1661	1.6517e+02	3.4776	-0.745844	0.000401	4.012575	0.679749	-0.000040
1662	1.6527e+02	3.4696	-0.786171	0.000405	4.053520	0.686685	-0.000041
1663	1.6537e+02	3.4582	-0.832608	0.000467	4.667689	0.790728	-0.000047
1664	1.6547e+02	3.4502	-0.874157	0.000418	4.176354	0.707493	-0.000042
1665	1.6557e+02	3.4388	-0.916928	0.000430	4.299187	0.728302	-0.000043
1666	1.6567e+02	3.4292	-0.962550	0.000459	4.585800	0.776856	-0.000046
1667	1.6577e+02	3.4180	-1.000026	0.000377	3.766907	0.638131	-0.000038
1668	1.6587e+02	3.4072	-1.043612	0.000438	4.381077	0.742174	-0.000044
1669	1.6597e+02	3.3999	-1.088012	0.000446	4.462966	0.756047	-0.000045
1670	1.6607e+02	3.3902	-1.129968	0.000422	4.217298	0.714430	-0.000042
1671	1.6616e+02	3.3807	-1.174369	0.000446	4.462966	0.756047	-0.000045
1672	1.6626e+02	3.3685	-1.214695	0.000405	4.053520	0.686685	-0.000041
1673	1.6636e+02	3.3581	-1.258688	0.000442	4.422021	0.749111	-0.000044
1674	1.6646e+02	3.3504	-1.297386	0.000389	3.889741	0.658940	-0.000039
1675	1.6656e+02	3.3387	-1.347082	0.000500	4.995246	0.846218	-0.000050
1676	1.6666e+02	3.3283	-1.385372	0.000385	3.848796	0.652004	-0.000038
1677	1.6676e+02	3.3198	-1.426514	0.000414	4.135409	0.700557	-0.000041
1678	1.6686e+02	3.3094	-1.475395	0.000491	4.913357	0.832345	-0.000049
1679	1.6696e+02	3.2975	-1.521424	0.000463	4.626745	0.783792	-0.000046
1680	1.6706e+02	3.2887	-1.565825	0.000446	4.462966	0.756047	-0.000045
1681	1.6716e+02	3.2800	-1.613077	0.000475	4.749579	0.804600	-0.000047
1682	1.6726e+02	3.2693	-1.662365	0.000495	4.954302	0.839281	-0.000050
1683	1.6736e+02	3.2597	-1.708802	0.000467	4.667689	0.790728	-0.000047
1684	1.6746e+02	3.2489	-1.751573	0.000430	4.299187	0.728302	-0.000043
1685	1.6756e+02	3.2406	-1.802083	0.000508	5.077136	0.860090	-0.000051
1686	1.6766e+02	3.2308	-1.844854	0.000430	4.299187	0.728302	-0.000043
1687	1.6776e+02	3.2195	-1.896994	0.000524	5.240914	0.887835	-0.000052
1688	1.6786e+02	3.2079	-1.938951	0.000422	4.217298	0.714430	-0.000042
1689	1.6796e+02	3.1998	-1.989868	0.000512	5.118080	0.867026	-0.000051
1690	1.6806e+02	3.1884	-2.037935	0.000483	4.831468	0.818473	-0.000048
1691	1.6816e+02	3.1796	-2.085594	0.000479	4.790523	0.811537	-0.000048
1692	1.6825e+02	3.1678	-2.136104	0.000508	5.077136	0.860090	-0.000051
1693	1.6835e+02	3.1615	-2.177246	0.000414	4.135409	0.700557	-0.000041
1694	1.6845e+02	3.1502	-2.229793	0.000528	5.281859	0.894771	-0.000053
1695	1.6855e+02	3.1417	-2.274601	0.000450	4.503911	0.762983	-0.000045
1696	1.6865e+02	3.1303	-2.323075	0.000487	4.872412	0.825409	-0.000049
1697	1.6875e+02	3.1196	-2.370326	0.000475	4.749579	0.804600	-0.000047
1698	1.6885e+02	3.1088	-2.415134	0.000450	4.503911	0.762983	-0.000045
1699	1.6895e+02	3.1004	-2.459942	0.000450	4.503911	0.762983	-0.000045
1700	1.6905e+02	3.0910	-2.510452	0.000508	5.077136	0.860090	-0.000051
1701	1.6915e+02	3.0791	-2.554445	0.000442	4.422021	0.749111	-0.000044
1702	1.6925e+02	3.0739	-2.603326	0.000491	4.913357	0.832345	-0.000049
1703	1.6935e+02	3.0622	-2.650578	0.000475	4.749579	0.804600	-0.000047
1704	1.6945e+02	3.0484	-2.694978	0.000446	4.462966	0.756047	-0.000045
1705	1.6955e+02	3.0412	-2.738971	0.000442	4.422021	0.749111	-0.000044
1706	1.6965e+02	3.0305	-2.786223	0.000475	4.749579	0.804600	-0.000047
1707	1.6975e+02	3.0229	-2.834289	0.000483	4.831468	0.818473	-0.000048
1708	1.6985e+02	3.0105	-2.881134	0.000471	4.708634	0.797664	-0.000047
1709	1.6995e+02	3.0006	-2.927571	0.000467	4.667689	0.790728	-0.000047
1710	1.7005e+02	2.9931	-2.974415	0.000471	4.708634	0.797664	-0.000047
1711	1.7015e+02	2.9769	-3.020038	0.000459	4.585800	0.776856	-0.000046
1712	1.7024e+02	2.9702	-3.071770	0.000520	5.199970	0.880899	-0.000052
1713	1.7034e+02	2.9643	-3.112504	0.000409	4.094464	0.693621	-0.000041
1714	1.7044e+02	2.9517	-3.159349	0.000471	4.708634	0.797664	-0.000047
1715	1.7054e+02	2.9414	-3.207823	0.000487	4.872412	0.825409	-0.000049
1716	1.7064e+02	2.9339	-3.256704	0.000491	4.913357	0.832345	-0.000049
1717	1.7074e+02	2.9205	-3.301104	0.000446	4.462966	0.756047	-0.000045
1718	1.7084e+02	2.9116	-3.351207	0.000504	5.036191	0.853154	-0.000050
1719	1.7094e+02	2.9025	-3.395200	0.000442	4.422021	0.749111	-0.000044
1720	1.7104e+02	2.8895	-3.444489	0.000495	4.954302	0.839281	-0.000050
1721	1.7114e+02	2.8849	-3.492555	0.000483	4.831468	0.818473	-0.000048
1722	1.7124e+02	2.8695	-3.536955	0.000446	4.462966	0.756047	-0.000045
1723	1.7134e+02	2.8616	-3.582578	0.000459	4.585800	0.776856	-0.000046
1724	1.7144e+02	2.8514	-3.633088	0.000508	5.077136	0.860090	-0.000051
1725	1.7154e+02	2.8422	-3.679118	0.000463	4.626745	0.783792	-0.000046
1726	1.7164e+02	2.8318	-3.727184	0.000483	4.831468	0.818473	-0.000048
1727	1.7174e+02	2.8222	-3.771992	0.000450	4.503911	0.762983	-0.000045
1728	1.7184e+02	2.8130	-3.820466	0.000487	4.872412	0.825409	-0.000049
1729	1.7194e+02	2.8019	-3.867718	0.000475	4.749579	0.804600	-0.000047
1730	1.7204e+02	2.7915	-3.913747	0.000463	4.626745	0.783792	-0.000046
1731	1.7213e+02	2.7818	-3.961814	0.000483	4.831468	0.818473	-0.000048
1732	1.7223e+02	2.7734	-4.009065	0.000475	4.749579	0.804600	-0.000047
1733	1.7233e+02	2.7622	-4.055502	0.000467	4.667689	0.790728	-0.000047
1734	1.7243e+02	2.7517	-4.101939	0.000467	4.667689	0.790728	-0.000047
1735	1.7253e+02	2.7430	-4.153672	0.000520	5.199970	0.880899	-0.000052
1736	1.7263e+02	2.7338	-4.198072	0.000446	4.462966	0.756047	-0.000045
1737	1.7273e+02	2.7228	-4.241658	0.000438	4.381077	0.742174	-0.000044
1738	1.7283e+02	2.7105	-4.290946	0.000495	4.954302	0.839281	-0.000050
1739	1.7293e+02	2.7018	-4.337383	0.000467	4.667689	0.790728	-0.000047
1740	1.7303e+02	2.6933	-4.380969	0.000438	4.381077	0.742174	-0.000044
1741	1.7313e+02	2.6821	-4.430665	0.000500	4.995246	0.846218	-0.000050
1742	1.7323e+02	2.6708	-4.478731	0.000483	4.831468	0.818473	-0.000048
1743	1.7333e+02	2.6615	-4.529649	0.000512	5.118080	0.867026	-0.000051
1744	1.7343e+02	2.6517	-4.570383	0.000409	4.094464	0.693621	-0.000041
1745	1.7353e+02	2.6414	-4.627411	0.000573	5.732250	0.971069	-0.000057
1746	1.7363e+02	2.6329	-4.672626	0.000454	4.544855	0.769919	-0.000045
1747	1.7373e+02	2.6225	-4.724766	0.000524	5.240914	0.887835	-0.000052
1748	1.7383e+02	2.6118	-4.773647	0.000491	4.913357	0.832345	-0.000049
1749	1.7393e+02	2.6009	-4.826602	0.000532	5.322804	0.901707	-0.000053
1750	1.7403e+02	2.5923	-4.871817	0.000454	4.544855	0.769919	-0.000045
1751	1.7413e+02	2.5799	-4.921105	0.000495	4.954302	0.839281	-0.000050
1752	1.7422e+02	2.5726	-4.970394	0.000495	4.954302	0.839281	-0.000050
1753	1.7432e+02	2.5632	-5.019682	0.000495	4.954302	0.839281	-0.000050
1754	1.7442e+02	2.5528	-5.066934	0.000475	4.749579	0.804600	-0.000047
1755	1.7452e+02	2.5433	-5.121518	0.000549	5.486582	0.929452	-0.000055
1756	1.7462e+02	2.5307	-5.173658	0.000524	5.240914	0.887835	-0.000052
1757	1.7472e+02	2.5237	-5.219687	0.000463	4.626745	0.783792	-0.000046
1758	1.7482e+02	2.5140	-5.272642	0.000532	5.322804	0.901707	-0.000053
1759	1.7492e+02	2.5026	-5.318264	0.000459	4.585800	0.776856	-0.000046
1760	1.7502e+02	2.4941	-5.367553	0.000495	4.954302	0.839281	-0.000050
1761	1.7512e+02	2.4816	-5.417249	0.000500	4.995246	0.846218	-0.000050
1762	1.7522e+02	2.4757	-5.464500	0.000475	4.749579	0.804600	-0.000047
1763	1.7532e+02	2.4614	-5.515011	0.000508	5.077136	0.860090	-0.000051
1764	1.7542e+02	2.4530	-5.559411	0.000446	4.462966	0.756047	-0.000045
1765	1.7552e+02	2.4450	-5.604626	0.000454	4.544855	0.769919	-0.000045
1766	1.7562e+02	2.4339	-5.653507	0.000491	4.913357	0.832345	-0.000049
1767	1.7572e+02	2.4237	-5.697500	0.000442	4.422021	0.749111	-0.000044
1768	1.7582e+02	2.4129	-5.743530	0.000463	4.626745	0.783792	-0.000046
1769	1.7592e+02	2.4052	-5.789152	0.000459	4.585800	0.776856	-0.000046
1770	1.7602e+02	2.3943	-5.842107	0.000532	5.322804	0.901707	-0.000053
1771	1.7612e+02	2.3837	-5.889359	0.000475	4.749579	0.804600	-0.000047
1772	1.7621e+02	2.3742	-5.937018	0.000479	4.790523	0.811537	-0.000048
1773	1.7631e+02	2.3618	-5.982233	0.000454	4.544855	0.769919	-0.000045
1774	1.7641e+02	2.3540	-6.026633	0.000446	4.462966	0.756047	-0.000045
1775	1.7651e+02	2.3446	-6.071441	0.000450	4.503911	0.762983	-0.000045
1776	1.7661e+02	2.3343	-6.115841	0.000446	4.462966	0.756047	-0.000045
1777	1.7671e+02	2.3223	-6.164722	0.000491	4.913357	0.832345	-0.000049
1778	1.7681e+02	2.3163	-6.212381	0.000479	4.790523	0.811537	-0.000048
1779	1.7691e+02	2.3031	-6.258818	0.000467	4.667689	0.790728	-0.000047
1780	1.7701e+02	2.2948	-6.306070	0.000475	4.749579	0.804600	-0.000047
1781	1.7711e+02	2.2836	-6.350063	0.000442	4.422021	0.749111	-0.000044
1782	1.7721e+02	2.2778	-6.401796	0.000520	5.199970	0.880899	-0.000052
1783	1.7731e+02	2.2610	-6.450677	0.000491	4.913357	0.832345	-0.000049
1784	1.7741e+02	2.2512	-6.497521	0.000471	4.708634	0.797664	-0.000047
1785	1.7751e+02	2.2443	-6.545587	0.000483	4.831468	0.818473	-0.000048
1786	1.7761e+02	2.2346	-6.593654	0.000483	4.831468	0.818473	-0.000048
1787	1.7771e+02	2.2230	-6.645386	0.000520	5.199970	0.880899	-0.000052
1788	1.7781e+02	2.2163	-6.697526	0.000524	5.240914	0.887835	-0.000052
1789	1.7791e+02	2.2031	-6.738668	0.000414	4.135409	0.700557	-0.000041
1790	1.7801e+02	2.1931	-6.792030	0.000536	5.363748	0.908644	-0.000054
1791	1.7810e+02	2.1812	-6.838467	0.000467	4.667689	0.790728	-0.000047
1792	1.7820e+02	2.1763	-6.887755	0.000495	4.954302	0.839281	-0.000050
1793	1.7830e+02	2.1653	-6.942339	0.000549	5.486582	0.929452	-0.000055
1794	1.7840e+02	2.1561	-6.991628	0.000495	4.954302	0.839281	-0.000050
1795	1.7850e+02	2.1453	-7.039287	0.000479	4.790523	0.811537	-0.000048
1796	1.7860e+02	2.1333	-7.085724	0.000467	4.667689	0.790728	-0.000047
1797	1.7870e+02	2.1255	-7.136642	0.000512	5.118080	0.867026	-0.000051
1798	1.7880e+02	2.1151	-7.188374	0.000520	5.199970	0.880899	-0.000052
1799	1.7890e+02	2.1046	-7.238070	0.000500	4.995246	0.846218	-0.000050
1800	1.7900e+02	2.0951	-7.285322	0.000475	4.749579	0.804600	-0.000047
1801	1.7910e+02	2.0847	-7.333795	0.000487	4.872412	0.825409	-0.000049
1802	1.7920e+02	2.0741	-7.384306	0.000508	5.077136	0.860090	-0.000051
1803	1.7930e+02	2.0685	-7.431558	0.000475	4.749579	0.804600	-0.000047
1804	1.7940e+02	2.0564	-7.482475	0.000512	5.118080	0.867026	-0.000051
1805	1.7950e+02	2.0451	-7.533393	0.000512	5.118080	0.867026	-0.000051
1806	1.7960e+02	2.0348	-7.584718	0.000516	5.159025	0.873962	-0.000052
1807	1.7970e+02	2.0260	-7.634821	0.000504	5.036191	0.853154	-0.000050
1808	1.7980e+02	2.0145	-7.686961	0.000524	5.240914	0.887835	-0.000052
1809	1.7990e+02	2.0061	-7.733806	0.000471	4.708634	0.797664	-0.000047
1810	1.8000e+02	1.9950	-7.785538	0.000520	5.199970	0.880899	-0.000052
1811	1.8009e+02	1.9845	-7.835641	0.000504	5.036191	0.853154	-0.000050
1812	1.8019e+02	1.9766	-7.882893	0.000475	4.749579	0.804600	-0.000047
1813	1.8029e+02	1.9686	-7.935440	0.000528	5.281859	0.894771	-0.000053
1814	1.8039e+02	1.9590	-7.984729	0.000495	4.954302	0.839281	-0.000050
1815	1.8049e+02	1.9456	-8.035239	0.000508	5.077136	0.860090	-0.000051
1816	1.8059e+02	1.9356	-8.089416	0.000545	5.445637	0.922516	-0.000054
1817	1.8069e+02	1.9271	-8.140334	0.000512	5.118080	0.867026	-0.000051
1818	1.8079e+02	1.9167	-8.192473	0.000524	5.240914	0.887835	-0.000052
1819	1.8089e+02	1.9065	-8.243799	0.000516	5.159025	0.873962	-0.000052
1820	1.8099e+02	1.8954	-8.294309	0.000508	5.077136	0.860090	-0.000051
1821	1.8109e+02	1.8874	-8.347264	0.000532	5.322804	0.901707	-0.000053
1822	1.8119e+02	1.8775	-8.395330	0.000483	4.831468	0.818473	-0.000048
1823	1.8129e+02	1.8646	-8.443396	0.000483	4.831468	0.818473	-0.000048
1824	1.8139e+02	1.8557	-8.496758	0.000536	5.363748	0.908644	-0.000054
1825	1.8149e+02	1.8456	-8.551342	0.000549	5.486582	0.929452	-0.000055
1826	1.8159e+02	1.8388	-8.600223	0.000491	4.913357	0.832345	-0.000049
1827	1.8169e+02	1.8256	-8.649512	0.000495	4.954302	0.839281	-0.000050
1828	1.8179e+02	1.8165	-8.701244	0.000520	5.199970	0.880899	-0.000052
1829	1.8189e+02	1.8070	-8.751347	0.000504	5.036191	0.853154	-0.000050
1830	1.8199e+02	1.7978	-8.800228	0.000491	4.913357	0.832345	-0.000049
1831	1.8209e+02	1.7847	-8.851961	0.000520	5.199970	0.880899	-0.000052
1832	1.8218e+02	1.7764	-8.900842	0.000491	4.913357	0.832345	-0.000049
1833	1.8228e+02	1.7670	-8.952982	0.000524	5.240914	0.887835	-0.000052
1834	1.8238e+02	1.7559	-8.998604	0.000459	4.585800	0.776856	-0.000046
1835	1.8248e+02	1.7471	-9.053596	0.000553	5.527527	0.936388	-0.000055
1836	1.8258e+02	1.7403	-9.099218	0.000459	4.585800	0.776856	-0.000046
1837	1.8268e+02	1.7272	-9.154617	0.000557	5.568471	0.943325	-0.000056
1838	1.8278e+02	1.7161	-9.207571	0.000532	5.322804	0.901707	-0.000053
1839	1.8288e+02	1.7097	-9.259711	0.000524	5.240914	0.887835	-0.000052
1840	1.8298e+02	1.6990	-9.304519	0.000450	4.503911	0.762983	-0.000045
1841	1.8308e+02	1.6869	-9.357066	0.000528	5.281859	0.894771	-0.000053
1842	1.8318e+02	1.6750	-9.405132	0.000483	4.831468	0.818473	-0.000048
1843	1.8328e+02	1.6675	-9.454013	0.000491	4.913357	0.832345	-0.000049
1844	1.8338e+02	1.6582	-9.508190	0.000545	5.445637	0.922516	-0.000054
1845	1.8348e+02	1.6463	-9.560737	0.000528	5.281859	0.894771	-0.000053
1846	1.8358e+02	1.6377	-9.611248	0.000508	5.077136	0.860090	-0.000051
1847	1.8368e+02	1.6286	-9.665831	0.000549	5.486582	0.929452	-0.000055
1848	1.8378e+02	1.6183	-9.719601	0.000540	5.404693	0.915580	-0.000054
1849	1.8388e+02	1.6055	-9.777036	0.000577	5.773195	0.978006	-0.000058
1850	1.8398e+02	1.5975	-9.831620	0.000549	5.486582	0.929452	-0.000055
1851	1.8407e+02	1.5868	-9.885796	0.000545	5.445637	0.922516	-0.000054
1852	1.8417e+02	1.5743	-9.938751	0.000532	5.322804	0.901707	-0.000053
1853	1.8427e+02	1.5666	-9.998223	0.000598	5.977918	1.012687	-0.000060
1854	1.8437e+02	1.5570	-10.049141	0.000512	5.118080	0.867026	-0.000051
1855	1.8447e+02	1.5501	-10.102910	0.000540	5.404693	0.915580	-0.000054
1856	1.8457e+02	1.5392	-10.159531	0.000569	5.691305	0.964133	-0.000057
1857	1.8467e+02	1.5308	-10.212892	0.000536	5.363748	0.908644	-0.000054
1858	1.8477e+02	1.5179	-10.272772	0.000602	6.018862	1.019623	-0.000060
1859	1.8487e+02	1.5102	-10.328985	0.000565	5.650361	0.957197	-0.000056
1860	1.8497e+02	1.4968	-10.381125	0.000524	5.240914	0.887835	-0.000052
1861	1.8507e+02	1.4871	-10.435301	0.000545	5.445637	0.922516	-0.000054
1862	1.8517e+02	1.4777	-10.496810	0.000618	6.182641	1.047368	-0.000062
1863	1.8527e+02	1.4669	-10.548543	0.000520	5.199970	0.880899	-0.000052
1864	1.8537e+02	1.4568	-10.602719	0.000545	5.445637	0.922516	-0.000054
1865	1.8547e+02	1.4474	-10.660969	0.000586	5.855084	0.991878	-0.000059
1866	1.8557e+02	1.4394	-10.714738	0.000540	5.404693	0.915580	-0.000054
1867	1.8567e+02	1.4281	-10.772174	0.000577	5.773195	0.978006	-0.000058
1868	1.8577e+02	1.4181	-10.823906	0.000520	5.199970	0.880899	-0.000052
1869	1.8587e+02	1.4073	-10.877675	0.000540	5.404693	0.915580	-0.000054
1870	1.8597e+02	1.4011	-10.930223	0.000528	5.281859	0.894771	-0.000053
1871	1.8606e+02	1.3876	-10.988065	0.000581	5.814139	0.984942	-0.000058
1872	1.8616e+02	1.3799	-11.045093	0.000573	5.732250	0.971069	-0.000057
1873	1.8626e+02	1.3682	-11.097640	0.000528	5.281859	0.894771	-0.000053
1874	1.8636e+02	1.3596	-11.150595	0.000532	5.322804	0.901707	-0.000053
1875	1.8646e+02	1.3473	-11.205994	0.000557	5.568471	0.943325	-0.000056
1876	1.8656e+02	1.3396	-11.257726	0.000520	5.199970	0.880899	-0.000052
1877	1.8666e+02	1.3250	-11.316791	0.000594	5.936973	1.005750	-0.000059
1878	1.8676e+02	1.3198	-11.370153	0.000536	5.363748	0.908644	-0.000054
1879	1.8686e+02	1.3074	-11.428403	0.000586	5.855084	0.991878	-0.000059
1880	1.8696e+02	1.2965	-11.480135	0.000520	5.199970	0.880899	-0.000052
1881	1.8706e+02	1.2891	-11.532275	0.000524	5.240914	0.887835	-0.000052
1882	1.8716e+02	1.2774	-11.593376	0.000614	6.141696	1.040432	-0.000061
1883	1.8726e+02	1.2696	-11.647146	0.000540	5.404693	0.915580	-0.000054
1884	1.8736e+02	1.2589	-11.702544	0.000557	5.568471	0.943325	-0.000056
1885	1.8746e+02	1.2502	-11.754684	0.000524	5.240914	0.887835	-0.000052
1886	1.8756e+02	1.2403	-11.812934	0.000586	5.855084	0.991878	-0.000059
1887	1.8766e+02	1.2283	-11.867518	0.000549	5.486582	0.929452	-0.000055
1888	1.8776e+02	1.2209	-11.924953	0.000577	5.773195	0.978006	-0.000058
1889	1.8786e+02	1.2078	-11.974649	0.000500	4.995246	0.846218	-0.000050
1890	1.8796e+02	1.1991	-12.034528	0.000602	6.018862	1.019623	-0.000060
1891	1.8806e+02	1.1885	-12.086668	0.000524	5.240914	0.887835	-0.000052
1892	1.8815e+02	1.1787	-12.141252	0.000549	5.486582	0.929452	-0.000055
1893	1.8825e+02	1.1719	-12.196651	0.000557	5.568471	0.943325	-0.000056
1894	1.8835e+02	1.1613	-12.252457	0.000561	5.609416	0.950261	-0.000056
1895	1.8845e+02	1.1514	-12.309485	0.000573	5.732250	0.971069	-0.000057
1896	1.8855e+02	1.1424	-12.363661	0.000545	5.445637	0.922516	-0.000054
1897	1.8865e+02	1.1317	-12.423133	0.000598	5.977918	1.012687	-0.000060
1898	1.8875e+02	1.1213	-12.482605	0.000598	5.977918	1.012687	-0.000060
1899	1.8885e+02	1.1113	-12.531079	0.000487	4.872412	0.825409	-0.000049
1900	1.8895e+02	1.1002	-12.590144	0.000594	5.936973	1.005750	-0.000059
1901	1.8905e+02	1.0922	-12.640247	0.000504	5.036191	0.853154	-0.000050
1902	1.8915e+02	1.0800	-12.700941	0.000610	6.100752	1.033495	-0.000061
1903	1.8925e+02	1.0688	-12.754303	0.000536	5.363748	0.908644	-0.000054
1904	1.8935e+02	1.0587	-12.811738	0.000577	5.773195	0.978006	-0.000058
1905	1.8945e+02	1.0500	-12.863063	0.000516	5.159025	0.873962	-0.000052
1906	1.8955e+02	1.0435	-12.920498	0.000577	5.773195	0.978006	-0.000058
1907	1.8965e+02	1.0278	-12.976304	0.000561	5.609416	0.950261	-0.000056
1908	1.8975e+02	1.0189	-13.034554	0.000586	5.855084	0.991878	-0.000059
1909	1.8985e+02	1.0138	-13.091175	0.000569	5.691305	0.964133	-0.000057
1910	1.8995e+02	0.9993	-13.148203	0.000573	5.732250	0.971069	-0.000057
1911	1.9004e+02	0.9927	-13.203601	0.000557	5.568471	0.943325	-0.000056
1912	1.9014e+02	0.9766	-13.263073	0.000598	5.977918	1.012687	-0.000060
1913	1.9024e+02	0.9696	-13.319694	0.000569	5.691305	0.964133	-0.000057
1914	1.9034e+02	0.9596	-13.379573	0.000602	6.018862	1.019623	-0.000060
1915	1.9044e+02	0.9516	-13.437009	0.000577	5.773195	0.978006	-0.000058
1916	1.9054e+02	0.9412	-13.494444	0.000577	5.773195	0.978006	-0.000058
1917	1.9064e+02	0.9298	-13.551879	0.000577	5.773195	0.978006	-0.000058
1918	1.9074e+02	0.9212	-13.610944	0.000594	5.936973	1.005750	-0.000059
1919	1.9084e+02	0.9127	-13.668379	0.000577	5.773195	0.978006	-0.000058
1920	1.9094e+02	0.8990	-13.731517	0.000635	6.346420	1.075113	-0.000063
1921	1.9104e+02	0.8929	-13.785287	0.000540	5.404693	0.915580	-0.000054
1922	1.9114e+02	0.8815	-13.845981	0.000610	6.100752	1.033495	-0.000061
1923	1.9124e+02	0.8740	-13.906267	0.000606	6.059807	1.026559	-0.000061
1924	1.9134e+02	0.8633	-13.964517	0.000586	5.855084	0.991878	-0.000059
1925	1.9144e+02	0.8525	-14.026841	0.000626	6.264530	1.061240	-0.000063
1926	1.9154e+02	0.8415	-14.080203	0.000536	5.363748	0.908644	-0.000054
1927	1.9164e+02	0.8318	-14.138860	0.000590	5.896029	0.998814	-0.000059
1928	1.9174e+02	0.8212	-14.199961	0.000614	6.141696	1.040432	-0.000061
1929	1.9184e+02	0.8117	-14.259841	0.000602	6.018862	1.019623	-0.000060
1930	1.9194e+02	0.8038	-14.312795	0.000532	5.322804	0.901707	-0.000053
1931	1.9203e+02	0.7943	-14.369823	0.000573	5.732250	0.971069	-0.000057
1932	1.9213e+02	0.7849	-14.426444	0.000569	5.691305	0.964133	-0.000057
1933	1.9223e+02	0.7744	-14.481842	0.000557	5.568471	0.943325	-0.000056
1934	1.9233e+02	0.7610	-14.539685	0.000581	5.814139	0.984942	-0.000058
1935	1.9243e+02	0.7512	-14.599564	0.000602	6.018862	1.019623	-0.000060
1936	1.9253e+02	0.7447	-14.651704	0.000524	5.240914	0.887835	-0.000052
1937	1.9263e+02	0.7294	-14.710769	0.000594	5.936973	1.005750	-0.000059
1938	1.9273e+02	0.7228	-14.765760	0.000553	5.527527	0.936388	-0.000055
1939	1.9283e+02	0.7113	-14.819122	0.000536	5.363748	0.908644	-0.000054
1940	1.9293e+02	0.7021	-14.876557	0.000577	5.773195	0.978006	-0.000058
1941	1.9303e+02	0.6937	-14.930327	0.000540	5.404693	0.915580	-0.000054
1942	1.9313e+02	0.6834	-14.984096	0.000540	5.404693	0.915580	-0.000054
1943	1.9323e+02	0.6712	-15.039902	0.000561	5.609416	0.950261	-0.000056
1944	1.9333e+02	0.6623	-15.098559	0.000590	5.896029	0.998814	-0.000059
1945	1.9343e+02	0.6542	-15.153550	0.000553	5.527527	0.936388	-0.000055
1946	1.9353e+02	0.6419	-15.210171	0.000569	5.691305	0.964133	-0.000057
1947	1.9363e+02	0.6356	-15.263940	0.000540	5.404693	0.915580	-0.000054
1948	1.9373e+02	0.6248	-15.324634	0.000610	6.100752	1.033495	-0.000061
1949	1.9383e+02	0.6141	-15.384106	0.000598	5.977918	1.012687	-0.000060
1950	1.9393e+02	0.6023	-15.440727	0.000569	5.691305	0.964133	-0.000057
1951	1.9403e+02	0.5913	-15.498162	0.000577	5.773195	0.978006	-0.000058
1952	1.9412e+02	0.5833	-15.554783	0.000569	5.691305	0.964133	-0.000057
1953	1.9422e+02	0.5724	-15.616291	0.000618	6.182641	1.047368	-0.000062
1954	1.9432e+02	0.5637	-15.668024	0.000520	5.199970	0.880899	-0.000052
1955	1.9442e+02	0.5534	-15.725459	0.000577	5.773195	0.978006	-0.000058
1956	1.9452e+02	0.5410	-15.786153	0.000610	6.100752	1.033495	-0.000061
1957	1.9462e+02	0.5338	-15.845218	0.000594	5.936973	1.005750	-0.000059
1958	1.9472e+02	0.5224	-15.907134	0.000622	6.223586	1.054304	-0.000062
1959	1.9482e+02	0.5154	-15.965384	0.000586	5.855084	0.991878	-0.000059
1960	1.9492e+02	0.5018	-16.026485	0.000614	6.141696	1.040432	-0.000061
1961	1.9502e+02	0.4929	-16.081884	0.000557	5.568471	0.943325	-0.000056
1962	1.9512e+02	0.4847	-16.145022	0.000635	6.346420	1.075113	-0.000063
1963	1.9522e+02	0.4730	-16.202457	0.000577	5.773195	0.978006	-0.000058
1964	1.9532e+02	0.4618	-16.261929	0.000598	5.977918	1.012687	-0.000060
1965	1.9542e+02	0.4530	-16.321809	0.000602	6.018862	1.019623	-0.000060
1966	1.9552e+02	0.4428	-16.379651	0.000581	5.814139	0.984942	-0.000058
1967	1.9562e+02	0.4345	-16.440753	0.000614	6.141696	1.040432	-0.000061
1968	1.9572e+02	0.4240	-16.497373	0.000569	5.691305	0.964133	-0.000057
1969	1.9582e+02	0.4127	-16.559289	0.000622	6.223586	1.054304	-0.000062
1970	1.9592e+02	0.4037	-16.616725	0.000577	5.773195	0.978006	-0.000058
1971	1.9601e+02	0.3933	-16.673753	0.000573	5.732250	0.971069	-0.000057
1972	1.9611e+02	0.3859	-16.735669	0.000622	6.223586	1.054304	-0.000062
1973	1.9621e+02	0.3716	-16.795141	0.000598	5.977918	1.012687	-0.000060
1974	1.9631e+02	0.3619	-16.855020	0.000602	6.018862	1.019623	-0.000060
1975	1.9641e+02	0.3522	-16.913677	0.000590	5.896029	0.998814	-0.000059
1976	1.9651e+02	0.3451	-16.974779	0.000614	6.141696	1.040432	-0.000061
1977	1.9661e+02	0.3358	-17.032621	0.000581	5.814139	0.984942	-0.000058
1978	1.9671e+02	0.3262	-17.099426	0.000671	6.714921	1.137538	-0.000067
1979	1.9681e+02	0.3150	-17.156046	0.000569	5.691305	0.964133	-0.000057
1980	1.9691e+02	0.3011	-17.212260	0.000565	5.650361	0.957197	-0.000056
1981	1.9701e+02	0.2943	-17.275805	0.000639	6.387364	1.082049	-0.000064
1982	1.9711e+02	0.2836	-17.336092	0.000606	6.059807	1.026559	-0.000061
1983	1.9721e+02	0.2757	-17.399230	0.000635	6.346420	1.075113	-0.000063
1984	1.9731e+02	0.2655	-17.457072	0.000581	5.814139	0.984942	-0.000058
1985	1.9741e+02	0.2534	-17.521025	0.000643	6.428309	1.088985	-0.000064
1986	1.9751e+02	0.2439	-17.579682	0.000590	5.896029	0.998814	-0.000059
1987	1.9761e+02	0.2377	-17.641599	0.000622	6.223586	1.054304	-0.000062
1988	1.9771e+02	0.2243	-17.705959	0.000647	6.469254	1.095921	-0.000065
1989	1.9781e+02	0.2146	-17.767060	0.000614	6.141696	1.040432	-0.000061
1990	1.9791e+02	0.2042	-17.827754	0.000610	6.100752	1.033495	-0.000061
1991	1.9800e+02	0.1936	-17.890892	0.000635	6.346420	1.075113	-0.000063
1992	1.9810e+02	0.1865	-17.947920	0.000573	5.732250	0.971069	-0.000057
1993	1.9820e+02	0.1745	-18.013502	0.000659	6.592087	1.116730	-0.000066
1994	1.9830e+02	0.1632	-18.069716	0.000565	5.650361	0.957197	-0.000056
1995	1.9840e+02	0.1517	-18.133668	0.000643	6.428309	1.088985	-0.000064
1996	1.9850e+02	0.1455	-18.193140	0.000598	5.977918	1.012687	-0.000060
1997	1.9860e+02	0.1392	-18.252612	0.000598	5.977918	1.012687	-0.000060
1998	1.9870e+02	0.1245	-18.315343	0.000631	6.305475	1.068176	-0.000063
1999	1.9880e+02	0.1161	-18.376445	0.000614	6.141696	1.040432	-0.000061
2000	1.9890e+02	0.1033	-18.434287	0.000581	5.814139	0.984942	-0.000058
2001	1.9900e+02	0.0953	-18.492944	0.000590	5.896029	0.998814	-0.000059
2002	1.9910e+02	0.0868	-18.556083	0.000635	6.346420	1.075113	-0.000063
2003	1.9920e+02	0.0774	-18.617999	0.000622	6.223586	1.054304	-0.000062
2004	1.9930e+02	0.0638	-18.677471	0.000598	5.977918	1.012687	-0.000060
2005	1.9940e+02	0.0544	-18.739387	0.000622	6.223586	1.054304	-0.000062
2006	1.9950e+02	0.0444	-18.798451	0.000594	5.936973	1.005750	-0.000059
2007	1.9960e+02	0.0359	-18.859145	0.000610	6.100752	1.033495	-0.000061
2008	1.9970e+02	0.0237	-18.917803	0.000590	5.896029	0.998814	-0.000059
2009	1.9980e+02	0.0142	-18.974831	0.000573	5.732250	0.971069	-0.000057
2010	1.9990e+02	0.0039	-19.042042	0.000676	6.755866	1.144475	-0.000068
2011	2.0000e+02	-0.0034	-19.099885	0.000676	6.755866	1.144475	-0.000058

PMax (uC/cm2):	4.33e+01
Pr (uC/cm2):	2.57e+00
-Pr (uC/cm2):	0.00e+00
PLoss (uC/cm2):	0.00e+00
C (Max-Eff) (nF):	4.34e-01
K (Eff):	7.35e+02
Vert. (+/-Pr) Shift (uC/cm2):	1.29e+00
Offset (uC/cm2):	2.17e+01

A (Loop Area - uC/cm2·Volts):	-2.48e-02



Hysteresis Version: 5.48.1 - Radiant Technologies, Inc., 1999 - 9/12/24

