»»»»»»»»»»»»»»»»»»»»»»»»»»»»»»»»»»»» Hysteresis ««««««««««««««««««««««««««««««««««««
»»»  Executed Version:	5.48.1
»»»  Vision Version:	5.48.4 (R)
»»»  Vision Compiled:	9/18/24
»»»  Driver Version:	5.47.0
»»»  Windows Version:	Windows 8 or 8.1
»»»  Processor Information:	x86 (AMD or Intel) - 32 Processors
»»»  Tester Name:	PMF21124-494 (100V)
»»»  Tester S/N:	PMF21124-494
»»»  Internal Amp Type:	100V RevK 270k
»»»  Internal Amp S/N:	iAB2-596/K     
»»»  Execution Count:	1
»»»»»»»»»»»»»»»»»»»»»»»»»»»»»»»»»»»»»»»»»»««««««««««««««««««««««««««««««««««««««««««

Stored:	6/27/2025 - 16:6:43
Configured:	06/27/25 11:23:28 AM
Executed:	06/27/25 04:06:12 PM

»»»»»»»»»»»»»»»»»»»»»»»»»»»»»»»»»»» Sample Info ««««««««««««««««««««««««««««««««««««
Sample Name:	
Lot Name:	
Wafer Name:	
Die Row/Column:	0/0
Capacitor Number:	0
Sample Area (cm2):	1.00e-04
Sample Thickness (microns):	1.50e-01

Amplifier:	Internal

»»»»»»»»»»»»»»»»»»»»»»»»»»»»»»»»»»» Tester Info «««««««««««««««««««««««««««««««««««
Tester Name:	PMF21124-494 (100V)
Tester Serial Number:	PMF21124-494
Return Signal Amp. Level:	1.9 [Index: 2]

»»»»»»»»»»»»»»»»»»»»»»»»»»»»»»»» Hysteresis Info ««««««««««««««««««««««««««««««««««
Task Name:	Hyst-1276
Volts:	10.00
Field:	666.67 (kV/cm)
DCBias:	0.00
DCField:	0.00 (kV/cm)
Hysteresis Period (ms):	2.00e+02
Preset:	Enabled
Preset Delay (ms):	1.00e+03
Profile:	Standard Monopolar

»»»»»»»»»»»»»»»»»»»»»»»»»»»»»»»»»»»»»» Data «««««««««««««««««««««««««««««««««««««««
Points:	2011

Valid Data

Point	Time (ms)	Drive Voltage	Measured Polarization (uC/cm2)	Capacitance (uF)	Normalized Capacitance (uF/cm2)	Dielectric Constant	Instantaneous Current (mA)
   1	0.0000e+00	-0.0031	-19.357733	0.000479	4.790066	0.811459	0.000048
   2	9.9500e-02	0.0056	-19.310074	0.000479	4.790066	0.811459	0.000048
   3	1.9900e-01	0.0151	-19.258341	0.000520	5.199474	0.880815	0.000052
   4	2.9850e-01	0.0251	-19.208238	0.000504	5.035711	0.853072	0.000050
   5	3.9800e-01	0.0347	-19.156913	0.000516	5.158533	0.873879	0.000052
   6	4.9750e-01	0.0452	-19.108032	0.000491	4.912889	0.832266	0.000049
   7	5.9700e-01	0.0544	-19.059151	0.000491	4.912889	0.832266	0.000049
   8	6.9650e-01	0.0656	-19.009048	0.000504	5.035711	0.853072	0.000050
   9	7.9600e-01	0.0726	-18.955686	0.000536	5.363237	0.908557	0.000054
  10	8.9550e-01	0.0857	-18.906397	0.000495	4.953829	0.839201	0.000050
  11	9.9500e-01	0.0948	-18.850999	0.000557	5.567940	0.943235	0.000056
  12	1.0945e+00	0.1042	-18.796415	0.000549	5.486059	0.929364	0.000055
  13	1.1940e+00	0.1143	-18.753236	0.000434	4.339718	0.735168	0.000043
  14	1.2935e+00	0.1244	-18.702319	0.000512	5.117592	0.866944	0.000051
  15	1.3930e+00	0.1363	-18.651401	0.000512	5.117592	0.866944	0.000051
  16	1.4925e+00	0.1463	-18.596002	0.000557	5.567940	0.943235	0.000056
  17	1.5920e+00	0.1546	-18.545492	0.000508	5.076651	0.860008	0.000051
  18	1.6915e+00	0.1637	-18.494574	0.000512	5.117592	0.866944	0.000051
  19	1.7910e+00	0.1749	-18.447729	0.000471	4.708185	0.797588	0.000047
  20	1.8905e+00	0.1859	-18.393960	0.000540	5.404177	0.915492	0.000054
  21	1.9900e+00	0.1958	-18.339784	0.000545	5.445118	0.922428	0.000054
  22	2.0895e+00	0.2027	-18.295791	0.000442	4.421600	0.749039	0.000044
  23	2.1890e+00	0.2180	-18.243651	0.000524	5.240414	0.887750	0.000052
  24	2.2885e+00	0.2238	-18.196399	0.000475	4.749126	0.804524	0.000047
  25	2.3880e+00	0.2357	-18.142630	0.000540	5.404177	0.915492	0.000054
  26	2.4875e+00	0.2486	-18.092527	0.000504	5.035711	0.853072	0.000050
  27	2.5870e+00	0.2554	-18.042016	0.000508	5.076651	0.860008	0.000051
  28	2.6865e+00	0.2621	-17.987432	0.000549	5.486059	0.929364	0.000055
  29	2.7860e+00	0.2749	-17.938144	0.000495	4.953829	0.839201	0.000050
  30	2.8855e+00	0.2842	-17.886411	0.000520	5.199474	0.880815	0.000052
  31	2.9850e+00	0.2946	-17.832642	0.000540	5.404177	0.915492	0.000054
  32	3.0845e+00	0.3058	-17.782132	0.000508	5.076651	0.860008	0.000051
  33	3.1840e+00	0.3141	-17.735695	0.000467	4.667244	0.790653	0.000047
  34	3.2835e+00	0.3233	-17.681518	0.000545	5.445118	0.922428	0.000054
  35	3.3830e+00	0.3329	-17.637118	0.000446	4.462540	0.755975	0.000045
  36	3.4825e+00	0.3446	-17.584163	0.000532	5.322296	0.901621	0.000053
  37	3.5820e+00	0.3538	-17.532431	0.000520	5.199474	0.880815	0.000052
  38	3.6815e+00	0.3632	-17.479069	0.000536	5.363237	0.908557	0.000054
  39	3.7810e+00	0.3732	-17.431002	0.000483	4.831007	0.818395	0.000048
  40	3.8805e+00	0.3829	-17.377233	0.000540	5.404177	0.915492	0.000054
  41	3.9800e+00	0.3957	-17.320205	0.000573	5.731703	0.970977	0.000057
  42	4.0795e+00	0.4031	-17.272546	0.000479	4.790066	0.811459	0.000048
  43	4.1790e+00	0.4125	-17.221221	0.000516	5.158533	0.873879	0.000052
  44	4.2785e+00	0.4238	-17.171118	0.000504	5.035711	0.853072	0.000050
  45	4.3780e+00	0.4331	-17.119385	0.000520	5.199474	0.880815	0.000052
  46	4.4775e+00	0.4422	-17.063579	0.000561	5.608881	0.950170	0.000056
  47	4.5770e+00	0.4514	-17.017550	0.000463	4.626303	0.783717	0.000046
  48	4.6765e+00	0.4639	-16.965410	0.000524	5.240414	0.887750	0.000052
  49	4.7760e+00	0.4743	-16.915307	0.000504	5.035711	0.853072	0.000050
  50	4.8755e+00	0.4832	-16.863982	0.000516	5.158533	0.873879	0.000052
  51	4.9750e+00	0.4929	-16.813064	0.000512	5.117592	0.866944	0.000051
  52	5.0745e+00	0.5032	-16.760924	0.000524	5.240414	0.887750	0.000052
  53	5.1740e+00	0.5138	-16.711228	0.000499	4.994770	0.846137	0.000050
  54	5.2735e+00	0.5235	-16.661940	0.000495	4.953829	0.839201	0.000050
  55	5.3730e+00	0.5359	-16.613873	0.000483	4.831007	0.818395	0.000048
  56	5.4725e+00	0.5421	-16.558475	0.000557	5.567940	0.943235	0.000056
  57	5.5720e+00	0.5548	-16.512852	0.000459	4.585363	0.776781	0.000046
  58	5.6715e+00	0.5591	-16.461120	0.000520	5.199474	0.880815	0.000052
  59	5.7710e+00	0.5725	-16.407758	0.000536	5.363237	0.908557	0.000054
  60	5.8705e+00	0.5820	-16.359284	0.000487	4.871948	0.825330	0.000049
  61	5.9700e+00	0.5921	-16.307959	0.000516	5.158533	0.873879	0.000052
  62	6.0695e+00	0.6020	-16.259485	0.000487	4.871948	0.825330	0.000049
  63	6.1690e+00	0.6129	-16.207753	0.000520	5.199474	0.880815	0.000052
  64	6.2685e+00	0.6252	-16.155613	0.000524	5.240414	0.887750	0.000052
  65	6.3680e+00	0.6339	-16.106324	0.000495	4.953829	0.839201	0.000050
  66	6.4675e+00	0.6422	-16.053370	0.000532	5.322296	0.901621	0.000053
  67	6.5670e+00	0.6513	-16.006118	0.000475	4.749126	0.804524	0.000047
  68	6.6665e+00	0.6622	-15.955608	0.000508	5.076651	0.860008	0.000051
  69	6.7660e+00	0.6722	-15.909171	0.000467	4.667244	0.790653	0.000047
  70	6.8655e+00	0.6830	-15.857846	0.000516	5.158533	0.873879	0.000052
  71	6.9650e+00	0.6926	-15.806520	0.000516	5.158533	0.873879	0.000052
  72	7.0645e+00	0.7006	-15.755195	0.000516	5.158533	0.873879	0.000052
  73	7.1640e+00	0.7110	-15.706721	0.000487	4.871948	0.825330	0.000049
  74	7.2635e+00	0.7204	-15.658248	0.000487	4.871948	0.825330	0.000049
  75	7.3630e+00	0.7329	-15.606923	0.000516	5.158533	0.873879	0.000052
  76	7.4625e+00	0.7435	-15.554375	0.000528	5.281355	0.894686	0.000053
  77	7.5620e+00	0.7522	-15.500606	0.000540	5.404177	0.915492	0.000054
  78	7.6615e+00	0.7610	-15.454984	0.000459	4.585363	0.776781	0.000046
  79	7.7610e+00	0.7720	-15.408139	0.000471	4.708185	0.797588	0.000047
  80	7.8605e+00	0.7829	-15.356000	0.000524	5.240414	0.887750	0.000052
  81	7.9600e+00	0.7895	-15.308748	0.000475	4.749126	0.804524	0.000047
  82	8.0595e+00	0.8012	-15.259459	0.000495	4.953829	0.839201	0.000050
  83	8.1590e+00	0.8105	-15.206912	0.000528	5.281355	0.894686	0.000053
  84	8.2585e+00	0.8187	-15.159660	0.000475	4.749126	0.804524	0.000047
  85	8.3580e+00	0.8306	-15.105076	0.000549	5.486059	0.929364	0.000055
  86	8.4575e+00	0.8413	-15.062306	0.000430	4.298777	0.728233	0.000043
  87	8.5570e+00	0.8507	-15.009758	0.000528	5.281355	0.894686	0.000053
  88	8.6565e+00	0.8618	-14.962914	0.000471	4.708185	0.797588	0.000047
  89	8.7560e+00	0.8733	-14.911996	0.000512	5.117592	0.866944	0.000051
  90	8.8555e+00	0.8826	-14.861893	0.000504	5.035711	0.853072	0.000050
  91	8.9550e+00	0.8910	-14.812605	0.000495	4.953829	0.839201	0.000050
  92	9.0545e+00	0.9020	-14.765353	0.000475	4.749126	0.804524	0.000047
  93	9.1540e+00	0.9119	-14.714842	0.000508	5.076651	0.860008	0.000051
  94	9.2535e+00	0.9210	-14.662295	0.000528	5.281355	0.894686	0.000053
  95	9.3530e+00	0.9321	-14.619117	0.000434	4.339718	0.735168	0.000043
  96	9.4525e+00	0.9397	-14.569421	0.000499	4.994770	0.846137	0.000050
  97	9.5520e+00	0.9531	-14.518503	0.000512	5.117592	0.866944	0.000051
  98	9.6515e+00	0.9587	-14.468807	0.000499	4.994770	0.846137	0.000050
  99	9.7510e+00	0.9697	-14.424407	0.000446	4.462540	0.755975	0.000045
 100	9.8505e+00	0.9800	-14.370638	0.000540	5.404177	0.915492	0.000054
 101	9.9500e+00	0.9909	-14.322979	0.000479	4.790066	0.811459	0.000048
 102	1.0050e+01	0.9980	-14.272876	0.000504	5.035711	0.853072	0.000050
 103	1.0149e+01	1.0099	-14.221143	0.000520	5.199474	0.880815	0.000052
 104	1.0248e+01	1.0203	-14.171855	0.000495	4.953829	0.839201	0.000050
 105	1.0348e+01	1.0323	-14.125010	0.000471	4.708185	0.797588	0.000047
 106	1.0447e+01	1.0387	-14.073278	0.000520	5.199474	0.880815	0.000052
 107	1.0547e+01	1.0532	-14.022767	0.000508	5.076651	0.860008	0.000051
 108	1.0646e+01	1.0612	-13.973072	0.000499	4.994770	0.846137	0.000050
 109	1.0746e+01	1.0708	-13.923783	0.000495	4.953829	0.839201	0.000050
 110	1.0845e+01	1.0815	-13.878161	0.000459	4.585363	0.776781	0.000046
 111	1.0945e+01	1.0931	-13.826021	0.000524	5.240414	0.887750	0.000052
 112	1.1044e+01	1.1011	-13.778769	0.000475	4.749126	0.804524	0.000047
 113	1.1144e+01	1.1102	-13.734369	0.000446	4.462540	0.755975	0.000045
 114	1.1243e+01	1.1222	-13.683451	0.000512	5.117592	0.866944	0.000051
 115	1.1343e+01	1.1285	-13.636199	0.000475	4.749126	0.804524	0.000047
 116	1.1443e+01	1.1418	-13.587725	0.000487	4.871948	0.825330	0.000049
 117	1.1542e+01	1.1522	-13.535586	0.000524	5.240414	0.887750	0.000052
 118	1.1642e+01	1.1611	-13.485075	0.000508	5.076651	0.860008	0.000051
 119	1.1741e+01	1.1683	-13.440675	0.000446	4.462540	0.755975	0.000045
 120	1.1841e+01	1.1790	-13.386498	0.000545	5.445118	0.922428	0.000054
 121	1.1940e+01	1.1935	-13.338025	0.000487	4.871948	0.825330	0.000049
 122	1.2040e+01	1.1997	-13.295661	0.000426	4.257837	0.721297	0.000043
 123	1.2139e+01	1.2077	-13.247187	0.000487	4.871948	0.825330	0.000049
 124	1.2239e+01	1.2228	-13.195047	0.000524	5.240414	0.887750	0.000052
 125	1.2338e+01	1.2272	-13.148203	0.000471	4.708185	0.797588	0.000047
 126	1.2438e+01	1.2412	-13.105839	0.000426	4.257837	0.721297	0.000043
 127	1.2537e+01	1.2486	-13.059810	0.000463	4.626303	0.783717	0.000046
 128	1.2636e+01	1.2582	-13.014595	0.000454	4.544422	0.769846	0.000045
 129	1.2736e+01	1.2691	-12.967343	0.000475	4.749126	0.804524	0.000047
 130	1.2835e+01	1.2783	-12.916832	0.000508	5.076651	0.860008	0.000051
 131	1.2935e+01	1.2885	-12.871210	0.000459	4.585363	0.776781	0.000046
 132	1.3034e+01	1.2997	-12.821921	0.000495	4.953829	0.839201	0.000050
 133	1.3134e+01	1.3097	-12.775484	0.000467	4.667244	0.790653	0.000047
 134	1.3233e+01	1.3167	-12.724974	0.000508	5.076651	0.860008	0.000051
 135	1.3333e+01	1.3322	-12.679352	0.000459	4.585363	0.776781	0.000046
 136	1.3432e+01	1.3374	-12.632507	0.000471	4.708185	0.797588	0.000047
 137	1.3532e+01	1.3478	-12.583626	0.000491	4.912889	0.832266	0.000049
 138	1.3632e+01	1.3572	-12.538818	0.000450	4.503481	0.762910	0.000045
 139	1.3731e+01	1.3685	-12.486271	0.000528	5.281355	0.894686	0.000053
 140	1.3831e+01	1.3780	-12.441056	0.000454	4.544422	0.769846	0.000045
 141	1.3930e+01	1.3898	-12.395026	0.000463	4.626303	0.783717	0.000046
 142	1.4030e+01	1.3974	-12.347775	0.000475	4.749126	0.804524	0.000047
 143	1.4129e+01	1.4108	-12.298894	0.000491	4.912889	0.832266	0.000049
 144	1.4229e+01	1.4181	-12.254086	0.000450	4.503481	0.762910	0.000045
 145	1.4328e+01	1.4303	-12.202761	0.000516	5.158533	0.873879	0.000052
 146	1.4428e+01	1.4381	-12.155916	0.000471	4.708185	0.797588	0.000047
 147	1.4527e+01	1.4481	-12.109479	0.000467	4.667244	0.790653	0.000047
 148	1.4627e+01	1.4570	-12.062228	0.000475	4.749126	0.804524	0.000047
 149	1.4726e+01	1.4671	-12.018235	0.000442	4.421600	0.749039	0.000044
 150	1.4825e+01	1.4759	-11.965687	0.000528	5.281355	0.894686	0.000053
 151	1.4925e+01	1.4855	-11.923731	0.000422	4.216896	0.714362	0.000042
 152	1.5024e+01	1.4980	-11.872406	0.000516	5.158533	0.873879	0.000052
 153	1.5124e+01	1.5057	-11.825562	0.000471	4.708185	0.797588	0.000047
 154	1.5223e+01	1.5177	-11.782383	0.000434	4.339718	0.735168	0.000043
 155	1.5323e+01	1.5283	-11.731465	0.000512	5.117592	0.866944	0.000051
 156	1.5422e+01	1.5360	-11.686250	0.000454	4.544422	0.769846	0.000045
 157	1.5522e+01	1.5479	-11.641035	0.000454	4.544422	0.769846	0.000045
 158	1.5621e+01	1.5615	-11.592154	0.000491	4.912889	0.832266	0.000049
 159	1.5721e+01	1.5659	-11.547754	0.000446	4.462540	0.755975	0.000045
 160	1.5820e+01	1.5764	-11.496429	0.000516	5.158533	0.873879	0.000052
 161	1.5920e+01	1.5881	-11.452028	0.000446	4.462540	0.755975	0.000045
 162	1.6020e+01	1.5971	-11.405184	0.000471	4.708185	0.797588	0.000047
 163	1.6119e+01	1.6076	-11.356710	0.000487	4.871948	0.825330	0.000049
 164	1.6218e+01	1.6148	-11.312310	0.000446	4.462540	0.755975	0.000045
 165	1.6318e+01	1.6285	-11.262207	0.000504	5.035711	0.853072	0.000050
 166	1.6418e+01	1.6399	-11.214955	0.000475	4.749126	0.804524	0.000047
 167	1.6517e+01	1.6481	-11.169740	0.000454	4.544422	0.769846	0.000045
 168	1.6616e+01	1.6566	-11.121266	0.000487	4.871948	0.825330	0.000049
 169	1.6716e+01	1.6668	-11.074829	0.000467	4.667244	0.790653	0.000047
 170	1.6816e+01	1.6753	-11.025541	0.000495	4.953829	0.839201	0.000050
 171	1.6915e+01	1.6854	-10.983585	0.000422	4.216896	0.714362	0.000042
 172	1.7015e+01	1.6959	-10.933889	0.000499	4.994770	0.846137	0.000050
 173	1.7114e+01	1.7078	-10.888674	0.000454	4.544422	0.769846	0.000045
 174	1.7213e+01	1.7150	-10.843051	0.000459	4.585363	0.776781	0.000046
 175	1.7313e+01	1.7257	-10.795800	0.000475	4.749126	0.804524	0.000047
 176	1.7413e+01	1.7384	-10.747733	0.000483	4.831007	0.818395	0.000048
 177	1.7512e+01	1.7428	-10.706999	0.000409	4.094074	0.693555	0.000041
 178	1.7611e+01	1.7599	-10.657303	0.000499	4.994770	0.846137	0.000050
 179	1.7711e+01	1.7700	-10.608015	0.000495	4.953829	0.839201	0.000050
 180	1.7811e+01	1.7767	-10.561170	0.000471	4.708185	0.797588	0.000047
 181	1.7910e+01	1.7861	-10.513511	0.000479	4.790066	0.811459	0.000048
 182	1.8009e+01	1.7953	-10.471148	0.000426	4.257837	0.721297	0.000043
 183	1.8109e+01	1.8077	-10.423896	0.000475	4.749126	0.804524	0.000047
 184	1.8209e+01	1.8185	-10.380310	0.000438	4.380659	0.742104	0.000044
 185	1.8308e+01	1.8269	-10.333059	0.000475	4.749126	0.804524	0.000047
 186	1.8407e+01	1.8388	-10.284585	0.000487	4.871948	0.825330	0.000049
 187	1.8507e+01	1.8488	-10.243036	0.000418	4.175955	0.707426	0.000042
 188	1.8607e+01	1.8523	-10.195377	0.000479	4.790066	0.811459	0.000048
 189	1.8706e+01	1.8676	-10.151384	0.000442	4.421600	0.749039	0.000044
 190	1.8805e+01	1.8750	-10.105354	0.000463	4.626303	0.783717	0.000046
 191	1.8905e+01	1.8873	-10.061361	0.000442	4.421600	0.749039	0.000044
 192	1.9005e+01	1.8945	-10.017368	0.000442	4.421600	0.749039	0.000044
 193	1.9104e+01	1.9057	-9.968487	0.000491	4.912889	0.832266	0.000049
 194	1.9203e+01	1.9146	-9.922457	0.000463	4.626303	0.783717	0.000046
 195	1.9303e+01	1.9277	-9.876020	0.000467	4.667244	0.790653	0.000047
 196	1.9402e+01	1.9357	-9.827139	0.000491	4.912889	0.832266	0.000049
 197	1.9502e+01	1.9461	-9.783553	0.000438	4.380659	0.742104	0.000044
 198	1.9602e+01	1.9543	-9.735894	0.000479	4.790066	0.811459	0.000048
 199	1.9701e+01	1.9650	-9.691087	0.000450	4.503481	0.762910	0.000045
 200	1.9800e+01	1.9740	-9.646686	0.000446	4.462540	0.755975	0.000045
 201	1.9900e+01	1.9856	-9.604730	0.000422	4.216896	0.714362	0.000042
 202	2.0000e+01	1.9927	-9.555442	0.000495	4.953829	0.839201	0.000050
 203	2.0099e+01	2.0053	-9.513893	0.000418	4.175955	0.707426	0.000042
 204	2.0198e+01	2.0162	-9.467048	0.000471	4.708185	0.797588	0.000047
 205	2.0298e+01	2.0245	-9.421833	0.000454	4.544422	0.769846	0.000045
 206	2.0398e+01	2.0352	-9.374581	0.000475	4.749126	0.804524	0.000047
 207	2.0497e+01	2.0452	-9.327737	0.000471	4.708185	0.797588	0.000047
 208	2.0596e+01	2.0557	-9.280078	0.000479	4.790066	0.811459	0.000048
 209	2.0696e+01	2.0660	-9.237714	0.000426	4.257837	0.721297	0.000043
 210	2.0796e+01	2.0780	-9.185167	0.000528	5.281355	0.894686	0.000053
 211	2.0895e+01	2.0842	-9.136286	0.000491	4.912889	0.832266	0.000049
 212	2.0994e+01	2.0970	-9.095144	0.000414	4.135014	0.700490	0.000041
 213	2.1094e+01	2.1079	-9.046671	0.000487	4.871948	0.825330	0.000049
 214	2.1194e+01	2.1140	-9.007158	0.000397	3.971252	0.672748	0.000040
 215	2.1293e+01	2.1268	-8.957870	0.000495	4.953829	0.839201	0.000050
 216	2.1392e+01	2.1377	-8.911840	0.000463	4.626303	0.783717	0.000046
 217	2.1492e+01	2.1463	-8.869069	0.000430	4.298777	0.728233	0.000043
 218	2.1591e+01	2.1545	-8.820596	0.000487	4.871948	0.825330	0.000049
 219	2.1691e+01	2.1651	-8.777417	0.000434	4.339718	0.735168	0.000043
 220	2.1791e+01	2.1740	-8.733017	0.000446	4.462540	0.755975	0.000045
 221	2.1890e+01	2.1835	-8.685358	0.000479	4.790066	0.811459	0.000048
 222	2.1989e+01	2.1958	-8.643402	0.000422	4.216896	0.714362	0.000042
 223	2.2089e+01	2.2062	-8.593298	0.000504	5.035711	0.853072	0.000050
 224	2.2189e+01	2.2171	-8.549305	0.000442	4.421600	0.749039	0.000044
 225	2.2288e+01	2.2237	-8.505720	0.000438	4.380659	0.742104	0.000044
 226	2.2387e+01	2.2343	-8.459690	0.000463	4.626303	0.783717	0.000046
 227	2.2487e+01	2.2450	-8.416919	0.000430	4.298777	0.728233	0.000043
 228	2.2587e+01	2.2536	-8.369260	0.000479	4.790066	0.811459	0.000048
 229	2.2686e+01	2.2635	-8.327711	0.000418	4.175955	0.707426	0.000042
 230	2.2785e+01	2.2747	-8.283718	0.000442	4.421600	0.749039	0.000044
 231	2.2885e+01	2.2861	-8.236874	0.000471	4.708185	0.797588	0.000047
 232	2.2985e+01	2.2944	-8.195325	0.000418	4.175955	0.707426	0.000042
 233	2.3084e+01	2.3057	-8.147258	0.000483	4.831007	0.818395	0.000048
 234	2.3183e+01	2.3132	-8.102043	0.000454	4.544422	0.769846	0.000045
 235	2.3283e+01	2.3267	-8.058865	0.000434	4.339718	0.735168	0.000043
 236	2.3383e+01	2.3333	-8.013243	0.000459	4.585363	0.776781	0.000046
 237	2.3482e+01	2.3441	-7.965991	0.000475	4.749126	0.804524	0.000047
 238	2.3581e+01	2.3529	-7.922813	0.000434	4.339718	0.735168	0.000043
 239	2.3681e+01	2.3637	-7.883300	0.000397	3.971252	0.672748	0.000040
 240	2.3780e+01	2.3756	-7.834827	0.000487	4.871948	0.825330	0.000049
 241	2.3880e+01	2.3840	-7.791241	0.000438	4.380659	0.742104	0.000044
 242	2.3980e+01	2.3936	-7.743175	0.000483	4.831007	0.818395	0.000048
 243	2.4079e+01	2.4038	-7.700404	0.000430	4.298777	0.728233	0.000043
 244	2.4178e+01	2.4136	-7.653559	0.000471	4.708185	0.797588	0.000047
 245	2.4278e+01	2.4231	-7.610788	0.000430	4.298777	0.728233	0.000043
 246	2.4378e+01	2.4344	-7.567203	0.000438	4.380659	0.742104	0.000044
 247	2.4477e+01	2.4441	-7.520766	0.000467	4.667244	0.790653	0.000047
 248	2.4576e+01	2.4543	-7.478809	0.000422	4.216896	0.714362	0.000042
 249	2.4676e+01	2.4603	-7.437260	0.000418	4.175955	0.707426	0.000042
 250	2.4776e+01	2.4731	-7.388787	0.000487	4.871948	0.825330	0.000049
 251	2.4875e+01	2.4809	-7.345608	0.000434	4.339718	0.735168	0.000043
 252	2.4974e+01	2.4946	-7.300801	0.000450	4.503481	0.762910	0.000045
 253	2.5074e+01	2.5046	-7.261288	0.000397	3.971252	0.672748	0.000040
 254	2.5174e+01	2.5119	-7.216073	0.000454	4.544422	0.769846	0.000045
 255	2.5273e+01	2.5207	-7.170858	0.000454	4.544422	0.769846	0.000045
 256	2.5372e+01	2.5318	-7.127680	0.000434	4.339718	0.735168	0.000043
 257	2.5472e+01	2.5442	-7.084909	0.000430	4.298777	0.728233	0.000043
 258	2.5572e+01	2.5533	-7.038879	0.000463	4.626303	0.783717	0.000046
 259	2.5671e+01	2.5619	-6.994072	0.000450	4.503481	0.762910	0.000045
 260	2.5770e+01	2.5732	-6.951301	0.000430	4.298777	0.728233	0.000043
 261	2.5870e+01	2.5818	-6.909752	0.000418	4.175955	0.707426	0.000042
 262	2.5970e+01	2.5935	-6.864537	0.000454	4.544422	0.769846	0.000045
 263	2.6069e+01	2.6020	-6.820136	0.000446	4.462540	0.755975	0.000045
 264	2.6169e+01	2.6136	-6.775736	0.000446	4.462540	0.755975	0.000045
 265	2.6268e+01	2.6223	-6.730928	0.000450	4.503481	0.762910	0.000045
 266	2.6367e+01	2.6331	-6.688157	0.000430	4.298777	0.728233	0.000043
 267	2.6467e+01	2.6417	-6.647830	0.000405	4.053133	0.686619	0.000041
 268	2.6567e+01	2.6514	-6.604245	0.000438	4.380659	0.742104	0.000044
 269	2.6666e+01	2.6621	-6.558622	0.000459	4.585363	0.776781	0.000046
 270	2.6765e+01	2.6735	-6.515851	0.000430	4.298777	0.728233	0.000043
 271	2.6865e+01	2.6852	-6.471044	0.000450	4.503481	0.762910	0.000045
 272	2.6965e+01	2.6928	-6.427865	0.000434	4.339718	0.735168	0.000043
 273	2.7064e+01	2.7016	-6.379392	0.000487	4.871948	0.825330	0.000049
 274	2.7163e+01	2.7104	-6.339879	0.000397	3.971252	0.672748	0.000040
 275	2.7263e+01	2.7225	-6.292220	0.000479	4.790066	0.811459	0.000048
 276	2.7363e+01	2.7319	-6.246191	0.000463	4.626303	0.783717	0.000046
 277	2.7462e+01	2.7424	-6.204642	0.000418	4.175955	0.707426	0.000042
 278	2.7561e+01	2.7530	-6.164722	0.000401	4.012192	0.679684	0.000040
 279	2.7661e+01	2.7608	-6.119100	0.000459	4.585363	0.776781	0.000046
 280	2.7761e+01	2.7727	-6.082439	0.000368	3.684666	0.624199	0.000037
 281	2.7860e+01	2.7808	-6.034373	0.000483	4.831007	0.818395	0.000048
 282	2.7959e+01	2.7914	-5.985899	0.000487	4.871948	0.825330	0.000049
 283	2.8059e+01	2.8017	-5.947609	0.000385	3.848429	0.651942	0.000038
 284	2.8159e+01	2.8106	-5.902394	0.000454	4.544422	0.769846	0.000045
 285	2.8258e+01	2.8237	-5.862474	0.000401	4.012192	0.679684	0.000040
 286	2.8358e+01	2.8326	-5.814408	0.000483	4.831007	0.818395	0.000048
 287	2.8457e+01	2.8401	-5.772859	0.000418	4.175955	0.707426	0.000042
 288	2.8556e+01	2.8507	-5.727236	0.000459	4.585363	0.776781	0.000046
 289	2.8656e+01	2.8618	-5.687724	0.000397	3.971252	0.672748	0.000040
 290	2.8756e+01	2.8686	-5.644138	0.000438	4.380659	0.742104	0.000044
 291	2.8855e+01	2.8812	-5.601775	0.000426	4.257837	0.721297	0.000043
 292	2.8954e+01	2.8910	-5.560633	0.000414	4.135014	0.700490	0.000041
 293	2.9054e+01	2.9000	-5.522750	0.000381	3.807489	0.645006	0.000038
 294	2.9154e+01	2.9093	-5.474277	0.000487	4.871948	0.825330	0.000049
 295	2.9253e+01	2.9229	-5.434357	0.000401	4.012192	0.679684	0.000040
 296	2.9352e+01	2.9317	-5.390771	0.000438	4.380659	0.742104	0.000044
 297	2.9452e+01	2.9404	-5.351259	0.000397	3.971252	0.672748	0.000040
 298	2.9552e+01	2.9511	-5.306044	0.000454	4.544422	0.769846	0.000045
 299	2.9651e+01	2.9657	-5.264088	0.000422	4.216896	0.714362	0.000042
 300	2.9750e+01	2.9726	-5.221724	0.000426	4.257837	0.721297	0.000043
 301	2.9850e+01	2.9811	-5.182619	0.000393	3.930311	0.665813	0.000039
 302	2.9950e+01	2.9905	-5.139034	0.000438	4.380659	0.742104	0.000044
 303	3.0049e+01	3.0006	-5.093004	0.000463	4.626303	0.783717	0.000046
 304	3.0148e+01	3.0137	-5.051455	0.000418	4.175955	0.707426	0.000042
 305	3.0248e+01	3.0206	-5.009091	0.000426	4.257837	0.721297	0.000043
 306	3.0348e+01	3.0325	-4.971208	0.000381	3.807489	0.645006	0.000038
 307	3.0447e+01	3.0392	-4.926808	0.000446	4.462540	0.755975	0.000045
 308	3.0547e+01	3.0502	-4.883223	0.000438	4.380659	0.742104	0.000044
 309	3.0646e+01	3.0617	-4.838007	0.000454	4.544422	0.769846	0.000045
 310	3.0745e+01	3.0691	-4.799717	0.000385	3.848429	0.651942	0.000038
 311	3.0845e+01	3.0813	-4.759390	0.000405	4.053133	0.686619	0.000041
 312	3.0945e+01	3.0882	-4.715805	0.000438	4.380659	0.742104	0.000044
 313	3.1044e+01	3.1021	-4.672626	0.000434	4.339718	0.735168	0.000043
 314	3.1143e+01	3.1101	-4.626597	0.000463	4.626303	0.783717	0.000046
 315	3.1243e+01	3.1235	-4.589121	0.000377	3.766548	0.638070	0.000038
 316	3.1343e+01	3.1321	-4.547572	0.000418	4.175955	0.707426	0.000042
 317	3.1442e+01	3.1410	-4.503579	0.000442	4.421600	0.749039	0.000044
 318	3.1541e+01	3.1496	-4.466104	0.000377	3.766548	0.638070	0.000038
 319	3.1641e+01	3.1594	-4.420074	0.000463	4.626303	0.783717	0.000046
 320	3.1741e+01	3.1679	-4.379747	0.000405	4.053133	0.686619	0.000041
 321	3.1840e+01	3.1789	-4.337791	0.000422	4.216896	0.714362	0.000042
 322	3.1939e+01	3.1890	-4.293390	0.000446	4.462540	0.755975	0.000045
 323	3.2039e+01	3.2032	-4.250620	0.000430	4.298777	0.728233	0.000043
 324	3.2139e+01	3.2084	-4.211107	0.000397	3.971252	0.672748	0.000040
 325	3.2238e+01	3.2185	-4.166300	0.000450	4.503481	0.762910	0.000045
 326	3.2337e+01	3.2318	-4.128824	0.000377	3.766548	0.638070	0.000038
 327	3.2437e+01	3.2413	-4.088090	0.000409	4.094074	0.693555	0.000041
 328	3.2536e+01	3.2498	-4.042060	0.000463	4.626303	0.783717	0.000046
 329	3.2636e+01	3.2583	-4.004177	0.000381	3.807489	0.645006	0.000038
 330	3.2736e+01	3.2691	-3.961814	0.000426	4.257837	0.721297	0.000043
 331	3.2835e+01	3.2803	-3.918635	0.000434	4.339718	0.735168	0.000043
 332	3.2934e+01	3.2896	-3.877494	0.000414	4.135014	0.700490	0.000041
 333	3.3034e+01	3.3002	-3.836352	0.000414	4.135014	0.700490	0.000041
 334	3.3133e+01	3.3103	-3.795211	0.000414	4.135014	0.700490	0.000041
 335	3.3233e+01	3.3187	-3.751625	0.000438	4.380659	0.742104	0.000044
 336	3.3333e+01	3.3302	-3.711298	0.000405	4.053133	0.686619	0.000041
 337	3.3432e+01	3.3377	-3.669749	0.000418	4.175955	0.707426	0.000042
 338	3.3532e+01	3.3498	-3.626571	0.000434	4.339718	0.735168	0.000043
 339	3.3631e+01	3.3582	-3.586244	0.000405	4.053133	0.686619	0.000041
 340	3.3730e+01	3.3660	-3.543473	0.000430	4.298777	0.728233	0.000043
 341	3.3830e+01	3.3779	-3.502331	0.000414	4.135014	0.700490	0.000041
 342	3.3929e+01	3.3889	-3.464041	0.000385	3.848429	0.651942	0.000038
 343	3.4029e+01	3.3977	-3.419233	0.000450	4.503481	0.762910	0.000045
 344	3.4129e+01	3.4051	-3.378092	0.000414	4.135014	0.700490	0.000041
 345	3.4228e+01	3.4170	-3.338580	0.000397	3.971252	0.672748	0.000040
 346	3.4328e+01	3.4296	-3.296623	0.000422	4.216896	0.714362	0.000042
 347	3.4427e+01	3.4368	-3.255074	0.000418	4.175955	0.707426	0.000042
 348	3.4526e+01	3.4512	-3.211896	0.000434	4.339718	0.735168	0.000043
 349	3.4626e+01	3.4584	-3.169940	0.000422	4.216896	0.714362	0.000042
 350	3.4725e+01	3.4680	-3.128391	0.000418	4.175955	0.707426	0.000042
 351	3.4825e+01	3.4784	-3.087657	0.000409	4.094074	0.693555	0.000041
 352	3.4925e+01	3.4888	-3.049366	0.000385	3.848429	0.651942	0.000038
 353	3.5024e+01	3.4988	-3.010261	0.000393	3.930311	0.665813	0.000039
 354	3.5123e+01	3.5101	-2.965861	0.000446	4.462540	0.755975	0.000045
 355	3.5223e+01	3.5170	-2.927571	0.000385	3.848429	0.651942	0.000038
 356	3.5322e+01	3.5271	-2.887651	0.000401	4.012192	0.679684	0.000040
 357	3.5422e+01	3.5358	-2.847324	0.000405	4.053133	0.686619	0.000041
 358	3.5522e+01	3.5473	-2.804961	0.000426	4.257837	0.721297	0.000043
 359	3.5621e+01	3.5587	-2.763819	0.000414	4.135014	0.700490	0.000041
 360	3.5721e+01	3.5659	-2.725122	0.000389	3.889370	0.658877	0.000039
 361	3.5820e+01	3.5784	-2.685609	0.000397	3.971252	0.672748	0.000040
 362	3.5919e+01	3.5851	-2.643653	0.000422	4.216896	0.714362	0.000042
 363	3.6019e+01	3.5981	-2.606178	0.000377	3.766548	0.638070	0.000038
 364	3.6118e+01	3.6088	-2.561370	0.000450	4.503481	0.762910	0.000045
 365	3.6218e+01	3.6193	-2.519006	0.000426	4.257837	0.721297	0.000043
 366	3.6318e+01	3.6277	-2.477865	0.000414	4.135014	0.700490	0.000041
 367	3.6417e+01	3.6366	-2.436723	0.000414	4.135014	0.700490	0.000041
 368	3.6517e+01	3.6476	-2.397211	0.000397	3.971252	0.672748	0.000040
 369	3.6616e+01	3.6550	-2.358513	0.000389	3.889370	0.658877	0.000039
 370	3.6715e+01	3.6684	-2.319816	0.000389	3.889370	0.658877	0.000039
 371	3.6815e+01	3.6760	-2.275823	0.000442	4.421600	0.749039	0.000044
 372	3.6914e+01	3.6868	-2.241606	0.000344	3.439022	0.582586	0.000034
 373	3.7014e+01	3.6982	-2.195984	0.000459	4.585363	0.776781	0.000046
 374	3.7114e+01	3.7069	-2.154842	0.000414	4.135014	0.700490	0.000041
 375	3.7213e+01	3.7168	-2.114515	0.000405	4.053133	0.686619	0.000041
 376	3.7313e+01	3.7271	-2.068078	0.000467	4.667244	0.790653	0.000047
 377	3.7412e+01	3.7382	-2.029788	0.000385	3.848429	0.651942	0.000038
 378	3.7511e+01	3.7447	-1.987832	0.000422	4.216896	0.714362	0.000042
 379	3.7611e+01	3.7591	-1.947505	0.000405	4.053133	0.686619	0.000041
 380	3.7711e+01	3.7647	-1.907993	0.000397	3.971252	0.672748	0.000040
 381	3.7810e+01	3.7762	-1.868888	0.000393	3.930311	0.665813	0.000039
 382	3.7910e+01	3.7838	-1.828561	0.000405	4.053133	0.686619	0.000041
 383	3.8009e+01	3.7988	-1.786197	0.000426	4.257837	0.721297	0.000043
 384	3.8108e+01	3.8068	-1.748314	0.000381	3.807489	0.645006	0.000038
 385	3.8208e+01	3.8150	-1.706765	0.000418	4.175955	0.707426	0.000042
 386	3.8307e+01	3.8239	-1.664402	0.000426	4.257837	0.721297	0.000043
 387	3.8407e+01	3.8358	-1.627333	0.000373	3.725607	0.631135	0.000037
 388	3.8507e+01	3.8474	-1.582933	0.000446	4.462540	0.755975	0.000045
 389	3.8606e+01	3.8555	-1.545458	0.000377	3.766548	0.638070	0.000038
 390	3.8706e+01	3.8662	-1.505945	0.000397	3.971252	0.672748	0.000040
 391	3.8805e+01	3.8781	-1.464804	0.000414	4.135014	0.700490	0.000041
 392	3.8904e+01	3.8854	-1.424070	0.000409	4.094074	0.693555	0.000041
 393	3.9004e+01	3.8957	-1.383743	0.000405	4.053133	0.686619	0.000041
 394	3.9103e+01	3.9061	-1.344230	0.000397	3.971252	0.672748	0.000040
 395	3.9203e+01	3.9159	-1.306755	0.000377	3.766548	0.638070	0.000038
 396	3.9303e+01	3.9242	-1.264799	0.000422	4.216896	0.714362	0.000042
 397	3.9402e+01	3.9390	-1.224879	0.000401	4.012192	0.679684	0.000040
 398	3.9502e+01	3.9457	-1.184552	0.000405	4.053133	0.686619	0.000041
 399	3.9601e+01	3.9553	-1.141781	0.000430	4.298777	0.728233	0.000043
 400	3.9700e+01	3.9665	-1.104306	0.000377	3.766548	0.638070	0.000038
 401	3.9800e+01	3.9772	-1.063571	0.000409	4.094074	0.693555	0.000041
 402	3.9900e+01	3.9876	-1.023244	0.000405	4.053133	0.686619	0.000041
 403	3.9999e+01	3.9995	-0.981696	0.000418	4.175955	0.707426	0.000042
 404	4.0099e+01	4.0018	-0.942998	0.000389	3.889370	0.658877	0.000039
 405	4.0198e+01	4.0120	-0.903078	0.000401	4.012192	0.679684	0.000040
 406	4.0297e+01	4.0260	-0.866010	0.000373	3.725607	0.631135	0.000037
 407	4.0397e+01	4.0368	-0.824869	0.000414	4.135014	0.700490	0.000041
 408	4.0496e+01	4.0456	-0.787393	0.000377	3.766548	0.638070	0.000038
 409	4.0596e+01	4.0547	-0.745437	0.000422	4.216896	0.714362	0.000042
 410	4.0696e+01	4.0674	-0.706332	0.000393	3.930311	0.665813	0.000039
 411	4.0795e+01	4.0758	-0.666412	0.000401	4.012192	0.679684	0.000040
 412	4.0895e+01	4.0856	-0.623641	0.000430	4.298777	0.728233	0.000043
 413	4.0994e+01	4.0950	-0.582907	0.000409	4.094074	0.693555	0.000041
 414	4.1093e+01	4.1061	-0.544210	0.000389	3.889370	0.658877	0.000039
 415	4.1193e+01	4.1148	-0.507141	0.000373	3.725607	0.631135	0.000037
 416	4.1292e+01	4.1254	-0.468444	0.000389	3.889370	0.658877	0.000039
 417	4.1392e+01	4.1341	-0.428117	0.000405	4.053133	0.686619	0.000041
 418	4.1492e+01	4.1442	-0.388197	0.000401	4.012192	0.679684	0.000040
 419	4.1591e+01	4.1561	-0.350722	0.000377	3.766548	0.638070	0.000038
 420	4.1691e+01	4.1669	-0.310395	0.000405	4.053133	0.686619	0.000041
 421	4.1790e+01	4.1739	-0.274956	0.000356	3.561844	0.603393	0.000036
 422	4.1889e+01	4.1827	-0.234629	0.000405	4.053133	0.686619	0.000041
 423	4.1989e+01	4.1955	-0.192673	0.000422	4.216896	0.714362	0.000042
 424	4.2089e+01	4.2056	-0.154383	0.000385	3.848429	0.651942	0.000038
 425	4.2188e+01	4.2133	-0.114056	0.000405	4.053133	0.686619	0.000041
 426	4.2288e+01	4.2258	-0.074136	0.000401	4.012192	0.679684	0.000040
 427	4.2387e+01	4.2330	-0.036253	0.000381	3.807489	0.645006	0.000038
 428	4.2486e+01	4.2432	0.004481	0.000409	4.094074	0.693555	0.000041
 429	4.2586e+01	4.2530	0.045622	0.000414	4.135014	0.700490	0.000041
 430	4.2685e+01	4.2664	0.083098	0.000377	3.766548	0.638070	0.000038
 431	4.2785e+01	4.2749	0.118537	0.000356	3.561844	0.603393	0.000036
 432	4.2885e+01	4.2840	0.158049	0.000397	3.971252	0.672748	0.000040
 433	4.2984e+01	4.2925	0.199191	0.000414	4.135014	0.700490	0.000041
 434	4.3084e+01	4.3012	0.238295	0.000393	3.930311	0.665813	0.000039
 435	4.3183e+01	4.3130	0.272512	0.000344	3.439022	0.582586	0.000034
 436	4.3282e+01	4.3224	0.312024	0.000397	3.971252	0.672748	0.000040
 437	4.3382e+01	4.3344	0.352351	0.000405	4.053133	0.686619	0.000041
 438	4.3481e+01	4.3420	0.393493	0.000414	4.135014	0.700490	0.000041
 439	4.3581e+01	4.3559	0.432598	0.000393	3.930311	0.665813	0.000039
 440	4.3681e+01	4.3627	0.470888	0.000385	3.848429	0.651942	0.000038
 441	4.3780e+01	4.3747	0.511215	0.000405	4.053133	0.686619	0.000041
 442	4.3880e+01	4.3822	0.547468	0.000364	3.643726	0.617264	0.000036
 443	4.3979e+01	4.3913	0.587795	0.000405	4.053133	0.686619	0.000041
 444	4.4078e+01	4.4015	0.633418	0.000459	4.585363	0.776781	0.000046
 445	4.4178e+01	4.4128	0.669264	0.000360	3.602785	0.610328	0.000036
 446	4.4278e+01	4.4254	0.705517	0.000364	3.643726	0.617264	0.000036
 447	4.4377e+01	4.4360	0.744215	0.000389	3.889370	0.658877	0.000039
 448	4.4477e+01	4.4431	0.786986	0.000430	4.298777	0.728233	0.000043
 449	4.4576e+01	4.4529	0.820795	0.000340	3.398081	0.575651	0.000034
 450	4.4675e+01	4.4630	0.860307	0.000397	3.971252	0.672748	0.000040
 451	4.4775e+01	4.4777	0.899412	0.000393	3.930311	0.665813	0.000039
 452	4.4874e+01	4.4824	0.938110	0.000389	3.889370	0.658877	0.000039
 453	4.4974e+01	4.4912	0.977215	0.000393	3.930311	0.665813	0.000039
 454	4.5074e+01	4.5032	1.015098	0.000381	3.807489	0.645006	0.000038
 455	4.5173e+01	4.5137	1.057054	0.000422	4.216896	0.714362	0.000042
 456	4.5273e+01	4.5213	1.091678	0.000348	3.479963	0.589522	0.000035
 457	4.5372e+01	4.5338	1.129968	0.000385	3.848429	0.651942	0.000038
 458	4.5471e+01	4.5440	1.167444	0.000377	3.766548	0.638070	0.000038
 459	4.5571e+01	4.5529	1.205734	0.000385	3.848429	0.651942	0.000038
 460	4.5670e+01	4.5654	1.239543	0.000340	3.398081	0.575651	0.000034
 461	4.5770e+01	4.5737	1.281500	0.000422	4.216896	0.714362	0.000042
 462	4.5870e+01	4.5840	1.316531	0.000352	3.520903	0.596457	0.000035
 463	4.5969e+01	4.5953	1.354007	0.000377	3.766548	0.638070	0.000038
 464	4.6069e+01	4.6013	1.391482	0.000377	3.766548	0.638070	0.000038
 465	4.6168e+01	4.6148	1.431809	0.000405	4.053133	0.686619	0.000041
 466	4.6267e+01	4.6221	1.466841	0.000352	3.520903	0.596457	0.000035
 467	4.6367e+01	4.6328	1.506760	0.000401	4.012192	0.679684	0.000040
 468	4.6467e+01	4.6442	1.544643	0.000381	3.807489	0.645006	0.000038
 469	4.6566e+01	4.6543	1.580896	0.000364	3.643726	0.617264	0.000036
 470	4.6666e+01	4.6632	1.616335	0.000356	3.561844	0.603393	0.000036
 471	4.6765e+01	4.6729	1.657477	0.000414	4.135014	0.700490	0.000041
 472	4.6864e+01	4.6838	1.692508	0.000352	3.520903	0.596457	0.000035
 473	4.6964e+01	4.6909	1.731206	0.000389	3.889370	0.658877	0.000039
 474	4.7063e+01	4.7057	1.769089	0.000381	3.807489	0.645006	0.000038
 475	4.7163e+01	4.7158	1.808601	0.000397	3.971252	0.672748	0.000040
 476	4.7263e+01	4.7215	1.846484	0.000381	3.807489	0.645006	0.000038
 477	4.7362e+01	4.7328	1.884367	0.000381	3.807489	0.645006	0.000038
 478	4.7462e+01	4.7442	1.918583	0.000344	3.439022	0.582586	0.000034
 479	4.7561e+01	4.7543	1.960540	0.000422	4.216896	0.714362	0.000042
 480	4.7660e+01	4.7624	1.995571	0.000352	3.520903	0.596457	0.000035
 481	4.7760e+01	4.7730	2.035083	0.000397	3.971252	0.672748	0.000040
 482	4.7859e+01	4.7817	2.073781	0.000389	3.889370	0.658877	0.000039
 483	4.7959e+01	4.7923	2.109220	0.000356	3.561844	0.603393	0.000036
 484	4.8059e+01	4.8016	2.147510	0.000385	3.848429	0.651942	0.000038
 485	4.8158e+01	4.8109	2.181319	0.000340	3.398081	0.575651	0.000034
 486	4.8258e+01	4.8207	2.220832	0.000397	3.971252	0.672748	0.000040
 487	4.8357e+01	4.8321	2.261159	0.000405	4.053133	0.686619	0.000041
 488	4.8456e+01	4.8402	2.299856	0.000389	3.889370	0.658877	0.000039
 489	4.8556e+01	4.8519	2.336110	0.000364	3.643726	0.617264	0.000036
 490	4.8656e+01	4.8629	2.374400	0.000385	3.848429	0.651942	0.000038
 491	4.8755e+01	4.8724	2.411061	0.000368	3.684666	0.624199	0.000037
 492	4.8855e+01	4.8843	2.446092	0.000352	3.520903	0.596457	0.000035
 493	4.8954e+01	4.8920	2.486419	0.000405	4.053133	0.686619	0.000041
 494	4.9053e+01	4.9029	2.518599	0.000323	3.234318	0.547908	0.000032
 495	4.9153e+01	4.9123	2.561370	0.000430	4.298777	0.728233	0.000043
 496	4.9252e+01	4.9194	2.595587	0.000344	3.439022	0.582586	0.000034
 497	4.9352e+01	4.9297	2.632655	0.000373	3.725607	0.631135	0.000037
 498	4.9452e+01	4.9399	2.672167	0.000397	3.971252	0.672748	0.000040
 499	4.9551e+01	4.9512	2.708013	0.000360	3.602785	0.610328	0.000036
 500	4.9651e+01	4.9634	2.743859	0.000360	3.602785	0.610328	0.000036
 501	4.9750e+01	4.9731	2.782150	0.000385	3.848429	0.651942	0.000038
 502	4.9849e+01	4.9815	2.819218	0.000373	3.725607	0.631135	0.000037
 503	4.9949e+01	4.9889	2.856693	0.000377	3.766548	0.638070	0.000038
 504	5.0048e+01	5.0016	2.893354	0.000368	3.684666	0.624199	0.000037
 505	5.0148e+01	5.0122	2.930830	0.000377	3.766548	0.638070	0.000038
 506	5.0248e+01	5.0207	2.970749	0.000401	4.012192	0.679684	0.000040
 507	5.0347e+01	5.0303	3.007817	0.000373	3.725607	0.631135	0.000037
 508	5.0447e+01	5.0391	3.043256	0.000356	3.561844	0.603393	0.000036
 509	5.0546e+01	5.0509	3.079102	0.000360	3.602785	0.610328	0.000036
 510	5.0645e+01	5.0610	3.118615	0.000397	3.971252	0.672748	0.000040
 511	5.0745e+01	5.0700	3.152424	0.000340	3.398081	0.575651	0.000034
 512	5.0844e+01	5.0788	3.185419	0.000332	3.316200	0.561779	0.000033
 513	5.0944e+01	5.0924	3.226968	0.000418	4.175955	0.707426	0.000042
 514	5.1044e+01	5.0995	3.263629	0.000368	3.684666	0.624199	0.000037
 515	5.1143e+01	5.1109	3.303548	0.000401	4.012192	0.679684	0.000040
 516	5.1242e+01	5.1208	3.336135	0.000328	3.275259	0.554844	0.000033
 517	5.1342e+01	5.1276	3.374833	0.000389	3.889370	0.658877	0.000039
 518	5.1441e+01	5.1391	3.411087	0.000364	3.643726	0.617264	0.000036
 519	5.1541e+01	5.1479	3.451413	0.000405	4.053133	0.686619	0.000041
 520	5.1641e+01	5.1588	3.485223	0.000340	3.398081	0.575651	0.000034
 521	5.1740e+01	5.1701	3.520662	0.000356	3.561844	0.603393	0.000036
 522	5.1840e+01	5.1817	3.556100	0.000356	3.561844	0.603393	0.000036
 523	5.1939e+01	5.1886	3.594391	0.000385	3.848429	0.651942	0.000038
 524	5.2038e+01	5.1991	3.629422	0.000352	3.520903	0.596457	0.000035
 525	5.2138e+01	5.2101	3.665268	0.000360	3.602785	0.610328	0.000036
 526	5.2237e+01	5.2200	3.700707	0.000356	3.561844	0.603393	0.000036
 527	5.2337e+01	5.2270	3.736961	0.000364	3.643726	0.617264	0.000036
 528	5.2437e+01	5.2383	3.773621	0.000368	3.684666	0.624199	0.000037
 529	5.2536e+01	5.2514	3.809060	0.000356	3.561844	0.603393	0.000036
 530	5.2636e+01	5.2589	3.847758	0.000389	3.889370	0.658877	0.000039
 531	5.2735e+01	5.2696	3.884826	0.000373	3.725607	0.631135	0.000037
 532	5.2834e+01	5.2769	3.920672	0.000360	3.602785	0.610328	0.000036
 533	5.2934e+01	5.2865	3.957740	0.000373	3.725607	0.631135	0.000037
 534	5.3033e+01	5.3001	3.997252	0.000397	3.971252	0.672748	0.000040
 535	5.3133e+01	5.3114	4.030655	0.000336	3.357140	0.568715	0.000034
 536	5.3233e+01	5.3175	4.067723	0.000373	3.725607	0.631135	0.000037
 537	5.3332e+01	5.3312	4.097051	0.000295	2.947733	0.499360	0.000029
 538	5.3431e+01	5.3407	4.140230	0.000434	4.339718	0.735168	0.000043
 539	5.3531e+01	5.3487	4.172817	0.000328	3.275259	0.554844	0.000033
 540	5.3630e+01	5.3617	4.211107	0.000385	3.848429	0.651942	0.000038
 541	5.3730e+01	5.3697	4.249805	0.000389	3.889370	0.658877	0.000039
 542	5.3830e+01	5.3788	4.287688	0.000381	3.807489	0.645006	0.000038
 543	5.3929e+01	5.3893	4.319868	0.000323	3.234318	0.547908	0.000032
 544	5.4029e+01	5.3997	4.360195	0.000405	4.053133	0.686619	0.000041
 545	5.4128e+01	5.4095	4.396448	0.000364	3.643726	0.617264	0.000036
 546	5.4227e+01	5.4183	4.432702	0.000364	3.643726	0.617264	0.000036
 547	5.4327e+01	5.4308	4.470992	0.000385	3.848429	0.651942	0.000038
 548	5.4426e+01	5.4398	4.506023	0.000352	3.520903	0.596457	0.000035
 549	5.4526e+01	5.4500	4.544314	0.000385	3.848429	0.651942	0.000038
 550	5.4626e+01	5.4578	4.580160	0.000360	3.602785	0.610328	0.000036
 551	5.4725e+01	5.4694	4.617228	0.000373	3.725607	0.631135	0.000037
 552	5.4825e+01	5.4800	4.653074	0.000360	3.602785	0.610328	0.000036
 553	5.4924e+01	5.4880	4.688920	0.000360	3.602785	0.610328	0.000036
 554	5.5023e+01	5.4978	4.725174	0.000364	3.643726	0.617264	0.000036
 555	5.5123e+01	5.5085	4.762242	0.000373	3.725607	0.631135	0.000037
 556	5.5222e+01	5.5183	4.797681	0.000356	3.561844	0.603393	0.000036
 557	5.5322e+01	5.5298	4.832305	0.000348	3.479963	0.589522	0.000035
 558	5.5422e+01	5.5361	4.871817	0.000397	3.971252	0.672748	0.000040
 559	5.5521e+01	5.5463	4.903997	0.000323	3.234318	0.547908	0.000032
 560	5.5620e+01	5.5585	4.941880	0.000381	3.807489	0.645006	0.000038
 561	5.5720e+01	5.5668	4.978541	0.000368	3.684666	0.624199	0.000037
 562	5.5819e+01	5.5813	5.016831	0.000385	3.848429	0.651942	0.000038
 563	5.5919e+01	5.5871	5.047789	0.000311	3.111496	0.527102	0.000031
 564	5.6019e+01	5.5992	5.082820	0.000352	3.520903	0.596457	0.000035
 565	5.6118e+01	5.6104	5.119481	0.000368	3.684666	0.624199	0.000037
 566	5.6218e+01	5.6178	5.158586	0.000393	3.930311	0.665813	0.000039
 567	5.6317e+01	5.6274	5.194432	0.000360	3.602785	0.610328	0.000036
 568	5.6416e+01	5.6377	5.228242	0.000340	3.398081	0.575651	0.000034
 569	5.6516e+01	5.6477	5.266125	0.000381	3.807489	0.645006	0.000038
 570	5.6615e+01	5.6567	5.299527	0.000336	3.357140	0.568715	0.000034
 571	5.6715e+01	5.6673	5.338224	0.000389	3.889370	0.658877	0.000039
 572	5.6815e+01	5.6777	5.374478	0.000364	3.643726	0.617264	0.000036
 573	5.6914e+01	5.6860	5.407880	0.000336	3.357140	0.568715	0.000034
 574	5.7014e+01	5.6983	5.443319	0.000356	3.561844	0.603393	0.000036
 575	5.7113e+01	5.7066	5.479979	0.000368	3.684666	0.624199	0.000037
 576	5.7212e+01	5.7163	5.515418	0.000356	3.561844	0.603393	0.000036
 577	5.7312e+01	5.7254	5.548820	0.000336	3.357140	0.568715	0.000034
 578	5.7411e+01	5.7375	5.585074	0.000364	3.643726	0.617264	0.000036
 579	5.7511e+01	5.7471	5.622549	0.000377	3.766548	0.638070	0.000038
 580	5.7611e+01	5.7563	5.659617	0.000373	3.725607	0.631135	0.000037
 581	5.7710e+01	5.7662	5.695464	0.000360	3.602785	0.610328	0.000036
 582	5.7809e+01	5.7781	5.729680	0.000344	3.439022	0.582586	0.000034
 583	5.7909e+01	5.7827	5.767156	0.000377	3.766548	0.638070	0.000038
 584	5.8008e+01	5.7967	5.800965	0.000340	3.398081	0.575651	0.000034
 585	5.8108e+01	5.8070	5.835589	0.000348	3.479963	0.589522	0.000035
 586	5.8208e+01	5.8178	5.868177	0.000328	3.275259	0.554844	0.000033
 587	5.8307e+01	5.8260	5.907282	0.000393	3.930311	0.665813	0.000039
 588	5.8407e+01	5.8385	5.939462	0.000323	3.234318	0.547908	0.000032
 589	5.8506e+01	5.8463	5.973271	0.000340	3.398081	0.575651	0.000034
 590	5.8605e+01	5.8547	6.011561	0.000385	3.848429	0.651942	0.000038
 591	5.8705e+01	5.8692	6.047815	0.000364	3.643726	0.617264	0.000036
 592	5.8804e+01	5.8769	6.082439	0.000348	3.479963	0.589522	0.000035
 593	5.8904e+01	5.8849	6.119100	0.000368	3.684666	0.624199	0.000037
 594	5.9004e+01	5.8968	6.154539	0.000356	3.561844	0.603393	0.000036
 595	5.9103e+01	5.9075	6.186311	0.000319	3.193378	0.540973	0.000032
 596	5.9203e+01	5.9168	6.223787	0.000377	3.766548	0.638070	0.000038
 597	5.9302e+01	5.9278	6.261262	0.000377	3.766548	0.638070	0.000038
 598	5.9401e+01	5.9382	6.293442	0.000323	3.234318	0.547908	0.000032
 599	5.9501e+01	5.9470	6.326845	0.000336	3.357140	0.568715	0.000034
 600	5.9600e+01	5.9570	6.363505	0.000368	3.684666	0.624199	0.000037
 601	5.9700e+01	5.9692	6.399759	0.000364	3.643726	0.617264	0.000036
 602	5.9800e+01	5.9755	6.432754	0.000332	3.316200	0.561779	0.000033
 603	5.9899e+01	5.9841	6.466970	0.000344	3.439022	0.582586	0.000034
 604	5.9998e+01	5.9941	6.502409	0.000356	3.561844	0.603393	0.000036
 605	6.0098e+01	6.0085	6.537848	0.000356	3.561844	0.603393	0.000036
 606	6.0197e+01	6.0178	6.574916	0.000373	3.725607	0.631135	0.000037
 607	6.0297e+01	6.0259	6.611170	0.000364	3.643726	0.617264	0.000036
 608	6.0397e+01	6.0363	6.642535	0.000315	3.152437	0.534037	0.000032
 609	6.0496e+01	6.0474	6.679196	0.000368	3.684666	0.624199	0.000037
 610	6.0596e+01	6.0560	6.715857	0.000368	3.684666	0.624199	0.000037
 611	6.0695e+01	6.0670	6.755776	0.000401	4.012192	0.679684	0.000040
 612	6.0794e+01	6.0764	6.789993	0.000344	3.439022	0.582586	0.000034
 613	6.0894e+01	6.0821	6.822173	0.000323	3.234318	0.547908	0.000032
 614	6.0993e+01	6.0952	6.857612	0.000356	3.561844	0.603393	0.000036
 615	6.1093e+01	6.1053	6.891829	0.000344	3.439022	0.582586	0.000034
 616	6.1193e+01	6.1179	6.926045	0.000344	3.439022	0.582586	0.000034
 617	6.1292e+01	6.1251	6.959447	0.000336	3.357140	0.568715	0.000034
 618	6.1392e+01	6.1330	6.994886	0.000356	3.561844	0.603393	0.000036
 619	6.1491e+01	6.1451	7.032362	0.000377	3.766548	0.638070	0.000038
 620	6.1590e+01	6.1550	7.067393	0.000352	3.520903	0.596457	0.000035
 621	6.1690e+01	6.1655	7.100795	0.000336	3.357140	0.568715	0.000034
 622	6.1789e+01	6.1782	7.139086	0.000385	3.848429	0.651942	0.000038
 623	6.1889e+01	6.1851	7.173302	0.000344	3.439022	0.582586	0.000034
 624	6.1989e+01	6.1938	7.205482	0.000323	3.234318	0.547908	0.000032
 625	6.2088e+01	6.2077	7.239292	0.000340	3.398081	0.575651	0.000034
 626	6.2188e+01	6.2126	7.271879	0.000328	3.275259	0.554844	0.000033
 627	6.2287e+01	6.2243	7.306096	0.000344	3.439022	0.582586	0.000034
 628	6.2386e+01	6.2354	7.337461	0.000315	3.152437	0.534037	0.000032
 629	6.2486e+01	6.2402	7.374122	0.000368	3.684666	0.624199	0.000037
 630	6.2586e+01	6.2542	7.404266	0.000303	3.029615	0.513231	0.000030
 631	6.2685e+01	6.2654	7.441741	0.000377	3.766548	0.638070	0.000038
 632	6.2785e+01	6.2746	7.473514	0.000319	3.193378	0.540973	0.000032
 633	6.2884e+01	6.2827	7.510175	0.000368	3.684666	0.624199	0.000037
 634	6.2983e+01	6.2945	7.543577	0.000336	3.357140	0.568715	0.000034
 635	6.3083e+01	6.3032	7.576979	0.000336	3.357140	0.568715	0.000034
 636	6.3182e+01	6.3131	7.610381	0.000336	3.357140	0.568715	0.000034
 637	6.3282e+01	6.3234	7.642154	0.000319	3.193378	0.540973	0.000032
 638	6.3382e+01	6.3360	7.676370	0.000344	3.439022	0.582586	0.000034
 639	6.3481e+01	6.3445	7.710180	0.000340	3.398081	0.575651	0.000034
 640	6.3581e+01	6.3538	7.746841	0.000368	3.684666	0.624199	0.000037
 641	6.3680e+01	6.3645	7.776577	0.000299	2.988674	0.506295	0.000030
 642	6.3779e+01	6.3715	7.812423	0.000360	3.602785	0.610328	0.000036
 643	6.3879e+01	6.3853	7.847862	0.000356	3.561844	0.603393	0.000036
 644	6.3978e+01	6.3937	7.884930	0.000373	3.725607	0.631135	0.000037
 645	6.4078e+01	6.4048	7.917110	0.000323	3.234318	0.547908	0.000032
 646	6.4177e+01	6.4126	7.952141	0.000352	3.520903	0.596457	0.000035
 647	6.4277e+01	6.4233	7.985951	0.000340	3.398081	0.575651	0.000034
 648	6.4376e+01	6.4340	8.020167	0.000344	3.439022	0.582586	0.000034
 649	6.4476e+01	6.4453	8.053570	0.000336	3.357140	0.568715	0.000034
 650	6.4576e+01	6.4527	8.081269	0.000278	2.783970	0.471617	0.000028
 651	6.4675e+01	6.4632	8.119966	0.000389	3.889370	0.658877	0.000039
 652	6.4775e+01	6.4724	8.152554	0.000328	3.275259	0.554844	0.000033
 653	6.4874e+01	6.4799	8.187993	0.000356	3.561844	0.603393	0.000036
 654	6.4974e+01	6.4947	8.223839	0.000360	3.602785	0.610328	0.000036
 655	6.5073e+01	6.5037	8.256834	0.000332	3.316200	0.561779	0.000033
 656	6.5172e+01	6.5116	8.286162	0.000295	2.947733	0.499360	0.000029
 657	6.5272e+01	6.5261	8.323230	0.000373	3.725607	0.631135	0.000037
 658	6.5371e+01	6.5311	8.355410	0.000323	3.234318	0.547908	0.000032
 659	6.5471e+01	6.5398	8.390849	0.000356	3.561844	0.603393	0.000036
 660	6.5570e+01	6.5514	8.424659	0.000340	3.398081	0.575651	0.000034
 661	6.5670e+01	6.5630	8.458061	0.000336	3.357140	0.568715	0.000034
 662	6.5769e+01	6.5730	8.493500	0.000356	3.561844	0.603393	0.000036
 663	6.5869e+01	6.5832	8.524458	0.000311	3.111496	0.527102	0.000031
 664	6.5969e+01	6.5905	8.555823	0.000315	3.152437	0.534037	0.000032
 665	6.6068e+01	6.6017	8.592891	0.000373	3.725607	0.631135	0.000037
 666	6.6168e+01	6.6130	8.627108	0.000344	3.439022	0.582586	0.000034
 667	6.6267e+01	6.6219	8.660510	0.000336	3.357140	0.568715	0.000034
 668	6.6367e+01	6.6321	8.693097	0.000328	3.275259	0.554844	0.000033
 669	6.6466e+01	6.6444	8.729758	0.000368	3.684666	0.624199	0.000037
 670	6.6566e+01	6.6521	8.760309	0.000307	3.070555	0.520166	0.000031
 671	6.6665e+01	6.6615	8.794526	0.000344	3.439022	0.582586	0.000034
 672	6.6764e+01	6.6714	8.830372	0.000360	3.602785	0.610328	0.000036
 673	6.6864e+01	6.6814	8.862552	0.000323	3.234318	0.547908	0.000032
 674	6.6963e+01	6.6929	8.899620	0.000373	3.725607	0.631135	0.000037
 675	6.7063e+01	6.7013	8.930578	0.000311	3.111496	0.527102	0.000031
 676	6.7162e+01	6.7124	8.964388	0.000340	3.398081	0.575651	0.000034
 677	6.7262e+01	6.7210	8.996568	0.000323	3.234318	0.547908	0.000032
 678	6.7362e+01	6.7311	9.032821	0.000364	3.643726	0.617264	0.000036
 679	6.7461e+01	6.7408	9.063779	0.000311	3.111496	0.527102	0.000031
 680	6.7561e+01	6.7492	9.093922	0.000303	3.029615	0.513231	0.000030
 681	6.7660e+01	6.7608	9.130991	0.000373	3.725607	0.631135	0.000037
 682	6.7760e+01	6.7711	9.166022	0.000352	3.520903	0.596457	0.000035
 683	6.7859e+01	6.7805	9.199832	0.000340	3.398081	0.575651	0.000034
 684	6.7959e+01	6.7906	9.232419	0.000328	3.275259	0.554844	0.000033
 685	6.8058e+01	6.8015	9.263784	0.000315	3.152437	0.534037	0.000032
 686	6.8157e+01	6.8121	9.298816	0.000352	3.520903	0.596457	0.000035
 687	6.8257e+01	6.8205	9.335477	0.000368	3.684666	0.624199	0.000037
 688	6.8356e+01	6.8311	9.366435	0.000311	3.111496	0.527102	0.000031
 689	6.8456e+01	6.8426	9.400651	0.000344	3.439022	0.582586	0.000034
 690	6.8555e+01	6.8498	9.429165	0.000287	2.865852	0.485488	0.000029
 691	6.8655e+01	6.8621	9.463382	0.000344	3.439022	0.582586	0.000034
 692	6.8754e+01	6.8703	9.497192	0.000340	3.398081	0.575651	0.000034
 693	6.8854e+01	6.8780	9.526520	0.000295	2.947733	0.499360	0.000029
 694	6.8954e+01	6.8896	9.566032	0.000397	3.971252	0.672748	0.000040
 695	6.9053e+01	6.8996	9.589251	0.000233	2.333622	0.395326	0.000023
 696	6.9153e+01	6.9103	9.627134	0.000381	3.807489	0.645006	0.000038
 697	6.9252e+01	6.9211	9.660129	0.000332	3.316200	0.561779	0.000033
 698	6.9352e+01	6.9297	9.690679	0.000307	3.070555	0.520166	0.000031
 699	6.9451e+01	6.9393	9.727747	0.000373	3.725607	0.631135	0.000037
 700	6.9550e+01	6.9512	9.760335	0.000328	3.275259	0.554844	0.000033
 701	6.9650e+01	6.9624	9.792108	0.000319	3.193378	0.540973	0.000032
 702	6.9749e+01	6.9723	9.827139	0.000352	3.520903	0.596457	0.000035
 703	6.9849e+01	6.9787	9.860134	0.000332	3.316200	0.561779	0.000033
 704	6.9948e+01	6.9893	9.891092	0.000311	3.111496	0.527102	0.000031
 705	7.0048e+01	7.0013	9.922050	0.000311	3.111496	0.527102	0.000031
 706	7.0147e+01	7.0136	9.956674	0.000348	3.479963	0.589522	0.000035
 707	7.0247e+01	7.0216	9.987225	0.000307	3.070555	0.520166	0.000031
 708	7.0347e+01	7.0278	10.021034	0.000340	3.398081	0.575651	0.000034
 709	7.0446e+01	7.0403	10.056880	0.000360	3.602785	0.610328	0.000036
 710	7.0546e+01	7.0500	10.093948	0.000373	3.725607	0.631135	0.000037
 711	7.0645e+01	7.0594	10.127351	0.000336	3.357140	0.568715	0.000034
 712	7.0745e+01	7.0696	10.159938	0.000328	3.275259	0.554844	0.000033
 713	7.0844e+01	7.0824	10.194562	0.000348	3.479963	0.589522	0.000035
 714	7.0944e+01	7.0887	10.224298	0.000299	2.988674	0.506295	0.000030
 715	7.1043e+01	7.1011	10.260144	0.000360	3.602785	0.610328	0.000036
 716	7.1142e+01	7.1122	10.295176	0.000352	3.520903	0.596457	0.000035
 717	7.1242e+01	7.1191	10.325726	0.000307	3.070555	0.520166	0.000031
 718	7.1341e+01	7.1308	10.356277	0.000307	3.070555	0.520166	0.000031
 719	7.1441e+01	7.1377	10.388864	0.000328	3.275259	0.554844	0.000033
 720	7.1540e+01	7.1471	10.425933	0.000373	3.725607	0.631135	0.000037
 721	7.1640e+01	7.1616	10.457705	0.000319	3.193378	0.540973	0.000032
 722	7.1740e+01	7.1700	10.491107	0.000336	3.357140	0.568715	0.000034
 723	7.1839e+01	7.1780	10.522473	0.000315	3.152437	0.534037	0.000032
 724	7.1939e+01	7.1932	10.556690	0.000344	3.439022	0.582586	0.000034
 725	7.2038e+01	7.1996	10.587648	0.000311	3.111496	0.527102	0.000031
 726	7.2138e+01	7.2104	10.621050	0.000336	3.357140	0.568715	0.000034
 727	7.2237e+01	7.2190	10.656488	0.000356	3.561844	0.603393	0.000036
 728	7.2337e+01	7.2286	10.688261	0.000319	3.193378	0.540973	0.000032
 729	7.2436e+01	7.2396	10.720849	0.000328	3.275259	0.554844	0.000033
 730	7.2535e+01	7.2516	10.752621	0.000319	3.193378	0.540973	0.000032
 731	7.2635e+01	7.2594	10.788875	0.000364	3.643726	0.617264	0.000036
 732	7.2734e+01	7.2687	10.819833	0.000311	3.111496	0.527102	0.000031
 733	7.2834e+01	7.2792	10.849976	0.000303	3.029615	0.513231	0.000030
 734	7.2933e+01	7.2900	10.885822	0.000360	3.602785	0.610328	0.000036
 735	7.3033e+01	7.2991	10.914744	0.000291	2.906792	0.492424	0.000029
 736	7.3132e+01	7.3086	10.948960	0.000344	3.439022	0.582586	0.000034
 737	7.3232e+01	7.3181	10.982363	0.000336	3.357140	0.568715	0.000034
 738	7.3332e+01	7.3283	11.013728	0.000315	3.152437	0.534037	0.000032
 739	7.3431e+01	7.3379	11.048352	0.000348	3.479963	0.589522	0.000035
 740	7.3531e+01	7.3505	11.080125	0.000319	3.193378	0.540973	0.000032
 741	7.3630e+01	7.3599	11.111897	0.000319	3.193378	0.540973	0.000032
 742	7.3730e+01	7.3687	11.142041	0.000303	3.029615	0.513231	0.000030
 743	7.3829e+01	7.3785	11.179924	0.000381	3.807489	0.645006	0.000038
 744	7.3928e+01	7.3871	11.211289	0.000315	3.152437	0.534037	0.000032
 745	7.4028e+01	7.3960	11.243062	0.000319	3.193378	0.540973	0.000032
 746	7.4127e+01	7.4081	11.276057	0.000332	3.316200	0.561779	0.000033
 747	7.4227e+01	7.4163	11.309051	0.000332	3.316200	0.561779	0.000033
 748	7.4326e+01	7.4262	11.343675	0.000348	3.479963	0.589522	0.000035
 749	7.4426e+01	7.4380	11.374226	0.000307	3.070555	0.520166	0.000031
 750	7.4525e+01	7.4483	11.408035	0.000340	3.398081	0.575651	0.000034
 751	7.4625e+01	7.4582	11.438994	0.000311	3.111496	0.527102	0.000031
 752	7.4725e+01	7.4676	11.470359	0.000315	3.152437	0.534037	0.000032
 753	7.4824e+01	7.4782	11.500910	0.000307	3.070555	0.520166	0.000031
 754	7.4924e+01	7.4904	11.535126	0.000344	3.439022	0.582586	0.000034
 755	7.5023e+01	7.5002	11.566492	0.000315	3.152437	0.534037	0.000032
 756	7.5123e+01	7.5077	11.599486	0.000332	3.316200	0.561779	0.000033
 757	7.5222e+01	7.5195	11.629223	0.000299	2.988674	0.506295	0.000030
 758	7.5322e+01	7.5286	11.659773	0.000307	3.070555	0.520166	0.000031
 759	7.5421e+01	7.5355	11.694805	0.000352	3.520903	0.596457	0.000035
 760	7.5520e+01	7.5488	11.724948	0.000303	3.029615	0.513231	0.000030
 761	7.5620e+01	7.5577	11.756313	0.000315	3.152437	0.534037	0.000032
 762	7.5719e+01	7.5658	11.791752	0.000356	3.561844	0.603393	0.000036
 763	7.5819e+01	7.5781	11.823118	0.000315	3.152437	0.534037	0.000032
 764	7.5918e+01	7.5867	11.855298	0.000323	3.234318	0.547908	0.000032
 765	7.6018e+01	7.5954	11.887478	0.000323	3.234318	0.547908	0.000032
 766	7.6118e+01	7.6083	11.921694	0.000344	3.439022	0.582586	0.000034
 767	7.6217e+01	7.6172	11.953467	0.000319	3.193378	0.540973	0.000032
 768	7.6317e+01	7.6270	11.980759	0.000274	2.743029	0.464682	0.000027
 769	7.6416e+01	7.6367	12.012532	0.000319	3.193378	0.540973	0.000032
 770	7.6516e+01	7.6470	12.045119	0.000328	3.275259	0.554844	0.000033
 771	7.6615e+01	7.6624	12.078521	0.000336	3.357140	0.568715	0.000034
 772	7.6715e+01	7.6665	12.107850	0.000295	2.947733	0.499360	0.000029
 773	7.6814e+01	7.6762	12.140845	0.000332	3.316200	0.561779	0.000033
 774	7.6913e+01	7.6865	12.175062	0.000344	3.439022	0.582586	0.000034
 775	7.7013e+01	7.6984	12.208871	0.000340	3.398081	0.575651	0.000034
 776	7.7112e+01	7.7063	12.239422	0.000307	3.070555	0.520166	0.000031
 777	7.7212e+01	7.7154	12.271602	0.000323	3.234318	0.547908	0.000032
 778	7.7311e+01	7.7280	12.309077	0.000377	3.766548	0.638070	0.000038
 779	7.7411e+01	7.7364	12.343294	0.000344	3.439022	0.582586	0.000034
 780	7.7510e+01	7.7479	12.375067	0.000319	3.193378	0.540973	0.000032
 781	7.7610e+01	7.7595	12.402359	0.000274	2.743029	0.464682	0.000027
 782	7.7710e+01	7.7702	12.437390	0.000352	3.520903	0.596457	0.000035
 783	7.7809e+01	7.7764	12.463460	0.000262	2.620207	0.443875	0.000026
 784	7.7909e+01	7.7850	12.497269	0.000340	3.398081	0.575651	0.000034
 785	7.8008e+01	7.7963	12.529857	0.000328	3.275259	0.554844	0.000033
 786	7.8108e+01	7.8064	12.563259	0.000336	3.357140	0.568715	0.000034
 787	7.8207e+01	7.8164	12.590551	0.000274	2.743029	0.464682	0.000027
 788	7.8306e+01	7.8248	12.627619	0.000373	3.725607	0.631135	0.000037
 789	7.8406e+01	7.8342	12.662243	0.000348	3.479963	0.589522	0.000035
 790	7.8505e+01	7.8460	12.691979	0.000299	2.988674	0.506295	0.000030
 791	7.8605e+01	7.8541	12.723345	0.000315	3.152437	0.534037	0.000032
 792	7.8704e+01	7.8614	12.753895	0.000307	3.070555	0.520166	0.000031
 793	7.8804e+01	7.8760	12.784039	0.000303	3.029615	0.513231	0.000030
 794	7.8903e+01	7.8864	12.815404	0.000315	3.152437	0.534037	0.000032
 795	7.9003e+01	7.8970	12.846769	0.000315	3.152437	0.534037	0.000032
 796	7.9103e+01	7.9077	12.880171	0.000336	3.357140	0.568715	0.000034
 797	7.9202e+01	7.9173	12.907056	0.000270	2.702089	0.457746	0.000027
 798	7.9302e+01	7.9253	12.940866	0.000340	3.398081	0.575651	0.000034
 799	7.9401e+01	7.9371	12.968157	0.000274	2.743029	0.464682	0.000027
 800	7.9501e+01	7.9459	12.999930	0.000319	3.193378	0.540973	0.000032
 801	7.9600e+01	7.9565	13.034554	0.000348	3.479963	0.589522	0.000035
 802	7.9700e+01	7.9657	13.063476	0.000291	2.906792	0.492424	0.000029
 803	7.9799e+01	7.9745	13.094841	0.000315	3.152437	0.534037	0.000032
 804	7.9898e+01	7.9864	13.120504	0.000258	2.579266	0.436940	0.000026
 805	7.9998e+01	7.9949	13.156350	0.000360	3.602785	0.610328	0.000036
 806	8.0097e+01	8.0082	13.188122	0.000319	3.193378	0.540973	0.000032
 807	8.0197e+01	8.0170	13.219488	0.000315	3.152437	0.534037	0.000032
 808	8.0296e+01	8.0259	13.250039	0.000307	3.070555	0.520166	0.000031
 809	8.0396e+01	8.0335	13.280589	0.000307	3.070555	0.520166	0.000031
 810	8.0496e+01	8.0476	13.313584	0.000332	3.316200	0.561779	0.000033
 811	8.0595e+01	8.0552	13.346171	0.000328	3.275259	0.554844	0.000033
 812	8.0695e+01	8.0680	13.379981	0.000340	3.398081	0.575651	0.000034
 813	8.0794e+01	8.0741	13.410124	0.000303	3.029615	0.513231	0.000030
 814	8.0894e+01	8.0839	13.437009	0.000270	2.702089	0.457746	0.000027
 815	8.0993e+01	8.0941	13.469596	0.000328	3.275259	0.554844	0.000033
 816	8.1093e+01	8.1041	13.504628	0.000352	3.520903	0.596457	0.000035
 817	8.1192e+01	8.1140	13.535586	0.000311	3.111496	0.527102	0.000031
 818	8.1291e+01	8.1250	13.566544	0.000311	3.111496	0.527102	0.000031
 819	8.1391e+01	8.1350	13.597502	0.000311	3.111496	0.527102	0.000031
 820	8.1490e+01	8.1434	13.628052	0.000307	3.070555	0.520166	0.000031
 821	8.1590e+01	8.1536	13.658603	0.000307	3.070555	0.520166	0.000031
 822	8.1689e+01	8.1644	13.689561	0.000311	3.111496	0.527102	0.000031
 823	8.1789e+01	8.1742	13.720519	0.000311	3.111496	0.527102	0.000031
 824	8.1888e+01	8.1848	13.750663	0.000303	3.029615	0.513231	0.000030
 825	8.1988e+01	8.1950	13.787323	0.000368	3.684666	0.624199	0.000037
 826	8.2088e+01	8.2034	13.817059	0.000299	2.988674	0.506295	0.000030
 827	8.2187e+01	8.2130	13.846795	0.000299	2.988674	0.506295	0.000030
 828	8.2287e+01	8.2244	13.876124	0.000295	2.947733	0.499360	0.000029
 829	8.2386e+01	8.2296	13.907489	0.000315	3.152437	0.534037	0.000032
 830	8.2486e+01	8.2440	13.938855	0.000315	3.152437	0.534037	0.000032
 831	8.2585e+01	8.2524	13.970220	0.000315	3.152437	0.534037	0.000032
 832	8.2684e+01	8.2603	13.998734	0.000287	2.865852	0.485488	0.000029
 833	8.2784e+01	8.2767	14.032951	0.000344	3.439022	0.582586	0.000034
 834	8.2883e+01	8.2834	14.061872	0.000291	2.906792	0.492424	0.000029
 835	8.2983e+01	8.2959	14.094052	0.000323	3.234318	0.547908	0.000032
 836	8.3082e+01	8.3090	14.127454	0.000336	3.357140	0.568715	0.000034
 837	8.3182e+01	8.3110	14.154339	0.000270	2.702089	0.457746	0.000027
 838	8.3281e+01	8.3218	14.185297	0.000311	3.111496	0.527102	0.000031
 839	8.3381e+01	8.3328	14.218292	0.000332	3.316200	0.561779	0.000033
 840	8.3481e+01	8.3450	14.251287	0.000332	3.316200	0.561779	0.000033
 841	8.3580e+01	8.3533	14.283059	0.000319	3.193378	0.540973	0.000032
 842	8.3680e+01	8.3655	14.315647	0.000328	3.275259	0.554844	0.000033
 843	8.3779e+01	8.3740	14.344568	0.000291	2.906792	0.492424	0.000029
 844	8.3879e+01	8.3842	14.378785	0.000344	3.439022	0.582586	0.000034
 845	8.3978e+01	8.3942	14.407299	0.000287	2.865852	0.485488	0.000029
 846	8.4078e+01	8.4039	14.436220	0.000291	2.906792	0.492424	0.000029
 847	8.4177e+01	8.4110	14.470029	0.000340	3.398081	0.575651	0.000034
 848	8.4276e+01	8.4204	14.499765	0.000299	2.988674	0.506295	0.000030
 849	8.4376e+01	8.4338	14.530316	0.000307	3.070555	0.520166	0.000031
 850	8.4475e+01	8.4419	14.560052	0.000299	2.988674	0.506295	0.000030
 851	8.4575e+01	8.4533	14.594676	0.000348	3.479963	0.589522	0.000035
 852	8.4674e+01	8.4663	14.623598	0.000291	2.906792	0.492424	0.000029
 853	8.4774e+01	8.4742	14.656592	0.000332	3.316200	0.561779	0.000033
 854	8.4874e+01	8.4841	14.689180	0.000328	3.275259	0.554844	0.000033
 855	8.4973e+01	8.4919	14.716064	0.000270	2.702089	0.457746	0.000027
 856	8.5073e+01	8.5034	14.749466	0.000336	3.357140	0.568715	0.000034
 857	8.5172e+01	8.5159	14.781647	0.000323	3.234318	0.547908	0.000032
 858	8.5272e+01	8.5248	14.810160	0.000287	2.865852	0.485488	0.000029
 859	8.5371e+01	8.5332	14.839896	0.000299	2.988674	0.506295	0.000030
 860	8.5471e+01	8.5404	14.869225	0.000295	2.947733	0.499360	0.000029
 861	8.5570e+01	8.5529	14.898554	0.000295	2.947733	0.499360	0.000029
 862	8.5669e+01	8.5613	14.929105	0.000307	3.070555	0.520166	0.000031
 863	8.5769e+01	8.5727	14.958433	0.000295	2.947733	0.499360	0.000029
 864	8.5868e+01	8.5802	14.988984	0.000307	3.070555	0.520166	0.000031
 865	8.5968e+01	8.5897	15.019942	0.000311	3.111496	0.527102	0.000031
 866	8.6067e+01	8.6021	15.048049	0.000282	2.824911	0.478553	0.000028
 867	8.6167e+01	8.6117	15.081451	0.000336	3.357140	0.568715	0.000034
 868	8.6266e+01	8.6233	15.118519	0.000373	3.725607	0.631135	0.000037
 869	8.6366e+01	8.6308	15.144181	0.000258	2.579266	0.436940	0.000026
 870	8.6466e+01	8.6449	15.177583	0.000336	3.357140	0.568715	0.000034
 871	8.6565e+01	8.6535	15.206505	0.000291	2.906792	0.492424	0.000029
 872	8.6665e+01	8.6623	15.237463	0.000311	3.111496	0.527102	0.000031
 873	8.6764e+01	8.6712	15.263125	0.000258	2.579266	0.436940	0.000026
 874	8.6864e+01	8.6819	15.296527	0.000336	3.357140	0.568715	0.000034
 875	8.6963e+01	8.6919	15.327486	0.000311	3.111496	0.527102	0.000031
 876	8.7063e+01	8.7003	15.361702	0.000344	3.439022	0.582586	0.000034
 877	8.7162e+01	8.7130	15.391438	0.000299	2.988674	0.506295	0.000030
 878	8.7261e+01	8.7210	15.423618	0.000323	3.234318	0.547908	0.000032
 879	8.7361e+01	8.7329	15.454984	0.000315	3.152437	0.534037	0.000032
 880	8.7460e+01	8.7415	15.487164	0.000323	3.234318	0.547908	0.000032
 881	8.7560e+01	8.7518	15.518529	0.000315	3.152437	0.534037	0.000032
 882	8.7659e+01	8.7623	15.550709	0.000323	3.234318	0.547908	0.000032
 883	8.7759e+01	8.7744	15.582482	0.000319	3.193378	0.540973	0.000032
 884	8.7859e+01	8.7817	15.607737	0.000254	2.538326	0.430004	0.000025
 885	8.7958e+01	8.7943	15.643176	0.000356	3.561844	0.603393	0.000036
 886	8.8058e+01	8.8004	15.676171	0.000332	3.316200	0.561779	0.000033
 887	8.8157e+01	8.8113	15.707536	0.000315	3.152437	0.534037	0.000032
 888	8.8257e+01	8.8218	15.737679	0.000303	3.029615	0.513231	0.000030
 889	8.8356e+01	8.8306	15.769045	0.000315	3.152437	0.534037	0.000032
 890	8.8456e+01	8.8445	15.797151	0.000282	2.824911	0.478553	0.000028
 891	8.8555e+01	8.8515	15.826073	0.000291	2.906792	0.492424	0.000029
 892	8.8654e+01	8.8607	15.858253	0.000323	3.234318	0.547908	0.000032
 893	8.8754e+01	8.8690	15.885952	0.000278	2.783970	0.471617	0.000028
 894	8.8853e+01	8.8810	15.917318	0.000315	3.152437	0.534037	0.000032
 895	8.8953e+01	8.8911	15.952349	0.000352	3.520903	0.596457	0.000035
 896	8.9052e+01	8.8989	15.982492	0.000303	3.029615	0.513231	0.000030
 897	8.9152e+01	8.9106	16.012228	0.000299	2.988674	0.506295	0.000030
 898	8.9251e+01	8.9198	16.041557	0.000295	2.947733	0.499360	0.000029
 899	8.9351e+01	8.9327	16.072515	0.000311	3.111496	0.527102	0.000031
 900	8.9451e+01	8.9373	16.104695	0.000323	3.234318	0.547908	0.000032
 901	8.9550e+01	8.9505	16.136468	0.000319	3.193378	0.540973	0.000032
 902	8.9650e+01	8.9606	16.163352	0.000270	2.702089	0.457746	0.000027
 903	8.9749e+01	8.9698	16.197162	0.000340	3.398081	0.575651	0.000034
 904	8.9849e+01	8.9788	16.225269	0.000282	2.824911	0.478553	0.000028
 905	8.9948e+01	8.9881	16.260707	0.000356	3.561844	0.603393	0.000036
 906	9.0047e+01	8.9976	16.289221	0.000287	2.865852	0.485488	0.000029
 907	9.0147e+01	9.0088	16.322623	0.000336	3.357140	0.568715	0.000034
 908	9.0246e+01	9.0177	16.347064	0.000246	2.456444	0.416133	0.000025
 909	9.0346e+01	9.0298	16.382503	0.000356	3.561844	0.603393	0.000036
 910	9.0445e+01	9.0394	16.413868	0.000315	3.152437	0.534037	0.000032
 911	9.0545e+01	9.0519	16.442382	0.000287	2.865852	0.485488	0.000029
 912	9.0644e+01	9.0586	16.471711	0.000295	2.947733	0.499360	0.000029
 913	9.0744e+01	9.0710	16.507150	0.000356	3.561844	0.603393	0.000036
 914	9.0844e+01	9.0798	16.537293	0.000303	3.029615	0.513231	0.000030
 915	9.0943e+01	9.0910	16.567844	0.000307	3.070555	0.520166	0.000031
 916	9.1043e+01	9.0984	16.597172	0.000295	2.947733	0.499360	0.000029
 917	9.1142e+01	9.1122	16.629352	0.000323	3.234318	0.547908	0.000032
 918	9.1242e+01	9.1192	16.655015	0.000258	2.579266	0.436940	0.000026
 919	9.1341e+01	9.1279	16.686380	0.000315	3.152437	0.534037	0.000032
 920	9.1441e+01	9.1408	16.725078	0.000389	3.889370	0.658877	0.000039
 921	9.1540e+01	9.1477	16.751962	0.000270	2.702089	0.457746	0.000027
 922	9.1639e+01	9.1602	16.778032	0.000262	2.620207	0.443875	0.000026
 923	9.1739e+01	9.1693	16.808583	0.000307	3.070555	0.520166	0.000031
 924	9.1838e+01	9.1791	16.840356	0.000319	3.193378	0.540973	0.000032
 925	9.1938e+01	9.1884	16.872943	0.000328	3.275259	0.554844	0.000033
 926	9.2037e+01	9.1977	16.901864	0.000291	2.906792	0.492424	0.000029
 927	9.2137e+01	9.2093	16.929971	0.000282	2.824911	0.478553	0.000028
 928	9.2237e+01	9.2159	16.962966	0.000332	3.316200	0.561779	0.000033
 929	9.2336e+01	9.2288	16.993109	0.000303	3.029615	0.513231	0.000030
 930	9.2436e+01	9.2385	17.022438	0.000295	2.947733	0.499360	0.000029
 931	9.2535e+01	9.2505	17.056247	0.000340	3.398081	0.575651	0.000034
 932	9.2635e+01	9.2609	17.087613	0.000315	3.152437	0.534037	0.000032
 933	9.2734e+01	9.2668	17.116941	0.000295	2.947733	0.499360	0.000029
 934	9.2834e+01	9.2800	17.145455	0.000287	2.865852	0.485488	0.000029
 935	9.2933e+01	9.2879	17.182116	0.000368	3.684666	0.624199	0.000037
 936	9.3032e+01	9.2993	17.207371	0.000254	2.538326	0.430004	0.000025
 937	9.3132e+01	9.3066	17.241996	0.000348	3.479963	0.589522	0.000035
 938	9.3231e+01	9.3179	17.268880	0.000270	2.702089	0.457746	0.000027
 939	9.3331e+01	9.3271	17.299023	0.000303	3.029615	0.513231	0.000030
 940	9.3430e+01	9.3384	17.334055	0.000352	3.520903	0.596457	0.000035
 941	9.3530e+01	9.3482	17.361347	0.000274	2.743029	0.464682	0.000027
 942	9.3629e+01	9.3592	17.393120	0.000319	3.193378	0.540973	0.000032
 943	9.3729e+01	9.3662	17.425707	0.000328	3.275259	0.554844	0.000033
 944	9.3829e+01	9.3781	17.452999	0.000274	2.743029	0.464682	0.000027
 945	9.3928e+01	9.3860	17.487623	0.000348	3.479963	0.589522	0.000035
 946	9.4028e+01	9.3977	17.521433	0.000340	3.398081	0.575651	0.000034
 947	9.4127e+01	9.4097	17.551983	0.000307	3.070555	0.520166	0.000031
 948	9.4227e+01	9.4195	17.582534	0.000307	3.070555	0.520166	0.000031
 949	9.4326e+01	9.4292	17.612270	0.000299	2.988674	0.506295	0.000030
 950	9.4425e+01	9.4347	17.642006	0.000299	2.988674	0.506295	0.000030
 951	9.4525e+01	9.4473	17.672964	0.000311	3.111496	0.527102	0.000031
 952	9.4624e+01	9.4569	17.700663	0.000278	2.783970	0.471617	0.000028
 953	9.4724e+01	9.4658	17.731621	0.000311	3.111496	0.527102	0.000031
 954	9.4823e+01	9.4769	17.764209	0.000328	3.275259	0.554844	0.000033
 955	9.4923e+01	9.4849	17.791501	0.000274	2.743029	0.464682	0.000027
 956	9.5022e+01	9.4952	17.824903	0.000336	3.357140	0.568715	0.000034
 957	9.5122e+01	9.5084	17.857490	0.000328	3.275259	0.554844	0.000033
 958	9.5222e+01	9.5174	17.892522	0.000352	3.520903	0.596457	0.000035
 959	9.5321e+01	9.5246	17.923072	0.000307	3.070555	0.520166	0.000031
 960	9.5421e+01	9.5344	17.951179	0.000282	2.824911	0.478553	0.000028
 961	9.5520e+01	9.5470	17.976841	0.000258	2.579266	0.436940	0.000026
 962	9.5620e+01	9.5571	18.009429	0.000328	3.275259	0.554844	0.000033
 963	9.5719e+01	9.5664	18.037943	0.000287	2.865852	0.485488	0.000029
 964	9.5819e+01	9.5722	18.069716	0.000319	3.193378	0.540973	0.000032
 965	9.5918e+01	9.5864	18.100266	0.000307	3.070555	0.520166	0.000031
 966	9.6017e+01	9.5966	18.126744	0.000266	2.661148	0.450811	0.000027
 967	9.6117e+01	9.6053	18.156072	0.000295	2.947733	0.499360	0.000029
 968	9.6216e+01	9.6176	18.189882	0.000340	3.398081	0.575651	0.000034
 969	9.6316e+01	9.6265	18.220432	0.000307	3.070555	0.520166	0.000031
 970	9.6415e+01	9.6364	18.249761	0.000295	2.947733	0.499360	0.000029
 971	9.6515e+01	9.6452	18.276646	0.000270	2.702089	0.457746	0.000027
 972	9.6615e+01	9.6540	18.309640	0.000332	3.316200	0.561779	0.000033
 973	9.6714e+01	9.6667	18.338969	0.000295	2.947733	0.499360	0.000029
 974	9.6814e+01	9.6754	18.370742	0.000319	3.193378	0.540973	0.000032
 975	9.6913e+01	9.6860	18.402514	0.000319	3.193378	0.540973	0.000032
 976	9.7013e+01	9.6951	18.432658	0.000303	3.029615	0.513231	0.000030
 977	9.7112e+01	9.7065	18.465245	0.000328	3.275259	0.554844	0.000033
 978	9.7212e+01	9.7157	18.493759	0.000287	2.865852	0.485488	0.000029
 979	9.7311e+01	9.7266	18.527161	0.000336	3.357140	0.568715	0.000034
 980	9.7410e+01	9.7364	18.557712	0.000307	3.070555	0.520166	0.000031
 981	9.7510e+01	9.7462	18.585411	0.000278	2.783970	0.471617	0.000028
 982	9.7609e+01	9.7549	18.615962	0.000307	3.070555	0.520166	0.000031
 983	9.7709e+01	9.7647	18.645291	0.000295	2.947733	0.499360	0.000029
 984	9.7808e+01	9.7761	18.680322	0.000352	3.520903	0.596457	0.000035
 985	9.7908e+01	9.7864	18.712095	0.000319	3.193378	0.540973	0.000032
 986	9.8007e+01	9.7974	18.738165	0.000262	2.620207	0.443875	0.000026
 987	9.8107e+01	9.8061	18.768308	0.000303	3.029615	0.513231	0.000030
 988	9.8207e+01	9.8122	18.799673	0.000315	3.152437	0.534037	0.000032
 989	9.8306e+01	9.8226	18.832668	0.000332	3.316200	0.561779	0.000033
 990	9.8406e+01	9.8347	18.863219	0.000307	3.070555	0.520166	0.000031
 991	9.8505e+01	9.8428	18.891733	0.000287	2.865852	0.485488	0.000029
 992	9.8605e+01	9.8541	18.925542	0.000340	3.398081	0.575651	0.000034
 993	9.8704e+01	9.8627	18.956093	0.000307	3.070555	0.520166	0.000031
 994	9.8803e+01	9.8749	18.986644	0.000307	3.070555	0.520166	0.000031
 995	9.8903e+01	9.8849	19.015972	0.000295	2.947733	0.499360	0.000029
 996	9.9002e+01	9.8948	19.047338	0.000315	3.152437	0.534037	0.000032
 997	9.9102e+01	9.9055	19.078296	0.000311	3.111496	0.527102	0.000031
 998	9.9201e+01	9.9148	19.106402	0.000282	2.824911	0.478553	0.000028
 999	9.9301e+01	9.9253	19.139804	0.000336	3.357140	0.568715	0.000034
1000	9.9400e+01	9.9334	19.171577	0.000319	3.193378	0.540973	0.000032
1001	9.9500e+01	9.9432	19.199684	0.000282	2.824911	0.478553	0.000028
1002	9.9600e+01	9.9512	19.232271	0.000328	3.275259	0.554844	0.000033
1003	9.9699e+01	9.9652	19.265266	0.000332	3.316200	0.561779	0.000033
1004	9.9799e+01	9.9757	19.297039	0.000319	3.193378	0.540973	0.000032
1005	9.9898e+01	9.9847	19.323109	0.000262	2.620207	0.443875	0.000026
1006	9.9998e+01	9.9951	19.357733	0.000348	3.479963	0.589522	0.000035
1007	1.0010e+02	9.9830	19.340217	0.000176	1.760452	0.298229	-0.000018
1008	1.0020e+02	9.9747	19.318628	0.000217	2.169859	0.367584	-0.000022
1009	1.0030e+02	9.9628	19.297853	0.000209	2.087978	0.353713	-0.000021
1010	1.0040e+02	9.9555	19.271783	0.000262	2.620207	0.443875	-0.000026
1011	1.0050e+02	9.9447	19.251009	0.000209	2.087978	0.353713	-0.000021
1012	1.0059e+02	9.9355	19.231457	0.000197	1.965155	0.332906	-0.000020
1013	1.0069e+02	9.9254	19.210682	0.000209	2.087978	0.353713	-0.000021
1014	1.0079e+02	9.9146	19.187871	0.000229	2.292681	0.388391	-0.000023
1015	1.0089e+02	9.9036	19.167096	0.000209	2.087978	0.353713	-0.000021
1016	1.0099e+02	9.8926	19.147544	0.000197	1.965155	0.332906	-0.000020
1017	1.0109e+02	9.8856	19.125140	0.000225	2.251741	0.381455	-0.000023
1018	1.0119e+02	9.8749	19.102329	0.000229	2.292681	0.388391	-0.000023
1019	1.0129e+02	9.8640	19.078296	0.000242	2.415504	0.409197	-0.000024
1020	1.0139e+02	9.8571	19.059965	0.000184	1.842333	0.312100	-0.000018
1021	1.0149e+02	9.8464	19.038376	0.000217	2.169859	0.367584	-0.000022
1022	1.0159e+02	9.8364	19.012306	0.000262	2.620207	0.443875	-0.000026
1023	1.0169e+02	9.8272	18.989902	0.000225	2.251741	0.381455	-0.000023
1024	1.0179e+02	9.8158	18.966277	0.000237	2.374563	0.402262	-0.000024
1025	1.0189e+02	9.8047	18.943873	0.000225	2.251741	0.381455	-0.000023
1026	1.0199e+02	9.7927	18.921876	0.000221	2.210800	0.374520	-0.000022
1027	1.0209e+02	9.7862	18.899065	0.000229	2.292681	0.388391	-0.000023
1028	1.0219e+02	9.7754	18.873402	0.000258	2.579266	0.436940	-0.000026
1029	1.0229e+02	9.7663	18.848147	0.000254	2.538326	0.430004	-0.000025
1030	1.0239e+02	9.7549	18.825336	0.000229	2.292681	0.388391	-0.000023
1031	1.0248e+02	9.7445	18.800081	0.000254	2.538326	0.430004	-0.000025
1032	1.0258e+02	9.7363	18.778492	0.000217	2.169859	0.367584	-0.000022
1033	1.0268e+02	9.7253	18.758939	0.000197	1.965155	0.332906	-0.000020
1034	1.0278e+02	9.7178	18.732869	0.000262	2.620207	0.443875	-0.000026
1035	1.0288e+02	9.7047	18.707614	0.000254	2.538326	0.430004	-0.000025
1036	1.0298e+02	9.6973	18.682766	0.000250	2.497385	0.423068	-0.000025
1037	1.0308e+02	9.6857	18.664028	0.000188	1.883274	0.319035	-0.000019
1038	1.0318e+02	9.6732	18.635514	0.000287	2.865852	0.485488	-0.000029
1039	1.0328e+02	9.6672	18.609037	0.000266	2.661148	0.450811	-0.000027
1040	1.0338e+02	9.6583	18.587041	0.000221	2.210800	0.374520	-0.000022
1041	1.0348e+02	9.6449	18.560971	0.000262	2.620207	0.443875	-0.000026
1042	1.0358e+02	9.6356	18.542233	0.000188	1.883274	0.319035	-0.000019
1043	1.0368e+02	9.6265	18.519829	0.000225	2.251741	0.381455	-0.000023
1044	1.0378e+02	9.6168	18.490093	0.000299	2.988674	0.506295	-0.000030
1045	1.0388e+02	9.6040	18.469319	0.000209	2.087978	0.353713	-0.000021
1046	1.0398e+02	9.5953	18.447322	0.000221	2.210800	0.374520	-0.000022
1047	1.0408e+02	9.5875	18.424104	0.000233	2.333622	0.395326	-0.000023
1048	1.0418e+02	9.5773	18.400885	0.000233	2.333622	0.395326	-0.000023
1049	1.0428e+02	9.5667	18.379703	0.000213	2.128918	0.360649	-0.000021
1050	1.0438e+02	9.5571	18.352004	0.000278	2.783970	0.471617	-0.000028
1051	1.0447e+02	9.5474	18.327971	0.000242	2.415504	0.409197	-0.000024
1052	1.0457e+02	9.5337	18.303123	0.000250	2.497385	0.423068	-0.000025
1053	1.0467e+02	9.5279	18.278275	0.000250	2.497385	0.423068	-0.000025
1054	1.0477e+02	9.5184	18.257501	0.000209	2.087978	0.353713	-0.000021
1055	1.0487e+02	9.5054	18.230616	0.000270	2.702089	0.457746	-0.000027
1056	1.0497e+02	9.4975	18.207805	0.000229	2.292681	0.388391	-0.000023
1057	1.0507e+02	9.4873	18.186216	0.000217	2.169859	0.367584	-0.000022
1058	1.0517e+02	9.4780	18.157294	0.000291	2.906792	0.492424	-0.000029
1059	1.0527e+02	9.4672	18.132854	0.000246	2.456444	0.416133	-0.000025
1060	1.0537e+02	9.4557	18.109228	0.000237	2.374563	0.402262	-0.000024
1061	1.0547e+02	9.4471	18.086009	0.000233	2.333622	0.395326	-0.000023
1062	1.0557e+02	9.4385	18.062791	0.000233	2.333622	0.395326	-0.000023
1063	1.0567e+02	9.4276	18.035906	0.000270	2.702089	0.457746	-0.000027
1064	1.0577e+02	9.4200	18.011058	0.000250	2.497385	0.423068	-0.000025
1065	1.0587e+02	9.4080	17.987432	0.000237	2.374563	0.402262	-0.000024
1066	1.0597e+02	9.3952	17.958104	0.000295	2.947733	0.499360	-0.000029
1067	1.0607e+02	9.3888	17.936107	0.000221	2.210800	0.374520	-0.000022
1068	1.0617e+02	9.3787	17.910037	0.000262	2.620207	0.443875	-0.000026
1069	1.0627e+02	9.3681	17.887226	0.000229	2.292681	0.388391	-0.000023
1070	1.0637e+02	9.3580	17.858712	0.000287	2.865852	0.485488	-0.000029
1071	1.0647e+02	9.3464	17.835494	0.000233	2.333622	0.395326	-0.000023
1072	1.0656e+02	9.3384	17.810646	0.000250	2.497385	0.423068	-0.000025
1073	1.0666e+02	9.3298	17.787020	0.000237	2.374563	0.402262	-0.000024
1074	1.0676e+02	9.3171	17.762987	0.000242	2.415504	0.409197	-0.000024
1075	1.0686e+02	9.3107	17.735695	0.000274	2.743029	0.464682	-0.000027
1076	1.0696e+02	9.2993	17.710032	0.000258	2.579266	0.436940	-0.000026
1077	1.0706e+02	9.2896	17.683148	0.000270	2.702089	0.457746	-0.000027
1078	1.0716e+02	9.2776	17.659114	0.000242	2.415504	0.409197	-0.000024
1079	1.0726e+02	9.2676	17.634266	0.000250	2.497385	0.423068	-0.000025
1080	1.0736e+02	9.2545	17.612677	0.000217	2.169859	0.367584	-0.000022
1081	1.0746e+02	9.2480	17.585385	0.000274	2.743029	0.464682	-0.000027
1082	1.0756e+02	9.2355	17.559723	0.000258	2.579266	0.436940	-0.000026
1083	1.0766e+02	9.2285	17.533245	0.000266	2.661148	0.450811	-0.000027
1084	1.0776e+02	9.2194	17.506768	0.000266	2.661148	0.450811	-0.000027
1085	1.0786e+02	9.2092	17.478662	0.000282	2.824911	0.478553	-0.000028
1086	1.0796e+02	9.1959	17.453814	0.000250	2.497385	0.423068	-0.000025
1087	1.0806e+02	9.1865	17.431002	0.000229	2.292681	0.388391	-0.000023
1088	1.0816e+02	9.1766	17.399230	0.000319	3.193378	0.540973	-0.000032
1089	1.0826e+02	9.1669	17.378863	0.000205	2.047037	0.346777	-0.000020
1090	1.0836e+02	9.1592	17.350349	0.000287	2.865852	0.485488	-0.000029
1091	1.0845e+02	9.1473	17.323057	0.000274	2.743029	0.464682	-0.000027
1092	1.0855e+02	9.1389	17.301468	0.000217	2.169859	0.367584	-0.000022
1093	1.0865e+02	9.1266	17.272546	0.000291	2.906792	0.492424	-0.000029
1094	1.0875e+02	9.1222	17.248513	0.000242	2.415504	0.409197	-0.000024
1095	1.0885e+02	9.1106	17.224887	0.000237	2.374563	0.402262	-0.000024
1096	1.0895e+02	9.1016	17.198003	0.000270	2.702089	0.457746	-0.000027
1097	1.0905e+02	9.0897	17.171933	0.000262	2.620207	0.443875	-0.000026
1098	1.0915e+02	9.0825	17.143419	0.000287	2.865852	0.485488	-0.000029
1099	1.0925e+02	9.0685	17.116941	0.000266	2.661148	0.450811	-0.000027
1100	1.0935e+02	9.0568	17.092908	0.000242	2.415504	0.409197	-0.000024
1101	1.0945e+02	9.0504	17.063579	0.000295	2.947733	0.499360	-0.000029
1102	1.0955e+02	9.0392	17.039546	0.000242	2.415504	0.409197	-0.000024
1103	1.0965e+02	9.0283	17.015920	0.000237	2.374563	0.402262	-0.000024
1104	1.0975e+02	9.0192	16.986592	0.000295	2.947733	0.499360	-0.000029
1105	1.0985e+02	9.0107	16.960114	0.000266	2.661148	0.450811	-0.000027
1106	1.0995e+02	8.9991	16.935267	0.000250	2.497385	0.423068	-0.000025
1107	1.1005e+02	8.9875	16.909604	0.000258	2.579266	0.436940	-0.000026
1108	1.1015e+02	8.9819	16.879868	0.000299	2.988674	0.506295	-0.000030
1109	1.1025e+02	8.9697	16.854205	0.000258	2.579266	0.436940	-0.000026
1110	1.1035e+02	8.9588	16.829765	0.000246	2.456444	0.416133	-0.000025
1111	1.1044e+02	8.9502	16.803288	0.000266	2.661148	0.450811	-0.000027
1112	1.1054e+02	8.9395	16.780069	0.000233	2.333622	0.395326	-0.000023
1113	1.1064e+02	8.9317	16.753592	0.000266	2.661148	0.450811	-0.000027
1114	1.1074e+02	8.9209	16.729559	0.000242	2.415504	0.409197	-0.000024
1115	1.1084e+02	8.9103	16.701045	0.000287	2.865852	0.485488	-0.000029
1116	1.1094e+02	8.8998	16.673753	0.000274	2.743029	0.464682	-0.000027
1117	1.1104e+02	8.8892	16.648497	0.000254	2.538326	0.430004	-0.000025
1118	1.1114e+02	8.8780	16.621613	0.000270	2.702089	0.457746	-0.000027
1119	1.1124e+02	8.8699	16.592691	0.000291	2.906792	0.492424	-0.000029
1120	1.1134e+02	8.8593	16.569066	0.000237	2.374563	0.402262	-0.000024
1121	1.1144e+02	8.8486	16.540144	0.000291	2.906792	0.492424	-0.000029
1122	1.1154e+02	8.8405	16.516111	0.000242	2.415504	0.409197	-0.000024
1123	1.1164e+02	8.8322	16.489226	0.000270	2.702089	0.457746	-0.000027
1124	1.1174e+02	8.8209	16.461120	0.000282	2.824911	0.478553	-0.000028
1125	1.1184e+02	8.8116	16.438716	0.000225	2.251741	0.381455	-0.000023
1126	1.1194e+02	8.8017	16.411017	0.000278	2.783970	0.471617	-0.000028
1127	1.1204e+02	8.7907	16.384132	0.000270	2.702089	0.457746	-0.000027
1128	1.1214e+02	8.7814	16.353174	0.000311	3.111496	0.527102	-0.000031
1129	1.1224e+02	8.7720	16.325882	0.000274	2.743029	0.464682	-0.000027
1130	1.1234e+02	8.7637	16.300627	0.000254	2.538326	0.430004	-0.000025
1131	1.1244e+02	8.7502	16.269669	0.000311	3.111496	0.527102	-0.000031
1132	1.1253e+02	8.7412	16.244414	0.000254	2.538326	0.430004	-0.000025
1133	1.1263e+02	8.7305	16.216714	0.000278	2.783970	0.471617	-0.000028
1134	1.1273e+02	8.7213	16.184942	0.000319	3.193378	0.540973	-0.000032
1135	1.1283e+02	8.7116	16.159279	0.000258	2.579266	0.436940	-0.000026
1136	1.1293e+02	8.7000	16.133209	0.000262	2.620207	0.443875	-0.000026
1137	1.1303e+02	8.6926	16.105510	0.000278	2.783970	0.471617	-0.000028
1138	1.1313e+02	8.6832	16.079440	0.000262	2.620207	0.443875	-0.000026
1139	1.1323e+02	8.6706	16.050111	0.000295	2.947733	0.499360	-0.000029
1140	1.1333e+02	8.6621	16.023634	0.000266	2.661148	0.450811	-0.000027
1141	1.1343e+02	8.6536	15.993898	0.000299	2.988674	0.506295	-0.000030
1142	1.1353e+02	8.6417	15.969050	0.000250	2.497385	0.423068	-0.000025
1143	1.1363e+02	8.6320	15.940129	0.000291	2.906792	0.492424	-0.000029
1144	1.1373e+02	8.6222	15.912837	0.000274	2.743029	0.464682	-0.000027
1145	1.1383e+02	8.6115	15.885952	0.000270	2.702089	0.457746	-0.000027
1146	1.1393e+02	8.6035	15.859882	0.000262	2.620207	0.443875	-0.000026
1147	1.1403e+02	8.5914	15.831368	0.000287	2.865852	0.485488	-0.000029
1148	1.1413e+02	8.5840	15.804891	0.000266	2.661148	0.450811	-0.000027
1149	1.1423e+02	8.5709	15.776377	0.000287	2.865852	0.485488	-0.000029
1150	1.1433e+02	8.5676	15.749085	0.000274	2.743029	0.464682	-0.000027
1151	1.1442e+02	8.5513	15.721386	0.000278	2.783970	0.471617	-0.000028
1152	1.1452e+02	8.5467	15.697760	0.000237	2.374563	0.402262	-0.000024
1153	1.1462e+02	8.5311	15.669246	0.000287	2.865852	0.485488	-0.000029
1154	1.1472e+02	8.5242	15.639103	0.000303	3.029615	0.513231	-0.000030
1155	1.1482e+02	8.5117	15.610181	0.000291	2.906792	0.492424	-0.000029
1156	1.1492e+02	8.5037	15.585741	0.000246	2.456444	0.416133	-0.000025
1157	1.1502e+02	8.4929	15.556819	0.000291	2.906792	0.492424	-0.000029
1158	1.1512e+02	8.4855	15.527083	0.000299	2.988674	0.506295	-0.000030
1159	1.1522e+02	8.4724	15.502235	0.000250	2.497385	0.423068	-0.000025
1160	1.1532e+02	8.4629	15.473722	0.000287	2.865852	0.485488	-0.000029
1161	1.1542e+02	8.4502	15.443171	0.000307	3.070555	0.520166	-0.000031
1162	1.1552e+02	8.4433	15.417508	0.000258	2.579266	0.436940	-0.000026
1163	1.1562e+02	8.4338	15.388180	0.000295	2.947733	0.499360	-0.000029
1164	1.1572e+02	8.4264	15.361702	0.000266	2.661148	0.450811	-0.000027
1165	1.1582e+02	8.4153	15.332374	0.000295	2.947733	0.499360	-0.000029
1166	1.1592e+02	8.4030	15.305082	0.000274	2.743029	0.464682	-0.000027
1167	1.1602e+02	8.3941	15.278197	0.000270	2.702089	0.457746	-0.000027
1168	1.1612e+02	8.3819	15.250905	0.000274	2.743029	0.464682	-0.000027
1169	1.1622e+02	8.3740	15.220354	0.000307	3.070555	0.520166	-0.000031
1170	1.1632e+02	8.3633	15.195099	0.000254	2.538326	0.430004	-0.000025
1171	1.1642e+02	8.3536	15.169029	0.000262	2.620207	0.443875	-0.000026
1172	1.1651e+02	8.3427	15.140515	0.000287	2.865852	0.485488	-0.000029
1173	1.1661e+02	8.3335	15.111187	0.000295	2.947733	0.499360	-0.000029
1174	1.1671e+02	8.3215	15.080229	0.000311	3.111496	0.527102	-0.000031
1175	1.1681e+02	8.3114	15.058232	0.000221	2.210800	0.374520	-0.000022
1176	1.1691e+02	8.3044	15.029718	0.000287	2.865852	0.485488	-0.000029
1177	1.1701e+02	8.2925	14.998353	0.000315	3.152437	0.534037	-0.000032
1178	1.1711e+02	8.2843	14.967802	0.000307	3.070555	0.520166	-0.000031
1179	1.1721e+02	8.2715	14.943362	0.000246	2.456444	0.416133	-0.000025
1180	1.1731e+02	8.2643	14.912811	0.000307	3.070555	0.520166	-0.000031
1181	1.1741e+02	8.2539	14.887148	0.000258	2.579266	0.436940	-0.000026
1182	1.1751e+02	8.2439	14.858227	0.000291	2.906792	0.492424	-0.000029
1183	1.1761e+02	8.2346	14.828491	0.000299	2.988674	0.506295	-0.000030
1184	1.1771e+02	8.2246	14.797940	0.000307	3.070555	0.520166	-0.000031
1185	1.1781e+02	8.2139	14.777573	0.000205	2.047037	0.346777	-0.000020
1186	1.1791e+02	8.2047	14.744986	0.000328	3.275259	0.554844	-0.000033
1187	1.1801e+02	8.1958	14.715657	0.000295	2.947733	0.499360	-0.000029
1188	1.1811e+02	8.1837	14.688365	0.000274	2.743029	0.464682	-0.000027
1189	1.1821e+02	8.1738	14.658629	0.000299	2.988674	0.506295	-0.000030
1190	1.1831e+02	8.1641	14.631744	0.000270	2.702089	0.457746	-0.000027
1191	1.1841e+02	8.1538	14.605267	0.000266	2.661148	0.450811	-0.000027
1192	1.1850e+02	8.1470	14.573087	0.000323	3.234318	0.547908	-0.000032
1193	1.1860e+02	8.1372	14.544980	0.000282	2.824911	0.478553	-0.000028
1194	1.1870e+02	8.1251	14.515244	0.000299	2.988674	0.506295	-0.000030
1195	1.1880e+02	8.1155	14.485916	0.000295	2.947733	0.499360	-0.000029
1196	1.1890e+02	8.1038	14.457402	0.000287	2.865852	0.485488	-0.000029
1197	1.1900e+02	8.0957	14.426851	0.000307	3.070555	0.520166	-0.000031
1198	1.1910e+02	8.0825	14.399559	0.000274	2.743029	0.464682	-0.000027
1199	1.1920e+02	8.0763	14.371453	0.000282	2.824911	0.478553	-0.000028
1200	1.1930e+02	8.0655	14.342124	0.000295	2.947733	0.499360	-0.000029
1201	1.1940e+02	8.0548	14.313610	0.000287	2.865852	0.485488	-0.000029
1202	1.1950e+02	8.0457	14.285911	0.000278	2.783970	0.471617	-0.000028
1203	1.1960e+02	8.0350	14.254545	0.000315	3.152437	0.534037	-0.000032
1204	1.1970e+02	8.0250	14.230105	0.000246	2.456444	0.416133	-0.000025
1205	1.1980e+02	8.0179	14.201183	0.000291	2.906792	0.492424	-0.000029
1206	1.1990e+02	8.0060	14.172669	0.000287	2.865852	0.485488	-0.000029
1207	1.2000e+02	7.9957	14.142526	0.000303	3.029615	0.513231	-0.000030
1208	1.2010e+02	7.9813	14.112790	0.000299	2.988674	0.506295	-0.000030
1209	1.2020e+02	7.9751	14.083461	0.000295	2.947733	0.499360	-0.000029
1210	1.2030e+02	7.9648	14.052911	0.000307	3.070555	0.520166	-0.000031
1211	1.2039e+02	7.9519	14.026026	0.000270	2.702089	0.457746	-0.000027
1212	1.2049e+02	7.9482	13.996697	0.000295	2.947733	0.499360	-0.000029
1213	1.2059e+02	7.9366	13.969405	0.000274	2.743029	0.464682	-0.000027
1214	1.2069e+02	7.9264	13.941706	0.000278	2.783970	0.471617	-0.000028
1215	1.2079e+02	7.9152	13.914822	0.000270	2.702089	0.457746	-0.000027
1216	1.2089e+02	7.9053	13.889566	0.000254	2.538326	0.430004	-0.000025
1217	1.2099e+02	7.8955	13.863089	0.000266	2.661148	0.450811	-0.000027
1218	1.2109e+02	7.8848	13.831316	0.000319	3.193378	0.540973	-0.000032
1219	1.2119e+02	7.8761	13.799951	0.000315	3.152437	0.534037	-0.000032
1220	1.2129e+02	7.8652	13.776325	0.000237	2.374563	0.402262	-0.000024
1221	1.2139e+02	7.8548	13.746182	0.000303	3.029615	0.513231	-0.000030
1222	1.2149e+02	7.8440	13.716446	0.000299	2.988674	0.506295	-0.000030
1223	1.2159e+02	7.8360	13.683858	0.000328	3.275259	0.554844	-0.000033
1224	1.2169e+02	7.8252	13.659825	0.000242	2.415504	0.409197	-0.000024
1225	1.2179e+02	7.8167	13.628460	0.000315	3.152437	0.534037	-0.000032
1226	1.2189e+02	7.8065	13.602390	0.000262	2.620207	0.443875	-0.000026
1227	1.2199e+02	7.7952	13.572246	0.000303	3.029615	0.513231	-0.000030
1228	1.2209e+02	7.7863	13.540474	0.000319	3.193378	0.540973	-0.000032
1229	1.2219e+02	7.7763	13.513182	0.000274	2.743029	0.464682	-0.000027
1230	1.2229e+02	7.7682	13.480187	0.000332	3.316200	0.561779	-0.000033
1231	1.2239e+02	7.7585	13.457783	0.000225	2.251741	0.381455	-0.000023
1232	1.2248e+02	7.7491	13.426418	0.000315	3.152437	0.534037	-0.000032
1233	1.2258e+02	7.7380	13.399533	0.000270	2.702089	0.457746	-0.000027
1234	1.2268e+02	7.7300	13.368168	0.000315	3.152437	0.534037	-0.000032
1235	1.2278e+02	7.7171	13.338839	0.000295	2.947733	0.499360	-0.000029
1236	1.2288e+02	7.7075	13.309103	0.000299	2.988674	0.506295	-0.000030
1237	1.2298e+02	7.6967	13.279367	0.000299	2.988674	0.506295	-0.000030
1238	1.2308e+02	7.6858	13.252890	0.000266	2.661148	0.450811	-0.000027
1239	1.2318e+02	7.6775	13.220710	0.000323	3.234318	0.547908	-0.000032
1240	1.2328e+02	7.6665	13.195047	0.000258	2.579266	0.436940	-0.000026
1241	1.2338e+02	7.6579	13.166941	0.000282	2.824911	0.478553	-0.000028
1242	1.2348e+02	7.6453	13.135575	0.000315	3.152437	0.534037	-0.000032
1243	1.2358e+02	7.6359	13.103803	0.000319	3.193378	0.540973	-0.000032
1244	1.2368e+02	7.6271	13.074067	0.000299	2.988674	0.506295	-0.000030
1245	1.2378e+02	7.6166	13.041479	0.000328	3.275259	0.554844	-0.000033
1246	1.2388e+02	7.6074	13.013372	0.000282	2.824911	0.478553	-0.000028
1247	1.2398e+02	7.5964	12.986081	0.000274	2.743029	0.464682	-0.000027
1248	1.2408e+02	7.5872	12.957159	0.000291	2.906792	0.492424	-0.000029
1249	1.2418e+02	7.5785	12.929053	0.000282	2.824911	0.478553	-0.000028
1250	1.2428e+02	7.5733	12.900946	0.000282	2.824911	0.478553	-0.000028
1251	1.2438e+02	7.5567	12.869173	0.000319	3.193378	0.540973	-0.000032
1252	1.2447e+02	7.5466	12.843918	0.000254	2.538326	0.430004	-0.000025
1253	1.2457e+02	7.5359	12.812145	0.000319	3.193378	0.540973	-0.000032
1254	1.2467e+02	7.5249	12.782817	0.000295	2.947733	0.499360	-0.000029
1255	1.2477e+02	7.5180	12.752266	0.000307	3.070555	0.520166	-0.000031
1256	1.2487e+02	7.5092	12.724159	0.000282	2.824911	0.478553	-0.000028
1257	1.2497e+02	7.5005	12.690757	0.000336	3.357140	0.568715	-0.000034
1258	1.2507e+02	7.4886	12.663873	0.000270	2.702089	0.457746	-0.000027
1259	1.2517e+02	7.4789	12.629248	0.000348	3.479963	0.589522	-0.000035
1260	1.2527e+02	7.4670	12.603586	0.000258	2.579266	0.436940	-0.000026
1261	1.2537e+02	7.4587	12.571813	0.000319	3.193378	0.540973	-0.000032
1262	1.2547e+02	7.4468	12.543707	0.000282	2.824911	0.478553	-0.000028
1263	1.2557e+02	7.4374	12.515193	0.000287	2.865852	0.485488	-0.000029
1264	1.2567e+02	7.4297	12.483012	0.000323	3.234318	0.547908	-0.000032
1265	1.2577e+02	7.4178	12.457350	0.000258	2.579266	0.436940	-0.000026
1266	1.2587e+02	7.4116	12.425985	0.000315	3.152437	0.534037	-0.000032
1267	1.2597e+02	7.4001	12.393804	0.000323	3.234318	0.547908	-0.000032
1268	1.2607e+02	7.3877	12.362846	0.000311	3.111496	0.527102	-0.000031
1269	1.2617e+02	7.3824	12.336777	0.000262	2.620207	0.443875	-0.000026
1270	1.2627e+02	7.3690	12.303782	0.000332	3.316200	0.561779	-0.000033
1271	1.2636e+02	7.3585	12.275268	0.000287	2.865852	0.485488	-0.000029
1272	1.2646e+02	7.3484	12.240644	0.000348	3.479963	0.589522	-0.000035
1273	1.2656e+02	7.3403	12.210500	0.000303	3.029615	0.513231	-0.000030
1274	1.2666e+02	7.3289	12.179542	0.000311	3.111496	0.527102	-0.000031
1275	1.2676e+02	7.3196	12.153472	0.000262	2.620207	0.443875	-0.000026
1276	1.2686e+02	7.3085	12.121292	0.000323	3.234318	0.547908	-0.000032
1277	1.2696e+02	7.3013	12.094815	0.000266	2.661148	0.450811	-0.000027
1278	1.2706e+02	7.2894	12.066708	0.000282	2.824911	0.478553	-0.000028
1279	1.2716e+02	7.2784	12.039416	0.000274	2.743029	0.464682	-0.000027
1280	1.2726e+02	7.2717	12.002756	0.000368	3.684666	0.624199	-0.000037
1281	1.2736e+02	7.2582	11.979537	0.000233	2.333622	0.395326	-0.000023
1282	1.2746e+02	7.2454	11.950208	0.000295	2.947733	0.499360	-0.000029
1283	1.2756e+02	7.2369	11.919250	0.000311	3.111496	0.527102	-0.000031
1284	1.2766e+02	7.2287	11.888292	0.000311	3.111496	0.527102	-0.000031
1285	1.2776e+02	7.2173	11.856112	0.000323	3.234318	0.547908	-0.000032
1286	1.2786e+02	7.2100	11.823932	0.000323	3.234318	0.547908	-0.000032
1287	1.2796e+02	7.2021	11.792160	0.000319	3.193378	0.540973	-0.000032
1288	1.2806e+02	7.1886	11.764460	0.000278	2.783970	0.471617	-0.000028
1289	1.2816e+02	7.1819	11.733910	0.000307	3.070555	0.520166	-0.000031
1290	1.2826e+02	7.1673	11.705803	0.000282	2.824911	0.478553	-0.000028
1291	1.2835e+02	7.1590	11.672401	0.000336	3.357140	0.568715	-0.000034
1292	1.2845e+02	7.1482	11.646738	0.000258	2.579266	0.436940	-0.000026
1293	1.2855e+02	7.1441	11.614966	0.000319	3.193378	0.540973	-0.000032
1294	1.2865e+02	7.1304	11.580749	0.000344	3.439022	0.582586	-0.000034
1295	1.2875e+02	7.1175	11.552235	0.000287	2.865852	0.485488	-0.000029
1296	1.2885e+02	7.1099	11.522906	0.000295	2.947733	0.499360	-0.000029
1297	1.2895e+02	7.1001	11.489504	0.000336	3.357140	0.568715	-0.000034
1298	1.2905e+02	7.0912	11.457731	0.000319	3.193378	0.540973	-0.000032
1299	1.2915e+02	7.0836	11.425551	0.000323	3.234318	0.547908	-0.000032
1300	1.2925e+02	7.0686	11.395001	0.000307	3.070555	0.520166	-0.000031
1301	1.2935e+02	7.0605	11.363228	0.000319	3.193378	0.540973	-0.000032
1302	1.2945e+02	7.0516	11.334714	0.000287	2.865852	0.485488	-0.000029
1303	1.2955e+02	7.0415	11.303348	0.000315	3.152437	0.534037	-0.000032
1304	1.2965e+02	7.0290	11.267095	0.000364	3.643726	0.617264	-0.000036
1305	1.2975e+02	7.0232	11.237766	0.000295	2.947733	0.499360	-0.000029
1306	1.2985e+02	7.0103	11.204772	0.000332	3.316200	0.561779	-0.000033
1307	1.2995e+02	6.9997	11.177480	0.000274	2.743029	0.464682	-0.000027
1308	1.3005e+02	6.9900	11.147336	0.000303	3.029615	0.513231	-0.000030
1309	1.3015e+02	6.9812	11.115971	0.000315	3.152437	0.534037	-0.000032
1310	1.3025e+02	6.9686	11.084606	0.000315	3.152437	0.534037	-0.000032
1311	1.3034e+02	6.9614	11.055684	0.000291	2.906792	0.492424	-0.000029
1312	1.3044e+02	6.9498	11.023504	0.000323	3.234318	0.547908	-0.000032
1313	1.3054e+02	6.9410	10.992953	0.000307	3.070555	0.520166	-0.000031
1314	1.3064e+02	6.9294	10.961181	0.000319	3.193378	0.540973	-0.000032
1315	1.3074e+02	6.9197	10.933481	0.000278	2.783970	0.471617	-0.000028
1316	1.3084e+02	6.9117	10.898450	0.000352	3.520903	0.596457	-0.000035
1317	1.3094e+02	6.9018	10.869936	0.000287	2.865852	0.485488	-0.000029
1318	1.3104e+02	6.8918	10.836534	0.000336	3.357140	0.568715	-0.000034
1319	1.3114e+02	6.8822	10.804761	0.000319	3.193378	0.540973	-0.000032
1320	1.3124e+02	6.8717	10.774210	0.000307	3.070555	0.520166	-0.000031
1321	1.3134e+02	6.8627	10.744067	0.000303	3.029615	0.513231	-0.000030
1322	1.3144e+02	6.8512	10.710258	0.000340	3.398081	0.575651	-0.000034
1323	1.3154e+02	6.8420	10.682151	0.000282	2.824911	0.478553	-0.000028
1324	1.3164e+02	6.8308	10.649156	0.000332	3.316200	0.561779	-0.000033
1325	1.3174e+02	6.8206	10.618606	0.000307	3.070555	0.520166	-0.000031
1326	1.3184e+02	6.8104	10.587648	0.000311	3.111496	0.527102	-0.000031
1327	1.3194e+02	6.8008	10.555875	0.000319	3.193378	0.540973	-0.000032
1328	1.3204e+02	6.7907	10.526546	0.000295	2.947733	0.499360	-0.000029
1329	1.3214e+02	6.7821	10.491515	0.000352	3.520903	0.596457	-0.000035
1330	1.3224e+02	6.7692	10.463815	0.000278	2.783970	0.471617	-0.000028
1331	1.3234e+02	6.7629	10.427562	0.000364	3.643726	0.617264	-0.000036
1332	1.3243e+02	6.7519	10.396604	0.000311	3.111496	0.527102	-0.000031
1333	1.3253e+02	6.7411	10.369719	0.000270	2.702089	0.457746	-0.000027
1334	1.3263e+02	6.7310	10.334281	0.000356	3.561844	0.603393	-0.000036
1335	1.3273e+02	6.7200	10.304545	0.000299	2.988674	0.506295	-0.000030
1336	1.3283e+02	6.7117	10.271550	0.000332	3.316200	0.561779	-0.000033
1337	1.3293e+02	6.7016	10.240999	0.000307	3.070555	0.520166	-0.000031
1338	1.3303e+02	6.6912	10.211670	0.000295	2.947733	0.499360	-0.000029
1339	1.3313e+02	6.6826	10.181120	0.000307	3.070555	0.520166	-0.000031
1340	1.3323e+02	6.6726	10.149754	0.000315	3.152437	0.534037	-0.000032
1341	1.3333e+02	6.6621	10.116352	0.000336	3.357140	0.568715	-0.000034
1342	1.3343e+02	6.6520	10.083765	0.000328	3.275259	0.554844	-0.000033
1343	1.3353e+02	6.6399	10.054029	0.000299	2.988674	0.506295	-0.000030
1344	1.3363e+02	6.6316	10.020627	0.000336	3.357140	0.568715	-0.000034
1345	1.3373e+02	6.6209	9.993335	0.000274	2.743029	0.464682	-0.000027
1346	1.3383e+02	6.6093	9.960340	0.000332	3.316200	0.561779	-0.000033
1347	1.3393e+02	6.6029	9.927345	0.000332	3.316200	0.561779	-0.000033
1348	1.3403e+02	6.5951	9.895165	0.000323	3.234318	0.547908	-0.000032
1349	1.3413e+02	6.5838	9.862985	0.000323	3.234318	0.547908	-0.000032
1350	1.3423e+02	6.5713	9.832842	0.000303	3.029615	0.513231	-0.000030
1351	1.3432e+02	6.5649	9.800662	0.000323	3.234318	0.547908	-0.000032
1352	1.3442e+02	6.5525	9.768074	0.000328	3.275259	0.554844	-0.000033
1353	1.3452e+02	6.5415	9.737116	0.000311	3.111496	0.527102	-0.000031
1354	1.3462e+02	6.5334	9.704936	0.000323	3.234318	0.547908	-0.000032
1355	1.3472e+02	6.5237	9.675200	0.000299	2.988674	0.506295	-0.000030
1356	1.3482e+02	6.5137	9.642206	0.000332	3.316200	0.561779	-0.000033
1357	1.3492e+02	6.5013	9.611248	0.000311	3.111496	0.527102	-0.000031
1358	1.3502e+02	6.4935	9.574587	0.000368	3.684666	0.624199	-0.000037
1359	1.3512e+02	6.4818	9.544443	0.000303	3.029615	0.513231	-0.000030
1360	1.3522e+02	6.4742	9.513078	0.000315	3.152437	0.534037	-0.000032
1361	1.3532e+02	6.4626	9.482527	0.000307	3.070555	0.520166	-0.000031
1362	1.3542e+02	6.4548	9.448718	0.000340	3.398081	0.575651	-0.000034
1363	1.3552e+02	6.4437	9.415316	0.000336	3.357140	0.568715	-0.000034
1364	1.3562e+02	6.4320	9.380284	0.000352	3.520903	0.596457	-0.000035
1365	1.3572e+02	6.4245	9.345660	0.000348	3.479963	0.589522	-0.000035
1366	1.3582e+02	6.4137	9.316331	0.000295	2.947733	0.499360	-0.000029
1367	1.3592e+02	6.4040	9.283744	0.000328	3.275259	0.554844	-0.000033
1368	1.3602e+02	6.3916	9.250342	0.000336	3.357140	0.568715	-0.000034
1369	1.3612e+02	6.3855	9.219384	0.000311	3.111496	0.527102	-0.000031
1370	1.3622e+02	6.3734	9.186389	0.000332	3.316200	0.561779	-0.000033
1371	1.3631e+02	6.3623	9.161134	0.000254	2.538326	0.430004	-0.000025
1372	1.3641e+02	6.3501	9.124066	0.000373	3.725607	0.631135	-0.000037
1373	1.3651e+02	6.3482	9.095144	0.000291	2.906792	0.492424	-0.000029
1374	1.3661e+02	6.3335	9.062964	0.000323	3.234318	0.547908	-0.000032
1375	1.3671e+02	6.3239	9.027933	0.000352	3.520903	0.596457	-0.000035
1376	1.3681e+02	6.3133	8.989235	0.000389	3.889370	0.658877	-0.000039
1377	1.3691e+02	6.3022	8.961536	0.000278	2.783970	0.471617	-0.000028
1378	1.3701e+02	6.2951	8.932207	0.000295	2.947733	0.499360	-0.000029
1379	1.3711e+02	6.2829	8.901657	0.000307	3.070555	0.520166	-0.000031
1380	1.3721e+02	6.2744	8.870291	0.000315	3.152437	0.534037	-0.000032
1381	1.3731e+02	6.2659	8.838111	0.000323	3.234318	0.547908	-0.000032
1382	1.3741e+02	6.2533	8.803080	0.000352	3.520903	0.596457	-0.000035
1383	1.3751e+02	6.2452	8.777010	0.000262	2.620207	0.443875	-0.000026
1384	1.3761e+02	6.2386	8.744423	0.000328	3.275259	0.554844	-0.000033
1385	1.3771e+02	6.2257	8.712650	0.000319	3.193378	0.540973	-0.000032
1386	1.3781e+02	6.2159	8.678840	0.000340	3.398081	0.575651	-0.000034
1387	1.3791e+02	6.2045	8.647475	0.000315	3.152437	0.534037	-0.000032
1388	1.3801e+02	6.1947	8.617332	0.000303	3.029615	0.513231	-0.000030
1389	1.3811e+02	6.1851	8.581078	0.000364	3.643726	0.617264	-0.000036
1390	1.3821e+02	6.1752	8.548083	0.000332	3.316200	0.561779	-0.000033
1391	1.3831e+02	6.1672	8.518347	0.000299	2.988674	0.506295	-0.000030
1392	1.3840e+02	6.1570	8.487389	0.000311	3.111496	0.527102	-0.000031
1393	1.3850e+02	6.1472	8.453580	0.000340	3.398081	0.575651	-0.000034
1394	1.3860e+02	6.1352	8.420178	0.000336	3.357140	0.568715	-0.000034
1395	1.3870e+02	6.1259	8.388405	0.000319	3.193378	0.540973	-0.000032
1396	1.3880e+02	6.1156	8.353781	0.000348	3.479963	0.589522	-0.000035
1397	1.3890e+02	6.1044	8.320786	0.000332	3.316200	0.561779	-0.000033
1398	1.3900e+02	6.0948	8.291050	0.000299	2.988674	0.506295	-0.000030
1399	1.3910e+02	6.0859	8.259685	0.000315	3.152437	0.534037	-0.000032
1400	1.3920e+02	6.0743	8.225468	0.000344	3.439022	0.582586	-0.000034
1401	1.3930e+02	6.0658	8.189215	0.000364	3.643726	0.617264	-0.000036
1402	1.3940e+02	6.0543	8.158664	0.000307	3.070555	0.520166	-0.000031
1403	1.3950e+02	6.0458	8.126484	0.000323	3.234318	0.547908	-0.000032
1404	1.3960e+02	6.0342	8.092267	0.000344	3.439022	0.582586	-0.000034
1405	1.3970e+02	6.0271	8.059272	0.000332	3.316200	0.561779	-0.000033
1406	1.3980e+02	6.0125	8.028314	0.000311	3.111496	0.527102	-0.000031
1407	1.3990e+02	6.0056	7.996134	0.000323	3.234318	0.547908	-0.000032
1408	1.4000e+02	5.9965	7.961103	0.000352	3.520903	0.596457	-0.000035
1409	1.4010e+02	5.9863	7.926479	0.000348	3.479963	0.589522	-0.000035
1410	1.4020e+02	5.9753	7.898372	0.000282	2.824911	0.478553	-0.000028
1411	1.4029e+02	5.9686	7.863748	0.000348	3.479963	0.589522	-0.000035
1412	1.4039e+02	5.9554	7.829124	0.000348	3.479963	0.589522	-0.000035
1413	1.4049e+02	5.9466	7.796944	0.000323	3.234318	0.547908	-0.000032
1414	1.4059e+02	5.9353	7.761505	0.000356	3.561844	0.603393	-0.000036
1415	1.4069e+02	5.9263	7.729732	0.000319	3.193378	0.540973	-0.000032
1416	1.4079e+02	5.9167	7.695108	0.000348	3.479963	0.589522	-0.000035
1417	1.4089e+02	5.9071	7.667002	0.000282	2.824911	0.478553	-0.000028
1418	1.4099e+02	5.8955	7.633599	0.000336	3.357140	0.568715	-0.000034
1419	1.4109e+02	5.8877	7.599790	0.000340	3.398081	0.575651	-0.000034
1420	1.4119e+02	5.8755	7.566795	0.000332	3.316200	0.561779	-0.000033
1421	1.4129e+02	5.8672	7.533393	0.000336	3.357140	0.568715	-0.000034
1422	1.4139e+02	5.8582	7.497547	0.000360	3.602785	0.610328	-0.000036
1423	1.4149e+02	5.8471	7.469033	0.000287	2.865852	0.485488	-0.000029
1424	1.4159e+02	5.8364	7.433594	0.000356	3.561844	0.603393	-0.000036
1425	1.4169e+02	5.8263	7.396526	0.000373	3.725607	0.631135	-0.000037
1426	1.4179e+02	5.8186	7.366383	0.000303	3.029615	0.513231	-0.000030
1427	1.4189e+02	5.8086	7.329315	0.000373	3.725607	0.631135	-0.000037
1428	1.4199e+02	5.7970	7.297542	0.000319	3.193378	0.540973	-0.000032
1429	1.4209e+02	5.7877	7.262103	0.000356	3.561844	0.603393	-0.000036
1430	1.4219e+02	5.7775	7.229516	0.000328	3.275259	0.554844	-0.000033
1431	1.4228e+02	5.7673	7.197743	0.000319	3.193378	0.540973	-0.000032
1432	1.4238e+02	5.7561	7.164341	0.000336	3.357140	0.568715	-0.000034
1433	1.4248e+02	5.7488	7.132568	0.000319	3.193378	0.540973	-0.000032
1434	1.4258e+02	5.7357	7.096722	0.000360	3.602785	0.610328	-0.000036
1435	1.4268e+02	5.7320	7.063320	0.000336	3.357140	0.568715	-0.000034
1436	1.4278e+02	5.7166	7.029510	0.000340	3.398081	0.575651	-0.000034
1437	1.4288e+02	5.7061	6.995294	0.000344	3.439022	0.582586	-0.000034
1438	1.4298e+02	5.6966	6.962299	0.000332	3.316200	0.561779	-0.000033
1439	1.4308e+02	5.6870	6.929304	0.000332	3.316200	0.561779	-0.000033
1440	1.4318e+02	5.6770	6.897124	0.000323	3.234318	0.547908	-0.000032
1441	1.4328e+02	5.6678	6.861685	0.000356	3.561844	0.603393	-0.000036
1442	1.4338e+02	5.6576	6.828283	0.000336	3.357140	0.568715	-0.000034
1443	1.4348e+02	5.6481	6.795696	0.000328	3.275259	0.554844	-0.000033
1444	1.4358e+02	5.6392	6.760257	0.000356	3.561844	0.603393	-0.000036
1445	1.4368e+02	5.6300	6.727262	0.000332	3.316200	0.561779	-0.000033
1446	1.4378e+02	5.6179	6.696304	0.000311	3.111496	0.527102	-0.000031
1447	1.4388e+02	5.6087	6.658421	0.000381	3.807489	0.645006	-0.000038
1448	1.4398e+02	5.5965	6.627871	0.000307	3.070555	0.520166	-0.000031
1449	1.4408e+02	5.5875	6.594876	0.000332	3.316200	0.561779	-0.000033
1450	1.4418e+02	5.5795	6.563103	0.000319	3.193378	0.540973	-0.000032
1451	1.4428e+02	5.5676	6.531330	0.000319	3.193378	0.540973	-0.000032
1452	1.4437e+02	5.5576	6.490596	0.000409	4.094074	0.693555	-0.000041
1453	1.4447e+02	5.5499	6.458823	0.000319	3.193378	0.540973	-0.000032
1454	1.4457e+02	5.5389	6.425014	0.000340	3.398081	0.575651	-0.000034
1455	1.4467e+02	5.5286	6.391612	0.000336	3.357140	0.568715	-0.000034
1456	1.4477e+02	5.5170	6.354544	0.000373	3.725607	0.631135	-0.000037
1457	1.4487e+02	5.5097	6.323178	0.000315	3.152437	0.534037	-0.000032
1458	1.4497e+02	5.4996	6.293850	0.000295	2.947733	0.499360	-0.000029
1459	1.4507e+02	5.4882	6.257189	0.000368	3.684666	0.624199	-0.000037
1460	1.4517e+02	5.4798	6.224194	0.000332	3.316200	0.561779	-0.000033
1461	1.4527e+02	5.4668	6.188348	0.000360	3.602785	0.610328	-0.000036
1462	1.4537e+02	5.4601	6.154131	0.000344	3.439022	0.582586	-0.000034
1463	1.4547e+02	5.4497	6.118692	0.000356	3.561844	0.603393	-0.000036
1464	1.4557e+02	5.4379	6.082032	0.000368	3.684666	0.624199	-0.000037
1465	1.4567e+02	5.4273	6.047408	0.000348	3.479963	0.589522	-0.000035
1466	1.4577e+02	5.4186	6.013598	0.000340	3.398081	0.575651	-0.000034
1467	1.4587e+02	5.4140	5.977345	0.000364	3.643726	0.617264	-0.000036
1468	1.4597e+02	5.3997	5.941906	0.000356	3.561844	0.603393	-0.000036
1469	1.4607e+02	5.3899	5.906467	0.000356	3.561844	0.603393	-0.000036
1470	1.4617e+02	5.3776	5.873065	0.000336	3.357140	0.568715	-0.000034
1471	1.4626e+02	5.3711	5.836811	0.000364	3.643726	0.617264	-0.000036
1472	1.4636e+02	5.3564	5.805446	0.000315	3.152437	0.534037	-0.000032
1473	1.4646e+02	5.3486	5.769193	0.000364	3.643726	0.617264	-0.000036
1474	1.4656e+02	5.3383	5.733346	0.000360	3.602785	0.610328	-0.000036
1475	1.4666e+02	5.3297	5.696686	0.000368	3.684666	0.624199	-0.000037
1476	1.4676e+02	5.3176	5.662876	0.000340	3.398081	0.575651	-0.000034
1477	1.4686e+02	5.3086	5.629067	0.000340	3.398081	0.575651	-0.000034
1478	1.4696e+02	5.3002	5.594035	0.000352	3.520903	0.596457	-0.000035
1479	1.4706e+02	5.2874	5.557782	0.000364	3.643726	0.617264	-0.000036
1480	1.4716e+02	5.2810	5.523972	0.000340	3.398081	0.575651	-0.000034
1481	1.4726e+02	5.2691	5.489348	0.000348	3.479963	0.589522	-0.000035
1482	1.4736e+02	5.2562	5.454317	0.000352	3.520903	0.596457	-0.000035
1483	1.4746e+02	5.2483	5.418878	0.000356	3.561844	0.603393	-0.000036
1484	1.4756e+02	5.2398	5.384254	0.000348	3.479963	0.589522	-0.000035
1485	1.4766e+02	5.2282	5.349630	0.000348	3.479963	0.589522	-0.000035
1486	1.4776e+02	5.2190	5.317857	0.000319	3.193378	0.540973	-0.000032
1487	1.4786e+02	5.2071	5.279974	0.000381	3.807489	0.645006	-0.000038
1488	1.4796e+02	5.2015	5.245350	0.000348	3.479963	0.589522	-0.000035
1489	1.4806e+02	5.1907	5.209911	0.000356	3.561844	0.603393	-0.000036
1490	1.4816e+02	5.1818	5.176102	0.000340	3.398081	0.575651	-0.000034
1491	1.4825e+02	5.1722	5.139848	0.000364	3.643726	0.617264	-0.000036
1492	1.4835e+02	5.1584	5.103595	0.000364	3.643726	0.617264	-0.000036
1493	1.4845e+02	5.1503	5.069378	0.000344	3.439022	0.582586	-0.000034
1494	1.4855e+02	5.1385	5.037605	0.000319	3.193378	0.540973	-0.000032
1495	1.4865e+02	5.1302	4.999722	0.000381	3.807489	0.645006	-0.000038
1496	1.4875e+02	5.1215	4.963876	0.000360	3.602785	0.610328	-0.000036
1497	1.4885e+02	5.1089	4.928438	0.000356	3.561844	0.603393	-0.000036
1498	1.4895e+02	5.1014	4.895035	0.000336	3.357140	0.568715	-0.000034
1499	1.4905e+02	5.0910	4.861633	0.000336	3.357140	0.568715	-0.000034
1500	1.4915e+02	5.0823	4.822528	0.000393	3.930311	0.665813	-0.000039
1501	1.4925e+02	5.0697	4.789534	0.000332	3.316200	0.561779	-0.000033
1502	1.4935e+02	5.0591	4.752058	0.000377	3.766548	0.638070	-0.000038
1503	1.4945e+02	5.0507	4.719471	0.000328	3.275259	0.554844	-0.000033
1504	1.4955e+02	5.0410	4.683217	0.000364	3.643726	0.617264	-0.000036
1505	1.4965e+02	5.0347	4.644520	0.000389	3.889370	0.658877	-0.000039
1506	1.4975e+02	5.0216	4.609896	0.000348	3.479963	0.589522	-0.000035
1507	1.4985e+02	5.0091	4.574457	0.000356	3.561844	0.603393	-0.000036
1508	1.4995e+02	5.0023	4.540240	0.000344	3.439022	0.582586	-0.000034
1509	1.5005e+02	4.9902	4.508060	0.000323	3.234318	0.547908	-0.000032
1510	1.5015e+02	4.9797	4.470992	0.000373	3.725607	0.631135	-0.000037
1511	1.5025e+02	4.9747	4.437182	0.000340	3.398081	0.575651	-0.000034
1512	1.5034e+02	4.9612	4.401336	0.000360	3.602785	0.610328	-0.000036
1513	1.5044e+02	4.9526	4.364268	0.000373	3.725607	0.631135	-0.000037
1514	1.5054e+02	4.9398	4.328015	0.000364	3.643726	0.617264	-0.000036
1515	1.5064e+02	4.9323	4.292983	0.000352	3.520903	0.596457	-0.000035
1516	1.5074e+02	4.9213	4.256730	0.000364	3.643726	0.617264	-0.000036
1517	1.5084e+02	4.9117	4.220476	0.000364	3.643726	0.617264	-0.000036
1518	1.5094e+02	4.9041	4.185852	0.000348	3.479963	0.589522	-0.000035
1519	1.5104e+02	4.8920	4.151228	0.000348	3.479963	0.589522	-0.000035
1520	1.5114e+02	4.8793	4.117419	0.000340	3.398081	0.575651	-0.000034
1521	1.5124e+02	4.8682	4.078721	0.000389	3.889370	0.658877	-0.000039
1522	1.5134e+02	4.8626	4.041653	0.000373	3.725607	0.631135	-0.000037
1523	1.5144e+02	4.8504	4.010287	0.000315	3.152437	0.534037	-0.000032
1524	1.5154e+02	4.8392	3.970368	0.000401	4.012192	0.679684	-0.000040
1525	1.5164e+02	4.8320	3.935336	0.000352	3.520903	0.596457	-0.000035
1526	1.5174e+02	4.8202	3.901934	0.000336	3.357140	0.568715	-0.000034
1527	1.5184e+02	4.8148	3.866088	0.000360	3.602785	0.610328	-0.000036
1528	1.5194e+02	4.8038	3.824539	0.000418	4.175955	0.707426	-0.000042
1529	1.5204e+02	4.7897	3.789915	0.000348	3.479963	0.589522	-0.000035
1530	1.5214e+02	4.7816	3.754069	0.000360	3.602785	0.610328	-0.000036
1531	1.5224e+02	4.7726	3.716186	0.000381	3.807489	0.645006	-0.000038
1532	1.5233e+02	4.7630	3.678711	0.000377	3.766548	0.638070	-0.000038
1533	1.5243e+02	4.7526	3.643272	0.000356	3.561844	0.603393	-0.000036
1534	1.5253e+02	4.7423	3.604167	0.000393	3.930311	0.665813	-0.000039
1535	1.5263e+02	4.7330	3.568728	0.000356	3.561844	0.603393	-0.000036
1536	1.5273e+02	4.7227	3.534104	0.000348	3.479963	0.589522	-0.000035
1537	1.5283e+02	4.7164	3.496221	0.000381	3.807489	0.645006	-0.000038
1538	1.5293e+02	4.7045	3.461190	0.000352	3.520903	0.596457	-0.000035
1539	1.5303e+02	4.6915	3.428195	0.000332	3.316200	0.561779	-0.000033
1540	1.5313e+02	4.6802	3.391127	0.000373	3.725607	0.631135	-0.000037
1541	1.5323e+02	4.6735	3.354873	0.000364	3.643726	0.617264	-0.000036
1542	1.5333e+02	4.6624	3.316990	0.000381	3.807489	0.645006	-0.000038
1543	1.5343e+02	4.6537	3.278700	0.000385	3.848429	0.651942	-0.000038
1544	1.5353e+02	4.6424	3.244483	0.000344	3.439022	0.582586	-0.000034
1545	1.5363e+02	4.6343	3.204157	0.000405	4.053133	0.686619	-0.000041
1546	1.5373e+02	4.6239	3.172384	0.000319	3.193378	0.540973	-0.000032
1547	1.5383e+02	4.6138	3.135723	0.000368	3.684666	0.624199	-0.000037
1548	1.5393e+02	4.6029	3.100284	0.000356	3.561844	0.603393	-0.000036
1549	1.5403e+02	4.5933	3.062401	0.000381	3.807489	0.645006	-0.000038
1550	1.5413e+02	4.5821	3.026963	0.000356	3.561844	0.603393	-0.000036
1551	1.5422e+02	4.5739	2.991116	0.000360	3.602785	0.610328	-0.000036
1552	1.5432e+02	4.5602	2.955270	0.000360	3.602785	0.610328	-0.000036
1553	1.5442e+02	4.5542	2.921461	0.000340	3.398081	0.575651	-0.000034
1554	1.5452e+02	4.5414	2.886022	0.000356	3.561844	0.603393	-0.000036
1555	1.5462e+02	4.5351	2.848954	0.000373	3.725607	0.631135	-0.000037
1556	1.5472e+02	4.5219	2.810664	0.000385	3.848429	0.651942	-0.000038
1557	1.5482e+02	4.5121	2.776039	0.000348	3.479963	0.589522	-0.000035
1558	1.5492e+02	4.5051	2.742230	0.000340	3.398081	0.575651	-0.000034
1559	1.5502e+02	4.4942	2.702718	0.000397	3.971252	0.672748	-0.000040
1560	1.5512e+02	4.4862	2.663206	0.000397	3.971252	0.672748	-0.000040
1561	1.5522e+02	4.4762	2.625730	0.000377	3.766548	0.638070	-0.000038
1562	1.5532e+02	4.4645	2.589069	0.000368	3.684666	0.624199	-0.000037
1563	1.5542e+02	4.4547	2.556482	0.000328	3.275259	0.554844	-0.000033
1564	1.5552e+02	4.4434	2.517784	0.000389	3.889370	0.658877	-0.000039
1565	1.5562e+02	4.4350	2.481531	0.000364	3.643726	0.617264	-0.000036
1566	1.5572e+02	4.4216	2.442833	0.000389	3.889370	0.658877	-0.000039
1567	1.5582e+02	4.4109	2.408209	0.000348	3.479963	0.589522	-0.000035
1568	1.5592e+02	4.4036	2.372363	0.000360	3.602785	0.610328	-0.000036
1569	1.5602e+02	4.3925	2.332851	0.000397	3.971252	0.672748	-0.000040
1570	1.5612e+02	4.3873	2.296190	0.000368	3.684666	0.624199	-0.000037
1571	1.5622e+02	4.3732	2.261159	0.000352	3.520903	0.596457	-0.000035
1572	1.5631e+02	4.3653	2.223276	0.000381	3.807489	0.645006	-0.000038
1573	1.5641e+02	4.3542	2.181319	0.000422	4.216896	0.714362	-0.000042
1574	1.5651e+02	4.3452	2.149139	0.000323	3.234318	0.547908	-0.000032
1575	1.5661e+02	4.3320	2.112478	0.000368	3.684666	0.624199	-0.000037
1576	1.5671e+02	4.3240	2.074188	0.000385	3.848429	0.651942	-0.000038
1577	1.5681e+02	4.3143	2.036713	0.000377	3.766548	0.638070	-0.000038
1578	1.5691e+02	4.3031	2.000052	0.000368	3.684666	0.624199	-0.000037
1579	1.5701e+02	4.2964	1.966242	0.000340	3.398081	0.575651	-0.000034
1580	1.5711e+02	4.2841	1.924286	0.000422	4.216896	0.714362	-0.000042
1581	1.5721e+02	4.2764	1.892106	0.000323	3.234318	0.547908	-0.000032
1582	1.5731e+02	4.2628	1.854631	0.000377	3.766548	0.638070	-0.000038
1583	1.5741e+02	4.2536	1.813489	0.000414	4.135014	0.700490	-0.000041
1584	1.5751e+02	4.2435	1.776828	0.000368	3.684666	0.624199	-0.000037
1585	1.5761e+02	4.2371	1.743833	0.000332	3.316200	0.561779	-0.000033
1586	1.5771e+02	4.2261	1.703914	0.000401	4.012192	0.679684	-0.000040
1587	1.5781e+02	4.2149	1.667660	0.000364	3.643726	0.617264	-0.000036
1588	1.5791e+02	4.2061	1.628148	0.000397	3.971252	0.672748	-0.000040
1589	1.5801e+02	4.1959	1.592302	0.000360	3.602785	0.610328	-0.000036
1590	1.5811e+02	4.1858	1.551160	0.000414	4.135014	0.700490	-0.000041
1591	1.5821e+02	4.1735	1.513278	0.000381	3.807489	0.645006	-0.000038
1592	1.5830e+02	4.1634	1.476209	0.000373	3.725607	0.631135	-0.000037
1593	1.5840e+02	4.1546	1.439141	0.000373	3.725607	0.631135	-0.000037
1594	1.5850e+02	4.1457	1.402073	0.000373	3.725607	0.631135	-0.000037
1595	1.5860e+02	4.1357	1.366227	0.000360	3.602785	0.610328	-0.000036
1596	1.5870e+02	4.1271	1.325493	0.000409	4.094074	0.693555	-0.000041
1597	1.5880e+02	4.1128	1.285980	0.000397	3.971252	0.672748	-0.000040
1598	1.5890e+02	4.1042	1.252986	0.000332	3.316200	0.561779	-0.000033
1599	1.5900e+02	4.0940	1.214288	0.000389	3.889370	0.658877	-0.000039
1600	1.5910e+02	4.0832	1.171517	0.000430	4.298777	0.728233	-0.000043
1601	1.5920e+02	4.0737	1.136078	0.000356	3.561844	0.603393	-0.000036
1602	1.5930e+02	4.0665	1.097788	0.000385	3.848429	0.651942	-0.000038
1603	1.5940e+02	4.0556	1.062757	0.000352	3.520903	0.596457	-0.000035
1604	1.5950e+02	4.0466	1.022837	0.000401	4.012192	0.679684	-0.000040
1605	1.5960e+02	4.0318	0.989028	0.000340	3.398081	0.575651	-0.000034
1606	1.5970e+02	4.0243	0.946664	0.000426	4.257837	0.721297	-0.000043
1607	1.5980e+02	4.0174	0.910003	0.000368	3.684666	0.624199	-0.000037
1608	1.5990e+02	4.0050	0.868454	0.000418	4.175955	0.707426	-0.000042
1609	1.6000e+02	3.9944	0.830164	0.000385	3.848429	0.651942	-0.000038
1610	1.6010e+02	3.9889	0.791059	0.000393	3.930311	0.665813	-0.000039
1611	1.6019e+02	3.9771	0.753991	0.000373	3.725607	0.631135	-0.000037
1612	1.6029e+02	3.9629	0.718145	0.000360	3.602785	0.610328	-0.000036
1613	1.6039e+02	3.9561	0.679447	0.000389	3.889370	0.658877	-0.000039
1614	1.6049e+02	3.9468	0.644823	0.000348	3.479963	0.589522	-0.000035
1615	1.6059e+02	3.9359	0.604496	0.000405	4.053133	0.686619	-0.000041
1616	1.6069e+02	3.9264	0.570280	0.000344	3.439022	0.582586	-0.000034
1617	1.6079e+02	3.9164	0.529545	0.000409	4.094074	0.693555	-0.000041
1618	1.6089e+02	3.9077	0.492070	0.000377	3.766548	0.638070	-0.000038
1619	1.6099e+02	3.8960	0.454594	0.000377	3.766548	0.638070	-0.000038
1620	1.6109e+02	3.8853	0.412231	0.000426	4.257837	0.721297	-0.000043
1621	1.6119e+02	3.8758	0.377199	0.000352	3.520903	0.596457	-0.000035
1622	1.6129e+02	3.8651	0.338909	0.000385	3.848429	0.651942	-0.000038
1623	1.6139e+02	3.8570	0.298175	0.000409	4.094074	0.693555	-0.000041
1624	1.6149e+02	3.8464	0.259885	0.000385	3.848429	0.651942	-0.000038
1625	1.6159e+02	3.8352	0.219150	0.000409	4.094074	0.693555	-0.000041
1626	1.6169e+02	3.8267	0.186563	0.000328	3.275259	0.554844	-0.000033
1627	1.6179e+02	3.8184	0.145421	0.000414	4.135014	0.700490	-0.000041
1628	1.6189e+02	3.8055	0.106724	0.000389	3.889370	0.658877	-0.000039
1629	1.6199e+02	3.7981	0.067212	0.000397	3.971252	0.672748	-0.000040
1630	1.6209e+02	3.7910	0.027699	0.000397	3.971252	0.672748	-0.000040
1631	1.6219e+02	3.7782	-0.007332	0.000352	3.520903	0.596457	-0.000035
1632	1.6228e+02	3.7670	-0.049696	0.000426	4.257837	0.721297	-0.000043
1633	1.6238e+02	3.7583	-0.089615	0.000401	4.012192	0.679684	-0.000040
1634	1.6248e+02	3.7457	-0.129535	0.000401	4.012192	0.679684	-0.000040
1635	1.6258e+02	3.7370	-0.171899	0.000426	4.257837	0.721297	-0.000043
1636	1.6268e+02	3.7274	-0.208152	0.000364	3.643726	0.617264	-0.000036
1637	1.6278e+02	3.7190	-0.249701	0.000418	4.175955	0.707426	-0.000042
1638	1.6288e+02	3.7073	-0.287991	0.000385	3.848429	0.651942	-0.000038
1639	1.6298e+02	3.6980	-0.328318	0.000405	4.053133	0.686619	-0.000041
1640	1.6308e+02	3.6903	-0.361313	0.000332	3.316200	0.561779	-0.000033
1641	1.6318e+02	3.6762	-0.405306	0.000442	4.421600	0.749039	-0.000044
1642	1.6328e+02	3.6669	-0.444411	0.000393	3.930311	0.665813	-0.000039
1643	1.6338e+02	3.6581	-0.482294	0.000381	3.807489	0.645006	-0.000038
1644	1.6348e+02	3.6492	-0.523028	0.000409	4.094074	0.693555	-0.000041
1645	1.6358e+02	3.6355	-0.564984	0.000422	4.216896	0.714362	-0.000042
1646	1.6368e+02	3.6277	-0.603274	0.000385	3.848429	0.651942	-0.000038
1647	1.6378e+02	3.6176	-0.644009	0.000409	4.094074	0.693555	-0.000041
1648	1.6388e+02	3.6069	-0.679855	0.000360	3.602785	0.610328	-0.000036
1649	1.6398e+02	3.5987	-0.722218	0.000426	4.257837	0.721297	-0.000043
1650	1.6408e+02	3.5886	-0.763767	0.000418	4.175955	0.707426	-0.000042
1651	1.6418e+02	3.5770	-0.804094	0.000405	4.053133	0.686619	-0.000041
1652	1.6427e+02	3.5687	-0.841977	0.000381	3.807489	0.645006	-0.000038
1653	1.6437e+02	3.5596	-0.880267	0.000385	3.848429	0.651942	-0.000038
1654	1.6447e+02	3.5500	-0.918150	0.000381	3.807489	0.645006	-0.000038
1655	1.6457e+02	3.5395	-0.958070	0.000401	4.012192	0.679684	-0.000040
1656	1.6467e+02	3.5288	-0.998397	0.000405	4.053133	0.686619	-0.000041
1657	1.6477e+02	3.5191	-1.038316	0.000401	4.012192	0.679684	-0.000040
1658	1.6487e+02	3.5104	-1.079050	0.000409	4.094074	0.693555	-0.000041
1659	1.6497e+02	3.4948	-1.116119	0.000373	3.725607	0.631135	-0.000037
1660	1.6507e+02	3.4862	-1.158075	0.000422	4.216896	0.714362	-0.000042
1661	1.6517e+02	3.4818	-1.194736	0.000368	3.684666	0.624199	-0.000037
1662	1.6527e+02	3.4689	-1.238729	0.000442	4.421600	0.749039	-0.000044
1663	1.6537e+02	3.4608	-1.273760	0.000352	3.520903	0.596457	-0.000035
1664	1.6547e+02	3.4490	-1.316531	0.000430	4.298777	0.728233	-0.000043
1665	1.6557e+02	3.4365	-1.357673	0.000414	4.135014	0.700490	-0.000041
1666	1.6567e+02	3.4263	-1.395148	0.000377	3.766548	0.638070	-0.000038
1667	1.6577e+02	3.4210	-1.437512	0.000426	4.257837	0.721297	-0.000043
1668	1.6587e+02	3.4095	-1.476617	0.000393	3.930311	0.665813	-0.000039
1669	1.6597e+02	3.3978	-1.517351	0.000409	4.094074	0.693555	-0.000041
1670	1.6607e+02	3.3892	-1.561344	0.000442	4.421600	0.749039	-0.000044
1671	1.6616e+02	3.3810	-1.600042	0.000389	3.889370	0.658877	-0.000039
1672	1.6626e+02	3.3689	-1.637924	0.000381	3.807489	0.645006	-0.000038
1673	1.6636e+02	3.3591	-1.679473	0.000418	4.175955	0.707426	-0.000042
1674	1.6646e+02	3.3484	-1.719393	0.000401	4.012192	0.679684	-0.000040
1675	1.6656e+02	3.3375	-1.760942	0.000418	4.175955	0.707426	-0.000042
1676	1.6666e+02	3.3307	-1.796381	0.000356	3.561844	0.603393	-0.000036
1677	1.6676e+02	3.3177	-1.841188	0.000450	4.503481	0.762910	-0.000045
1678	1.6686e+02	3.3102	-1.877442	0.000364	3.643726	0.617264	-0.000036
1679	1.6696e+02	3.2980	-1.919805	0.000426	4.257837	0.721297	-0.000043
1680	1.6706e+02	3.2893	-1.961762	0.000422	4.216896	0.714362	-0.000042
1681	1.6716e+02	3.2800	-2.000867	0.000393	3.930311	0.665813	-0.000039
1682	1.6726e+02	3.2687	-2.041601	0.000409	4.094074	0.693555	-0.000041
1683	1.6736e+02	3.2584	-2.080706	0.000393	3.930311	0.665813	-0.000039
1684	1.6746e+02	3.2508	-2.119811	0.000393	3.930311	0.665813	-0.000039
1685	1.6756e+02	3.2394	-2.162989	0.000434	4.339718	0.735168	-0.000043
1686	1.6766e+02	3.2288	-2.202501	0.000397	3.971252	0.672748	-0.000040
1687	1.6776e+02	3.2196	-2.244865	0.000426	4.257837	0.721297	-0.000043
1688	1.6786e+02	3.2114	-2.283562	0.000389	3.889370	0.658877	-0.000039
1689	1.6796e+02	3.1983	-2.325111	0.000418	4.175955	0.707426	-0.000042
1690	1.6806e+02	3.1918	-2.366253	0.000414	4.135014	0.700490	-0.000041
1691	1.6816e+02	3.1803	-2.404136	0.000381	3.807489	0.645006	-0.000038
1692	1.6825e+02	3.1716	-2.445685	0.000418	4.175955	0.707426	-0.000042
1693	1.6835e+02	3.1614	-2.489270	0.000438	4.380659	0.742104	-0.000044
1694	1.6845e+02	3.1498	-2.528375	0.000393	3.930311	0.665813	-0.000039
1695	1.6855e+02	3.1387	-2.569109	0.000409	4.094074	0.693555	-0.000041
1696	1.6865e+02	3.1292	-2.611880	0.000430	4.298777	0.728233	-0.000043
1697	1.6875e+02	3.1202	-2.656688	0.000450	4.503481	0.762910	-0.000045
1698	1.6885e+02	3.1120	-2.694164	0.000377	3.766548	0.638070	-0.000038
1699	1.6895e+02	3.1013	-2.734083	0.000401	4.012192	0.679684	-0.000040
1700	1.6905e+02	3.0903	-2.778076	0.000442	4.421600	0.749039	-0.000044
1701	1.6915e+02	3.0782	-2.822477	0.000446	4.462540	0.755975	-0.000045
1702	1.6925e+02	3.0694	-2.862396	0.000401	4.012192	0.679684	-0.000040
1703	1.6935e+02	3.0592	-2.901908	0.000397	3.971252	0.672748	-0.000040
1704	1.6945e+02	3.0513	-2.945494	0.000438	4.380659	0.742104	-0.000044
1705	1.6955e+02	3.0425	-2.985414	0.000401	4.012192	0.679684	-0.000040
1706	1.6965e+02	3.0321	-3.024926	0.000397	3.971252	0.672748	-0.000040
1707	1.6975e+02	3.0190	-3.068511	0.000438	4.380659	0.742104	-0.000044
1708	1.6985e+02	3.0105	-3.106394	0.000381	3.807489	0.645006	-0.000038
1709	1.6995e+02	3.0013	-3.153239	0.000471	4.708185	0.797588	-0.000047
1710	1.7005e+02	2.9906	-3.193158	0.000401	4.012192	0.679684	-0.000040
1711	1.7015e+02	2.9810	-3.235929	0.000430	4.298777	0.728233	-0.000043
1712	1.7024e+02	2.9700	-3.277071	0.000414	4.135014	0.700490	-0.000041
1713	1.7034e+02	2.9594	-3.317805	0.000409	4.094074	0.693555	-0.000041
1714	1.7044e+02	2.9514	-3.355281	0.000377	3.766548	0.638070	-0.000038
1715	1.7054e+02	2.9391	-3.396015	0.000409	4.094074	0.693555	-0.000041
1716	1.7064e+02	2.9324	-3.439193	0.000434	4.339718	0.735168	-0.000043
1717	1.7074e+02	2.9198	-3.480335	0.000414	4.135014	0.700490	-0.000041
1718	1.7084e+02	2.9117	-3.521884	0.000418	4.175955	0.707426	-0.000042
1719	1.7094e+02	2.9051	-3.559767	0.000381	3.807489	0.645006	-0.000038
1720	1.7104e+02	2.8952	-3.600908	0.000414	4.135014	0.700490	-0.000041
1721	1.7114e+02	2.8800	-3.643272	0.000426	4.257837	0.721297	-0.000043
1722	1.7124e+02	2.8684	-3.684006	0.000409	4.094074	0.693555	-0.000041
1723	1.7134e+02	2.8616	-3.725555	0.000418	4.175955	0.707426	-0.000042
1724	1.7144e+02	2.8549	-3.771177	0.000459	4.585363	0.776781	-0.000046
1725	1.7154e+02	2.8419	-3.809875	0.000389	3.889370	0.658877	-0.000039
1726	1.7164e+02	2.8318	-3.852646	0.000430	4.298777	0.728233	-0.000043
1727	1.7174e+02	2.8193	-3.893787	0.000414	4.135014	0.700490	-0.000041
1728	1.7184e+02	2.8085	-3.935336	0.000418	4.175955	0.707426	-0.000042
1729	1.7194e+02	2.8008	-3.976071	0.000409	4.094074	0.693555	-0.000041
1730	1.7204e+02	2.7910	-4.020878	0.000450	4.503481	0.762910	-0.000045
1731	1.7213e+02	2.7837	-4.064057	0.000434	4.339718	0.735168	-0.000043
1732	1.7223e+02	2.7726	-4.104384	0.000405	4.053133	0.686619	-0.000041
1733	1.7233e+02	2.7601	-4.147562	0.000434	4.339718	0.735168	-0.000043
1734	1.7243e+02	2.7512	-4.188703	0.000414	4.135014	0.700490	-0.000041
1735	1.7253e+02	2.7402	-4.229845	0.000414	4.135014	0.700490	-0.000041
1736	1.7263e+02	2.7306	-4.269357	0.000397	3.971252	0.672748	-0.000040
1737	1.7273e+02	2.7200	-4.314572	0.000454	4.544422	0.769846	-0.000045
1738	1.7283e+02	2.7128	-4.356936	0.000426	4.257837	0.721297	-0.000043
1739	1.7293e+02	2.7004	-4.396041	0.000393	3.930311	0.665813	-0.000039
1740	1.7303e+02	2.6937	-4.443293	0.000475	4.749126	0.804524	-0.000047
1741	1.7313e+02	2.6850	-4.484027	0.000409	4.094074	0.693555	-0.000041
1742	1.7323e+02	2.6724	-4.527205	0.000434	4.339718	0.735168	-0.000043
1743	1.7333e+02	2.6637	-4.565495	0.000385	3.848429	0.651942	-0.000038
1744	1.7343e+02	2.6518	-4.610303	0.000450	4.503481	0.762910	-0.000045
1745	1.7353e+02	2.6446	-4.655925	0.000459	4.585363	0.776781	-0.000046
1746	1.7363e+02	2.6336	-4.697474	0.000418	4.175955	0.707426	-0.000042
1747	1.7373e+02	2.6229	-4.740653	0.000434	4.339718	0.735168	-0.000043
1748	1.7383e+02	2.6125	-4.785053	0.000446	4.462540	0.755975	-0.000045
1749	1.7393e+02	2.6009	-4.826195	0.000414	4.135014	0.700490	-0.000041
1750	1.7403e+02	2.5915	-4.867336	0.000414	4.135014	0.700490	-0.000041
1751	1.7413e+02	2.5836	-4.909292	0.000422	4.216896	0.714362	-0.000042
1752	1.7422e+02	2.5700	-4.951249	0.000422	4.216896	0.714362	-0.000042
1753	1.7432e+02	2.5643	-4.992798	0.000418	4.175955	0.707426	-0.000042
1754	1.7442e+02	2.5535	-5.033532	0.000409	4.094074	0.693555	-0.000041
1755	1.7452e+02	2.5414	-5.081191	0.000479	4.790066	0.811459	-0.000048
1756	1.7462e+02	2.5364	-5.123147	0.000422	4.216896	0.714362	-0.000042
1757	1.7472e+02	2.5231	-5.167140	0.000442	4.421600	0.749039	-0.000044
1758	1.7482e+02	2.5115	-5.209504	0.000426	4.257837	0.721297	-0.000043
1759	1.7492e+02	2.5027	-5.252275	0.000430	4.298777	0.728233	-0.000043
1760	1.7502e+02	2.4920	-5.296675	0.000446	4.462540	0.755975	-0.000045
1761	1.7512e+02	2.4837	-5.338224	0.000418	4.175955	0.707426	-0.000042
1762	1.7522e+02	2.4733	-5.385069	0.000471	4.708185	0.797588	-0.000047
1763	1.7532e+02	2.4641	-5.427839	0.000430	4.298777	0.728233	-0.000043
1764	1.7542e+02	2.4554	-5.466130	0.000385	3.848429	0.651942	-0.000038
1765	1.7552e+02	2.4460	-5.512159	0.000463	4.626303	0.783717	-0.000046
1766	1.7562e+02	2.4344	-5.553301	0.000414	4.135014	0.700490	-0.000041
1767	1.7572e+02	2.4265	-5.597701	0.000446	4.462540	0.755975	-0.000045
1768	1.7582e+02	2.4142	-5.641694	0.000442	4.421600	0.749039	-0.000044
1769	1.7592e+02	2.4024	-5.682836	0.000414	4.135014	0.700490	-0.000041
1770	1.7602e+02	2.3926	-5.728866	0.000463	4.626303	0.783717	-0.000046
1771	1.7612e+02	2.3842	-5.774488	0.000459	4.585363	0.776781	-0.000046
1772	1.7621e+02	2.3745	-5.818481	0.000442	4.421600	0.749039	-0.000044
1773	1.7631e+02	2.3626	-5.860437	0.000422	4.216896	0.714362	-0.000042
1774	1.7641e+02	2.3510	-5.904023	0.000438	4.380659	0.742104	-0.000044
1775	1.7651e+02	2.3437	-5.947201	0.000434	4.339718	0.735168	-0.000043
1776	1.7661e+02	2.3349	-5.991194	0.000442	4.421600	0.749039	-0.000044
1777	1.7671e+02	2.3232	-6.035187	0.000442	4.421600	0.749039	-0.000044
1778	1.7681e+02	2.3141	-6.082032	0.000471	4.708185	0.797588	-0.000047
1779	1.7691e+02	2.3042	-6.123173	0.000414	4.135014	0.700490	-0.000041
1780	1.7701e+02	2.2932	-6.167166	0.000442	4.421600	0.749039	-0.000044
1781	1.7711e+02	2.2853	-6.206271	0.000393	3.930311	0.665813	-0.000039
1782	1.7721e+02	2.2750	-6.255967	0.000499	4.994770	0.846137	-0.000050
1783	1.7731e+02	2.2655	-6.297923	0.000422	4.216896	0.714362	-0.000042
1784	1.7741e+02	2.2536	-6.336621	0.000389	3.889370	0.658877	-0.000039
1785	1.7751e+02	2.2444	-6.379392	0.000430	4.298777	0.728233	-0.000043
1786	1.7761e+02	2.2337	-6.425421	0.000463	4.626303	0.783717	-0.000046
1787	1.7771e+02	2.2259	-6.469822	0.000446	4.462540	0.755975	-0.000045
1788	1.7781e+02	2.2157	-6.514629	0.000450	4.503481	0.762910	-0.000045
1789	1.7791e+02	2.2053	-6.559844	0.000454	4.544422	0.769846	-0.000045
1790	1.7801e+02	2.1957	-6.607096	0.000475	4.749126	0.804524	-0.000047
1791	1.7810e+02	2.1848	-6.646201	0.000393	3.930311	0.665813	-0.000039
1792	1.7820e+02	2.1749	-6.693860	0.000479	4.790066	0.811459	-0.000048
1793	1.7830e+02	2.1629	-6.735816	0.000422	4.216896	0.714362	-0.000042
1794	1.7840e+02	2.1557	-6.781439	0.000459	4.585363	0.776781	-0.000046
1795	1.7850e+02	2.1455	-6.824210	0.000430	4.298777	0.728233	-0.000043
1796	1.7860e+02	2.1324	-6.867388	0.000434	4.339718	0.735168	-0.000043
1797	1.7870e+02	2.1262	-6.913825	0.000467	4.667244	0.790653	-0.000047
1798	1.7880e+02	2.1164	-6.958633	0.000450	4.503481	0.762910	-0.000045
1799	1.7890e+02	2.1072	-7.005070	0.000467	4.667244	0.790653	-0.000047
1800	1.7900e+02	2.0977	-7.053544	0.000487	4.871948	0.825330	-0.000049
1801	1.7910e+02	2.0844	-7.097537	0.000442	4.421600	0.749039	-0.000044
1802	1.7920e+02	2.0757	-7.140308	0.000430	4.298777	0.728233	-0.000043
1803	1.7930e+02	2.0643	-7.187967	0.000479	4.790066	0.811459	-0.000048
1804	1.7940e+02	2.0535	-7.231960	0.000442	4.421600	0.749039	-0.000044
1805	1.7950e+02	2.0446	-7.277175	0.000454	4.544422	0.769846	-0.000045
1806	1.7960e+02	2.0363	-7.323204	0.000463	4.626303	0.783717	-0.000046
1807	1.7970e+02	2.0255	-7.368419	0.000454	4.544422	0.769846	-0.000045
1808	1.7980e+02	2.0145	-7.414042	0.000459	4.585363	0.776781	-0.000046
1809	1.7990e+02	2.0055	-7.463738	0.000499	4.994770	0.846137	-0.000050
1810	1.8000e+02	1.9958	-7.505694	0.000422	4.216896	0.714362	-0.000042
1811	1.8009e+02	1.9854	-7.552946	0.000475	4.749126	0.804524	-0.000047
1812	1.8019e+02	1.9755	-7.597753	0.000450	4.503481	0.762910	-0.000045
1813	1.8029e+02	1.9656	-7.643783	0.000463	4.626303	0.783717	-0.000046
1814	1.8039e+02	1.9553	-7.689813	0.000463	4.626303	0.783717	-0.000046
1815	1.8049e+02	1.9441	-7.732176	0.000426	4.257837	0.721297	-0.000043
1816	1.8059e+02	1.9324	-7.776169	0.000442	4.421600	0.749039	-0.000044
1817	1.8069e+02	1.9257	-7.823421	0.000475	4.749126	0.804524	-0.000047
1818	1.8079e+02	1.9122	-7.870673	0.000475	4.749126	0.804524	-0.000047
1819	1.8089e+02	1.9052	-7.913036	0.000426	4.257837	0.721297	-0.000043
1820	1.8099e+02	1.8940	-7.963547	0.000508	5.076651	0.860008	-0.000051
1821	1.8109e+02	1.8883	-8.005911	0.000426	4.257837	0.721297	-0.000043
1822	1.8119e+02	1.8745	-8.051126	0.000454	4.544422	0.769846	-0.000045
1823	1.8129e+02	1.8644	-8.096341	0.000454	4.544422	0.769846	-0.000045
1824	1.8139e+02	1.8559	-8.140741	0.000446	4.462540	0.755975	-0.000045
1825	1.8149e+02	1.8449	-8.191659	0.000512	5.117592	0.866944	-0.000051
1826	1.8159e+02	1.8356	-8.233615	0.000422	4.216896	0.714362	-0.000042
1827	1.8169e+02	1.8243	-8.283311	0.000499	4.994770	0.846137	-0.000050
1828	1.8179e+02	1.8166	-8.326896	0.000438	4.380659	0.742104	-0.000044
1829	1.8189e+02	1.8084	-8.370075	0.000434	4.339718	0.735168	-0.000043
1830	1.8199e+02	1.7976	-8.418549	0.000487	4.871948	0.825330	-0.000049
1831	1.8209e+02	1.7877	-8.461727	0.000434	4.339718	0.735168	-0.000043
1832	1.8218e+02	1.7776	-8.506535	0.000450	4.503481	0.762910	-0.000045
1833	1.8228e+02	1.7714	-8.555416	0.000491	4.912889	0.832266	-0.000049
1834	1.8238e+02	1.7567	-8.604297	0.000491	4.912889	0.832266	-0.000049
1835	1.8248e+02	1.7458	-8.651548	0.000475	4.749126	0.804524	-0.000047
1836	1.8258e+02	1.7377	-8.695134	0.000438	4.380659	0.742104	-0.000044
1837	1.8268e+02	1.7265	-8.744015	0.000491	4.912889	0.832266	-0.000049
1838	1.8278e+02	1.7186	-8.788823	0.000450	4.503481	0.762910	-0.000045
1839	1.8288e+02	1.7069	-8.834038	0.000454	4.544422	0.769846	-0.000045
1840	1.8298e+02	1.6970	-8.884548	0.000508	5.076651	0.860008	-0.000051
1841	1.8308e+02	1.6872	-8.929763	0.000454	4.544422	0.769846	-0.000045
1842	1.8318e+02	1.6768	-8.974978	0.000454	4.544422	0.769846	-0.000045
1843	1.8328e+02	1.6668	-9.020193	0.000454	4.544422	0.769846	-0.000045
1844	1.8338e+02	1.6593	-9.068260	0.000483	4.831007	0.818395	-0.000048
1845	1.8348e+02	1.6449	-9.117141	0.000491	4.912889	0.832266	-0.000049
1846	1.8358e+02	1.6391	-9.163171	0.000463	4.626303	0.783717	-0.000046
1847	1.8368e+02	1.6264	-9.206349	0.000434	4.339718	0.735168	-0.000043
1848	1.8378e+02	1.6164	-9.253601	0.000475	4.749126	0.804524	-0.000047
1849	1.8388e+02	1.6058	-9.302482	0.000491	4.912889	0.832266	-0.000049
1850	1.8398e+02	1.5945	-9.350141	0.000479	4.790066	0.811459	-0.000048
1851	1.8407e+02	1.5855	-9.394949	0.000450	4.503481	0.762910	-0.000045
1852	1.8417e+02	1.5759	-9.443830	0.000491	4.912889	0.832266	-0.000049
1853	1.8427e+02	1.5689	-9.491489	0.000479	4.790066	0.811459	-0.000048
1854	1.8437e+02	1.5569	-9.534260	0.000430	4.298777	0.728233	-0.000043
1855	1.8447e+02	1.5474	-9.585992	0.000520	5.199474	0.880815	-0.000052
1856	1.8457e+02	1.5388	-9.629985	0.000442	4.421600	0.749039	-0.000044
1857	1.8467e+02	1.5242	-9.674793	0.000450	4.503481	0.762910	-0.000045
1858	1.8477e+02	1.5176	-9.723267	0.000487	4.871948	0.825330	-0.000049
1859	1.8487e+02	1.5066	-9.771740	0.000487	4.871948	0.825330	-0.000049
1860	1.8497e+02	1.4966	-9.816548	0.000450	4.503481	0.762910	-0.000045
1861	1.8507e+02	1.4880	-9.865837	0.000495	4.953829	0.839201	-0.000050
1862	1.8517e+02	1.4758	-9.916347	0.000508	5.076651	0.860008	-0.000051
1863	1.8527e+02	1.4684	-9.963191	0.000471	4.708185	0.797588	-0.000047
1864	1.8537e+02	1.4582	-10.012887	0.000499	4.994770	0.846137	-0.000050
1865	1.8547e+02	1.4478	-10.060954	0.000483	4.831007	0.818395	-0.000048
1866	1.8557e+02	1.4393	-10.106983	0.000463	4.626303	0.783717	-0.000046
1867	1.8567e+02	1.4263	-10.154235	0.000475	4.749126	0.804524	-0.000047
1868	1.8577e+02	1.4175	-10.205968	0.000520	5.199474	0.880815	-0.000052
1869	1.8587e+02	1.4121	-10.254034	0.000483	4.831007	0.818395	-0.000048
1870	1.8597e+02	1.4008	-10.298842	0.000450	4.503481	0.762910	-0.000045
1871	1.8606e+02	1.3891	-10.349352	0.000508	5.076651	0.860008	-0.000051
1872	1.8616e+02	1.3803	-10.397419	0.000483	4.831007	0.818395	-0.000048
1873	1.8626e+02	1.3666	-10.443856	0.000467	4.667244	0.790653	-0.000047
1874	1.8636e+02	1.3603	-10.486219	0.000426	4.257837	0.721297	-0.000043
1875	1.8646e+02	1.3483	-10.537137	0.000512	5.117592	0.866944	-0.000051
1876	1.8656e+02	1.3385	-10.587648	0.000508	5.076651	0.860008	-0.000051
1877	1.8666e+02	1.3271	-10.632863	0.000454	4.544422	0.769846	-0.000045
1878	1.8676e+02	1.3184	-10.681336	0.000487	4.871948	0.825330	-0.000049
1879	1.8686e+02	1.3100	-10.733069	0.000520	5.199474	0.880815	-0.000052
1880	1.8696e+02	1.2981	-10.782765	0.000499	4.994770	0.846137	-0.000050
1881	1.8706e+02	1.2891	-10.826350	0.000438	4.380659	0.742104	-0.000044
1882	1.8716e+02	1.2793	-10.877675	0.000516	5.158533	0.873879	-0.000052
1883	1.8726e+02	1.2692	-10.926149	0.000487	4.871948	0.825330	-0.000049
1884	1.8736e+02	1.2605	-10.970550	0.000446	4.462540	0.755975	-0.000045
1885	1.8746e+02	1.2516	-11.016987	0.000467	4.667244	0.790653	-0.000047
1886	1.8756e+02	1.2408	-11.061794	0.000450	4.503481	0.762910	-0.000045
1887	1.8766e+02	1.2302	-11.113527	0.000520	5.199474	0.880815	-0.000052
1888	1.8776e+02	1.2199	-11.157112	0.000438	4.380659	0.742104	-0.000044
1889	1.8786e+02	1.2112	-11.204364	0.000475	4.749126	0.804524	-0.000047
1890	1.8796e+02	1.1984	-11.256097	0.000520	5.199474	0.880815	-0.000052
1891	1.8806e+02	1.1916	-11.304570	0.000487	4.871948	0.825330	-0.000049
1892	1.8815e+02	1.1787	-11.352637	0.000483	4.831007	0.818395	-0.000048
1893	1.8825e+02	1.1713	-11.401925	0.000495	4.953829	0.839201	-0.000050
1894	1.8835e+02	1.1620	-11.448362	0.000467	4.667244	0.790653	-0.000047
1895	1.8845e+02	1.1516	-11.500910	0.000528	5.281355	0.894686	-0.000053
1896	1.8855e+02	1.1384	-11.545310	0.000446	4.462540	0.755975	-0.000045
1897	1.8865e+02	1.1301	-11.598264	0.000532	5.322296	0.901621	-0.000053
1898	1.8875e+02	1.1208	-11.645109	0.000471	4.708185	0.797588	-0.000047
1899	1.8885e+02	1.1102	-11.692768	0.000479	4.790066	0.811459	-0.000048
1900	1.8895e+02	1.0999	-11.740427	0.000479	4.790066	0.811459	-0.000048
1901	1.8905e+02	1.0930	-11.789308	0.000491	4.912889	0.832266	-0.000049
1902	1.8915e+02	1.0780	-11.840226	0.000512	5.117592	0.866944	-0.000051
1903	1.8925e+02	1.0711	-11.891958	0.000520	5.199474	0.880815	-0.000052
1904	1.8935e+02	1.0616	-11.941654	0.000499	4.994770	0.846137	-0.000050
1905	1.8945e+02	1.0500	-11.989313	0.000479	4.790066	0.811459	-0.000048
1906	1.8955e+02	1.0406	-12.039009	0.000499	4.994770	0.846137	-0.000050
1907	1.8965e+02	1.0307	-12.087483	0.000487	4.871948	0.825330	-0.000049
1908	1.8975e+02	1.0204	-12.137586	0.000504	5.035711	0.853072	-0.000050
1909	1.8985e+02	1.0113	-12.185245	0.000479	4.790066	0.811459	-0.000048
1910	1.8995e+02	1.0001	-12.237792	0.000528	5.281355	0.894686	-0.000053
1911	1.9004e+02	0.9892	-12.284637	0.000471	4.708185	0.797588	-0.000047
1912	1.9014e+02	0.9817	-12.334332	0.000499	4.994770	0.846137	-0.000050
1913	1.9024e+02	0.9713	-12.384436	0.000504	5.035711	0.853072	-0.000050
1914	1.9034e+02	0.9604	-12.437390	0.000532	5.322296	0.901621	-0.000053
1915	1.9044e+02	0.9490	-12.484642	0.000475	4.749126	0.804524	-0.000047
1916	1.9054e+02	0.9399	-12.537596	0.000532	5.322296	0.901621	-0.000053
1917	1.9064e+02	0.9281	-12.586070	0.000487	4.871948	0.825330	-0.000049
1918	1.9074e+02	0.9196	-12.634544	0.000487	4.871948	0.825330	-0.000049
1919	1.9084e+02	0.9124	-12.684647	0.000504	5.035711	0.853072	-0.000050
1920	1.9094e+02	0.9020	-12.736380	0.000520	5.199474	0.880815	-0.000052
1921	1.9104e+02	0.8904	-12.784039	0.000479	4.790066	0.811459	-0.000048
1922	1.9114e+02	0.8815	-12.835364	0.000516	5.158533	0.873879	-0.000052
1923	1.9124e+02	0.8729	-12.883023	0.000479	4.790066	0.811459	-0.000048
1924	1.9134e+02	0.8616	-12.933941	0.000512	5.117592	0.866944	-0.000051
1925	1.9144e+02	0.8528	-12.985673	0.000520	5.199474	0.880815	-0.000052
1926	1.9154e+02	0.8436	-13.035776	0.000504	5.035711	0.853072	-0.000050
1927	1.9164e+02	0.8325	-13.086287	0.000508	5.076651	0.860008	-0.000051
1928	1.9174e+02	0.8203	-13.134761	0.000487	4.871948	0.825330	-0.000049
1929	1.9184e+02	0.8131	-13.189752	0.000553	5.527000	0.936299	-0.000055
1930	1.9194e+02	0.8013	-13.238633	0.000491	4.912889	0.832266	-0.000049
1931	1.9203e+02	0.7929	-13.291587	0.000532	5.322296	0.901621	-0.000053
1932	1.9213e+02	0.7822	-13.340469	0.000491	4.912889	0.832266	-0.000049
1933	1.9223e+02	0.7722	-13.392201	0.000520	5.199474	0.880815	-0.000052
1934	1.9233e+02	0.7604	-13.441082	0.000491	4.912889	0.832266	-0.000049
1935	1.9243e+02	0.7513	-13.498110	0.000573	5.731703	0.970977	-0.000057
1936	1.9253e+02	0.7402	-13.544547	0.000467	4.667244	0.790653	-0.000047
1937	1.9263e+02	0.7308	-13.593021	0.000487	4.871948	0.825330	-0.000049
1938	1.9273e+02	0.7227	-13.645161	0.000524	5.240414	0.887750	-0.000052
1939	1.9283e+02	0.7140	-13.694857	0.000499	4.994770	0.846137	-0.000050
1940	1.9293e+02	0.7028	-13.749033	0.000545	5.445118	0.922428	-0.000054
1941	1.9303e+02	0.6903	-13.797507	0.000487	4.871948	0.825330	-0.000049
1942	1.9313e+02	0.6796	-13.854942	0.000577	5.772644	0.977912	-0.000058
1943	1.9323e+02	0.6723	-13.907897	0.000532	5.322296	0.901621	-0.000053
1944	1.9333e+02	0.6614	-13.958815	0.000512	5.117592	0.866944	-0.000051
1945	1.9343e+02	0.6507	-14.006066	0.000475	4.749126	0.804524	-0.000047
1946	1.9353e+02	0.6439	-14.057799	0.000520	5.199474	0.880815	-0.000052
1947	1.9363e+02	0.6329	-14.109124	0.000516	5.158533	0.873879	-0.000052
1948	1.9373e+02	0.6203	-14.157598	0.000487	4.871948	0.825330	-0.000049
1949	1.9383e+02	0.6129	-14.210960	0.000536	5.363237	0.908557	-0.000054
1950	1.9393e+02	0.6032	-14.262285	0.000516	5.158533	0.873879	-0.000052
1951	1.9403e+02	0.5956	-14.311981	0.000499	4.994770	0.846137	-0.000050
1952	1.9412e+02	0.5808	-14.363306	0.000516	5.158533	0.873879	-0.000052
1953	1.9422e+02	0.5742	-14.417075	0.000540	5.404177	0.915492	-0.000054
1954	1.9432e+02	0.5653	-14.465141	0.000483	4.831007	0.818395	-0.000048
1955	1.9442e+02	0.5524	-14.519725	0.000549	5.486059	0.929364	-0.000055
1956	1.9452e+02	0.5442	-14.569828	0.000504	5.035711	0.853072	-0.000050
1957	1.9462e+02	0.5339	-14.626449	0.000569	5.690763	0.964041	-0.000057
1958	1.9472e+02	0.5221	-14.679404	0.000532	5.322296	0.901621	-0.000053
1959	1.9482e+02	0.5138	-14.731543	0.000524	5.240414	0.887750	-0.000052
1960	1.9492e+02	0.5037	-14.782461	0.000512	5.117592	0.866944	-0.000051
1961	1.9502e+02	0.4913	-14.830935	0.000487	4.871948	0.825330	-0.000049
1962	1.9512e+02	0.4818	-14.883075	0.000524	5.240414	0.887750	-0.000052
1963	1.9522e+02	0.4726	-14.938881	0.000561	5.608881	0.950170	-0.000056
1964	1.9532e+02	0.4629	-14.987762	0.000491	4.912889	0.832266	-0.000049
1965	1.9542e+02	0.4552	-15.041124	0.000536	5.363237	0.908557	-0.000054
1966	1.9552e+02	0.4450	-15.096522	0.000557	5.567940	0.943235	-0.000056
1967	1.9562e+02	0.4363	-15.150292	0.000540	5.404177	0.915492	-0.000054
1968	1.9572e+02	0.4215	-15.202839	0.000528	5.281355	0.894686	-0.000053
1969	1.9582e+02	0.4148	-15.255386	0.000528	5.281355	0.894686	-0.000053
1970	1.9592e+02	0.4016	-15.312821	0.000577	5.772644	0.977912	-0.000058
1971	1.9601e+02	0.3947	-15.362110	0.000495	4.953829	0.839201	-0.000050
1972	1.9611e+02	0.3856	-15.419138	0.000573	5.731703	0.970977	-0.000057
1973	1.9621e+02	0.3741	-15.473722	0.000549	5.486059	0.929364	-0.000055
1974	1.9631e+02	0.3623	-15.524232	0.000508	5.076651	0.860008	-0.000051
1975	1.9641e+02	0.3521	-15.576779	0.000528	5.281355	0.894686	-0.000053
1976	1.9651e+02	0.3460	-15.629326	0.000528	5.281355	0.894686	-0.000053
1977	1.9661e+02	0.3345	-15.682688	0.000536	5.363237	0.908557	-0.000054
1978	1.9671e+02	0.3224	-15.737679	0.000553	5.527000	0.936299	-0.000055
1979	1.9681e+02	0.3148	-15.790634	0.000532	5.322296	0.901621	-0.000053
1980	1.9691e+02	0.3032	-15.846847	0.000565	5.649822	0.957106	-0.000056
1981	1.9701e+02	0.2953	-15.901839	0.000553	5.527000	0.936299	-0.000055
1982	1.9711e+02	0.2846	-15.953571	0.000520	5.199474	0.880815	-0.000052
1983	1.9721e+02	0.2758	-16.009377	0.000561	5.608881	0.950170	-0.000056
1984	1.9731e+02	0.2633	-16.061109	0.000520	5.199474	0.880815	-0.000052
1985	1.9741e+02	0.2563	-16.116508	0.000557	5.567940	0.943235	-0.000056
1986	1.9751e+02	0.2455	-16.167426	0.000512	5.117592	0.866944	-0.000051
1987	1.9761e+02	0.2326	-16.222824	0.000557	5.567940	0.943235	-0.000056
1988	1.9771e+02	0.2228	-16.278630	0.000561	5.608881	0.950170	-0.000056
1989	1.9781e+02	0.2152	-16.328734	0.000504	5.035711	0.853072	-0.000050
1990	1.9791e+02	0.2055	-16.384539	0.000561	5.608881	0.950170	-0.000056
1991	1.9800e+02	0.1943	-16.436272	0.000520	5.199474	0.880815	-0.000052
1992	1.9810e+02	0.1856	-16.491263	0.000553	5.527000	0.936299	-0.000055
1993	1.9820e+02	0.1736	-16.548698	0.000577	5.772644	0.977912	-0.000058
1994	1.9830e+02	0.1642	-16.599209	0.000508	5.076651	0.860008	-0.000051
1995	1.9840e+02	0.1541	-16.654200	0.000553	5.527000	0.936299	-0.000055
1996	1.9850e+02	0.1460	-16.713265	0.000594	5.936407	1.005655	-0.000059
1997	1.9860e+02	0.1346	-16.761331	0.000483	4.831007	0.818395	-0.000048
1998	1.9870e+02	0.1239	-16.818767	0.000577	5.772644	0.977912	-0.000058
1999	1.9880e+02	0.1165	-16.870906	0.000524	5.240414	0.887750	-0.000052
2000	1.9890e+02	0.1070	-16.927934	0.000573	5.731703	0.970977	-0.000057
2001	1.9900e+02	0.0981	-16.982926	0.000553	5.527000	0.936299	-0.000055
2002	1.9910e+02	0.0872	-17.038324	0.000557	5.567940	0.943235	-0.000056
2003	1.9920e+02	0.0744	-17.094538	0.000565	5.649822	0.957106	-0.000056
2004	1.9930e+02	0.0661	-17.153195	0.000590	5.895466	0.998719	-0.000059
2005	1.9940e+02	0.0546	-17.205742	0.000528	5.281355	0.894686	-0.000053
2006	1.9950e+02	0.0427	-17.259104	0.000536	5.363237	0.908557	-0.000054
2007	1.9960e+02	0.0352	-17.315725	0.000569	5.690763	0.964041	-0.000057
2008	1.9970e+02	0.0239	-17.369494	0.000540	5.404177	0.915492	-0.000054
2009	1.9980e+02	0.0155	-17.424892	0.000557	5.567940	0.943235	-0.000056
2010	1.9990e+02	0.0086	-17.481920	0.000573	5.731703	0.970977	-0.000057
2011	2.0000e+02	-0.0053	-17.533653	0.000573	5.731703	0.970977	-0.000052

PMax (uC/cm2):	3.87e+01
Pr (uC/cm2):	1.82e+00
-Pr (uC/cm2):	0.00e+00
PLoss (uC/cm2):	0.00e+00
C (Max-Eff) (nF):	3.87e-01
K (Eff):	6.56e+02
Vert. (+/-Pr) Shift (uC/cm2):	9.12e-01
Offset (uC/cm2):	1.94e+01

A (Loop Area - uC/cm2·Volts):	-1.86e-02



Hysteresis Version: 5.48.1 - Radiant Technologies, Inc., 1999 - 9/12/24

