»»»»»»»»»»»»»»»»»»»»»»»»»»»»»»»»»»»» Hysteresis ««««««««««««««««««««««««««««««««««««
»»»  Executed Version:	5.48.1
»»»  Vision Version:	5.48.4 (R)
»»»  Vision Compiled:	9/18/24
»»»  Driver Version:	5.47.0
»»»  Windows Version:	Windows 8 or 8.1
»»»  Processor Information:	x86 (AMD or Intel) - 32 Processors
»»»  Tester Name:	PMF21124-494 (100V)
»»»  Tester S/N:	PMF21124-494
»»»  Internal Amp Type:	100V RevK 270k
»»»  Internal Amp S/N:	iAB2-596/K     
»»»  Execution Count:	1
»»»»»»»»»»»»»»»»»»»»»»»»»»»»»»»»»»»»»»»»»»««««««««««««««««««««««««««««««««««««««««««

Stored:	6/27/2025 - 16:11:37
Configured:	06/27/25 11:23:28 AM
Executed:	06/27/25 04:11:01 PM

»»»»»»»»»»»»»»»»»»»»»»»»»»»»»»»»»»» Sample Info ««««««««««««««««««««««««««««««««««««
Sample Name:	
Lot Name:	
Wafer Name:	
Die Row/Column:	0/0
Capacitor Number:	0
Sample Area (cm2):	1.00e-04
Sample Thickness (microns):	1.50e-01

Amplifier:	Internal

»»»»»»»»»»»»»»»»»»»»»»»»»»»»»»»»»»» Tester Info «««««««««««««««««««««««««««««««««««
Tester Name:	PMF21124-494 (100V)
Tester Serial Number:	PMF21124-494
Return Signal Amp. Level:	1.9 [Index: 2]

»»»»»»»»»»»»»»»»»»»»»»»»»»»»»»»» Hysteresis Info ««««««««««««««««««««««««««««««««««
Task Name:	Hyst-1276
Volts:	10.00
Field:	666.67 (kV/cm)
DCBias:	0.00
DCField:	0.00 (kV/cm)
Hysteresis Period (ms):	2.00e+02
Preset:	Enabled
Preset Delay (ms):	1.00e+03
Profile:	Standard Monopolar

»»»»»»»»»»»»»»»»»»»»»»»»»»»»»»»»»»»»»» Data «««««««««««««««««««««««««««««««««««««««
Points:	2011

Valid Data

Point	Time (ms)	Drive Voltage	Measured Polarization (uC/cm2)	Capacitance (uF)	Normalized Capacitance (uF/cm2)	Dielectric Constant	Instantaneous Current (mA)
   1	0.0000e+00	-0.0041	-16.891070	0.000442	4.422376	0.749171	0.000044
   2	9.9500e-02	0.0091	-16.847077	0.000442	4.422376	0.749171	0.000044
   3	1.9900e-01	0.0154	-16.799825	0.000475	4.749959	0.804665	0.000047
   4	2.9850e-01	0.0249	-16.761535	0.000385	3.849105	0.652056	0.000038
   5	3.9800e-01	0.0359	-16.715913	0.000459	4.586167	0.776918	0.000046
   6	4.9750e-01	0.0433	-16.668661	0.000475	4.749959	0.804665	0.000047
   7	5.9700e-01	0.0523	-16.627112	0.000418	4.176688	0.707550	0.000042
   8	6.9650e-01	0.0658	-16.579453	0.000479	4.790907	0.811602	0.000048
   9	7.9600e-01	0.0741	-16.536682	0.000430	4.299532	0.728360	0.000043
  10	8.9550e-01	0.0842	-16.490652	0.000463	4.627115	0.783855	0.000046
  11	9.9500e-01	0.0963	-16.449918	0.000409	4.094792	0.693677	0.000041
  12	1.0945e+00	0.1044	-16.404296	0.000459	4.586167	0.776918	0.000046
  13	1.1940e+00	0.1126	-16.355007	0.000495	4.954699	0.839349	0.000050
  14	1.2935e+00	0.1258	-16.311421	0.000438	4.381428	0.742234	0.000044
  15	1.3930e+00	0.1357	-16.266614	0.000450	4.504272	0.763044	0.000045
  16	1.4925e+00	0.1460	-16.226287	0.000405	4.053844	0.686740	0.000041
  17	1.5920e+00	0.1547	-16.178628	0.000479	4.790907	0.811602	0.000048
  18	1.6915e+00	0.1674	-16.130561	0.000483	4.831855	0.818538	0.000048
  19	1.7910e+00	0.1759	-16.092271	0.000385	3.849105	0.652056	0.000038
  20	1.8905e+00	0.1831	-16.045019	0.000475	4.749959	0.804665	0.000047
  21	1.9900e+00	0.1942	-16.002248	0.000430	4.299532	0.728360	0.000043
  22	2.0895e+00	0.2013	-15.954182	0.000483	4.831855	0.818538	0.000048
  23	2.1890e+00	0.2154	-15.908560	0.000459	4.586167	0.776918	0.000046
  24	2.2885e+00	0.2252	-15.866603	0.000422	4.217636	0.714487	0.000042
  25	2.3880e+00	0.2366	-15.824240	0.000426	4.258584	0.721424	0.000043
  26	2.4875e+00	0.2436	-15.776173	0.000483	4.831855	0.818538	0.000048
  27	2.5870e+00	0.2573	-15.732588	0.000438	4.381428	0.742234	0.000044
  28	2.6865e+00	0.2634	-15.690224	0.000426	4.258584	0.721424	0.000043
  29	2.7860e+00	0.2776	-15.647453	0.000430	4.299532	0.728360	0.000043
  30	2.8855e+00	0.2863	-15.604275	0.000434	4.340480	0.735297	0.000043
  31	2.9850e+00	0.2934	-15.558652	0.000459	4.586167	0.776918	0.000046
  32	3.0845e+00	0.3059	-15.515067	0.000438	4.381428	0.742234	0.000044
  33	3.1840e+00	0.3127	-15.471481	0.000438	4.381428	0.742234	0.000044
  34	3.2835e+00	0.3208	-15.428303	0.000434	4.340480	0.735297	0.000043
  35	3.3830e+00	0.3352	-15.385939	0.000426	4.258584	0.721424	0.000043
  36	3.4825e+00	0.3453	-15.342354	0.000438	4.381428	0.742234	0.000044
  37	3.5820e+00	0.3574	-15.297139	0.000455	4.545220	0.769981	0.000045
  38	3.6815e+00	0.3638	-15.250294	0.000471	4.709011	0.797728	0.000047
  39	3.7810e+00	0.3721	-15.207523	0.000430	4.299532	0.728360	0.000043
  40	3.8805e+00	0.3836	-15.161086	0.000467	4.668063	0.790791	0.000047
  41	3.9800e+00	0.3944	-15.115464	0.000459	4.586167	0.776918	0.000046
  42	4.0795e+00	0.4012	-15.067805	0.000479	4.790907	0.811602	0.000048
  43	4.1790e+00	0.4136	-15.027478	0.000405	4.053844	0.686740	0.000041
  44	4.2785e+00	0.4240	-14.980633	0.000471	4.709011	0.797728	0.000047
  45	4.3780e+00	0.4334	-14.937048	0.000438	4.381428	0.742234	0.000044
  46	4.4775e+00	0.4432	-14.888167	0.000491	4.913751	0.832412	0.000049
  47	4.5770e+00	0.4546	-14.842952	0.000455	4.545220	0.769981	0.000045
  48	4.6765e+00	0.4623	-14.797737	0.000455	4.545220	0.769981	0.000045
  49	4.7760e+00	0.4713	-14.755373	0.000426	4.258584	0.721424	0.000043
  50	4.8755e+00	0.4835	-14.715453	0.000401	4.012897	0.679803	0.000040
  51	4.9750e+00	0.4929	-14.662906	0.000528	5.282282	0.894843	0.000053
  52	5.0745e+00	0.5028	-14.619728	0.000434	4.340480	0.735297	0.000043
  53	5.1740e+00	0.5141	-14.574105	0.000459	4.586167	0.776918	0.000046
  54	5.2735e+00	0.5212	-14.529298	0.000450	4.504272	0.763044	0.000045
  55	5.3730e+00	0.5357	-14.482453	0.000471	4.709011	0.797728	0.000047
  56	5.4725e+00	0.5436	-14.440497	0.000422	4.217636	0.714487	0.000042
  57	5.5720e+00	0.5561	-14.400985	0.000397	3.971949	0.672866	0.000040
  58	5.6715e+00	0.5640	-14.350474	0.000508	5.077543	0.860159	0.000051
  59	5.7710e+00	0.5742	-14.312184	0.000385	3.849105	0.652056	0.000038
  60	5.8705e+00	0.5801	-14.275523	0.000369	3.685313	0.624309	0.000037
  61	5.9700e+00	0.5942	-14.229494	0.000463	4.627115	0.783855	0.000046
  62	6.0695e+00	0.6036	-14.191203	0.000385	3.849105	0.652056	0.000038
  63	6.1690e+00	0.6116	-14.148025	0.000434	4.340480	0.735297	0.000043
  64	6.2685e+00	0.6227	-14.108920	0.000393	3.931001	0.665930	0.000039
  65	6.3680e+00	0.6295	-14.065335	0.000438	4.381428	0.742234	0.000044
  66	6.4675e+00	0.6429	-14.022564	0.000430	4.299532	0.728360	0.000043
  67	6.5670e+00	0.6533	-13.982237	0.000405	4.053844	0.686740	0.000041
  68	6.6665e+00	0.6614	-13.943947	0.000385	3.849105	0.652056	0.000038
  69	6.7660e+00	0.6732	-13.899546	0.000446	4.463324	0.756107	0.000045
  70	6.8655e+00	0.6824	-13.860441	0.000393	3.931001	0.665930	0.000039
  71	6.9650e+00	0.6930	-13.820522	0.000401	4.012897	0.679803	0.000040
  72	7.0645e+00	0.7012	-13.779380	0.000414	4.135740	0.700613	0.000041
  73	7.1640e+00	0.7125	-13.739461	0.000401	4.012897	0.679803	0.000040
  74	7.2635e+00	0.7201	-13.704429	0.000352	3.521521	0.596562	0.000035
  75	7.3630e+00	0.7322	-13.660436	0.000442	4.422376	0.749171	0.000044
  76	7.4625e+00	0.7436	-13.622146	0.000385	3.849105	0.652056	0.000038
  77	7.5620e+00	0.7491	-13.577338	0.000450	4.504272	0.763044	0.000045
  78	7.6615e+00	0.7628	-13.534567	0.000430	4.299532	0.728360	0.000043
  79	7.7610e+00	0.7713	-13.495055	0.000397	3.971949	0.672866	0.000040
  80	7.8605e+00	0.7830	-13.448618	0.000467	4.668063	0.790791	0.000047
  81	7.9600e+00	0.7895	-13.407069	0.000418	4.176688	0.707550	0.000042
  82	8.0595e+00	0.8025	-13.367557	0.000397	3.971949	0.672866	0.000040
  83	8.1590e+00	0.8128	-13.324379	0.000434	4.340480	0.735297	0.000043
  84	8.2585e+00	0.8213	-13.284052	0.000405	4.053844	0.686740	0.000041
  85	8.3580e+00	0.8335	-13.239651	0.000446	4.463324	0.756107	0.000045
  86	8.4575e+00	0.8415	-13.198917	0.000409	4.094792	0.693677	0.000041
  87	8.5570e+00	0.8523	-13.158997	0.000401	4.012897	0.679803	0.000040
  88	8.6565e+00	0.8618	-13.121522	0.000377	3.767209	0.638182	0.000038
  89	8.7560e+00	0.8707	-13.073048	0.000487	4.872803	0.825475	0.000049
  90	8.8555e+00	0.8805	-13.034351	0.000389	3.890053	0.658993	0.000039
  91	8.9550e+00	0.8942	-12.994024	0.000405	4.053844	0.686740	0.000041
  92	9.0545e+00	0.9004	-12.950031	0.000442	4.422376	0.749171	0.000044
  93	9.1540e+00	0.9115	-12.905223	0.000450	4.504272	0.763044	0.000045
  94	9.2535e+00	0.9203	-12.866933	0.000385	3.849105	0.652056	0.000038
  95	9.3530e+00	0.9303	-12.826606	0.000405	4.053844	0.686740	0.000041
  96	9.4525e+00	0.9411	-12.786279	0.000405	4.053844	0.686740	0.000041
  97	9.5520e+00	0.9515	-12.745137	0.000414	4.135740	0.700613	0.000041
  98	9.6515e+00	0.9640	-12.704403	0.000409	4.094792	0.693677	0.000041
  99	9.7510e+00	0.9706	-12.662447	0.000422	4.217636	0.714487	0.000042
 100	9.8505e+00	0.9811	-12.619676	0.000430	4.299532	0.728360	0.000043
 101	9.9500e+00	0.9897	-12.578942	0.000409	4.094792	0.693677	0.000041
 102	1.0050e+01	1.0010	-12.539837	0.000393	3.931001	0.665930	0.000039
 103	1.0149e+01	1.0117	-12.495844	0.000442	4.422376	0.749171	0.000044
 104	1.0248e+01	1.0197	-12.453073	0.000430	4.299532	0.728360	0.000043
 105	1.0348e+01	1.0291	-12.411524	0.000418	4.176688	0.707550	0.000042
 106	1.0447e+01	1.0404	-12.369975	0.000418	4.176688	0.707550	0.000042
 107	1.0547e+01	1.0515	-12.328019	0.000422	4.217636	0.714487	0.000042
 108	1.0646e+01	1.0597	-12.288099	0.000401	4.012897	0.679803	0.000040
 109	1.0746e+01	1.0725	-12.245735	0.000426	4.258584	0.721424	0.000043
 110	1.0845e+01	1.0819	-12.205816	0.000401	4.012897	0.679803	0.000040
 111	1.0945e+01	1.0897	-12.159786	0.000463	4.627115	0.783855	0.000046
 112	1.1044e+01	1.0988	-12.121089	0.000389	3.890053	0.658993	0.000039
 113	1.1144e+01	1.1111	-12.078318	0.000430	4.299532	0.728360	0.000043
 114	1.1243e+01	1.1203	-12.035139	0.000434	4.340480	0.735297	0.000043
 115	1.1343e+01	1.1319	-11.993183	0.000422	4.217636	0.714487	0.000042
 116	1.1443e+01	1.1417	-11.949597	0.000438	4.381428	0.742234	0.000044
 117	1.1542e+01	1.1518	-11.911307	0.000385	3.849105	0.652056	0.000038
 118	1.1642e+01	1.1601	-11.868944	0.000426	4.258584	0.721424	0.000043
 119	1.1741e+01	1.1697	-11.830653	0.000385	3.849105	0.652056	0.000038
 120	1.1841e+01	1.1801	-11.783809	0.000471	4.709011	0.797728	0.000047
 121	1.1940e+01	1.1885	-11.742260	0.000418	4.176688	0.707550	0.000042
 122	1.2040e+01	1.1987	-11.702340	0.000401	4.012897	0.679803	0.000040
 123	1.2139e+01	1.2106	-11.662014	0.000405	4.053844	0.686740	0.000041
 124	1.2239e+01	1.2205	-11.618021	0.000442	4.422376	0.749171	0.000044
 125	1.2338e+01	1.2317	-11.585841	0.000323	3.234886	0.548005	0.000032
 126	1.2438e+01	1.2395	-11.545921	0.000401	4.012897	0.679803	0.000040
 127	1.2537e+01	1.2497	-11.501113	0.000450	4.504272	0.763044	0.000045
 128	1.2636e+01	1.2597	-11.466896	0.000344	3.439626	0.582688	0.000034
 129	1.2736e+01	1.2708	-11.427384	0.000397	3.971949	0.672866	0.000040
 130	1.2835e+01	1.2780	-11.387872	0.000397	3.971949	0.672866	0.000040
 131	1.2935e+01	1.2897	-11.347138	0.000409	4.094792	0.693677	0.000041
 132	1.3034e+01	1.2991	-11.308440	0.000389	3.890053	0.658993	0.000039
 133	1.3134e+01	1.3075	-11.265669	0.000430	4.299532	0.728360	0.000043
 134	1.3233e+01	1.3177	-11.230230	0.000356	3.562469	0.603499	0.000036
 135	1.3333e+01	1.3312	-11.189496	0.000409	4.094792	0.693677	0.000041
 136	1.3432e+01	1.3371	-11.152428	0.000373	3.726261	0.631246	0.000037
 137	1.3532e+01	1.3499	-11.112101	0.000405	4.053844	0.686740	0.000041
 138	1.3632e+01	1.3589	-11.073811	0.000385	3.849105	0.652056	0.000038
 139	1.3731e+01	1.3684	-11.035113	0.000389	3.890053	0.658993	0.000039
 140	1.3831e+01	1.3781	-10.995601	0.000397	3.971949	0.672866	0.000040
 141	1.3930e+01	1.3912	-10.952016	0.000438	4.381428	0.742234	0.000044
 142	1.4030e+01	1.3963	-10.913318	0.000389	3.890053	0.658993	0.000039
 143	1.4129e+01	1.4131	-10.866474	0.000471	4.709011	0.797728	0.000047
 144	1.4229e+01	1.4183	-10.826147	0.000405	4.053844	0.686740	0.000041
 145	1.4328e+01	1.4300	-10.781746	0.000446	4.463324	0.756107	0.000045
 146	1.4428e+01	1.4388	-10.739790	0.000422	4.217636	0.714487	0.000042
 147	1.4527e+01	1.4505	-10.694575	0.000455	4.545220	0.769981	0.000045
 148	1.4627e+01	1.4586	-10.648953	0.000459	4.586167	0.776918	0.000046
 149	1.4726e+01	1.4648	-10.608218	0.000409	4.094792	0.693677	0.000041
 150	1.4825e+01	1.4767	-10.565447	0.000430	4.299532	0.728360	0.000043
 151	1.4925e+01	1.4880	-10.521047	0.000446	4.463324	0.756107	0.000045
 152	1.5024e+01	1.4977	-10.475832	0.000455	4.545220	0.769981	0.000045
 153	1.5124e+01	1.5091	-10.435505	0.000405	4.053844	0.686740	0.000041
 154	1.5223e+01	1.5165	-10.391512	0.000442	4.422376	0.749171	0.000044
 155	1.5323e+01	1.5266	-10.344668	0.000471	4.709011	0.797728	0.000047
 156	1.5422e+01	1.5376	-10.305563	0.000393	3.931001	0.665930	0.000039
 157	1.5522e+01	1.5481	-10.262385	0.000434	4.340480	0.735297	0.000043
 158	1.5621e+01	1.5575	-10.217984	0.000446	4.463324	0.756107	0.000045
 159	1.5721e+01	1.5675	-10.172769	0.000455	4.545220	0.769981	0.000045
 160	1.5820e+01	1.5759	-10.130406	0.000426	4.258584	0.721424	0.000043
 161	1.5920e+01	1.5881	-10.091301	0.000393	3.931001	0.665930	0.000039
 162	1.6020e+01	1.5985	-10.046493	0.000450	4.504272	0.763044	0.000045
 163	1.6119e+01	1.6071	-10.009018	0.000377	3.767209	0.638182	0.000038
 164	1.6218e+01	1.6177	-9.969098	0.000401	4.012897	0.679803	0.000040
 165	1.6318e+01	1.6285	-9.927549	0.000418	4.176688	0.707550	0.000042
 166	1.6418e+01	1.6381	-9.884371	0.000434	4.340480	0.735297	0.000043
 167	1.6517e+01	1.6471	-9.842822	0.000418	4.176688	0.707550	0.000042
 168	1.6616e+01	1.6573	-9.805754	0.000373	3.726261	0.631246	0.000037
 169	1.6716e+01	1.6663	-9.763390	0.000426	4.258584	0.721424	0.000043
 170	1.6816e+01	1.6784	-9.723470	0.000401	4.012897	0.679803	0.000040
 171	1.6915e+01	1.6879	-9.683143	0.000405	4.053844	0.686740	0.000041
 172	1.7015e+01	1.6987	-9.642409	0.000409	4.094792	0.693677	0.000041
 173	1.7114e+01	1.7090	-9.599231	0.000434	4.340480	0.735297	0.000043
 174	1.7213e+01	1.7155	-9.561755	0.000377	3.767209	0.638182	0.000038
 175	1.7313e+01	1.7284	-9.519799	0.000422	4.217636	0.714487	0.000042
 176	1.7413e+01	1.7376	-9.474991	0.000450	4.504272	0.763044	0.000045
 177	1.7512e+01	1.7468	-9.439145	0.000360	3.603417	0.610435	0.000036
 178	1.7611e+01	1.7571	-9.396374	0.000430	4.299532	0.728360	0.000043
 179	1.7711e+01	1.7661	-9.356047	0.000405	4.053844	0.686740	0.000041
 180	1.7811e+01	1.7767	-9.309203	0.000471	4.709011	0.797728	0.000047
 181	1.7910e+01	1.7869	-9.271727	0.000377	3.767209	0.638182	0.000038
 182	1.8009e+01	1.7962	-9.230993	0.000409	4.094792	0.693677	0.000041
 183	1.8109e+01	1.8059	-9.191074	0.000401	4.012897	0.679803	0.000040
 184	1.8209e+01	1.8168	-9.151561	0.000397	3.971949	0.672866	0.000040
 185	1.8308e+01	1.8275	-9.109605	0.000422	4.217636	0.714487	0.000042
 186	1.8407e+01	1.8370	-9.068871	0.000409	4.094792	0.693677	0.000041
 187	1.8507e+01	1.8480	-9.030173	0.000389	3.890053	0.658993	0.000039
 188	1.8607e+01	1.8570	-8.988217	0.000422	4.217636	0.714487	0.000042
 189	1.8706e+01	1.8674	-8.953186	0.000352	3.521521	0.596562	0.000035
 190	1.8805e+01	1.8777	-8.907156	0.000463	4.627115	0.783855	0.000046
 191	1.8905e+01	1.8892	-8.868051	0.000393	3.931001	0.665930	0.000039
 192	1.9005e+01	1.8975	-8.830983	0.000373	3.726261	0.631246	0.000037
 193	1.9104e+01	1.9079	-8.784953	0.000463	4.627115	0.783855	0.000046
 194	1.9203e+01	1.9180	-8.748700	0.000364	3.644365	0.617372	0.000036
 195	1.9303e+01	1.9289	-8.709595	0.000393	3.931001	0.665930	0.000039
 196	1.9402e+01	1.9386	-8.670083	0.000397	3.971949	0.672866	0.000040
 197	1.9502e+01	1.9439	-8.630978	0.000393	3.931001	0.665930	0.000039
 198	1.9602e+01	1.9551	-8.588614	0.000426	4.258584	0.721424	0.000043
 199	1.9701e+01	1.9683	-8.548694	0.000401	4.012897	0.679803	0.000040
 200	1.9800e+01	1.9753	-8.509182	0.000397	3.971949	0.672866	0.000040
 201	1.9900e+01	1.9862	-8.473336	0.000360	3.603417	0.610435	0.000036
 202	2.0000e+01	1.9941	-8.430565	0.000430	4.299532	0.728360	0.000043
 203	2.0099e+01	2.0048	-8.393090	0.000377	3.767209	0.638182	0.000038
 204	2.0198e+01	2.0152	-8.350726	0.000426	4.258584	0.721424	0.000043
 205	2.0298e+01	2.0245	-8.314472	0.000364	3.644365	0.617372	0.000036
 206	2.0398e+01	2.0345	-8.272109	0.000426	4.258584	0.721424	0.000043
 207	2.0497e+01	2.0467	-8.230153	0.000422	4.217636	0.714487	0.000042
 208	2.0596e+01	2.0548	-8.189418	0.000409	4.094792	0.693677	0.000041
 209	2.0696e+01	2.0655	-8.149499	0.000401	4.012897	0.679803	0.000040
 210	2.0796e+01	2.0721	-8.107542	0.000422	4.217636	0.714487	0.000042
 211	2.0895e+01	2.0866	-8.061513	0.000463	4.627115	0.783855	0.000046
 212	2.0994e+01	2.0937	-8.022408	0.000393	3.931001	0.665930	0.000039
 213	2.1094e+01	2.1052	-7.986154	0.000364	3.644365	0.617372	0.000036
 214	2.1194e+01	2.1125	-7.945013	0.000414	4.135740	0.700613	0.000041
 215	2.1293e+01	2.1221	-7.905093	0.000401	4.012897	0.679803	0.000040
 216	2.1392e+01	2.1333	-7.862730	0.000426	4.258584	0.721424	0.000043
 217	2.1492e+01	2.1436	-7.821588	0.000414	4.135740	0.700613	0.000041
 218	2.1591e+01	2.1533	-7.783298	0.000385	3.849105	0.652056	0.000038
 219	2.1691e+01	2.1626	-7.738897	0.000446	4.463324	0.756107	0.000045
 220	2.1791e+01	2.1743	-7.698978	0.000401	4.012897	0.679803	0.000040
 221	2.1890e+01	2.1877	-7.656207	0.000430	4.299532	0.728360	0.000043
 222	2.1989e+01	2.1969	-7.616695	0.000397	3.971949	0.672866	0.000040
 223	2.2089e+01	2.2028	-7.576368	0.000405	4.053844	0.686740	0.000041
 224	2.2189e+01	2.2152	-7.537670	0.000389	3.890053	0.658993	0.000039
 225	2.2288e+01	2.2261	-7.493677	0.000442	4.422376	0.749171	0.000044
 226	2.2387e+01	2.2347	-7.461090	0.000328	3.275834	0.554941	0.000033
 227	2.2487e+01	2.2442	-7.418319	0.000430	4.299532	0.728360	0.000043
 228	2.2587e+01	2.2540	-7.386546	0.000319	3.193938	0.541068	0.000032
 229	2.2686e+01	2.2643	-7.348663	0.000381	3.808157	0.645119	0.000038
 230	2.2785e+01	2.2739	-7.311595	0.000373	3.726261	0.631246	0.000037
 231	2.2885e+01	2.2843	-7.275749	0.000360	3.603417	0.610435	0.000036
 232	2.2985e+01	2.2924	-7.235015	0.000409	4.094792	0.693677	0.000041
 233	2.3084e+01	2.3051	-7.200798	0.000344	3.439626	0.582688	0.000034
 234	2.3183e+01	2.3130	-7.162100	0.000389	3.890053	0.658993	0.000039
 235	2.3283e+01	2.3243	-7.124218	0.000381	3.808157	0.645119	0.000038
 236	2.3383e+01	2.3336	-7.085520	0.000389	3.890053	0.658993	0.000039
 237	2.3482e+01	2.3421	-7.052118	0.000336	3.357730	0.568815	0.000034
 238	2.3581e+01	2.3542	-7.012606	0.000397	3.971949	0.672866	0.000040
 239	2.3681e+01	2.3629	-6.980426	0.000323	3.234886	0.548005	0.000032
 240	2.3780e+01	2.3735	-6.941728	0.000389	3.890053	0.658993	0.000039
 241	2.3880e+01	2.3819	-6.904660	0.000373	3.726261	0.631246	0.000037
 242	2.3980e+01	2.3914	-6.872073	0.000328	3.275834	0.554941	0.000033
 243	2.4079e+01	2.4028	-6.836226	0.000360	3.603417	0.610435	0.000036
 244	2.4178e+01	2.4129	-6.796714	0.000397	3.971949	0.672866	0.000040
 245	2.4278e+01	2.4253	-6.757609	0.000393	3.931001	0.665930	0.000039
 246	2.4378e+01	2.4382	-6.722578	0.000352	3.521521	0.596562	0.000035
 247	2.4477e+01	2.4436	-6.685102	0.000377	3.767209	0.638182	0.000038
 248	2.4576e+01	2.4530	-6.644775	0.000405	4.053844	0.686740	0.000041
 249	2.4676e+01	2.4641	-6.609744	0.000352	3.521521	0.596562	0.000035
 250	2.4776e+01	2.4744	-6.569010	0.000409	4.094792	0.693677	0.000041
 251	2.4875e+01	2.4820	-6.533571	0.000356	3.562469	0.603499	0.000036
 252	2.4974e+01	2.4947	-6.497317	0.000364	3.644365	0.617372	0.000036
 253	2.5074e+01	2.5027	-6.457398	0.000401	4.012897	0.679803	0.000040
 254	2.5174e+01	2.5102	-6.419922	0.000377	3.767209	0.638182	0.000038
 255	2.5273e+01	2.5245	-6.382854	0.000373	3.726261	0.631246	0.000037
 256	2.5372e+01	2.5341	-6.344564	0.000385	3.849105	0.652056	0.000038
 257	2.5472e+01	2.5427	-6.307496	0.000373	3.726261	0.631246	0.000037
 258	2.5572e+01	2.5523	-6.272872	0.000348	3.480573	0.589625	0.000035
 259	2.5671e+01	2.5631	-6.231730	0.000414	4.135740	0.700613	0.000041
 260	2.5770e+01	2.5744	-6.196291	0.000356	3.562469	0.603499	0.000036
 261	2.5870e+01	2.5858	-6.160038	0.000364	3.644365	0.617372	0.000036
 262	2.5970e+01	2.5937	-6.118081	0.000422	4.217636	0.714487	0.000042
 263	2.6069e+01	2.6026	-6.084272	0.000340	3.398678	0.575752	0.000034
 264	2.6169e+01	2.6127	-6.052092	0.000323	3.234886	0.548005	0.000032
 265	2.6268e+01	2.6234	-6.012172	0.000401	4.012897	0.679803	0.000040
 266	2.6367e+01	2.6322	-5.973068	0.000393	3.931001	0.665930	0.000039
 267	2.6467e+01	2.6424	-5.936407	0.000369	3.685313	0.624309	0.000037
 268	2.6567e+01	2.6508	-5.898524	0.000381	3.808157	0.645119	0.000038
 269	2.6666e+01	2.6611	-5.862270	0.000364	3.644365	0.617372	0.000036
 270	2.6765e+01	2.6717	-5.823165	0.000393	3.931001	0.665930	0.000039
 271	2.6865e+01	2.6815	-5.786505	0.000369	3.685313	0.624309	0.000037
 272	2.6965e+01	2.6924	-5.750251	0.000364	3.644365	0.617372	0.000036
 273	2.7064e+01	2.7032	-5.706665	0.000438	4.381428	0.742234	0.000044
 274	2.7163e+01	2.7105	-5.671634	0.000352	3.521521	0.596562	0.000035
 275	2.7263e+01	2.7216	-5.636603	0.000352	3.521521	0.596562	0.000035
 276	2.7363e+01	2.7303	-5.599942	0.000369	3.685313	0.624309	0.000037
 277	2.7462e+01	2.7428	-5.560429	0.000397	3.971949	0.672866	0.000040
 278	2.7561e+01	2.7509	-5.523769	0.000369	3.685313	0.624309	0.000037
 279	2.7661e+01	2.7624	-5.485886	0.000381	3.808157	0.645119	0.000038
 280	2.7761e+01	2.7695	-5.447596	0.000385	3.849105	0.652056	0.000038
 281	2.7860e+01	2.7827	-5.407676	0.000401	4.012897	0.679803	0.000040
 282	2.7959e+01	2.7944	-5.373867	0.000340	3.398678	0.575752	0.000034
 283	2.8059e+01	2.8017	-5.335169	0.000389	3.890053	0.658993	0.000039
 284	2.8159e+01	2.8117	-5.297286	0.000381	3.808157	0.645119	0.000038
 285	2.8258e+01	2.8212	-5.256959	0.000405	4.053844	0.686740	0.000041
 286	2.8358e+01	2.8316	-5.218669	0.000385	3.849105	0.652056	0.000038
 287	2.8457e+01	2.8409	-5.184045	0.000348	3.480573	0.589625	0.000035
 288	2.8556e+01	2.8498	-5.144533	0.000397	3.971949	0.672866	0.000040
 289	2.8656e+01	2.8616	-5.107872	0.000369	3.685313	0.624309	0.000037
 290	2.8756e+01	2.8723	-5.074470	0.000336	3.357730	0.568815	0.000034
 291	2.8855e+01	2.8802	-5.035365	0.000393	3.931001	0.665930	0.000039
 292	2.8954e+01	2.8915	-5.002370	0.000332	3.316782	0.561878	0.000033
 293	2.9054e+01	2.9002	-4.965302	0.000373	3.726261	0.631246	0.000037
 294	2.9154e+01	2.9103	-4.929863	0.000356	3.562469	0.603499	0.000036
 295	2.9253e+01	2.9198	-4.894832	0.000352	3.521521	0.596562	0.000035
 296	2.9352e+01	2.9301	-4.860208	0.000348	3.480573	0.589625	0.000035
 297	2.9452e+01	2.9395	-4.821103	0.000393	3.931001	0.665930	0.000039
 298	2.9552e+01	2.9525	-4.788108	0.000332	3.316782	0.561878	0.000033
 299	2.9651e+01	2.9630	-4.750633	0.000377	3.767209	0.638182	0.000038
 300	2.9750e+01	2.9721	-4.714786	0.000360	3.603417	0.610435	0.000036
 301	2.9850e+01	2.9800	-4.676496	0.000385	3.849105	0.652056	0.000038
 302	2.9950e+01	2.9929	-4.645945	0.000307	3.071094	0.520257	0.000031
 303	3.0049e+01	3.0029	-4.608063	0.000381	3.808157	0.645119	0.000038
 304	3.0148e+01	3.0109	-4.575475	0.000328	3.275834	0.554941	0.000033
 305	3.0248e+01	3.0209	-4.539222	0.000364	3.644365	0.617372	0.000036
 306	3.0348e+01	3.0284	-4.505412	0.000340	3.398678	0.575752	0.000034
 307	3.0447e+01	3.0383	-4.468751	0.000369	3.685313	0.624309	0.000037
 308	3.0547e+01	3.0524	-4.434535	0.000344	3.439626	0.582688	0.000034
 309	3.0646e+01	3.0610	-4.397059	0.000377	3.767209	0.638182	0.000038
 310	3.0745e+01	3.0693	-4.361213	0.000360	3.603417	0.610435	0.000036
 311	3.0845e+01	3.0784	-4.312739	0.000487	4.872803	0.825475	0.000049
 312	3.0945e+01	3.0933	-4.277300	0.000356	3.562469	0.603499	0.000036
 313	3.1044e+01	3.1016	-4.239825	0.000377	3.767209	0.638182	0.000038
 314	3.1143e+01	3.1109	-4.198683	0.000414	4.135740	0.700613	0.000041
 315	3.1243e+01	3.1197	-4.162023	0.000369	3.685313	0.624309	0.000037
 316	3.1343e+01	3.1294	-4.119659	0.000426	4.258584	0.721424	0.000043
 317	3.1442e+01	3.1406	-4.082591	0.000373	3.726261	0.631246	0.000037
 318	3.1541e+01	3.1521	-4.045523	0.000373	3.726261	0.631246	0.000037
 319	3.1641e+01	3.1588	-4.003974	0.000418	4.176688	0.707550	0.000042
 320	3.1741e+01	3.1731	-3.966498	0.000377	3.767209	0.638182	0.000038
 321	3.1840e+01	3.1789	-3.921690	0.000450	4.504272	0.763044	0.000045
 322	3.1939e+01	3.1896	-3.887474	0.000344	3.439626	0.582688	0.000034
 323	3.2039e+01	3.1975	-3.847147	0.000405	4.053844	0.686740	0.000041
 324	3.2139e+01	3.2139	-3.804376	0.000430	4.299532	0.728360	0.000043
 325	3.2238e+01	3.2162	-3.769752	0.000348	3.480573	0.589625	0.000035
 326	3.2337e+01	3.2317	-3.730239	0.000397	3.971949	0.672866	0.000040
 327	3.2437e+01	3.2394	-3.687468	0.000430	4.299532	0.728360	0.000043
 328	3.2536e+01	3.2524	-3.652437	0.000352	3.521521	0.596562	0.000035
 329	3.2636e+01	3.2601	-3.614961	0.000377	3.767209	0.638182	0.000038
 330	3.2736e+01	3.2673	-3.576671	0.000385	3.849105	0.652056	0.000038
 331	3.2835e+01	3.2777	-3.541640	0.000352	3.521521	0.596562	0.000035
 332	3.2934e+01	3.2903	-3.507016	0.000348	3.480573	0.589625	0.000035
 333	3.3034e+01	3.3025	-3.464245	0.000430	4.299532	0.728360	0.000043
 334	3.3133e+01	3.3083	-3.428399	0.000360	3.603417	0.610435	0.000036
 335	3.3233e+01	3.3231	-3.394589	0.000340	3.398678	0.575752	0.000034
 336	3.3333e+01	3.3300	-3.354670	0.000401	4.012897	0.679803	0.000040
 337	3.3432e+01	3.3376	-3.319231	0.000356	3.562469	0.603499	0.000036
 338	3.3532e+01	3.3489	-3.281348	0.000381	3.808157	0.645119	0.000038
 339	3.3631e+01	3.3593	-3.243872	0.000377	3.767209	0.638182	0.000038
 340	3.3730e+01	3.3736	-3.210878	0.000332	3.316782	0.561878	0.000033
 341	3.3830e+01	3.3784	-3.169736	0.000414	4.135740	0.700613	0.000041
 342	3.3929e+01	3.3868	-3.137149	0.000328	3.275834	0.554941	0.000033
 343	3.4029e+01	3.3994	-3.100080	0.000373	3.726261	0.631246	0.000037
 344	3.4129e+01	3.4113	-3.061383	0.000389	3.890053	0.658993	0.000039
 345	3.4228e+01	3.4173	-3.025944	0.000356	3.562469	0.603499	0.000036
 346	3.4328e+01	3.4302	-2.990913	0.000352	3.521521	0.596562	0.000035
 347	3.4427e+01	3.4362	-2.952622	0.000385	3.849105	0.652056	0.000038
 348	3.4526e+01	3.4451	-2.915147	0.000377	3.767209	0.638182	0.000038
 349	3.4626e+01	3.4572	-2.877671	0.000377	3.767209	0.638182	0.000038
 350	3.4725e+01	3.4672	-2.839381	0.000385	3.849105	0.652056	0.000038
 351	3.4825e+01	3.4783	-2.801498	0.000381	3.808157	0.645119	0.000038
 352	3.4925e+01	3.4875	-2.770948	0.000307	3.071094	0.520257	0.000031
 353	3.5024e+01	3.4982	-2.729806	0.000414	4.135740	0.700613	0.000041
 354	3.5123e+01	3.5052	-2.693553	0.000364	3.644365	0.617372	0.000036
 355	3.5223e+01	3.5239	-2.655670	0.000381	3.808157	0.645119	0.000038
 356	3.5322e+01	3.5285	-2.623082	0.000328	3.275834	0.554941	0.000033
 357	3.5422e+01	3.5390	-2.587236	0.000360	3.603417	0.610435	0.000036
 358	3.5522e+01	3.5477	-2.553019	0.000344	3.439626	0.582688	0.000034
 359	3.5621e+01	3.5567	-2.514729	0.000385	3.849105	0.652056	0.000038
 360	3.5721e+01	3.5661	-2.476032	0.000389	3.890053	0.658993	0.000039
 361	3.5820e+01	3.5741	-2.439778	0.000364	3.644365	0.617372	0.000036
 362	3.5919e+01	3.5862	-2.402710	0.000373	3.726261	0.631246	0.000037
 363	3.6019e+01	3.5960	-2.368901	0.000340	3.398678	0.575752	0.000034
 364	3.6118e+01	3.6088	-2.330203	0.000389	3.890053	0.658993	0.000039
 365	3.6218e+01	3.6163	-2.294764	0.000356	3.562469	0.603499	0.000036
 366	3.6318e+01	3.6290	-2.262584	0.000323	3.234886	0.548005	0.000032
 367	3.6417e+01	3.6378	-2.227145	0.000356	3.562469	0.603499	0.000036
 368	3.6517e+01	3.6459	-2.194558	0.000328	3.275834	0.554941	0.000033
 369	3.6616e+01	3.6608	-2.153824	0.000409	4.094792	0.693677	0.000041
 370	3.6715e+01	3.6667	-2.119607	0.000344	3.439626	0.582688	0.000034
 371	3.6815e+01	3.6777	-2.080909	0.000389	3.890053	0.658993	0.000039
 372	3.6914e+01	3.6904	-2.045878	0.000352	3.521521	0.596562	0.000035
 373	3.7014e+01	3.6995	-2.012476	0.000336	3.357730	0.568815	0.000034
 374	3.7114e+01	3.7070	-1.972556	0.000401	4.012897	0.679803	0.000040
 375	3.7213e+01	3.7175	-1.941191	0.000315	3.152990	0.534131	0.000032
 376	3.7313e+01	3.7295	-1.903715	0.000377	3.767209	0.638182	0.000038
 377	3.7412e+01	3.7408	-1.863796	0.000401	4.012897	0.679803	0.000040
 378	3.7511e+01	3.7469	-1.824691	0.000393	3.931001	0.665930	0.000039
 379	3.7611e+01	3.7574	-1.791696	0.000332	3.316782	0.561878	0.000033
 380	3.7711e+01	3.7664	-1.752184	0.000397	3.971949	0.672866	0.000040
 381	3.7810e+01	3.7752	-1.714301	0.000381	3.808157	0.645119	0.000038
 382	3.7910e+01	3.7847	-1.680492	0.000340	3.398678	0.575752	0.000034
 383	3.8009e+01	3.7963	-1.647090	0.000336	3.357730	0.568815	0.000034
 384	3.8108e+01	3.8094	-1.606355	0.000409	4.094792	0.693677	0.000041
 385	3.8208e+01	3.8171	-1.573361	0.000332	3.316782	0.561878	0.000033
 386	3.8307e+01	3.8257	-1.532219	0.000414	4.135740	0.700613	0.000041
 387	3.8407e+01	3.8351	-1.495151	0.000373	3.726261	0.631246	0.000037
 388	3.8507e+01	3.8461	-1.459305	0.000360	3.603417	0.610435	0.000036
 389	3.8606e+01	3.8551	-1.417756	0.000418	4.176688	0.707550	0.000042
 390	3.8706e+01	3.8680	-1.384761	0.000332	3.316782	0.561878	0.000033
 391	3.8805e+01	3.8754	-1.348100	0.000369	3.685313	0.624309	0.000037
 392	3.8904e+01	3.8879	-1.311439	0.000369	3.685313	0.624309	0.000037
 393	3.9004e+01	3.8971	-1.276408	0.000352	3.521521	0.596562	0.000035
 394	3.9103e+01	3.9051	-1.243820	0.000328	3.275834	0.554941	0.000033
 395	3.9203e+01	3.9184	-1.211640	0.000323	3.234886	0.548005	0.000032
 396	3.9303e+01	3.9237	-1.181497	0.000303	3.030146	0.513321	0.000030
 397	3.9402e+01	3.9329	-1.145244	0.000364	3.644365	0.617372	0.000036
 398	3.9502e+01	3.9450	-1.113878	0.000315	3.152990	0.534131	0.000032
 399	3.9601e+01	3.9539	-1.079661	0.000344	3.439626	0.582688	0.000034
 400	3.9700e+01	3.9649	-1.046259	0.000336	3.357730	0.568815	0.000034
 401	3.9800e+01	3.9754	-1.012043	0.000344	3.439626	0.582688	0.000034
 402	3.9900e+01	3.9894	-0.979863	0.000323	3.234886	0.548005	0.000032
 403	3.9999e+01	3.9971	-0.947682	0.000323	3.234886	0.548005	0.000032
 404	4.0099e+01	4.0051	-0.911836	0.000360	3.603417	0.610435	0.000036
 405	4.0198e+01	4.0162	-0.882915	0.000291	2.907303	0.492510	0.000029
 406	4.0297e+01	4.0244	-0.849920	0.000332	3.316782	0.561878	0.000033
 407	4.0397e+01	4.0340	-0.814481	0.000356	3.562469	0.603499	0.000036
 408	4.0496e+01	4.0462	-0.783931	0.000307	3.071094	0.520257	0.000031
 409	4.0596e+01	4.0560	-0.754195	0.000299	2.989198	0.506384	0.000030
 410	4.0696e+01	4.0655	-0.720385	0.000340	3.398678	0.575752	0.000034
 411	4.0795e+01	4.0765	-0.689835	0.000307	3.071094	0.520257	0.000031
 412	4.0895e+01	4.0871	-0.653581	0.000364	3.644365	0.617372	0.000036
 413	4.0994e+01	4.0966	-0.622216	0.000315	3.152990	0.534131	0.000032
 414	4.1093e+01	4.1065	-0.585962	0.000364	3.644365	0.617372	0.000036
 415	4.1193e+01	4.1175	-0.554597	0.000315	3.152990	0.534131	0.000032
 416	4.1292e+01	4.1258	-0.517529	0.000373	3.726261	0.631246	0.000037
 417	4.1392e+01	4.1351	-0.484941	0.000328	3.275834	0.554941	0.000033
 418	4.1492e+01	4.1445	-0.451947	0.000332	3.316782	0.561878	0.000033
 419	4.1591e+01	4.1567	-0.416100	0.000360	3.603417	0.610435	0.000036
 420	4.1691e+01	4.1631	-0.384735	0.000315	3.152990	0.534131	0.000032
 421	4.1790e+01	4.1754	-0.345630	0.000393	3.931001	0.665930	0.000039
 422	4.1889e+01	4.1841	-0.314265	0.000315	3.152990	0.534131	0.000032
 423	4.1989e+01	4.1917	-0.280455	0.000340	3.398678	0.575752	0.000034
 424	4.2089e+01	4.2012	-0.247053	0.000336	3.357730	0.568815	0.000034
 425	4.2188e+01	4.2145	-0.216095	0.000311	3.112042	0.527194	0.000031
 426	4.2288e+01	4.2232	-0.179434	0.000369	3.685313	0.624309	0.000037
 427	4.2387e+01	4.2348	-0.145625	0.000340	3.398678	0.575752	0.000034
 428	4.2486e+01	4.2441	-0.110594	0.000352	3.521521	0.596562	0.000035
 429	4.2586e+01	4.2551	-0.080043	0.000307	3.071094	0.520257	0.000031
 430	4.2685e+01	4.2635	-0.044604	0.000356	3.562469	0.603499	0.000036
 431	4.2785e+01	4.2742	-0.014868	0.000299	2.989198	0.506384	0.000030
 432	4.2885e+01	4.2829	0.016905	0.000319	3.193938	0.541068	0.000032
 433	4.2984e+01	4.2958	0.054380	0.000377	3.767209	0.638182	0.000038
 434	4.3084e+01	4.3026	0.084931	0.000307	3.071094	0.520257	0.000031
 435	4.3183e+01	4.3165	0.117111	0.000323	3.234886	0.548005	0.000032
 436	4.3282e+01	4.3239	0.156216	0.000393	3.931001	0.665930	0.000039
 437	4.3382e+01	4.3327	0.186767	0.000307	3.071094	0.520257	0.000031
 438	4.3481e+01	4.3453	0.220169	0.000336	3.357730	0.568815	0.000034
 439	4.3581e+01	4.3537	0.255200	0.000352	3.521521	0.596562	0.000035
 440	4.3681e+01	4.3671	0.287788	0.000328	3.275834	0.554941	0.000033
 441	4.3780e+01	4.3751	0.322004	0.000344	3.439626	0.582688	0.000034
 442	4.3880e+01	4.3838	0.354999	0.000332	3.316782	0.561878	0.000033
 443	4.3979e+01	4.3972	0.387179	0.000323	3.234886	0.548005	0.000032
 444	4.4078e+01	4.4043	0.422211	0.000352	3.521521	0.596562	0.000035
 445	4.4178e+01	4.4131	0.455613	0.000336	3.357730	0.568815	0.000034
 446	4.4278e+01	4.4239	0.488607	0.000332	3.316782	0.561878	0.000033
 447	4.4377e+01	4.4334	0.522417	0.000340	3.398678	0.575752	0.000034
 448	4.4477e+01	4.4457	0.556634	0.000344	3.439626	0.582688	0.000034
 449	4.4576e+01	4.4527	0.592072	0.000356	3.562469	0.603499	0.000036
 450	4.4675e+01	4.4643	0.627104	0.000352	3.521521	0.596562	0.000035
 451	4.4775e+01	4.4751	0.662135	0.000352	3.521521	0.596562	0.000035
 452	4.4874e+01	4.4830	0.696759	0.000348	3.480573	0.589625	0.000035
 453	4.4974e+01	4.4929	0.727310	0.000307	3.071094	0.520257	0.000031
 454	4.5074e+01	4.5057	0.758676	0.000315	3.152990	0.534131	0.000032
 455	4.5173e+01	4.5103	0.793300	0.000348	3.480573	0.589625	0.000035
 456	4.5273e+01	4.5226	0.828331	0.000352	3.521521	0.596562	0.000035
 457	4.5372e+01	4.5361	0.861733	0.000336	3.357730	0.568815	0.000034
 458	4.5471e+01	4.5412	0.892691	0.000311	3.112042	0.527194	0.000031
 459	4.5571e+01	4.5541	0.929759	0.000373	3.726261	0.631246	0.000037
 460	4.5670e+01	4.5635	0.957051	0.000274	2.743511	0.464763	0.000027
 461	4.5770e+01	4.5751	0.988417	0.000315	3.152990	0.534131	0.000032
 462	4.5870e+01	4.5824	1.023041	0.000348	3.480573	0.589625	0.000035
 463	4.5969e+01	4.5924	1.051555	0.000287	2.866355	0.485574	0.000029
 464	4.6069e+01	4.6061	1.085364	0.000340	3.398678	0.575752	0.000034
 465	4.6168e+01	4.6142	1.117952	0.000328	3.275834	0.554941	0.000033
 466	4.6267e+01	4.6257	1.148910	0.000311	3.112042	0.527194	0.000031
 467	4.6367e+01	4.6334	1.182719	0.000340	3.398678	0.575752	0.000034
 468	4.6467e+01	4.6423	1.216529	0.000340	3.398678	0.575752	0.000034
 469	4.6566e+01	4.6535	1.246672	0.000303	3.030146	0.513321	0.000030
 470	4.6666e+01	4.6651	1.279667	0.000332	3.316782	0.561878	0.000033
 471	4.6765e+01	4.6714	1.309403	0.000299	2.989198	0.506384	0.000030
 472	4.6864e+01	4.6780	1.335880	0.000266	2.661615	0.450890	0.000027
 473	4.6964e+01	4.6921	1.367653	0.000319	3.193938	0.541068	0.000032
 474	4.7063e+01	4.7012	1.394537	0.000270	2.702563	0.457827	0.000027
 475	4.7163e+01	4.7134	1.432013	0.000377	3.767209	0.638182	0.000038
 476	4.7263e+01	4.7221	1.464600	0.000328	3.275834	0.554941	0.000033
 477	4.7362e+01	4.7326	1.497188	0.000328	3.275834	0.554941	0.000033
 478	4.7462e+01	4.7420	1.534256	0.000373	3.726261	0.631246	0.000037
 479	4.7561e+01	4.7531	1.570917	0.000369	3.685313	0.624309	0.000037
 480	4.7660e+01	4.7593	1.604319	0.000336	3.357730	0.568815	0.000034
 481	4.7760e+01	4.7713	1.639350	0.000352	3.521521	0.596562	0.000035
 482	4.7859e+01	4.7813	1.676826	0.000377	3.767209	0.638182	0.000038
 483	4.7959e+01	4.7928	1.715523	0.000389	3.890053	0.658993	0.000039
 484	4.8059e+01	4.8009	1.753813	0.000385	3.849105	0.652056	0.000038
 485	4.8158e+01	4.8107	1.786401	0.000328	3.275834	0.554941	0.000033
 486	4.8258e+01	4.8241	1.817766	0.000315	3.152990	0.534131	0.000032
 487	4.8357e+01	4.8337	1.850354	0.000328	3.275834	0.554941	0.000033
 488	4.8456e+01	4.8418	1.891088	0.000409	4.094792	0.693677	0.000041
 489	4.8556e+01	4.8523	1.926934	0.000360	3.603417	0.610435	0.000036
 490	4.8656e+01	4.8614	1.961965	0.000352	3.521521	0.596562	0.000035
 491	4.8755e+01	4.8690	2.000663	0.000389	3.890053	0.658993	0.000039
 492	4.8855e+01	4.8817	2.033250	0.000328	3.275834	0.554941	0.000033
 493	4.8954e+01	4.8903	2.068689	0.000356	3.562469	0.603499	0.000036
 494	4.9053e+01	4.9009	2.101277	0.000328	3.275834	0.554941	0.000033
 495	4.9153e+01	4.9133	2.139567	0.000385	3.849105	0.652056	0.000038
 496	4.9252e+01	4.9194	2.172969	0.000336	3.357730	0.568815	0.000034
 497	4.9352e+01	4.9300	2.206778	0.000340	3.398678	0.575752	0.000034
 498	4.9452e+01	4.9416	2.240588	0.000340	3.398678	0.575752	0.000034
 499	4.9551e+01	4.9519	2.271953	0.000315	3.152990	0.534131	0.000032
 500	4.9651e+01	4.9624	2.304133	0.000323	3.234886	0.548005	0.000032
 501	4.9750e+01	4.9711	2.339979	0.000360	3.603417	0.610435	0.000036
 502	4.9849e+01	4.9813	2.374196	0.000344	3.439626	0.582688	0.000034
 503	4.9949e+01	4.9947	2.408413	0.000344	3.439626	0.582688	0.000034
 504	5.0048e+01	5.0027	2.436519	0.000283	2.825407	0.478637	0.000028
 505	5.0148e+01	5.0094	2.473180	0.000369	3.685313	0.624309	0.000037
 506	5.0248e+01	5.0233	2.509026	0.000360	3.603417	0.610435	0.000036
 507	5.0347e+01	5.0288	2.538355	0.000295	2.948250	0.499447	0.000029
 508	5.0447e+01	5.0424	2.570128	0.000319	3.193938	0.541068	0.000032
 509	5.0546e+01	5.0525	2.603937	0.000340	3.398678	0.575752	0.000034
 510	5.0645e+01	5.0609	2.635303	0.000315	3.152990	0.534131	0.000032
 511	5.0745e+01	5.0699	2.668705	0.000336	3.357730	0.568815	0.000034
 512	5.0844e+01	5.0796	2.700885	0.000323	3.234886	0.548005	0.000032
 513	5.0944e+01	5.0918	2.737546	0.000369	3.685313	0.624309	0.000037
 514	5.1044e+01	5.1022	2.771355	0.000340	3.398678	0.575752	0.000034
 515	5.1143e+01	5.1104	2.799869	0.000287	2.866355	0.485574	0.000029
 516	5.1242e+01	5.1167	2.836123	0.000364	3.644365	0.617372	0.000036
 517	5.1342e+01	5.1308	2.868303	0.000323	3.234886	0.548005	0.000032
 518	5.1441e+01	5.1381	2.900075	0.000319	3.193938	0.541068	0.000032
 519	5.1541e+01	5.1489	2.933885	0.000340	3.398678	0.575752	0.000034
 520	5.1641e+01	5.1611	2.965250	0.000315	3.152990	0.534131	0.000032
 521	5.1740e+01	5.1707	3.002726	0.000377	3.767209	0.638182	0.000038
 522	5.1840e+01	5.1783	3.032054	0.000295	2.948250	0.499447	0.000029
 523	5.1939e+01	5.1885	3.062605	0.000307	3.071094	0.520257	0.000031
 524	5.2038e+01	5.2005	3.100080	0.000377	3.767209	0.638182	0.000038
 525	5.2138e+01	5.2082	3.129816	0.000299	2.989198	0.506384	0.000030
 526	5.2237e+01	5.2192	3.169736	0.000401	4.012897	0.679803	0.000040
 527	5.2337e+01	5.2285	3.194584	0.000250	2.497823	0.423143	0.000025
 528	5.2437e+01	5.2396	3.227986	0.000336	3.357730	0.568815	0.000034
 529	5.2536e+01	5.2494	3.261795	0.000340	3.398678	0.575752	0.000034
 530	5.2636e+01	5.2583	3.293568	0.000319	3.193938	0.541068	0.000032
 531	5.2735e+01	5.2717	3.327378	0.000340	3.398678	0.575752	0.000034
 532	5.2834e+01	5.2802	3.358743	0.000315	3.152990	0.534131	0.000032
 533	5.2934e+01	5.2908	3.388479	0.000299	2.989198	0.506384	0.000030
 534	5.3033e+01	5.3008	3.423918	0.000356	3.562469	0.603499	0.000036
 535	5.3133e+01	5.3085	3.454469	0.000307	3.071094	0.520257	0.000031
 536	5.3233e+01	5.3199	3.487871	0.000336	3.357730	0.568815	0.000034
 537	5.3332e+01	5.3281	3.516792	0.000291	2.907303	0.492510	0.000029
 538	5.3431e+01	5.3384	3.550194	0.000336	3.357730	0.568815	0.000034
 539	5.3531e+01	5.3483	3.582781	0.000328	3.275834	0.554941	0.000033
 540	5.3630e+01	5.3585	3.614961	0.000323	3.234886	0.548005	0.000032
 541	5.3730e+01	5.3691	3.649586	0.000348	3.480573	0.589625	0.000035
 542	5.3830e+01	5.3797	3.678100	0.000287	2.866355	0.485574	0.000029
 543	5.3929e+01	5.3864	3.713131	0.000352	3.521521	0.596562	0.000035
 544	5.4029e+01	5.4002	3.749385	0.000364	3.644365	0.617372	0.000036
 545	5.4128e+01	5.4088	3.782379	0.000332	3.316782	0.561878	0.000033
 546	5.4227e+01	5.4183	3.814559	0.000323	3.234886	0.548005	0.000032
 547	5.4327e+01	5.4277	3.846739	0.000323	3.234886	0.548005	0.000032
 548	5.4426e+01	5.4386	3.883400	0.000369	3.685313	0.624309	0.000037
 549	5.4526e+01	5.4492	3.916802	0.000336	3.357730	0.568815	0.000034
 550	5.4626e+01	5.4595	3.948982	0.000323	3.234886	0.548005	0.000032
 551	5.4725e+01	5.4716	3.981162	0.000323	3.234886	0.548005	0.000032
 552	5.4825e+01	5.4772	4.014972	0.000340	3.398678	0.575752	0.000034
 553	5.4924e+01	5.4870	4.047967	0.000332	3.316782	0.561878	0.000033
 554	5.5023e+01	5.5003	4.080554	0.000328	3.275834	0.554941	0.000033
 555	5.5123e+01	5.5083	4.116400	0.000360	3.603417	0.610435	0.000036
 556	5.5222e+01	5.5204	4.150210	0.000340	3.398678	0.575752	0.000034
 557	5.5322e+01	5.5258	4.184426	0.000344	3.439626	0.582688	0.000034
 558	5.5422e+01	5.5353	4.214162	0.000299	2.989198	0.506384	0.000030
 559	5.5521e+01	5.5479	4.249601	0.000356	3.562469	0.603499	0.000036
 560	5.5620e+01	5.5595	4.280967	0.000315	3.152990	0.534131	0.000032
 561	5.5720e+01	5.5703	4.312332	0.000315	3.152990	0.534131	0.000032
 562	5.5819e+01	5.5781	4.342068	0.000299	2.989198	0.506384	0.000030
 563	5.5919e+01	5.5918	4.368953	0.000270	2.702563	0.457827	0.000027
 564	5.6019e+01	5.6002	4.401540	0.000328	3.275834	0.554941	0.000033
 565	5.6118e+01	5.6066	4.431683	0.000303	3.030146	0.513321	0.000030
 566	5.6218e+01	5.6171	4.460605	0.000291	2.907303	0.492510	0.000029
 567	5.6317e+01	5.6307	4.491563	0.000311	3.112042	0.527194	0.000031
 568	5.6416e+01	5.6355	4.520891	0.000295	2.948250	0.499447	0.000029
 569	5.6516e+01	5.6489	4.549813	0.000291	2.907303	0.492510	0.000029
 570	5.6615e+01	5.6592	4.577512	0.000278	2.784459	0.471700	0.000028
 571	5.6715e+01	5.6667	4.609692	0.000323	3.234886	0.548005	0.000032
 572	5.6815e+01	5.6763	4.636984	0.000274	2.743511	0.464763	0.000027
 573	5.6914e+01	5.6871	4.663054	0.000262	2.620667	0.443953	0.000026
 574	5.7014e+01	5.6944	4.692383	0.000295	2.948250	0.499447	0.000029
 575	5.7113e+01	5.7079	4.722526	0.000303	3.030146	0.513321	0.000030
 576	5.7212e+01	5.7166	4.753891	0.000315	3.152990	0.534131	0.000032
 577	5.7312e+01	5.7272	4.781591	0.000278	2.784459	0.471700	0.000028
 578	5.7411e+01	5.7362	4.810919	0.000295	2.948250	0.499447	0.000029
 579	5.7511e+01	5.7475	4.841063	0.000303	3.030146	0.513321	0.000030
 580	5.7611e+01	5.7573	4.870799	0.000299	2.989198	0.506384	0.000030
 581	5.7710e+01	5.7665	4.900535	0.000299	2.989198	0.506384	0.000030
 582	5.7809e+01	5.7739	4.930678	0.000303	3.030146	0.513321	0.000030
 583	5.7909e+01	5.7856	4.957970	0.000274	2.743511	0.464763	0.000027
 584	5.8008e+01	5.7980	4.992187	0.000344	3.439626	0.582688	0.000034
 585	5.8108e+01	5.8066	5.022737	0.000307	3.071094	0.520257	0.000031
 586	5.8208e+01	5.8167	5.050844	0.000283	2.825407	0.478637	0.000028
 587	5.8307e+01	5.8257	5.084246	0.000336	3.357730	0.568815	0.000034
 588	5.8407e+01	5.8372	5.113575	0.000295	2.948250	0.499447	0.000029
 589	5.8506e+01	5.8451	5.140867	0.000274	2.743511	0.464763	0.000027
 590	5.8605e+01	5.8541	5.173861	0.000332	3.316782	0.561878	0.000033
 591	5.8705e+01	5.8666	5.202375	0.000287	2.866355	0.485574	0.000029
 592	5.8804e+01	5.8758	5.236592	0.000344	3.439626	0.582688	0.000034
 593	5.8904e+01	5.8859	5.266736	0.000303	3.030146	0.513321	0.000030
 594	5.9004e+01	5.8962	5.294842	0.000283	2.825407	0.478637	0.000028
 595	5.9103e+01	5.9058	5.324986	0.000303	3.030146	0.513321	0.000030
 596	5.9203e+01	5.9165	5.357166	0.000323	3.234886	0.548005	0.000032
 597	5.9302e+01	5.9249	5.383643	0.000266	2.661615	0.450890	0.000027
 598	5.9401e+01	5.9367	5.412157	0.000287	2.866355	0.485574	0.000029
 599	5.9501e+01	5.9482	5.444337	0.000323	3.234886	0.548005	0.000032
 600	5.9600e+01	5.9570	5.473666	0.000295	2.948250	0.499447	0.000029
 601	5.9700e+01	5.9650	5.503809	0.000303	3.030146	0.513321	0.000030
 602	5.9800e+01	5.9798	5.533952	0.000303	3.030146	0.513321	0.000030
 603	5.9899e+01	5.9902	5.566947	0.000332	3.316782	0.561878	0.000033
 604	5.9998e+01	5.9953	5.597498	0.000307	3.071094	0.520257	0.000031
 605	6.0098e+01	6.0064	5.624790	0.000274	2.743511	0.464763	0.000027
 606	6.0197e+01	6.0162	5.653304	0.000287	2.866355	0.485574	0.000029
 607	6.0297e+01	6.0253	5.690372	0.000373	3.726261	0.631246	0.000037
 608	6.0397e+01	6.0360	5.714405	0.000242	2.415927	0.409269	0.000024
 609	6.0496e+01	6.0427	5.749844	0.000356	3.562469	0.603499	0.000036
 610	6.0596e+01	6.0561	5.779987	0.000303	3.030146	0.513321	0.000030
 611	6.0695e+01	6.0654	5.810538	0.000307	3.071094	0.520257	0.000031
 612	6.0794e+01	6.0743	5.840274	0.000299	2.989198	0.506384	0.000030
 613	6.0894e+01	6.0831	5.865936	0.000258	2.579719	0.437016	0.000026
 614	6.0993e+01	6.0943	5.900968	0.000352	3.521521	0.596562	0.000035
 615	6.1093e+01	6.1060	5.930297	0.000295	2.948250	0.499447	0.000029
 616	6.1193e+01	6.1158	5.960847	0.000307	3.071094	0.520257	0.000031
 617	6.1292e+01	6.1255	5.993842	0.000332	3.316782	0.561878	0.000033
 618	6.1392e+01	6.1338	6.021541	0.000278	2.784459	0.471700	0.000028
 619	6.1491e+01	6.1461	6.055758	0.000344	3.439626	0.582688	0.000034
 620	6.1590e+01	6.1562	6.083457	0.000278	2.784459	0.471700	0.000028
 621	6.1690e+01	6.1646	6.114415	0.000311	3.112042	0.527194	0.000031
 622	6.1789e+01	6.1755	6.146188	0.000319	3.193938	0.541068	0.000032
 623	6.1889e+01	6.1861	6.182034	0.000360	3.603417	0.610435	0.000036
 624	6.1989e+01	6.1974	6.207289	0.000254	2.538771	0.430079	0.000025
 625	6.2088e+01	6.2058	6.231323	0.000242	2.415927	0.409269	0.000024
 626	6.2188e+01	6.2159	6.265539	0.000344	3.439626	0.582688	0.000034
 627	6.2287e+01	6.2250	6.296497	0.000311	3.112042	0.527194	0.000031
 628	6.2386e+01	6.2345	6.322160	0.000258	2.579719	0.437016	0.000026
 629	6.2486e+01	6.2487	6.348230	0.000262	2.620667	0.443953	0.000026
 630	6.2586e+01	6.2534	6.378781	0.000307	3.071094	0.520257	0.000031
 631	6.2685e+01	6.2635	6.406073	0.000274	2.743511	0.464763	0.000027
 632	6.2785e+01	6.2746	6.436623	0.000307	3.071094	0.520257	0.000031
 633	6.2884e+01	6.2861	6.461879	0.000254	2.538771	0.430079	0.000025
 634	6.2983e+01	6.2978	6.492837	0.000311	3.112042	0.527194	0.000031
 635	6.3083e+01	6.3046	6.520129	0.000274	2.743511	0.464763	0.000027
 636	6.3182e+01	6.3125	6.549865	0.000299	2.989198	0.506384	0.000030
 637	6.3282e+01	6.3249	6.577157	0.000274	2.743511	0.464763	0.000027
 638	6.3382e+01	6.3342	6.606893	0.000299	2.989198	0.506384	0.000030
 639	6.3481e+01	6.3445	6.634184	0.000274	2.743511	0.464763	0.000027
 640	6.3581e+01	6.3520	6.657810	0.000237	2.374980	0.402332	0.000024
 641	6.3680e+01	6.3638	6.689176	0.000315	3.152990	0.534131	0.000032
 642	6.3779e+01	6.3730	6.717282	0.000283	2.825407	0.478637	0.000028
 643	6.3879e+01	6.3819	6.746204	0.000291	2.907303	0.492510	0.000029
 644	6.3978e+01	6.3955	6.776754	0.000307	3.071094	0.520257	0.000031
 645	6.4078e+01	6.4037	6.806490	0.000299	2.989198	0.506384	0.000030
 646	6.4177e+01	6.4132	6.841929	0.000356	3.562469	0.603499	0.000036
 647	6.4277e+01	6.4256	6.874924	0.000332	3.316782	0.561878	0.000033
 648	6.4376e+01	6.4324	6.907919	0.000332	3.316782	0.561878	0.000033
 649	6.4476e+01	6.4443	6.936840	0.000291	2.907303	0.492510	0.000029
 650	6.4576e+01	6.4520	6.972279	0.000356	3.562469	0.603499	0.000036
 651	6.4675e+01	6.4643	7.005681	0.000336	3.357730	0.568815	0.000034
 652	6.4775e+01	6.4721	7.033788	0.000283	2.825407	0.478637	0.000028
 653	6.4874e+01	6.4809	7.064338	0.000307	3.071094	0.520257	0.000031
 654	6.4974e+01	6.4928	7.099370	0.000352	3.521521	0.596562	0.000035
 655	6.5073e+01	6.5008	7.132772	0.000336	3.357730	0.568815	0.000034
 656	6.5172e+01	6.5112	7.164544	0.000319	3.193938	0.541068	0.000032
 657	6.5272e+01	6.5217	7.199576	0.000352	3.521521	0.596562	0.000035
 658	6.5371e+01	6.5313	7.230534	0.000311	3.112042	0.527194	0.000031
 659	6.5471e+01	6.5430	7.264343	0.000340	3.398678	0.575752	0.000034
 660	6.5570e+01	6.5514	7.296116	0.000319	3.193938	0.541068	0.000032
 661	6.5670e+01	6.5626	7.325852	0.000299	2.989198	0.506384	0.000030
 662	6.5769e+01	6.5733	7.360476	0.000348	3.480573	0.589625	0.000035
 663	6.5869e+01	6.5812	7.391027	0.000307	3.071094	0.520257	0.000031
 664	6.5969e+01	6.5910	7.423614	0.000328	3.275834	0.554941	0.000033
 665	6.6068e+01	6.6032	7.450092	0.000266	2.661615	0.450890	0.000027
 666	6.6168e+01	6.6100	7.479828	0.000299	2.989198	0.506384	0.000030
 667	6.6267e+01	6.6241	7.511600	0.000319	3.193938	0.541068	0.000032
 668	6.6367e+01	6.6319	7.540929	0.000295	2.948250	0.499447	0.000029
 669	6.6466e+01	6.6415	7.573924	0.000332	3.316782	0.561878	0.000033
 670	6.6566e+01	6.6486	7.602030	0.000283	2.825407	0.478637	0.000028
 671	6.6665e+01	6.6616	7.633396	0.000315	3.152990	0.534131	0.000032
 672	6.6764e+01	6.6724	7.661910	0.000287	2.866355	0.485574	0.000029
 673	6.6864e+01	6.6813	7.694090	0.000323	3.234886	0.548005	0.000032
 674	6.6963e+01	6.6927	7.725048	0.000311	3.112042	0.527194	0.000031
 675	6.7063e+01	6.7019	7.751932	0.000270	2.702563	0.457827	0.000027
 676	6.7162e+01	6.7101	7.780446	0.000287	2.866355	0.485574	0.000029
 677	6.7262e+01	6.7228	7.814256	0.000340	3.398678	0.575752	0.000034
 678	6.7362e+01	6.7324	7.841955	0.000278	2.784459	0.471700	0.000028
 679	6.7461e+01	6.7413	7.875765	0.000340	3.398678	0.575752	0.000034
 680	6.7561e+01	6.7515	7.902242	0.000266	2.661615	0.450890	0.000027
 681	6.7660e+01	6.7595	7.932385	0.000303	3.030146	0.513321	0.000030
 682	6.7760e+01	6.7719	7.962529	0.000303	3.030146	0.513321	0.000030
 683	6.7859e+01	6.7823	7.994709	0.000323	3.234886	0.548005	0.000032
 684	6.7959e+01	6.7916	8.026481	0.000319	3.193938	0.541068	0.000032
 685	6.8058e+01	6.8034	8.056217	0.000299	2.989198	0.506384	0.000030
 686	6.8157e+01	6.8089	8.083917	0.000278	2.784459	0.471700	0.000028
 687	6.8257e+01	6.8215	8.114060	0.000303	3.030146	0.513321	0.000030
 688	6.8356e+01	6.8311	8.142574	0.000287	2.866355	0.485574	0.000029
 689	6.8456e+01	6.8398	8.175569	0.000332	3.316782	0.561878	0.000033
 690	6.8555e+01	6.8487	8.204490	0.000291	2.907303	0.492510	0.000029
 691	6.8655e+01	6.8607	8.233819	0.000295	2.948250	0.499447	0.000029
 692	6.8754e+01	6.8713	8.262333	0.000287	2.866355	0.485574	0.000029
 693	6.8854e+01	6.8841	8.292476	0.000303	3.030146	0.513321	0.000030
 694	6.8954e+01	6.8921	8.320583	0.000283	2.825407	0.478637	0.000028
 695	6.9053e+01	6.9013	8.353170	0.000328	3.275834	0.554941	0.000033
 696	6.9153e+01	6.9114	8.381277	0.000283	2.825407	0.478637	0.000028
 697	6.9252e+01	6.9199	8.410605	0.000295	2.948250	0.499447	0.000029
 698	6.9352e+01	6.9288	8.437490	0.000270	2.702563	0.457827	0.000027
 699	6.9451e+01	6.9410	8.472521	0.000352	3.521521	0.596562	0.000035
 700	6.9550e+01	6.9485	8.501035	0.000287	2.866355	0.485574	0.000029
 701	6.9650e+01	6.9610	8.526291	0.000254	2.538771	0.430079	0.000025
 702	6.9749e+01	6.9678	8.556027	0.000299	2.989198	0.506384	0.000030
 703	6.9849e+01	6.9798	8.585763	0.000299	2.989198	0.506384	0.000030
 704	6.9948e+01	6.9909	8.614277	0.000287	2.866355	0.485574	0.000029
 705	7.0048e+01	6.9990	8.642383	0.000283	2.825407	0.478637	0.000028
 706	7.0147e+01	7.0093	8.667231	0.000250	2.497823	0.423143	0.000025
 707	7.0247e+01	7.0226	8.701041	0.000340	3.398678	0.575752	0.000034
 708	7.0347e+01	7.0287	8.732813	0.000319	3.193938	0.541068	0.000032
 709	7.0446e+01	7.0383	8.763771	0.000311	3.112042	0.527194	0.000031
 710	7.0546e+01	7.0519	8.793915	0.000303	3.030146	0.513321	0.000030
 711	7.0645e+01	7.0620	8.820392	0.000266	2.661615	0.450890	0.000027
 712	7.0745e+01	7.0724	8.855423	0.000352	3.521521	0.596562	0.000035
 713	7.0844e+01	7.0795	8.888418	0.000332	3.316782	0.561878	0.000033
 714	7.0944e+01	7.0896	8.915303	0.000270	2.702563	0.457827	0.000027
 715	7.1043e+01	7.1000	8.945039	0.000299	2.989198	0.506384	0.000030
 716	7.1142e+01	7.1074	8.976811	0.000319	3.193938	0.541068	0.000032
 717	7.1242e+01	7.1203	9.008584	0.000319	3.193938	0.541068	0.000032
 718	7.1341e+01	7.1307	9.037506	0.000291	2.907303	0.492510	0.000029
 719	7.1441e+01	7.1427	9.070500	0.000332	3.316782	0.561878	0.000033
 720	7.1540e+01	7.1505	9.098607	0.000283	2.825407	0.478637	0.000028
 721	7.1640e+01	7.1599	9.131194	0.000328	3.275834	0.554941	0.000033
 722	7.1740e+01	7.1709	9.163374	0.000323	3.234886	0.548005	0.000032
 723	7.1839e+01	7.1796	9.189444	0.000262	2.620667	0.443953	0.000026
 724	7.1939e+01	7.1906	9.220810	0.000315	3.152990	0.534131	0.000032
 725	7.2038e+01	7.1994	9.252582	0.000319	3.193938	0.541068	0.000032
 726	7.2138e+01	7.2097	9.280282	0.000278	2.784459	0.471700	0.000028
 727	7.2237e+01	7.2192	9.309610	0.000295	2.948250	0.499447	0.000029
 728	7.2337e+01	7.2301	9.338939	0.000295	2.948250	0.499447	0.000029
 729	7.2436e+01	7.2375	9.368268	0.000295	2.948250	0.499447	0.000029
 730	7.2535e+01	7.2486	9.392301	0.000242	2.415927	0.409269	0.000024
 731	7.2635e+01	7.2588	9.421222	0.000291	2.907303	0.492510	0.000029
 732	7.2734e+01	7.2696	9.452995	0.000319	3.193938	0.541068	0.000032
 733	7.2834e+01	7.2803	9.474177	0.000213	2.129292	0.360712	0.000021
 734	7.2933e+01	7.2888	9.500247	0.000262	2.620667	0.443953	0.000026
 735	7.3033e+01	7.2984	9.528353	0.000283	2.825407	0.478637	0.000028
 736	7.3132e+01	7.3098	9.554831	0.000266	2.661615	0.450890	0.000027
 737	7.3232e+01	7.3181	9.582937	0.000283	2.825407	0.478637	0.000028
 738	7.3332e+01	7.3291	9.611859	0.000291	2.907303	0.492510	0.000029
 739	7.3431e+01	7.3377	9.636299	0.000246	2.456875	0.416206	0.000025
 740	7.3531e+01	7.3486	9.663184	0.000270	2.702563	0.457827	0.000027
 741	7.3630e+01	7.3591	9.687217	0.000242	2.415927	0.409269	0.000024
 742	7.3730e+01	7.3684	9.711657	0.000246	2.456875	0.416206	0.000025
 743	7.3829e+01	7.3799	9.741801	0.000303	3.030146	0.513321	0.000030
 744	7.3928e+01	7.3861	9.766649	0.000250	2.497823	0.423143	0.000025
 745	7.4028e+01	7.3988	9.792311	0.000258	2.579719	0.437016	0.000026
 746	7.4127e+01	7.4081	9.819603	0.000274	2.743511	0.464763	0.000027
 747	7.4227e+01	7.4191	9.845266	0.000258	2.579719	0.437016	0.000026
 748	7.4326e+01	7.4277	9.875002	0.000299	2.989198	0.506384	0.000030
 749	7.4426e+01	7.4391	9.899850	0.000250	2.497823	0.423143	0.000025
 750	7.4525e+01	7.4468	9.930808	0.000311	3.112042	0.527194	0.000031
 751	7.4625e+01	7.4582	9.957285	0.000266	2.661615	0.450890	0.000027
 752	7.4725e+01	7.4671	9.987021	0.000299	2.989198	0.506384	0.000030
 753	7.4824e+01	7.4767	10.011869	0.000250	2.497823	0.423143	0.000025
 754	7.4924e+01	7.4887	10.037531	0.000258	2.579719	0.437016	0.000026
 755	7.5023e+01	7.4986	10.066860	0.000295	2.948250	0.499447	0.000029
 756	7.5123e+01	7.5078	10.093337	0.000266	2.661615	0.450890	0.000027
 757	7.5222e+01	7.5160	10.122259	0.000291	2.907303	0.492510	0.000029
 758	7.5322e+01	7.5293	10.151995	0.000299	2.989198	0.506384	0.000030
 759	7.5421e+01	7.5384	10.177657	0.000258	2.579719	0.437016	0.000026
 760	7.5520e+01	7.5483	10.201283	0.000237	2.374980	0.402332	0.000024
 761	7.5620e+01	7.5591	10.235093	0.000340	3.398678	0.575752	0.000034
 762	7.5719e+01	7.5694	10.260348	0.000254	2.538771	0.430079	0.000025
 763	7.5819e+01	7.5772	10.288454	0.000283	2.825407	0.478637	0.000028
 764	7.5918e+01	7.5867	10.316561	0.000283	2.825407	0.478637	0.000028
 765	7.6018e+01	7.5980	10.338558	0.000221	2.211188	0.374585	0.000022
 766	7.6118e+01	7.6061	10.370738	0.000323	3.234886	0.548005	0.000032
 767	7.6217e+01	7.6166	10.397622	0.000270	2.702563	0.457827	0.000027
 768	7.6317e+01	7.6258	10.424507	0.000270	2.702563	0.457827	0.000027
 769	7.6416e+01	7.6373	10.448540	0.000242	2.415927	0.409269	0.000024
 770	7.6516e+01	7.6466	10.479905	0.000315	3.152990	0.534131	0.000032
 771	7.6615e+01	7.6571	10.504753	0.000250	2.497823	0.423143	0.000025
 772	7.6715e+01	7.6685	10.535304	0.000307	3.071094	0.520257	0.000031
 773	7.6814e+01	7.6771	10.562189	0.000270	2.702563	0.457827	0.000027
 774	7.6913e+01	7.6872	10.590295	0.000283	2.825407	0.478637	0.000028
 775	7.7013e+01	7.7000	10.619217	0.000291	2.907303	0.492510	0.000029
 776	7.7112e+01	7.7076	10.643250	0.000242	2.415927	0.409269	0.000024
 777	7.7212e+01	7.7162	10.670542	0.000274	2.743511	0.464763	0.000027
 778	7.7311e+01	7.7279	10.701500	0.000311	3.112042	0.527194	0.000031
 779	7.7411e+01	7.7375	10.728792	0.000274	2.743511	0.464763	0.000027
 780	7.7510e+01	7.7467	10.751603	0.000229	2.293084	0.388459	0.000023
 781	7.7610e+01	7.7547	10.786227	0.000348	3.480573	0.589625	0.000035
 782	7.7710e+01	7.7670	10.811482	0.000254	2.538771	0.430079	0.000025
 783	7.7809e+01	7.7767	10.841218	0.000299	2.989198	0.506384	0.000030
 784	7.7909e+01	7.7890	10.870547	0.000295	2.948250	0.499447	0.000029
 785	7.8008e+01	7.7969	10.898246	0.000278	2.784459	0.471700	0.000028
 786	7.8108e+01	7.8078	10.926353	0.000283	2.825407	0.478637	0.000028
 787	7.8207e+01	7.8174	10.954460	0.000283	2.825407	0.478637	0.000028
 788	7.8306e+01	7.8259	10.979715	0.000254	2.538771	0.430079	0.000025
 789	7.8406e+01	7.8358	11.009043	0.000295	2.948250	0.499447	0.000029
 790	7.8505e+01	7.8455	11.037150	0.000283	2.825407	0.478637	0.000028
 791	7.8605e+01	7.8555	11.065257	0.000283	2.825407	0.478637	0.000028
 792	7.8704e+01	7.8669	11.094993	0.000299	2.989198	0.506384	0.000030
 793	7.8804e+01	7.8765	11.119433	0.000246	2.456875	0.416206	0.000025
 794	7.8903e+01	7.8883	11.143874	0.000246	2.456875	0.416206	0.000025
 795	7.9003e+01	7.8972	11.171166	0.000274	2.743511	0.464763	0.000027
 796	7.9103e+01	7.9047	11.196421	0.000254	2.538771	0.430079	0.000025
 797	7.9202e+01	7.9160	11.222491	0.000262	2.620667	0.443953	0.000026
 798	7.9302e+01	7.9261	11.249376	0.000270	2.702563	0.457827	0.000027
 799	7.9401e+01	7.9356	11.275853	0.000266	2.661615	0.450890	0.000027
 800	7.9501e+01	7.9443	11.300701	0.000250	2.497823	0.423143	0.000025
 801	7.9600e+01	7.9556	11.324327	0.000237	2.374980	0.402332	0.000024
 802	7.9700e+01	7.9672	11.353655	0.000295	2.948250	0.499447	0.000029
 803	7.9799e+01	7.9754	11.382577	0.000291	2.907303	0.492510	0.000029
 804	7.9898e+01	7.9842	11.408647	0.000262	2.620667	0.443953	0.000026
 805	7.9998e+01	7.9942	11.435531	0.000270	2.702563	0.457827	0.000027
 806	8.0097e+01	8.0058	11.457120	0.000217	2.170240	0.367649	0.000022
 807	8.0197e+01	8.0132	11.483190	0.000262	2.620667	0.443953	0.000026
 808	8.0296e+01	8.0228	11.505594	0.000225	2.252136	0.381522	0.000023
 809	8.0396e+01	8.0334	11.535737	0.000303	3.030146	0.513321	0.000030
 810	8.0496e+01	8.0442	11.559771	0.000242	2.415927	0.409269	0.000024
 811	8.0595e+01	8.0569	11.589507	0.000299	2.989198	0.506384	0.000030
 812	8.0695e+01	8.0635	11.616391	0.000270	2.702563	0.457827	0.000027
 813	8.0794e+01	8.0756	11.644091	0.000278	2.784459	0.471700	0.000028
 814	8.0894e+01	8.0845	11.678307	0.000344	3.439626	0.582688	0.000034
 815	8.0993e+01	8.0942	11.703563	0.000254	2.538771	0.430079	0.000025
 816	8.1093e+01	8.1060	11.737372	0.000340	3.398678	0.575752	0.000034
 817	8.1192e+01	8.1145	11.767923	0.000307	3.071094	0.520257	0.000031
 818	8.1291e+01	8.1268	11.794807	0.000270	2.702563	0.457827	0.000027
 819	8.1391e+01	8.1365	11.826173	0.000315	3.152990	0.534131	0.000032
 820	8.1490e+01	8.1433	11.854279	0.000283	2.825407	0.478637	0.000028
 821	8.1590e+01	8.1557	11.884830	0.000307	3.071094	0.520257	0.000031
 822	8.1689e+01	8.1644	11.914566	0.000299	2.989198	0.506384	0.000030
 823	8.1789e+01	8.1754	11.943895	0.000295	2.948250	0.499447	0.000029
 824	8.1888e+01	8.1860	11.977704	0.000340	3.398678	0.575752	0.000034
 825	8.1988e+01	8.1934	12.007033	0.000295	2.948250	0.499447	0.000029
 826	8.2088e+01	8.2053	12.039620	0.000328	3.275834	0.554941	0.000033
 827	8.2187e+01	8.2146	12.069763	0.000303	3.030146	0.513321	0.000030
 828	8.2287e+01	8.2218	12.096648	0.000270	2.702563	0.457827	0.000027
 829	8.2386e+01	8.2360	12.125569	0.000291	2.907303	0.492510	0.000029
 830	8.2486e+01	8.2436	12.155713	0.000303	3.030146	0.513321	0.000030
 831	8.2585e+01	8.2550	12.186671	0.000311	3.112042	0.527194	0.000031
 832	8.2684e+01	8.2661	12.213555	0.000270	2.702563	0.457827	0.000027
 833	8.2784e+01	8.2741	12.242884	0.000295	2.948250	0.499447	0.000029
 834	8.2883e+01	8.2845	12.268139	0.000254	2.538771	0.430079	0.000025
 835	8.2983e+01	8.2920	12.296246	0.000283	2.825407	0.478637	0.000028
 836	8.3082e+01	8.3014	12.322316	0.000262	2.620667	0.443953	0.000026
 837	8.3182e+01	8.3154	12.354903	0.000328	3.275834	0.554941	0.000033
 838	8.3281e+01	8.3228	12.377714	0.000229	2.293084	0.388459	0.000023
 839	8.3381e+01	8.3346	12.409080	0.000315	3.152990	0.534131	0.000032
 840	8.3481e+01	8.3439	12.437186	0.000283	2.825407	0.478637	0.000028
 841	8.3580e+01	8.3514	12.462442	0.000254	2.538771	0.430079	0.000025
 842	8.3680e+01	8.3632	12.492992	0.000307	3.071094	0.520257	0.000031
 843	8.3779e+01	8.3759	12.519877	0.000270	2.702563	0.457827	0.000027
 844	8.3879e+01	8.3828	12.546354	0.000266	2.661615	0.450890	0.000027
 845	8.3978e+01	8.3950	12.576090	0.000299	2.989198	0.506384	0.000030
 846	8.4078e+01	8.4045	12.603382	0.000274	2.743511	0.464763	0.000027
 847	8.4177e+01	8.4119	12.627415	0.000242	2.415927	0.409269	0.000024
 848	8.4276e+01	8.4241	12.656337	0.000291	2.907303	0.492510	0.000029
 849	8.4376e+01	8.4335	12.686073	0.000299	2.989198	0.506384	0.000030
 850	8.4475e+01	8.4415	12.714994	0.000291	2.907303	0.492510	0.000029
 851	8.4575e+01	8.4510	12.741064	0.000262	2.620667	0.443953	0.000026
 852	8.4674e+01	8.4625	12.769171	0.000283	2.825407	0.478637	0.000028
 853	8.4774e+01	8.4736	12.801758	0.000328	3.275834	0.554941	0.000033
 854	8.4874e+01	8.4855	12.823347	0.000217	2.170240	0.367649	0.000022
 855	8.4973e+01	8.4937	12.854713	0.000315	3.152990	0.534131	0.000032
 856	8.5073e+01	8.5023	12.882412	0.000278	2.784459	0.471700	0.000028
 857	8.5172e+01	8.5132	12.908074	0.000258	2.579719	0.437016	0.000026
 858	8.5272e+01	8.5233	12.937810	0.000299	2.989198	0.506384	0.000030
 859	8.5371e+01	8.5329	12.963880	0.000262	2.620667	0.443953	0.000026
 860	8.5471e+01	8.5435	12.991987	0.000283	2.825407	0.478637	0.000028
 861	8.5570e+01	8.5526	13.020501	0.000287	2.866355	0.485574	0.000029
 862	8.5669e+01	8.5626	13.045756	0.000254	2.538771	0.430079	0.000025
 863	8.5769e+01	8.5745	13.072641	0.000270	2.702563	0.457827	0.000027
 864	8.5868e+01	8.5827	13.104006	0.000315	3.152990	0.534131	0.000032
 865	8.5968e+01	8.5907	13.131298	0.000274	2.743511	0.464763	0.000027
 866	8.6067e+01	8.6018	13.158183	0.000270	2.702563	0.457827	0.000027
 867	8.6167e+01	8.6127	13.186289	0.000283	2.825407	0.478637	0.000028
 868	8.6266e+01	8.6225	13.209508	0.000233	2.334032	0.395396	0.000023
 869	8.6366e+01	8.6322	13.236393	0.000270	2.702563	0.457827	0.000027
 870	8.6466e+01	8.6428	13.264499	0.000283	2.825407	0.478637	0.000028
 871	8.6565e+01	8.6526	13.289347	0.000250	2.497823	0.423143	0.000025
 872	8.6665e+01	8.6603	13.319490	0.000303	3.030146	0.513321	0.000030
 873	8.6764e+01	8.6719	13.343931	0.000246	2.456875	0.416206	0.000025
 874	8.6864e+01	8.6798	13.370001	0.000262	2.620667	0.443953	0.000026
 875	8.6963e+01	8.6920	13.398108	0.000283	2.825407	0.478637	0.000028
 876	8.7063e+01	8.7032	13.427436	0.000295	2.948250	0.499447	0.000029
 877	8.7162e+01	8.7119	13.456358	0.000291	2.907303	0.492510	0.000029
 878	8.7261e+01	8.7256	13.485279	0.000291	2.907303	0.492510	0.000029
 879	8.7361e+01	8.7305	13.517052	0.000319	3.193938	0.541068	0.000032
 880	8.7460e+01	8.7424	13.539863	0.000229	2.293084	0.388459	0.000023
 881	8.7560e+01	8.7534	13.572450	0.000328	3.275834	0.554941	0.000033
 882	8.7659e+01	8.7629	13.604223	0.000319	3.193938	0.541068	0.000032
 883	8.7759e+01	8.7698	13.630293	0.000262	2.620667	0.443953	0.000026
 884	8.7859e+01	8.7817	13.655548	0.000254	2.538771	0.430079	0.000025
 885	8.7958e+01	8.7900	13.686913	0.000315	3.152990	0.534131	0.000032
 886	8.8058e+01	8.8026	13.710132	0.000233	2.334032	0.395396	0.000023
 887	8.8157e+01	8.8137	13.741905	0.000319	3.193938	0.541068	0.000032
 888	8.8257e+01	8.8218	13.769197	0.000274	2.743511	0.464763	0.000027
 889	8.8356e+01	8.8311	13.797711	0.000287	2.866355	0.485574	0.000029
 890	8.8456e+01	8.8407	13.826632	0.000291	2.907303	0.492510	0.000029
 891	8.8555e+01	8.8505	13.857590	0.000311	3.112042	0.527194	0.000031
 892	8.8654e+01	8.8589	13.889770	0.000323	3.234886	0.548005	0.000032
 893	8.8754e+01	8.8683	13.913803	0.000242	2.415927	0.409269	0.000024
 894	8.8853e+01	8.8808	13.941095	0.000274	2.743511	0.464763	0.000027
 895	8.8953e+01	8.8919	13.965943	0.000250	2.497823	0.423143	0.000025
 896	8.9052e+01	8.9003	13.995272	0.000295	2.948250	0.499447	0.000029
 897	8.9152e+01	8.9081	14.020934	0.000258	2.579719	0.437016	0.000026
 898	8.9251e+01	8.9191	14.046190	0.000254	2.538771	0.430079	0.000025
 899	8.9351e+01	8.9261	14.070223	0.000242	2.415927	0.409269	0.000024
 900	8.9451e+01	8.9384	14.094663	0.000246	2.456875	0.416206	0.000025
 901	8.9550e+01	8.9511	14.119919	0.000254	2.538771	0.430079	0.000025
 902	8.9650e+01	8.9572	14.144359	0.000246	2.456875	0.416206	0.000025
 903	8.9749e+01	8.9700	14.170429	0.000262	2.620667	0.443953	0.000026
 904	8.9849e+01	8.9813	14.195684	0.000254	2.538771	0.430079	0.000025
 905	8.9948e+01	8.9893	14.219717	0.000242	2.415927	0.409269	0.000024
 906	9.0047e+01	8.9978	14.245380	0.000258	2.579719	0.437016	0.000026
 907	9.0147e+01	9.0101	14.269006	0.000237	2.374980	0.402332	0.000024
 908	9.0246e+01	9.0217	14.291410	0.000225	2.252136	0.381522	0.000023
 909	9.0346e+01	9.0292	14.318702	0.000274	2.743511	0.464763	0.000027
 910	9.0445e+01	9.0386	14.341513	0.000229	2.293084	0.388459	0.000023
 911	9.0545e+01	9.0479	14.366361	0.000250	2.497823	0.423143	0.000025
 912	9.0644e+01	9.0610	14.389987	0.000237	2.374980	0.402332	0.000024
 913	9.0744e+01	9.0698	14.416871	0.000270	2.702563	0.457827	0.000027
 914	9.0844e+01	9.0780	14.440090	0.000233	2.334032	0.395396	0.000023
 915	9.0943e+01	9.0900	14.464530	0.000246	2.456875	0.416206	0.000025
 916	9.1043e+01	9.0988	14.491415	0.000270	2.702563	0.457827	0.000027
 917	9.1142e+01	9.1096	14.522373	0.000311	3.112042	0.527194	0.000031
 918	9.1242e+01	9.1187	14.544369	0.000221	2.211188	0.374585	0.000022
 919	9.1341e+01	9.1293	14.572476	0.000283	2.825407	0.478637	0.000028
 920	9.1441e+01	9.1376	14.598139	0.000258	2.579719	0.437016	0.000026
 921	9.1540e+01	9.1492	14.623801	0.000258	2.579719	0.437016	0.000026
 922	9.1639e+01	9.1577	14.648242	0.000246	2.456875	0.416206	0.000025
 923	9.1739e+01	9.1693	14.673090	0.000250	2.497823	0.423143	0.000025
 924	9.1838e+01	9.1824	14.700789	0.000278	2.784459	0.471700	0.000028
 925	9.1938e+01	9.1895	14.726452	0.000258	2.579719	0.437016	0.000026
 926	9.2037e+01	9.1998	14.753336	0.000270	2.702563	0.457827	0.000027
 927	9.2137e+01	9.2080	14.780221	0.000270	2.702563	0.457827	0.000027
 928	9.2237e+01	9.2188	14.805883	0.000258	2.579719	0.437016	0.000026
 929	9.2336e+01	9.2261	14.831546	0.000258	2.579719	0.437016	0.000026
 930	9.2436e+01	9.2420	14.855987	0.000246	2.456875	0.416206	0.000025
 931	9.2535e+01	9.2484	14.883686	0.000278	2.784459	0.471700	0.000028
 932	9.2635e+01	9.2559	14.906497	0.000229	2.293084	0.388459	0.000023
 933	9.2734e+01	9.2683	14.932974	0.000266	2.661615	0.450890	0.000027
 934	9.2834e+01	9.2761	14.962303	0.000295	2.948250	0.499447	0.000029
 935	9.2933e+01	9.2885	14.986336	0.000242	2.415927	0.409269	0.000024
 936	9.3032e+01	9.2981	15.011591	0.000254	2.538771	0.430079	0.000025
 937	9.3132e+01	9.3061	15.038476	0.000270	2.702563	0.457827	0.000027
 938	9.3231e+01	9.3171	15.066990	0.000287	2.866355	0.485574	0.000029
 939	9.3331e+01	9.3281	15.093467	0.000266	2.661615	0.450890	0.000027
 940	9.3430e+01	9.3350	15.120352	0.000270	2.702563	0.457827	0.000027
 941	9.3530e+01	9.3491	15.148051	0.000278	2.784459	0.471700	0.000028
 942	9.3629e+01	9.3568	15.169233	0.000213	2.129292	0.360712	0.000021
 943	9.3729e+01	9.3692	15.194896	0.000258	2.579719	0.437016	0.000026
 944	9.3829e+01	9.3755	15.221373	0.000266	2.661615	0.450890	0.000027
 945	9.3928e+01	9.3880	15.251923	0.000307	3.071094	0.520257	0.000031
 946	9.4028e+01	9.3974	15.271069	0.000192	1.924552	0.326028	0.000019
 947	9.4127e+01	9.4092	15.301619	0.000307	3.071094	0.520257	0.000031
 948	9.4227e+01	9.4205	15.323616	0.000221	2.211188	0.374585	0.000022
 949	9.4326e+01	9.4287	15.354574	0.000311	3.112042	0.527194	0.000031
 950	9.4425e+01	9.4351	15.381051	0.000266	2.661615	0.450890	0.000027
 951	9.4525e+01	9.4476	15.410380	0.000295	2.948250	0.499447	0.000029
 952	9.4624e+01	9.4565	15.438079	0.000278	2.784459	0.471700	0.000028
 953	9.4724e+01	9.4659	15.465778	0.000278	2.784459	0.471700	0.000028
 954	9.4823e+01	9.4784	15.490219	0.000246	2.456875	0.416206	0.000025
 955	9.4923e+01	9.4862	15.518733	0.000287	2.866355	0.485574	0.000029
 956	9.5022e+01	9.4965	15.545617	0.000270	2.702563	0.457827	0.000027
 957	9.5122e+01	9.5061	15.569243	0.000237	2.374980	0.402332	0.000024
 958	9.5222e+01	9.5166	15.596128	0.000270	2.702563	0.457827	0.000027
 959	9.5321e+01	9.5288	15.625457	0.000295	2.948250	0.499447	0.000029
 960	9.5421e+01	9.5374	15.650712	0.000254	2.538771	0.430079	0.000025
 961	9.5520e+01	9.5483	15.676374	0.000258	2.579719	0.437016	0.000026
 962	9.5620e+01	9.5563	15.700408	0.000242	2.415927	0.409269	0.000024
 963	9.5719e+01	9.5682	15.722404	0.000221	2.211188	0.374585	0.000022
 964	9.5819e+01	9.5767	15.748067	0.000258	2.579719	0.437016	0.000026
 965	9.5918e+01	9.5874	15.772507	0.000246	2.456875	0.416206	0.000025
 966	9.6017e+01	9.5947	15.796540	0.000242	2.415927	0.409269	0.000024
 967	9.6117e+01	9.6052	15.823425	0.000270	2.702563	0.457827	0.000027
 968	9.6216e+01	9.6162	15.847051	0.000237	2.374980	0.402332	0.000024
 969	9.6316e+01	9.6271	15.870269	0.000233	2.334032	0.395396	0.000023
 970	9.6415e+01	9.6375	15.900820	0.000307	3.071094	0.520257	0.000031
 971	9.6515e+01	9.6473	15.925668	0.000250	2.497823	0.423143	0.000025
 972	9.6615e+01	9.6582	15.949294	0.000237	2.374980	0.402332	0.000024
 973	9.6714e+01	9.6658	15.973734	0.000246	2.456875	0.416206	0.000025
 974	9.6814e+01	9.6740	15.998582	0.000250	2.497823	0.423143	0.000025
 975	9.6913e+01	9.6859	16.021801	0.000233	2.334032	0.395396	0.000023
 976	9.7013e+01	9.6937	16.045834	0.000242	2.415927	0.409269	0.000024
 977	9.7112e+01	9.7070	16.070682	0.000250	2.497823	0.423143	0.000025
 978	9.7212e+01	9.7156	16.097567	0.000270	2.702563	0.457827	0.000027
 979	9.7311e+01	9.7266	16.121600	0.000242	2.415927	0.409269	0.000024
 980	9.7410e+01	9.7354	16.150521	0.000291	2.907303	0.492510	0.000029
 981	9.7510e+01	9.7446	16.178220	0.000278	2.784459	0.471700	0.000028
 982	9.7609e+01	9.7559	16.211215	0.000332	3.316782	0.561878	0.000033
 983	9.7709e+01	9.7678	16.236878	0.000258	2.579719	0.437016	0.000026
 984	9.7808e+01	9.7742	16.265799	0.000291	2.907303	0.492510	0.000029
 985	9.7908e+01	9.7880	16.298386	0.000328	3.275834	0.554941	0.000033
 986	9.8007e+01	9.7968	16.323234	0.000250	2.497823	0.423143	0.000025
 987	9.8107e+01	9.8056	16.356229	0.000332	3.316782	0.561878	0.000033
 988	9.8207e+01	9.8163	16.385558	0.000295	2.948250	0.499447	0.000029
 989	9.8306e+01	9.8258	16.412035	0.000266	2.661615	0.450890	0.000027
 990	9.8406e+01	9.8344	16.440549	0.000287	2.866355	0.485574	0.000029
 991	9.8505e+01	9.8457	16.472729	0.000323	3.234886	0.548005	0.000032
 992	9.8605e+01	9.8562	16.503687	0.000311	3.112042	0.527194	0.000031
 993	9.8704e+01	9.8646	16.534645	0.000311	3.112042	0.527194	0.000031
 994	9.8803e+01	9.8755	16.559493	0.000250	2.497823	0.423143	0.000025
 995	9.8903e+01	9.8849	16.591266	0.000319	3.193938	0.541068	0.000032
 996	9.9002e+01	9.8951	16.621816	0.000307	3.071094	0.520257	0.000031
 997	9.9102e+01	9.9051	16.650330	0.000287	2.866355	0.485574	0.000029
 998	9.9201e+01	9.9148	16.679659	0.000295	2.948250	0.499447	0.000029
 999	9.9301e+01	9.9255	16.702470	0.000229	2.293084	0.388459	0.000023
1000	9.9400e+01	9.9336	16.730984	0.000287	2.866355	0.485574	0.000029
1001	9.9500e+01	9.9429	16.757869	0.000270	2.702563	0.457827	0.000027
1002	9.9600e+01	9.9561	16.788420	0.000307	3.071094	0.520257	0.000031
1003	9.9699e+01	9.9641	16.815712	0.000274	2.743511	0.464763	0.000027
1004	9.9799e+01	9.9770	16.840967	0.000254	2.538771	0.430079	0.000025
1005	9.9898e+01	9.9830	16.866629	0.000258	2.579719	0.437016	0.000026
1006	9.9998e+01	9.9937	16.891070	0.000246	2.456875	0.416206	0.000025
1007	1.0010e+02	9.9854	16.877220	0.000139	1.392229	0.235850	-0.000014
1008	1.0020e+02	9.9774	16.859297	0.000180	1.801709	0.305218	-0.000018
1009	1.0030e+02	9.9628	16.838523	0.000209	2.088344	0.353775	-0.000021
1010	1.0040e+02	9.9521	16.821414	0.000172	1.719813	0.291344	-0.000017
1011	1.0050e+02	9.9472	16.805935	0.000156	1.556021	0.263597	-0.000016
1012	1.0059e+02	9.9349	16.779458	0.000266	2.661615	0.450890	-0.000027
1013	1.0069e+02	9.9244	16.762757	0.000168	1.678865	0.284407	-0.000017
1014	1.0079e+02	9.9158	16.743205	0.000197	1.965500	0.332965	-0.000020
1015	1.0089e+02	9.9026	16.723652	0.000197	1.965500	0.332965	-0.000020
1016	1.0099e+02	9.8956	16.703692	0.000201	2.006448	0.339902	-0.000020
1017	1.0109e+02	9.8869	16.684547	0.000192	1.924552	0.326028	-0.000019
1018	1.0119e+02	9.8724	16.665402	0.000192	1.924552	0.326028	-0.000019
1019	1.0129e+02	9.8634	16.646664	0.000188	1.883604	0.319091	-0.000019
1020	1.0139e+02	9.8538	16.627927	0.000188	1.883604	0.319091	-0.000019
1021	1.0149e+02	9.8450	16.607152	0.000209	2.088344	0.353775	-0.000021
1022	1.0159e+02	9.8325	16.586785	0.000205	2.047396	0.346838	-0.000020
1023	1.0169e+02	9.8242	16.565196	0.000217	2.170240	0.367649	-0.000022
1024	1.0179e+02	9.8154	16.544829	0.000205	2.047396	0.346838	-0.000020
1025	1.0189e+02	9.8035	16.527313	0.000176	1.760761	0.298281	-0.000018
1026	1.0199e+02	9.7942	16.506131	0.000213	2.129292	0.360712	-0.000021
1027	1.0209e+02	9.7871	16.489837	0.000164	1.637917	0.277471	-0.000016
1028	1.0219e+02	9.7780	16.463768	0.000262	2.620667	0.443953	-0.000026
1029	1.0229e+02	9.7656	16.442586	0.000213	2.129292	0.360712	-0.000021
1030	1.0239e+02	9.7568	16.426292	0.000164	1.637917	0.277471	-0.000016
1031	1.0248e+02	9.7473	16.404296	0.000221	2.211188	0.374585	-0.000022
1032	1.0258e+02	9.7356	16.384743	0.000197	1.965500	0.332965	-0.000020
1033	1.0268e+02	9.7299	16.363154	0.000217	2.170240	0.367649	-0.000022
1034	1.0278e+02	9.7174	16.340750	0.000225	2.252136	0.381522	-0.000023
1035	1.0288e+02	9.7058	16.317124	0.000237	2.374980	0.402332	-0.000024
1036	1.0298e+02	9.6961	16.297164	0.000201	2.006448	0.339902	-0.000020
1037	1.0308e+02	9.6875	16.280463	0.000168	1.678865	0.284407	-0.000017
1038	1.0318e+02	9.6761	16.252764	0.000278	2.784459	0.471700	-0.000028
1039	1.0328e+02	9.6655	16.229953	0.000229	2.293084	0.388459	-0.000023
1040	1.0338e+02	9.6582	16.212845	0.000172	1.719813	0.291344	-0.000017
1041	1.0348e+02	9.6484	16.189219	0.000237	2.374980	0.402332	-0.000024
1042	1.0358e+02	9.6350	16.170074	0.000192	1.924552	0.326028	-0.000019
1043	1.0368e+02	9.6265	16.148077	0.000221	2.211188	0.374585	-0.000022
1044	1.0378e+02	9.6170	16.126081	0.000221	2.211188	0.374585	-0.000022
1045	1.0388e+02	9.6048	16.104084	0.000221	2.211188	0.374585	-0.000022
1046	1.0398e+02	9.5967	16.085346	0.000188	1.883604	0.319091	-0.000019
1047	1.0408e+02	9.5862	16.067016	0.000184	1.842657	0.312154	-0.000018
1048	1.0418e+02	9.5760	16.047056	0.000201	2.006448	0.339902	-0.000020
1049	1.0428e+02	9.5667	16.027911	0.000192	1.924552	0.326028	-0.000019
1050	1.0438e+02	9.5563	16.004693	0.000233	2.334032	0.395396	-0.000023
1051	1.0447e+02	9.5466	15.986362	0.000184	1.842657	0.312154	-0.000018
1052	1.0457e+02	9.5361	15.963551	0.000229	2.293084	0.388459	-0.000023
1053	1.0467e+02	9.5248	15.944813	0.000188	1.883604	0.319091	-0.000019
1054	1.0477e+02	9.5166	15.922817	0.000221	2.211188	0.374585	-0.000022
1055	1.0487e+02	9.5068	15.900005	0.000229	2.293084	0.388459	-0.000023
1056	1.0497e+02	9.4965	15.880453	0.000197	1.965500	0.332965	-0.000020
1057	1.0507e+02	9.4873	15.861715	0.000188	1.883604	0.319091	-0.000019
1058	1.0517e+02	9.4751	15.839311	0.000225	2.252136	0.381522	-0.000023
1059	1.0527e+02	9.4659	15.820981	0.000184	1.842657	0.312154	-0.000018
1060	1.0537e+02	9.4572	15.802243	0.000188	1.883604	0.319091	-0.000019
1061	1.0547e+02	9.4453	15.781876	0.000205	2.047396	0.346838	-0.000020
1062	1.0557e+02	9.4367	15.761916	0.000201	2.006448	0.339902	-0.000020
1063	1.0567e+02	9.4263	15.737476	0.000246	2.456875	0.416206	-0.000025
1064	1.0577e+02	9.4165	15.716701	0.000209	2.088344	0.353775	-0.000021
1065	1.0587e+02	9.4055	15.686965	0.000299	2.989198	0.506384	-0.000030
1066	1.0597e+02	9.3978	15.664154	0.000229	2.293084	0.388459	-0.000023
1067	1.0607e+02	9.3876	15.642972	0.000213	2.129292	0.360712	-0.000021
1068	1.0617e+02	9.3770	15.618939	0.000242	2.415927	0.409269	-0.000024
1069	1.0627e+02	9.3677	15.588388	0.000307	3.071094	0.520257	-0.000031
1070	1.0637e+02	9.3567	15.566392	0.000221	2.211188	0.374585	-0.000022
1071	1.0647e+02	9.3474	15.544803	0.000217	2.170240	0.367649	-0.000022
1072	1.0656e+02	9.3385	15.519955	0.000250	2.497823	0.423143	-0.000025
1073	1.0666e+02	9.3262	15.493070	0.000270	2.702563	0.457827	-0.000027
1074	1.0676e+02	9.3156	15.469037	0.000242	2.415927	0.409269	-0.000024
1075	1.0686e+02	9.3082	15.446226	0.000229	2.293084	0.388459	-0.000023
1076	1.0696e+02	9.2986	15.423822	0.000225	2.252136	0.381522	-0.000023
1077	1.0706e+02	9.2889	15.394493	0.000295	2.948250	0.499447	-0.000029
1078	1.0716e+02	9.2787	15.366387	0.000283	2.825407	0.478637	-0.000028
1079	1.0726e+02	9.2676	15.344390	0.000221	2.211188	0.374585	-0.000022
1080	1.0736e+02	9.2585	15.317913	0.000266	2.661615	0.450890	-0.000027
1081	1.0746e+02	9.2509	15.291028	0.000270	2.702563	0.457827	-0.000027
1082	1.0756e+02	9.2373	15.270254	0.000209	2.088344	0.353775	-0.000021
1083	1.0766e+02	9.2288	15.244999	0.000254	2.538771	0.430079	-0.000025
1084	1.0776e+02	9.2193	15.222187	0.000229	2.293084	0.388459	-0.000023
1085	1.0786e+02	9.2075	15.198562	0.000237	2.374980	0.402332	-0.000024
1086	1.0796e+02	9.1987	15.173714	0.000250	2.497823	0.423143	-0.000025
1087	1.0806e+02	9.1885	15.151717	0.000221	2.211188	0.374585	-0.000022
1088	1.0816e+02	9.1782	15.127277	0.000246	2.456875	0.416206	-0.000025
1089	1.0826e+02	9.1702	15.100799	0.000266	2.661615	0.450890	-0.000027
1090	1.0836e+02	9.1587	15.076359	0.000246	2.456875	0.416206	-0.000025
1091	1.0845e+02	9.1495	15.051918	0.000246	2.456875	0.416206	-0.000025
1092	1.0855e+02	9.1397	15.029514	0.000225	2.252136	0.381522	-0.000023
1093	1.0865e+02	9.1309	15.006703	0.000229	2.293084	0.388459	-0.000023
1094	1.0875e+02	9.1196	14.984299	0.000225	2.252136	0.381522	-0.000023
1095	1.0885e+02	9.1133	14.961488	0.000229	2.293084	0.388459	-0.000023
1096	1.0895e+02	9.0974	14.934604	0.000270	2.702563	0.457827	-0.000027
1097	1.0905e+02	9.0899	14.912200	0.000225	2.252136	0.381522	-0.000023
1098	1.0915e+02	9.0765	14.883278	0.000291	2.907303	0.492510	-0.000029
1099	1.0925e+02	9.0702	14.860875	0.000225	2.252136	0.381522	-0.000023
1100	1.0935e+02	9.0607	14.840100	0.000209	2.088344	0.353775	-0.000021
1101	1.0945e+02	9.0482	14.814030	0.000262	2.620667	0.443953	-0.000026
1102	1.0955e+02	9.0384	14.791626	0.000225	2.252136	0.381522	-0.000023
1103	1.0965e+02	9.0283	14.762298	0.000295	2.948250	0.499447	-0.000029
1104	1.0975e+02	9.0215	14.741931	0.000205	2.047396	0.346838	-0.000020
1105	1.0985e+02	9.0088	14.714639	0.000274	2.743511	0.464763	-0.000027
1106	1.0995e+02	8.9980	14.691827	0.000229	2.293084	0.388459	-0.000023
1107	1.1005e+02	8.9907	14.673090	0.000188	1.883604	0.319091	-0.000019
1108	1.1015e+02	8.9782	14.645798	0.000274	2.743511	0.464763	-0.000027
1109	1.1025e+02	8.9708	14.622579	0.000233	2.334032	0.395396	-0.000023
1110	1.1035e+02	8.9590	14.599768	0.000229	2.293084	0.388459	-0.000023
1111	1.1044e+02	8.9484	14.574513	0.000254	2.538771	0.430079	-0.000025
1112	1.1054e+02	8.9385	14.548850	0.000258	2.579719	0.437016	-0.000026
1113	1.1064e+02	8.9313	14.528483	0.000205	2.047396	0.346838	-0.000020
1114	1.1074e+02	8.9209	14.500376	0.000283	2.825407	0.478637	-0.000028
1115	1.1084e+02	8.9088	14.474714	0.000258	2.579719	0.437016	-0.000026
1116	1.1094e+02	8.9014	14.454754	0.000201	2.006448	0.339902	-0.000020
1117	1.1104e+02	8.8884	14.428684	0.000262	2.620667	0.443953	-0.000026
1118	1.1114e+02	8.8834	14.407095	0.000217	2.170240	0.367649	-0.000022
1119	1.1124e+02	8.8703	14.385099	0.000221	2.211188	0.374585	-0.000022
1120	1.1134e+02	8.8602	14.360251	0.000250	2.497823	0.423143	-0.000025
1121	1.1144e+02	8.8493	14.337847	0.000225	2.252136	0.381522	-0.000023
1122	1.1154e+02	8.8397	14.311777	0.000262	2.620667	0.443953	-0.000026
1123	1.1164e+02	8.8299	14.290188	0.000217	2.170240	0.367649	-0.000022
1124	1.1174e+02	8.8189	14.266155	0.000242	2.415927	0.409269	-0.000024
1125	1.1184e+02	8.8148	14.242121	0.000242	2.415927	0.409269	-0.000024
1126	1.1194e+02	8.8000	14.221347	0.000209	2.088344	0.353775	-0.000021
1127	1.1204e+02	8.7910	14.193648	0.000278	2.784459	0.471700	-0.000028
1128	1.1214e+02	8.7809	14.167170	0.000266	2.661615	0.450890	-0.000027
1129	1.1224e+02	8.7708	14.145174	0.000221	2.211188	0.374585	-0.000022
1130	1.1234e+02	8.7622	14.116660	0.000287	2.866355	0.485574	-0.000029
1131	1.1244e+02	8.7541	14.089775	0.000270	2.702563	0.457827	-0.000027
1132	1.1253e+02	8.7394	14.062076	0.000278	2.784459	0.471700	-0.000028
1133	1.1263e+02	8.7325	14.038857	0.000233	2.334032	0.395396	-0.000023
1134	1.1273e+02	8.7235	14.014824	0.000242	2.415927	0.409269	-0.000024
1135	1.1283e+02	8.7143	13.985903	0.000291	2.907303	0.492510	-0.000029
1136	1.1293e+02	8.7015	13.965536	0.000205	2.047396	0.346838	-0.000020
1137	1.1303e+02	8.6916	13.935800	0.000299	2.989198	0.506384	-0.000030
1138	1.1313e+02	8.6805	13.909730	0.000262	2.620667	0.443953	-0.000026
1139	1.1323e+02	8.6727	13.883253	0.000266	2.661615	0.450890	-0.000027
1140	1.1333e+02	8.6606	13.860034	0.000233	2.334032	0.395396	-0.000023
1141	1.1343e+02	8.6514	13.833964	0.000262	2.620667	0.443953	-0.000026
1142	1.1353e+02	8.6438	13.806672	0.000274	2.743511	0.464763	-0.000027
1143	1.1363e+02	8.6315	13.777751	0.000291	2.907303	0.492510	-0.000029
1144	1.1373e+02	8.6264	13.750051	0.000278	2.784459	0.471700	-0.000028
1145	1.1383e+02	8.6136	13.726833	0.000233	2.334032	0.395396	-0.000023
1146	1.1393e+02	8.6012	13.702800	0.000242	2.415927	0.409269	-0.000024
1147	1.1403e+02	8.5929	13.674693	0.000283	2.825407	0.478637	-0.000028
1148	1.1413e+02	8.5825	13.657177	0.000176	1.760761	0.298281	-0.000018
1149	1.1423e+02	8.5760	13.631107	0.000262	2.620667	0.443953	-0.000026
1150	1.1433e+02	8.5620	13.608704	0.000225	2.252136	0.381522	-0.000023
1151	1.1442e+02	8.5547	13.593225	0.000156	1.556021	0.263597	-0.000016
1152	1.1452e+02	8.5420	13.568784	0.000246	2.456875	0.416206	-0.000025
1153	1.1462e+02	8.5317	13.545158	0.000237	2.374980	0.402332	-0.000024
1154	1.1472e+02	8.5214	13.522347	0.000229	2.293084	0.388459	-0.000023
1155	1.1482e+02	8.5140	13.499128	0.000233	2.334032	0.395396	-0.000023
1156	1.1492e+02	8.5022	13.476725	0.000225	2.252136	0.381522	-0.000023
1157	1.1502e+02	8.4927	13.456358	0.000205	2.047396	0.346838	-0.000020
1158	1.1512e+02	8.4832	13.435990	0.000205	2.047396	0.346838	-0.000020
1159	1.1522e+02	8.4736	13.412365	0.000237	2.374980	0.402332	-0.000024
1160	1.1532e+02	8.4629	13.391590	0.000209	2.088344	0.353775	-0.000021
1161	1.1542e+02	8.4549	13.366742	0.000250	2.497823	0.423143	-0.000025
1162	1.1552e+02	8.4437	13.347597	0.000192	1.924552	0.326028	-0.000019
1163	1.1562e+02	8.4332	13.328452	0.000192	1.924552	0.326028	-0.000019
1164	1.1572e+02	8.4220	13.304826	0.000237	2.374980	0.402332	-0.000024
1165	1.1582e+02	8.4123	13.281200	0.000237	2.374980	0.402332	-0.000024
1166	1.1592e+02	8.4035	13.258389	0.000229	2.293084	0.388459	-0.000023
1167	1.1602e+02	8.3936	13.234763	0.000237	2.374980	0.402332	-0.000024
1168	1.1612e+02	8.3839	13.206249	0.000287	2.866355	0.485574	-0.000029
1169	1.1622e+02	8.3733	13.183438	0.000229	2.293084	0.388459	-0.000023
1170	1.1632e+02	8.3620	13.158183	0.000254	2.538771	0.430079	-0.000025
1171	1.1642e+02	8.3545	13.136186	0.000221	2.211188	0.374585	-0.000022
1172	1.1651e+02	8.3431	13.110931	0.000254	2.538771	0.430079	-0.000025
1173	1.1661e+02	8.3335	13.086490	0.000246	2.456875	0.416206	-0.000025
1174	1.1671e+02	8.3260	13.062865	0.000237	2.374980	0.402332	-0.000024
1175	1.1681e+02	8.3147	13.037609	0.000254	2.538771	0.430079	-0.000025
1176	1.1691e+02	8.3057	13.013576	0.000242	2.415927	0.409269	-0.000024
1177	1.1701e+02	8.2932	12.989136	0.000246	2.456875	0.416206	-0.000025
1178	1.1711e+02	8.2832	12.960622	0.000287	2.866355	0.485574	-0.000029
1179	1.1721e+02	8.2730	12.936996	0.000237	2.374980	0.402332	-0.000024
1180	1.1731e+02	8.2636	12.911741	0.000254	2.538771	0.430079	-0.000025
1181	1.1741e+02	8.2537	12.889337	0.000225	2.252136	0.381522	-0.000023
1182	1.1751e+02	8.2425	12.862452	0.000270	2.702563	0.457827	-0.000027
1183	1.1761e+02	8.2317	12.846973	0.000156	1.556021	0.263597	-0.000016
1184	1.1771e+02	8.2227	12.817237	0.000299	2.989198	0.506384	-0.000030
1185	1.1781e+02	8.2162	12.792797	0.000246	2.456875	0.416206	-0.000025
1186	1.1791e+02	8.2034	12.769578	0.000233	2.334032	0.395396	-0.000023
1187	1.1801e+02	8.1938	12.743508	0.000262	2.620667	0.443953	-0.000026
1188	1.1811e+02	8.1824	12.722734	0.000209	2.088344	0.353775	-0.000021
1189	1.1821e+02	8.1744	12.695442	0.000274	2.743511	0.464763	-0.000027
1190	1.1831e+02	8.1666	12.671816	0.000237	2.374980	0.402332	-0.000024
1191	1.1841e+02	8.1532	12.643709	0.000283	2.825407	0.478637	-0.000028
1192	1.1850e+02	8.1450	12.620898	0.000229	2.293084	0.388459	-0.000023
1193	1.1860e+02	8.1355	12.596865	0.000242	2.415927	0.409269	-0.000024
1194	1.1870e+02	8.1255	12.571609	0.000254	2.538771	0.430079	-0.000025
1195	1.1880e+02	8.1163	12.547984	0.000237	2.374980	0.402332	-0.000024
1196	1.1890e+02	8.1035	12.521914	0.000262	2.620667	0.443953	-0.000026
1197	1.1900e+02	8.0946	12.495844	0.000262	2.620667	0.443953	-0.000026
1198	1.1910e+02	8.0875	12.471811	0.000242	2.415927	0.409269	-0.000024
1199	1.1920e+02	8.0750	12.445333	0.000266	2.661615	0.450890	-0.000027
1200	1.1930e+02	8.0652	12.423337	0.000221	2.211188	0.374585	-0.000022
1201	1.1940e+02	8.0524	12.398489	0.000250	2.497823	0.423143	-0.000025
1202	1.1950e+02	8.0447	12.373234	0.000254	2.538771	0.430079	-0.000025
1203	1.1960e+02	8.0347	12.345534	0.000278	2.784459	0.471700	-0.000028
1204	1.1970e+02	8.0267	12.318650	0.000270	2.702563	0.457827	-0.000027
1205	1.1980e+02	8.0157	12.294617	0.000242	2.415927	0.409269	-0.000024
1206	1.1990e+02	8.0081	12.266917	0.000278	2.784459	0.471700	-0.000028
1207	1.2000e+02	7.9942	12.240847	0.000262	2.620667	0.443953	-0.000026
1208	1.2010e+02	7.9841	12.217629	0.000233	2.334032	0.395396	-0.000023
1209	1.2020e+02	7.9750	12.190337	0.000274	2.743511	0.464763	-0.000027
1210	1.2030e+02	7.9659	12.164267	0.000262	2.620667	0.443953	-0.000026
1211	1.2039e+02	7.9565	12.145122	0.000192	1.924552	0.326028	-0.000019
1212	1.2049e+02	7.9449	12.116201	0.000291	2.907303	0.492510	-0.000029
1213	1.2059e+02	7.9370	12.094611	0.000217	2.170240	0.367649	-0.000022
1214	1.2069e+02	7.9259	12.067319	0.000274	2.743511	0.464763	-0.000027
1215	1.2079e+02	7.9140	12.044508	0.000229	2.293084	0.388459	-0.000023
1216	1.2089e+02	7.9081	12.019253	0.000254	2.538771	0.430079	-0.000025
1217	1.2099e+02	7.8962	11.995220	0.000242	2.415927	0.409269	-0.000024
1218	1.2109e+02	7.8863	11.969965	0.000254	2.538771	0.430079	-0.000025
1219	1.2119e+02	7.8790	11.951634	0.000184	1.842657	0.312154	-0.000018
1220	1.2129e+02	7.8657	11.924750	0.000270	2.702563	0.457827	-0.000027
1221	1.2139e+02	7.8548	11.900309	0.000246	2.456875	0.416206	-0.000025
1222	1.2149e+02	7.8460	11.873017	0.000274	2.743511	0.464763	-0.000027
1223	1.2159e+02	7.8345	11.855094	0.000180	1.801709	0.305218	-0.000018
1224	1.2169e+02	7.8264	11.829431	0.000258	2.579719	0.437016	-0.000026
1225	1.2179e+02	7.8151	11.804583	0.000250	2.497823	0.423143	-0.000025
1226	1.2189e+02	7.8066	11.780550	0.000242	2.415927	0.409269	-0.000024
1227	1.2199e+02	7.7968	11.756517	0.000242	2.415927	0.409269	-0.000024
1228	1.2209e+02	7.7869	11.733299	0.000233	2.334032	0.395396	-0.000023
1229	1.2219e+02	7.7764	11.706821	0.000266	2.661615	0.450890	-0.000027
1230	1.2229e+02	7.7661	11.686047	0.000209	2.088344	0.353775	-0.000021
1231	1.2239e+02	7.7554	11.656718	0.000295	2.948250	0.499447	-0.000029
1232	1.2248e+02	7.7460	11.631463	0.000254	2.538771	0.430079	-0.000025
1233	1.2258e+02	7.7346	11.600912	0.000307	3.071094	0.520257	-0.000031
1234	1.2268e+02	7.7250	11.574435	0.000266	2.661615	0.450890	-0.000027
1235	1.2278e+02	7.7163	11.544292	0.000303	3.030146	0.513321	-0.000030
1236	1.2288e+02	7.7044	11.515778	0.000287	2.866355	0.485574	-0.000029
1237	1.2298e+02	7.6969	11.488486	0.000274	2.743511	0.464763	-0.000027
1238	1.2308e+02	7.6873	11.458750	0.000299	2.989198	0.506384	-0.000030
1239	1.2318e+02	7.6765	11.429828	0.000291	2.907303	0.492510	-0.000029
1240	1.2328e+02	7.6640	11.407424	0.000225	2.252136	0.381522	-0.000023
1241	1.2338e+02	7.6563	11.375652	0.000319	3.193938	0.541068	-0.000032
1242	1.2348e+02	7.6468	11.346323	0.000295	2.948250	0.499447	-0.000029
1243	1.2358e+02	7.6370	11.319031	0.000274	2.743511	0.464763	-0.000027
1244	1.2368e+02	7.6257	11.291332	0.000278	2.784459	0.471700	-0.000028
1245	1.2378e+02	7.6215	11.262411	0.000291	2.907303	0.492510	-0.000029
1246	1.2388e+02	7.6060	11.233082	0.000295	2.948250	0.499447	-0.000029
1247	1.2398e+02	7.5977	11.204568	0.000287	2.866355	0.485574	-0.000029
1248	1.2408e+02	7.5876	11.176869	0.000278	2.784459	0.471700	-0.000028
1249	1.2418e+02	7.5781	11.148355	0.000287	2.866355	0.485574	-0.000029
1250	1.2428e+02	7.5675	11.123099	0.000254	2.538771	0.430079	-0.000025
1251	1.2438e+02	7.5582	11.094585	0.000287	2.866355	0.485574	-0.000029
1252	1.2447e+02	7.5453	11.065664	0.000291	2.907303	0.492510	-0.000029
1253	1.2457e+02	7.5382	11.041224	0.000246	2.456875	0.416206	-0.000025
1254	1.2467e+02	7.5283	11.011488	0.000299	2.989198	0.506384	-0.000030
1255	1.2477e+02	7.5188	10.982974	0.000287	2.866355	0.485574	-0.000029
1256	1.2487e+02	7.5080	10.958533	0.000246	2.456875	0.416206	-0.000025
1257	1.2497e+02	7.4964	10.932463	0.000262	2.620667	0.443953	-0.000026
1258	1.2507e+02	7.4917	10.908430	0.000242	2.415927	0.409269	-0.000024
1259	1.2517e+02	7.4767	10.875028	0.000336	3.357730	0.568815	-0.000034
1260	1.2527e+02	7.4683	10.850180	0.000250	2.497823	0.423143	-0.000025
1261	1.2537e+02	7.4555	10.822073	0.000283	2.825407	0.478637	-0.000028
1262	1.2547e+02	7.4500	10.796003	0.000262	2.620667	0.443953	-0.000026
1263	1.2557e+02	7.4379	10.768304	0.000278	2.784459	0.471700	-0.000028
1264	1.2567e+02	7.4291	10.743456	0.000250	2.497823	0.423143	-0.000025
1265	1.2577e+02	7.4174	10.717794	0.000258	2.579719	0.437016	-0.000026
1266	1.2587e+02	7.4090	10.691316	0.000266	2.661615	0.450890	-0.000027
1267	1.2597e+02	7.3982	10.660766	0.000307	3.071094	0.520257	-0.000031
1268	1.2607e+02	7.3879	10.631844	0.000291	2.907303	0.492510	-0.000029
1269	1.2617e+02	7.3774	10.603738	0.000283	2.825407	0.478637	-0.000028
1270	1.2627e+02	7.3698	10.578482	0.000254	2.538771	0.430079	-0.000025
1271	1.2636e+02	7.3600	10.550376	0.000283	2.825407	0.478637	-0.000028
1272	1.2646e+02	7.3490	10.523898	0.000266	2.661615	0.450890	-0.000027
1273	1.2656e+02	7.3389	10.497014	0.000270	2.702563	0.457827	-0.000027
1274	1.2666e+02	7.3291	10.468500	0.000287	2.866355	0.485574	-0.000029
1275	1.2676e+02	7.3177	10.442023	0.000266	2.661615	0.450890	-0.000027
1276	1.2686e+02	7.3110	10.415953	0.000262	2.620667	0.443953	-0.000026
1277	1.2696e+02	7.2974	10.387846	0.000283	2.825407	0.478637	-0.000028
1278	1.2706e+02	7.2894	10.357295	0.000307	3.071094	0.520257	-0.000031
1279	1.2716e+02	7.2787	10.332855	0.000246	2.456875	0.416206	-0.000025
1280	1.2726e+02	7.2676	10.308414	0.000246	2.456875	0.416206	-0.000025
1281	1.2736e+02	7.2585	10.275012	0.000336	3.357730	0.568815	-0.000034
1282	1.2746e+02	7.2495	10.252201	0.000229	2.293084	0.388459	-0.000023
1283	1.2756e+02	7.2390	10.225316	0.000270	2.702563	0.457827	-0.000027
1284	1.2766e+02	7.2314	10.195173	0.000303	3.030146	0.513321	-0.000030
1285	1.2776e+02	7.2168	10.169510	0.000258	2.579719	0.437016	-0.000026
1286	1.2786e+02	7.2105	10.141811	0.000278	2.784459	0.471700	-0.000028
1287	1.2796e+02	7.2007	10.114519	0.000274	2.743511	0.464763	-0.000027
1288	1.2806e+02	7.1897	10.088449	0.000262	2.620667	0.443953	-0.000026
1289	1.2816e+02	7.1801	10.063601	0.000250	2.497823	0.423143	-0.000025
1290	1.2826e+02	7.1680	10.041605	0.000221	2.211188	0.374585	-0.000022
1291	1.2835e+02	7.1611	10.010647	0.000311	3.112042	0.527194	-0.000031
1292	1.2845e+02	7.1487	9.982948	0.000278	2.784459	0.471700	-0.000028
1293	1.2855e+02	7.1400	9.955656	0.000274	2.743511	0.464763	-0.000027
1294	1.2865e+02	7.1282	9.928364	0.000274	2.743511	0.464763	-0.000027
1295	1.2875e+02	7.1191	9.901072	0.000274	2.743511	0.464763	-0.000027
1296	1.2885e+02	7.1098	9.873372	0.000278	2.784459	0.471700	-0.000028
1297	1.2895e+02	7.0980	9.840785	0.000328	3.275834	0.554941	-0.000033
1298	1.2905e+02	7.0921	9.816344	0.000246	2.456875	0.416206	-0.000025
1299	1.2915e+02	7.0806	9.780498	0.000360	3.603417	0.610435	-0.000036
1300	1.2925e+02	7.0736	9.756465	0.000242	2.415927	0.409269	-0.000024
1301	1.2935e+02	7.0605	9.724692	0.000319	3.193938	0.541068	-0.000032
1302	1.2945e+02	7.0494	9.700252	0.000246	2.456875	0.416206	-0.000025
1303	1.2955e+02	7.0374	9.670109	0.000303	3.030146	0.513321	-0.000030
1304	1.2965e+02	7.0293	9.637928	0.000323	3.234886	0.548005	-0.000032
1305	1.2975e+02	7.0211	9.611044	0.000270	2.702563	0.457827	-0.000027
1306	1.2985e+02	7.0100	9.585789	0.000254	2.538771	0.430079	-0.000025
1307	1.2995e+02	7.0022	9.554016	0.000319	3.193938	0.541068	-0.000032
1308	1.3005e+02	6.9898	9.527539	0.000266	2.661615	0.450890	-0.000027
1309	1.3015e+02	6.9801	9.495359	0.000323	3.234886	0.548005	-0.000032
1310	1.3025e+02	6.9705	9.466437	0.000291	2.907303	0.492510	-0.000029
1311	1.3034e+02	6.9598	9.431813	0.000348	3.480573	0.589625	-0.000035
1312	1.3044e+02	6.9493	9.404929	0.000270	2.702563	0.457827	-0.000027
1313	1.3054e+02	6.9390	9.376822	0.000283	2.825407	0.478637	-0.000028
1314	1.3064e+02	6.9323	9.349937	0.000270	2.702563	0.457827	-0.000027
1315	1.3074e+02	6.9220	9.321831	0.000283	2.825407	0.478637	-0.000028
1316	1.3084e+02	6.9132	9.299019	0.000229	2.293084	0.388459	-0.000023
1317	1.3094e+02	6.9003	9.276208	0.000229	2.293084	0.388459	-0.000023
1318	1.3104e+02	6.8916	9.249731	0.000266	2.661615	0.450890	-0.000027
1319	1.3114e+02	6.8798	9.222439	0.000274	2.743511	0.464763	-0.000027
1320	1.3124e+02	6.8740	9.200443	0.000221	2.211188	0.374585	-0.000022
1321	1.3134e+02	6.8593	9.173558	0.000270	2.702563	0.457827	-0.000027
1322	1.3144e+02	6.8517	9.148303	0.000254	2.538771	0.430079	-0.000025
1323	1.3154e+02	6.8417	9.121011	0.000274	2.743511	0.464763	-0.000027
1324	1.3164e+02	6.8301	9.097385	0.000237	2.374980	0.402332	-0.000024
1325	1.3174e+02	6.8209	9.068871	0.000287	2.866355	0.485574	-0.000029
1326	1.3184e+02	6.8145	9.044838	0.000242	2.415927	0.409269	-0.000024
1327	1.3194e+02	6.8042	9.022841	0.000221	2.211188	0.374585	-0.000022
1328	1.3204e+02	6.7911	8.995549	0.000274	2.743511	0.464763	-0.000027
1329	1.3214e+02	6.7832	8.974775	0.000209	2.088344	0.353775	-0.000021
1330	1.3224e+02	6.7707	8.949520	0.000254	2.538771	0.430079	-0.000025
1331	1.3234e+02	6.7627	8.920598	0.000291	2.907303	0.492510	-0.000029
1332	1.3243e+02	6.7525	8.898194	0.000225	2.252136	0.381522	-0.000023
1333	1.3253e+02	6.7399	8.874976	0.000233	2.334032	0.395396	-0.000023
1334	1.3263e+02	6.7315	8.842796	0.000323	3.234886	0.548005	-0.000032
1335	1.3273e+02	6.7229	8.811838	0.000311	3.112042	0.527194	-0.000031
1336	1.3283e+02	6.7115	8.784546	0.000274	2.743511	0.464763	-0.000027
1337	1.3293e+02	6.7055	8.762142	0.000225	2.252136	0.381522	-0.000023
1338	1.3303e+02	6.6920	8.734035	0.000283	2.825407	0.478637	-0.000028
1339	1.3313e+02	6.6848	8.706336	0.000278	2.784459	0.471700	-0.000028
1340	1.3323e+02	6.6757	8.681895	0.000246	2.456875	0.416206	-0.000025
1341	1.3333e+02	6.6645	8.651345	0.000307	3.071094	0.520257	-0.000031
1342	1.3343e+02	6.6506	8.624053	0.000274	2.743511	0.464763	-0.000027
1343	1.3353e+02	6.6428	8.598390	0.000258	2.579719	0.437016	-0.000026
1344	1.3363e+02	6.6342	8.571913	0.000266	2.661615	0.450890	-0.000027
1345	1.3373e+02	6.6276	8.541362	0.000307	3.071094	0.520257	-0.000031
1346	1.3383e+02	6.6122	8.512034	0.000295	2.948250	0.499447	-0.000029
1347	1.3393e+02	6.6025	8.487593	0.000246	2.456875	0.416206	-0.000025
1348	1.3403e+02	6.5926	8.458264	0.000295	2.948250	0.499447	-0.000029
1349	1.3413e+02	6.5832	8.429750	0.000287	2.866355	0.485574	-0.000029
1350	1.3423e+02	6.5725	8.404088	0.000258	2.579719	0.437016	-0.000026
1351	1.3432e+02	6.5609	8.377203	0.000270	2.702563	0.457827	-0.000027
1352	1.3442e+02	6.5513	8.348282	0.000291	2.907303	0.492510	-0.000029
1353	1.3452e+02	6.5438	8.321805	0.000266	2.661615	0.450890	-0.000027
1354	1.3462e+02	6.5318	8.296957	0.000250	2.497823	0.423143	-0.000025
1355	1.3472e+02	6.5220	8.269665	0.000274	2.743511	0.464763	-0.000027
1356	1.3482e+02	6.5117	8.238707	0.000311	3.112042	0.527194	-0.000031
1357	1.3492e+02	6.5029	8.212637	0.000262	2.620667	0.443953	-0.000026
1358	1.3502e+02	6.4931	8.186160	0.000266	2.661615	0.450890	-0.000027
1359	1.3512e+02	6.4846	8.156424	0.000299	2.989198	0.506384	-0.000030
1360	1.3522e+02	6.4729	8.129539	0.000270	2.702563	0.457827	-0.000027
1361	1.3532e+02	6.4642	8.103876	0.000258	2.579719	0.437016	-0.000026
1362	1.3542e+02	6.4555	8.069252	0.000348	3.480573	0.589625	-0.000035
1363	1.3552e+02	6.4454	8.043590	0.000258	2.579719	0.437016	-0.000026
1364	1.3562e+02	6.4338	8.014261	0.000295	2.948250	0.499447	-0.000029
1365	1.3572e+02	6.4220	7.989413	0.000250	2.497823	0.423143	-0.000025
1366	1.3582e+02	6.4122	7.960899	0.000287	2.866355	0.485574	-0.000029
1367	1.3592e+02	6.4024	7.934015	0.000270	2.702563	0.457827	-0.000027
1368	1.3602e+02	6.3946	7.904686	0.000295	2.948250	0.499447	-0.000029
1369	1.3612e+02	6.3831	7.877394	0.000274	2.743511	0.464763	-0.000027
1370	1.3622e+02	6.3732	7.848065	0.000295	2.948250	0.499447	-0.000029
1371	1.3631e+02	6.3625	7.819144	0.000291	2.907303	0.492510	-0.000029
1372	1.3641e+02	6.3529	7.789408	0.000299	2.989198	0.506384	-0.000030
1373	1.3651e+02	6.3454	7.760487	0.000291	2.907303	0.492510	-0.000029
1374	1.3661e+02	6.3345	7.733195	0.000274	2.743511	0.464763	-0.000027
1375	1.3671e+02	6.3244	7.704681	0.000287	2.866355	0.485574	-0.000029
1376	1.3681e+02	6.3152	7.672501	0.000323	3.234886	0.548005	-0.000032
1377	1.3691e+02	6.3049	7.642765	0.000299	2.989198	0.506384	-0.000030
1378	1.3701e+02	6.2928	7.620768	0.000221	2.211188	0.374585	-0.000022
1379	1.3711e+02	6.2844	7.592254	0.000287	2.866355	0.485574	-0.000029
1380	1.3721e+02	6.2744	7.566999	0.000254	2.538771	0.430079	-0.000025
1381	1.3731e+02	6.2647	7.538485	0.000287	2.866355	0.485574	-0.000029
1382	1.3741e+02	6.2551	7.512008	0.000266	2.661615	0.450890	-0.000027
1383	1.3751e+02	6.2453	7.485530	0.000266	2.661615	0.450890	-0.000027
1384	1.3761e+02	6.2350	7.456609	0.000291	2.907303	0.492510	-0.000029
1385	1.3771e+02	6.2251	7.432983	0.000237	2.374980	0.402332	-0.000024
1386	1.3781e+02	6.2139	7.402025	0.000311	3.112042	0.527194	-0.000031
1387	1.3791e+02	6.2031	7.372697	0.000295	2.948250	0.499447	-0.000029
1388	1.3801e+02	6.1935	7.350700	0.000221	2.211188	0.374585	-0.000022
1389	1.3811e+02	6.1858	7.322186	0.000287	2.866355	0.485574	-0.000029
1390	1.3821e+02	6.1744	7.291228	0.000311	3.112042	0.527194	-0.000031
1391	1.3831e+02	6.1647	7.267602	0.000237	2.374980	0.402332	-0.000024
1392	1.3840e+02	6.1538	7.238681	0.000291	2.907303	0.492510	-0.000029
1393	1.3850e+02	6.1436	7.212611	0.000262	2.620667	0.443953	-0.000026
1394	1.3860e+02	6.1352	7.183690	0.000291	2.907303	0.492510	-0.000029
1395	1.3870e+02	6.1281	7.161286	0.000225	2.252136	0.381522	-0.000023
1396	1.3880e+02	6.1170	7.132772	0.000287	2.866355	0.485574	-0.000029
1397	1.3890e+02	6.1037	7.100999	0.000319	3.193938	0.541068	-0.000032
1398	1.3900e+02	6.0952	7.079003	0.000221	2.211188	0.374585	-0.000022
1399	1.3910e+02	6.0835	7.047230	0.000319	3.193938	0.541068	-0.000032
1400	1.3920e+02	6.0767	7.016272	0.000311	3.112042	0.527194	-0.000031
1401	1.3930e+02	6.0640	6.981648	0.000348	3.480573	0.589625	-0.000035
1402	1.3940e+02	6.0554	6.951912	0.000299	2.989198	0.506384	-0.000030
1403	1.3950e+02	6.0442	6.922990	0.000291	2.907303	0.492510	-0.000029
1404	1.3960e+02	6.0368	6.888366	0.000348	3.480573	0.589625	-0.000035
1405	1.3970e+02	6.0265	6.859038	0.000295	2.948250	0.499447	-0.000029
1406	1.3980e+02	6.0149	6.828080	0.000311	3.112042	0.527194	-0.000031
1407	1.3990e+02	6.0055	6.794677	0.000336	3.357730	0.568815	-0.000034
1408	1.4000e+02	5.9975	6.764127	0.000307	3.071094	0.520257	-0.000031
1409	1.4010e+02	5.9869	6.735613	0.000287	2.866355	0.485574	-0.000029
1410	1.4020e+02	5.9792	6.705877	0.000299	2.989198	0.506384	-0.000030
1411	1.4029e+02	5.9679	6.671253	0.000348	3.480573	0.589625	-0.000035
1412	1.4039e+02	5.9561	6.638258	0.000332	3.316782	0.561878	-0.000033
1413	1.4049e+02	5.9472	6.608115	0.000303	3.030146	0.513321	-0.000030
1414	1.4059e+02	5.9359	6.573083	0.000352	3.521521	0.596562	-0.000035
1415	1.4069e+02	5.9249	6.542940	0.000303	3.030146	0.513321	-0.000030
1416	1.4079e+02	5.9144	6.513204	0.000299	2.989198	0.506384	-0.000030
1417	1.4089e+02	5.9058	6.481024	0.000323	3.234886	0.548005	-0.000032
1418	1.4099e+02	5.8989	6.449658	0.000315	3.152990	0.534131	-0.000032
1419	1.4109e+02	5.8871	6.422774	0.000270	2.702563	0.457827	-0.000027
1420	1.4119e+02	5.8733	6.394260	0.000287	2.866355	0.485574	-0.000029
1421	1.4129e+02	5.8646	6.359636	0.000348	3.480573	0.589625	-0.000035
1422	1.4139e+02	5.8556	6.333566	0.000262	2.620667	0.443953	-0.000026
1423	1.4149e+02	5.8450	6.302608	0.000311	3.112042	0.527194	-0.000031
1424	1.4159e+02	5.8345	6.269613	0.000332	3.316782	0.561878	-0.000033
1425	1.4169e+02	5.8270	6.236211	0.000336	3.357730	0.568815	-0.000034
1426	1.4179e+02	5.8177	6.207289	0.000291	2.907303	0.492510	-0.000029
1427	1.4189e+02	5.8050	6.176739	0.000307	3.071094	0.520257	-0.000031
1428	1.4199e+02	5.7959	6.147410	0.000295	2.948250	0.499447	-0.000029
1429	1.4209e+02	5.7865	6.119303	0.000283	2.825407	0.478637	-0.000028
1430	1.4219e+02	5.7772	6.084679	0.000348	3.480573	0.589625	-0.000035
1431	1.4228e+02	5.7679	6.058202	0.000266	2.661615	0.450890	-0.000027
1432	1.4238e+02	5.7577	6.026837	0.000315	3.152990	0.534131	-0.000032
1433	1.4248e+02	5.7484	5.998730	0.000283	2.825407	0.478637	-0.000028
1434	1.4258e+02	5.7378	5.965735	0.000332	3.316782	0.561878	-0.000033
1435	1.4268e+02	5.7268	5.935592	0.000303	3.030146	0.513321	-0.000030
1436	1.4278e+02	5.7171	5.901783	0.000340	3.398678	0.575752	-0.000034
1437	1.4288e+02	5.7067	5.872861	0.000291	2.907303	0.492510	-0.000029
1438	1.4298e+02	5.6983	5.841903	0.000311	3.112042	0.527194	-0.000031
1439	1.4308e+02	5.6881	5.811353	0.000307	3.071094	0.520257	-0.000031
1440	1.4318e+02	5.6755	5.781209	0.000303	3.030146	0.513321	-0.000030
1441	1.4328e+02	5.6666	5.748622	0.000328	3.275834	0.554941	-0.000033
1442	1.4338e+02	5.6577	5.723774	0.000250	2.497823	0.423143	-0.000025
1443	1.4348e+02	5.6506	5.692816	0.000311	3.112042	0.527194	-0.000031
1444	1.4358e+02	5.6376	5.661043	0.000319	3.193938	0.541068	-0.000032
1445	1.4368e+02	5.6273	5.628456	0.000328	3.275834	0.554941	-0.000033
1446	1.4378e+02	5.6190	5.603200	0.000254	2.538771	0.430079	-0.000025
1447	1.4388e+02	5.6082	5.568576	0.000348	3.480573	0.589625	-0.000035
1448	1.4398e+02	5.5970	5.536804	0.000319	3.193938	0.541068	-0.000032
1449	1.4408e+02	5.5879	5.508697	0.000283	2.825407	0.478637	-0.000028
1450	1.4418e+02	5.5773	5.475295	0.000336	3.357730	0.568815	-0.000034
1451	1.4428e+02	5.5680	5.445152	0.000303	3.030146	0.513321	-0.000030
1452	1.4437e+02	5.5538	5.416638	0.000287	2.866355	0.485574	-0.000029
1453	1.4447e+02	5.5493	5.386494	0.000303	3.030146	0.513321	-0.000030
1454	1.4457e+02	5.5387	5.360424	0.000262	2.620667	0.443953	-0.000026
1455	1.4467e+02	5.5283	5.327022	0.000336	3.357730	0.568815	-0.000034
1456	1.4477e+02	5.5198	5.296879	0.000303	3.030146	0.513321	-0.000030
1457	1.4487e+02	5.5100	5.264699	0.000323	3.234886	0.548005	-0.000032
1458	1.4497e+02	5.4981	5.237814	0.000270	2.702563	0.457827	-0.000027
1459	1.4507e+02	5.4868	5.210522	0.000274	2.743511	0.464763	-0.000027
1460	1.4517e+02	5.4778	5.178750	0.000319	3.193938	0.541068	-0.000032
1461	1.4527e+02	5.4682	5.148606	0.000303	3.030146	0.513321	-0.000030
1462	1.4537e+02	5.4578	5.115611	0.000332	3.316782	0.561878	-0.000033
1463	1.4547e+02	5.4498	5.085468	0.000303	3.030146	0.513321	-0.000030
1464	1.4557e+02	5.4395	5.052066	0.000336	3.357730	0.568815	-0.000034
1465	1.4567e+02	5.4282	5.022737	0.000295	2.948250	0.499447	-0.000029
1466	1.4577e+02	5.4174	4.987299	0.000356	3.562469	0.603499	-0.000036
1467	1.4587e+02	5.4092	4.957563	0.000299	2.989198	0.506384	-0.000030
1468	1.4597e+02	5.4004	4.923346	0.000344	3.439626	0.582688	-0.000034
1469	1.4607e+02	5.3888	4.890758	0.000328	3.275834	0.554941	-0.000033
1470	1.4617e+02	5.3780	4.857764	0.000332	3.316782	0.561878	-0.000033
1471	1.4626e+02	5.3675	4.828842	0.000291	2.907303	0.492510	-0.000029
1472	1.4636e+02	5.3593	4.796662	0.000323	3.234886	0.548005	-0.000032
1473	1.4646e+02	5.3503	4.763260	0.000336	3.357730	0.568815	-0.000034
1474	1.4656e+02	5.3396	4.731487	0.000319	3.193938	0.541068	-0.000032
1475	1.4666e+02	5.3311	4.697678	0.000340	3.398678	0.575752	-0.000034
1476	1.4676e+02	5.3186	4.663461	0.000344	3.439626	0.582688	-0.000034
1477	1.4686e+02	5.3103	4.633725	0.000299	2.989198	0.506384	-0.000030
1478	1.4696e+02	5.3014	4.598694	0.000352	3.521521	0.596562	-0.000035
1479	1.4706e+02	5.2892	4.568958	0.000299	2.989198	0.506384	-0.000030
1480	1.4716e+02	5.2783	4.533519	0.000356	3.562469	0.603499	-0.000036
1481	1.4726e+02	5.2676	4.504598	0.000291	2.907303	0.492510	-0.000029
1482	1.4736e+02	5.2592	4.472825	0.000319	3.193938	0.541068	-0.000032
1483	1.4746e+02	5.2456	4.443496	0.000295	2.948250	0.499447	-0.000029
1484	1.4756e+02	5.2427	4.413353	0.000303	3.030146	0.513321	-0.000030
1485	1.4766e+02	5.2288	4.384432	0.000291	2.907303	0.492510	-0.000029
1486	1.4776e+02	5.2205	4.359584	0.000250	2.497823	0.423143	-0.000025
1487	1.4786e+02	5.2111	4.327404	0.000323	3.234886	0.548005	-0.000032
1488	1.4796e+02	5.1984	4.301334	0.000262	2.620667	0.443953	-0.000026
1489	1.4806e+02	5.1894	4.272412	0.000291	2.907303	0.492510	-0.000029
1490	1.4816e+02	5.1802	4.241454	0.000311	3.112042	0.527194	-0.000031
1491	1.4825e+02	5.1686	4.215792	0.000258	2.579719	0.437016	-0.000026
1492	1.4835e+02	5.1631	4.184426	0.000315	3.152990	0.534131	-0.000032
1493	1.4845e+02	5.1504	4.157542	0.000270	2.702563	0.457827	-0.000027
1494	1.4855e+02	5.1400	4.129028	0.000287	2.866355	0.485574	-0.000029
1495	1.4865e+02	5.1298	4.099699	0.000295	2.948250	0.499447	-0.000029
1496	1.4875e+02	5.1189	4.074037	0.000258	2.579719	0.437016	-0.000026
1497	1.4885e+02	5.1089	4.044708	0.000295	2.948250	0.499447	-0.000029
1498	1.4895e+02	5.0990	4.018231	0.000266	2.661615	0.450890	-0.000027
1499	1.4905e+02	5.0906	3.989717	0.000287	2.866355	0.485574	-0.000029
1500	1.4915e+02	5.0787	3.958759	0.000311	3.112042	0.527194	-0.000031
1501	1.4925e+02	5.0713	3.930245	0.000287	2.866355	0.485574	-0.000029
1502	1.4935e+02	5.0592	3.899287	0.000311	3.112042	0.527194	-0.000031
1503	1.4945e+02	5.0504	3.867921	0.000315	3.152990	0.534131	-0.000032
1504	1.4955e+02	5.0388	3.836556	0.000315	3.152990	0.534131	-0.000032
1505	1.4965e+02	5.0281	3.806005	0.000307	3.071094	0.520257	-0.000031
1506	1.4975e+02	5.0195	3.777491	0.000287	2.866355	0.485574	-0.000029
1507	1.4985e+02	5.0071	3.744904	0.000328	3.275834	0.554941	-0.000033
1508	1.4995e+02	5.0040	3.711502	0.000336	3.357730	0.568815	-0.000034
1509	1.5005e+02	4.9916	3.681766	0.000299	2.989198	0.506384	-0.000030
1510	1.5015e+02	4.9794	3.649586	0.000323	3.234886	0.548005	-0.000032
1511	1.5025e+02	4.9725	3.622294	0.000274	2.743511	0.464763	-0.000027
1512	1.5034e+02	4.9597	3.589299	0.000332	3.316782	0.561878	-0.000033
1513	1.5044e+02	4.9512	3.559156	0.000303	3.030146	0.513321	-0.000030
1514	1.5054e+02	4.9409	3.524939	0.000344	3.439626	0.582688	-0.000034
1515	1.5064e+02	4.9303	3.496832	0.000283	2.825407	0.478637	-0.000028
1516	1.5074e+02	4.9196	3.469948	0.000270	2.702563	0.457827	-0.000027
1517	1.5084e+02	4.9139	3.437360	0.000328	3.275834	0.554941	-0.000033
1518	1.5094e+02	4.9026	3.404773	0.000328	3.275834	0.554941	-0.000033
1519	1.5104e+02	4.8943	3.371371	0.000336	3.357730	0.568815	-0.000034
1520	1.5114e+02	4.8808	3.340820	0.000307	3.071094	0.520257	-0.000031
1521	1.5124e+02	4.8736	3.313935	0.000270	2.702563	0.457827	-0.000027
1522	1.5134e+02	4.8615	3.281755	0.000323	3.234886	0.548005	-0.000032
1523	1.5144e+02	4.8528	3.251612	0.000303	3.030146	0.513321	-0.000030
1524	1.5154e+02	4.8409	3.220654	0.000311	3.112042	0.527194	-0.000031
1525	1.5164e+02	4.8319	3.188066	0.000328	3.275834	0.554941	-0.000033
1526	1.5174e+02	4.8225	3.156294	0.000319	3.193938	0.541068	-0.000032
1527	1.5184e+02	4.8120	3.122892	0.000336	3.357730	0.568815	-0.000034
1528	1.5194e+02	4.8034	3.098858	0.000242	2.415927	0.409269	-0.000024
1529	1.5204e+02	4.7932	3.064234	0.000348	3.480573	0.589625	-0.000035
1530	1.5214e+02	4.7836	3.031647	0.000328	3.275834	0.554941	-0.000033
1531	1.5224e+02	4.7732	2.998652	0.000332	3.316782	0.561878	-0.000033
1532	1.5233e+02	4.7651	2.968102	0.000307	3.071094	0.520257	-0.000031
1533	1.5243e+02	4.7524	2.938773	0.000295	2.948250	0.499447	-0.000029
1534	1.5253e+02	4.7440	2.906185	0.000328	3.275834	0.554941	-0.000033
1535	1.5263e+02	4.7324	2.876857	0.000295	2.948250	0.499447	-0.000029
1536	1.5273e+02	4.7211	2.844677	0.000323	3.234886	0.548005	-0.000032
1537	1.5283e+02	4.7095	2.811275	0.000336	3.357730	0.568815	-0.000034
1538	1.5293e+02	4.7039	2.779095	0.000323	3.234886	0.548005	-0.000032
1539	1.5303e+02	4.6929	2.744470	0.000348	3.480573	0.589625	-0.000035
1540	1.5313e+02	4.6832	2.712698	0.000319	3.193938	0.541068	-0.000032
1541	1.5323e+02	4.6749	2.682554	0.000303	3.030146	0.513321	-0.000030
1542	1.5333e+02	4.6640	2.647116	0.000356	3.562469	0.603499	-0.000036
1543	1.5343e+02	4.6525	2.616972	0.000303	3.030146	0.513321	-0.000030
1544	1.5353e+02	4.6432	2.582348	0.000348	3.480573	0.589625	-0.000035
1545	1.5363e+02	4.6328	2.555056	0.000274	2.743511	0.464763	-0.000027
1546	1.5373e+02	4.6246	2.520839	0.000344	3.439626	0.582688	-0.000034
1547	1.5383e+02	4.6099	2.489881	0.000311	3.112042	0.527194	-0.000031
1548	1.5393e+02	4.6026	2.460960	0.000291	2.907303	0.492510	-0.000029
1549	1.5403e+02	4.5929	2.425929	0.000352	3.521521	0.596562	-0.000035
1550	1.5413e+02	4.5834	2.398637	0.000274	2.743511	0.464763	-0.000027
1551	1.5422e+02	4.5743	2.369715	0.000291	2.907303	0.492510	-0.000029
1552	1.5432e+02	4.5625	2.338350	0.000315	3.152990	0.534131	-0.000032
1553	1.5442e+02	4.5525	2.307799	0.000307	3.071094	0.520257	-0.000031
1554	1.5452e+02	4.5435	2.277656	0.000303	3.030146	0.513321	-0.000030
1555	1.5462e+02	4.5367	2.243032	0.000348	3.480573	0.589625	-0.000035
1556	1.5472e+02	4.5245	2.211259	0.000319	3.193938	0.541068	-0.000032
1557	1.5482e+02	4.5148	2.184782	0.000266	2.661615	0.450890	-0.000027
1558	1.5492e+02	4.5044	2.154231	0.000307	3.071094	0.520257	-0.000031
1559	1.5502e+02	4.4942	2.122458	0.000319	3.193938	0.541068	-0.000032
1560	1.5512e+02	4.4833	2.089056	0.000336	3.357730	0.568815	-0.000034
1561	1.5522e+02	4.4717	2.061764	0.000274	2.743511	0.464763	-0.000027
1562	1.5532e+02	4.4653	2.028770	0.000332	3.316782	0.561878	-0.000033
1563	1.5542e+02	4.4558	2.001885	0.000270	2.702563	0.457827	-0.000027
1564	1.5552e+02	4.4437	1.972964	0.000291	2.907303	0.492510	-0.000029
1565	1.5562e+02	4.4333	1.937525	0.000356	3.562469	0.603499	-0.000036
1566	1.5572e+02	4.4233	1.900457	0.000373	3.726261	0.631246	-0.000037
1567	1.5582e+02	4.4155	1.869499	0.000311	3.112042	0.527194	-0.000031
1568	1.5592e+02	4.4032	1.835689	0.000340	3.398678	0.575752	-0.000034
1569	1.5602e+02	4.3932	1.801472	0.000344	3.439626	0.582688	-0.000034
1570	1.5612e+02	4.3844	1.762368	0.000393	3.931001	0.665930	-0.000039
1571	1.5622e+02	4.3741	1.732632	0.000299	2.989198	0.506384	-0.000030
1572	1.5631e+02	4.3633	1.694749	0.000381	3.808157	0.645119	-0.000038
1573	1.5641e+02	4.3548	1.661754	0.000332	3.316782	0.561878	-0.000033
1574	1.5651e+02	4.3437	1.628759	0.000332	3.316782	0.561878	-0.000033
1575	1.5661e+02	4.3349	1.593320	0.000356	3.562469	0.603499	-0.000036
1576	1.5671e+02	4.3243	1.558696	0.000348	3.480573	0.589625	-0.000035
1577	1.5681e+02	4.3168	1.523665	0.000352	3.521521	0.596562	-0.000035
1578	1.5691e+02	4.3041	1.487411	0.000364	3.644365	0.617372	-0.000036
1579	1.5701e+02	4.2986	1.453602	0.000340	3.398678	0.575752	-0.000034
1580	1.5711e+02	4.2841	1.414497	0.000393	3.931001	0.665930	-0.000039
1581	1.5721e+02	4.2756	1.381910	0.000328	3.275834	0.554941	-0.000033
1582	1.5731e+02	4.2653	1.345656	0.000364	3.644365	0.617372	-0.000036
1583	1.5741e+02	4.2571	1.309810	0.000360	3.603417	0.610435	-0.000036
1584	1.5751e+02	4.2422	1.276408	0.000336	3.357730	0.568815	-0.000034
1585	1.5761e+02	4.2332	1.240562	0.000360	3.603417	0.610435	-0.000036
1586	1.5771e+02	4.2242	1.205123	0.000356	3.562469	0.603499	-0.000036
1587	1.5781e+02	4.2188	1.175387	0.000299	2.989198	0.506384	-0.000030
1588	1.5791e+02	4.2047	1.138726	0.000369	3.685313	0.624309	-0.000037
1589	1.5801e+02	4.1951	1.108583	0.000303	3.030146	0.513321	-0.000030
1590	1.5811e+02	4.1882	1.068663	0.000401	4.012897	0.679803	-0.000040
1591	1.5821e+02	4.1758	1.037705	0.000311	3.112042	0.527194	-0.000031
1592	1.5830e+02	4.1628	1.000637	0.000373	3.726261	0.631246	-0.000037
1593	1.5840e+02	4.1544	0.968864	0.000319	3.193938	0.541068	-0.000032
1594	1.5850e+02	4.1446	0.931389	0.000377	3.767209	0.638182	-0.000038
1595	1.5860e+02	4.1364	0.901245	0.000303	3.030146	0.513321	-0.000030
1596	1.5870e+02	4.1271	0.867436	0.000340	3.398678	0.575752	-0.000034
1597	1.5880e+02	4.1174	0.827516	0.000401	4.012897	0.679803	-0.000040
1598	1.5890e+02	4.1028	0.799410	0.000283	2.825407	0.478637	-0.000028
1599	1.5900e+02	4.0938	0.762342	0.000373	3.726261	0.631246	-0.000037
1600	1.5910e+02	4.0871	0.732606	0.000299	2.989198	0.506384	-0.000030
1601	1.5920e+02	4.0746	0.693908	0.000389	3.890053	0.658993	-0.000039
1602	1.5930e+02	4.0659	0.658469	0.000356	3.562469	0.603499	-0.000036
1603	1.5940e+02	4.0569	0.627104	0.000315	3.152990	0.534131	-0.000032
1604	1.5950e+02	4.0451	0.590850	0.000364	3.644365	0.617372	-0.000036
1605	1.5960e+02	4.0366	0.554190	0.000369	3.685313	0.624309	-0.000037
1606	1.5970e+02	4.0261	0.522417	0.000319	3.193938	0.541068	-0.000032
1607	1.5980e+02	4.0182	0.487385	0.000352	3.521521	0.596562	-0.000035
1608	1.5990e+02	4.0088	0.453576	0.000340	3.398678	0.575752	-0.000034
1609	1.6000e+02	3.9936	0.420581	0.000332	3.316782	0.561878	-0.000033
1610	1.6010e+02	3.9837	0.384328	0.000364	3.644365	0.617372	-0.000036
1611	1.6019e+02	3.9760	0.353777	0.000307	3.071094	0.520257	-0.000031
1612	1.6029e+02	3.9687	0.319153	0.000348	3.480573	0.589625	-0.000035
1613	1.6039e+02	3.9582	0.283307	0.000360	3.603417	0.610435	-0.000036
1614	1.6049e+02	3.9478	0.248683	0.000348	3.480573	0.589625	-0.000035
1615	1.6059e+02	3.9375	0.216503	0.000323	3.234886	0.548005	-0.000032
1616	1.6069e+02	3.9260	0.184730	0.000319	3.193938	0.541068	-0.000032
1617	1.6079e+02	3.9136	0.145218	0.000397	3.971949	0.672866	-0.000040
1618	1.6089e+02	3.9052	0.111408	0.000340	3.398678	0.575752	-0.000034
1619	1.6099e+02	3.8962	0.078821	0.000328	3.275834	0.554941	-0.000033
1620	1.6109e+02	3.8832	0.042975	0.000360	3.603417	0.610435	-0.000036
1621	1.6119e+02	3.8766	0.007536	0.000356	3.562469	0.603499	-0.000036
1622	1.6129e+02	3.8654	-0.023422	0.000311	3.112042	0.527194	-0.000031
1623	1.6139e+02	3.8548	-0.059676	0.000364	3.644365	0.617372	-0.000036
1624	1.6149e+02	3.8451	-0.091448	0.000319	3.193938	0.541068	-0.000032
1625	1.6159e+02	3.8354	-0.122406	0.000311	3.112042	0.527194	-0.000031
1626	1.6169e+02	3.8300	-0.159067	0.000369	3.685313	0.624309	-0.000037
1627	1.6179e+02	3.8177	-0.192469	0.000336	3.357730	0.568815	-0.000034
1628	1.6189e+02	3.8042	-0.225871	0.000336	3.357730	0.568815	-0.000034
1629	1.6199e+02	3.7967	-0.260496	0.000348	3.480573	0.589625	-0.000035
1630	1.6209e+02	3.7868	-0.299193	0.000389	3.890053	0.658993	-0.000039
1631	1.6219e+02	3.7786	-0.330558	0.000315	3.152990	0.534131	-0.000032
1632	1.6228e+02	3.7672	-0.366405	0.000360	3.603417	0.610435	-0.000036
1633	1.6238e+02	3.7563	-0.401029	0.000348	3.480573	0.589625	-0.000035
1634	1.6248e+02	3.7486	-0.440134	0.000393	3.931001	0.665930	-0.000039
1635	1.6258e+02	3.7356	-0.479239	0.000393	3.931001	0.665930	-0.000039
1636	1.6268e+02	3.7258	-0.510604	0.000315	3.152990	0.534131	-0.000032
1637	1.6278e+02	3.7205	-0.548079	0.000377	3.767209	0.638182	-0.000038
1638	1.6288e+02	3.7066	-0.584740	0.000369	3.685313	0.624309	-0.000037
1639	1.6298e+02	3.6975	-0.622216	0.000377	3.767209	0.638182	-0.000038
1640	1.6308e+02	3.6871	-0.658877	0.000369	3.685313	0.624309	-0.000037
1641	1.6318e+02	3.6776	-0.693908	0.000352	3.521521	0.596562	-0.000035
1642	1.6328e+02	3.6671	-0.727717	0.000340	3.398678	0.575752	-0.000034
1643	1.6338e+02	3.6572	-0.761934	0.000344	3.439626	0.582688	-0.000034
1644	1.6348e+02	3.6495	-0.802668	0.000409	4.094792	0.693677	-0.000041
1645	1.6358e+02	3.6385	-0.839329	0.000369	3.685313	0.624309	-0.000037
1646	1.6368e+02	3.6265	-0.877620	0.000385	3.849105	0.652056	-0.000038
1647	1.6378e+02	3.6165	-0.913058	0.000356	3.562469	0.603499	-0.000036
1648	1.6388e+02	3.6069	-0.948904	0.000360	3.603417	0.610435	-0.000036
1649	1.6398e+02	3.5952	-0.981899	0.000332	3.316782	0.561878	-0.000033
1650	1.6408e+02	3.5871	-1.018560	0.000369	3.685313	0.624309	-0.000037
1651	1.6418e+02	3.5802	-1.049111	0.000307	3.071094	0.520257	-0.000031
1652	1.6427e+02	3.5683	-1.084142	0.000352	3.521521	0.596562	-0.000035
1653	1.6437e+02	3.5583	-1.113878	0.000299	2.989198	0.506384	-0.000030
1654	1.6447e+02	3.5464	-1.148502	0.000348	3.480573	0.589625	-0.000035
1655	1.6457e+02	3.5368	-1.180682	0.000323	3.234886	0.548005	-0.000032
1656	1.6467e+02	3.5281	-1.209604	0.000291	2.907303	0.492510	-0.000029
1657	1.6477e+02	3.5177	-1.245857	0.000364	3.644365	0.617372	-0.000036
1658	1.6487e+02	3.5093	-1.277223	0.000315	3.152990	0.534131	-0.000032
1659	1.6497e+02	3.5031	-1.313069	0.000360	3.603417	0.610435	-0.000036
1660	1.6507e+02	3.4881	-1.341990	0.000291	2.907303	0.492510	-0.000029
1661	1.6517e+02	3.4785	-1.377021	0.000352	3.521521	0.596562	-0.000035
1662	1.6527e+02	3.4689	-1.407980	0.000311	3.112042	0.527194	-0.000031
1663	1.6537e+02	3.4563	-1.438123	0.000303	3.030146	0.513321	-0.000030
1664	1.6547e+02	3.4516	-1.469896	0.000319	3.193938	0.541068	-0.000032
1665	1.6557e+02	3.4377	-1.501668	0.000319	3.193938	0.541068	-0.000032
1666	1.6567e+02	3.4294	-1.536292	0.000348	3.480573	0.589625	-0.000035
1667	1.6577e+02	3.4191	-1.569695	0.000336	3.357730	0.568815	-0.000034
1668	1.6587e+02	3.4084	-1.598209	0.000287	2.866355	0.485574	-0.000029
1669	1.6597e+02	3.3984	-1.637313	0.000393	3.931001	0.665930	-0.000039
1670	1.6607e+02	3.3849	-1.673567	0.000364	3.644365	0.617372	-0.000036
1671	1.6616e+02	3.3781	-1.704525	0.000311	3.112042	0.527194	-0.000031
1672	1.6626e+02	3.3675	-1.743222	0.000389	3.890053	0.658993	-0.000039
1673	1.6636e+02	3.3599	-1.777032	0.000340	3.398678	0.575752	-0.000034
1674	1.6646e+02	3.3489	-1.808397	0.000315	3.152990	0.534131	-0.000032
1675	1.6656e+02	3.3395	-1.846280	0.000381	3.808157	0.645119	-0.000038
1676	1.6666e+02	3.3288	-1.882534	0.000364	3.644365	0.617372	-0.000036
1677	1.6676e+02	3.3207	-1.916750	0.000344	3.439626	0.582688	-0.000034
1678	1.6686e+02	3.3098	-1.953411	0.000369	3.685313	0.624309	-0.000037
1679	1.6696e+02	3.2995	-1.984369	0.000311	3.112042	0.527194	-0.000031
1680	1.6706e+02	3.2922	-2.022659	0.000385	3.849105	0.652056	-0.000038
1681	1.6716e+02	3.2787	-2.057284	0.000348	3.480573	0.589625	-0.000035
1682	1.6726e+02	3.2681	-2.093130	0.000360	3.603417	0.610435	-0.000036
1683	1.6736e+02	3.2607	-2.128569	0.000356	3.562469	0.603499	-0.000036
1684	1.6746e+02	3.2508	-2.163600	0.000352	3.521521	0.596562	-0.000035
1685	1.6756e+02	3.2384	-2.198224	0.000348	3.480573	0.589625	-0.000035
1686	1.6766e+02	3.2304	-2.232848	0.000348	3.480573	0.589625	-0.000035
1687	1.6776e+02	3.2188	-2.267880	0.000352	3.521521	0.596562	-0.000035
1688	1.6786e+02	3.2104	-2.302911	0.000352	3.521521	0.596562	-0.000035
1689	1.6796e+02	3.2018	-2.334684	0.000319	3.193938	0.541068	-0.000032
1690	1.6806e+02	3.1934	-2.371752	0.000373	3.726261	0.631246	-0.000037
1691	1.6816e+02	3.1814	-2.405969	0.000344	3.439626	0.582688	-0.000034
1692	1.6825e+02	3.1683	-2.441408	0.000356	3.562469	0.603499	-0.000036
1693	1.6835e+02	3.1600	-2.476846	0.000356	3.562469	0.603499	-0.000036
1694	1.6845e+02	3.1478	-2.514322	0.000377	3.767209	0.638182	-0.000038
1695	1.6855e+02	3.1383	-2.549761	0.000356	3.562469	0.603499	-0.000036
1696	1.6865e+02	3.1290	-2.586014	0.000364	3.644365	0.617372	-0.000036
1697	1.6875e+02	3.1203	-2.620638	0.000348	3.480573	0.589625	-0.000035
1698	1.6885e+02	3.1084	-2.656484	0.000360	3.603417	0.610435	-0.000036
1699	1.6895e+02	3.1029	-2.695182	0.000389	3.890053	0.658993	-0.000039
1700	1.6905e+02	3.0898	-2.724918	0.000299	2.989198	0.506384	-0.000030
1701	1.6915e+02	3.0788	-2.760357	0.000356	3.562469	0.603499	-0.000036
1702	1.6925e+02	3.0651	-2.795388	0.000352	3.521521	0.596562	-0.000035
1703	1.6935e+02	3.0627	-2.834086	0.000389	3.890053	0.658993	-0.000039
1704	1.6945e+02	3.0517	-2.870747	0.000369	3.685313	0.624309	-0.000037
1705	1.6955e+02	3.0428	-2.909444	0.000389	3.890053	0.658993	-0.000039
1706	1.6965e+02	3.0302	-2.945290	0.000360	3.603417	0.610435	-0.000036
1707	1.6975e+02	3.0202	-2.978692	0.000336	3.357730	0.568815	-0.000034
1708	1.6985e+02	3.0119	-3.014539	0.000360	3.603417	0.610435	-0.000036
1709	1.6995e+02	3.0026	-3.051199	0.000369	3.685313	0.624309	-0.000037
1710	1.7005e+02	2.9899	-3.091119	0.000401	4.012897	0.679803	-0.000040
1711	1.7015e+02	2.9789	-3.126558	0.000356	3.562469	0.603499	-0.000036
1712	1.7024e+02	2.9717	-3.164033	0.000377	3.767209	0.638182	-0.000038
1713	1.7034e+02	2.9618	-3.197028	0.000332	3.316782	0.561878	-0.000033
1714	1.7044e+02	2.9492	-3.232874	0.000360	3.603417	0.610435	-0.000036
1715	1.7054e+02	2.9395	-3.269942	0.000373	3.726261	0.631246	-0.000037
1716	1.7064e+02	2.9295	-3.302937	0.000332	3.316782	0.561878	-0.000033
1717	1.7074e+02	2.9228	-3.339191	0.000364	3.644365	0.617372	-0.000036
1718	1.7084e+02	2.9110	-3.372593	0.000336	3.357730	0.568815	-0.000034
1719	1.7094e+02	2.8990	-3.408846	0.000364	3.644365	0.617372	-0.000036
1720	1.7104e+02	2.8950	-3.443063	0.000344	3.439626	0.582688	-0.000034
1721	1.7114e+02	2.8818	-3.477280	0.000344	3.439626	0.582688	-0.000034
1722	1.7124e+02	2.8733	-3.516385	0.000393	3.931001	0.665930	-0.000039
1723	1.7134e+02	2.8616	-3.550194	0.000340	3.398678	0.575752	-0.000034
1724	1.7144e+02	2.8514	-3.581967	0.000319	3.193938	0.541068	-0.000032
1725	1.7154e+02	2.8429	-3.622701	0.000409	4.094792	0.693677	-0.000041
1726	1.7164e+02	2.8277	-3.653659	0.000311	3.112042	0.527194	-0.000031
1727	1.7174e+02	2.8219	-3.691542	0.000381	3.808157	0.645119	-0.000038
1728	1.7184e+02	2.8125	-3.726981	0.000356	3.562469	0.603499	-0.000036
1729	1.7194e+02	2.8008	-3.760383	0.000336	3.357730	0.568815	-0.000034
1730	1.7204e+02	2.7915	-3.792563	0.000323	3.234886	0.548005	-0.000032
1731	1.7213e+02	2.7809	-3.827594	0.000352	3.521521	0.596562	-0.000035
1732	1.7223e+02	2.7721	-3.866292	0.000389	3.890053	0.658993	-0.000039
1733	1.7233e+02	2.7599	-3.900101	0.000340	3.398678	0.575752	-0.000034
1734	1.7243e+02	2.7547	-3.941243	0.000414	4.135740	0.700613	-0.000041
1735	1.7253e+02	2.7444	-3.979533	0.000385	3.849105	0.652056	-0.000038
1736	1.7263e+02	2.7331	-4.019860	0.000405	4.053844	0.686740	-0.000041
1737	1.7273e+02	2.7224	-4.058558	0.000389	3.890053	0.658993	-0.000039
1738	1.7283e+02	2.7129	-4.099699	0.000414	4.135740	0.700613	-0.000041
1739	1.7293e+02	2.6984	-4.138397	0.000389	3.890053	0.658993	-0.000039
1740	1.7303e+02	2.6923	-4.177094	0.000389	3.890053	0.658993	-0.000039
1741	1.7313e+02	2.6807	-4.216606	0.000397	3.971949	0.672866	-0.000040
1742	1.7323e+02	2.6712	-4.254082	0.000377	3.767209	0.638182	-0.000038
1743	1.7333e+02	2.6629	-4.293187	0.000393	3.931001	0.665930	-0.000039
1744	1.7343e+02	2.6525	-4.331477	0.000385	3.849105	0.652056	-0.000038
1745	1.7353e+02	2.6414	-4.373026	0.000418	4.176688	0.707550	-0.000042
1746	1.7363e+02	2.6345	-4.408872	0.000360	3.603417	0.610435	-0.000036
1747	1.7373e+02	2.6222	-4.449606	0.000409	4.094792	0.693677	-0.000041
1748	1.7383e+02	2.6122	-4.493599	0.000442	4.422376	0.749171	-0.000044
1749	1.7393e+02	2.6015	-4.532297	0.000389	3.890053	0.658993	-0.000039
1750	1.7403e+02	2.5955	-4.574253	0.000422	4.217636	0.714487	-0.000042
1751	1.7413e+02	2.5843	-4.611729	0.000377	3.767209	0.638182	-0.000038
1752	1.7422e+02	2.5729	-4.649204	0.000377	3.767209	0.638182	-0.000038
1753	1.7432e+02	2.5640	-4.690346	0.000414	4.135740	0.700613	-0.000041
1754	1.7442e+02	2.5525	-4.725377	0.000352	3.521521	0.596562	-0.000035
1755	1.7452e+02	2.5421	-4.765704	0.000405	4.053844	0.686740	-0.000041
1756	1.7462e+02	2.5336	-4.805624	0.000401	4.012897	0.679803	-0.000040
1757	1.7472e+02	2.5231	-4.841063	0.000356	3.562469	0.603499	-0.000036
1758	1.7482e+02	2.5114	-4.880575	0.000397	3.971949	0.672866	-0.000040
1759	1.7492e+02	2.5021	-4.916828	0.000364	3.644365	0.617372	-0.000036
1760	1.7502e+02	2.4926	-4.956340	0.000397	3.971949	0.672866	-0.000040
1761	1.7512e+02	2.4844	-4.997482	0.000414	4.135740	0.700613	-0.000041
1762	1.7522e+02	2.4732	-5.034550	0.000373	3.726261	0.631246	-0.000037
1763	1.7532e+02	2.4648	-5.076914	0.000426	4.258584	0.721424	-0.000043
1764	1.7542e+02	2.4543	-5.112353	0.000356	3.562469	0.603499	-0.000036
1765	1.7552e+02	2.4434	-5.148199	0.000360	3.603417	0.610435	-0.000036
1766	1.7562e+02	2.4308	-5.188118	0.000401	4.012897	0.679803	-0.000040
1767	1.7572e+02	2.4233	-5.228038	0.000401	4.012897	0.679803	-0.000040
1768	1.7582e+02	2.4152	-5.266736	0.000389	3.890053	0.658993	-0.000039
1769	1.7592e+02	2.4026	-5.303804	0.000373	3.726261	0.631246	-0.000037
1770	1.7602e+02	2.3968	-5.345353	0.000418	4.176688	0.707550	-0.000042
1771	1.7612e+02	2.3853	-5.384458	0.000393	3.931001	0.665930	-0.000039
1772	1.7621e+02	2.3751	-5.423155	0.000389	3.890053	0.658993	-0.000039
1773	1.7631e+02	2.3612	-5.463075	0.000401	4.012897	0.679803	-0.000040
1774	1.7641e+02	2.3553	-5.496477	0.000336	3.357730	0.568815	-0.000034
1775	1.7651e+02	2.3444	-5.544950	0.000487	4.872803	0.825475	-0.000049
1776	1.7661e+02	2.3349	-5.580389	0.000356	3.562469	0.603499	-0.000036
1777	1.7671e+02	2.3241	-5.617865	0.000377	3.767209	0.638182	-0.000038
1778	1.7681e+02	2.3161	-5.657377	0.000397	3.971949	0.672866	-0.000040
1779	1.7691e+02	2.3038	-5.695260	0.000381	3.808157	0.645119	-0.000038
1780	1.7701e+02	2.2949	-5.735587	0.000405	4.053844	0.686740	-0.000041
1781	1.7711e+02	2.2899	-5.771433	0.000360	3.603417	0.610435	-0.000036
1782	1.7721e+02	2.2723	-5.810538	0.000393	3.931001	0.665930	-0.000039
1783	1.7731e+02	2.2680	-5.850050	0.000397	3.971949	0.672866	-0.000040
1784	1.7741e+02	2.2542	-5.888340	0.000385	3.849105	0.652056	-0.000038
1785	1.7751e+02	2.2430	-5.927445	0.000393	3.931001	0.665930	-0.000039
1786	1.7761e+02	2.2325	-5.968179	0.000409	4.094792	0.693677	-0.000041
1787	1.7771e+02	2.2231	-6.006470	0.000385	3.849105	0.652056	-0.000038
1788	1.7781e+02	2.2184	-6.043130	0.000369	3.685313	0.624309	-0.000037
1789	1.7791e+02	2.2051	-6.084272	0.000414	4.135740	0.700613	-0.000041
1790	1.7801e+02	2.1970	-6.120933	0.000369	3.685313	0.624309	-0.000037
1791	1.7810e+02	2.1838	-6.160852	0.000401	4.012897	0.679803	-0.000040
1792	1.7820e+02	2.1764	-6.196699	0.000360	3.603417	0.610435	-0.000036
1793	1.7830e+02	2.1670	-6.236211	0.000397	3.971949	0.672866	-0.000040
1794	1.7840e+02	2.1529	-6.275723	0.000397	3.971949	0.672866	-0.000040
1795	1.7850e+02	2.1484	-6.315235	0.000397	3.971949	0.672866	-0.000040
1796	1.7860e+02	2.1346	-6.353118	0.000381	3.808157	0.645119	-0.000038
1797	1.7870e+02	2.1243	-6.393852	0.000409	4.094792	0.693677	-0.000041
1798	1.7880e+02	2.1166	-6.434179	0.000405	4.053844	0.686740	-0.000041
1799	1.7890e+02	2.1014	-6.473691	0.000397	3.971949	0.672866	-0.000040
1800	1.7900e+02	2.0969	-6.513204	0.000397	3.971949	0.672866	-0.000040
1801	1.7910e+02	2.0863	-6.553123	0.000401	4.012897	0.679803	-0.000040
1802	1.7920e+02	2.0766	-6.595080	0.000422	4.217636	0.714487	-0.000042
1803	1.7930e+02	2.0657	-6.637851	0.000430	4.299532	0.728360	-0.000043
1804	1.7940e+02	2.0554	-6.676141	0.000385	3.849105	0.652056	-0.000038
1805	1.7950e+02	2.0464	-6.716875	0.000409	4.094792	0.693677	-0.000041
1806	1.7960e+02	2.0356	-6.760868	0.000442	4.422376	0.749171	-0.000044
1807	1.7970e+02	2.0256	-6.799566	0.000389	3.890053	0.658993	-0.000039
1808	1.7980e+02	2.0173	-6.841929	0.000426	4.258584	0.721424	-0.000043
1809	1.7990e+02	2.0067	-6.880627	0.000389	3.890053	0.658993	-0.000039
1810	1.8000e+02	1.9961	-6.925027	0.000446	4.463324	0.756107	-0.000045
1811	1.8009e+02	1.9852	-6.964539	0.000397	3.971949	0.672866	-0.000040
1812	1.8019e+02	1.9753	-7.009347	0.000450	4.504272	0.763044	-0.000045
1813	1.8029e+02	1.9634	-7.052118	0.000430	4.299532	0.728360	-0.000043
1814	1.8039e+02	1.9553	-7.092852	0.000409	4.094792	0.693677	-0.000041
1815	1.8049e+02	1.9469	-7.132772	0.000401	4.012897	0.679803	-0.000040
1816	1.8059e+02	1.9331	-7.166989	0.000344	3.439626	0.582688	-0.000034
1817	1.8069e+02	1.9286	-7.210574	0.000438	4.381428	0.742234	-0.000044
1818	1.8079e+02	1.9165	-7.252123	0.000418	4.176688	0.707550	-0.000042
1819	1.8089e+02	1.9065	-7.287969	0.000360	3.603417	0.610435	-0.000036
1820	1.8099e+02	1.8969	-7.323408	0.000356	3.562469	0.603499	-0.000036
1821	1.8109e+02	1.8867	-7.359662	0.000364	3.644365	0.617372	-0.000036
1822	1.8119e+02	1.8764	-7.397544	0.000381	3.808157	0.645119	-0.000038
1823	1.8129e+02	1.8661	-7.435427	0.000381	3.808157	0.645119	-0.000038
1824	1.8139e+02	1.8570	-7.472903	0.000377	3.767209	0.638182	-0.000038
1825	1.8149e+02	1.8475	-7.513230	0.000405	4.053844	0.686740	-0.000041
1826	1.8159e+02	1.8372	-7.547854	0.000348	3.480573	0.589625	-0.000035
1827	1.8169e+02	1.8303	-7.585329	0.000377	3.767209	0.638182	-0.000038
1828	1.8179e+02	1.8162	-7.623212	0.000381	3.808157	0.645119	-0.000038
1829	1.8189e+02	1.8040	-7.659873	0.000369	3.685313	0.624309	-0.000037
1830	1.8199e+02	1.7954	-7.697349	0.000377	3.767209	0.638182	-0.000038
1831	1.8209e+02	1.7859	-7.731158	0.000340	3.398678	0.575752	-0.000034
1832	1.8218e+02	1.7783	-7.772300	0.000414	4.135740	0.700613	-0.000041
1833	1.8228e+02	1.7692	-7.808553	0.000364	3.644365	0.617372	-0.000036
1834	1.8238e+02	1.7564	-7.847658	0.000393	3.931001	0.665930	-0.000039
1835	1.8248e+02	1.7482	-7.884319	0.000369	3.685313	0.624309	-0.000037
1836	1.8258e+02	1.7370	-7.922202	0.000381	3.808157	0.645119	-0.000038
1837	1.8268e+02	1.7267	-7.963751	0.000418	4.176688	0.707550	-0.000042
1838	1.8278e+02	1.7175	-8.005707	0.000422	4.217636	0.714487	-0.000042
1839	1.8288e+02	1.7068	-8.041553	0.000360	3.603417	0.610435	-0.000036
1840	1.8298e+02	1.6952	-8.083509	0.000422	4.217636	0.714487	-0.000042
1841	1.8308e+02	1.6901	-8.123836	0.000405	4.053844	0.686740	-0.000041
1842	1.8318e+02	1.6771	-8.164570	0.000409	4.094792	0.693677	-0.000041
1843	1.8328e+02	1.6676	-8.205305	0.000409	4.094792	0.693677	-0.000041
1844	1.8338e+02	1.6582	-8.242373	0.000373	3.726261	0.631246	-0.000037
1845	1.8348e+02	1.6451	-8.282700	0.000405	4.053844	0.686740	-0.000041
1846	1.8358e+02	1.6385	-8.321805	0.000393	3.931001	0.665930	-0.000039
1847	1.8368e+02	1.6267	-8.362539	0.000409	4.094792	0.693677	-0.000041
1848	1.8378e+02	1.6192	-8.406125	0.000438	4.381428	0.742234	-0.000044
1849	1.8388e+02	1.6116	-8.444822	0.000389	3.890053	0.658993	-0.000039
1850	1.8398e+02	1.5993	-8.485556	0.000409	4.094792	0.693677	-0.000041
1851	1.8407e+02	1.5870	-8.525883	0.000405	4.053844	0.686740	-0.000041
1852	1.8417e+02	1.5777	-8.566618	0.000409	4.094792	0.693677	-0.000041
1853	1.8427e+02	1.5673	-8.606130	0.000397	3.971949	0.672866	-0.000040
1854	1.8437e+02	1.5573	-8.646049	0.000401	4.012897	0.679803	-0.000040
1855	1.8447e+02	1.5454	-8.685969	0.000401	4.012897	0.679803	-0.000040
1856	1.8457e+02	1.5364	-8.724666	0.000389	3.890053	0.658993	-0.000039
1857	1.8467e+02	1.5266	-8.762957	0.000385	3.849105	0.652056	-0.000038
1858	1.8477e+02	1.5173	-8.804098	0.000414	4.135740	0.700613	-0.000041
1859	1.8487e+02	1.5064	-8.848499	0.000446	4.463324	0.756107	-0.000045
1860	1.8497e+02	1.4964	-8.885159	0.000369	3.685313	0.624309	-0.000037
1861	1.8507e+02	1.4869	-8.925894	0.000409	4.094792	0.693677	-0.000041
1862	1.8517e+02	1.4773	-8.968257	0.000426	4.258584	0.721424	-0.000043
1863	1.8527e+02	1.4692	-9.006955	0.000389	3.890053	0.658993	-0.000039
1864	1.8537e+02	1.4577	-9.048504	0.000418	4.176688	0.707550	-0.000042
1865	1.8547e+02	1.4472	-9.092089	0.000438	4.381428	0.742234	-0.000044
1866	1.8557e+02	1.4371	-9.131602	0.000397	3.971949	0.672866	-0.000040
1867	1.8567e+02	1.4283	-9.168670	0.000373	3.726261	0.631246	-0.000037
1868	1.8577e+02	1.4178	-9.215514	0.000471	4.709011	0.797728	-0.000047
1869	1.8587e+02	1.4068	-9.251768	0.000364	3.644365	0.617372	-0.000036
1870	1.8597e+02	1.3988	-9.292909	0.000414	4.135740	0.700613	-0.000041
1871	1.8606e+02	1.3862	-9.336902	0.000442	4.422376	0.749171	-0.000044
1872	1.8616e+02	1.3784	-9.377637	0.000409	4.094792	0.693677	-0.000041
1873	1.8626e+02	1.3696	-9.420000	0.000426	4.258584	0.721424	-0.000043
1874	1.8636e+02	1.3583	-9.459920	0.000401	4.012897	0.679803	-0.000040
1875	1.8646e+02	1.3470	-9.504320	0.000446	4.463324	0.756107	-0.000045
1876	1.8656e+02	1.3382	-9.545054	0.000409	4.094792	0.693677	-0.000041
1877	1.8666e+02	1.3280	-9.585381	0.000405	4.053844	0.686740	-0.000041
1878	1.8676e+02	1.3223	-9.626930	0.000418	4.176688	0.707550	-0.000042
1879	1.8686e+02	1.3074	-9.667664	0.000409	4.094792	0.693677	-0.000041
1880	1.8696e+02	1.2975	-9.714101	0.000467	4.668063	0.790791	-0.000047
1881	1.8706e+02	1.2889	-9.751577	0.000377	3.767209	0.638182	-0.000038
1882	1.8716e+02	1.2792	-9.796385	0.000450	4.504272	0.763044	-0.000045
1883	1.8726e+02	1.2683	-9.833860	0.000377	3.767209	0.638182	-0.000038
1884	1.8736e+02	1.2595	-9.877039	0.000434	4.340480	0.735297	-0.000043
1885	1.8746e+02	1.2471	-9.913292	0.000364	3.644365	0.617372	-0.000036
1886	1.8756e+02	1.2382	-9.946287	0.000332	3.316782	0.561878	-0.000033
1887	1.8766e+02	1.2298	-9.991094	0.000450	4.504272	0.763044	-0.000045
1888	1.8776e+02	1.2199	-10.032236	0.000414	4.135740	0.700613	-0.000041
1889	1.8786e+02	1.2119	-10.069712	0.000377	3.767209	0.638182	-0.000038
1890	1.8796e+02	1.1985	-10.112483	0.000430	4.299532	0.728360	-0.000043
1891	1.8806e+02	1.1912	-10.149143	0.000369	3.685313	0.624309	-0.000037
1892	1.8815e+02	1.1810	-10.192729	0.000438	4.381428	0.742234	-0.000044
1893	1.8825e+02	1.1692	-10.237129	0.000446	4.463324	0.756107	-0.000045
1894	1.8835e+02	1.1615	-10.276642	0.000397	3.971949	0.672866	-0.000040
1895	1.8845e+02	1.1520	-10.312895	0.000364	3.644365	0.617372	-0.000036
1896	1.8855e+02	1.1396	-10.356481	0.000438	4.381428	0.742234	-0.000044
1897	1.8865e+02	1.1297	-10.395586	0.000393	3.931001	0.665930	-0.000039
1898	1.8875e+02	1.1205	-10.433876	0.000385	3.849105	0.652056	-0.000038
1899	1.8885e+02	1.1121	-10.475425	0.000418	4.176688	0.707550	-0.000042
1900	1.8895e+02	1.0994	-10.519418	0.000442	4.422376	0.749171	-0.000044
1901	1.8905e+02	1.0904	-10.559337	0.000401	4.012897	0.679803	-0.000040
1902	1.8915e+02	1.0812	-10.603330	0.000442	4.422376	0.749171	-0.000044
1903	1.8925e+02	1.0706	-10.649767	0.000467	4.668063	0.790791	-0.000047
1904	1.8935e+02	1.0629	-10.697019	0.000475	4.749959	0.804665	-0.000047
1905	1.8945e+02	1.0506	-10.739383	0.000426	4.258584	0.721424	-0.000043
1906	1.8955e+02	1.0370	-10.780524	0.000414	4.135740	0.700613	-0.000041
1907	1.8965e+02	1.0335	-10.829405	0.000491	4.913751	0.832412	-0.000049
1908	1.8975e+02	1.0242	-10.873806	0.000446	4.463324	0.756107	-0.000045
1909	1.8985e+02	1.0116	-10.917391	0.000438	4.381428	0.742234	-0.000044
1910	1.8995e+02	0.9999	-10.960977	0.000438	4.381428	0.742234	-0.000044
1911	1.9004e+02	0.9904	-11.002933	0.000422	4.217636	0.714487	-0.000042
1912	1.9014e+02	0.9818	-11.050592	0.000479	4.790907	0.811602	-0.000048
1913	1.9024e+02	0.9724	-11.097844	0.000475	4.749959	0.804665	-0.000047
1914	1.9034e+02	0.9595	-11.140615	0.000430	4.299532	0.728360	-0.000043
1915	1.9044e+02	0.9525	-11.187052	0.000467	4.668063	0.790791	-0.000047
1916	1.9054e+02	0.9401	-11.233082	0.000463	4.627115	0.783855	-0.000046
1917	1.9064e+02	0.9293	-11.278704	0.000459	4.586167	0.776918	-0.000046
1918	1.9074e+02	0.9218	-11.325141	0.000467	4.668063	0.790791	-0.000047
1919	1.9084e+02	0.9097	-11.368727	0.000438	4.381428	0.742234	-0.000044
1920	1.9094e+02	0.9021	-11.411905	0.000434	4.340480	0.735297	-0.000043
1921	1.9104e+02	0.8908	-11.457528	0.000459	4.586167	0.776918	-0.000046
1922	1.9114e+02	0.8789	-11.502743	0.000455	4.545220	0.769981	-0.000045
1923	1.9124e+02	0.8695	-11.549587	0.000471	4.709011	0.797728	-0.000047
1924	1.9134e+02	0.8603	-11.587063	0.000377	3.767209	0.638182	-0.000038
1925	1.9144e+02	0.8543	-11.631870	0.000450	4.504272	0.763044	-0.000045
1926	1.9154e+02	0.8374	-11.678307	0.000467	4.668063	0.790791	-0.000047
1927	1.9164e+02	0.8321	-11.719449	0.000414	4.135740	0.700613	-0.000041
1928	1.9174e+02	0.8196	-11.771996	0.000528	5.282282	0.894843	-0.000053
1929	1.9184e+02	0.8132	-11.809879	0.000381	3.808157	0.645119	-0.000038
1930	1.9194e+02	0.8007	-11.855909	0.000463	4.627115	0.783855	-0.000046
1931	1.9203e+02	0.7909	-11.899494	0.000438	4.381428	0.742234	-0.000044
1932	1.9213e+02	0.7835	-11.946339	0.000471	4.709011	0.797728	-0.000047
1933	1.9223e+02	0.7699	-11.989110	0.000430	4.299532	0.728360	-0.000043
1934	1.9233e+02	0.7629	-12.035139	0.000463	4.627115	0.783855	-0.000046
1935	1.9243e+02	0.7518	-12.077910	0.000430	4.299532	0.728360	-0.000043
1936	1.9253e+02	0.7393	-12.119052	0.000414	4.135740	0.700613	-0.000041
1937	1.9263e+02	0.7343	-12.167118	0.000483	4.831855	0.818538	-0.000048
1938	1.9273e+02	0.7281	-12.213148	0.000463	4.627115	0.783855	-0.000046
1939	1.9283e+02	0.7133	-12.255919	0.000430	4.299532	0.728360	-0.000043
1940	1.9293e+02	0.7043	-12.300727	0.000450	4.504272	0.763044	-0.000045
1941	1.9303e+02	0.6918	-12.346349	0.000459	4.586167	0.776918	-0.000046
1942	1.9313e+02	0.6813	-12.391564	0.000455	4.545220	0.769981	-0.000045
1943	1.9323e+02	0.6708	-12.437594	0.000463	4.627115	0.783855	-0.000046
1944	1.9333e+02	0.6622	-12.477513	0.000401	4.012897	0.679803	-0.000040
1945	1.9343e+02	0.6520	-12.525172	0.000479	4.790907	0.811602	-0.000048
1946	1.9353e+02	0.6435	-12.566314	0.000414	4.135740	0.700613	-0.000041
1947	1.9363e+02	0.6319	-12.613158	0.000471	4.709011	0.797728	-0.000047
1948	1.9373e+02	0.6217	-12.655929	0.000430	4.299532	0.728360	-0.000043
1949	1.9383e+02	0.6136	-12.705218	0.000495	4.954699	0.839349	-0.000050
1950	1.9393e+02	0.6034	-12.747989	0.000430	4.299532	0.728360	-0.000043
1951	1.9403e+02	0.5912	-12.793611	0.000459	4.586167	0.776918	-0.000046
1952	1.9412e+02	0.5846	-12.836382	0.000430	4.299532	0.728360	-0.000043
1953	1.9422e+02	0.5729	-12.882412	0.000463	4.627115	0.783855	-0.000046
1954	1.9432e+02	0.5638	-12.927220	0.000450	4.504272	0.763044	-0.000045
1955	1.9442e+02	0.5535	-12.969176	0.000422	4.217636	0.714487	-0.000042
1956	1.9452e+02	0.5443	-13.014391	0.000455	4.545220	0.769981	-0.000045
1957	1.9462e+02	0.5317	-13.063272	0.000491	4.913751	0.832412	-0.000049
1958	1.9472e+02	0.5204	-13.104414	0.000414	4.135740	0.700613	-0.000041
1959	1.9482e+02	0.5145	-13.147999	0.000438	4.381428	0.742234	-0.000044
1960	1.9492e+02	0.5027	-13.196880	0.000491	4.913751	0.832412	-0.000049
1961	1.9502e+02	0.4923	-13.237207	0.000405	4.053844	0.686740	-0.000041
1962	1.9512e+02	0.4839	-13.278756	0.000418	4.176688	0.707550	-0.000042
1963	1.9522e+02	0.4741	-13.324786	0.000463	4.627115	0.783855	-0.000046
1964	1.9532e+02	0.4634	-13.372445	0.000479	4.790907	0.811602	-0.000048
1965	1.9542e+02	0.4524	-13.416845	0.000446	4.463324	0.756107	-0.000045
1966	1.9552e+02	0.4424	-13.462468	0.000459	4.586167	0.776918	-0.000046
1967	1.9562e+02	0.4340	-13.512978	0.000508	5.077543	0.860159	-0.000051
1968	1.9572e+02	0.4218	-13.559008	0.000463	4.627115	0.783855	-0.000046
1969	1.9582e+02	0.4151	-13.604223	0.000455	4.545220	0.769981	-0.000045
1970	1.9592e+02	0.4032	-13.648216	0.000442	4.422376	0.749171	-0.000044
1971	1.9601e+02	0.3943	-13.700356	0.000524	5.241334	0.887906	-0.000052
1972	1.9611e+02	0.3846	-13.746793	0.000467	4.668063	0.790791	-0.000047
1973	1.9621e+02	0.3703	-13.796081	0.000495	4.954699	0.839349	-0.000050
1974	1.9631e+02	0.3643	-13.840889	0.000450	4.504272	0.763044	-0.000045
1975	1.9641e+02	0.3553	-13.888548	0.000479	4.790907	0.811602	-0.000048
1976	1.9651e+02	0.3445	-13.933356	0.000450	4.504272	0.763044	-0.000045
1977	1.9661e+02	0.3344	-13.978163	0.000450	4.504272	0.763044	-0.000045
1978	1.9671e+02	0.3241	-14.029081	0.000512	5.118490	0.867096	-0.000051
1979	1.9681e+02	0.3148	-14.075926	0.000471	4.709011	0.797728	-0.000047
1980	1.9691e+02	0.3045	-14.121548	0.000459	4.586167	0.776918	-0.000046
1981	1.9701e+02	0.2962	-14.172058	0.000508	5.077543	0.860159	-0.000051
1982	1.9711e+02	0.2858	-14.222162	0.000504	5.036595	0.853222	-0.000050
1983	1.9721e+02	0.2736	-14.266562	0.000446	4.463324	0.756107	-0.000045
1984	1.9731e+02	0.2649	-14.312184	0.000459	4.586167	0.776918	-0.000046
1985	1.9741e+02	0.2536	-14.361880	0.000500	4.995647	0.846285	-0.000050
1986	1.9751e+02	0.2441	-14.405058	0.000434	4.340480	0.735297	-0.000043
1987	1.9761e+02	0.2357	-14.448237	0.000434	4.340480	0.735297	-0.000043
1988	1.9771e+02	0.2252	-14.491822	0.000438	4.381428	0.742234	-0.000044
1989	1.9781e+02	0.2158	-14.531335	0.000397	3.971949	0.672866	-0.000040
1990	1.9791e+02	0.2026	-14.580623	0.000495	4.954699	0.839349	-0.000050
1991	1.9800e+02	0.1948	-14.622172	0.000418	4.176688	0.707550	-0.000042
1992	1.9810e+02	0.1864	-14.665758	0.000438	4.381428	0.742234	-0.000044
1993	1.9820e+02	0.1744	-14.709343	0.000438	4.381428	0.742234	-0.000044
1994	1.9830e+02	0.1644	-14.753336	0.000442	4.422376	0.749171	-0.000044
1995	1.9840e+02	0.1529	-14.797329	0.000442	4.422376	0.749171	-0.000044
1996	1.9850e+02	0.1449	-14.842544	0.000455	4.545220	0.769981	-0.000045
1997	1.9860e+02	0.1334	-14.884093	0.000418	4.176688	0.707550	-0.000042
1998	1.9870e+02	0.1238	-14.926864	0.000430	4.299532	0.728360	-0.000043
1999	1.9880e+02	0.1147	-14.972894	0.000463	4.627115	0.783855	-0.000046
2000	1.9890e+02	0.1026	-15.016072	0.000434	4.340480	0.735297	-0.000043
2001	1.9900e+02	0.0937	-15.060065	0.000442	4.422376	0.749171	-0.000044
2002	1.9910e+02	0.0854	-15.102836	0.000430	4.299532	0.728360	-0.000043
2003	1.9920e+02	0.0769	-15.150088	0.000475	4.749959	0.804665	-0.000047
2004	1.9930e+02	0.0627	-15.196118	0.000463	4.627115	0.783855	-0.000046
2005	1.9940e+02	0.0571	-15.242147	0.000463	4.627115	0.783855	-0.000046
2006	1.9950e+02	0.0445	-15.286955	0.000450	4.504272	0.763044	-0.000045
2007	1.9960e+02	0.0366	-15.335021	0.000483	4.831855	0.818538	-0.000048
2008	1.9970e+02	0.0256	-15.383088	0.000483	4.831855	0.818538	-0.000048
2009	1.9980e+02	0.0169	-15.423822	0.000409	4.094792	0.693677	-0.000041
2010	1.9990e+02	0.0059	-15.474740	0.000512	5.118490	0.867096	-0.000051
2011	2.0000e+02	-0.0035	-15.519955	0.000512	5.118490	0.867096	-0.000045

PMax (uC/cm2):	3.38e+01
Pr (uC/cm2):	1.37e+00
-Pr (uC/cm2):	0.00e+00
PLoss (uC/cm2):	0.00e+00
C (Max-Eff) (nF):	3.38e-01
K (Eff):	5.73e+02
Vert. (+/-Pr) Shift (uC/cm2):	6.86e-01
Offset (uC/cm2):	1.69e+01

A (Loop Area - uC/cm2·Volts):	-1.36e-02



Hysteresis Version: 5.48.1 - Radiant Technologies, Inc., 1999 - 9/12/24

