»»»»»»»»»»»»»»»»»»»»»»»»»»»»»»»»»»»» Hysteresis ««««««««««««««««««««««««««««««««««««
»»»  Executed Version:	5.48.1
»»»  Vision Version:	5.48.4 (R)
»»»  Vision Compiled:	9/18/24
»»»  Driver Version:	5.47.0
»»»  Windows Version:	Windows 8 or 8.1
»»»  Processor Information:	x86 (AMD or Intel) - 32 Processors
»»»  Tester Name:	PMF21124-494 (100V)
»»»  Tester S/N:	PMF21124-494
»»»  Internal Amp Type:	100V RevK 270k
»»»  Internal Amp S/N:	iAB2-596/K     
»»»  Execution Count:	1
»»»»»»»»»»»»»»»»»»»»»»»»»»»»»»»»»»»»»»»»»»««««««««««««««««««««««««««««««««««««««««««

Stored:	6/27/2025 - 17:1:40
Configured:	06/27/25 11:23:28 AM
Executed:	06/27/25 05:01:06 PM

»»»»»»»»»»»»»»»»»»»»»»»»»»»»»»»»»»» Sample Info ««««««««««««««««««««««««««««««««««««
Sample Name:	
Lot Name:	
Wafer Name:	
Die Row/Column:	0/0
Capacitor Number:	0
Sample Area (cm2):	1.00e-04
Sample Thickness (microns):	1.50e-01

Amplifier:	Internal

»»»»»»»»»»»»»»»»»»»»»»»»»»»»»»»»»»» Tester Info «««««««««««««««««««««««««««««««««««
Tester Name:	PMF21124-494 (100V)
Tester Serial Number:	PMF21124-494
Return Signal Amp. Level:	1.9 [Index: 2]

»»»»»»»»»»»»»»»»»»»»»»»»»»»»»»»» Hysteresis Info ««««««««««««««««««««««««««««««««««
Task Name:	Hyst-1276
Volts:	10.00
Field:	666.67 (kV/cm)
DCBias:	0.00
DCField:	0.00 (kV/cm)
Hysteresis Period (ms):	2.00e+02
Preset:	Enabled
Preset Delay (ms):	1.00e+03
Profile:	Standard Monopolar

»»»»»»»»»»»»»»»»»»»»»»»»»»»»»»»»»»»»»» Data «««««««««««««««««««««««««««««««««««««««
Points:	2011

Valid Data

Point	Time (ms)	Drive Voltage	Measured Polarization (uC/cm2)	Capacitance (uF)	Normalized Capacitance (uF/cm2)	Dielectric Constant	Instantaneous Current (mA)
   1	0.0000e+00	-0.0058	-20.061621	0.000442	4.420740	0.748894	0.000044
   2	9.9500e-02	0.0056	-20.017628	0.000442	4.420740	0.748894	0.000044
   3	1.9900e-01	0.0163	-19.973635	0.000442	4.420740	0.748894	0.000044
   4	2.9850e-01	0.0225	-19.932086	0.000418	4.175143	0.707288	0.000042
   5	3.9800e-01	0.0356	-19.890944	0.000413	4.134210	0.700354	0.000041
   6	4.9750e-01	0.0459	-19.845322	0.000458	4.584471	0.776630	0.000046
   7	5.9700e-01	0.0574	-19.807032	0.000385	3.847681	0.651815	0.000038
   8	6.9650e-01	0.0666	-19.761409	0.000458	4.584471	0.776630	0.000046
   9	7.9600e-01	0.0734	-19.724341	0.000372	3.724882	0.631012	0.000037
  10	8.9550e-01	0.0862	-19.678719	0.000458	4.584471	0.776630	0.000046
  11	9.9500e-01	0.0954	-19.633504	0.000454	4.543538	0.769696	0.000045
  12	1.0945e+00	0.1026	-19.595621	0.000381	3.806748	0.644881	0.000038
  13	1.1940e+00	0.1165	-19.552035	0.000438	4.379807	0.741959	0.000044
  14	1.2935e+00	0.1257	-19.508857	0.000434	4.338874	0.735025	0.000043
  15	1.3930e+00	0.1328	-19.465271	0.000438	4.379807	0.741959	0.000044
  16	1.4925e+00	0.1451	-19.419241	0.000463	4.625403	0.783565	0.000046
  17	1.5920e+00	0.1543	-19.374841	0.000446	4.461672	0.755828	0.000045
  18	1.6915e+00	0.1672	-19.329626	0.000454	4.543538	0.769696	0.000045
  19	1.7910e+00	0.1717	-19.290114	0.000397	3.970479	0.672617	0.000040
  20	1.8905e+00	0.1841	-19.240418	0.000499	4.993798	0.845972	0.000050
  21	1.9900e+00	0.1940	-19.193574	0.000471	4.707269	0.797433	0.000047
  22	2.0895e+00	0.2033	-19.150803	0.000430	4.297941	0.728091	0.000043
  23	2.1890e+00	0.2117	-19.103958	0.000471	4.707269	0.797433	0.000047
  24	2.2885e+00	0.2269	-19.057114	0.000471	4.707269	0.797433	0.000047
  25	2.3880e+00	0.2346	-19.010270	0.000471	4.707269	0.797433	0.000047
  26	2.4875e+00	0.2443	-18.963425	0.000471	4.707269	0.797433	0.000047
  27	2.5870e+00	0.2561	-18.924320	0.000393	3.929546	0.665683	0.000039
  28	2.6865e+00	0.2620	-18.873402	0.000512	5.116597	0.866775	0.000051
  29	2.7860e+00	0.2744	-18.829817	0.000438	4.379807	0.741959	0.000044
  30	2.8855e+00	0.2842	-18.780121	0.000499	4.993798	0.845972	0.000050
  31	2.9850e+00	0.2942	-18.737350	0.000430	4.297941	0.728091	0.000043
  32	3.0845e+00	0.3056	-18.690506	0.000471	4.707269	0.797433	0.000047
  33	3.1840e+00	0.3162	-18.644476	0.000463	4.625403	0.783565	0.000046
  34	3.2835e+00	0.3263	-18.598854	0.000458	4.584471	0.776630	0.000046
  35	3.3830e+00	0.3303	-18.551602	0.000475	4.748202	0.804367	0.000047
  36	3.4825e+00	0.3437	-18.504350	0.000475	4.748202	0.804367	0.000047
  37	3.5820e+00	0.3566	-18.461172	0.000434	4.338874	0.735025	0.000043
  38	3.6815e+00	0.3671	-18.411476	0.000499	4.993798	0.845972	0.000050
  39	3.7810e+00	0.3732	-18.367890	0.000438	4.379807	0.741959	0.000044
  40	3.8805e+00	0.3809	-18.321861	0.000463	4.625403	0.783565	0.000046
  41	3.9800e+00	0.3944	-18.273387	0.000487	4.871000	0.825170	0.000049
  42	4.0795e+00	0.4037	-18.228172	0.000454	4.543538	0.769696	0.000045
  43	4.1790e+00	0.4166	-18.185401	0.000430	4.297941	0.728091	0.000043
  44	4.2785e+00	0.4217	-18.138149	0.000475	4.748202	0.804367	0.000047
  45	4.3780e+00	0.4319	-18.093749	0.000446	4.461672	0.755828	0.000045
  46	4.4775e+00	0.4444	-18.045275	0.000487	4.871000	0.825170	0.000049
  47	4.5770e+00	0.4525	-18.000060	0.000454	4.543538	0.769696	0.000045
  48	4.6765e+00	0.4636	-17.949957	0.000503	5.034731	0.852907	0.000050
  49	4.7760e+00	0.4746	-17.904742	0.000454	4.543538	0.769696	0.000045
  50	4.8755e+00	0.4813	-17.856268	0.000487	4.871000	0.825170	0.000049
  51	4.9750e+00	0.4941	-17.811053	0.000454	4.543538	0.769696	0.000045
  52	5.0745e+00	0.5042	-17.764209	0.000471	4.707269	0.797433	0.000047
  53	5.1740e+00	0.5133	-17.714920	0.000495	4.952866	0.839038	0.000050
  54	5.2735e+00	0.5212	-17.668891	0.000463	4.625403	0.783565	0.000046
  55	5.3730e+00	0.5325	-17.624898	0.000442	4.420740	0.748894	0.000044
  56	5.4725e+00	0.5434	-17.575609	0.000495	4.952866	0.839038	0.000050
  57	5.5720e+00	0.5524	-17.530394	0.000454	4.543538	0.769696	0.000045
  58	5.6715e+00	0.5630	-17.481513	0.000491	4.911933	0.832104	0.000049
  59	5.7710e+00	0.5722	-17.433854	0.000479	4.789135	0.811301	0.000048
  60	5.8705e+00	0.5840	-17.390268	0.000438	4.379807	0.741959	0.000044
  61	5.9700e+00	0.5916	-17.338536	0.000520	5.198462	0.880643	0.000052
  62	6.0695e+00	0.6016	-17.292506	0.000463	4.625403	0.783565	0.000046
  63	6.1690e+00	0.6120	-17.248920	0.000438	4.379807	0.741959	0.000044
  64	6.2685e+00	0.6237	-17.198410	0.000508	5.075664	0.859841	0.000051
  65	6.3680e+00	0.6328	-17.151973	0.000467	4.666336	0.790499	0.000047
  66	6.4675e+00	0.6439	-17.105536	0.000467	4.666336	0.790499	0.000047
  67	6.5670e+00	0.6547	-17.062357	0.000434	4.338874	0.735025	0.000043
  68	6.6665e+00	0.6625	-17.012662	0.000499	4.993798	0.845972	0.000050
  69	6.7660e+00	0.6736	-16.971113	0.000418	4.175143	0.707288	0.000042
  70	6.8655e+00	0.6814	-16.925898	0.000454	4.543538	0.769696	0.000045
  71	6.9650e+00	0.6915	-16.874165	0.000520	5.198462	0.880643	0.000052
  72	7.0645e+00	0.7027	-16.833431	0.000409	4.093277	0.693420	0.000041
  73	7.1640e+00	0.7134	-16.784142	0.000495	4.952866	0.839038	0.000050
  74	7.2635e+00	0.7224	-16.742594	0.000418	4.175143	0.707288	0.000042
  75	7.3630e+00	0.7330	-16.692898	0.000499	4.993798	0.845972	0.000050
  76	7.4625e+00	0.7424	-16.650127	0.000430	4.297941	0.728091	0.000043
  77	7.5620e+00	0.7508	-16.602060	0.000483	4.830067	0.818236	0.000048
  78	7.6615e+00	0.7633	-16.558475	0.000438	4.379807	0.741959	0.000044
  79	7.7610e+00	0.7694	-16.514074	0.000446	4.461672	0.755828	0.000045
  80	7.8605e+00	0.7829	-16.468452	0.000458	4.584471	0.776630	0.000046
  81	7.9600e+00	0.7923	-16.422015	0.000467	4.666336	0.790499	0.000047
  82	8.0595e+00	0.8008	-16.372319	0.000499	4.993798	0.845972	0.000050
  83	8.1590e+00	0.8119	-16.323438	0.000491	4.911933	0.832104	0.000049
  84	8.2585e+00	0.8213	-16.278223	0.000454	4.543538	0.769696	0.000045
  85	8.3580e+00	0.8311	-16.230157	0.000483	4.830067	0.818236	0.000048
  86	8.4575e+00	0.8404	-16.177202	0.000532	5.321261	0.901446	0.000053
  87	8.5570e+00	0.8513	-16.134431	0.000430	4.297941	0.728091	0.000043
  88	8.6565e+00	0.8621	-16.081884	0.000528	5.280328	0.894512	0.000053
  89	8.7560e+00	0.8705	-16.034225	0.000479	4.789135	0.811301	0.000048
  90	8.8555e+00	0.8803	-15.985751	0.000487	4.871000	0.825170	0.000049
  91	8.9550e+00	0.8907	-15.936463	0.000495	4.952866	0.839038	0.000050
  92	9.0545e+00	0.9023	-15.885545	0.000512	5.116597	0.866775	0.000051
  93	9.1540e+00	0.9103	-15.834220	0.000516	5.157529	0.873709	0.000052
  94	9.2535e+00	0.9226	-15.781265	0.000532	5.321261	0.901446	0.000053
  95	9.3530e+00	0.9297	-15.735643	0.000458	4.584471	0.776630	0.000046
  96	9.4525e+00	0.9447	-15.685947	0.000499	4.993798	0.845972	0.000050
  97	9.5520e+00	0.9491	-15.635436	0.000508	5.075664	0.859841	0.000051
  98	9.6515e+00	0.9625	-15.585741	0.000499	4.993798	0.845972	0.000050
  99	9.7510e+00	0.9703	-15.540526	0.000454	4.543538	0.769696	0.000045
 100	9.8505e+00	0.9826	-15.490015	0.000508	5.075664	0.859841	0.000051
 101	9.9500e+00	0.9892	-15.440727	0.000495	4.952866	0.839038	0.000050
 102	1.0050e+01	1.0001	-15.395104	0.000458	4.584471	0.776630	0.000046
 103	1.0149e+01	1.0111	-15.342150	0.000532	5.321261	0.901446	0.000053
 104	1.0248e+01	1.0224	-15.299786	0.000426	4.257008	0.721157	0.000043
 105	1.0348e+01	1.0320	-15.246424	0.000536	5.362193	0.908380	0.000054
 106	1.0447e+01	1.0392	-15.202839	0.000438	4.379807	0.741959	0.000044
 107	1.0547e+01	1.0511	-15.154772	0.000483	4.830067	0.818236	0.000048
 108	1.0646e+01	1.0601	-15.105484	0.000495	4.952866	0.839038	0.000050
 109	1.0746e+01	1.0662	-15.059861	0.000458	4.584471	0.776630	0.000046
 110	1.0845e+01	1.0802	-15.007722	0.000524	5.239395	0.887578	0.000052
 111	1.0945e+01	1.0918	-14.961692	0.000463	4.625403	0.783565	0.000046
 112	1.1044e+01	1.1008	-14.912811	0.000491	4.911933	0.832104	0.000049
 113	1.1144e+01	1.1105	-14.865966	0.000471	4.707269	0.797433	0.000047
 114	1.1243e+01	1.1223	-14.819122	0.000471	4.707269	0.797433	0.000047
 115	1.1343e+01	1.1305	-14.770648	0.000487	4.871000	0.825170	0.000049
 116	1.1443e+01	1.1425	-14.720138	0.000508	5.075664	0.859841	0.000051
 117	1.1542e+01	1.1519	-14.673701	0.000467	4.666336	0.790499	0.000047
 118	1.1642e+01	1.1604	-14.625634	0.000483	4.830067	0.818236	0.000048
 119	1.1741e+01	1.1701	-14.582863	0.000430	4.297941	0.728091	0.000043
 120	1.1841e+01	1.1796	-14.533168	0.000499	4.993798	0.845972	0.000050
 121	1.1940e+01	1.1922	-14.478991	0.000544	5.444059	0.922249	0.000054
 122	1.2040e+01	1.2012	-14.433369	0.000458	4.584471	0.776630	0.000046
 123	1.2139e+01	1.2093	-14.384895	0.000487	4.871000	0.825170	0.000049
 124	1.2239e+01	1.2183	-14.336828	0.000483	4.830067	0.818236	0.000048
 125	1.2338e+01	1.2299	-14.292428	0.000446	4.461672	0.755828	0.000045
 126	1.2438e+01	1.2403	-14.239881	0.000528	5.280328	0.894512	0.000053
 127	1.2537e+01	1.2480	-14.194259	0.000458	4.584471	0.776630	0.000046
 128	1.2636e+01	1.2582	-14.150673	0.000438	4.379807	0.741959	0.000044
 129	1.2736e+01	1.2695	-14.103014	0.000479	4.789135	0.811301	0.000048
 130	1.2835e+01	1.2800	-14.054947	0.000483	4.830067	0.818236	0.000048
 131	1.2935e+01	1.2914	-14.007696	0.000475	4.748202	0.804367	0.000047
 132	1.3034e+01	1.2977	-13.960444	0.000475	4.748202	0.804367	0.000047
 133	1.3134e+01	1.3091	-13.913192	0.000475	4.748202	0.804367	0.000047
 134	1.3233e+01	1.3155	-13.864311	0.000491	4.911933	0.832104	0.000049
 135	1.3333e+01	1.3303	-13.812579	0.000520	5.198462	0.880643	0.000052
 136	1.3432e+01	1.3386	-13.767364	0.000454	4.543538	0.769696	0.000045
 137	1.3532e+01	1.3481	-13.723778	0.000438	4.379807	0.741959	0.000044
 138	1.3632e+01	1.3586	-13.676526	0.000475	4.748202	0.804367	0.000047
 139	1.3731e+01	1.3677	-13.629274	0.000475	4.748202	0.804367	0.000047
 140	1.3831e+01	1.3776	-13.580393	0.000491	4.911933	0.832104	0.000049
 141	1.3930e+01	1.3902	-13.530290	0.000503	5.034731	0.852907	0.000050
 142	1.4030e+01	1.4004	-13.485075	0.000454	4.543538	0.769696	0.000045
 143	1.4129e+01	1.4091	-13.439453	0.000458	4.584471	0.776630	0.000046
 144	1.4229e+01	1.4181	-13.391386	0.000483	4.830067	0.818236	0.000048
 145	1.4328e+01	1.4255	-13.344135	0.000475	4.748202	0.804367	0.000047
 146	1.4428e+01	1.4385	-13.298512	0.000458	4.584471	0.776630	0.000046
 147	1.4527e+01	1.4495	-13.252483	0.000463	4.625403	0.783565	0.000046
 148	1.4627e+01	1.4573	-13.202787	0.000499	4.993798	0.845972	0.000050
 149	1.4726e+01	1.4668	-13.153091	0.000499	4.993798	0.845972	0.000050
 150	1.4825e+01	1.4784	-13.105432	0.000479	4.789135	0.811301	0.000048
 151	1.4925e+01	1.4892	-13.055329	0.000503	5.034731	0.852907	0.000050
 152	1.5024e+01	1.5002	-13.011743	0.000438	4.379807	0.741959	0.000044
 153	1.5124e+01	1.5084	-12.962455	0.000495	4.952866	0.839038	0.000050
 154	1.5223e+01	1.5139	-12.911537	0.000512	5.116597	0.866775	0.000051
 155	1.5323e+01	1.5250	-12.862248	0.000495	4.952866	0.839038	0.000050
 156	1.5422e+01	1.5379	-12.815811	0.000467	4.666336	0.790499	0.000047
 157	1.5522e+01	1.5485	-12.764894	0.000512	5.116597	0.866775	0.000051
 158	1.5621e+01	1.5577	-12.715198	0.000499	4.993798	0.845972	0.000050
 159	1.5721e+01	1.5662	-12.669168	0.000463	4.625403	0.783565	0.000046
 160	1.5820e+01	1.5779	-12.617843	0.000516	5.157529	0.873709	0.000052
 161	1.5920e+01	1.5890	-12.571406	0.000467	4.666336	0.790499	0.000047
 162	1.6020e+01	1.5960	-12.520895	0.000508	5.075664	0.859841	0.000051
 163	1.6119e+01	1.6085	-12.474866	0.000463	4.625403	0.783565	0.000046
 164	1.6218e+01	1.6177	-12.427207	0.000479	4.789135	0.811301	0.000048
 165	1.6318e+01	1.6273	-12.374252	0.000532	5.321261	0.901446	0.000053
 166	1.6418e+01	1.6385	-12.329037	0.000454	4.543538	0.769696	0.000045
 167	1.6517e+01	1.6465	-12.285044	0.000442	4.420740	0.748894	0.000044
 168	1.6616e+01	1.6581	-12.233719	0.000516	5.157529	0.873709	0.000052
 169	1.6716e+01	1.6633	-12.185652	0.000483	4.830067	0.818236	0.000048
 170	1.6816e+01	1.6767	-12.144511	0.000413	4.134210	0.700354	0.000041
 171	1.6915e+01	1.6869	-12.096852	0.000479	4.789135	0.811301	0.000048
 172	1.7015e+01	1.6962	-12.051637	0.000454	4.543538	0.769696	0.000045
 173	1.7114e+01	1.7075	-12.005200	0.000467	4.666336	0.790499	0.000047
 174	1.7213e+01	1.7184	-11.962021	0.000434	4.338874	0.735025	0.000043
 175	1.7313e+01	1.7258	-11.920472	0.000418	4.175143	0.707288	0.000042
 176	1.7413e+01	1.7391	-11.871999	0.000487	4.871000	0.825170	0.000049
 177	1.7512e+01	1.7479	-11.827191	0.000450	4.502605	0.762762	0.000045
 178	1.7611e+01	1.7574	-11.783605	0.000438	4.379807	0.741959	0.000044
 179	1.7711e+01	1.7678	-11.740834	0.000430	4.297941	0.728091	0.000043
 180	1.7811e+01	1.7750	-11.693583	0.000475	4.748202	0.804367	0.000047
 181	1.7910e+01	1.7897	-11.652034	0.000418	4.175143	0.707288	0.000042
 182	1.8009e+01	1.7990	-11.606411	0.000458	4.584471	0.776630	0.000046
 183	1.8109e+01	1.8057	-11.561604	0.000450	4.502605	0.762762	0.000045
 184	1.8209e+01	1.8158	-11.515167	0.000467	4.666336	0.790499	0.000047
 185	1.8308e+01	1.8297	-11.471581	0.000438	4.379807	0.741959	0.000044
 186	1.8407e+01	1.8369	-11.422700	0.000491	4.911933	0.832104	0.000049
 187	1.8507e+01	1.8462	-11.381151	0.000418	4.175143	0.707288	0.000042
 188	1.8607e+01	1.8560	-11.332270	0.000491	4.911933	0.832104	0.000049
 189	1.8706e+01	1.8650	-11.281759	0.000508	5.075664	0.859841	0.000051
 190	1.8805e+01	1.8764	-11.236137	0.000458	4.584471	0.776630	0.000046
 191	1.8905e+01	1.8863	-11.190107	0.000463	4.625403	0.783565	0.000046
 192	1.9005e+01	1.8970	-11.146522	0.000438	4.379807	0.741959	0.000044
 193	1.9104e+01	1.9080	-11.098455	0.000483	4.830067	0.818236	0.000048
 194	1.9203e+01	1.9142	-11.054462	0.000442	4.420740	0.748894	0.000044
 195	1.9303e+01	1.9257	-11.007618	0.000471	4.707269	0.797433	0.000047
 196	1.9402e+01	1.9356	-10.959959	0.000479	4.789135	0.811301	0.000048
 197	1.9502e+01	1.9454	-10.914744	0.000454	4.543538	0.769696	0.000045
 198	1.9602e+01	1.9559	-10.865455	0.000495	4.952866	0.839038	0.000050
 199	1.9701e+01	1.9665	-10.820648	0.000450	4.502605	0.762762	0.000045
 200	1.9800e+01	1.9750	-10.773803	0.000471	4.707269	0.797433	0.000047
 201	1.9900e+01	1.9871	-10.731032	0.000430	4.297941	0.728091	0.000043
 202	2.0000e+01	1.9968	-10.684188	0.000471	4.707269	0.797433	0.000047
 203	2.0099e+01	2.0071	-10.638565	0.000458	4.584471	0.776630	0.000046
 204	2.0198e+01	2.0153	-10.587240	0.000516	5.157529	0.873709	0.000052
 205	2.0298e+01	2.0247	-10.546506	0.000409	4.093277	0.693420	0.000041
 206	2.0398e+01	2.0358	-10.500476	0.000463	4.625403	0.783565	0.000046
 207	2.0497e+01	2.0449	-10.455261	0.000454	4.543538	0.769696	0.000045
 208	2.0596e+01	2.0552	-10.407602	0.000479	4.789135	0.811301	0.000048
 209	2.0696e+01	2.0690	-10.362387	0.000454	4.543538	0.769696	0.000045
 210	2.0796e+01	2.0739	-10.315135	0.000475	4.748202	0.804367	0.000047
 211	2.0895e+01	2.0846	-10.269106	0.000463	4.625403	0.783565	0.000046
 212	2.0994e+01	2.0967	-10.228371	0.000409	4.093277	0.693420	0.000041
 213	2.1094e+01	2.1054	-10.178268	0.000503	5.034731	0.852907	0.000050
 214	2.1194e+01	2.1152	-10.133461	0.000450	4.502605	0.762762	0.000045
 215	2.1293e+01	2.1222	-10.085802	0.000479	4.789135	0.811301	0.000048
 216	2.1392e+01	2.1339	-10.040587	0.000454	4.543538	0.769696	0.000045
 217	2.1492e+01	2.1434	-9.993335	0.000475	4.748202	0.804367	0.000047
 218	2.1591e+01	2.1556	-9.947712	0.000458	4.584471	0.776630	0.000046
 219	2.1691e+01	2.1651	-9.903312	0.000446	4.461672	0.755828	0.000045
 220	2.1791e+01	2.1729	-9.853616	0.000499	4.993798	0.845972	0.000050
 221	2.1890e+01	2.1851	-9.808401	0.000454	4.543538	0.769696	0.000045
 222	2.1989e+01	2.1939	-9.766852	0.000418	4.175143	0.707288	0.000042
 223	2.2089e+01	2.2019	-9.713898	0.000532	5.321261	0.901446	0.000053
 224	2.2189e+01	2.2157	-9.671127	0.000430	4.297941	0.728091	0.000043
 225	2.2288e+01	2.2253	-9.623060	0.000483	4.830067	0.818236	0.000048
 226	2.2387e+01	2.2346	-9.577845	0.000454	4.543538	0.769696	0.000045
 227	2.2487e+01	2.2420	-9.533852	0.000442	4.420740	0.748894	0.000044
 228	2.2587e+01	2.2540	-9.484564	0.000495	4.952866	0.839038	0.000050
 229	2.2686e+01	2.2650	-9.440164	0.000446	4.461672	0.755828	0.000045
 230	2.2785e+01	2.2751	-9.395763	0.000446	4.461672	0.755828	0.000045
 231	2.2885e+01	2.2892	-9.345660	0.000503	5.034731	0.852907	0.000050
 232	2.2985e+01	2.2931	-9.302889	0.000430	4.297941	0.728091	0.000043
 233	2.3084e+01	2.3025	-9.258489	0.000446	4.461672	0.755828	0.000045
 234	2.3183e+01	2.3146	-9.216125	0.000426	4.257008	0.721157	0.000043
 235	2.3283e+01	2.3251	-9.165207	0.000512	5.116597	0.866775	0.000051
 236	2.3383e+01	2.3353	-9.121622	0.000438	4.379807	0.741959	0.000044
 237	2.3482e+01	2.3438	-9.081702	0.000401	4.011412	0.679552	0.000040
 238	2.3581e+01	2.3538	-9.035672	0.000463	4.625403	0.783565	0.000046
 239	2.3681e+01	2.3637	-8.990050	0.000458	4.584471	0.776630	0.000046
 240	2.3780e+01	2.3765	-8.948909	0.000413	4.134210	0.700354	0.000041
 241	2.3880e+01	2.3874	-8.904101	0.000450	4.502605	0.762762	0.000045
 242	2.3980e+01	2.3928	-8.856034	0.000483	4.830067	0.818236	0.000048
 243	2.4079e+01	2.4027	-8.813671	0.000426	4.257008	0.721157	0.000043
 244	2.4178e+01	2.4116	-8.770492	0.000434	4.338874	0.735025	0.000043
 245	2.4278e+01	2.4247	-8.723241	0.000475	4.748202	0.804367	0.000047
 246	2.4378e+01	2.4340	-8.682099	0.000413	4.134210	0.700354	0.000041
 247	2.4477e+01	2.4431	-8.636884	0.000454	4.543538	0.769696	0.000045
 248	2.4576e+01	2.4560	-8.588818	0.000483	4.830067	0.818236	0.000048
 249	2.4676e+01	2.4654	-8.548898	0.000401	4.011412	0.679552	0.000040
 250	2.4776e+01	2.4742	-8.498388	0.000508	5.075664	0.859841	0.000051
 251	2.4875e+01	2.4828	-8.452765	0.000458	4.584471	0.776630	0.000046
 252	2.4974e+01	2.4934	-8.408772	0.000442	4.420740	0.748894	0.000044
 253	2.5074e+01	2.5046	-8.359484	0.000495	4.952866	0.839038	0.000050
 254	2.5174e+01	2.5128	-8.316306	0.000434	4.338874	0.735025	0.000043
 255	2.5273e+01	2.5217	-8.272313	0.000442	4.420740	0.748894	0.000044
 256	2.5372e+01	2.5298	-8.226690	0.000458	4.584471	0.776630	0.000046
 257	2.5472e+01	2.5436	-8.175772	0.000512	5.116597	0.866775	0.000051
 258	2.5572e+01	2.5519	-8.128928	0.000471	4.707269	0.797433	0.000047
 259	2.5671e+01	2.5634	-8.084120	0.000450	4.502605	0.762762	0.000045
 260	2.5770e+01	2.5714	-8.035647	0.000487	4.871000	0.825170	0.000049
 261	2.5870e+01	2.5836	-7.988802	0.000471	4.707269	0.797433	0.000047
 262	2.5970e+01	2.5919	-7.936662	0.000524	5.239395	0.887578	0.000052
 263	2.6069e+01	2.6022	-7.892669	0.000442	4.420740	0.748894	0.000044
 264	2.6169e+01	2.6125	-7.845418	0.000475	4.748202	0.804367	0.000047
 265	2.6268e+01	2.6221	-7.794500	0.000512	5.116597	0.866775	0.000051
 266	2.6367e+01	2.6348	-7.749285	0.000454	4.543538	0.769696	0.000045
 267	2.6467e+01	2.6461	-7.705699	0.000438	4.379807	0.741959	0.000044
 268	2.6567e+01	2.6529	-7.656818	0.000491	4.911933	0.832104	0.000049
 269	2.6666e+01	2.6638	-7.610381	0.000467	4.666336	0.790499	0.000047
 270	2.6765e+01	2.6720	-7.567203	0.000434	4.338874	0.735025	0.000043
 271	2.6865e+01	2.6823	-7.520358	0.000471	4.707269	0.797433	0.000047
 272	2.6965e+01	2.6924	-7.475551	0.000450	4.502605	0.762762	0.000045
 273	2.7064e+01	2.7034	-7.429113	0.000467	4.666336	0.790499	0.000047
 274	2.7163e+01	2.7135	-7.384306	0.000450	4.502605	0.762762	0.000045
 275	2.7263e+01	2.7213	-7.336647	0.000479	4.789135	0.811301	0.000048
 276	2.7363e+01	2.7349	-7.291839	0.000450	4.502605	0.762762	0.000045
 277	2.7462e+01	2.7428	-7.247439	0.000446	4.461672	0.755828	0.000045
 278	2.7561e+01	2.7534	-7.201409	0.000463	4.625403	0.783565	0.000046
 279	2.7661e+01	2.7624	-7.156194	0.000454	4.543538	0.769696	0.000045
 280	2.7761e+01	2.7715	-7.113830	0.000426	4.257008	0.721157	0.000043
 281	2.7860e+01	2.7846	-7.064949	0.000491	4.911933	0.832104	0.000049
 282	2.7959e+01	2.7944	-7.021771	0.000434	4.338874	0.735025	0.000043
 283	2.8059e+01	2.8022	-6.978185	0.000438	4.379807	0.741959	0.000044
 284	2.8159e+01	2.8115	-6.930526	0.000479	4.789135	0.811301	0.000048
 285	2.8258e+01	2.8220	-6.885311	0.000454	4.543538	0.769696	0.000045
 286	2.8358e+01	2.8320	-6.840911	0.000446	4.461672	0.755828	0.000045
 287	2.8457e+01	2.8416	-6.796103	0.000450	4.502605	0.762762	0.000045
 288	2.8556e+01	2.8497	-6.750888	0.000454	4.543538	0.769696	0.000045
 289	2.8656e+01	2.8613	-6.701600	0.000495	4.952866	0.839038	0.000050
 290	2.8756e+01	2.8689	-6.658421	0.000434	4.338874	0.735025	0.000043
 291	2.8855e+01	2.8809	-6.614428	0.000442	4.420740	0.748894	0.000044
 292	2.8954e+01	2.8902	-6.567177	0.000475	4.748202	0.804367	0.000047
 293	2.9054e+01	2.9015	-6.522369	0.000450	4.502605	0.762762	0.000045
 294	2.9154e+01	2.9107	-6.475932	0.000467	4.666336	0.790499	0.000047
 295	2.9253e+01	2.9196	-6.434383	0.000418	4.175143	0.707288	0.000042
 296	2.9352e+01	2.9327	-6.388353	0.000463	4.625403	0.783565	0.000046
 297	2.9452e+01	2.9382	-6.342731	0.000458	4.584471	0.776630	0.000046
 298	2.9552e+01	2.9508	-6.298738	0.000442	4.420740	0.748894	0.000044
 299	2.9651e+01	2.9610	-6.252708	0.000463	4.625403	0.783565	0.000046
 300	2.9750e+01	2.9704	-6.211974	0.000409	4.093277	0.693420	0.000041
 301	2.9850e+01	2.9787	-6.168796	0.000434	4.338874	0.735025	0.000043
 302	2.9950e+01	2.9946	-6.121137	0.000479	4.789135	0.811301	0.000048
 303	3.0049e+01	3.0003	-6.076736	0.000446	4.461672	0.755828	0.000045
 304	3.0148e+01	3.0122	-6.033151	0.000438	4.379807	0.741959	0.000044
 305	3.0248e+01	3.0207	-5.991194	0.000422	4.216076	0.714223	0.000042
 306	3.0348e+01	3.0283	-5.945165	0.000463	4.625403	0.783565	0.000046
 307	3.0447e+01	3.0408	-5.900764	0.000446	4.461672	0.755828	0.000045
 308	3.0547e+01	3.0505	-5.858401	0.000426	4.257008	0.721157	0.000043
 309	3.0646e+01	3.0601	-5.810334	0.000483	4.830067	0.818236	0.000048
 310	3.0745e+01	3.0703	-5.769193	0.000413	4.134210	0.700354	0.000041
 311	3.0845e+01	3.0785	-5.725607	0.000438	4.379807	0.741959	0.000044
 312	3.0945e+01	3.0933	-5.682429	0.000434	4.338874	0.735025	0.000043
 313	3.1044e+01	3.1001	-5.638028	0.000446	4.461672	0.755828	0.000045
 314	3.1143e+01	3.1106	-5.593628	0.000446	4.461672	0.755828	0.000045
 315	3.1243e+01	3.1179	-5.551264	0.000426	4.257008	0.721157	0.000043
 316	3.1343e+01	3.1290	-5.502791	0.000487	4.871000	0.825170	0.000049
 317	3.1442e+01	3.1411	-5.463278	0.000397	3.970479	0.672617	0.000040
 318	3.1541e+01	3.1501	-5.417249	0.000463	4.625403	0.783565	0.000046
 319	3.1641e+01	3.1575	-5.374478	0.000430	4.297941	0.728091	0.000043
 320	3.1741e+01	3.1701	-5.326004	0.000487	4.871000	0.825170	0.000049
 321	3.1840e+01	3.1800	-5.282011	0.000442	4.420740	0.748894	0.000044
 322	3.1939e+01	3.1893	-5.235166	0.000471	4.707269	0.797433	0.000047
 323	3.2039e+01	3.2012	-5.187100	0.000483	4.830067	0.818236	0.000048
 324	3.2139e+01	3.2092	-5.142700	0.000446	4.461672	0.755828	0.000045
 325	3.2238e+01	3.2173	-5.097892	0.000450	4.502605	0.762762	0.000045
 326	3.2337e+01	3.2269	-5.050233	0.000479	4.789135	0.811301	0.000048
 327	3.2437e+01	3.2397	-5.005425	0.000450	4.502605	0.762762	0.000045
 328	3.2536e+01	3.2507	-4.961432	0.000442	4.420740	0.748894	0.000044
 329	3.2636e+01	3.2597	-4.919069	0.000426	4.257008	0.721157	0.000043
 330	3.2736e+01	3.2705	-4.875890	0.000434	4.338874	0.735025	0.000043
 331	3.2835e+01	3.2819	-4.827824	0.000483	4.830067	0.818236	0.000048
 332	3.2934e+01	3.2864	-4.785868	0.000422	4.216076	0.714223	0.000042
 333	3.3034e+01	3.3001	-4.736987	0.000491	4.911933	0.832104	0.000049
 334	3.3133e+01	3.3106	-4.695030	0.000422	4.216076	0.714223	0.000042
 335	3.3233e+01	3.3169	-4.654296	0.000409	4.093277	0.693420	0.000041
 336	3.3333e+01	3.3292	-4.611525	0.000430	4.297941	0.728091	0.000043
 337	3.3432e+01	3.3364	-4.567532	0.000442	4.420740	0.748894	0.000044
 338	3.3532e+01	3.3487	-4.527205	0.000405	4.052345	0.686486	0.000041
 339	3.3631e+01	3.3584	-4.484027	0.000434	4.338874	0.735025	0.000043
 340	3.3730e+01	3.3694	-4.444515	0.000397	3.970479	0.672617	0.000040
 341	3.3830e+01	3.3794	-4.398485	0.000463	4.625403	0.783565	0.000046
 342	3.3929e+01	3.3883	-4.358973	0.000397	3.970479	0.672617	0.000040
 343	3.4029e+01	3.3997	-4.319053	0.000401	4.011412	0.679552	0.000040
 344	3.4129e+01	3.4082	-4.277911	0.000413	4.134210	0.700354	0.000041
 345	3.4228e+01	3.4191	-4.236770	0.000413	4.134210	0.700354	0.000041
 346	3.4328e+01	3.4259	-4.197665	0.000393	3.929546	0.665683	0.000039
 347	3.4427e+01	3.4402	-4.158560	0.000393	3.929546	0.665683	0.000039
 348	3.4526e+01	3.4487	-4.116196	0.000426	4.257008	0.721157	0.000043
 349	3.4626e+01	3.4592	-4.073018	0.000434	4.338874	0.735025	0.000043
 350	3.4725e+01	3.4701	-4.034728	0.000385	3.847681	0.651815	0.000038
 351	3.4825e+01	3.4787	-3.991142	0.000438	4.379807	0.741959	0.000044
 352	3.4925e+01	3.4885	-3.950001	0.000413	4.134210	0.700354	0.000041
 353	3.5024e+01	3.4967	-3.905193	0.000450	4.502605	0.762762	0.000045
 354	3.5123e+01	3.5099	-3.864051	0.000413	4.134210	0.700354	0.000041
 355	3.5223e+01	3.5212	-3.823725	0.000405	4.052345	0.686486	0.000041
 356	3.5322e+01	3.5291	-3.782583	0.000413	4.134210	0.700354	0.000041
 357	3.5422e+01	3.5402	-3.741441	0.000413	4.134210	0.700354	0.000041
 358	3.5522e+01	3.5493	-3.699078	0.000426	4.257008	0.721157	0.000043
 359	3.5621e+01	3.5571	-3.653455	0.000458	4.584471	0.776630	0.000046
 360	3.5721e+01	3.5678	-3.615165	0.000385	3.847681	0.651815	0.000038
 361	3.5820e+01	3.5781	-3.569950	0.000454	4.543538	0.769696	0.000045
 362	3.5919e+01	3.5889	-3.528401	0.000418	4.175143	0.707288	0.000042
 363	3.6019e+01	3.6016	-3.485630	0.000430	4.297941	0.728091	0.000043
 364	3.6118e+01	3.6116	-3.442452	0.000434	4.338874	0.735025	0.000043
 365	3.6218e+01	3.6184	-3.400903	0.000418	4.175143	0.707288	0.000042
 366	3.6318e+01	3.6309	-3.357317	0.000438	4.379807	0.741959	0.000044
 367	3.6417e+01	3.6358	-3.315361	0.000422	4.216076	0.714223	0.000042
 368	3.6517e+01	3.6484	-3.275849	0.000397	3.970479	0.672617	0.000040
 369	3.6616e+01	3.6597	-3.230226	0.000458	4.584471	0.776630	0.000046
 370	3.6715e+01	3.6673	-3.187863	0.000426	4.257008	0.721157	0.000043
 371	3.6815e+01	3.6777	-3.149165	0.000389	3.888613	0.658749	0.000039
 372	3.6914e+01	3.6909	-3.104765	0.000446	4.461672	0.755828	0.000045
 373	3.7014e+01	3.6957	-3.065253	0.000397	3.970479	0.672617	0.000040
 374	3.7114e+01	3.7072	-3.022482	0.000430	4.297941	0.728091	0.000043
 375	3.7213e+01	3.7139	-2.978896	0.000438	4.379807	0.741959	0.000044
 376	3.7313e+01	3.7244	-2.938569	0.000405	4.052345	0.686486	0.000041
 377	3.7412e+01	3.7370	-2.899464	0.000393	3.929546	0.665683	0.000039
 378	3.7511e+01	3.7481	-2.857101	0.000426	4.257008	0.721157	0.000043
 379	3.7611e+01	3.7569	-2.813922	0.000434	4.338874	0.735025	0.000043
 380	3.7711e+01	3.7663	-2.775225	0.000389	3.888613	0.658749	0.000039
 381	3.7810e+01	3.7785	-2.731639	0.000438	4.379807	0.741959	0.000044
 382	3.7910e+01	3.7853	-2.690090	0.000418	4.175143	0.707288	0.000042
 383	3.8009e+01	3.7969	-2.648541	0.000418	4.175143	0.707288	0.000042
 384	3.8108e+01	3.8037	-2.605770	0.000430	4.297941	0.728091	0.000043
 385	3.8208e+01	3.8158	-2.564221	0.000418	4.175143	0.707288	0.000042
 386	3.8307e+01	3.8277	-2.519414	0.000450	4.502605	0.762762	0.000045
 387	3.8407e+01	3.8374	-2.479494	0.000401	4.011412	0.679552	0.000040
 388	3.8507e+01	3.8459	-2.437538	0.000422	4.216076	0.714223	0.000042
 389	3.8606e+01	3.8561	-2.394360	0.000434	4.338874	0.735025	0.000043
 390	3.8706e+01	3.8679	-2.357291	0.000372	3.724882	0.631012	0.000037
 391	3.8805e+01	3.8754	-2.309225	0.000483	4.830067	0.818236	0.000048
 392	3.8904e+01	3.8833	-2.273379	0.000360	3.602084	0.610210	0.000036
 393	3.9004e+01	3.8967	-2.227756	0.000458	4.584471	0.776630	0.000046
 394	3.9103e+01	3.9068	-2.187837	0.000401	4.011412	0.679552	0.000040
 395	3.9203e+01	3.9159	-2.147510	0.000405	4.052345	0.686486	0.000041
 396	3.9303e+01	3.9257	-2.105961	0.000418	4.175143	0.707288	0.000042
 397	3.9402e+01	3.9382	-2.062783	0.000434	4.338874	0.735025	0.000043
 398	3.9502e+01	3.9458	-2.020012	0.000430	4.297941	0.728091	0.000043
 399	3.9601e+01	3.9580	-1.978870	0.000413	4.134210	0.700354	0.000041
 400	3.9700e+01	3.9655	-1.939358	0.000397	3.970479	0.672617	0.000040
 401	3.9800e+01	3.9775	-1.895772	0.000438	4.379807	0.741959	0.000044
 402	3.9900e+01	3.9861	-1.854631	0.000413	4.134210	0.700354	0.000041
 403	3.9999e+01	3.9936	-1.817562	0.000372	3.724882	0.631012	0.000037
 404	4.0099e+01	4.0046	-1.776014	0.000418	4.175143	0.707288	0.000042
 405	4.0198e+01	4.0150	-1.736501	0.000397	3.970479	0.672617	0.000040
 406	4.0297e+01	4.0267	-1.696174	0.000405	4.052345	0.686486	0.000041
 407	4.0397e+01	4.0340	-1.657069	0.000393	3.929546	0.665683	0.000039
 408	4.0496e+01	4.0439	-1.620001	0.000372	3.724882	0.631012	0.000037
 409	4.0596e+01	4.0591	-1.576416	0.000438	4.379807	0.741959	0.000044
 410	4.0696e+01	4.0643	-1.535681	0.000409	4.093277	0.693420	0.000041
 411	4.0795e+01	4.0759	-1.496169	0.000397	3.970479	0.672617	0.000040
 412	4.0895e+01	4.0859	-1.458286	0.000381	3.806748	0.644881	0.000038
 413	4.0994e+01	4.0965	-1.417552	0.000409	4.093277	0.693420	0.000041
 414	4.1093e+01	4.1067	-1.374781	0.000430	4.297941	0.728091	0.000043
 415	4.1193e+01	4.1138	-1.336084	0.000389	3.888613	0.658749	0.000039
 416	4.1292e+01	4.1276	-1.295757	0.000405	4.052345	0.686486	0.000041
 417	4.1392e+01	4.1373	-1.255837	0.000401	4.011412	0.679552	0.000040
 418	4.1492e+01	4.1446	-1.213473	0.000426	4.257008	0.721157	0.000043
 419	4.1591e+01	4.1547	-1.173554	0.000401	4.011412	0.679552	0.000040
 420	4.1691e+01	4.1631	-1.129561	0.000442	4.420740	0.748894	0.000044
 421	4.1790e+01	4.1757	-1.090049	0.000397	3.970479	0.672617	0.000040
 422	4.1889e+01	4.1853	-1.046463	0.000438	4.379807	0.741959	0.000044
 423	4.1989e+01	4.1964	-1.002877	0.000438	4.379807	0.741959	0.000044
 424	4.2089e+01	4.2055	-0.962958	0.000401	4.011412	0.679552	0.000040
 425	4.2188e+01	4.2141	-0.921409	0.000418	4.175143	0.707288	0.000042
 426	4.2288e+01	4.2211	-0.875379	0.000463	4.625403	0.783565	0.000046
 427	4.2387e+01	4.2373	-0.834238	0.000413	4.134210	0.700354	0.000041
 428	4.2486e+01	4.2417	-0.791059	0.000434	4.338874	0.735025	0.000043
 429	4.2586e+01	4.2556	-0.745030	0.000463	4.625403	0.783565	0.000046
 430	4.2685e+01	4.2654	-0.701851	0.000434	4.338874	0.735025	0.000043
 431	4.2785e+01	4.2762	-0.655822	0.000463	4.625403	0.783565	0.000046
 432	4.2885e+01	4.2834	-0.614273	0.000418	4.175143	0.707288	0.000042
 433	4.2984e+01	4.2963	-0.572724	0.000418	4.175143	0.707288	0.000042
 434	4.3084e+01	4.3041	-0.527509	0.000454	4.543538	0.769696	0.000045
 435	4.3183e+01	4.3137	-0.486367	0.000413	4.134210	0.700354	0.000041
 436	4.3282e+01	4.3236	-0.445225	0.000413	4.134210	0.700354	0.000041
 437	4.3382e+01	4.3343	-0.405713	0.000397	3.970479	0.672617	0.000040
 438	4.3481e+01	4.3412	-0.363350	0.000426	4.257008	0.721157	0.000043
 439	4.3581e+01	4.3531	-0.323023	0.000405	4.052345	0.686486	0.000041
 440	4.3681e+01	4.3627	-0.282288	0.000409	4.093277	0.693420	0.000041
 441	4.3780e+01	4.3743	-0.239110	0.000434	4.338874	0.735025	0.000043
 442	4.3880e+01	4.3835	-0.198376	0.000409	4.093277	0.693420	0.000041
 443	4.3979e+01	4.3933	-0.157642	0.000409	4.093277	0.693420	0.000041
 444	4.4078e+01	4.4052	-0.116500	0.000413	4.134210	0.700354	0.000041
 445	4.4178e+01	4.4147	-0.080654	0.000360	3.602084	0.610210	0.000036
 446	4.4278e+01	4.4247	-0.037068	0.000438	4.379807	0.741959	0.000044
 447	4.4377e+01	4.4357	0.005295	0.000426	4.257008	0.721157	0.000043
 448	4.4477e+01	4.4459	0.044400	0.000393	3.929546	0.665683	0.000039
 449	4.4576e+01	4.4543	0.089615	0.000454	4.543538	0.769696	0.000045
 450	4.4675e+01	4.4629	0.126276	0.000368	3.683950	0.624078	0.000037
 451	4.4775e+01	4.4727	0.167825	0.000418	4.175143	0.707288	0.000042
 452	4.4874e+01	4.4818	0.211411	0.000438	4.379807	0.741959	0.000044
 453	4.4974e+01	4.4927	0.248072	0.000368	3.683950	0.624078	0.000037
 454	4.5074e+01	4.5019	0.288399	0.000405	4.052345	0.686486	0.000041
 455	4.5173e+01	4.5128	0.331984	0.000438	4.379807	0.741959	0.000044
 456	4.5273e+01	4.5239	0.369052	0.000372	3.724882	0.631012	0.000037
 457	4.5372e+01	4.5333	0.412638	0.000438	4.379807	0.741959	0.000044
 458	4.5471e+01	4.5444	0.451743	0.000393	3.929546	0.665683	0.000039
 459	4.5571e+01	4.5554	0.498995	0.000475	4.748202	0.804367	0.000047
 460	4.5670e+01	4.5640	0.534433	0.000356	3.561151	0.603275	0.000036
 461	4.5770e+01	4.5733	0.576797	0.000426	4.257008	0.721157	0.000043
 462	4.5870e+01	4.5835	0.617531	0.000409	4.093277	0.693420	0.000041
 463	4.5969e+01	4.5939	0.658673	0.000413	4.134210	0.700354	0.000041
 464	4.6069e+01	4.5995	0.698592	0.000401	4.011412	0.679552	0.000040
 465	4.6168e+01	4.6145	0.738512	0.000401	4.011412	0.679552	0.000040
 466	4.6267e+01	4.6255	0.777210	0.000389	3.888613	0.658749	0.000039
 467	4.6367e+01	4.6339	0.819166	0.000422	4.216076	0.714223	0.000042
 468	4.6467e+01	4.6404	0.859900	0.000409	4.093277	0.693420	0.000041
 469	4.6566e+01	4.6510	0.897376	0.000377	3.765815	0.637946	0.000038
 470	4.6666e+01	4.6621	0.940147	0.000430	4.297941	0.728091	0.000043
 471	4.6765e+01	4.6720	0.979659	0.000397	3.970479	0.672617	0.000040
 472	4.6864e+01	4.6819	1.013061	0.000336	3.356487	0.568604	0.000034
 473	4.6964e+01	4.6957	1.057461	0.000446	4.461672	0.755828	0.000045
 474	4.7063e+01	4.7041	1.097381	0.000401	4.011412	0.679552	0.000040
 475	4.7163e+01	4.7137	1.135264	0.000381	3.806748	0.644881	0.000038
 476	4.7263e+01	4.7201	1.177627	0.000426	4.257008	0.721157	0.000043
 477	4.7362e+01	4.7295	1.215103	0.000377	3.765815	0.637946	0.000038
 478	4.7462e+01	4.7422	1.252986	0.000381	3.806748	0.644881	0.000038
 479	4.7561e+01	4.7549	1.297386	0.000446	4.461672	0.755828	0.000045
 480	4.7660e+01	4.7601	1.332010	0.000348	3.479286	0.589407	0.000035
 481	4.7760e+01	4.7713	1.379262	0.000475	4.748202	0.804367	0.000047
 482	4.7859e+01	4.7794	1.417145	0.000381	3.806748	0.644881	0.000038
 483	4.7959e+01	4.7912	1.452991	0.000360	3.602084	0.610210	0.000036
 484	4.8059e+01	4.8029	1.493725	0.000409	4.093277	0.693420	0.000041
 485	4.8158e+01	4.8119	1.530386	0.000368	3.683950	0.624078	0.000037
 486	4.8258e+01	4.8223	1.573972	0.000438	4.379807	0.741959	0.000044
 487	4.8357e+01	4.8321	1.614706	0.000409	4.093277	0.693420	0.000041
 488	4.8456e+01	4.8431	1.655440	0.000409	4.093277	0.693420	0.000041
 489	4.8556e+01	4.8515	1.698211	0.000430	4.297941	0.728091	0.000043
 490	4.8656e+01	4.8626	1.740575	0.000426	4.257008	0.721157	0.000043
 491	4.8755e+01	4.8727	1.778865	0.000385	3.847681	0.651815	0.000038
 492	4.8855e+01	4.8820	1.822858	0.000442	4.420740	0.748894	0.000044
 493	4.8954e+01	4.8910	1.865629	0.000430	4.297941	0.728091	0.000043
 494	4.9053e+01	4.9030	1.903512	0.000381	3.806748	0.644881	0.000038
 495	4.9153e+01	4.9107	1.945061	0.000418	4.175143	0.707288	0.000042
 496	4.9252e+01	4.9212	1.984980	0.000401	4.011412	0.679552	0.000040
 497	4.9352e+01	4.9329	2.025715	0.000409	4.093277	0.693420	0.000041
 498	4.9452e+01	4.9426	2.069300	0.000438	4.379807	0.741959	0.000044
 499	4.9551e+01	4.9509	2.108812	0.000397	3.970479	0.672617	0.000040
 500	4.9651e+01	4.9638	2.151176	0.000426	4.257008	0.721157	0.000043
 501	4.9750e+01	4.9720	2.184171	0.000332	3.315555	0.561670	0.000033
 502	4.9849e+01	4.9810	2.224498	0.000405	4.052345	0.686486	0.000041
 503	4.9949e+01	4.9914	2.262788	0.000385	3.847681	0.651815	0.000038
 504	5.0048e+01	5.0033	2.297005	0.000344	3.438353	0.582473	0.000034
 505	5.0148e+01	5.0111	2.338554	0.000418	4.175143	0.707288	0.000042
 506	5.0248e+01	5.0214	2.376436	0.000381	3.806748	0.644881	0.000038
 507	5.0347e+01	5.0313	2.415134	0.000389	3.888613	0.658749	0.000039
 508	5.0447e+01	5.0426	2.452202	0.000372	3.724882	0.631012	0.000037
 509	5.0546e+01	5.0513	2.489678	0.000377	3.765815	0.637946	0.000038
 510	5.0645e+01	5.0646	2.526339	0.000368	3.683950	0.624078	0.000037
 511	5.0745e+01	5.0697	2.565851	0.000397	3.970479	0.672617	0.000040
 512	5.0844e+01	5.0839	2.595587	0.000299	2.988092	0.506197	0.000030
 513	5.0944e+01	5.0910	2.631840	0.000364	3.643017	0.617144	0.000036
 514	5.1044e+01	5.0983	2.671760	0.000401	4.011412	0.679552	0.000040
 515	5.1143e+01	5.1102	2.708013	0.000364	3.643017	0.617144	0.000036
 516	5.1242e+01	5.1208	2.744267	0.000364	3.643017	0.617144	0.000036
 517	5.1342e+01	5.1331	2.777669	0.000336	3.356487	0.568604	0.000034
 518	5.1441e+01	5.1360	2.815552	0.000381	3.806748	0.644881	0.000038
 519	5.1541e+01	5.1504	2.854657	0.000393	3.929546	0.665683	0.000039
 520	5.1641e+01	5.1574	2.889688	0.000352	3.520219	0.596341	0.000035
 521	5.1740e+01	5.1717	2.926756	0.000372	3.724882	0.631012	0.000037
 522	5.1840e+01	5.1820	2.968713	0.000422	4.216076	0.714223	0.000042
 523	5.1939e+01	5.1911	3.004151	0.000356	3.561151	0.603275	0.000036
 524	5.2038e+01	5.2010	3.043256	0.000393	3.929546	0.665683	0.000039
 525	5.2138e+01	5.2090	3.081954	0.000389	3.888613	0.658749	0.000039
 526	5.2237e+01	5.2182	3.120244	0.000385	3.847681	0.651815	0.000038
 527	5.2337e+01	5.2309	3.159756	0.000397	3.970479	0.672617	0.000040
 528	5.2437e+01	5.2359	3.195602	0.000360	3.602084	0.610210	0.000036
 529	5.2536e+01	5.2473	3.236744	0.000413	4.134210	0.700354	0.000041
 530	5.2636e+01	5.2596	3.274219	0.000377	3.765815	0.637946	0.000038
 531	5.2735e+01	5.2679	3.312510	0.000385	3.847681	0.651815	0.000038
 532	5.2834e+01	5.2797	3.351615	0.000393	3.929546	0.665683	0.000039
 533	5.2934e+01	5.2897	3.387053	0.000356	3.561151	0.603275	0.000036
 534	5.3033e+01	5.2990	3.425344	0.000385	3.847681	0.651815	0.000038
 535	5.3133e+01	5.3070	3.465263	0.000401	4.011412	0.679552	0.000040
 536	5.3233e+01	5.3184	3.500702	0.000356	3.561151	0.603275	0.000036
 537	5.3332e+01	5.3304	3.541029	0.000405	4.052345	0.686486	0.000041
 538	5.3431e+01	5.3413	3.579319	0.000385	3.847681	0.651815	0.000038
 539	5.3531e+01	5.3478	3.614758	0.000356	3.561151	0.603275	0.000036
 540	5.3630e+01	5.3596	3.651826	0.000372	3.724882	0.631012	0.000037
 541	5.3730e+01	5.3674	3.687672	0.000360	3.602084	0.610210	0.000036
 542	5.3830e+01	5.3770	3.724333	0.000368	3.683950	0.624078	0.000037
 543	5.3929e+01	5.3862	3.762623	0.000385	3.847681	0.651815	0.000038
 544	5.4029e+01	5.3966	3.798062	0.000356	3.561151	0.603275	0.000036
 545	5.4128e+01	5.4075	3.840018	0.000422	4.216076	0.714223	0.000042
 546	5.4227e+01	5.4192	3.876679	0.000368	3.683950	0.624078	0.000037
 547	5.4327e+01	5.4288	3.913747	0.000372	3.724882	0.631012	0.000037
 548	5.4426e+01	5.4382	3.954074	0.000405	4.052345	0.686486	0.000041
 549	5.4526e+01	5.4481	3.992772	0.000389	3.888613	0.658749	0.000039
 550	5.4626e+01	5.4602	4.028210	0.000356	3.561151	0.603275	0.000036
 551	5.4725e+01	5.4677	4.067723	0.000397	3.970479	0.672617	0.000040
 552	5.4825e+01	5.4787	4.103162	0.000356	3.561151	0.603275	0.000036
 553	5.4924e+01	5.4884	4.139822	0.000368	3.683950	0.624078	0.000037
 554	5.5023e+01	5.5010	4.182593	0.000430	4.297941	0.728091	0.000043
 555	5.5123e+01	5.5061	4.218439	0.000360	3.602084	0.610210	0.000036
 556	5.5222e+01	5.5170	4.255508	0.000372	3.724882	0.631012	0.000037
 557	5.5322e+01	5.5282	4.294613	0.000393	3.929546	0.665683	0.000039
 558	5.5422e+01	5.5371	4.333717	0.000393	3.929546	0.665683	0.000039
 559	5.5521e+01	5.5480	4.367934	0.000344	3.438353	0.582473	0.000034
 560	5.5620e+01	5.5588	4.404188	0.000364	3.643017	0.617144	0.000036
 561	5.5720e+01	5.5675	4.442885	0.000389	3.888613	0.658749	0.000039
 562	5.5819e+01	5.5771	4.482397	0.000397	3.970479	0.672617	0.000040
 563	5.5919e+01	5.5885	4.521910	0.000397	3.970479	0.672617	0.000040
 564	5.6019e+01	5.5987	4.562237	0.000405	4.052345	0.686486	0.000041
 565	5.6118e+01	5.6064	4.595231	0.000332	3.315555	0.561670	0.000033
 566	5.6218e+01	5.6178	4.633114	0.000381	3.806748	0.644881	0.000038
 567	5.6317e+01	5.6281	4.670590	0.000377	3.765815	0.637946	0.000038
 568	5.6416e+01	5.6402	4.707251	0.000368	3.683950	0.624078	0.000037
 569	5.6516e+01	5.6472	4.743911	0.000368	3.683950	0.624078	0.000037
 570	5.6615e+01	5.6568	4.778128	0.000344	3.438353	0.582473	0.000034
 571	5.6715e+01	5.6689	4.816418	0.000385	3.847681	0.651815	0.000038
 572	5.6815e+01	5.6762	4.852264	0.000360	3.602084	0.610210	0.000036
 573	5.6914e+01	5.6875	4.889333	0.000372	3.724882	0.631012	0.000037
 574	5.7014e+01	5.6974	4.924771	0.000356	3.561151	0.603275	0.000036
 575	5.7113e+01	5.7095	4.957766	0.000332	3.315555	0.561670	0.000033
 576	5.7212e+01	5.7180	4.994834	0.000372	3.724882	0.631012	0.000037
 577	5.7312e+01	5.7261	5.033532	0.000389	3.888613	0.658749	0.000039
 578	5.7411e+01	5.7380	5.067749	0.000344	3.438353	0.582473	0.000034
 579	5.7511e+01	5.7480	5.101965	0.000344	3.438353	0.582473	0.000034
 580	5.7611e+01	5.7551	5.139441	0.000377	3.765815	0.637946	0.000038
 581	5.7710e+01	5.7671	5.173250	0.000340	3.397420	0.575539	0.000034
 582	5.7809e+01	5.7793	5.211541	0.000385	3.847681	0.651815	0.000038
 583	5.7909e+01	5.7880	5.249423	0.000381	3.806748	0.644881	0.000038
 584	5.8008e+01	5.7940	5.284455	0.000352	3.520219	0.596341	0.000035
 585	5.8108e+01	5.8070	5.321116	0.000368	3.683950	0.624078	0.000037
 586	5.8208e+01	5.8166	5.358999	0.000381	3.806748	0.644881	0.000038
 587	5.8307e+01	5.8285	5.399326	0.000405	4.052345	0.686486	0.000041
 588	5.8407e+01	5.8352	5.437208	0.000381	3.806748	0.644881	0.000038
 589	5.8506e+01	5.8448	5.475499	0.000385	3.847681	0.651815	0.000038
 590	5.8605e+01	5.8570	5.512159	0.000368	3.683950	0.624078	0.000037
 591	5.8705e+01	5.8692	5.550042	0.000381	3.806748	0.644881	0.000038
 592	5.8804e+01	5.8774	5.588332	0.000385	3.847681	0.651815	0.000038
 593	5.8904e+01	5.8881	5.630289	0.000422	4.216076	0.714223	0.000042
 594	5.9004e+01	5.8959	5.668172	0.000381	3.806748	0.644881	0.000038
 595	5.9103e+01	5.9066	5.704832	0.000368	3.683950	0.624078	0.000037
 596	5.9203e+01	5.9180	5.747196	0.000426	4.257008	0.721157	0.000043
 597	5.9302e+01	5.9261	5.787930	0.000409	4.093277	0.693420	0.000041
 598	5.9401e+01	5.9371	5.825813	0.000381	3.806748	0.644881	0.000038
 599	5.9501e+01	5.9460	5.868584	0.000430	4.297941	0.728091	0.000043
 600	5.9600e+01	5.9556	5.904430	0.000360	3.602084	0.610210	0.000036
 601	5.9700e+01	5.9652	5.943535	0.000393	3.929546	0.665683	0.000039
 602	5.9800e+01	5.9759	5.980603	0.000372	3.724882	0.631012	0.000037
 603	5.9899e+01	5.9863	6.018894	0.000385	3.847681	0.651815	0.000038
 604	5.9998e+01	5.9971	6.059220	0.000405	4.052345	0.686486	0.000041
 605	6.0098e+01	6.0053	6.091401	0.000323	3.233689	0.547802	0.000032
 606	6.0197e+01	6.0157	6.129691	0.000385	3.847681	0.651815	0.000038
 607	6.0297e+01	6.0259	6.167574	0.000381	3.806748	0.644881	0.000038
 608	6.0397e+01	6.0363	6.205049	0.000377	3.765815	0.637946	0.000038
 609	6.0496e+01	6.0445	6.242932	0.000381	3.806748	0.644881	0.000038
 610	6.0596e+01	6.0557	6.278371	0.000356	3.561151	0.603275	0.000036
 611	6.0695e+01	6.0673	6.315439	0.000372	3.724882	0.631012	0.000037
 612	6.0794e+01	6.0772	6.355358	0.000401	4.011412	0.679552	0.000040
 613	6.0894e+01	6.0836	6.390797	0.000356	3.561151	0.603275	0.000036
 614	6.0993e+01	6.0952	6.425421	0.000348	3.479286	0.589407	0.000035
 615	6.1093e+01	6.1062	6.461675	0.000364	3.643017	0.617144	0.000036
 616	6.1193e+01	6.1170	6.502409	0.000409	4.093277	0.693420	0.000041
 617	6.1292e+01	6.1269	6.541107	0.000389	3.888613	0.658749	0.000039
 618	6.1392e+01	6.1358	6.574509	0.000336	3.356487	0.568604	0.000034
 619	6.1491e+01	6.1475	6.611984	0.000377	3.765815	0.637946	0.000038
 620	6.1590e+01	6.1553	6.655163	0.000434	4.338874	0.735025	0.000043
 621	6.1690e+01	6.1657	6.688157	0.000332	3.315555	0.561670	0.000033
 622	6.1789e+01	6.1739	6.726855	0.000389	3.888613	0.658749	0.000039
 623	6.1889e+01	6.1861	6.761886	0.000352	3.520219	0.596341	0.000035
 624	6.1989e+01	6.1922	6.800584	0.000389	3.888613	0.658749	0.000039
 625	6.2088e+01	6.2038	6.837245	0.000368	3.683950	0.624078	0.000037
 626	6.2188e+01	6.2164	6.874313	0.000372	3.724882	0.631012	0.000037
 627	6.2287e+01	6.2247	6.911381	0.000372	3.724882	0.631012	0.000037
 628	6.2386e+01	6.2365	6.947635	0.000364	3.643017	0.617144	0.000036
 629	6.2486e+01	6.2451	6.985517	0.000381	3.806748	0.644881	0.000038
 630	6.2586e+01	6.2530	7.021771	0.000364	3.643017	0.617144	0.000036
 631	6.2685e+01	6.2650	7.056395	0.000348	3.479286	0.589407	0.000035
 632	6.2785e+01	6.2725	7.093463	0.000372	3.724882	0.631012	0.000037
 633	6.2884e+01	6.2835	7.130124	0.000368	3.683950	0.624078	0.000037
 634	6.2983e+01	6.2939	7.165563	0.000356	3.561151	0.603275	0.000036
 635	6.3083e+01	6.3037	7.201002	0.000356	3.561151	0.603275	0.000036
 636	6.3182e+01	6.3139	7.237662	0.000368	3.683950	0.624078	0.000037
 637	6.3282e+01	6.3235	7.273916	0.000364	3.643017	0.617144	0.000036
 638	6.3382e+01	6.3341	7.309762	0.000360	3.602084	0.610210	0.000036
 639	6.3481e+01	6.3449	7.348052	0.000385	3.847681	0.651815	0.000038
 640	6.3581e+01	6.3514	7.381862	0.000340	3.397420	0.575539	0.000034
 641	6.3680e+01	6.3624	7.412820	0.000311	3.110891	0.526999	0.000031
 642	6.3779e+01	6.3741	7.453147	0.000405	4.052345	0.686486	0.000041
 643	6.3879e+01	6.3827	7.490622	0.000377	3.765815	0.637946	0.000038
 644	6.3978e+01	6.3946	7.528505	0.000381	3.806748	0.644881	0.000038
 645	6.4078e+01	6.4041	7.564351	0.000360	3.602084	0.610210	0.000036
 646	6.4177e+01	6.4185	7.599383	0.000352	3.520219	0.596341	0.000035
 647	6.4277e+01	6.4251	7.636858	0.000377	3.765815	0.637946	0.000038
 648	6.4376e+01	6.4336	7.667816	0.000311	3.110891	0.526999	0.000031
 649	6.4476e+01	6.4429	7.703662	0.000360	3.602084	0.610210	0.000036
 650	6.4576e+01	6.4532	7.742360	0.000389	3.888613	0.658749	0.000039
 651	6.4675e+01	6.4638	7.779021	0.000368	3.683950	0.624078	0.000037
 652	6.4775e+01	6.4739	7.812015	0.000332	3.315555	0.561670	0.000033
 653	6.4874e+01	6.4841	7.851120	0.000393	3.929546	0.665683	0.000039
 654	6.4974e+01	6.4925	7.888596	0.000377	3.765815	0.637946	0.000038
 655	6.5073e+01	6.5028	7.926071	0.000377	3.765815	0.637946	0.000038
 656	6.5172e+01	6.5112	7.964362	0.000385	3.847681	0.651815	0.000038
 657	6.5272e+01	6.5210	8.001430	0.000372	3.724882	0.631012	0.000037
 658	6.5371e+01	6.5309	8.039720	0.000385	3.847681	0.651815	0.000038
 659	6.5471e+01	6.5434	8.077195	0.000377	3.765815	0.637946	0.000038
 660	6.5570e+01	6.5526	8.115486	0.000385	3.847681	0.651815	0.000038
 661	6.5670e+01	6.5646	8.152554	0.000372	3.724882	0.631012	0.000037
 662	6.5769e+01	6.5726	8.188807	0.000364	3.643017	0.617144	0.000036
 663	6.5869e+01	6.5823	8.227912	0.000393	3.929546	0.665683	0.000039
 664	6.5969e+01	6.5951	8.264573	0.000368	3.683950	0.624078	0.000037
 665	6.6068e+01	6.6023	8.301641	0.000372	3.724882	0.631012	0.000037
 666	6.6168e+01	6.6119	8.336265	0.000348	3.479286	0.589407	0.000035
 667	6.6267e+01	6.6222	8.377000	0.000409	4.093277	0.693420	0.000041
 668	6.6367e+01	6.6327	8.409180	0.000323	3.233689	0.547802	0.000032
 669	6.6466e+01	6.6409	8.442174	0.000332	3.315555	0.561670	0.000033
 670	6.6566e+01	6.6538	8.476798	0.000348	3.479286	0.589407	0.000035
 671	6.6665e+01	6.6601	8.512237	0.000356	3.561151	0.603275	0.000036
 672	6.6764e+01	6.6729	8.550935	0.000389	3.888613	0.658749	0.000039
 673	6.6864e+01	6.6833	8.582300	0.000315	3.151824	0.533933	0.000032
 674	6.6963e+01	6.6924	8.619776	0.000377	3.765815	0.637946	0.000038
 675	6.7063e+01	6.6999	8.652770	0.000332	3.315555	0.561670	0.000033
 676	6.7162e+01	6.7127	8.689024	0.000364	3.643017	0.617144	0.000036
 677	6.7262e+01	6.7208	8.719575	0.000307	3.069958	0.520065	0.000031
 678	6.7362e+01	6.7306	8.755421	0.000360	3.602084	0.610210	0.000036
 679	6.7461e+01	6.7414	8.791267	0.000360	3.602084	0.610210	0.000036
 680	6.7561e+01	6.7510	8.815707	0.000246	2.455966	0.416052	0.000025
 681	6.7660e+01	6.7632	8.852368	0.000368	3.683950	0.624078	0.000037
 682	6.7760e+01	6.7725	8.885770	0.000336	3.356487	0.568604	0.000034
 683	6.7859e+01	6.7828	8.915506	0.000299	2.988092	0.506197	0.000030
 684	6.7959e+01	6.7922	8.952167	0.000368	3.683950	0.624078	0.000037
 685	6.8058e+01	6.8029	8.981496	0.000295	2.947160	0.499262	0.000029
 686	6.8157e+01	6.8091	9.016935	0.000356	3.561151	0.603275	0.000036
 687	6.8257e+01	6.8218	9.049929	0.000332	3.315555	0.561670	0.000033
 688	6.8356e+01	6.8311	9.086590	0.000368	3.683950	0.624078	0.000037
 689	6.8456e+01	6.8422	9.123251	0.000368	3.683950	0.624078	0.000037
 690	6.8555e+01	6.8491	9.153802	0.000307	3.069958	0.520065	0.000031
 691	6.8655e+01	6.8610	9.190870	0.000372	3.724882	0.631012	0.000037
 692	6.8754e+01	6.8694	9.227938	0.000372	3.724882	0.631012	0.000037
 693	6.8854e+01	6.8793	9.261340	0.000336	3.356487	0.568604	0.000034
 694	6.8954e+01	6.8903	9.291076	0.000299	2.988092	0.506197	0.000030
 695	6.9053e+01	6.9021	9.327737	0.000368	3.683950	0.624078	0.000037
 696	6.9153e+01	6.9117	9.365620	0.000381	3.806748	0.644881	0.000038
 697	6.9252e+01	6.9197	9.396171	0.000307	3.069958	0.520065	0.000031
 698	6.9352e+01	6.9320	9.430795	0.000348	3.479286	0.589407	0.000035
 699	6.9451e+01	6.9405	9.467048	0.000364	3.643017	0.617144	0.000036
 700	6.9550e+01	6.9515	9.501265	0.000344	3.438353	0.582473	0.000034
 701	6.9650e+01	6.9615	9.536296	0.000352	3.520219	0.596341	0.000035
 702	6.9749e+01	6.9683	9.574587	0.000385	3.847681	0.651815	0.000038
 703	6.9849e+01	6.9802	9.607174	0.000327	3.274622	0.554736	0.000033
 704	6.9948e+01	6.9878	9.640576	0.000336	3.356487	0.568604	0.000034
 705	7.0048e+01	7.0008	9.677237	0.000368	3.683950	0.624078	0.000037
 706	7.0147e+01	7.0097	9.708195	0.000311	3.110891	0.526999	0.000031
 707	7.0247e+01	7.0217	9.741597	0.000336	3.356487	0.568604	0.000034
 708	7.0347e+01	7.0298	9.777036	0.000356	3.561151	0.603275	0.000036
 709	7.0446e+01	7.0402	9.811253	0.000344	3.438353	0.582473	0.000034
 710	7.0546e+01	7.0515	9.847506	0.000364	3.643017	0.617144	0.000036
 711	7.0645e+01	7.0617	9.878872	0.000315	3.151824	0.533933	0.000032
 712	7.0745e+01	7.0728	9.915940	0.000372	3.724882	0.631012	0.000037
 713	7.0844e+01	7.0790	9.949342	0.000336	3.356487	0.568604	0.000034
 714	7.0944e+01	7.0898	9.984781	0.000356	3.561151	0.603275	0.000036
 715	7.1043e+01	7.1014	10.019405	0.000348	3.479286	0.589407	0.000035
 716	7.1142e+01	7.1101	10.050363	0.000311	3.110891	0.526999	0.000031
 717	7.1242e+01	7.1206	10.087024	0.000368	3.683950	0.624078	0.000037
 718	7.1341e+01	7.1280	10.119611	0.000327	3.274622	0.554736	0.000033
 719	7.1441e+01	7.1407	10.156679	0.000372	3.724882	0.631012	0.000037
 720	7.1540e+01	7.1501	10.190896	0.000344	3.438353	0.582473	0.000034
 721	7.1640e+01	7.1584	10.224298	0.000336	3.356487	0.568604	0.000034
 722	7.1740e+01	7.1696	10.262588	0.000385	3.847681	0.651815	0.000038
 723	7.1839e+01	7.1780	10.298027	0.000356	3.561151	0.603275	0.000036
 724	7.1939e+01	7.1906	10.331429	0.000336	3.356487	0.568604	0.000034
 725	7.2038e+01	7.1996	10.363202	0.000319	3.192756	0.540868	0.000032
 726	7.2138e+01	7.2114	10.398233	0.000352	3.520219	0.596341	0.000035
 727	7.2237e+01	7.2204	10.436931	0.000389	3.888613	0.658749	0.000039
 728	7.2337e+01	7.2298	10.468296	0.000315	3.151824	0.533933	0.000032
 729	7.2436e+01	7.2402	10.501698	0.000336	3.356487	0.568604	0.000034
 730	7.2535e+01	7.2518	10.539174	0.000377	3.765815	0.637946	0.000038
 731	7.2635e+01	7.2591	10.573798	0.000348	3.479286	0.589407	0.000035
 732	7.2734e+01	7.2684	10.607200	0.000336	3.356487	0.568604	0.000034
 733	7.2834e+01	7.2787	10.641417	0.000344	3.438353	0.582473	0.000034
 734	7.2933e+01	7.2889	10.677263	0.000360	3.602084	0.610210	0.000036
 735	7.3033e+01	7.2963	10.707814	0.000307	3.069958	0.520065	0.000031
 736	7.3132e+01	7.3090	10.742845	0.000352	3.520219	0.596341	0.000035
 737	7.3232e+01	7.3173	10.777062	0.000344	3.438353	0.582473	0.000034
 738	7.3332e+01	7.3291	10.811686	0.000348	3.479286	0.589407	0.000035
 739	7.3431e+01	7.3363	10.842644	0.000311	3.110891	0.526999	0.000031
 740	7.3531e+01	7.3475	10.875231	0.000327	3.274622	0.554736	0.000033
 741	7.3630e+01	7.3584	10.908226	0.000332	3.315555	0.561670	0.000033
 742	7.3730e+01	7.3682	10.941628	0.000336	3.356487	0.568604	0.000034
 743	7.3829e+01	7.3801	10.975030	0.000336	3.356487	0.568604	0.000034
 744	7.3928e+01	7.3898	11.006396	0.000315	3.151824	0.533933	0.000032
 745	7.4028e+01	7.3962	11.038168	0.000319	3.192756	0.540868	0.000032
 746	7.4127e+01	7.4081	11.070756	0.000327	3.274622	0.554736	0.000033
 747	7.4227e+01	7.4172	11.106195	0.000356	3.561151	0.603275	0.000036
 748	7.4326e+01	7.4299	11.137153	0.000311	3.110891	0.526999	0.000031
 749	7.4426e+01	7.4368	11.172184	0.000352	3.520219	0.596341	0.000035
 750	7.4525e+01	7.4474	11.202735	0.000307	3.069958	0.520065	0.000031
 751	7.4625e+01	7.4603	11.236137	0.000336	3.356487	0.568604	0.000034
 752	7.4725e+01	7.4682	11.268724	0.000327	3.274622	0.554736	0.000033
 753	7.4824e+01	7.4776	11.306607	0.000381	3.806748	0.644881	0.000038
 754	7.4924e+01	7.4866	11.340824	0.000344	3.438353	0.582473	0.000034
 755	7.5023e+01	7.4977	11.376263	0.000356	3.561151	0.603275	0.000036
 756	7.5123e+01	7.5095	11.411294	0.000352	3.520219	0.596341	0.000035
 757	7.5222e+01	7.5171	11.448362	0.000372	3.724882	0.631012	0.000037
 758	7.5322e+01	7.5287	11.483394	0.000352	3.520219	0.596341	0.000035
 759	7.5421e+01	7.5365	11.520055	0.000368	3.683950	0.624078	0.000037
 760	7.5520e+01	7.5475	11.550605	0.000307	3.069958	0.520065	0.000031
 761	7.5620e+01	7.5573	11.587674	0.000372	3.724882	0.631012	0.000037
 762	7.5719e+01	7.5681	11.628000	0.000405	4.052345	0.686486	0.000041
 763	7.5819e+01	7.5790	11.661403	0.000336	3.356487	0.568604	0.000034
 764	7.5918e+01	7.5868	11.699285	0.000381	3.806748	0.644881	0.000038
 765	7.6018e+01	7.5970	11.740020	0.000409	4.093277	0.693420	0.000041
 766	7.6118e+01	7.6062	11.773829	0.000340	3.397420	0.575539	0.000034
 767	7.6217e+01	7.6173	11.808861	0.000352	3.520219	0.596341	0.000035
 768	7.6317e+01	7.6272	11.845521	0.000368	3.683950	0.624078	0.000037
 769	7.6416e+01	7.6363	11.880553	0.000352	3.520219	0.596341	0.000035
 770	7.6516e+01	7.6468	11.916399	0.000360	3.602084	0.610210	0.000036
 771	7.6615e+01	7.6600	11.950616	0.000344	3.438353	0.582473	0.000034
 772	7.6715e+01	7.6682	11.984425	0.000340	3.397420	0.575539	0.000034
 773	7.6814e+01	7.6748	12.019457	0.000352	3.520219	0.596341	0.000035
 774	7.6913e+01	7.6852	12.055710	0.000364	3.643017	0.617144	0.000036
 775	7.7013e+01	7.6974	12.089112	0.000336	3.356487	0.568604	0.000034
 776	7.7112e+01	7.7061	12.122107	0.000332	3.315555	0.561670	0.000033
 777	7.7212e+01	7.7146	12.157953	0.000360	3.602084	0.610210	0.000036
 778	7.7311e+01	7.7288	12.194207	0.000364	3.643017	0.617144	0.000036
 779	7.7411e+01	7.7417	12.228016	0.000340	3.397420	0.575539	0.000034
 780	7.7510e+01	7.7483	12.262233	0.000344	3.438353	0.582473	0.000034
 781	7.7610e+01	7.7565	12.297264	0.000352	3.520219	0.596341	0.000035
 782	7.7710e+01	7.7661	12.331481	0.000344	3.438353	0.582473	0.000034
 783	7.7809e+01	7.7728	12.363661	0.000323	3.233689	0.547802	0.000032
 784	7.7909e+01	7.7869	12.397471	0.000340	3.397420	0.575539	0.000034
 785	7.8008e+01	7.7979	12.436168	0.000389	3.888613	0.658749	0.000039
 786	7.8108e+01	7.8076	12.470385	0.000344	3.438353	0.582473	0.000034
 787	7.8207e+01	7.8167	12.502972	0.000327	3.274622	0.554736	0.000033
 788	7.8306e+01	7.8252	12.536374	0.000336	3.356487	0.568604	0.000034
 789	7.8406e+01	7.8371	12.572628	0.000364	3.643017	0.617144	0.000036
 790	7.8505e+01	7.8470	12.601142	0.000287	2.865294	0.485394	0.000029
 791	7.8605e+01	7.8553	12.638617	0.000377	3.765815	0.637946	0.000038
 792	7.8704e+01	7.8664	12.675686	0.000372	3.724882	0.631012	0.000037
 793	7.8804e+01	7.8751	12.707866	0.000323	3.233689	0.547802	0.000032
 794	7.8903e+01	7.8860	12.740860	0.000332	3.315555	0.561670	0.000033
 795	7.9003e+01	7.8957	12.777521	0.000368	3.683950	0.624078	0.000037
 796	7.9103e+01	7.9073	12.816219	0.000389	3.888613	0.658749	0.000039
 797	7.9202e+01	7.9163	12.843918	0.000278	2.783429	0.471526	0.000028
 798	7.9302e+01	7.9250	12.882208	0.000385	3.847681	0.651815	0.000038
 799	7.9401e+01	7.9330	12.917647	0.000356	3.561151	0.603275	0.000036
 800	7.9501e+01	7.9453	12.949012	0.000315	3.151824	0.533933	0.000032
 801	7.9600e+01	7.9543	12.983229	0.000344	3.438353	0.582473	0.000034
 802	7.9700e+01	7.9700	13.018261	0.000352	3.520219	0.596341	0.000035
 803	7.9799e+01	7.9749	13.050441	0.000323	3.233689	0.547802	0.000032
 804	7.9898e+01	7.9877	13.085879	0.000356	3.561151	0.603275	0.000036
 805	7.9998e+01	7.9962	13.118874	0.000332	3.315555	0.561670	0.000033
 806	8.0097e+01	8.0033	13.150647	0.000319	3.192756	0.540868	0.000032
 807	8.0197e+01	8.0170	13.186493	0.000360	3.602084	0.610210	0.000036
 808	8.0296e+01	8.0249	13.218673	0.000323	3.233689	0.547802	0.000032
 809	8.0396e+01	8.0349	13.251668	0.000332	3.315555	0.561670	0.000033
 810	8.0496e+01	8.0466	13.286699	0.000352	3.520219	0.596341	0.000035
 811	8.0595e+01	8.0542	13.319694	0.000332	3.315555	0.561670	0.000033
 812	8.0695e+01	8.0659	13.355540	0.000360	3.602084	0.610210	0.000036
 813	8.0794e+01	8.0746	13.388942	0.000336	3.356487	0.568604	0.000034
 814	8.0894e+01	8.0853	13.421937	0.000332	3.315555	0.561670	0.000033
 815	8.0993e+01	8.0949	13.454117	0.000323	3.233689	0.547802	0.000032
 816	8.1093e+01	8.1049	13.491185	0.000372	3.724882	0.631012	0.000037
 817	8.1192e+01	8.1155	13.521736	0.000307	3.069958	0.520065	0.000031
 818	8.1291e+01	8.1250	13.557989	0.000364	3.643017	0.617144	0.000036
 819	8.1391e+01	8.1358	13.591799	0.000340	3.397420	0.575539	0.000034
 820	8.1490e+01	8.1457	13.623979	0.000323	3.233689	0.547802	0.000032
 821	8.1590e+01	8.1538	13.660232	0.000364	3.643017	0.617144	0.000036
 822	8.1689e+01	8.1641	13.695264	0.000352	3.520219	0.596341	0.000035
 823	8.1789e+01	8.1767	13.728666	0.000336	3.356487	0.568604	0.000034
 824	8.1888e+01	8.1847	13.765734	0.000372	3.724882	0.631012	0.000037
 825	8.1988e+01	8.1943	13.800766	0.000352	3.520219	0.596341	0.000035
 826	8.2088e+01	8.2051	13.836612	0.000360	3.602084	0.610210	0.000036
 827	8.2187e+01	8.2160	13.873273	0.000368	3.683950	0.624078	0.000037
 828	8.2287e+01	8.2227	13.907082	0.000340	3.397420	0.575539	0.000034
 829	8.2386e+01	8.2342	13.941299	0.000344	3.438353	0.582473	0.000034
 830	8.2486e+01	8.2439	13.979589	0.000385	3.847681	0.651815	0.000038
 831	8.2585e+01	8.2544	14.012991	0.000336	3.356487	0.568604	0.000034
 832	8.2684e+01	8.2666	14.046393	0.000336	3.356487	0.568604	0.000034
 833	8.2784e+01	8.2726	14.079795	0.000336	3.356487	0.568604	0.000034
 834	8.2883e+01	8.2847	14.118900	0.000393	3.929546	0.665683	0.000039
 835	8.2983e+01	8.2935	14.153117	0.000344	3.438353	0.582473	0.000034
 836	8.3082e+01	8.3070	14.182853	0.000299	2.988092	0.506197	0.000030
 837	8.3182e+01	8.3147	14.215440	0.000327	3.274622	0.554736	0.000033
 838	8.3281e+01	8.3228	14.249657	0.000344	3.438353	0.582473	0.000034
 839	8.3381e+01	8.3323	14.286318	0.000368	3.683950	0.624078	0.000037
 840	8.3481e+01	8.3447	14.318498	0.000323	3.233689	0.547802	0.000032
 841	8.3580e+01	8.3521	14.349456	0.000311	3.110891	0.526999	0.000031
 842	8.3680e+01	8.3620	14.383673	0.000344	3.438353	0.582473	0.000034
 843	8.3779e+01	8.3740	14.418297	0.000348	3.479286	0.589407	0.000035
 844	8.3879e+01	8.3833	14.451699	0.000336	3.356487	0.568604	0.000034
 845	8.3978e+01	8.3901	14.479806	0.000282	2.824361	0.478460	0.000028
 846	8.4078e+01	8.4029	14.511171	0.000315	3.151824	0.533933	0.000032
 847	8.4177e+01	8.4123	14.542536	0.000315	3.151824	0.533933	0.000032
 848	8.4276e+01	8.4251	14.570643	0.000282	2.824361	0.478460	0.000028
 849	8.4376e+01	8.4345	14.600379	0.000299	2.988092	0.506197	0.000030
 850	8.4475e+01	8.4449	14.635411	0.000352	3.520219	0.596341	0.000035
 851	8.4575e+01	8.4521	14.665961	0.000307	3.069958	0.520065	0.000031
 852	8.4674e+01	8.4650	14.696919	0.000311	3.110891	0.526999	0.000031
 853	8.4774e+01	8.4725	14.729099	0.000323	3.233689	0.547802	0.000032
 854	8.4874e+01	8.4842	14.762909	0.000340	3.397420	0.575539	0.000034
 855	8.4973e+01	8.4924	14.795903	0.000332	3.315555	0.561670	0.000033
 856	8.5073e+01	8.5027	14.826047	0.000303	3.029025	0.513131	0.000030
 857	8.5172e+01	8.5126	14.854561	0.000287	2.865294	0.485394	0.000029
 858	8.5272e+01	8.5246	14.892444	0.000381	3.806748	0.644881	0.000038
 859	8.5371e+01	8.5333	14.928697	0.000364	3.643017	0.617144	0.000036
 860	8.5471e+01	8.5439	14.960470	0.000319	3.192756	0.540868	0.000032
 861	8.5570e+01	8.5511	14.995909	0.000356	3.561151	0.603275	0.000036
 862	8.5669e+01	8.5639	15.026867	0.000311	3.110891	0.526999	0.000031
 863	8.5769e+01	8.5706	15.058639	0.000319	3.192756	0.540868	0.000032
 864	8.5868e+01	8.5812	15.094078	0.000356	3.561151	0.603275	0.000036
 865	8.5968e+01	8.5910	15.126258	0.000323	3.233689	0.547802	0.000032
 866	8.6067e+01	8.6011	15.158438	0.000323	3.233689	0.547802	0.000032
 867	8.6167e+01	8.6118	15.193470	0.000352	3.520219	0.596341	0.000035
 868	8.6266e+01	8.6208	15.226057	0.000327	3.274622	0.554736	0.000033
 869	8.6366e+01	8.6317	15.261496	0.000356	3.561151	0.603275	0.000036
 870	8.6466e+01	8.6406	15.294083	0.000327	3.274622	0.554736	0.000033
 871	8.6565e+01	8.6509	15.326263	0.000323	3.233689	0.547802	0.000032
 872	8.6665e+01	8.6613	15.360073	0.000340	3.397420	0.575539	0.000034
 873	8.6764e+01	8.6736	15.392253	0.000323	3.233689	0.547802	0.000032
 874	8.6864e+01	8.6819	15.426470	0.000344	3.438353	0.582473	0.000034
 875	8.6963e+01	8.6918	15.461094	0.000348	3.479286	0.589407	0.000035
 876	8.7063e+01	8.7029	15.488793	0.000278	2.783429	0.471526	0.000028
 877	8.7162e+01	8.7136	15.521788	0.000332	3.315555	0.561670	0.000033
 878	8.7261e+01	8.7232	15.555190	0.000336	3.356487	0.568604	0.000034
 879	8.7361e+01	8.7313	15.590221	0.000352	3.520219	0.596341	0.000035
 880	8.7460e+01	8.7408	15.621180	0.000311	3.110891	0.526999	0.000031
 881	8.7560e+01	8.7514	15.655396	0.000344	3.438353	0.582473	0.000034
 882	8.7659e+01	8.7611	15.693686	0.000385	3.847681	0.651815	0.000038
 883	8.7759e+01	8.7714	15.725459	0.000319	3.192756	0.540868	0.000032
 884	8.7859e+01	8.7813	15.758454	0.000332	3.315555	0.561670	0.000033
 885	8.7958e+01	8.7904	15.792263	0.000340	3.397420	0.575539	0.000034
 886	8.8058e+01	8.8013	15.824036	0.000319	3.192756	0.540868	0.000032
 887	8.8157e+01	8.8135	15.859068	0.000352	3.520219	0.596341	0.000035
 888	8.8257e+01	8.8202	15.890433	0.000315	3.151824	0.533933	0.000032
 889	8.8356e+01	8.8289	15.923835	0.000336	3.356487	0.568604	0.000034
 890	8.8456e+01	8.8403	15.962533	0.000389	3.888613	0.658749	0.000039
 891	8.8555e+01	8.8501	15.994713	0.000323	3.233689	0.547802	0.000032
 892	8.8654e+01	8.8599	16.024856	0.000303	3.029025	0.513131	0.000030
 893	8.8754e+01	8.8678	16.060702	0.000360	3.602084	0.610210	0.000036
 894	8.8853e+01	8.8837	16.093697	0.000332	3.315555	0.561670	0.000033
 895	8.8953e+01	8.8906	16.131580	0.000381	3.806748	0.644881	0.000038
 896	8.9052e+01	8.8965	16.161316	0.000299	2.988092	0.506197	0.000030
 897	8.9152e+01	8.9088	16.195940	0.000348	3.479286	0.589407	0.000035
 898	8.9251e+01	8.9194	16.226083	0.000303	3.029025	0.513131	0.000030
 899	8.9351e+01	8.9309	16.262337	0.000364	3.643017	0.617144	0.000036
 900	8.9451e+01	8.9408	16.296961	0.000348	3.479286	0.589407	0.000035
 901	8.9550e+01	8.9506	16.330363	0.000336	3.356487	0.568604	0.000034
 902	8.9650e+01	8.9612	16.367431	0.000372	3.724882	0.631012	0.000037
 903	8.9749e+01	8.9697	16.400018	0.000327	3.274622	0.554736	0.000033
 904	8.9849e+01	8.9765	16.430976	0.000311	3.110891	0.526999	0.000031
 905	8.9948e+01	8.9902	16.465601	0.000348	3.479286	0.589407	0.000035
 906	9.0047e+01	8.9996	16.497781	0.000323	3.233689	0.547802	0.000032
 907	9.0147e+01	9.0070	16.528331	0.000307	3.069958	0.520065	0.000031
 908	9.0246e+01	9.0192	16.562955	0.000348	3.479286	0.589407	0.000035
 909	9.0346e+01	9.0315	16.591469	0.000287	2.865294	0.485394	0.000029
 910	9.0445e+01	9.0408	16.628945	0.000377	3.765815	0.637946	0.000038
 911	9.0545e+01	9.0482	16.658681	0.000299	2.988092	0.506197	0.000030
 912	9.0644e+01	9.0577	16.692898	0.000344	3.438353	0.582473	0.000034
 913	9.0744e+01	9.0692	16.722226	0.000295	2.947160	0.499262	0.000029
 914	9.0844e+01	9.0799	16.761331	0.000393	3.929546	0.665683	0.000039
 915	9.0943e+01	9.0907	16.792289	0.000311	3.110891	0.526999	0.000031
 916	9.1043e+01	9.0993	16.822840	0.000307	3.069958	0.520065	0.000031
 917	9.1142e+01	9.1089	16.855020	0.000323	3.233689	0.547802	0.000032
 918	9.1242e+01	9.1180	16.886385	0.000315	3.151824	0.533933	0.000032
 919	9.1341e+01	9.1285	16.922639	0.000364	3.643017	0.617144	0.000036
 920	9.1441e+01	9.1395	16.957670	0.000352	3.520219	0.596341	0.000035
 921	9.1540e+01	9.1489	16.993109	0.000356	3.561151	0.603275	0.000036
 922	9.1639e+01	9.1592	17.026104	0.000332	3.315555	0.561670	0.000033
 923	9.1739e+01	9.1700	17.059099	0.000332	3.315555	0.561670	0.000033
 924	9.1838e+01	9.1797	17.099018	0.000401	4.011412	0.679552	0.000040
 925	9.1938e+01	9.1927	17.131198	0.000323	3.233689	0.547802	0.000032
 926	9.2037e+01	9.1976	17.167452	0.000364	3.643017	0.617144	0.000036
 927	9.2137e+01	9.2114	17.202076	0.000348	3.479286	0.589407	0.000035
 928	9.2237e+01	9.2194	17.239144	0.000372	3.724882	0.631012	0.000037
 929	9.2336e+01	9.2280	17.278656	0.000397	3.970479	0.672617	0.000040
 930	9.2436e+01	9.2383	17.314502	0.000360	3.602084	0.610210	0.000036
 931	9.2535e+01	9.2493	17.351571	0.000372	3.724882	0.631012	0.000037
 932	9.2635e+01	9.2570	17.388231	0.000368	3.683950	0.624078	0.000037
 933	9.2734e+01	9.2676	17.426114	0.000381	3.806748	0.644881	0.000038
 934	9.2834e+01	9.2798	17.460738	0.000348	3.479286	0.589407	0.000035
 935	9.2933e+01	9.2896	17.497399	0.000368	3.683950	0.624078	0.000037
 936	9.3032e+01	9.2970	17.533653	0.000364	3.643017	0.617144	0.000036
 937	9.3132e+01	9.3095	17.572350	0.000389	3.888613	0.658749	0.000039
 938	9.3231e+01	9.3172	17.606567	0.000344	3.438353	0.582473	0.000034
 939	9.3331e+01	9.3267	17.639562	0.000332	3.315555	0.561670	0.000033
 940	9.3430e+01	9.3375	17.675001	0.000356	3.561151	0.603275	0.000036
 941	9.3530e+01	9.3476	17.709217	0.000344	3.438353	0.582473	0.000034
 942	9.3629e+01	9.3583	17.745471	0.000364	3.643017	0.617144	0.000036
 943	9.3729e+01	9.3677	17.781724	0.000364	3.643017	0.617144	0.000036
 944	9.3829e+01	9.3769	17.817163	0.000356	3.561151	0.603275	0.000036
 945	9.3928e+01	9.3879	17.855046	0.000381	3.806748	0.644881	0.000038
 946	9.4028e+01	9.3994	17.890078	0.000352	3.520219	0.596341	0.000035
 947	9.4127e+01	9.4080	17.926331	0.000364	3.643017	0.617144	0.000036
 948	9.4227e+01	9.4141	17.958918	0.000327	3.274622	0.554736	0.000033
 949	9.4326e+01	9.4271	17.993135	0.000344	3.438353	0.582473	0.000034
 950	9.4425e+01	9.4346	18.027759	0.000348	3.479286	0.589407	0.000035
 951	9.4525e+01	9.4489	18.063605	0.000360	3.602084	0.610210	0.000036
 952	9.4624e+01	9.4598	18.096193	0.000327	3.274622	0.554736	0.000033
 953	9.4724e+01	9.4687	18.132854	0.000368	3.683950	0.624078	0.000037
 954	9.4823e+01	9.4779	18.169515	0.000368	3.683950	0.624078	0.000037
 955	9.4923e+01	9.4873	18.206583	0.000372	3.724882	0.631012	0.000037
 956	9.5022e+01	9.4979	18.242836	0.000364	3.643017	0.617144	0.000036
 957	9.5122e+01	9.5069	18.282348	0.000397	3.970479	0.672617	0.000040
 958	9.5222e+01	9.5178	18.312492	0.000303	3.029025	0.513131	0.000030
 959	9.5321e+01	9.5249	18.349967	0.000377	3.765815	0.637946	0.000038
 960	9.5421e+01	9.5365	18.385813	0.000360	3.602084	0.610210	0.000036
 961	9.5520e+01	9.5483	18.418808	0.000332	3.315555	0.561670	0.000033
 962	9.5620e+01	9.5581	18.454247	0.000356	3.561151	0.603275	0.000036
 963	9.5719e+01	9.5673	18.494981	0.000409	4.093277	0.693420	0.000041
 964	9.5819e+01	9.5760	18.531235	0.000364	3.643017	0.617144	0.000036
 965	9.5918e+01	9.5875	18.566673	0.000356	3.561151	0.603275	0.000036
 966	9.6017e+01	9.5954	18.598446	0.000319	3.192756	0.540868	0.000032
 967	9.6117e+01	9.6064	18.634700	0.000364	3.643017	0.617144	0.000036
 968	9.6216e+01	9.6177	18.673397	0.000389	3.888613	0.658749	0.000039
 969	9.6316e+01	9.6259	18.707207	0.000340	3.397420	0.575539	0.000034
 970	9.6415e+01	9.6369	18.744275	0.000372	3.724882	0.631012	0.000037
 971	9.6515e+01	9.6460	18.775640	0.000315	3.151824	0.533933	0.000032
 972	9.6615e+01	9.6570	18.815560	0.000401	4.011412	0.679552	0.000040
 973	9.6714e+01	9.6631	18.846110	0.000307	3.069958	0.520065	0.000031
 974	9.6814e+01	9.6768	18.879920	0.000340	3.397420	0.575539	0.000034
 975	9.6913e+01	9.6863	18.919839	0.000401	4.011412	0.679552	0.000040
 976	9.7013e+01	9.6948	18.950798	0.000311	3.110891	0.526999	0.000031
 977	9.7112e+01	9.7064	18.990310	0.000397	3.970479	0.672617	0.000040
 978	9.7212e+01	9.7144	19.025341	0.000352	3.520219	0.596341	0.000035
 979	9.7311e+01	9.7241	19.064039	0.000389	3.888613	0.658749	0.000039
 980	9.7410e+01	9.7372	19.096219	0.000323	3.233689	0.547802	0.000032
 981	9.7510e+01	9.7454	19.132472	0.000364	3.643017	0.617144	0.000036
 982	9.7609e+01	9.7531	19.168726	0.000364	3.643017	0.617144	0.000036
 983	9.7709e+01	9.7656	19.207016	0.000385	3.847681	0.651815	0.000038
 984	9.7808e+01	9.7760	19.242862	0.000360	3.602084	0.610210	0.000036
 985	9.7908e+01	9.7864	19.277486	0.000348	3.479286	0.589407	0.000035
 986	9.8007e+01	9.7949	19.312518	0.000352	3.520219	0.596341	0.000035
 987	9.8107e+01	9.8047	19.351215	0.000389	3.888613	0.658749	0.000039
 988	9.8207e+01	9.8163	19.387061	0.000360	3.602084	0.610210	0.000036
 989	9.8306e+01	9.8256	19.422500	0.000356	3.561151	0.603275	0.000036
 990	9.8406e+01	9.8346	19.461198	0.000389	3.888613	0.658749	0.000039
 991	9.8505e+01	9.8456	19.501117	0.000401	4.011412	0.679552	0.000040
 992	9.8605e+01	9.8545	19.540630	0.000397	3.970479	0.672617	0.000040
 993	9.8704e+01	9.8657	19.576068	0.000356	3.561151	0.603275	0.000036
 994	9.8803e+01	9.8749	19.611507	0.000356	3.561151	0.603275	0.000036
 995	9.8903e+01	9.8856	19.653871	0.000426	4.257008	0.721157	0.000043
 996	9.9002e+01	9.8944	19.690124	0.000364	3.643017	0.617144	0.000036
 997	9.9102e+01	9.9060	19.728007	0.000381	3.806748	0.644881	0.000038
 998	9.9201e+01	9.9136	19.765075	0.000372	3.724882	0.631012	0.000037
 999	9.9301e+01	9.9231	19.804995	0.000401	4.011412	0.679552	0.000040
1000	9.9400e+01	9.9359	19.842063	0.000372	3.724882	0.631012	0.000037
1001	9.9500e+01	9.9414	19.880353	0.000385	3.847681	0.651815	0.000038
1002	9.9600e+01	9.9542	19.917421	0.000372	3.724882	0.631012	0.000037
1003	9.9699e+01	9.9646	19.954082	0.000368	3.683950	0.624078	0.000037
1004	9.9799e+01	9.9731	19.990743	0.000368	3.683950	0.624078	0.000037
1005	9.9898e+01	9.9854	20.026589	0.000360	3.602084	0.610210	0.000036
1006	9.9998e+01	9.9963	20.061621	0.000352	3.520219	0.596341	0.000035
1007	1.0010e+02	9.9854	20.055918	0.000057	0.573059	0.097079	-0.000006
1008	1.0020e+02	9.9744	20.040846	0.000151	1.514513	0.256565	-0.000015
1009	1.0030e+02	9.9638	20.026997	0.000139	1.391714	0.235763	-0.000014
1010	1.0040e+02	9.9541	20.011518	0.000156	1.555445	0.263500	-0.000016
1011	1.0050e+02	9.9429	19.998890	0.000127	1.268916	0.214960	-0.000013
1012	1.0059e+02	9.9350	19.983411	0.000156	1.555445	0.263500	-0.000016
1013	1.0069e+02	9.9249	19.967932	0.000156	1.555445	0.263500	-0.000016
1014	1.0079e+02	9.9146	19.952046	0.000160	1.596378	0.270434	-0.000016
1015	1.0089e+02	9.9065	19.930456	0.000217	2.169437	0.367513	-0.000022
1016	1.0099e+02	9.8937	19.914977	0.000156	1.555445	0.263500	-0.000016
1017	1.0109e+02	9.8829	19.895425	0.000196	1.964773	0.332842	-0.000020
1018	1.0119e+02	9.8745	19.881168	0.000143	1.432647	0.242697	-0.000014
1019	1.0129e+02	9.8638	19.859579	0.000217	2.169437	0.367513	-0.000022
1020	1.0139e+02	9.8550	19.844100	0.000156	1.555445	0.263500	-0.000016
1021	1.0149e+02	9.8460	19.826177	0.000180	1.801042	0.305105	-0.000018
1022	1.0159e+02	9.8324	19.803773	0.000225	2.251303	0.381381	-0.000023
1023	1.0169e+02	9.8244	19.791960	0.000119	1.187050	0.201092	-0.000012
1024	1.0179e+02	9.8181	19.772815	0.000192	1.923840	0.325907	-0.000019
1025	1.0189e+02	9.8074	19.756928	0.000160	1.596378	0.270434	-0.000016
1026	1.0199e+02	9.7927	19.735747	0.000213	2.128504	0.360578	-0.000021
1027	1.0209e+02	9.7879	19.721897	0.000139	1.391714	0.235763	-0.000014
1028	1.0219e+02	9.7742	19.700308	0.000217	2.169437	0.367513	-0.000022
1029	1.0229e+02	9.7656	19.684829	0.000156	1.555445	0.263500	-0.000016
1030	1.0239e+02	9.7583	19.666091	0.000188	1.882908	0.318973	-0.000019
1031	1.0248e+02	9.7446	19.646539	0.000196	1.964773	0.332842	-0.000020
1032	1.0258e+02	9.7376	19.630245	0.000164	1.637311	0.277368	-0.000016
1033	1.0268e+02	9.7247	19.609470	0.000209	2.087571	0.353644	-0.000021
1034	1.0278e+02	9.7144	19.589918	0.000196	1.964773	0.332842	-0.000020
1035	1.0288e+02	9.7102	19.574032	0.000160	1.596378	0.270434	-0.000016
1036	1.0298e+02	9.6946	19.555294	0.000188	1.882908	0.318973	-0.000019
1037	1.0308e+02	9.6878	19.536149	0.000192	1.923840	0.325907	-0.000019
1038	1.0318e+02	9.6753	19.515782	0.000205	2.046639	0.346710	-0.000020
1039	1.0328e+02	9.6659	19.494600	0.000213	2.128504	0.360578	-0.000021
1040	1.0338e+02	9.6558	19.478713	0.000160	1.596378	0.270434	-0.000016
1041	1.0348e+02	9.6436	19.454680	0.000242	2.415034	0.409118	-0.000024
1042	1.0358e+02	9.6339	19.435535	0.000192	1.923840	0.325907	-0.000019
1043	1.0368e+02	9.6280	19.415168	0.000205	2.046639	0.346710	-0.000020
1044	1.0378e+02	9.6159	19.393986	0.000213	2.128504	0.360578	-0.000021
1045	1.0388e+02	9.6052	19.372397	0.000217	2.169437	0.367513	-0.000022
1046	1.0398e+02	9.5960	19.355289	0.000172	1.719176	0.291236	-0.000017
1047	1.0408e+02	9.5850	19.333292	0.000221	2.210370	0.374447	-0.000022
1048	1.0418e+02	9.5762	19.312110	0.000213	2.128504	0.360578	-0.000021
1049	1.0428e+02	9.5659	19.293373	0.000188	1.882908	0.318973	-0.000019
1050	1.0438e+02	9.5605	19.270561	0.000229	2.292235	0.388315	-0.000023
1051	1.0447e+02	9.5471	19.249380	0.000213	2.128504	0.360578	-0.000021
1052	1.0457e+02	9.5361	19.231457	0.000180	1.801042	0.305105	-0.000018
1053	1.0467e+02	9.5277	19.208645	0.000229	2.292235	0.388315	-0.000023
1054	1.0477e+02	9.5155	19.189908	0.000188	1.882908	0.318973	-0.000019
1055	1.0487e+02	9.5106	19.166689	0.000233	2.333168	0.395249	-0.000023
1056	1.0497e+02	9.4977	19.145915	0.000209	2.087571	0.353644	-0.000021
1057	1.0507e+02	9.4884	19.123103	0.000229	2.292235	0.388315	-0.000023
1058	1.0517e+02	9.4766	19.104366	0.000188	1.882908	0.318973	-0.000019
1059	1.0527e+02	9.4690	19.080332	0.000242	2.415034	0.409118	-0.000024
1060	1.0537e+02	9.4580	19.062409	0.000180	1.801042	0.305105	-0.000018
1061	1.0547e+02	9.4452	19.040006	0.000225	2.251303	0.381381	-0.000023
1062	1.0557e+02	9.4373	19.024119	0.000160	1.596378	0.270434	-0.000016
1063	1.0567e+02	9.4288	19.001308	0.000229	2.292235	0.388315	-0.000023
1064	1.0577e+02	9.4173	18.976053	0.000254	2.537832	0.429920	-0.000025
1065	1.0587e+02	9.4060	18.956500	0.000196	1.964773	0.332842	-0.000020
1066	1.0597e+02	9.3983	18.933689	0.000229	2.292235	0.388315	-0.000023
1067	1.0607e+02	9.3890	18.912507	0.000213	2.128504	0.360578	-0.000021
1068	1.0617e+02	9.3774	18.887659	0.000250	2.496899	0.422986	-0.000025
1069	1.0627e+02	9.3726	18.869736	0.000180	1.801042	0.305105	-0.000018
1070	1.0637e+02	9.3568	18.842444	0.000274	2.742496	0.464591	-0.000027
1071	1.0647e+02	9.3468	18.822485	0.000201	2.005706	0.339776	-0.000020
1072	1.0656e+02	9.3363	18.800895	0.000217	2.169437	0.367513	-0.000022
1073	1.0666e+02	9.3270	18.775640	0.000254	2.537832	0.429920	-0.000025
1074	1.0676e+02	9.3213	18.754866	0.000209	2.087571	0.353644	-0.000021
1075	1.0686e+02	9.3082	18.730425	0.000246	2.455966	0.416052	-0.000025
1076	1.0696e+02	9.2963	18.704355	0.000262	2.619698	0.443789	-0.000026
1077	1.0706e+02	9.2871	18.678693	0.000258	2.578765	0.436855	-0.000026
1078	1.0716e+02	9.2776	18.655882	0.000229	2.292235	0.388315	-0.000023
1079	1.0726e+02	9.2676	18.628590	0.000274	2.742496	0.464591	-0.000027
1080	1.0736e+02	9.2578	18.607408	0.000213	2.128504	0.360578	-0.000021
1081	1.0746e+02	9.2487	18.582967	0.000246	2.455966	0.416052	-0.000025
1082	1.0756e+02	9.2399	18.563822	0.000192	1.923840	0.325907	-0.000019
1083	1.0766e+02	9.2274	18.537345	0.000266	2.660630	0.450723	-0.000027
1084	1.0776e+02	9.2202	18.515348	0.000221	2.210370	0.374447	-0.000022
1085	1.0786e+02	9.2096	18.487242	0.000282	2.824361	0.478460	-0.000028
1086	1.0796e+02	9.1970	18.465245	0.000221	2.210370	0.374447	-0.000022
1087	1.0806e+02	9.1879	18.441619	0.000237	2.374101	0.402184	-0.000024
1088	1.0816e+02	9.1776	18.414735	0.000270	2.701563	0.457657	-0.000027
1089	1.0826e+02	9.1681	18.396812	0.000180	1.801042	0.305105	-0.000018
1090	1.0836e+02	9.1602	18.371149	0.000258	2.578765	0.436855	-0.000026
1091	1.0845e+02	9.1495	18.349967	0.000213	2.128504	0.360578	-0.000021
1092	1.0855e+02	9.1427	18.329193	0.000209	2.087571	0.353644	-0.000021
1093	1.0865e+02	9.1309	18.305974	0.000233	2.333168	0.395249	-0.000023
1094	1.0875e+02	9.1183	18.285200	0.000209	2.087571	0.353644	-0.000021
1095	1.0885e+02	9.1101	18.265240	0.000201	2.005706	0.339776	-0.000020
1096	1.0895e+02	9.1010	18.242836	0.000225	2.251303	0.381381	-0.000023
1097	1.0905e+02	9.0910	18.220840	0.000221	2.210370	0.374447	-0.000022
1098	1.0915e+02	9.0806	18.200065	0.000209	2.087571	0.353644	-0.000021
1099	1.0925e+02	9.0701	18.173995	0.000262	2.619698	0.443789	-0.000026
1100	1.0935e+02	9.0604	18.158924	0.000151	1.514513	0.256565	-0.000015
1101	1.0945e+02	9.0495	18.135705	0.000233	2.333168	0.395249	-0.000023
1102	1.0955e+02	9.0402	18.114523	0.000213	2.128504	0.360578	-0.000021
1103	1.0965e+02	9.0298	18.090897	0.000237	2.374101	0.402184	-0.000024
1104	1.0975e+02	9.0210	18.070123	0.000209	2.087571	0.353644	-0.000021
1105	1.0985e+02	9.0095	18.047312	0.000229	2.292235	0.388315	-0.000023
1106	1.0995e+02	8.9995	18.025315	0.000221	2.210370	0.374447	-0.000022
1107	1.1005e+02	8.9908	17.999653	0.000258	2.578765	0.436855	-0.000026
1108	1.1015e+02	8.9786	17.977249	0.000225	2.251303	0.381381	-0.000023
1109	1.1025e+02	8.9678	17.953216	0.000242	2.415034	0.409118	-0.000024
1110	1.1035e+02	8.9615	17.929590	0.000237	2.374101	0.402184	-0.000024
1111	1.1044e+02	8.9502	17.907593	0.000221	2.210370	0.374447	-0.000022
1112	1.1054e+02	8.9407	17.883153	0.000246	2.455966	0.416052	-0.000025
1113	1.1064e+02	8.9294	17.857083	0.000262	2.619698	0.443789	-0.000026
1114	1.1074e+02	8.9198	17.835901	0.000213	2.128504	0.360578	-0.000021
1115	1.1084e+02	8.9093	17.812275	0.000237	2.374101	0.402184	-0.000024
1116	1.1094e+02	8.8977	17.787835	0.000246	2.455966	0.416052	-0.000025
1117	1.1104e+02	8.8904	17.762579	0.000254	2.537832	0.429920	-0.000025
1118	1.1114e+02	8.8818	17.740990	0.000217	2.169437	0.367513	-0.000022
1119	1.1124e+02	8.8686	17.715328	0.000258	2.578765	0.436855	-0.000026
1120	1.1134e+02	8.8593	17.690887	0.000246	2.455966	0.416052	-0.000025
1121	1.1144e+02	8.8518	17.666446	0.000246	2.455966	0.416052	-0.000025
1122	1.1154e+02	8.8404	17.643228	0.000233	2.333168	0.395249	-0.000023
1123	1.1164e+02	8.8297	17.619602	0.000237	2.374101	0.402184	-0.000024
1124	1.1174e+02	8.8212	17.593532	0.000262	2.619698	0.443789	-0.000026
1125	1.1184e+02	8.8101	17.573165	0.000205	2.046639	0.346710	-0.000020
1126	1.1194e+02	8.7995	17.547910	0.000254	2.537832	0.429920	-0.000025
1127	1.1204e+02	8.7915	17.523062	0.000250	2.496899	0.422986	-0.000025
1128	1.1214e+02	8.7793	17.503509	0.000196	1.964773	0.332842	-0.000020
1129	1.1224e+02	8.7689	17.475403	0.000282	2.824361	0.478460	-0.000028
1130	1.1234e+02	8.7592	17.451777	0.000237	2.374101	0.402184	-0.000024
1131	1.1244e+02	8.7525	17.428558	0.000233	2.333168	0.395249	-0.000023
1132	1.1253e+02	8.7460	17.400044	0.000287	2.865294	0.485394	-0.000029
1133	1.1263e+02	8.7317	17.375197	0.000250	2.496899	0.422986	-0.000025
1134	1.1273e+02	8.7187	17.350349	0.000250	2.496899	0.422986	-0.000025
1135	1.1283e+02	8.7115	17.327537	0.000229	2.292235	0.388315	-0.000023
1136	1.1293e+02	8.7006	17.300246	0.000274	2.742496	0.464591	-0.000027
1137	1.1303e+02	8.6918	17.280286	0.000201	2.005706	0.339776	-0.000020
1138	1.1313e+02	8.6827	17.251772	0.000287	2.865294	0.485394	-0.000029
1139	1.1323e+02	8.6720	17.227739	0.000242	2.415034	0.409118	-0.000024
1140	1.1333e+02	8.6613	17.203298	0.000246	2.455966	0.416052	-0.000025
1141	1.1343e+02	8.6510	17.179672	0.000237	2.374101	0.402184	-0.000024
1142	1.1353e+02	8.6443	17.151158	0.000287	2.865294	0.485394	-0.000029
1143	1.1363e+02	8.6321	17.121015	0.000303	3.029025	0.513131	-0.000030
1144	1.1373e+02	8.6240	17.096167	0.000250	2.496899	0.422986	-0.000025
1145	1.1383e+02	8.6127	17.073356	0.000229	2.292235	0.388315	-0.000023
1146	1.1393e+02	8.6009	17.051767	0.000217	2.169437	0.367513	-0.000022
1147	1.1403e+02	8.5922	17.025697	0.000262	2.619698	0.443789	-0.000026
1148	1.1413e+02	8.5883	16.995961	0.000299	2.988092	0.506197	-0.000030
1149	1.1423e+02	8.5718	16.973557	0.000225	2.251303	0.381381	-0.000023
1150	1.1433e+02	8.5617	16.943821	0.000299	2.988092	0.506197	-0.000030
1151	1.1442e+02	8.5526	16.922232	0.000217	2.169437	0.367513	-0.000022
1152	1.1452e+02	8.5441	16.893310	0.000291	2.906227	0.492328	-0.000029
1153	1.1462e+02	8.5323	16.869277	0.000242	2.415034	0.409118	-0.000024
1154	1.1472e+02	8.5224	16.846873	0.000225	2.251303	0.381381	-0.000023
1155	1.1482e+02	8.5132	16.818767	0.000282	2.824361	0.478460	-0.000028
1156	1.1492e+02	8.5023	16.793919	0.000250	2.496899	0.422986	-0.000025
1157	1.1502e+02	8.4913	16.769478	0.000246	2.455966	0.416052	-0.000025
1158	1.1512e+02	8.4806	16.745852	0.000237	2.374101	0.402184	-0.000024
1159	1.1522e+02	8.4738	16.721412	0.000246	2.455966	0.416052	-0.000025
1160	1.1532e+02	8.4628	16.697786	0.000237	2.374101	0.402184	-0.000024
1161	1.1542e+02	8.4504	16.673753	0.000242	2.415034	0.409118	-0.000024
1162	1.1552e+02	8.4436	16.651756	0.000221	2.210370	0.374447	-0.000022
1163	1.1562e+02	8.4338	16.627723	0.000242	2.415034	0.409118	-0.000024
1164	1.1572e+02	8.4222	16.596358	0.000315	3.151824	0.533933	-0.000032
1165	1.1582e+02	8.4138	16.572324	0.000242	2.415034	0.409118	-0.000024
1166	1.1592e+02	8.4036	16.553179	0.000192	1.923840	0.325907	-0.000019
1167	1.1602e+02	8.3954	16.526702	0.000266	2.660630	0.450723	-0.000027
1168	1.1612e+02	8.3847	16.504298	0.000225	2.251303	0.381381	-0.000023
1169	1.1622e+02	8.3759	16.477006	0.000274	2.742496	0.464591	-0.000027
1170	1.1632e+02	8.3656	16.453380	0.000237	2.374101	0.402184	-0.000024
1171	1.1642e+02	8.3518	16.423237	0.000303	3.029025	0.513131	-0.000030
1172	1.1651e+02	8.3431	16.397167	0.000262	2.619698	0.443789	-0.000026
1173	1.1661e+02	8.3340	16.368246	0.000291	2.906227	0.492328	-0.000029
1174	1.1671e+02	8.3234	16.340954	0.000274	2.742496	0.464591	-0.000027
1175	1.1681e+02	8.3135	16.316106	0.000250	2.496899	0.422986	-0.000025
1176	1.1691e+02	8.3042	16.289629	0.000266	2.660630	0.450723	-0.000027
1177	1.1701e+02	8.2945	16.260300	0.000295	2.947160	0.499262	-0.000029
1178	1.1711e+02	8.2854	16.230971	0.000295	2.947160	0.499262	-0.000029
1179	1.1721e+02	8.2729	16.206531	0.000246	2.455966	0.416052	-0.000025
1180	1.1731e+02	8.2666	16.175980	0.000307	3.069958	0.520065	-0.000031
1181	1.1741e+02	8.2536	16.147059	0.000291	2.906227	0.492328	-0.000029
1182	1.1751e+02	8.2433	16.118545	0.000287	2.865294	0.485394	-0.000029
1183	1.1761e+02	8.2336	16.086772	0.000319	3.192756	0.540868	-0.000032
1184	1.1771e+02	8.2246	16.057851	0.000291	2.906227	0.492328	-0.000029
1185	1.1781e+02	8.2160	16.029744	0.000282	2.824361	0.478460	-0.000028
1186	1.1791e+02	8.2059	16.000415	0.000295	2.947160	0.499262	-0.000029
1187	1.1801e+02	8.1956	15.971087	0.000295	2.947160	0.499262	-0.000029
1188	1.1811e+02	8.1848	15.943795	0.000274	2.742496	0.464591	-0.000027
1189	1.1821e+02	8.1730	15.916910	0.000270	2.701563	0.457657	-0.000027
1190	1.1831e+02	8.1672	15.886360	0.000307	3.069958	0.520065	-0.000031
1191	1.1841e+02	8.1552	15.859475	0.000270	2.701563	0.457657	-0.000027
1192	1.1850e+02	8.1437	15.833812	0.000258	2.578765	0.436855	-0.000026
1193	1.1860e+02	8.1345	15.806520	0.000274	2.742496	0.464591	-0.000027
1194	1.1870e+02	8.1260	15.776784	0.000299	2.988092	0.506197	-0.000030
1195	1.1880e+02	8.1135	15.749900	0.000270	2.701563	0.457657	-0.000027
1196	1.1890e+02	8.1062	15.720978	0.000291	2.906227	0.492328	-0.000029
1197	1.1900e+02	8.0936	15.695316	0.000258	2.578765	0.436855	-0.000026
1198	1.1910e+02	8.0831	15.667617	0.000278	2.783429	0.471526	-0.000028
1199	1.1920e+02	8.0746	15.637881	0.000299	2.988092	0.506197	-0.000030
1200	1.1930e+02	8.0635	15.608959	0.000291	2.906227	0.492328	-0.000029
1201	1.1940e+02	8.0573	15.584111	0.000250	2.496899	0.422986	-0.000025
1202	1.1950e+02	8.0434	15.554375	0.000299	2.988092	0.506197	-0.000030
1203	1.1960e+02	8.0365	15.529527	0.000250	2.496899	0.422986	-0.000025
1204	1.1970e+02	8.0260	15.499384	0.000303	3.029025	0.513131	-0.000030
1205	1.1980e+02	8.0139	15.475351	0.000242	2.415034	0.409118	-0.000024
1206	1.1990e+02	8.0078	15.449688	0.000258	2.578765	0.436855	-0.000026
1207	1.2000e+02	7.9944	15.417916	0.000319	3.192756	0.540868	-0.000032
1208	1.2010e+02	7.9849	15.388180	0.000299	2.988092	0.506197	-0.000030
1209	1.2020e+02	7.9756	15.360480	0.000278	2.783429	0.471526	-0.000028
1210	1.2030e+02	7.9650	15.336447	0.000242	2.415034	0.409118	-0.000024
1211	1.2039e+02	7.9559	15.303045	0.000336	3.356487	0.568604	-0.000034
1212	1.2049e+02	7.9443	15.273309	0.000299	2.988092	0.506197	-0.000030
1213	1.2059e+02	7.9358	15.248461	0.000250	2.496899	0.422986	-0.000025
1214	1.2069e+02	7.9284	15.221576	0.000270	2.701563	0.457657	-0.000027
1215	1.2079e+02	7.9166	15.192248	0.000295	2.947160	0.499262	-0.000029
1216	1.2089e+02	7.9031	15.164956	0.000274	2.742496	0.464591	-0.000027
1217	1.2099e+02	7.8947	15.137664	0.000274	2.742496	0.464591	-0.000027
1218	1.2109e+02	7.8852	15.107521	0.000303	3.029025	0.513131	-0.000030
1219	1.2119e+02	7.8757	15.079414	0.000282	2.824361	0.478460	-0.000028
1220	1.2129e+02	7.8651	15.054159	0.000254	2.537832	0.429920	-0.000025
1221	1.2139e+02	7.8540	15.027274	0.000270	2.701563	0.457657	-0.000027
1222	1.2149e+02	7.8480	14.997131	0.000303	3.029025	0.513131	-0.000030
1223	1.2159e+02	7.8358	14.969431	0.000278	2.783429	0.471526	-0.000028
1224	1.2169e+02	7.8271	14.940917	0.000287	2.865294	0.485394	-0.000029
1225	1.2179e+02	7.8168	14.914440	0.000266	2.660630	0.450723	-0.000027
1226	1.2189e+02	7.8069	14.881853	0.000327	3.274622	0.554736	-0.000033
1227	1.2199e+02	7.7979	14.857005	0.000250	2.496899	0.422986	-0.000025
1228	1.2209e+02	7.7865	14.828491	0.000287	2.865294	0.485394	-0.000029
1229	1.2219e+02	7.7760	14.802014	0.000266	2.660630	0.450723	-0.000027
1230	1.2229e+02	7.7661	14.773500	0.000287	2.865294	0.485394	-0.000029
1231	1.2239e+02	7.7564	14.746615	0.000270	2.701563	0.457657	-0.000027
1232	1.2248e+02	7.7490	14.718508	0.000282	2.824361	0.478460	-0.000028
1233	1.2258e+02	7.7387	14.694475	0.000242	2.415034	0.409118	-0.000024
1234	1.2268e+02	7.7246	14.663517	0.000311	3.110891	0.526999	-0.000031
1235	1.2278e+02	7.7158	14.632559	0.000311	3.110891	0.526999	-0.000031
1236	1.2288e+02	7.7065	14.606489	0.000262	2.619698	0.443789	-0.000026
1237	1.2298e+02	7.6938	14.577161	0.000295	2.947160	0.499262	-0.000029
1238	1.2308e+02	7.6864	14.548239	0.000291	2.906227	0.492328	-0.000029
1239	1.2318e+02	7.6746	14.521355	0.000270	2.701563	0.457657	-0.000027
1240	1.2328e+02	7.6673	14.487138	0.000344	3.438353	0.582473	-0.000034
1241	1.2338e+02	7.6601	14.459031	0.000282	2.824361	0.478460	-0.000028
1242	1.2348e+02	7.6458	14.429295	0.000299	2.988092	0.506197	-0.000030
1243	1.2358e+02	7.6392	14.398337	0.000311	3.110891	0.526999	-0.000031
1244	1.2368e+02	7.6284	14.369009	0.000295	2.947160	0.499262	-0.000029
1245	1.2378e+02	7.6191	14.339272	0.000299	2.988092	0.506197	-0.000030
1246	1.2388e+02	7.6052	14.308722	0.000307	3.069958	0.520065	-0.000031
1247	1.2398e+02	7.5977	14.280615	0.000282	2.824361	0.478460	-0.000028
1248	1.2408e+02	7.5880	14.246398	0.000344	3.438353	0.582473	-0.000034
1249	1.2418e+02	7.5788	14.216255	0.000303	3.029025	0.513131	-0.000030
1250	1.2428e+02	7.5654	14.190185	0.000262	2.619698	0.443789	-0.000026
1251	1.2438e+02	7.5594	14.161264	0.000291	2.906227	0.492328	-0.000029
1252	1.2447e+02	7.5503	14.128676	0.000327	3.274622	0.554736	-0.000033
1253	1.2457e+02	7.5380	14.099348	0.000295	2.947160	0.499262	-0.000029
1254	1.2467e+02	7.5266	14.070834	0.000287	2.865294	0.485394	-0.000029
1255	1.2477e+02	7.5198	14.045986	0.000250	2.496899	0.422986	-0.000025
1256	1.2487e+02	7.5086	14.015435	0.000307	3.069958	0.520065	-0.000031
1257	1.2497e+02	7.4959	13.985292	0.000303	3.029025	0.513131	-0.000030
1258	1.2507e+02	7.4873	13.960444	0.000250	2.496899	0.422986	-0.000025
1259	1.2517e+02	7.4773	13.928671	0.000319	3.192756	0.540868	-0.000032
1260	1.2527e+02	7.4696	13.901379	0.000274	2.742496	0.464591	-0.000027
1261	1.2537e+02	7.4590	13.876124	0.000254	2.537832	0.429920	-0.000025
1262	1.2547e+02	7.4480	13.847203	0.000291	2.906227	0.492328	-0.000029
1263	1.2557e+02	7.4394	13.818281	0.000291	2.906227	0.492328	-0.000029
1264	1.2567e+02	7.4272	13.790989	0.000274	2.742496	0.464591	-0.000027
1265	1.2577e+02	7.4166	13.766956	0.000242	2.415034	0.409118	-0.000024
1266	1.2587e+02	7.4081	13.741701	0.000254	2.537832	0.429920	-0.000025
1267	1.2597e+02	7.3971	13.716038	0.000258	2.578765	0.436855	-0.000026
1268	1.2607e+02	7.3879	13.685080	0.000311	3.110891	0.526999	-0.000031
1269	1.2617e+02	7.3779	13.660232	0.000250	2.496899	0.422986	-0.000025
1270	1.2627e+02	7.3667	13.638236	0.000221	2.210370	0.374447	-0.000022
1271	1.2636e+02	7.3576	13.608093	0.000303	3.029025	0.513131	-0.000030
1272	1.2646e+02	7.3486	13.582023	0.000262	2.619698	0.443789	-0.000026
1273	1.2656e+02	7.3370	13.553101	0.000291	2.906227	0.492328	-0.000029
1274	1.2666e+02	7.3281	13.522958	0.000303	3.029025	0.513131	-0.000030
1275	1.2676e+02	7.3232	13.492815	0.000303	3.029025	0.513131	-0.000030
1276	1.2686e+02	7.3116	13.465115	0.000278	2.783429	0.471526	-0.000028
1277	1.2696e+02	7.2980	13.437416	0.000278	2.783429	0.471526	-0.000028
1278	1.2706e+02	7.2895	13.406458	0.000311	3.110891	0.526999	-0.000031
1279	1.2716e+02	7.2790	13.379573	0.000270	2.701563	0.457657	-0.000027
1280	1.2726e+02	7.2698	13.350245	0.000295	2.947160	0.499262	-0.000029
1281	1.2736e+02	7.2582	13.322953	0.000274	2.742496	0.464591	-0.000027
1282	1.2746e+02	7.2517	13.294032	0.000291	2.906227	0.492328	-0.000029
1283	1.2756e+02	7.2395	13.265518	0.000287	2.865294	0.485394	-0.000029
1284	1.2766e+02	7.2294	13.236596	0.000291	2.906227	0.492328	-0.000029
1285	1.2776e+02	7.2180	13.207675	0.000291	2.906227	0.492328	-0.000029
1286	1.2786e+02	7.2102	13.178346	0.000295	2.947160	0.499262	-0.000029
1287	1.2796e+02	7.1993	13.150240	0.000282	2.824361	0.478460	-0.000028
1288	1.2806e+02	7.1879	13.120504	0.000299	2.988092	0.506197	-0.000030
1289	1.2816e+02	7.1806	13.089953	0.000307	3.069958	0.520065	-0.000031
1290	1.2826e+02	7.1687	13.062254	0.000278	2.783429	0.471526	-0.000028
1291	1.2835e+02	7.1578	13.033332	0.000291	2.906227	0.492328	-0.000029
1292	1.2845e+02	7.1503	13.001152	0.000323	3.233689	0.547802	-0.000032
1293	1.2855e+02	7.1397	12.972638	0.000287	2.865294	0.485394	-0.000029
1294	1.2865e+02	7.1292	12.943310	0.000295	2.947160	0.499262	-0.000029
1295	1.2875e+02	7.1179	12.916425	0.000270	2.701563	0.457657	-0.000027
1296	1.2885e+02	7.1116	12.888318	0.000282	2.824361	0.478460	-0.000028
1297	1.2895e+02	7.0996	12.858175	0.000303	3.029025	0.513131	-0.000030
1298	1.2905e+02	7.0905	12.828439	0.000299	2.988092	0.506197	-0.000030
1299	1.2915e+02	7.0792	12.799110	0.000295	2.947160	0.499262	-0.000029
1300	1.2925e+02	7.0686	12.770596	0.000287	2.865294	0.485394	-0.000029
1301	1.2935e+02	7.0583	12.742490	0.000282	2.824361	0.478460	-0.000028
1302	1.2945e+02	7.0495	12.716012	0.000266	2.660630	0.450723	-0.000027
1303	1.2955e+02	7.0379	12.685462	0.000307	3.069958	0.520065	-0.000031
1304	1.2965e+02	7.0296	12.652874	0.000327	3.274622	0.554736	-0.000033
1305	1.2975e+02	7.0184	12.622731	0.000303	3.029025	0.513131	-0.000030
1306	1.2985e+02	7.0108	12.594217	0.000287	2.865294	0.485394	-0.000029
1307	1.2995e+02	7.0020	12.565296	0.000291	2.906227	0.492328	-0.000029
1308	1.3005e+02	6.9934	12.533523	0.000319	3.192756	0.540868	-0.000032
1309	1.3015e+02	6.9824	12.498492	0.000352	3.520219	0.596341	-0.000035
1310	1.3025e+02	6.9714	12.469978	0.000287	2.865294	0.485394	-0.000029
1311	1.3034e+02	6.9585	12.439834	0.000303	3.029025	0.513131	-0.000030
1312	1.3044e+02	6.9508	12.414172	0.000258	2.578765	0.436855	-0.000026
1313	1.3054e+02	6.9385	12.385250	0.000291	2.906227	0.492328	-0.000029
1314	1.3064e+02	6.9296	12.351034	0.000344	3.438353	0.582473	-0.000034
1315	1.3074e+02	6.9216	12.324149	0.000270	2.701563	0.457657	-0.000027
1316	1.3084e+02	6.9147	12.293598	0.000307	3.069958	0.520065	-0.000031
1317	1.3094e+02	6.9012	12.261011	0.000327	3.274622	0.554736	-0.000033
1318	1.3104e+02	6.8912	12.233719	0.000274	2.742496	0.464591	-0.000027
1319	1.3114e+02	6.8832	12.201131	0.000327	3.274622	0.554736	-0.000033
1320	1.3124e+02	6.8712	12.171803	0.000295	2.947160	0.499262	-0.000029
1321	1.3134e+02	6.8609	12.140845	0.000311	3.110891	0.526999	-0.000031
1322	1.3144e+02	6.8508	12.111923	0.000291	2.906227	0.492328	-0.000029
1323	1.3154e+02	6.8410	12.079743	0.000323	3.233689	0.547802	-0.000032
1324	1.3164e+02	6.8311	12.053266	0.000266	2.660630	0.450723	-0.000027
1325	1.3174e+02	6.8206	12.025567	0.000278	2.783429	0.471526	-0.000028
1326	1.3184e+02	6.8109	11.996238	0.000295	2.947160	0.499262	-0.000029
1327	1.3194e+02	6.8009	11.966095	0.000303	3.029025	0.513131	-0.000030
1328	1.3204e+02	6.7915	11.938803	0.000274	2.742496	0.464591	-0.000027
1329	1.3214e+02	6.7806	11.910696	0.000282	2.824361	0.478460	-0.000028
1330	1.3224e+02	6.7712	11.882182	0.000287	2.865294	0.485394	-0.000029
1331	1.3234e+02	6.7616	11.852446	0.000299	2.988092	0.506197	-0.000030
1332	1.3243e+02	6.7513	11.820266	0.000323	3.233689	0.547802	-0.000032
1333	1.3253e+02	6.7427	11.797048	0.000233	2.333168	0.395249	-0.000023
1334	1.3263e+02	6.7336	11.764868	0.000323	3.233689	0.547802	-0.000032
1335	1.3273e+02	6.7223	11.733910	0.000311	3.110891	0.526999	-0.000031
1336	1.3283e+02	6.7135	11.706618	0.000274	2.742496	0.464591	-0.000027
1337	1.3293e+02	6.7037	11.678104	0.000287	2.865294	0.485394	-0.000029
1338	1.3303e+02	6.6927	11.649590	0.000287	2.865294	0.485394	-0.000029
1339	1.3313e+02	6.6816	11.614558	0.000352	3.520219	0.596341	-0.000035
1340	1.3323e+02	6.6762	11.585230	0.000295	2.947160	0.499262	-0.000029
1341	1.3333e+02	6.6645	11.553049	0.000323	3.233689	0.547802	-0.000032
1342	1.3343e+02	6.6534	11.520462	0.000327	3.274622	0.554736	-0.000033
1343	1.3353e+02	6.6424	11.488689	0.000319	3.192756	0.540868	-0.000032
1344	1.3363e+02	6.6337	11.453251	0.000356	3.561151	0.603275	-0.000036
1345	1.3373e+02	6.6248	11.424329	0.000291	2.906227	0.492328	-0.000029
1346	1.3383e+02	6.6138	11.388483	0.000360	3.602084	0.610210	-0.000036
1347	1.3393e+02	6.6000	11.360376	0.000282	2.824361	0.478460	-0.000028
1348	1.3403e+02	6.5946	11.325752	0.000348	3.479286	0.589407	-0.000035
1349	1.3413e+02	6.5820	11.294794	0.000311	3.110891	0.526999	-0.000031
1350	1.3423e+02	6.5711	11.258133	0.000368	3.683950	0.624078	-0.000037
1351	1.3432e+02	6.5636	11.225953	0.000323	3.233689	0.547802	-0.000032
1352	1.3442e+02	6.5499	11.194995	0.000311	3.110891	0.526999	-0.000031
1353	1.3452e+02	6.5398	11.160371	0.000348	3.479286	0.589407	-0.000035
1354	1.3462e+02	6.5319	11.127784	0.000327	3.274622	0.554736	-0.000033
1355	1.3472e+02	6.5237	11.093160	0.000348	3.479286	0.589407	-0.000035
1356	1.3482e+02	6.5137	11.060980	0.000323	3.233689	0.547802	-0.000032
1357	1.3492e+02	6.5039	11.029614	0.000315	3.151824	0.533933	-0.000032
1358	1.3502e+02	6.4930	10.992953	0.000368	3.683950	0.624078	-0.000037
1359	1.3512e+02	6.4845	10.960366	0.000327	3.274622	0.554736	-0.000033
1360	1.3522e+02	6.4742	10.930223	0.000303	3.029025	0.513131	-0.000030
1361	1.3532e+02	6.4624	10.898857	0.000315	3.151824	0.533933	-0.000032
1362	1.3542e+02	6.4507	10.863826	0.000352	3.520219	0.596341	-0.000035
1363	1.3552e+02	6.4442	10.834905	0.000291	2.906227	0.492328	-0.000029
1364	1.3562e+02	6.4346	10.803539	0.000315	3.151824	0.533933	-0.000032
1365	1.3572e+02	6.4223	10.774618	0.000291	2.906227	0.492328	-0.000029
1366	1.3582e+02	6.4096	10.741623	0.000332	3.315555	0.561670	-0.000033
1367	1.3592e+02	6.4043	10.704962	0.000368	3.683950	0.624078	-0.000037
1368	1.3602e+02	6.3943	10.674412	0.000307	3.069958	0.520065	-0.000031
1369	1.3612e+02	6.3824	10.644676	0.000299	2.988092	0.506197	-0.000030
1370	1.3622e+02	6.3740	10.612903	0.000319	3.192756	0.540868	-0.000032
1371	1.3631e+02	6.3609	10.581945	0.000311	3.110891	0.526999	-0.000031
1372	1.3641e+02	6.3564	10.549357	0.000327	3.274622	0.554736	-0.000033
1373	1.3651e+02	6.3412	10.517992	0.000315	3.151824	0.533933	-0.000032
1374	1.3661e+02	6.3317	10.487441	0.000307	3.069958	0.520065	-0.000031
1375	1.3671e+02	6.3242	10.455261	0.000323	3.233689	0.547802	-0.000032
1376	1.3681e+02	6.3136	10.421452	0.000340	3.397420	0.575539	-0.000034
1377	1.3691e+02	6.3069	10.387642	0.000340	3.397420	0.575539	-0.000034
1378	1.3701e+02	6.2933	10.359536	0.000282	2.824361	0.478460	-0.000028
1379	1.3711e+02	6.2846	10.326948	0.000327	3.274622	0.554736	-0.000033
1380	1.3721e+02	6.2769	10.291917	0.000352	3.520219	0.596341	-0.000035
1381	1.3731e+02	6.2623	10.260959	0.000311	3.110891	0.526999	-0.000031
1382	1.3741e+02	6.2551	10.227149	0.000340	3.397420	0.575539	-0.000034
1383	1.3751e+02	6.2474	10.199043	0.000282	2.824361	0.478460	-0.000028
1384	1.3761e+02	6.2337	10.161567	0.000377	3.765815	0.637946	-0.000038
1385	1.3771e+02	6.2231	10.133868	0.000278	2.783429	0.471526	-0.000028
1386	1.3781e+02	6.2139	10.099244	0.000348	3.479286	0.589407	-0.000035
1387	1.3791e+02	6.2035	10.067064	0.000323	3.233689	0.547802	-0.000032
1388	1.3801e+02	6.1962	10.032440	0.000348	3.479286	0.589407	-0.000035
1389	1.3811e+02	6.1858	10.002704	0.000299	2.988092	0.506197	-0.000030
1390	1.3821e+02	6.1738	9.967672	0.000352	3.520219	0.596341	-0.000035
1391	1.3831e+02	6.1628	9.937936	0.000299	2.988092	0.506197	-0.000030
1392	1.3840e+02	6.1533	9.905756	0.000323	3.233689	0.547802	-0.000032
1393	1.3850e+02	6.1465	9.877242	0.000287	2.865294	0.485394	-0.000029
1394	1.3860e+02	6.1361	9.841803	0.000356	3.561151	0.603275	-0.000036
1395	1.3870e+02	6.1260	9.811660	0.000303	3.029025	0.513131	-0.000030
1396	1.3880e+02	6.1171	9.779480	0.000323	3.233689	0.547802	-0.000032
1397	1.3890e+02	6.1042	9.744041	0.000356	3.561151	0.603275	-0.000036
1398	1.3900e+02	6.0986	9.713490	0.000307	3.069958	0.520065	-0.000031
1399	1.3910e+02	6.0835	9.681718	0.000319	3.192756	0.540868	-0.000032
1400	1.3920e+02	6.0749	9.648723	0.000332	3.315555	0.561670	-0.000033
1401	1.3930e+02	6.0645	9.613692	0.000352	3.520219	0.596341	-0.000035
1402	1.3940e+02	6.0549	9.585178	0.000287	2.865294	0.485394	-0.000029
1403	1.3950e+02	6.0461	9.550553	0.000348	3.479286	0.589407	-0.000035
1404	1.3960e+02	6.0350	9.517966	0.000327	3.274622	0.554736	-0.000033
1405	1.3970e+02	6.0258	9.486601	0.000315	3.151824	0.533933	-0.000032
1406	1.3980e+02	6.0170	9.455643	0.000311	3.110891	0.526999	-0.000031
1407	1.3990e+02	6.0050	9.419389	0.000364	3.643017	0.617144	-0.000036
1408	1.4000e+02	5.9963	9.387209	0.000323	3.233689	0.547802	-0.000032
1409	1.4010e+02	5.9850	9.353807	0.000336	3.356487	0.568604	-0.000034
1410	1.4020e+02	5.9747	9.319998	0.000340	3.397420	0.575539	-0.000034
1411	1.4029e+02	5.9676	9.284966	0.000352	3.520219	0.596341	-0.000035
1412	1.4039e+02	5.9571	9.249527	0.000356	3.561151	0.603275	-0.000036
1413	1.4049e+02	5.9478	9.212052	0.000377	3.765815	0.637946	-0.000038
1414	1.4059e+02	5.9371	9.179057	0.000332	3.315555	0.561670	-0.000033
1415	1.4069e+02	5.9254	9.147284	0.000319	3.192756	0.540868	-0.000032
1416	1.4079e+02	5.9150	9.111438	0.000360	3.602084	0.610210	-0.000036
1417	1.4089e+02	5.9049	9.080888	0.000307	3.069958	0.520065	-0.000031
1418	1.4099e+02	5.8991	9.048300	0.000327	3.274622	0.554736	-0.000033
1419	1.4109e+02	5.8878	9.011639	0.000368	3.683950	0.624078	-0.000037
1420	1.4119e+02	5.8794	8.975793	0.000360	3.602084	0.610210	-0.000036
1421	1.4129e+02	5.8699	8.942798	0.000332	3.315555	0.561670	-0.000033
1422	1.4139e+02	5.8575	8.910211	0.000327	3.274622	0.554736	-0.000033
1423	1.4149e+02	5.8491	8.879660	0.000307	3.069958	0.520065	-0.000031
1424	1.4159e+02	5.8382	8.846258	0.000336	3.356487	0.568604	-0.000034
1425	1.4169e+02	5.8270	8.815707	0.000307	3.069958	0.520065	-0.000031
1426	1.4179e+02	5.8161	8.783935	0.000319	3.192756	0.540868	-0.000032
1427	1.4189e+02	5.8085	8.748089	0.000360	3.602084	0.610210	-0.000036
1428	1.4199e+02	5.7949	8.715094	0.000332	3.315555	0.561670	-0.000033
1429	1.4209e+02	5.7861	8.690246	0.000250	2.496899	0.422986	-0.000025
1430	1.4219e+02	5.7760	8.652363	0.000381	3.806748	0.644881	-0.000038
1431	1.4228e+02	5.7667	8.620183	0.000323	3.233689	0.547802	-0.000032
1432	1.4238e+02	5.7553	8.588410	0.000319	3.192756	0.540868	-0.000032
1433	1.4248e+02	5.7487	8.560711	0.000278	2.783429	0.471526	-0.000028
1434	1.4258e+02	5.7336	8.531790	0.000291	2.906227	0.492328	-0.000029
1435	1.4268e+02	5.7280	8.501239	0.000307	3.069958	0.520065	-0.000031
1436	1.4278e+02	5.7181	8.465800	0.000356	3.561151	0.603275	-0.000036
1437	1.4288e+02	5.7052	8.434842	0.000311	3.110891	0.526999	-0.000031
1438	1.4298e+02	5.6976	8.407958	0.000270	2.701563	0.457657	-0.000027
1439	1.4308e+02	5.6863	8.373741	0.000344	3.438353	0.582473	-0.000034
1440	1.4318e+02	5.6771	8.343597	0.000303	3.029025	0.513131	-0.000030
1441	1.4328e+02	5.6673	8.312232	0.000315	3.151824	0.533933	-0.000032
1442	1.4338e+02	5.6572	8.277608	0.000348	3.479286	0.589407	-0.000035
1443	1.4348e+02	5.6457	8.248279	0.000295	2.947160	0.499262	-0.000029
1444	1.4358e+02	5.6361	8.213248	0.000352	3.520219	0.596341	-0.000035
1445	1.4368e+02	5.6260	8.181882	0.000315	3.151824	0.533933	-0.000032
1446	1.4378e+02	5.6203	8.149295	0.000327	3.274622	0.554736	-0.000033
1447	1.4388e+02	5.6094	8.117930	0.000315	3.151824	0.533933	-0.000032
1448	1.4398e+02	5.5996	8.083306	0.000348	3.479286	0.589407	-0.000035
1449	1.4408e+02	5.5875	8.051126	0.000323	3.233689	0.547802	-0.000032
1450	1.4418e+02	5.5769	8.016501	0.000348	3.479286	0.589407	-0.000035
1451	1.4428e+02	5.5705	7.983507	0.000332	3.315555	0.561670	-0.000033
1452	1.4437e+02	5.5607	7.949697	0.000340	3.397420	0.575539	-0.000034
1453	1.4447e+02	5.5500	7.913851	0.000360	3.602084	0.610210	-0.000036
1454	1.4457e+02	5.5386	7.882078	0.000319	3.192756	0.540868	-0.000032
1455	1.4467e+02	5.5274	7.849084	0.000332	3.315555	0.561670	-0.000033
1456	1.4477e+02	5.5193	7.815682	0.000336	3.356487	0.568604	-0.000034
1457	1.4487e+02	5.5072	7.784316	0.000315	3.151824	0.533933	-0.000032
1458	1.4497e+02	5.4983	7.749285	0.000352	3.520219	0.596341	-0.000035
1459	1.4507e+02	5.4873	7.715475	0.000340	3.397420	0.575539	-0.000034
1460	1.4517e+02	5.4760	7.681666	0.000340	3.397420	0.575539	-0.000034
1461	1.4527e+02	5.4705	7.652337	0.000295	2.947160	0.499262	-0.000029
1462	1.4537e+02	5.4578	7.615676	0.000368	3.683950	0.624078	-0.000037
1463	1.4547e+02	5.4482	7.586755	0.000291	2.906227	0.492328	-0.000029
1464	1.4557e+02	5.4416	7.551724	0.000352	3.520219	0.596341	-0.000035
1465	1.4567e+02	5.4272	7.520358	0.000315	3.151824	0.533933	-0.000032
1466	1.4577e+02	5.4171	7.482475	0.000381	3.806748	0.644881	-0.000038
1467	1.4587e+02	5.4081	7.451110	0.000315	3.151824	0.533933	-0.000032
1468	1.4597e+02	5.3987	7.417301	0.000340	3.397420	0.575539	-0.000034
1469	1.4607e+02	5.3886	7.385935	0.000315	3.151824	0.533933	-0.000032
1470	1.4617e+02	5.3776	7.348867	0.000372	3.724882	0.631012	-0.000037
1471	1.4626e+02	5.3680	7.316280	0.000327	3.274622	0.554736	-0.000033
1472	1.4636e+02	5.3593	7.282063	0.000344	3.438353	0.582473	-0.000034
1473	1.4646e+02	5.3484	7.248253	0.000340	3.397420	0.575539	-0.000034
1474	1.4656e+02	5.3381	7.210778	0.000377	3.765815	0.637946	-0.000038
1475	1.4666e+02	5.3297	7.179005	0.000319	3.192756	0.540868	-0.000032
1476	1.4676e+02	5.3197	7.142344	0.000368	3.683950	0.624078	-0.000037
1477	1.4686e+02	5.3059	7.107720	0.000348	3.479286	0.589407	-0.000035
1478	1.4696e+02	5.2981	7.074318	0.000336	3.356487	0.568604	-0.000034
1479	1.4706e+02	5.2888	7.044582	0.000299	2.988092	0.506197	-0.000030
1480	1.4716e+02	5.2805	7.005070	0.000397	3.970479	0.672617	-0.000040
1481	1.4726e+02	5.2677	6.974112	0.000311	3.110891	0.526999	-0.000031
1482	1.4736e+02	5.2563	6.939895	0.000344	3.438353	0.582473	-0.000034
1483	1.4746e+02	5.2493	6.901605	0.000385	3.847681	0.651815	-0.000038
1484	1.4756e+02	5.2395	6.869017	0.000327	3.274622	0.554736	-0.000033
1485	1.4766e+02	5.2279	6.831542	0.000377	3.765815	0.637946	-0.000038
1486	1.4776e+02	5.2218	6.801399	0.000303	3.029025	0.513131	-0.000030
1487	1.4786e+02	5.2082	6.762294	0.000393	3.929546	0.665683	-0.000039
1488	1.4796e+02	5.2020	6.730521	0.000319	3.192756	0.540868	-0.000032
1489	1.4806e+02	5.1916	6.697526	0.000332	3.315555	0.561670	-0.000033
1490	1.4816e+02	5.1798	6.660865	0.000368	3.683950	0.624078	-0.000037
1491	1.4825e+02	5.1698	6.628278	0.000327	3.274622	0.554736	-0.000033
1492	1.4835e+02	5.1603	6.595691	0.000327	3.274622	0.554736	-0.000033
1493	1.4845e+02	5.1493	6.562289	0.000336	3.356487	0.568604	-0.000034
1494	1.4855e+02	5.1403	6.529701	0.000327	3.274622	0.554736	-0.000033
1495	1.4865e+02	5.1309	6.496299	0.000336	3.356487	0.568604	-0.000034
1496	1.4875e+02	5.1194	6.462490	0.000340	3.397420	0.575539	-0.000034
1497	1.4885e+02	5.1118	6.433568	0.000291	2.906227	0.492328	-0.000029
1498	1.4895e+02	5.1012	6.400574	0.000332	3.315555	0.561670	-0.000033
1499	1.4905e+02	5.0904	6.367171	0.000336	3.356487	0.568604	-0.000034
1500	1.4915e+02	5.0817	6.332955	0.000344	3.438353	0.582473	-0.000034
1501	1.4925e+02	5.0682	6.294664	0.000385	3.847681	0.651815	-0.000038
1502	1.4935e+02	5.0591	6.260448	0.000344	3.438353	0.582473	-0.000034
1503	1.4945e+02	5.0512	6.227453	0.000332	3.315555	0.561670	-0.000033
1504	1.4955e+02	5.0388	6.198124	0.000295	2.947160	0.499262	-0.000029
1505	1.4965e+02	5.0320	6.163500	0.000348	3.479286	0.589407	-0.000035
1506	1.4975e+02	5.0210	6.129283	0.000344	3.438353	0.582473	-0.000034
1507	1.4985e+02	5.0113	6.092215	0.000372	3.724882	0.631012	-0.000037
1508	1.4995e+02	5.0011	6.055962	0.000364	3.643017	0.617144	-0.000036
1509	1.5005e+02	4.9905	6.027040	0.000291	2.906227	0.492328	-0.000029
1510	1.5015e+02	4.9798	5.983862	0.000434	4.338874	0.735025	-0.000043
1511	1.5025e+02	4.9686	5.951682	0.000323	3.233689	0.547802	-0.000032
1512	1.5034e+02	4.9605	5.915429	0.000364	3.643017	0.617144	-0.000036
1513	1.5044e+02	4.9542	5.874287	0.000413	4.134210	0.700354	-0.000041
1514	1.5054e+02	4.9413	5.840885	0.000336	3.356487	0.568604	-0.000034
1515	1.5064e+02	4.9311	5.800965	0.000401	4.011412	0.679552	-0.000040
1516	1.5074e+02	4.9200	5.766749	0.000344	3.438353	0.582473	-0.000034
1517	1.5084e+02	4.9107	5.729273	0.000377	3.765815	0.637946	-0.000038
1518	1.5094e+02	4.8996	5.690575	0.000389	3.888613	0.658749	-0.000039
1519	1.5104e+02	4.8907	5.649027	0.000418	4.175143	0.707288	-0.000042
1520	1.5114e+02	4.8828	5.610329	0.000389	3.888613	0.658749	-0.000039
1521	1.5124e+02	4.8724	5.573668	0.000368	3.683950	0.624078	-0.000037
1522	1.5134e+02	4.8613	5.539044	0.000348	3.479286	0.589407	-0.000035
1523	1.5144e+02	4.8521	5.497495	0.000418	4.175143	0.707288	-0.000042
1524	1.5154e+02	4.8429	5.462056	0.000356	3.561151	0.603275	-0.000036
1525	1.5164e+02	4.8327	5.424581	0.000377	3.765815	0.637946	-0.000038
1526	1.5174e+02	4.8214	5.388327	0.000364	3.643017	0.617144	-0.000036
1527	1.5184e+02	4.8126	5.352481	0.000360	3.602084	0.610210	-0.000036
1528	1.5194e+02	4.8025	5.313784	0.000389	3.888613	0.658749	-0.000039
1529	1.5204e+02	4.7906	5.281196	0.000327	3.274622	0.554736	-0.000033
1530	1.5214e+02	4.7803	5.244535	0.000368	3.683950	0.624078	-0.000037
1531	1.5224e+02	4.7720	5.209097	0.000356	3.561151	0.603275	-0.000036
1532	1.5233e+02	4.7639	5.171621	0.000377	3.765815	0.637946	-0.000038
1533	1.5243e+02	4.7527	5.136590	0.000352	3.520219	0.596341	-0.000035
1534	1.5253e+02	4.7445	5.099521	0.000372	3.724882	0.631012	-0.000037
1535	1.5263e+02	4.7320	5.061639	0.000381	3.806748	0.644881	-0.000038
1536	1.5273e+02	4.7218	5.029458	0.000323	3.233689	0.547802	-0.000032
1537	1.5283e+02	4.7109	4.988317	0.000413	4.134210	0.700354	-0.000041
1538	1.5293e+02	4.7001	4.953693	0.000348	3.479286	0.589407	-0.000035
1539	1.5303e+02	4.6924	4.915403	0.000385	3.847681	0.651815	-0.000038
1540	1.5313e+02	4.6828	4.882815	0.000327	3.274622	0.554736	-0.000033
1541	1.5323e+02	4.6727	4.843710	0.000393	3.929546	0.665683	-0.000039
1542	1.5333e+02	4.6637	4.807049	0.000368	3.683950	0.624078	-0.000037
1543	1.5343e+02	4.6526	4.772425	0.000348	3.479286	0.589407	-0.000035
1544	1.5353e+02	4.6428	4.736987	0.000356	3.561151	0.603275	-0.000036
1545	1.5363e+02	4.6352	4.698696	0.000385	3.847681	0.651815	-0.000038
1546	1.5373e+02	4.6230	4.663258	0.000356	3.561151	0.603275	-0.000036
1547	1.5383e+02	4.6136	4.623338	0.000401	4.011412	0.679552	-0.000040
1548	1.5393e+02	4.6012	4.585862	0.000377	3.765815	0.637946	-0.000038
1549	1.5403e+02	4.5948	4.549609	0.000364	3.643017	0.617144	-0.000036
1550	1.5413e+02	4.5847	4.511319	0.000385	3.847681	0.651815	-0.000038
1551	1.5422e+02	4.5718	4.479546	0.000319	3.192756	0.540868	-0.000032
1552	1.5432e+02	4.5621	4.438404	0.000413	4.134210	0.700354	-0.000041
1553	1.5442e+02	4.5528	4.401744	0.000368	3.683950	0.624078	-0.000037
1554	1.5452e+02	4.5421	4.365897	0.000360	3.602084	0.610210	-0.000036
1555	1.5462e+02	4.5335	4.329644	0.000364	3.643017	0.617144	-0.000036
1556	1.5472e+02	4.5237	4.291761	0.000381	3.806748	0.644881	-0.000038
1557	1.5482e+02	4.5150	4.255100	0.000368	3.683950	0.624078	-0.000037
1558	1.5492e+02	4.5044	4.220884	0.000344	3.438353	0.582473	-0.000034
1559	1.5502e+02	4.4930	4.181371	0.000397	3.970479	0.672617	-0.000040
1560	1.5512e+02	4.4814	4.145118	0.000364	3.643017	0.617144	-0.000036
1561	1.5522e+02	4.4729	4.111716	0.000336	3.356487	0.568604	-0.000034
1562	1.5532e+02	4.4633	4.076277	0.000356	3.561151	0.603275	-0.000036
1563	1.5542e+02	4.4535	4.033913	0.000426	4.257008	0.721157	-0.000043
1564	1.5552e+02	4.4460	3.999289	0.000348	3.479286	0.589407	-0.000035
1565	1.5562e+02	4.4366	3.963036	0.000364	3.643017	0.617144	-0.000036
1566	1.5572e+02	4.4218	3.928412	0.000348	3.479286	0.589407	-0.000035
1567	1.5582e+02	4.4131	3.885641	0.000430	4.297941	0.728091	-0.000043
1568	1.5592e+02	4.4032	3.854683	0.000311	3.110891	0.526999	-0.000031
1569	1.5602e+02	4.3934	3.814356	0.000405	4.052345	0.686486	-0.000041
1570	1.5612e+02	4.3853	3.776065	0.000385	3.847681	0.651815	-0.000038
1571	1.5622e+02	4.3761	3.739405	0.000368	3.683950	0.624078	-0.000037
1572	1.5631e+02	4.3649	3.703151	0.000364	3.643017	0.617144	-0.000036
1573	1.5641e+02	4.3549	3.666898	0.000364	3.643017	0.617144	-0.000036
1574	1.5651e+02	4.3414	3.630237	0.000368	3.683950	0.624078	-0.000037
1575	1.5661e+02	4.3354	3.589503	0.000409	4.093277	0.693420	-0.000041
1576	1.5671e+02	4.3246	3.552842	0.000368	3.683950	0.624078	-0.000037
1577	1.5681e+02	4.3155	3.512922	0.000401	4.011412	0.679552	-0.000040
1578	1.5691e+02	4.3055	3.470559	0.000426	4.257008	0.721157	-0.000043
1579	1.5701e+02	4.2953	3.432268	0.000385	3.847681	0.651815	-0.000038
1580	1.5711e+02	4.2844	3.395200	0.000372	3.724882	0.631012	-0.000037
1581	1.5721e+02	4.2739	3.357317	0.000381	3.806748	0.644881	-0.000038
1582	1.5731e+02	4.2641	3.318620	0.000389	3.888613	0.658749	-0.000039
1583	1.5741e+02	4.2550	3.277886	0.000409	4.093277	0.693420	-0.000041
1584	1.5751e+02	4.2446	3.241225	0.000368	3.683950	0.624078	-0.000037
1585	1.5761e+02	4.2324	3.201305	0.000401	4.011412	0.679552	-0.000040
1586	1.5771e+02	4.2271	3.165052	0.000364	3.643017	0.617144	-0.000036
1587	1.5781e+02	4.2130	3.123095	0.000422	4.216076	0.714223	-0.000042
1588	1.5791e+02	4.2049	3.086842	0.000364	3.643017	0.617144	-0.000036
1589	1.5801e+02	4.1958	3.047330	0.000397	3.970479	0.672617	-0.000040
1590	1.5811e+02	4.1833	3.007410	0.000401	4.011412	0.679552	-0.000040
1591	1.5821e+02	4.1726	2.971564	0.000360	3.602084	0.610210	-0.000036
1592	1.5830e+02	4.1673	2.935718	0.000360	3.602084	0.610210	-0.000036
1593	1.5840e+02	4.1535	2.900686	0.000352	3.520219	0.596341	-0.000035
1594	1.5850e+02	4.1437	2.863211	0.000377	3.765815	0.637946	-0.000038
1595	1.5860e+02	4.1343	2.825735	0.000377	3.765815	0.637946	-0.000038
1596	1.5870e+02	4.1248	2.789889	0.000360	3.602084	0.610210	-0.000036
1597	1.5880e+02	4.1135	2.751599	0.000385	3.847681	0.651815	-0.000038
1598	1.5890e+02	4.1055	2.718604	0.000332	3.315555	0.561670	-0.000033
1599	1.5900e+02	4.0943	2.679092	0.000397	3.970479	0.672617	-0.000040
1600	1.5910e+02	4.0829	2.644875	0.000344	3.438353	0.582473	-0.000034
1601	1.5920e+02	4.0762	2.610658	0.000344	3.438353	0.582473	-0.000034
1602	1.5930e+02	4.0631	2.574812	0.000360	3.602084	0.610210	-0.000036
1603	1.5940e+02	4.0539	2.541003	0.000340	3.397420	0.575539	-0.000034
1604	1.5950e+02	4.0427	2.503120	0.000381	3.806748	0.644881	-0.000038
1605	1.5960e+02	4.0361	2.467274	0.000360	3.602084	0.610210	-0.000036
1606	1.5970e+02	4.0254	2.433057	0.000344	3.438353	0.582473	-0.000034
1607	1.5980e+02	4.0167	2.395174	0.000381	3.806748	0.644881	-0.000038
1608	1.5990e+02	4.0047	2.358513	0.000368	3.683950	0.624078	-0.000037
1609	1.6000e+02	3.9944	2.320223	0.000385	3.847681	0.651815	-0.000038
1610	1.6010e+02	3.9857	2.282340	0.000381	3.806748	0.644881	-0.000038
1611	1.6019e+02	3.9745	2.244457	0.000381	3.806748	0.644881	-0.000038
1612	1.6029e+02	3.9652	2.210648	0.000340	3.397420	0.575539	-0.000034
1613	1.6039e+02	3.9571	2.171543	0.000393	3.929546	0.665683	-0.000039
1614	1.6049e+02	3.9467	2.130809	0.000409	4.093277	0.693420	-0.000041
1615	1.6059e+02	3.9380	2.095777	0.000352	3.520219	0.596341	-0.000035
1616	1.6069e+02	3.9258	2.055043	0.000409	4.093277	0.693420	-0.000041
1617	1.6079e+02	3.9150	2.017568	0.000377	3.765815	0.637946	-0.000038
1618	1.6089e+02	3.9050	1.980907	0.000368	3.683950	0.624078	-0.000037
1619	1.6099e+02	3.8978	1.943431	0.000377	3.765815	0.637946	-0.000038
1620	1.6109e+02	3.8860	1.903104	0.000405	4.052345	0.686486	-0.000041
1621	1.6119e+02	3.8773	1.866444	0.000368	3.683950	0.624078	-0.000037
1622	1.6129e+02	3.8675	1.823673	0.000430	4.297941	0.728091	-0.000043
1623	1.6139e+02	3.8611	1.789048	0.000348	3.479286	0.589407	-0.000035
1624	1.6149e+02	3.8457	1.751166	0.000381	3.806748	0.644881	-0.000038
1625	1.6159e+02	3.8354	1.708395	0.000430	4.297941	0.728091	-0.000043
1626	1.6169e+02	3.8259	1.674585	0.000340	3.397420	0.575539	-0.000034
1627	1.6179e+02	3.8148	1.638332	0.000364	3.643017	0.617144	-0.000036
1628	1.6189e+02	3.8042	1.598412	0.000401	4.011412	0.679552	-0.000040
1629	1.6199e+02	3.7966	1.558493	0.000401	4.011412	0.679552	-0.000040
1630	1.6209e+02	3.7858	1.523461	0.000352	3.520219	0.596341	-0.000035
1631	1.6219e+02	3.7769	1.485171	0.000385	3.847681	0.651815	-0.000038
1632	1.6228e+02	3.7675	1.448917	0.000364	3.643017	0.617144	-0.000036
1633	1.6238e+02	3.7563	1.408591	0.000405	4.052345	0.686486	-0.000041
1634	1.6248e+02	3.7457	1.370300	0.000385	3.847681	0.651815	-0.000038
1635	1.6258e+02	3.7357	1.332010	0.000385	3.847681	0.651815	-0.000038
1636	1.6268e+02	3.7328	1.295349	0.000368	3.683950	0.624078	-0.000037
1637	1.6278e+02	3.7165	1.257466	0.000381	3.806748	0.644881	-0.000038
1638	1.6288e+02	3.7105	1.214288	0.000434	4.338874	0.735025	-0.000043
1639	1.6298e+02	3.6967	1.178849	0.000356	3.561151	0.603275	-0.000036
1640	1.6308e+02	3.6872	1.137708	0.000413	4.134210	0.700354	-0.000041
1641	1.6318e+02	3.6794	1.098603	0.000393	3.929546	0.665683	-0.000039
1642	1.6328e+02	3.6671	1.056239	0.000426	4.257008	0.721157	-0.000043
1643	1.6338e+02	3.6572	1.021208	0.000352	3.520219	0.596341	-0.000035
1644	1.6348e+02	3.6485	0.980881	0.000405	4.052345	0.686486	-0.000041
1645	1.6358e+02	3.6386	0.938110	0.000430	4.297941	0.728091	-0.000043
1646	1.6368e+02	3.6311	0.903893	0.000344	3.438353	0.582473	-0.000034
1647	1.6378e+02	3.6199	0.859900	0.000442	4.420740	0.748894	-0.000044
1648	1.6388e+02	3.6083	0.822017	0.000381	3.806748	0.644881	-0.000038
1649	1.6398e+02	3.5974	0.781690	0.000405	4.052345	0.686486	-0.000041
1650	1.6408e+02	3.5911	0.743400	0.000385	3.847681	0.651815	-0.000038
1651	1.6418e+02	3.5757	0.705517	0.000381	3.806748	0.644881	-0.000038
1652	1.6427e+02	3.5689	0.662339	0.000434	4.338874	0.735025	-0.000043
1653	1.6437e+02	3.5598	0.627308	0.000352	3.520219	0.596341	-0.000035
1654	1.6447e+02	3.5488	0.584944	0.000426	4.257008	0.721157	-0.000043
1655	1.6457e+02	3.5424	0.545839	0.000393	3.929546	0.665683	-0.000039
1656	1.6467e+02	3.5276	0.504697	0.000413	4.134210	0.700354	-0.000041
1657	1.6477e+02	3.5183	0.465185	0.000397	3.970479	0.672617	-0.000040
1658	1.6487e+02	3.5105	0.427710	0.000377	3.765815	0.637946	-0.000038
1659	1.6497e+02	3.4957	0.390234	0.000377	3.765815	0.637946	-0.000038
1660	1.6507e+02	3.4878	0.348278	0.000422	4.216076	0.714223	-0.000042
1661	1.6517e+02	3.4788	0.312839	0.000356	3.561151	0.603275	-0.000036
1662	1.6527e+02	3.4695	0.270068	0.000430	4.297941	0.728091	-0.000043
1663	1.6537e+02	3.4568	0.239517	0.000307	3.069958	0.520065	-0.000031
1664	1.6547e+02	3.4508	0.197968	0.000418	4.175143	0.707288	-0.000042
1665	1.6557e+02	3.4377	0.160086	0.000381	3.806748	0.644881	-0.000038
1666	1.6567e+02	3.4274	0.122610	0.000377	3.765815	0.637946	-0.000038
1667	1.6577e+02	3.4187	0.083913	0.000389	3.888613	0.658749	-0.000039
1668	1.6587e+02	3.4094	0.042771	0.000413	4.134210	0.700354	-0.000041
1669	1.6597e+02	3.4014	0.006110	0.000368	3.683950	0.624078	-0.000037
1670	1.6607e+02	3.3899	-0.035846	0.000422	4.216076	0.714223	-0.000042
1671	1.6616e+02	3.3812	-0.070063	0.000344	3.438353	0.582473	-0.000034
1672	1.6626e+02	3.3691	-0.109982	0.000401	4.011412	0.679552	-0.000040
1673	1.6636e+02	3.3587	-0.147865	0.000381	3.806748	0.644881	-0.000038
1674	1.6646e+02	3.3501	-0.192266	0.000446	4.461672	0.755828	-0.000045
1675	1.6656e+02	3.3364	-0.233407	0.000413	4.134210	0.700354	-0.000041
1676	1.6666e+02	3.3298	-0.273327	0.000401	4.011412	0.679552	-0.000040
1677	1.6676e+02	3.3167	-0.312432	0.000393	3.929546	0.665683	-0.000039
1678	1.6686e+02	3.3092	-0.352759	0.000405	4.052345	0.686486	-0.000041
1679	1.6696e+02	3.2993	-0.397974	0.000454	4.543538	0.769696	-0.000045
1680	1.6706e+02	3.2874	-0.440337	0.000426	4.257008	0.721157	-0.000043
1681	1.6716e+02	3.2788	-0.480664	0.000405	4.052345	0.686486	-0.000041
1682	1.6726e+02	3.2709	-0.522620	0.000422	4.216076	0.714223	-0.000042
1683	1.6736e+02	3.2615	-0.565391	0.000430	4.297941	0.728091	-0.000043
1684	1.6746e+02	3.2471	-0.608977	0.000438	4.379807	0.741959	-0.000044
1685	1.6756e+02	3.2398	-0.653785	0.000450	4.502605	0.762762	-0.000045
1686	1.6766e+02	3.2297	-0.693297	0.000397	3.970479	0.672617	-0.000040
1687	1.6776e+02	3.2187	-0.740141	0.000471	4.707269	0.797433	-0.000047
1688	1.6786e+02	3.2104	-0.782098	0.000422	4.216076	0.714223	-0.000042
1689	1.6796e+02	3.1997	-0.827313	0.000454	4.543538	0.769696	-0.000045
1690	1.6806e+02	3.1886	-0.868454	0.000413	4.134210	0.700354	-0.000041
1691	1.6816e+02	3.1778	-0.911225	0.000430	4.297941	0.728091	-0.000043
1692	1.6825e+02	3.1692	-0.951145	0.000401	4.011412	0.679552	-0.000040
1693	1.6835e+02	3.1603	-0.994731	0.000438	4.379807	0.741959	-0.000044
1694	1.6845e+02	3.1495	-1.035872	0.000413	4.134210	0.700354	-0.000041
1695	1.6855e+02	3.1402	-1.082717	0.000471	4.707269	0.797433	-0.000047
1696	1.6865e+02	3.1319	-1.125080	0.000426	4.257008	0.721157	-0.000043
1697	1.6875e+02	3.1176	-1.162963	0.000381	3.806748	0.644881	-0.000038
1698	1.6885e+02	3.1087	-1.203290	0.000405	4.052345	0.686486	-0.000041
1699	1.6895e+02	3.1021	-1.243617	0.000405	4.052345	0.686486	-0.000041
1700	1.6905e+02	3.0885	-1.286795	0.000434	4.338874	0.735025	-0.000043
1701	1.6915e+02	3.0798	-1.328751	0.000422	4.216076	0.714223	-0.000042
1702	1.6925e+02	3.0697	-1.369078	0.000405	4.052345	0.686486	-0.000041
1703	1.6935e+02	3.0617	-1.414701	0.000458	4.584471	0.776630	-0.000046
1704	1.6945e+02	3.0510	-1.455842	0.000413	4.134210	0.700354	-0.000041
1705	1.6955e+02	3.0400	-1.495762	0.000401	4.011412	0.679552	-0.000040
1706	1.6965e+02	3.0309	-1.538125	0.000426	4.257008	0.721157	-0.000043
1707	1.6975e+02	3.0188	-1.578860	0.000409	4.093277	0.693420	-0.000041
1708	1.6985e+02	3.0100	-1.622445	0.000438	4.379807	0.741959	-0.000044
1709	1.6995e+02	2.9987	-1.661143	0.000389	3.888613	0.658749	-0.000039
1710	1.7005e+02	2.9906	-1.707173	0.000463	4.625403	0.783565	-0.000046
1711	1.7015e+02	2.9838	-1.748314	0.000413	4.134210	0.700354	-0.000041
1712	1.7024e+02	2.9733	-1.791085	0.000430	4.297941	0.728091	-0.000043
1713	1.7034e+02	2.9615	-1.834671	0.000438	4.379807	0.741959	-0.000044
1714	1.7044e+02	2.9498	-1.874183	0.000397	3.970479	0.672617	-0.000040
1715	1.7054e+02	2.9430	-1.915732	0.000418	4.175143	0.707288	-0.000042
1716	1.7064e+02	2.9301	-1.960947	0.000454	4.543538	0.769696	-0.000045
1717	1.7074e+02	2.9214	-2.005347	0.000446	4.461672	0.755828	-0.000045
1718	1.7084e+02	2.9138	-2.045267	0.000401	4.011412	0.679552	-0.000040
1719	1.7094e+02	2.9013	-2.083557	0.000385	3.847681	0.651815	-0.000038
1720	1.7104e+02	2.8918	-2.130402	0.000471	4.707269	0.797433	-0.000047
1721	1.7114e+02	2.8813	-2.172358	0.000422	4.216076	0.714223	-0.000042
1722	1.7124e+02	2.8709	-2.214721	0.000426	4.257008	0.721157	-0.000043
1723	1.7134e+02	2.8596	-2.256270	0.000418	4.175143	0.707288	-0.000042
1724	1.7144e+02	2.8497	-2.299041	0.000430	4.297941	0.728091	-0.000043
1725	1.7154e+02	2.8432	-2.343034	0.000442	4.420740	0.748894	-0.000044
1726	1.7164e+02	2.8335	-2.380510	0.000377	3.765815	0.637946	-0.000038
1727	1.7174e+02	2.8213	-2.422466	0.000422	4.216076	0.714223	-0.000042
1728	1.7184e+02	2.8104	-2.466866	0.000446	4.461672	0.755828	-0.000045
1729	1.7194e+02	2.8033	-2.511267	0.000446	4.461672	0.755828	-0.000045
1730	1.7204e+02	2.7915	-2.552001	0.000409	4.093277	0.693420	-0.000041
1731	1.7213e+02	2.7821	-2.594772	0.000430	4.297941	0.728091	-0.000043
1732	1.7223e+02	2.7726	-2.636728	0.000422	4.216076	0.714223	-0.000042
1733	1.7233e+02	2.7637	-2.677463	0.000409	4.093277	0.693420	-0.000041
1734	1.7243e+02	2.7518	-2.722270	0.000450	4.502605	0.762762	-0.000045
1735	1.7253e+02	2.7405	-2.763412	0.000413	4.134210	0.700354	-0.000041
1736	1.7263e+02	2.7328	-2.809442	0.000463	4.625403	0.783565	-0.000046
1737	1.7273e+02	2.7206	-2.850991	0.000418	4.175143	0.707288	-0.000042
1738	1.7283e+02	2.7140	-2.890910	0.000401	4.011412	0.679552	-0.000040
1739	1.7293e+02	2.7029	-2.936532	0.000458	4.584471	0.776630	-0.000046
1740	1.7303e+02	2.6891	-2.976452	0.000401	4.011412	0.679552	-0.000040
1741	1.7313e+02	2.6820	-3.020852	0.000446	4.461672	0.755828	-0.000045
1742	1.7323e+02	2.6723	-3.065660	0.000450	4.502605	0.762762	-0.000045
1743	1.7333e+02	2.6627	-3.107209	0.000418	4.175143	0.707288	-0.000042
1744	1.7343e+02	2.6514	-3.153646	0.000467	4.666336	0.790499	-0.000047
1745	1.7353e+02	2.6421	-3.201712	0.000483	4.830067	0.818236	-0.000048
1746	1.7363e+02	2.6342	-3.244891	0.000434	4.338874	0.735025	-0.000043
1747	1.7373e+02	2.6218	-3.286847	0.000422	4.216076	0.714223	-0.000042
1748	1.7383e+02	2.6157	-3.337358	0.000508	5.075664	0.859841	-0.000051
1749	1.7393e+02	2.6012	-3.380536	0.000434	4.338874	0.735025	-0.000043
1750	1.7403e+02	2.5912	-3.427380	0.000471	4.707269	0.797433	-0.000047
1751	1.7413e+02	2.5811	-3.470151	0.000430	4.297941	0.728091	-0.000043
1752	1.7422e+02	2.5723	-3.516181	0.000463	4.625403	0.783565	-0.000046
1753	1.7432e+02	2.5617	-3.557730	0.000418	4.175143	0.707288	-0.000042
1754	1.7442e+02	2.5526	-3.601315	0.000438	4.379807	0.741959	-0.000044
1755	1.7452e+02	2.5416	-3.650197	0.000491	4.911933	0.832104	-0.000049
1756	1.7462e+02	2.5324	-3.691746	0.000418	4.175143	0.707288	-0.000042
1757	1.7472e+02	2.5227	-3.735739	0.000442	4.420740	0.748894	-0.000044
1758	1.7482e+02	2.5110	-3.775251	0.000397	3.970479	0.672617	-0.000040
1759	1.7492e+02	2.5023	-3.821688	0.000467	4.666336	0.790499	-0.000047
1760	1.7502e+02	2.4928	-3.863644	0.000422	4.216076	0.714223	-0.000042
1761	1.7512e+02	2.4810	-3.906415	0.000430	4.297941	0.728091	-0.000043
1762	1.7522e+02	2.4745	-3.948779	0.000426	4.257008	0.721157	-0.000043
1763	1.7532e+02	2.4631	-3.991142	0.000426	4.257008	0.721157	-0.000043
1764	1.7542e+02	2.4525	-4.035950	0.000450	4.502605	0.762762	-0.000045
1765	1.7552e+02	2.4444	-4.076277	0.000405	4.052345	0.686486	-0.000041
1766	1.7562e+02	2.4316	-4.119048	0.000430	4.297941	0.728091	-0.000043
1767	1.7572e+02	2.4215	-4.158967	0.000401	4.011412	0.679552	-0.000040
1768	1.7582e+02	2.4104	-4.198887	0.000401	4.011412	0.679552	-0.000040
1769	1.7592e+02	2.4052	-4.242065	0.000434	4.338874	0.735025	-0.000043
1770	1.7602e+02	2.3961	-4.282392	0.000405	4.052345	0.686486	-0.000041
1771	1.7612e+02	2.3821	-4.321904	0.000397	3.970479	0.672617	-0.000040
1772	1.7621e+02	2.3751	-4.369971	0.000483	4.830067	0.818236	-0.000048
1773	1.7631e+02	2.3632	-4.411112	0.000413	4.134210	0.700354	-0.000041
1774	1.7641e+02	2.3531	-4.451847	0.000409	4.093277	0.693420	-0.000041
1775	1.7651e+02	2.3445	-4.495840	0.000442	4.420740	0.748894	-0.000044
1776	1.7661e+02	2.3370	-4.538203	0.000426	4.257008	0.721157	-0.000043
1777	1.7671e+02	2.3222	-4.581382	0.000434	4.338874	0.735025	-0.000043
1778	1.7681e+02	2.3165	-4.625782	0.000446	4.461672	0.755828	-0.000045
1779	1.7691e+02	2.3055	-4.669775	0.000442	4.420740	0.748894	-0.000044
1780	1.7701e+02	2.2947	-4.713768	0.000442	4.420740	0.748894	-0.000044
1781	1.7711e+02	2.2856	-4.754910	0.000413	4.134210	0.700354	-0.000041
1782	1.7721e+02	2.2728	-4.801754	0.000471	4.707269	0.797433	-0.000047
1783	1.7731e+02	2.2631	-4.844525	0.000430	4.297941	0.728091	-0.000043
1784	1.7741e+02	2.2546	-4.888518	0.000442	4.420740	0.748894	-0.000044
1785	1.7751e+02	2.2450	-4.930882	0.000426	4.257008	0.721157	-0.000043
1786	1.7761e+02	2.2359	-4.976097	0.000454	4.543538	0.769696	-0.000045
1787	1.7771e+02	2.2256	-5.019682	0.000438	4.379807	0.741959	-0.000044
1788	1.7781e+02	2.2137	-5.064083	0.000446	4.461672	0.755828	-0.000045
1789	1.7791e+02	2.2062	-5.105632	0.000418	4.175143	0.707288	-0.000042
1790	1.7801e+02	2.1941	-5.152476	0.000471	4.707269	0.797433	-0.000047
1791	1.7810e+02	2.1833	-5.194840	0.000426	4.257008	0.721157	-0.000043
1792	1.7820e+02	2.1754	-5.241277	0.000467	4.666336	0.790499	-0.000047
1793	1.7830e+02	2.1652	-5.285270	0.000442	4.420740	0.748894	-0.000044
1794	1.7840e+02	2.1531	-5.330485	0.000454	4.543538	0.769696	-0.000045
1795	1.7850e+02	2.1453	-5.377329	0.000471	4.707269	0.797433	-0.000047
1796	1.7860e+02	2.1358	-5.418063	0.000409	4.093277	0.693420	-0.000041
1797	1.7870e+02	2.1224	-5.461242	0.000434	4.338874	0.735025	-0.000043
1798	1.7880e+02	2.1152	-5.506864	0.000458	4.584471	0.776630	-0.000046
1799	1.7890e+02	2.1048	-5.550450	0.000438	4.379807	0.741959	-0.000044
1800	1.7900e+02	2.0940	-5.596479	0.000463	4.625403	0.783565	-0.000046
1801	1.7910e+02	2.0868	-5.638436	0.000422	4.216076	0.714223	-0.000042
1802	1.7920e+02	2.0753	-5.684873	0.000467	4.666336	0.790499	-0.000047
1803	1.7930e+02	2.0677	-5.730088	0.000454	4.543538	0.769696	-0.000045
1804	1.7940e+02	2.0549	-5.775710	0.000458	4.584471	0.776630	-0.000046
1805	1.7950e+02	2.0449	-5.820110	0.000446	4.461672	0.755828	-0.000045
1806	1.7960e+02	2.0361	-5.866955	0.000471	4.707269	0.797433	-0.000047
1807	1.7970e+02	2.0245	-5.909726	0.000430	4.297941	0.728091	-0.000043
1808	1.7980e+02	2.0138	-5.954941	0.000454	4.543538	0.769696	-0.000045
1809	1.7990e+02	2.0054	-6.002192	0.000475	4.748202	0.804367	-0.000047
1810	1.8000e+02	1.9982	-6.048222	0.000463	4.625403	0.783565	-0.000046
1811	1.8009e+02	1.9839	-6.092215	0.000442	4.420740	0.748894	-0.000044
1812	1.8019e+02	1.9730	-6.141096	0.000491	4.911933	0.832104	-0.000049
1813	1.8029e+02	1.9643	-6.184682	0.000438	4.379807	0.741959	-0.000044
1814	1.8039e+02	1.9569	-6.233563	0.000491	4.911933	0.832104	-0.000049
1815	1.8049e+02	1.9465	-6.274297	0.000409	4.093277	0.693420	-0.000041
1816	1.8059e+02	1.9348	-6.321142	0.000471	4.707269	0.797433	-0.000047
1817	1.8069e+02	1.9272	-6.367986	0.000471	4.707269	0.797433	-0.000047
1818	1.8079e+02	1.9151	-6.414016	0.000463	4.625403	0.783565	-0.000046
1819	1.8089e+02	1.9064	-6.460453	0.000467	4.666336	0.790499	-0.000047
1820	1.8099e+02	1.8945	-6.506890	0.000467	4.666336	0.790499	-0.000047
1821	1.8109e+02	1.8847	-6.551290	0.000446	4.461672	0.755828	-0.000045
1822	1.8119e+02	1.8774	-6.600579	0.000495	4.952866	0.839038	-0.000050
1823	1.8129e+02	1.8676	-6.648645	0.000483	4.830067	0.818236	-0.000048
1824	1.8139e+02	1.8556	-6.686528	0.000381	3.806748	0.644881	-0.000038
1825	1.8149e+02	1.8474	-6.737038	0.000508	5.075664	0.859841	-0.000051
1826	1.8159e+02	1.8382	-6.781846	0.000450	4.502605	0.762762	-0.000045
1827	1.8169e+02	1.8250	-6.828691	0.000471	4.707269	0.797433	-0.000047
1828	1.8179e+02	1.8159	-6.871054	0.000426	4.257008	0.721157	-0.000043
1829	1.8189e+02	1.8082	-6.912196	0.000413	4.134210	0.700354	-0.000041
1830	1.8199e+02	1.7968	-6.959040	0.000471	4.707269	0.797433	-0.000047
1831	1.8209e+02	1.7902	-7.005477	0.000467	4.666336	0.790499	-0.000047
1832	1.8218e+02	1.7771	-7.046211	0.000409	4.093277	0.693420	-0.000041
1833	1.8228e+02	1.7648	-7.090204	0.000442	4.420740	0.748894	-0.000044
1834	1.8238e+02	1.7574	-7.139493	0.000495	4.952866	0.839038	-0.000050
1835	1.8248e+02	1.7461	-7.185930	0.000467	4.666336	0.790499	-0.000047
1836	1.8258e+02	1.7362	-7.229108	0.000434	4.338874	0.735025	-0.000043
1837	1.8268e+02	1.7260	-7.275545	0.000467	4.666336	0.790499	-0.000047
1838	1.8278e+02	1.7163	-7.321982	0.000467	4.666336	0.790499	-0.000047
1839	1.8288e+02	1.7069	-7.362309	0.000405	4.052345	0.686486	-0.000041
1840	1.8298e+02	1.7003	-7.408339	0.000463	4.625403	0.783565	-0.000046
1841	1.8308e+02	1.6869	-7.454776	0.000467	4.666336	0.790499	-0.000047
1842	1.8318e+02	1.6769	-7.503657	0.000491	4.911933	0.832104	-0.000049
1843	1.8328e+02	1.6650	-7.550094	0.000467	4.666336	0.790499	-0.000047
1844	1.8338e+02	1.6582	-7.601419	0.000516	5.157529	0.873709	-0.000052
1845	1.8348e+02	1.6470	-7.649893	0.000487	4.871000	0.825170	-0.000049
1846	1.8358e+02	1.6366	-7.695108	0.000454	4.543538	0.769696	-0.000045
1847	1.8368e+02	1.6296	-7.746026	0.000512	5.116597	0.866775	-0.000051
1848	1.8378e+02	1.6180	-7.792463	0.000467	4.666336	0.790499	-0.000047
1849	1.8388e+02	1.6061	-7.840122	0.000479	4.789135	0.811301	-0.000048
1850	1.8398e+02	1.5956	-7.890633	0.000508	5.075664	0.859841	-0.000051
1851	1.8407e+02	1.5882	-7.939106	0.000487	4.871000	0.825170	-0.000049
1852	1.8417e+02	1.5763	-7.990839	0.000520	5.198462	0.880643	-0.000052
1853	1.8427e+02	1.5693	-8.038498	0.000479	4.789135	0.811301	-0.000048
1854	1.8437e+02	1.5566	-8.088601	0.000503	5.034731	0.852907	-0.000050
1855	1.8447e+02	1.5475	-8.144000	0.000557	5.566857	0.943051	-0.000056
1856	1.8457e+02	1.5369	-8.190437	0.000467	4.666336	0.790499	-0.000047
1857	1.8467e+02	1.5272	-8.241355	0.000512	5.116597	0.866775	-0.000051
1858	1.8477e+02	1.5182	-8.290643	0.000495	4.952866	0.839038	-0.000050
1859	1.8487e+02	1.5073	-8.339117	0.000487	4.871000	0.825170	-0.000049
1860	1.8497e+02	1.4973	-8.387590	0.000487	4.871000	0.825170	-0.000049
1861	1.8507e+02	1.4908	-8.436472	0.000491	4.911933	0.832104	-0.000049
1862	1.8517e+02	1.4795	-8.484538	0.000483	4.830067	0.818236	-0.000048
1863	1.8527e+02	1.4696	-8.532197	0.000479	4.789135	0.811301	-0.000048
1864	1.8537e+02	1.4571	-8.580671	0.000487	4.871000	0.825170	-0.000049
1865	1.8547e+02	1.4497	-8.631589	0.000512	5.116597	0.866775	-0.000051
1866	1.8557e+02	1.4390	-8.678433	0.000471	4.707269	0.797433	-0.000047
1867	1.8567e+02	1.4286	-8.726499	0.000483	4.830067	0.818236	-0.000048
1868	1.8577e+02	1.4189	-8.780269	0.000540	5.403126	0.915314	-0.000054
1869	1.8587e+02	1.4089	-8.826298	0.000463	4.625403	0.783565	-0.000046
1870	1.8597e+02	1.3992	-8.873143	0.000471	4.707269	0.797433	-0.000047
1871	1.8606e+02	1.3891	-8.918765	0.000458	4.584471	0.776630	-0.000046
1872	1.8616e+02	1.3770	-8.970498	0.000520	5.198462	0.880643	-0.000052
1873	1.8626e+02	1.3650	-9.018971	0.000487	4.871000	0.825170	-0.000049
1874	1.8636e+02	1.3573	-9.067853	0.000491	4.911933	0.832104	-0.000049
1875	1.8646e+02	1.3486	-9.115104	0.000475	4.748202	0.804367	-0.000047
1876	1.8656e+02	1.3382	-9.164800	0.000499	4.993798	0.845972	-0.000050
1877	1.8666e+02	1.3297	-9.215311	0.000508	5.075664	0.859841	-0.000051
1878	1.8676e+02	1.3184	-9.263784	0.000487	4.871000	0.825170	-0.000049
1879	1.8686e+02	1.3073	-9.313073	0.000495	4.952866	0.839038	-0.000050
1880	1.8696e+02	1.2972	-9.360732	0.000479	4.789135	0.811301	-0.000048
1881	1.8706e+02	1.2893	-9.410020	0.000495	4.952866	0.839038	-0.000050
1882	1.8716e+02	1.2797	-9.459309	0.000495	4.952866	0.839038	-0.000050
1883	1.8726e+02	1.2704	-9.511449	0.000524	5.239395	0.887578	-0.000052
1884	1.8736e+02	1.2598	-9.558700	0.000475	4.748202	0.804367	-0.000047
1885	1.8746e+02	1.2504	-9.604730	0.000463	4.625403	0.783565	-0.000046
1886	1.8756e+02	1.2396	-9.654833	0.000503	5.034731	0.852907	-0.000050
1887	1.8766e+02	1.2302	-9.706566	0.000520	5.198462	0.880643	-0.000052
1888	1.8776e+02	1.2199	-9.753817	0.000475	4.748202	0.804367	-0.000047
1889	1.8786e+02	1.2090	-9.803921	0.000503	5.034731	0.852907	-0.000050
1890	1.8796e+02	1.2006	-9.852802	0.000491	4.911933	0.832104	-0.000049
1891	1.8806e+02	1.1903	-9.901683	0.000491	4.911933	0.832104	-0.000049
1892	1.8815e+02	1.1799	-9.948527	0.000471	4.707269	0.797433	-0.000047
1893	1.8825e+02	1.1698	-10.004333	0.000561	5.607790	0.949985	-0.000056
1894	1.8835e+02	1.1623	-10.048733	0.000446	4.461672	0.755828	-0.000045
1895	1.8845e+02	1.1494	-10.093541	0.000450	4.502605	0.762762	-0.000045
1896	1.8855e+02	1.1416	-10.143237	0.000499	4.993798	0.845972	-0.000050
1897	1.8865e+02	1.1314	-10.200672	0.000577	5.771521	0.977722	-0.000058
1898	1.8875e+02	1.1198	-10.245480	0.000450	4.502605	0.762762	-0.000045
1899	1.8885e+02	1.1098	-10.293546	0.000483	4.830067	0.818236	-0.000048
1900	1.8895e+02	1.0983	-10.344057	0.000508	5.075664	0.859841	-0.000051
1901	1.8905e+02	1.0883	-10.393753	0.000499	4.993798	0.845972	-0.000050
1902	1.8915e+02	1.0764	-10.444670	0.000512	5.116597	0.866775	-0.000051
1903	1.8925e+02	1.0693	-10.491107	0.000467	4.666336	0.790499	-0.000047
1904	1.8935e+02	1.0626	-10.543655	0.000528	5.280328	0.894512	-0.000053
1905	1.8945e+02	1.0512	-10.593758	0.000503	5.034731	0.852907	-0.000050
1906	1.8955e+02	1.0416	-10.643861	0.000503	5.034731	0.852907	-0.000050
1907	1.8965e+02	1.0321	-10.694371	0.000508	5.075664	0.859841	-0.000051
1908	1.8975e+02	1.0196	-10.743660	0.000495	4.952866	0.839038	-0.000050
1909	1.8985e+02	1.0103	-10.794578	0.000512	5.116597	0.866775	-0.000051
1910	1.8995e+02	1.0023	-10.844681	0.000503	5.034731	0.852907	-0.000050
1911	1.9004e+02	0.9924	-10.899672	0.000553	5.525924	0.936117	-0.000055
1912	1.9014e+02	0.9834	-10.947738	0.000483	4.830067	0.818236	-0.000048
1913	1.9024e+02	0.9705	-11.002730	0.000553	5.525924	0.936117	-0.000055
1914	1.9034e+02	0.9624	-11.054870	0.000524	5.239395	0.887578	-0.000052
1915	1.9044e+02	0.9527	-11.103751	0.000491	4.911933	0.832104	-0.000049
1916	1.9054e+02	0.9386	-11.157927	0.000544	5.444059	0.922249	-0.000054
1917	1.9064e+02	0.9312	-11.206401	0.000487	4.871000	0.825170	-0.000049
1918	1.9074e+02	0.9188	-11.259763	0.000536	5.362193	0.908380	-0.000054
1919	1.9084e+02	0.9109	-11.308644	0.000491	4.911933	0.832104	-0.000049
1920	1.9094e+02	0.9037	-11.363228	0.000548	5.484992	0.929183	-0.000055
1921	1.9104e+02	0.8920	-11.414146	0.000512	5.116597	0.866775	-0.000051
1922	1.9114e+02	0.8807	-11.463841	0.000499	4.993798	0.845972	-0.000050
1923	1.9124e+02	0.8701	-11.518425	0.000548	5.484992	0.929183	-0.000055
1924	1.9134e+02	0.8610	-11.572195	0.000540	5.403126	0.915314	-0.000054
1925	1.9144e+02	0.8537	-11.619854	0.000479	4.789135	0.811301	-0.000048
1926	1.9154e+02	0.8408	-11.668735	0.000491	4.911933	0.832104	-0.000049
1927	1.9164e+02	0.8298	-11.721689	0.000532	5.321261	0.901446	-0.000053
1928	1.9174e+02	0.8208	-11.775051	0.000536	5.362193	0.908380	-0.000054
1929	1.9184e+02	0.8104	-11.820266	0.000454	4.543538	0.769696	-0.000045
1930	1.9194e+02	0.8025	-11.871999	0.000520	5.198462	0.880643	-0.000052
1931	1.9203e+02	0.7932	-11.918028	0.000463	4.625403	0.783565	-0.000046
1932	1.9213e+02	0.7835	-11.972205	0.000544	5.444059	0.922249	-0.000054
1933	1.9223e+02	0.7695	-12.018642	0.000467	4.666336	0.790499	-0.000047
1934	1.9233e+02	0.7593	-12.066708	0.000483	4.830067	0.818236	-0.000048
1935	1.9243e+02	0.7533	-12.122107	0.000557	5.566857	0.943051	-0.000056
1936	1.9253e+02	0.7410	-12.164063	0.000422	4.216076	0.714223	-0.000042
1937	1.9263e+02	0.7294	-12.215388	0.000516	5.157529	0.873709	-0.000052
1938	1.9273e+02	0.7230	-12.265899	0.000508	5.075664	0.859841	-0.000051
1939	1.9283e+02	0.7151	-12.311929	0.000463	4.625403	0.783565	-0.000046
1940	1.9293e+02	0.7031	-12.362439	0.000508	5.075664	0.859841	-0.000051
1941	1.9303e+02	0.6933	-12.410098	0.000479	4.789135	0.811301	-0.000048
1942	1.9313e+02	0.6823	-12.462238	0.000524	5.239395	0.887578	-0.000052
1943	1.9323e+02	0.6728	-12.512748	0.000508	5.075664	0.859841	-0.000051
1944	1.9333e+02	0.6603	-12.561630	0.000491	4.911933	0.832104	-0.000049
1945	1.9343e+02	0.6503	-12.616621	0.000553	5.525924	0.936117	-0.000055
1946	1.9353e+02	0.6435	-12.661836	0.000454	4.543538	0.769696	-0.000045
1947	1.9363e+02	0.6316	-12.714790	0.000532	5.321261	0.901446	-0.000053
1948	1.9373e+02	0.6223	-12.768560	0.000540	5.403126	0.915314	-0.000054
1949	1.9383e+02	0.6116	-12.814589	0.000463	4.625403	0.783565	-0.000046
1950	1.9393e+02	0.6039	-12.866729	0.000524	5.239395	0.887578	-0.000052
1951	1.9403e+02	0.5933	-12.918462	0.000520	5.198462	0.880643	-0.000052
1952	1.9412e+02	0.5829	-12.970602	0.000524	5.239395	0.887578	-0.000052
1953	1.9422e+02	0.5735	-13.020705	0.000503	5.034731	0.852907	-0.000050
1954	1.9432e+02	0.5646	-13.074881	0.000544	5.444059	0.922249	-0.000054
1955	1.9442e+02	0.5525	-13.123355	0.000487	4.871000	0.825170	-0.000049
1956	1.9452e+02	0.5415	-13.176717	0.000536	5.362193	0.908380	-0.000054
1957	1.9462e+02	0.5340	-13.230486	0.000540	5.403126	0.915314	-0.000054
1958	1.9472e+02	0.5230	-13.281404	0.000512	5.116597	0.866775	-0.000051
1959	1.9482e+02	0.5121	-13.331507	0.000503	5.034731	0.852907	-0.000050
1960	1.9492e+02	0.5032	-13.383647	0.000524	5.239395	0.887578	-0.000052
1961	1.9502e+02	0.4927	-13.434565	0.000512	5.116597	0.866775	-0.000051
1962	1.9512e+02	0.4839	-13.489963	0.000557	5.566857	0.943051	-0.000056
1963	1.9522e+02	0.4755	-13.536400	0.000467	4.666336	0.790499	-0.000047
1964	1.9532e+02	0.4634	-13.590984	0.000548	5.484992	0.929183	-0.000055
1965	1.9542e+02	0.4532	-13.641495	0.000508	5.075664	0.859841	-0.000051
1966	1.9552e+02	0.4430	-13.691598	0.000503	5.034731	0.852907	-0.000050
1967	1.9562e+02	0.4371	-13.749440	0.000581	5.812454	0.984656	-0.000058
1968	1.9572e+02	0.4230	-13.796692	0.000475	4.748202	0.804367	-0.000047
1969	1.9582e+02	0.4146	-13.854128	0.000577	5.771521	0.977722	-0.000058
1970	1.9592e+02	0.4025	-13.903009	0.000491	4.911933	0.832104	-0.000049
1971	1.9601e+02	0.3934	-13.953519	0.000508	5.075664	0.859841	-0.000051
1972	1.9611e+02	0.3811	-14.004844	0.000516	5.157529	0.873709	-0.000052
1973	1.9621e+02	0.3724	-14.061058	0.000565	5.648723	0.956920	-0.000056
1974	1.9631e+02	0.3660	-14.112790	0.000520	5.198462	0.880643	-0.000052
1975	1.9641e+02	0.3568	-14.167374	0.000548	5.484992	0.929183	-0.000055
1976	1.9651e+02	0.3436	-14.214218	0.000471	4.707269	0.797433	-0.000047
1977	1.9661e+02	0.3355	-14.270024	0.000561	5.607790	0.949985	-0.000056
1978	1.9671e+02	0.3217	-14.326645	0.000569	5.689656	0.963854	-0.000057
1979	1.9681e+02	0.3143	-14.381229	0.000548	5.484992	0.929183	-0.000055
1980	1.9691e+02	0.3062	-14.432554	0.000516	5.157529	0.873709	-0.000052
1981	1.9701e+02	0.2959	-14.485101	0.000528	5.280328	0.894512	-0.000053
1982	1.9711e+02	0.2789	-14.538463	0.000536	5.362193	0.908380	-0.000054
1983	1.9721e+02	0.2739	-14.593047	0.000548	5.484992	0.929183	-0.000055
1984	1.9731e+02	0.2633	-14.647223	0.000544	5.444059	0.922249	-0.000054
1985	1.9741e+02	0.2547	-14.698549	0.000516	5.157529	0.873709	-0.000052
1986	1.9751e+02	0.2457	-14.749466	0.000512	5.116597	0.866775	-0.000051
1987	1.9761e+02	0.2349	-14.807309	0.000581	5.812454	0.984656	-0.000058
1988	1.9771e+02	0.2262	-14.860264	0.000532	5.321261	0.901446	-0.000053
1989	1.9781e+02	0.2141	-14.907923	0.000479	4.789135	0.811301	-0.000048
1990	1.9791e+02	0.2031	-14.966173	0.000585	5.853387	0.991591	-0.000059
1991	1.9800e+02	0.1944	-15.018313	0.000524	5.239395	0.887578	-0.000052
1992	1.9810e+02	0.1821	-15.072489	0.000544	5.444059	0.922249	-0.000054
1993	1.9820e+02	0.1770	-15.124222	0.000520	5.198462	0.880643	-0.000052
1994	1.9830e+02	0.1671	-15.176361	0.000524	5.239395	0.887578	-0.000052
1995	1.9840e+02	0.1565	-15.231353	0.000553	5.525924	0.936117	-0.000055
1996	1.9850e+02	0.1450	-15.281456	0.000503	5.034731	0.852907	-0.000050
1997	1.9860e+02	0.1324	-15.336040	0.000548	5.484992	0.929183	-0.000055
1998	1.9870e+02	0.1264	-15.384513	0.000487	4.871000	0.825170	-0.000049
1999	1.9880e+02	0.1162	-15.437875	0.000536	5.362193	0.908380	-0.000054
2000	1.9890e+02	0.1048	-15.490423	0.000528	5.280328	0.894512	-0.000053
2001	1.9900e+02	0.0957	-15.537674	0.000475	4.748202	0.804367	-0.000047
2002	1.9910e+02	0.0882	-15.597961	0.000606	6.058050	1.026262	-0.000061
2003	1.9920e+02	0.0748	-15.650508	0.000528	5.280328	0.894512	-0.000053
2004	1.9930e+02	0.0658	-15.706314	0.000561	5.607790	0.949985	-0.000056
2005	1.9940e+02	0.0549	-15.753566	0.000475	4.748202	0.804367	-0.000047
2006	1.9950e+02	0.0444	-15.804484	0.000512	5.116597	0.866775	-0.000051
2007	1.9960e+02	0.0320	-15.857438	0.000532	5.321261	0.901446	-0.000053
2008	1.9970e+02	0.0265	-15.914466	0.000573	5.730588	0.970788	-0.000057
2009	1.9980e+02	0.0141	-15.966199	0.000520	5.198462	0.880643	-0.000052
2010	1.9990e+02	0.0038	-16.024856	0.000589	5.894319	0.998525	-0.000059
2011	2.0000e+02	-0.0040	-16.081069	0.000589	5.894319	0.998525	-0.000056

PMax (uC/cm2):	4.01e+01
Pr (uC/cm2):	3.98e+00
-Pr (uC/cm2):	0.00e+00
PLoss (uC/cm2):	0.00e+00
C (Max-Eff) (nF):	4.01e-01
K (Eff):	6.80e+02
Vert. (+/-Pr) Shift (uC/cm2):	1.99e+00
Offset (uC/cm2):	2.01e+01

A (Loop Area - uC/cm2·Volts):	-4.02e-02



Hysteresis Version: 5.48.1 - Radiant Technologies, Inc., 1999 - 9/12/24

