»»»»»»»»»»»»»»»»»»»»»»»»»»»»»»»»»»»» Hysteresis ««««««««««««««««««««««««««««««««««««
»»»  Executed Version:	5.48.1
»»»  Vision Version:	5.48.4 (R)
»»»  Vision Compiled:	9/18/24
»»»  Driver Version:	5.47.0
»»»  Windows Version:	Windows 8 or 8.1
»»»  Processor Information:	x86 (AMD or Intel) - 32 Processors
»»»  Tester Name:	PMF21124-494 (100V)
»»»  Tester S/N:	PMF21124-494
»»»  Internal Amp Type:	100V RevK 270k
»»»  Internal Amp S/N:	iAB2-596/K     
»»»  Execution Count:	1
»»»»»»»»»»»»»»»»»»»»»»»»»»»»»»»»»»»»»»»»»»««««««««««««««««««««««««««««««««««««««««««

Stored:	6/27/2025 - 17:4:59
Configured:	06/27/25 11:23:28 AM
Executed:	06/27/25 05:04:29 PM

»»»»»»»»»»»»»»»»»»»»»»»»»»»»»»»»»»» Sample Info ««««««««««««««««««««««««««««««««««««
Sample Name:	
Lot Name:	
Wafer Name:	
Die Row/Column:	0/0
Capacitor Number:	0
Sample Area (cm2):	1.00e-04
Sample Thickness (microns):	1.50e-01

Amplifier:	Internal

»»»»»»»»»»»»»»»»»»»»»»»»»»»»»»»»»»» Tester Info «««««««««««««««««««««««««««««««««««
Tester Name:	PMF21124-494 (100V)
Tester Serial Number:	PMF21124-494
Return Signal Amp. Level:	1.9 [Index: 2]

»»»»»»»»»»»»»»»»»»»»»»»»»»»»»»»» Hysteresis Info ««««««««««««««««««««««««««««««««««
Task Name:	Hyst-1276
Volts:	10.00
Field:	666.67 (kV/cm)
DCBias:	0.00
DCField:	0.00 (kV/cm)
Hysteresis Period (ms):	2.00e+02
Preset:	Enabled
Preset Delay (ms):	1.00e+03
Profile:	Standard Monopolar

»»»»»»»»»»»»»»»»»»»»»»»»»»»»»»»»»»»»»» Data «««««««««««««««««««««««««««««««««««««««
Points:	2011

Valid Data

Point	Time (ms)	Drive Voltage	Measured Polarization (uC/cm2)	Capacitance (uF)	Normalized Capacitance (uF/cm2)	Dielectric Constant	Instantaneous Current (mA)
   1	0.0000e+00	-0.0022	-20.044309	0.000426	4.260161	0.721691	0.000043
   2	9.9500e-02	0.0087	-20.001945	0.000426	4.260161	0.721691	0.000043
   3	1.9900e-01	0.0166	-19.952657	0.000496	4.956533	0.839659	0.000050
   4	2.9850e-01	0.0246	-19.905812	0.000471	4.710755	0.798023	0.000047
   5	3.9800e-01	0.0355	-19.855709	0.000504	5.038459	0.853538	0.000050
   6	4.9750e-01	0.0456	-19.803569	0.000524	5.243275	0.888235	0.000052
   7	5.9700e-01	0.0549	-19.756317	0.000475	4.751718	0.804963	0.000047
   8	6.9650e-01	0.0641	-19.702956	0.000537	5.366164	0.909053	0.000054
   9	7.9600e-01	0.0761	-19.657333	0.000459	4.587865	0.777205	0.000046
  10	8.9550e-01	0.0845	-19.601935	0.000557	5.570980	0.943749	0.000056
  11	9.9500e-01	0.0940	-19.553868	0.000483	4.833644	0.818841	0.000048
  12	1.0945e+00	0.1099	-19.505802	0.000483	4.833644	0.818841	0.000048
  13	1.1940e+00	0.1183	-19.457328	0.000487	4.874607	0.825781	0.000049
  14	1.2935e+00	0.1268	-19.409669	0.000479	4.792681	0.811902	0.000048
  15	1.3930e+00	0.1352	-19.362010	0.000479	4.792681	0.811902	0.000048
  16	1.4925e+00	0.1433	-19.311499	0.000508	5.079422	0.860477	0.000051
  17	1.5920e+00	0.1551	-19.258952	0.000528	5.284238	0.895174	0.000053
  18	1.6915e+00	0.1658	-19.208034	0.000512	5.120386	0.867417	0.000051
  19	1.7910e+00	0.1740	-19.159153	0.000492	4.915570	0.832720	0.000049
  20	1.8905e+00	0.1849	-19.109457	0.000500	4.997496	0.846599	0.000050
  21	1.9900e+00	0.1962	-19.056503	0.000533	5.325201	0.902113	0.000053
  22	2.0895e+00	0.2023	-19.009251	0.000475	4.751718	0.804963	0.000047
  23	2.1890e+00	0.2169	-18.963221	0.000463	4.628829	0.784145	0.000046
  24	2.2885e+00	0.2203	-18.914340	0.000492	4.915570	0.832720	0.000049
  25	2.3880e+00	0.2390	-18.866274	0.000483	4.833644	0.818841	0.000048
  26	2.4875e+00	0.2434	-18.816985	0.000496	4.956533	0.839659	0.000050
  27	2.5870e+00	0.2573	-18.768104	0.000492	4.915570	0.832720	0.000049
  28	2.6865e+00	0.2630	-18.718409	0.000500	4.997496	0.846599	0.000050
  29	2.7860e+00	0.2744	-18.674008	0.000446	4.464976	0.756387	0.000045
  30	2.8855e+00	0.2837	-18.620646	0.000537	5.366164	0.909053	0.000054
  31	2.9850e+00	0.2937	-18.568507	0.000524	5.243275	0.888235	0.000052
  32	3.0845e+00	0.3033	-18.522477	0.000463	4.628829	0.784145	0.000046
  33	3.1840e+00	0.3156	-18.472781	0.000500	4.997496	0.846599	0.000050
  34	3.2835e+00	0.3245	-18.427566	0.000455	4.546902	0.770266	0.000045
  35	3.3830e+00	0.3379	-18.375426	0.000524	5.243275	0.888235	0.000052
  36	3.4825e+00	0.3435	-18.324101	0.000516	5.161349	0.874356	0.000052
  37	3.5820e+00	0.3529	-18.274405	0.000500	4.997496	0.846599	0.000050
  38	3.6815e+00	0.3622	-18.226339	0.000483	4.833644	0.818841	0.000048
  39	3.7810e+00	0.3739	-18.176236	0.000504	5.038459	0.853538	0.000050
  40	3.8805e+00	0.3826	-18.125318	0.000512	5.120386	0.867417	0.000051
  41	3.9800e+00	0.3960	-18.078066	0.000475	4.751718	0.804963	0.000047
  42	4.0795e+00	0.4034	-18.028370	0.000500	4.997496	0.846599	0.000050
  43	4.1790e+00	0.4131	-17.977045	0.000516	5.161349	0.874356	0.000052
  44	4.2785e+00	0.4241	-17.929793	0.000475	4.751718	0.804963	0.000047
  45	4.3780e+00	0.4316	-17.877246	0.000528	5.284238	0.895174	0.000053
  46	4.4775e+00	0.4449	-17.828365	0.000492	4.915570	0.832720	0.000049
  47	4.5770e+00	0.4545	-17.777447	0.000512	5.120386	0.867417	0.000051
  48	4.6765e+00	0.4623	-17.728159	0.000496	4.956533	0.839659	0.000050
  49	4.7760e+00	0.4743	-17.676019	0.000524	5.243275	0.888235	0.000052
  50	4.8755e+00	0.4839	-17.628360	0.000479	4.792681	0.811902	0.000048
  51	4.9750e+00	0.4922	-17.576627	0.000520	5.202312	0.881295	0.000052
  52	5.0745e+00	0.5040	-17.530598	0.000463	4.628829	0.784145	0.000046
  53	5.1740e+00	0.5128	-17.477236	0.000537	5.366164	0.909053	0.000054
  54	5.2735e+00	0.5218	-17.431613	0.000459	4.587865	0.777205	0.000046
  55	5.3730e+00	0.5330	-17.379881	0.000520	5.202312	0.881295	0.000052
  56	5.4725e+00	0.5430	-17.326112	0.000541	5.407127	0.915992	0.000054
  57	5.5720e+00	0.5545	-17.278860	0.000475	4.751718	0.804963	0.000047
  58	5.6715e+00	0.5633	-17.230794	0.000483	4.833644	0.818841	0.000048
  59	5.7710e+00	0.5713	-17.179468	0.000516	5.161349	0.874356	0.000052
  60	5.8705e+00	0.5840	-17.131402	0.000483	4.833644	0.818841	0.000048
  61	5.9700e+00	0.5924	-17.082114	0.000496	4.956533	0.839659	0.000050
  62	6.0695e+00	0.6036	-17.032825	0.000496	4.956533	0.839659	0.000050
  63	6.1690e+00	0.6133	-16.980685	0.000524	5.243275	0.888235	0.000052
  64	6.2685e+00	0.6205	-16.933841	0.000471	4.710755	0.798023	0.000047
  65	6.3680e+00	0.6300	-16.883738	0.000504	5.038459	0.853538	0.000050
  66	6.4675e+00	0.6406	-16.828747	0.000553	5.530016	0.936810	0.000055
  67	6.5670e+00	0.6541	-16.782309	0.000467	4.669792	0.791084	0.000047
  68	6.6665e+00	0.6609	-16.728948	0.000537	5.366164	0.909053	0.000054
  69	6.7660e+00	0.6723	-16.684547	0.000446	4.464976	0.756387	0.000045
  70	6.8655e+00	0.6834	-16.630371	0.000545	5.448090	0.922931	0.000054
  71	6.9650e+00	0.6941	-16.580268	0.000504	5.038459	0.853538	0.000050
  72	7.0645e+00	0.7024	-16.533423	0.000471	4.710755	0.798023	0.000047
  73	7.1640e+00	0.7161	-16.484135	0.000496	4.956533	0.839659	0.000050
  74	7.2635e+00	0.7220	-16.435254	0.000492	4.915570	0.832720	0.000049
  75	7.3630e+00	0.7304	-16.388409	0.000471	4.710755	0.798023	0.000047
  76	7.4625e+00	0.7417	-16.333825	0.000549	5.489053	0.929871	0.000055
  77	7.5620e+00	0.7510	-16.287388	0.000467	4.669792	0.791084	0.000047
  78	7.6615e+00	0.7613	-16.240137	0.000475	4.751718	0.804963	0.000047
  79	7.7610e+00	0.7685	-16.186775	0.000537	5.366164	0.909053	0.000054
  80	7.8605e+00	0.7820	-16.141967	0.000451	4.505939	0.763327	0.000045
  81	7.9600e+00	0.7944	-16.085346	0.000569	5.693869	0.964567	0.000057
  82	8.0595e+00	0.8015	-16.038502	0.000471	4.710755	0.798023	0.000047
  83	8.1590e+00	0.8118	-15.986769	0.000520	5.202312	0.881295	0.000052
  84	8.2585e+00	0.8173	-15.939925	0.000471	4.710755	0.798023	0.000047
  85	8.3580e+00	0.8341	-15.887378	0.000528	5.284238	0.895174	0.000053
  86	8.4575e+00	0.8404	-15.840941	0.000467	4.669792	0.791084	0.000047
  87	8.5570e+00	0.8498	-15.787986	0.000533	5.325201	0.902113	0.000053
  88	8.6565e+00	0.8634	-15.741957	0.000463	4.628829	0.784145	0.000046
  89	8.7560e+00	0.8740	-15.693483	0.000487	4.874607	0.825781	0.000049
  90	8.8555e+00	0.8830	-15.645009	0.000487	4.874607	0.825781	0.000049
  91	8.9550e+00	0.8917	-15.595313	0.000500	4.997496	0.846599	0.000050
  92	9.0545e+00	0.9039	-15.548876	0.000467	4.669792	0.791084	0.000047
  93	9.1540e+00	0.9108	-15.505698	0.000434	4.342087	0.735569	0.000043
  94	9.2535e+00	0.9229	-15.451114	0.000549	5.489053	0.929871	0.000055
  95	9.3530e+00	0.9321	-15.401011	0.000504	5.038459	0.853538	0.000050
  96	9.4525e+00	0.9397	-15.349278	0.000520	5.202312	0.881295	0.000052
  97	9.5520e+00	0.9503	-15.303656	0.000459	4.587865	0.777205	0.000046
  98	9.6515e+00	0.9612	-15.251109	0.000528	5.284238	0.895174	0.000053
  99	9.7510e+00	0.9723	-15.201820	0.000496	4.956533	0.839659	0.000050
 100	9.8505e+00	0.9804	-15.152939	0.000492	4.915570	0.832720	0.000049
 101	9.9500e+00	0.9912	-15.105280	0.000479	4.792681	0.811902	0.000048
 102	1.0050e+01	0.9978	-15.054770	0.000508	5.079422	0.860477	0.000051
 103	1.0149e+01	1.0087	-15.007518	0.000475	4.751718	0.804963	0.000047
 104	1.0248e+01	1.0233	-14.959452	0.000483	4.833644	0.818841	0.000048
 105	1.0348e+01	1.0306	-14.908534	0.000512	5.120386	0.867417	0.000051
 106	1.0447e+01	1.0409	-14.862911	0.000459	4.587865	0.777205	0.000046
 107	1.0547e+01	1.0513	-14.809549	0.000537	5.366164	0.909053	0.000054
 108	1.0646e+01	1.0611	-14.757410	0.000524	5.243275	0.888235	0.000052
 109	1.0746e+01	1.0699	-14.710973	0.000467	4.669792	0.791084	0.000047
 110	1.0845e+01	1.0802	-14.658018	0.000533	5.325201	0.902113	0.000053
 111	1.0945e+01	1.0916	-14.606286	0.000520	5.202312	0.881295	0.000052
 112	1.1044e+01	1.0992	-14.558219	0.000483	4.833644	0.818841	0.000048
 113	1.1144e+01	1.1115	-14.510153	0.000483	4.833644	0.818841	0.000048
 114	1.1243e+01	1.1243	-14.456791	0.000537	5.366164	0.909053	0.000054
 115	1.1343e+01	1.1291	-14.411168	0.000459	4.587865	0.777205	0.000046
 116	1.1443e+01	1.1384	-14.358214	0.000533	5.325201	0.902113	0.000053
 117	1.1542e+01	1.1477	-14.307296	0.000512	5.120386	0.867417	0.000051
 118	1.1642e+01	1.1608	-14.256378	0.000512	5.120386	0.867417	0.000051
 119	1.1741e+01	1.1683	-14.212385	0.000442	4.424013	0.749448	0.000044
 120	1.1841e+01	1.1797	-14.161467	0.000512	5.120386	0.867417	0.000051
 121	1.1940e+01	1.1923	-14.110550	0.000512	5.120386	0.867417	0.000051
 122	1.2040e+01	1.2013	-14.063298	0.000475	4.751718	0.804963	0.000047
 123	1.2139e+01	1.2097	-14.016861	0.000467	4.669792	0.791084	0.000047
 124	1.2239e+01	1.2198	-13.967165	0.000500	4.997496	0.846599	0.000050
 125	1.2338e+01	1.2291	-13.917062	0.000504	5.038459	0.853538	0.000050
 126	1.2438e+01	1.2402	-13.866959	0.000504	5.038459	0.853538	0.000050
 127	1.2537e+01	1.2483	-13.819707	0.000475	4.751718	0.804963	0.000047
 128	1.2636e+01	1.2586	-13.773677	0.000463	4.628829	0.784145	0.000046
 129	1.2736e+01	1.2705	-13.726833	0.000471	4.710755	0.798023	0.000047
 130	1.2835e+01	1.2769	-13.674286	0.000528	5.284238	0.895174	0.000053
 131	1.2935e+01	1.2929	-13.624997	0.000496	4.956533	0.839659	0.000050
 132	1.3034e+01	1.2995	-13.576524	0.000487	4.874607	0.825781	0.000049
 133	1.3134e+01	1.3071	-13.523976	0.000528	5.284238	0.895174	0.000053
 134	1.3233e+01	1.3194	-13.478354	0.000459	4.587865	0.777205	0.000046
 135	1.3333e+01	1.3267	-13.428658	0.000500	4.997496	0.846599	0.000050
 136	1.3432e+01	1.3387	-13.382221	0.000467	4.669792	0.791084	0.000047
 137	1.3532e+01	1.3478	-13.332525	0.000500	4.997496	0.846599	0.000050
 138	1.3632e+01	1.3589	-13.282830	0.000500	4.997496	0.846599	0.000050
 139	1.3731e+01	1.3692	-13.238837	0.000442	4.424013	0.749448	0.000044
 140	1.3831e+01	1.3779	-13.184253	0.000549	5.489053	0.929871	0.000055
 141	1.3930e+01	1.3888	-13.136594	0.000479	4.792681	0.811902	0.000048
 142	1.4030e+01	1.3988	-13.088527	0.000483	4.833644	0.818841	0.000048
 143	1.4129e+01	1.4111	-13.040053	0.000487	4.874607	0.825781	0.000049
 144	1.4229e+01	1.4178	-12.991172	0.000492	4.915570	0.832720	0.000049
 145	1.4328e+01	1.4288	-12.943921	0.000475	4.751718	0.804963	0.000047
 146	1.4428e+01	1.4384	-12.891781	0.000524	5.243275	0.888235	0.000052
 147	1.4527e+01	1.4494	-12.844122	0.000479	4.792681	0.811902	0.000048
 148	1.4627e+01	1.4577	-12.794426	0.000500	4.997496	0.846599	0.000050
 149	1.4726e+01	1.4700	-12.747581	0.000471	4.710755	0.798023	0.000047
 150	1.4825e+01	1.4785	-12.700330	0.000475	4.751718	0.804963	0.000047
 151	1.4925e+01	1.4910	-12.654300	0.000463	4.628829	0.784145	0.000046
 152	1.5024e+01	1.4983	-12.603790	0.000508	5.079422	0.860477	0.000051
 153	1.5124e+01	1.5062	-12.553279	0.000508	5.079422	0.860477	0.000051
 154	1.5223e+01	1.5176	-12.510101	0.000434	4.342087	0.735569	0.000043
 155	1.5323e+01	1.5292	-12.459998	0.000504	5.038459	0.853538	0.000050
 156	1.5422e+01	1.5385	-12.413968	0.000463	4.628829	0.784145	0.000046
 157	1.5522e+01	1.5471	-12.363457	0.000508	5.079422	0.860477	0.000051
 158	1.5621e+01	1.5562	-12.312947	0.000508	5.079422	0.860477	0.000051
 159	1.5721e+01	1.5692	-12.262844	0.000504	5.038459	0.853538	0.000050
 160	1.5820e+01	1.5785	-12.217629	0.000455	4.546902	0.770266	0.000045
 161	1.5920e+01	1.5885	-12.170784	0.000471	4.710755	0.798023	0.000047
 162	1.6020e+01	1.5990	-12.119459	0.000516	5.161349	0.874356	0.000052
 163	1.6119e+01	1.6084	-12.069763	0.000500	4.997496	0.846599	0.000050
 164	1.6218e+01	1.6172	-12.023326	0.000467	4.669792	0.791084	0.000047
 165	1.6318e+01	1.6277	-11.972816	0.000508	5.079422	0.860477	0.000051
 166	1.6418e+01	1.6362	-11.926786	0.000463	4.628829	0.784145	0.000046
 167	1.6517e+01	1.6497	-11.881571	0.000455	4.546902	0.770266	0.000045
 168	1.6616e+01	1.6576	-11.832690	0.000492	4.915570	0.832720	0.000049
 169	1.6716e+01	1.6682	-11.783809	0.000492	4.915570	0.832720	0.000049
 170	1.6816e+01	1.6763	-11.735743	0.000483	4.833644	0.818841	0.000048
 171	1.6915e+01	1.6869	-11.690528	0.000455	4.546902	0.770266	0.000045
 172	1.7015e+01	1.6953	-11.637980	0.000528	5.284238	0.895174	0.000053
 173	1.7114e+01	1.7117	-11.588285	0.000500	4.997496	0.846599	0.000050
 174	1.7213e+01	1.7163	-11.538996	0.000496	4.956533	0.839659	0.000050
 175	1.7313e+01	1.7275	-11.488486	0.000508	5.079422	0.860477	0.000051
 176	1.7413e+01	1.7364	-11.439197	0.000496	4.956533	0.839659	0.000050
 177	1.7512e+01	1.7474	-11.395204	0.000442	4.424013	0.749448	0.000044
 178	1.7611e+01	1.7538	-11.341842	0.000537	5.366164	0.909053	0.000054
 179	1.7711e+01	1.7691	-11.297035	0.000451	4.505939	0.763327	0.000045
 180	1.7811e+01	1.7760	-11.244487	0.000528	5.284238	0.895174	0.000053
 181	1.7910e+01	1.7873	-11.202124	0.000426	4.260161	0.721691	0.000043
 182	1.8009e+01	1.7979	-11.155687	0.000467	4.669792	0.791084	0.000047
 183	1.8109e+01	1.8050	-11.109250	0.000467	4.669792	0.791084	0.000047
 184	1.8209e+01	1.8143	-11.063627	0.000459	4.587865	0.777205	0.000046
 185	1.8308e+01	1.8267	-11.010265	0.000537	5.366164	0.909053	0.000054
 186	1.8407e+01	1.8361	-10.959755	0.000508	5.079422	0.860477	0.000051
 187	1.8507e+01	1.8461	-10.918613	0.000414	4.137272	0.700873	0.000041
 188	1.8607e+01	1.8553	-10.868510	0.000504	5.038459	0.853538	0.000050
 189	1.8706e+01	1.8661	-10.820444	0.000483	4.833644	0.818841	0.000048
 190	1.8805e+01	1.8758	-10.771563	0.000492	4.915570	0.832720	0.000049
 191	1.8905e+01	1.8851	-10.725533	0.000463	4.628829	0.784145	0.000046
 192	1.9005e+01	1.8974	-10.680318	0.000455	4.546902	0.770266	0.000045
 193	1.9104e+01	1.9051	-10.635103	0.000455	4.546902	0.770266	0.000045
 194	1.9203e+01	1.9140	-10.587444	0.000479	4.792681	0.811902	0.000048
 195	1.9303e+01	1.9264	-10.542229	0.000455	4.546902	0.770266	0.000045
 196	1.9402e+01	1.9338	-10.492126	0.000504	5.038459	0.853538	0.000050
 197	1.9502e+01	1.9464	-10.449355	0.000430	4.301124	0.728630	0.000043
 198	1.9602e+01	1.9554	-10.401288	0.000483	4.833644	0.818841	0.000048
 199	1.9701e+01	1.9669	-10.353629	0.000479	4.792681	0.811902	0.000048
 200	1.9800e+01	1.9765	-10.306785	0.000471	4.710755	0.798023	0.000047
 201	1.9900e+01	1.9859	-10.260755	0.000463	4.628829	0.784145	0.000046
 202	2.0000e+01	1.9978	-10.214318	0.000467	4.669792	0.791084	0.000047
 203	2.0099e+01	2.0054	-10.165844	0.000487	4.874607	0.825781	0.000049
 204	2.0198e+01	2.0155	-10.119815	0.000463	4.628829	0.784145	0.000046
 205	2.0298e+01	2.0251	-10.074192	0.000459	4.587865	0.777205	0.000046
 206	2.0398e+01	2.0367	-10.024089	0.000504	5.038459	0.853538	0.000050
 207	2.0497e+01	2.0462	-9.981318	0.000430	4.301124	0.728630	0.000043
 208	2.0596e+01	2.0595	-9.934881	0.000467	4.669792	0.791084	0.000047
 209	2.0696e+01	2.0641	-9.886000	0.000492	4.915570	0.832720	0.000049
 210	2.0796e+01	2.0754	-9.835490	0.000508	5.079422	0.860477	0.000051
 211	2.0895e+01	2.0856	-9.789867	0.000459	4.587865	0.777205	0.000046
 212	2.0994e+01	2.0947	-9.745874	0.000442	4.424013	0.749448	0.000044
 213	2.1094e+01	2.1056	-9.694956	0.000512	5.120386	0.867417	0.000051
 214	2.1194e+01	2.1136	-9.654222	0.000410	4.096308	0.693933	0.000041
 215	2.1293e+01	2.1228	-9.602897	0.000516	5.161349	0.874356	0.000052
 216	2.1392e+01	2.1337	-9.556867	0.000463	4.628829	0.784145	0.000046
 217	2.1492e+01	2.1449	-9.508394	0.000487	4.874607	0.825781	0.000049
 218	2.1591e+01	2.1550	-9.464401	0.000442	4.424013	0.749448	0.000044
 219	2.1691e+01	2.1647	-9.415112	0.000496	4.956533	0.839659	0.000050
 220	2.1791e+01	2.1748	-9.367046	0.000483	4.833644	0.818841	0.000048
 221	2.1890e+01	2.1869	-9.319387	0.000479	4.792681	0.811902	0.000048
 222	2.1989e+01	2.1945	-9.272135	0.000475	4.751718	0.804963	0.000047
 223	2.2089e+01	2.2043	-9.229364	0.000430	4.301124	0.728630	0.000043
 224	2.2189e+01	2.2159	-9.180890	0.000487	4.874607	0.825781	0.000049
 225	2.2288e+01	2.2237	-9.137712	0.000434	4.342087	0.735569	0.000043
 226	2.2387e+01	2.2321	-9.090053	0.000479	4.792681	0.811902	0.000048
 227	2.2487e+01	2.2456	-9.042801	0.000475	4.751718	0.804963	0.000047
 228	2.2587e+01	2.2560	-8.996771	0.000463	4.628829	0.784145	0.000046
 229	2.2686e+01	2.2630	-8.952371	0.000446	4.464976	0.756387	0.000045
 230	2.2785e+01	2.2729	-8.901860	0.000508	5.079422	0.860477	0.000051
 231	2.2885e+01	2.2849	-8.857867	0.000442	4.424013	0.749448	0.000044
 232	2.2985e+01	2.2912	-8.812652	0.000455	4.546902	0.770266	0.000045
 233	2.3084e+01	2.3044	-8.765401	0.000475	4.751718	0.804963	0.000047
 234	2.3183e+01	2.3157	-8.716927	0.000487	4.874607	0.825781	0.000049
 235	2.3283e+01	2.3267	-8.668861	0.000483	4.833644	0.818841	0.000048
 236	2.3383e+01	2.3341	-8.626090	0.000430	4.301124	0.728630	0.000043
 237	2.3482e+01	2.3426	-8.578023	0.000483	4.833644	0.818841	0.000048
 238	2.3581e+01	2.3540	-8.531179	0.000471	4.710755	0.798023	0.000047
 239	2.3681e+01	2.3662	-8.488408	0.000430	4.301124	0.728630	0.000043
 240	2.3780e+01	2.3728	-8.440341	0.000483	4.833644	0.818841	0.000048
 241	2.3880e+01	2.3843	-8.393497	0.000471	4.710755	0.798023	0.000047
 242	2.3980e+01	2.3923	-8.348689	0.000451	4.505939	0.763327	0.000045
 243	2.4079e+01	2.4064	-8.305918	0.000430	4.301124	0.728630	0.000043
 244	2.4178e+01	2.4146	-8.255000	0.000512	5.120386	0.867417	0.000051
 245	2.4278e+01	2.4201	-8.211007	0.000442	4.424013	0.749448	0.000044
 246	2.4378e+01	2.4324	-8.163756	0.000475	4.751718	0.804963	0.000047
 247	2.4477e+01	2.4430	-8.116911	0.000471	4.710755	0.798023	0.000047
 248	2.4576e+01	2.4506	-8.068438	0.000487	4.874607	0.825781	0.000049
 249	2.4676e+01	2.4635	-8.022408	0.000463	4.628829	0.784145	0.000046
 250	2.4776e+01	2.4745	-7.979230	0.000434	4.342087	0.735569	0.000043
 251	2.4875e+01	2.4862	-7.931978	0.000475	4.751718	0.804963	0.000047
 252	2.4974e+01	2.4962	-7.887577	0.000446	4.464976	0.756387	0.000045
 253	2.5074e+01	2.5035	-7.841548	0.000463	4.628829	0.784145	0.000046
 254	2.5174e+01	2.5139	-7.798777	0.000430	4.301124	0.728630	0.000043
 255	2.5273e+01	2.5235	-7.749488	0.000496	4.956533	0.839659	0.000050
 256	2.5372e+01	2.5328	-7.705903	0.000438	4.383050	0.742509	0.000044
 257	2.5472e+01	2.5436	-7.664354	0.000418	4.178235	0.707812	0.000042
 258	2.5572e+01	2.5535	-7.617509	0.000471	4.710755	0.798023	0.000047
 259	2.5671e+01	2.5612	-7.577182	0.000406	4.055345	0.686994	0.000041
 260	2.5770e+01	2.5705	-7.529116	0.000483	4.833644	0.818841	0.000048
 261	2.5870e+01	2.5811	-7.480642	0.000487	4.874607	0.825781	0.000049
 262	2.5970e+01	2.5906	-7.437871	0.000430	4.301124	0.728630	0.000043
 263	2.6069e+01	2.6022	-7.389398	0.000487	4.874607	0.825781	0.000049
 264	2.6169e+01	2.6122	-7.345812	0.000438	4.383050	0.742509	0.000044
 265	2.6268e+01	2.6231	-7.298153	0.000479	4.792681	0.811902	0.000048
 266	2.6367e+01	2.6318	-7.253752	0.000446	4.464976	0.756387	0.000045
 267	2.6467e+01	2.6427	-7.210167	0.000438	4.383050	0.742509	0.000044
 268	2.6567e+01	2.6539	-7.162915	0.000475	4.751718	0.804963	0.000047
 269	2.6666e+01	2.6614	-7.114441	0.000487	4.874607	0.825781	0.000049
 270	2.6765e+01	2.6722	-7.074114	0.000406	4.055345	0.686994	0.000041
 271	2.6865e+01	2.6809	-7.029307	0.000451	4.505939	0.763327	0.000045
 272	2.6965e+01	2.6914	-6.986128	0.000434	4.342087	0.735569	0.000043
 273	2.7064e+01	2.7029	-6.936433	0.000500	4.997496	0.846599	0.000050
 274	2.7163e+01	2.7119	-6.894884	0.000418	4.178235	0.707812	0.000042
 275	2.7263e+01	2.7216	-6.847225	0.000479	4.792681	0.811902	0.000048
 276	2.7363e+01	2.7331	-6.799566	0.000479	4.792681	0.811902	0.000048
 277	2.7462e+01	2.7438	-6.750277	0.000496	4.956533	0.839659	0.000050
 278	2.7561e+01	2.7509	-6.707506	0.000430	4.301124	0.728630	0.000043
 279	2.7661e+01	2.7627	-6.654959	0.000528	5.284238	0.895174	0.000053
 280	2.7761e+01	2.7712	-6.614632	0.000406	4.055345	0.686994	0.000041
 281	2.7860e+01	2.7832	-6.569010	0.000459	4.587865	0.777205	0.000046
 282	2.7959e+01	2.7924	-6.522980	0.000463	4.628829	0.784145	0.000046
 283	2.8059e+01	2.8033	-6.475321	0.000479	4.792681	0.811902	0.000048
 284	2.8159e+01	2.8139	-6.431735	0.000438	4.383050	0.742509	0.000044
 285	2.8258e+01	2.8223	-6.386928	0.000451	4.505939	0.763327	0.000045
 286	2.8358e+01	2.8313	-6.340083	0.000471	4.710755	0.798023	0.000047
 287	2.8457e+01	2.8419	-6.296090	0.000442	4.424013	0.749448	0.000044
 288	2.8556e+01	2.8523	-6.251282	0.000451	4.505939	0.763327	0.000045
 289	2.8656e+01	2.8614	-6.207697	0.000438	4.383050	0.742509	0.000044
 290	2.8756e+01	2.8738	-6.159630	0.000483	4.833644	0.818841	0.000048
 291	2.8855e+01	2.8848	-6.115230	0.000446	4.464976	0.756387	0.000045
 292	2.8954e+01	2.8893	-6.071644	0.000438	4.383050	0.742509	0.000044
 293	2.9054e+01	2.8992	-6.025615	0.000463	4.628829	0.784145	0.000046
 294	2.9154e+01	2.9093	-5.980807	0.000451	4.505939	0.763327	0.000045
 295	2.9253e+01	2.9221	-5.936814	0.000442	4.424013	0.749448	0.000044
 296	2.9352e+01	2.9323	-5.889155	0.000479	4.792681	0.811902	0.000048
 297	2.9452e+01	2.9391	-5.848421	0.000410	4.096308	0.693933	0.000041
 298	2.9552e+01	2.9527	-5.801984	0.000467	4.669792	0.791084	0.000047
 299	2.9651e+01	2.9619	-5.753917	0.000483	4.833644	0.818841	0.000048
 300	2.9750e+01	2.9691	-5.711146	0.000430	4.301124	0.728630	0.000043
 301	2.9850e+01	2.9785	-5.667968	0.000434	4.342087	0.735569	0.000043
 302	2.9950e+01	2.9902	-5.623975	0.000442	4.424013	0.749448	0.000044
 303	3.0049e+01	3.0009	-5.577538	0.000467	4.669792	0.791084	0.000047
 304	3.0148e+01	3.0099	-5.533138	0.000446	4.464976	0.756387	0.000045
 305	3.0248e+01	3.0204	-5.489552	0.000438	4.383050	0.742509	0.000044
 306	3.0348e+01	3.0309	-5.448003	0.000418	4.178235	0.707812	0.000042
 307	3.0447e+01	3.0422	-5.397900	0.000504	5.038459	0.853538	0.000050
 308	3.0547e+01	3.0498	-5.358388	0.000397	3.973419	0.673115	0.000040
 309	3.0646e+01	3.0605	-5.311543	0.000471	4.710755	0.798023	0.000047
 310	3.0745e+01	3.0686	-5.263477	0.000483	4.833644	0.818841	0.000048
 311	3.0845e+01	3.0802	-5.220706	0.000430	4.301124	0.728630	0.000043
 312	3.0945e+01	3.0892	-5.176713	0.000442	4.424013	0.749448	0.000044
 313	3.1044e+01	3.0999	-5.129461	0.000475	4.751718	0.804963	0.000047
 314	3.1143e+01	3.1103	-5.083839	0.000459	4.587865	0.777205	0.000046
 315	3.1243e+01	3.1191	-5.044326	0.000397	3.973419	0.673115	0.000040
 316	3.1343e+01	3.1316	-4.996667	0.000479	4.792681	0.811902	0.000048
 317	3.1442e+01	3.1428	-4.954304	0.000426	4.260161	0.721691	0.000043
 318	3.1541e+01	3.1501	-4.913977	0.000406	4.055345	0.686994	0.000041
 319	3.1641e+01	3.1591	-4.867132	0.000471	4.710755	0.798023	0.000047
 320	3.1741e+01	3.1680	-4.825176	0.000422	4.219198	0.714751	0.000042
 321	3.1840e+01	3.1799	-4.779961	0.000455	4.546902	0.770266	0.000045
 322	3.1939e+01	3.1908	-4.737598	0.000426	4.260161	0.721691	0.000043
 323	3.2039e+01	3.2001	-4.687902	0.000500	4.997496	0.846599	0.000050
 324	3.2139e+01	3.2117	-4.648797	0.000393	3.932456	0.666176	0.000039
 325	3.2238e+01	3.2230	-4.603175	0.000459	4.587865	0.777205	0.000046
 326	3.2337e+01	3.2288	-4.559182	0.000442	4.424013	0.749448	0.000044
 327	3.2437e+01	3.2394	-4.514374	0.000451	4.505939	0.763327	0.000045
 328	3.2536e+01	3.2491	-4.471603	0.000430	4.301124	0.728630	0.000043
 329	3.2636e+01	3.2598	-4.430869	0.000410	4.096308	0.693933	0.000041
 330	3.2736e+01	3.2690	-4.379951	0.000512	5.120386	0.867417	0.000051
 331	3.2835e+01	3.2777	-4.340846	0.000393	3.932456	0.666176	0.000039
 332	3.2934e+01	3.2897	-4.298075	0.000430	4.301124	0.728630	0.000043
 333	3.3034e+01	3.2998	-4.254082	0.000442	4.424013	0.749448	0.000044
 334	3.3133e+01	3.3085	-4.210089	0.000442	4.424013	0.749448	0.000044
 335	3.3233e+01	3.3196	-4.166096	0.000442	4.424013	0.749448	0.000044
 336	3.3333e+01	3.3279	-4.124140	0.000422	4.219198	0.714751	0.000042
 337	3.3432e+01	3.3370	-4.081776	0.000426	4.260161	0.721691	0.000043
 338	3.3532e+01	3.3505	-4.032488	0.000496	4.956533	0.839659	0.000050
 339	3.3631e+01	3.3625	-3.990124	0.000426	4.260161	0.721691	0.000043
 340	3.3730e+01	3.3676	-3.948575	0.000418	4.178235	0.707812	0.000042
 341	3.3830e+01	3.3770	-3.905397	0.000434	4.342087	0.735569	0.000043
 342	3.3929e+01	3.3904	-3.857738	0.000479	4.792681	0.811902	0.000048
 343	3.4029e+01	3.3977	-3.813337	0.000446	4.464976	0.756387	0.000045
 344	3.4129e+01	3.4068	-3.769344	0.000442	4.424013	0.749448	0.000044
 345	3.4228e+01	3.4185	-3.726166	0.000434	4.342087	0.735569	0.000043
 346	3.4328e+01	3.4288	-3.682988	0.000434	4.342087	0.735569	0.000043
 347	3.4427e+01	3.4406	-3.640217	0.000430	4.301124	0.728630	0.000043
 348	3.4526e+01	3.4489	-3.595816	0.000446	4.464976	0.756387	0.000045
 349	3.4626e+01	3.4576	-3.553860	0.000422	4.219198	0.714751	0.000042
 350	3.4725e+01	3.4684	-3.513533	0.000406	4.055345	0.686994	0.000041
 351	3.4825e+01	3.4791	-3.468318	0.000455	4.546902	0.770266	0.000045
 352	3.4925e+01	3.4875	-3.426362	0.000422	4.219198	0.714751	0.000042
 353	3.5024e+01	3.4965	-3.381554	0.000451	4.505939	0.763327	0.000045
 354	3.5123e+01	3.5067	-3.335117	0.000467	4.669792	0.791084	0.000047
 355	3.5223e+01	3.5165	-3.290309	0.000451	4.505939	0.763327	0.000045
 356	3.5322e+01	3.5290	-3.249575	0.000410	4.096308	0.693933	0.000041
 357	3.5422e+01	3.5394	-3.209248	0.000406	4.055345	0.686994	0.000041
 358	3.5522e+01	3.5503	-3.166477	0.000430	4.301124	0.728630	0.000043
 359	3.5621e+01	3.5577	-3.121262	0.000455	4.546902	0.770266	0.000045
 360	3.5721e+01	3.5680	-3.080528	0.000410	4.096308	0.693933	0.000041
 361	3.5820e+01	3.5780	-3.038979	0.000418	4.178235	0.707812	0.000042
 362	3.5919e+01	3.5874	-3.000282	0.000389	3.891493	0.659237	0.000039
 363	3.6019e+01	3.6001	-2.958733	0.000418	4.178235	0.707812	0.000042
 364	3.6118e+01	3.6059	-2.913110	0.000459	4.587865	0.777205	0.000046
 365	3.6218e+01	3.6179	-2.871561	0.000418	4.178235	0.707812	0.000042
 366	3.6318e+01	3.6278	-2.829198	0.000426	4.260161	0.721691	0.000043
 367	3.6417e+01	3.6382	-2.786427	0.000430	4.301124	0.728630	0.000043
 368	3.6517e+01	3.6460	-2.744063	0.000426	4.260161	0.721691	0.000043
 369	3.6616e+01	3.6576	-2.702922	0.000414	4.137272	0.700873	0.000041
 370	3.6715e+01	3.6686	-2.658929	0.000442	4.424013	0.749448	0.000044
 371	3.6815e+01	3.6788	-2.619416	0.000397	3.973419	0.673115	0.000040
 372	3.6914e+01	3.6872	-2.578682	0.000410	4.096308	0.693933	0.000041
 373	3.7014e+01	3.6983	-2.534689	0.000442	4.424013	0.749448	0.000044
 374	3.7114e+01	3.7076	-2.492325	0.000426	4.260161	0.721691	0.000043
 375	3.7213e+01	3.7164	-2.448740	0.000438	4.383050	0.742509	0.000044
 376	3.7313e+01	3.7247	-2.403932	0.000451	4.505939	0.763327	0.000045
 377	3.7412e+01	3.7372	-2.360346	0.000438	4.383050	0.742509	0.000044
 378	3.7511e+01	3.7489	-2.321242	0.000393	3.932456	0.666176	0.000039
 379	3.7611e+01	3.7582	-2.276027	0.000455	4.546902	0.770266	0.000045
 380	3.7711e+01	3.7661	-2.238958	0.000373	3.727641	0.631479	0.000037
 381	3.7810e+01	3.7774	-2.194558	0.000446	4.464976	0.756387	0.000045
 382	3.7910e+01	3.7886	-2.153824	0.000410	4.096308	0.693933	0.000041
 383	3.8009e+01	3.7968	-2.114719	0.000393	3.932456	0.666176	0.000039
 384	3.8108e+01	3.8061	-2.071133	0.000438	4.383050	0.742509	0.000044
 385	3.8208e+01	3.8154	-2.027548	0.000438	4.383050	0.742509	0.000044
 386	3.8307e+01	3.8268	-1.984777	0.000430	4.301124	0.728630	0.000043
 387	3.8407e+01	3.8354	-1.944450	0.000406	4.055345	0.686994	0.000041
 388	3.8507e+01	3.8473	-1.902901	0.000418	4.178235	0.707812	0.000042
 389	3.8606e+01	3.8547	-1.860944	0.000422	4.219198	0.714751	0.000042
 390	3.8706e+01	3.8658	-1.815729	0.000455	4.546902	0.770266	0.000045
 391	3.8805e+01	3.8764	-1.775810	0.000401	4.014382	0.680055	0.000040
 392	3.8904e+01	3.8840	-1.734668	0.000414	4.137272	0.700873	0.000041
 393	3.9004e+01	3.8941	-1.691083	0.000438	4.383050	0.742509	0.000044
 394	3.9103e+01	3.9068	-1.649534	0.000418	4.178235	0.707812	0.000042
 395	3.9203e+01	3.9195	-1.609614	0.000401	4.014382	0.680055	0.000040
 396	3.9303e+01	3.9249	-1.567250	0.000426	4.260161	0.721691	0.000043
 397	3.9402e+01	3.9366	-1.526924	0.000406	4.055345	0.686994	0.000041
 398	3.9502e+01	3.9460	-1.486189	0.000410	4.096308	0.693933	0.000041
 399	3.9601e+01	3.9559	-1.442604	0.000438	4.383050	0.742509	0.000044
 400	3.9700e+01	3.9661	-1.398203	0.000446	4.464976	0.756387	0.000045
 401	3.9800e+01	3.9750	-1.357469	0.000410	4.096308	0.693933	0.000041
 402	3.9900e+01	3.9845	-1.316735	0.000410	4.096308	0.693933	0.000041
 403	3.9999e+01	3.9993	-1.274371	0.000426	4.260161	0.721691	0.000043
 404	4.0099e+01	4.0063	-1.236488	0.000381	3.809567	0.645358	0.000038
 405	4.0198e+01	4.0167	-1.190051	0.000467	4.669792	0.791084	0.000047
 406	4.0297e+01	4.0256	-1.148502	0.000418	4.178235	0.707812	0.000042
 407	4.0397e+01	4.0347	-1.105324	0.000434	4.342087	0.735569	0.000043
 408	4.0496e+01	4.0454	-1.065812	0.000397	3.973419	0.673115	0.000040
 409	4.0596e+01	4.0549	-1.021411	0.000446	4.464976	0.756387	0.000045
 410	4.0696e+01	4.0654	-0.982307	0.000393	3.932456	0.666176	0.000039
 411	4.0795e+01	4.0773	-0.942387	0.000401	4.014382	0.680055	0.000040
 412	4.0895e+01	4.0835	-0.901653	0.000410	4.096308	0.693933	0.000041
 413	4.0994e+01	4.0967	-0.862141	0.000397	3.973419	0.673115	0.000040
 414	4.1093e+01	4.1044	-0.817333	0.000451	4.505939	0.763327	0.000045
 415	4.1193e+01	4.1148	-0.775784	0.000418	4.178235	0.707812	0.000042
 416	4.1292e+01	4.1273	-0.731791	0.000442	4.424013	0.749448	0.000044
 417	4.1392e+01	4.1330	-0.693908	0.000381	3.809567	0.645358	0.000038
 418	4.1492e+01	4.1460	-0.651137	0.000430	4.301124	0.728630	0.000043
 419	4.1591e+01	4.1582	-0.606329	0.000451	4.505939	0.763327	0.000045
 420	4.1691e+01	4.1647	-0.568447	0.000381	3.809567	0.645358	0.000038
 421	4.1790e+01	4.1759	-0.529342	0.000393	3.932456	0.666176	0.000039
 422	4.1889e+01	4.1897	-0.486978	0.000426	4.260161	0.721691	0.000043
 423	4.1989e+01	4.1979	-0.446244	0.000410	4.096308	0.693933	0.000041
 424	4.2089e+01	4.2060	-0.407546	0.000389	3.891493	0.659237	0.000039
 425	4.2188e+01	4.2149	-0.370071	0.000377	3.768604	0.638419	0.000038
 426	4.2288e+01	4.2271	-0.333817	0.000365	3.645715	0.617601	0.000036
 427	4.2387e+01	4.2323	-0.290639	0.000434	4.342087	0.735569	0.000043
 428	4.2486e+01	4.2443	-0.248275	0.000426	4.260161	0.721691	0.000043
 429	4.2586e+01	4.2535	-0.206319	0.000422	4.219198	0.714751	0.000042
 430	4.2685e+01	4.2645	-0.167621	0.000389	3.891493	0.659237	0.000039
 431	4.2785e+01	4.2745	-0.125258	0.000426	4.260161	0.721691	0.000043
 432	4.2885e+01	4.2838	-0.082894	0.000426	4.260161	0.721691	0.000043
 433	4.2984e+01	4.2933	-0.041345	0.000418	4.178235	0.707812	0.000042
 434	4.3084e+01	4.3036	0.003870	0.000455	4.546902	0.770266	0.000045
 435	4.3183e+01	4.3136	0.041345	0.000377	3.768604	0.638419	0.000038
 436	4.3282e+01	4.3250	0.081672	0.000406	4.055345	0.686994	0.000041
 437	4.3382e+01	4.3325	0.121999	0.000406	4.055345	0.686994	0.000041
 438	4.3481e+01	4.3425	0.158253	0.000365	3.645715	0.617601	0.000036
 439	4.3581e+01	4.3528	0.195728	0.000377	3.768604	0.638419	0.000038
 440	4.3681e+01	4.3653	0.239314	0.000438	4.383050	0.742509	0.000044
 441	4.3780e+01	4.3750	0.284121	0.000451	4.505939	0.763327	0.000045
 442	4.3880e+01	4.3824	0.321597	0.000377	3.768604	0.638419	0.000038
 443	4.3979e+01	4.3951	0.364775	0.000434	4.342087	0.735569	0.000043
 444	4.4078e+01	4.4024	0.405510	0.000410	4.096308	0.693933	0.000041
 445	4.4178e+01	4.4079	0.448688	0.000434	4.342087	0.735569	0.000043
 446	4.4278e+01	4.4196	0.493903	0.000455	4.546902	0.770266	0.000045
 447	4.4377e+01	4.4327	0.533415	0.000397	3.973419	0.673115	0.000040
 448	4.4477e+01	4.4424	0.573742	0.000406	4.055345	0.686994	0.000041
 449	4.4576e+01	4.4540	0.616106	0.000426	4.260161	0.721691	0.000043
 450	4.4675e+01	4.4646	0.652766	0.000369	3.686678	0.624540	0.000037
 451	4.4775e+01	4.4739	0.697167	0.000446	4.464976	0.756387	0.000045
 452	4.4874e+01	4.4865	0.735457	0.000385	3.850530	0.652297	0.000038
 453	4.4974e+01	4.4951	0.776191	0.000410	4.096308	0.693933	0.000041
 454	4.5074e+01	4.5014	0.819370	0.000434	4.342087	0.735569	0.000043
 455	4.5173e+01	4.5138	0.856845	0.000377	3.768604	0.638419	0.000038
 456	4.5273e+01	4.5200	0.895950	0.000393	3.932456	0.666176	0.000039
 457	4.5372e+01	4.5304	0.938314	0.000426	4.260161	0.721691	0.000043
 458	4.5471e+01	4.5421	0.978640	0.000406	4.055345	0.686994	0.000041
 459	4.5571e+01	4.5541	1.019375	0.000410	4.096308	0.693933	0.000041
 460	4.5670e+01	4.5618	1.057665	0.000385	3.850530	0.652297	0.000038
 461	4.5770e+01	4.5753	1.101251	0.000438	4.383050	0.742509	0.000044
 462	4.5870e+01	4.5876	1.139541	0.000385	3.850530	0.652297	0.000038
 463	4.5969e+01	4.5934	1.180682	0.000414	4.137272	0.700873	0.000041
 464	4.6069e+01	4.6011	1.224675	0.000442	4.424013	0.749448	0.000044
 465	4.6168e+01	4.6105	1.259299	0.000348	3.481862	0.589843	0.000035
 466	4.6267e+01	4.6230	1.302478	0.000434	4.342087	0.735569	0.000043
 467	4.6367e+01	4.6314	1.341175	0.000389	3.891493	0.659237	0.000039
 468	4.6467e+01	4.6393	1.381502	0.000406	4.055345	0.686994	0.000041
 469	4.6566e+01	4.6533	1.422237	0.000410	4.096308	0.693933	0.000041
 470	4.6666e+01	4.6619	1.462563	0.000406	4.055345	0.686994	0.000041
 471	4.6765e+01	4.6740	1.500039	0.000377	3.768604	0.638419	0.000038
 472	4.6864e+01	4.6810	1.542403	0.000426	4.260161	0.721691	0.000043
 473	4.6964e+01	4.6926	1.579878	0.000377	3.768604	0.638419	0.000038
 474	4.7063e+01	4.7044	1.621427	0.000418	4.178235	0.707812	0.000042
 475	4.7163e+01	4.7108	1.661347	0.000401	4.014382	0.680055	0.000040
 476	4.7263e+01	4.7227	1.701266	0.000401	4.014382	0.680055	0.000040
 477	4.7362e+01	4.7332	1.740371	0.000393	3.932456	0.666176	0.000039
 478	4.7462e+01	4.7421	1.781105	0.000410	4.096308	0.693933	0.000041
 479	4.7561e+01	4.7538	1.822654	0.000418	4.178235	0.707812	0.000042
 480	4.7660e+01	4.7623	1.857686	0.000352	3.522825	0.596783	0.000035
 481	4.7760e+01	4.7729	1.901271	0.000438	4.383050	0.742509	0.000044
 482	4.7859e+01	4.7810	1.942006	0.000410	4.096308	0.693933	0.000041
 483	4.7959e+01	4.7915	1.977037	0.000352	3.522825	0.596783	0.000035
 484	4.8059e+01	4.8008	2.022252	0.000455	4.546902	0.770266	0.000045
 485	4.8158e+01	4.8138	2.057691	0.000356	3.563788	0.603722	0.000036
 486	4.8258e+01	4.8196	2.098018	0.000406	4.055345	0.686994	0.000041
 487	4.8357e+01	4.8316	2.137530	0.000397	3.973419	0.673115	0.000040
 488	4.8456e+01	4.8409	2.178264	0.000410	4.096308	0.693933	0.000041
 489	4.8556e+01	4.8530	2.213703	0.000356	3.563788	0.603722	0.000036
 490	4.8656e+01	4.8623	2.256881	0.000434	4.342087	0.735569	0.000043
 491	4.8755e+01	4.8745	2.295172	0.000385	3.850530	0.652297	0.000038
 492	4.8855e+01	4.8814	2.333462	0.000385	3.850530	0.652297	0.000038
 493	4.8954e+01	4.8923	2.370530	0.000373	3.727641	0.631479	0.000037
 494	4.9053e+01	4.9033	2.410857	0.000406	4.055345	0.686994	0.000041
 495	4.9153e+01	4.9110	2.450776	0.000401	4.014382	0.680055	0.000040
 496	4.9252e+01	4.9216	2.493547	0.000430	4.301124	0.728630	0.000043
 497	4.9352e+01	4.9316	2.527357	0.000340	3.399936	0.575965	0.000034
 498	4.9452e+01	4.9393	2.569720	0.000426	4.260161	0.721691	0.000043
 499	4.9551e+01	4.9503	2.610047	0.000406	4.055345	0.686994	0.000041
 500	4.9651e+01	4.9593	2.649560	0.000397	3.973419	0.673115	0.000040
 501	4.9750e+01	4.9726	2.685813	0.000365	3.645715	0.617601	0.000036
 502	4.9849e+01	4.9795	2.726547	0.000410	4.096308	0.693933	0.000041
 503	4.9949e+01	4.9922	2.764023	0.000377	3.768604	0.638419	0.000038
 504	5.0048e+01	5.0018	2.800684	0.000369	3.686678	0.624540	0.000037
 505	5.0148e+01	5.0113	2.841825	0.000414	4.137272	0.700873	0.000041
 506	5.0248e+01	5.0210	2.882560	0.000410	4.096308	0.693933	0.000041
 507	5.0347e+01	5.0316	2.923294	0.000410	4.096308	0.693933	0.000041
 508	5.0447e+01	5.0382	2.962399	0.000393	3.932456	0.666176	0.000039
 509	5.0546e+01	5.0507	3.002318	0.000401	4.014382	0.680055	0.000040
 510	5.0645e+01	5.0579	3.042238	0.000401	4.014382	0.680055	0.000040
 511	5.0745e+01	5.0703	3.082972	0.000410	4.096308	0.693933	0.000041
 512	5.0844e+01	5.0793	3.120448	0.000377	3.768604	0.638419	0.000038
 513	5.0944e+01	5.0904	3.160367	0.000401	4.014382	0.680055	0.000040
 514	5.1044e+01	5.0990	3.199879	0.000397	3.973419	0.673115	0.000040
 515	5.1143e+01	5.1092	3.236133	0.000365	3.645715	0.617601	0.000036
 516	5.1242e+01	5.1203	3.272386	0.000365	3.645715	0.617601	0.000036
 517	5.1342e+01	5.1302	3.311899	0.000397	3.973419	0.673115	0.000040
 518	5.1441e+01	5.1390	3.351411	0.000397	3.973419	0.673115	0.000040
 519	5.1541e+01	5.1516	3.391330	0.000401	4.014382	0.680055	0.000040
 520	5.1641e+01	5.1566	3.432065	0.000410	4.096308	0.693933	0.000041
 521	5.1740e+01	5.1723	3.470762	0.000389	3.891493	0.659237	0.000039
 522	5.1840e+01	5.1794	3.512718	0.000422	4.219198	0.714751	0.000042
 523	5.1939e+01	5.1911	3.550194	0.000377	3.768604	0.638419	0.000038
 524	5.2038e+01	5.2016	3.590114	0.000401	4.014382	0.680055	0.000040
 525	5.2138e+01	5.2071	3.622701	0.000328	3.277047	0.555147	0.000033
 526	5.2237e+01	5.2200	3.661806	0.000393	3.932456	0.666176	0.000039
 527	5.2337e+01	5.2291	3.697652	0.000360	3.604751	0.610661	0.000036
 528	5.2437e+01	5.2399	3.732683	0.000352	3.522825	0.596783	0.000035
 529	5.2536e+01	5.2488	3.775047	0.000426	4.260161	0.721691	0.000043
 530	5.2636e+01	5.2578	3.808449	0.000336	3.358973	0.569025	0.000034
 531	5.2735e+01	5.2712	3.850405	0.000422	4.219198	0.714751	0.000042
 532	5.2834e+01	5.2805	3.886252	0.000360	3.604751	0.610661	0.000036
 533	5.2934e+01	5.2896	3.923727	0.000377	3.768604	0.638419	0.000038
 534	5.3033e+01	5.2996	3.962017	0.000385	3.850530	0.652297	0.000038
 535	5.3133e+01	5.3138	3.998678	0.000369	3.686678	0.624540	0.000037
 536	5.3233e+01	5.3186	4.041449	0.000430	4.301124	0.728630	0.000043
 537	5.3332e+01	5.3292	4.072407	0.000311	3.113194	0.527389	0.000031
 538	5.3431e+01	5.3422	4.113141	0.000410	4.096308	0.693933	0.000041
 539	5.3531e+01	5.3497	4.150617	0.000377	3.768604	0.638419	0.000038
 540	5.3630e+01	5.3567	4.186870	0.000365	3.645715	0.617601	0.000036
 541	5.3730e+01	5.3683	4.228012	0.000414	4.137272	0.700873	0.000041
 542	5.3830e+01	5.3814	4.266710	0.000389	3.891493	0.659237	0.000039
 543	5.3929e+01	5.3910	4.303370	0.000369	3.686678	0.624540	0.000037
 544	5.4029e+01	5.3974	4.340439	0.000373	3.727641	0.631479	0.000037
 545	5.4128e+01	5.4086	4.378729	0.000385	3.850530	0.652297	0.000038
 546	5.4227e+01	5.4180	4.416204	0.000377	3.768604	0.638419	0.000038
 547	5.4327e+01	5.4307	4.454494	0.000385	3.850530	0.652297	0.000038
 548	5.4426e+01	5.4379	4.494007	0.000397	3.973419	0.673115	0.000040
 549	5.4526e+01	5.4482	4.529038	0.000352	3.522825	0.596783	0.000035
 550	5.4626e+01	5.4575	4.566514	0.000377	3.768604	0.638419	0.000038
 551	5.4725e+01	5.4708	4.609285	0.000430	4.301124	0.728630	0.000043
 552	5.4825e+01	5.4781	4.645538	0.000365	3.645715	0.617601	0.000036
 553	5.4924e+01	5.4887	4.686680	0.000414	4.137272	0.700873	0.000041
 554	5.5023e+01	5.4975	4.718860	0.000324	3.236084	0.548207	0.000032
 555	5.5123e+01	5.5071	4.753891	0.000352	3.522825	0.596783	0.000035
 556	5.5222e+01	5.5202	4.795033	0.000414	4.137272	0.700873	0.000041
 557	5.5322e+01	5.5284	4.835360	0.000406	4.055345	0.686994	0.000041
 558	5.5422e+01	5.5383	4.869984	0.000348	3.481862	0.589843	0.000035
 559	5.5521e+01	5.5499	4.908274	0.000385	3.850530	0.652297	0.000038
 560	5.5620e+01	5.5589	4.947786	0.000397	3.973419	0.673115	0.000040
 561	5.5720e+01	5.5669	4.983632	0.000360	3.604751	0.610661	0.000036
 562	5.5819e+01	5.5784	5.020701	0.000373	3.727641	0.631479	0.000037
 563	5.5919e+01	5.5892	5.057769	0.000373	3.727641	0.631479	0.000037
 564	5.6019e+01	5.5975	5.089949	0.000324	3.236084	0.548207	0.000032
 565	5.6118e+01	5.6074	5.131090	0.000414	4.137272	0.700873	0.000041
 566	5.6218e+01	5.6153	5.171010	0.000401	4.014382	0.680055	0.000040
 567	5.6317e+01	5.6284	5.204819	0.000340	3.399936	0.575965	0.000034
 568	5.6416e+01	5.6382	5.247590	0.000430	4.301124	0.728630	0.000043
 569	5.6516e+01	5.6464	5.283844	0.000365	3.645715	0.617601	0.000036
 570	5.6615e+01	5.6582	5.319283	0.000356	3.563788	0.603722	0.000036
 571	5.6715e+01	5.6673	5.359202	0.000401	4.014382	0.680055	0.000040
 572	5.6815e+01	5.6750	5.396270	0.000373	3.727641	0.631479	0.000037
 573	5.6914e+01	5.6878	5.430080	0.000340	3.399936	0.575965	0.000034
 574	5.7014e+01	5.6962	5.469999	0.000401	4.014382	0.680055	0.000040
 575	5.7113e+01	5.7056	5.505031	0.000352	3.522825	0.596783	0.000035
 576	5.7212e+01	5.7178	5.542914	0.000381	3.809567	0.645358	0.000038
 577	5.7312e+01	5.7270	5.578353	0.000356	3.563788	0.603722	0.000036
 578	5.7411e+01	5.7394	5.615828	0.000377	3.768604	0.638419	0.000038
 579	5.7511e+01	5.7467	5.656562	0.000410	4.096308	0.693933	0.000041
 580	5.7611e+01	5.7571	5.689150	0.000328	3.277047	0.555147	0.000033
 581	5.7710e+01	5.7656	5.730291	0.000414	4.137272	0.700873	0.000041
 582	5.7809e+01	5.7787	5.767360	0.000373	3.727641	0.631479	0.000037
 583	5.7909e+01	5.7862	5.803613	0.000365	3.645715	0.617601	0.000036
 584	5.8008e+01	5.7969	5.841903	0.000385	3.850530	0.652297	0.000038
 585	5.8108e+01	5.8083	5.880193	0.000385	3.850530	0.652297	0.000038
 586	5.8208e+01	5.8172	5.916447	0.000365	3.645715	0.617601	0.000036
 587	5.8307e+01	5.8275	5.949849	0.000336	3.358973	0.569025	0.000034
 588	5.8407e+01	5.8408	5.988954	0.000393	3.932456	0.666176	0.000039
 589	5.8506e+01	5.8466	6.026022	0.000373	3.727641	0.631479	0.000037
 590	5.8605e+01	5.8538	6.060239	0.000344	3.440899	0.582904	0.000034
 591	5.8705e+01	5.8656	6.100158	0.000401	4.014382	0.680055	0.000040
 592	5.8804e+01	5.8744	6.136005	0.000360	3.604751	0.610661	0.000036
 593	5.8904e+01	5.8897	6.168592	0.000328	3.277047	0.555147	0.000033
 594	5.9004e+01	5.8946	6.205660	0.000373	3.727641	0.631479	0.000037
 595	5.9103e+01	5.9069	6.242321	0.000369	3.686678	0.624540	0.000037
 596	5.9203e+01	5.9153	6.277352	0.000352	3.522825	0.596783	0.000035
 597	5.9302e+01	5.9263	6.314421	0.000373	3.727641	0.631479	0.000037
 598	5.9401e+01	5.9405	6.348637	0.000344	3.440899	0.582904	0.000034
 599	5.9501e+01	5.9473	6.391408	0.000430	4.301124	0.728630	0.000043
 600	5.9600e+01	5.9559	6.427662	0.000365	3.645715	0.617601	0.000036
 601	5.9700e+01	5.9661	6.463915	0.000365	3.645715	0.617601	0.000036
 602	5.9800e+01	5.9772	6.505057	0.000414	4.137272	0.700873	0.000041
 603	5.9899e+01	5.9856	6.541310	0.000365	3.645715	0.617601	0.000036
 604	5.9998e+01	5.9965	6.571046	0.000299	2.990305	0.506571	0.000030
 605	6.0098e+01	6.0053	6.604041	0.000332	3.318010	0.562086	0.000033
 606	6.0197e+01	6.0166	6.639887	0.000360	3.604751	0.610661	0.000036
 607	6.0297e+01	6.0241	6.680622	0.000410	4.096308	0.693933	0.000041
 608	6.0397e+01	6.0352	6.718097	0.000377	3.768604	0.638419	0.000038
 609	6.0496e+01	6.0455	6.755980	0.000381	3.809567	0.645358	0.000038
 610	6.0596e+01	6.0578	6.792641	0.000369	3.686678	0.624540	0.000037
 611	6.0695e+01	6.0680	6.827672	0.000352	3.522825	0.596783	0.000035
 612	6.0794e+01	6.0767	6.865962	0.000385	3.850530	0.652297	0.000038
 613	6.0894e+01	6.0863	6.908326	0.000426	4.260161	0.721691	0.000043
 614	6.0993e+01	6.0957	6.944172	0.000360	3.604751	0.610661	0.000036
 615	6.1093e+01	6.1065	6.978796	0.000348	3.481862	0.589843	0.000035
 616	6.1193e+01	6.1169	7.015457	0.000369	3.686678	0.624540	0.000037
 617	6.1292e+01	6.1250	7.056191	0.000410	4.096308	0.693933	0.000041
 618	6.1392e+01	6.1336	7.092445	0.000365	3.645715	0.617601	0.000036
 619	6.1491e+01	6.1465	7.127476	0.000352	3.522825	0.596783	0.000035
 620	6.1590e+01	6.1552	7.166989	0.000397	3.973419	0.673115	0.000040
 621	6.1690e+01	6.1660	7.200391	0.000336	3.358973	0.569025	0.000034
 622	6.1789e+01	6.1768	7.236644	0.000365	3.645715	0.617601	0.000036
 623	6.1889e+01	6.1852	7.274120	0.000377	3.768604	0.638419	0.000038
 624	6.1989e+01	6.1964	7.309151	0.000352	3.522825	0.596783	0.000035
 625	6.2088e+01	6.2029	7.343368	0.000344	3.440899	0.582904	0.000034
 626	6.2188e+01	6.2140	7.382473	0.000393	3.932456	0.666176	0.000039
 627	6.2287e+01	6.2264	7.420356	0.000381	3.809567	0.645358	0.000038
 628	6.2386e+01	6.2339	7.456202	0.000360	3.604751	0.610661	0.000036
 629	6.2486e+01	6.2463	7.491641	0.000356	3.563788	0.603722	0.000036
 630	6.2586e+01	6.2545	7.529116	0.000377	3.768604	0.638419	0.000038
 631	6.2685e+01	6.2630	7.566999	0.000381	3.809567	0.645358	0.000038
 632	6.2785e+01	6.2736	7.603660	0.000369	3.686678	0.624540	0.000037
 633	6.2884e+01	6.2843	7.637877	0.000344	3.440899	0.582904	0.000034
 634	6.2983e+01	6.2948	7.675759	0.000381	3.809567	0.645358	0.000038
 635	6.3083e+01	6.3038	7.706717	0.000311	3.113194	0.527389	0.000031
 636	6.3182e+01	6.3129	7.742156	0.000356	3.563788	0.603722	0.000036
 637	6.3282e+01	6.3224	7.778002	0.000360	3.604751	0.610661	0.000036
 638	6.3382e+01	6.3351	7.812626	0.000348	3.481862	0.589843	0.000035
 639	6.3481e+01	6.3432	7.850102	0.000377	3.768604	0.638419	0.000038
 640	6.3581e+01	6.3542	7.890836	0.000410	4.096308	0.693933	0.000041
 641	6.3680e+01	6.3647	7.923424	0.000328	3.277047	0.555147	0.000033
 642	6.3779e+01	6.3744	7.956826	0.000336	3.358973	0.569025	0.000034
 643	6.3879e+01	6.3851	7.990635	0.000340	3.399936	0.575965	0.000034
 644	6.3978e+01	6.3934	8.029740	0.000393	3.932456	0.666176	0.000039
 645	6.4078e+01	6.4038	8.065179	0.000356	3.563788	0.603722	0.000036
 646	6.4177e+01	6.4136	8.099803	0.000348	3.481862	0.589843	0.000035
 647	6.4277e+01	6.4248	8.136464	0.000369	3.686678	0.624540	0.000037
 648	6.4376e+01	6.4338	8.175161	0.000389	3.891493	0.659237	0.000039
 649	6.4476e+01	6.4420	8.211822	0.000369	3.686678	0.624540	0.000037
 650	6.4576e+01	6.4529	8.248890	0.000373	3.727641	0.631479	0.000037
 651	6.4675e+01	6.4634	8.284329	0.000356	3.563788	0.603722	0.000036
 652	6.4775e+01	6.4736	8.321805	0.000377	3.768604	0.638419	0.000038
 653	6.4874e+01	6.4830	8.351948	0.000303	3.031268	0.513511	0.000030
 654	6.4974e+01	6.4918	8.389424	0.000377	3.768604	0.638419	0.000038
 655	6.5073e+01	6.5038	8.426492	0.000373	3.727641	0.631479	0.000037
 656	6.5172e+01	6.5121	8.460301	0.000340	3.399936	0.575965	0.000034
 657	6.5272e+01	6.5199	8.496555	0.000365	3.645715	0.617601	0.000036
 658	6.5371e+01	6.5332	8.532808	0.000365	3.645715	0.617601	0.000036
 659	6.5471e+01	6.5435	8.566210	0.000336	3.358973	0.569025	0.000034
 660	6.5570e+01	6.5530	8.596761	0.000307	3.072231	0.520450	0.000031
 661	6.5670e+01	6.5649	8.635866	0.000393	3.932456	0.666176	0.000039
 662	6.5769e+01	6.5710	8.674971	0.000393	3.932456	0.666176	0.000039
 663	6.5869e+01	6.5852	8.709595	0.000348	3.481862	0.589843	0.000035
 664	6.5969e+01	6.5932	8.742182	0.000328	3.277047	0.555147	0.000033
 665	6.6068e+01	6.6036	8.776806	0.000348	3.481862	0.589843	0.000035
 666	6.6168e+01	6.6121	8.811023	0.000344	3.440899	0.582904	0.000034
 667	6.6267e+01	6.6221	8.848091	0.000373	3.727641	0.631479	0.000037
 668	6.6367e+01	6.6335	8.883937	0.000360	3.604751	0.610661	0.000036
 669	6.6466e+01	6.6439	8.918561	0.000348	3.481862	0.589843	0.000035
 670	6.6566e+01	6.6542	8.954408	0.000360	3.604751	0.610661	0.000036
 671	6.6665e+01	6.6634	8.990661	0.000365	3.645715	0.617601	0.000036
 672	6.6764e+01	6.6705	9.025285	0.000348	3.481862	0.589843	0.000035
 673	6.6864e+01	6.6824	9.059502	0.000344	3.440899	0.582904	0.000034
 674	6.6963e+01	6.6901	9.099829	0.000406	4.055345	0.686994	0.000041
 675	6.7063e+01	6.7025	9.132416	0.000328	3.277047	0.555147	0.000033
 676	6.7162e+01	6.7130	9.169485	0.000373	3.727641	0.631479	0.000037
 677	6.7262e+01	6.7210	9.208997	0.000397	3.973419	0.673115	0.000040
 678	6.7362e+01	6.7312	9.243214	0.000344	3.440899	0.582904	0.000034
 679	6.7461e+01	6.7413	9.278652	0.000356	3.563788	0.603722	0.000036
 680	6.7561e+01	6.7510	9.315720	0.000373	3.727641	0.631479	0.000037
 681	6.7660e+01	6.7590	9.348308	0.000328	3.277047	0.555147	0.000033
 682	6.7760e+01	6.7711	9.387005	0.000389	3.891493	0.659237	0.000039
 683	6.7859e+01	6.7812	9.417963	0.000311	3.113194	0.527389	0.000031
 684	6.7959e+01	6.7911	9.453402	0.000356	3.563788	0.603722	0.000036
 685	6.8058e+01	6.8023	9.489248	0.000360	3.604751	0.610661	0.000036
 686	6.8157e+01	6.8119	9.520614	0.000315	3.154158	0.534329	0.000032
 687	6.8257e+01	6.8217	9.558089	0.000377	3.768604	0.638419	0.000038
 688	6.8356e+01	6.8311	9.591899	0.000340	3.399936	0.575965	0.000034
 689	6.8456e+01	6.8422	9.629782	0.000381	3.809567	0.645358	0.000038
 690	6.8555e+01	6.8507	9.660740	0.000311	3.113194	0.527389	0.000031
 691	6.8655e+01	6.8626	9.699437	0.000389	3.891493	0.659237	0.000039
 692	6.8754e+01	6.8713	9.735283	0.000360	3.604751	0.610661	0.000036
 693	6.8854e+01	6.8799	9.763390	0.000283	2.826453	0.478814	0.000028
 694	6.8954e+01	6.8917	9.799643	0.000365	3.645715	0.617601	0.000036
 695	6.9053e+01	6.9002	9.835490	0.000360	3.604751	0.610661	0.000036
 696	6.9153e+01	6.9102	9.869299	0.000340	3.399936	0.575965	0.000034
 697	6.9252e+01	6.9225	9.896998	0.000279	2.785490	0.471875	0.000028
 698	6.9352e+01	6.9301	9.935289	0.000385	3.850530	0.652297	0.000038
 699	6.9451e+01	6.9406	9.968283	0.000332	3.318010	0.562086	0.000033
 700	6.9550e+01	6.9512	10.004129	0.000360	3.604751	0.610661	0.000036
 701	6.9650e+01	6.9592	10.037531	0.000336	3.358973	0.569025	0.000034
 702	6.9749e+01	6.9704	10.070934	0.000336	3.358973	0.569025	0.000034
 703	6.9849e+01	6.9824	10.107594	0.000369	3.686678	0.624540	0.000037
 704	6.9948e+01	6.9904	10.142219	0.000348	3.481862	0.589843	0.000035
 705	7.0048e+01	6.9990	10.170732	0.000287	2.867416	0.485753	0.000029
 706	7.0147e+01	7.0105	10.210245	0.000397	3.973419	0.673115	0.000040
 707	7.0247e+01	7.0220	10.241203	0.000311	3.113194	0.527389	0.000031
 708	7.0347e+01	7.0300	10.277864	0.000369	3.686678	0.624540	0.000037
 709	7.0446e+01	7.0400	10.314524	0.000369	3.686678	0.624540	0.000037
 710	7.0546e+01	7.0497	10.347927	0.000336	3.358973	0.569025	0.000034
 711	7.0645e+01	7.0626	10.382551	0.000348	3.481862	0.589843	0.000035
 712	7.0745e+01	7.0699	10.418804	0.000365	3.645715	0.617601	0.000036
 713	7.0844e+01	7.0802	10.453021	0.000344	3.440899	0.582904	0.000034
 714	7.0944e+01	7.0903	10.483572	0.000307	3.072231	0.520450	0.000031
 715	7.1043e+01	7.1008	10.521454	0.000381	3.809567	0.645358	0.000038
 716	7.1142e+01	7.1072	10.551598	0.000303	3.031268	0.513511	0.000030
 717	7.1242e+01	7.1190	10.589888	0.000385	3.850530	0.652297	0.000038
 718	7.1341e+01	7.1294	10.622068	0.000324	3.236084	0.548207	0.000032
 719	7.1441e+01	7.1392	10.656692	0.000348	3.481862	0.589843	0.000035
 720	7.1540e+01	7.1499	10.689280	0.000328	3.277047	0.555147	0.000033
 721	7.1640e+01	7.1577	10.725533	0.000365	3.645715	0.617601	0.000036
 722	7.1740e+01	7.1679	10.757306	0.000320	3.195121	0.541268	0.000032
 723	7.1839e+01	7.1792	10.794374	0.000373	3.727641	0.631479	0.000037
 724	7.1939e+01	7.1889	10.827776	0.000336	3.358973	0.569025	0.000034
 725	7.2038e+01	7.1995	10.859956	0.000324	3.236084	0.548207	0.000032
 726	7.2138e+01	7.2097	10.892951	0.000332	3.318010	0.562086	0.000033
 727	7.2237e+01	7.2189	10.930834	0.000381	3.809567	0.645358	0.000038
 728	7.2337e+01	7.2286	10.965050	0.000344	3.440899	0.582904	0.000034
 729	7.2436e+01	7.2375	10.999267	0.000344	3.440899	0.582904	0.000034
 730	7.2535e+01	7.2503	11.031040	0.000320	3.195121	0.541268	0.000032
 731	7.2635e+01	7.2610	11.063627	0.000328	3.277047	0.555147	0.000033
 732	7.2734e+01	7.2694	11.095807	0.000324	3.236084	0.548207	0.000032
 733	7.2834e+01	7.2786	11.130839	0.000352	3.522825	0.596783	0.000035
 734	7.2933e+01	7.2890	11.168314	0.000377	3.768604	0.638419	0.000038
 735	7.3033e+01	7.2988	11.196828	0.000287	2.867416	0.485753	0.000029
 736	7.3132e+01	7.3084	11.235119	0.000385	3.850530	0.652297	0.000038
 737	7.3232e+01	7.3215	11.269335	0.000344	3.440899	0.582904	0.000034
 738	7.3332e+01	7.3283	11.302330	0.000332	3.318010	0.562086	0.000033
 739	7.3431e+01	7.3409	11.337362	0.000352	3.522825	0.596783	0.000035
 740	7.3531e+01	7.3473	11.369542	0.000324	3.236084	0.548207	0.000032
 741	7.3630e+01	7.3588	11.406202	0.000369	3.686678	0.624540	0.000037
 742	7.3730e+01	7.3687	11.441641	0.000356	3.563788	0.603722	0.000036
 743	7.3829e+01	7.3804	11.472192	0.000307	3.072231	0.520450	0.000031
 744	7.3928e+01	7.3867	11.506816	0.000348	3.481862	0.589843	0.000035
 745	7.4028e+01	7.3975	11.536552	0.000299	2.990305	0.506571	0.000030
 746	7.4127e+01	7.4066	11.572806	0.000365	3.645715	0.617601	0.000036
 747	7.4227e+01	7.4206	11.607837	0.000352	3.522825	0.596783	0.000035
 748	7.4326e+01	7.4273	11.641239	0.000336	3.358973	0.569025	0.000034
 749	7.4426e+01	7.4378	11.673827	0.000328	3.277047	0.555147	0.000033
 750	7.4525e+01	7.4491	11.708451	0.000348	3.481862	0.589843	0.000035
 751	7.4625e+01	7.4575	11.745519	0.000373	3.727641	0.631479	0.000037
 752	7.4725e+01	7.4684	11.776477	0.000311	3.113194	0.527389	0.000031
 753	7.4824e+01	7.4776	11.807842	0.000315	3.154158	0.534329	0.000032
 754	7.4924e+01	7.4862	11.843281	0.000356	3.563788	0.603722	0.000036
 755	7.5023e+01	7.4968	11.882793	0.000397	3.973419	0.673115	0.000040
 756	7.5123e+01	7.5092	11.909271	0.000266	2.662600	0.451057	0.000027
 757	7.5222e+01	7.5176	11.946746	0.000377	3.768604	0.638419	0.000038
 758	7.5322e+01	7.5293	11.979741	0.000332	3.318010	0.562086	0.000033
 759	7.5421e+01	7.5376	12.014365	0.000348	3.481862	0.589843	0.000035
 760	7.5520e+01	7.5479	12.043286	0.000291	2.908379	0.492693	0.000029
 761	7.5620e+01	7.5595	12.079132	0.000360	3.604751	0.610661	0.000036
 762	7.5719e+01	7.5668	12.113756	0.000348	3.481862	0.589843	0.000035
 763	7.5819e+01	7.5781	12.140234	0.000266	2.662600	0.451057	0.000027
 764	7.5918e+01	7.5872	12.174043	0.000340	3.399936	0.575965	0.000034
 765	7.6018e+01	7.5958	12.208667	0.000348	3.481862	0.589843	0.000035
 766	7.6118e+01	7.6086	12.242884	0.000344	3.440899	0.582904	0.000034
 767	7.6217e+01	7.6172	12.276693	0.000340	3.399936	0.575965	0.000034
 768	7.6317e+01	7.6264	12.308466	0.000320	3.195121	0.541268	0.000032
 769	7.6416e+01	7.6362	12.343090	0.000348	3.481862	0.589843	0.000035
 770	7.6516e+01	7.6460	12.375270	0.000324	3.236084	0.548207	0.000032
 771	7.6615e+01	7.6583	12.408265	0.000332	3.318010	0.562086	0.000033
 772	7.6715e+01	7.6674	12.443704	0.000356	3.563788	0.603722	0.000036
 773	7.6814e+01	7.6723	12.470996	0.000274	2.744527	0.464935	0.000027
 774	7.6913e+01	7.6875	12.504398	0.000336	3.358973	0.569025	0.000034
 775	7.7013e+01	7.6963	12.537393	0.000332	3.318010	0.562086	0.000033
 776	7.7112e+01	7.7052	12.577720	0.000406	4.055345	0.686994	0.000041
 777	7.7212e+01	7.7174	12.610307	0.000328	3.277047	0.555147	0.000033
 778	7.7311e+01	7.7262	12.642080	0.000320	3.195121	0.541268	0.000032
 779	7.7411e+01	7.7372	12.681185	0.000393	3.932456	0.666176	0.000039
 780	7.7510e+01	7.7494	12.714994	0.000340	3.399936	0.575965	0.000034
 781	7.7610e+01	7.7576	12.751655	0.000369	3.686678	0.624540	0.000037
 782	7.7710e+01	7.7686	12.780576	0.000291	2.908379	0.492693	0.000029
 783	7.7809e+01	7.7769	12.817237	0.000369	3.686678	0.624540	0.000037
 784	7.7909e+01	7.7868	12.849417	0.000324	3.236084	0.548207	0.000032
 785	7.8008e+01	7.7962	12.880375	0.000311	3.113194	0.527389	0.000031
 786	7.8108e+01	7.8076	12.916629	0.000365	3.645715	0.617601	0.000036
 787	7.8207e+01	7.8174	12.950845	0.000344	3.440899	0.582904	0.000034
 788	7.8306e+01	7.8252	12.985470	0.000348	3.481862	0.589843	0.000035
 789	7.8406e+01	7.8382	13.017242	0.000320	3.195121	0.541268	0.000032
 790	7.8505e+01	7.8442	13.050237	0.000332	3.318010	0.562086	0.000033
 791	7.8605e+01	7.8568	13.083232	0.000332	3.318010	0.562086	0.000033
 792	7.8704e+01	7.8635	13.117449	0.000344	3.440899	0.582904	0.000034
 793	7.8804e+01	7.8761	13.151258	0.000340	3.399936	0.575965	0.000034
 794	7.8903e+01	7.8841	13.186697	0.000356	3.563788	0.603722	0.000036
 795	7.9003e+01	7.8951	13.216433	0.000299	2.990305	0.506571	0.000030
 796	7.9103e+01	7.9063	13.251057	0.000348	3.481862	0.589843	0.000035
 797	7.9202e+01	7.9162	13.283237	0.000324	3.236084	0.548207	0.000032
 798	7.9302e+01	7.9252	13.314195	0.000311	3.113194	0.527389	0.000031
 799	7.9401e+01	7.9349	13.350448	0.000365	3.645715	0.617601	0.000036
 800	7.9501e+01	7.9443	13.385480	0.000352	3.522825	0.596783	0.000035
 801	7.9600e+01	7.9566	13.416438	0.000311	3.113194	0.527389	0.000031
 802	7.9700e+01	7.9626	13.448618	0.000324	3.236084	0.548207	0.000032
 803	7.9799e+01	7.9781	13.480798	0.000324	3.236084	0.548207	0.000032
 804	7.9898e+01	7.9858	13.513793	0.000332	3.318010	0.562086	0.000033
 805	7.9998e+01	7.9934	13.548010	0.000344	3.440899	0.582904	0.000034
 806	8.0097e+01	8.0063	13.579782	0.000320	3.195121	0.541268	0.000032
 807	8.0197e+01	8.0137	13.614814	0.000352	3.522825	0.596783	0.000035
 808	8.0296e+01	8.0250	13.647809	0.000332	3.318010	0.562086	0.000033
 809	8.0396e+01	8.0367	13.679581	0.000320	3.195121	0.541268	0.000032
 810	8.0496e+01	8.0434	13.711354	0.000320	3.195121	0.541268	0.000032
 811	8.0595e+01	8.0528	13.746385	0.000352	3.522825	0.596783	0.000035
 812	8.0695e+01	8.0643	13.777751	0.000315	3.154158	0.534329	0.000032
 813	8.0794e+01	8.0753	13.814004	0.000365	3.645715	0.617601	0.000036
 814	8.0894e+01	8.0861	13.846184	0.000324	3.236084	0.548207	0.000032
 815	8.0993e+01	8.0948	13.877550	0.000315	3.154158	0.534329	0.000032
 816	8.1093e+01	8.1043	13.910544	0.000332	3.318010	0.562086	0.000033
 817	8.1192e+01	8.1150	13.945983	0.000356	3.563788	0.603722	0.000036
 818	8.1291e+01	8.1234	13.977756	0.000320	3.195121	0.541268	0.000032
 819	8.1391e+01	8.1382	14.011158	0.000336	3.358973	0.569025	0.000034
 820	8.1490e+01	8.1448	14.038857	0.000279	2.785490	0.471875	0.000028
 821	8.1590e+01	8.1585	14.073074	0.000344	3.440899	0.582904	0.000034
 822	8.1689e+01	8.1655	14.107291	0.000344	3.440899	0.582904	0.000034
 823	8.1789e+01	8.1765	14.137434	0.000303	3.031268	0.513511	0.000030
 824	8.1888e+01	8.1847	14.172873	0.000356	3.563788	0.603722	0.000036
 825	8.1988e+01	8.1940	14.203424	0.000307	3.072231	0.520450	0.000031
 826	8.2088e+01	8.2018	14.239677	0.000365	3.645715	0.617601	0.000036
 827	8.2187e+01	8.2137	14.272672	0.000332	3.318010	0.562086	0.000033
 828	8.2287e+01	8.2227	14.301186	0.000287	2.867416	0.485753	0.000029
 829	8.2386e+01	8.2344	14.338254	0.000373	3.727641	0.631479	0.000037
 830	8.2486e+01	8.2431	14.368397	0.000303	3.031268	0.513511	0.000030
 831	8.2585e+01	8.2542	14.401392	0.000332	3.318010	0.562086	0.000033
 832	8.2684e+01	8.2634	14.436831	0.000356	3.563788	0.603722	0.000036
 833	8.2784e+01	8.2749	14.468196	0.000315	3.154158	0.534329	0.000032
 834	8.2883e+01	8.2853	14.501599	0.000336	3.358973	0.569025	0.000034
 835	8.2983e+01	8.2945	14.530520	0.000291	2.908379	0.492693	0.000029
 836	8.3082e+01	8.3032	14.566366	0.000360	3.604751	0.610661	0.000036
 837	8.3182e+01	8.3122	14.598953	0.000328	3.277047	0.555147	0.000033
 838	8.3281e+01	8.3247	14.629911	0.000311	3.113194	0.527389	0.000031
 839	8.3381e+01	8.3337	14.660462	0.000307	3.072231	0.520450	0.000031
 840	8.3481e+01	8.3458	14.693050	0.000328	3.277047	0.555147	0.000033
 841	8.3580e+01	8.3533	14.733376	0.000406	4.055345	0.686994	0.000041
 842	8.3680e+01	8.3627	14.761076	0.000279	2.785490	0.471875	0.000028
 843	8.3779e+01	8.3740	14.792848	0.000320	3.195121	0.541268	0.000032
 844	8.3879e+01	8.3838	14.827473	0.000348	3.481862	0.589843	0.000035
 845	8.3978e+01	8.3926	14.863319	0.000360	3.604751	0.610661	0.000036
 846	8.4078e+01	8.4033	14.897535	0.000344	3.440899	0.582904	0.000034
 847	8.4177e+01	8.4145	14.929716	0.000324	3.236084	0.548207	0.000032
 848	8.4276e+01	8.4215	14.964747	0.000352	3.522825	0.596783	0.000035
 849	8.4376e+01	8.4326	14.994483	0.000299	2.990305	0.506571	0.000030
 850	8.4475e+01	8.4440	15.027070	0.000328	3.277047	0.555147	0.000033
 851	8.4575e+01	8.4532	15.059250	0.000324	3.236084	0.548207	0.000032
 852	8.4674e+01	8.4622	15.093467	0.000344	3.440899	0.582904	0.000034
 853	8.4774e+01	8.4724	15.126055	0.000328	3.277047	0.555147	0.000033
 854	8.4874e+01	8.4836	15.154976	0.000291	2.908379	0.492693	0.000029
 855	8.4973e+01	8.4904	15.192044	0.000373	3.727641	0.631479	0.000037
 856	8.5073e+01	8.5023	15.223410	0.000315	3.154158	0.534329	0.000032
 857	8.5172e+01	8.5140	15.253146	0.000299	2.990305	0.506571	0.000030
 858	8.5272e+01	8.5218	15.287770	0.000348	3.481862	0.589843	0.000035
 859	8.5371e+01	8.5329	15.316284	0.000287	2.867416	0.485753	0.000029
 860	8.5471e+01	8.5410	15.351315	0.000352	3.522825	0.596783	0.000035
 861	8.5570e+01	8.5547	15.381051	0.000299	2.990305	0.506571	0.000030
 862	8.5669e+01	8.5635	15.414861	0.000340	3.399936	0.575965	0.000034
 863	8.5769e+01	8.5709	15.444189	0.000295	2.949342	0.499632	0.000029
 864	8.5868e+01	8.5833	15.475962	0.000320	3.195121	0.541268	0.000032
 865	8.5968e+01	8.5941	15.509771	0.000340	3.399936	0.575965	0.000034
 866	8.6067e+01	8.6015	15.537063	0.000274	2.744527	0.464935	0.000027
 867	8.6167e+01	8.6133	15.568021	0.000311	3.113194	0.527389	0.000031
 868	8.6266e+01	8.6197	15.601016	0.000332	3.318010	0.562086	0.000033
 869	8.6366e+01	8.6331	15.631974	0.000311	3.113194	0.527389	0.000031
 870	8.6466e+01	8.6436	15.667413	0.000356	3.563788	0.603722	0.000036
 871	8.6565e+01	8.6520	15.695520	0.000283	2.826453	0.478814	0.000028
 872	8.6665e+01	8.6607	15.729736	0.000344	3.440899	0.582904	0.000034
 873	8.6764e+01	8.6719	15.761509	0.000320	3.195121	0.541268	0.000032
 874	8.6864e+01	8.6826	15.792874	0.000315	3.154158	0.534329	0.000032
 875	8.6963e+01	8.6932	15.826276	0.000336	3.358973	0.569025	0.000034
 876	8.7063e+01	8.7021	15.858457	0.000324	3.236084	0.548207	0.000032
 877	8.7162e+01	8.7113	15.889822	0.000315	3.154158	0.534329	0.000032
 878	8.7261e+01	8.7225	15.921187	0.000315	3.154158	0.534329	0.000032
 879	8.7361e+01	8.7321	15.955811	0.000348	3.481862	0.589843	0.000035
 880	8.7460e+01	8.7437	15.988399	0.000328	3.277047	0.555147	0.000033
 881	8.7560e+01	8.7519	16.020172	0.000320	3.195121	0.541268	0.000032
 882	8.7659e+01	8.7640	16.051130	0.000311	3.113194	0.527389	0.000031
 883	8.7759e+01	8.7723	16.081273	0.000303	3.031268	0.513511	0.000030
 884	8.7859e+01	8.7798	16.113453	0.000324	3.236084	0.548207	0.000032
 885	8.7958e+01	8.7902	16.146040	0.000328	3.277047	0.555147	0.000033
 886	8.8058e+01	8.7992	16.178220	0.000324	3.236084	0.548207	0.000032
 887	8.8157e+01	8.8102	16.210401	0.000324	3.236084	0.548207	0.000032
 888	8.8257e+01	8.8217	16.246247	0.000360	3.604751	0.610661	0.000036
 889	8.8356e+01	8.8322	16.274761	0.000287	2.867416	0.485753	0.000029
 890	8.8456e+01	8.8419	16.305719	0.000311	3.113194	0.527389	0.000031
 891	8.8555e+01	8.8490	16.337084	0.000315	3.154158	0.534329	0.000032
 892	8.8654e+01	8.8588	16.371708	0.000348	3.481862	0.589843	0.000035
 893	8.8754e+01	8.8686	16.401444	0.000299	2.990305	0.506571	0.000030
 894	8.8853e+01	8.8789	16.436883	0.000356	3.563788	0.603722	0.000036
 895	8.8953e+01	8.8908	16.467841	0.000311	3.113194	0.527389	0.000031
 896	8.9052e+01	8.9034	16.497984	0.000303	3.031268	0.513511	0.000030
 897	8.9152e+01	8.9111	16.528128	0.000303	3.031268	0.513511	0.000030
 898	8.9251e+01	8.9194	16.560308	0.000324	3.236084	0.548207	0.000032
 899	8.9351e+01	8.9314	16.592080	0.000320	3.195121	0.541268	0.000032
 900	8.9451e+01	8.9389	16.621816	0.000299	2.990305	0.506571	0.000030
 901	8.9550e+01	8.9474	16.655219	0.000336	3.358973	0.569025	0.000034
 902	8.9650e+01	8.9607	16.686584	0.000315	3.154158	0.534329	0.000032
 903	8.9749e+01	8.9691	16.715913	0.000295	2.949342	0.499632	0.000029
 904	8.9849e+01	8.9799	16.751759	0.000360	3.604751	0.610661	0.000036
 905	8.9948e+01	8.9922	16.785976	0.000344	3.440899	0.582904	0.000034
 906	9.0047e+01	9.0012	16.815304	0.000295	2.949342	0.499632	0.000029
 907	9.0147e+01	9.0092	16.851150	0.000360	3.604751	0.610661	0.000036
 908	9.0246e+01	9.0205	16.882108	0.000311	3.113194	0.527389	0.000031
 909	9.0346e+01	9.0302	16.916732	0.000348	3.481862	0.589843	0.000035
 910	9.0445e+01	9.0408	16.943617	0.000270	2.703564	0.457996	0.000027
 911	9.0545e+01	9.0488	16.981500	0.000381	3.809567	0.645358	0.000038
 912	9.0644e+01	9.0604	17.010421	0.000291	2.908379	0.492693	0.000029
 913	9.0744e+01	9.0693	17.041379	0.000311	3.113194	0.527389	0.000031
 914	9.0844e+01	9.0808	17.071930	0.000307	3.072231	0.520450	0.000031
 915	9.0943e+01	9.0923	17.105332	0.000336	3.358973	0.569025	0.000034
 916	9.1043e+01	9.0973	17.136697	0.000315	3.154158	0.534329	0.000032
 917	9.1142e+01	9.1071	17.168878	0.000324	3.236084	0.548207	0.000032
 918	9.1242e+01	9.1178	17.199836	0.000311	3.113194	0.527389	0.000031
 919	9.1341e+01	9.1273	17.232016	0.000324	3.236084	0.548207	0.000032
 920	9.1441e+01	9.1406	17.269491	0.000377	3.768604	0.638419	0.000038
 921	9.1540e+01	9.1504	17.301264	0.000320	3.195121	0.541268	0.000032
 922	9.1639e+01	9.1577	17.329370	0.000283	2.826453	0.478814	0.000028
 923	9.1739e+01	9.1674	17.358292	0.000291	2.908379	0.492693	0.000029
 924	9.1838e+01	9.1776	17.394953	0.000369	3.686678	0.624540	0.000037
 925	9.1938e+01	9.1888	17.424281	0.000295	2.949342	0.499632	0.000029
 926	9.2037e+01	9.1992	17.459720	0.000356	3.563788	0.603722	0.000036
 927	9.2137e+01	9.2068	17.487012	0.000274	2.744527	0.464935	0.000027
 928	9.2237e+01	9.2173	17.520821	0.000340	3.399936	0.575965	0.000034
 929	9.2336e+01	9.2285	17.551372	0.000307	3.072231	0.520450	0.000031
 930	9.2436e+01	9.2389	17.582330	0.000311	3.113194	0.527389	0.000031
 931	9.2535e+01	9.2483	17.610844	0.000287	2.867416	0.485753	0.000029
 932	9.2635e+01	9.2581	17.643839	0.000332	3.318010	0.562086	0.000033
 933	9.2734e+01	9.2678	17.676426	0.000328	3.277047	0.555147	0.000033
 934	9.2834e+01	9.2774	17.712272	0.000360	3.604751	0.610661	0.000036
 935	9.2933e+01	9.2873	17.743638	0.000315	3.154158	0.534329	0.000032
 936	9.3032e+01	9.2974	17.773374	0.000299	2.990305	0.506571	0.000030
 937	9.3132e+01	9.3080	17.808405	0.000352	3.522825	0.596783	0.000035
 938	9.3231e+01	9.3170	17.840585	0.000324	3.236084	0.548207	0.000032
 939	9.3331e+01	9.3289	17.868285	0.000279	2.785490	0.471875	0.000028
 940	9.3430e+01	9.3378	17.904538	0.000365	3.645715	0.617601	0.000036
 941	9.3530e+01	9.3478	17.931423	0.000270	2.703564	0.457996	0.000027
 942	9.3629e+01	9.3555	17.963196	0.000320	3.195121	0.541268	0.000032
 943	9.3729e+01	9.3659	17.994561	0.000315	3.154158	0.534329	0.000032
 944	9.3829e+01	9.3784	18.033258	0.000389	3.891493	0.659237	0.000039
 945	9.3928e+01	9.3890	18.062994	0.000299	2.990305	0.506571	0.000030
 946	9.4028e+01	9.3974	18.095582	0.000328	3.277047	0.555147	0.000033
 947	9.4127e+01	9.4073	18.129799	0.000344	3.440899	0.582904	0.000034
 948	9.4227e+01	9.4166	18.161979	0.000324	3.236084	0.548207	0.000032
 949	9.4326e+01	9.4267	18.194566	0.000328	3.277047	0.555147	0.000033
 950	9.4425e+01	9.4370	18.232042	0.000377	3.768604	0.638419	0.000038
 951	9.4525e+01	9.4482	18.260963	0.000291	2.908379	0.492693	0.000029
 952	9.4624e+01	9.4559	18.295180	0.000344	3.440899	0.582904	0.000034
 953	9.4724e+01	9.4681	18.328582	0.000336	3.358973	0.569025	0.000034
 954	9.4823e+01	9.4755	18.360762	0.000324	3.236084	0.548207	0.000032
 955	9.4923e+01	9.4873	18.390498	0.000299	2.990305	0.506571	0.000030
 956	9.5022e+01	9.4961	18.426344	0.000360	3.604751	0.610661	0.000036
 957	9.5122e+01	9.5050	18.454858	0.000287	2.867416	0.485753	0.000029
 958	9.5222e+01	9.5166	18.487853	0.000332	3.318010	0.562086	0.000033
 959	9.5321e+01	9.5274	18.522069	0.000344	3.440899	0.582904	0.000034
 960	9.5421e+01	9.5381	18.553028	0.000311	3.113194	0.527389	0.000031
 961	9.5520e+01	9.5465	18.586022	0.000332	3.318010	0.562086	0.000033
 962	9.5620e+01	9.5536	18.619017	0.000332	3.318010	0.562086	0.000033
 963	9.5719e+01	9.5679	18.649160	0.000303	3.031268	0.513511	0.000030
 964	9.5819e+01	9.5760	18.681340	0.000324	3.236084	0.548207	0.000032
 965	9.5918e+01	9.5853	18.711076	0.000299	2.990305	0.506571	0.000030
 966	9.6017e+01	9.5963	18.748145	0.000373	3.727641	0.631479	0.000037
 967	9.6117e+01	9.6101	18.776659	0.000287	2.867416	0.485753	0.000029
 968	9.6216e+01	9.6134	18.812097	0.000356	3.563788	0.603722	0.000036
 969	9.6316e+01	9.6268	18.845907	0.000340	3.399936	0.575965	0.000034
 970	9.6415e+01	9.6371	18.876458	0.000307	3.072231	0.520450	0.000031
 971	9.6515e+01	9.6471	18.904564	0.000283	2.826453	0.478814	0.000028
 972	9.6615e+01	9.6542	18.940003	0.000356	3.563788	0.603722	0.000036
 973	9.6714e+01	9.6650	18.973812	0.000340	3.399936	0.575965	0.000034
 974	9.6814e+01	9.6753	19.004770	0.000311	3.113194	0.527389	0.000031
 975	9.6913e+01	9.6853	19.041024	0.000365	3.645715	0.617601	0.000036
 976	9.7013e+01	9.6946	19.070760	0.000299	2.990305	0.506571	0.000030
 977	9.7112e+01	9.7059	19.103755	0.000332	3.318010	0.562086	0.000033
 978	9.7212e+01	9.7168	19.135935	0.000324	3.236084	0.548207	0.000032
 979	9.7311e+01	9.7272	19.164041	0.000283	2.826453	0.478814	0.000028
 980	9.7410e+01	9.7351	19.199480	0.000356	3.563788	0.603722	0.000036
 981	9.7510e+01	9.7461	19.232475	0.000332	3.318010	0.562086	0.000033
 982	9.7609e+01	9.7546	19.267099	0.000348	3.481862	0.589843	0.000035
 983	9.7709e+01	9.7644	19.298464	0.000315	3.154158	0.534329	0.000032
 984	9.7808e+01	9.7766	19.334311	0.000360	3.604751	0.610661	0.000036
 985	9.7908e+01	9.7870	19.363639	0.000295	2.949342	0.499632	0.000029
 986	9.8007e+01	9.7949	19.394190	0.000307	3.072231	0.520450	0.000031
 987	9.8107e+01	9.8067	19.425555	0.000315	3.154158	0.534329	0.000032
 988	9.8207e+01	9.8157	19.457328	0.000320	3.195121	0.541268	0.000032
 989	9.8306e+01	9.8283	19.494396	0.000373	3.727641	0.631479	0.000037
 990	9.8406e+01	9.8369	19.524540	0.000303	3.031268	0.513511	0.000030
 991	9.8505e+01	9.8473	19.555905	0.000315	3.154158	0.534329	0.000032
 992	9.8605e+01	9.8550	19.588085	0.000324	3.236084	0.548207	0.000032
 993	9.8704e+01	9.8661	19.618228	0.000303	3.031268	0.513511	0.000030
 994	9.8803e+01	9.8739	19.650816	0.000328	3.277047	0.555147	0.000033
 995	9.8903e+01	9.8856	19.685440	0.000348	3.481862	0.589843	0.000035
 996	9.9002e+01	9.8957	19.720064	0.000348	3.481862	0.589843	0.000035
 997	9.9102e+01	9.9072	19.753466	0.000336	3.358973	0.569025	0.000034
 998	9.9201e+01	9.9129	19.784831	0.000315	3.154158	0.534329	0.000032
 999	9.9301e+01	9.9219	19.817419	0.000328	3.277047	0.555147	0.000033
1000	9.9400e+01	9.9332	19.851228	0.000340	3.399936	0.575965	0.000034
1001	9.9500e+01	9.9448	19.882186	0.000311	3.113194	0.527389	0.000031
1002	9.9600e+01	9.9538	19.916810	0.000348	3.481862	0.589843	0.000035
1003	9.9699e+01	9.9650	19.948583	0.000320	3.195121	0.541268	0.000032
1004	9.9799e+01	9.9744	19.977504	0.000291	2.908379	0.492693	0.000029
1005	9.9898e+01	9.9854	20.012536	0.000352	3.522825	0.596783	0.000035
1006	9.9998e+01	9.9920	20.044309	0.000320	3.195121	0.541268	0.000032
1007	1.0010e+02	9.9854	20.028015	0.000164	1.638523	0.277573	-0.000016
1008	1.0020e+02	9.9756	20.011314	0.000168	1.679486	0.284513	-0.000017
1009	1.0030e+02	9.9660	19.994205	0.000172	1.720450	0.291452	-0.000017
1010	1.0040e+02	9.9561	19.975060	0.000193	1.925265	0.326149	-0.000019
1011	1.0050e+02	9.9470	19.959581	0.000156	1.556597	0.263695	-0.000016
1012	1.0059e+02	9.9353	19.938807	0.000209	2.089117	0.353906	-0.000021
1013	1.0069e+02	9.9249	19.926179	0.000127	1.269856	0.215119	-0.000013
1014	1.0079e+02	9.9136	19.904183	0.000221	2.212007	0.374724	-0.000022
1015	1.0089e+02	9.9055	19.887074	0.000172	1.720450	0.291452	-0.000017
1016	1.0099e+02	9.8926	19.866707	0.000205	2.048154	0.346967	-0.000020
1017	1.0109e+02	9.8868	19.846340	0.000205	2.048154	0.346967	-0.000020
1018	1.0119e+02	9.8755	19.823529	0.000229	2.293933	0.388603	-0.000023
1019	1.0129e+02	9.8647	19.804791	0.000188	1.884302	0.319209	-0.000019
1020	1.0139e+02	9.8539	19.780351	0.000246	2.457785	0.416360	-0.000025
1021	1.0149e+02	9.8450	19.760391	0.000201	2.007191	0.340027	-0.000020
1022	1.0159e+02	9.8323	19.739616	0.000209	2.089117	0.353906	-0.000021
1023	1.0169e+02	9.8251	19.723323	0.000164	1.638523	0.277573	-0.000016
1024	1.0179e+02	9.8136	19.699697	0.000238	2.375859	0.402481	-0.000024
1025	1.0189e+02	9.8040	19.682181	0.000176	1.761413	0.298391	-0.000018
1026	1.0199e+02	9.7938	19.660592	0.000217	2.171043	0.367785	-0.000022
1027	1.0209e+02	9.7864	19.636151	0.000246	2.457785	0.416360	-0.000025
1028	1.0219e+02	9.7758	19.613340	0.000229	2.293933	0.388603	-0.000023
1029	1.0229e+02	9.7665	19.591344	0.000221	2.212007	0.374724	-0.000022
1030	1.0239e+02	9.7559	19.567310	0.000242	2.416822	0.409421	-0.000024
1031	1.0248e+02	9.7450	19.543685	0.000238	2.375859	0.402481	-0.000024
1032	1.0258e+02	9.7363	19.517207	0.000266	2.662600	0.451057	-0.000027
1033	1.0268e+02	9.7253	19.497248	0.000201	2.007191	0.340027	-0.000020
1034	1.0278e+02	9.7150	19.476066	0.000213	2.130080	0.360845	-0.000021
1035	1.0288e+02	9.7073	19.452033	0.000242	2.416822	0.409421	-0.000024
1036	1.0298e+02	9.6960	19.428814	0.000233	2.334896	0.395542	-0.000023
1037	1.0308e+02	9.6863	19.406003	0.000229	2.293933	0.388603	-0.000023
1038	1.0318e+02	9.6783	19.381562	0.000246	2.457785	0.416360	-0.000025
1039	1.0328e+02	9.6655	19.361602	0.000201	2.007191	0.340027	-0.000020
1040	1.0338e+02	9.6598	19.337977	0.000238	2.375859	0.402481	-0.000024
1041	1.0348e+02	9.6443	19.313943	0.000242	2.416822	0.409421	-0.000024
1042	1.0358e+02	9.6364	19.286244	0.000279	2.785490	0.471875	-0.000028
1043	1.0368e+02	9.6308	19.266692	0.000197	1.966228	0.333088	-0.000020
1044	1.0378e+02	9.6143	19.245103	0.000217	2.171043	0.367785	-0.000022
1045	1.0388e+02	9.6098	19.220662	0.000246	2.457785	0.416360	-0.000025
1046	1.0398e+02	9.5956	19.197443	0.000233	2.334896	0.395542	-0.000023
1047	1.0408e+02	9.5853	19.173818	0.000238	2.375859	0.402481	-0.000024
1048	1.0418e+02	9.5773	19.152228	0.000217	2.171043	0.367785	-0.000022
1049	1.0428e+02	9.5624	19.127381	0.000250	2.498748	0.423299	-0.000025
1050	1.0438e+02	9.5596	19.105791	0.000217	2.171043	0.367785	-0.000022
1051	1.0447e+02	9.5486	19.083388	0.000225	2.252970	0.381663	-0.000023
1052	1.0457e+02	9.5393	19.059762	0.000238	2.375859	0.402481	-0.000024
1053	1.0467e+02	9.5300	19.032470	0.000274	2.744527	0.464935	-0.000027
1054	1.0477e+02	9.5153	19.007214	0.000254	2.539711	0.430239	-0.000025
1055	1.0487e+02	9.5068	18.986440	0.000209	2.089117	0.353906	-0.000021
1056	1.0497e+02	9.4978	18.958333	0.000283	2.826453	0.478814	-0.000028
1057	1.0507e+02	9.4873	18.936744	0.000217	2.171043	0.367785	-0.000022
1058	1.0517e+02	9.4739	18.913933	0.000229	2.293933	0.388603	-0.000023
1059	1.0527e+02	9.4708	18.886234	0.000279	2.785490	0.471875	-0.000028
1060	1.0537e+02	9.4580	18.863423	0.000229	2.293933	0.388603	-0.000023
1061	1.0547e+02	9.4501	18.838167	0.000254	2.539711	0.430239	-0.000025
1062	1.0557e+02	9.4366	18.814949	0.000233	2.334896	0.395542	-0.000023
1063	1.0567e+02	9.4263	18.793360	0.000217	2.171043	0.367785	-0.000022
1064	1.0577e+02	9.4165	18.766882	0.000266	2.662600	0.451057	-0.000027
1065	1.0587e+02	9.4055	18.742442	0.000246	2.457785	0.416360	-0.000025
1066	1.0597e+02	9.3952	18.715965	0.000266	2.662600	0.451057	-0.000027
1067	1.0607e+02	9.3867	18.693968	0.000221	2.212007	0.374724	-0.000022
1068	1.0617e+02	9.3793	18.667083	0.000270	2.703564	0.457996	-0.000027
1069	1.0627e+02	9.3665	18.643458	0.000238	2.375859	0.402481	-0.000024
1070	1.0637e+02	9.3585	18.621054	0.000225	2.252970	0.381663	-0.000023
1071	1.0647e+02	9.3482	18.596613	0.000246	2.457785	0.416360	-0.000025
1072	1.0656e+02	9.3372	18.568914	0.000279	2.785490	0.471875	-0.000028
1073	1.0666e+02	9.3293	18.541215	0.000279	2.785490	0.471875	-0.000028
1074	1.0676e+02	9.3160	18.517996	0.000233	2.334896	0.395542	-0.000023
1075	1.0686e+02	9.3098	18.494370	0.000238	2.375859	0.402481	-0.000024
1076	1.0696e+02	9.2988	18.469115	0.000254	2.539711	0.430239	-0.000025
1077	1.0706e+02	9.2886	18.442638	0.000266	2.662600	0.451057	-0.000027
1078	1.0716e+02	9.2780	18.420234	0.000225	2.252970	0.381663	-0.000023
1079	1.0726e+02	9.2700	18.390498	0.000299	2.990305	0.506571	-0.000030
1080	1.0736e+02	9.2627	18.368501	0.000221	2.212007	0.374724	-0.000022
1081	1.0746e+02	9.2490	18.339173	0.000295	2.949342	0.499632	-0.000029
1082	1.0756e+02	9.2383	18.319213	0.000201	2.007191	0.340027	-0.000020
1083	1.0766e+02	9.2300	18.291514	0.000279	2.785490	0.471875	-0.000028
1084	1.0776e+02	9.2197	18.268702	0.000229	2.293933	0.388603	-0.000023
1085	1.0786e+02	9.2081	18.246706	0.000221	2.212007	0.374724	-0.000022
1086	1.0796e+02	9.1975	18.220229	0.000266	2.662600	0.451057	-0.000027
1087	1.0806e+02	9.1895	18.189678	0.000307	3.072231	0.520450	-0.000031
1088	1.0816e+02	9.1821	18.166052	0.000238	2.375859	0.402481	-0.000024
1089	1.0826e+02	9.1689	18.142019	0.000242	2.416822	0.409421	-0.000024
1090	1.0836e+02	9.1611	18.114320	0.000279	2.785490	0.471875	-0.000028
1091	1.0845e+02	9.1459	18.089879	0.000246	2.457785	0.416360	-0.000025
1092	1.0855e+02	9.1384	18.061772	0.000283	2.826453	0.478814	-0.000028
1093	1.0865e+02	9.1274	18.036110	0.000258	2.580674	0.437178	-0.000026
1094	1.0875e+02	9.1166	18.011262	0.000250	2.498748	0.423299	-0.000025
1095	1.0885e+02	9.1101	17.985192	0.000262	2.621637	0.444117	-0.000026
1096	1.0895e+02	9.1004	17.955049	0.000303	3.031268	0.513511	-0.000030
1097	1.0905e+02	9.0902	17.929793	0.000254	2.539711	0.430239	-0.000025
1098	1.0915e+02	9.0792	17.903316	0.000266	2.662600	0.451057	-0.000027
1099	1.0925e+02	9.0731	17.877246	0.000262	2.621637	0.444117	-0.000026
1100	1.0935e+02	9.0601	17.850769	0.000266	2.662600	0.451057	-0.000027
1101	1.0945e+02	9.0498	17.827143	0.000238	2.375859	0.402481	-0.000024
1102	1.0955e+02	9.0392	17.799851	0.000274	2.744527	0.464935	-0.000027
1103	1.0965e+02	9.0290	17.772559	0.000274	2.744527	0.464935	-0.000027
1104	1.0975e+02	9.0182	17.749341	0.000233	2.334896	0.395542	-0.000023
1105	1.0985e+02	9.0088	17.724085	0.000254	2.539711	0.430239	-0.000025
1106	1.0995e+02	9.0013	17.693535	0.000307	3.072231	0.520450	-0.000031
1107	1.1005e+02	8.9919	17.672353	0.000213	2.130080	0.360845	-0.000021
1108	1.1015e+02	8.9787	17.642210	0.000303	3.031268	0.513511	-0.000030
1109	1.1025e+02	8.9693	17.614918	0.000274	2.744527	0.464935	-0.000027
1110	1.1035e+02	8.9615	17.589255	0.000258	2.580674	0.437178	-0.000026
1111	1.1044e+02	8.9487	17.561963	0.000274	2.744527	0.464935	-0.000027
1112	1.1054e+02	8.9401	17.537115	0.000250	2.498748	0.423299	-0.000025
1113	1.1064e+02	8.9315	17.514711	0.000225	2.252970	0.381663	-0.000023
1114	1.1074e+02	8.9213	17.484568	0.000303	3.031268	0.513511	-0.000030
1115	1.1084e+02	8.9097	17.464201	0.000205	2.048154	0.346967	-0.000020
1116	1.1094e+02	8.9014	17.438538	0.000258	2.580674	0.437178	-0.000026
1117	1.1104e+02	8.8908	17.413283	0.000254	2.539711	0.430239	-0.000025
1118	1.1114e+02	8.8770	17.388843	0.000246	2.457785	0.416360	-0.000025
1119	1.1124e+02	8.8700	17.361958	0.000270	2.703564	0.457996	-0.000027
1120	1.1134e+02	8.8568	17.334666	0.000274	2.744527	0.464935	-0.000027
1121	1.1144e+02	8.8496	17.308596	0.000262	2.621637	0.444117	-0.000026
1122	1.1154e+02	8.8390	17.280897	0.000279	2.785490	0.471875	-0.000028
1123	1.1164e+02	8.8321	17.249531	0.000315	3.154158	0.534329	-0.000032
1124	1.1174e+02	8.8196	17.226720	0.000229	2.293933	0.388603	-0.000023
1125	1.1184e+02	8.8089	17.199836	0.000270	2.703564	0.457996	-0.000027
1126	1.1194e+02	8.8016	17.176210	0.000238	2.375859	0.402481	-0.000024
1127	1.1204e+02	8.7907	17.150140	0.000262	2.621637	0.444117	-0.000026
1128	1.1214e+02	8.7803	17.122848	0.000274	2.744527	0.464935	-0.000027
1129	1.1224e+02	8.7705	17.092297	0.000307	3.072231	0.520450	-0.000031
1130	1.1234e+02	8.7598	17.069079	0.000233	2.334896	0.395542	-0.000023
1131	1.1244e+02	8.7511	17.045860	0.000233	2.334896	0.395542	-0.000023
1132	1.1253e+02	8.7406	17.016124	0.000299	2.990305	0.506571	-0.000030
1133	1.1263e+02	8.7335	16.990869	0.000254	2.539711	0.430239	-0.000025
1134	1.1273e+02	8.7237	16.962762	0.000283	2.826453	0.478814	-0.000028
1135	1.1283e+02	8.7103	16.937100	0.000258	2.580674	0.437178	-0.000026
1136	1.1293e+02	8.7005	16.906549	0.000307	3.072231	0.520450	-0.000031
1137	1.1303e+02	8.6919	16.879664	0.000270	2.703564	0.457996	-0.000027
1138	1.1313e+02	8.6847	16.855224	0.000246	2.457785	0.416360	-0.000025
1139	1.1323e+02	8.6720	16.825080	0.000303	3.031268	0.513511	-0.000030
1140	1.1333e+02	8.6622	16.798603	0.000266	2.662600	0.451057	-0.000027
1141	1.1343e+02	8.6532	16.767645	0.000311	3.113194	0.527389	-0.000031
1142	1.1353e+02	8.6451	16.746056	0.000217	2.171043	0.367785	-0.000022
1143	1.1363e+02	8.6307	16.716727	0.000295	2.949342	0.499632	-0.000029
1144	1.1373e+02	8.6243	16.689843	0.000270	2.703564	0.457996	-0.000027
1145	1.1383e+02	8.6115	16.662958	0.000270	2.703564	0.457996	-0.000027
1146	1.1393e+02	8.6023	16.638925	0.000242	2.416822	0.409421	-0.000024
1147	1.1403e+02	8.5933	16.609189	0.000299	2.990305	0.506571	-0.000030
1148	1.1413e+02	8.5827	16.585156	0.000242	2.416822	0.409421	-0.000024
1149	1.1423e+02	8.5752	16.555420	0.000299	2.990305	0.506571	-0.000030
1150	1.1433e+02	8.5645	16.528942	0.000266	2.662600	0.451057	-0.000027
1151	1.1442e+02	8.5498	16.498392	0.000307	3.072231	0.520450	-0.000031
1152	1.1452e+02	8.5410	16.478839	0.000197	1.966228	0.333088	-0.000020
1153	1.1462e+02	8.5328	16.445030	0.000340	3.399936	0.575965	-0.000034
1154	1.1472e+02	8.5254	16.418553	0.000266	2.662600	0.451057	-0.000027
1155	1.1482e+02	8.5116	16.388002	0.000307	3.072231	0.520450	-0.000031
1156	1.1492e+02	8.5039	16.360710	0.000274	2.744527	0.464935	-0.000027
1157	1.1502e+02	8.4940	16.333418	0.000274	2.744527	0.464935	-0.000027
1158	1.1512e+02	8.4809	16.306533	0.000270	2.703564	0.457996	-0.000027
1159	1.1522e+02	8.4696	16.276797	0.000299	2.990305	0.506571	-0.000030
1160	1.1532e+02	8.4625	16.249098	0.000279	2.785490	0.471875	-0.000028
1161	1.1542e+02	8.4541	16.224657	0.000246	2.457785	0.416360	-0.000025
1162	1.1552e+02	8.4424	16.198995	0.000258	2.580674	0.437178	-0.000026
1163	1.1562e+02	8.4341	16.169666	0.000295	2.949342	0.499632	-0.000029
1164	1.1572e+02	8.4231	16.139930	0.000299	2.990305	0.506571	-0.000030
1165	1.1582e+02	8.4133	16.115897	0.000242	2.416822	0.409421	-0.000024
1166	1.1592e+02	8.4026	16.083310	0.000328	3.277047	0.555147	-0.000033
1167	1.1602e+02	8.3949	16.058054	0.000254	2.539711	0.430239	-0.000025
1168	1.1612e+02	8.3843	16.027096	0.000311	3.113194	0.527389	-0.000031
1169	1.1622e+02	8.3721	15.999804	0.000274	2.744527	0.464935	-0.000027
1170	1.1632e+02	8.3643	15.973327	0.000266	2.662600	0.451057	-0.000027
1171	1.1642e+02	8.3562	15.944813	0.000287	2.867416	0.485753	-0.000029
1172	1.1651e+02	8.3463	15.911004	0.000340	3.399936	0.575965	-0.000034
1173	1.1661e+02	8.3341	15.889822	0.000213	2.130080	0.360845	-0.000021
1174	1.1671e+02	8.3246	15.856420	0.000336	3.358973	0.569025	-0.000034
1175	1.1681e+02	8.3154	15.834423	0.000221	2.212007	0.374724	-0.000022
1176	1.1691e+02	8.3053	15.803465	0.000311	3.113194	0.527389	-0.000031
1177	1.1701e+02	8.2960	15.779432	0.000242	2.416822	0.409421	-0.000024
1178	1.1711e+02	8.2853	15.750103	0.000295	2.949342	0.499632	-0.000029
1179	1.1721e+02	8.2718	15.721997	0.000283	2.826453	0.478814	-0.000028
1180	1.1731e+02	8.2658	15.697556	0.000246	2.457785	0.416360	-0.000025
1181	1.1741e+02	8.2548	15.667820	0.000299	2.990305	0.506571	-0.000030
1182	1.1751e+02	8.2414	15.641750	0.000262	2.621637	0.444117	-0.000026
1183	1.1761e+02	8.2360	15.614051	0.000279	2.785490	0.471875	-0.000028
1184	1.1771e+02	8.2238	15.581871	0.000324	3.236084	0.548207	-0.000032
1185	1.1781e+02	8.2133	15.554172	0.000279	2.785490	0.471875	-0.000028
1186	1.1791e+02	8.2053	15.525658	0.000287	2.867416	0.485753	-0.000029
1187	1.1801e+02	8.1959	15.495514	0.000303	3.031268	0.513511	-0.000030
1188	1.1811e+02	8.1828	15.468222	0.000274	2.744527	0.464935	-0.000027
1189	1.1821e+02	8.1747	15.439708	0.000287	2.867416	0.485753	-0.000029
1190	1.1831e+02	8.1632	15.413638	0.000262	2.621637	0.444117	-0.000026
1191	1.1841e+02	8.1523	15.383902	0.000299	2.990305	0.506571	-0.000030
1192	1.1850e+02	8.1452	15.357833	0.000262	2.621637	0.444117	-0.000026
1193	1.1860e+02	8.1326	15.330133	0.000279	2.785490	0.471875	-0.000028
1194	1.1870e+02	8.1223	15.301619	0.000287	2.867416	0.485753	-0.000029
1195	1.1880e+02	8.1146	15.271883	0.000299	2.990305	0.506571	-0.000030
1196	1.1890e+02	8.1051	15.244184	0.000279	2.785490	0.471875	-0.000028
1197	1.1900e+02	8.0933	15.210782	0.000336	3.358973	0.569025	-0.000034
1198	1.1910e+02	8.0843	15.181046	0.000299	2.990305	0.506571	-0.000030
1199	1.1920e+02	8.0762	15.153754	0.000274	2.744527	0.464935	-0.000027
1200	1.1930e+02	8.0650	15.121574	0.000324	3.236084	0.548207	-0.000032
1201	1.1940e+02	8.0531	15.091023	0.000307	3.072231	0.520450	-0.000031
1202	1.1950e+02	8.0439	15.062102	0.000291	2.908379	0.492693	-0.000029
1203	1.1960e+02	8.0347	15.030736	0.000315	3.154158	0.534329	-0.000032
1204	1.1970e+02	8.0226	15.002630	0.000283	2.826453	0.478814	-0.000028
1205	1.1980e+02	8.0152	14.971264	0.000315	3.154158	0.534329	-0.000032
1206	1.1990e+02	8.0041	14.944380	0.000270	2.703564	0.457996	-0.000027
1207	1.2000e+02	7.9970	14.912607	0.000320	3.195121	0.541268	-0.000032
1208	1.2010e+02	7.9863	14.886130	0.000266	2.662600	0.451057	-0.000027
1209	1.2020e+02	7.9729	14.858023	0.000283	2.826453	0.478814	-0.000028
1210	1.2030e+02	7.9701	14.828287	0.000299	2.990305	0.506571	-0.000030
1211	1.2039e+02	7.9541	14.797737	0.000307	3.072231	0.520450	-0.000031
1212	1.2049e+02	7.9454	14.767186	0.000307	3.072231	0.520450	-0.000031
1213	1.2059e+02	7.9357	14.742745	0.000246	2.457785	0.416360	-0.000025
1214	1.2069e+02	7.9230	14.710973	0.000320	3.195121	0.541268	-0.000032
1215	1.2079e+02	7.9156	14.686125	0.000250	2.498748	0.423299	-0.000025
1216	1.2089e+02	7.9061	14.652315	0.000340	3.399936	0.575965	-0.000034
1217	1.2099e+02	7.8936	14.622172	0.000303	3.031268	0.513511	-0.000030
1218	1.2109e+02	7.8842	14.596102	0.000262	2.621637	0.444117	-0.000026
1219	1.2119e+02	7.8762	14.565144	0.000311	3.113194	0.527389	-0.000031
1220	1.2129e+02	7.8662	14.538259	0.000270	2.703564	0.457996	-0.000027
1221	1.2139e+02	7.8545	14.507301	0.000311	3.113194	0.527389	-0.000031
1222	1.2149e+02	7.8448	14.478380	0.000291	2.908379	0.492693	-0.000029
1223	1.2159e+02	7.8394	14.449866	0.000287	2.867416	0.485753	-0.000029
1224	1.2169e+02	7.8278	14.420945	0.000291	2.908379	0.492693	-0.000029
1225	1.2179e+02	7.8159	14.392431	0.000287	2.867416	0.485753	-0.000029
1226	1.2189e+02	7.8057	14.359029	0.000336	3.358973	0.569025	-0.000034
1227	1.2199e+02	7.7973	14.331329	0.000279	2.785490	0.471875	-0.000028
1228	1.2209e+02	7.7851	14.301186	0.000303	3.031268	0.513511	-0.000030
1229	1.2219e+02	7.7747	14.272265	0.000291	2.908379	0.492693	-0.000029
1230	1.2229e+02	7.7665	14.241714	0.000307	3.072231	0.520450	-0.000031
1231	1.2239e+02	7.7569	14.208719	0.000332	3.318010	0.562086	-0.000033
1232	1.2248e+02	7.7466	14.183464	0.000254	2.539711	0.430239	-0.000025
1233	1.2258e+02	7.7383	14.151284	0.000324	3.236084	0.548207	-0.000032
1234	1.2268e+02	7.7263	14.121548	0.000299	2.990305	0.506571	-0.000030
1235	1.2278e+02	7.7180	14.095071	0.000266	2.662600	0.451057	-0.000027
1236	1.2288e+02	7.7052	14.059632	0.000356	3.563788	0.603722	-0.000036
1237	1.2298e+02	7.6970	14.035599	0.000242	2.416822	0.409421	-0.000024
1238	1.2308e+02	7.6864	14.001789	0.000340	3.399936	0.575965	-0.000034
1239	1.2318e+02	7.6781	13.974090	0.000279	2.785490	0.471875	-0.000028
1240	1.2328e+02	7.6685	13.943947	0.000303	3.031268	0.513511	-0.000030
1241	1.2338e+02	7.6593	13.915433	0.000287	2.867416	0.485753	-0.000029
1242	1.2348e+02	7.6467	13.883253	0.000324	3.236084	0.548207	-0.000032
1243	1.2358e+02	7.6406	13.857183	0.000262	2.621637	0.444117	-0.000026
1244	1.2368e+02	7.6279	13.827854	0.000295	2.949342	0.499632	-0.000029
1245	1.2378e+02	7.6176	13.799340	0.000287	2.867416	0.485753	-0.000029
1246	1.2388e+02	7.6084	13.765938	0.000336	3.358973	0.569025	-0.000034
1247	1.2398e+02	7.5973	13.736609	0.000295	2.949342	0.499632	-0.000029
1248	1.2408e+02	7.5855	13.704836	0.000320	3.195121	0.541268	-0.000032
1249	1.2418e+02	7.5771	13.679174	0.000258	2.580674	0.437178	-0.000026
1250	1.2428e+02	7.5684	13.644957	0.000344	3.440899	0.582904	-0.000034
1251	1.2438e+02	7.5586	13.618073	0.000270	2.703564	0.457996	-0.000027
1252	1.2447e+02	7.5497	13.587114	0.000311	3.113194	0.527389	-0.000031
1253	1.2457e+02	7.5373	13.555749	0.000315	3.154158	0.534329	-0.000032
1254	1.2467e+02	7.5251	13.522347	0.000336	3.358973	0.569025	-0.000034
1255	1.2477e+02	7.5217	13.498314	0.000242	2.416822	0.409421	-0.000024
1256	1.2487e+02	7.5082	13.466134	0.000324	3.236084	0.548207	-0.000032
1257	1.2497e+02	7.4986	13.438842	0.000274	2.744527	0.464935	-0.000027
1258	1.2507e+02	7.4892	13.406254	0.000328	3.277047	0.555147	-0.000033
1259	1.2517e+02	7.4764	13.374482	0.000320	3.195121	0.541268	-0.000032
1260	1.2527e+02	7.4670	13.345153	0.000295	2.949342	0.499632	-0.000029
1261	1.2537e+02	7.4581	13.315010	0.000303	3.031268	0.513511	-0.000030
1262	1.2547e+02	7.4467	13.280386	0.000348	3.481862	0.589843	-0.000035
1263	1.2557e+02	7.4378	13.251464	0.000291	2.908379	0.492693	-0.000029
1264	1.2567e+02	7.4279	13.218469	0.000332	3.318010	0.562086	-0.000033
1265	1.2577e+02	7.4181	13.189548	0.000291	2.908379	0.492693	-0.000029
1266	1.2587e+02	7.4074	13.158590	0.000311	3.113194	0.527389	-0.000031
1267	1.2597e+02	7.4004	13.128039	0.000307	3.072231	0.520450	-0.000031
1268	1.2607e+02	7.3888	13.098711	0.000295	2.949342	0.499632	-0.000029
1269	1.2617e+02	7.3769	13.068567	0.000303	3.031268	0.513511	-0.000030
1270	1.2627e+02	7.3705	13.035980	0.000328	3.277047	0.555147	-0.000033
1271	1.2636e+02	7.3584	13.005429	0.000307	3.072231	0.520450	-0.000031
1272	1.2646e+02	7.3483	12.975693	0.000299	2.990305	0.506571	-0.000030
1273	1.2656e+02	7.3389	12.944328	0.000315	3.154158	0.534329	-0.000032
1274	1.2666e+02	7.3260	12.912963	0.000315	3.154158	0.534329	-0.000032
1275	1.2676e+02	7.3204	12.883227	0.000299	2.990305	0.506571	-0.000030
1276	1.2686e+02	7.3096	12.850639	0.000328	3.277047	0.555147	-0.000033
1277	1.2696e+02	7.2977	12.816830	0.000340	3.399936	0.575965	-0.000034
1278	1.2706e+02	7.2893	12.789130	0.000279	2.785490	0.471875	-0.000028
1279	1.2716e+02	7.2790	12.759394	0.000299	2.990305	0.506571	-0.000030
1280	1.2726e+02	7.2705	12.730066	0.000295	2.949342	0.499632	-0.000029
1281	1.2736e+02	7.2583	12.702366	0.000279	2.785490	0.471875	-0.000028
1282	1.2746e+02	7.2514	12.670186	0.000324	3.236084	0.548207	-0.000032
1283	1.2756e+02	7.2395	12.641672	0.000287	2.867416	0.485753	-0.000029
1284	1.2766e+02	7.2301	12.613566	0.000283	2.826453	0.478814	-0.000028
1285	1.2776e+02	7.2202	12.581386	0.000324	3.236084	0.548207	-0.000032
1286	1.2786e+02	7.2089	12.555723	0.000258	2.580674	0.437178	-0.000026
1287	1.2796e+02	7.1965	12.521506	0.000344	3.440899	0.582904	-0.000034
1288	1.2806e+02	7.1888	12.492178	0.000295	2.949342	0.499632	-0.000029
1289	1.2816e+02	7.1782	12.461220	0.000311	3.113194	0.527389	-0.000031
1290	1.2826e+02	7.1687	12.431891	0.000295	2.949342	0.499632	-0.000029
1291	1.2835e+02	7.1586	12.402562	0.000295	2.949342	0.499632	-0.000029
1292	1.2845e+02	7.1520	12.370382	0.000324	3.236084	0.548207	-0.000032
1293	1.2855e+02	7.1400	12.338610	0.000320	3.195121	0.541268	-0.000032
1294	1.2865e+02	7.1287	12.308466	0.000303	3.031268	0.513511	-0.000030
1295	1.2875e+02	7.1204	12.279138	0.000295	2.949342	0.499632	-0.000029
1296	1.2885e+02	7.1095	12.248180	0.000311	3.113194	0.527389	-0.000031
1297	1.2895e+02	7.0992	12.217629	0.000307	3.072231	0.520450	-0.000031
1298	1.2905e+02	7.0876	12.184227	0.000336	3.358973	0.569025	-0.000034
1299	1.2915e+02	7.0805	12.152454	0.000320	3.195121	0.541268	-0.000032
1300	1.2925e+02	7.0729	12.122311	0.000303	3.031268	0.513511	-0.000030
1301	1.2935e+02	7.0606	12.090945	0.000315	3.154158	0.534329	-0.000032
1302	1.2945e+02	7.0537	12.060802	0.000303	3.031268	0.513511	-0.000030
1303	1.2955e+02	7.0415	12.030251	0.000307	3.072231	0.520450	-0.000031
1304	1.2965e+02	7.0284	12.002145	0.000283	2.826453	0.478814	-0.000028
1305	1.2975e+02	7.0202	11.967928	0.000344	3.440899	0.582904	-0.000034
1306	1.2985e+02	7.0092	11.940636	0.000274	2.744527	0.464935	-0.000027
1307	1.2995e+02	7.0019	11.907234	0.000336	3.358973	0.569025	-0.000034
1308	1.3005e+02	6.9918	11.877090	0.000303	3.031268	0.513511	-0.000030
1309	1.3015e+02	6.9818	11.843281	0.000340	3.399936	0.575965	-0.000034
1310	1.3025e+02	6.9702	11.811916	0.000315	3.154158	0.534329	-0.000032
1311	1.3034e+02	6.9625	11.781772	0.000303	3.031268	0.513511	-0.000030
1312	1.3044e+02	6.9492	11.745926	0.000360	3.604751	0.610661	-0.000036
1313	1.3054e+02	6.9381	11.719042	0.000270	2.703564	0.457996	-0.000027
1314	1.3064e+02	6.9283	11.686047	0.000332	3.318010	0.562086	-0.000033
1315	1.3074e+02	6.9204	11.655089	0.000311	3.113194	0.527389	-0.000031
1316	1.3084e+02	6.9106	11.626167	0.000291	2.908379	0.492693	-0.000029
1317	1.3094e+02	6.8998	11.593173	0.000332	3.318010	0.562086	-0.000033
1318	1.3104e+02	6.8913	11.561807	0.000315	3.154158	0.534329	-0.000032
1319	1.3114e+02	6.8822	11.530035	0.000320	3.195121	0.541268	-0.000032
1320	1.3124e+02	6.8684	11.499077	0.000311	3.113194	0.527389	-0.000031
1321	1.3134e+02	6.8606	11.468119	0.000311	3.113194	0.527389	-0.000031
1322	1.3144e+02	6.8490	11.434716	0.000336	3.358973	0.569025	-0.000034
1323	1.3154e+02	6.8395	11.405795	0.000291	2.908379	0.492693	-0.000029
1324	1.3164e+02	6.8309	11.371171	0.000348	3.481862	0.589843	-0.000035
1325	1.3174e+02	6.8209	11.338991	0.000324	3.236084	0.548207	-0.000032
1326	1.3184e+02	6.8123	11.307218	0.000320	3.195121	0.541268	-0.000032
1327	1.3194e+02	6.8029	11.274631	0.000328	3.277047	0.555147	-0.000033
1328	1.3204e+02	6.7931	11.246117	0.000287	2.867416	0.485753	-0.000029
1329	1.3214e+02	6.7815	11.211900	0.000344	3.440899	0.582904	-0.000034
1330	1.3224e+02	6.7733	11.182979	0.000291	2.908379	0.492693	-0.000029
1331	1.3234e+02	6.7635	11.153650	0.000295	2.949342	0.499632	-0.000029
1332	1.3243e+02	6.7516	11.119026	0.000348	3.481862	0.589843	-0.000035
1333	1.3253e+02	6.7419	11.088475	0.000307	3.072231	0.520450	-0.000031
1334	1.3263e+02	6.7343	11.056295	0.000324	3.236084	0.548207	-0.000032
1335	1.3273e+02	6.7239	11.024115	0.000324	3.236084	0.548207	-0.000032
1336	1.3283e+02	6.7095	10.993564	0.000307	3.072231	0.520450	-0.000031
1337	1.3293e+02	6.7031	10.958126	0.000356	3.563788	0.603722	-0.000036
1338	1.3303e+02	6.6912	10.924316	0.000340	3.399936	0.575965	-0.000034
1339	1.3313e+02	6.6827	10.889285	0.000352	3.522825	0.596783	-0.000035
1340	1.3323e+02	6.6705	10.861585	0.000279	2.785490	0.471875	-0.000028
1341	1.3333e+02	6.6608	10.828183	0.000336	3.358973	0.569025	-0.000034
1342	1.3343e+02	6.6507	10.796003	0.000324	3.236084	0.548207	-0.000032
1343	1.3353e+02	6.6456	10.768304	0.000279	2.785490	0.471875	-0.000028
1344	1.3363e+02	6.6335	10.737346	0.000311	3.113194	0.527389	-0.000031
1345	1.3373e+02	6.6209	10.701907	0.000356	3.563788	0.603722	-0.000036
1346	1.3383e+02	6.6111	10.675430	0.000266	2.662600	0.451057	-0.000027
1347	1.3393e+02	6.6042	10.642843	0.000328	3.277047	0.555147	-0.000033
1348	1.3403e+02	6.5921	10.611070	0.000320	3.195121	0.541268	-0.000032
1349	1.3413e+02	6.5832	10.582148	0.000291	2.908379	0.492693	-0.000029
1350	1.3423e+02	6.5731	10.553227	0.000291	2.908379	0.492693	-0.000029
1351	1.3432e+02	6.5643	10.517381	0.000360	3.604751	0.610661	-0.000036
1352	1.3442e+02	6.5513	10.484794	0.000328	3.277047	0.555147	-0.000033
1353	1.3452e+02	6.5405	10.453428	0.000315	3.154158	0.534329	-0.000032
1354	1.3462e+02	6.5321	10.416360	0.000373	3.727641	0.631479	-0.000037
1355	1.3472e+02	6.5247	10.385402	0.000311	3.113194	0.527389	-0.000031
1356	1.3482e+02	6.5113	10.351593	0.000340	3.399936	0.575965	-0.000034
1357	1.3492e+02	6.5028	10.320227	0.000315	3.154158	0.534329	-0.000032
1358	1.3502e+02	6.4921	10.288047	0.000324	3.236084	0.548207	-0.000032
1359	1.3512e+02	6.4821	10.258718	0.000295	2.949342	0.499632	-0.000029
1360	1.3522e+02	6.4718	10.226131	0.000328	3.277047	0.555147	-0.000033
1361	1.3532e+02	6.4651	10.193951	0.000324	3.236084	0.548207	-0.000032
1362	1.3542e+02	6.4538	10.159734	0.000344	3.440899	0.582904	-0.000034
1363	1.3552e+02	6.4442	10.130406	0.000295	2.949342	0.499632	-0.000029
1364	1.3562e+02	6.4308	10.091708	0.000389	3.891493	0.659237	-0.000039
1365	1.3572e+02	6.4227	10.061565	0.000303	3.031268	0.513511	-0.000030
1366	1.3582e+02	6.4126	10.028570	0.000332	3.318010	0.562086	-0.000033
1367	1.3592e+02	6.4034	9.992316	0.000365	3.645715	0.617601	-0.000036
1368	1.3602e+02	6.3929	9.958914	0.000336	3.358973	0.569025	-0.000034
1369	1.3612e+02	6.3851	9.926734	0.000324	3.236084	0.548207	-0.000032
1370	1.3622e+02	6.3741	9.892925	0.000340	3.399936	0.575965	-0.000034
1371	1.3631e+02	6.3659	9.860745	0.000324	3.236084	0.548207	-0.000032
1372	1.3641e+02	6.3530	9.823269	0.000377	3.768604	0.638419	-0.000038
1373	1.3651e+02	6.3454	9.789867	0.000336	3.358973	0.569025	-0.000034
1374	1.3661e+02	6.3329	9.759317	0.000307	3.072231	0.520450	-0.000031
1375	1.3671e+02	6.3244	9.724285	0.000352	3.522825	0.596783	-0.000035
1376	1.3681e+02	6.3155	9.689254	0.000352	3.522825	0.596783	-0.000035
1377	1.3691e+02	6.3024	9.655444	0.000340	3.399936	0.575965	-0.000034
1378	1.3701e+02	6.2938	9.626930	0.000287	2.867416	0.485753	-0.000029
1379	1.3711e+02	6.2850	9.593935	0.000332	3.318010	0.562086	-0.000033
1380	1.3721e+02	6.2737	9.562570	0.000315	3.154158	0.534329	-0.000032
1381	1.3731e+02	6.2647	9.530390	0.000324	3.236084	0.548207	-0.000032
1382	1.3741e+02	6.2554	9.493322	0.000373	3.727641	0.631479	-0.000037
1383	1.3751e+02	6.2438	9.459920	0.000336	3.358973	0.569025	-0.000034
1384	1.3761e+02	6.2359	9.432220	0.000279	2.785490	0.471875	-0.000028
1385	1.3771e+02	6.2263	9.399633	0.000328	3.277047	0.555147	-0.000033
1386	1.3781e+02	6.2130	9.363380	0.000365	3.645715	0.617601	-0.000036
1387	1.3791e+02	6.2059	9.330385	0.000332	3.318010	0.562086	-0.000033
1388	1.3801e+02	6.1950	9.295353	0.000352	3.522825	0.596783	-0.000035
1389	1.3811e+02	6.1852	9.266025	0.000295	2.949342	0.499632	-0.000029
1390	1.3821e+02	6.1742	9.230179	0.000360	3.604751	0.610661	-0.000036
1391	1.3831e+02	6.1663	9.196776	0.000336	3.358973	0.569025	-0.000034
1392	1.3840e+02	6.1559	9.166226	0.000307	3.072231	0.520450	-0.000031
1393	1.3850e+02	6.1478	9.134860	0.000315	3.154158	0.534329	-0.000032
1394	1.3860e+02	6.1332	9.098607	0.000365	3.645715	0.617601	-0.000036
1395	1.3870e+02	6.1275	9.067649	0.000311	3.113194	0.527389	-0.000031
1396	1.3880e+02	6.1150	9.029766	0.000381	3.809567	0.645358	-0.000038
1397	1.3890e+02	6.1045	8.997586	0.000324	3.236084	0.548207	-0.000032
1398	1.3900e+02	6.0955	8.964999	0.000328	3.277047	0.555147	-0.000033
1399	1.3910e+02	6.0870	8.929152	0.000360	3.604751	0.610661	-0.000036
1400	1.3920e+02	6.0750	8.892084	0.000373	3.727641	0.631479	-0.000037
1401	1.3930e+02	6.0668	8.857867	0.000344	3.440899	0.582904	-0.000034
1402	1.3940e+02	6.0543	8.828946	0.000291	2.908379	0.492693	-0.000029
1403	1.3950e+02	6.0446	8.793100	0.000360	3.604751	0.610661	-0.000036
1404	1.3960e+02	6.0308	8.760920	0.000324	3.236084	0.548207	-0.000032
1405	1.3970e+02	6.0275	8.725481	0.000356	3.563788	0.603722	-0.000036
1406	1.3980e+02	6.0134	8.695338	0.000303	3.031268	0.513511	-0.000030
1407	1.3990e+02	6.0064	8.661121	0.000344	3.440899	0.582904	-0.000034
1408	1.4000e+02	5.9982	8.627312	0.000340	3.399936	0.575965	-0.000034
1409	1.4010e+02	5.9864	8.593502	0.000340	3.399936	0.575965	-0.000034
1410	1.4020e+02	5.9763	8.556434	0.000373	3.727641	0.631479	-0.000037
1411	1.4029e+02	5.9661	8.528327	0.000283	2.826453	0.478814	-0.000028
1412	1.4039e+02	5.9554	8.493703	0.000348	3.481862	0.589843	-0.000035
1413	1.4049e+02	5.9447	8.459894	0.000340	3.399936	0.575965	-0.000034
1414	1.4059e+02	5.9373	8.425677	0.000344	3.440899	0.582904	-0.000034
1415	1.4069e+02	5.9280	8.388609	0.000373	3.727641	0.631479	-0.000037
1416	1.4079e+02	5.9180	8.357243	0.000315	3.154158	0.534329	-0.000032
1417	1.4089e+02	5.9054	8.320990	0.000365	3.645715	0.617601	-0.000036
1418	1.4099e+02	5.8952	8.289217	0.000320	3.195121	0.541268	-0.000032
1419	1.4109e+02	5.8857	8.256223	0.000332	3.318010	0.562086	-0.000033
1420	1.4119e+02	5.8752	8.221598	0.000348	3.481862	0.589843	-0.000035
1421	1.4129e+02	5.8698	8.184938	0.000369	3.686678	0.624540	-0.000037
1422	1.4139e+02	5.8558	8.152757	0.000324	3.236084	0.548207	-0.000032
1423	1.4149e+02	5.8462	8.124651	0.000283	2.826453	0.478814	-0.000028
1424	1.4159e+02	5.8337	8.086768	0.000381	3.809567	0.645358	-0.000038
1425	1.4169e+02	5.8265	8.048885	0.000381	3.809567	0.645358	-0.000038
1426	1.4179e+02	5.8172	8.016705	0.000324	3.236084	0.548207	-0.000032
1427	1.4189e+02	5.8047	7.983710	0.000332	3.318010	0.562086	-0.000033
1428	1.4199e+02	5.7996	7.949086	0.000348	3.481862	0.589843	-0.000035
1429	1.4209e+02	5.7868	7.915684	0.000336	3.358973	0.569025	-0.000034
1430	1.4219e+02	5.7772	7.881467	0.000344	3.440899	0.582904	-0.000034
1431	1.4228e+02	5.7665	7.842770	0.000389	3.891493	0.659237	-0.000039
1432	1.4238e+02	5.7585	7.804072	0.000389	3.891493	0.659237	-0.000039
1433	1.4248e+02	5.7466	7.769448	0.000348	3.481862	0.589843	-0.000035
1434	1.4258e+02	5.7366	7.737268	0.000324	3.236084	0.548207	-0.000032
1435	1.4268e+02	5.7293	7.703051	0.000344	3.440899	0.582904	-0.000034
1436	1.4278e+02	5.7150	7.671686	0.000315	3.154158	0.534329	-0.000032
1437	1.4288e+02	5.7059	7.631766	0.000401	4.014382	0.680055	-0.000040
1438	1.4298e+02	5.6997	7.600808	0.000311	3.113194	0.527389	-0.000031
1439	1.4308e+02	5.6887	7.566592	0.000344	3.440899	0.582904	-0.000034
1440	1.4318e+02	5.6787	7.535226	0.000315	3.154158	0.534329	-0.000032
1441	1.4328e+02	5.6678	7.499787	0.000356	3.563788	0.603722	-0.000036
1442	1.4338e+02	5.6570	7.462312	0.000377	3.768604	0.638419	-0.000038
1443	1.4348e+02	5.6513	7.429724	0.000328	3.277047	0.555147	-0.000033
1444	1.4358e+02	5.6385	7.391842	0.000381	3.809567	0.645358	-0.000038
1445	1.4368e+02	5.6254	7.354366	0.000377	3.768604	0.638419	-0.000038
1446	1.4378e+02	5.6194	7.322593	0.000320	3.195121	0.541268	-0.000032
1447	1.4388e+02	5.6069	7.290821	0.000320	3.195121	0.541268	-0.000032
1448	1.4398e+02	5.5975	7.257419	0.000336	3.358973	0.569025	-0.000034
1449	1.4408e+02	5.5874	7.224424	0.000332	3.318010	0.562086	-0.000033
1450	1.4418e+02	5.5775	7.192651	0.000320	3.195121	0.541268	-0.000032
1451	1.4428e+02	5.5677	7.155176	0.000377	3.768604	0.638419	-0.000038
1452	1.4437e+02	5.5579	7.122996	0.000324	3.236084	0.548207	-0.000032
1453	1.4447e+02	5.5489	7.090001	0.000332	3.318010	0.562086	-0.000033
1454	1.4457e+02	5.5383	7.052118	0.000381	3.809567	0.645358	-0.000038
1455	1.4467e+02	5.5308	7.017086	0.000352	3.522825	0.596783	-0.000035
1456	1.4477e+02	5.5181	6.986536	0.000307	3.072231	0.520450	-0.000031
1457	1.4487e+02	5.5079	6.951504	0.000352	3.522825	0.596783	-0.000035
1458	1.4497e+02	5.5012	6.916880	0.000348	3.481862	0.589843	-0.000035
1459	1.4507e+02	5.4885	6.881441	0.000356	3.563788	0.603722	-0.000036
1460	1.4517e+02	5.4778	6.846410	0.000352	3.522825	0.596783	-0.000035
1461	1.4527e+02	5.4675	6.810564	0.000360	3.604751	0.610661	-0.000036
1462	1.4537e+02	5.4563	6.775940	0.000348	3.481862	0.589843	-0.000035
1463	1.4547e+02	5.4470	6.742130	0.000340	3.399936	0.575965	-0.000034
1464	1.4557e+02	5.4375	6.708321	0.000340	3.399936	0.575965	-0.000034
1465	1.4567e+02	5.4279	6.671253	0.000373	3.727641	0.631479	-0.000037
1466	1.4577e+02	5.4165	6.634999	0.000365	3.645715	0.617601	-0.000036
1467	1.4587e+02	5.4095	6.601190	0.000340	3.399936	0.575965	-0.000034
1468	1.4597e+02	5.3980	6.564122	0.000373	3.727641	0.631479	-0.000037
1469	1.4607e+02	5.3884	6.529905	0.000344	3.440899	0.582904	-0.000034
1470	1.4617e+02	5.3744	6.494466	0.000356	3.563788	0.603722	-0.000036
1471	1.4626e+02	5.3695	6.463915	0.000307	3.072231	0.520450	-0.000031
1472	1.4636e+02	5.3582	6.425625	0.000385	3.850530	0.652297	-0.000038
1473	1.4646e+02	5.3506	6.393852	0.000320	3.195121	0.541268	-0.000032
1474	1.4656e+02	5.3373	6.354340	0.000397	3.973419	0.673115	-0.000040
1475	1.4666e+02	5.3298	6.322975	0.000315	3.154158	0.534329	-0.000032
1476	1.4676e+02	5.3154	6.287943	0.000352	3.522825	0.596783	-0.000035
1477	1.4686e+02	5.3101	6.250875	0.000373	3.727641	0.631479	-0.000037
1478	1.4696e+02	5.2984	6.217066	0.000340	3.399936	0.575965	-0.000034
1479	1.4706e+02	5.2869	6.179183	0.000381	3.809567	0.645358	-0.000038
1480	1.4716e+02	5.2786	6.144151	0.000352	3.522825	0.596783	-0.000035
1481	1.4726e+02	5.2686	6.110342	0.000340	3.399936	0.575965	-0.000034
1482	1.4736e+02	5.2593	6.076533	0.000340	3.399936	0.575965	-0.000034
1483	1.4746e+02	5.2499	6.039464	0.000373	3.727641	0.631479	-0.000037
1484	1.4756e+02	5.2393	6.004433	0.000352	3.522825	0.596783	-0.000035
1485	1.4766e+02	5.2302	5.966550	0.000381	3.809567	0.645358	-0.000038
1486	1.4776e+02	5.2181	5.933148	0.000336	3.358973	0.569025	-0.000034
1487	1.4786e+02	5.2100	5.896080	0.000373	3.727641	0.631479	-0.000037
1488	1.4796e+02	5.1992	5.864714	0.000315	3.154158	0.534329	-0.000032
1489	1.4806e+02	5.1881	5.826832	0.000381	3.809567	0.645358	-0.000038
1490	1.4816e+02	5.1772	5.787727	0.000393	3.932456	0.666176	-0.000039
1491	1.4825e+02	5.1684	5.756361	0.000315	3.154158	0.534329	-0.000032
1492	1.4835e+02	5.1587	5.715627	0.000410	4.096308	0.693933	-0.000041
1493	1.4845e+02	5.1508	5.679781	0.000360	3.604751	0.610661	-0.000036
1494	1.4855e+02	5.1398	5.643120	0.000369	3.686678	0.624540	-0.000037
1495	1.4865e+02	5.1299	5.608903	0.000344	3.440899	0.582904	-0.000034
1496	1.4875e+02	5.1197	5.571428	0.000377	3.768604	0.638419	-0.000038
1497	1.4885e+02	5.1099	5.536396	0.000352	3.522825	0.596783	-0.000035
1498	1.4895e+02	5.1003	5.501772	0.000348	3.481862	0.589843	-0.000035
1499	1.4905e+02	5.0906	5.468370	0.000336	3.358973	0.569025	-0.000034
1500	1.4915e+02	5.0800	5.432524	0.000360	3.604751	0.610661	-0.000036
1501	1.4925e+02	5.0717	5.397900	0.000348	3.481862	0.589843	-0.000035
1502	1.4935e+02	5.0607	5.360017	0.000381	3.809567	0.645358	-0.000038
1503	1.4945e+02	5.0500	5.325800	0.000344	3.440899	0.582904	-0.000034
1504	1.4955e+02	5.0387	5.287917	0.000381	3.809567	0.645358	-0.000038
1505	1.4965e+02	5.0329	5.250442	0.000377	3.768604	0.638419	-0.000038
1506	1.4975e+02	5.0225	5.214596	0.000360	3.604751	0.610661	-0.000036
1507	1.4985e+02	5.0108	5.179972	0.000348	3.481862	0.589843	-0.000035
1508	1.4995e+02	5.0004	5.140052	0.000401	4.014382	0.680055	-0.000040
1509	1.5005e+02	4.9942	5.102576	0.000377	3.768604	0.638419	-0.000038
1510	1.5015e+02	4.9785	5.072026	0.000307	3.072231	0.520450	-0.000031
1511	1.5025e+02	4.9700	5.035772	0.000365	3.645715	0.617601	-0.000036
1512	1.5034e+02	4.9610	4.999111	0.000369	3.686678	0.624540	-0.000037
1513	1.5044e+02	4.9525	4.967339	0.000320	3.195121	0.541268	-0.000032
1514	1.5054e+02	4.9398	4.930271	0.000373	3.727641	0.631479	-0.000037
1515	1.5064e+02	4.9292	4.892795	0.000377	3.768604	0.638419	-0.000038
1516	1.5074e+02	4.9200	4.859800	0.000332	3.318010	0.562086	-0.000033
1517	1.5084e+02	4.9117	4.821103	0.000389	3.891493	0.659237	-0.000039
1518	1.5094e+02	4.9004	4.789737	0.000315	3.154158	0.534329	-0.000032
1519	1.5104e+02	4.8916	4.749818	0.000401	4.014382	0.680055	-0.000040
1520	1.5114e+02	4.8806	4.709491	0.000406	4.055345	0.686994	-0.000041
1521	1.5124e+02	4.8707	4.673645	0.000360	3.604751	0.610661	-0.000036
1522	1.5134e+02	4.8598	4.639021	0.000348	3.481862	0.589843	-0.000035
1523	1.5144e+02	4.8499	4.604397	0.000348	3.481862	0.589843	-0.000035
1524	1.5154e+02	4.8415	4.567328	0.000373	3.727641	0.631479	-0.000037
1525	1.5164e+02	4.8315	4.529853	0.000377	3.768604	0.638419	-0.000038
1526	1.5174e+02	4.8229	4.494007	0.000360	3.604751	0.610661	-0.000036
1527	1.5184e+02	4.8122	4.458568	0.000356	3.563788	0.603722	-0.000036
1528	1.5194e+02	4.8019	4.421092	0.000377	3.768604	0.638419	-0.000038
1529	1.5204e+02	4.7908	4.385654	0.000356	3.563788	0.603722	-0.000036
1530	1.5214e+02	4.7813	4.346549	0.000393	3.932456	0.666176	-0.000039
1531	1.5224e+02	4.7721	4.312332	0.000344	3.440899	0.582904	-0.000034
1532	1.5233e+02	4.7640	4.270376	0.000422	4.219198	0.714751	-0.000042
1533	1.5243e+02	4.7533	4.237381	0.000332	3.318010	0.562086	-0.000033
1534	1.5253e+02	4.7440	4.194610	0.000430	4.301124	0.728630	-0.000043
1535	1.5263e+02	4.7295	4.157542	0.000373	3.727641	0.631479	-0.000037
1536	1.5273e+02	4.7215	4.118030	0.000397	3.973419	0.673115	-0.000040
1537	1.5283e+02	4.7117	4.079739	0.000385	3.850530	0.652297	-0.000038
1538	1.5293e+02	4.7033	4.042264	0.000377	3.768604	0.638419	-0.000038
1539	1.5303e+02	4.6916	4.007640	0.000348	3.481862	0.589843	-0.000035
1540	1.5313e+02	4.6832	3.967720	0.000401	4.014382	0.680055	-0.000040
1541	1.5323e+02	4.6732	3.929837	0.000381	3.809567	0.645358	-0.000038
1542	1.5333e+02	4.6628	3.895213	0.000348	3.481862	0.589843	-0.000035
1543	1.5343e+02	4.6516	3.853257	0.000422	4.219198	0.714751	-0.000042
1544	1.5353e+02	4.6441	3.817411	0.000360	3.604751	0.610661	-0.000036
1545	1.5363e+02	4.6329	3.781565	0.000360	3.604751	0.610661	-0.000036
1546	1.5373e+02	4.6230	3.746126	0.000356	3.563788	0.603722	-0.000036
1547	1.5383e+02	4.6146	3.704577	0.000418	4.178235	0.707812	-0.000042
1548	1.5393e+02	4.6027	3.669138	0.000356	3.563788	0.603722	-0.000036
1549	1.5403e+02	4.5919	3.630033	0.000393	3.932456	0.666176	-0.000039
1550	1.5413e+02	4.5815	3.593780	0.000365	3.645715	0.617601	-0.000036
1551	1.5422e+02	4.5733	3.557526	0.000365	3.645715	0.617601	-0.000036
1552	1.5432e+02	4.5621	3.518421	0.000393	3.932456	0.666176	-0.000039
1553	1.5442e+02	4.5522	3.482575	0.000360	3.604751	0.610661	-0.000036
1554	1.5452e+02	4.5429	3.443878	0.000389	3.891493	0.659237	-0.000039
1555	1.5462e+02	4.5313	3.409253	0.000348	3.481862	0.589843	-0.000035
1556	1.5472e+02	4.5217	3.370556	0.000389	3.891493	0.659237	-0.000039
1557	1.5482e+02	4.5166	3.329822	0.000410	4.096308	0.693933	-0.000041
1558	1.5492e+02	4.5017	3.295605	0.000344	3.440899	0.582904	-0.000034
1559	1.5502e+02	4.4932	3.256907	0.000389	3.891493	0.659237	-0.000039
1560	1.5512e+02	4.4852	3.220247	0.000369	3.686678	0.624540	-0.000037
1561	1.5522e+02	4.4750	3.183178	0.000373	3.727641	0.631479	-0.000037
1562	1.5532e+02	4.4631	3.141629	0.000418	4.178235	0.707812	-0.000042
1563	1.5542e+02	4.4528	3.104969	0.000369	3.686678	0.624540	-0.000037
1564	1.5552e+02	4.4417	3.067900	0.000373	3.727641	0.631479	-0.000037
1565	1.5562e+02	4.4321	3.027574	0.000406	4.055345	0.686994	-0.000041
1566	1.5572e+02	4.4240	2.989691	0.000381	3.809567	0.645358	-0.000038
1567	1.5582e+02	4.4143	2.953030	0.000369	3.686678	0.624540	-0.000037
1568	1.5592e+02	4.4050	2.912703	0.000406	4.055345	0.686994	-0.000041
1569	1.5602e+02	4.3948	2.870747	0.000422	4.219198	0.714751	-0.000042
1570	1.5612e+02	4.3829	2.838159	0.000328	3.277047	0.555147	-0.000033
1571	1.5622e+02	4.3734	2.802313	0.000360	3.604751	0.610661	-0.000036
1572	1.5631e+02	4.3661	2.761986	0.000406	4.055345	0.686994	-0.000041
1573	1.5641e+02	4.3557	2.726140	0.000360	3.604751	0.610661	-0.000036
1574	1.5651e+02	4.3435	2.684998	0.000414	4.137272	0.700873	-0.000041
1575	1.5661e+02	4.3339	2.645894	0.000393	3.932456	0.666176	-0.000039
1576	1.5671e+02	4.3233	2.610047	0.000360	3.604751	0.610661	-0.000036
1577	1.5681e+02	4.3138	2.572165	0.000381	3.809567	0.645358	-0.000038
1578	1.5691e+02	4.3027	2.537540	0.000348	3.481862	0.589843	-0.000035
1579	1.5701e+02	4.2936	2.497214	0.000406	4.055345	0.686994	-0.000041
1580	1.5711e+02	4.2849	2.458516	0.000389	3.891493	0.659237	-0.000039
1581	1.5721e+02	4.2726	2.419818	0.000389	3.891493	0.659237	-0.000039
1582	1.5731e+02	4.2688	2.380714	0.000393	3.932456	0.666176	-0.000039
1583	1.5741e+02	4.2548	2.339165	0.000418	4.178235	0.707812	-0.000042
1584	1.5751e+02	4.2445	2.305763	0.000336	3.358973	0.569025	-0.000034
1585	1.5761e+02	4.2344	2.265843	0.000401	4.014382	0.680055	-0.000040
1586	1.5771e+02	4.2263	2.227960	0.000381	3.809567	0.645358	-0.000038
1587	1.5781e+02	4.2152	2.189263	0.000389	3.891493	0.659237	-0.000039
1588	1.5791e+02	4.2043	2.149750	0.000397	3.973419	0.673115	-0.000040
1589	1.5801e+02	4.1961	2.115126	0.000348	3.481862	0.589843	-0.000035
1590	1.5811e+02	4.1853	2.072763	0.000426	4.260161	0.721691	-0.000043
1591	1.5821e+02	4.1742	2.036102	0.000369	3.686678	0.624540	-0.000037
1592	1.5830e+02	4.1643	1.997812	0.000385	3.850530	0.652297	-0.000038
1593	1.5840e+02	4.1534	1.962780	0.000352	3.522825	0.596783	-0.000035
1594	1.5850e+02	4.1451	1.913492	0.000496	4.956533	0.839659	-0.000050
1595	1.5860e+02	4.1360	1.881312	0.000324	3.236084	0.548207	-0.000032
1596	1.5870e+02	4.1251	1.843021	0.000385	3.850530	0.652297	-0.000038
1597	1.5880e+02	4.1155	1.803916	0.000393	3.932456	0.666176	-0.000039
1598	1.5890e+02	4.1082	1.760738	0.000434	4.342087	0.735569	-0.000043
1599	1.5900e+02	4.0930	1.719597	0.000414	4.137272	0.700873	-0.000041
1600	1.5910e+02	4.0818	1.681714	0.000381	3.809567	0.645358	-0.000038
1601	1.5920e+02	4.0754	1.640165	0.000418	4.178235	0.707812	-0.000042
1602	1.5930e+02	4.0652	1.601875	0.000385	3.850530	0.652297	-0.000038
1603	1.5940e+02	4.0573	1.565621	0.000365	3.645715	0.617601	-0.000036
1604	1.5950e+02	4.0454	1.526109	0.000397	3.973419	0.673115	-0.000040
1605	1.5960e+02	4.0346	1.486189	0.000401	4.014382	0.680055	-0.000040
1606	1.5970e+02	4.0267	1.449936	0.000365	3.645715	0.617601	-0.000036
1607	1.5980e+02	4.0146	1.408387	0.000418	4.178235	0.707812	-0.000042
1608	1.5990e+02	4.0064	1.371726	0.000369	3.686678	0.624540	-0.000037
1609	1.6000e+02	3.9960	1.330992	0.000410	4.096308	0.693933	-0.000041
1610	1.6010e+02	3.9859	1.284962	0.000463	4.628829	0.784145	-0.000046
1611	1.6019e+02	3.9777	1.249116	0.000360	3.604751	0.610661	-0.000036
1612	1.6029e+02	3.9642	1.209196	0.000401	4.014382	0.680055	-0.000040
1613	1.6039e+02	3.9581	1.174165	0.000352	3.522825	0.596783	-0.000035
1614	1.6049e+02	3.9466	1.133023	0.000414	4.137272	0.700873	-0.000041
1615	1.6059e+02	3.9359	1.095548	0.000377	3.768604	0.638419	-0.000038
1616	1.6069e+02	3.9269	1.059702	0.000360	3.604751	0.610661	-0.000036
1617	1.6079e+02	3.9176	1.020597	0.000393	3.932456	0.666176	-0.000039
1618	1.6089e+02	3.9043	0.981085	0.000397	3.973419	0.673115	-0.000040
1619	1.6099e+02	3.8970	0.941572	0.000397	3.973419	0.673115	-0.000040
1620	1.6109e+02	3.8864	0.907763	0.000340	3.399936	0.575965	-0.000034
1621	1.6119e+02	3.8758	0.864585	0.000434	4.342087	0.735569	-0.000043
1622	1.6129e+02	3.8685	0.825887	0.000389	3.891493	0.659237	-0.000039
1623	1.6139e+02	3.8546	0.784745	0.000414	4.137272	0.700873	-0.000041
1624	1.6149e+02	3.8485	0.745641	0.000393	3.932456	0.666176	-0.000039
1625	1.6159e+02	3.8375	0.706943	0.000389	3.891493	0.659237	-0.000039
1626	1.6169e+02	3.8270	0.667838	0.000393	3.932456	0.666176	-0.000039
1627	1.6179e+02	3.8149	0.626289	0.000418	4.178235	0.707812	-0.000042
1628	1.6189e+02	3.8065	0.589628	0.000369	3.686678	0.624540	-0.000037
1629	1.6199e+02	3.7963	0.548487	0.000414	4.137272	0.700873	-0.000041
1630	1.6209e+02	3.7850	0.511011	0.000377	3.768604	0.638419	-0.000038
1631	1.6219e+02	3.7777	0.472314	0.000389	3.891493	0.659237	-0.000039
1632	1.6228e+02	3.7670	0.432394	0.000401	4.014382	0.680055	-0.000040
1633	1.6238e+02	3.7592	0.392067	0.000406	4.055345	0.686994	-0.000041
1634	1.6248e+02	3.7457	0.352962	0.000393	3.932456	0.666176	-0.000039
1635	1.6258e+02	3.7354	0.312228	0.000410	4.096308	0.693933	-0.000041
1636	1.6268e+02	3.7286	0.277604	0.000348	3.481862	0.589843	-0.000035
1637	1.6278e+02	3.7164	0.236870	0.000410	4.096308	0.693933	-0.000041
1638	1.6288e+02	3.7041	0.192469	0.000446	4.464976	0.756387	-0.000045
1639	1.6298e+02	3.6967	0.152957	0.000397	3.973419	0.673115	-0.000040
1640	1.6308e+02	3.6876	0.115074	0.000381	3.809567	0.645358	-0.000038
1641	1.6318e+02	3.6764	0.073525	0.000418	4.178235	0.707812	-0.000042
1642	1.6328e+02	3.6680	0.032791	0.000410	4.096308	0.693933	-0.000041
1643	1.6338e+02	3.6572	-0.004277	0.000373	3.727641	0.631479	-0.000037
1644	1.6348e+02	3.6481	-0.045826	0.000418	4.178235	0.707812	-0.000042
1645	1.6358e+02	3.6349	-0.085338	0.000397	3.973419	0.673115	-0.000040
1646	1.6368e+02	3.6279	-0.127295	0.000422	4.219198	0.714751	-0.000042
1647	1.6378e+02	3.6179	-0.168843	0.000418	4.178235	0.707812	-0.000042
1648	1.6388e+02	3.6055	-0.205912	0.000373	3.727641	0.631479	-0.000037
1649	1.6398e+02	3.5995	-0.247053	0.000414	4.137272	0.700873	-0.000041
1650	1.6408e+02	3.5869	-0.288602	0.000418	4.178235	0.707812	-0.000042
1651	1.6418e+02	3.5802	-0.328114	0.000397	3.973419	0.673115	-0.000040
1652	1.6427e+02	3.5683	-0.368441	0.000406	4.055345	0.686994	-0.000041
1653	1.6437e+02	3.5569	-0.407954	0.000397	3.973419	0.673115	-0.000040
1654	1.6447e+02	3.5459	-0.447058	0.000393	3.932456	0.666176	-0.000039
1655	1.6457e+02	3.5381	-0.489829	0.000430	4.301124	0.728630	-0.000043
1656	1.6467e+02	3.5294	-0.529749	0.000401	4.014382	0.680055	-0.000040
1657	1.6477e+02	3.5174	-0.570076	0.000406	4.055345	0.686994	-0.000041
1658	1.6487e+02	3.5072	-0.607959	0.000381	3.809567	0.645358	-0.000038
1659	1.6497e+02	3.5004	-0.652359	0.000446	4.464976	0.756387	-0.000045
1660	1.6507e+02	3.4866	-0.689427	0.000373	3.727641	0.631479	-0.000037
1661	1.6517e+02	3.4760	-0.732198	0.000430	4.301124	0.728630	-0.000043
1662	1.6527e+02	3.4681	-0.774155	0.000422	4.219198	0.714751	-0.000042
1663	1.6537e+02	3.4584	-0.816925	0.000430	4.301124	0.728630	-0.000043
1664	1.6547e+02	3.4483	-0.858067	0.000414	4.137272	0.700873	-0.000041
1665	1.6557e+02	3.4389	-0.898801	0.000410	4.096308	0.693933	-0.000041
1666	1.6567e+02	3.4279	-0.935462	0.000369	3.686678	0.624540	-0.000037
1667	1.6577e+02	3.4182	-0.979455	0.000442	4.424013	0.749448	-0.000044
1668	1.6587e+02	3.4098	-1.017338	0.000381	3.809567	0.645358	-0.000038
1669	1.6597e+02	3.3987	-1.060516	0.000434	4.342087	0.735569	-0.000043
1670	1.6607e+02	3.3897	-1.100029	0.000397	3.973419	0.673115	-0.000040
1671	1.6616e+02	3.3790	-1.144429	0.000446	4.464976	0.756387	-0.000045
1672	1.6626e+02	3.3678	-1.185978	0.000418	4.178235	0.707812	-0.000042
1673	1.6636e+02	3.3578	-1.225897	0.000401	4.014382	0.680055	-0.000040
1674	1.6646e+02	3.3482	-1.263373	0.000377	3.768604	0.638419	-0.000038
1675	1.6656e+02	3.3391	-1.307366	0.000442	4.424013	0.749448	-0.000044
1676	1.6666e+02	3.3308	-1.350544	0.000434	4.342087	0.735569	-0.000043
1677	1.6676e+02	3.3201	-1.391278	0.000410	4.096308	0.693933	-0.000041
1678	1.6686e+02	3.3096	-1.432013	0.000410	4.096308	0.693933	-0.000041
1679	1.6696e+02	3.2996	-1.475598	0.000438	4.383050	0.742509	-0.000044
1680	1.6706e+02	3.2903	-1.512667	0.000373	3.727641	0.631479	-0.000037
1681	1.6716e+02	3.2801	-1.552586	0.000401	4.014382	0.680055	-0.000040
1682	1.6726e+02	3.2687	-1.595357	0.000430	4.301124	0.728630	-0.000043
1683	1.6736e+02	3.2587	-1.632833	0.000377	3.768604	0.638419	-0.000038
1684	1.6746e+02	3.2502	-1.672752	0.000401	4.014382	0.680055	-0.000040
1685	1.6756e+02	3.2445	-1.715116	0.000426	4.260161	0.721691	-0.000043
1686	1.6766e+02	3.2296	-1.757479	0.000426	4.260161	0.721691	-0.000043
1687	1.6776e+02	3.2211	-1.798621	0.000414	4.137272	0.700873	-0.000041
1688	1.6786e+02	3.2097	-1.838948	0.000406	4.055345	0.686994	-0.000041
1689	1.6796e+02	3.2018	-1.882534	0.000438	4.383050	0.742509	-0.000044
1690	1.6806e+02	3.1892	-1.926934	0.000446	4.464976	0.756387	-0.000045
1691	1.6816e+02	3.1796	-1.968076	0.000414	4.137272	0.700873	-0.000041
1692	1.6825e+02	3.1709	-2.011661	0.000438	4.383050	0.742509	-0.000044
1693	1.6835e+02	3.1607	-2.048322	0.000369	3.686678	0.624540	-0.000037
1694	1.6845e+02	3.1496	-2.089056	0.000410	4.096308	0.693933	-0.000041
1695	1.6855e+02	3.1376	-2.128976	0.000401	4.014382	0.680055	-0.000040
1696	1.6865e+02	3.1289	-2.170525	0.000418	4.178235	0.707812	-0.000042
1697	1.6875e+02	3.1232	-2.217777	0.000475	4.751718	0.804963	-0.000047
1698	1.6885e+02	3.1093	-2.257289	0.000397	3.973419	0.673115	-0.000040
1699	1.6895e+02	3.0997	-2.301689	0.000446	4.464976	0.756387	-0.000045
1700	1.6905e+02	3.0900	-2.345682	0.000442	4.424013	0.749448	-0.000044
1701	1.6915e+02	3.0791	-2.390082	0.000446	4.464976	0.756387	-0.000045
1702	1.6925e+02	3.0709	-2.430409	0.000406	4.055345	0.686994	-0.000041
1703	1.6935e+02	3.0608	-2.476439	0.000463	4.628829	0.784145	-0.000046
1704	1.6945e+02	3.0496	-2.518803	0.000426	4.260161	0.721691	-0.000043
1705	1.6955e+02	3.0411	-2.561981	0.000434	4.342087	0.735569	-0.000043
1706	1.6965e+02	3.0294	-2.603937	0.000422	4.219198	0.714751	-0.000042
1707	1.6975e+02	3.0197	-2.648338	0.000446	4.464976	0.756387	-0.000045
1708	1.6985e+02	3.0102	-2.689072	0.000410	4.096308	0.693933	-0.000041
1709	1.6995e+02	3.0007	-2.730213	0.000414	4.137272	0.700873	-0.000041
1710	1.7005e+02	2.9920	-2.773392	0.000434	4.342087	0.735569	-0.000043
1711	1.7015e+02	2.9792	-2.817792	0.000446	4.464976	0.756387	-0.000045
1712	1.7024e+02	2.9707	-2.860563	0.000430	4.301124	0.728630	-0.000043
1713	1.7034e+02	2.9612	-2.902927	0.000426	4.260161	0.721691	-0.000043
1714	1.7044e+02	2.9511	-2.945698	0.000430	4.301124	0.728630	-0.000043
1715	1.7054e+02	2.9433	-2.986432	0.000410	4.096308	0.693933	-0.000041
1716	1.7064e+02	2.9301	-3.029203	0.000430	4.301124	0.728630	-0.000043
1717	1.7074e+02	2.9214	-3.075640	0.000467	4.669792	0.791084	-0.000047
1718	1.7084e+02	2.9119	-3.118004	0.000426	4.260161	0.721691	-0.000043
1719	1.7094e+02	2.9022	-3.159145	0.000414	4.137272	0.700873	-0.000041
1720	1.7104e+02	2.8912	-3.201916	0.000430	4.301124	0.728630	-0.000043
1721	1.7114e+02	2.8802	-3.242243	0.000406	4.055345	0.686994	-0.000041
1722	1.7124e+02	2.8713	-3.285829	0.000438	4.383050	0.742509	-0.000044
1723	1.7134e+02	2.8619	-3.330229	0.000446	4.464976	0.756387	-0.000045
1724	1.7144e+02	2.8507	-3.376666	0.000467	4.669792	0.791084	-0.000047
1725	1.7154e+02	2.8422	-3.416993	0.000406	4.055345	0.686994	-0.000041
1726	1.7164e+02	2.8320	-3.458542	0.000418	4.178235	0.707812	-0.000042
1727	1.7174e+02	2.8224	-3.502535	0.000442	4.424013	0.749448	-0.000044
1728	1.7184e+02	2.8105	-3.548972	0.000467	4.669792	0.791084	-0.000047
1729	1.7194e+02	2.8020	-3.589299	0.000406	4.055345	0.686994	-0.000041
1730	1.7204e+02	2.7936	-3.632477	0.000434	4.342087	0.735569	-0.000043
1731	1.7213e+02	2.7828	-3.677285	0.000451	4.505939	0.763327	-0.000045
1732	1.7223e+02	2.7728	-3.720056	0.000430	4.301124	0.728630	-0.000043
1733	1.7233e+02	2.7642	-3.760383	0.000406	4.055345	0.686994	-0.000041
1734	1.7243e+02	2.7491	-3.808042	0.000479	4.792681	0.811902	-0.000048
1735	1.7253e+02	2.7420	-3.849998	0.000422	4.219198	0.714751	-0.000042
1736	1.7263e+02	2.7296	-3.894398	0.000446	4.464976	0.756387	-0.000045
1737	1.7273e+02	2.7229	-3.937984	0.000438	4.383050	0.742509	-0.000044
1738	1.7283e+02	2.7125	-3.980755	0.000430	4.301124	0.728630	-0.000043
1739	1.7293e+02	2.7010	-4.023526	0.000430	4.301124	0.728630	-0.000043
1740	1.7303e+02	2.6928	-4.071592	0.000483	4.833644	0.818841	-0.000048
1741	1.7313e+02	2.6827	-4.112327	0.000410	4.096308	0.693933	-0.000041
1742	1.7323e+02	2.6725	-4.157949	0.000459	4.587865	0.777205	-0.000046
1743	1.7333e+02	2.6629	-4.199905	0.000422	4.219198	0.714751	-0.000042
1744	1.7343e+02	2.6492	-4.241862	0.000422	4.219198	0.714751	-0.000042
1745	1.7353e+02	2.6415	-4.287891	0.000463	4.628829	0.784145	-0.000046
1746	1.7363e+02	2.6334	-4.327811	0.000401	4.014382	0.680055	-0.000040
1747	1.7373e+02	2.6228	-4.377507	0.000500	4.997496	0.846599	-0.000050
1748	1.7383e+02	2.6124	-4.421092	0.000438	4.383050	0.742509	-0.000044
1749	1.7393e+02	2.6017	-4.461012	0.000401	4.014382	0.680055	-0.000040
1750	1.7403e+02	2.5936	-4.507449	0.000467	4.669792	0.791084	-0.000047
1751	1.7413e+02	2.5795	-4.554293	0.000471	4.710755	0.798023	-0.000047
1752	1.7422e+02	2.5747	-4.595028	0.000410	4.096308	0.693933	-0.000041
1753	1.7432e+02	2.5639	-4.642279	0.000475	4.751718	0.804963	-0.000047
1754	1.7442e+02	2.5521	-4.680570	0.000385	3.850530	0.652297	-0.000038
1755	1.7452e+02	2.5424	-4.727007	0.000467	4.669792	0.791084	-0.000047
1756	1.7462e+02	2.5330	-4.771814	0.000451	4.505939	0.763327	-0.000045
1757	1.7472e+02	2.5240	-4.812141	0.000406	4.055345	0.686994	-0.000041
1758	1.7482e+02	2.5161	-4.859393	0.000475	4.751718	0.804963	-0.000047
1759	1.7492e+02	2.5043	-4.902164	0.000430	4.301124	0.728630	-0.000043
1760	1.7502e+02	2.4921	-4.942898	0.000410	4.096308	0.693933	-0.000041
1761	1.7512e+02	2.4855	-4.989743	0.000471	4.710755	0.798023	-0.000047
1762	1.7522e+02	2.4734	-5.036994	0.000475	4.751718	0.804963	-0.000047
1763	1.7532e+02	2.4622	-5.081802	0.000451	4.505939	0.763327	-0.000045
1764	1.7542e+02	2.4529	-5.126202	0.000446	4.464976	0.756387	-0.000045
1765	1.7552e+02	2.4426	-5.172232	0.000463	4.628829	0.784145	-0.000046
1766	1.7562e+02	2.4359	-5.215818	0.000438	4.383050	0.742509	-0.000044
1767	1.7572e+02	2.4236	-5.263477	0.000479	4.792681	0.811902	-0.000048
1768	1.7582e+02	2.4126	-5.309099	0.000459	4.587865	0.777205	-0.000046
1769	1.7592e+02	2.4070	-5.350648	0.000418	4.178235	0.707812	-0.000042
1770	1.7602e+02	2.3947	-5.397085	0.000467	4.669792	0.791084	-0.000047
1771	1.7612e+02	2.3832	-5.442300	0.000455	4.546902	0.770266	-0.000045
1772	1.7621e+02	2.3702	-5.486700	0.000446	4.464976	0.756387	-0.000045
1773	1.7631e+02	2.3621	-5.530693	0.000442	4.424013	0.749448	-0.000044
1774	1.7641e+02	2.3539	-5.575909	0.000455	4.546902	0.770266	-0.000045
1775	1.7651e+02	2.3420	-5.620309	0.000446	4.464976	0.756387	-0.000045
1776	1.7661e+02	2.3363	-5.664709	0.000446	4.464976	0.756387	-0.000045
1777	1.7671e+02	2.3270	-5.710739	0.000463	4.628829	0.784145	-0.000046
1778	1.7681e+02	2.3137	-5.757583	0.000471	4.710755	0.798023	-0.000047
1779	1.7691e+02	2.3051	-5.803613	0.000463	4.628829	0.784145	-0.000046
1780	1.7701e+02	2.2933	-5.850457	0.000471	4.710755	0.798023	-0.000047
1781	1.7711e+02	2.2866	-5.893636	0.000434	4.342087	0.735569	-0.000043
1782	1.7721e+02	2.2729	-5.935999	0.000426	4.260161	0.721691	-0.000043
1783	1.7731e+02	2.2629	-5.979585	0.000438	4.383050	0.742509	-0.000044
1784	1.7741e+02	2.2565	-6.022763	0.000434	4.342087	0.735569	-0.000043
1785	1.7751e+02	2.2439	-6.068793	0.000463	4.628829	0.784145	-0.000046
1786	1.7761e+02	2.2321	-6.111157	0.000426	4.260161	0.721691	-0.000043
1787	1.7771e+02	2.2248	-6.155150	0.000442	4.424013	0.749448	-0.000044
1788	1.7781e+02	2.2153	-6.204438	0.000496	4.956533	0.839659	-0.000050
1789	1.7791e+02	2.2048	-6.248024	0.000438	4.383050	0.742509	-0.000044
1790	1.7801e+02	2.1955	-6.294868	0.000471	4.710755	0.798023	-0.000047
1791	1.7810e+02	2.1848	-6.337639	0.000430	4.301124	0.728630	-0.000043
1792	1.7820e+02	2.1748	-6.382854	0.000455	4.546902	0.770266	-0.000045
1793	1.7830e+02	2.1628	-6.432143	0.000496	4.956533	0.839659	-0.000050
1794	1.7840e+02	2.1548	-6.474914	0.000430	4.301124	0.728630	-0.000043
1795	1.7850e+02	2.1474	-6.518907	0.000442	4.424013	0.749448	-0.000044
1796	1.7860e+02	2.1351	-6.566973	0.000483	4.833644	0.818841	-0.000048
1797	1.7870e+02	2.1261	-6.611781	0.000451	4.505939	0.763327	-0.000045
1798	1.7880e+02	2.1140	-6.657810	0.000463	4.628829	0.784145	-0.000046
1799	1.7890e+02	2.1054	-6.699767	0.000422	4.219198	0.714751	-0.000042
1800	1.7900e+02	2.0945	-6.749055	0.000496	4.956533	0.839659	-0.000050
1801	1.7910e+02	2.0852	-6.792641	0.000438	4.383050	0.742509	-0.000044
1802	1.7920e+02	2.0747	-6.836226	0.000438	4.383050	0.742509	-0.000044
1803	1.7930e+02	2.0637	-6.885922	0.000500	4.997496	0.846599	-0.000050
1804	1.7940e+02	2.0547	-6.931137	0.000455	4.546902	0.770266	-0.000045
1805	1.7950e+02	2.0450	-6.980018	0.000492	4.915570	0.832720	-0.000049
1806	1.7960e+02	2.0358	-7.022382	0.000426	4.260161	0.721691	-0.000043
1807	1.7970e+02	2.0239	-7.072078	0.000500	4.997496	0.846599	-0.000050
1808	1.7980e+02	2.0171	-7.113627	0.000418	4.178235	0.707812	-0.000042
1809	1.7990e+02	2.0062	-7.163730	0.000504	5.038459	0.853538	-0.000050
1810	1.8000e+02	1.9980	-7.211389	0.000479	4.792681	0.811902	-0.000048
1811	1.8009e+02	1.9868	-7.254160	0.000430	4.301124	0.728630	-0.000043
1812	1.8019e+02	1.9753	-7.299375	0.000455	4.546902	0.770266	-0.000045
1813	1.8029e+02	1.9646	-7.349478	0.000504	5.038459	0.853538	-0.000050
1814	1.8039e+02	1.9556	-7.393064	0.000438	4.383050	0.742509	-0.000044
1815	1.8049e+02	1.9500	-7.441130	0.000483	4.833644	0.818841	-0.000048
1816	1.8059e+02	1.9366	-7.484308	0.000434	4.342087	0.735569	-0.000043
1817	1.8069e+02	1.9270	-7.533189	0.000492	4.915570	0.832720	-0.000049
1818	1.8079e+02	1.9175	-7.580849	0.000479	4.792681	0.811902	-0.000048
1819	1.8089e+02	1.9070	-7.622805	0.000422	4.219198	0.714751	-0.000042
1820	1.8099e+02	1.8954	-7.670057	0.000475	4.751718	0.804963	-0.000047
1821	1.8109e+02	1.8863	-7.716901	0.000471	4.710755	0.798023	-0.000047
1822	1.8119e+02	1.8758	-7.763745	0.000471	4.710755	0.798023	-0.000047
1823	1.8129e+02	1.8665	-7.810997	0.000475	4.751718	0.804963	-0.000047
1824	1.8139e+02	1.8580	-7.857434	0.000467	4.669792	0.791084	-0.000047
1825	1.8149e+02	1.8446	-7.907945	0.000508	5.079422	0.860477	-0.000051
1826	1.8159e+02	1.8361	-7.950308	0.000426	4.260161	0.721691	-0.000043
1827	1.8169e+02	1.8250	-7.998782	0.000487	4.874607	0.825781	-0.000049
1828	1.8179e+02	1.8185	-8.047663	0.000492	4.915570	0.832720	-0.000049
1829	1.8189e+02	1.8078	-8.094100	0.000467	4.669792	0.791084	-0.000047
1830	1.8199e+02	1.7956	-8.138501	0.000446	4.464976	0.756387	-0.000045
1831	1.8209e+02	1.7870	-8.186974	0.000487	4.874607	0.825781	-0.000049
1832	1.8218e+02	1.7766	-8.234633	0.000479	4.792681	0.811902	-0.000048
1833	1.8228e+02	1.7646	-8.283922	0.000496	4.956533	0.839659	-0.000050
1834	1.8238e+02	1.7590	-8.327915	0.000442	4.424013	0.749448	-0.000044
1835	1.8248e+02	1.7463	-8.375574	0.000479	4.792681	0.811902	-0.000048
1836	1.8258e+02	1.7391	-8.423233	0.000479	4.792681	0.811902	-0.000048
1837	1.8268e+02	1.7262	-8.472929	0.000500	4.997496	0.846599	-0.000050
1838	1.8278e+02	1.7166	-8.521403	0.000487	4.874607	0.825781	-0.000049
1839	1.8288e+02	1.7066	-8.566618	0.000455	4.546902	0.770266	-0.000045
1840	1.8298e+02	1.6982	-8.617535	0.000512	5.120386	0.867417	-0.000051
1841	1.8308e+02	1.6867	-8.663158	0.000459	4.587865	0.777205	-0.000046
1842	1.8318e+02	1.6772	-8.714076	0.000512	5.120386	0.867417	-0.000051
1843	1.8328e+02	1.6689	-8.760920	0.000471	4.710755	0.798023	-0.000047
1844	1.8338e+02	1.6588	-8.806542	0.000459	4.587865	0.777205	-0.000046
1845	1.8348e+02	1.6449	-8.856238	0.000500	4.997496	0.846599	-0.000050
1846	1.8358e+02	1.6391	-8.901453	0.000455	4.546902	0.770266	-0.000045
1847	1.8368e+02	1.6285	-8.951149	0.000500	4.997496	0.846599	-0.000050
1848	1.8378e+02	1.6151	-8.996364	0.000455	4.546902	0.770266	-0.000045
1849	1.8388e+02	1.6090	-9.044838	0.000487	4.874607	0.825781	-0.000049
1850	1.8398e+02	1.5984	-9.087201	0.000426	4.260161	0.721691	-0.000043
1851	1.8407e+02	1.5891	-9.134453	0.000475	4.751718	0.804963	-0.000047
1852	1.8417e+02	1.5751	-9.184556	0.000504	5.038459	0.853538	-0.000050
1853	1.8427e+02	1.5665	-9.233030	0.000487	4.874607	0.825781	-0.000049
1854	1.8437e+02	1.5575	-9.280282	0.000475	4.751718	0.804963	-0.000047
1855	1.8447e+02	1.5488	-9.329570	0.000496	4.956533	0.839659	-0.000050
1856	1.8457e+02	1.5369	-9.378451	0.000492	4.915570	0.832720	-0.000049
1857	1.8467e+02	1.5247	-9.428554	0.000504	5.038459	0.853538	-0.000050
1858	1.8477e+02	1.5197	-9.477843	0.000496	4.956533	0.839659	-0.000050
1859	1.8487e+02	1.5088	-9.524687	0.000471	4.710755	0.798023	-0.000047
1860	1.8497e+02	1.4964	-9.571124	0.000467	4.669792	0.791084	-0.000047
1861	1.8507e+02	1.4862	-9.617561	0.000467	4.669792	0.791084	-0.000047
1862	1.8517e+02	1.4765	-9.665220	0.000479	4.792681	0.811902	-0.000048
1863	1.8527e+02	1.4701	-9.714101	0.000492	4.915570	0.832720	-0.000049
1864	1.8537e+02	1.4556	-9.765834	0.000520	5.202312	0.881295	-0.000052
1865	1.8547e+02	1.4498	-9.813900	0.000483	4.833644	0.818841	-0.000048
1866	1.8557e+02	1.4392	-9.864004	0.000504	5.038459	0.853538	-0.000050
1867	1.8567e+02	1.4280	-9.911663	0.000479	4.792681	0.811902	-0.000048
1868	1.8577e+02	1.4202	-9.963802	0.000524	5.243275	0.888235	-0.000052
1869	1.8587e+02	1.4098	-10.014720	0.000512	5.120386	0.867417	-0.000051
1870	1.8597e+02	1.3989	-10.060750	0.000463	4.628829	0.784145	-0.000046
1871	1.8606e+02	1.3918	-10.112890	0.000524	5.243275	0.888235	-0.000052
1872	1.8616e+02	1.3758	-10.162178	0.000496	4.956533	0.839659	-0.000050
1873	1.8626e+02	1.3671	-10.211874	0.000500	4.997496	0.846599	-0.000050
1874	1.8636e+02	1.3599	-10.257904	0.000463	4.628829	0.784145	-0.000046
1875	1.8646e+02	1.3448	-10.311673	0.000541	5.407127	0.915992	-0.000054
1876	1.8656e+02	1.3426	-10.362591	0.000512	5.120386	0.867417	-0.000051
1877	1.8666e+02	1.3290	-10.411879	0.000496	4.956533	0.839659	-0.000050
1878	1.8676e+02	1.3203	-10.461982	0.000504	5.038459	0.853538	-0.000050
1879	1.8686e+02	1.3119	-10.512493	0.000508	5.079422	0.860477	-0.000051
1880	1.8696e+02	1.2967	-10.562596	0.000504	5.038459	0.853538	-0.000050
1881	1.8706e+02	1.2903	-10.609033	0.000467	4.669792	0.791084	-0.000047
1882	1.8716e+02	1.2774	-10.657507	0.000487	4.874607	0.825781	-0.000049
1883	1.8726e+02	1.2711	-10.710461	0.000533	5.325201	0.902113	-0.000053
1884	1.8736e+02	1.2609	-10.758120	0.000479	4.792681	0.811902	-0.000048
1885	1.8746e+02	1.2486	-10.805372	0.000475	4.751718	0.804963	-0.000047
1886	1.8756e+02	1.2402	-10.855475	0.000504	5.038459	0.853538	-0.000050
1887	1.8766e+02	1.2291	-10.905171	0.000500	4.997496	0.846599	-0.000050
1888	1.8776e+02	1.2203	-10.956089	0.000512	5.120386	0.867417	-0.000051
1889	1.8786e+02	1.2106	-11.006192	0.000504	5.038459	0.853538	-0.000050
1890	1.8796e+02	1.1993	-11.057517	0.000516	5.161349	0.874356	-0.000052
1891	1.8806e+02	1.1912	-11.106398	0.000492	4.915570	0.832720	-0.000049
1892	1.8815e+02	1.1788	-11.154465	0.000483	4.833644	0.818841	-0.000048
1893	1.8825e+02	1.1709	-11.207012	0.000528	5.284238	0.895174	-0.000053
1894	1.8835e+02	1.1608	-11.255893	0.000492	4.915570	0.832720	-0.000049
1895	1.8845e+02	1.1514	-11.307218	0.000516	5.161349	0.874356	-0.000052
1896	1.8855e+02	1.1397	-11.356099	0.000492	4.915570	0.832720	-0.000049
1897	1.8865e+02	1.1307	-11.407832	0.000520	5.202312	0.881295	-0.000052
1898	1.8875e+02	1.1219	-11.456306	0.000487	4.874607	0.825781	-0.000049
1899	1.8885e+02	1.1108	-11.508038	0.000520	5.202312	0.881295	-0.000052
1900	1.8895e+02	1.1003	-11.557327	0.000496	4.956533	0.839659	-0.000050
1901	1.8905e+02	1.0904	-11.612318	0.000553	5.530016	0.936810	-0.000055
1902	1.8915e+02	1.0796	-11.661606	0.000496	4.956533	0.839659	-0.000050
1903	1.8925e+02	1.0731	-11.712117	0.000508	5.079422	0.860477	-0.000051
1904	1.8935e+02	1.0615	-11.767515	0.000557	5.570980	0.943749	-0.000056
1905	1.8945e+02	1.0486	-11.815582	0.000483	4.833644	0.818841	-0.000048
1906	1.8955e+02	1.0393	-11.862833	0.000475	4.751718	0.804963	-0.000047
1907	1.8965e+02	1.0309	-11.914973	0.000524	5.243275	0.888235	-0.000052
1908	1.8975e+02	1.0201	-11.966298	0.000516	5.161349	0.874356	-0.000052
1909	1.8985e+02	1.0091	-12.021290	0.000553	5.530016	0.936810	-0.000055
1910	1.8995e+02	1.0024	-12.070578	0.000496	4.956533	0.839659	-0.000050
1911	1.9004e+02	0.9914	-12.117015	0.000467	4.669792	0.791084	-0.000047
1912	1.9014e+02	0.9826	-12.168340	0.000516	5.161349	0.874356	-0.000052
1913	1.9024e+02	0.9686	-12.218444	0.000504	5.038459	0.853538	-0.000050
1914	1.9034e+02	0.9621	-12.270583	0.000524	5.243275	0.888235	-0.000052
1915	1.9044e+02	0.9473	-12.324353	0.000541	5.407127	0.915992	-0.000054
1916	1.9054e+02	0.9408	-12.374048	0.000500	4.997496	0.846599	-0.000050
1917	1.9064e+02	0.9333	-12.424966	0.000512	5.120386	0.867417	-0.000051
1918	1.9074e+02	0.9231	-12.479143	0.000545	5.448090	0.922931	-0.000054
1919	1.9084e+02	0.9113	-12.527209	0.000483	4.833644	0.818841	-0.000048
1920	1.9094e+02	0.9014	-12.579756	0.000528	5.284238	0.895174	-0.000053
1921	1.9104e+02	0.8920	-12.634340	0.000549	5.489053	0.929871	-0.000055
1922	1.9114e+02	0.8813	-12.686073	0.000520	5.202312	0.881295	-0.000052
1923	1.9124e+02	0.8746	-12.736991	0.000512	5.120386	0.867417	-0.000051
1924	1.9134e+02	0.8610	-12.783835	0.000471	4.710755	0.798023	-0.000047
1925	1.9144e+02	0.8503	-12.835567	0.000520	5.202312	0.881295	-0.000052
1926	1.9154e+02	0.8431	-12.889744	0.000545	5.448090	0.922931	-0.000054
1927	1.9164e+02	0.8311	-12.944735	0.000553	5.530016	0.936810	-0.000055
1928	1.9174e+02	0.8197	-12.996468	0.000520	5.202312	0.881295	-0.000052
1929	1.9184e+02	0.8155	-13.045349	0.000492	4.915570	0.832720	-0.000049
1930	1.9194e+02	0.8009	-13.097489	0.000524	5.243275	0.888235	-0.000052
1931	1.9203e+02	0.7914	-13.154517	0.000573	5.734832	0.971507	-0.000057
1932	1.9213e+02	0.7841	-13.207064	0.000528	5.284238	0.895174	-0.000053
1933	1.9223e+02	0.7711	-13.261648	0.000549	5.489053	0.929871	-0.000055
1934	1.9233e+02	0.7632	-13.314602	0.000533	5.325201	0.902113	-0.000053
1935	1.9243e+02	0.7522	-13.365113	0.000508	5.079422	0.860477	-0.000051
1936	1.9253e+02	0.7446	-13.421733	0.000569	5.693869	0.964567	-0.000057
1937	1.9263e+02	0.7306	-13.468985	0.000475	4.751718	0.804963	-0.000047
1938	1.9273e+02	0.7218	-13.520310	0.000516	5.161349	0.874356	-0.000052
1939	1.9283e+02	0.7129	-13.574487	0.000545	5.448090	0.922931	-0.000054
1940	1.9293e+02	0.7019	-13.625812	0.000516	5.161349	0.874356	-0.000052
1941	1.9303e+02	0.6925	-13.679174	0.000537	5.366164	0.909053	-0.000054
1942	1.9313e+02	0.6828	-13.728870	0.000500	4.997496	0.846599	-0.000050
1943	1.9323e+02	0.6728	-13.784676	0.000561	5.611943	0.950689	-0.000056
1944	1.9333e+02	0.6651	-13.834371	0.000500	4.997496	0.846599	-0.000050
1945	1.9343e+02	0.6509	-13.896695	0.000627	6.267352	1.061718	-0.000063
1946	1.9353e+02	0.6408	-13.942725	0.000463	4.628829	0.784145	-0.000046
1947	1.9363e+02	0.6325	-13.999752	0.000573	5.734832	0.971507	-0.000057
1948	1.9373e+02	0.6264	-14.051892	0.000524	5.243275	0.888235	-0.000052
1949	1.9383e+02	0.6136	-14.101995	0.000504	5.038459	0.853538	-0.000050
1950	1.9393e+02	0.6025	-14.152099	0.000504	5.038459	0.853538	-0.000050
1951	1.9403e+02	0.5930	-14.204646	0.000528	5.284238	0.895174	-0.000053
1952	1.9412e+02	0.5838	-14.256786	0.000524	5.243275	0.888235	-0.000052
1953	1.9422e+02	0.5737	-14.309740	0.000533	5.325201	0.902113	-0.000053
1954	1.9432e+02	0.5629	-14.360658	0.000512	5.120386	0.867417	-0.000051
1955	1.9442e+02	0.5503	-14.411576	0.000512	5.120386	0.867417	-0.000051
1956	1.9452e+02	0.5450	-14.466567	0.000553	5.530016	0.936810	-0.000055
1957	1.9462e+02	0.5318	-14.521966	0.000557	5.570980	0.943749	-0.000056
1958	1.9472e+02	0.5241	-14.575735	0.000541	5.407127	0.915992	-0.000054
1959	1.9482e+02	0.5131	-14.624616	0.000492	4.915570	0.832720	-0.000049
1960	1.9492e+02	0.5045	-14.679200	0.000549	5.489053	0.929871	-0.000055
1961	1.9502e+02	0.4916	-14.730932	0.000520	5.202312	0.881295	-0.000052
1962	1.9512e+02	0.4852	-14.789590	0.000590	5.898684	0.999264	-0.000059
1963	1.9522e+02	0.4720	-14.843359	0.000541	5.407127	0.915992	-0.000054
1964	1.9532e+02	0.4626	-14.899165	0.000561	5.611943	0.950689	-0.000056
1965	1.9542e+02	0.4519	-14.949268	0.000504	5.038459	0.853538	-0.000050
1966	1.9552e+02	0.4443	-15.005074	0.000561	5.611943	0.950689	-0.000056
1967	1.9562e+02	0.4339	-15.053140	0.000483	4.833644	0.818841	-0.000048
1968	1.9572e+02	0.4229	-15.111390	0.000586	5.857721	0.992325	-0.000059
1969	1.9582e+02	0.4150	-15.165567	0.000545	5.448090	0.922931	-0.000054
1970	1.9592e+02	0.4055	-15.219743	0.000545	5.448090	0.922931	-0.000054
1971	1.9601e+02	0.3962	-15.277179	0.000578	5.775795	0.978446	-0.000058
1972	1.9611e+02	0.3835	-15.327282	0.000504	5.038459	0.853538	-0.000050
1973	1.9621e+02	0.3719	-15.383495	0.000565	5.652906	0.957628	-0.000056
1974	1.9631e+02	0.3659	-15.432376	0.000492	4.915570	0.832720	-0.000049
1975	1.9641e+02	0.3555	-15.493070	0.000610	6.103500	1.033961	-0.000061
1976	1.9651e+02	0.3431	-15.545210	0.000524	5.243275	0.888235	-0.000052
1977	1.9661e+02	0.3343	-15.598979	0.000541	5.407127	0.915992	-0.000054
1978	1.9671e+02	0.3239	-15.653563	0.000549	5.489053	0.929871	-0.000055
1979	1.9681e+02	0.3132	-15.711813	0.000586	5.857721	0.992325	-0.000059
1980	1.9691e+02	0.3039	-15.765990	0.000545	5.448090	0.922931	-0.000054
1981	1.9701e+02	0.2940	-15.817315	0.000516	5.161349	0.874356	-0.000052
1982	1.9711e+02	0.2824	-15.869047	0.000520	5.202312	0.881295	-0.000052
1983	1.9721e+02	0.2732	-15.927705	0.000590	5.898684	0.999264	-0.000059
1984	1.9731e+02	0.2655	-15.985955	0.000586	5.857721	0.992325	-0.000059
1985	1.9741e+02	0.2546	-16.035651	0.000500	4.997496	0.846599	-0.000050
1986	1.9751e+02	0.2448	-16.089827	0.000545	5.448090	0.922931	-0.000054
1987	1.9761e+02	0.2357	-16.144004	0.000545	5.448090	0.922931	-0.000054
1988	1.9771e+02	0.2236	-16.203883	0.000602	6.021573	1.020082	-0.000060
1989	1.9781e+02	0.2157	-16.255208	0.000516	5.161349	0.874356	-0.000052
1990	1.9791e+02	0.2043	-16.313866	0.000590	5.898684	0.999264	-0.000059
1991	1.9800e+02	0.1954	-16.369264	0.000557	5.570980	0.943749	-0.000056
1992	1.9810e+02	0.1817	-16.425477	0.000565	5.652906	0.957628	-0.000056
1993	1.9820e+02	0.1759	-16.480061	0.000549	5.489053	0.929871	-0.000055
1994	1.9830e+02	0.1635	-16.535053	0.000553	5.530016	0.936810	-0.000055
1995	1.9840e+02	0.1572	-16.591673	0.000569	5.693869	0.964567	-0.000057
1996	1.9850e+02	0.1434	-16.648701	0.000573	5.734832	0.971507	-0.000057
1997	1.9860e+02	0.1321	-16.704914	0.000565	5.652906	0.957628	-0.000056
1998	1.9870e+02	0.1248	-16.759091	0.000545	5.448090	0.922931	-0.000054
1999	1.9880e+02	0.1169	-16.816934	0.000582	5.816758	0.985385	-0.000058
2000	1.9890e+02	0.1073	-16.870703	0.000541	5.407127	0.915992	-0.000054
2001	1.9900e+02	0.0946	-16.927323	0.000569	5.693869	0.964567	-0.000057
2002	1.9910e+02	0.0833	-16.983537	0.000565	5.652906	0.957628	-0.000056
2003	1.9920e+02	0.0767	-17.039750	0.000565	5.652906	0.957628	-0.000056
2004	1.9930e+02	0.0635	-17.094334	0.000549	5.489053	0.929871	-0.000055
2005	1.9940e+02	0.0556	-17.151769	0.000578	5.775795	0.978446	-0.000058
2006	1.9950e+02	0.0461	-17.214500	0.000631	6.308315	1.068657	-0.000063
2007	1.9960e+02	0.0336	-17.264196	0.000500	4.997496	0.846599	-0.000050
2008	1.9970e+02	0.0249	-17.319187	0.000553	5.530016	0.936810	-0.000055
2009	1.9980e+02	0.0177	-17.377844	0.000590	5.898684	0.999264	-0.000059
2010	1.9990e+02	0.0050	-17.436909	0.000594	5.939647	1.006203	-0.000059
2011	2.0000e+02	-0.0015	-17.493937	0.000594	5.939647	1.006203	-0.000057

PMax (uC/cm2):	4.01e+01
Pr (uC/cm2):	2.55e+00
-Pr (uC/cm2):	0.00e+00
PLoss (uC/cm2):	0.00e+00
C (Max-Eff) (nF):	4.01e-01
K (Eff):	6.80e+02
Vert. (+/-Pr) Shift (uC/cm2):	1.27e+00
Offset (uC/cm2):	2.00e+01

A (Loop Area - uC/cm2·Volts):	-2.50e-02



Hysteresis Version: 5.48.1 - Radiant Technologies, Inc., 1999 - 9/12/24

