»»»»»»»»»»»»»»»»»»»»»»»»»»»»»»»»»»»» Hysteresis ««««««««««««««««««««««««««««««««««««
»»»  Executed Version:	5.48.1
»»»  Vision Version:	5.48.4 (R)
»»»  Vision Compiled:	9/18/24
»»»  Driver Version:	5.47.0
»»»  Windows Version:	Windows 8 or 8.1
»»»  Processor Information:	x86 (AMD or Intel) - 32 Processors
»»»  Tester Name:	PMF21124-494 (100V)
»»»  Tester S/N:	PMF21124-494
»»»  Internal Amp Type:	100V RevK 270k
»»»  Internal Amp S/N:	iAB2-596/K     
»»»  Execution Count:	1
»»»»»»»»»»»»»»»»»»»»»»»»»»»»»»»»»»»»»»»»»»««««««««««««««««««««««««««««««««««««««««««

Stored:	6/27/2025 - 17:8:11
Configured:	06/27/25 11:23:28 AM
Executed:	06/27/25 05:07:40 PM

»»»»»»»»»»»»»»»»»»»»»»»»»»»»»»»»»»» Sample Info ««««««««««««««««««««««««««««««««««««
Sample Name:	
Lot Name:	
Wafer Name:	
Die Row/Column:	0/0
Capacitor Number:	0
Sample Area (cm2):	1.00e-04
Sample Thickness (microns):	1.50e-01

Amplifier:	Internal

»»»»»»»»»»»»»»»»»»»»»»»»»»»»»»»»»»» Tester Info «««««««««««««««««««««««««««««««««««
Tester Name:	PMF21124-494 (100V)
Tester Serial Number:	PMF21124-494
Return Signal Amp. Level:	1.9 [Index: 2]

»»»»»»»»»»»»»»»»»»»»»»»»»»»»»»»» Hysteresis Info ««««««««««««««««««««««««««««««««««
Task Name:	Hyst-1276
Volts:	10.00
Field:	666.67 (kV/cm)
DCBias:	0.00
DCField:	0.00 (kV/cm)
Hysteresis Period (ms):	2.00e+02
Preset:	Enabled
Preset Delay (ms):	1.00e+03
Profile:	Standard Monopolar

»»»»»»»»»»»»»»»»»»»»»»»»»»»»»»»»»»»»»» Data «««««««««««««««««««««««««««««««««««««««
Points:	2011

Valid Data

Point	Time (ms)	Drive Voltage	Measured Polarization (uC/cm2)	Capacitance (uF)	Normalized Capacitance (uF/cm2)	Dielectric Constant	Instantaneous Current (mA)
   1	0.0000e+00	-0.0047	-18.192122	0.000393	3.930776	0.665891	0.000039
   2	9.9500e-02	0.0050	-18.153017	0.000393	3.930776	0.665891	0.000039
   3	1.9900e-01	0.0153	-18.106173	0.000471	4.708742	0.797682	0.000047
   4	2.9850e-01	0.0227	-18.062180	0.000442	4.422123	0.749128	0.000044
   5	3.9800e-01	0.0350	-18.023075	0.000393	3.930776	0.665891	0.000039
   6	4.9750e-01	0.0465	-17.977860	0.000454	4.544959	0.769937	0.000045
   7	5.9700e-01	0.0545	-17.933867	0.000442	4.422123	0.749128	0.000044
   8	6.9650e-01	0.0663	-17.894355	0.000397	3.971721	0.672828	0.000040
   9	7.9600e-01	0.0760	-17.852398	0.000422	4.217395	0.714446	0.000042
  10	8.9550e-01	0.0845	-17.810849	0.000418	4.176449	0.707510	0.000042
  11	9.9500e-01	0.0935	-17.764005	0.000471	4.708742	0.797682	0.000047
  12	1.0945e+00	0.1051	-17.728159	0.000360	3.603211	0.610400	0.000036
  13	1.1940e+00	0.1138	-17.686610	0.000418	4.176449	0.707510	0.000042
  14	1.2935e+00	0.1254	-17.640580	0.000463	4.626851	0.783810	0.000046
  15	1.3930e+00	0.1336	-17.601475	0.000393	3.930776	0.665891	0.000039
  16	1.4925e+00	0.1433	-17.555038	0.000467	4.667796	0.790746	0.000047
  17	1.5920e+00	0.1543	-17.512267	0.000430	4.299286	0.728319	0.000043
  18	1.6915e+00	0.1631	-17.472348	0.000401	4.012667	0.679764	0.000040
  19	1.7910e+00	0.1752	-17.434872	0.000377	3.766993	0.638146	0.000038
  20	1.8905e+00	0.1849	-17.387213	0.000479	4.790633	0.811555	0.000048
  21	1.9900e+00	0.1936	-17.348923	0.000385	3.848885	0.652019	0.000038
  22	2.0895e+00	0.2042	-17.303708	0.000454	4.544959	0.769937	0.000045
  23	2.1890e+00	0.2139	-17.261344	0.000426	4.258340	0.721382	0.000043
  24	2.2885e+00	0.2243	-17.221425	0.000401	4.012667	0.679764	0.000040
  25	2.3880e+00	0.2356	-17.178246	0.000434	4.340231	0.735255	0.000043
  26	2.4875e+00	0.2484	-17.133439	0.000450	4.504014	0.763001	0.000045
  27	2.5870e+00	0.2544	-17.089853	0.000438	4.381177	0.742191	0.000044
  28	2.6865e+00	0.2647	-17.049934	0.000401	4.012667	0.679764	0.000040
  29	2.7860e+00	0.2730	-17.004311	0.000459	4.585905	0.776873	0.000046
  30	2.8855e+00	0.2865	-16.959911	0.000446	4.463068	0.756064	0.000045
  31	2.9850e+00	0.2946	-16.913474	0.000467	4.667796	0.790746	0.000047
  32	3.0845e+00	0.3040	-16.872332	0.000414	4.135504	0.700573	0.000041
  33	3.1840e+00	0.3161	-16.826710	0.000459	4.585905	0.776873	0.000046
  34	3.2835e+00	0.3209	-16.785161	0.000418	4.176449	0.707510	0.000042
  35	3.3830e+00	0.3336	-16.737094	0.000483	4.831578	0.818492	0.000048
  36	3.4825e+00	0.3461	-16.695138	0.000422	4.217395	0.714446	0.000042
  37	3.5820e+00	0.3542	-16.650330	0.000450	4.504014	0.763001	0.000045
  38	3.6815e+00	0.3655	-16.609596	0.000409	4.094558	0.693637	0.000041
  39	3.7810e+00	0.3722	-16.565603	0.000442	4.422123	0.749128	0.000044
  40	3.8805e+00	0.3830	-16.519981	0.000459	4.585905	0.776873	0.000046
  41	3.9800e+00	0.3941	-16.472322	0.000479	4.790633	0.811555	0.000048
  42	4.0795e+00	0.4028	-16.425477	0.000471	4.708742	0.797682	0.000047
  43	4.1790e+00	0.4121	-16.383928	0.000418	4.176449	0.707510	0.000042
  44	4.2785e+00	0.4230	-16.339935	0.000442	4.422123	0.749128	0.000044
  45	4.3780e+00	0.4321	-16.296757	0.000434	4.340231	0.735255	0.000043
  46	4.4775e+00	0.4391	-16.252357	0.000446	4.463068	0.756064	0.000045
  47	4.5770e+00	0.4548	-16.212845	0.000397	3.971721	0.672828	0.000040
  48	4.6765e+00	0.4613	-16.163963	0.000491	4.913470	0.832364	0.000049
  49	4.7760e+00	0.4730	-16.115490	0.000487	4.872524	0.825428	0.000049
  50	4.8755e+00	0.4845	-16.076385	0.000393	3.930776	0.665891	0.000039
  51	4.9750e+00	0.4903	-16.027504	0.000491	4.913470	0.832364	0.000049
  52	5.0745e+00	0.5030	-15.986362	0.000414	4.135504	0.700573	0.000041
  53	5.1740e+00	0.5119	-15.940740	0.000459	4.585905	0.776873	0.000046
  54	5.2735e+00	0.5215	-15.897561	0.000434	4.340231	0.735255	0.000043
  55	5.3730e+00	0.5331	-15.850310	0.000475	4.749687	0.804619	0.000047
  56	5.4725e+00	0.5442	-15.805095	0.000454	4.544959	0.769937	0.000045
  57	5.5720e+00	0.5534	-15.758658	0.000467	4.667796	0.790746	0.000047
  58	5.6715e+00	0.5602	-15.719960	0.000389	3.889830	0.658955	0.000039
  59	5.7710e+00	0.5737	-15.674338	0.000459	4.585905	0.776873	0.000046
  60	5.8705e+00	0.5867	-15.629937	0.000446	4.463068	0.756064	0.000045
  61	5.9700e+00	0.5916	-15.583093	0.000471	4.708742	0.797682	0.000047
  62	6.0695e+00	0.6003	-15.538285	0.000450	4.504014	0.763001	0.000045
  63	6.1690e+00	0.6123	-15.495514	0.000430	4.299286	0.728319	0.000043
  64	6.2685e+00	0.6245	-15.456409	0.000393	3.930776	0.665891	0.000039
  65	6.3680e+00	0.6349	-15.413638	0.000430	4.299286	0.728319	0.000043
  66	6.4675e+00	0.6418	-15.366794	0.000471	4.708742	0.797682	0.000047
  67	6.5670e+00	0.6538	-15.327689	0.000393	3.930776	0.665891	0.000039
  68	6.6665e+00	0.6598	-15.283696	0.000442	4.422123	0.749128	0.000044
  69	6.7660e+00	0.6725	-15.237666	0.000463	4.626851	0.783810	0.000046
  70	6.8655e+00	0.6809	-15.196932	0.000409	4.094558	0.693637	0.000041
  71	6.9650e+00	0.6916	-15.153347	0.000438	4.381177	0.742191	0.000044
  72	7.0645e+00	0.7023	-15.110168	0.000434	4.340231	0.735255	0.000043
  73	7.1640e+00	0.7132	-15.063324	0.000471	4.708742	0.797682	0.000047
  74	7.2635e+00	0.7247	-15.024219	0.000393	3.930776	0.665891	0.000039
  75	7.3630e+00	0.7318	-14.980633	0.000438	4.381177	0.742191	0.000044
  76	7.4625e+00	0.7423	-14.934196	0.000467	4.667796	0.790746	0.000047
  77	7.5620e+00	0.7530	-14.897128	0.000373	3.726048	0.631210	0.000037
  78	7.6615e+00	0.7586	-14.849062	0.000483	4.831578	0.818492	0.000048
  79	7.7610e+00	0.7738	-14.813216	0.000360	3.603211	0.610400	0.000036
  80	7.8605e+00	0.7808	-14.761076	0.000524	5.241034	0.887855	0.000052
  81	7.9600e+00	0.7939	-14.720749	0.000405	4.053612	0.686701	0.000041
  82	8.0595e+00	0.8001	-14.672682	0.000483	4.831578	0.818492	0.000048
  83	8.1590e+00	0.8132	-14.627467	0.000454	4.544959	0.769937	0.000045
  84	8.2585e+00	0.8218	-14.589992	0.000377	3.766993	0.638146	0.000038
  85	8.3580e+00	0.8351	-14.541111	0.000491	4.913470	0.832364	0.000049
  86	8.4575e+00	0.8404	-14.496710	0.000446	4.463068	0.756064	0.000045
  87	8.5570e+00	0.8510	-14.449866	0.000471	4.708742	0.797682	0.000047
  88	8.6565e+00	0.8624	-14.408317	0.000418	4.176449	0.707510	0.000042
  89	8.7560e+00	0.8727	-14.356992	0.000516	5.159143	0.873982	0.000052
  90	8.8555e+00	0.8807	-14.316258	0.000409	4.094558	0.693637	0.000041
  91	8.9550e+00	0.8923	-14.268191	0.000483	4.831578	0.818492	0.000048
  92	9.0545e+00	0.9025	-14.223791	0.000446	4.463068	0.756064	0.000045
  93	9.1540e+00	0.9129	-14.173688	0.000504	5.036306	0.853173	0.000050
  94	9.2535e+00	0.9235	-14.127658	0.000463	4.626851	0.783810	0.000046
  95	9.3530e+00	0.9306	-14.080406	0.000475	4.749687	0.804619	0.000047
  96	9.4525e+00	0.9430	-14.034784	0.000459	4.585905	0.776873	0.000046
  97	9.5520e+00	0.9499	-13.988754	0.000463	4.626851	0.783810	0.000046
  98	9.6515e+00	0.9583	-13.939466	0.000495	4.954415	0.839301	0.000050
  99	9.7510e+00	0.9727	-13.892621	0.000471	4.708742	0.797682	0.000047
 100	9.8505e+00	0.9805	-13.846592	0.000463	4.626851	0.783810	0.000046
 101	9.9500e+00	0.9890	-13.802599	0.000442	4.422123	0.749128	0.000044
 102	1.0050e+01	0.9975	-13.752903	0.000500	4.995361	0.846237	0.000050
 103	1.0149e+01	1.0119	-13.707688	0.000454	4.544959	0.769937	0.000045
 104	1.0248e+01	1.0215	-13.660436	0.000475	4.749687	0.804619	0.000047
 105	1.0348e+01	1.0304	-13.609926	0.000508	5.077252	0.860110	0.000051
 106	1.0447e+01	1.0417	-13.563896	0.000463	4.626851	0.783810	0.000046
 107	1.0547e+01	1.0513	-13.519088	0.000450	4.504014	0.763001	0.000045
 108	1.0646e+01	1.0632	-13.469800	0.000495	4.954415	0.839301	0.000050
 109	1.0746e+01	1.0720	-13.422548	0.000475	4.749687	0.804619	0.000047
 110	1.0845e+01	1.0809	-13.375704	0.000471	4.708742	0.797682	0.000047
 111	1.0945e+01	1.0886	-13.331303	0.000446	4.463068	0.756064	0.000045
 112	1.1044e+01	1.0991	-13.283237	0.000483	4.831578	0.818492	0.000048
 113	1.1144e+01	1.1119	-13.240466	0.000430	4.299286	0.728319	0.000043
 114	1.1243e+01	1.1185	-13.193214	0.000475	4.749687	0.804619	0.000047
 115	1.1343e+01	1.1282	-13.149629	0.000438	4.381177	0.742191	0.000044
 116	1.1443e+01	1.1368	-13.102377	0.000475	4.749687	0.804619	0.000047
 117	1.1542e+01	1.1512	-13.055940	0.000467	4.667796	0.790746	0.000047
 118	1.1642e+01	1.1578	-13.007873	0.000483	4.831578	0.818492	0.000048
 119	1.1741e+01	1.1715	-12.967954	0.000401	4.012667	0.679764	0.000040
 120	1.1841e+01	1.1774	-12.917851	0.000504	5.036306	0.853173	0.000050
 121	1.1940e+01	1.1890	-12.873858	0.000442	4.422123	0.749128	0.000044
 122	1.2040e+01	1.1986	-12.832309	0.000418	4.176449	0.707510	0.000042
 123	1.2139e+01	1.2113	-12.785872	0.000467	4.667796	0.790746	0.000047
 124	1.2239e+01	1.2208	-12.739435	0.000467	4.667796	0.790746	0.000047
 125	1.2338e+01	1.2306	-12.699922	0.000397	3.971721	0.672828	0.000040
 126	1.2438e+01	1.2429	-12.651856	0.000483	4.831578	0.818492	0.000048
 127	1.2537e+01	1.2501	-12.608678	0.000434	4.340231	0.735255	0.000043
 128	1.2636e+01	1.2621	-12.564277	0.000446	4.463068	0.756064	0.000045
 129	1.2736e+01	1.2704	-12.521099	0.000434	4.340231	0.735255	0.000043
 130	1.2835e+01	1.2785	-12.475884	0.000454	4.544959	0.769937	0.000045
 131	1.2935e+01	1.2907	-12.428225	0.000479	4.790633	0.811555	0.000048
 132	1.3034e+01	1.2964	-12.383825	0.000446	4.463068	0.756064	0.000045
 133	1.3134e+01	1.3057	-12.342276	0.000418	4.176449	0.707510	0.000042
 134	1.3233e+01	1.3180	-12.294617	0.000479	4.790633	0.811555	0.000048
 135	1.3333e+01	1.3289	-12.254290	0.000405	4.053612	0.686701	0.000041
 136	1.3432e+01	1.3377	-12.206223	0.000483	4.831578	0.818492	0.000048
 137	1.3532e+01	1.3456	-12.163860	0.000426	4.258340	0.721382	0.000043
 138	1.3632e+01	1.3554	-12.117830	0.000463	4.626851	0.783810	0.000046
 139	1.3731e+01	1.3691	-12.076281	0.000418	4.176449	0.707510	0.000042
 140	1.3831e+01	1.3773	-12.031881	0.000446	4.463068	0.756064	0.000045
 141	1.3930e+01	1.3886	-11.985036	0.000471	4.708742	0.797682	0.000047
 142	1.4030e+01	1.3995	-11.946339	0.000389	3.889830	0.658955	0.000039
 143	1.4129e+01	1.4078	-11.897458	0.000491	4.913470	0.832364	0.000049
 144	1.4229e+01	1.4194	-11.857131	0.000405	4.053612	0.686701	0.000041
 145	1.4328e+01	1.4276	-11.811101	0.000463	4.626851	0.783810	0.000046
 146	1.4428e+01	1.4376	-11.765479	0.000459	4.585905	0.776873	0.000046
 147	1.4527e+01	1.4480	-11.719856	0.000459	4.585905	0.776873	0.000046
 148	1.4627e+01	1.4575	-11.678307	0.000418	4.176449	0.707510	0.000042
 149	1.4726e+01	1.4674	-11.631463	0.000471	4.708742	0.797682	0.000047
 150	1.4825e+01	1.4779	-11.587470	0.000442	4.422123	0.749128	0.000044
 151	1.4925e+01	1.4922	-11.541440	0.000463	4.626851	0.783810	0.000046
 152	1.5024e+01	1.4986	-11.492966	0.000487	4.872524	0.825428	0.000049
 153	1.5124e+01	1.5078	-11.450195	0.000430	4.299286	0.728319	0.000043
 154	1.5223e+01	1.5189	-11.406202	0.000442	4.422123	0.749128	0.000044
 155	1.5323e+01	1.5277	-11.360173	0.000463	4.626851	0.783810	0.000046
 156	1.5422e+01	1.5378	-11.313328	0.000471	4.708742	0.797682	0.000047
 157	1.5522e+01	1.5450	-11.269743	0.000438	4.381177	0.742191	0.000044
 158	1.5621e+01	1.5565	-11.224935	0.000450	4.504014	0.763001	0.000045
 159	1.5721e+01	1.5679	-11.176461	0.000487	4.872524	0.825428	0.000049
 160	1.5820e+01	1.5794	-11.132468	0.000442	4.422123	0.749128	0.000044
 161	1.5920e+01	1.5890	-11.085624	0.000471	4.708742	0.797682	0.000047
 162	1.6020e+01	1.5954	-11.042446	0.000434	4.340231	0.735255	0.000043
 163	1.6119e+01	1.6100	-11.000897	0.000418	4.176449	0.707510	0.000042
 164	1.6218e+01	1.6164	-10.954460	0.000467	4.667796	0.790746	0.000047
 165	1.6318e+01	1.6272	-10.906800	0.000479	4.790633	0.811555	0.000048
 166	1.6418e+01	1.6368	-10.866881	0.000401	4.012667	0.679764	0.000040
 167	1.6517e+01	1.6455	-10.822481	0.000446	4.463068	0.756064	0.000045
 168	1.6616e+01	1.6554	-10.777266	0.000454	4.544959	0.769937	0.000045
 169	1.6716e+01	1.6665	-10.735309	0.000422	4.217395	0.714446	0.000042
 170	1.6816e+01	1.6763	-10.695390	0.000401	4.012667	0.679764	0.000040
 171	1.6915e+01	1.6857	-10.650175	0.000454	4.544959	0.769937	0.000045
 172	1.7015e+01	1.6954	-10.604552	0.000459	4.585905	0.776873	0.000046
 173	1.7114e+01	1.7052	-10.560152	0.000446	4.463068	0.756064	0.000045
 174	1.7213e+01	1.7202	-10.524713	0.000356	3.562265	0.603464	0.000036
 175	1.7313e+01	1.7271	-10.480313	0.000446	4.463068	0.756064	0.000045
 176	1.7413e+01	1.7336	-10.437135	0.000434	4.340231	0.735255	0.000043
 177	1.7512e+01	1.7471	-10.400881	0.000364	3.644157	0.617337	0.000036
 178	1.7611e+01	1.7569	-10.357703	0.000434	4.340231	0.735255	0.000043
 179	1.7711e+01	1.7678	-10.318598	0.000393	3.930776	0.665891	0.000039
 180	1.7811e+01	1.7757	-10.280715	0.000381	3.807939	0.645082	0.000038
 181	1.7910e+01	1.7873	-10.238351	0.000426	4.258340	0.721382	0.000043
 182	1.8009e+01	1.7974	-10.200061	0.000385	3.848885	0.652019	0.000038
 183	1.8109e+01	1.8069	-10.154846	0.000454	4.544959	0.769937	0.000045
 184	1.8209e+01	1.8147	-10.116556	0.000385	3.848885	0.652019	0.000038
 185	1.8308e+01	1.8265	-10.076636	0.000401	4.012667	0.679764	0.000040
 186	1.8407e+01	1.8351	-10.034680	0.000422	4.217395	0.714446	0.000042
 187	1.8507e+01	1.8471	-9.996797	0.000381	3.807939	0.645082	0.000038
 188	1.8607e+01	1.8553	-9.957692	0.000393	3.930776	0.665891	0.000039
 189	1.8706e+01	1.8673	-9.914514	0.000434	4.340231	0.735255	0.000043
 190	1.8805e+01	1.8745	-9.876631	0.000381	3.807939	0.645082	0.000038
 191	1.8905e+01	1.8867	-9.835490	0.000414	4.135504	0.700573	0.000041
 192	1.9005e+01	1.8958	-9.795163	0.000405	4.053612	0.686701	0.000041
 193	1.9104e+01	1.9045	-9.758094	0.000373	3.726048	0.631210	0.000037
 194	1.9203e+01	1.9153	-9.713694	0.000446	4.463068	0.756064	0.000045
 195	1.9303e+01	1.9283	-9.672960	0.000409	4.094558	0.693637	0.000041
 196	1.9402e+01	1.9355	-9.629374	0.000438	4.381177	0.742191	0.000044
 197	1.9502e+01	1.9458	-9.593935	0.000356	3.562265	0.603464	0.000036
 198	1.9602e+01	1.9540	-9.549128	0.000450	4.504014	0.763001	0.000045
 199	1.9701e+01	1.9655	-9.509616	0.000397	3.971721	0.672828	0.000040
 200	1.9800e+01	1.9769	-9.466030	0.000438	4.381177	0.742191	0.000044
 201	1.9900e+01	1.9858	-9.430591	0.000356	3.562265	0.603464	0.000036
 202	2.0000e+01	1.9962	-9.386191	0.000446	4.463068	0.756064	0.000045
 203	2.0099e+01	2.0059	-9.344642	0.000418	4.176449	0.707510	0.000042
 204	2.0198e+01	2.0159	-9.302686	0.000422	4.217395	0.714446	0.000042
 205	2.0298e+01	2.0206	-9.261137	0.000418	4.176449	0.707510	0.000042
 206	2.0398e+01	2.0374	-9.222846	0.000385	3.848885	0.652019	0.000038
 207	2.0497e+01	2.0451	-9.178039	0.000450	4.504014	0.763001	0.000045
 208	2.0596e+01	2.0533	-9.134453	0.000438	4.381177	0.742191	0.000044
 209	2.0696e+01	2.0644	-9.096163	0.000385	3.848885	0.652019	0.000038
 210	2.0796e+01	2.0782	-9.050540	0.000459	4.585905	0.776873	0.000046
 211	2.0895e+01	2.0856	-9.012250	0.000385	3.848885	0.652019	0.000038
 212	2.0994e+01	2.0947	-8.967850	0.000446	4.463068	0.756064	0.000045
 213	2.1094e+01	2.1026	-8.927523	0.000405	4.053612	0.686701	0.000041
 214	2.1194e+01	2.1159	-8.888011	0.000397	3.971721	0.672828	0.000040
 215	2.1293e+01	2.1279	-8.846462	0.000418	4.176449	0.707510	0.000042
 216	2.1392e+01	2.1369	-8.800025	0.000467	4.667796	0.790746	0.000047
 217	2.1492e+01	2.1459	-8.759698	0.000405	4.053612	0.686701	0.000041
 218	2.1591e+01	2.1579	-8.722222	0.000377	3.766993	0.638146	0.000038
 219	2.1691e+01	2.1661	-8.678637	0.000438	4.381177	0.742191	0.000044
 220	2.1791e+01	2.1766	-8.635866	0.000430	4.299286	0.728319	0.000043
 221	2.1890e+01	2.1861	-8.592687	0.000434	4.340231	0.735255	0.000043
 222	2.1989e+01	2.1927	-8.552768	0.000401	4.012667	0.679764	0.000040
 223	2.2089e+01	2.2041	-8.508368	0.000446	4.463068	0.756064	0.000045
 224	2.2189e+01	2.2147	-8.470485	0.000381	3.807939	0.645082	0.000038
 225	2.2288e+01	2.2250	-8.426899	0.000438	4.381177	0.742191	0.000044
 226	2.2387e+01	2.2333	-8.386165	0.000409	4.094558	0.693637	0.000041
 227	2.2487e+01	2.2411	-8.342579	0.000438	4.381177	0.742191	0.000044
 228	2.2587e+01	2.2548	-8.303882	0.000389	3.889830	0.658955	0.000039
 229	2.2686e+01	2.2622	-8.262740	0.000414	4.135504	0.700573	0.000041
 230	2.2785e+01	2.2735	-8.221598	0.000414	4.135504	0.700573	0.000041
 231	2.2885e+01	2.2865	-8.179235	0.000426	4.258340	0.721382	0.000043
 232	2.2985e+01	2.2961	-8.143796	0.000356	3.562265	0.603464	0.000036
 233	2.3084e+01	2.3034	-8.101432	0.000426	4.258340	0.721382	0.000043
 234	2.3183e+01	2.3146	-8.058661	0.000430	4.299286	0.728319	0.000043
 235	2.3283e+01	2.3248	-8.018742	0.000401	4.012667	0.679764	0.000040
 236	2.3383e+01	2.3347	-7.982896	0.000360	3.603211	0.610400	0.000036
 237	2.3482e+01	2.3459	-7.939310	0.000438	4.381177	0.742191	0.000044
 238	2.3581e+01	2.3489	-7.895724	0.000438	4.381177	0.742191	0.000044
 239	2.3681e+01	2.3651	-7.856212	0.000397	3.971721	0.672828	0.000040
 240	2.3780e+01	2.3737	-7.814663	0.000418	4.176449	0.707510	0.000042
 241	2.3880e+01	2.3827	-7.775151	0.000397	3.971721	0.672828	0.000040
 242	2.3980e+01	2.3945	-7.737268	0.000381	3.807939	0.645082	0.000038
 243	2.4079e+01	2.4028	-7.697349	0.000401	4.012667	0.679764	0.000040
 244	2.4178e+01	2.4126	-7.657836	0.000397	3.971721	0.672828	0.000040
 245	2.4278e+01	2.4211	-7.617509	0.000405	4.053612	0.686701	0.000041
 246	2.4378e+01	2.4339	-7.578812	0.000389	3.889830	0.658955	0.000039
 247	2.4477e+01	2.4453	-7.538485	0.000405	4.053612	0.686701	0.000041
 248	2.4576e+01	2.4547	-7.496936	0.000418	4.176449	0.707510	0.000042
 249	2.4676e+01	2.4628	-7.456609	0.000405	4.053612	0.686701	0.000041
 250	2.4776e+01	2.4723	-7.415875	0.000409	4.094558	0.693637	0.000041
 251	2.4875e+01	2.4800	-7.372697	0.000434	4.340231	0.735255	0.000043
 252	2.4974e+01	2.4936	-7.330740	0.000422	4.217395	0.714446	0.000042
 253	2.5074e+01	2.5054	-7.287155	0.000438	4.381177	0.742191	0.000044
 254	2.5174e+01	2.5124	-7.247235	0.000401	4.012667	0.679764	0.000040
 255	2.5273e+01	2.5237	-7.206908	0.000405	4.053612	0.686701	0.000041
 256	2.5372e+01	2.5307	-7.164952	0.000422	4.217395	0.714446	0.000042
 257	2.5472e+01	2.5426	-7.120144	0.000450	4.504014	0.763001	0.000045
 258	2.5572e+01	2.5536	-7.075744	0.000446	4.463068	0.756064	0.000045
 259	2.5671e+01	2.5618	-7.036232	0.000397	3.971721	0.672828	0.000040
 260	2.5770e+01	2.5721	-6.991017	0.000454	4.544959	0.769937	0.000045
 261	2.5870e+01	2.5835	-6.946616	0.000446	4.463068	0.756064	0.000045
 262	2.5970e+01	2.5928	-6.901809	0.000450	4.504014	0.763001	0.000045
 263	2.6069e+01	2.6033	-6.858223	0.000438	4.381177	0.742191	0.000044
 264	2.6169e+01	2.6087	-6.817896	0.000405	4.053612	0.686701	0.000041
 265	2.6268e+01	2.6224	-6.774310	0.000438	4.381177	0.742191	0.000044
 266	2.6367e+01	2.6311	-6.730317	0.000442	4.422123	0.749128	0.000044
 267	2.6467e+01	2.6434	-6.686732	0.000438	4.381177	0.742191	0.000044
 268	2.6567e+01	2.6530	-6.639073	0.000479	4.790633	0.811555	0.000048
 269	2.6666e+01	2.6615	-6.600375	0.000389	3.889830	0.658955	0.000039
 270	2.6765e+01	2.6735	-6.559233	0.000414	4.135504	0.700573	0.000041
 271	2.6865e+01	2.6849	-6.510760	0.000487	4.872524	0.825428	0.000049
 272	2.6965e+01	2.6928	-6.465952	0.000450	4.504014	0.763001	0.000045
 273	2.7064e+01	2.7005	-6.418293	0.000479	4.790633	0.811555	0.000048
 274	2.7163e+01	2.7088	-6.377966	0.000405	4.053612	0.686701	0.000041
 275	2.7263e+01	2.7232	-6.334788	0.000434	4.340231	0.735255	0.000043
 276	2.7363e+01	2.7296	-6.289573	0.000454	4.544959	0.769937	0.000045
 277	2.7462e+01	2.7443	-6.252097	0.000377	3.766993	0.638146	0.000038
 278	2.7561e+01	2.7481	-6.206067	0.000463	4.626851	0.783810	0.000046
 279	2.7661e+01	2.7621	-6.160852	0.000454	4.544959	0.769937	0.000045
 280	2.7761e+01	2.7691	-6.118896	0.000422	4.217395	0.714446	0.000042
 281	2.7860e+01	2.7814	-6.078977	0.000401	4.012667	0.679764	0.000040
 282	2.7959e+01	2.7918	-6.034576	0.000446	4.463068	0.756064	0.000045
 283	2.8059e+01	2.8020	-5.992620	0.000422	4.217395	0.714446	0.000042
 284	2.8159e+01	2.8098	-5.951071	0.000418	4.176449	0.707510	0.000042
 285	2.8258e+01	2.8197	-5.908707	0.000426	4.258340	0.721382	0.000043
 286	2.8358e+01	2.8312	-5.865529	0.000434	4.340231	0.735255	0.000043
 287	2.8457e+01	2.8431	-5.825202	0.000405	4.053612	0.686701	0.000041
 288	2.8556e+01	2.8507	-5.782839	0.000426	4.258340	0.721382	0.000043
 289	2.8656e+01	2.8616	-5.742104	0.000409	4.094558	0.693637	0.000041
 290	2.8756e+01	2.8710	-5.694853	0.000475	4.749687	0.804619	0.000047
 291	2.8855e+01	2.8812	-5.660228	0.000348	3.480374	0.589591	0.000035
 292	2.8954e+01	2.8905	-5.617050	0.000434	4.340231	0.735255	0.000043
 293	2.9054e+01	2.9002	-5.573872	0.000434	4.340231	0.735255	0.000043
 294	2.9154e+01	2.9087	-5.534767	0.000393	3.930776	0.665891	0.000039
 295	2.9253e+01	2.9229	-5.495255	0.000397	3.971721	0.672828	0.000040
 296	2.9352e+01	2.9266	-5.454113	0.000414	4.135504	0.700573	0.000041
 297	2.9452e+01	2.9448	-5.411749	0.000426	4.258340	0.721382	0.000043
 298	2.9552e+01	2.9515	-5.370608	0.000414	4.135504	0.700573	0.000041
 299	2.9651e+01	2.9620	-5.323763	0.000471	4.708742	0.797682	0.000047
 300	2.9750e+01	2.9689	-5.286288	0.000377	3.766993	0.638146	0.000038
 301	2.9850e+01	2.9803	-5.245554	0.000409	4.094558	0.693637	0.000041
 302	2.9950e+01	2.9884	-5.206856	0.000389	3.889830	0.658955	0.000039
 303	3.0049e+01	2.9989	-5.160419	0.000467	4.667796	0.790746	0.000047
 304	3.0148e+01	3.0125	-5.124980	0.000356	3.562265	0.603464	0.000036
 305	3.0248e+01	3.0213	-5.082617	0.000426	4.258340	0.721382	0.000043
 306	3.0348e+01	3.0336	-5.041882	0.000409	4.094558	0.693637	0.000041
 307	3.0447e+01	3.0407	-5.005222	0.000369	3.685102	0.624273	0.000037
 308	3.0547e+01	3.0515	-4.962858	0.000426	4.258340	0.721382	0.000043
 309	3.0646e+01	3.0609	-4.919680	0.000434	4.340231	0.735255	0.000043
 310	3.0745e+01	3.0708	-4.879353	0.000405	4.053612	0.686701	0.000041
 311	3.0845e+01	3.0808	-4.839841	0.000397	3.971721	0.672828	0.000040
 312	3.0945e+01	3.0927	-4.797070	0.000430	4.299286	0.728319	0.000043
 313	3.1044e+01	3.1023	-4.758779	0.000385	3.848885	0.652019	0.000038
 314	3.1143e+01	3.1118	-4.715601	0.000434	4.340231	0.735255	0.000043
 315	3.1243e+01	3.1220	-4.673645	0.000422	4.217395	0.714446	0.000042
 316	3.1343e+01	3.1304	-4.633318	0.000405	4.053612	0.686701	0.000041
 317	3.1442e+01	3.1393	-4.593806	0.000397	3.971721	0.672828	0.000040
 318	3.1541e+01	3.1490	-4.552257	0.000418	4.176449	0.707510	0.000042
 319	3.1641e+01	3.1607	-4.507042	0.000454	4.544959	0.769937	0.000045
 320	3.1741e+01	3.1701	-4.465900	0.000414	4.135504	0.700573	0.000041
 321	3.1840e+01	3.1789	-4.423944	0.000422	4.217395	0.714446	0.000042
 322	3.1939e+01	3.1887	-4.388098	0.000360	3.603211	0.610400	0.000036
 323	3.2039e+01	3.1977	-4.343697	0.000446	4.463068	0.756064	0.000045
 324	3.2139e+01	3.2098	-4.300926	0.000430	4.299286	0.728319	0.000043
 325	3.2238e+01	3.2195	-4.258155	0.000430	4.299286	0.728319	0.000043
 326	3.2337e+01	3.2282	-4.217014	0.000414	4.135504	0.700573	0.000041
 327	3.2437e+01	3.2381	-4.172206	0.000450	4.504014	0.763001	0.000045
 328	3.2536e+01	3.2514	-4.131879	0.000405	4.053612	0.686701	0.000041
 329	3.2636e+01	3.2603	-4.093996	0.000381	3.807939	0.645082	0.000038
 330	3.2736e+01	3.2674	-4.050818	0.000434	4.340231	0.735255	0.000043
 331	3.2835e+01	3.2808	-4.008862	0.000422	4.217395	0.714446	0.000042
 332	3.2934e+01	3.2891	-3.969757	0.000393	3.930776	0.665891	0.000039
 333	3.3034e+01	3.3004	-3.929430	0.000405	4.053612	0.686701	0.000041
 334	3.3133e+01	3.3088	-3.890732	0.000389	3.889830	0.658955	0.000039
 335	3.3233e+01	3.3195	-3.849998	0.000409	4.094558	0.693637	0.000041
 336	3.3333e+01	3.3271	-3.809671	0.000405	4.053612	0.686701	0.000041
 337	3.3432e+01	3.3368	-3.771788	0.000381	3.807939	0.645082	0.000038
 338	3.3532e+01	3.3474	-3.733091	0.000389	3.889830	0.658955	0.000039
 339	3.3631e+01	3.3622	-3.691542	0.000418	4.176449	0.707510	0.000042
 340	3.3730e+01	3.3665	-3.651622	0.000401	4.012667	0.679764	0.000040
 341	3.3830e+01	3.3796	-3.613739	0.000381	3.807939	0.645082	0.000038
 342	3.3929e+01	3.3890	-3.579523	0.000344	3.439429	0.582655	0.000034
 343	3.4029e+01	3.3979	-3.539603	0.000401	4.012667	0.679764	0.000040
 344	3.4129e+01	3.4077	-3.502128	0.000377	3.766993	0.638146	0.000038
 345	3.4228e+01	3.4173	-3.465467	0.000369	3.685102	0.624273	0.000037
 346	3.4328e+01	3.4278	-3.432472	0.000332	3.316592	0.561846	0.000033
 347	3.4427e+01	3.4415	-3.394589	0.000381	3.807939	0.645082	0.000038
 348	3.4526e+01	3.4488	-3.359150	0.000356	3.562265	0.603464	0.000036
 349	3.4626e+01	3.4602	-3.319231	0.000401	4.012667	0.679764	0.000040
 350	3.4725e+01	3.4680	-3.282163	0.000373	3.726048	0.631210	0.000037
 351	3.4825e+01	3.4792	-3.246724	0.000356	3.562265	0.603464	0.000036
 352	3.4925e+01	3.4896	-3.212507	0.000344	3.439429	0.582655	0.000034
 353	3.5024e+01	3.4991	-3.172180	0.000405	4.053612	0.686701	0.000041
 354	3.5123e+01	3.5061	-3.137149	0.000352	3.521320	0.596528	0.000035
 355	3.5223e+01	3.5188	-3.101303	0.000360	3.603211	0.610400	0.000036
 356	3.5322e+01	3.5285	-3.063827	0.000377	3.766993	0.638146	0.000038
 357	3.5422e+01	3.5397	-3.031647	0.000323	3.234701	0.547973	0.000032
 358	3.5522e+01	3.5471	-2.992949	0.000389	3.889830	0.658955	0.000039
 359	3.5621e+01	3.5587	-2.957511	0.000356	3.562265	0.603464	0.000036
 360	3.5721e+01	3.5665	-2.922072	0.000356	3.562265	0.603464	0.000036
 361	3.5820e+01	3.5764	-2.882967	0.000393	3.930776	0.665891	0.000039
 362	3.5919e+01	3.5866	-2.847935	0.000352	3.521320	0.596528	0.000035
 363	3.6019e+01	3.5964	-2.808423	0.000397	3.971721	0.672828	0.000040
 364	3.6118e+01	3.6065	-2.770133	0.000385	3.848885	0.652019	0.000038
 365	3.6218e+01	3.6178	-2.735509	0.000348	3.480374	0.589591	0.000035
 366	3.6318e+01	3.6261	-2.695182	0.000405	4.053612	0.686701	0.000041
 367	3.6417e+01	3.6349	-2.657299	0.000381	3.807939	0.645082	0.000038
 368	3.6517e+01	3.6468	-2.623490	0.000340	3.398483	0.575719	0.000034
 369	3.6616e+01	3.6556	-2.581533	0.000422	4.217395	0.714446	0.000042
 370	3.6715e+01	3.6691	-2.546502	0.000352	3.521320	0.596528	0.000035
 371	3.6815e+01	3.6791	-2.510248	0.000364	3.644157	0.617337	0.000036
 372	3.6914e+01	3.6858	-2.469922	0.000405	4.053612	0.686701	0.000041
 373	3.7014e+01	3.6964	-2.436927	0.000332	3.316592	0.561846	0.000033
 374	3.7114e+01	3.7070	-2.397007	0.000401	4.012667	0.679764	0.000040
 375	3.7213e+01	3.7189	-2.356273	0.000409	4.094558	0.693637	0.000041
 376	3.7313e+01	3.7259	-2.319612	0.000369	3.685102	0.624273	0.000037
 377	3.7412e+01	3.7360	-2.283766	0.000360	3.603211	0.610400	0.000036
 378	3.7511e+01	3.7473	-2.243032	0.000409	4.094558	0.693637	0.000041
 379	3.7611e+01	3.7575	-2.205556	0.000377	3.766993	0.638146	0.000038
 380	3.7711e+01	3.7671	-2.166044	0.000397	3.971721	0.672828	0.000040
 381	3.7810e+01	3.7785	-2.126124	0.000401	4.012667	0.679764	0.000040
 382	3.7910e+01	3.7858	-2.093537	0.000328	3.275646	0.554910	0.000033
 383	3.8009e+01	3.7959	-2.058506	0.000352	3.521320	0.596528	0.000035
 384	3.8108e+01	3.8056	-2.019808	0.000389	3.889830	0.658955	0.000039
 385	3.8208e+01	3.8174	-1.985184	0.000348	3.480374	0.589591	0.000035
 386	3.8307e+01	3.8248	-1.942413	0.000430	4.299286	0.728319	0.000043
 387	3.8407e+01	3.8387	-1.906974	0.000356	3.562265	0.603464	0.000036
 388	3.8507e+01	3.8462	-1.867869	0.000393	3.930776	0.665891	0.000039
 389	3.8606e+01	3.8582	-1.826728	0.000414	4.135504	0.700573	0.000041
 390	3.8706e+01	3.8699	-1.791289	0.000356	3.562265	0.603464	0.000036
 391	3.8805e+01	3.8747	-1.755443	0.000360	3.603211	0.610400	0.000036
 392	3.8904e+01	3.8865	-1.719189	0.000364	3.644157	0.617337	0.000036
 393	3.9004e+01	3.8976	-1.673567	0.000459	4.585905	0.776873	0.000046
 394	3.9103e+01	3.9057	-1.640979	0.000328	3.275646	0.554910	0.000033
 395	3.9203e+01	3.9169	-1.606763	0.000344	3.439429	0.582655	0.000034
 396	3.9303e+01	3.9281	-1.566436	0.000405	4.053612	0.686701	0.000041
 397	3.9402e+01	3.9373	-1.528553	0.000381	3.807939	0.645082	0.000038
 398	3.9502e+01	3.9461	-1.492299	0.000364	3.644157	0.617337	0.000036
 399	3.9601e+01	3.9606	-1.458490	0.000340	3.398483	0.575719	0.000034
 400	3.9700e+01	3.9654	-1.420200	0.000385	3.848885	0.652019	0.000038
 401	3.9800e+01	3.9750	-1.383132	0.000373	3.726048	0.631210	0.000037
 402	3.9900e+01	3.9857	-1.347285	0.000360	3.603211	0.610400	0.000036
 403	3.9999e+01	3.9967	-1.309810	0.000377	3.766993	0.638146	0.000038
 404	4.0099e+01	4.0048	-1.275186	0.000348	3.480374	0.589591	0.000035
 405	4.0198e+01	4.0128	-1.240969	0.000344	3.439429	0.582655	0.000034
 406	4.0297e+01	4.0260	-1.201050	0.000401	4.012667	0.679764	0.000040
 407	4.0397e+01	4.0362	-1.162759	0.000385	3.848885	0.652019	0.000038
 408	4.0496e+01	4.0441	-1.127728	0.000352	3.521320	0.596528	0.000035
 409	4.0596e+01	4.0551	-1.093918	0.000340	3.398483	0.575719	0.000034
 410	4.0696e+01	4.0652	-1.056036	0.000381	3.807939	0.645082	0.000038
 411	4.0795e+01	4.0733	-1.023448	0.000328	3.275646	0.554910	0.000033
 412	4.0895e+01	4.0842	-0.984343	0.000393	3.930776	0.665891	0.000039
 413	4.0994e+01	4.0976	-0.950127	0.000344	3.439429	0.582655	0.000034
 414	4.1093e+01	4.1074	-0.912244	0.000381	3.807939	0.645082	0.000038
 415	4.1193e+01	4.1135	-0.877620	0.000348	3.480374	0.589591	0.000035
 416	4.1292e+01	4.1251	-0.836478	0.000414	4.135504	0.700573	0.000041
 417	4.1392e+01	4.1317	-0.802261	0.000344	3.439429	0.582655	0.000034
 418	4.1492e+01	4.1436	-0.761934	0.000405	4.053612	0.686701	0.000041
 419	4.1591e+01	4.1553	-0.725273	0.000369	3.685102	0.624273	0.000037
 420	4.1691e+01	4.1667	-0.688613	0.000369	3.685102	0.624273	0.000037
 421	4.1790e+01	4.1756	-0.648693	0.000401	4.012667	0.679764	0.000040
 422	4.1889e+01	4.1834	-0.612440	0.000364	3.644157	0.617337	0.000036
 423	4.1989e+01	4.1953	-0.574557	0.000381	3.807939	0.645082	0.000038
 424	4.2089e+01	4.2036	-0.535859	0.000389	3.889830	0.658955	0.000039
 425	4.2188e+01	4.2138	-0.500420	0.000356	3.562265	0.603464	0.000036
 426	4.2288e+01	4.2266	-0.460501	0.000401	4.012667	0.679764	0.000040
 427	4.2387e+01	4.2353	-0.421396	0.000393	3.930776	0.665891	0.000039
 428	4.2486e+01	4.2436	-0.380662	0.000409	4.094558	0.693637	0.000041
 429	4.2586e+01	4.2547	-0.338705	0.000422	4.217395	0.714446	0.000042
 430	4.2685e+01	4.2651	-0.300415	0.000385	3.848885	0.652019	0.000038
 431	4.2785e+01	4.2762	-0.258866	0.000418	4.176449	0.707510	0.000042
 432	4.2885e+01	4.2860	-0.220576	0.000385	3.848885	0.652019	0.000038
 433	4.2984e+01	4.2976	-0.181878	0.000389	3.889830	0.658955	0.000039
 434	4.3084e+01	4.3044	-0.140737	0.000414	4.135504	0.700573	0.000041
 435	4.3183e+01	4.3153	-0.104891	0.000360	3.603211	0.610400	0.000036
 436	4.3282e+01	4.3232	-0.065786	0.000393	3.930776	0.665891	0.000039
 437	4.3382e+01	4.3358	-0.023830	0.000422	4.217395	0.714446	0.000042
 438	4.3481e+01	4.3468	0.012831	0.000369	3.685102	0.624273	0.000037
 439	4.3581e+01	4.3522	0.054380	0.000418	4.176449	0.707510	0.000042
 440	4.3681e+01	4.3633	0.096337	0.000422	4.217395	0.714446	0.000042
 441	4.3780e+01	4.3761	0.139107	0.000430	4.299286	0.728319	0.000043
 442	4.3880e+01	4.3804	0.176990	0.000381	3.807939	0.645082	0.000038
 443	4.3979e+01	4.3928	0.216503	0.000397	3.971721	0.672828	0.000040
 444	4.4078e+01	4.4042	0.253163	0.000369	3.685102	0.624273	0.000037
 445	4.4178e+01	4.4118	0.295934	0.000430	4.299286	0.728319	0.000043
 446	4.4278e+01	4.4221	0.332188	0.000364	3.644157	0.617337	0.000036
 447	4.4377e+01	4.4331	0.370478	0.000385	3.848885	0.652019	0.000038
 448	4.4477e+01	4.4434	0.412434	0.000422	4.217395	0.714446	0.000042
 449	4.4576e+01	4.4555	0.448688	0.000364	3.644157	0.617337	0.000036
 450	4.4675e+01	4.4653	0.485349	0.000369	3.685102	0.624273	0.000037
 451	4.4775e+01	4.4711	0.526490	0.000414	4.135504	0.700573	0.000041
 452	4.4874e+01	4.4830	0.566410	0.000401	4.012667	0.679764	0.000040
 453	4.4974e+01	4.4915	0.601034	0.000348	3.480374	0.589591	0.000035
 454	4.5074e+01	4.5031	0.640954	0.000401	4.012667	0.679764	0.000040
 455	4.5173e+01	4.5134	0.676800	0.000360	3.603211	0.610400	0.000036
 456	4.5273e+01	4.5240	0.713460	0.000369	3.685102	0.624273	0.000037
 457	4.5372e+01	4.5325	0.750936	0.000377	3.766993	0.638146	0.000038
 458	4.5471e+01	4.5421	0.791263	0.000405	4.053612	0.686701	0.000041
 459	4.5571e+01	4.5499	0.827924	0.000369	3.685102	0.624273	0.000037
 460	4.5670e+01	4.5631	0.867436	0.000397	3.971721	0.672828	0.000040
 461	4.5770e+01	4.5736	0.903282	0.000360	3.603211	0.610400	0.000036
 462	4.5870e+01	4.5826	0.942387	0.000393	3.930776	0.665891	0.000039
 463	4.5969e+01	4.5907	0.977826	0.000356	3.562265	0.603464	0.000036
 464	4.6069e+01	4.6028	1.018153	0.000405	4.053612	0.686701	0.000041
 465	4.6168e+01	4.6111	1.052369	0.000344	3.439429	0.582655	0.000034
 466	4.6267e+01	4.6241	1.089845	0.000377	3.766993	0.638146	0.000038
 467	4.6367e+01	4.6326	1.124876	0.000352	3.521320	0.596528	0.000035
 468	4.6467e+01	4.6426	1.163981	0.000393	3.930776	0.665891	0.000039
 469	4.6566e+01	4.6531	1.201864	0.000381	3.807939	0.645082	0.000038
 470	4.6666e+01	4.6619	1.236081	0.000344	3.439429	0.582655	0.000034
 471	4.6765e+01	4.6726	1.275186	0.000393	3.930776	0.665891	0.000039
 472	4.6864e+01	4.6819	1.312661	0.000377	3.766993	0.638146	0.000038
 473	4.6964e+01	4.6938	1.344434	0.000319	3.193755	0.541037	0.000032
 474	4.7063e+01	4.7018	1.382317	0.000381	3.807939	0.645082	0.000038
 475	4.7163e+01	4.7100	1.419385	0.000373	3.726048	0.631210	0.000037
 476	4.7263e+01	4.7219	1.458083	0.000389	3.889830	0.658955	0.000039
 477	4.7362e+01	4.7304	1.493114	0.000352	3.521320	0.596528	0.000035
 478	4.7462e+01	4.7417	1.529775	0.000369	3.685102	0.624273	0.000037
 479	4.7561e+01	4.7555	1.565621	0.000360	3.603211	0.610400	0.000036
 480	4.7660e+01	4.7620	1.600653	0.000352	3.521320	0.596528	0.000035
 481	4.7760e+01	4.7715	1.642609	0.000422	4.217395	0.714446	0.000042
 482	4.7859e+01	4.7852	1.679677	0.000373	3.726048	0.631210	0.000037
 483	4.7959e+01	4.7945	1.716745	0.000373	3.726048	0.631210	0.000037
 484	4.8059e+01	4.8002	1.755443	0.000389	3.889830	0.658955	0.000039
 485	4.8158e+01	4.8134	1.792104	0.000369	3.685102	0.624273	0.000037
 486	4.8258e+01	4.8203	1.832023	0.000401	4.012667	0.679764	0.000040
 487	4.8357e+01	4.8302	1.868277	0.000364	3.644157	0.617337	0.000036
 488	4.8456e+01	4.8403	1.903308	0.000352	3.521320	0.596528	0.000035
 489	4.8556e+01	4.8504	1.940784	0.000377	3.766993	0.638146	0.000038
 490	4.8656e+01	4.8631	1.981110	0.000405	4.053612	0.686701	0.000041
 491	4.8755e+01	4.8682	2.016957	0.000360	3.603211	0.610400	0.000036
 492	4.8855e+01	4.8792	2.054840	0.000381	3.807939	0.645082	0.000038
 493	4.8954e+01	4.8942	2.094352	0.000397	3.971721	0.672828	0.000040
 494	4.9053e+01	4.9006	2.133457	0.000393	3.930776	0.665891	0.000039
 495	4.9153e+01	4.9105	2.170525	0.000373	3.726048	0.631210	0.000037
 496	4.9252e+01	4.9205	2.208815	0.000385	3.848885	0.652019	0.000038
 497	4.9352e+01	4.9304	2.243846	0.000352	3.521320	0.596528	0.000035
 498	4.9452e+01	4.9427	2.282137	0.000385	3.848885	0.652019	0.000038
 499	4.9551e+01	4.9526	2.317575	0.000356	3.562265	0.603464	0.000036
 500	4.9651e+01	4.9591	2.356273	0.000389	3.889830	0.658955	0.000039
 501	4.9750e+01	4.9711	2.389268	0.000332	3.316592	0.561846	0.000033
 502	4.9849e+01	4.9807	2.423077	0.000340	3.398483	0.575719	0.000034
 503	4.9949e+01	4.9912	2.460145	0.000373	3.726048	0.631210	0.000037
 504	5.0048e+01	5.0004	2.497214	0.000373	3.726048	0.631210	0.000037
 505	5.0148e+01	5.0101	2.531023	0.000340	3.398483	0.575719	0.000034
 506	5.0248e+01	5.0221	2.568498	0.000377	3.766993	0.638146	0.000038
 507	5.0347e+01	5.0301	2.603937	0.000356	3.562265	0.603464	0.000036
 508	5.0447e+01	5.0425	2.636932	0.000332	3.316592	0.561846	0.000033
 509	5.0546e+01	5.0505	2.670741	0.000340	3.398483	0.575719	0.000034
 510	5.0645e+01	5.0580	2.706180	0.000356	3.562265	0.603464	0.000036
 511	5.0745e+01	5.0708	2.736731	0.000307	3.070918	0.520228	0.000031
 512	5.0844e+01	5.0796	2.771355	0.000348	3.480374	0.589591	0.000035
 513	5.0944e+01	5.0909	2.804350	0.000332	3.316592	0.561846	0.000033
 514	5.1044e+01	5.0988	2.837752	0.000336	3.357538	0.568782	0.000034
 515	5.1143e+01	5.1105	2.868710	0.000311	3.111864	0.527164	0.000031
 516	5.1242e+01	5.1191	2.899668	0.000311	3.111864	0.527164	0.000031
 517	5.1342e+01	5.1271	2.934699	0.000352	3.521320	0.596528	0.000035
 518	5.1441e+01	5.1397	2.966879	0.000323	3.234701	0.547973	0.000032
 519	5.1541e+01	5.1486	2.998652	0.000319	3.193755	0.541037	0.000032
 520	5.1641e+01	5.1599	3.033684	0.000352	3.521320	0.596528	0.000035
 521	5.1740e+01	5.1694	3.067900	0.000344	3.439429	0.582655	0.000034
 522	5.1840e+01	5.1812	3.100080	0.000323	3.234701	0.547973	0.000032
 523	5.1939e+01	5.1906	3.129409	0.000295	2.948082	0.499419	0.000029
 524	5.2038e+01	5.1991	3.163219	0.000340	3.398483	0.575719	0.000034
 525	5.2138e+01	5.2085	3.194177	0.000311	3.111864	0.527164	0.000031
 526	5.2237e+01	5.2200	3.227579	0.000336	3.357538	0.568782	0.000034
 527	5.2337e+01	5.2318	3.258537	0.000311	3.111864	0.527164	0.000031
 528	5.2437e+01	5.2430	3.293568	0.000352	3.521320	0.596528	0.000035
 529	5.2536e+01	5.2518	3.325748	0.000323	3.234701	0.547973	0.000032
 530	5.2636e+01	5.2610	3.357928	0.000323	3.234701	0.547973	0.000032
 531	5.2735e+01	5.2700	3.391738	0.000340	3.398483	0.575719	0.000034
 532	5.2834e+01	5.2819	3.423918	0.000323	3.234701	0.547973	0.000032
 533	5.2934e+01	5.2904	3.461801	0.000381	3.807939	0.645082	0.000038
 534	5.3033e+01	5.3019	3.495203	0.000336	3.357538	0.568782	0.000034
 535	5.3133e+01	5.3098	3.528198	0.000332	3.316592	0.561846	0.000033
 536	5.3233e+01	5.3213	3.560785	0.000328	3.275646	0.554910	0.000033
 537	5.3332e+01	5.3331	3.592150	0.000315	3.152810	0.534100	0.000032
 538	5.3431e+01	5.3390	3.626774	0.000348	3.480374	0.589591	0.000035
 539	5.3531e+01	5.3516	3.661806	0.000352	3.521320	0.596528	0.000035
 540	5.3630e+01	5.3562	3.694801	0.000332	3.316592	0.561846	0.000033
 541	5.3730e+01	5.3701	3.729832	0.000352	3.521320	0.596528	0.000035
 542	5.3830e+01	5.3811	3.760383	0.000307	3.070918	0.520228	0.000031
 543	5.3929e+01	5.3906	3.795822	0.000356	3.562265	0.603464	0.000036
 544	5.4029e+01	5.3994	3.833297	0.000377	3.766993	0.638146	0.000038
 545	5.4128e+01	5.4102	3.866292	0.000332	3.316592	0.561846	0.000033
 546	5.4227e+01	5.4205	3.899694	0.000336	3.357538	0.568782	0.000034
 547	5.4327e+01	5.4272	3.935133	0.000356	3.562265	0.603464	0.000036
 548	5.4426e+01	5.4423	3.968535	0.000336	3.357538	0.568782	0.000034
 549	5.4526e+01	5.4501	4.001122	0.000328	3.275646	0.554910	0.000033
 550	5.4626e+01	5.4597	4.033710	0.000328	3.275646	0.554910	0.000033
 551	5.4725e+01	5.4684	4.069963	0.000364	3.644157	0.617337	0.000036
 552	5.4825e+01	5.4774	4.100514	0.000307	3.070918	0.520228	0.000031
 553	5.4924e+01	5.4871	4.135545	0.000352	3.521320	0.596528	0.000035
 554	5.5023e+01	5.4990	4.169762	0.000344	3.439429	0.582655	0.000034
 555	5.5123e+01	5.5077	4.205608	0.000360	3.603211	0.610400	0.000036
 556	5.5222e+01	5.5158	4.239418	0.000340	3.398483	0.575719	0.000034
 557	5.5322e+01	5.5282	4.272005	0.000328	3.275646	0.554910	0.000033
 558	5.5422e+01	5.5377	4.312332	0.000405	4.053612	0.686701	0.000041
 559	5.5521e+01	5.5471	4.344105	0.000319	3.193755	0.541037	0.000032
 560	5.5620e+01	5.5569	4.374655	0.000307	3.070918	0.520228	0.000031
 561	5.5720e+01	5.5666	4.411724	0.000373	3.726048	0.631210	0.000037
 562	5.5819e+01	5.5793	4.444311	0.000328	3.275646	0.554910	0.000033
 563	5.5919e+01	5.5880	4.474047	0.000299	2.989027	0.506355	0.000030
 564	5.6019e+01	5.5978	4.509893	0.000360	3.603211	0.610400	0.000036
 565	5.6118e+01	5.6054	4.543702	0.000340	3.398483	0.575719	0.000034
 566	5.6218e+01	5.6179	4.575068	0.000315	3.152810	0.534100	0.000032
 567	5.6317e+01	5.6280	4.606433	0.000315	3.152810	0.534100	0.000032
 568	5.6416e+01	5.6403	4.641872	0.000356	3.562265	0.603464	0.000036
 569	5.6516e+01	5.6475	4.672423	0.000307	3.070918	0.520228	0.000031
 570	5.6615e+01	5.6589	4.707047	0.000348	3.480374	0.589591	0.000035
 571	5.6715e+01	5.6676	4.738412	0.000315	3.152810	0.534100	0.000032
 572	5.6815e+01	5.6788	4.773036	0.000348	3.480374	0.589591	0.000035
 573	5.6914e+01	5.6853	4.804809	0.000319	3.193755	0.541037	0.000032
 574	5.7014e+01	5.6954	4.838211	0.000336	3.357538	0.568782	0.000034
 575	5.7113e+01	5.7050	4.869169	0.000311	3.111864	0.527164	0.000031
 576	5.7212e+01	5.7168	4.901757	0.000328	3.275646	0.554910	0.000033
 577	5.7312e+01	5.7302	4.934344	0.000328	3.275646	0.554910	0.000033
 578	5.7411e+01	5.7356	4.963265	0.000291	2.907136	0.492482	0.000029
 579	5.7511e+01	5.7490	4.999111	0.000360	3.603211	0.610400	0.000036
 580	5.7611e+01	5.7555	5.031292	0.000323	3.234701	0.547973	0.000032
 581	5.7710e+01	5.7662	5.060213	0.000291	2.907136	0.492482	0.000029
 582	5.7809e+01	5.7774	5.098910	0.000389	3.889830	0.658955	0.000039
 583	5.7909e+01	5.7891	5.127832	0.000291	2.907136	0.492482	0.000029
 584	5.8008e+01	5.7960	5.162456	0.000348	3.480374	0.589591	0.000035
 585	5.8108e+01	5.8086	5.193821	0.000315	3.152810	0.534100	0.000032
 586	5.8208e+01	5.8163	5.228445	0.000348	3.480374	0.589591	0.000035
 587	5.8307e+01	5.8263	5.264291	0.000360	3.603211	0.610400	0.000036
 588	5.8407e+01	5.8378	5.297694	0.000336	3.357538	0.568782	0.000034
 589	5.8506e+01	5.8437	5.331096	0.000336	3.357538	0.568782	0.000034
 590	5.8605e+01	5.8545	5.366942	0.000360	3.603211	0.610400	0.000036
 591	5.8705e+01	5.8651	5.399122	0.000323	3.234701	0.547973	0.000032
 592	5.8804e+01	5.8752	5.438634	0.000397	3.971721	0.672828	0.000040
 593	5.8904e+01	5.8860	5.472444	0.000340	3.398483	0.575719	0.000034
 594	5.9004e+01	5.8962	5.504624	0.000323	3.234701	0.547973	0.000032
 595	5.9103e+01	5.9060	5.541284	0.000369	3.685102	0.624273	0.000037
 596	5.9203e+01	5.9145	5.576316	0.000352	3.521320	0.596528	0.000035
 597	5.9302e+01	5.9264	5.613791	0.000377	3.766993	0.638146	0.000038
 598	5.9401e+01	5.9357	5.648823	0.000352	3.521320	0.596528	0.000035
 599	5.9501e+01	5.9441	5.688742	0.000401	4.012667	0.679764	0.000040
 600	5.9600e+01	5.9556	5.721737	0.000332	3.316592	0.561846	0.000033
 601	5.9700e+01	5.9670	5.757583	0.000360	3.603211	0.610400	0.000036
 602	5.9800e+01	5.9766	5.795059	0.000377	3.766993	0.638146	0.000038
 603	5.9899e+01	5.9872	5.827646	0.000328	3.275646	0.554910	0.000033
 604	5.9998e+01	5.9988	5.863085	0.000356	3.562265	0.603464	0.000036
 605	6.0098e+01	6.0067	5.903005	0.000401	4.012667	0.679764	0.000040
 606	6.0197e+01	6.0154	5.938443	0.000356	3.562265	0.603464	0.000036
 607	6.0297e+01	6.0290	5.973475	0.000352	3.521320	0.596528	0.000035
 608	6.0397e+01	6.0323	6.012172	0.000389	3.889830	0.658955	0.000039
 609	6.0496e+01	6.0445	6.053314	0.000414	4.135504	0.700573	0.000041
 610	6.0596e+01	6.0569	6.083865	0.000307	3.070918	0.520228	0.000031
 611	6.0695e+01	6.0641	6.117674	0.000340	3.398483	0.575719	0.000034
 612	6.0794e+01	6.0751	6.156779	0.000393	3.930776	0.665891	0.000039
 613	6.0894e+01	6.0847	6.189774	0.000332	3.316592	0.561846	0.000033
 614	6.0993e+01	6.0958	6.225620	0.000360	3.603211	0.610400	0.000036
 615	6.1093e+01	6.1044	6.261873	0.000364	3.644157	0.617337	0.000036
 616	6.1193e+01	6.1144	6.293239	0.000315	3.152810	0.534100	0.000032
 617	6.1292e+01	6.1233	6.331936	0.000389	3.889830	0.658955	0.000039
 618	6.1392e+01	6.1344	6.362894	0.000311	3.111864	0.527164	0.000031
 619	6.1491e+01	6.1443	6.398333	0.000356	3.562265	0.603464	0.000036
 620	6.1590e+01	6.1562	6.431735	0.000336	3.357538	0.568782	0.000034
 621	6.1690e+01	6.1666	6.467581	0.000360	3.603211	0.610400	0.000036
 622	6.1789e+01	6.1736	6.506279	0.000389	3.889830	0.658955	0.000039
 623	6.1889e+01	6.1829	6.538459	0.000323	3.234701	0.547973	0.000032
 624	6.1989e+01	6.1924	6.572676	0.000344	3.439429	0.582655	0.000034
 625	6.2088e+01	6.2042	6.606485	0.000340	3.398483	0.575719	0.000034
 626	6.2188e+01	6.2174	6.642331	0.000360	3.603211	0.610400	0.000036
 627	6.2287e+01	6.2249	6.677770	0.000356	3.562265	0.603464	0.000036
 628	6.2386e+01	6.2347	6.705469	0.000278	2.784299	0.471673	0.000028
 629	6.2486e+01	6.2460	6.744574	0.000393	3.930776	0.665891	0.000039
 630	6.2586e+01	6.2542	6.775940	0.000315	3.152810	0.534100	0.000032
 631	6.2685e+01	6.2673	6.809749	0.000340	3.398483	0.575719	0.000034
 632	6.2785e+01	6.2762	6.840707	0.000311	3.111864	0.527164	0.000031
 633	6.2884e+01	6.2850	6.879405	0.000389	3.889830	0.658955	0.000039
 634	6.2983e+01	6.2946	6.909548	0.000303	3.029973	0.513291	0.000030
 635	6.3083e+01	6.3042	6.942950	0.000336	3.357538	0.568782	0.000034
 636	6.3182e+01	6.3123	6.974315	0.000315	3.152810	0.534100	0.000032
 637	6.3282e+01	6.3235	7.008532	0.000344	3.439429	0.582655	0.000034
 638	6.3382e+01	6.3355	7.043971	0.000356	3.562265	0.603464	0.000036
 639	6.3481e+01	6.3428	7.077373	0.000336	3.357538	0.568782	0.000034
 640	6.3581e+01	6.3515	7.107517	0.000303	3.029973	0.513291	0.000030
 641	6.3680e+01	6.3645	7.141733	0.000344	3.439429	0.582655	0.000034
 642	6.3779e+01	6.3732	7.176765	0.000352	3.521320	0.596528	0.000035
 643	6.3879e+01	6.3833	7.206501	0.000299	2.989027	0.506355	0.000030
 644	6.3978e+01	6.3941	7.241532	0.000352	3.521320	0.596528	0.000035
 645	6.4078e+01	6.4021	7.273305	0.000319	3.193755	0.541037	0.000032
 646	6.4177e+01	6.4117	7.308336	0.000352	3.521320	0.596528	0.000035
 647	6.4277e+01	6.4225	7.339702	0.000315	3.152810	0.534100	0.000032
 648	6.4376e+01	6.4310	7.374326	0.000348	3.480374	0.589591	0.000035
 649	6.4476e+01	6.4391	7.410172	0.000360	3.603211	0.610400	0.000036
 650	6.4576e+01	6.4539	7.440723	0.000307	3.070918	0.520228	0.000031
 651	6.4675e+01	6.4620	7.475754	0.000352	3.521320	0.596528	0.000035
 652	6.4775e+01	6.4725	7.514452	0.000389	3.889830	0.658955	0.000039
 653	6.4874e+01	6.4834	7.543780	0.000295	2.948082	0.499419	0.000029
 654	6.4974e+01	6.4933	7.582478	0.000389	3.889830	0.658955	0.000039
 655	6.5073e+01	6.5035	7.612621	0.000303	3.029973	0.513291	0.000030
 656	6.5172e+01	6.5115	7.650097	0.000377	3.766993	0.638146	0.000038
 657	6.5272e+01	6.5243	7.679425	0.000295	2.948082	0.499419	0.000029
 658	6.5371e+01	6.5319	7.715679	0.000364	3.644157	0.617337	0.000036
 659	6.5471e+01	6.5444	7.747859	0.000323	3.234701	0.547973	0.000032
 660	6.5570e+01	6.5536	7.783705	0.000360	3.603211	0.610400	0.000036
 661	6.5670e+01	6.5624	7.819551	0.000360	3.603211	0.610400	0.000036
 662	6.5769e+01	6.5725	7.854175	0.000348	3.480374	0.589591	0.000035
 663	6.5869e+01	6.5847	7.885133	0.000311	3.111864	0.527164	0.000031
 664	6.5969e+01	6.5945	7.922202	0.000373	3.726048	0.631210	0.000037
 665	6.6068e+01	6.6033	7.957640	0.000356	3.562265	0.603464	0.000036
 666	6.6168e+01	6.6122	7.989820	0.000323	3.234701	0.547973	0.000032
 667	6.6267e+01	6.6241	8.024037	0.000344	3.439429	0.582655	0.000034
 668	6.6367e+01	6.6311	8.054995	0.000311	3.111864	0.527164	0.000031
 669	6.6466e+01	6.6418	8.088805	0.000340	3.398483	0.575719	0.000034
 670	6.6566e+01	6.6521	8.119763	0.000311	3.111864	0.527164	0.000031
 671	6.6665e+01	6.6634	8.154387	0.000348	3.480374	0.589591	0.000035
 672	6.6764e+01	6.6716	8.187382	0.000332	3.316592	0.561846	0.000033
 673	6.6864e+01	6.6821	8.216303	0.000291	2.907136	0.492482	0.000029
 674	6.6963e+01	6.6933	8.248483	0.000323	3.234701	0.547973	0.000032
 675	6.7063e+01	6.7010	8.279848	0.000315	3.152810	0.534100	0.000032
 676	6.7162e+01	6.7116	8.313250	0.000336	3.357538	0.568782	0.000034
 677	6.7262e+01	6.7230	8.343394	0.000303	3.029973	0.513291	0.000030
 678	6.7362e+01	6.7281	8.369871	0.000266	2.661463	0.450864	0.000027
 679	6.7461e+01	6.7411	8.404088	0.000344	3.439429	0.582655	0.000034
 680	6.7561e+01	6.7492	8.430972	0.000270	2.702408	0.457800	0.000027
 681	6.7660e+01	6.7605	8.455413	0.000246	2.456735	0.416182	0.000025
 682	6.7760e+01	6.7734	8.491666	0.000364	3.644157	0.617337	0.000036
 683	6.7859e+01	6.7800	8.518551	0.000270	2.702408	0.457800	0.000027
 684	6.7959e+01	6.7924	8.549509	0.000311	3.111864	0.527164	0.000031
 685	6.8058e+01	6.8005	8.577208	0.000278	2.784299	0.471673	0.000028
 686	6.8157e+01	6.8129	8.608981	0.000319	3.193755	0.541037	0.000032
 687	6.8257e+01	6.8215	8.639532	0.000307	3.070918	0.520228	0.000031
 688	6.8356e+01	6.8330	8.666416	0.000270	2.702408	0.457800	0.000027
 689	6.8456e+01	6.8414	8.695745	0.000295	2.948082	0.499419	0.000029
 690	6.8555e+01	6.8523	8.730369	0.000348	3.480374	0.589591	0.000035
 691	6.8655e+01	6.8631	8.755217	0.000250	2.497680	0.423119	0.000025
 692	6.8754e+01	6.8701	8.780472	0.000254	2.538626	0.430055	0.000025
 693	6.8854e+01	6.8843	8.809801	0.000295	2.948082	0.499419	0.000029
 694	6.8954e+01	6.8897	8.837908	0.000283	2.825245	0.478609	0.000028
 695	6.9053e+01	6.9010	8.868458	0.000307	3.070918	0.520228	0.000031
 696	6.9153e+01	6.9117	8.897380	0.000291	2.907136	0.492482	0.000029
 697	6.9252e+01	6.9213	8.928745	0.000315	3.152810	0.534100	0.000032
 698	6.9352e+01	6.9331	8.959703	0.000311	3.111864	0.527164	0.000031
 699	6.9451e+01	6.9399	8.992290	0.000328	3.275646	0.554910	0.000033
 700	6.9550e+01	6.9500	9.019582	0.000274	2.743354	0.464737	0.000027
 701	6.9650e+01	6.9601	9.050133	0.000307	3.070918	0.520228	0.000031
 702	6.9749e+01	6.9751	9.084757	0.000348	3.480374	0.589591	0.000035
 703	6.9849e+01	6.9793	9.112049	0.000274	2.743354	0.464737	0.000027
 704	6.9948e+01	6.9898	9.141785	0.000299	2.989027	0.506355	0.000030
 705	7.0048e+01	6.9956	9.170299	0.000287	2.866191	0.485546	0.000029
 706	7.0147e+01	7.0097	9.203294	0.000332	3.316592	0.561846	0.000033
 707	7.0247e+01	7.0187	9.231808	0.000287	2.866191	0.485546	0.000029
 708	7.0347e+01	7.0320	9.262359	0.000307	3.070918	0.520228	0.000031
 709	7.0446e+01	7.0393	9.295353	0.000332	3.316592	0.561846	0.000033
 710	7.0546e+01	7.0490	9.325089	0.000299	2.989027	0.506355	0.000030
 711	7.0645e+01	7.0581	9.355233	0.000303	3.029973	0.513291	0.000030
 712	7.0745e+01	7.0721	9.383747	0.000287	2.866191	0.485546	0.000029
 713	7.0844e+01	7.0809	9.417963	0.000344	3.439429	0.582655	0.000034
 714	7.0944e+01	7.0905	9.453402	0.000356	3.562265	0.603464	0.000036
 715	7.1043e+01	7.1011	9.482324	0.000291	2.907136	0.492482	0.000029
 716	7.1142e+01	7.1095	9.509208	0.000270	2.702408	0.457800	0.000027
 717	7.1242e+01	7.1197	9.543832	0.000348	3.480374	0.589591	0.000035
 718	7.1341e+01	7.1313	9.571532	0.000278	2.784299	0.471673	0.000028
 719	7.1441e+01	7.1413	9.603304	0.000319	3.193755	0.541037	0.000032
 720	7.1540e+01	7.1494	9.634670	0.000315	3.152810	0.534100	0.000032
 721	7.1640e+01	7.1593	9.662776	0.000283	2.825245	0.478609	0.000028
 722	7.1740e+01	7.1693	9.694956	0.000323	3.234701	0.547973	0.000032
 723	7.1839e+01	7.1780	9.724692	0.000299	2.989027	0.506355	0.000030
 724	7.1939e+01	7.1896	9.759317	0.000348	3.480374	0.589591	0.000035
 725	7.2038e+01	7.1981	9.787830	0.000287	2.866191	0.485546	0.000029
 726	7.2138e+01	7.2092	9.818789	0.000311	3.111864	0.527164	0.000031
 727	7.2237e+01	7.2219	9.850561	0.000319	3.193755	0.541037	0.000032
 728	7.2337e+01	7.2280	9.879483	0.000291	2.907136	0.492482	0.000029
 729	7.2436e+01	7.2371	9.912070	0.000328	3.275646	0.554910	0.000033
 730	7.2535e+01	7.2461	9.938955	0.000270	2.702408	0.457800	0.000027
 731	7.2635e+01	7.2582	9.973171	0.000344	3.439429	0.582655	0.000034
 732	7.2734e+01	7.2701	9.999649	0.000266	2.661463	0.450864	0.000027
 733	7.2834e+01	7.2787	10.031421	0.000319	3.193755	0.541037	0.000032
 734	7.2933e+01	7.2871	10.061565	0.000303	3.029973	0.513291	0.000030
 735	7.3033e+01	7.2980	10.087635	0.000262	2.620517	0.443928	0.000026
 736	7.3132e+01	7.3077	10.122666	0.000352	3.521320	0.596528	0.000035
 737	7.3232e+01	7.3195	10.150773	0.000283	2.825245	0.478609	0.000028
 738	7.3332e+01	7.3282	10.178065	0.000274	2.743354	0.464737	0.000027
 739	7.3431e+01	7.3383	10.206579	0.000287	2.866191	0.485546	0.000029
 740	7.3531e+01	7.3463	10.236722	0.000303	3.029973	0.513291	0.000030
 741	7.3630e+01	7.3579	10.265643	0.000291	2.907136	0.492482	0.000029
 742	7.3730e+01	7.3672	10.296194	0.000307	3.070918	0.520228	0.000031
 743	7.3829e+01	7.3791	10.327559	0.000315	3.152810	0.534100	0.000032
 744	7.3928e+01	7.3901	10.357295	0.000299	2.989027	0.506355	0.000030
 745	7.4028e+01	7.3990	10.382143	0.000250	2.497680	0.423119	0.000025
 746	7.4127e+01	7.4083	10.410657	0.000287	2.866191	0.485546	0.000029
 747	7.4227e+01	7.4195	10.442837	0.000323	3.234701	0.547973	0.000032
 748	7.4326e+01	7.4292	10.475017	0.000323	3.234701	0.547973	0.000032
 749	7.4426e+01	7.4403	10.500273	0.000254	2.538626	0.430055	0.000025
 750	7.4525e+01	7.4480	10.530823	0.000307	3.070918	0.520228	0.000031
 751	7.4625e+01	7.4604	10.560967	0.000303	3.029973	0.513291	0.000030
 752	7.4725e+01	7.4658	10.593961	0.000332	3.316592	0.561846	0.000033
 753	7.4824e+01	7.4763	10.623697	0.000299	2.989027	0.506355	0.000030
 754	7.4924e+01	7.4872	10.655877	0.000323	3.234701	0.547973	0.000032
 755	7.5023e+01	7.4968	10.685206	0.000295	2.948082	0.499419	0.000029
 756	7.5123e+01	7.5056	10.715757	0.000307	3.070918	0.520228	0.000031
 757	7.5222e+01	7.5167	10.749159	0.000336	3.357538	0.568782	0.000034
 758	7.5322e+01	7.5271	10.779302	0.000303	3.029973	0.513291	0.000030
 759	7.5421e+01	7.5369	10.811075	0.000319	3.193755	0.541037	0.000032
 760	7.5520e+01	7.5483	10.842440	0.000315	3.152810	0.534100	0.000032
 761	7.5620e+01	7.5589	10.873806	0.000315	3.152810	0.534100	0.000032
 762	7.5719e+01	7.5661	10.906393	0.000328	3.275646	0.554910	0.000033
 763	7.5819e+01	7.5796	10.938573	0.000323	3.234701	0.547973	0.000032
 764	7.5918e+01	7.5854	10.973605	0.000352	3.521320	0.596528	0.000035
 765	7.6018e+01	7.5969	11.008229	0.000348	3.480374	0.589591	0.000035
 766	7.6118e+01	7.6065	11.038779	0.000307	3.070918	0.520228	0.000031
 767	7.6217e+01	7.6167	11.072589	0.000340	3.398483	0.575719	0.000034
 768	7.6317e+01	7.6260	11.107620	0.000352	3.521320	0.596528	0.000035
 769	7.6416e+01	7.6344	11.140615	0.000332	3.316592	0.561846	0.000033
 770	7.6516e+01	7.6455	11.169944	0.000295	2.948082	0.499419	0.000029
 771	7.6615e+01	7.6568	11.202531	0.000328	3.275646	0.554910	0.000033
 772	7.6715e+01	7.6691	11.235526	0.000332	3.316592	0.561846	0.000033
 773	7.6814e+01	7.6775	11.269743	0.000344	3.439429	0.582655	0.000034
 774	7.6913e+01	7.6876	11.303959	0.000344	3.439429	0.582655	0.000034
 775	7.7013e+01	7.6977	11.337769	0.000340	3.398483	0.575719	0.000034
 776	7.7112e+01	7.7052	11.371578	0.000340	3.398483	0.575719	0.000034
 777	7.7212e+01	7.7190	11.407424	0.000360	3.603211	0.610400	0.000036
 778	7.7311e+01	7.7271	11.438383	0.000311	3.111864	0.527164	0.000031
 779	7.7411e+01	7.7381	11.475858	0.000377	3.766993	0.638146	0.000038
 780	7.7510e+01	7.7453	11.504372	0.000287	2.866191	0.485546	0.000029
 781	7.7610e+01	7.7579	11.538589	0.000344	3.439429	0.582655	0.000034
 782	7.7710e+01	7.7689	11.568325	0.000299	2.989027	0.506355	0.000030
 783	7.7809e+01	7.7775	11.596431	0.000283	2.825245	0.478609	0.000028
 784	7.7909e+01	7.7847	11.632685	0.000364	3.644157	0.617337	0.000036
 785	7.8008e+01	7.7970	11.662014	0.000295	2.948082	0.499419	0.000029
 786	7.8108e+01	7.8078	11.694194	0.000323	3.234701	0.547973	0.000032
 787	7.8207e+01	7.8167	11.729225	0.000352	3.521320	0.596528	0.000035
 788	7.8306e+01	7.8280	11.760183	0.000311	3.111864	0.527164	0.000031
 789	7.8406e+01	7.8353	11.791141	0.000311	3.111864	0.527164	0.000031
 790	7.8505e+01	7.8452	11.824543	0.000336	3.357538	0.568782	0.000034
 791	7.8605e+01	7.8564	11.853057	0.000287	2.866191	0.485546	0.000029
 792	7.8704e+01	7.8671	11.885645	0.000328	3.275646	0.554910	0.000033
 793	7.8804e+01	7.8749	11.914973	0.000295	2.948082	0.499419	0.000029
 794	7.8903e+01	7.8852	11.949597	0.000348	3.480374	0.589591	0.000035
 795	7.9003e+01	7.8958	11.977297	0.000278	2.784299	0.471673	0.000028
 796	7.9103e+01	7.9067	12.008255	0.000311	3.111864	0.527164	0.000031
 797	7.9202e+01	7.9153	12.040435	0.000323	3.234701	0.547973	0.000032
 798	7.9302e+01	7.9259	12.070578	0.000303	3.029973	0.513291	0.000030
 799	7.9401e+01	7.9362	12.103980	0.000336	3.357538	0.568782	0.000034
 800	7.9501e+01	7.9435	12.134531	0.000307	3.070918	0.520228	0.000031
 801	7.9600e+01	7.9556	12.164674	0.000303	3.029973	0.513291	0.000030
 802	7.9700e+01	7.9656	12.196040	0.000315	3.152810	0.534100	0.000032
 803	7.9799e+01	7.9778	12.225368	0.000295	2.948082	0.499419	0.000029
 804	7.9898e+01	7.9867	12.254290	0.000291	2.907136	0.492482	0.000029
 805	7.9998e+01	7.9944	12.288914	0.000348	3.480374	0.589591	0.000035
 806	8.0097e+01	8.0056	12.315798	0.000270	2.702408	0.457800	0.000027
 807	8.0197e+01	8.0132	12.346349	0.000307	3.070918	0.520228	0.000031
 808	8.0296e+01	8.0254	12.379751	0.000336	3.357538	0.568782	0.000034
 809	8.0396e+01	8.0334	12.405414	0.000258	2.579572	0.436991	0.000026
 810	8.0496e+01	8.0441	12.441260	0.000360	3.603211	0.610400	0.000036
 811	8.0595e+01	8.0550	12.470181	0.000291	2.907136	0.492482	0.000029
 812	8.0695e+01	8.0640	12.499510	0.000295	2.948082	0.499419	0.000029
 813	8.0794e+01	8.0742	12.530468	0.000311	3.111864	0.527164	0.000031
 814	8.0894e+01	8.0864	12.562241	0.000319	3.193755	0.541037	0.000032
 815	8.0993e+01	8.0926	12.591162	0.000291	2.907136	0.492482	0.000029
 816	8.1093e+01	8.1069	12.620898	0.000299	2.989027	0.506355	0.000030
 817	8.1192e+01	8.1138	12.653485	0.000328	3.275646	0.554910	0.000033
 818	8.1291e+01	8.1237	12.686073	0.000328	3.275646	0.554910	0.000033
 819	8.1391e+01	8.1344	12.713772	0.000278	2.784299	0.471673	0.000028
 820	8.1490e+01	8.1452	12.750840	0.000373	3.726048	0.631210	0.000037
 821	8.1590e+01	8.1528	12.780169	0.000295	2.948082	0.499419	0.000029
 822	8.1689e+01	8.1635	12.815608	0.000356	3.562265	0.603464	0.000036
 823	8.1789e+01	8.1757	12.843307	0.000278	2.784299	0.471673	0.000028
 824	8.1888e+01	8.1851	12.874672	0.000315	3.152810	0.534100	0.000032
 825	8.1988e+01	8.1934	12.905630	0.000311	3.111864	0.527164	0.000031
 826	8.2088e+01	8.2040	12.935774	0.000303	3.029973	0.513291	0.000030
 827	8.2187e+01	8.2129	12.972842	0.000373	3.726048	0.631210	0.000037
 828	8.2287e+01	8.2227	12.999319	0.000266	2.661463	0.450864	0.000027
 829	8.2386e+01	8.2350	13.034351	0.000352	3.521320	0.596528	0.000035
 830	8.2486e+01	8.2427	13.066123	0.000319	3.193755	0.541037	0.000032
 831	8.2585e+01	8.2520	13.093823	0.000278	2.784299	0.471673	0.000028
 832	8.2684e+01	8.2646	13.128039	0.000344	3.439429	0.582655	0.000034
 833	8.2784e+01	8.2735	13.158183	0.000303	3.029973	0.513291	0.000030
 834	8.2883e+01	8.2835	13.192400	0.000344	3.439429	0.582655	0.000034
 835	8.2983e+01	8.2937	13.219691	0.000274	2.743354	0.464737	0.000027
 836	8.3082e+01	8.3032	13.250242	0.000307	3.070918	0.520228	0.000031
 837	8.3182e+01	8.3142	13.278756	0.000287	2.866191	0.485546	0.000029
 838	8.3281e+01	8.3219	13.309307	0.000307	3.070918	0.520228	0.000031
 839	8.3381e+01	8.3343	13.339043	0.000299	2.989027	0.506355	0.000030
 840	8.3481e+01	8.3447	13.368779	0.000299	2.989027	0.506355	0.000030
 841	8.3580e+01	8.3524	13.395663	0.000270	2.702408	0.457800	0.000027
 842	8.3680e+01	8.3619	13.428658	0.000332	3.316592	0.561846	0.000033
 843	8.3779e+01	8.3752	13.460431	0.000319	3.193755	0.541037	0.000032
 844	8.3879e+01	8.3823	13.491389	0.000311	3.111864	0.527164	0.000031
 845	8.3978e+01	8.3955	13.515015	0.000237	2.374844	0.402309	0.000024
 846	8.4078e+01	8.4027	13.541899	0.000270	2.702408	0.457800	0.000027
 847	8.4177e+01	8.4123	13.570413	0.000287	2.866191	0.485546	0.000029
 848	8.4276e+01	8.4238	13.596891	0.000266	2.661463	0.450864	0.000027
 849	8.4376e+01	8.4341	13.617665	0.000209	2.088225	0.353755	0.000021
 850	8.4475e+01	8.4436	13.648623	0.000311	3.111864	0.527164	0.000031
 851	8.4575e+01	8.4538	13.673471	0.000250	2.497680	0.423119	0.000025
 852	8.4674e+01	8.4629	13.703207	0.000299	2.989027	0.506355	0.000030
 853	8.4774e+01	8.4720	13.727240	0.000242	2.415789	0.409246	0.000024
 854	8.4874e+01	8.4827	13.757791	0.000307	3.070918	0.520228	0.000031
 855	8.4973e+01	8.4934	13.785490	0.000278	2.784299	0.471673	0.000028
 856	8.5073e+01	8.5029	13.810338	0.000250	2.497680	0.423119	0.000025
 857	8.5172e+01	8.5120	13.838445	0.000283	2.825245	0.478609	0.000028
 858	8.5272e+01	8.5233	13.863700	0.000254	2.538626	0.430055	0.000025
 859	8.5371e+01	8.5313	13.890177	0.000266	2.661463	0.450864	0.000027
 860	8.5471e+01	8.5450	13.917062	0.000270	2.702408	0.457800	0.000027
 861	8.5570e+01	8.5547	13.943947	0.000270	2.702408	0.457800	0.000027
 862	8.5669e+01	8.5625	13.968387	0.000246	2.456735	0.416182	0.000025
 863	8.5769e+01	8.5706	13.997308	0.000291	2.907136	0.492482	0.000029
 864	8.5868e+01	8.5812	14.025415	0.000283	2.825245	0.478609	0.000028
 865	8.5968e+01	8.5938	14.049856	0.000246	2.456735	0.416182	0.000025
 866	8.6067e+01	8.6012	14.078370	0.000287	2.866191	0.485546	0.000029
 867	8.6167e+01	8.6134	14.106884	0.000287	2.866191	0.485546	0.000029
 868	8.6266e+01	8.6223	14.134990	0.000283	2.825245	0.478609	0.000028
 869	8.6366e+01	8.6316	14.160245	0.000254	2.538626	0.430055	0.000025
 870	8.6466e+01	8.6426	14.191611	0.000315	3.152810	0.534100	0.000032
 871	8.6565e+01	8.6564	14.218495	0.000270	2.702408	0.457800	0.000027
 872	8.6665e+01	8.6597	14.249046	0.000307	3.070918	0.520228	0.000031
 873	8.6764e+01	8.6707	14.273894	0.000250	2.497680	0.423119	0.000025
 874	8.6864e+01	8.6819	14.303630	0.000299	2.989027	0.506355	0.000030
 875	8.6963e+01	8.6897	14.334181	0.000307	3.070918	0.520228	0.000031
 876	8.7063e+01	8.7006	14.359029	0.000250	2.497680	0.423119	0.000025
 877	8.7162e+01	8.7134	14.393653	0.000348	3.480374	0.589591	0.000035
 878	8.7261e+01	8.7214	14.418501	0.000250	2.497680	0.423119	0.000025
 879	8.7361e+01	8.7305	14.448237	0.000299	2.989027	0.506355	0.000030
 880	8.7460e+01	8.7436	14.475529	0.000274	2.743354	0.464737	0.000027
 881	8.7560e+01	8.7485	14.504857	0.000295	2.948082	0.499419	0.000029
 882	8.7659e+01	8.7622	14.531742	0.000270	2.702408	0.457800	0.000027
 883	8.7759e+01	8.7701	14.559441	0.000278	2.784299	0.471673	0.000028
 884	8.7859e+01	8.7809	14.589584	0.000303	3.029973	0.513291	0.000030
 885	8.7958e+01	8.7926	14.618913	0.000295	2.948082	0.499419	0.000029
 886	8.8058e+01	8.8004	14.645390	0.000266	2.661463	0.450864	0.000027
 887	8.8157e+01	8.8123	14.674312	0.000291	2.907136	0.492482	0.000029
 888	8.8257e+01	8.8212	14.703640	0.000295	2.948082	0.499419	0.000029
 889	8.8356e+01	8.8325	14.731747	0.000283	2.825245	0.478609	0.000028
 890	8.8456e+01	8.8406	14.757002	0.000254	2.538626	0.430055	0.000025
 891	8.8555e+01	8.8496	14.790812	0.000340	3.398483	0.575719	0.000034
 892	8.8654e+01	8.8592	14.816882	0.000262	2.620517	0.443928	0.000026
 893	8.8754e+01	8.8741	14.848247	0.000315	3.152810	0.534100	0.000032
 894	8.8853e+01	8.8778	14.875539	0.000274	2.743354	0.464737	0.000027
 895	8.8953e+01	8.8917	14.905682	0.000303	3.029973	0.513291	0.000030
 896	8.9052e+01	8.8989	14.933789	0.000283	2.825245	0.478609	0.000028
 897	8.9152e+01	8.9087	14.960674	0.000270	2.702408	0.457800	0.000027
 898	8.9251e+01	8.9197	14.987558	0.000270	2.702408	0.457800	0.000027
 899	8.9351e+01	8.9303	15.014850	0.000274	2.743354	0.464737	0.000027
 900	8.9451e+01	8.9389	15.045401	0.000307	3.070918	0.520228	0.000031
 901	8.9550e+01	8.9507	15.073100	0.000278	2.784299	0.471673	0.000028
 902	8.9650e+01	8.9575	15.102836	0.000299	2.989027	0.506355	0.000030
 903	8.9749e+01	8.9687	15.127684	0.000250	2.497680	0.423119	0.000025
 904	8.9849e+01	8.9807	15.155791	0.000283	2.825245	0.478609	0.000028
 905	8.9948e+01	8.9899	15.179417	0.000237	2.374844	0.402309	0.000024
 906	9.0047e+01	9.0030	15.212004	0.000328	3.275646	0.554910	0.000033
 907	9.0147e+01	9.0088	15.235630	0.000237	2.374844	0.402309	0.000024
 908	9.0246e+01	9.0186	15.263736	0.000283	2.825245	0.478609	0.000028
 909	9.0346e+01	9.0283	15.291436	0.000278	2.784299	0.471673	0.000028
 910	9.0445e+01	9.0381	15.323208	0.000319	3.193755	0.541037	0.000032
 911	9.0545e+01	9.0470	15.344798	0.000217	2.170116	0.367628	0.000022
 912	9.0644e+01	9.0566	15.372090	0.000274	2.743354	0.464737	0.000027
 913	9.0744e+01	9.0710	15.399789	0.000278	2.784299	0.471673	0.000028
 914	9.0844e+01	9.0765	15.428303	0.000287	2.866191	0.485546	0.000029
 915	9.0943e+01	9.0869	15.452336	0.000242	2.415789	0.409246	0.000024
 916	9.1043e+01	9.0979	15.481257	0.000291	2.907136	0.492482	0.000029
 917	9.1142e+01	9.1082	15.511401	0.000303	3.029973	0.513291	0.000030
 918	9.1242e+01	9.1218	15.534212	0.000229	2.292952	0.388437	0.000023
 919	9.1341e+01	9.1335	15.565577	0.000315	3.152810	0.534100	0.000032
 920	9.1441e+01	9.1399	15.593684	0.000283	2.825245	0.478609	0.000028
 921	9.1540e+01	9.1512	15.623013	0.000295	2.948082	0.499419	0.000029
 922	9.1639e+01	9.1580	15.651119	0.000283	2.825245	0.478609	0.000028
 923	9.1739e+01	9.1679	15.683707	0.000328	3.275646	0.554910	0.000033
 924	9.1838e+01	9.1781	15.713443	0.000299	2.989027	0.506355	0.000030
 925	9.1938e+01	9.1879	15.744401	0.000311	3.111864	0.527164	0.000031
 926	9.2037e+01	9.1969	15.772100	0.000278	2.784299	0.471673	0.000028
 927	9.2137e+01	9.2068	15.802651	0.000307	3.070918	0.520228	0.000031
 928	9.2237e+01	9.2172	15.829535	0.000270	2.702408	0.457800	0.000027
 929	9.2336e+01	9.2279	15.859679	0.000303	3.029973	0.513291	0.000030
 930	9.2436e+01	9.2364	15.891451	0.000319	3.193755	0.541037	0.000032
 931	9.2535e+01	9.2480	15.922409	0.000311	3.111864	0.527164	0.000031
 932	9.2635e+01	9.2588	15.955811	0.000336	3.357538	0.568782	0.000034
 933	9.2734e+01	9.2683	15.987177	0.000315	3.152810	0.534100	0.000032
 934	9.2834e+01	9.2773	16.018542	0.000315	3.152810	0.534100	0.000032
 935	9.2933e+01	9.2886	16.051537	0.000332	3.316592	0.561846	0.000033
 936	9.3032e+01	9.2985	16.079236	0.000278	2.784299	0.471673	0.000028
 937	9.3132e+01	9.3098	16.110602	0.000315	3.152810	0.534100	0.000032
 938	9.3231e+01	9.3188	16.141560	0.000311	3.111864	0.527164	0.000031
 939	9.3331e+01	9.3247	16.172110	0.000307	3.070918	0.520228	0.000031
 940	9.3430e+01	9.3411	16.208364	0.000364	3.644157	0.617337	0.000036
 941	9.3530e+01	9.3481	16.235248	0.000270	2.702408	0.457800	0.000027
 942	9.3629e+01	9.3620	16.271909	0.000369	3.685102	0.624273	0.000037
 943	9.3729e+01	9.3675	16.305311	0.000336	3.357538	0.568782	0.000034
 944	9.3829e+01	9.3771	16.335862	0.000307	3.070918	0.520228	0.000031
 945	9.3928e+01	9.3873	16.368857	0.000332	3.316592	0.561846	0.000033
 946	9.4028e+01	9.3955	16.397778	0.000291	2.907136	0.492482	0.000029
 947	9.4127e+01	9.4061	16.427514	0.000299	2.989027	0.506355	0.000030
 948	9.4227e+01	9.4165	16.456435	0.000291	2.907136	0.492482	0.000029
 949	9.4326e+01	9.4276	16.486986	0.000307	3.070918	0.520228	0.000031
 950	9.4425e+01	9.4375	16.521203	0.000344	3.439429	0.582655	0.000034
 951	9.4525e+01	9.4476	16.547680	0.000266	2.661463	0.450864	0.000027
 952	9.4624e+01	9.4567	16.580675	0.000332	3.316592	0.561846	0.000033
 953	9.4724e+01	9.4708	16.608782	0.000283	2.825245	0.478609	0.000028
 954	9.4823e+01	9.4765	16.639332	0.000307	3.070918	0.520228	0.000031
 955	9.4923e+01	9.4875	16.671105	0.000319	3.193755	0.541037	0.000032
 956	9.5022e+01	9.4952	16.700841	0.000299	2.989027	0.506355	0.000030
 957	9.5122e+01	9.5056	16.730984	0.000303	3.029973	0.513291	0.000030
 958	9.5222e+01	9.5158	16.763572	0.000328	3.275646	0.554910	0.000033
 959	9.5321e+01	9.5270	16.791271	0.000278	2.784299	0.471673	0.000028
 960	9.5421e+01	9.5374	16.819378	0.000283	2.825245	0.478609	0.000028
 961	9.5520e+01	9.5473	16.850743	0.000315	3.152810	0.534100	0.000032
 962	9.5620e+01	9.5569	16.883738	0.000332	3.316592	0.561846	0.000033
 963	9.5719e+01	9.5670	16.908586	0.000250	2.497680	0.423119	0.000025
 964	9.5819e+01	9.5770	16.939951	0.000315	3.152810	0.534100	0.000032
 965	9.5918e+01	9.5890	16.967650	0.000278	2.784299	0.471673	0.000028
 966	9.6017e+01	9.5962	16.994942	0.000274	2.743354	0.464737	0.000027
 967	9.6117e+01	9.6060	17.029566	0.000348	3.480374	0.589591	0.000035
 968	9.6216e+01	9.6160	17.055636	0.000262	2.620517	0.443928	0.000026
 969	9.6316e+01	9.6256	17.087816	0.000323	3.234701	0.547973	0.000032
 970	9.6415e+01	9.6347	17.117960	0.000303	3.029973	0.513291	0.000030
 971	9.6515e+01	9.6475	17.145659	0.000278	2.784299	0.471673	0.000028
 972	9.6615e+01	9.6558	17.180283	0.000348	3.480374	0.589591	0.000035
 973	9.6714e+01	9.6643	17.203502	0.000233	2.333898	0.395373	0.000023
 974	9.6814e+01	9.6732	17.233645	0.000303	3.029973	0.513291	0.000030
 975	9.6913e+01	9.6875	17.263788	0.000303	3.029973	0.513291	0.000030
 976	9.7013e+01	9.6951	17.293932	0.000303	3.029973	0.513291	0.000030
 977	9.7112e+01	9.7051	17.322038	0.000283	2.825245	0.478609	0.000028
 978	9.7212e+01	9.7156	17.352996	0.000311	3.111864	0.527164	0.000031
 979	9.7311e+01	9.7266	17.382325	0.000295	2.948082	0.499419	0.000029
 980	9.7410e+01	9.7353	17.409210	0.000270	2.702408	0.457800	0.000027
 981	9.7510e+01	9.7437	17.435687	0.000266	2.661463	0.450864	0.000027
 982	9.7609e+01	9.7559	17.467460	0.000319	3.193755	0.541037	0.000032
 983	9.7709e+01	9.7658	17.494752	0.000274	2.743354	0.464737	0.000027
 984	9.7808e+01	9.7754	17.527746	0.000332	3.316592	0.561846	0.000033
 985	9.7908e+01	9.7860	17.558297	0.000307	3.070918	0.520228	0.000031
 986	9.8007e+01	9.7955	17.588848	0.000307	3.070918	0.520228	0.000031
 987	9.8107e+01	9.8049	17.616954	0.000283	2.825245	0.478609	0.000028
 988	9.8207e+01	9.8153	17.650356	0.000336	3.357538	0.568782	0.000034
 989	9.8306e+01	9.8246	17.682944	0.000328	3.275646	0.554910	0.000033
 990	9.8406e+01	9.8340	17.709828	0.000270	2.702408	0.457800	0.000027
 991	9.8505e+01	9.8463	17.737935	0.000283	2.825245	0.478609	0.000028
 992	9.8605e+01	9.8578	17.772152	0.000344	3.439429	0.582655	0.000034
 993	9.8704e+01	9.8649	17.801073	0.000291	2.907136	0.492482	0.000029
 994	9.8803e+01	9.8755	17.832031	0.000311	3.111864	0.527164	0.000031
 995	9.8903e+01	9.8845	17.861360	0.000295	2.948082	0.499419	0.000029
 996	9.9002e+01	9.8926	17.895984	0.000348	3.480374	0.589591	0.000035
 997	9.9102e+01	9.9052	17.924905	0.000291	2.907136	0.492482	0.000029
 998	9.9201e+01	9.9122	17.951790	0.000270	2.702408	0.457800	0.000027
 999	9.9301e+01	9.9296	17.986821	0.000352	3.521320	0.596528	0.000035
1000	9.9400e+01	9.9347	18.014113	0.000274	2.743354	0.464737	0.000027
1001	9.9500e+01	9.9475	18.046293	0.000323	3.234701	0.547973	0.000032
1002	9.9600e+01	9.9525	18.075215	0.000291	2.907136	0.492482	0.000029
1003	9.9699e+01	9.9658	18.102914	0.000278	2.784299	0.471673	0.000028
1004	9.9799e+01	9.9768	18.133057	0.000303	3.029973	0.513291	0.000030
1005	9.9898e+01	9.9869	18.167274	0.000344	3.439429	0.582655	0.000034
1006	9.9998e+01	9.9927	18.192122	0.000250	2.497680	0.423119	0.000025
1007	1.0010e+02	9.9838	18.175421	0.000168	1.678769	0.284391	-0.000017
1008	1.0020e+02	9.9756	18.157498	0.000180	1.801606	0.305200	-0.000018
1009	1.0030e+02	9.9670	18.140797	0.000168	1.678769	0.284391	-0.000017
1010	1.0040e+02	9.9542	18.123281	0.000176	1.760660	0.298264	-0.000018
1011	1.0050e+02	9.9471	18.097211	0.000262	2.620517	0.443928	-0.000026
1012	1.0059e+02	9.9367	18.075215	0.000221	2.211061	0.374564	-0.000022
1013	1.0069e+02	9.9223	18.056477	0.000188	1.883497	0.319073	-0.000019
1014	1.0079e+02	9.9152	18.033666	0.000229	2.292952	0.388437	-0.000023
1015	1.0089e+02	9.9050	18.013299	0.000205	2.047279	0.346818	-0.000020
1016	1.0099e+02	9.8950	17.987229	0.000262	2.620517	0.443928	-0.000026
1017	1.0109e+02	9.8837	17.964010	0.000233	2.333898	0.395373	-0.000023
1018	1.0119e+02	9.8750	17.943236	0.000209	2.088225	0.353755	-0.000021
1019	1.0129e+02	9.8657	17.917166	0.000262	2.620517	0.443928	-0.000026
1020	1.0139e+02	9.8538	17.898835	0.000184	1.842551	0.312137	-0.000018
1021	1.0149e+02	9.8450	17.872358	0.000266	2.661463	0.450864	-0.000027
1022	1.0159e+02	9.8355	17.846288	0.000262	2.620517	0.443928	-0.000026
1023	1.0169e+02	9.8283	17.828772	0.000176	1.760660	0.298264	-0.000018
1024	1.0179e+02	9.8151	17.803925	0.000250	2.497680	0.423119	-0.000025
1025	1.0189e+02	9.8047	17.779484	0.000246	2.456735	0.416182	-0.000025
1026	1.0199e+02	9.7967	17.752599	0.000270	2.702408	0.457800	-0.000027
1027	1.0209e+02	9.7855	17.728974	0.000237	2.374844	0.402309	-0.000024
1028	1.0219e+02	9.7737	17.703311	0.000258	2.579572	0.436991	-0.000026
1029	1.0229e+02	9.7642	17.682536	0.000209	2.088225	0.353755	-0.000021
1030	1.0239e+02	9.7559	17.659725	0.000229	2.292952	0.388437	-0.000023
1031	1.0248e+02	9.7461	17.634063	0.000258	2.579572	0.436991	-0.000026
1032	1.0258e+02	9.7353	17.611252	0.000229	2.292952	0.388437	-0.000023
1033	1.0268e+02	9.7266	17.584774	0.000266	2.661463	0.450864	-0.000027
1034	1.0278e+02	9.7150	17.564407	0.000205	2.047279	0.346818	-0.000020
1035	1.0288e+02	9.7071	17.537115	0.000274	2.743354	0.464737	-0.000027
1036	1.0298e+02	9.6973	17.518377	0.000188	1.883497	0.319073	-0.000019
1037	1.0308e+02	9.6859	17.493122	0.000254	2.538626	0.430055	-0.000025
1038	1.0318e+02	9.6771	17.470718	0.000225	2.252007	0.381500	-0.000023
1039	1.0328e+02	9.6646	17.444648	0.000262	2.620517	0.443928	-0.000026
1040	1.0338e+02	9.6558	17.421430	0.000233	2.333898	0.395373	-0.000023
1041	1.0348e+02	9.6452	17.398619	0.000229	2.292952	0.388437	-0.000023
1042	1.0358e+02	9.6362	17.374993	0.000237	2.374844	0.402309	-0.000024
1043	1.0368e+02	9.6269	17.355848	0.000192	1.924442	0.326009	-0.000019
1044	1.0378e+02	9.6173	17.331407	0.000246	2.456735	0.416182	-0.000025
1045	1.0388e+02	9.6070	17.306152	0.000254	2.538626	0.430055	-0.000025
1046	1.0398e+02	9.5966	17.283748	0.000225	2.252007	0.381500	-0.000023
1047	1.0408e+02	9.5858	17.260937	0.000229	2.292952	0.388437	-0.000023
1048	1.0418e+02	9.5753	17.236496	0.000246	2.456735	0.416182	-0.000025
1049	1.0428e+02	9.5668	17.215315	0.000213	2.129170	0.360691	-0.000021
1050	1.0438e+02	9.5557	17.190059	0.000254	2.538626	0.430055	-0.000025
1051	1.0447e+02	9.5490	17.169692	0.000205	2.047279	0.346818	-0.000020
1052	1.0457e+02	9.5363	17.145252	0.000246	2.456735	0.416182	-0.000025
1053	1.0467e+02	9.5258	17.119996	0.000254	2.538626	0.430055	-0.000025
1054	1.0477e+02	9.5167	17.095556	0.000246	2.456735	0.416182	-0.000025
1055	1.0487e+02	9.5058	17.073559	0.000221	2.211061	0.374564	-0.000022
1056	1.0497e+02	9.4977	17.049119	0.000246	2.456735	0.416182	-0.000025
1057	1.0507e+02	9.4852	17.028344	0.000209	2.088225	0.353755	-0.000021
1058	1.0517e+02	9.4788	17.002274	0.000262	2.620517	0.443928	-0.000026
1059	1.0527e+02	9.4678	16.977019	0.000254	2.538626	0.430055	-0.000025
1060	1.0537e+02	9.4592	16.957467	0.000197	1.965388	0.332946	-0.000020
1061	1.0547e+02	9.4467	16.931804	0.000258	2.579572	0.436991	-0.000026
1062	1.0557e+02	9.4385	16.905734	0.000262	2.620517	0.443928	-0.000026
1063	1.0567e+02	9.4287	16.886996	0.000188	1.883497	0.319073	-0.000019
1064	1.0577e+02	9.4171	16.858483	0.000287	2.866191	0.485546	-0.000029
1065	1.0587e+02	9.4061	16.837708	0.000209	2.088225	0.353755	-0.000021
1066	1.0597e+02	9.3978	16.812453	0.000254	2.538626	0.430055	-0.000025
1067	1.0607e+02	9.3887	16.792086	0.000205	2.047279	0.346818	-0.000020
1068	1.0617e+02	9.3752	16.766423	0.000258	2.579572	0.436991	-0.000026
1069	1.0627e+02	9.3682	16.736280	0.000303	3.029973	0.513291	-0.000030
1070	1.0637e+02	9.3569	16.713876	0.000225	2.252007	0.381500	-0.000023
1071	1.0647e+02	9.3451	16.687806	0.000262	2.620517	0.443928	-0.000026
1072	1.0656e+02	9.3384	16.662551	0.000254	2.538626	0.430055	-0.000025
1073	1.0666e+02	9.3280	16.636481	0.000262	2.620517	0.443928	-0.000026
1074	1.0676e+02	9.3181	16.614077	0.000225	2.252007	0.381500	-0.000023
1075	1.0686e+02	9.3097	16.588007	0.000262	2.620517	0.443928	-0.000026
1076	1.0696e+02	9.2941	16.563159	0.000250	2.497680	0.423119	-0.000025
1077	1.0706e+02	9.2879	16.537497	0.000258	2.579572	0.436991	-0.000026
1078	1.0716e+02	9.2773	16.513056	0.000246	2.456735	0.416182	-0.000025
1079	1.0726e+02	9.2685	16.485764	0.000274	2.743354	0.464737	-0.000027
1080	1.0736e+02	9.2588	16.458065	0.000278	2.784299	0.471673	-0.000028
1081	1.0746e+02	9.2475	16.432402	0.000258	2.579572	0.436991	-0.000026
1082	1.0756e+02	9.2388	16.407554	0.000250	2.497680	0.423119	-0.000025
1083	1.0766e+02	9.2267	16.380262	0.000274	2.743354	0.464737	-0.000027
1084	1.0776e+02	9.2191	16.356636	0.000237	2.374844	0.402309	-0.000024
1085	1.0786e+02	9.2082	16.332196	0.000246	2.456735	0.416182	-0.000025
1086	1.0796e+02	9.1968	16.309385	0.000229	2.292952	0.388437	-0.000023
1087	1.0806e+02	9.1895	16.284944	0.000246	2.456735	0.416182	-0.000025
1088	1.0816e+02	9.1766	16.257245	0.000278	2.784299	0.471673	-0.000028
1089	1.0826e+02	9.1706	16.235248	0.000221	2.211061	0.374564	-0.000022
1090	1.0836e+02	9.1578	16.211215	0.000242	2.415789	0.409246	-0.000024
1091	1.0845e+02	9.1487	16.186367	0.000250	2.497680	0.423119	-0.000025
1092	1.0855e+02	9.1364	16.166408	0.000201	2.006333	0.339882	-0.000020
1093	1.0865e+02	9.1287	16.141152	0.000254	2.538626	0.430055	-0.000025
1094	1.0875e+02	9.1188	16.115897	0.000254	2.538626	0.430055	-0.000025
1095	1.0885e+02	9.1080	16.094308	0.000217	2.170116	0.367628	-0.000022
1096	1.0895e+02	9.0985	16.069867	0.000246	2.456735	0.416182	-0.000025
1097	1.0905e+02	9.0871	16.045427	0.000246	2.456735	0.416182	-0.000025
1098	1.0915e+02	9.0792	16.022208	0.000233	2.333898	0.395373	-0.000023
1099	1.0925e+02	9.0710	16.002248	0.000201	2.006333	0.339882	-0.000020
1100	1.0935e+02	9.0619	15.983918	0.000184	1.842551	0.312137	-0.000018
1101	1.0945e+02	9.0496	15.958663	0.000254	2.538626	0.430055	-0.000025
1102	1.0955e+02	9.0389	15.940332	0.000184	1.842551	0.312137	-0.000018
1103	1.0965e+02	9.0274	15.916299	0.000242	2.415789	0.409246	-0.000024
1104	1.0975e+02	9.0216	15.893081	0.000233	2.333898	0.395373	-0.000023
1105	1.0985e+02	9.0093	15.867825	0.000254	2.538626	0.430055	-0.000025
1106	1.0995e+02	8.9978	15.847866	0.000201	2.006333	0.339882	-0.000020
1107	1.1005e+02	8.9893	15.825054	0.000229	2.292952	0.388437	-0.000023
1108	1.1015e+02	8.9783	15.803873	0.000213	2.129170	0.360691	-0.000021
1109	1.1025e+02	8.9685	15.781876	0.000221	2.211061	0.374564	-0.000022
1110	1.1035e+02	8.9600	15.761916	0.000201	2.006333	0.339882	-0.000020
1111	1.1044e+02	8.9507	15.739105	0.000229	2.292952	0.388437	-0.000023
1112	1.1054e+02	8.9385	15.716294	0.000229	2.292952	0.388437	-0.000023
1113	1.1064e+02	8.9297	15.693890	0.000225	2.252007	0.381500	-0.000023
1114	1.1074e+02	8.9192	15.672301	0.000217	2.170116	0.367628	-0.000022
1115	1.1084e+02	8.9108	15.648268	0.000242	2.415789	0.409246	-0.000024
1116	1.1094e+02	8.8999	15.627086	0.000213	2.129170	0.360691	-0.000021
1117	1.1104e+02	8.8886	15.604275	0.000229	2.292952	0.388437	-0.000023
1118	1.1114e+02	8.8794	15.579020	0.000254	2.538626	0.430055	-0.000025
1119	1.1124e+02	8.8705	15.559467	0.000197	1.965388	0.332946	-0.000020
1120	1.1134e+02	8.8599	15.532583	0.000270	2.702408	0.457800	-0.000027
1121	1.1144e+02	8.8489	15.509771	0.000229	2.292952	0.388437	-0.000023
1122	1.1154e+02	8.8392	15.482479	0.000274	2.743354	0.464737	-0.000027
1123	1.1164e+02	8.8294	15.460076	0.000225	2.252007	0.381500	-0.000023
1124	1.1174e+02	8.8213	15.438486	0.000217	2.170116	0.367628	-0.000022
1125	1.1184e+02	8.8120	15.411602	0.000270	2.702408	0.457800	-0.000027
1126	1.1194e+02	8.8025	15.391642	0.000201	2.006333	0.339882	-0.000020
1127	1.1204e+02	8.7921	15.367201	0.000246	2.456735	0.416182	-0.000025
1128	1.1214e+02	8.7793	15.343576	0.000237	2.374844	0.402309	-0.000024
1129	1.1224e+02	8.7695	15.320357	0.000233	2.333898	0.395373	-0.000023
1130	1.1234e+02	8.7610	15.294287	0.000262	2.620517	0.443928	-0.000026
1131	1.1244e+02	8.7515	15.271476	0.000229	2.292952	0.388437	-0.000023
1132	1.1253e+02	8.7424	15.247035	0.000246	2.456735	0.416182	-0.000025
1133	1.1263e+02	8.7322	15.223002	0.000242	2.415789	0.409246	-0.000024
1134	1.1273e+02	8.7214	15.197340	0.000258	2.579572	0.436991	-0.000026
1135	1.1283e+02	8.7134	15.175343	0.000221	2.211061	0.374564	-0.000022
1136	1.1293e+02	8.7012	15.148051	0.000274	2.743354	0.464737	-0.000027
1137	1.1303e+02	8.6927	15.125240	0.000229	2.292952	0.388437	-0.000023
1138	1.1313e+02	8.6817	15.099577	0.000258	2.579572	0.436991	-0.000026
1139	1.1323e+02	8.6721	15.075544	0.000242	2.415789	0.409246	-0.000024
1140	1.1333e+02	8.6597	15.049474	0.000262	2.620517	0.443928	-0.000026
1141	1.1343e+02	8.6506	15.022182	0.000274	2.743354	0.464737	-0.000027
1142	1.1353e+02	8.6450	14.999778	0.000225	2.252007	0.381500	-0.000023
1143	1.1363e+02	8.6353	14.974523	0.000254	2.538626	0.430055	-0.000025
1144	1.1373e+02	8.6214	14.947639	0.000270	2.702408	0.457800	-0.000027
1145	1.1383e+02	8.6112	14.921569	0.000262	2.620517	0.443928	-0.000026
1146	1.1393e+02	8.6018	14.898350	0.000233	2.333898	0.395373	-0.000023
1147	1.1403e+02	8.5913	14.871873	0.000266	2.661463	0.450864	-0.000027
1148	1.1413e+02	8.5825	14.845803	0.000262	2.620517	0.443928	-0.000026
1149	1.1423e+02	8.5742	14.820548	0.000254	2.538626	0.430055	-0.000025
1150	1.1433e+02	8.5620	14.797329	0.000233	2.333898	0.395373	-0.000023
1151	1.1442e+02	8.5529	14.773296	0.000242	2.415789	0.409246	-0.000024
1152	1.1452e+02	8.5409	14.746411	0.000270	2.702408	0.457800	-0.000027
1153	1.1462e+02	8.5330	14.728081	0.000184	1.842551	0.312137	-0.000018
1154	1.1472e+02	8.5229	14.702011	0.000262	2.620517	0.443928	-0.000026
1155	1.1482e+02	8.5142	14.674719	0.000274	2.743354	0.464737	-0.000027
1156	1.1492e+02	8.5026	14.650279	0.000246	2.456735	0.416182	-0.000025
1157	1.1502e+02	8.4931	14.625838	0.000246	2.456735	0.416182	-0.000025
1158	1.1512e+02	8.4817	14.601397	0.000246	2.456735	0.416182	-0.000025
1159	1.1522e+02	8.4741	14.574513	0.000270	2.702408	0.457800	-0.000027
1160	1.1532e+02	8.4640	14.552516	0.000221	2.211061	0.374564	-0.000022
1161	1.1542e+02	8.4531	14.528483	0.000242	2.415789	0.409246	-0.000024
1162	1.1552e+02	8.4418	14.504043	0.000246	2.456735	0.416182	-0.000025
1163	1.1562e+02	8.4318	14.480009	0.000242	2.415789	0.409246	-0.000024
1164	1.1572e+02	8.4241	14.458013	0.000221	2.211061	0.374564	-0.000022
1165	1.1582e+02	8.4155	14.431536	0.000266	2.661463	0.450864	-0.000027
1166	1.1592e+02	8.4029	14.412390	0.000192	1.924442	0.326009	-0.000019
1167	1.1602e+02	8.3936	14.385913	0.000266	2.661463	0.450864	-0.000027
1168	1.1612e+02	8.3850	14.361065	0.000250	2.497680	0.423119	-0.000025
1169	1.1622e+02	8.3736	14.334588	0.000266	2.661463	0.450864	-0.000027
1170	1.1632e+02	8.3637	14.309333	0.000254	2.538626	0.430055	-0.000025
1171	1.1642e+02	8.3549	14.283263	0.000262	2.620517	0.443928	-0.000026
1172	1.1651e+02	8.3426	14.257600	0.000258	2.579572	0.436991	-0.000026
1173	1.1661e+02	8.3331	14.228679	0.000291	2.907136	0.492482	-0.000029
1174	1.1671e+02	8.3224	14.207905	0.000209	2.088225	0.353755	-0.000021
1175	1.1681e+02	8.3118	14.179391	0.000287	2.866191	0.485546	-0.000029
1176	1.1691e+02	8.3018	14.154135	0.000254	2.538626	0.430055	-0.000025
1177	1.1701e+02	8.2952	14.127251	0.000270	2.702408	0.457800	-0.000027
1178	1.1711e+02	8.2831	14.101181	0.000262	2.620517	0.443928	-0.000026
1179	1.1721e+02	8.2738	14.071852	0.000295	2.948082	0.499419	-0.000029
1180	1.1731e+02	8.2671	14.041301	0.000307	3.070918	0.520228	-0.000031
1181	1.1741e+02	8.2567	14.013195	0.000283	2.825245	0.478609	-0.000028
1182	1.1751e+02	8.2451	13.983051	0.000303	3.029973	0.513291	-0.000030
1183	1.1761e+02	8.2339	13.955352	0.000278	2.784299	0.471673	-0.000028
1184	1.1771e+02	8.2230	13.926023	0.000295	2.948082	0.499419	-0.000029
1185	1.1781e+02	8.2114	13.897917	0.000283	2.825245	0.478609	-0.000028
1186	1.1791e+02	8.2073	13.869403	0.000287	2.866191	0.485546	-0.000029
1187	1.1801e+02	8.1946	13.840889	0.000287	2.866191	0.485546	-0.000029
1188	1.1811e+02	8.1841	13.816041	0.000250	2.497680	0.423119	-0.000025
1189	1.1821e+02	8.1740	13.784268	0.000319	3.193755	0.541037	-0.000032
1190	1.1831e+02	8.1641	13.755347	0.000291	2.907136	0.492482	-0.000029
1191	1.1841e+02	8.1529	13.724389	0.000311	3.111864	0.527164	-0.000031
1192	1.1850e+02	8.1422	13.697097	0.000274	2.743354	0.464737	-0.000027
1193	1.1860e+02	8.1339	13.667768	0.000295	2.948082	0.499419	-0.000029
1194	1.1870e+02	8.1264	13.634366	0.000336	3.357538	0.568782	-0.000034
1195	1.1880e+02	8.1136	13.606667	0.000278	2.784299	0.471673	-0.000028
1196	1.1890e+02	8.1068	13.577746	0.000291	2.907136	0.492482	-0.000029
1197	1.1900e+02	8.0923	13.543529	0.000344	3.439429	0.582655	-0.000034
1198	1.1910e+02	8.0846	13.515830	0.000278	2.784299	0.471673	-0.000028
1199	1.1920e+02	8.0772	13.487723	0.000283	2.825245	0.478609	-0.000028
1200	1.1930e+02	8.0646	13.455950	0.000319	3.193755	0.541037	-0.000032
1201	1.1940e+02	8.0552	13.429880	0.000262	2.620517	0.443928	-0.000026
1202	1.1950e+02	8.0442	13.400959	0.000291	2.907136	0.492482	-0.000029
1203	1.1960e+02	8.0344	13.376111	0.000250	2.497680	0.423119	-0.000025
1204	1.1970e+02	8.0249	13.350041	0.000262	2.620517	0.443928	-0.000026
1205	1.1980e+02	8.0142	13.317454	0.000328	3.275646	0.554910	-0.000033
1206	1.1990e+02	8.0025	13.290976	0.000266	2.661463	0.450864	-0.000027
1207	1.2000e+02	7.9933	13.262462	0.000287	2.866191	0.485546	-0.000029
1208	1.2010e+02	7.9877	13.234763	0.000278	2.784299	0.471673	-0.000028
1209	1.2020e+02	7.9771	13.200546	0.000344	3.439429	0.582655	-0.000034
1210	1.2030e+02	7.9639	13.175291	0.000254	2.538626	0.430055	-0.000025
1211	1.2039e+02	7.9555	13.149629	0.000258	2.579572	0.436991	-0.000026
1212	1.2049e+02	7.9443	13.123559	0.000262	2.620517	0.443928	-0.000026
1213	1.2059e+02	7.9355	13.092193	0.000315	3.152810	0.534100	-0.000032
1214	1.2069e+02	7.9251	13.066938	0.000254	2.538626	0.430055	-0.000025
1215	1.2079e+02	7.9135	13.037609	0.000295	2.948082	0.499419	-0.000029
1216	1.2089e+02	7.9067	13.006651	0.000311	3.111864	0.527164	-0.000031
1217	1.2099e+02	7.8968	12.979359	0.000274	2.743354	0.464737	-0.000027
1218	1.2109e+02	7.8862	12.956956	0.000225	2.252007	0.381500	-0.000023
1219	1.2119e+02	7.8752	12.927220	0.000299	2.989027	0.506355	-0.000030
1220	1.2129e+02	7.8644	12.899113	0.000283	2.825245	0.478609	-0.000028
1221	1.2139e+02	7.8565	12.872636	0.000266	2.661463	0.450864	-0.000027
1222	1.2149e+02	7.8444	12.838826	0.000340	3.398483	0.575719	-0.000034
1223	1.2159e+02	7.8349	12.812756	0.000262	2.620517	0.443928	-0.000026
1224	1.2169e+02	7.8251	12.789538	0.000233	2.333898	0.395373	-0.000023
1225	1.2179e+02	7.8151	12.759802	0.000299	2.989027	0.506355	-0.000030
1226	1.2189e+02	7.8052	12.733732	0.000262	2.620517	0.443928	-0.000026
1227	1.2199e+02	7.7950	12.704811	0.000291	2.907136	0.492482	-0.000029
1228	1.2209e+02	7.7862	12.677519	0.000274	2.743354	0.464737	-0.000027
1229	1.2219e+02	7.7783	12.646561	0.000311	3.111864	0.527164	-0.000031
1230	1.2229e+02	7.7677	12.620491	0.000262	2.620517	0.443928	-0.000026
1231	1.2239e+02	7.7554	12.591569	0.000291	2.907136	0.492482	-0.000029
1232	1.2248e+02	7.7471	12.563870	0.000278	2.784299	0.471673	-0.000028
1233	1.2258e+02	7.7370	12.539429	0.000246	2.456735	0.416182	-0.000025
1234	1.2268e+02	7.7274	12.507249	0.000323	3.234701	0.547973	-0.000032
1235	1.2278e+02	7.7151	12.479550	0.000278	2.784299	0.471673	-0.000028
1236	1.2288e+02	7.7071	12.451443	0.000283	2.825245	0.478609	-0.000028
1237	1.2298e+02	7.6969	12.416819	0.000348	3.480374	0.589591	-0.000035
1238	1.2308e+02	7.6846	12.390749	0.000262	2.620517	0.443928	-0.000026
1239	1.2318e+02	7.6763	12.359384	0.000315	3.152810	0.534100	-0.000032
1240	1.2328e+02	7.6659	12.332499	0.000270	2.702408	0.457800	-0.000027
1241	1.2338e+02	7.6552	12.302763	0.000299	2.989027	0.506355	-0.000030
1242	1.2348e+02	7.6469	12.276286	0.000266	2.661463	0.450864	-0.000027
1243	1.2358e+02	7.6377	12.241662	0.000348	3.480374	0.589591	-0.000035
1244	1.2368e+02	7.6257	12.217221	0.000246	2.456735	0.416182	-0.000025
1245	1.2378e+02	7.6179	12.187893	0.000295	2.948082	0.499419	-0.000029
1246	1.2388e+02	7.6044	12.155713	0.000323	3.234701	0.547973	-0.000032
1247	1.2398e+02	7.5954	12.124347	0.000315	3.152810	0.534100	-0.000032
1248	1.2408e+02	7.5879	12.094611	0.000299	2.989027	0.506355	-0.000030
1249	1.2418e+02	7.5777	12.066097	0.000287	2.866191	0.485546	-0.000029
1250	1.2428e+02	7.5670	12.036361	0.000299	2.989027	0.506355	-0.000030
1251	1.2438e+02	7.5562	12.009477	0.000270	2.702408	0.457800	-0.000027
1252	1.2447e+02	7.5495	11.980148	0.000295	2.948082	0.499419	-0.000029
1253	1.2457e+02	7.5385	11.954078	0.000262	2.620517	0.443928	-0.000026
1254	1.2467e+02	7.5259	11.921898	0.000323	3.234701	0.547973	-0.000032
1255	1.2477e+02	7.5168	11.896643	0.000254	2.538626	0.430055	-0.000025
1256	1.2487e+02	7.5060	11.866092	0.000307	3.070918	0.520228	-0.000031
1257	1.2497e+02	7.4977	11.837171	0.000291	2.907136	0.492482	-0.000029
1258	1.2507e+02	7.4879	11.809472	0.000278	2.784299	0.471673	-0.000028
1259	1.2517e+02	7.4786	11.783402	0.000262	2.620517	0.443928	-0.000026
1260	1.2527e+02	7.4683	11.754888	0.000287	2.866191	0.485546	-0.000029
1261	1.2537e+02	7.4577	11.729225	0.000258	2.579572	0.436991	-0.000026
1262	1.2547e+02	7.4487	11.701526	0.000278	2.784299	0.471673	-0.000028
1263	1.2557e+02	7.4374	11.675049	0.000266	2.661463	0.450864	-0.000027
1264	1.2567e+02	7.4294	11.649793	0.000254	2.538626	0.430055	-0.000025
1265	1.2577e+02	7.4166	11.619650	0.000303	3.029973	0.513291	-0.000030
1266	1.2587e+02	7.4055	11.594802	0.000250	2.497680	0.423119	-0.000025
1267	1.2597e+02	7.3980	11.570769	0.000242	2.415789	0.409246	-0.000024
1268	1.2607e+02	7.3909	11.543884	0.000270	2.702408	0.457800	-0.000027
1269	1.2617e+02	7.3797	11.519036	0.000250	2.497680	0.423119	-0.000025
1270	1.2627e+02	7.3675	11.494596	0.000246	2.456735	0.416182	-0.000025
1271	1.2636e+02	7.3594	11.469341	0.000254	2.538626	0.430055	-0.000025
1272	1.2646e+02	7.3470	11.438790	0.000307	3.070918	0.520228	-0.000031
1273	1.2656e+02	7.3394	11.415571	0.000233	2.333898	0.395373	-0.000023
1274	1.2666e+02	7.3294	11.384206	0.000315	3.152810	0.534100	-0.000032
1275	1.2676e+02	7.3183	11.363839	0.000205	2.047279	0.346818	-0.000020
1276	1.2686e+02	7.3098	11.340213	0.000237	2.374844	0.402309	-0.000024
1277	1.2696e+02	7.2980	11.313736	0.000266	2.661463	0.450864	-0.000027
1278	1.2706e+02	7.2887	11.288888	0.000250	2.497680	0.423119	-0.000025
1279	1.2716e+02	7.2788	11.260781	0.000283	2.825245	0.478609	-0.000028
1280	1.2726e+02	7.2693	11.234711	0.000262	2.620517	0.443928	-0.000026
1281	1.2736e+02	7.2602	11.212715	0.000221	2.211061	0.374564	-0.000022
1282	1.2746e+02	7.2501	11.185015	0.000278	2.784299	0.471673	-0.000028
1283	1.2756e+02	7.2390	11.160575	0.000246	2.456735	0.416182	-0.000025
1284	1.2766e+02	7.2307	11.132468	0.000283	2.825245	0.478609	-0.000028
1285	1.2776e+02	7.2183	11.107620	0.000250	2.497680	0.423119	-0.000025
1286	1.2786e+02	7.2079	11.079106	0.000287	2.866191	0.485546	-0.000029
1287	1.2796e+02	7.1988	11.047334	0.000319	3.193755	0.541037	-0.000032
1288	1.2806e+02	7.1885	11.021264	0.000262	2.620517	0.443928	-0.000026
1289	1.2816e+02	7.1767	10.997638	0.000237	2.374844	0.402309	-0.000024
1290	1.2826e+02	7.1705	10.969531	0.000283	2.825245	0.478609	-0.000028
1291	1.2835e+02	7.1605	10.941425	0.000283	2.825245	0.478609	-0.000028
1292	1.2845e+02	7.1494	10.916169	0.000254	2.538626	0.430055	-0.000025
1293	1.2855e+02	7.1407	10.884804	0.000315	3.152810	0.534100	-0.000032
1294	1.2865e+02	7.1310	10.859549	0.000254	2.538626	0.430055	-0.000025
1295	1.2875e+02	7.1170	10.828591	0.000311	3.111864	0.527164	-0.000031
1296	1.2885e+02	7.1114	10.802113	0.000266	2.661463	0.450864	-0.000027
1297	1.2895e+02	7.0984	10.776858	0.000254	2.538626	0.430055	-0.000025
1298	1.2905e+02	7.0907	10.747122	0.000299	2.989027	0.506355	-0.000030
1299	1.2915e+02	7.0801	10.715757	0.000315	3.152810	0.534100	-0.000032
1300	1.2925e+02	7.0690	10.689280	0.000266	2.661463	0.450864	-0.000027
1301	1.2935e+02	7.0605	10.663617	0.000258	2.579572	0.436991	-0.000026
1302	1.2945e+02	7.0496	10.633474	0.000303	3.029973	0.513291	-0.000030
1303	1.2955e+02	7.0382	10.605774	0.000278	2.784299	0.471673	-0.000028
1304	1.2965e+02	7.0293	10.579297	0.000266	2.661463	0.450864	-0.000027
1305	1.2975e+02	7.0212	10.548746	0.000307	3.070918	0.520228	-0.000031
1306	1.2985e+02	7.0094	10.521862	0.000270	2.702408	0.457800	-0.000027
1307	1.2995e+02	6.9997	10.492126	0.000299	2.989027	0.506355	-0.000030
1308	1.3005e+02	6.9897	10.462390	0.000299	2.989027	0.506355	-0.000030
1309	1.3015e+02	6.9800	10.434283	0.000283	2.825245	0.478609	-0.000028
1310	1.3025e+02	6.9698	10.404954	0.000295	2.948082	0.499419	-0.000029
1311	1.3034e+02	6.9631	10.380921	0.000242	2.415789	0.409246	-0.000024
1312	1.3044e+02	6.9514	10.347519	0.000336	3.357538	0.568782	-0.000034
1313	1.3054e+02	6.9385	10.320227	0.000274	2.743354	0.464737	-0.000027
1314	1.3064e+02	6.9307	10.287232	0.000332	3.316592	0.561846	-0.000033
1315	1.3074e+02	6.9193	10.262385	0.000250	2.497680	0.423119	-0.000025
1316	1.3084e+02	6.9118	10.233463	0.000291	2.907136	0.492482	-0.000029
1317	1.3094e+02	6.9027	10.209023	0.000246	2.456735	0.416182	-0.000025
1318	1.3104e+02	6.8916	10.173177	0.000360	3.603211	0.610400	-0.000036
1319	1.3114e+02	6.8790	10.147921	0.000254	2.538626	0.430055	-0.000025
1320	1.3124e+02	6.8714	10.121444	0.000266	2.661463	0.450864	-0.000027
1321	1.3134e+02	6.8624	10.095374	0.000262	2.620517	0.443928	-0.000026
1322	1.3144e+02	6.8537	10.064416	0.000311	3.111864	0.527164	-0.000031
1323	1.3154e+02	6.8420	10.039976	0.000246	2.456735	0.416182	-0.000025
1324	1.3164e+02	6.8314	10.011054	0.000291	2.907136	0.492482	-0.000029
1325	1.3174e+02	6.8188	9.987428	0.000237	2.374844	0.402309	-0.000024
1326	1.3184e+02	6.8094	9.957692	0.000299	2.989027	0.506355	-0.000030
1327	1.3194e+02	6.8018	9.929586	0.000283	2.825245	0.478609	-0.000028
1328	1.3204e+02	6.7892	9.901072	0.000287	2.866191	0.485546	-0.000029
1329	1.3214e+02	6.7808	9.872150	0.000291	2.907136	0.492482	-0.000029
1330	1.3224e+02	6.7729	9.847303	0.000250	2.497680	0.423119	-0.000025
1331	1.3234e+02	6.7611	9.819603	0.000278	2.784299	0.471673	-0.000028
1332	1.3243e+02	6.7515	9.789053	0.000307	3.070918	0.520228	-0.000031
1333	1.3253e+02	6.7426	9.764612	0.000246	2.456735	0.416182	-0.000025
1334	1.3263e+02	6.7306	9.734876	0.000299	2.989027	0.506355	-0.000030
1335	1.3273e+02	6.7188	9.705547	0.000295	2.948082	0.499419	-0.000029
1336	1.3283e+02	6.7119	9.677441	0.000283	2.825245	0.478609	-0.000028
1337	1.3293e+02	6.7010	9.648112	0.000295	2.948082	0.499419	-0.000029
1338	1.3303e+02	6.6943	9.621227	0.000270	2.702408	0.457800	-0.000027
1339	1.3313e+02	6.6824	9.587825	0.000336	3.357538	0.568782	-0.000034
1340	1.3323e+02	6.6738	9.561755	0.000262	2.620517	0.443928	-0.000026
1341	1.3333e+02	6.6628	9.529983	0.000319	3.193755	0.541037	-0.000032
1342	1.3343e+02	6.6509	9.501469	0.000287	2.866191	0.485546	-0.000029
1343	1.3353e+02	6.6469	9.472140	0.000295	2.948082	0.499419	-0.000029
1344	1.3363e+02	6.6317	9.441997	0.000303	3.029973	0.513291	-0.000030
1345	1.3373e+02	6.6235	9.411039	0.000311	3.111864	0.527164	-0.000031
1346	1.3383e+02	6.6125	9.380081	0.000311	3.111864	0.527164	-0.000031
1347	1.3393e+02	6.6037	9.349123	0.000311	3.111864	0.527164	-0.000031
1348	1.3403e+02	6.5923	9.316535	0.000328	3.275646	0.554910	-0.000033
1349	1.3413e+02	6.5841	9.286392	0.000303	3.029973	0.513291	-0.000030
1350	1.3423e+02	6.5743	9.254619	0.000319	3.193755	0.541037	-0.000032
1351	1.3432e+02	6.5615	9.218773	0.000360	3.603211	0.610400	-0.000036
1352	1.3442e+02	6.5542	9.186186	0.000328	3.275646	0.554910	-0.000033
1353	1.3452e+02	6.5420	9.155635	0.000307	3.070918	0.520228	-0.000031
1354	1.3462e+02	6.5333	9.121418	0.000344	3.439429	0.582655	-0.000034
1355	1.3472e+02	6.5215	9.094126	0.000274	2.743354	0.464737	-0.000027
1356	1.3482e+02	6.5113	9.056243	0.000381	3.807939	0.645082	-0.000038
1357	1.3492e+02	6.5025	9.025285	0.000311	3.111864	0.527164	-0.000031
1358	1.3502e+02	6.4925	8.995957	0.000295	2.948082	0.499419	-0.000029
1359	1.3512e+02	6.4830	8.964184	0.000319	3.193755	0.541037	-0.000032
1360	1.3522e+02	6.4724	8.931596	0.000328	3.275646	0.554910	-0.000033
1361	1.3532e+02	6.4628	8.893714	0.000381	3.807939	0.645082	-0.000038
1362	1.3542e+02	6.4520	8.860312	0.000336	3.357538	0.568782	-0.000034
1363	1.3552e+02	6.4431	8.826502	0.000340	3.398483	0.575719	-0.000034
1364	1.3562e+02	6.4321	8.794729	0.000319	3.193755	0.541037	-0.000032
1365	1.3572e+02	6.4230	8.760920	0.000340	3.398483	0.575719	-0.000034
1366	1.3582e+02	6.4129	8.730777	0.000303	3.029973	0.513291	-0.000030
1367	1.3592e+02	6.4038	8.700226	0.000307	3.070918	0.520228	-0.000031
1368	1.3602e+02	6.3937	8.667638	0.000328	3.275646	0.554910	-0.000033
1369	1.3612e+02	6.3811	8.631385	0.000364	3.644157	0.617337	-0.000036
1370	1.3622e+02	6.3738	8.604500	0.000270	2.702408	0.457800	-0.000027
1371	1.3631e+02	6.3622	8.569876	0.000348	3.480374	0.589591	-0.000035
1372	1.3641e+02	6.3544	8.538918	0.000311	3.111864	0.527164	-0.000031
1373	1.3651e+02	6.3441	8.511219	0.000278	2.784299	0.471673	-0.000028
1374	1.3661e+02	6.3340	8.474558	0.000369	3.685102	0.624273	-0.000037
1375	1.3671e+02	6.3235	8.444822	0.000299	2.989027	0.506355	-0.000030
1376	1.3681e+02	6.3144	8.411827	0.000332	3.316592	0.561846	-0.000033
1377	1.3691e+02	6.3024	8.382906	0.000291	2.907136	0.492482	-0.000029
1378	1.3701e+02	6.2965	8.351133	0.000319	3.193755	0.541037	-0.000032
1379	1.3711e+02	6.2832	8.318546	0.000328	3.275646	0.554910	-0.000033
1380	1.3721e+02	6.2734	8.287588	0.000311	3.111864	0.527164	-0.000031
1381	1.3731e+02	6.2656	8.256630	0.000311	3.111864	0.527164	-0.000031
1382	1.3741e+02	6.2566	8.227301	0.000295	2.948082	0.499419	-0.000029
1383	1.3751e+02	6.2453	8.195121	0.000323	3.234701	0.547973	-0.000032
1384	1.3761e+02	6.2351	8.160904	0.000344	3.439429	0.582655	-0.000034
1385	1.3771e+02	6.2240	8.131576	0.000295	2.948082	0.499419	-0.000029
1386	1.3781e+02	6.2128	8.101025	0.000307	3.070918	0.520228	-0.000031
1387	1.3791e+02	6.2039	8.068438	0.000328	3.275646	0.554910	-0.000033
1388	1.3801e+02	6.1929	8.038702	0.000299	2.989027	0.506355	-0.000030
1389	1.3811e+02	6.1842	8.006114	0.000328	3.275646	0.554910	-0.000033
1390	1.3821e+02	6.1740	7.972305	0.000340	3.398483	0.575719	-0.000034
1391	1.3831e+02	6.1636	7.941754	0.000307	3.070918	0.520228	-0.000031
1392	1.3840e+02	6.1538	7.909167	0.000328	3.275646	0.554910	-0.000033
1393	1.3850e+02	6.1449	7.881467	0.000278	2.784299	0.471673	-0.000028
1394	1.3860e+02	6.1341	7.850509	0.000311	3.111864	0.527164	-0.000031
1395	1.3870e+02	6.1260	7.822403	0.000283	2.825245	0.478609	-0.000028
1396	1.3880e+02	6.1156	7.784927	0.000377	3.766993	0.638146	-0.000038
1397	1.3890e+02	6.1060	7.752747	0.000323	3.234701	0.547973	-0.000032
1398	1.3900e+02	6.0960	7.725048	0.000278	2.784299	0.471673	-0.000028
1399	1.3910e+02	6.0827	7.695312	0.000299	2.989027	0.506355	-0.000030
1400	1.3920e+02	6.0760	7.661095	0.000344	3.439429	0.582655	-0.000034
1401	1.3930e+02	6.0660	7.628100	0.000332	3.316592	0.561846	-0.000033
1402	1.3940e+02	6.0575	7.597142	0.000311	3.111864	0.527164	-0.000031
1403	1.3950e+02	6.0464	7.569850	0.000274	2.743354	0.464737	-0.000027
1404	1.3960e+02	6.0365	7.532782	0.000373	3.726048	0.631210	-0.000037
1405	1.3970e+02	6.0261	7.499787	0.000332	3.316592	0.561846	-0.000033
1406	1.3980e+02	6.0170	7.468422	0.000315	3.152810	0.534100	-0.000032
1407	1.3990e+02	6.0079	7.430946	0.000377	3.766993	0.638146	-0.000038
1408	1.4000e+02	5.9963	7.404877	0.000262	2.620517	0.443928	-0.000026
1409	1.4010e+02	5.9846	7.368216	0.000369	3.685102	0.624273	-0.000037
1410	1.4020e+02	5.9753	7.338480	0.000299	2.989027	0.506355	-0.000030
1411	1.4029e+02	5.9658	7.307114	0.000315	3.152810	0.534100	-0.000032
1412	1.4039e+02	5.9548	7.273712	0.000336	3.357538	0.568782	-0.000034
1413	1.4049e+02	5.9454	7.237459	0.000364	3.644157	0.617337	-0.000036
1414	1.4059e+02	5.9350	7.201205	0.000364	3.644157	0.617337	-0.000036
1415	1.4069e+02	5.9235	7.173506	0.000278	2.784299	0.471673	-0.000028
1416	1.4079e+02	5.9164	7.136845	0.000369	3.685102	0.624273	-0.000037
1417	1.4089e+02	5.9072	7.104258	0.000328	3.275646	0.554910	-0.000033
1418	1.4099e+02	5.8968	7.074114	0.000303	3.029973	0.513291	-0.000030
1419	1.4109e+02	5.8852	7.039490	0.000348	3.480374	0.589591	-0.000035
1420	1.4119e+02	5.8765	7.006088	0.000336	3.357538	0.568782	-0.000034
1421	1.4129e+02	5.8685	6.975945	0.000303	3.029973	0.513291	-0.000030
1422	1.4139e+02	5.8559	6.944579	0.000315	3.152810	0.534100	-0.000032
1423	1.4149e+02	5.8459	6.911585	0.000332	3.316592	0.561846	-0.000033
1424	1.4159e+02	5.8363	6.879405	0.000323	3.234701	0.547973	-0.000032
1425	1.4169e+02	5.8263	6.846003	0.000336	3.357538	0.568782	-0.000034
1426	1.4179e+02	5.8179	6.817081	0.000291	2.907136	0.492482	-0.000029
1427	1.4189e+02	5.8051	6.784494	0.000328	3.275646	0.554910	-0.000033
1428	1.4199e+02	5.7985	6.751499	0.000332	3.316592	0.561846	-0.000033
1429	1.4209e+02	5.7854	6.722170	0.000295	2.948082	0.499419	-0.000029
1430	1.4219e+02	5.7758	6.691620	0.000307	3.070918	0.520228	-0.000031
1431	1.4228e+02	5.7674	6.660662	0.000311	3.111864	0.527164	-0.000031
1432	1.4238e+02	5.7589	6.633777	0.000270	2.702408	0.457800	-0.000027
1433	1.4248e+02	5.7488	6.601597	0.000323	3.234701	0.547973	-0.000032
1434	1.4258e+02	5.7362	6.569824	0.000319	3.193755	0.541037	-0.000032
1435	1.4268e+02	5.7259	6.545791	0.000242	2.415789	0.409246	-0.000024
1436	1.4278e+02	5.7142	6.513611	0.000323	3.234701	0.547973	-0.000032
1437	1.4288e+02	5.7083	6.486726	0.000270	2.702408	0.457800	-0.000027
1438	1.4298e+02	5.6976	6.458212	0.000287	2.866191	0.485546	-0.000029
1439	1.4308e+02	5.6875	6.427254	0.000311	3.111864	0.527164	-0.000031
1440	1.4318e+02	5.6760	6.394667	0.000328	3.275646	0.554910	-0.000033
1441	1.4328e+02	5.6676	6.367782	0.000270	2.702408	0.457800	-0.000027
1442	1.4338e+02	5.6568	6.336824	0.000311	3.111864	0.527164	-0.000031
1443	1.4348e+02	5.6494	6.310754	0.000262	2.620517	0.443928	-0.000026
1444	1.4358e+02	5.6385	6.283870	0.000270	2.702408	0.457800	-0.000027
1445	1.4368e+02	5.6277	6.252097	0.000319	3.193755	0.541037	-0.000032
1446	1.4378e+02	5.6202	6.227249	0.000250	2.497680	0.423119	-0.000025
1447	1.4388e+02	5.6097	6.195477	0.000319	3.193755	0.541037	-0.000032
1448	1.4398e+02	5.5980	6.168999	0.000266	2.661463	0.450864	-0.000027
1449	1.4408e+02	5.5871	6.136819	0.000323	3.234701	0.547973	-0.000032
1450	1.4418e+02	5.5782	6.108305	0.000287	2.866191	0.485546	-0.000029
1451	1.4428e+02	5.5699	6.073274	0.000352	3.521320	0.596528	-0.000035
1452	1.4437e+02	5.5566	6.043945	0.000295	2.948082	0.499419	-0.000029
1453	1.4447e+02	5.5515	6.014616	0.000295	2.948082	0.499419	-0.000029
1454	1.4457e+02	5.5374	5.981214	0.000336	3.357538	0.568782	-0.000034
1455	1.4467e+02	5.5259	5.952700	0.000287	2.866191	0.485546	-0.000029
1456	1.4477e+02	5.5238	5.922150	0.000307	3.070918	0.520228	-0.000031
1457	1.4487e+02	5.5065	5.892006	0.000303	3.029973	0.513291	-0.000030
1458	1.4497e+02	5.4975	5.860641	0.000315	3.152810	0.534100	-0.000032
1459	1.4507e+02	5.4876	5.830498	0.000303	3.029973	0.513291	-0.000030
1460	1.4517e+02	5.4760	5.796688	0.000340	3.398483	0.575719	-0.000034
1461	1.4527e+02	5.4653	5.766137	0.000307	3.070918	0.520228	-0.000031
1462	1.4537e+02	5.4572	5.733143	0.000332	3.316592	0.561846	-0.000033
1463	1.4547e+02	5.4495	5.704221	0.000291	2.907136	0.492482	-0.000029
1464	1.4557e+02	5.4408	5.672449	0.000319	3.193755	0.541037	-0.000032
1465	1.4567e+02	5.4284	5.641491	0.000311	3.111864	0.527164	-0.000031
1466	1.4577e+02	5.4182	5.608089	0.000336	3.357538	0.568782	-0.000034
1467	1.4587e+02	5.4102	5.577538	0.000307	3.070918	0.520228	-0.000031
1468	1.4597e+02	5.3991	5.543321	0.000344	3.439429	0.582655	-0.000034
1469	1.4607e+02	5.3868	5.511548	0.000319	3.193755	0.541037	-0.000032
1470	1.4617e+02	5.3790	5.478961	0.000328	3.275646	0.554910	-0.000033
1471	1.4626e+02	5.3689	5.450447	0.000287	2.866191	0.485546	-0.000029
1472	1.4636e+02	5.3564	5.417045	0.000336	3.357538	0.568782	-0.000034
1473	1.4646e+02	5.3486	5.388124	0.000291	2.907136	0.492482	-0.000029
1474	1.4656e+02	5.3371	5.355129	0.000332	3.316592	0.561846	-0.000033
1475	1.4666e+02	5.3282	5.324986	0.000303	3.029973	0.513291	-0.000030
1476	1.4676e+02	5.3198	5.293213	0.000319	3.193755	0.541037	-0.000032
1477	1.4686e+02	5.3099	5.258181	0.000352	3.521320	0.596528	-0.000035
1478	1.4696e+02	5.2972	5.227223	0.000311	3.111864	0.527164	-0.000031
1479	1.4706e+02	5.2898	5.195451	0.000319	3.193755	0.541037	-0.000032
1480	1.4716e+02	5.2773	5.158790	0.000369	3.685102	0.624273	-0.000037
1481	1.4726e+02	5.2706	5.130276	0.000287	2.866191	0.485546	-0.000029
1482	1.4736e+02	5.2572	5.096466	0.000340	3.398483	0.575719	-0.000034
1483	1.4746e+02	5.2486	5.063472	0.000332	3.316592	0.561846	-0.000033
1484	1.4756e+02	5.2387	5.032514	0.000311	3.111864	0.527164	-0.000031
1485	1.4766e+02	5.2306	5.002370	0.000303	3.029973	0.513291	-0.000030
1486	1.4776e+02	5.2212	4.968153	0.000344	3.439429	0.582655	-0.000034
1487	1.4786e+02	5.2088	4.937603	0.000307	3.070918	0.520228	-0.000031
1488	1.4796e+02	5.1994	4.906645	0.000311	3.111864	0.527164	-0.000031
1489	1.4806e+02	5.1926	4.874465	0.000323	3.234701	0.547973	-0.000032
1490	1.4816e+02	5.1797	4.840655	0.000340	3.398483	0.575719	-0.000034
1491	1.4825e+02	5.1688	4.809290	0.000315	3.152810	0.534100	-0.000032
1492	1.4835e+02	5.1626	4.780369	0.000291	2.907136	0.492482	-0.000029
1493	1.4845e+02	5.1470	4.745744	0.000348	3.480374	0.589591	-0.000035
1494	1.4855e+02	5.1405	4.716008	0.000299	2.989027	0.506355	-0.000030
1495	1.4865e+02	5.1266	4.683828	0.000323	3.234701	0.547973	-0.000032
1496	1.4875e+02	5.1186	4.653685	0.000303	3.029973	0.513291	-0.000030
1497	1.4885e+02	5.1118	4.618246	0.000356	3.562265	0.603464	-0.000036
1498	1.4895e+02	5.0994	4.591769	0.000266	2.661463	0.450864	-0.000027
1499	1.4905e+02	5.0925	4.557552	0.000344	3.439429	0.582655	-0.000034
1500	1.4915e+02	5.0802	4.528631	0.000291	2.907136	0.492482	-0.000029
1501	1.4925e+02	5.0711	4.496858	0.000319	3.193755	0.541037	-0.000032
1502	1.4935e+02	5.0628	4.463049	0.000340	3.398483	0.575719	-0.000034
1503	1.4945e+02	5.0529	4.432498	0.000307	3.070918	0.520228	-0.000031
1504	1.4955e+02	5.0459	4.399096	0.000336	3.357538	0.568782	-0.000034
1505	1.4965e+02	5.0313	4.368138	0.000311	3.111864	0.527164	-0.000031
1506	1.4975e+02	5.0209	4.331884	0.000364	3.644157	0.617337	-0.000036
1507	1.4985e+02	5.0120	4.302148	0.000299	2.989027	0.506355	-0.000030
1508	1.4995e+02	4.9995	4.267117	0.000352	3.521320	0.596528	-0.000035
1509	1.5005e+02	4.9915	4.233307	0.000340	3.398483	0.575719	-0.000034
1510	1.5015e+02	4.9796	4.203979	0.000295	2.948082	0.499419	-0.000029
1511	1.5025e+02	4.9741	4.170169	0.000340	3.398483	0.575719	-0.000034
1512	1.5034e+02	4.9619	4.135953	0.000344	3.439429	0.582655	-0.000034
1513	1.5044e+02	4.9505	4.100106	0.000360	3.603211	0.610400	-0.000036
1514	1.5054e+02	4.9425	4.065075	0.000352	3.521320	0.596528	-0.000035
1515	1.5064e+02	4.9293	4.032895	0.000323	3.234701	0.547973	-0.000032
1516	1.5074e+02	4.9219	3.997456	0.000356	3.562265	0.603464	-0.000036
1517	1.5084e+02	4.9105	3.959166	0.000385	3.848885	0.652019	-0.000038
1518	1.5094e+02	4.8999	3.923320	0.000360	3.603211	0.610400	-0.000036
1519	1.5104e+02	4.8911	3.888696	0.000348	3.480374	0.589591	-0.000035
1520	1.5114e+02	4.8830	3.849998	0.000389	3.889830	0.658955	-0.000039
1521	1.5124e+02	4.8754	3.813337	0.000369	3.685102	0.624273	-0.000037
1522	1.5134e+02	4.8586	3.778713	0.000348	3.480374	0.589591	-0.000035
1523	1.5144e+02	4.8512	3.743274	0.000356	3.562265	0.603464	-0.000036
1524	1.5154e+02	4.8414	3.706614	0.000369	3.685102	0.624273	-0.000037
1525	1.5164e+02	4.8304	3.672397	0.000344	3.439429	0.582655	-0.000034
1526	1.5174e+02	4.8218	3.631663	0.000409	4.094558	0.693637	-0.000041
1527	1.5184e+02	4.8123	3.594594	0.000373	3.726048	0.631210	-0.000037
1528	1.5194e+02	4.8003	3.557934	0.000369	3.685102	0.624273	-0.000037
1529	1.5204e+02	4.7923	3.522902	0.000352	3.521320	0.596528	-0.000035
1530	1.5214e+02	4.7818	3.483390	0.000397	3.971721	0.672828	-0.000040
1531	1.5224e+02	4.7694	3.444285	0.000393	3.930776	0.665891	-0.000039
1532	1.5233e+02	4.7609	3.409661	0.000348	3.480374	0.589591	-0.000035
1533	1.5243e+02	4.7524	3.375037	0.000348	3.480374	0.589591	-0.000035
1534	1.5253e+02	4.7419	3.337561	0.000377	3.766993	0.638146	-0.000038
1535	1.5263e+02	4.7332	3.301715	0.000360	3.603211	0.610400	-0.000036
1536	1.5273e+02	4.7195	3.265869	0.000360	3.603211	0.610400	-0.000036
1537	1.5283e+02	4.7128	3.230837	0.000352	3.521320	0.596528	-0.000035
1538	1.5293e+02	4.7013	3.198250	0.000328	3.275646	0.554910	-0.000033
1539	1.5303e+02	4.6937	3.159960	0.000385	3.848885	0.652019	-0.000038
1540	1.5313e+02	4.6811	3.123706	0.000364	3.644157	0.617337	-0.000036
1541	1.5323e+02	4.6743	3.088675	0.000352	3.521320	0.596528	-0.000035
1542	1.5333e+02	4.6634	3.049977	0.000389	3.889830	0.658955	-0.000039
1543	1.5343e+02	4.6538	3.017390	0.000328	3.275646	0.554910	-0.000033
1544	1.5353e+02	4.6407	2.980322	0.000373	3.726048	0.631210	-0.000037
1545	1.5363e+02	4.6325	2.945698	0.000348	3.480374	0.589591	-0.000035
1546	1.5373e+02	4.6251	2.912703	0.000332	3.316592	0.561846	-0.000033
1547	1.5383e+02	4.6152	2.877671	0.000352	3.521320	0.596528	-0.000035
1548	1.5393e+02	4.6026	2.843455	0.000344	3.439429	0.582655	-0.000034
1549	1.5403e+02	4.5934	2.806387	0.000373	3.726048	0.631210	-0.000037
1550	1.5413e+02	4.5815	2.773799	0.000328	3.275646	0.554910	-0.000033
1551	1.5422e+02	4.5728	2.735916	0.000381	3.807939	0.645082	-0.000038
1552	1.5432e+02	4.5610	2.702514	0.000336	3.357538	0.568782	-0.000034
1553	1.5442e+02	4.5515	2.667075	0.000356	3.562265	0.603464	-0.000036
1554	1.5452e+02	4.5422	2.628785	0.000385	3.848885	0.652019	-0.000038
1555	1.5462e+02	4.5335	2.594161	0.000348	3.480374	0.589591	-0.000035
1556	1.5472e+02	4.5211	2.556686	0.000377	3.766993	0.638146	-0.000038
1557	1.5482e+02	4.5161	2.522469	0.000344	3.439429	0.582655	-0.000034
1558	1.5492e+02	4.5039	2.487845	0.000348	3.480374	0.589591	-0.000035
1559	1.5502e+02	4.4929	2.452813	0.000352	3.521320	0.596528	-0.000035
1560	1.5512e+02	4.4820	2.416967	0.000360	3.603211	0.610400	-0.000036
1561	1.5522e+02	4.4744	2.386009	0.000311	3.111864	0.527164	-0.000031
1562	1.5532e+02	4.4627	2.349756	0.000364	3.644157	0.617337	-0.000036
1563	1.5542e+02	4.4532	2.312687	0.000373	3.726048	0.631210	-0.000037
1564	1.5552e+02	4.4439	2.274397	0.000385	3.848885	0.652019	-0.000038
1565	1.5562e+02	4.4355	2.242217	0.000323	3.234701	0.547973	-0.000032
1566	1.5572e+02	4.4231	2.206778	0.000356	3.562265	0.603464	-0.000036
1567	1.5582e+02	4.4131	2.170932	0.000360	3.603211	0.610400	-0.000036
1568	1.5592e+02	4.4045	2.136308	0.000348	3.480374	0.589591	-0.000035
1569	1.5602e+02	4.3890	2.099647	0.000369	3.685102	0.624273	-0.000037
1570	1.5612e+02	4.3838	2.060950	0.000389	3.889830	0.658955	-0.000039
1571	1.5622e+02	4.3745	2.027140	0.000340	3.398483	0.575719	-0.000034
1572	1.5631e+02	4.3635	1.992516	0.000348	3.480374	0.589591	-0.000035
1573	1.5641e+02	4.3528	1.951782	0.000409	4.094558	0.693637	-0.000041
1574	1.5651e+02	4.3436	1.921231	0.000307	3.070918	0.520228	-0.000031
1575	1.5661e+02	4.3345	1.879275	0.000422	4.217395	0.714446	-0.000042
1576	1.5671e+02	4.3224	1.842207	0.000373	3.726048	0.631210	-0.000037
1577	1.5681e+02	4.3140	1.808805	0.000336	3.357538	0.568782	-0.000034
1578	1.5691e+02	4.3047	1.771736	0.000373	3.726048	0.631210	-0.000037
1579	1.5701e+02	4.2955	1.735483	0.000364	3.644157	0.617337	-0.000036
1580	1.5711e+02	4.2832	1.695563	0.000401	4.012667	0.679764	-0.000040
1581	1.5721e+02	4.2733	1.661347	0.000344	3.439429	0.582655	-0.000034
1582	1.5731e+02	4.2641	1.621020	0.000405	4.053612	0.686701	-0.000041
1583	1.5741e+02	4.2554	1.585988	0.000352	3.521320	0.596528	-0.000035
1584	1.5751e+02	4.2472	1.548105	0.000381	3.807939	0.645082	-0.000038
1585	1.5761e+02	4.2341	1.510630	0.000377	3.766993	0.638146	-0.000038
1586	1.5771e+02	4.2244	1.470710	0.000401	4.012667	0.679764	-0.000040
1587	1.5781e+02	4.2156	1.435679	0.000352	3.521320	0.596528	-0.000035
1588	1.5791e+02	4.2057	1.401462	0.000344	3.439429	0.582655	-0.000034
1589	1.5801e+02	4.1964	1.361950	0.000397	3.971721	0.672828	-0.000040
1590	1.5811e+02	4.1862	1.327733	0.000344	3.439429	0.582655	-0.000034
1591	1.5821e+02	4.1753	1.293109	0.000348	3.480374	0.589591	-0.000035
1592	1.5830e+02	4.1661	1.260522	0.000328	3.275646	0.554910	-0.000033
1593	1.5840e+02	4.1568	1.225897	0.000348	3.480374	0.589591	-0.000035
1594	1.5850e+02	4.1445	1.189644	0.000364	3.644157	0.617337	-0.000036
1595	1.5860e+02	4.1337	1.152168	0.000377	3.766993	0.638146	-0.000038
1596	1.5870e+02	4.1239	1.117952	0.000344	3.439429	0.582655	-0.000034
1597	1.5880e+02	4.1174	1.082513	0.000356	3.562265	0.603464	-0.000036
1598	1.5890e+02	4.1055	1.045852	0.000369	3.685102	0.624273	-0.000037
1599	1.5900e+02	4.0963	1.011635	0.000344	3.439429	0.582655	-0.000034
1600	1.5910e+02	4.0866	0.982714	0.000291	2.907136	0.492482	-0.000029
1601	1.5920e+02	4.0762	0.944831	0.000381	3.807939	0.645082	-0.000038
1602	1.5930e+02	4.0668	0.915095	0.000299	2.989027	0.506355	-0.000030
1603	1.5940e+02	4.0565	0.880064	0.000352	3.521320	0.596528	-0.000035
1604	1.5950e+02	4.0456	0.848698	0.000315	3.152810	0.534100	-0.000032
1605	1.5960e+02	4.0337	0.813259	0.000356	3.562265	0.603464	-0.000036
1606	1.5970e+02	4.0258	0.779857	0.000336	3.357538	0.568782	-0.000034
1607	1.5980e+02	4.0174	0.741974	0.000381	3.807939	0.645082	-0.000038
1608	1.5990e+02	4.0047	0.710202	0.000319	3.193755	0.541037	-0.000032
1609	1.6000e+02	3.9931	0.675578	0.000348	3.480374	0.589591	-0.000035
1610	1.6010e+02	3.9860	0.643398	0.000323	3.234701	0.547973	-0.000032
1611	1.6019e+02	3.9772	0.610403	0.000332	3.316592	0.561846	-0.000033
1612	1.6029e+02	3.9655	0.581074	0.000295	2.948082	0.499419	-0.000029
1613	1.6039e+02	3.9541	0.548079	0.000332	3.316592	0.561846	-0.000033
1614	1.6049e+02	3.9467	0.514270	0.000340	3.398483	0.575719	-0.000034
1615	1.6059e+02	3.9375	0.480868	0.000336	3.357538	0.568782	-0.000034
1616	1.6069e+02	3.9243	0.447058	0.000340	3.398483	0.575719	-0.000034
1617	1.6079e+02	3.9160	0.409990	0.000373	3.726048	0.631210	-0.000037
1618	1.6089e+02	3.9040	0.376181	0.000340	3.398483	0.575719	-0.000034
1619	1.6099e+02	3.8961	0.343186	0.000332	3.316592	0.561846	-0.000033
1620	1.6109e+02	3.8850	0.308969	0.000344	3.439429	0.582655	-0.000034
1621	1.6119e+02	3.8760	0.270272	0.000389	3.889830	0.658955	-0.000039
1622	1.6129e+02	3.8631	0.236462	0.000340	3.398483	0.575719	-0.000034
1623	1.6139e+02	3.8570	0.201431	0.000352	3.521320	0.596528	-0.000035
1624	1.6149e+02	3.8471	0.167621	0.000340	3.398483	0.575719	-0.000034
1625	1.6159e+02	3.8381	0.132997	0.000348	3.480374	0.589591	-0.000035
1626	1.6169e+02	3.8287	0.095114	0.000381	3.807939	0.645082	-0.000038
1627	1.6179e+02	3.8147	0.062934	0.000323	3.234701	0.547973	-0.000032
1628	1.6189e+02	3.8078	0.029532	0.000336	3.357538	0.568782	-0.000034
1629	1.6199e+02	3.7965	-0.005092	0.000348	3.480374	0.589591	-0.000035
1630	1.6209e+02	3.7856	-0.045011	0.000401	4.012667	0.679764	-0.000040
1631	1.6219e+02	3.7789	-0.079635	0.000348	3.480374	0.589591	-0.000035
1632	1.6228e+02	3.7643	-0.113445	0.000340	3.398483	0.575719	-0.000034
1633	1.6238e+02	3.7562	-0.152142	0.000389	3.889830	0.658955	-0.000039
1634	1.6248e+02	3.7495	-0.188803	0.000369	3.685102	0.624273	-0.000037
1635	1.6258e+02	3.7360	-0.223427	0.000348	3.480374	0.589591	-0.000035
1636	1.6268e+02	3.7266	-0.255607	0.000323	3.234701	0.547973	-0.000032
1637	1.6278e+02	3.7164	-0.294305	0.000389	3.889830	0.658955	-0.000039
1638	1.6288e+02	3.7051	-0.328522	0.000344	3.439429	0.582655	-0.000034
1639	1.6298e+02	3.6968	-0.367627	0.000393	3.930776	0.665891	-0.000039
1640	1.6308e+02	3.6889	-0.398992	0.000315	3.152810	0.534100	-0.000032
1641	1.6318e+02	3.6770	-0.434023	0.000352	3.521320	0.596528	-0.000035
1642	1.6328e+02	3.6675	-0.474758	0.000409	4.094558	0.693637	-0.000041
1643	1.6338e+02	3.6590	-0.510604	0.000360	3.603211	0.610400	-0.000036
1644	1.6348e+02	3.6494	-0.545228	0.000348	3.480374	0.589591	-0.000035
1645	1.6358e+02	3.6383	-0.581481	0.000364	3.644157	0.617337	-0.000036
1646	1.6368e+02	3.6294	-0.620179	0.000389	3.889830	0.658955	-0.000039
1647	1.6378e+02	3.6172	-0.658877	0.000389	3.889830	0.658955	-0.000039
1648	1.6388e+02	3.6068	-0.695945	0.000373	3.726048	0.631210	-0.000037
1649	1.6398e+02	3.5984	-0.732198	0.000364	3.644157	0.617337	-0.000036
1650	1.6408e+02	3.5870	-0.767637	0.000356	3.562265	0.603464	-0.000036
1651	1.6418e+02	3.5790	-0.805113	0.000377	3.766993	0.638146	-0.000038
1652	1.6427e+02	3.5657	-0.843403	0.000385	3.848885	0.652019	-0.000038
1653	1.6437e+02	3.5578	-0.877620	0.000344	3.439429	0.582655	-0.000034
1654	1.6447e+02	3.5480	-0.913058	0.000356	3.562265	0.603464	-0.000036
1655	1.6457e+02	3.5406	-0.951349	0.000385	3.848885	0.652019	-0.000038
1656	1.6467e+02	3.5268	-0.986380	0.000352	3.521320	0.596528	-0.000035
1657	1.6477e+02	3.5186	-1.020597	0.000344	3.439429	0.582655	-0.000034
1658	1.6487e+02	3.5094	-1.058480	0.000381	3.807939	0.645082	-0.000038
1659	1.6497e+02	3.4966	-1.094733	0.000364	3.644157	0.617337	-0.000036
1660	1.6507e+02	3.4863	-1.126913	0.000323	3.234701	0.547973	-0.000032
1661	1.6517e+02	3.4786	-1.163167	0.000364	3.644157	0.617337	-0.000036
1662	1.6527e+02	3.4677	-1.200642	0.000377	3.766993	0.638146	-0.000038
1663	1.6537e+02	3.4571	-1.234859	0.000344	3.439429	0.582655	-0.000034
1664	1.6547e+02	3.4489	-1.273149	0.000385	3.848885	0.652019	-0.000038
1665	1.6557e+02	3.4411	-1.308181	0.000352	3.521320	0.596528	-0.000035
1666	1.6567e+02	3.4283	-1.341583	0.000336	3.357538	0.568782	-0.000034
1667	1.6577e+02	3.4177	-1.377429	0.000360	3.603211	0.610400	-0.000036
1668	1.6587e+02	3.4080	-1.412868	0.000356	3.562265	0.603464	-0.000036
1669	1.6597e+02	3.3971	-1.449121	0.000364	3.644157	0.617337	-0.000036
1670	1.6607e+02	3.3871	-1.487411	0.000385	3.848885	0.652019	-0.000038
1671	1.6616e+02	3.3793	-1.523665	0.000364	3.644157	0.617337	-0.000036
1672	1.6626e+02	3.3703	-1.559511	0.000360	3.603211	0.610400	-0.000036
1673	1.6636e+02	3.3588	-1.597801	0.000385	3.848885	0.652019	-0.000038
1674	1.6646e+02	3.3528	-1.630796	0.000332	3.316592	0.561846	-0.000033
1675	1.6656e+02	3.3401	-1.672345	0.000418	4.176449	0.707510	-0.000042
1676	1.6666e+02	3.3275	-1.706969	0.000348	3.480374	0.589591	-0.000035
1677	1.6676e+02	3.3190	-1.746889	0.000401	4.012667	0.679764	-0.000040
1678	1.6686e+02	3.3085	-1.784364	0.000377	3.766993	0.638146	-0.000038
1679	1.6696e+02	3.2990	-1.821432	0.000373	3.726048	0.631210	-0.000037
1680	1.6706e+02	3.2915	-1.862574	0.000414	4.135504	0.700573	-0.000041
1681	1.6716e+02	3.2788	-1.900864	0.000385	3.848885	0.652019	-0.000038
1682	1.6726e+02	3.2688	-1.942820	0.000422	4.217395	0.714446	-0.000042
1683	1.6736e+02	3.2604	-1.979481	0.000369	3.685102	0.624273	-0.000037
1684	1.6746e+02	3.2473	-2.016957	0.000377	3.766993	0.638146	-0.000038
1685	1.6756e+02	3.2378	-2.058913	0.000422	4.217395	0.714446	-0.000042
1686	1.6766e+02	3.2323	-2.103313	0.000446	4.463068	0.756064	-0.000045
1687	1.6776e+02	3.2195	-2.143640	0.000405	4.053612	0.686701	-0.000041
1688	1.6786e+02	3.2095	-2.182745	0.000393	3.930776	0.665891	-0.000039
1689	1.6796e+02	3.1982	-2.222257	0.000397	3.971721	0.672828	-0.000040
1690	1.6806e+02	3.1871	-2.267065	0.000450	4.504014	0.763001	-0.000045
1691	1.6816e+02	3.1800	-2.306170	0.000393	3.930776	0.665891	-0.000039
1692	1.6825e+02	3.1689	-2.346904	0.000409	4.094558	0.693637	-0.000041
1693	1.6835e+02	3.1612	-2.388860	0.000422	4.217395	0.714446	-0.000042
1694	1.6845e+02	3.1486	-2.428373	0.000397	3.971721	0.672828	-0.000040
1695	1.6855e+02	3.1414	-2.468292	0.000401	4.012667	0.679764	-0.000040
1696	1.6865e+02	3.1304	-2.510248	0.000422	4.217395	0.714446	-0.000042
1697	1.6875e+02	3.1191	-2.553834	0.000438	4.381177	0.742191	-0.000044
1698	1.6885e+02	3.1107	-2.594161	0.000405	4.053612	0.686701	-0.000041
1699	1.6895e+02	3.1005	-2.637747	0.000438	4.381177	0.742191	-0.000044
1700	1.6905e+02	3.0897	-2.677666	0.000401	4.012667	0.679764	-0.000040
1701	1.6915e+02	3.0796	-2.719215	0.000418	4.176449	0.707510	-0.000042
1702	1.6925e+02	3.0691	-2.757505	0.000385	3.848885	0.652019	-0.000038
1703	1.6935e+02	3.0558	-2.800276	0.000430	4.299286	0.728319	-0.000043
1704	1.6945e+02	3.0544	-2.841825	0.000418	4.176449	0.707510	-0.000042
1705	1.6955e+02	3.0412	-2.879301	0.000377	3.766993	0.638146	-0.000038
1706	1.6965e+02	3.0292	-2.916369	0.000373	3.726048	0.631210	-0.000037
1707	1.6975e+02	3.0209	-2.959955	0.000438	4.381177	0.742191	-0.000044
1708	1.6985e+02	3.0094	-2.999467	0.000397	3.971721	0.672828	-0.000040
1709	1.6995e+02	3.0019	-3.042238	0.000430	4.299286	0.728319	-0.000043
1710	1.7005e+02	2.9897	-3.082565	0.000405	4.053612	0.686701	-0.000041
1711	1.7015e+02	2.9821	-3.123299	0.000409	4.094558	0.693637	-0.000041
1712	1.7024e+02	2.9684	-3.163219	0.000401	4.012667	0.679764	-0.000040
1713	1.7034e+02	2.9613	-3.199879	0.000369	3.685102	0.624273	-0.000037
1714	1.7044e+02	2.9530	-3.239392	0.000397	3.971721	0.672828	-0.000040
1715	1.7054e+02	2.9406	-3.281755	0.000426	4.258340	0.721382	-0.000043
1716	1.7064e+02	2.9358	-3.320860	0.000393	3.930776	0.665891	-0.000039
1717	1.7074e+02	2.9224	-3.360372	0.000397	3.971721	0.672828	-0.000040
1718	1.7084e+02	2.9096	-3.399477	0.000393	3.930776	0.665891	-0.000039
1719	1.7094e+02	2.8999	-3.438175	0.000389	3.889830	0.658955	-0.000039
1720	1.7104e+02	2.8903	-3.477280	0.000393	3.930776	0.665891	-0.000039
1721	1.7114e+02	2.8802	-3.520865	0.000438	4.381177	0.742191	-0.000044
1722	1.7124e+02	2.8732	-3.557934	0.000373	3.726048	0.631210	-0.000037
1723	1.7134e+02	2.8597	-3.599075	0.000414	4.135504	0.700573	-0.000041
1724	1.7144e+02	2.8521	-3.640217	0.000414	4.135504	0.700573	-0.000041
1725	1.7154e+02	2.8399	-3.681358	0.000414	4.135504	0.700573	-0.000041
1726	1.7164e+02	2.8313	-3.718019	0.000369	3.685102	0.624273	-0.000037
1727	1.7174e+02	2.8215	-3.757939	0.000401	4.012667	0.679764	-0.000040
1728	1.7184e+02	2.8107	-3.803154	0.000454	4.544959	0.769937	-0.000045
1729	1.7194e+02	2.8002	-3.842666	0.000397	3.971721	0.672828	-0.000040
1730	1.7204e+02	2.7908	-3.879327	0.000369	3.685102	0.624273	-0.000037
1731	1.7213e+02	2.7854	-3.918839	0.000397	3.971721	0.672828	-0.000040
1732	1.7223e+02	2.7712	-3.959573	0.000409	4.094558	0.693637	-0.000041
1733	1.7233e+02	2.7637	-3.999085	0.000397	3.971721	0.672828	-0.000040
1734	1.7243e+02	2.7551	-4.039005	0.000401	4.012667	0.679764	-0.000040
1735	1.7253e+02	2.7406	-4.082591	0.000438	4.381177	0.742191	-0.000044
1736	1.7263e+02	2.7317	-4.118437	0.000360	3.603211	0.610400	-0.000036
1737	1.7273e+02	2.7177	-4.160393	0.000422	4.217395	0.714446	-0.000042
1738	1.7283e+02	2.7108	-4.204386	0.000442	4.422123	0.749128	-0.000044
1739	1.7293e+02	2.7047	-4.244306	0.000401	4.012667	0.679764	-0.000040
1740	1.7303e+02	2.6937	-4.283003	0.000389	3.889830	0.658955	-0.000039
1741	1.7313e+02	2.6812	-4.324960	0.000422	4.217395	0.714446	-0.000042
1742	1.7323e+02	2.6720	-4.366916	0.000422	4.217395	0.714446	-0.000042
1743	1.7333e+02	2.6624	-4.410909	0.000442	4.422123	0.749128	-0.000044
1744	1.7343e+02	2.6536	-4.449606	0.000389	3.889830	0.658955	-0.000039
1745	1.7353e+02	2.6422	-4.493192	0.000438	4.381177	0.742191	-0.000044
1746	1.7363e+02	2.6320	-4.530668	0.000377	3.766993	0.638146	-0.000038
1747	1.7373e+02	2.6215	-4.571402	0.000409	4.094558	0.693637	-0.000041
1748	1.7383e+02	2.6137	-4.618246	0.000471	4.708742	0.797682	-0.000047
1749	1.7393e+02	2.6037	-4.658980	0.000409	4.094558	0.693637	-0.000041
1750	1.7403e+02	2.5941	-4.699715	0.000409	4.094558	0.693637	-0.000041
1751	1.7413e+02	2.5831	-4.742078	0.000426	4.258340	0.721382	-0.000043
1752	1.7422e+02	2.5729	-4.784442	0.000426	4.258340	0.721382	-0.000043
1753	1.7432e+02	2.5600	-4.829657	0.000454	4.544959	0.769937	-0.000045
1754	1.7442e+02	2.5509	-4.866725	0.000373	3.726048	0.631210	-0.000037
1755	1.7452e+02	2.5455	-4.913162	0.000467	4.667796	0.790746	-0.000047
1756	1.7462e+02	2.5325	-4.955118	0.000422	4.217395	0.714446	-0.000042
1757	1.7472e+02	2.5211	-4.989743	0.000348	3.480374	0.589591	-0.000035
1758	1.7482e+02	2.5106	-5.028847	0.000393	3.930776	0.665891	-0.000039
1759	1.7492e+02	2.5042	-5.069174	0.000405	4.053612	0.686701	-0.000041
1760	1.7502e+02	2.4934	-5.112760	0.000438	4.381177	0.742191	-0.000044
1761	1.7512e+02	2.4828	-5.149421	0.000369	3.685102	0.624273	-0.000037
1762	1.7522e+02	2.4750	-5.190562	0.000414	4.135504	0.700573	-0.000041
1763	1.7532e+02	2.4610	-5.234555	0.000442	4.422123	0.749128	-0.000044
1764	1.7542e+02	2.4521	-5.273660	0.000393	3.930776	0.665891	-0.000039
1765	1.7552e+02	2.4445	-5.311951	0.000385	3.848885	0.652019	-0.000038
1766	1.7562e+02	2.4345	-5.350648	0.000389	3.889830	0.658955	-0.000039
1767	1.7572e+02	2.4224	-5.390975	0.000405	4.053612	0.686701	-0.000041
1768	1.7582e+02	2.4142	-5.429265	0.000385	3.848885	0.652019	-0.000038
1769	1.7592e+02	2.4032	-5.466741	0.000377	3.766993	0.638146	-0.000038
1770	1.7602e+02	2.3930	-5.504216	0.000377	3.766993	0.638146	-0.000038
1771	1.7612e+02	2.3840	-5.543321	0.000393	3.930776	0.665891	-0.000039
1772	1.7621e+02	2.3743	-5.585277	0.000422	4.217395	0.714446	-0.000042
1773	1.7631e+02	2.3646	-5.621531	0.000364	3.644157	0.617337	-0.000036
1774	1.7641e+02	2.3574	-5.657377	0.000360	3.603211	0.610400	-0.000036
1775	1.7651e+02	2.3415	-5.696075	0.000389	3.889830	0.658955	-0.000039
1776	1.7661e+02	2.3324	-5.736809	0.000409	4.094558	0.693637	-0.000041
1777	1.7671e+02	2.3211	-5.774692	0.000381	3.807939	0.645082	-0.000038
1778	1.7681e+02	2.3129	-5.812982	0.000385	3.848885	0.652019	-0.000038
1779	1.7691e+02	2.3055	-5.854123	0.000414	4.135504	0.700573	-0.000041
1780	1.7701e+02	2.2958	-5.889970	0.000360	3.603211	0.610400	-0.000036
1781	1.7711e+02	2.2848	-5.926630	0.000369	3.685102	0.624273	-0.000037
1782	1.7721e+02	2.2710	-5.966143	0.000397	3.971721	0.672828	-0.000040
1783	1.7731e+02	2.2647	-6.004026	0.000381	3.807939	0.645082	-0.000038
1784	1.7741e+02	2.2519	-6.039464	0.000356	3.562265	0.603464	-0.000036
1785	1.7751e+02	2.2434	-6.080606	0.000414	4.135504	0.700573	-0.000041
1786	1.7761e+02	2.2333	-6.120933	0.000405	4.053612	0.686701	-0.000041
1787	1.7771e+02	2.2270	-6.163704	0.000430	4.299286	0.728319	-0.000043
1788	1.7781e+02	2.2149	-6.200772	0.000373	3.726048	0.631210	-0.000037
1789	1.7791e+02	2.2043	-6.242321	0.000418	4.176449	0.707510	-0.000042
1790	1.7801e+02	2.1937	-6.278982	0.000369	3.685102	0.624273	-0.000037
1791	1.7810e+02	2.1866	-6.320531	0.000418	4.176449	0.707510	-0.000042
1792	1.7820e+02	2.1738	-6.361265	0.000409	4.094558	0.693637	-0.000041
1793	1.7830e+02	2.1635	-6.401185	0.000401	4.012667	0.679764	-0.000040
1794	1.7840e+02	2.1537	-6.440289	0.000393	3.930776	0.665891	-0.000039
1795	1.7850e+02	2.1452	-6.482653	0.000426	4.258340	0.721382	-0.000043
1796	1.7860e+02	2.1335	-6.518499	0.000360	3.603211	0.610400	-0.000036
1797	1.7870e+02	2.1249	-6.562085	0.000438	4.381177	0.742191	-0.000044
1798	1.7880e+02	2.1158	-6.601190	0.000393	3.930776	0.665891	-0.000039
1799	1.7890e+02	2.1032	-6.643961	0.000430	4.299286	0.728319	-0.000043
1800	1.7900e+02	2.0950	-6.686324	0.000426	4.258340	0.721382	-0.000043
1801	1.7910e+02	2.0861	-6.723392	0.000373	3.726048	0.631210	-0.000037
1802	1.7920e+02	2.0753	-6.770237	0.000471	4.708742	0.797682	-0.000047
1803	1.7930e+02	2.0645	-6.808527	0.000385	3.848885	0.652019	-0.000038
1804	1.7940e+02	2.0571	-6.850076	0.000418	4.176449	0.707510	-0.000042
1805	1.7950e+02	2.0447	-6.888774	0.000389	3.889830	0.658955	-0.000039
1806	1.7960e+02	2.0350	-6.933581	0.000450	4.504014	0.763001	-0.000045
1807	1.7970e+02	2.0239	-6.974315	0.000409	4.094558	0.693637	-0.000041
1808	1.7980e+02	2.0156	-7.014235	0.000401	4.012667	0.679764	-0.000040
1809	1.7990e+02	2.0071	-7.057006	0.000430	4.299286	0.728319	-0.000043
1810	1.8000e+02	1.9964	-7.099777	0.000430	4.299286	0.728319	-0.000043
1811	1.8009e+02	1.9851	-7.137660	0.000381	3.807939	0.645082	-0.000038
1812	1.8019e+02	1.9767	-7.181653	0.000442	4.422123	0.749128	-0.000044
1813	1.8029e+02	1.9653	-7.224016	0.000426	4.258340	0.721382	-0.000043
1814	1.8039e+02	1.9558	-7.263529	0.000397	3.971721	0.672828	-0.000040
1815	1.8049e+02	1.9439	-7.305485	0.000422	4.217395	0.714446	-0.000042
1816	1.8059e+02	1.9360	-7.351107	0.000459	4.585905	0.776873	-0.000046
1817	1.8069e+02	1.9256	-7.388990	0.000381	3.807939	0.645082	-0.000038
1818	1.8079e+02	1.9186	-7.433798	0.000450	4.504014	0.763001	-0.000045
1819	1.8089e+02	1.9054	-7.473310	0.000397	3.971721	0.672828	-0.000040
1820	1.8099e+02	1.8980	-7.516081	0.000430	4.299286	0.728319	-0.000043
1821	1.8109e+02	1.8855	-7.557630	0.000418	4.176449	0.707510	-0.000042
1822	1.8119e+02	1.8772	-7.602030	0.000446	4.463068	0.756064	-0.000045
1823	1.8129e+02	1.8678	-7.641135	0.000393	3.930776	0.665891	-0.000039
1824	1.8139e+02	1.8564	-7.680647	0.000397	3.971721	0.672828	-0.000040
1825	1.8149e+02	1.8465	-7.724233	0.000438	4.381177	0.742191	-0.000044
1826	1.8159e+02	1.8375	-7.760079	0.000360	3.603211	0.610400	-0.000036
1827	1.8169e+02	1.8256	-7.802443	0.000426	4.258340	0.721382	-0.000043
1828	1.8179e+02	1.8150	-7.844807	0.000426	4.258340	0.721382	-0.000043
1829	1.8189e+02	1.8054	-7.883911	0.000393	3.930776	0.665891	-0.000039
1830	1.8199e+02	1.7947	-7.927904	0.000442	4.422123	0.749128	-0.000044
1831	1.8209e+02	1.7863	-7.967824	0.000401	4.012667	0.679764	-0.000040
1832	1.8218e+02	1.7801	-8.008558	0.000409	4.094558	0.693637	-0.000041
1833	1.8228e+02	1.7689	-8.050515	0.000422	4.217395	0.714446	-0.000042
1834	1.8238e+02	1.7577	-8.092878	0.000426	4.258340	0.721382	-0.000043
1835	1.8248e+02	1.7464	-8.131983	0.000393	3.930776	0.665891	-0.000039
1836	1.8258e+02	1.7384	-8.173532	0.000418	4.176449	0.707510	-0.000042
1837	1.8268e+02	1.7265	-8.213859	0.000405	4.053612	0.686701	-0.000041
1838	1.8278e+02	1.7169	-8.257037	0.000434	4.340231	0.735255	-0.000043
1839	1.8288e+02	1.7073	-8.298179	0.000414	4.135504	0.700573	-0.000041
1840	1.8298e+02	1.6964	-8.342172	0.000442	4.422123	0.749128	-0.000044
1841	1.8308e+02	1.6879	-8.382499	0.000405	4.053612	0.686701	-0.000041
1842	1.8318e+02	1.6799	-8.428528	0.000463	4.626851	0.783810	-0.000046
1843	1.8328e+02	1.6713	-8.472114	0.000438	4.381177	0.742191	-0.000044
1844	1.8338e+02	1.6578	-8.511219	0.000393	3.930776	0.665891	-0.000039
1845	1.8348e+02	1.6486	-8.555619	0.000446	4.463068	0.756064	-0.000045
1846	1.8358e+02	1.6365	-8.600834	0.000454	4.544959	0.769937	-0.000045
1847	1.8368e+02	1.6251	-8.644827	0.000442	4.422123	0.749128	-0.000044
1848	1.8378e+02	1.6164	-8.689228	0.000446	4.463068	0.756064	-0.000045
1849	1.8388e+02	1.6055	-8.729555	0.000405	4.053612	0.686701	-0.000041
1850	1.8398e+02	1.5977	-8.779250	0.000500	4.995361	0.846237	-0.000050
1851	1.8407e+02	1.5849	-8.823651	0.000446	4.463068	0.756064	-0.000045
1852	1.8417e+02	1.5755	-8.867236	0.000438	4.381177	0.742191	-0.000044
1853	1.8427e+02	1.5685	-8.916117	0.000491	4.913470	0.832364	-0.000049
1854	1.8437e+02	1.5574	-8.960518	0.000446	4.463068	0.756064	-0.000045
1855	1.8447e+02	1.5468	-9.011843	0.000516	5.159143	0.873982	-0.000052
1856	1.8457e+02	1.5378	-9.053392	0.000418	4.176449	0.707510	-0.000042
1857	1.8467e+02	1.5252	-9.101866	0.000487	4.872524	0.825428	-0.000049
1858	1.8477e+02	1.5186	-9.146266	0.000446	4.463068	0.756064	-0.000045
1859	1.8487e+02	1.5062	-9.189852	0.000438	4.381177	0.742191	-0.000044
1860	1.8497e+02	1.4989	-9.241584	0.000520	5.200089	0.880919	-0.000052
1861	1.8507e+02	1.4864	-9.281096	0.000397	3.971721	0.672828	-0.000040
1862	1.8517e+02	1.4777	-9.334051	0.000532	5.322925	0.901728	-0.000053
1863	1.8527e+02	1.4659	-9.379673	0.000459	4.585905	0.776873	-0.000046
1864	1.8537e+02	1.4589	-9.423666	0.000442	4.422123	0.749128	-0.000044
1865	1.8547e+02	1.4475	-9.472955	0.000495	4.954415	0.839301	-0.000050
1866	1.8557e+02	1.4375	-9.519392	0.000467	4.667796	0.790746	-0.000047
1867	1.8567e+02	1.4267	-9.569088	0.000500	4.995361	0.846237	-0.000050
1868	1.8577e+02	1.4161	-9.615117	0.000463	4.626851	0.783810	-0.000046
1869	1.8587e+02	1.4091	-9.663998	0.000491	4.913470	0.832364	-0.000049
1870	1.8597e+02	1.3995	-9.706362	0.000426	4.258340	0.721382	-0.000043
1871	1.8606e+02	1.3876	-9.752392	0.000463	4.626851	0.783810	-0.000046
1872	1.8616e+02	1.3779	-9.800458	0.000483	4.831578	0.818492	-0.000048
1873	1.8626e+02	1.3684	-9.846080	0.000459	4.585905	0.776873	-0.000046
1874	1.8636e+02	1.3559	-9.889666	0.000438	4.381177	0.742191	-0.000044
1875	1.8646e+02	1.3494	-9.935289	0.000459	4.585905	0.776873	-0.000046
1876	1.8656e+02	1.3371	-9.979281	0.000442	4.422123	0.749128	-0.000044
1877	1.8666e+02	1.3300	-10.029385	0.000504	5.036306	0.853173	-0.000050
1878	1.8676e+02	1.3167	-10.073785	0.000446	4.463068	0.756064	-0.000045
1879	1.8686e+02	1.3091	-10.121851	0.000483	4.831578	0.818492	-0.000048
1880	1.8696e+02	1.2997	-10.167881	0.000463	4.626851	0.783810	-0.000046
1881	1.8706e+02	1.2881	-10.211059	0.000434	4.340231	0.735255	-0.000043
1882	1.8716e+02	1.2785	-10.258311	0.000475	4.749687	0.804619	-0.000047
1883	1.8726e+02	1.2680	-10.303934	0.000459	4.585905	0.776873	-0.000046
1884	1.8736e+02	1.2592	-10.348741	0.000450	4.504014	0.763001	-0.000045
1885	1.8746e+02	1.2492	-10.395178	0.000467	4.667796	0.790746	-0.000047
1886	1.8756e+02	1.2396	-10.437135	0.000422	4.217395	0.714446	-0.000042
1887	1.8766e+02	1.2291	-10.481535	0.000446	4.463068	0.756064	-0.000045
1888	1.8776e+02	1.2199	-10.527565	0.000463	4.626851	0.783810	-0.000046
1889	1.8786e+02	1.2099	-10.571150	0.000438	4.381177	0.742191	-0.000044
1890	1.8796e+02	1.2015	-10.618809	0.000479	4.790633	0.811555	-0.000048
1891	1.8806e+02	1.1907	-10.659544	0.000409	4.094558	0.693637	-0.000041
1892	1.8815e+02	1.1772	-10.711683	0.000524	5.241034	0.887855	-0.000052
1893	1.8825e+02	1.1712	-10.756491	0.000450	4.504014	0.763001	-0.000045
1894	1.8835e+02	1.1611	-10.800077	0.000438	4.381177	0.742191	-0.000044
1895	1.8845e+02	1.1489	-10.846514	0.000467	4.667796	0.790746	-0.000047
1896	1.8855e+02	1.1377	-10.889692	0.000434	4.340231	0.735255	-0.000043
1897	1.8865e+02	1.1297	-10.938166	0.000487	4.872524	0.825428	-0.000049
1898	1.8875e+02	1.1191	-10.984603	0.000467	4.667796	0.790746	-0.000047
1899	1.8885e+02	1.1086	-11.029411	0.000450	4.504014	0.763001	-0.000045
1900	1.8895e+02	1.0989	-11.075033	0.000459	4.585905	0.776873	-0.000046
1901	1.8905e+02	1.0913	-11.122692	0.000479	4.790633	0.811555	-0.000048
1902	1.8915e+02	1.0826	-11.165463	0.000430	4.299286	0.728319	-0.000043
1903	1.8925e+02	1.0698	-11.217196	0.000520	5.200089	0.880919	-0.000052
1904	1.8935e+02	1.0595	-11.260374	0.000434	4.340231	0.735255	-0.000043
1905	1.8945e+02	1.0522	-11.308440	0.000483	4.831578	0.818492	-0.000048
1906	1.8955e+02	1.0419	-11.352433	0.000442	4.422123	0.749128	-0.000044
1907	1.8965e+02	1.0312	-11.401722	0.000495	4.954415	0.839301	-0.000050
1908	1.8975e+02	1.0229	-11.449788	0.000483	4.831578	0.818492	-0.000048
1909	1.8985e+02	1.0135	-11.498262	0.000487	4.872524	0.825428	-0.000049
1910	1.8995e+02	1.0014	-11.542662	0.000446	4.463068	0.756064	-0.000045
1911	1.9004e+02	0.9918	-11.591951	0.000495	4.954415	0.839301	-0.000050
1912	1.9014e+02	0.9772	-11.640424	0.000487	4.872524	0.825428	-0.000049
1913	1.9024e+02	0.9708	-11.686047	0.000459	4.585905	0.776873	-0.000046
1914	1.9034e+02	0.9619	-11.734521	0.000487	4.872524	0.825428	-0.000049
1915	1.9044e+02	0.9536	-11.778921	0.000446	4.463068	0.756064	-0.000045
1916	1.9054e+02	0.9426	-11.829024	0.000504	5.036306	0.853173	-0.000050
1917	1.9064e+02	0.9296	-11.874239	0.000454	4.544959	0.769937	-0.000045
1918	1.9074e+02	0.9216	-11.924750	0.000508	5.077252	0.860110	-0.000051
1919	1.9084e+02	0.9122	-11.974445	0.000500	4.995361	0.846237	-0.000050
1920	1.9094e+02	0.8995	-12.020068	0.000459	4.585905	0.776873	-0.000046
1921	1.9104e+02	0.8921	-12.068949	0.000491	4.913470	0.832364	-0.000049
1922	1.9114e+02	0.8817	-12.114978	0.000463	4.626851	0.783810	-0.000046
1923	1.9124e+02	0.8706	-12.161823	0.000471	4.708742	0.797682	-0.000047
1924	1.9134e+02	0.8613	-12.209482	0.000479	4.790633	0.811555	-0.000048
1925	1.9144e+02	0.8523	-12.256734	0.000475	4.749687	0.804619	-0.000047
1926	1.9154e+02	0.8407	-12.302356	0.000459	4.585905	0.776873	-0.000046
1927	1.9164e+02	0.8331	-12.352867	0.000508	5.077252	0.860110	-0.000051
1928	1.9174e+02	0.8210	-12.397674	0.000450	4.504014	0.763001	-0.000045
1929	1.9184e+02	0.8125	-12.440445	0.000430	4.299286	0.728319	-0.000043
1930	1.9194e+02	0.8007	-12.488512	0.000483	4.831578	0.818492	-0.000048
1931	1.9203e+02	0.7904	-12.532505	0.000442	4.422123	0.749128	-0.000044
1932	1.9213e+02	0.7836	-12.581793	0.000495	4.954415	0.839301	-0.000050
1933	1.9223e+02	0.7716	-12.627415	0.000459	4.585905	0.776873	-0.000046
1934	1.9233e+02	0.7602	-12.671001	0.000438	4.381177	0.742191	-0.000044
1935	1.9243e+02	0.7536	-12.720697	0.000500	4.995361	0.846237	-0.000050
1936	1.9253e+02	0.7452	-12.764690	0.000442	4.422123	0.749128	-0.000044
1937	1.9263e+02	0.7304	-12.805831	0.000414	4.135504	0.700573	-0.000041
1938	1.9273e+02	0.7221	-12.848602	0.000430	4.299286	0.728319	-0.000043
1939	1.9283e+02	0.7137	-12.892188	0.000438	4.381177	0.742191	-0.000044
1940	1.9293e+02	0.7001	-12.940662	0.000487	4.872524	0.825428	-0.000049
1941	1.9303e+02	0.6917	-12.984247	0.000438	4.381177	0.742191	-0.000044
1942	1.9313e+02	0.6819	-13.027833	0.000438	4.381177	0.742191	-0.000044
1943	1.9323e+02	0.6753	-13.072641	0.000450	4.504014	0.763001	-0.000045
1944	1.9333e+02	0.6598	-13.119893	0.000475	4.749687	0.804619	-0.000047
1945	1.9343e+02	0.6526	-13.167959	0.000483	4.831578	0.818492	-0.000048
1946	1.9353e+02	0.6423	-13.207879	0.000401	4.012667	0.679764	-0.000040
1947	1.9363e+02	0.6302	-13.252686	0.000450	4.504014	0.763001	-0.000045
1948	1.9373e+02	0.6232	-13.298309	0.000459	4.585905	0.776873	-0.000046
1949	1.9383e+02	0.6100	-13.338636	0.000405	4.053612	0.686701	-0.000041
1950	1.9393e+02	0.6020	-13.383443	0.000450	4.504014	0.763001	-0.000045
1951	1.9403e+02	0.5939	-13.431917	0.000487	4.872524	0.825428	-0.000049
1952	1.9412e+02	0.5824	-13.479983	0.000483	4.831578	0.818492	-0.000048
1953	1.9422e+02	0.5731	-13.521532	0.000418	4.176449	0.707510	-0.000042
1954	1.9432e+02	0.5643	-13.565933	0.000446	4.463068	0.756064	-0.000045
1955	1.9442e+02	0.5543	-13.611148	0.000454	4.544959	0.769937	-0.000045
1956	1.9452e+02	0.5426	-13.656770	0.000459	4.585905	0.776873	-0.000046
1957	1.9462e+02	0.5314	-13.708910	0.000524	5.241034	0.887855	-0.000052
1958	1.9472e+02	0.5225	-13.753718	0.000450	4.504014	0.763001	-0.000045
1959	1.9482e+02	0.5118	-13.797303	0.000438	4.381177	0.742191	-0.000044
1960	1.9492e+02	0.5035	-13.844148	0.000471	4.708742	0.797682	-0.000047
1961	1.9502e+02	0.4908	-13.888548	0.000446	4.463068	0.756064	-0.000045
1962	1.9512e+02	0.4813	-13.936207	0.000479	4.790633	0.811555	-0.000048
1963	1.9522e+02	0.4756	-13.982644	0.000467	4.667796	0.790746	-0.000047
1964	1.9532e+02	0.4642	-14.028674	0.000463	4.626851	0.783810	-0.000046
1965	1.9542e+02	0.4526	-14.080406	0.000520	5.200089	0.880919	-0.000052
1966	1.9552e+02	0.4430	-14.125621	0.000454	4.544959	0.769937	-0.000045
1967	1.9562e+02	0.4324	-14.176539	0.000512	5.118197	0.867046	-0.000051
1968	1.9572e+02	0.4238	-14.220125	0.000438	4.381177	0.742191	-0.000044
1969	1.9582e+02	0.4107	-14.271857	0.000520	5.200089	0.880919	-0.000052
1970	1.9592e+02	0.4066	-14.317887	0.000463	4.626851	0.783810	-0.000046
1971	1.9601e+02	0.3925	-14.367583	0.000500	4.995361	0.846237	-0.000050
1972	1.9611e+02	0.3827	-14.412798	0.000454	4.544959	0.769937	-0.000045
1973	1.9621e+02	0.3714	-14.455976	0.000434	4.340231	0.735255	-0.000043
1974	1.9631e+02	0.3652	-14.506487	0.000508	5.077252	0.860110	-0.000051
1975	1.9641e+02	0.3542	-14.555368	0.000491	4.913470	0.832364	-0.000049
1976	1.9651e+02	0.3436	-14.605471	0.000504	5.036306	0.853173	-0.000050
1977	1.9661e+02	0.3342	-14.651093	0.000459	4.585905	0.776873	-0.000046
1978	1.9671e+02	0.3248	-14.699974	0.000491	4.913470	0.832364	-0.000049
1979	1.9681e+02	0.3140	-14.750077	0.000504	5.036306	0.853173	-0.000050
1980	1.9691e+02	0.3049	-14.795292	0.000454	4.544959	0.769937	-0.000045
1981	1.9701e+02	0.2935	-14.843766	0.000487	4.872524	0.825428	-0.000049
1982	1.9711e+02	0.2853	-14.893462	0.000500	4.995361	0.846237	-0.000050
1983	1.9721e+02	0.2764	-14.946417	0.000532	5.322925	0.901728	-0.000053
1984	1.9731e+02	0.2625	-14.992039	0.000459	4.585905	0.776873	-0.000046
1985	1.9741e+02	0.2588	-15.038476	0.000467	4.667796	0.790746	-0.000047
1986	1.9751e+02	0.2476	-15.086135	0.000479	4.790633	0.811555	-0.000048
1987	1.9761e+02	0.2326	-15.137460	0.000516	5.159143	0.873982	-0.000052
1988	1.9771e+02	0.2233	-15.186341	0.000491	4.913470	0.832364	-0.000049
1989	1.9781e+02	0.2139	-15.231964	0.000459	4.585905	0.776873	-0.000046
1990	1.9791e+02	0.2039	-15.282067	0.000504	5.036306	0.853173	-0.000050
1991	1.9800e+02	0.1959	-15.327282	0.000454	4.544959	0.769937	-0.000045
1992	1.9810e+02	0.1839	-15.379014	0.000520	5.200089	0.880919	-0.000052
1993	1.9820e+02	0.1755	-15.428303	0.000495	4.954415	0.839301	-0.000050
1994	1.9830e+02	0.1635	-15.471481	0.000434	4.340231	0.735255	-0.000043
1995	1.9840e+02	0.1541	-15.521177	0.000500	4.995361	0.846237	-0.000050
1996	1.9850e+02	0.1456	-15.570873	0.000500	4.995361	0.846237	-0.000050
1997	1.9860e+02	0.1344	-15.614458	0.000438	4.381177	0.742191	-0.000044
1998	1.9870e+02	0.1272	-15.666598	0.000524	5.241034	0.887855	-0.000052
1999	1.9880e+02	0.1150	-15.713443	0.000471	4.708742	0.797682	-0.000047
2000	1.9890e+02	0.1036	-15.761102	0.000479	4.790633	0.811555	-0.000048
2001	1.9900e+02	0.0937	-15.809983	0.000491	4.913470	0.832364	-0.000049
2002	1.9910e+02	0.0854	-15.854790	0.000450	4.504014	0.763001	-0.000045
2003	1.9920e+02	0.0757	-15.904486	0.000500	4.995361	0.846237	-0.000050
2004	1.9930e+02	0.0646	-15.952960	0.000487	4.872524	0.825428	-0.000049
2005	1.9940e+02	0.0554	-16.000212	0.000475	4.749687	0.804619	-0.000047
2006	1.9950e+02	0.0439	-16.047056	0.000471	4.708742	0.797682	-0.000047
2007	1.9960e+02	0.0367	-16.097159	0.000504	5.036306	0.853173	-0.000050
2008	1.9970e+02	0.0256	-16.147670	0.000508	5.077252	0.860110	-0.000051
2009	1.9980e+02	0.0138	-16.195329	0.000479	4.790633	0.811555	-0.000048
2010	1.9990e+02	0.0056	-16.249098	0.000540	5.404817	0.915601	-0.000054
2011	2.0000e+02	-0.0062	-16.294720	0.000540	5.404817	0.915601	-0.000046

PMax (uC/cm2):	3.64e+01
Pr (uC/cm2):	1.90e+00
-Pr (uC/cm2):	0.00e+00
PLoss (uC/cm2):	0.00e+00
C (Max-Eff) (nF):	3.64e-01
K (Eff):	6.17e+02
Vert. (+/-Pr) Shift (uC/cm2):	9.52e-01
Offset (uC/cm2):	1.82e+01

A (Loop Area - uC/cm2·Volts):	-1.87e-02



Hysteresis Version: 5.48.1 - Radiant Technologies, Inc., 1999 - 9/12/24

