»»»»»»»»»»»»»»»»»»»»»»»»»»»»»»»»»»»» Hysteresis ««««««««««««««««««««««««««««««««««««
»»»  Executed Version:	5.48.1
»»»  Vision Version:	5.48.4 (R)
»»»  Vision Compiled:	9/18/24
»»»  Driver Version:	5.47.0
»»»  Windows Version:	Windows 8 or 8.1
»»»  Processor Information:	x86 (AMD or Intel) - 32 Processors
»»»  Tester Name:	PMF21124-494 (100V)
»»»  Tester S/N:	PMF21124-494
»»»  Internal Amp Type:	100V RevK 270k
»»»  Internal Amp S/N:	iAB2-596/K     
»»»  Execution Count:	1
»»»»»»»»»»»»»»»»»»»»»»»»»»»»»»»»»»»»»»»»»»««««««««««««««««««««««««««««««««««««««««««

Stored:	6/27/2025 - 17:14:21
Configured:	06/27/25 11:23:28 AM
Executed:	06/27/25 05:13:52 PM

»»»»»»»»»»»»»»»»»»»»»»»»»»»»»»»»»»» Sample Info ««««««««««««««««««««««««««««««««««««
Sample Name:	
Lot Name:	
Wafer Name:	
Die Row/Column:	0/0
Capacitor Number:	0
Sample Area (cm2):	1.00e-04
Sample Thickness (microns):	1.50e-01

Amplifier:	Internal

»»»»»»»»»»»»»»»»»»»»»»»»»»»»»»»»»»» Tester Info «««««««««««««««««««««««««««««««««««
Tester Name:	PMF21124-494 (100V)
Tester Serial Number:	PMF21124-494
Return Signal Amp. Level:	1.9 [Index: 2]

»»»»»»»»»»»»»»»»»»»»»»»»»»»»»»»» Hysteresis Info ««««««««««««««««««««««««««««««««««
Task Name:	Hyst-1276
Volts:	10.00
Field:	666.67 (kV/cm)
DCBias:	0.00
DCField:	0.00 (kV/cm)
Hysteresis Period (ms):	2.00e+02
Preset:	Enabled
Preset Delay (ms):	1.00e+03
Profile:	Standard Monopolar

»»»»»»»»»»»»»»»»»»»»»»»»»»»»»»»»»»»»»» Data «««««««««««««««««««««««««««««««««««««««
Points:	2011

Valid Data

Point	Time (ms)	Drive Voltage	Measured Polarization (uC/cm2)	Capacitance (uF)	Normalized Capacitance (uF/cm2)	Dielectric Constant	Instantaneous Current (mA)
   1	0.0000e+00	-0.0033	-17.224072	0.000364	3.644685	0.617426	0.000036
   2	9.9500e-02	0.0075	-17.187819	0.000364	3.644685	0.617426	0.000036
   3	1.9900e-01	0.0156	-17.142604	0.000455	4.545618	0.770049	0.000045
   4	2.9850e-01	0.0249	-17.104314	0.000385	3.849443	0.652113	0.000038
   5	3.9800e-01	0.0349	-17.053803	0.000508	5.077988	0.860234	0.000051
   6	4.9750e-01	0.0434	-17.015920	0.000381	3.808491	0.645176	0.000038
   7	5.9700e-01	0.0574	-16.969483	0.000467	4.668473	0.790861	0.000047
   8	6.9650e-01	0.0646	-16.929156	0.000405	4.054200	0.686800	0.000041
   9	7.9600e-01	0.0754	-16.885571	0.000438	4.381812	0.742299	0.000044
  10	8.9550e-01	0.0832	-16.840356	0.000455	4.545618	0.770049	0.000045
  11	9.9500e-01	0.0945	-16.794326	0.000463	4.627521	0.783923	0.000046
  12	1.0945e+00	0.1035	-16.753999	0.000405	4.054200	0.686800	0.000041
  13	1.1940e+00	0.1149	-16.708377	0.000459	4.586570	0.776986	0.000046
  14	1.2935e+00	0.1260	-16.666420	0.000422	4.218006	0.714550	0.000042
  15	1.3930e+00	0.1350	-16.624872	0.000418	4.177055	0.707612	0.000042
  16	1.4925e+00	0.1447	-16.581286	0.000438	4.381812	0.742299	0.000044
  17	1.5920e+00	0.1554	-16.536071	0.000455	4.545618	0.770049	0.000045
  18	1.6915e+00	0.1659	-16.494522	0.000418	4.177055	0.707612	0.000042
  19	1.7910e+00	0.1749	-16.453380	0.000414	4.136103	0.700675	0.000041
  20	1.8905e+00	0.1901	-16.407758	0.000459	4.586570	0.776986	0.000046
  21	1.9900e+00	0.1948	-16.366616	0.000414	4.136103	0.700675	0.000041
  22	2.0895e+00	0.2012	-16.319772	0.000471	4.709424	0.797798	0.000047
  23	2.1890e+00	0.2142	-16.276594	0.000434	4.340861	0.735362	0.000043
  24	2.2885e+00	0.2226	-16.233415	0.000434	4.340861	0.735362	0.000043
  25	2.3880e+00	0.2345	-16.194310	0.000393	3.931346	0.665988	0.000039
  26	2.4875e+00	0.2463	-16.144615	0.000500	4.996085	0.846360	0.000050
  27	2.5870e+00	0.2550	-16.105102	0.000397	3.972297	0.672925	0.000040
  28	2.6865e+00	0.2650	-16.061109	0.000442	4.422764	0.749236	0.000044
  29	2.7860e+00	0.2749	-16.019968	0.000414	4.136103	0.700675	0.000041
  30	2.8855e+00	0.2811	-15.975160	0.000450	4.504667	0.763111	0.000045
  31	2.9850e+00	0.2934	-15.933204	0.000422	4.218006	0.714550	0.000042
  32	3.0845e+00	0.3052	-15.891655	0.000418	4.177055	0.707612	0.000042
  33	3.1840e+00	0.3156	-15.848069	0.000438	4.381812	0.742299	0.000044
  34	3.2835e+00	0.3253	-15.808150	0.000401	4.013249	0.679863	0.000040
  35	3.3830e+00	0.3354	-15.764971	0.000434	4.340861	0.735362	0.000043
  36	3.4825e+00	0.3427	-15.724645	0.000405	4.054200	0.686800	0.000041
  37	3.5820e+00	0.3540	-15.680652	0.000442	4.422764	0.749236	0.000044
  38	3.6815e+00	0.3650	-15.637473	0.000434	4.340861	0.735362	0.000043
  39	3.7810e+00	0.3745	-15.594295	0.000434	4.340861	0.735362	0.000043
  40	3.8805e+00	0.3847	-15.546636	0.000479	4.791328	0.811673	0.000048
  41	3.9800e+00	0.3963	-15.503050	0.000438	4.381812	0.742299	0.000044
  42	4.0795e+00	0.4051	-15.457835	0.000455	4.545618	0.770049	0.000045
  43	4.1790e+00	0.4152	-15.409361	0.000487	4.873231	0.825548	0.000049
  44	4.2785e+00	0.4222	-15.366998	0.000426	4.258958	0.721487	0.000043
  45	4.3780e+00	0.4359	-15.323412	0.000438	4.381812	0.742299	0.000044
  46	4.4775e+00	0.4422	-15.279012	0.000446	4.463715	0.756174	0.000045
  47	4.5770e+00	0.4521	-15.237870	0.000414	4.136103	0.700675	0.000041
  48	4.6765e+00	0.4611	-15.195914	0.000422	4.218006	0.714550	0.000042
  49	4.7760e+00	0.4762	-15.150292	0.000459	4.586570	0.776986	0.000046
  50	4.8755e+00	0.4819	-15.106299	0.000442	4.422764	0.749236	0.000044
  51	4.9750e+00	0.4908	-15.062306	0.000442	4.422764	0.749236	0.000044
  52	5.0745e+00	0.5041	-15.018720	0.000438	4.381812	0.742299	0.000044
  53	5.1740e+00	0.5175	-14.973912	0.000450	4.504667	0.763111	0.000045
  54	5.2735e+00	0.5225	-14.927475	0.000467	4.668473	0.790861	0.000047
  55	5.3730e+00	0.5325	-14.886741	0.000410	4.095152	0.693737	0.000041
  56	5.4725e+00	0.5437	-14.838267	0.000487	4.873231	0.825548	0.000049
  57	5.5720e+00	0.5506	-14.797533	0.000410	4.095152	0.693737	0.000041
  58	5.6715e+00	0.5614	-14.753133	0.000446	4.463715	0.756174	0.000045
  59	5.7710e+00	0.5734	-14.709140	0.000442	4.422764	0.749236	0.000044
  60	5.8705e+00	0.5830	-14.667998	0.000414	4.136103	0.700675	0.000041
  61	5.9700e+00	0.5928	-14.628078	0.000401	4.013249	0.679863	0.000040
  62	6.0695e+00	0.6039	-14.580827	0.000475	4.750376	0.804735	0.000047
  63	6.1690e+00	0.6139	-14.542129	0.000389	3.890394	0.659051	0.000039
  64	6.2685e+00	0.6231	-14.503839	0.000385	3.849443	0.652113	0.000038
  65	6.3680e+00	0.6299	-14.465141	0.000389	3.890394	0.659051	0.000039
  66	6.4675e+00	0.6418	-14.424000	0.000414	4.136103	0.700675	0.000041
  67	6.5670e+00	0.6530	-14.388968	0.000352	3.521830	0.596614	0.000035
  68	6.6665e+00	0.6611	-14.346605	0.000426	4.258958	0.721487	0.000043
  69	6.7660e+00	0.6723	-14.305870	0.000410	4.095152	0.693737	0.000041
  70	6.8655e+00	0.6841	-14.265136	0.000410	4.095152	0.693737	0.000041
  71	6.9650e+00	0.6957	-14.223587	0.000418	4.177055	0.707612	0.000042
  72	7.0645e+00	0.7025	-14.184075	0.000397	3.972297	0.672925	0.000040
  73	7.1640e+00	0.7113	-14.148229	0.000360	3.603734	0.610489	0.000036
  74	7.2635e+00	0.7211	-14.108717	0.000397	3.972297	0.672925	0.000040
  75	7.3630e+00	0.7317	-14.068797	0.000401	4.013249	0.679863	0.000040
  76	7.4625e+00	0.7434	-14.027248	0.000418	4.177055	0.707612	0.000042
  77	7.5620e+00	0.7525	-13.989773	0.000377	3.767540	0.638238	0.000038
  78	7.6615e+00	0.7649	-13.949853	0.000401	4.013249	0.679863	0.000040
  79	7.7610e+00	0.7704	-13.909526	0.000405	4.054200	0.686800	0.000041
  80	7.8605e+00	0.7805	-13.870829	0.000389	3.890394	0.659051	0.000039
  81	7.9600e+00	0.7925	-13.831724	0.000393	3.931346	0.665988	0.000039
  82	8.0595e+00	0.8009	-13.790175	0.000418	4.177055	0.707612	0.000042
  83	8.1590e+00	0.8112	-13.746182	0.000442	4.422764	0.749236	0.000044
  84	8.2585e+00	0.8205	-13.708299	0.000381	3.808491	0.645176	0.000038
  85	8.3580e+00	0.8289	-13.666750	0.000418	4.177055	0.707612	0.000042
  86	8.4575e+00	0.8439	-13.627238	0.000397	3.972297	0.672925	0.000040
  87	8.5570e+00	0.8517	-13.585689	0.000418	4.177055	0.707612	0.000042
  88	8.6565e+00	0.8622	-13.546584	0.000393	3.931346	0.665988	0.000039
  89	8.7560e+00	0.8710	-13.505442	0.000414	4.136103	0.700675	0.000041
  90	8.8555e+00	0.8826	-13.459820	0.000459	4.586570	0.776986	0.000046
  91	8.9550e+00	0.8931	-13.423974	0.000360	3.603734	0.610489	0.000036
  92	9.0545e+00	0.9036	-13.378351	0.000459	4.586570	0.776986	0.000046
  93	9.1540e+00	0.9100	-13.337617	0.000410	4.095152	0.693737	0.000041
  94	9.2535e+00	0.9202	-13.298920	0.000389	3.890394	0.659051	0.000039
  95	9.3530e+00	0.9335	-13.260222	0.000389	3.890394	0.659051	0.000039
  96	9.4525e+00	0.9414	-13.217858	0.000426	4.258958	0.721487	0.000043
  97	9.5520e+00	0.9507	-13.176310	0.000418	4.177055	0.707612	0.000042
  98	9.6515e+00	0.9609	-13.136390	0.000401	4.013249	0.679863	0.000040
  99	9.7510e+00	0.9729	-13.095248	0.000414	4.136103	0.700675	0.000041
 100	9.8505e+00	0.9789	-13.053292	0.000422	4.218006	0.714550	0.000042
 101	9.9500e+00	0.9919	-13.007262	0.000463	4.627521	0.783923	0.000046
 102	1.0050e+01	1.0003	-12.970602	0.000369	3.685637	0.624364	0.000037
 103	1.0149e+01	1.0073	-12.930682	0.000401	4.013249	0.679863	0.000040
 104	1.0248e+01	1.0204	-12.889540	0.000414	4.136103	0.700675	0.000041
 105	1.0348e+01	1.0303	-12.847991	0.000418	4.177055	0.707612	0.000042
 106	1.0447e+01	1.0429	-12.806850	0.000414	4.136103	0.700675	0.000041
 107	1.0547e+01	1.0503	-12.767745	0.000393	3.931346	0.665988	0.000039
 108	1.0646e+01	1.0577	-12.725789	0.000422	4.218006	0.714550	0.000042
 109	1.0746e+01	1.0710	-12.683425	0.000426	4.258958	0.721487	0.000043
 110	1.0845e+01	1.0804	-12.644320	0.000393	3.931346	0.665988	0.000039
 111	1.0945e+01	1.0903	-12.598698	0.000459	4.586570	0.776986	0.000046
 112	1.1044e+01	1.1018	-12.562852	0.000360	3.603734	0.610489	0.000036
 113	1.1144e+01	1.1140	-12.517229	0.000459	4.586570	0.776986	0.000046
 114	1.1243e+01	1.1190	-12.475680	0.000418	4.177055	0.707612	0.000042
 115	1.1343e+01	1.1317	-12.436168	0.000397	3.972297	0.672925	0.000040
 116	1.1443e+01	1.1398	-12.392582	0.000438	4.381812	0.742299	0.000044
 117	1.1542e+01	1.1512	-12.352663	0.000401	4.013249	0.679863	0.000040
 118	1.1642e+01	1.1609	-12.309892	0.000430	4.299909	0.728424	0.000043
 119	1.1741e+01	1.1691	-12.270787	0.000393	3.931346	0.665988	0.000039
 120	1.1841e+01	1.1791	-12.229238	0.000418	4.177055	0.707612	0.000042
 121	1.1940e+01	1.1898	-12.189319	0.000401	4.013249	0.679863	0.000040
 122	1.2040e+01	1.1988	-12.147770	0.000418	4.177055	0.707612	0.000042
 123	1.2139e+01	1.2103	-12.104184	0.000438	4.381812	0.742299	0.000044
 124	1.2239e+01	1.2210	-12.069967	0.000344	3.439927	0.582739	0.000034
 125	1.2338e+01	1.2333	-12.028418	0.000418	4.177055	0.707612	0.000042
 126	1.2438e+01	1.2376	-11.992165	0.000364	3.644685	0.617426	0.000036
 127	1.2537e+01	1.2503	-11.950208	0.000422	4.218006	0.714550	0.000042
 128	1.2636e+01	1.2586	-11.909474	0.000410	4.095152	0.693737	0.000041
 129	1.2736e+01	1.2685	-11.876887	0.000328	3.276121	0.554990	0.000033
 130	1.2835e+01	1.2775	-11.829635	0.000475	4.750376	0.804735	0.000047
 131	1.2935e+01	1.2914	-11.795826	0.000340	3.398976	0.575802	0.000034
 132	1.3034e+01	1.2978	-11.753462	0.000426	4.258958	0.721487	0.000043
 133	1.3134e+01	1.3078	-11.709876	0.000438	4.381812	0.742299	0.000044
 134	1.3233e+01	1.3193	-11.673215	0.000369	3.685637	0.624364	0.000037
 135	1.3333e+01	1.3278	-11.630037	0.000434	4.340861	0.735362	0.000043
 136	1.3432e+01	1.3392	-11.591747	0.000385	3.849443	0.652113	0.000038
 137	1.3532e+01	1.3486	-11.555494	0.000364	3.644685	0.617426	0.000036
 138	1.3632e+01	1.3616	-11.513130	0.000426	4.258958	0.721487	0.000043
 139	1.3731e+01	1.3679	-11.478506	0.000348	3.480879	0.589677	0.000035
 140	1.3831e+01	1.3814	-11.440623	0.000381	3.808491	0.645176	0.000038
 141	1.3930e+01	1.3891	-11.395408	0.000455	4.545618	0.770049	0.000045
 142	1.4030e+01	1.3985	-11.357118	0.000385	3.849443	0.652113	0.000038
 143	1.4129e+01	1.4059	-11.314347	0.000430	4.299909	0.728424	0.000043
 144	1.4229e+01	1.4174	-11.277279	0.000373	3.726588	0.631301	0.000037
 145	1.4328e+01	1.4270	-11.229619	0.000479	4.791328	0.811673	0.000048
 146	1.4428e+01	1.4372	-11.188885	0.000410	4.095152	0.693737	0.000041
 147	1.4527e+01	1.4472	-11.149780	0.000393	3.931346	0.665988	0.000039
 148	1.4627e+01	1.4550	-11.102936	0.000471	4.709424	0.797798	0.000047
 149	1.4726e+01	1.4700	-11.057314	0.000459	4.586570	0.776986	0.000046
 150	1.4825e+01	1.4795	-11.016579	0.000410	4.095152	0.693737	0.000041
 151	1.4925e+01	1.4846	-10.974623	0.000422	4.218006	0.714550	0.000042
 152	1.5024e+01	1.4980	-10.930223	0.000446	4.463715	0.756174	0.000045
 153	1.5124e+01	1.5099	-10.887452	0.000430	4.299909	0.728424	0.000043
 154	1.5223e+01	1.5154	-10.845088	0.000426	4.258958	0.721487	0.000043
 155	1.5323e+01	1.5283	-10.803132	0.000422	4.218006	0.714550	0.000042
 156	1.5422e+01	1.5427	-10.757917	0.000455	4.545618	0.770049	0.000045
 157	1.5522e+01	1.5467	-10.717590	0.000405	4.054200	0.686800	0.000041
 158	1.5621e+01	1.5604	-10.671560	0.000463	4.627521	0.783923	0.000046
 159	1.5721e+01	1.5665	-10.629197	0.000426	4.258958	0.721487	0.000043
 160	1.5820e+01	1.5762	-10.585611	0.000438	4.381812	0.742299	0.000044
 161	1.5920e+01	1.5867	-10.538766	0.000471	4.709424	0.797798	0.000047
 162	1.6020e+01	1.5968	-10.497625	0.000414	4.136103	0.700675	0.000041
 163	1.6119e+01	1.6092	-10.452410	0.000455	4.545618	0.770049	0.000045
 164	1.6218e+01	1.6163	-10.408417	0.000442	4.422764	0.749236	0.000044
 165	1.6318e+01	1.6250	-10.366868	0.000418	4.177055	0.707612	0.000042
 166	1.6418e+01	1.6375	-10.323282	0.000438	4.381812	0.742299	0.000044
 167	1.6517e+01	1.6463	-10.283770	0.000397	3.972297	0.672925	0.000040
 168	1.6616e+01	1.6571	-10.243443	0.000405	4.054200	0.686800	0.000041
 169	1.6716e+01	1.6663	-10.200265	0.000434	4.340861	0.735362	0.000043
 170	1.6816e+01	1.6756	-10.160753	0.000397	3.972297	0.672925	0.000040
 171	1.6915e+01	1.6849	-10.119611	0.000414	4.136103	0.700675	0.000041
 172	1.7015e+01	1.6977	-10.075211	0.000446	4.463715	0.756174	0.000045
 173	1.7114e+01	1.7091	-10.034476	0.000410	4.095152	0.693737	0.000041
 174	1.7213e+01	1.7178	-9.994964	0.000397	3.972297	0.672925	0.000040
 175	1.7313e+01	1.7247	-9.954637	0.000405	4.054200	0.686800	0.000041
 176	1.7413e+01	1.7359	-9.909422	0.000455	4.545618	0.770049	0.000045
 177	1.7512e+01	1.7471	-9.869095	0.000405	4.054200	0.686800	0.000041
 178	1.7611e+01	1.7562	-9.821844	0.000475	4.750376	0.804735	0.000047
 179	1.7711e+01	1.7651	-9.783961	0.000381	3.808491	0.645176	0.000038
 180	1.7811e+01	1.7763	-9.742819	0.000414	4.136103	0.700675	0.000041
 181	1.7910e+01	1.7878	-9.698011	0.000450	4.504667	0.763111	0.000045
 182	1.8009e+01	1.7974	-9.661351	0.000369	3.685637	0.624364	0.000037
 183	1.8109e+01	1.8058	-9.618172	0.000434	4.340861	0.735362	0.000043
 184	1.8209e+01	1.8153	-9.575809	0.000426	4.258958	0.721487	0.000043
 185	1.8308e+01	1.8279	-9.538741	0.000373	3.726588	0.631301	0.000037
 186	1.8407e+01	1.8384	-9.497599	0.000414	4.136103	0.700675	0.000041
 187	1.8507e+01	1.8449	-9.454013	0.000438	4.381812	0.742299	0.000044
 188	1.8607e+01	1.8540	-9.415316	0.000389	3.890394	0.659051	0.000039
 189	1.8706e+01	1.8643	-9.371730	0.000438	4.381812	0.742299	0.000044
 190	1.8805e+01	1.8790	-9.331811	0.000401	4.013249	0.679863	0.000040
 191	1.8905e+01	1.8877	-9.291076	0.000410	4.095152	0.693737	0.000041
 192	1.9005e+01	1.8964	-9.251971	0.000393	3.931346	0.665988	0.000039
 193	1.9104e+01	1.9066	-9.208386	0.000438	4.381812	0.742299	0.000044
 194	1.9203e+01	1.9145	-9.169688	0.000389	3.890394	0.659051	0.000039
 195	1.9303e+01	1.9277	-9.126917	0.000430	4.299909	0.728424	0.000043
 196	1.9402e+01	1.9367	-9.090256	0.000369	3.685637	0.624364	0.000037
 197	1.9502e+01	1.9453	-9.047485	0.000430	4.299909	0.728424	0.000043
 198	1.9602e+01	1.9553	-9.006751	0.000410	4.095152	0.693737	0.000041
 199	1.9701e+01	1.9637	-8.967646	0.000393	3.931346	0.665988	0.000039
 200	1.9800e+01	1.9753	-8.926912	0.000410	4.095152	0.693737	0.000041
 201	1.9900e+01	1.9859	-8.885770	0.000414	4.136103	0.700675	0.000041
 202	2.0000e+01	1.9979	-8.847480	0.000385	3.849443	0.652113	0.000038
 203	2.0099e+01	2.0047	-8.805524	0.000422	4.218006	0.714550	0.000042
 204	2.0198e+01	2.0159	-8.767641	0.000381	3.808491	0.645176	0.000038
 205	2.0298e+01	2.0275	-8.727314	0.000405	4.054200	0.686800	0.000041
 206	2.0398e+01	2.0342	-8.687802	0.000397	3.972297	0.672925	0.000040
 207	2.0497e+01	2.0438	-8.647882	0.000401	4.013249	0.679863	0.000040
 208	2.0596e+01	2.0541	-8.601853	0.000463	4.627521	0.783923	0.000046
 209	2.0696e+01	2.0644	-8.562748	0.000393	3.931346	0.665988	0.000039
 210	2.0796e+01	2.0777	-8.519569	0.000434	4.340861	0.735362	0.000043
 211	2.0895e+01	2.0852	-8.473947	0.000459	4.586570	0.776986	0.000046
 212	2.0994e+01	2.0988	-8.437286	0.000369	3.685637	0.624364	0.000037
 213	2.1094e+01	2.1055	-8.396552	0.000410	4.095152	0.693737	0.000041
 214	2.1194e+01	2.1154	-8.355003	0.000418	4.177055	0.707612	0.000042
 215	2.1293e+01	2.1249	-8.310603	0.000446	4.463715	0.756174	0.000045
 216	2.1392e+01	2.1352	-8.271498	0.000393	3.931346	0.665988	0.000039
 217	2.1492e+01	2.1454	-8.229134	0.000426	4.258958	0.721487	0.000043
 218	2.1591e+01	2.1523	-8.187178	0.000422	4.218006	0.714550	0.000042
 219	2.1691e+01	2.1646	-8.144814	0.000426	4.258958	0.721487	0.000043
 220	2.1791e+01	2.1729	-8.102858	0.000422	4.218006	0.714550	0.000042
 221	2.1890e+01	2.1871	-8.062938	0.000401	4.013249	0.679863	0.000040
 222	2.1989e+01	2.1935	-8.021390	0.000418	4.177055	0.707612	0.000042
 223	2.2089e+01	2.2049	-7.977804	0.000438	4.381812	0.742299	0.000044
 224	2.2189e+01	2.2132	-7.937070	0.000410	4.095152	0.693737	0.000041
 225	2.2288e+01	2.2259	-7.896335	0.000410	4.095152	0.693737	0.000041
 226	2.2387e+01	2.2353	-7.856823	0.000397	3.972297	0.672925	0.000040
 227	2.2487e+01	2.2428	-7.816089	0.000410	4.095152	0.693737	0.000041
 228	2.2587e+01	2.2544	-7.778613	0.000377	3.767540	0.638238	0.000038
 229	2.2686e+01	2.2654	-7.738286	0.000405	4.054200	0.686800	0.000041
 230	2.2785e+01	2.2756	-7.699996	0.000385	3.849443	0.652113	0.000038
 231	2.2885e+01	2.2858	-7.660891	0.000393	3.931346	0.665988	0.000039
 232	2.2985e+01	2.2916	-7.623823	0.000373	3.726588	0.631301	0.000037
 233	2.3084e+01	2.3040	-7.589199	0.000348	3.480879	0.589677	0.000035
 234	2.3183e+01	2.3099	-7.554168	0.000352	3.521830	0.596614	0.000035
 235	2.3283e+01	2.3233	-7.517914	0.000364	3.644685	0.617426	0.000036
 236	2.3383e+01	2.3340	-7.477587	0.000405	4.054200	0.686800	0.000041
 237	2.3482e+01	2.3433	-7.438075	0.000397	3.972297	0.672925	0.000040
 238	2.3581e+01	2.3558	-7.401822	0.000364	3.644685	0.617426	0.000036
 239	2.3681e+01	2.3658	-7.366790	0.000352	3.521830	0.596614	0.000035
 240	2.3780e+01	2.3744	-7.326870	0.000401	4.013249	0.679863	0.000040
 241	2.3880e+01	2.3852	-7.293061	0.000340	3.398976	0.575802	0.000034
 242	2.3980e+01	2.3922	-7.260474	0.000328	3.276121	0.554990	0.000033
 243	2.4079e+01	2.4063	-7.219739	0.000410	4.095152	0.693737	0.000041
 244	2.4178e+01	2.4148	-7.183893	0.000360	3.603734	0.610489	0.000036
 245	2.4278e+01	2.4229	-7.145196	0.000389	3.890394	0.659051	0.000039
 246	2.4378e+01	2.4336	-7.108942	0.000364	3.644685	0.617426	0.000036
 247	2.4477e+01	2.4427	-7.074725	0.000344	3.439927	0.582739	0.000034
 248	2.4576e+01	2.4534	-7.034399	0.000405	4.054200	0.686800	0.000041
 249	2.4676e+01	2.4630	-7.001404	0.000332	3.317073	0.561927	0.000033
 250	2.4776e+01	2.4751	-6.960670	0.000410	4.095152	0.693737	0.000041
 251	2.4875e+01	2.4839	-6.922787	0.000381	3.808491	0.645176	0.000038
 252	2.4974e+01	2.4920	-6.886941	0.000360	3.603734	0.610489	0.000036
 253	2.5074e+01	2.5026	-6.847836	0.000393	3.931346	0.665988	0.000039
 254	2.5174e+01	2.5111	-6.809953	0.000381	3.808491	0.645176	0.000038
 255	2.5273e+01	2.5237	-6.770441	0.000397	3.972297	0.672925	0.000040
 256	2.5372e+01	2.5317	-6.735002	0.000356	3.562782	0.603552	0.000036
 257	2.5472e+01	2.5439	-6.698748	0.000364	3.644685	0.617426	0.000036
 258	2.5572e+01	2.5530	-6.658014	0.000410	4.095152	0.693737	0.000041
 259	2.5671e+01	2.5605	-6.618502	0.000397	3.972297	0.672925	0.000040
 260	2.5770e+01	2.5723	-6.583470	0.000352	3.521830	0.596614	0.000035
 261	2.5870e+01	2.5803	-6.542329	0.000414	4.136103	0.700675	0.000041
 262	2.5970e+01	2.5929	-6.508927	0.000336	3.358024	0.568865	0.000034
 263	2.6069e+01	2.6028	-6.467378	0.000418	4.177055	0.707612	0.000042
 264	2.6169e+01	2.6134	-6.432754	0.000348	3.480879	0.589677	0.000035
 265	2.6268e+01	2.6228	-6.393241	0.000397	3.972297	0.672925	0.000040
 266	2.6367e+01	2.6327	-6.351692	0.000418	4.177055	0.707612	0.000042
 267	2.6467e+01	2.6437	-6.316661	0.000352	3.521830	0.596614	0.000035
 268	2.6567e+01	2.6527	-6.279593	0.000373	3.726588	0.631301	0.000037
 269	2.6666e+01	2.6606	-6.238044	0.000418	4.177055	0.707612	0.000042
 270	2.6765e+01	2.6727	-6.201790	0.000364	3.644685	0.617426	0.000036
 271	2.6865e+01	2.6829	-6.166759	0.000352	3.521830	0.596614	0.000035
 272	2.6965e+01	2.6913	-6.123581	0.000434	4.340861	0.735362	0.000043
 273	2.7064e+01	2.7019	-6.088549	0.000352	3.521830	0.596614	0.000035
 274	2.7163e+01	2.7113	-6.050259	0.000385	3.849443	0.652113	0.000038
 275	2.7263e+01	2.7225	-6.013191	0.000373	3.726588	0.631301	0.000037
 276	2.7363e+01	2.7303	-5.972049	0.000414	4.136103	0.700675	0.000041
 277	2.7462e+01	2.7407	-5.934166	0.000381	3.808491	0.645176	0.000038
 278	2.7561e+01	2.7515	-5.898320	0.000360	3.603734	0.610489	0.000036
 279	2.7661e+01	2.7612	-5.857993	0.000405	4.054200	0.686800	0.000041
 280	2.7761e+01	2.7719	-5.824591	0.000336	3.358024	0.568865	0.000034
 281	2.7860e+01	2.7826	-5.784672	0.000401	4.013249	0.679863	0.000040
 282	2.7959e+01	2.7903	-5.744345	0.000405	4.054200	0.686800	0.000041
 283	2.8059e+01	2.7985	-5.707276	0.000373	3.726588	0.631301	0.000037
 284	2.8159e+01	2.8130	-5.666950	0.000405	4.054200	0.686800	0.000041
 285	2.8258e+01	2.8222	-5.630696	0.000364	3.644685	0.617426	0.000036
 286	2.8358e+01	2.8316	-5.591591	0.000393	3.931346	0.665988	0.000039
 287	2.8457e+01	2.8429	-5.551672	0.000401	4.013249	0.679863	0.000040
 288	2.8556e+01	2.8499	-5.510530	0.000414	4.136103	0.700675	0.000041
 289	2.8656e+01	2.8589	-5.473869	0.000369	3.685637	0.624364	0.000037
 290	2.8756e+01	2.8706	-5.438430	0.000356	3.562782	0.603552	0.000036
 291	2.8855e+01	2.8807	-5.404214	0.000344	3.439927	0.582739	0.000034
 292	2.8954e+01	2.8915	-5.365516	0.000389	3.890394	0.659051	0.000039
 293	2.9054e+01	2.9005	-5.331299	0.000344	3.439927	0.582739	0.000034
 294	2.9154e+01	2.9110	-5.288528	0.000430	4.299909	0.728424	0.000043
 295	2.9253e+01	2.9202	-5.257163	0.000315	3.153267	0.534178	0.000032
 296	2.9352e+01	2.9288	-5.218465	0.000389	3.890394	0.659051	0.000039
 297	2.9452e+01	2.9417	-5.183027	0.000356	3.562782	0.603552	0.000036
 298	2.9552e+01	2.9501	-5.146366	0.000369	3.685637	0.624364	0.000037
 299	2.9651e+01	2.9607	-5.106039	0.000405	4.054200	0.686800	0.000041
 300	2.9750e+01	2.9723	-5.070600	0.000356	3.562782	0.603552	0.000036
 301	2.9850e+01	2.9806	-5.035569	0.000352	3.521830	0.596614	0.000035
 302	2.9950e+01	2.9947	-5.004203	0.000315	3.153267	0.534178	0.000032
 303	3.0049e+01	3.0007	-4.962247	0.000422	4.218006	0.714550	0.000042
 304	3.0148e+01	3.0107	-4.925993	0.000364	3.644685	0.617426	0.000036
 305	3.0248e+01	3.0201	-4.892999	0.000332	3.317073	0.561927	0.000033
 306	3.0348e+01	3.0293	-4.856338	0.000369	3.685637	0.624364	0.000037
 307	3.0447e+01	3.0398	-4.819677	0.000369	3.685637	0.624364	0.000037
 308	3.0547e+01	3.0505	-4.783831	0.000360	3.603734	0.610489	0.000036
 309	3.0646e+01	3.0626	-4.743097	0.000410	4.095152	0.693737	0.000041
 310	3.0745e+01	3.0715	-4.710917	0.000324	3.235170	0.548053	0.000032
 311	3.0845e+01	3.0819	-4.668553	0.000426	4.258958	0.721487	0.000043
 312	3.0945e+01	3.0906	-4.633929	0.000348	3.480879	0.589677	0.000035
 313	3.1044e+01	3.0993	-4.592380	0.000418	4.177055	0.707612	0.000042
 314	3.1143e+01	3.1118	-4.550016	0.000426	4.258958	0.721487	0.000043
 315	3.1243e+01	3.1194	-4.512948	0.000373	3.726588	0.631301	0.000037
 316	3.1343e+01	3.1317	-4.472621	0.000405	4.054200	0.686800	0.000041
 317	3.1442e+01	3.1418	-4.433516	0.000393	3.931346	0.665988	0.000039
 318	3.1541e+01	3.1528	-4.394819	0.000389	3.890394	0.659051	0.000039
 319	3.1641e+01	3.1606	-4.355307	0.000397	3.972297	0.672925	0.000040
 320	3.1741e+01	3.1744	-4.310906	0.000446	4.463715	0.756174	0.000045
 321	3.1840e+01	3.1788	-4.273838	0.000373	3.726588	0.631301	0.000037
 322	3.1939e+01	3.1896	-4.233918	0.000401	4.013249	0.679863	0.000040
 323	3.2039e+01	3.1991	-4.190740	0.000434	4.340861	0.735362	0.000043
 324	3.2139e+01	3.2085	-4.154487	0.000364	3.644685	0.617426	0.000036
 325	3.2238e+01	3.2205	-4.116604	0.000381	3.808491	0.645176	0.000038
 326	3.2337e+01	3.2317	-4.075055	0.000418	4.177055	0.707612	0.000042
 327	3.2437e+01	3.2425	-4.036357	0.000389	3.890394	0.659051	0.000039
 328	3.2536e+01	3.2506	-3.990735	0.000459	4.586570	0.776986	0.000046
 329	3.2636e+01	3.2599	-3.952445	0.000385	3.849443	0.652113	0.000038
 330	3.2736e+01	3.2716	-3.907637	0.000450	4.504667	0.763111	0.000045
 331	3.2835e+01	3.2794	-3.870569	0.000373	3.726588	0.631301	0.000037
 332	3.2934e+01	3.2904	-3.835945	0.000348	3.480879	0.589677	0.000035
 333	3.3034e+01	3.2980	-3.794803	0.000414	4.136103	0.700675	0.000041
 334	3.3133e+01	3.3097	-3.751625	0.000434	4.340861	0.735362	0.000043
 335	3.3233e+01	3.3197	-3.714557	0.000373	3.726588	0.631301	0.000037
 336	3.3333e+01	3.3279	-3.678303	0.000364	3.644685	0.617426	0.000036
 337	3.3432e+01	3.3396	-3.641235	0.000373	3.726588	0.631301	0.000037
 338	3.3532e+01	3.3505	-3.599686	0.000418	4.177055	0.707612	0.000042
 339	3.3631e+01	3.3615	-3.561803	0.000381	3.808491	0.645176	0.000038
 340	3.3730e+01	3.3673	-3.523920	0.000381	3.808491	0.645176	0.000038
 341	3.3830e+01	3.3785	-3.488074	0.000360	3.603734	0.610489	0.000036
 342	3.3929e+01	3.3903	-3.448969	0.000393	3.931346	0.665988	0.000039
 343	3.4029e+01	3.3991	-3.407828	0.000414	4.136103	0.700675	0.000041
 344	3.4129e+01	3.4115	-3.372796	0.000352	3.521830	0.596614	0.000035
 345	3.4228e+01	3.4187	-3.333691	0.000393	3.931346	0.665988	0.000039
 346	3.4328e+01	3.4313	-3.296623	0.000373	3.726588	0.631301	0.000037
 347	3.4427e+01	3.4417	-3.256296	0.000405	4.054200	0.686800	0.000041
 348	3.4526e+01	3.4490	-3.217599	0.000389	3.890394	0.659051	0.000039
 349	3.4626e+01	3.4573	-3.181345	0.000364	3.644685	0.617426	0.000036
 350	3.4725e+01	3.4676	-3.142240	0.000393	3.931346	0.665988	0.000039
 351	3.4825e+01	3.4781	-3.103950	0.000385	3.849443	0.652113	0.000038
 352	3.4925e+01	3.4893	-3.066067	0.000381	3.808491	0.645176	0.000038
 353	3.5024e+01	3.4977	-3.030629	0.000356	3.562782	0.603552	0.000036
 354	3.5123e+01	3.5070	-2.991931	0.000389	3.890394	0.659051	0.000039
 355	3.5223e+01	3.5177	-2.955678	0.000364	3.644685	0.617426	0.000036
 356	3.5322e+01	3.5303	-2.919017	0.000369	3.685637	0.624364	0.000037
 357	3.5422e+01	3.5390	-2.883578	0.000356	3.562782	0.603552	0.000036
 358	3.5522e+01	3.5475	-2.840400	0.000434	4.340861	0.735362	0.000043
 359	3.5621e+01	3.5580	-2.805368	0.000352	3.521830	0.596614	0.000035
 360	3.5721e+01	3.5675	-2.765856	0.000397	3.972297	0.672925	0.000040
 361	3.5820e+01	3.5780	-2.731232	0.000348	3.480879	0.589677	0.000035
 362	3.5919e+01	3.5903	-2.692534	0.000389	3.890394	0.659051	0.000039
 363	3.6019e+01	3.5994	-2.655873	0.000369	3.685637	0.624364	0.000037
 364	3.6118e+01	3.6078	-2.619213	0.000369	3.685637	0.624364	0.000037
 365	3.6218e+01	3.6178	-2.576442	0.000430	4.299909	0.728424	0.000043
 366	3.6318e+01	3.6321	-2.542632	0.000340	3.398976	0.575802	0.000034
 367	3.6417e+01	3.6375	-2.510452	0.000324	3.235170	0.548053	0.000032
 368	3.6517e+01	3.6459	-2.470125	0.000405	4.054200	0.686800	0.000041
 369	3.6616e+01	3.6572	-2.435094	0.000352	3.521830	0.596614	0.000035
 370	3.6715e+01	3.6678	-2.398026	0.000373	3.726588	0.631301	0.000037
 371	3.6815e+01	3.6810	-2.365438	0.000328	3.276121	0.554990	0.000033
 372	3.6914e+01	3.6890	-2.326333	0.000393	3.931346	0.665988	0.000039
 373	3.7014e+01	3.6953	-2.288450	0.000381	3.808491	0.645176	0.000038
 374	3.7114e+01	3.7072	-2.248124	0.000405	4.054200	0.686800	0.000041
 375	3.7213e+01	3.7177	-2.213092	0.000352	3.521830	0.596614	0.000035
 376	3.7313e+01	3.7249	-2.173580	0.000397	3.972297	0.672925	0.000040
 377	3.7412e+01	3.7385	-2.135290	0.000385	3.849443	0.652113	0.000038
 378	3.7511e+01	3.7466	-2.096185	0.000393	3.931346	0.665988	0.000039
 379	3.7611e+01	3.7563	-2.055451	0.000410	4.095152	0.693737	0.000041
 380	3.7711e+01	3.7687	-2.021234	0.000344	3.439927	0.582739	0.000034
 381	3.7810e+01	3.7761	-1.982536	0.000389	3.890394	0.659051	0.000039
 382	3.7910e+01	3.7879	-1.949134	0.000336	3.358024	0.568865	0.000034
 383	3.8009e+01	3.7972	-1.908807	0.000405	4.054200	0.686800	0.000041
 384	3.8108e+01	3.8065	-1.870924	0.000381	3.808491	0.645176	0.000038
 385	3.8208e+01	3.8194	-1.833449	0.000377	3.767540	0.638238	0.000038
 386	3.8307e+01	3.8276	-1.793529	0.000401	4.013249	0.679863	0.000040
 387	3.8407e+01	3.8366	-1.756461	0.000373	3.726588	0.631301	0.000037
 388	3.8507e+01	3.8479	-1.722244	0.000344	3.439927	0.582739	0.000034
 389	3.8606e+01	3.8557	-1.679881	0.000426	4.258958	0.721487	0.000043
 390	3.8706e+01	3.8641	-1.640776	0.000393	3.931346	0.665988	0.000039
 391	3.8805e+01	3.8776	-1.603708	0.000373	3.726588	0.631301	0.000037
 392	3.8904e+01	3.8870	-1.565825	0.000381	3.808491	0.645176	0.000038
 393	3.9004e+01	3.8947	-1.529979	0.000360	3.603734	0.610489	0.000036
 394	3.9103e+01	3.9059	-1.490874	0.000393	3.931346	0.665988	0.000039
 395	3.9203e+01	3.9185	-1.454213	0.000369	3.685637	0.624364	0.000037
 396	3.9303e+01	3.9248	-1.419996	0.000344	3.439927	0.582739	0.000034
 397	3.9402e+01	3.9359	-1.387816	0.000324	3.235170	0.548053	0.000032
 398	3.9502e+01	3.9442	-1.352785	0.000352	3.521830	0.596614	0.000035
 399	3.9601e+01	3.9539	-1.315309	0.000377	3.767540	0.638238	0.000038
 400	3.9700e+01	3.9661	-1.282722	0.000328	3.276121	0.554990	0.000033
 401	3.9800e+01	3.9739	-1.249320	0.000336	3.358024	0.568865	0.000034
 402	3.9900e+01	3.9852	-1.215103	0.000344	3.439927	0.582739	0.000034
 403	3.9999e+01	3.9942	-1.184145	0.000311	3.112315	0.527240	0.000031
 404	4.0099e+01	4.0034	-1.151965	0.000324	3.235170	0.548053	0.000032
 405	4.0198e+01	4.0151	-1.116933	0.000352	3.521830	0.596614	0.000035
 406	4.0297e+01	4.0246	-1.083531	0.000336	3.358024	0.568865	0.000034
 407	4.0397e+01	4.0318	-1.048907	0.000348	3.480879	0.589677	0.000035
 408	4.0496e+01	4.0451	-1.015912	0.000332	3.317073	0.561927	0.000033
 409	4.0596e+01	4.0553	-0.984954	0.000311	3.112315	0.527240	0.000031
 410	4.0696e+01	4.0649	-0.949923	0.000352	3.521830	0.596614	0.000035
 411	4.0795e+01	4.0732	-0.915706	0.000344	3.439927	0.582739	0.000034
 412	4.0895e+01	4.0899	-0.883526	0.000324	3.235170	0.548053	0.000032
 413	4.0994e+01	4.0939	-0.851753	0.000319	3.194218	0.541115	0.000032
 414	4.1093e+01	4.1054	-0.817537	0.000344	3.439927	0.582739	0.000034
 415	4.1193e+01	4.1134	-0.784949	0.000328	3.276121	0.554990	0.000033
 416	4.1292e+01	4.1259	-0.753584	0.000315	3.153267	0.534178	0.000032
 417	4.1392e+01	4.1323	-0.716923	0.000369	3.685637	0.624364	0.000037
 418	4.1492e+01	4.1451	-0.686780	0.000303	3.030412	0.513366	0.000030
 419	4.1591e+01	4.1559	-0.652563	0.000344	3.439927	0.582739	0.000034
 420	4.1691e+01	4.1625	-0.615495	0.000373	3.726588	0.631301	0.000037
 421	4.1790e+01	4.1797	-0.580056	0.000356	3.562782	0.603552	0.000036
 422	4.1889e+01	4.1862	-0.547468	0.000328	3.276121	0.554990	0.000033
 423	4.1989e+01	4.1953	-0.509993	0.000377	3.767540	0.638238	0.000038
 424	4.2089e+01	4.2046	-0.479035	0.000311	3.112315	0.527240	0.000031
 425	4.2188e+01	4.2137	-0.444818	0.000344	3.439927	0.582739	0.000034
 426	4.2288e+01	4.2284	-0.405713	0.000393	3.931346	0.665988	0.000039
 427	4.2387e+01	4.2341	-0.373126	0.000328	3.276121	0.554990	0.000033
 428	4.2486e+01	4.2457	-0.337687	0.000356	3.562782	0.603552	0.000036
 429	4.2586e+01	4.2550	-0.303063	0.000348	3.480879	0.589677	0.000035
 430	4.2685e+01	4.2657	-0.271290	0.000319	3.194218	0.541115	0.000032
 431	4.2785e+01	4.2773	-0.236666	0.000348	3.480879	0.589677	0.000035
 432	4.2885e+01	4.2812	-0.202449	0.000344	3.439927	0.582739	0.000034
 433	4.2984e+01	4.2944	-0.168640	0.000340	3.398976	0.575802	0.000034
 434	4.3084e+01	4.3066	-0.131979	0.000369	3.685637	0.624364	0.000037
 435	4.3183e+01	4.3125	-0.097355	0.000348	3.480879	0.589677	0.000035
 436	4.3282e+01	4.3259	-0.063545	0.000340	3.398976	0.575802	0.000034
 437	4.3382e+01	4.3346	-0.026477	0.000373	3.726588	0.631301	0.000037
 438	4.3481e+01	4.3447	0.006517	0.000332	3.317073	0.561927	0.000033
 439	4.3581e+01	4.3529	0.041142	0.000348	3.480879	0.589677	0.000035
 440	4.3681e+01	4.3646	0.076173	0.000352	3.521830	0.596614	0.000035
 441	4.3780e+01	4.3732	0.113649	0.000377	3.767540	0.638238	0.000038
 442	4.3880e+01	4.3837	0.145014	0.000315	3.153267	0.534178	0.000032
 443	4.3979e+01	4.3938	0.179638	0.000348	3.480879	0.589677	0.000035
 444	4.4078e+01	4.4038	0.215484	0.000360	3.603734	0.610489	0.000036
 445	4.4178e+01	4.4160	0.246850	0.000315	3.153267	0.534178	0.000032
 446	4.4278e+01	4.4217	0.282288	0.000356	3.562782	0.603552	0.000036
 447	4.4377e+01	4.4344	0.313654	0.000315	3.153267	0.534178	0.000032
 448	4.4477e+01	4.4424	0.354388	0.000410	4.095152	0.693737	0.000041
 449	4.4576e+01	4.4546	0.386568	0.000324	3.235170	0.548053	0.000032
 450	4.4675e+01	4.4627	0.422414	0.000360	3.603734	0.610489	0.000036
 451	4.4775e+01	4.4741	0.458260	0.000360	3.603734	0.610489	0.000036
 452	4.4874e+01	4.4801	0.492070	0.000340	3.398976	0.575802	0.000034
 453	4.4974e+01	4.4933	0.525065	0.000332	3.317073	0.561927	0.000033
 454	4.5074e+01	4.5031	0.564984	0.000401	4.013249	0.679863	0.000040
 455	4.5173e+01	4.5130	0.598386	0.000336	3.358024	0.568865	0.000034
 456	4.5273e+01	4.5254	0.630974	0.000328	3.276121	0.554990	0.000033
 457	4.5372e+01	4.5324	0.664376	0.000336	3.358024	0.568865	0.000034
 458	4.5471e+01	4.5427	0.697370	0.000332	3.317073	0.561927	0.000033
 459	4.5571e+01	4.5548	0.729958	0.000328	3.276121	0.554990	0.000033
 460	4.5670e+01	4.5625	0.760509	0.000307	3.071364	0.520303	0.000031
 461	4.5770e+01	4.5739	0.795133	0.000348	3.480879	0.589677	0.000035
 462	4.5870e+01	4.5831	0.830164	0.000352	3.521830	0.596614	0.000035
 463	4.5969e+01	4.5938	0.858271	0.000283	2.825655	0.478679	0.000028
 464	4.6069e+01	4.6026	0.894524	0.000364	3.644685	0.617426	0.000036
 465	4.6168e+01	4.6120	0.927519	0.000332	3.317073	0.561927	0.000033
 466	4.6267e+01	4.6236	0.959699	0.000324	3.235170	0.548053	0.000032
 467	4.6367e+01	4.6342	0.993916	0.000344	3.439927	0.582739	0.000034
 468	4.6467e+01	4.6435	1.026503	0.000328	3.276121	0.554990	0.000033
 469	4.6566e+01	4.6520	1.060720	0.000344	3.439927	0.582739	0.000034
 470	4.6666e+01	4.6648	1.094122	0.000336	3.358024	0.568865	0.000034
 471	4.6765e+01	4.6735	1.124265	0.000303	3.030412	0.513366	0.000030
 472	4.6864e+01	4.6832	1.154816	0.000307	3.071364	0.520303	0.000031
 473	4.6964e+01	4.6935	1.190662	0.000360	3.603734	0.610489	0.000036
 474	4.7063e+01	4.7020	1.222028	0.000315	3.153267	0.534178	0.000032
 475	4.7163e+01	4.7134	1.255022	0.000332	3.317073	0.561927	0.000033
 476	4.7263e+01	4.7250	1.293720	0.000389	3.890394	0.659051	0.000039
 477	4.7362e+01	4.7332	1.322641	0.000291	2.907558	0.492554	0.000029
 478	4.7462e+01	4.7395	1.355229	0.000328	3.276121	0.554990	0.000033
 479	4.7561e+01	4.7503	1.390260	0.000352	3.521830	0.596614	0.000035
 480	4.7660e+01	4.7607	1.425699	0.000356	3.562782	0.603552	0.000036
 481	4.7760e+01	4.7718	1.463174	0.000377	3.767540	0.638238	0.000038
 482	4.7859e+01	4.7807	1.499835	0.000369	3.685637	0.624364	0.000037
 483	4.7959e+01	4.7915	1.536496	0.000369	3.685637	0.624364	0.000037
 484	4.8059e+01	4.8012	1.574786	0.000385	3.849443	0.652113	0.000038
 485	4.8158e+01	4.8122	1.609818	0.000352	3.521830	0.596614	0.000035
 486	4.8258e+01	4.8232	1.643627	0.000340	3.398976	0.575802	0.000034
 487	4.8357e+01	4.8321	1.683547	0.000401	4.013249	0.679863	0.000040
 488	4.8456e+01	4.8397	1.719800	0.000364	3.644685	0.617426	0.000036
 489	4.8556e+01	4.8548	1.752795	0.000332	3.317073	0.561927	0.000033
 490	4.8656e+01	4.8626	1.788641	0.000360	3.603734	0.610489	0.000036
 491	4.8755e+01	4.8723	1.828561	0.000401	4.013249	0.679863	0.000040
 492	4.8855e+01	4.8817	1.862370	0.000340	3.398976	0.575802	0.000034
 493	4.8954e+01	4.8899	1.899031	0.000369	3.685637	0.624364	0.000037
 494	4.9053e+01	4.8991	1.936506	0.000377	3.767540	0.638238	0.000038
 495	4.9153e+01	4.9097	1.974389	0.000381	3.808491	0.645176	0.000038
 496	4.9252e+01	4.9230	2.011865	0.000377	3.767540	0.638238	0.000038
 497	4.9352e+01	4.9320	2.043638	0.000319	3.194218	0.541115	0.000032
 498	4.9452e+01	4.9407	2.085187	0.000418	4.177055	0.707612	0.000042
 499	4.9551e+01	4.9490	2.121033	0.000360	3.603734	0.610489	0.000036
 500	4.9651e+01	4.9603	2.158101	0.000373	3.726588	0.631301	0.000037
 501	4.9750e+01	4.9709	2.191503	0.000336	3.358024	0.568865	0.000034
 502	4.9849e+01	4.9818	2.226942	0.000356	3.562782	0.603552	0.000036
 503	4.9949e+01	4.9951	2.261973	0.000352	3.521830	0.596614	0.000035
 504	5.0048e+01	5.0004	2.295783	0.000340	3.398976	0.575802	0.000034
 505	5.0148e+01	5.0109	2.329185	0.000336	3.358024	0.568865	0.000034
 506	5.0248e+01	5.0197	2.366660	0.000377	3.767540	0.638238	0.000038
 507	5.0347e+01	5.0303	2.398840	0.000324	3.235170	0.548053	0.000032
 508	5.0447e+01	5.0382	2.434686	0.000360	3.603734	0.610489	0.000036
 509	5.0546e+01	5.0490	2.467681	0.000332	3.317073	0.561927	0.000033
 510	5.0645e+01	5.0599	2.503120	0.000356	3.562782	0.603552	0.000036
 511	5.0745e+01	5.0698	2.538559	0.000356	3.562782	0.603552	0.000036
 512	5.0844e+01	5.0797	2.568702	0.000303	3.030412	0.513366	0.000030
 513	5.0944e+01	5.0903	2.603734	0.000352	3.521830	0.596614	0.000035
 514	5.1044e+01	5.0991	2.644061	0.000405	4.054200	0.686800	0.000041
 515	5.1143e+01	5.1133	2.674204	0.000303	3.030412	0.513366	0.000030
 516	5.1242e+01	5.1196	2.712087	0.000381	3.808491	0.645176	0.000038
 517	5.1342e+01	5.1299	2.747933	0.000360	3.603734	0.610489	0.000036
 518	5.1441e+01	5.1368	2.778891	0.000311	3.112315	0.527240	0.000031
 519	5.1541e+01	5.1521	2.814737	0.000360	3.603734	0.610489	0.000036
 520	5.1641e+01	5.1589	2.846510	0.000319	3.194218	0.541115	0.000032
 521	5.1740e+01	5.1687	2.882356	0.000360	3.603734	0.610489	0.000036
 522	5.1840e+01	5.1768	2.915758	0.000336	3.358024	0.568865	0.000034
 523	5.1939e+01	5.1867	2.948753	0.000332	3.317073	0.561927	0.000033
 524	5.2038e+01	5.1984	2.986636	0.000381	3.808491	0.645176	0.000038
 525	5.2138e+01	5.2090	3.015964	0.000295	2.948509	0.499491	0.000029
 526	5.2237e+01	5.2201	3.051810	0.000360	3.603734	0.610489	0.000036
 527	5.2337e+01	5.2309	3.085212	0.000336	3.358024	0.568865	0.000034
 528	5.2437e+01	5.2409	3.120651	0.000356	3.562782	0.603552	0.000036
 529	5.2536e+01	5.2505	3.156905	0.000364	3.644685	0.617426	0.000036
 530	5.2636e+01	5.2578	3.187863	0.000311	3.112315	0.527240	0.000031
 531	5.2735e+01	5.2682	3.227375	0.000397	3.972297	0.672925	0.000040
 532	5.2834e+01	5.2792	3.253038	0.000258	2.579946	0.437055	0.000026
 533	5.2934e+01	5.2901	3.288476	0.000356	3.562782	0.603552	0.000036
 534	5.3033e+01	5.2991	3.320249	0.000319	3.194218	0.541115	0.000032
 535	5.3133e+01	5.3078	3.354466	0.000344	3.439927	0.582739	0.000034
 536	5.3233e+01	5.3201	3.388275	0.000340	3.398976	0.575802	0.000034
 537	5.3332e+01	5.3277	3.416382	0.000283	2.825655	0.478679	0.000028
 538	5.3431e+01	5.3418	3.451413	0.000352	3.521830	0.596614	0.000035
 539	5.3531e+01	5.3497	3.484408	0.000332	3.317073	0.561927	0.000033
 540	5.3630e+01	5.3580	3.517403	0.000332	3.317073	0.561927	0.000033
 541	5.3730e+01	5.3677	3.550805	0.000336	3.358024	0.568865	0.000034
 542	5.3830e+01	5.3764	3.587466	0.000369	3.685637	0.624364	0.000037
 543	5.3929e+01	5.3881	3.625756	0.000385	3.849443	0.652113	0.000038
 544	5.4029e+01	5.3964	3.656714	0.000311	3.112315	0.527240	0.000031
 545	5.4128e+01	5.4079	3.690931	0.000344	3.439927	0.582739	0.000034
 546	5.4227e+01	5.4183	3.727999	0.000373	3.726588	0.631301	0.000037
 547	5.4327e+01	5.4300	3.763438	0.000356	3.562782	0.603552	0.000036
 548	5.4426e+01	5.4405	3.797655	0.000344	3.439927	0.582739	0.000034
 549	5.4526e+01	5.4505	3.831057	0.000336	3.358024	0.568865	0.000034
 550	5.4626e+01	5.4565	3.864051	0.000332	3.317073	0.561927	0.000033
 551	5.4725e+01	5.4671	3.900712	0.000369	3.685637	0.624364	0.000037
 552	5.4825e+01	5.4786	3.933300	0.000328	3.276121	0.554990	0.000033
 553	5.4924e+01	5.4894	3.970368	0.000373	3.726588	0.631301	0.000037
 554	5.5023e+01	5.4979	4.003770	0.000336	3.358024	0.568865	0.000034
 555	5.5123e+01	5.5108	4.044912	0.000414	4.136103	0.700675	0.000041
 556	5.5222e+01	5.5158	4.075870	0.000311	3.112315	0.527240	0.000031
 557	5.5322e+01	5.5290	4.110086	0.000344	3.439927	0.582739	0.000034
 558	5.5422e+01	5.5392	4.143081	0.000332	3.317073	0.561927	0.000033
 559	5.5521e+01	5.5467	4.178520	0.000356	3.562782	0.603552	0.000036
 560	5.5620e+01	5.5590	4.210293	0.000319	3.194218	0.541115	0.000032
 561	5.5720e+01	5.5698	4.242473	0.000324	3.235170	0.548053	0.000032
 562	5.5819e+01	5.5787	4.279134	0.000369	3.685637	0.624364	0.000037
 563	5.5919e+01	5.5883	4.308055	0.000291	2.907558	0.492554	0.000029
 564	5.6019e+01	5.5976	4.340235	0.000324	3.235170	0.548053	0.000032
 565	5.6118e+01	5.6084	4.372008	0.000319	3.194218	0.541115	0.000032
 566	5.6218e+01	5.6207	4.404188	0.000324	3.235170	0.548053	0.000032
 567	5.6317e+01	5.6295	4.436368	0.000324	3.235170	0.548053	0.000032
 568	5.6416e+01	5.6387	4.464882	0.000287	2.866606	0.485616	0.000029
 569	5.6516e+01	5.6498	4.492988	0.000283	2.825655	0.478679	0.000028
 570	5.6615e+01	5.6565	4.522317	0.000295	2.948509	0.499491	0.000029
 571	5.6715e+01	5.6701	4.552460	0.000303	3.030412	0.513366	0.000030
 572	5.6815e+01	5.6808	4.583826	0.000315	3.153267	0.534178	0.000032
 573	5.6914e+01	5.6873	4.615191	0.000315	3.153267	0.534178	0.000032
 574	5.7014e+01	5.6973	4.643705	0.000287	2.866606	0.485616	0.000029
 575	5.7113e+01	5.7040	4.672626	0.000291	2.907558	0.492554	0.000029
 576	5.7212e+01	5.7173	4.707658	0.000352	3.521830	0.596614	0.000035
 577	5.7312e+01	5.7261	4.734950	0.000274	2.743752	0.464804	0.000027
 578	5.7411e+01	5.7343	4.765093	0.000303	3.030412	0.513366	0.000030
 579	5.7511e+01	5.7468	4.794829	0.000299	2.989461	0.506428	0.000030
 580	5.7611e+01	5.7552	4.820899	0.000262	2.620897	0.443992	0.000026
 581	5.7710e+01	5.7659	4.853079	0.000324	3.235170	0.548053	0.000032
 582	5.7809e+01	5.7777	4.882815	0.000299	2.989461	0.506428	0.000030
 583	5.7909e+01	5.7874	4.910107	0.000274	2.743752	0.464804	0.000027
 584	5.8008e+01	5.7973	4.944324	0.000344	3.439927	0.582739	0.000034
 585	5.8108e+01	5.8071	4.972838	0.000287	2.866606	0.485616	0.000029
 586	5.8208e+01	5.8195	5.004203	0.000315	3.153267	0.534178	0.000032
 587	5.8307e+01	5.8269	5.033532	0.000295	2.948509	0.499491	0.000029
 588	5.8407e+01	5.8360	5.065712	0.000324	3.235170	0.548053	0.000032
 589	5.8506e+01	5.8470	5.099114	0.000336	3.358024	0.568865	0.000034
 590	5.8605e+01	5.8566	5.131294	0.000324	3.235170	0.548053	0.000032
 591	5.8705e+01	5.8669	5.160623	0.000295	2.948509	0.499491	0.000029
 592	5.8804e+01	5.8752	5.189951	0.000295	2.948509	0.499491	0.000029
 593	5.8904e+01	5.8853	5.222132	0.000324	3.235170	0.548053	0.000032
 594	5.9004e+01	5.8965	5.254312	0.000324	3.235170	0.548053	0.000032
 595	5.9103e+01	5.9046	5.283640	0.000295	2.948509	0.499491	0.000029
 596	5.9203e+01	5.9145	5.316635	0.000332	3.317073	0.561927	0.000033
 597	5.9302e+01	5.9315	5.347186	0.000307	3.071364	0.520303	0.000031
 598	5.9401e+01	5.9344	5.380180	0.000332	3.317073	0.561927	0.000033
 599	5.9501e+01	5.9451	5.412360	0.000324	3.235170	0.548053	0.000032
 600	5.9600e+01	5.9563	5.441282	0.000291	2.907558	0.492554	0.000029
 601	5.9700e+01	5.9664	5.471425	0.000303	3.030412	0.513366	0.000030
 602	5.9800e+01	5.9763	5.503198	0.000319	3.194218	0.541115	0.000032
 603	5.9899e+01	5.9832	5.537822	0.000348	3.480879	0.589677	0.000035
 604	5.9998e+01	5.9952	5.565114	0.000274	2.743752	0.464804	0.000027
 605	6.0098e+01	6.0088	5.595257	0.000303	3.030412	0.513366	0.000030
 606	6.0197e+01	6.0159	5.629067	0.000340	3.398976	0.575802	0.000034
 607	6.0297e+01	6.0267	5.660025	0.000311	3.112315	0.527240	0.000031
 608	6.0397e+01	6.0372	5.688131	0.000283	2.825655	0.478679	0.000028
 609	6.0496e+01	6.0479	5.725607	0.000377	3.767540	0.638238	0.000038
 610	6.0596e+01	6.0543	5.753306	0.000278	2.784703	0.471741	0.000028
 611	6.0695e+01	6.0665	5.782635	0.000295	2.948509	0.499491	0.000029
 612	6.0794e+01	6.0752	5.815222	0.000328	3.276121	0.554990	0.000033
 613	6.0894e+01	6.0856	5.849032	0.000340	3.398976	0.575802	0.000034
 614	6.0993e+01	6.0955	5.876731	0.000278	2.784703	0.471741	0.000028
 615	6.1093e+01	6.1036	5.906467	0.000299	2.989461	0.506428	0.000030
 616	6.1193e+01	6.1129	5.938647	0.000324	3.235170	0.548053	0.000032
 617	6.1292e+01	6.1236	5.972456	0.000340	3.398976	0.575802	0.000034
 618	6.1392e+01	6.1381	6.005451	0.000332	3.317073	0.561927	0.000033
 619	6.1491e+01	6.1459	6.036817	0.000315	3.153267	0.534178	0.000032
 620	6.1590e+01	6.1551	6.068589	0.000319	3.194218	0.541115	0.000032
 621	6.1690e+01	6.1645	6.100769	0.000324	3.235170	0.548053	0.000032
 622	6.1789e+01	6.1729	6.132135	0.000315	3.153267	0.534178	0.000032
 623	6.1889e+01	6.1842	6.162685	0.000307	3.071364	0.520303	0.000031
 624	6.1989e+01	6.1964	6.195273	0.000328	3.276121	0.554990	0.000033
 625	6.2088e+01	6.2022	6.222157	0.000270	2.702800	0.457867	0.000027
 626	6.2188e+01	6.2156	6.255152	0.000332	3.317073	0.561927	0.000033
 627	6.2287e+01	6.2249	6.284481	0.000295	2.948509	0.499491	0.000029
 628	6.2386e+01	6.2348	6.310551	0.000262	2.620897	0.443992	0.000026
 629	6.2486e+01	6.2454	6.343138	0.000328	3.276121	0.554990	0.000033
 630	6.2586e+01	6.2539	6.368801	0.000258	2.579946	0.437055	0.000026
 631	6.2685e+01	6.2624	6.401388	0.000328	3.276121	0.554990	0.000033
 632	6.2785e+01	6.2740	6.428680	0.000274	2.743752	0.464804	0.000027
 633	6.2884e+01	6.2853	6.461675	0.000332	3.317073	0.561927	0.000033
 634	6.2983e+01	6.2940	6.490189	0.000287	2.866606	0.485616	0.000029
 635	6.3083e+01	6.3042	6.518296	0.000283	2.825655	0.478679	0.000028
 636	6.3182e+01	6.3140	6.552105	0.000340	3.398976	0.575802	0.000034
 637	6.3282e+01	6.3259	6.580212	0.000283	2.825655	0.478679	0.000028
 638	6.3382e+01	6.3342	6.607504	0.000274	2.743752	0.464804	0.000027
 639	6.3481e+01	6.3443	6.636425	0.000291	2.907558	0.492554	0.000029
 640	6.3581e+01	6.3546	6.664939	0.000287	2.866606	0.485616	0.000029
 641	6.3680e+01	6.3648	6.698748	0.000340	3.398976	0.575802	0.000034
 642	6.3779e+01	6.3743	6.723596	0.000250	2.498043	0.423180	0.000025
 643	6.3879e+01	6.3837	6.753740	0.000303	3.030412	0.513366	0.000030
 644	6.3978e+01	6.3937	6.783476	0.000299	2.989461	0.506428	0.000030
 645	6.4078e+01	6.4043	6.817285	0.000340	3.398976	0.575802	0.000034
 646	6.4177e+01	6.4140	6.849465	0.000324	3.235170	0.548053	0.000032
 647	6.4277e+01	6.4238	6.882867	0.000336	3.358024	0.568865	0.000034
 648	6.4376e+01	6.4339	6.913418	0.000307	3.071364	0.520303	0.000031
 649	6.4476e+01	6.4429	6.943154	0.000299	2.989461	0.506428	0.000030
 650	6.4576e+01	6.4539	6.977778	0.000348	3.480879	0.589677	0.000035
 651	6.4675e+01	6.4626	7.013217	0.000356	3.562782	0.603552	0.000036
 652	6.4775e+01	6.4724	7.044989	0.000319	3.194218	0.541115	0.000032
 653	6.4874e+01	6.4832	7.078799	0.000340	3.398976	0.575802	0.000034
 654	6.4974e+01	6.4910	7.110164	0.000315	3.153267	0.534178	0.000032
 655	6.5073e+01	6.5039	7.142344	0.000324	3.235170	0.548053	0.000032
 656	6.5172e+01	6.5112	7.178190	0.000360	3.603734	0.610489	0.000036
 657	6.5272e+01	6.5215	7.211593	0.000336	3.358024	0.568865	0.000034
 658	6.5371e+01	6.5319	7.242551	0.000311	3.112315	0.527240	0.000031
 659	6.5471e+01	6.5432	7.274731	0.000324	3.235170	0.548053	0.000032
 660	6.5570e+01	6.5514	7.310577	0.000360	3.603734	0.610489	0.000036
 661	6.5670e+01	6.5611	7.344386	0.000340	3.398976	0.575802	0.000034
 662	6.5769e+01	6.5735	7.382269	0.000381	3.808491	0.645176	0.000038
 663	6.5869e+01	6.5807	7.413634	0.000315	3.153267	0.534178	0.000032
 664	6.5969e+01	6.5931	7.445000	0.000315	3.153267	0.534178	0.000032
 665	6.6068e+01	6.6036	7.478809	0.000340	3.398976	0.575802	0.000034
 666	6.6168e+01	6.6110	7.512211	0.000336	3.358024	0.568865	0.000034
 667	6.6267e+01	6.6233	7.546021	0.000340	3.398976	0.575802	0.000034
 668	6.6367e+01	6.6290	7.575349	0.000295	2.948509	0.499491	0.000029
 669	6.6466e+01	6.6436	7.611603	0.000364	3.644685	0.617426	0.000036
 670	6.6566e+01	6.6531	7.641339	0.000299	2.989461	0.506428	0.000030
 671	6.6665e+01	6.6618	7.674741	0.000336	3.358024	0.568865	0.000034
 672	6.6764e+01	6.6720	7.705699	0.000311	3.112315	0.527240	0.000031
 673	6.6864e+01	6.6814	7.738694	0.000332	3.317073	0.561927	0.000033
 674	6.6963e+01	6.6929	7.764764	0.000262	2.620897	0.443992	0.000026
 675	6.7063e+01	6.7053	7.800203	0.000356	3.562782	0.603552	0.000036
 676	6.7162e+01	6.7120	7.831568	0.000315	3.153267	0.534178	0.000032
 677	6.7262e+01	6.7229	7.862526	0.000311	3.112315	0.527240	0.000031
 678	6.7362e+01	6.7327	7.894299	0.000319	3.194218	0.541115	0.000032
 679	6.7461e+01	6.7402	7.926071	0.000319	3.194218	0.541115	0.000032
 680	6.7561e+01	6.7510	7.957437	0.000315	3.153267	0.534178	0.000032
 681	6.7660e+01	6.7638	7.991246	0.000340	3.398976	0.575802	0.000034
 682	6.7760e+01	6.7727	8.024648	0.000336	3.358024	0.568865	0.000034
 683	6.7859e+01	6.7812	8.054792	0.000303	3.030412	0.513366	0.000030
 684	6.7959e+01	6.7900	8.085750	0.000311	3.112315	0.527240	0.000031
 685	6.8058e+01	6.7987	8.115078	0.000295	2.948509	0.499491	0.000029
 686	6.8157e+01	6.8116	8.148073	0.000332	3.317073	0.561927	0.000033
 687	6.8257e+01	6.8230	8.179031	0.000311	3.112315	0.527240	0.000031
 688	6.8356e+01	6.8320	8.207138	0.000283	2.825655	0.478679	0.000028
 689	6.8456e+01	6.8410	8.239725	0.000328	3.276121	0.554990	0.000033
 690	6.8555e+01	6.8501	8.269461	0.000299	2.989461	0.506428	0.000030
 691	6.8655e+01	6.8612	8.304085	0.000348	3.480879	0.589677	0.000035
 692	6.8754e+01	6.8691	8.334636	0.000307	3.071364	0.520303	0.000031
 693	6.8854e+01	6.8792	8.366001	0.000315	3.153267	0.534178	0.000032
 694	6.8954e+01	6.8905	8.392479	0.000266	2.661849	0.450929	0.000027
 695	6.9053e+01	6.8986	8.426288	0.000340	3.398976	0.575802	0.000034
 696	6.9153e+01	6.9106	8.458061	0.000319	3.194218	0.541115	0.000032
 697	6.9252e+01	6.9219	8.487797	0.000299	2.989461	0.506428	0.000030
 698	6.9352e+01	6.9279	8.521606	0.000340	3.398976	0.575802	0.000034
 699	6.9451e+01	6.9405	8.550527	0.000291	2.907558	0.492554	0.000029
 700	6.9550e+01	6.9508	8.581078	0.000307	3.071364	0.520303	0.000031
 701	6.9650e+01	6.9636	8.607963	0.000270	2.702800	0.457867	0.000027
 702	6.9749e+01	6.9680	8.641772	0.000340	3.398976	0.575802	0.000034
 703	6.9849e+01	6.9820	8.669879	0.000283	2.825655	0.478679	0.000028
 704	6.9948e+01	6.9903	8.701244	0.000315	3.153267	0.534178	0.000032
 705	7.0048e+01	6.9991	8.728536	0.000274	2.743752	0.464804	0.000027
 706	7.0147e+01	7.0119	8.758272	0.000299	2.989461	0.506428	0.000030
 707	7.0247e+01	7.0209	8.789230	0.000311	3.112315	0.527240	0.000031
 708	7.0347e+01	7.0300	8.817337	0.000283	2.825655	0.478679	0.000028
 709	7.0446e+01	7.0390	8.850739	0.000336	3.358024	0.568865	0.000034
 710	7.0546e+01	7.0516	8.884956	0.000344	3.439927	0.582739	0.000034
 711	7.0645e+01	7.0601	8.919580	0.000348	3.480879	0.589677	0.000035
 712	7.0745e+01	7.0703	8.949723	0.000303	3.030412	0.513366	0.000030
 713	7.0844e+01	7.0801	8.981496	0.000319	3.194218	0.541115	0.000032
 714	7.0944e+01	7.0883	9.011639	0.000303	3.030412	0.513366	0.000030
 715	7.1043e+01	7.0980	9.041783	0.000303	3.030412	0.513366	0.000030
 716	7.1142e+01	7.1114	9.076407	0.000348	3.480879	0.589677	0.000035
 717	7.1242e+01	7.1224	9.109401	0.000332	3.317073	0.561927	0.000033
 718	7.1341e+01	7.1285	9.136286	0.000270	2.702800	0.457867	0.000027
 719	7.1441e+01	7.1381	9.170910	0.000348	3.480879	0.589677	0.000035
 720	7.1540e+01	7.1501	9.202276	0.000315	3.153267	0.534178	0.000032
 721	7.1640e+01	7.1598	9.234456	0.000324	3.235170	0.548053	0.000032
 722	7.1740e+01	7.1703	9.268265	0.000340	3.398976	0.575802	0.000034
 723	7.1839e+01	7.1797	9.300445	0.000324	3.235170	0.548053	0.000032
 724	7.1939e+01	7.1908	9.327737	0.000274	2.743752	0.464804	0.000027
 725	7.2038e+01	7.2007	9.357473	0.000299	2.989461	0.506428	0.000030
 726	7.2138e+01	7.2098	9.393319	0.000360	3.603734	0.610489	0.000036
 727	7.2237e+01	7.2182	9.423870	0.000307	3.071364	0.520303	0.000031
 728	7.2337e+01	7.2287	9.451977	0.000283	2.825655	0.478679	0.000028
 729	7.2436e+01	7.2388	9.482120	0.000303	3.030412	0.513366	0.000030
 730	7.2535e+01	7.2493	9.514707	0.000328	3.276121	0.554990	0.000033
 731	7.2635e+01	7.2591	9.546480	0.000319	3.194218	0.541115	0.000032
 732	7.2734e+01	7.2723	9.574179	0.000278	2.784703	0.471741	0.000028
 733	7.2834e+01	7.2781	9.601064	0.000270	2.702800	0.457867	0.000027
 734	7.2933e+01	7.2900	9.633244	0.000324	3.235170	0.548053	0.000032
 735	7.3033e+01	7.2979	9.656870	0.000238	2.375188	0.402368	0.000024
 736	7.3132e+01	7.3076	9.682940	0.000262	2.620897	0.443992	0.000026
 737	7.3232e+01	7.3205	9.711454	0.000287	2.866606	0.485616	0.000029
 738	7.3332e+01	7.3283	9.735894	0.000246	2.457091	0.416242	0.000025
 739	7.3431e+01	7.3400	9.762779	0.000270	2.702800	0.457867	0.000027
 740	7.3531e+01	7.3482	9.790886	0.000283	2.825655	0.478679	0.000028
 741	7.3630e+01	7.3611	9.823066	0.000324	3.235170	0.548053	0.000032
 742	7.3730e+01	7.3685	9.850765	0.000278	2.784703	0.471741	0.000028
 743	7.3829e+01	7.3779	9.873169	0.000225	2.252333	0.381556	0.000023
 744	7.3928e+01	7.3861	9.902905	0.000299	2.989461	0.506428	0.000030
 745	7.4028e+01	7.3975	9.927345	0.000246	2.457091	0.416242	0.000025
 746	7.4127e+01	7.4063	9.956267	0.000291	2.907558	0.492554	0.000029
 747	7.4227e+01	7.4171	9.983966	0.000278	2.784703	0.471741	0.000028
 748	7.4326e+01	7.4279	10.007592	0.000238	2.375188	0.402368	0.000024
 749	7.4426e+01	7.4387	10.035291	0.000278	2.784703	0.471741	0.000028
 750	7.4525e+01	7.4490	10.060546	0.000254	2.538994	0.430117	0.000025
 751	7.4625e+01	7.4586	10.089468	0.000291	2.907558	0.492554	0.000029
 752	7.4725e+01	7.4686	10.117574	0.000283	2.825655	0.478679	0.000028
 753	7.4824e+01	7.4809	10.146903	0.000295	2.948509	0.499491	0.000029
 754	7.4924e+01	7.4897	10.172158	0.000254	2.538994	0.430117	0.000025
 755	7.5023e+01	7.4974	10.200672	0.000287	2.866606	0.485616	0.000029
 756	7.5123e+01	7.5086	10.230408	0.000299	2.989461	0.506428	0.000030
 757	7.5222e+01	7.5174	10.258922	0.000287	2.866606	0.485616	0.000029
 758	7.5322e+01	7.5295	10.286214	0.000274	2.743752	0.464804	0.000027
 759	7.5421e+01	7.5384	10.316357	0.000303	3.030412	0.513366	0.000030
 760	7.5520e+01	7.5461	10.343649	0.000274	2.743752	0.464804	0.000027
 761	7.5620e+01	7.5542	10.373793	0.000303	3.030412	0.513366	0.000030
 762	7.5719e+01	7.5643	10.399048	0.000254	2.538994	0.430117	0.000025
 763	7.5819e+01	7.5771	10.426747	0.000278	2.784703	0.471741	0.000028
 764	7.5918e+01	7.5864	10.458520	0.000319	3.194218	0.541115	0.000032
 765	7.6018e+01	7.5985	10.484590	0.000262	2.620897	0.443992	0.000026
 766	7.6118e+01	7.6064	10.513104	0.000287	2.866606	0.485616	0.000029
 767	7.6217e+01	7.6164	10.541211	0.000283	2.825655	0.478679	0.000028
 768	7.6317e+01	7.6272	10.571354	0.000303	3.030412	0.513366	0.000030
 769	7.6416e+01	7.6386	10.594980	0.000238	2.375188	0.402368	0.000024
 770	7.6516e+01	7.6446	10.624716	0.000299	2.989461	0.506428	0.000030
 771	7.6615e+01	7.6579	10.654044	0.000295	2.948509	0.499491	0.000029
 772	7.6715e+01	7.6653	10.685817	0.000319	3.194218	0.541115	0.000032
 773	7.6814e+01	7.6760	10.714331	0.000287	2.866606	0.485616	0.000029
 774	7.6913e+01	7.6864	10.740808	0.000266	2.661849	0.450929	0.000027
 775	7.7013e+01	7.6982	10.771766	0.000311	3.112315	0.527240	0.000031
 776	7.7112e+01	7.7058	10.798651	0.000270	2.702800	0.457867	0.000027
 777	7.7212e+01	7.7157	10.825128	0.000266	2.661849	0.450929	0.000027
 778	7.7311e+01	7.7280	10.856494	0.000315	3.153267	0.534178	0.000032
 779	7.7411e+01	7.7374	10.883786	0.000274	2.743752	0.464804	0.000027
 780	7.7510e+01	7.7493	10.911078	0.000274	2.743752	0.464804	0.000027
 781	7.7610e+01	7.7579	10.941221	0.000303	3.030412	0.513366	0.000030
 782	7.7710e+01	7.7669	10.968513	0.000274	2.743752	0.464804	0.000027
 783	7.7809e+01	7.7749	10.997434	0.000291	2.907558	0.492554	0.000029
 784	7.7909e+01	7.7882	11.027578	0.000303	3.030412	0.513366	0.000030
 785	7.8008e+01	7.7989	11.052833	0.000254	2.538994	0.430117	0.000025
 786	7.8108e+01	7.8041	11.087864	0.000352	3.521830	0.596614	0.000035
 787	7.8207e+01	7.8164	11.117193	0.000295	2.948509	0.499491	0.000029
 788	7.8306e+01	7.8274	11.144078	0.000270	2.702800	0.457867	0.000027
 789	7.8406e+01	7.8366	11.173406	0.000295	2.948509	0.499491	0.000029
 790	7.8505e+01	7.8471	11.205179	0.000319	3.194218	0.541115	0.000032
 791	7.8605e+01	7.8536	11.230841	0.000258	2.579946	0.437055	0.000026
 792	7.8704e+01	7.8657	11.255689	0.000250	2.498043	0.423180	0.000025
 793	7.8804e+01	7.8747	11.285833	0.000303	3.030412	0.513366	0.000030
 794	7.8903e+01	7.8876	11.314347	0.000287	2.866606	0.485616	0.000029
 795	7.9003e+01	7.8962	11.339195	0.000250	2.498043	0.423180	0.000025
 796	7.9103e+01	7.9072	11.367709	0.000287	2.866606	0.485616	0.000029
 797	7.9202e+01	7.9147	11.392556	0.000250	2.498043	0.423180	0.000025
 798	7.9302e+01	7.9262	11.419441	0.000270	2.702800	0.457867	0.000027
 799	7.9401e+01	7.9382	11.449992	0.000307	3.071364	0.520303	0.000031
 800	7.9501e+01	7.9437	11.476469	0.000266	2.661849	0.450929	0.000027
 801	7.9600e+01	7.9550	11.504168	0.000278	2.784703	0.471741	0.000028
 802	7.9700e+01	7.9676	11.533090	0.000291	2.907558	0.492554	0.000029
 803	7.9799e+01	7.9749	11.562011	0.000291	2.907558	0.492554	0.000029
 804	7.9898e+01	7.9847	11.585230	0.000233	2.334236	0.395430	0.000023
 805	7.9998e+01	7.9979	11.612521	0.000274	2.743752	0.464804	0.000027
 806	8.0097e+01	8.0051	11.637369	0.000250	2.498043	0.423180	0.000025
 807	8.0197e+01	8.0161	11.666291	0.000291	2.907558	0.492554	0.000029
 808	8.0296e+01	8.0250	11.691139	0.000250	2.498043	0.423180	0.000025
 809	8.0396e+01	8.0360	11.721282	0.000303	3.030412	0.513366	0.000030
 810	8.0496e+01	8.0479	11.748167	0.000270	2.702800	0.457867	0.000027
 811	8.0595e+01	8.0552	11.777903	0.000299	2.989461	0.506428	0.000030
 812	8.0695e+01	8.0664	11.804787	0.000270	2.702800	0.457867	0.000027
 813	8.0794e+01	8.0756	11.828413	0.000238	2.375188	0.402368	0.000024
 814	8.0894e+01	8.0849	11.862630	0.000344	3.439927	0.582739	0.000034
 815	8.0993e+01	8.0917	11.890329	0.000278	2.784703	0.471741	0.000028
 816	8.1093e+01	8.1052	11.919250	0.000291	2.907558	0.492554	0.000029
 817	8.1192e+01	8.1113	11.948986	0.000299	2.989461	0.506428	0.000030
 818	8.1291e+01	8.1257	11.977093	0.000283	2.825655	0.478679	0.000028
 819	8.1391e+01	8.1356	12.012125	0.000352	3.521830	0.596614	0.000035
 820	8.1490e+01	8.1445	12.041046	0.000291	2.907558	0.492554	0.000029
 821	8.1590e+01	8.1528	12.072411	0.000315	3.153267	0.534178	0.000032
 822	8.1689e+01	8.1637	12.103777	0.000315	3.153267	0.534178	0.000032
 823	8.1789e+01	8.1731	12.136364	0.000328	3.276121	0.554990	0.000033
 824	8.1888e+01	8.1852	12.166100	0.000299	2.989461	0.506428	0.000030
 825	8.1988e+01	8.1921	12.196243	0.000303	3.030412	0.513366	0.000030
 826	8.2088e+01	8.2040	12.222313	0.000262	2.620897	0.443992	0.000026
 827	8.2187e+01	8.2150	12.256530	0.000344	3.439927	0.582739	0.000034
 828	8.2287e+01	8.2245	12.287895	0.000315	3.153267	0.534178	0.000032
 829	8.2386e+01	8.2362	12.318853	0.000311	3.112315	0.527240	0.000031
 830	8.2486e+01	8.2432	12.349404	0.000307	3.071364	0.520303	0.000031
 831	8.2585e+01	8.2539	12.382806	0.000336	3.358024	0.568865	0.000034
 832	8.2684e+01	8.2632	12.412950	0.000303	3.030412	0.513366	0.000030
 833	8.2784e+01	8.2743	12.444315	0.000315	3.153267	0.534178	0.000032
 834	8.2883e+01	8.2839	12.476495	0.000324	3.235170	0.548053	0.000032
 835	8.2983e+01	8.2977	12.507860	0.000315	3.153267	0.534178	0.000032
 836	8.3082e+01	8.3032	12.537596	0.000299	2.989461	0.506428	0.000030
 837	8.3182e+01	8.3099	12.563666	0.000262	2.620897	0.443992	0.000026
 838	8.3281e+01	8.3231	12.593810	0.000303	3.030412	0.513366	0.000030
 839	8.3381e+01	8.3350	12.623953	0.000303	3.030412	0.513366	0.000030
 840	8.3481e+01	8.3447	12.654096	0.000303	3.030412	0.513366	0.000030
 841	8.3580e+01	8.3558	12.685869	0.000319	3.194218	0.541115	0.000032
 842	8.3680e+01	8.3621	12.709495	0.000238	2.375188	0.402368	0.000024
 843	8.3779e+01	8.3749	12.738009	0.000287	2.866606	0.485616	0.000029
 844	8.3879e+01	8.3826	12.770596	0.000328	3.276121	0.554990	0.000033
 845	8.3978e+01	8.3960	12.797074	0.000266	2.661849	0.450929	0.000027
 846	8.4078e+01	8.4024	12.826402	0.000295	2.948509	0.499491	0.000029
 847	8.4177e+01	8.4135	12.856953	0.000307	3.071364	0.520303	0.000031
 848	8.4276e+01	8.4254	12.886689	0.000299	2.989461	0.506428	0.000030
 849	8.4376e+01	8.4341	12.916018	0.000295	2.948509	0.499491	0.000029
 850	8.4475e+01	8.4441	12.946568	0.000307	3.071364	0.520303	0.000031
 851	8.4575e+01	8.4535	12.976712	0.000303	3.030412	0.513366	0.000030
 852	8.4674e+01	8.4623	13.006040	0.000295	2.948509	0.499491	0.000029
 853	8.4774e+01	8.4721	13.033332	0.000274	2.743752	0.464804	0.000027
 854	8.4874e+01	8.4827	13.058995	0.000258	2.579946	0.437055	0.000026
 855	8.4973e+01	8.4921	13.091175	0.000324	3.235170	0.548053	0.000032
 856	8.5073e+01	8.5027	13.117652	0.000266	2.661849	0.450929	0.000027
 857	8.5172e+01	8.5143	13.146574	0.000291	2.907558	0.492554	0.000029
 858	8.5272e+01	8.5229	13.176717	0.000303	3.030412	0.513366	0.000030
 859	8.5371e+01	8.5320	13.204823	0.000283	2.825655	0.478679	0.000028
 860	8.5471e+01	8.5438	13.231301	0.000266	2.661849	0.450929	0.000027
 861	8.5570e+01	8.5498	13.259000	0.000278	2.784703	0.471741	0.000028
 862	8.5669e+01	8.5620	13.290773	0.000319	3.194218	0.541115	0.000032
 863	8.5769e+01	8.5755	13.318472	0.000278	2.784703	0.471741	0.000028
 864	8.5868e+01	8.5810	13.347801	0.000295	2.948509	0.499491	0.000029
 865	8.5968e+01	8.5928	13.379166	0.000315	3.153267	0.534178	0.000032
 866	8.6067e+01	8.6005	13.406865	0.000278	2.784703	0.471741	0.000028
 867	8.6167e+01	8.6108	13.435787	0.000291	2.907558	0.492554	0.000029
 868	8.6266e+01	8.6207	13.462264	0.000266	2.661849	0.450929	0.000027
 869	8.6366e+01	8.6333	13.492000	0.000299	2.989461	0.506428	0.000030
 870	8.6466e+01	8.6459	13.516441	0.000246	2.457091	0.416242	0.000025
 871	8.6565e+01	8.6511	13.545769	0.000295	2.948509	0.499491	0.000029
 872	8.6665e+01	8.6621	13.568988	0.000233	2.334236	0.395430	0.000023
 873	8.6764e+01	8.6728	13.599538	0.000307	3.071364	0.520303	0.000031
 874	8.6864e+01	8.6816	13.626830	0.000274	2.743752	0.464804	0.000027
 875	8.6963e+01	8.6929	13.656159	0.000295	2.948509	0.499491	0.000029
 876	8.7063e+01	8.7015	13.687117	0.000311	3.112315	0.527240	0.000031
 877	8.7162e+01	8.7122	13.715631	0.000287	2.866606	0.485616	0.000029
 878	8.7261e+01	8.7223	13.744960	0.000295	2.948509	0.499491	0.000029
 879	8.7361e+01	8.7321	13.779176	0.000344	3.439927	0.582739	0.000034
 880	8.7460e+01	8.7415	13.804432	0.000254	2.538994	0.430117	0.000025
 881	8.7560e+01	8.7559	13.834168	0.000299	2.989461	0.506428	0.000030
 882	8.7659e+01	8.7608	13.867162	0.000332	3.317073	0.561927	0.000033
 883	8.7759e+01	8.7714	13.894047	0.000270	2.702800	0.457867	0.000027
 884	8.7859e+01	8.7817	13.924190	0.000303	3.030412	0.513366	0.000030
 885	8.7958e+01	8.7906	13.952297	0.000283	2.825655	0.478679	0.000028
 886	8.8058e+01	8.8004	13.979589	0.000274	2.743752	0.464804	0.000027
 887	8.8157e+01	8.8139	14.008510	0.000291	2.907558	0.492554	0.000029
 888	8.8257e+01	8.8208	14.039468	0.000311	3.112315	0.527240	0.000031
 889	8.8356e+01	8.8297	14.067982	0.000287	2.866606	0.485616	0.000029
 890	8.8456e+01	8.8403	14.098940	0.000311	3.112315	0.527240	0.000031
 891	8.8555e+01	8.8517	14.128269	0.000295	2.948509	0.499491	0.000029
 892	8.8654e+01	8.8599	14.157190	0.000291	2.907558	0.492554	0.000029
 893	8.8754e+01	8.8692	14.188148	0.000311	3.112315	0.527240	0.000031
 894	8.8853e+01	8.8831	14.218699	0.000307	3.071364	0.520303	0.000031
 895	8.8953e+01	8.8928	14.247213	0.000287	2.866606	0.485616	0.000029
 896	8.9052e+01	8.9002	14.272061	0.000250	2.498043	0.423180	0.000025
 897	8.9152e+01	8.9088	14.300982	0.000291	2.907558	0.492554	0.000029
 898	8.9251e+01	8.9209	14.331126	0.000303	3.030412	0.513366	0.000030
 899	8.9351e+01	8.9318	14.358010	0.000270	2.702800	0.457867	0.000027
 900	8.9451e+01	8.9395	14.380821	0.000229	2.293285	0.388493	0.000023
 901	8.9550e+01	8.9483	14.408521	0.000278	2.784703	0.471741	0.000028
 902	8.9650e+01	8.9603	14.435405	0.000270	2.702800	0.457867	0.000027
 903	8.9749e+01	8.9694	14.459439	0.000242	2.416140	0.409305	0.000024
 904	8.9849e+01	8.9795	14.484694	0.000254	2.538994	0.430117	0.000025
 905	8.9948e+01	8.9893	14.508320	0.000238	2.375188	0.402368	0.000024
 906	9.0047e+01	8.9999	14.537648	0.000295	2.948509	0.499491	0.000029
 907	9.0147e+01	9.0096	14.559237	0.000217	2.170430	0.367681	0.000022
 908	9.0246e+01	9.0206	14.584493	0.000254	2.538994	0.430117	0.000025
 909	9.0346e+01	9.0299	14.610970	0.000266	2.661849	0.450929	0.000027
 910	9.0445e+01	9.0388	14.638669	0.000278	2.784703	0.471741	0.000028
 911	9.0545e+01	9.0494	14.661480	0.000229	2.293285	0.388493	0.000023
 912	9.0644e+01	9.0584	14.687143	0.000258	2.579946	0.437055	0.000026
 913	9.0744e+01	9.0713	14.713620	0.000266	2.661849	0.450929	0.000027
 914	9.0844e+01	9.0799	14.734802	0.000213	2.129479	0.360743	0.000021
 915	9.0943e+01	9.0900	14.762094	0.000274	2.743752	0.464804	0.000027
 916	9.1043e+01	9.1016	14.786535	0.000246	2.457091	0.416242	0.000025
 917	9.1142e+01	9.1089	14.811790	0.000254	2.538994	0.430117	0.000025
 918	9.1242e+01	9.1206	14.835823	0.000242	2.416140	0.409305	0.000024
 919	9.1341e+01	9.1300	14.858634	0.000229	2.293285	0.388493	0.000023
 920	9.1441e+01	9.1406	14.888370	0.000299	2.989461	0.506428	0.000030
 921	9.1540e+01	9.1486	14.911589	0.000233	2.334236	0.395430	0.000023
 922	9.1639e+01	9.1602	14.936844	0.000254	2.538994	0.430117	0.000025
 923	9.1739e+01	9.1677	14.963729	0.000270	2.702800	0.457867	0.000027
 924	9.1838e+01	9.1788	14.992243	0.000287	2.866606	0.485616	0.000029
 925	9.1938e+01	9.1895	15.019535	0.000274	2.743752	0.464804	0.000027
 926	9.2037e+01	9.1981	15.048456	0.000291	2.907558	0.492554	0.000029
 927	9.2137e+01	9.2096	15.072082	0.000238	2.375188	0.402368	0.000024
 928	9.2237e+01	9.2181	15.099374	0.000274	2.743752	0.464804	0.000027
 929	9.2336e+01	9.2272	15.124629	0.000254	2.538994	0.430117	0.000025
 930	9.2436e+01	9.2371	15.151514	0.000270	2.702800	0.457867	0.000027
 931	9.2535e+01	9.2469	15.177583	0.000262	2.620897	0.443992	0.000026
 932	9.2635e+01	9.2587	15.207319	0.000299	2.989461	0.506428	0.000030
 933	9.2734e+01	9.2676	15.230538	0.000233	2.334236	0.395430	0.000023
 934	9.2834e+01	9.2760	15.256201	0.000258	2.579946	0.437055	0.000026
 935	9.2933e+01	9.2864	15.282271	0.000262	2.620897	0.443992	0.000026
 936	9.3032e+01	9.2953	15.309155	0.000270	2.702800	0.457867	0.000027
 937	9.3132e+01	9.3084	15.339706	0.000307	3.071364	0.520303	0.000031
 938	9.3231e+01	9.3188	15.363739	0.000242	2.416140	0.409305	0.000024
 939	9.3331e+01	9.3295	15.391846	0.000283	2.825655	0.478679	0.000028
 940	9.3430e+01	9.3418	15.416694	0.000250	2.498043	0.423180	0.000025
 941	9.3530e+01	9.3470	15.447244	0.000307	3.071364	0.520303	0.000031
 942	9.3629e+01	9.3582	15.471277	0.000242	2.416140	0.409305	0.000024
 943	9.3729e+01	9.3682	15.498162	0.000270	2.702800	0.457867	0.000027
 944	9.3829e+01	9.3785	15.526269	0.000283	2.825655	0.478679	0.000028
 945	9.3928e+01	9.3879	15.553153	0.000270	2.702800	0.457867	0.000027
 946	9.4028e+01	9.3948	15.576372	0.000233	2.334236	0.395430	0.000023
 947	9.4127e+01	9.4064	15.603664	0.000274	2.743752	0.464804	0.000027
 948	9.4227e+01	9.4189	15.632992	0.000295	2.948509	0.499491	0.000029
 949	9.4326e+01	9.4275	15.659877	0.000270	2.702800	0.457867	0.000027
 950	9.4425e+01	9.4354	15.686762	0.000270	2.702800	0.457867	0.000027
 951	9.4525e+01	9.4458	15.713239	0.000266	2.661849	0.450929	0.000027
 952	9.4624e+01	9.4569	15.736865	0.000238	2.375188	0.402368	0.000024
 953	9.4724e+01	9.4656	15.768230	0.000315	3.153267	0.534178	0.000032
 954	9.4823e+01	9.4775	15.793893	0.000258	2.579946	0.437055	0.000026
 955	9.4923e+01	9.4864	15.821592	0.000278	2.784703	0.471741	0.000028
 956	9.5022e+01	9.4975	15.844403	0.000229	2.293285	0.388493	0.000023
 957	9.5122e+01	9.5068	15.875361	0.000311	3.112315	0.527240	0.000031
 958	9.5222e+01	9.5169	15.904283	0.000291	2.907558	0.492554	0.000029
 959	9.5321e+01	9.5279	15.927908	0.000238	2.375188	0.402368	0.000024
 960	9.5421e+01	9.5346	15.957237	0.000295	2.948509	0.499491	0.000029
 961	9.5520e+01	9.5470	15.980456	0.000233	2.334236	0.395430	0.000023
 962	9.5620e+01	9.5557	16.008562	0.000283	2.825655	0.478679	0.000028
 963	9.5719e+01	9.5661	16.030559	0.000221	2.211382	0.374618	0.000022
 964	9.5819e+01	9.5776	16.057036	0.000266	2.661849	0.450929	0.000027
 965	9.5918e+01	9.5886	16.081477	0.000246	2.457091	0.416242	0.000025
 966	9.6017e+01	9.5977	16.109991	0.000287	2.866606	0.485616	0.000029
 967	9.6117e+01	9.6056	16.134024	0.000242	2.416140	0.409305	0.000024
 968	9.6216e+01	9.6191	16.161316	0.000274	2.743752	0.464804	0.000027
 969	9.6316e+01	9.6278	16.185349	0.000242	2.416140	0.409305	0.000024
 970	9.6415e+01	9.6341	16.212641	0.000274	2.743752	0.464804	0.000027
 971	9.6515e+01	9.6490	16.237896	0.000254	2.538994	0.430117	0.000025
 972	9.6615e+01	9.6564	16.262337	0.000246	2.457091	0.416242	0.000025
 973	9.6714e+01	9.6638	16.285148	0.000229	2.293285	0.388493	0.000023
 974	9.6814e+01	9.6777	16.309588	0.000246	2.457091	0.416242	0.000025
 975	9.6913e+01	9.6866	16.337288	0.000278	2.784703	0.471741	0.000028
 976	9.7013e+01	9.6931	16.361728	0.000246	2.457091	0.416242	0.000025
 977	9.7112e+01	9.7050	16.388613	0.000270	2.702800	0.457867	0.000027
 978	9.7212e+01	9.7153	16.414275	0.000258	2.579946	0.437055	0.000026
 979	9.7311e+01	9.7285	16.438716	0.000246	2.457091	0.416242	0.000025
 980	9.7410e+01	9.7353	16.470489	0.000319	3.194218	0.541115	0.000032
 981	9.7510e+01	9.7461	16.495337	0.000250	2.498043	0.423180	0.000025
 982	9.7609e+01	9.7547	16.523851	0.000287	2.866606	0.485616	0.000029
 983	9.7709e+01	9.7658	16.550735	0.000270	2.702800	0.457867	0.000027
 984	9.7808e+01	9.7767	16.580879	0.000303	3.030412	0.513366	0.000030
 985	9.7908e+01	9.7871	16.608985	0.000283	2.825655	0.478679	0.000028
 986	9.8007e+01	9.7950	16.637092	0.000283	2.825655	0.478679	0.000028
 987	9.8107e+01	9.8096	16.665198	0.000283	2.825655	0.478679	0.000028
 988	9.8207e+01	9.8147	16.696971	0.000319	3.194218	0.541115	0.000032
 989	9.8306e+01	9.8271	16.725078	0.000283	2.825655	0.478679	0.000028
 990	9.8406e+01	9.8347	16.753592	0.000287	2.866606	0.485616	0.000029
 991	9.8505e+01	9.8432	16.784550	0.000311	3.112315	0.527240	0.000031
 992	9.8605e+01	9.8548	16.814693	0.000303	3.030412	0.513366	0.000030
 993	9.8704e+01	9.8633	16.842800	0.000283	2.825655	0.478679	0.000028
 994	9.8803e+01	9.8740	16.873351	0.000307	3.071364	0.520303	0.000031
 995	9.8903e+01	9.8840	16.904309	0.000311	3.112315	0.527240	0.000031
 996	9.9002e+01	9.8945	16.930378	0.000262	2.620897	0.443992	0.000026
 997	9.9102e+01	9.9072	16.960114	0.000299	2.989461	0.506428	0.000030
 998	9.9201e+01	9.9158	16.988628	0.000287	2.866606	0.485616	0.000029
 999	9.9301e+01	9.9252	17.022438	0.000340	3.398976	0.575802	0.000034
1000	9.9400e+01	9.9341	17.049730	0.000274	2.743752	0.464804	0.000027
1001	9.9500e+01	9.9430	17.081503	0.000319	3.194218	0.541115	0.000032
1002	9.9600e+01	9.9538	17.109609	0.000283	2.825655	0.478679	0.000028
1003	9.9699e+01	9.9638	17.140160	0.000307	3.071364	0.520303	0.000031
1004	9.9799e+01	9.9750	17.168674	0.000287	2.866606	0.485616	0.000029
1005	9.9898e+01	9.9836	17.197595	0.000291	2.907558	0.492554	0.000029
1006	9.9998e+01	9.9939	17.224072	0.000266	2.661849	0.450929	0.000027
1007	1.0010e+02	9.9860	17.211445	0.000127	1.269497	0.215059	-0.000013
1008	1.0020e+02	9.9731	17.187412	0.000242	2.416140	0.409305	-0.000024
1009	1.0030e+02	9.9650	17.173562	0.000139	1.392352	0.235871	-0.000014
1010	1.0040e+02	9.9533	17.157676	0.000160	1.597109	0.270558	-0.000016
1011	1.0050e+02	9.9443	17.135272	0.000225	2.252333	0.381556	-0.000023
1012	1.0059e+02	9.9365	17.116941	0.000184	1.842818	0.312182	-0.000018
1013	1.0069e+02	9.9250	17.095760	0.000213	2.129479	0.360743	-0.000021
1014	1.0079e+02	9.9170	17.080281	0.000156	1.556158	0.263620	-0.000016
1015	1.0089e+02	9.9042	17.061950	0.000184	1.842818	0.312182	-0.000018
1016	1.0099e+02	9.8932	17.039954	0.000221	2.211382	0.374618	-0.000022
1017	1.0109e+02	9.8834	17.022438	0.000176	1.760915	0.298307	-0.000018
1018	1.0119e+02	9.8732	17.006959	0.000156	1.556158	0.263620	-0.000016
1019	1.0129e+02	9.8661	16.988221	0.000188	1.883770	0.319119	-0.000019
1020	1.0139e+02	9.8550	16.966632	0.000217	2.170430	0.367681	-0.000022
1021	1.0149e+02	9.8438	16.947487	0.000192	1.924721	0.326057	-0.000019
1022	1.0159e+02	9.8352	16.929156	0.000184	1.842818	0.312182	-0.000018
1023	1.0169e+02	9.8222	16.907975	0.000213	2.129479	0.360743	-0.000021
1024	1.0179e+02	9.8145	16.885163	0.000229	2.293285	0.388493	-0.000023
1025	1.0189e+02	9.8061	16.863982	0.000213	2.129479	0.360743	-0.000021
1026	1.0199e+02	9.7962	16.848095	0.000160	1.597109	0.270558	-0.000016
1027	1.0209e+02	9.7867	16.827321	0.000209	2.088527	0.353806	-0.000021
1028	1.0219e+02	9.7754	16.805324	0.000221	2.211382	0.374618	-0.000022
1029	1.0229e+02	9.7632	16.784957	0.000205	2.047576	0.346869	-0.000020
1030	1.0239e+02	9.7552	16.764590	0.000205	2.047576	0.346869	-0.000020
1031	1.0248e+02	9.7465	16.740964	0.000238	2.375188	0.402368	-0.000024
1032	1.0258e+02	9.7372	16.721004	0.000201	2.006624	0.339931	-0.000020
1033	1.0268e+02	9.7242	16.704711	0.000164	1.638061	0.277495	-0.000016
1034	1.0278e+02	9.7158	16.681492	0.000233	2.334236	0.395430	-0.000023
1035	1.0288e+02	9.7076	16.657866	0.000238	2.375188	0.402368	-0.000024
1036	1.0298e+02	9.6924	16.639129	0.000188	1.883770	0.319119	-0.000019
1037	1.0308e+02	9.6869	16.619169	0.000201	2.006624	0.339931	-0.000020
1038	1.0318e+02	9.6759	16.595950	0.000233	2.334236	0.395430	-0.000023
1039	1.0328e+02	9.6643	16.573954	0.000221	2.211382	0.374618	-0.000022
1040	1.0338e+02	9.6582	16.552365	0.000217	2.170430	0.367681	-0.000022
1041	1.0348e+02	9.6454	16.529553	0.000229	2.293285	0.388493	-0.000023
1042	1.0358e+02	9.6368	16.508372	0.000213	2.129479	0.360743	-0.000021
1043	1.0368e+02	9.6278	16.488004	0.000205	2.047576	0.346869	-0.000020
1044	1.0378e+02	9.6152	16.465601	0.000225	2.252333	0.381556	-0.000023
1045	1.0388e+02	9.6066	16.444826	0.000209	2.088527	0.353806	-0.000021
1046	1.0398e+02	9.5972	16.425274	0.000197	1.965673	0.332994	-0.000020
1047	1.0408e+02	9.5869	16.404907	0.000205	2.047576	0.346869	-0.000020
1048	1.0418e+02	9.5752	16.387798	0.000172	1.719964	0.291370	-0.000017
1049	1.0428e+02	9.5655	16.369060	0.000188	1.883770	0.319119	-0.000019
1050	1.0438e+02	9.5570	16.347879	0.000213	2.129479	0.360743	-0.000021
1051	1.0447e+02	9.5447	16.324253	0.000238	2.375188	0.402368	-0.000024
1052	1.0457e+02	9.5352	16.308366	0.000160	1.597109	0.270558	-0.000016
1053	1.0467e+02	9.5255	16.283518	0.000250	2.498043	0.423180	-0.000025
1054	1.0477e+02	9.5173	16.261929	0.000217	2.170430	0.367681	-0.000022
1055	1.0487e+02	9.5072	16.245636	0.000164	1.638061	0.277495	-0.000016
1056	1.0497e+02	9.4995	16.222010	0.000238	2.375188	0.402368	-0.000024
1057	1.0507e+02	9.4873	16.200828	0.000213	2.129479	0.360743	-0.000021
1058	1.0517e+02	9.4782	16.180461	0.000205	2.047576	0.346869	-0.000020
1059	1.0527e+02	9.4653	16.162945	0.000176	1.760915	0.298307	-0.000018
1060	1.0537e+02	9.4556	16.141356	0.000217	2.170430	0.367681	-0.000022
1061	1.0547e+02	9.4459	16.118952	0.000225	2.252333	0.381556	-0.000023
1062	1.0557e+02	9.4385	16.099400	0.000197	1.965673	0.332994	-0.000020
1063	1.0567e+02	9.4244	16.079440	0.000201	2.006624	0.339931	-0.000020
1064	1.0577e+02	9.4189	16.059480	0.000201	2.006624	0.339931	-0.000020
1065	1.0587e+02	9.4074	16.033818	0.000258	2.579946	0.437055	-0.000026
1066	1.0597e+02	9.3979	16.008970	0.000250	2.498043	0.423180	-0.000025
1067	1.0607e+02	9.3875	15.988195	0.000209	2.088527	0.353806	-0.000021
1068	1.0617e+02	9.3788	15.967421	0.000209	2.088527	0.353806	-0.000021
1069	1.0627e+02	9.3663	15.940129	0.000274	2.743752	0.464804	-0.000027
1070	1.0637e+02	9.3567	15.916503	0.000238	2.375188	0.402368	-0.000024
1071	1.0647e+02	9.3466	15.889211	0.000274	2.743752	0.464804	-0.000027
1072	1.0656e+02	9.3393	15.866400	0.000229	2.293285	0.388493	-0.000023
1073	1.0666e+02	9.3262	15.839922	0.000266	2.661849	0.450929	-0.000027
1074	1.0676e+02	9.3145	15.811408	0.000287	2.866606	0.485616	-0.000029
1075	1.0686e+02	9.3079	15.785746	0.000258	2.579946	0.437055	-0.000026
1076	1.0696e+02	9.2997	15.764971	0.000209	2.088527	0.353806	-0.000021
1077	1.0706e+02	9.2871	15.736865	0.000283	2.825655	0.478679	-0.000028
1078	1.0716e+02	9.2774	15.712832	0.000242	2.416140	0.409305	-0.000024
1079	1.0726e+02	9.2682	15.687169	0.000258	2.579946	0.437055	-0.000026
1080	1.0736e+02	9.2567	15.659877	0.000274	2.743752	0.464804	-0.000027
1081	1.0746e+02	9.2473	15.636251	0.000238	2.375188	0.402368	-0.000024
1082	1.0756e+02	9.2395	15.611403	0.000250	2.498043	0.423180	-0.000025
1083	1.0766e+02	9.2289	15.585333	0.000262	2.620897	0.443992	-0.000026
1084	1.0776e+02	9.2188	15.556005	0.000295	2.948509	0.499491	-0.000029
1085	1.0786e+02	9.2090	15.529935	0.000262	2.620897	0.443992	-0.000026
1086	1.0796e+02	9.2004	15.501421	0.000287	2.866606	0.485616	-0.000029
1087	1.0806e+02	9.1895	15.478610	0.000229	2.293285	0.388493	-0.000023
1088	1.0816e+02	9.1785	15.452947	0.000258	2.579946	0.437055	-0.000026
1089	1.0826e+02	9.1699	15.432173	0.000209	2.088527	0.353806	-0.000021
1090	1.0836e+02	9.1606	15.406510	0.000258	2.579946	0.437055	-0.000026
1091	1.0845e+02	9.1515	15.380847	0.000258	2.579946	0.437055	-0.000026
1092	1.0855e+02	9.1357	15.358036	0.000229	2.293285	0.388493	-0.000023
1093	1.0865e+02	9.1273	15.335225	0.000229	2.293285	0.388493	-0.000023
1094	1.0875e+02	9.1187	15.308340	0.000270	2.702800	0.457867	-0.000027
1095	1.0885e+02	9.1103	15.284307	0.000242	2.416140	0.409305	-0.000024
1096	1.0895e+02	9.0971	15.259867	0.000246	2.457091	0.416242	-0.000025
1097	1.0905e+02	9.0887	15.239500	0.000205	2.047576	0.346869	-0.000020
1098	1.0915e+02	9.0800	15.213430	0.000262	2.620897	0.443992	-0.000026
1099	1.0925e+02	9.0694	15.185730	0.000278	2.784703	0.471741	-0.000028
1100	1.0935e+02	9.0604	15.163734	0.000221	2.211382	0.374618	-0.000022
1101	1.0945e+02	9.0486	15.137257	0.000266	2.661849	0.450929	-0.000027
1102	1.0955e+02	9.0406	15.116482	0.000209	2.088527	0.353806	-0.000021
1103	1.0965e+02	9.0292	15.086339	0.000303	3.030412	0.513366	-0.000030
1104	1.0975e+02	9.0192	15.066379	0.000201	2.006624	0.339931	-0.000020
1105	1.0985e+02	9.0118	15.037458	0.000291	2.907558	0.492554	-0.000029
1106	1.0995e+02	8.9978	15.015461	0.000221	2.211382	0.374618	-0.000022
1107	1.1005e+02	8.9883	14.991428	0.000242	2.416140	0.409305	-0.000024
1108	1.1015e+02	8.9795	14.968209	0.000233	2.334236	0.395430	-0.000023
1109	1.1025e+02	8.9691	14.942547	0.000258	2.579946	0.437055	-0.000026
1110	1.1035e+02	8.9587	14.918921	0.000238	2.375188	0.402368	-0.000024
1111	1.1044e+02	8.9523	14.896924	0.000221	2.211382	0.374618	-0.000022
1112	1.1054e+02	8.9374	14.871669	0.000254	2.538994	0.430117	-0.000025
1113	1.1064e+02	8.9322	14.846414	0.000254	2.538994	0.430117	-0.000025
1114	1.1074e+02	8.9198	14.819122	0.000274	2.743752	0.464804	-0.000027
1115	1.1084e+02	8.9090	14.794274	0.000250	2.498043	0.423180	-0.000025
1116	1.1094e+02	8.8995	14.767797	0.000266	2.661849	0.450929	-0.000027
1117	1.1104e+02	8.8901	14.747022	0.000209	2.088527	0.353806	-0.000021
1118	1.1114e+02	8.8824	14.720952	0.000262	2.620897	0.443992	-0.000026
1119	1.1124e+02	8.8694	14.694883	0.000262	2.620897	0.443992	-0.000026
1120	1.1134e+02	8.8590	14.674923	0.000201	2.006624	0.339931	-0.000020
1121	1.1144e+02	8.8499	14.650890	0.000242	2.416140	0.409305	-0.000024
1122	1.1154e+02	8.8398	14.624820	0.000262	2.620897	0.443992	-0.000026
1123	1.1164e+02	8.8321	14.603230	0.000217	2.170430	0.367681	-0.000022
1124	1.1174e+02	8.8202	14.577568	0.000258	2.579946	0.437055	-0.000026
1125	1.1184e+02	8.8099	14.554757	0.000229	2.293285	0.388493	-0.000023
1126	1.1194e+02	8.8020	14.528687	0.000262	2.620897	0.443992	-0.000026
1127	1.1204e+02	8.7939	14.504246	0.000246	2.457091	0.416242	-0.000025
1128	1.1214e+02	8.7802	14.480213	0.000242	2.416140	0.409305	-0.000024
1129	1.1224e+02	8.7696	14.454550	0.000258	2.579946	0.437055	-0.000026
1130	1.1234e+02	8.7610	14.425629	0.000291	2.907558	0.492554	-0.000029
1131	1.1244e+02	8.7557	14.401596	0.000242	2.416140	0.409305	-0.000024
1132	1.1253e+02	8.7429	14.374711	0.000270	2.702800	0.457867	-0.000027
1133	1.1263e+02	8.7310	14.349863	0.000250	2.498043	0.423180	-0.000025
1134	1.1273e+02	8.7222	14.322164	0.000278	2.784703	0.471741	-0.000028
1135	1.1283e+02	8.7112	14.296909	0.000254	2.538994	0.430117	-0.000025
1136	1.1293e+02	8.7003	14.274098	0.000229	2.293285	0.388493	-0.000023
1137	1.1303e+02	8.6933	14.247620	0.000266	2.661849	0.450929	-0.000027
1138	1.1313e+02	8.6829	14.219921	0.000278	2.784703	0.471741	-0.000028
1139	1.1323e+02	8.6719	14.193037	0.000270	2.702800	0.457867	-0.000027
1140	1.1333e+02	8.6670	14.168189	0.000250	2.498043	0.423180	-0.000025
1141	1.1343e+02	8.6539	14.138453	0.000299	2.989461	0.506428	-0.000030
1142	1.1353e+02	8.6407	14.114827	0.000238	2.375188	0.402368	-0.000024
1143	1.1363e+02	8.6318	14.089164	0.000258	2.579946	0.437055	-0.000026
1144	1.1373e+02	8.6185	14.061058	0.000283	2.825655	0.478679	-0.000028
1145	1.1383e+02	8.6098	14.035802	0.000254	2.538994	0.430117	-0.000025
1146	1.1393e+02	8.6031	14.007696	0.000283	2.825655	0.478679	-0.000028
1147	1.1403e+02	8.5934	13.985292	0.000225	2.252333	0.381556	-0.000023
1148	1.1413e+02	8.5798	13.958815	0.000266	2.661849	0.450929	-0.000027
1149	1.1423e+02	8.5705	13.932337	0.000266	2.661849	0.450929	-0.000027
1150	1.1433e+02	8.5631	13.911970	0.000205	2.047576	0.346869	-0.000020
1151	1.1442e+02	8.5507	13.886308	0.000258	2.579946	0.437055	-0.000026
1152	1.1452e+02	8.5413	13.861460	0.000250	2.498043	0.423180	-0.000025
1153	1.1462e+02	8.5349	13.843537	0.000180	1.801867	0.305244	-0.000018
1154	1.1472e+02	8.5234	13.818281	0.000254	2.538994	0.430117	-0.000025
1155	1.1482e+02	8.5144	13.797507	0.000209	2.088527	0.353806	-0.000021
1156	1.1492e+02	8.5010	13.775918	0.000217	2.170430	0.367681	-0.000022
1157	1.1502e+02	8.4907	13.752699	0.000233	2.334236	0.395430	-0.000023
1158	1.1512e+02	8.4827	13.731110	0.000217	2.170430	0.367681	-0.000022
1159	1.1522e+02	8.4737	13.706262	0.000250	2.498043	0.423180	-0.000025
1160	1.1532e+02	8.4614	13.678970	0.000274	2.743752	0.464804	-0.000027
1161	1.1542e+02	8.4524	13.662677	0.000164	1.638061	0.277495	-0.000016
1162	1.1552e+02	8.4449	13.634570	0.000283	2.825655	0.478679	-0.000028
1163	1.1562e+02	8.4351	13.610537	0.000242	2.416140	0.409305	-0.000024
1164	1.1572e+02	8.4234	13.592206	0.000184	1.842818	0.312182	-0.000018
1165	1.1582e+02	8.4122	13.570210	0.000221	2.211382	0.374618	-0.000022
1166	1.1592e+02	8.4033	13.549435	0.000209	2.088527	0.353806	-0.000021
1167	1.1602e+02	8.3945	13.525809	0.000238	2.375188	0.402368	-0.000024
1168	1.1612e+02	8.3830	13.505035	0.000209	2.088527	0.353806	-0.000021
1169	1.1622e+02	8.3727	13.479780	0.000254	2.538994	0.430117	-0.000025
1170	1.1632e+02	8.3630	13.457376	0.000225	2.252333	0.381556	-0.000023
1171	1.1642e+02	8.3558	13.434157	0.000233	2.334236	0.395430	-0.000023
1172	1.1651e+02	8.3413	13.409717	0.000246	2.457091	0.416242	-0.000025
1173	1.1661e+02	8.3338	13.383240	0.000266	2.661849	0.450929	-0.000027
1174	1.1671e+02	8.3237	13.360428	0.000229	2.293285	0.388493	-0.000023
1175	1.1681e+02	8.3159	13.339247	0.000213	2.129479	0.360743	-0.000021
1176	1.1691e+02	8.3032	13.311955	0.000274	2.743752	0.464804	-0.000027
1177	1.1701e+02	8.2911	13.289958	0.000221	2.211382	0.374618	-0.000022
1178	1.1711e+02	8.2861	13.266332	0.000238	2.375188	0.402368	-0.000024
1179	1.1721e+02	8.2770	13.238633	0.000278	2.784703	0.471741	-0.000028
1180	1.1731e+02	8.2658	13.214192	0.000246	2.457091	0.416242	-0.000025
1181	1.1741e+02	8.2550	13.188122	0.000262	2.620897	0.443992	-0.000026
1182	1.1751e+02	8.2437	13.166126	0.000221	2.211382	0.374618	-0.000022
1183	1.1761e+02	8.2354	13.141685	0.000246	2.457091	0.416242	-0.000025
1184	1.1771e+02	8.2234	13.119689	0.000221	2.211382	0.374618	-0.000022
1185	1.1781e+02	8.2144	13.094841	0.000250	2.498043	0.423180	-0.000025
1186	1.1791e+02	8.2044	13.066327	0.000287	2.866606	0.485616	-0.000029
1187	1.1801e+02	8.1951	13.048811	0.000176	1.760915	0.298307	-0.000018
1188	1.1811e+02	8.1845	13.021112	0.000278	2.784703	0.471741	-0.000028
1189	1.1821e+02	8.1746	12.997893	0.000233	2.334236	0.395430	-0.000023
1190	1.1831e+02	8.1625	12.970602	0.000274	2.743752	0.464804	-0.000027
1191	1.1841e+02	8.1544	12.946161	0.000246	2.457091	0.416242	-0.000025
1192	1.1850e+02	8.1446	12.918869	0.000274	2.743752	0.464804	-0.000027
1193	1.1860e+02	8.1342	12.896873	0.000221	2.211382	0.374618	-0.000022
1194	1.1870e+02	8.1253	12.868766	0.000283	2.825655	0.478679	-0.000028
1195	1.1880e+02	8.1165	12.845547	0.000233	2.334236	0.395430	-0.000023
1196	1.1890e+02	8.1067	12.819477	0.000262	2.620897	0.443992	-0.000026
1197	1.1900e+02	8.0946	12.795037	0.000246	2.457091	0.416242	-0.000025
1198	1.1910e+02	8.0830	12.769782	0.000254	2.538994	0.430117	-0.000025
1199	1.1920e+02	8.0766	12.741268	0.000287	2.866606	0.485616	-0.000029
1200	1.1930e+02	8.0684	12.719679	0.000217	2.170430	0.367681	-0.000022
1201	1.1940e+02	8.0560	12.696053	0.000238	2.375188	0.402368	-0.000024
1202	1.1950e+02	8.0452	12.671205	0.000250	2.498043	0.423180	-0.000025
1203	1.1960e+02	8.0341	12.641469	0.000299	2.989461	0.506428	-0.000030
1204	1.1970e+02	8.0241	12.615399	0.000262	2.620897	0.443992	-0.000026
1205	1.1980e+02	8.0164	12.591366	0.000242	2.416140	0.409305	-0.000024
1206	1.1990e+02	8.0054	12.562852	0.000287	2.866606	0.485616	-0.000029
1207	1.2000e+02	7.9956	12.536782	0.000262	2.620897	0.443992	-0.000026
1208	1.2010e+02	7.9848	12.511526	0.000254	2.538994	0.430117	-0.000025
1209	1.2020e+02	7.9758	12.486271	0.000254	2.538994	0.430117	-0.000025
1210	1.2030e+02	7.9646	12.463460	0.000229	2.293285	0.388493	-0.000023
1211	1.2039e+02	7.9544	12.434946	0.000287	2.866606	0.485616	-0.000029
1212	1.2049e+02	7.9456	12.407654	0.000274	2.743752	0.464804	-0.000027
1213	1.2059e+02	7.9395	12.387694	0.000201	2.006624	0.339931	-0.000020
1214	1.2069e+02	7.9255	12.362846	0.000250	2.498043	0.423180	-0.000025
1215	1.2079e+02	7.9167	12.337999	0.000250	2.498043	0.423180	-0.000025
1216	1.2089e+02	7.9063	12.314780	0.000233	2.334236	0.395430	-0.000023
1217	1.2099e+02	7.8947	12.287895	0.000270	2.702800	0.457867	-0.000027
1218	1.2109e+02	7.8862	12.265084	0.000229	2.293285	0.388493	-0.000023
1219	1.2119e+02	7.8764	12.239829	0.000254	2.538994	0.430117	-0.000025
1220	1.2129e+02	7.8634	12.216203	0.000238	2.375188	0.402368	-0.000024
1221	1.2139e+02	7.8534	12.187282	0.000291	2.907558	0.492554	-0.000029
1222	1.2149e+02	7.8467	12.163249	0.000242	2.416140	0.409305	-0.000024
1223	1.2159e+02	7.8369	12.141252	0.000221	2.211382	0.374618	-0.000022
1224	1.2169e+02	7.8265	12.117626	0.000238	2.375188	0.402368	-0.000024
1225	1.2179e+02	7.8169	12.094815	0.000229	2.293285	0.388493	-0.000023
1226	1.2189e+02	7.8048	12.072004	0.000229	2.293285	0.388493	-0.000023
1227	1.2199e+02	7.7945	12.042268	0.000299	2.989461	0.506428	-0.000030
1228	1.2209e+02	7.7865	12.020271	0.000221	2.211382	0.374618	-0.000022
1229	1.2219e+02	7.7768	11.997460	0.000229	2.293285	0.388493	-0.000023
1230	1.2229e+02	7.7672	11.970983	0.000266	2.661849	0.450929	-0.000027
1231	1.2239e+02	7.7574	11.947357	0.000238	2.375188	0.402368	-0.000024
1232	1.2248e+02	7.7456	11.920065	0.000274	2.743752	0.464804	-0.000027
1233	1.2258e+02	7.7364	11.894810	0.000254	2.538994	0.430117	-0.000025
1234	1.2268e+02	7.7271	11.867111	0.000278	2.784703	0.471741	-0.000028
1235	1.2278e+02	7.7183	11.835745	0.000315	3.153267	0.534178	-0.000032
1236	1.2288e+02	7.7052	11.810897	0.000250	2.498043	0.423180	-0.000025
1237	1.2298e+02	7.6961	11.781161	0.000299	2.989461	0.506428	-0.000030
1238	1.2308e+02	7.6864	11.751018	0.000303	3.030412	0.513366	-0.000030
1239	1.2318e+02	7.6758	11.722911	0.000283	2.825655	0.478679	-0.000028
1240	1.2328e+02	7.6662	11.695619	0.000274	2.743752	0.464804	-0.000027
1241	1.2338e+02	7.6582	11.666291	0.000295	2.948509	0.499491	-0.000029
1242	1.2348e+02	7.6476	11.634925	0.000315	3.153267	0.534178	-0.000032
1243	1.2358e+02	7.6367	11.607226	0.000278	2.784703	0.471741	-0.000028
1244	1.2368e+02	7.6266	11.579527	0.000278	2.784703	0.471741	-0.000028
1245	1.2378e+02	7.6183	11.550605	0.000291	2.907558	0.492554	-0.000029
1246	1.2388e+02	7.6064	11.522906	0.000278	2.784703	0.471741	-0.000028
1247	1.2398e+02	7.5977	11.492763	0.000303	3.030412	0.513366	-0.000030
1248	1.2408e+02	7.5864	11.460990	0.000319	3.194218	0.541115	-0.000032
1249	1.2418e+02	7.5781	11.430847	0.000303	3.030412	0.513366	-0.000030
1250	1.2428e+02	7.5684	11.403555	0.000274	2.743752	0.464804	-0.000027
1251	1.2438e+02	7.5591	11.373819	0.000299	2.989461	0.506428	-0.000030
1252	1.2447e+02	7.5460	11.345305	0.000287	2.866606	0.485616	-0.000029
1253	1.2457e+02	7.5377	11.314754	0.000307	3.071364	0.520303	-0.000031
1254	1.2467e+02	7.5262	11.285018	0.000299	2.989461	0.506428	-0.000030
1255	1.2477e+02	7.5170	11.255689	0.000295	2.948509	0.499491	-0.000029
1256	1.2487e+02	7.5075	11.228397	0.000274	2.743752	0.464804	-0.000027
1257	1.2497e+02	7.4970	11.200291	0.000283	2.825655	0.478679	-0.000028
1258	1.2507e+02	7.4870	11.175443	0.000250	2.498043	0.423180	-0.000025
1259	1.2517e+02	7.4823	11.146114	0.000295	2.948509	0.499491	-0.000029
1260	1.2527e+02	7.4651	11.116786	0.000295	2.948509	0.499491	-0.000029
1261	1.2537e+02	7.4586	11.091530	0.000254	2.538994	0.430117	-0.000025
1262	1.2547e+02	7.4460	11.061794	0.000299	2.989461	0.506428	-0.000030
1263	1.2557e+02	7.4339	11.033688	0.000283	2.825655	0.478679	-0.000028
1264	1.2567e+02	7.4271	11.007210	0.000266	2.661849	0.450929	-0.000027
1265	1.2577e+02	7.4207	10.978289	0.000291	2.907558	0.492554	-0.000029
1266	1.2587e+02	7.4076	10.950590	0.000278	2.784703	0.471741	-0.000028
1267	1.2597e+02	7.3991	10.921261	0.000295	2.948509	0.499491	-0.000029
1268	1.2607e+02	7.3858	10.893969	0.000274	2.743752	0.464804	-0.000027
1269	1.2617e+02	7.3787	10.866677	0.000274	2.743752	0.464804	-0.000027
1270	1.2627e+02	7.3677	10.839385	0.000274	2.743752	0.464804	-0.000027
1271	1.2636e+02	7.3586	10.810871	0.000287	2.866606	0.485616	-0.000029
1272	1.2646e+02	7.3479	10.782357	0.000287	2.866606	0.485616	-0.000029
1273	1.2656e+02	7.3385	10.755065	0.000274	2.743752	0.464804	-0.000027
1274	1.2666e+02	7.3284	10.726551	0.000287	2.866606	0.485616	-0.000029
1275	1.2676e+02	7.3213	10.696001	0.000307	3.071364	0.520303	-0.000031
1276	1.2686e+02	7.3080	10.672782	0.000233	2.334236	0.395430	-0.000023
1277	1.2696e+02	7.2965	10.638973	0.000340	3.398976	0.575802	-0.000034
1278	1.2706e+02	7.2883	10.617384	0.000217	2.170430	0.367681	-0.000022
1279	1.2716e+02	7.2767	10.590906	0.000266	2.661849	0.450929	-0.000027
1280	1.2726e+02	7.2706	10.557097	0.000340	3.398976	0.575802	-0.000034
1281	1.2736e+02	7.2590	10.533471	0.000238	2.375188	0.402368	-0.000024
1282	1.2746e+02	7.2495	10.505364	0.000283	2.825655	0.478679	-0.000028
1283	1.2756e+02	7.2387	10.472777	0.000328	3.276121	0.554990	-0.000033
1284	1.2766e+02	7.2315	10.447929	0.000250	2.498043	0.423180	-0.000025
1285	1.2776e+02	7.2191	10.420230	0.000278	2.784703	0.471741	-0.000028
1286	1.2786e+02	7.2071	10.391308	0.000291	2.907558	0.492554	-0.000029
1287	1.2796e+02	7.1987	10.364017	0.000274	2.743752	0.464804	-0.000027
1288	1.2806e+02	7.1888	10.337539	0.000266	2.661849	0.450929	-0.000027
1289	1.2816e+02	7.1807	10.313506	0.000242	2.416140	0.409305	-0.000024
1290	1.2826e+02	7.1685	10.283770	0.000299	2.989461	0.506428	-0.000030
1291	1.2835e+02	7.1590	10.253219	0.000307	3.071364	0.520303	-0.000031
1292	1.2845e+02	7.1495	10.231223	0.000221	2.211382	0.374618	-0.000022
1293	1.2855e+02	7.1389	10.203116	0.000283	2.825655	0.478679	-0.000028
1294	1.2865e+02	7.1297	10.170121	0.000332	3.317073	0.561927	-0.000033
1295	1.2875e+02	7.1218	10.144866	0.000254	2.538994	0.430117	-0.000025
1296	1.2885e+02	7.1101	10.113094	0.000319	3.194218	0.541115	-0.000032
1297	1.2895e+02	7.1017	10.084987	0.000283	2.825655	0.478679	-0.000028
1298	1.2905e+02	7.0913	10.052807	0.000324	3.235170	0.548053	-0.000032
1299	1.2915e+02	7.0790	10.026330	0.000266	2.661849	0.450929	-0.000027
1300	1.2925e+02	7.0716	9.998630	0.000278	2.784703	0.471741	-0.000028
1301	1.2935e+02	7.0616	9.966450	0.000324	3.235170	0.548053	-0.000032
1302	1.2945e+02	7.0522	9.938751	0.000278	2.784703	0.471741	-0.000028
1303	1.2955e+02	7.0432	9.910644	0.000283	2.825655	0.478679	-0.000028
1304	1.2965e+02	7.0307	9.879279	0.000315	3.153267	0.534178	-0.000032
1305	1.2975e+02	7.0196	9.850765	0.000287	2.866606	0.485616	-0.000029
1306	1.2985e+02	7.0128	9.820214	0.000307	3.071364	0.520303	-0.000031
1307	1.2995e+02	7.0015	9.792108	0.000283	2.825655	0.478679	-0.000028
1308	1.3005e+02	6.9910	9.760335	0.000319	3.194218	0.541115	-0.000032
1309	1.3015e+02	6.9793	9.733043	0.000274	2.743752	0.464804	-0.000027
1310	1.3025e+02	6.9714	9.701678	0.000315	3.153267	0.534178	-0.000032
1311	1.3034e+02	6.9604	9.672756	0.000291	2.907558	0.492554	-0.000029
1312	1.3044e+02	6.9520	9.643020	0.000299	2.989461	0.506428	-0.000030
1313	1.3054e+02	6.9390	9.613284	0.000299	2.989461	0.506428	-0.000030
1314	1.3064e+02	6.9331	9.585992	0.000274	2.743752	0.464804	-0.000027
1315	1.3074e+02	6.9227	9.559515	0.000266	2.661849	0.450929	-0.000027
1316	1.3084e+02	6.9083	9.526113	0.000336	3.358024	0.568865	-0.000034
1317	1.3094e+02	6.9012	9.501672	0.000246	2.457091	0.416242	-0.000025
1318	1.3104e+02	6.8911	9.473158	0.000287	2.866606	0.485616	-0.000029
1319	1.3114e+02	6.8829	9.446681	0.000266	2.661849	0.450929	-0.000027
1320	1.3124e+02	6.8701	9.417760	0.000291	2.907558	0.492554	-0.000029
1321	1.3134e+02	6.8605	9.395763	0.000221	2.211382	0.374618	-0.000022
1322	1.3144e+02	6.8498	9.369286	0.000266	2.661849	0.450929	-0.000027
1323	1.3154e+02	6.8399	9.344438	0.000250	2.498043	0.423180	-0.000025
1324	1.3164e+02	6.8334	9.318776	0.000258	2.579946	0.437055	-0.000026
1325	1.3174e+02	6.8212	9.289854	0.000291	2.907558	0.492554	-0.000029
1326	1.3184e+02	6.8108	9.261340	0.000287	2.866606	0.485616	-0.000029
1327	1.3194e+02	6.8023	9.240566	0.000209	2.088527	0.353806	-0.000021
1328	1.3204e+02	6.7907	9.214496	0.000262	2.620897	0.443992	-0.000026
1329	1.3214e+02	6.7799	9.184353	0.000303	3.030412	0.513366	-0.000030
1330	1.3224e+02	6.7687	9.157468	0.000270	2.702800	0.457867	-0.000027
1331	1.3234e+02	6.7590	9.130991	0.000266	2.661849	0.450929	-0.000027
1332	1.3243e+02	6.7518	9.109401	0.000217	2.170430	0.367681	-0.000022
1333	1.3253e+02	6.7423	9.084961	0.000246	2.457091	0.416242	-0.000025
1334	1.3263e+02	6.7316	9.062964	0.000221	2.211382	0.374618	-0.000022
1335	1.3273e+02	6.7212	9.032006	0.000311	3.112315	0.527240	-0.000031
1336	1.3283e+02	6.7126	9.005936	0.000262	2.620897	0.443992	-0.000026
1337	1.3293e+02	6.7027	8.979459	0.000266	2.661849	0.450929	-0.000027
1338	1.3303e+02	6.6920	8.954611	0.000250	2.498043	0.423180	-0.000025
1339	1.3313e+02	6.6851	8.929763	0.000250	2.498043	0.423180	-0.000025
1340	1.3323e+02	6.6710	8.904508	0.000254	2.538994	0.430117	-0.000025
1341	1.3333e+02	6.6619	8.871513	0.000332	3.317073	0.561927	-0.000033
1342	1.3343e+02	6.6518	8.844221	0.000274	2.743752	0.464804	-0.000027
1343	1.3353e+02	6.6442	8.816522	0.000278	2.784703	0.471741	-0.000028
1344	1.3363e+02	6.6331	8.787601	0.000291	2.907558	0.492554	-0.000029
1345	1.3373e+02	6.6206	8.762753	0.000250	2.498043	0.423180	-0.000025
1346	1.3383e+02	6.6130	8.735054	0.000278	2.784703	0.471741	-0.000028
1347	1.3393e+02	6.6014	8.707354	0.000278	2.784703	0.471741	-0.000028
1348	1.3403e+02	6.5957	8.678433	0.000291	2.907558	0.492554	-0.000029
1349	1.3413e+02	6.5828	8.652770	0.000258	2.579946	0.437055	-0.000026
1350	1.3423e+02	6.5740	8.624664	0.000283	2.825655	0.478679	-0.000028
1351	1.3432e+02	6.5609	8.595743	0.000291	2.907558	0.492554	-0.000029
1352	1.3442e+02	6.5562	8.568858	0.000270	2.702800	0.457867	-0.000027
1353	1.3452e+02	6.5432	8.541566	0.000274	2.743752	0.464804	-0.000027
1354	1.3462e+02	6.5318	8.512237	0.000295	2.948509	0.499491	-0.000029
1355	1.3472e+02	6.5252	8.489019	0.000233	2.334236	0.395430	-0.000023
1356	1.3482e+02	6.5130	8.456839	0.000324	3.235170	0.548053	-0.000032
1357	1.3492e+02	6.5013	8.430361	0.000266	2.661849	0.450929	-0.000027
1358	1.3502e+02	6.4919	8.402662	0.000278	2.784703	0.471741	-0.000028
1359	1.3512e+02	6.4855	8.371704	0.000311	3.112315	0.527240	-0.000031
1360	1.3522e+02	6.4742	8.344005	0.000278	2.784703	0.471741	-0.000028
1361	1.3532e+02	6.4649	8.313861	0.000303	3.030412	0.513366	-0.000030
1362	1.3542e+02	6.4513	8.289014	0.000250	2.498043	0.423180	-0.000025
1363	1.3552e+02	6.4434	8.258056	0.000311	3.112315	0.527240	-0.000031
1364	1.3562e+02	6.4329	8.232800	0.000254	2.538994	0.430117	-0.000025
1365	1.3572e+02	6.4248	8.203472	0.000295	2.948509	0.499491	-0.000029
1366	1.3582e+02	6.4141	8.176180	0.000274	2.743752	0.464804	-0.000027
1367	1.3592e+02	6.4014	8.146444	0.000299	2.989461	0.506428	-0.000030
1368	1.3602e+02	6.3941	8.119966	0.000266	2.661849	0.450929	-0.000027
1369	1.3612e+02	6.3845	8.090230	0.000299	2.989461	0.506428	-0.000030
1370	1.3622e+02	6.3731	8.060494	0.000299	2.989461	0.506428	-0.000030
1371	1.3631e+02	6.3628	8.034017	0.000266	2.661849	0.450929	-0.000027
1372	1.3641e+02	6.3527	8.001430	0.000328	3.276121	0.554990	-0.000033
1373	1.3651e+02	6.3427	7.971286	0.000303	3.030412	0.513366	-0.000030
1374	1.3661e+02	6.3343	7.945216	0.000262	2.620897	0.443992	-0.000026
1375	1.3671e+02	6.3251	7.916702	0.000287	2.866606	0.485616	-0.000029
1376	1.3681e+02	6.3131	7.881671	0.000352	3.521830	0.596614	-0.000035
1377	1.3691e+02	6.3023	7.855194	0.000266	2.661849	0.450929	-0.000027
1378	1.3701e+02	6.2945	7.827087	0.000283	2.825655	0.478679	-0.000028
1379	1.3711e+02	6.2831	7.801832	0.000254	2.538994	0.430117	-0.000025
1380	1.3721e+02	6.2724	7.770467	0.000315	3.153267	0.534178	-0.000032
1381	1.3731e+02	6.2638	7.746026	0.000246	2.457091	0.416242	-0.000025
1382	1.3741e+02	6.2557	7.716697	0.000295	2.948509	0.499491	-0.000029
1383	1.3751e+02	6.2466	7.691442	0.000254	2.538994	0.430117	-0.000025
1384	1.3761e+02	6.2359	7.663743	0.000278	2.784703	0.471741	-0.000028
1385	1.3771e+02	6.2240	7.638080	0.000258	2.579946	0.437055	-0.000026
1386	1.3781e+02	6.2151	7.609566	0.000287	2.866606	0.485616	-0.000029
1387	1.3791e+02	6.2045	7.578608	0.000311	3.112315	0.527240	-0.000031
1388	1.3801e+02	6.1958	7.552131	0.000266	2.661849	0.450929	-0.000027
1389	1.3811e+02	6.1834	7.521988	0.000303	3.030412	0.513366	-0.000030
1390	1.3821e+02	6.1736	7.495103	0.000270	2.702800	0.457867	-0.000027
1391	1.3831e+02	6.1669	7.465774	0.000295	2.948509	0.499491	-0.000029
1392	1.3840e+02	6.1530	7.438482	0.000274	2.743752	0.464804	-0.000027
1393	1.3850e+02	6.1466	7.414449	0.000242	2.416140	0.409305	-0.000024
1394	1.3860e+02	6.1352	7.385120	0.000295	2.948509	0.499491	-0.000029
1395	1.3870e+02	6.1257	7.354570	0.000307	3.071364	0.520303	-0.000031
1396	1.3880e+02	6.1175	7.328093	0.000266	2.661849	0.450929	-0.000027
1397	1.3890e+02	6.1053	7.299986	0.000283	2.825655	0.478679	-0.000028
1398	1.3900e+02	6.0958	7.270657	0.000295	2.948509	0.499491	-0.000029
1399	1.3910e+02	6.0841	7.243365	0.000274	2.743752	0.464804	-0.000027
1400	1.3920e+02	6.0758	7.215259	0.000283	2.825655	0.478679	-0.000028
1401	1.3930e+02	6.0663	7.183893	0.000315	3.153267	0.534178	-0.000032
1402	1.3940e+02	6.0549	7.154972	0.000291	2.907558	0.492554	-0.000029
1403	1.3950e+02	6.0454	7.124014	0.000311	3.112315	0.527240	-0.000031
1404	1.3960e+02	6.0343	7.091019	0.000332	3.317073	0.561927	-0.000033
1405	1.3970e+02	6.0255	7.059246	0.000319	3.194218	0.541115	-0.000032
1406	1.3980e+02	6.0156	7.027474	0.000319	3.194218	0.541115	-0.000032
1407	1.3990e+02	6.0059	6.993257	0.000344	3.439927	0.582739	-0.000034
1408	1.4000e+02	5.9972	6.962706	0.000307	3.071364	0.520303	-0.000031
1409	1.4010e+02	5.9839	6.932563	0.000303	3.030412	0.513366	-0.000030
1410	1.4020e+02	5.9745	6.895902	0.000369	3.685637	0.624364	-0.000037
1411	1.4029e+02	5.9689	6.864129	0.000319	3.194218	0.541115	-0.000032
1412	1.4039e+02	5.9565	6.832357	0.000319	3.194218	0.541115	-0.000032
1413	1.4049e+02	5.9455	6.801399	0.000311	3.112315	0.527240	-0.000031
1414	1.4059e+02	5.9364	6.768811	0.000328	3.276121	0.554990	-0.000033
1415	1.4069e+02	5.9255	6.740297	0.000287	2.866606	0.485616	-0.000029
1416	1.4079e+02	5.9131	6.704044	0.000364	3.644685	0.617426	-0.000036
1417	1.4089e+02	5.9047	6.671456	0.000328	3.276121	0.554990	-0.000033
1418	1.4099e+02	5.8974	6.640906	0.000307	3.071364	0.520303	-0.000031
1419	1.4109e+02	5.8860	6.608318	0.000328	3.276121	0.554990	-0.000033
1420	1.4119e+02	5.8769	6.571250	0.000373	3.726588	0.631301	-0.000037
1421	1.4129e+02	5.8672	6.539477	0.000319	3.194218	0.541115	-0.000032
1422	1.4139e+02	5.8562	6.504039	0.000356	3.562782	0.603552	-0.000036
1423	1.4149e+02	5.8489	6.474303	0.000299	2.989461	0.506428	-0.000030
1424	1.4159e+02	5.8361	6.442530	0.000319	3.194218	0.541115	-0.000032
1425	1.4169e+02	5.8276	6.411572	0.000311	3.112315	0.527240	-0.000031
1426	1.4179e+02	5.8166	6.382650	0.000291	2.907558	0.492554	-0.000029
1427	1.4189e+02	5.8077	6.350470	0.000324	3.235170	0.548053	-0.000032
1428	1.4199e+02	5.7960	6.321549	0.000291	2.907558	0.492554	-0.000029
1429	1.4209e+02	5.7861	6.288554	0.000332	3.317073	0.561927	-0.000033
1430	1.4219e+02	5.7751	6.256782	0.000319	3.194218	0.541115	-0.000032
1431	1.4228e+02	5.7685	6.227046	0.000299	2.989461	0.506428	-0.000030
1432	1.4238e+02	5.7610	6.192421	0.000348	3.480879	0.589677	-0.000035
1433	1.4248e+02	5.7475	6.161463	0.000311	3.112315	0.527240	-0.000031
1434	1.4258e+02	5.7383	6.132135	0.000295	2.948509	0.499491	-0.000029
1435	1.4268e+02	5.7265	6.098733	0.000336	3.358024	0.568865	-0.000034
1436	1.4278e+02	5.7133	6.071441	0.000274	2.743752	0.464804	-0.000027
1437	1.4288e+02	5.7072	6.036409	0.000352	3.521830	0.596614	-0.000035
1438	1.4298e+02	5.6945	6.007895	0.000287	2.866606	0.485616	-0.000029
1439	1.4308e+02	5.6882	5.975715	0.000324	3.235170	0.548053	-0.000032
1440	1.4318e+02	5.6763	5.944757	0.000311	3.112315	0.527240	-0.000031
1441	1.4328e+02	5.6695	5.912984	0.000319	3.194218	0.541115	-0.000032
1442	1.4338e+02	5.6543	5.881619	0.000315	3.153267	0.534178	-0.000032
1443	1.4348e+02	5.6490	5.851883	0.000299	2.989461	0.506428	-0.000030
1444	1.4358e+02	5.6345	5.820518	0.000315	3.153267	0.534178	-0.000032
1445	1.4368e+02	5.6313	5.792004	0.000287	2.866606	0.485616	-0.000029
1446	1.4378e+02	5.6158	5.758602	0.000336	3.358024	0.568865	-0.000034
1447	1.4388e+02	5.6062	5.723978	0.000348	3.480879	0.589677	-0.000035
1448	1.4398e+02	5.5982	5.695056	0.000291	2.907558	0.492554	-0.000029
1449	1.4408e+02	5.5866	5.665320	0.000299	2.989461	0.506428	-0.000030
1450	1.4418e+02	5.5788	5.635177	0.000303	3.030412	0.513366	-0.000030
1451	1.4428e+02	5.5665	5.601775	0.000336	3.358024	0.568865	-0.000034
1452	1.4437e+02	5.5563	5.570002	0.000319	3.194218	0.541115	-0.000032
1453	1.4447e+02	5.5492	5.539859	0.000303	3.030412	0.513366	-0.000030
1454	1.4457e+02	5.5389	5.507271	0.000328	3.276121	0.554990	-0.000033
1455	1.4467e+02	5.5311	5.478757	0.000287	2.866606	0.485616	-0.000029
1456	1.4477e+02	5.5162	5.445355	0.000336	3.358024	0.568865	-0.000034
1457	1.4487e+02	5.5073	5.415212	0.000303	3.030412	0.513366	-0.000030
1458	1.4497e+02	5.4986	5.382217	0.000332	3.317073	0.561927	-0.000033
1459	1.4507e+02	5.4883	5.356147	0.000262	2.620897	0.443992	-0.000026
1460	1.4517e+02	5.4784	5.322745	0.000336	3.358024	0.568865	-0.000034
1461	1.4527e+02	5.4682	5.295453	0.000274	2.743752	0.464804	-0.000027
1462	1.4537e+02	5.4594	5.260014	0.000356	3.562782	0.603552	-0.000036
1463	1.4547e+02	5.4482	5.229464	0.000307	3.071364	0.520303	-0.000031
1464	1.4557e+02	5.4367	5.196876	0.000328	3.276121	0.554990	-0.000033
1465	1.4567e+02	5.4296	5.158179	0.000389	3.890394	0.659051	-0.000039
1466	1.4577e+02	5.4186	5.130072	0.000283	2.825655	0.478679	-0.000028
1467	1.4587e+02	5.4061	5.095041	0.000352	3.521830	0.596614	-0.000035
1468	1.4597e+02	5.4003	5.065712	0.000295	2.948509	0.499491	-0.000029
1469	1.4607e+02	5.3880	5.031903	0.000340	3.398976	0.575802	-0.000034
1470	1.4617e+02	5.3776	4.999315	0.000328	3.276121	0.554990	-0.000033
1471	1.4626e+02	5.3689	4.962654	0.000369	3.685637	0.624364	-0.000037
1472	1.4636e+02	5.3589	4.931696	0.000311	3.112315	0.527240	-0.000031
1473	1.4646e+02	5.3472	4.902775	0.000291	2.907558	0.492554	-0.000029
1474	1.4656e+02	5.3376	4.868558	0.000344	3.439927	0.582739	-0.000034
1475	1.4666e+02	5.3298	4.833527	0.000352	3.521830	0.596614	-0.000035
1476	1.4676e+02	5.3161	4.803383	0.000303	3.030412	0.513366	-0.000030
1477	1.4686e+02	5.3088	4.768352	0.000352	3.521830	0.596614	-0.000035
1478	1.4696e+02	5.3008	4.737394	0.000311	3.112315	0.527240	-0.000031
1479	1.4706e+02	5.2895	4.699918	0.000377	3.767540	0.638238	-0.000038
1480	1.4716e+02	5.2772	4.666924	0.000332	3.317073	0.561927	-0.000033
1481	1.4726e+02	5.2703	4.637188	0.000299	2.989461	0.506428	-0.000030
1482	1.4736e+02	5.2579	4.606230	0.000311	3.112315	0.527240	-0.000031
1483	1.4746e+02	5.2480	4.572013	0.000344	3.439927	0.582739	-0.000034
1484	1.4756e+02	5.2377	4.539833	0.000324	3.235170	0.548053	-0.000032
1485	1.4766e+02	5.2320	4.508467	0.000315	3.153267	0.534178	-0.000032
1486	1.4776e+02	5.2189	4.478731	0.000299	2.989461	0.506428	-0.000030
1487	1.4786e+02	5.2105	4.447773	0.000311	3.112315	0.527240	-0.000031
1488	1.4796e+02	5.2010	4.418037	0.000299	2.989461	0.506428	-0.000030
1489	1.4806e+02	5.1876	4.394004	0.000242	2.416140	0.409305	-0.000024
1490	1.4816e+02	5.1791	4.358565	0.000356	3.562782	0.603552	-0.000036
1491	1.4825e+02	5.1718	4.333717	0.000250	2.498043	0.423180	-0.000025
1492	1.4835e+02	5.1595	4.302352	0.000315	3.153267	0.534178	-0.000032
1493	1.4845e+02	5.1490	4.274653	0.000278	2.784703	0.471741	-0.000028
1494	1.4855e+02	5.1388	4.239214	0.000356	3.562782	0.603552	-0.000036
1495	1.4865e+02	5.1295	4.214773	0.000246	2.457091	0.416242	-0.000025
1496	1.4875e+02	5.1213	4.184223	0.000307	3.071364	0.520303	-0.000031
1497	1.4885e+02	5.1112	4.155301	0.000291	2.907558	0.492554	-0.000029
1498	1.4895e+02	5.1000	4.125158	0.000303	3.030412	0.513366	-0.000030
1499	1.4905e+02	5.0880	4.096237	0.000291	2.907558	0.492554	-0.000029
1500	1.4915e+02	5.0829	4.067315	0.000291	2.907558	0.492554	-0.000029
1501	1.4925e+02	5.0714	4.039209	0.000283	2.825655	0.478679	-0.000028
1502	1.4935e+02	5.0610	4.011917	0.000274	2.743752	0.464804	-0.000027
1503	1.4945e+02	5.0526	3.980551	0.000315	3.153267	0.534178	-0.000032
1504	1.4955e+02	5.0397	3.953259	0.000274	2.743752	0.464804	-0.000027
1505	1.4965e+02	5.0320	3.924745	0.000287	2.866606	0.485616	-0.000029
1506	1.4975e+02	5.0221	3.892973	0.000319	3.194218	0.541115	-0.000032
1507	1.4985e+02	5.0109	3.859978	0.000332	3.317073	0.561927	-0.000033
1508	1.4995e+02	5.0008	3.830649	0.000295	2.948509	0.499491	-0.000029
1509	1.5005e+02	4.9903	3.802135	0.000287	2.866606	0.485616	-0.000029
1510	1.5015e+02	4.9824	3.767511	0.000348	3.480879	0.589677	-0.000035
1511	1.5025e+02	4.9702	3.736553	0.000311	3.112315	0.527240	-0.000031
1512	1.5034e+02	4.9600	3.706003	0.000307	3.071364	0.520303	-0.000031
1513	1.5044e+02	4.9507	3.676674	0.000295	2.948509	0.499491	-0.000029
1514	1.5054e+02	4.9413	3.642457	0.000344	3.439927	0.582739	-0.000034
1515	1.5064e+02	4.9322	3.608240	0.000344	3.439927	0.582739	-0.000034
1516	1.5074e+02	4.9195	3.581763	0.000266	2.661849	0.450929	-0.000027
1517	1.5084e+02	4.9113	3.549583	0.000324	3.235170	0.548053	-0.000032
1518	1.5094e+02	4.9009	3.516996	0.000328	3.276121	0.554990	-0.000033
1519	1.5104e+02	4.8907	3.490926	0.000262	2.620897	0.443992	-0.000026
1520	1.5114e+02	4.8823	3.456709	0.000344	3.439927	0.582739	-0.000034
1521	1.5124e+02	4.8716	3.426158	0.000307	3.071364	0.520303	-0.000031
1522	1.5134e+02	4.8604	3.399681	0.000266	2.661849	0.450929	-0.000027
1523	1.5144e+02	4.8507	3.363835	0.000360	3.603734	0.610489	-0.000036
1524	1.5154e+02	4.8447	3.330025	0.000340	3.398976	0.575802	-0.000034
1525	1.5164e+02	4.8322	3.299067	0.000311	3.112315	0.527240	-0.000031
1526	1.5174e+02	4.8265	3.267702	0.000315	3.153267	0.534178	-0.000032
1527	1.5184e+02	4.8101	3.237559	0.000303	3.030412	0.513366	-0.000030
1528	1.5194e+02	4.8014	3.205379	0.000324	3.235170	0.548053	-0.000032
1529	1.5204e+02	4.7918	3.171569	0.000340	3.398976	0.575802	-0.000034
1530	1.5214e+02	4.7838	3.138574	0.000332	3.317073	0.561927	-0.000033
1531	1.5224e+02	4.7720	3.109653	0.000291	2.907558	0.492554	-0.000029
1532	1.5233e+02	4.7620	3.073400	0.000364	3.644685	0.617426	-0.000036
1533	1.5243e+02	4.7521	3.047330	0.000262	2.620897	0.443992	-0.000026
1534	1.5253e+02	4.7435	3.013928	0.000336	3.358024	0.568865	-0.000034
1535	1.5263e+02	4.7320	2.982155	0.000319	3.194218	0.541115	-0.000032
1536	1.5273e+02	4.7210	2.949567	0.000328	3.276121	0.554990	-0.000033
1537	1.5283e+02	4.7131	2.917795	0.000319	3.194218	0.541115	-0.000032
1538	1.5293e+02	4.7018	2.884800	0.000332	3.317073	0.561927	-0.000033
1539	1.5303e+02	4.6926	2.851398	0.000336	3.358024	0.568865	-0.000034
1540	1.5313e+02	4.6830	2.816366	0.000352	3.521830	0.596614	-0.000035
1541	1.5323e+02	4.6729	2.785408	0.000311	3.112315	0.527240	-0.000031
1542	1.5333e+02	4.6585	2.754858	0.000307	3.071364	0.520303	-0.000031
1543	1.5343e+02	4.6542	2.721048	0.000340	3.398976	0.575802	-0.000034
1544	1.5353e+02	4.6400	2.685609	0.000356	3.562782	0.603552	-0.000036
1545	1.5363e+02	4.6327	2.653429	0.000324	3.235170	0.548053	-0.000032
1546	1.5373e+02	4.6221	2.617991	0.000356	3.562782	0.603552	-0.000036
1547	1.5383e+02	4.6122	2.588255	0.000299	2.989461	0.506428	-0.000030
1548	1.5393e+02	4.6034	2.558111	0.000303	3.030412	0.513366	-0.000030
1549	1.5403e+02	4.5956	2.524302	0.000340	3.398976	0.575802	-0.000034
1550	1.5413e+02	4.5829	2.498232	0.000262	2.620897	0.443992	-0.000026
1551	1.5422e+02	4.5724	2.466866	0.000315	3.153267	0.534178	-0.000032
1552	1.5432e+02	4.5627	2.433872	0.000332	3.317073	0.561927	-0.000033
1553	1.5442e+02	4.5508	2.403321	0.000307	3.071364	0.520303	-0.000031
1554	1.5452e+02	4.5409	2.373178	0.000303	3.030412	0.513366	-0.000030
1555	1.5462e+02	4.5335	2.340590	0.000328	3.276121	0.554990	-0.000033
1556	1.5472e+02	4.5230	2.309632	0.000311	3.112315	0.527240	-0.000031
1557	1.5482e+02	4.5138	2.273786	0.000360	3.603734	0.610489	-0.000036
1558	1.5492e+02	4.5034	2.242421	0.000315	3.153267	0.534178	-0.000032
1559	1.5502e+02	4.4916	2.215129	0.000274	2.743752	0.464804	-0.000027
1560	1.5512e+02	4.4855	2.184171	0.000311	3.112315	0.527240	-0.000031
1561	1.5522e+02	4.4742	2.149954	0.000344	3.439927	0.582739	-0.000034
1562	1.5532e+02	4.4613	2.118996	0.000311	3.112315	0.527240	-0.000031
1563	1.5542e+02	4.4559	2.087223	0.000319	3.194218	0.541115	-0.000032
1564	1.5552e+02	4.4413	2.056265	0.000311	3.112315	0.527240	-0.000031
1565	1.5562e+02	4.4324	2.022863	0.000336	3.358024	0.568865	-0.000034
1566	1.5572e+02	4.4238	1.991905	0.000311	3.112315	0.527240	-0.000031
1567	1.5582e+02	4.4155	1.958910	0.000332	3.317073	0.561927	-0.000033
1568	1.5592e+02	4.4047	1.929989	0.000291	2.907558	0.492554	-0.000029
1569	1.5602e+02	4.3938	1.892921	0.000373	3.726588	0.631301	-0.000037
1570	1.5612e+02	4.3829	1.856667	0.000364	3.644685	0.617426	-0.000036
1571	1.5622e+02	4.3713	1.825302	0.000315	3.153267	0.534178	-0.000032
1572	1.5631e+02	4.3636	1.790271	0.000352	3.521830	0.596614	-0.000035
1573	1.5641e+02	4.3556	1.749944	0.000405	4.054200	0.686800	-0.000041
1574	1.5651e+02	4.3427	1.718171	0.000319	3.194218	0.541115	-0.000032
1575	1.5661e+02	4.3337	1.679881	0.000385	3.849443	0.652113	-0.000038
1576	1.5671e+02	4.3246	1.644442	0.000356	3.562782	0.603552	-0.000036
1577	1.5681e+02	4.3137	1.606559	0.000381	3.808491	0.645176	-0.000038
1578	1.5691e+02	4.3049	1.571935	0.000348	3.480879	0.589677	-0.000035
1579	1.5701e+02	4.2937	1.535681	0.000364	3.644685	0.617426	-0.000036
1580	1.5711e+02	4.2850	1.502687	0.000332	3.317073	0.561927	-0.000033
1581	1.5721e+02	4.2749	1.467655	0.000352	3.521830	0.596614	-0.000035
1582	1.5731e+02	4.2641	1.430180	0.000377	3.767540	0.638238	-0.000038
1583	1.5741e+02	4.2583	1.392704	0.000377	3.767540	0.638238	-0.000038
1584	1.5751e+02	4.2464	1.353192	0.000397	3.972297	0.672925	-0.000040
1585	1.5761e+02	4.2329	1.317346	0.000360	3.603734	0.610489	-0.000036
1586	1.5771e+02	4.2223	1.281500	0.000360	3.603734	0.610489	-0.000036
1587	1.5781e+02	4.2133	1.244839	0.000369	3.685637	0.624364	-0.000037
1588	1.5791e+02	4.2048	1.208993	0.000360	3.603734	0.610489	-0.000036
1589	1.5801e+02	4.1936	1.172739	0.000364	3.644685	0.617426	-0.000036
1590	1.5811e+02	4.1827	1.138522	0.000344	3.439927	0.582739	-0.000034
1591	1.5821e+02	4.1760	1.099418	0.000393	3.931346	0.665988	-0.000039
1592	1.5830e+02	4.1627	1.066423	0.000332	3.317073	0.561927	-0.000033
1593	1.5840e+02	4.1553	1.033428	0.000332	3.317073	0.561927	-0.000033
1594	1.5850e+02	4.1457	0.995138	0.000385	3.849443	0.652113	-0.000038
1595	1.5860e+02	4.1357	0.958477	0.000369	3.685637	0.624364	-0.000037
1596	1.5870e+02	4.1228	0.926704	0.000319	3.194218	0.541115	-0.000032
1597	1.5880e+02	4.1113	0.891673	0.000352	3.521830	0.596614	-0.000035
1598	1.5890e+02	4.1062	0.858271	0.000336	3.358024	0.568865	-0.000034
1599	1.5900e+02	4.0942	0.822017	0.000364	3.644685	0.617426	-0.000036
1600	1.5910e+02	4.0868	0.788208	0.000340	3.398976	0.575802	-0.000034
1601	1.5920e+02	4.0734	0.750325	0.000381	3.808491	0.645176	-0.000038
1602	1.5930e+02	4.0649	0.717738	0.000328	3.276121	0.554990	-0.000033
1603	1.5940e+02	4.0559	0.679040	0.000389	3.890394	0.659051	-0.000039
1604	1.5950e+02	4.0430	0.646045	0.000332	3.317073	0.561927	-0.000033
1605	1.5960e+02	4.0353	0.610199	0.000360	3.603734	0.610489	-0.000036
1606	1.5970e+02	4.0257	0.573131	0.000373	3.726588	0.631301	-0.000037
1607	1.5980e+02	4.0147	0.541358	0.000319	3.194218	0.541115	-0.000032
1608	1.5990e+02	4.0054	0.502253	0.000393	3.931346	0.665988	-0.000039
1609	1.6000e+02	3.9953	0.469666	0.000328	3.276121	0.554990	-0.000033
1610	1.6010e+02	3.9834	0.435042	0.000348	3.480879	0.589677	-0.000035
1611	1.6019e+02	3.9771	0.400418	0.000348	3.480879	0.589677	-0.000035
1612	1.6029e+02	3.9677	0.362942	0.000377	3.767540	0.638238	-0.000038
1613	1.6039e+02	3.9568	0.329540	0.000336	3.358024	0.568865	-0.000034
1614	1.6049e+02	3.9468	0.294509	0.000352	3.521830	0.596614	-0.000035
1615	1.6059e+02	3.9341	0.259885	0.000348	3.480879	0.589677	-0.000035
1616	1.6069e+02	3.9248	0.223631	0.000364	3.644685	0.617426	-0.000036
1617	1.6079e+02	3.9169	0.190229	0.000336	3.358024	0.568865	-0.000034
1618	1.6089e+02	3.9066	0.156827	0.000336	3.358024	0.568865	-0.000034
1619	1.6099e+02	3.8957	0.118944	0.000381	3.808491	0.645176	-0.000038
1620	1.6109e+02	3.8863	0.083913	0.000352	3.521830	0.596614	-0.000035
1621	1.6119e+02	3.8773	0.050510	0.000336	3.358024	0.568865	-0.000034
1622	1.6129e+02	3.8653	0.017108	0.000336	3.358024	0.568865	-0.000034
1623	1.6139e+02	3.8554	-0.019145	0.000364	3.644685	0.617426	-0.000036
1624	1.6149e+02	3.8432	-0.051325	0.000324	3.235170	0.548053	-0.000032
1625	1.6159e+02	3.8353	-0.089615	0.000385	3.849443	0.652113	-0.000038
1626	1.6169e+02	3.8297	-0.124239	0.000348	3.480879	0.589677	-0.000035
1627	1.6179e+02	3.8175	-0.158456	0.000344	3.439927	0.582739	-0.000034
1628	1.6189e+02	3.8062	-0.191044	0.000328	3.276121	0.554990	-0.000033
1629	1.6199e+02	3.7966	-0.228927	0.000381	3.808491	0.645176	-0.000038
1630	1.6209e+02	3.7851	-0.265180	0.000364	3.644685	0.617426	-0.000036
1631	1.6219e+02	3.7772	-0.298175	0.000332	3.317073	0.561927	-0.000033
1632	1.6228e+02	3.7669	-0.337687	0.000397	3.972297	0.672925	-0.000040
1633	1.6238e+02	3.7558	-0.372718	0.000352	3.521830	0.596614	-0.000035
1634	1.6248e+02	3.7478	-0.407750	0.000352	3.521830	0.596614	-0.000035
1635	1.6258e+02	3.7386	-0.445225	0.000377	3.767540	0.638238	-0.000038
1636	1.6268e+02	3.7287	-0.480257	0.000352	3.521830	0.596614	-0.000035
1637	1.6278e+02	3.7199	-0.521806	0.000418	4.177055	0.707612	-0.000042
1638	1.6288e+02	3.7080	-0.555615	0.000340	3.398976	0.575802	-0.000034
1639	1.6298e+02	3.6949	-0.592683	0.000373	3.726588	0.631301	-0.000037
1640	1.6308e+02	3.6906	-0.627308	0.000348	3.480879	0.589677	-0.000035
1641	1.6318e+02	3.6773	-0.668042	0.000410	4.095152	0.693737	-0.000041
1642	1.6328e+02	3.6649	-0.703888	0.000360	3.603734	0.610489	-0.000036
1643	1.6338e+02	3.6568	-0.740549	0.000369	3.685637	0.624364	-0.000037
1644	1.6348e+02	3.6487	-0.777617	0.000373	3.726588	0.631301	-0.000037
1645	1.6358e+02	3.6391	-0.814685	0.000373	3.726588	0.631301	-0.000037
1646	1.6368e+02	3.6266	-0.852161	0.000377	3.767540	0.638238	-0.000038
1647	1.6378e+02	3.6179	-0.888821	0.000369	3.685637	0.624364	-0.000037
1648	1.6388e+02	3.6069	-0.925890	0.000373	3.726588	0.631301	-0.000037
1649	1.6398e+02	3.5987	-0.963365	0.000377	3.767540	0.638238	-0.000038
1650	1.6408e+02	3.5865	-0.997175	0.000340	3.398976	0.575802	-0.000034
1651	1.6418e+02	3.5778	-1.035057	0.000381	3.808491	0.645176	-0.000038
1652	1.6427e+02	3.5685	-1.069274	0.000344	3.439927	0.582739	-0.000034
1653	1.6437e+02	3.5614	-1.103491	0.000344	3.439927	0.582739	-0.000034
1654	1.6447e+02	3.5458	-1.138115	0.000348	3.480879	0.589677	-0.000035
1655	1.6457e+02	3.5373	-1.175183	0.000373	3.726588	0.631301	-0.000037
1656	1.6467e+02	3.5263	-1.206956	0.000319	3.194218	0.541115	-0.000032
1657	1.6477e+02	3.5179	-1.239543	0.000328	3.276121	0.554990	-0.000033
1658	1.6487e+02	3.5086	-1.269687	0.000303	3.030412	0.513366	-0.000030
1659	1.6497e+02	3.4996	-1.303496	0.000340	3.398976	0.575802	-0.000034
1660	1.6507e+02	3.4872	-1.340157	0.000369	3.685637	0.624364	-0.000037
1661	1.6517e+02	3.4795	-1.373559	0.000336	3.358024	0.568865	-0.000034
1662	1.6527e+02	3.4661	-1.406146	0.000328	3.276121	0.554990	-0.000033
1663	1.6537e+02	3.4598	-1.440771	0.000348	3.480879	0.589677	-0.000035
1664	1.6547e+02	3.4490	-1.475802	0.000352	3.521830	0.596614	-0.000035
1665	1.6557e+02	3.4374	-1.507982	0.000324	3.235170	0.548053	-0.000032
1666	1.6567e+02	3.4286	-1.542606	0.000348	3.480879	0.589677	-0.000035
1667	1.6577e+02	3.4216	-1.574379	0.000319	3.194218	0.541115	-0.000032
1668	1.6587e+02	3.4082	-1.606152	0.000319	3.194218	0.541115	-0.000032
1669	1.6597e+02	3.3994	-1.638739	0.000328	3.276121	0.554990	-0.000033
1670	1.6607e+02	3.3900	-1.673771	0.000352	3.521830	0.596614	-0.000035
1671	1.6616e+02	3.3814	-1.703507	0.000299	2.989461	0.506428	-0.000030
1672	1.6626e+02	3.3688	-1.737316	0.000340	3.398976	0.575802	-0.000034
1673	1.6636e+02	3.3572	-1.769903	0.000328	3.276121	0.554990	-0.000033
1674	1.6646e+02	3.3479	-1.806972	0.000373	3.726588	0.631301	-0.000037
1675	1.6656e+02	3.3392	-1.842410	0.000356	3.562782	0.603552	-0.000036
1676	1.6666e+02	3.3277	-1.876220	0.000340	3.398976	0.575802	-0.000034
1677	1.6676e+02	3.3178	-1.914510	0.000385	3.849443	0.652113	-0.000038
1678	1.6686e+02	3.3072	-1.943431	0.000291	2.907558	0.492554	-0.000029
1679	1.6696e+02	3.2973	-1.983758	0.000405	4.054200	0.686800	-0.000041
1680	1.6706e+02	3.2894	-2.019604	0.000360	3.603734	0.610489	-0.000036
1681	1.6716e+02	3.2809	-2.053821	0.000344	3.439927	0.582739	-0.000034
1682	1.6726e+02	3.2683	-2.090075	0.000364	3.644685	0.617426	-0.000036
1683	1.6736e+02	3.2607	-2.119403	0.000295	2.948509	0.499491	-0.000029
1684	1.6746e+02	3.2513	-2.160952	0.000418	4.177055	0.707612	-0.000042
1685	1.6756e+02	3.2397	-2.194354	0.000336	3.358024	0.568865	-0.000034
1686	1.6766e+02	3.2311	-2.228571	0.000344	3.439927	0.582739	-0.000034
1687	1.6776e+02	3.2198	-2.266454	0.000381	3.808491	0.645176	-0.000038
1688	1.6786e+02	3.2095	-2.296597	0.000303	3.030412	0.513366	-0.000030
1689	1.6796e+02	3.1998	-2.332851	0.000364	3.644685	0.617426	-0.000036
1690	1.6806e+02	3.1891	-2.367475	0.000348	3.480879	0.589677	-0.000035
1691	1.6816e+02	3.1820	-2.406580	0.000393	3.931346	0.665988	-0.000039
1692	1.6825e+02	3.1704	-2.442019	0.000356	3.562782	0.603552	-0.000036
1693	1.6835e+02	3.1599	-2.478272	0.000364	3.644685	0.617426	-0.000036
1694	1.6845e+02	3.1503	-2.514933	0.000369	3.685637	0.624364	-0.000037
1695	1.6855e+02	3.1400	-2.552001	0.000373	3.726588	0.631301	-0.000037
1696	1.6865e+02	3.1300	-2.585811	0.000340	3.398976	0.575802	-0.000034
1697	1.6875e+02	3.1207	-2.622064	0.000364	3.644685	0.617426	-0.000036
1698	1.6885e+02	3.1102	-2.654244	0.000324	3.235170	0.548053	-0.000032
1699	1.6895e+02	3.1001	-2.692534	0.000385	3.849443	0.652113	-0.000038
1700	1.6905e+02	3.0905	-2.732454	0.000401	4.013249	0.679863	-0.000040
1701	1.6915e+02	3.0819	-2.766263	0.000340	3.398976	0.575802	-0.000034
1702	1.6925e+02	3.0691	-2.803331	0.000373	3.726588	0.631301	-0.000037
1703	1.6935e+02	3.0593	-2.837141	0.000340	3.398976	0.575802	-0.000034
1704	1.6945e+02	3.0508	-2.878282	0.000414	4.136103	0.700675	-0.000041
1705	1.6955e+02	3.0398	-2.912499	0.000344	3.439927	0.582739	-0.000034
1706	1.6965e+02	3.0280	-2.947531	0.000352	3.521830	0.596614	-0.000035
1707	1.6975e+02	3.0233	-2.985414	0.000381	3.808491	0.645176	-0.000038
1708	1.6985e+02	3.0116	-3.023704	0.000385	3.849443	0.652113	-0.000038
1709	1.6995e+02	2.9993	-3.061587	0.000381	3.808491	0.645176	-0.000038
1710	1.7005e+02	2.9918	-3.098655	0.000373	3.726588	0.631301	-0.000037
1711	1.7015e+02	2.9801	-3.137760	0.000393	3.931346	0.665988	-0.000039
1712	1.7024e+02	2.9723	-3.172384	0.000348	3.480879	0.589677	-0.000035
1713	1.7034e+02	2.9615	-3.210674	0.000385	3.849443	0.652113	-0.000038
1714	1.7044e+02	2.9525	-3.246113	0.000356	3.562782	0.603552	-0.000036
1715	1.7054e+02	2.9437	-3.283996	0.000381	3.808491	0.645176	-0.000038
1716	1.7064e+02	2.9324	-3.319434	0.000356	3.562782	0.603552	-0.000036
1717	1.7074e+02	2.9185	-3.351207	0.000319	3.194218	0.541115	-0.000032
1718	1.7084e+02	2.9122	-3.385831	0.000348	3.480879	0.589677	-0.000035
1719	1.7094e+02	2.9008	-3.420048	0.000344	3.439927	0.582739	-0.000034
1720	1.7104e+02	2.8909	-3.457524	0.000377	3.767540	0.638238	-0.000038
1721	1.7114e+02	2.8812	-3.491333	0.000340	3.398976	0.575802	-0.000034
1722	1.7124e+02	2.8709	-3.525142	0.000340	3.398976	0.575802	-0.000034
1723	1.7134e+02	2.8625	-3.566284	0.000414	4.136103	0.700675	-0.000041
1724	1.7144e+02	2.8509	-3.605796	0.000397	3.972297	0.672925	-0.000040
1725	1.7154e+02	2.8413	-3.638791	0.000332	3.317073	0.561927	-0.000033
1726	1.7164e+02	2.8293	-3.673008	0.000344	3.439927	0.582739	-0.000034
1727	1.7174e+02	2.8217	-3.711298	0.000385	3.849443	0.652113	-0.000038
1728	1.7184e+02	2.8110	-3.743885	0.000328	3.276121	0.554990	-0.000033
1729	1.7194e+02	2.8054	-3.782583	0.000389	3.890394	0.659051	-0.000039
1730	1.7204e+02	2.7894	-3.815985	0.000336	3.358024	0.568865	-0.000034
1731	1.7213e+02	2.7814	-3.851016	0.000352	3.521830	0.596614	-0.000035
1732	1.7223e+02	2.7723	-3.886455	0.000356	3.562782	0.603552	-0.000036
1733	1.7233e+02	2.7625	-3.921487	0.000352	3.521830	0.596614	-0.000035
1734	1.7243e+02	2.7508	-3.957740	0.000364	3.644685	0.617426	-0.000036
1735	1.7253e+02	2.7429	-3.997660	0.000401	4.013249	0.679863	-0.000040
1736	1.7263e+02	2.7319	-4.036765	0.000393	3.931346	0.665988	-0.000039
1737	1.7273e+02	2.7219	-4.073018	0.000364	3.644685	0.617426	-0.000036
1738	1.7283e+02	2.7139	-4.115382	0.000426	4.258958	0.721487	-0.000043
1739	1.7293e+02	2.7035	-4.150006	0.000348	3.480879	0.589677	-0.000035
1740	1.7303e+02	2.6926	-4.189518	0.000397	3.972297	0.672925	-0.000040
1741	1.7313e+02	2.6808	-4.233918	0.000446	4.463715	0.756174	-0.000045
1742	1.7323e+02	2.6717	-4.270987	0.000373	3.726588	0.631301	-0.000037
1743	1.7333e+02	2.6611	-4.311721	0.000410	4.095152	0.693737	-0.000041
1744	1.7343e+02	2.6519	-4.354492	0.000430	4.299909	0.728424	-0.000043
1745	1.7353e+02	2.6424	-4.392375	0.000381	3.808491	0.645176	-0.000038
1746	1.7363e+02	2.6320	-4.434331	0.000422	4.218006	0.714550	-0.000042
1747	1.7373e+02	2.6199	-4.473436	0.000393	3.931346	0.665988	-0.000039
1748	1.7383e+02	2.6118	-4.512133	0.000389	3.890394	0.659051	-0.000039
1749	1.7393e+02	2.6011	-4.555312	0.000434	4.340861	0.735362	-0.000043
1750	1.7403e+02	2.5939	-4.595231	0.000401	4.013249	0.679863	-0.000040
1751	1.7413e+02	2.5812	-4.638410	0.000434	4.340861	0.735362	-0.000043
1752	1.7422e+02	2.5722	-4.678737	0.000405	4.054200	0.686800	-0.000041
1753	1.7432e+02	2.5623	-4.719878	0.000414	4.136103	0.700675	-0.000041
1754	1.7442e+02	2.5534	-4.757761	0.000381	3.808491	0.645176	-0.000038
1755	1.7452e+02	2.5430	-4.800125	0.000426	4.258958	0.721487	-0.000043
1756	1.7462e+02	2.5306	-4.843303	0.000434	4.340861	0.735362	-0.000043
1757	1.7472e+02	2.5224	-4.884037	0.000410	4.095152	0.693737	-0.000041
1758	1.7482e+02	2.5136	-4.922735	0.000389	3.890394	0.659051	-0.000039
1759	1.7492e+02	2.5037	-4.963876	0.000414	4.136103	0.700675	-0.000041
1760	1.7502e+02	2.4926	-4.998093	0.000344	3.439927	0.582739	-0.000034
1761	1.7512e+02	2.4837	-5.038013	0.000401	4.013249	0.679863	-0.000040
1762	1.7522e+02	2.4738	-5.078747	0.000410	4.095152	0.693737	-0.000041
1763	1.7532e+02	2.4630	-5.121518	0.000430	4.299909	0.728424	-0.000043
1764	1.7542e+02	2.4553	-5.156549	0.000352	3.521830	0.596614	-0.000035
1765	1.7552e+02	2.4438	-5.197284	0.000410	4.095152	0.693737	-0.000041
1766	1.7562e+02	2.4326	-5.234352	0.000373	3.726588	0.631301	-0.000037
1767	1.7572e+02	2.4264	-5.276715	0.000426	4.258958	0.721487	-0.000043
1768	1.7582e+02	2.4146	-5.315006	0.000385	3.849443	0.652113	-0.000038
1769	1.7592e+02	2.4016	-5.355740	0.000410	4.095152	0.693737	-0.000041
1770	1.7602e+02	2.3938	-5.394030	0.000385	3.849443	0.652113	-0.000038
1771	1.7612e+02	2.3808	-5.433135	0.000393	3.931346	0.665988	-0.000039
1772	1.7621e+02	2.3742	-5.473869	0.000410	4.095152	0.693737	-0.000041
1773	1.7631e+02	2.3634	-5.513789	0.000401	4.013249	0.679863	-0.000040
1774	1.7641e+02	2.3522	-5.553708	0.000401	4.013249	0.679863	-0.000040
1775	1.7651e+02	2.3455	-5.591591	0.000381	3.808491	0.645176	-0.000038
1776	1.7661e+02	2.3330	-5.635177	0.000438	4.381812	0.742299	-0.000044
1777	1.7671e+02	2.3226	-5.671838	0.000369	3.685637	0.624364	-0.000037
1778	1.7681e+02	2.3122	-5.713387	0.000418	4.177055	0.707612	-0.000042
1779	1.7691e+02	2.3035	-5.749640	0.000364	3.644685	0.617426	-0.000036
1780	1.7701e+02	2.2936	-5.791189	0.000418	4.177055	0.707612	-0.000042
1781	1.7711e+02	2.2846	-5.829072	0.000381	3.808491	0.645176	-0.000038
1782	1.7721e+02	2.2746	-5.872250	0.000434	4.340861	0.735362	-0.000043
1783	1.7731e+02	2.2638	-5.911355	0.000393	3.931346	0.665988	-0.000039
1784	1.7741e+02	2.2556	-5.952497	0.000414	4.136103	0.700675	-0.000041
1785	1.7751e+02	2.2443	-5.986713	0.000344	3.439927	0.582739	-0.000034
1786	1.7761e+02	2.2343	-6.031521	0.000450	4.504667	0.763111	-0.000045
1787	1.7771e+02	2.2217	-6.071848	0.000405	4.054200	0.686800	-0.000041
1788	1.7781e+02	2.2140	-6.109324	0.000377	3.767540	0.638238	-0.000038
1789	1.7791e+02	2.2057	-6.145170	0.000360	3.603734	0.610489	-0.000036
1790	1.7801e+02	2.1938	-6.187533	0.000426	4.258958	0.721487	-0.000043
1791	1.7810e+02	2.1873	-6.227453	0.000401	4.013249	0.679863	-0.000040
1792	1.7820e+02	2.1740	-6.266558	0.000393	3.931346	0.665988	-0.000039
1793	1.7830e+02	2.1607	-6.303219	0.000369	3.685637	0.624364	-0.000037
1794	1.7840e+02	2.1551	-6.342324	0.000393	3.931346	0.665988	-0.000039
1795	1.7850e+02	2.1435	-6.382243	0.000401	4.013249	0.679863	-0.000040
1796	1.7860e+02	2.1342	-6.421755	0.000397	3.972297	0.672925	-0.000040
1797	1.7870e+02	2.1243	-6.461675	0.000401	4.013249	0.679863	-0.000040
1798	1.7880e+02	2.1134	-6.502002	0.000405	4.054200	0.686800	-0.000041
1799	1.7890e+02	2.1059	-6.543551	0.000418	4.177055	0.707612	-0.000042
1800	1.7900e+02	2.0959	-6.586322	0.000430	4.299909	0.728424	-0.000043
1801	1.7910e+02	2.0847	-6.626649	0.000405	4.054200	0.686800	-0.000041
1802	1.7920e+02	2.0754	-6.669827	0.000434	4.340861	0.735362	-0.000043
1803	1.7930e+02	2.0646	-6.710561	0.000410	4.095152	0.693737	-0.000041
1804	1.7940e+02	2.0544	-6.752110	0.000418	4.177055	0.707612	-0.000042
1805	1.7950e+02	2.0466	-6.792437	0.000405	4.054200	0.686800	-0.000041
1806	1.7960e+02	2.0364	-6.835208	0.000430	4.299909	0.728424	-0.000043
1807	1.7970e+02	2.0239	-6.876350	0.000414	4.136103	0.700675	-0.000041
1808	1.7980e+02	2.0142	-6.913418	0.000373	3.726588	0.631301	-0.000037
1809	1.7990e+02	2.0046	-6.958633	0.000455	4.545618	0.770049	-0.000045
1810	1.8000e+02	1.9941	-6.997330	0.000389	3.890394	0.659051	-0.000039
1811	1.8009e+02	1.9875	-7.039287	0.000422	4.218006	0.714550	-0.000042
1812	1.8019e+02	1.9748	-7.081650	0.000426	4.258958	0.721487	-0.000043
1813	1.8029e+02	1.9671	-7.124014	0.000426	4.258958	0.721487	-0.000043
1814	1.8039e+02	1.9553	-7.168007	0.000442	4.422764	0.749236	-0.000044
1815	1.8049e+02	1.9473	-7.207926	0.000401	4.013249	0.679863	-0.000040
1816	1.8059e+02	1.9350	-7.252734	0.000450	4.504667	0.763111	-0.000045
1817	1.8069e+02	1.9253	-7.291024	0.000385	3.849443	0.652113	-0.000038
1818	1.8079e+02	1.9166	-7.332981	0.000422	4.218006	0.714550	-0.000042
1819	1.8089e+02	1.9056	-7.371678	0.000389	3.890394	0.659051	-0.000039
1820	1.8099e+02	1.8954	-7.409968	0.000385	3.849443	0.652113	-0.000038
1821	1.8109e+02	1.8862	-7.448259	0.000385	3.849443	0.652113	-0.000038
1822	1.8119e+02	1.8768	-7.490215	0.000422	4.218006	0.714550	-0.000042
1823	1.8129e+02	1.8667	-7.526061	0.000360	3.603734	0.610489	-0.000036
1824	1.8139e+02	1.8558	-7.567203	0.000414	4.136103	0.700675	-0.000041
1825	1.8149e+02	1.8450	-7.605085	0.000381	3.808491	0.645176	-0.000038
1826	1.8159e+02	1.8364	-7.641746	0.000369	3.685637	0.624364	-0.000037
1827	1.8169e+02	1.8262	-7.678000	0.000364	3.644685	0.617426	-0.000036
1828	1.8179e+02	1.8135	-7.713439	0.000356	3.562782	0.603552	-0.000036
1829	1.8189e+02	1.8064	-7.754173	0.000410	4.095152	0.693737	-0.000041
1830	1.8199e+02	1.7955	-7.796536	0.000426	4.258958	0.721487	-0.000043
1831	1.8209e+02	1.7858	-7.834827	0.000385	3.849443	0.652113	-0.000038
1832	1.8218e+02	1.7759	-7.873524	0.000389	3.890394	0.659051	-0.000039
1833	1.8228e+02	1.7656	-7.908148	0.000348	3.480879	0.589677	-0.000035
1834	1.8238e+02	1.7570	-7.946438	0.000385	3.849443	0.652113	-0.000038
1835	1.8248e+02	1.7464	-7.985136	0.000389	3.890394	0.659051	-0.000039
1836	1.8258e+02	1.7350	-8.019760	0.000348	3.480879	0.589677	-0.000035
1837	1.8268e+02	1.7267	-8.059680	0.000401	4.013249	0.679863	-0.000040
1838	1.8278e+02	1.7194	-8.097970	0.000385	3.849443	0.652113	-0.000038
1839	1.8288e+02	1.7059	-8.135445	0.000377	3.767540	0.638238	-0.000038
1840	1.8298e+02	1.6978	-8.172514	0.000373	3.726588	0.631301	-0.000037
1841	1.8308e+02	1.6873	-8.214470	0.000422	4.218006	0.714550	-0.000042
1842	1.8318e+02	1.6750	-8.255204	0.000410	4.095152	0.693737	-0.000041
1843	1.8328e+02	1.6668	-8.292680	0.000377	3.767540	0.638238	-0.000038
1844	1.8338e+02	1.6553	-8.329748	0.000373	3.726588	0.631301	-0.000037
1845	1.8348e+02	1.6481	-8.373333	0.000438	4.381812	0.742299	-0.000044
1846	1.8358e+02	1.6373	-8.412846	0.000397	3.972297	0.672925	-0.000040
1847	1.8368e+02	1.6317	-8.452358	0.000397	3.972297	0.672925	-0.000040
1848	1.8378e+02	1.6180	-8.493500	0.000414	4.136103	0.700675	-0.000041
1849	1.8388e+02	1.6064	-8.534641	0.000414	4.136103	0.700675	-0.000041
1850	1.8398e+02	1.5965	-8.575783	0.000414	4.136103	0.700675	-0.000041
1851	1.8407e+02	1.5879	-8.613666	0.000381	3.808491	0.645176	-0.000038
1852	1.8417e+02	1.5777	-8.653178	0.000397	3.972297	0.672925	-0.000040
1853	1.8427e+02	1.5658	-8.692283	0.000393	3.931346	0.665988	-0.000039
1854	1.8437e+02	1.5585	-8.731795	0.000397	3.972297	0.672925	-0.000040
1855	1.8447e+02	1.5441	-8.775788	0.000442	4.422764	0.749236	-0.000044
1856	1.8457e+02	1.5378	-8.814485	0.000389	3.890394	0.659051	-0.000039
1857	1.8467e+02	1.5258	-8.850332	0.000360	3.603734	0.610489	-0.000036
1858	1.8477e+02	1.5173	-8.894325	0.000442	4.422764	0.749236	-0.000044
1859	1.8487e+02	1.5076	-8.935874	0.000418	4.177055	0.707612	-0.000042
1860	1.8497e+02	1.4996	-8.976200	0.000405	4.054200	0.686800	-0.000041
1861	1.8507e+02	1.4893	-9.014898	0.000389	3.890394	0.659051	-0.000039
1862	1.8517e+02	1.4790	-9.057669	0.000430	4.299909	0.728424	-0.000043
1863	1.8527e+02	1.4676	-9.101662	0.000442	4.422764	0.749236	-0.000044
1864	1.8537e+02	1.4606	-9.141582	0.000401	4.013249	0.679863	-0.000040
1865	1.8547e+02	1.4499	-9.180686	0.000393	3.931346	0.665988	-0.000039
1866	1.8557e+02	1.4362	-9.222235	0.000418	4.177055	0.707612	-0.000042
1867	1.8567e+02	1.4262	-9.263377	0.000414	4.136103	0.700675	-0.000041
1868	1.8577e+02	1.4157	-9.301667	0.000385	3.849443	0.652113	-0.000038
1869	1.8587e+02	1.4069	-9.343623	0.000422	4.218006	0.714550	-0.000042
1870	1.8597e+02	1.3975	-9.387616	0.000442	4.422764	0.749236	-0.000044
1871	1.8606e+02	1.3866	-9.423463	0.000360	3.603734	0.610489	-0.000036
1872	1.8616e+02	1.3806	-9.467456	0.000442	4.422764	0.749236	-0.000044
1873	1.8626e+02	1.3679	-9.509412	0.000422	4.218006	0.714550	-0.000042
1874	1.8636e+02	1.3586	-9.552183	0.000430	4.299909	0.728424	-0.000043
1875	1.8646e+02	1.3504	-9.590473	0.000385	3.849443	0.652113	-0.000038
1876	1.8656e+02	1.3367	-9.637725	0.000475	4.750376	0.804735	-0.000047
1877	1.8666e+02	1.3299	-9.677644	0.000401	4.013249	0.679863	-0.000040
1878	1.8676e+02	1.3184	-9.718379	0.000410	4.095152	0.693737	-0.000041
1879	1.8686e+02	1.3091	-9.767667	0.000496	4.955134	0.839422	-0.000050
1880	1.8696e+02	1.2991	-9.807994	0.000405	4.054200	0.686800	-0.000041
1881	1.8706e+02	1.2904	-9.846284	0.000385	3.849443	0.652113	-0.000038
1882	1.8716e+02	1.2759	-9.885796	0.000397	3.972297	0.672925	-0.000040
1883	1.8726e+02	1.2702	-9.929382	0.000438	4.381812	0.742299	-0.000044
1884	1.8736e+02	1.2588	-9.969302	0.000401	4.013249	0.679863	-0.000040
1885	1.8746e+02	1.2489	-10.002704	0.000336	3.358024	0.568865	-0.000034
1886	1.8756e+02	1.2413	-10.047104	0.000446	4.463715	0.756174	-0.000045
1887	1.8766e+02	1.2288	-10.086616	0.000397	3.972297	0.672925	-0.000040
1888	1.8776e+02	1.2201	-10.123277	0.000369	3.685637	0.624364	-0.000037
1889	1.8786e+02	1.2103	-10.164011	0.000410	4.095152	0.693737	-0.000041
1890	1.8796e+02	1.1971	-10.208819	0.000450	4.504667	0.763111	-0.000045
1891	1.8806e+02	1.1897	-10.249146	0.000405	4.054200	0.686800	-0.000041
1892	1.8815e+02	1.1782	-10.293954	0.000450	4.504667	0.763111	-0.000045
1893	1.8825e+02	1.1679	-10.329392	0.000356	3.562782	0.603552	-0.000036
1894	1.8835e+02	1.1615	-10.372571	0.000434	4.340861	0.735362	-0.000043
1895	1.8845e+02	1.1488	-10.413305	0.000410	4.095152	0.693737	-0.000041
1896	1.8855e+02	1.1404	-10.452003	0.000389	3.890394	0.659051	-0.000039
1897	1.8865e+02	1.1302	-10.494773	0.000430	4.299909	0.728424	-0.000043
1898	1.8875e+02	1.1201	-10.534693	0.000401	4.013249	0.679863	-0.000040
1899	1.8885e+02	1.1105	-10.573391	0.000389	3.890394	0.659051	-0.000039
1900	1.8895e+02	1.1005	-10.614125	0.000410	4.095152	0.693737	-0.000041
1901	1.8905e+02	1.0906	-10.656081	0.000422	4.218006	0.714550	-0.000042
1902	1.8915e+02	1.0793	-10.698852	0.000430	4.299909	0.728424	-0.000043
1903	1.8925e+02	1.0708	-10.741216	0.000426	4.258958	0.721487	-0.000043
1904	1.8935e+02	1.0616	-10.787245	0.000463	4.627521	0.783923	-0.000046
1905	1.8945e+02	1.0530	-10.828794	0.000418	4.177055	0.707612	-0.000042
1906	1.8955e+02	1.0392	-10.872380	0.000438	4.381812	0.742299	-0.000044
1907	1.8965e+02	1.0294	-10.921261	0.000491	4.914182	0.832485	-0.000049
1908	1.8975e+02	1.0207	-10.963217	0.000422	4.218006	0.714550	-0.000042
1909	1.8985e+02	1.0128	-11.007618	0.000446	4.463715	0.756174	-0.000045
1910	1.8995e+02	1.0011	-11.052833	0.000455	4.545618	0.770049	-0.000045
1911	1.9004e+02	0.9917	-11.099677	0.000471	4.709424	0.797798	-0.000047
1912	1.9014e+02	0.9809	-11.144485	0.000450	4.504667	0.763111	-0.000045
1913	1.9024e+02	0.9715	-11.192551	0.000483	4.832279	0.818610	-0.000048
1914	1.9034e+02	0.9608	-11.235322	0.000430	4.299909	0.728424	-0.000043
1915	1.9044e+02	0.9526	-11.278501	0.000434	4.340861	0.735362	-0.000043
1916	1.9054e+02	0.9415	-11.322086	0.000438	4.381812	0.742299	-0.000044
1917	1.9064e+02	0.9291	-11.371782	0.000500	4.996085	0.846360	-0.000050
1918	1.9074e+02	0.9224	-11.415775	0.000442	4.422764	0.749236	-0.000044
1919	1.9084e+02	0.9136	-11.467100	0.000516	5.159891	0.874109	-0.000052
1920	1.9094e+02	0.9008	-11.511501	0.000446	4.463715	0.756174	-0.000045
1921	1.9104e+02	0.8918	-11.557530	0.000463	4.627521	0.783923	-0.000046
1922	1.9114e+02	0.8820	-11.608855	0.000516	5.159891	0.874109	-0.000052
1923	1.9124e+02	0.8730	-11.652034	0.000434	4.340861	0.735362	-0.000043
1924	1.9134e+02	0.8629	-11.698878	0.000471	4.709424	0.797798	-0.000047
1925	1.9144e+02	0.8498	-11.741242	0.000426	4.258958	0.721487	-0.000043
1926	1.9154e+02	0.8423	-11.786049	0.000450	4.504667	0.763111	-0.000045
1927	1.9164e+02	0.8330	-11.834930	0.000491	4.914182	0.832485	-0.000049
1928	1.9174e+02	0.8224	-11.876479	0.000418	4.177055	0.707612	-0.000042
1929	1.9184e+02	0.8121	-11.922102	0.000459	4.586570	0.776986	-0.000046
1930	1.9194e+02	0.8000	-11.964465	0.000426	4.258958	0.721487	-0.000043
1931	1.9203e+02	0.7934	-12.008051	0.000438	4.381812	0.742299	-0.000044
1932	1.9213e+02	0.7813	-12.056117	0.000483	4.832279	0.818610	-0.000048
1933	1.9223e+02	0.7719	-12.102147	0.000463	4.627521	0.783923	-0.000046
1934	1.9233e+02	0.7628	-12.144918	0.000430	4.299909	0.728424	-0.000043
1935	1.9243e+02	0.7499	-12.190948	0.000463	4.627521	0.783923	-0.000046
1936	1.9253e+02	0.7433	-12.232497	0.000418	4.177055	0.707612	-0.000042
1937	1.9263e+02	0.7351	-12.276082	0.000438	4.381812	0.742299	-0.000044
1938	1.9273e+02	0.7226	-12.324556	0.000487	4.873231	0.825548	-0.000049
1939	1.9283e+02	0.7130	-12.368957	0.000446	4.463715	0.756174	-0.000045
1940	1.9293e+02	0.7040	-12.414986	0.000463	4.627521	0.783923	-0.000046
1941	1.9303e+02	0.6929	-12.458572	0.000438	4.381812	0.742299	-0.000044
1942	1.9313e+02	0.6790	-12.502565	0.000442	4.422764	0.749236	-0.000044
1943	1.9323e+02	0.6724	-12.549817	0.000475	4.750376	0.804735	-0.000047
1944	1.9333e+02	0.6625	-12.595439	0.000459	4.586570	0.776986	-0.000046
1945	1.9343e+02	0.6532	-12.639025	0.000438	4.381812	0.742299	-0.000044
1946	1.9353e+02	0.6454	-12.679352	0.000405	4.054200	0.686800	-0.000041
1947	1.9363e+02	0.6340	-12.729047	0.000500	4.996085	0.846360	-0.000050
1948	1.9373e+02	0.6232	-12.770596	0.000418	4.177055	0.707612	-0.000042
1949	1.9383e+02	0.6116	-12.815811	0.000455	4.545618	0.770049	-0.000045
1950	1.9393e+02	0.6033	-12.861434	0.000459	4.586570	0.776986	-0.000046
1951	1.9403e+02	0.5923	-12.905834	0.000446	4.463715	0.756174	-0.000045
1952	1.9412e+02	0.5810	-12.952271	0.000467	4.668473	0.790861	-0.000047
1953	1.9422e+02	0.5746	-12.998301	0.000463	4.627521	0.783923	-0.000046
1954	1.9432e+02	0.5610	-13.043516	0.000455	4.545618	0.770049	-0.000045
1955	1.9442e+02	0.5521	-13.089546	0.000463	4.627521	0.783923	-0.000046
1956	1.9452e+02	0.5428	-13.132724	0.000434	4.340861	0.735362	-0.000043
1957	1.9462e+02	0.5344	-13.177124	0.000446	4.463715	0.756174	-0.000045
1958	1.9472e+02	0.5222	-13.223561	0.000467	4.668473	0.790861	-0.000047
1959	1.9482e+02	0.5145	-13.267554	0.000442	4.422764	0.749236	-0.000044
1960	1.9492e+02	0.5018	-13.313584	0.000463	4.627521	0.783923	-0.000046
1961	1.9502e+02	0.4919	-13.359614	0.000463	4.627521	0.783923	-0.000046
1962	1.9512e+02	0.4816	-13.399126	0.000397	3.972297	0.672925	-0.000040
1963	1.9522e+02	0.4742	-13.445156	0.000463	4.627521	0.783923	-0.000046
1964	1.9532e+02	0.4646	-13.491593	0.000467	4.668473	0.790861	-0.000047
1965	1.9542e+02	0.4507	-13.537215	0.000459	4.586570	0.776986	-0.000046
1966	1.9552e+02	0.4424	-13.583245	0.000463	4.627521	0.783923	-0.000046
1967	1.9562e+02	0.4324	-13.628052	0.000450	4.504667	0.763111	-0.000045
1968	1.9572e+02	0.4234	-13.674082	0.000463	4.627521	0.783923	-0.000046
1969	1.9582e+02	0.4134	-13.726222	0.000524	5.241794	0.887984	-0.000052
1970	1.9592e+02	0.4057	-13.775918	0.000500	4.996085	0.846360	-0.000050
1971	1.9601e+02	0.3941	-13.819911	0.000442	4.422764	0.749236	-0.000044
1972	1.9611e+02	0.3851	-13.868792	0.000491	4.914182	0.832485	-0.000049
1973	1.9621e+02	0.3718	-13.914007	0.000455	4.545618	0.770049	-0.000045
1974	1.9631e+02	0.3649	-13.957185	0.000434	4.340861	0.735362	-0.000043
1975	1.9641e+02	0.3580	-14.005659	0.000487	4.873231	0.825548	-0.000049
1976	1.9651e+02	0.3431	-14.049245	0.000438	4.381812	0.742299	-0.000044
1977	1.9661e+02	0.3320	-14.096904	0.000479	4.791328	0.811673	-0.000048
1978	1.9671e+02	0.3246	-14.149858	0.000532	5.323697	0.901859	-0.000053
1979	1.9681e+02	0.3144	-14.193444	0.000438	4.381812	0.742299	-0.000044
1980	1.9691e+02	0.3044	-14.240696	0.000475	4.750376	0.804735	-0.000047
1981	1.9701e+02	0.2952	-14.286318	0.000459	4.586570	0.776986	-0.000046
1982	1.9711e+02	0.2848	-14.334792	0.000487	4.873231	0.825548	-0.000049
1983	1.9721e+02	0.2707	-14.384895	0.000504	5.037037	0.853297	-0.000050
1984	1.9731e+02	0.2663	-14.432554	0.000479	4.791328	0.811673	-0.000048
1985	1.9741e+02	0.2555	-14.474103	0.000418	4.177055	0.707612	-0.000042
1986	1.9751e+02	0.2469	-14.524206	0.000504	5.037037	0.853297	-0.000050
1987	1.9761e+02	0.2347	-14.569828	0.000459	4.586570	0.776986	-0.000046
1988	1.9771e+02	0.2245	-14.616673	0.000471	4.709424	0.797798	-0.000047
1989	1.9781e+02	0.2145	-14.662295	0.000459	4.586570	0.776986	-0.000046
1990	1.9791e+02	0.2020	-14.703844	0.000418	4.177055	0.707612	-0.000042
1991	1.9800e+02	0.1954	-14.745800	0.000422	4.218006	0.714550	-0.000042
1992	1.9810e+02	0.1852	-14.790201	0.000446	4.463715	0.756174	-0.000045
1993	1.9820e+02	0.1764	-14.837860	0.000479	4.791328	0.811673	-0.000048
1994	1.9830e+02	0.1649	-14.878594	0.000410	4.095152	0.693737	-0.000041
1995	1.9840e+02	0.1559	-14.922180	0.000438	4.381812	0.742299	-0.000044
1996	1.9850e+02	0.1441	-14.965358	0.000434	4.340861	0.735362	-0.000043
1997	1.9860e+02	0.1349	-15.013017	0.000479	4.791328	0.811673	-0.000048
1998	1.9870e+02	0.1235	-15.052937	0.000401	4.013249	0.679863	-0.000040
1999	1.9880e+02	0.1163	-15.103040	0.000504	5.037037	0.853297	-0.000050
2000	1.9890e+02	0.1059	-15.148662	0.000459	4.586570	0.776986	-0.000046
2001	1.9900e+02	0.0959	-15.188582	0.000401	4.013249	0.679863	-0.000040
2002	1.9910e+02	0.0839	-15.228909	0.000405	4.054200	0.686800	-0.000041
2003	1.9920e+02	0.0768	-15.278604	0.000500	4.996085	0.846360	-0.000050
2004	1.9930e+02	0.0644	-15.319339	0.000410	4.095152	0.693737	-0.000041
2005	1.9940e+02	0.0558	-15.366183	0.000471	4.709424	0.797798	-0.000047
2006	1.9950e+02	0.0463	-15.407732	0.000418	4.177055	0.707612	-0.000042
2007	1.9960e+02	0.0340	-15.452540	0.000450	4.504667	0.763111	-0.000045
2008	1.9970e+02	0.0248	-15.500606	0.000483	4.832279	0.818610	-0.000048
2009	1.9980e+02	0.0168	-15.538896	0.000385	3.849443	0.652113	-0.000038
2010	1.9990e+02	0.0061	-15.587777	0.000491	4.914182	0.832485	-0.000049
2011	2.0000e+02	-0.0023	-15.630956	0.000491	4.914182	0.832485	-0.000043

PMax (uC/cm2):	3.45e+01
Pr (uC/cm2):	1.61e+00
-Pr (uC/cm2):	0.00e+00
PLoss (uC/cm2):	0.00e+00
C (Max-Eff) (nF):	3.45e-01
K (Eff):	5.84e+02
Vert. (+/-Pr) Shift (uC/cm2):	8.04e-01
Offset (uC/cm2):	1.72e+01

A (Loop Area - uC/cm2·Volts):	-1.60e-02



Hysteresis Version: 5.48.1 - Radiant Technologies, Inc., 1999 - 9/12/24

