»»»»»»»»»»»»»»»»»»»»»»»»»»»»»»»»»»»» Hysteresis ««««««««««««««««««««««««««««««««««««
»»»  Executed Version:	5.48.1
»»»  Vision Version:	5.48.4 (R)
»»»  Vision Compiled:	9/18/24
»»»  Driver Version:	5.47.0
»»»  Windows Version:	Windows 8 or 8.1
»»»  Processor Information:	x86 (AMD or Intel) - 32 Processors
»»»  Tester Name:	PMF21124-494 (100V)
»»»  Tester S/N:	PMF21124-494
»»»  Internal Amp Type:	100V RevK 270k
»»»  Internal Amp S/N:	iAB2-596/K     
»»»  Execution Count:	1
»»»»»»»»»»»»»»»»»»»»»»»»»»»»»»»»»»»»»»»»»»««««««««««««««««««««««««««««««««««««««««««

Stored:	6/27/2025 - 17:17:47
Configured:	06/27/25 11:23:28 AM
Executed:	06/27/25 05:17:21 PM

»»»»»»»»»»»»»»»»»»»»»»»»»»»»»»»»»»» Sample Info ««««««««««««««««««««««««««««««««««««
Sample Name:	
Lot Name:	
Wafer Name:	
Die Row/Column:	0/0
Capacitor Number:	0
Sample Area (cm2):	1.00e-04
Sample Thickness (microns):	1.50e-01

Amplifier:	Internal

»»»»»»»»»»»»»»»»»»»»»»»»»»»»»»»»»»» Tester Info «««««««««««««««««««««««««««««««««««
Tester Name:	PMF21124-494 (100V)
Tester Serial Number:	PMF21124-494
Return Signal Amp. Level:	1.9 [Index: 2]

»»»»»»»»»»»»»»»»»»»»»»»»»»»»»»»» Hysteresis Info ««««««««««««««««««««««««««««««««««
Task Name:	Hyst-1276
Volts:	10.00
Field:	666.67 (kV/cm)
DCBias:	0.00
DCField:	0.00 (kV/cm)
Hysteresis Period (ms):	2.00e+02
Preset:	Enabled
Preset Delay (ms):	1.00e+03
Profile:	Standard Monopolar

»»»»»»»»»»»»»»»»»»»»»»»»»»»»»»»»»»»»»» Data «««««««««««««««««««««««««««««««««««««««
Points:	2011

Valid Data

Point	Time (ms)	Drive Voltage	Measured Polarization (uC/cm2)	Capacitance (uF)	Normalized Capacitance (uF/cm2)	Dielectric Constant	Instantaneous Current (mA)
   1	0.0000e+00	-0.0056	-15.992269	0.000340	3.399132	0.575828	0.000034
   2	9.9500e-02	0.0057	-15.958459	0.000340	3.399132	0.575828	0.000034
   3	1.9900e-01	0.0177	-15.923020	0.000356	3.562945	0.603579	0.000036
   4	2.9850e-01	0.0232	-15.883915	0.000393	3.931526	0.666018	0.000039
   5	3.9800e-01	0.0356	-15.846440	0.000377	3.767712	0.638268	0.000038
   6	4.9750e-01	0.0452	-15.809372	0.000373	3.726759	0.631330	0.000037
   7	5.9700e-01	0.0575	-15.771896	0.000377	3.767712	0.638268	0.000038
   8	6.9650e-01	0.0648	-15.732791	0.000393	3.931526	0.666018	0.000039
   9	7.9600e-01	0.0726	-15.689613	0.000434	4.341060	0.735395	0.000043
  10	8.9550e-01	0.0857	-15.654174	0.000356	3.562945	0.603579	0.000036
  11	9.9500e-01	0.0930	-15.617106	0.000373	3.726759	0.631330	0.000037
  12	1.0945e+00	0.1036	-15.578409	0.000389	3.890572	0.659081	0.000039
  13	1.1940e+00	0.1151	-15.538082	0.000405	4.054386	0.686832	0.000041
  14	1.2935e+00	0.1247	-15.502643	0.000356	3.562945	0.603579	0.000036
  15	1.3930e+00	0.1347	-15.464760	0.000381	3.808666	0.645205	0.000038
  16	1.4925e+00	0.1455	-15.424433	0.000405	4.054386	0.686832	0.000041
  17	1.5920e+00	0.1533	-15.388180	0.000364	3.644852	0.617455	0.000036
  18	1.6915e+00	0.1617	-15.348667	0.000397	3.972479	0.672956	0.000040
  19	1.7910e+00	0.1746	-15.312821	0.000360	3.603899	0.610517	0.000036
  20	1.8905e+00	0.1841	-15.274938	0.000381	3.808666	0.645205	0.000038
  21	1.9900e+00	0.1939	-15.240314	0.000348	3.481038	0.589704	0.000035
  22	2.0895e+00	0.2048	-15.204875	0.000356	3.562945	0.603579	0.000036
  23	2.1890e+00	0.2151	-15.165363	0.000397	3.972479	0.672956	0.000040
  24	2.2885e+00	0.2225	-15.128295	0.000373	3.726759	0.631330	0.000037
  25	2.3880e+00	0.2366	-15.086746	0.000418	4.177246	0.707645	0.000042
  26	2.4875e+00	0.2454	-15.051715	0.000352	3.521992	0.596642	0.000035
  27	2.5870e+00	0.2545	-15.016683	0.000352	3.521992	0.596642	0.000035
  28	2.6865e+00	0.2633	-14.980022	0.000369	3.685805	0.624392	0.000037
  29	2.7860e+00	0.2741	-14.940103	0.000401	4.013432	0.679894	0.000040
  30	2.8855e+00	0.2845	-14.907108	0.000332	3.317225	0.561953	0.000033
  31	2.9850e+00	0.2933	-14.866781	0.000405	4.054386	0.686832	0.000041
  32	3.0845e+00	0.3056	-14.831342	0.000356	3.562945	0.603579	0.000036
  33	3.1840e+00	0.3140	-14.792237	0.000393	3.931526	0.666018	0.000039
  34	3.2835e+00	0.3236	-14.755984	0.000364	3.644852	0.617455	0.000036
  35	3.3830e+00	0.3336	-14.715657	0.000405	4.054386	0.686832	0.000041
  36	3.4825e+00	0.3442	-14.679404	0.000364	3.644852	0.617455	0.000036
  37	3.5820e+00	0.3518	-14.636633	0.000430	4.300106	0.728458	0.000043
  38	3.6815e+00	0.3619	-14.601194	0.000356	3.562945	0.603579	0.000036
  39	3.7810e+00	0.3722	-14.563718	0.000377	3.767712	0.638268	0.000038
  40	3.8805e+00	0.3834	-14.524206	0.000397	3.972479	0.672956	0.000040
  41	3.9800e+00	0.3948	-14.481842	0.000426	4.259153	0.721520	0.000043
  42	4.0795e+00	0.4026	-14.445996	0.000360	3.603899	0.610517	0.000036
  43	4.1790e+00	0.4150	-14.403225	0.000430	4.300106	0.728458	0.000043
  44	4.2785e+00	0.4224	-14.363306	0.000401	4.013432	0.679894	0.000040
  45	4.3780e+00	0.4324	-14.325423	0.000381	3.808666	0.645205	0.000038
  46	4.4775e+00	0.4424	-14.283874	0.000418	4.177246	0.707645	0.000042
  47	4.5770e+00	0.4531	-14.240696	0.000434	4.341060	0.735395	0.000043
  48	4.6765e+00	0.4621	-14.199961	0.000410	4.095339	0.693769	0.000041
  49	4.7760e+00	0.4773	-14.160856	0.000393	3.931526	0.666018	0.000039
  50	4.8755e+00	0.4826	-14.118085	0.000430	4.300106	0.728458	0.000043
  51	4.9750e+00	0.4925	-14.072056	0.000463	4.627733	0.783959	0.000046
  52	5.0745e+00	0.5014	-14.032136	0.000401	4.013432	0.679894	0.000040
  53	5.1740e+00	0.5145	-13.993439	0.000389	3.890572	0.659081	0.000039
  54	5.2735e+00	0.5238	-13.953926	0.000397	3.972479	0.672956	0.000040
  55	5.3730e+00	0.5374	-13.908711	0.000455	4.545827	0.770084	0.000045
  56	5.4725e+00	0.5448	-13.867570	0.000414	4.136293	0.700707	0.000041
  57	5.5720e+00	0.5520	-13.825206	0.000426	4.259153	0.721520	0.000043
  58	5.6715e+00	0.5631	-13.786101	0.000393	3.931526	0.666018	0.000039
  59	5.7710e+00	0.5725	-13.742108	0.000442	4.422966	0.749271	0.000044
  60	5.8705e+00	0.5825	-13.702189	0.000401	4.013432	0.679894	0.000040
  61	5.9700e+00	0.5907	-13.661454	0.000410	4.095339	0.693769	0.000041
  62	6.0695e+00	0.6022	-13.617054	0.000446	4.463920	0.756208	0.000045
  63	6.1690e+00	0.6139	-13.576320	0.000410	4.095339	0.693769	0.000041
  64	6.2685e+00	0.6236	-13.536400	0.000401	4.013432	0.679894	0.000040
  65	6.3680e+00	0.6319	-13.495666	0.000410	4.095339	0.693769	0.000041
  66	6.4675e+00	0.6441	-13.455339	0.000405	4.054386	0.686832	0.000041
  67	6.5670e+00	0.6512	-13.417456	0.000381	3.808666	0.645205	0.000038
  68	6.6665e+00	0.6632	-13.378351	0.000393	3.931526	0.666018	0.000039
  69	6.7660e+00	0.6701	-13.336395	0.000422	4.218199	0.714582	0.000042
  70	6.8655e+00	0.6828	-13.296068	0.000405	4.054386	0.686832	0.000041
  71	6.9650e+00	0.6908	-13.254927	0.000414	4.136293	0.700707	0.000041
  72	7.0645e+00	0.7017	-13.219080	0.000360	3.603899	0.610517	0.000036
  73	7.1640e+00	0.7114	-13.174680	0.000446	4.463920	0.756208	0.000045
  74	7.2635e+00	0.7252	-13.135168	0.000397	3.972479	0.672956	0.000040
  75	7.3630e+00	0.7331	-13.092397	0.000430	4.300106	0.728458	0.000043
  76	7.4625e+00	0.7415	-13.056958	0.000356	3.562945	0.603579	0.000036
  77	7.5620e+00	0.7499	-13.018261	0.000389	3.890572	0.659081	0.000039
  78	7.6615e+00	0.7629	-12.979156	0.000393	3.931526	0.666018	0.000039
  79	7.7610e+00	0.7702	-12.939236	0.000401	4.013432	0.679894	0.000040
  80	7.8605e+00	0.7823	-12.897687	0.000418	4.177246	0.707645	0.000042
  81	7.9600e+00	0.7925	-12.860619	0.000373	3.726759	0.631330	0.000037
  82	8.0595e+00	0.8015	-12.819070	0.000418	4.177246	0.707645	0.000042
  83	8.1590e+00	0.8117	-12.778743	0.000405	4.054386	0.686832	0.000041
  84	8.2585e+00	0.8190	-12.744119	0.000348	3.481038	0.589704	0.000035
  85	8.3580e+00	0.8342	-12.702977	0.000414	4.136293	0.700707	0.000041
  86	8.4575e+00	0.8430	-12.663873	0.000393	3.931526	0.666018	0.000039
  87	8.5570e+00	0.8513	-12.625175	0.000389	3.890572	0.659081	0.000039
  88	8.6565e+00	0.8582	-12.583219	0.000422	4.218199	0.714582	0.000042
  89	8.7560e+00	0.8712	-12.543299	0.000401	4.013432	0.679894	0.000040
  90	8.8555e+00	0.8815	-12.508675	0.000348	3.481038	0.589704	0.000035
  91	8.9550e+00	0.8909	-12.468756	0.000401	4.013432	0.679894	0.000040
  92	9.0545e+00	0.9017	-12.426799	0.000422	4.218199	0.714582	0.000042
  93	9.1540e+00	0.9111	-12.388102	0.000389	3.890572	0.659081	0.000039
  94	9.2535e+00	0.9213	-12.352663	0.000356	3.562945	0.603579	0.000036
  95	9.3530e+00	0.9293	-12.313558	0.000393	3.931526	0.666018	0.000039
  96	9.4525e+00	0.9411	-12.277712	0.000360	3.603899	0.610517	0.000036
  97	9.5520e+00	0.9516	-12.236163	0.000418	4.177246	0.707645	0.000042
  98	9.6515e+00	0.9596	-12.199095	0.000373	3.726759	0.631330	0.000037
  99	9.7510e+00	0.9699	-12.159990	0.000393	3.931526	0.666018	0.000039
 100	9.8505e+00	0.9814	-12.115182	0.000450	4.504873	0.763146	0.000045
 101	9.9500e+00	0.9904	-12.078929	0.000364	3.644852	0.617455	0.000036
 102	1.0050e+01	0.9997	-12.040231	0.000389	3.890572	0.659081	0.000039
 103	1.0149e+01	1.0089	-11.997053	0.000434	4.341060	0.735395	0.000043
 104	1.0248e+01	1.0196	-11.958763	0.000385	3.849619	0.652143	0.000038
 105	1.0348e+01	1.0303	-11.918843	0.000401	4.013432	0.679894	0.000040
 106	1.0447e+01	1.0419	-11.880146	0.000389	3.890572	0.659081	0.000039
 107	1.0547e+01	1.0519	-11.838597	0.000418	4.177246	0.707645	0.000042
 108	1.0646e+01	1.0601	-11.801121	0.000377	3.767712	0.638268	0.000038
 109	1.0746e+01	1.0709	-11.760794	0.000405	4.054386	0.686832	0.000041
 110	1.0845e+01	1.0825	-11.720875	0.000401	4.013432	0.679894	0.000040
 111	1.0945e+01	1.0903	-11.679733	0.000414	4.136293	0.700707	0.000041
 112	1.1044e+01	1.1005	-11.638999	0.000410	4.095339	0.693769	0.000041
 113	1.1144e+01	1.1114	-11.599894	0.000393	3.931526	0.666018	0.000039
 114	1.1243e+01	1.1198	-11.560789	0.000393	3.931526	0.666018	0.000039
 115	1.1343e+01	1.1367	-11.517611	0.000434	4.341060	0.735395	0.000043
 116	1.1443e+01	1.1381	-11.479728	0.000381	3.808666	0.645205	0.000038
 117	1.1542e+01	1.1495	-11.441030	0.000389	3.890572	0.659081	0.000039
 118	1.1642e+01	1.1600	-11.404369	0.000369	3.685805	0.624392	0.000037
 119	1.1741e+01	1.1709	-11.365265	0.000393	3.931526	0.666018	0.000039
 120	1.1841e+01	1.1790	-11.322086	0.000434	4.341060	0.735395	0.000043
 121	1.1940e+01	1.1926	-11.285425	0.000369	3.685805	0.624392	0.000037
 122	1.2040e+01	1.1981	-11.248357	0.000373	3.726759	0.631330	0.000037
 123	1.2139e+01	1.2094	-11.207216	0.000414	4.136293	0.700707	0.000041
 124	1.2239e+01	1.2196	-11.168111	0.000393	3.931526	0.666018	0.000039
 125	1.2338e+01	1.2283	-11.130635	0.000377	3.767712	0.638268	0.000038
 126	1.2438e+01	1.2414	-11.090716	0.000401	4.013432	0.679894	0.000040
 127	1.2537e+01	1.2503	-11.060572	0.000303	3.030551	0.513389	0.000030
 128	1.2636e+01	1.2585	-11.024726	0.000360	3.603899	0.610517	0.000036
 129	1.2736e+01	1.2675	-10.988880	0.000360	3.603899	0.610517	0.000036
 130	1.2835e+01	1.2796	-10.950590	0.000385	3.849619	0.652143	0.000038
 131	1.2935e+01	1.2885	-10.918817	0.000319	3.194365	0.541140	0.000032
 132	1.3034e+01	1.2968	-10.881342	0.000377	3.767712	0.638268	0.000038
 133	1.3134e+01	1.3108	-10.848754	0.000328	3.276271	0.555015	0.000033
 134	1.3233e+01	1.3184	-10.813723	0.000352	3.521992	0.596642	0.000035
 135	1.3333e+01	1.3289	-10.774618	0.000393	3.931526	0.666018	0.000039
 136	1.3432e+01	1.3384	-10.742438	0.000324	3.235318	0.548078	0.000032
 137	1.3532e+01	1.3502	-10.704962	0.000377	3.767712	0.638268	0.000038
 138	1.3632e+01	1.3603	-10.667487	0.000377	3.767712	0.638268	0.000038
 139	1.3731e+01	1.3686	-10.636121	0.000315	3.153411	0.534202	0.000032
 140	1.3831e+01	1.3767	-10.604756	0.000315	3.153411	0.534202	0.000032
 141	1.3930e+01	1.3884	-10.566058	0.000389	3.890572	0.659081	0.000039
 142	1.4030e+01	1.3999	-10.529805	0.000364	3.644852	0.617455	0.000036
 143	1.4129e+01	1.4116	-10.496810	0.000332	3.317225	0.561953	0.000033
 144	1.4229e+01	1.4191	-10.463408	0.000336	3.358178	0.568891	0.000034
 145	1.4328e+01	1.4300	-10.426340	0.000373	3.726759	0.631330	0.000037
 146	1.4428e+01	1.4388	-10.392123	0.000344	3.440085	0.582766	0.000034
 147	1.4527e+01	1.4502	-10.356684	0.000356	3.562945	0.603579	0.000036
 148	1.4627e+01	1.4586	-10.317579	0.000393	3.931526	0.666018	0.000039
 149	1.4726e+01	1.4666	-10.282141	0.000356	3.562945	0.603579	0.000036
 150	1.4825e+01	1.4764	-10.249961	0.000324	3.235318	0.548078	0.000032
 151	1.4925e+01	1.4896	-10.208004	0.000422	4.218199	0.714582	0.000042
 152	1.5024e+01	1.4964	-10.175417	0.000328	3.276271	0.555015	0.000033
 153	1.5124e+01	1.5069	-10.135905	0.000397	3.972479	0.672956	0.000040
 154	1.5223e+01	1.5173	-10.102910	0.000332	3.317225	0.561953	0.000033
 155	1.5323e+01	1.5282	-10.065842	0.000373	3.726759	0.631330	0.000037
 156	1.5422e+01	1.5390	-10.029996	0.000360	3.603899	0.610517	0.000036
 157	1.5522e+01	1.5455	-9.993742	0.000364	3.644852	0.617455	0.000036
 158	1.5621e+01	1.5619	-9.956674	0.000373	3.726759	0.631330	0.000037
 159	1.5721e+01	1.5664	-9.916754	0.000401	4.013432	0.679894	0.000040
 160	1.5820e+01	1.5785	-9.882945	0.000340	3.399132	0.575828	0.000034
 161	1.5920e+01	1.5879	-9.847506	0.000356	3.562945	0.603579	0.000036
 162	1.6020e+01	1.5960	-9.812067	0.000356	3.562945	0.603579	0.000036
 163	1.6119e+01	1.6092	-9.770111	0.000422	4.218199	0.714582	0.000042
 164	1.6218e+01	1.6154	-9.739153	0.000311	3.112458	0.527265	0.000031
 165	1.6318e+01	1.6257	-9.701678	0.000377	3.767712	0.638268	0.000038
 166	1.6418e+01	1.6360	-9.660129	0.000418	4.177246	0.707645	0.000042
 167	1.6517e+01	1.6454	-9.627541	0.000328	3.276271	0.555015	0.000033
 168	1.6616e+01	1.6553	-9.590880	0.000369	3.685805	0.624392	0.000037
 169	1.6716e+01	1.6681	-9.552590	0.000385	3.849619	0.652143	0.000038
 170	1.6816e+01	1.6767	-9.520817	0.000319	3.194365	0.541140	0.000032
 171	1.6915e+01	1.6879	-9.481305	0.000397	3.972479	0.672956	0.000040
 172	1.7015e+01	1.6959	-9.445459	0.000360	3.603899	0.610517	0.000036
 173	1.7114e+01	1.7081	-9.405540	0.000401	4.013432	0.679894	0.000040
 174	1.7213e+01	1.7188	-9.374581	0.000311	3.112458	0.527265	0.000031
 175	1.7313e+01	1.7275	-9.333033	0.000418	4.177246	0.707645	0.000042
 176	1.7413e+01	1.7391	-9.292706	0.000405	4.054386	0.686832	0.000041
 177	1.7512e+01	1.7467	-9.257674	0.000352	3.521992	0.596642	0.000035
 178	1.7611e+01	1.7551	-9.223050	0.000348	3.481038	0.589704	0.000035
 179	1.7711e+01	1.7666	-9.184353	0.000389	3.890572	0.659081	0.000039
 180	1.7811e+01	1.7760	-9.148914	0.000356	3.562945	0.603579	0.000036
 181	1.7910e+01	1.7838	-9.112660	0.000364	3.644852	0.617455	0.000036
 182	1.8009e+01	1.7947	-9.075999	0.000369	3.685805	0.624392	0.000037
 183	1.8109e+01	1.8040	-9.037302	0.000389	3.890572	0.659081	0.000039
 184	1.8209e+01	1.8181	-9.001863	0.000356	3.562945	0.603579	0.000036
 185	1.8308e+01	1.8259	-8.968054	0.000340	3.399132	0.575828	0.000034
 186	1.8407e+01	1.8342	-8.930171	0.000381	3.808666	0.645205	0.000038
 187	1.8507e+01	1.8464	-8.896769	0.000336	3.358178	0.568891	0.000034
 188	1.8607e+01	1.8557	-8.862959	0.000340	3.399132	0.575828	0.000034
 189	1.8706e+01	1.8696	-8.829964	0.000332	3.317225	0.561953	0.000033
 190	1.8805e+01	1.8765	-8.791267	0.000389	3.890572	0.659081	0.000039
 191	1.8905e+01	1.8865	-8.755013	0.000364	3.644852	0.617455	0.000036
 192	1.9005e+01	1.8953	-8.720797	0.000344	3.440085	0.582766	0.000034
 193	1.9104e+01	1.9068	-8.680877	0.000401	4.013432	0.679894	0.000040
 194	1.9203e+01	1.9160	-8.647068	0.000340	3.399132	0.575828	0.000034
 195	1.9303e+01	1.9247	-8.611222	0.000360	3.603899	0.610517	0.000036
 196	1.9402e+01	1.9373	-8.575783	0.000356	3.562945	0.603579	0.000036
 197	1.9502e+01	1.9444	-8.542381	0.000336	3.358178	0.568891	0.000034
 198	1.9602e+01	1.9547	-8.511423	0.000311	3.112458	0.527265	0.000031
 199	1.9701e+01	1.9668	-8.476391	0.000352	3.521992	0.596642	0.000035
 200	1.9800e+01	1.9733	-8.439323	0.000373	3.726759	0.631330	0.000037
 201	1.9900e+01	1.9857	-8.404292	0.000352	3.521992	0.596642	0.000035
 202	2.0000e+01	1.9962	-8.365594	0.000389	3.890572	0.659081	0.000039
 203	2.0099e+01	2.0059	-8.328933	0.000369	3.685805	0.624392	0.000037
 204	2.0198e+01	2.0176	-8.289014	0.000401	4.013432	0.679894	0.000040
 205	2.0298e+01	2.0251	-8.256019	0.000332	3.317225	0.561953	0.000033
 206	2.0398e+01	2.0367	-8.218951	0.000373	3.726759	0.631330	0.000037
 207	2.0497e+01	2.0455	-8.181475	0.000377	3.767712	0.638268	0.000038
 208	2.0596e+01	2.0544	-8.145222	0.000364	3.644852	0.617455	0.000036
 209	2.0696e+01	2.0663	-8.113856	0.000315	3.153411	0.534202	0.000032
 210	2.0796e+01	2.0753	-8.073529	0.000405	4.054386	0.686832	0.000041
 211	2.0895e+01	2.0837	-8.030351	0.000434	4.341060	0.735395	0.000043
 212	2.0994e+01	2.0952	-7.993690	0.000369	3.685805	0.624392	0.000037
 213	2.1094e+01	2.1040	-7.956215	0.000377	3.767712	0.638268	0.000038
 214	2.1194e+01	2.1152	-7.917925	0.000385	3.849619	0.652143	0.000038
 215	2.1293e+01	2.1226	-7.880449	0.000377	3.767712	0.638268	0.000038
 216	2.1392e+01	2.1375	-7.835641	0.000450	4.504873	0.763146	0.000045
 217	2.1492e+01	2.1464	-7.799795	0.000360	3.603899	0.610517	0.000036
 218	2.1591e+01	2.1560	-7.760283	0.000397	3.972479	0.672956	0.000040
 219	2.1691e+01	2.1648	-7.721585	0.000389	3.890572	0.659081	0.000039
 220	2.1791e+01	2.1744	-7.682481	0.000393	3.931526	0.666018	0.000039
 221	2.1890e+01	2.1840	-7.642561	0.000401	4.013432	0.679894	0.000040
 222	2.1989e+01	2.1918	-7.605900	0.000369	3.685805	0.624392	0.000037
 223	2.2089e+01	2.2034	-7.563536	0.000426	4.259153	0.721520	0.000043
 224	2.2189e+01	2.2140	-7.530134	0.000336	3.358178	0.568891	0.000034
 225	2.2288e+01	2.2234	-7.483290	0.000471	4.709640	0.797835	0.000047
 226	2.2387e+01	2.2358	-7.447851	0.000356	3.562945	0.603579	0.000036
 227	2.2487e+01	2.2456	-7.406302	0.000418	4.177246	0.707645	0.000042
 228	2.2587e+01	2.2529	-7.365975	0.000405	4.054386	0.686832	0.000041
 229	2.2686e+01	2.2633	-7.326463	0.000397	3.972479	0.672956	0.000040
 230	2.2785e+01	2.2750	-7.288173	0.000385	3.849619	0.652143	0.000038
 231	2.2885e+01	2.2836	-7.247439	0.000410	4.095339	0.693769	0.000041
 232	2.2985e+01	2.2945	-7.214444	0.000332	3.317225	0.561953	0.000033
 233	2.3084e+01	2.3050	-7.174117	0.000405	4.054386	0.686832	0.000041
 234	2.3183e+01	2.3157	-7.137456	0.000369	3.685805	0.624392	0.000037
 235	2.3283e+01	2.3223	-7.100388	0.000373	3.726759	0.631330	0.000037
 236	2.3383e+01	2.3325	-7.062098	0.000385	3.849619	0.652143	0.000038
 237	2.3482e+01	2.3440	-7.024622	0.000377	3.767712	0.638268	0.000038
 238	2.3581e+01	2.3535	-6.984295	0.000405	4.054386	0.686832	0.000041
 239	2.3681e+01	2.3664	-6.951301	0.000332	3.317225	0.561953	0.000033
 240	2.3780e+01	2.3748	-6.909344	0.000422	4.218199	0.714582	0.000042
 241	2.3880e+01	2.3847	-6.873906	0.000356	3.562945	0.603579	0.000036
 242	2.3980e+01	2.3935	-6.833579	0.000405	4.054386	0.686832	0.000041
 243	2.4079e+01	2.4041	-6.797732	0.000360	3.603899	0.610517	0.000036
 244	2.4178e+01	2.4136	-6.758628	0.000393	3.931526	0.666018	0.000039
 245	2.4278e+01	2.4227	-6.721559	0.000373	3.726759	0.631330	0.000037
 246	2.4378e+01	2.4346	-6.688565	0.000332	3.317225	0.561953	0.000033
 247	2.4477e+01	2.4439	-6.649460	0.000393	3.931526	0.666018	0.000039
 248	2.4576e+01	2.4504	-6.611984	0.000377	3.767712	0.638268	0.000038
 249	2.4676e+01	2.4629	-6.577768	0.000344	3.440085	0.582766	0.000034
 250	2.4776e+01	2.4748	-6.536219	0.000418	4.177246	0.707645	0.000042
 251	2.4875e+01	2.4838	-6.501594	0.000348	3.481038	0.589704	0.000035
 252	2.4974e+01	2.4917	-6.466156	0.000356	3.562945	0.603579	0.000036
 253	2.5074e+01	2.5062	-6.427865	0.000385	3.849619	0.652143	0.000038
 254	2.5174e+01	2.5131	-6.392019	0.000360	3.603899	0.610517	0.000036
 255	2.5273e+01	2.5236	-6.350878	0.000414	4.136293	0.700707	0.000041
 256	2.5372e+01	2.5344	-6.317476	0.000336	3.358178	0.568891	0.000034
 257	2.5472e+01	2.5394	-6.282852	0.000348	3.481038	0.589704	0.000035
 258	2.5572e+01	2.5523	-6.245783	0.000373	3.726759	0.631330	0.000037
 259	2.5671e+01	2.5647	-6.208715	0.000373	3.726759	0.631330	0.000037
 260	2.5770e+01	2.5748	-6.174091	0.000348	3.481038	0.589704	0.000035
 261	2.5870e+01	2.5845	-6.135801	0.000385	3.849619	0.652143	0.000038
 262	2.5970e+01	2.5903	-6.100362	0.000356	3.562945	0.603579	0.000036
 263	2.6069e+01	2.6041	-6.064923	0.000356	3.562945	0.603579	0.000036
 264	2.6169e+01	2.6163	-6.028670	0.000364	3.644852	0.617455	0.000036
 265	2.6268e+01	2.6220	-5.995675	0.000332	3.317225	0.561953	0.000033
 266	2.6367e+01	2.6317	-5.954533	0.000414	4.136293	0.700707	0.000041
 267	2.6467e+01	2.6425	-5.919502	0.000352	3.521992	0.596642	0.000035
 268	2.6567e+01	2.6515	-5.883656	0.000360	3.603899	0.610517	0.000036
 269	2.6666e+01	2.6617	-5.842107	0.000418	4.177246	0.707645	0.000042
 270	2.6765e+01	2.6720	-5.805039	0.000373	3.726759	0.631330	0.000037
 271	2.6865e+01	2.6812	-5.767971	0.000373	3.726759	0.631330	0.000037
 272	2.6965e+01	2.6891	-5.732939	0.000352	3.521992	0.596642	0.000035
 273	2.7064e+01	2.7024	-5.691390	0.000418	4.177246	0.707645	0.000042
 274	2.7163e+01	2.7103	-5.656359	0.000352	3.521992	0.596642	0.000035
 275	2.7263e+01	2.7238	-5.618068	0.000385	3.849619	0.652143	0.000038
 276	2.7363e+01	2.7299	-5.582222	0.000360	3.603899	0.610517	0.000036
 277	2.7462e+01	2.7425	-5.544339	0.000381	3.808666	0.645205	0.000038
 278	2.7561e+01	2.7483	-5.508086	0.000364	3.644852	0.617455	0.000036
 279	2.7661e+01	2.7601	-5.468981	0.000393	3.931526	0.666018	0.000039
 280	2.7761e+01	2.7698	-5.430691	0.000385	3.849619	0.652143	0.000038
 281	2.7860e+01	2.7812	-5.392401	0.000385	3.849619	0.652143	0.000038
 282	2.7959e+01	2.7926	-5.358184	0.000344	3.440085	0.582766	0.000034
 283	2.8059e+01	2.8004	-5.320301	0.000381	3.808666	0.645205	0.000038
 284	2.8159e+01	2.8108	-5.284455	0.000360	3.603899	0.610517	0.000036
 285	2.8258e+01	2.8199	-5.245757	0.000389	3.890572	0.659081	0.000039
 286	2.8358e+01	2.8308	-5.209097	0.000369	3.685805	0.624392	0.000037
 287	2.8457e+01	2.8402	-5.174472	0.000348	3.481038	0.589704	0.000035
 288	2.8556e+01	2.8508	-5.137812	0.000369	3.685805	0.624392	0.000037
 289	2.8656e+01	2.8623	-5.099929	0.000381	3.808666	0.645205	0.000038
 290	2.8756e+01	2.8723	-5.066119	0.000340	3.399132	0.575828	0.000034
 291	2.8855e+01	2.8823	-5.032310	0.000340	3.399132	0.575828	0.000034
 292	2.8954e+01	2.8899	-4.997686	0.000348	3.481038	0.589704	0.000035
 293	2.9054e+01	2.9003	-4.960618	0.000373	3.726759	0.631330	0.000037
 294	2.9154e+01	2.9140	-4.925993	0.000348	3.481038	0.589704	0.000035
 295	2.9253e+01	2.9207	-4.894221	0.000319	3.194365	0.541140	0.000032
 296	2.9352e+01	2.9351	-4.859189	0.000352	3.521992	0.596642	0.000035
 297	2.9452e+01	2.9420	-4.821714	0.000377	3.767712	0.638268	0.000038
 298	2.9552e+01	2.9486	-4.791570	0.000303	3.030551	0.513389	0.000030
 299	2.9651e+01	2.9618	-4.759798	0.000319	3.194365	0.541140	0.000032
 300	2.9750e+01	2.9707	-4.724766	0.000352	3.521992	0.596642	0.000035
 301	2.9850e+01	2.9813	-4.696660	0.000283	2.825784	0.478701	0.000028
 302	2.9950e+01	2.9910	-4.659999	0.000369	3.685805	0.624392	0.000037
 303	3.0049e+01	3.0029	-4.629855	0.000303	3.030551	0.513389	0.000030
 304	3.0148e+01	3.0112	-4.593602	0.000364	3.644852	0.617455	0.000036
 305	3.0248e+01	3.0213	-4.558570	0.000352	3.521992	0.596642	0.000035
 306	3.0348e+01	3.0296	-4.531279	0.000274	2.743877	0.464825	0.000027
 307	3.0447e+01	3.0412	-4.498284	0.000332	3.317225	0.561953	0.000033
 308	3.0547e+01	3.0526	-4.466104	0.000324	3.235318	0.548078	0.000032
 309	3.0646e+01	3.0581	-4.433924	0.000324	3.235318	0.548078	0.000032
 310	3.0745e+01	3.0710	-4.405410	0.000287	2.866737	0.485638	0.000029
 311	3.0845e+01	3.0798	-4.371193	0.000344	3.440085	0.582766	0.000034
 312	3.0945e+01	3.0896	-4.335754	0.000356	3.562945	0.603579	0.000036
 313	3.1044e+01	3.1001	-4.307647	0.000283	2.825784	0.478701	0.000028
 314	3.1143e+01	3.1092	-4.269357	0.000385	3.849619	0.652143	0.000038
 315	3.1243e+01	3.1205	-4.238399	0.000311	3.112458	0.527265	0.000031
 316	3.1343e+01	3.1287	-4.207849	0.000307	3.071504	0.520327	0.000031
 317	3.1442e+01	3.1428	-4.169966	0.000381	3.808666	0.645205	0.000038
 318	3.1541e+01	3.1488	-4.141044	0.000291	2.907691	0.492576	0.000029
 319	3.1641e+01	3.1595	-4.106013	0.000352	3.521992	0.596642	0.000035
 320	3.1741e+01	3.1692	-4.073426	0.000328	3.276271	0.555015	0.000033
 321	3.1840e+01	3.1779	-4.040023	0.000336	3.358178	0.568891	0.000034
 322	3.1939e+01	3.1904	-4.005807	0.000344	3.440085	0.582766	0.000034
 323	3.2039e+01	3.1993	-3.971997	0.000340	3.399132	0.575828	0.000034
 324	3.2139e+01	3.2060	-3.940632	0.000315	3.153411	0.534202	0.000032
 325	3.2238e+01	3.2186	-3.907637	0.000332	3.317225	0.561953	0.000033
 326	3.2337e+01	3.2299	-3.872198	0.000356	3.562945	0.603579	0.000036
 327	3.2437e+01	3.2393	-3.836352	0.000360	3.603899	0.610517	0.000036
 328	3.2536e+01	3.2504	-3.806616	0.000299	2.989598	0.506452	0.000030
 329	3.2636e+01	3.2565	-3.771992	0.000348	3.481038	0.589704	0.000035
 330	3.2736e+01	3.2702	-3.735331	0.000369	3.685805	0.624392	0.000037
 331	3.2835e+01	3.2789	-3.703558	0.000319	3.194365	0.541140	0.000032
 332	3.2934e+01	3.2935	-3.666490	0.000373	3.726759	0.631330	0.000037
 333	3.3034e+01	3.2992	-3.631866	0.000348	3.481038	0.589704	0.000035
 334	3.3133e+01	3.3102	-3.596020	0.000360	3.603899	0.610517	0.000036
 335	3.3233e+01	3.3145	-3.565062	0.000311	3.112458	0.527265	0.000031
 336	3.3333e+01	3.3286	-3.531660	0.000336	3.358178	0.568891	0.000034
 337	3.3432e+01	3.3404	-3.501517	0.000303	3.030551	0.513389	0.000030
 338	3.3532e+01	3.3492	-3.465263	0.000364	3.644852	0.617455	0.000036
 339	3.3631e+01	3.3601	-3.433490	0.000319	3.194365	0.541140	0.000032
 340	3.3730e+01	3.3669	-3.394385	0.000393	3.931526	0.666018	0.000039
 341	3.3830e+01	3.3797	-3.363835	0.000307	3.071504	0.520327	0.000031
 342	3.3929e+01	3.3874	-3.330433	0.000336	3.358178	0.568891	0.000034
 343	3.4029e+01	3.3971	-3.295401	0.000352	3.521992	0.596642	0.000035
 344	3.4129e+01	3.4099	-3.259555	0.000360	3.603899	0.610517	0.000036
 345	3.4228e+01	3.4178	-3.227782	0.000319	3.194365	0.541140	0.000032
 346	3.4328e+01	3.4289	-3.193158	0.000348	3.481038	0.589704	0.000035
 347	3.4427e+01	3.4399	-3.159756	0.000336	3.358178	0.568891	0.000034
 348	3.4526e+01	3.4472	-3.123095	0.000369	3.685805	0.624392	0.000037
 349	3.4626e+01	3.4576	-3.089286	0.000340	3.399132	0.575828	0.000034
 350	3.4725e+01	3.4689	-3.059143	0.000303	3.030551	0.513389	0.000030
 351	3.4825e+01	3.4802	-3.022482	0.000369	3.685805	0.624392	0.000037
 352	3.4925e+01	3.4890	-2.989894	0.000328	3.276271	0.555015	0.000033
 353	3.5024e+01	3.4990	-2.958122	0.000319	3.194365	0.541140	0.000032
 354	3.5123e+01	3.5076	-2.925127	0.000332	3.317225	0.561953	0.000033
 355	3.5223e+01	3.5191	-2.889688	0.000356	3.562945	0.603579	0.000036
 356	3.5322e+01	3.5282	-2.859137	0.000307	3.071504	0.520327	0.000031
 357	3.5422e+01	3.5378	-2.827365	0.000319	3.194365	0.541140	0.000032
 358	3.5522e+01	3.5474	-2.795185	0.000324	3.235318	0.548078	0.000032
 359	3.5621e+01	3.5606	-2.763412	0.000319	3.194365	0.541140	0.000032
 360	3.5721e+01	3.5674	-2.728788	0.000348	3.481038	0.589704	0.000035
 361	3.5820e+01	3.5781	-2.695793	0.000332	3.317225	0.561953	0.000033
 362	3.5919e+01	3.5915	-2.664835	0.000311	3.112458	0.527265	0.000031
 363	3.6019e+01	3.5973	-2.633470	0.000315	3.153411	0.534202	0.000032
 364	3.6118e+01	3.6065	-2.600882	0.000328	3.276271	0.555015	0.000033
 365	3.6218e+01	3.6184	-2.571554	0.000295	2.948644	0.499514	0.000029
 366	3.6318e+01	3.6266	-2.537744	0.000340	3.399132	0.575828	0.000034
 367	3.6417e+01	3.6387	-2.504749	0.000332	3.317225	0.561953	0.000033
 368	3.6517e+01	3.6501	-2.473384	0.000315	3.153411	0.534202	0.000032
 369	3.6616e+01	3.6568	-2.441611	0.000319	3.194365	0.541140	0.000032
 370	3.6715e+01	3.6684	-2.404136	0.000377	3.767712	0.638268	0.000038
 371	3.6815e+01	3.6787	-2.370326	0.000340	3.399132	0.575828	0.000034
 372	3.6914e+01	3.6871	-2.336924	0.000336	3.358178	0.568891	0.000034
 373	3.7014e+01	3.6945	-2.304337	0.000328	3.276271	0.555015	0.000033
 374	3.7114e+01	3.7080	-2.270120	0.000344	3.440085	0.582766	0.000034
 375	3.7213e+01	3.7164	-2.237533	0.000328	3.276271	0.555015	0.000033
 376	3.7313e+01	3.7265	-2.200464	0.000373	3.726759	0.631330	0.000037
 377	3.7412e+01	3.7370	-2.165026	0.000356	3.562945	0.603579	0.000036
 378	3.7511e+01	3.7485	-2.130402	0.000348	3.481038	0.589704	0.000035
 379	3.7611e+01	3.7552	-2.092926	0.000377	3.767712	0.638268	0.000038
 380	3.7711e+01	3.7673	-2.060339	0.000328	3.276271	0.555015	0.000033
 381	3.7810e+01	3.7765	-2.026122	0.000344	3.440085	0.582766	0.000034
 382	3.7910e+01	3.7875	-1.991498	0.000348	3.481038	0.589704	0.000035
 383	3.8009e+01	3.7977	-1.954022	0.000377	3.767712	0.638268	0.000038
 384	3.8108e+01	3.8081	-1.920213	0.000340	3.399132	0.575828	0.000034
 385	3.8208e+01	3.8160	-1.880701	0.000397	3.972479	0.672956	0.000040
 386	3.8307e+01	3.8262	-1.846484	0.000344	3.440085	0.582766	0.000034
 387	3.8407e+01	3.8370	-1.810230	0.000364	3.644852	0.617455	0.000036
 388	3.8507e+01	3.8479	-1.776014	0.000344	3.440085	0.582766	0.000034
 389	3.8606e+01	3.8583	-1.737316	0.000389	3.890572	0.659081	0.000039
 390	3.8706e+01	3.8666	-1.703507	0.000340	3.399132	0.575828	0.000034
 391	3.8805e+01	3.8784	-1.663587	0.000401	4.013432	0.679894	0.000040
 392	3.8904e+01	3.8859	-1.631407	0.000324	3.235318	0.548078	0.000032
 393	3.9004e+01	3.8960	-1.593931	0.000377	3.767712	0.638268	0.000038
 394	3.9103e+01	3.9059	-1.556863	0.000373	3.726759	0.631330	0.000037
 395	3.9203e+01	3.9175	-1.520202	0.000369	3.685805	0.624392	0.000037
 396	3.9303e+01	3.9249	-1.480690	0.000397	3.972479	0.672956	0.000040
 397	3.9402e+01	3.9352	-1.446473	0.000344	3.440085	0.582766	0.000034
 398	3.9502e+01	3.9454	-1.408183	0.000385	3.849619	0.652143	0.000038
 399	3.9601e+01	3.9548	-1.375596	0.000328	3.276271	0.555015	0.000033
 400	3.9700e+01	3.9649	-1.339750	0.000360	3.603899	0.610517	0.000036
 401	3.9800e+01	3.9744	-1.307162	0.000328	3.276271	0.555015	0.000033
 402	3.9900e+01	3.9846	-1.271316	0.000360	3.603899	0.610517	0.000036
 403	3.9999e+01	3.9960	-1.236285	0.000352	3.521992	0.596642	0.000035
 404	4.0099e+01	4.0047	-1.201661	0.000348	3.481038	0.589704	0.000035
 405	4.0198e+01	4.0145	-1.167036	0.000348	3.481038	0.589704	0.000035
 406	4.0297e+01	4.0281	-1.127524	0.000397	3.972479	0.672956	0.000040
 407	4.0397e+01	4.0338	-1.096159	0.000315	3.153411	0.534202	0.000032
 408	4.0496e+01	4.0444	-1.061127	0.000352	3.521992	0.596642	0.000035
 409	4.0596e+01	4.0564	-1.024467	0.000369	3.685805	0.624392	0.000037
 410	4.0696e+01	4.0633	-0.992286	0.000324	3.235318	0.548078	0.000032
 411	4.0795e+01	4.0736	-0.959292	0.000332	3.317225	0.561953	0.000033
 412	4.0895e+01	4.0852	-0.924260	0.000352	3.521992	0.596642	0.000035
 413	4.0994e+01	4.0950	-0.887192	0.000373	3.726759	0.631330	0.000037
 414	4.1093e+01	4.1080	-0.854197	0.000332	3.317225	0.561953	0.000033
 415	4.1193e+01	4.1131	-0.821610	0.000328	3.276271	0.555015	0.000033
 416	4.1292e+01	4.1233	-0.786986	0.000348	3.481038	0.589704	0.000035
 417	4.1392e+01	4.1363	-0.751954	0.000352	3.521992	0.596642	0.000035
 418	4.1492e+01	4.1441	-0.720589	0.000315	3.153411	0.534202	0.000032
 419	4.1591e+01	4.1570	-0.686372	0.000344	3.440085	0.582766	0.000034
 420	4.1691e+01	4.1638	-0.655822	0.000307	3.071504	0.520327	0.000031
 421	4.1790e+01	4.1741	-0.619568	0.000364	3.644852	0.617455	0.000036
 422	4.1889e+01	4.1846	-0.587795	0.000319	3.194365	0.541140	0.000032
 423	4.1989e+01	4.1969	-0.550320	0.000377	3.767712	0.638268	0.000038
 424	4.2089e+01	4.2054	-0.518547	0.000319	3.194365	0.541140	0.000032
 425	4.2188e+01	4.2143	-0.486774	0.000319	3.194365	0.541140	0.000032
 426	4.2288e+01	4.2243	-0.448077	0.000389	3.890572	0.659081	0.000039
 427	4.2387e+01	4.2326	-0.418341	0.000299	2.989598	0.506452	0.000030
 428	4.2486e+01	4.2442	-0.385753	0.000328	3.276271	0.555015	0.000033
 429	4.2586e+01	4.2544	-0.351129	0.000348	3.481038	0.589704	0.000035
 430	4.2685e+01	4.2641	-0.320171	0.000311	3.112458	0.527265	0.000031
 431	4.2785e+01	4.2762	-0.285140	0.000352	3.521992	0.596642	0.000035
 432	4.2885e+01	4.2823	-0.254589	0.000307	3.071504	0.520327	0.000031
 433	4.2984e+01	4.2933	-0.216299	0.000385	3.849619	0.652143	0.000038
 434	4.3084e+01	4.3038	-0.184119	0.000324	3.235318	0.548078	0.000032
 435	4.3183e+01	4.3171	-0.153975	0.000303	3.030551	0.513389	0.000030
 436	4.3282e+01	4.3233	-0.116907	0.000373	3.726759	0.631330	0.000037
 437	4.3382e+01	4.3354	-0.084320	0.000328	3.276271	0.555015	0.000033
 438	4.3481e+01	4.3459	-0.050103	0.000344	3.440085	0.582766	0.000034
 439	4.3581e+01	4.3523	-0.015886	0.000344	3.440085	0.582766	0.000034
 440	4.3681e+01	4.3636	0.021589	0.000377	3.767712	0.638268	0.000038
 441	4.3780e+01	4.3758	0.055399	0.000340	3.399132	0.575828	0.000034
 442	4.3880e+01	4.3839	0.087986	0.000328	3.276271	0.555015	0.000033
 443	4.3979e+01	4.3929	0.122610	0.000348	3.481038	0.589704	0.000035
 444	4.4078e+01	4.4027	0.159678	0.000373	3.726759	0.631330	0.000037
 445	4.4178e+01	4.4156	0.192673	0.000332	3.317225	0.561953	0.000033
 446	4.4278e+01	4.4218	0.224038	0.000315	3.153411	0.534202	0.000032
 447	4.4377e+01	4.4347	0.260292	0.000364	3.644852	0.617455	0.000036
 448	4.4477e+01	4.4441	0.295323	0.000352	3.521992	0.596642	0.000035
 449	4.4576e+01	4.4521	0.330355	0.000352	3.521992	0.596642	0.000035
 450	4.4675e+01	4.4634	0.362942	0.000328	3.276271	0.555015	0.000033
 451	4.4775e+01	4.4763	0.398788	0.000360	3.603899	0.610517	0.000036
 452	4.4874e+01	4.4849	0.431376	0.000328	3.276271	0.555015	0.000033
 453	4.4974e+01	4.4933	0.465593	0.000344	3.440085	0.582766	0.000034
 454	4.5074e+01	4.5040	0.499402	0.000340	3.399132	0.575828	0.000034
 455	4.5173e+01	4.5152	0.533211	0.000340	3.399132	0.575828	0.000034
 456	4.5273e+01	4.5230	0.560503	0.000274	2.743877	0.464825	0.000027
 457	4.5372e+01	4.5322	0.594720	0.000344	3.440085	0.582766	0.000034
 458	4.5471e+01	4.5420	0.627308	0.000328	3.276271	0.555015	0.000033
 459	4.5571e+01	4.5541	0.662339	0.000352	3.521992	0.596642	0.000035
 460	4.5670e+01	4.5621	0.692890	0.000307	3.071504	0.520327	0.000031
 461	4.5770e+01	4.5754	0.722626	0.000299	2.989598	0.506452	0.000030
 462	4.5870e+01	4.5824	0.756435	0.000340	3.399132	0.575828	0.000034
 463	4.5969e+01	4.5911	0.783727	0.000274	2.743877	0.464825	0.000027
 464	4.6069e+01	4.6020	0.819166	0.000356	3.562945	0.603579	0.000036
 465	4.6168e+01	4.6139	0.850124	0.000311	3.112458	0.527265	0.000031
 466	4.6267e+01	4.6220	0.878231	0.000283	2.825784	0.478701	0.000028
 467	4.6367e+01	4.6329	0.907152	0.000291	2.907691	0.492576	0.000029
 468	4.6467e+01	4.6432	0.936888	0.000299	2.989598	0.506452	0.000030
 469	4.6566e+01	4.6513	0.966624	0.000299	2.989598	0.506452	0.000030
 470	4.6666e+01	4.6620	0.994323	0.000278	2.784831	0.471763	0.000028
 471	4.6765e+01	4.6764	1.024874	0.000307	3.071504	0.520327	0.000031
 472	4.6864e+01	4.6856	1.054610	0.000299	2.989598	0.506452	0.000030
 473	4.6964e+01	4.6939	1.083531	0.000291	2.907691	0.492576	0.000029
 474	4.7063e+01	4.7044	1.116119	0.000328	3.276271	0.555015	0.000033
 475	4.7163e+01	4.7117	1.145855	0.000299	2.989598	0.506452	0.000030
 476	4.7263e+01	4.7237	1.177627	0.000319	3.194365	0.541140	0.000032
 477	4.7362e+01	4.7303	1.201253	0.000238	2.375297	0.402386	0.000024
 478	4.7462e+01	4.7424	1.233841	0.000328	3.276271	0.555015	0.000033
 479	4.7561e+01	4.7527	1.257059	0.000233	2.334343	0.395448	0.000023
 480	4.7660e+01	4.7601	1.289647	0.000328	3.276271	0.555015	0.000033
 481	4.7760e+01	4.7723	1.319383	0.000299	2.989598	0.506452	0.000030
 482	4.7859e+01	4.7837	1.346267	0.000270	2.702924	0.457888	0.000027
 483	4.7959e+01	4.7904	1.375188	0.000291	2.907691	0.492576	0.000029
 484	4.8059e+01	4.8022	1.407776	0.000328	3.276271	0.555015	0.000033
 485	4.8158e+01	4.8111	1.437919	0.000303	3.030551	0.513389	0.000030
 486	4.8258e+01	4.8212	1.469692	0.000319	3.194365	0.541140	0.000032
 487	4.8357e+01	4.8325	1.499428	0.000299	2.989598	0.506452	0.000030
 488	4.8456e+01	4.8408	1.530793	0.000315	3.153411	0.534202	0.000032
 489	4.8556e+01	4.8508	1.559307	0.000287	2.866737	0.485638	0.000029
 490	4.8656e+01	4.8601	1.591080	0.000319	3.194365	0.541140	0.000032
 491	4.8755e+01	4.8715	1.621223	0.000303	3.030551	0.513389	0.000030
 492	4.8855e+01	4.8830	1.650552	0.000295	2.948644	0.499514	0.000029
 493	4.8954e+01	4.8940	1.684361	0.000340	3.399132	0.575828	0.000034
 494	4.9053e+01	4.9027	1.714912	0.000307	3.071504	0.520327	0.000031
 495	4.9153e+01	4.9129	1.742204	0.000274	2.743877	0.464825	0.000027
 496	4.9252e+01	4.9233	1.774791	0.000328	3.276271	0.555015	0.000033
 497	4.9352e+01	4.9297	1.804120	0.000295	2.948644	0.499514	0.000029
 498	4.9452e+01	4.9430	1.838337	0.000344	3.440085	0.582766	0.000034
 499	4.9551e+01	4.9550	1.866036	0.000278	2.784831	0.471763	0.000028
 500	4.9651e+01	4.9612	1.895365	0.000295	2.948644	0.499514	0.000029
 501	4.9750e+01	4.9700	1.927138	0.000319	3.194365	0.541140	0.000032
 502	4.9849e+01	4.9786	1.961354	0.000344	3.440085	0.582766	0.000034
 503	4.9949e+01	4.9914	1.989054	0.000278	2.784831	0.471763	0.000028
 504	5.0048e+01	5.0016	2.020012	0.000311	3.112458	0.527265	0.000031
 505	5.0148e+01	5.0112	2.051784	0.000319	3.194365	0.541140	0.000032
 506	5.0248e+01	5.0220	2.082742	0.000311	3.112458	0.527265	0.000031
 507	5.0347e+01	5.0295	2.113700	0.000311	3.112458	0.527265	0.000031
 508	5.0447e+01	5.0396	2.145473	0.000319	3.194365	0.541140	0.000032
 509	5.0546e+01	5.0477	2.176431	0.000311	3.112458	0.527265	0.000031
 510	5.0645e+01	5.0620	2.203723	0.000274	2.743877	0.464825	0.000027
 511	5.0745e+01	5.0684	2.235903	0.000324	3.235318	0.548078	0.000032
 512	5.0844e+01	5.0783	2.266861	0.000311	3.112458	0.527265	0.000031
 513	5.0944e+01	5.0903	2.297005	0.000303	3.030551	0.513389	0.000030
 514	5.1044e+01	5.1012	2.329592	0.000328	3.276271	0.555015	0.000033
 515	5.1143e+01	5.1102	2.358106	0.000287	2.866737	0.485638	0.000029
 516	5.1242e+01	5.1207	2.391101	0.000332	3.317225	0.561953	0.000033
 517	5.1342e+01	5.1291	2.420837	0.000299	2.989598	0.506452	0.000030
 518	5.1441e+01	5.1392	2.451795	0.000311	3.112458	0.527265	0.000031
 519	5.1541e+01	5.1513	2.484382	0.000328	3.276271	0.555015	0.000033
 520	5.1641e+01	5.1592	2.510452	0.000262	2.621017	0.444012	0.000026
 521	5.1740e+01	5.1727	2.543447	0.000332	3.317225	0.561953	0.000033
 522	5.1840e+01	5.1788	2.572776	0.000295	2.948644	0.499514	0.000029
 523	5.1939e+01	5.1894	2.604956	0.000324	3.235318	0.548078	0.000032
 524	5.2038e+01	5.2026	2.633877	0.000291	2.907691	0.492576	0.000029
 525	5.2138e+01	5.2106	2.658725	0.000250	2.498157	0.423199	0.000025
 526	5.2237e+01	5.2201	2.689683	0.000311	3.112458	0.527265	0.000031
 527	5.2337e+01	5.2296	2.720234	0.000307	3.071504	0.520327	0.000031
 528	5.2437e+01	5.2405	2.748748	0.000287	2.866737	0.485638	0.000029
 529	5.2536e+01	5.2505	2.779706	0.000311	3.112458	0.527265	0.000031
 530	5.2636e+01	5.2595	2.809442	0.000299	2.989598	0.506452	0.000030
 531	5.2735e+01	5.2679	2.840400	0.000311	3.112458	0.527265	0.000031
 532	5.2834e+01	5.2805	2.868099	0.000278	2.784831	0.471763	0.000028
 533	5.2934e+01	5.2881	2.896613	0.000287	2.866737	0.485638	0.000029
 534	5.3033e+01	5.3014	2.927164	0.000307	3.071504	0.520327	0.000031
 535	5.3133e+01	5.3103	2.954863	0.000278	2.784831	0.471763	0.000028
 536	5.3233e+01	5.3175	2.982155	0.000274	2.743877	0.464825	0.000027
 537	5.3332e+01	5.3284	3.013520	0.000315	3.153411	0.534202	0.000032
 538	5.3431e+01	5.3409	3.046108	0.000328	3.276271	0.555015	0.000033
 539	5.3531e+01	5.3493	3.075436	0.000295	2.948644	0.499514	0.000029
 540	5.3630e+01	5.3597	3.106394	0.000311	3.112458	0.527265	0.000031
 541	5.3730e+01	5.3677	3.135316	0.000291	2.907691	0.492576	0.000029
 542	5.3830e+01	5.3791	3.165866	0.000307	3.071504	0.520327	0.000031
 543	5.3929e+01	5.3883	3.198046	0.000324	3.235318	0.548078	0.000032
 544	5.4029e+01	5.3999	3.231448	0.000336	3.358178	0.568891	0.000034
 545	5.4128e+01	5.4090	3.258740	0.000274	2.743877	0.464825	0.000027
 546	5.4227e+01	5.4198	3.292957	0.000344	3.440085	0.582766	0.000034
 547	5.4327e+01	5.4285	3.326767	0.000340	3.399132	0.575828	0.000034
 548	5.4426e+01	5.4391	3.359354	0.000328	3.276271	0.555015	0.000033
 549	5.4526e+01	5.4499	3.391534	0.000324	3.235318	0.548078	0.000032
 550	5.4626e+01	5.4575	3.423307	0.000319	3.194365	0.541140	0.000032
 551	5.4725e+01	5.4683	3.457931	0.000348	3.481038	0.589704	0.000035
 552	5.4825e+01	5.4797	3.490926	0.000332	3.317225	0.561953	0.000033
 553	5.4924e+01	5.4876	3.525957	0.000352	3.521992	0.596642	0.000035
 554	5.5023e+01	5.4979	3.554878	0.000291	2.907691	0.492576	0.000029
 555	5.5123e+01	5.5079	3.590317	0.000356	3.562945	0.603579	0.000036
 556	5.5222e+01	5.5177	3.623312	0.000332	3.317225	0.561953	0.000033
 557	5.5322e+01	5.5311	3.654677	0.000315	3.153411	0.534202	0.000032
 558	5.5422e+01	5.5396	3.688894	0.000344	3.440085	0.582766	0.000034
 559	5.5521e+01	5.5473	3.721889	0.000332	3.317225	0.561953	0.000033
 560	5.5620e+01	5.5575	3.756106	0.000344	3.440085	0.582766	0.000034
 561	5.5720e+01	5.5691	3.789915	0.000340	3.399132	0.575828	0.000034
 562	5.5819e+01	5.5804	3.824539	0.000348	3.481038	0.589704	0.000035
 563	5.5919e+01	5.5891	3.859571	0.000352	3.521992	0.596642	0.000035
 564	5.6019e+01	5.5993	3.889307	0.000299	2.989598	0.506452	0.000030
 565	5.6118e+01	5.6056	3.922709	0.000336	3.358178	0.568891	0.000034
 566	5.6218e+01	5.6165	3.955296	0.000328	3.276271	0.555015	0.000033
 567	5.6317e+01	5.6273	3.990735	0.000356	3.562945	0.603579	0.000036
 568	5.6416e+01	5.6377	4.021286	0.000307	3.071504	0.520327	0.000031
 569	5.6516e+01	5.6481	4.052651	0.000315	3.153411	0.534202	0.000032
 570	5.6615e+01	5.6574	4.086460	0.000340	3.399132	0.575828	0.000034
 571	5.6715e+01	5.6664	4.115382	0.000291	2.907691	0.492576	0.000029
 572	5.6815e+01	5.6768	4.145932	0.000307	3.071504	0.520327	0.000031
 573	5.6914e+01	5.6881	4.178927	0.000332	3.317225	0.561953	0.000033
 574	5.7014e+01	5.6982	4.211922	0.000332	3.317225	0.561953	0.000033
 575	5.7113e+01	5.7077	4.242473	0.000307	3.071504	0.520327	0.000031
 576	5.7212e+01	5.7166	4.274245	0.000319	3.194365	0.541140	0.000032
 577	5.7312e+01	5.7270	4.304796	0.000307	3.071504	0.520327	0.000031
 578	5.7411e+01	5.7366	4.337791	0.000332	3.317225	0.561953	0.000033
 579	5.7511e+01	5.7481	4.368342	0.000307	3.071504	0.520327	0.000031
 580	5.7611e+01	5.7571	4.396856	0.000287	2.866737	0.485638	0.000029
 581	5.7710e+01	5.7666	4.432702	0.000360	3.603899	0.610517	0.000036
 582	5.7809e+01	5.7754	4.462030	0.000295	2.948644	0.499514	0.000029
 583	5.7909e+01	5.7854	4.492174	0.000303	3.030551	0.513389	0.000030
 584	5.8008e+01	5.7969	4.523539	0.000315	3.153411	0.534202	0.000032
 585	5.8108e+01	5.8059	4.551646	0.000283	2.825784	0.478701	0.000028
 586	5.8208e+01	5.8132	4.584233	0.000328	3.276271	0.555015	0.000033
 587	5.8307e+01	5.8270	4.615191	0.000311	3.112458	0.527265	0.000031
 588	5.8407e+01	5.8353	4.647779	0.000328	3.276271	0.555015	0.000033
 589	5.8506e+01	5.8482	4.677515	0.000299	2.989598	0.506452	0.000030
 590	5.8605e+01	5.8562	4.708880	0.000315	3.153411	0.534202	0.000032
 591	5.8705e+01	5.8685	4.739431	0.000307	3.071504	0.520327	0.000031
 592	5.8804e+01	5.8756	4.770389	0.000311	3.112458	0.527265	0.000031
 593	5.8904e+01	5.8858	4.801754	0.000315	3.153411	0.534202	0.000032
 594	5.9004e+01	5.8944	4.833119	0.000315	3.153411	0.534202	0.000032
 595	5.9103e+01	5.9051	4.860819	0.000278	2.784831	0.471763	0.000028
 596	5.9203e+01	5.9158	4.890555	0.000299	2.989598	0.506452	0.000030
 597	5.9302e+01	5.9273	4.920698	0.000303	3.030551	0.513389	0.000030
 598	5.9401e+01	5.9353	4.949212	0.000287	2.866737	0.485638	0.000029
 599	5.9501e+01	5.9489	4.982207	0.000332	3.317225	0.561953	0.000033
 600	5.9600e+01	5.9563	5.011943	0.000299	2.989598	0.506452	0.000030
 601	5.9700e+01	5.9679	5.040457	0.000287	2.866737	0.485638	0.000029
 602	5.9800e+01	5.9783	5.073451	0.000332	3.317225	0.561953	0.000033
 603	5.9899e+01	5.9888	5.105632	0.000324	3.235318	0.548078	0.000032
 604	5.9998e+01	5.9939	5.135368	0.000299	2.989598	0.506452	0.000030
 605	6.0098e+01	6.0046	5.167548	0.000324	3.235318	0.548078	0.000032
 606	6.0197e+01	6.0149	5.198506	0.000311	3.112458	0.527265	0.000031
 607	6.0297e+01	6.0253	5.233130	0.000348	3.481038	0.589704	0.000035
 608	6.0397e+01	6.0354	5.265717	0.000328	3.276271	0.555015	0.000033
 609	6.0496e+01	6.0479	5.295046	0.000295	2.948644	0.499514	0.000029
 610	6.0596e+01	6.0561	5.326004	0.000311	3.112458	0.527265	0.000031
 611	6.0695e+01	6.0696	5.354518	0.000287	2.866737	0.485638	0.000029
 612	6.0794e+01	6.0739	5.387513	0.000332	3.317225	0.561953	0.000033
 613	6.0894e+01	6.0840	5.417249	0.000299	2.989598	0.506452	0.000030
 614	6.0993e+01	6.0931	5.451465	0.000344	3.440085	0.582766	0.000034
 615	6.1093e+01	6.1050	5.483645	0.000324	3.235318	0.548078	0.000032
 616	6.1193e+01	6.1169	5.513789	0.000303	3.030551	0.513389	0.000030
 617	6.1292e+01	6.1263	5.545969	0.000324	3.235318	0.548078	0.000032
 618	6.1392e+01	6.1349	5.573261	0.000274	2.743877	0.464825	0.000027
 619	6.1491e+01	6.1456	5.606663	0.000336	3.358178	0.568891	0.000034
 620	6.1590e+01	6.1548	5.639250	0.000328	3.276271	0.555015	0.000033
 621	6.1690e+01	6.1652	5.671430	0.000324	3.235318	0.548078	0.000032
 622	6.1789e+01	6.1749	5.702388	0.000311	3.112458	0.527265	0.000031
 623	6.1889e+01	6.1855	5.729273	0.000270	2.702924	0.457888	0.000027
 624	6.1989e+01	6.1953	5.759824	0.000307	3.071504	0.520327	0.000031
 625	6.2088e+01	6.2040	5.788338	0.000287	2.866737	0.485638	0.000029
 626	6.2188e+01	6.2139	5.818888	0.000307	3.071504	0.520327	0.000031
 627	6.2287e+01	6.2256	5.847810	0.000291	2.907691	0.492576	0.000029
 628	6.2386e+01	6.2331	5.876731	0.000291	2.907691	0.492576	0.000029
 629	6.2486e+01	6.2431	5.910540	0.000340	3.399132	0.575828	0.000034
 630	6.2586e+01	6.2545	5.935796	0.000254	2.539110	0.430137	0.000025
 631	6.2685e+01	6.2680	5.964310	0.000287	2.866737	0.485638	0.000029
 632	6.2785e+01	6.2746	5.988750	0.000246	2.457204	0.416262	0.000025
 633	6.2884e+01	6.2831	6.015227	0.000266	2.661971	0.450950	0.000027
 634	6.2983e+01	6.2930	6.043741	0.000287	2.866737	0.485638	0.000029
 635	6.3083e+01	6.3027	6.066960	0.000233	2.334343	0.395448	0.000023
 636	6.3182e+01	6.3161	6.096696	0.000299	2.989598	0.506452	0.000030
 637	6.3282e+01	6.3255	6.121544	0.000250	2.498157	0.423199	0.000025
 638	6.3382e+01	6.3347	6.149243	0.000278	2.784831	0.471763	0.000028
 639	6.3481e+01	6.3436	6.172869	0.000238	2.375297	0.402386	0.000024
 640	6.3581e+01	6.3503	6.204642	0.000319	3.194365	0.541140	0.000032
 641	6.3680e+01	6.3640	6.231119	0.000266	2.661971	0.450950	0.000027
 642	6.3779e+01	6.3729	6.259226	0.000283	2.825784	0.478701	0.000028
 643	6.3879e+01	6.3831	6.287332	0.000283	2.825784	0.478701	0.000028
 644	6.3978e+01	6.3923	6.310143	0.000229	2.293390	0.388511	0.000023
 645	6.4078e+01	6.4025	6.334584	0.000246	2.457204	0.416262	0.000025
 646	6.4177e+01	6.4124	6.361061	0.000266	2.661971	0.450950	0.000027
 647	6.4277e+01	6.4223	6.385502	0.000246	2.457204	0.416262	0.000025
 648	6.4376e+01	6.4336	6.412794	0.000274	2.743877	0.464825	0.000027
 649	6.4476e+01	6.4443	6.436827	0.000242	2.416250	0.409324	0.000024
 650	6.4576e+01	6.4553	6.468600	0.000319	3.194365	0.541140	0.000032
 651	6.4675e+01	6.4642	6.493448	0.000250	2.498157	0.423199	0.000025
 652	6.4775e+01	6.4727	6.520332	0.000270	2.702924	0.457888	0.000027
 653	6.4874e+01	6.4829	6.547217	0.000270	2.702924	0.457888	0.000027
 654	6.4974e+01	6.4922	6.577768	0.000307	3.071504	0.520327	0.000031
 655	6.5073e+01	6.5008	6.604652	0.000270	2.702924	0.457888	0.000027
 656	6.5172e+01	6.5121	6.631129	0.000266	2.661971	0.450950	0.000027
 657	6.5272e+01	6.5240	6.661273	0.000303	3.030551	0.513389	0.000030
 658	6.5371e+01	6.5325	6.684491	0.000233	2.334343	0.395448	0.000023
 659	6.5471e+01	6.5428	6.715042	0.000307	3.071504	0.520327	0.000031
 660	6.5570e+01	6.5516	6.741927	0.000270	2.702924	0.457888	0.000027
 661	6.5670e+01	6.5622	6.769626	0.000278	2.784831	0.471763	0.000028
 662	6.5769e+01	6.5725	6.798547	0.000291	2.907691	0.492576	0.000029
 663	6.5869e+01	6.5836	6.828691	0.000303	3.030551	0.513389	0.000030
 664	6.5969e+01	6.5908	6.855982	0.000274	2.743877	0.464825	0.000027
 665	6.6068e+01	6.6011	6.884089	0.000283	2.825784	0.478701	0.000028
 666	6.6168e+01	6.6122	6.911788	0.000278	2.784831	0.471763	0.000028
 667	6.6267e+01	6.6253	6.940302	0.000287	2.866737	0.485638	0.000029
 668	6.6367e+01	6.6315	6.966780	0.000266	2.661971	0.450950	0.000027
 669	6.6466e+01	6.6405	6.997738	0.000311	3.112458	0.527265	0.000031
 670	6.6566e+01	6.6531	7.021364	0.000238	2.375297	0.402386	0.000024
 671	6.6665e+01	6.6607	7.053544	0.000324	3.235318	0.548078	0.000032
 672	6.6764e+01	6.6716	7.082058	0.000287	2.866737	0.485638	0.000029
 673	6.6864e+01	6.6816	7.106091	0.000242	2.416250	0.409324	0.000024
 674	6.6963e+01	6.6909	7.133383	0.000274	2.743877	0.464825	0.000027
 675	6.7063e+01	6.7036	7.168414	0.000352	3.521992	0.596642	0.000035
 676	6.7162e+01	6.7098	7.190818	0.000225	2.252437	0.381573	0.000023
 677	6.7262e+01	6.7226	7.222183	0.000315	3.153411	0.534202	0.000032
 678	6.7362e+01	6.7326	7.246624	0.000246	2.457204	0.416262	0.000025
 679	6.7461e+01	6.7379	7.279619	0.000332	3.317225	0.561953	0.000033
 680	6.7561e+01	6.7501	7.306911	0.000274	2.743877	0.464825	0.000027
 681	6.7660e+01	6.7603	7.329315	0.000225	2.252437	0.381573	0.000023
 682	6.7760e+01	6.7714	7.363939	0.000348	3.481038	0.589704	0.000035
 683	6.7859e+01	6.7799	7.390416	0.000266	2.661971	0.450950	0.000027
 684	6.7959e+01	6.7896	7.418115	0.000278	2.784831	0.471763	0.000028
 685	6.8058e+01	6.8028	7.445814	0.000278	2.784831	0.471763	0.000028
 686	6.8157e+01	6.8111	7.474736	0.000291	2.907691	0.492576	0.000029
 687	6.8257e+01	6.8209	7.500398	0.000258	2.580064	0.437075	0.000026
 688	6.8356e+01	6.8307	7.528505	0.000283	2.825784	0.478701	0.000028
 689	6.8456e+01	6.8415	7.556612	0.000283	2.825784	0.478701	0.000028
 690	6.8555e+01	6.8508	7.581460	0.000250	2.498157	0.423199	0.000025
 691	6.8655e+01	6.8617	7.610381	0.000291	2.907691	0.492576	0.000029
 692	6.8754e+01	6.8688	7.634414	0.000242	2.416250	0.409324	0.000024
 693	6.8854e+01	6.8797	7.664557	0.000303	3.030551	0.513389	0.000030
 694	6.8954e+01	6.8893	7.689405	0.000250	2.498157	0.423199	0.000025
 695	6.9053e+01	6.8999	7.714661	0.000254	2.539110	0.430137	0.000025
 696	6.9153e+01	6.9122	7.743989	0.000295	2.948644	0.499514	0.000029
 697	6.9252e+01	6.9207	7.769244	0.000254	2.539110	0.430137	0.000025
 698	6.9352e+01	6.9283	7.797351	0.000283	2.825784	0.478701	0.000028
 699	6.9451e+01	6.9416	7.823014	0.000258	2.580064	0.437075	0.000026
 700	6.9550e+01	6.9519	7.848676	0.000258	2.580064	0.437075	0.000026
 701	6.9650e+01	6.9610	7.875561	0.000270	2.702924	0.457888	0.000027
 702	6.9749e+01	6.9707	7.901631	0.000262	2.621017	0.444012	0.000026
 703	6.9849e+01	6.9790	7.932589	0.000311	3.112458	0.527265	0.000031
 704	6.9948e+01	6.9920	7.954585	0.000221	2.211483	0.374635	0.000022
 705	7.0048e+01	6.9990	7.980655	0.000262	2.621017	0.444012	0.000026
 706	7.0147e+01	7.0113	8.010799	0.000303	3.030551	0.513389	0.000030
 707	7.0247e+01	7.0200	8.038091	0.000274	2.743877	0.464825	0.000027
 708	7.0347e+01	7.0303	8.066605	0.000287	2.866737	0.485638	0.000029
 709	7.0446e+01	7.0412	8.096748	0.000303	3.030551	0.513389	0.000030
 710	7.0546e+01	7.0486	8.125262	0.000287	2.866737	0.485638	0.000029
 711	7.0645e+01	7.0620	8.149702	0.000246	2.457204	0.416262	0.000025
 712	7.0745e+01	7.0703	8.183512	0.000340	3.399132	0.575828	0.000034
 713	7.0844e+01	7.0803	8.212841	0.000295	2.948644	0.499514	0.000029
 714	7.0944e+01	7.0882	8.238096	0.000254	2.539110	0.430137	0.000025
 715	7.1043e+01	7.0986	8.270683	0.000328	3.276271	0.555015	0.000033
 716	7.1142e+01	7.1110	8.301234	0.000307	3.071504	0.520327	0.000031
 717	7.1242e+01	7.1203	8.330563	0.000295	2.948644	0.499514	0.000029
 718	7.1341e+01	7.1307	8.360706	0.000303	3.030551	0.513389	0.000030
 719	7.1441e+01	7.1411	8.389627	0.000291	2.907691	0.492576	0.000029
 720	7.1540e+01	7.1515	8.423029	0.000336	3.358178	0.568891	0.000034
 721	7.1640e+01	7.1583	8.450729	0.000278	2.784831	0.471763	0.000028
 722	7.1740e+01	7.1726	8.486575	0.000360	3.603899	0.610517	0.000036
 723	7.1839e+01	7.1809	8.513052	0.000266	2.661971	0.450950	0.000027
 724	7.1939e+01	7.1902	8.544825	0.000319	3.194365	0.541140	0.000032
 725	7.2038e+01	7.1978	8.571709	0.000270	2.702924	0.457888	0.000027
 726	7.2138e+01	7.2099	8.603889	0.000324	3.235318	0.548078	0.000032
 727	7.2237e+01	7.2208	8.635255	0.000315	3.153411	0.534202	0.000032
 728	7.2337e+01	7.2288	8.663769	0.000287	2.866737	0.485638	0.000029
 729	7.2436e+01	7.2392	8.698800	0.000352	3.521992	0.596642	0.000035
 730	7.2535e+01	7.2471	8.729351	0.000307	3.071504	0.520327	0.000031
 731	7.2635e+01	7.2579	8.760716	0.000315	3.153411	0.534202	0.000032
 732	7.2734e+01	7.2684	8.788008	0.000274	2.743877	0.464825	0.000027
 733	7.2834e+01	7.2810	8.821003	0.000332	3.317225	0.561953	0.000033
 734	7.2933e+01	7.2906	8.850332	0.000295	2.948644	0.499514	0.000029
 735	7.3033e+01	7.2968	8.882512	0.000324	3.235318	0.548078	0.000032
 736	7.3132e+01	7.3074	8.908582	0.000262	2.621017	0.444012	0.000026
 737	7.3232e+01	7.3199	8.939947	0.000315	3.153411	0.534202	0.000032
 738	7.3332e+01	7.3314	8.969276	0.000295	2.948644	0.499514	0.000029
 739	7.3431e+01	7.3378	8.996975	0.000278	2.784831	0.471763	0.000028
 740	7.3531e+01	7.3477	9.029155	0.000324	3.235318	0.548078	0.000032
 741	7.3630e+01	7.3592	9.055225	0.000262	2.621017	0.444012	0.000026
 742	7.3730e+01	7.3676	9.082924	0.000278	2.784831	0.471763	0.000028
 743	7.3829e+01	7.3802	9.114290	0.000315	3.153411	0.534202	0.000032
 744	7.3928e+01	7.3878	9.144433	0.000303	3.030551	0.513389	0.000030
 745	7.4028e+01	7.3989	9.171725	0.000274	2.743877	0.464825	0.000027
 746	7.4127e+01	7.4065	9.202683	0.000311	3.112458	0.527265	0.000031
 747	7.4227e+01	7.4184	9.232012	0.000295	2.948644	0.499514	0.000029
 748	7.4326e+01	7.4282	9.258082	0.000262	2.621017	0.444012	0.000026
 749	7.4426e+01	7.4386	9.289040	0.000311	3.112458	0.527265	0.000031
 750	7.4525e+01	7.4494	9.317146	0.000283	2.825784	0.478701	0.000028
 751	7.4625e+01	7.4572	9.345253	0.000283	2.825784	0.478701	0.000028
 752	7.4725e+01	7.4683	9.369286	0.000242	2.416250	0.409324	0.000024
 753	7.4824e+01	7.4788	9.401059	0.000319	3.194365	0.541140	0.000032
 754	7.4924e+01	7.4879	9.427536	0.000266	2.661971	0.450950	0.000027
 755	7.5023e+01	7.4970	9.457272	0.000299	2.989598	0.506452	0.000030
 756	7.5123e+01	7.5091	9.484971	0.000278	2.784831	0.471763	0.000028
 757	7.5222e+01	7.5183	9.515115	0.000303	3.030551	0.513389	0.000030
 758	7.5322e+01	7.5276	9.544851	0.000299	2.989598	0.506452	0.000030
 759	7.5421e+01	7.5382	9.572957	0.000283	2.825784	0.478701	0.000028
 760	7.5520e+01	7.5465	9.598620	0.000258	2.580064	0.437075	0.000026
 761	7.5620e+01	7.5613	9.627949	0.000295	2.948644	0.499514	0.000029
 762	7.5719e+01	7.5674	9.654018	0.000262	2.621017	0.444012	0.000026
 763	7.5819e+01	7.5763	9.683347	0.000295	2.948644	0.499514	0.000029
 764	7.5918e+01	7.5845	9.709010	0.000258	2.580064	0.437075	0.000026
 765	7.6018e+01	7.5973	9.740375	0.000315	3.153411	0.534202	0.000032
 766	7.6118e+01	7.6058	9.765630	0.000254	2.539110	0.430137	0.000025
 767	7.6217e+01	7.6138	9.793737	0.000283	2.825784	0.478701	0.000028
 768	7.6317e+01	7.6292	9.823066	0.000295	2.948644	0.499514	0.000029
 769	7.6416e+01	7.6368	9.847506	0.000246	2.457204	0.416262	0.000025
 770	7.6516e+01	7.6453	9.877650	0.000303	3.030551	0.513389	0.000030
 771	7.6615e+01	7.6568	9.903719	0.000262	2.621017	0.444012	0.000026
 772	7.6715e+01	7.6663	9.933455	0.000299	2.989598	0.506452	0.000030
 773	7.6814e+01	7.6778	9.961969	0.000287	2.866737	0.485638	0.000029
 774	7.6913e+01	7.6865	9.995372	0.000336	3.358178	0.568891	0.000034
 775	7.7013e+01	7.6961	10.022256	0.000270	2.702924	0.457888	0.000027
 776	7.7112e+01	7.7040	10.049955	0.000278	2.784831	0.471763	0.000028
 777	7.7212e+01	7.7151	10.075618	0.000258	2.580064	0.437075	0.000026
 778	7.7311e+01	7.7271	10.106576	0.000311	3.112458	0.527265	0.000031
 779	7.7411e+01	7.7364	10.138756	0.000324	3.235318	0.548078	0.000032
 780	7.7510e+01	7.7420	10.167677	0.000291	2.907691	0.492576	0.000029
 781	7.7610e+01	7.7553	10.197821	0.000303	3.030551	0.513389	0.000030
 782	7.7710e+01	7.7666	10.225927	0.000283	2.825784	0.478701	0.000028
 783	7.7809e+01	7.7761	10.257293	0.000315	3.153411	0.534202	0.000032
 784	7.7909e+01	7.7859	10.284585	0.000274	2.743877	0.464825	0.000027
 785	7.8008e+01	7.7980	10.314321	0.000299	2.989598	0.506452	0.000030
 786	7.8108e+01	7.8053	10.345279	0.000311	3.112458	0.527265	0.000031
 787	7.8207e+01	7.8170	10.367683	0.000225	2.252437	0.381573	0.000023
 788	7.8306e+01	7.8245	10.397011	0.000295	2.948644	0.499514	0.000029
 789	7.8406e+01	7.8362	10.425118	0.000283	2.825784	0.478701	0.000028
 790	7.8505e+01	7.8451	10.454854	0.000299	2.989598	0.506452	0.000030
 791	7.8605e+01	7.8553	10.480517	0.000258	2.580064	0.437075	0.000026
 792	7.8704e+01	7.8662	10.510253	0.000299	2.989598	0.506452	0.000030
 793	7.8804e+01	7.8760	10.535915	0.000258	2.580064	0.437075	0.000026
 794	7.8903e+01	7.8882	10.565244	0.000295	2.948644	0.499514	0.000029
 795	7.9003e+01	7.8937	10.592536	0.000274	2.743877	0.464825	0.000027
 796	7.9103e+01	7.9071	10.620235	0.000278	2.784831	0.471763	0.000028
 797	7.9202e+01	7.9162	10.645490	0.000254	2.539110	0.430137	0.000025
 798	7.9302e+01	7.9250	10.670338	0.000250	2.498157	0.423199	0.000025
 799	7.9401e+01	7.9353	10.693964	0.000238	2.375297	0.402386	0.000024
 800	7.9501e+01	7.9443	10.718812	0.000250	2.498157	0.423199	0.000025
 801	7.9600e+01	7.9554	10.743660	0.000250	2.498157	0.423199	0.000025
 802	7.9700e+01	7.9653	10.767693	0.000242	2.416250	0.409324	0.000024
 803	7.9799e+01	7.9741	10.790504	0.000229	2.293390	0.388511	0.000023
 804	7.9898e+01	7.9838	10.816574	0.000262	2.621017	0.444012	0.000026
 805	7.9998e+01	7.9957	10.841422	0.000250	2.498157	0.423199	0.000025
 806	8.0097e+01	8.0054	10.864641	0.000233	2.334343	0.395448	0.000023
 807	8.0197e+01	8.0155	10.891525	0.000270	2.702924	0.457888	0.000027
 808	8.0296e+01	8.0262	10.915151	0.000238	2.375297	0.402386	0.000024
 809	8.0396e+01	8.0338	10.942443	0.000274	2.743877	0.464825	0.000027
 810	8.0496e+01	8.0442	10.964847	0.000225	2.252437	0.381573	0.000023
 811	8.0595e+01	8.0563	10.988880	0.000242	2.416250	0.409324	0.000024
 812	8.0695e+01	8.0645	11.013321	0.000246	2.457204	0.416262	0.000025
 813	8.0794e+01	8.0740	11.032873	0.000197	1.965763	0.333009	0.000020
 814	8.0894e+01	8.0825	11.060572	0.000278	2.784831	0.471763	0.000028
 815	8.0993e+01	8.0963	11.080939	0.000205	2.047670	0.346885	0.000020
 816	8.1093e+01	8.1052	11.103751	0.000229	2.293390	0.388511	0.000023
 817	8.1192e+01	8.1149	11.131450	0.000278	2.784831	0.471763	0.000028
 818	8.1291e+01	8.1238	11.154668	0.000233	2.334343	0.395448	0.000023
 819	8.1391e+01	8.1339	11.182775	0.000283	2.825784	0.478701	0.000028
 820	8.1490e+01	8.1470	11.203550	0.000209	2.088623	0.353822	0.000021
 821	8.1590e+01	8.1532	11.228805	0.000254	2.539110	0.430137	0.000025
 822	8.1689e+01	8.1641	11.256504	0.000278	2.784831	0.471763	0.000028
 823	8.1789e+01	8.1730	11.282574	0.000262	2.621017	0.444012	0.000026
 824	8.1888e+01	8.1851	11.309051	0.000266	2.661971	0.450950	0.000027
 825	8.1988e+01	8.1934	11.333492	0.000246	2.457204	0.416262	0.000025
 826	8.2088e+01	8.2052	11.351822	0.000184	1.842903	0.312196	0.000018
 827	8.2187e+01	8.2141	11.384002	0.000324	3.235318	0.548078	0.000032
 828	8.2287e+01	8.2217	11.407628	0.000238	2.375297	0.402386	0.000024
 829	8.2386e+01	8.2335	11.434105	0.000266	2.661971	0.450950	0.000027
 830	8.2486e+01	8.2450	11.461397	0.000274	2.743877	0.464825	0.000027
 831	8.2585e+01	8.2513	11.487467	0.000262	2.621017	0.444012	0.000026
 832	8.2684e+01	8.2647	11.512723	0.000254	2.539110	0.430137	0.000025
 833	8.2784e+01	8.2743	11.537570	0.000250	2.498157	0.423199	0.000025
 834	8.2883e+01	8.2813	11.562826	0.000254	2.539110	0.430137	0.000025
 835	8.2983e+01	8.2943	11.595006	0.000324	3.235318	0.548078	0.000032
 836	8.3082e+01	8.3042	11.616188	0.000213	2.129576	0.360760	0.000021
 837	8.3182e+01	8.3118	11.642257	0.000262	2.621017	0.444012	0.000026
 838	8.3281e+01	8.3250	11.663032	0.000209	2.088623	0.353822	0.000021
 839	8.3381e+01	8.3339	11.693990	0.000311	3.112458	0.527265	0.000031
 840	8.3481e+01	8.3437	11.719245	0.000254	2.539110	0.430137	0.000025
 841	8.3580e+01	8.3530	11.744908	0.000258	2.580064	0.437075	0.000026
 842	8.3680e+01	8.3659	11.770978	0.000262	2.621017	0.444012	0.000026
 843	8.3779e+01	8.3730	11.798270	0.000274	2.743877	0.464825	0.000027
 844	8.3879e+01	8.3815	11.825154	0.000270	2.702924	0.457888	0.000027
 845	8.3978e+01	8.3922	11.851632	0.000266	2.661971	0.450950	0.000027
 846	8.4078e+01	8.4016	11.875665	0.000242	2.416250	0.409324	0.000024
 847	8.4177e+01	8.4156	11.907030	0.000315	3.153411	0.534202	0.000032
 848	8.4276e+01	8.4241	11.927805	0.000209	2.088623	0.353822	0.000021
 849	8.4376e+01	8.4316	11.951430	0.000238	2.375297	0.402386	0.000024
 850	8.4475e+01	8.4447	11.979537	0.000283	2.825784	0.478701	0.000028
 851	8.4575e+01	8.4521	12.005200	0.000258	2.580064	0.437075	0.000026
 852	8.4674e+01	8.4639	12.029640	0.000246	2.457204	0.416262	0.000025
 853	8.4774e+01	8.4727	12.057340	0.000278	2.784831	0.471763	0.000028
 854	8.4874e+01	8.4842	12.085446	0.000283	2.825784	0.478701	0.000028
 855	8.4973e+01	8.4917	12.109072	0.000238	2.375297	0.402386	0.000024
 856	8.5073e+01	8.5017	12.130661	0.000217	2.170530	0.367698	0.000022
 857	8.5172e+01	8.5124	12.157138	0.000266	2.661971	0.450950	0.000027
 858	8.5272e+01	8.5212	12.181579	0.000246	2.457204	0.416262	0.000025
 859	8.5371e+01	8.5328	12.205205	0.000238	2.375297	0.402386	0.000024
 860	8.5471e+01	8.5425	12.231682	0.000266	2.661971	0.450950	0.000027
 861	8.5570e+01	8.5553	12.260603	0.000291	2.907691	0.492576	0.000029
 862	8.5669e+01	8.5599	12.283822	0.000233	2.334343	0.395448	0.000023
 863	8.5769e+01	8.5721	12.307041	0.000233	2.334343	0.395448	0.000023
 864	8.5868e+01	8.5801	12.330666	0.000238	2.375297	0.402386	0.000024
 865	8.5968e+01	8.5916	12.357144	0.000266	2.661971	0.450950	0.000027
 866	8.6067e+01	8.6035	12.376289	0.000192	1.924809	0.326072	0.000019
 867	8.6167e+01	8.6147	12.402359	0.000262	2.621017	0.444012	0.000026
 868	8.6266e+01	8.6219	12.422726	0.000205	2.047670	0.346885	0.000020
 869	8.6366e+01	8.6337	12.452462	0.000299	2.989598	0.506452	0.000030
 870	8.6466e+01	8.6426	12.476495	0.000242	2.416250	0.409324	0.000024
 871	8.6565e+01	8.6499	12.501343	0.000250	2.498157	0.423199	0.000025
 872	8.6665e+01	8.6631	12.525376	0.000242	2.416250	0.409324	0.000024
 873	8.6764e+01	8.6723	12.554297	0.000291	2.907691	0.492576	0.000029
 874	8.6864e+01	8.6832	12.577516	0.000233	2.334343	0.395448	0.000023
 875	8.6963e+01	8.6915	12.604401	0.000270	2.702924	0.457888	0.000027
 876	8.7063e+01	8.7024	12.628434	0.000242	2.416250	0.409324	0.000024
 877	8.7162e+01	8.7110	12.651652	0.000233	2.334343	0.395448	0.000023
 878	8.7261e+01	8.7231	12.679759	0.000283	2.825784	0.478701	0.000028
 879	8.7361e+01	8.7315	12.706236	0.000266	2.661971	0.450950	0.000027
 880	8.7460e+01	8.7415	12.735972	0.000299	2.989598	0.506452	0.000030
 881	8.7560e+01	8.7507	12.762042	0.000262	2.621017	0.444012	0.000026
 882	8.7659e+01	8.7640	12.790149	0.000283	2.825784	0.478701	0.000028
 883	8.7759e+01	8.7701	12.818663	0.000287	2.866737	0.485638	0.000029
 884	8.7859e+01	8.7820	12.846769	0.000283	2.825784	0.478701	0.000028
 885	8.7958e+01	8.7928	12.874876	0.000283	2.825784	0.478701	0.000028
 886	8.8058e+01	8.8000	12.903797	0.000291	2.907691	0.492576	0.000029
 887	8.8157e+01	8.8117	12.931904	0.000283	2.825784	0.478701	0.000028
 888	8.8257e+01	8.8219	12.960418	0.000287	2.866737	0.485638	0.000029
 889	8.8356e+01	8.8298	12.988117	0.000278	2.784831	0.471763	0.000028
 890	8.8456e+01	8.8415	13.019075	0.000311	3.112458	0.527265	0.000031
 891	8.8555e+01	8.8505	13.043516	0.000246	2.457204	0.416262	0.000025
 892	8.8654e+01	8.8586	13.068771	0.000254	2.539110	0.430137	0.000025
 893	8.8754e+01	8.8708	13.100544	0.000319	3.194365	0.541140	0.000032
 894	8.8853e+01	8.8779	13.129465	0.000291	2.907691	0.492576	0.000029
 895	8.8953e+01	8.8882	13.157572	0.000283	2.825784	0.478701	0.000028
 896	8.9052e+01	8.8999	13.186900	0.000295	2.948644	0.499514	0.000029
 897	8.9152e+01	8.9111	13.215414	0.000287	2.866737	0.485638	0.000029
 898	8.9251e+01	8.9189	13.247187	0.000319	3.194365	0.541140	0.000032
 899	8.9351e+01	8.9291	13.274886	0.000278	2.784831	0.471763	0.000028
 900	8.9451e+01	8.9383	13.302993	0.000283	2.825784	0.478701	0.000028
 901	8.9550e+01	8.9502	13.330692	0.000278	2.784831	0.471763	0.000028
 902	8.9650e+01	8.9613	13.359614	0.000291	2.907691	0.492576	0.000029
 903	8.9749e+01	8.9704	13.388128	0.000287	2.866737	0.485638	0.000029
 904	8.9849e+01	8.9812	13.413790	0.000258	2.580064	0.437075	0.000026
 905	8.9948e+01	8.9912	13.445563	0.000319	3.194365	0.541140	0.000032
 906	9.0047e+01	8.9977	13.469189	0.000238	2.375297	0.402386	0.000024
 907	9.0147e+01	9.0088	13.494037	0.000250	2.498157	0.423199	0.000025
 908	9.0246e+01	9.0186	13.523365	0.000295	2.948644	0.499514	0.000029
 909	9.0346e+01	9.0301	13.552287	0.000291	2.907691	0.492576	0.000029
 910	9.0445e+01	9.0386	13.578764	0.000266	2.661971	0.450950	0.000027
 911	9.0545e+01	9.0485	13.605649	0.000270	2.702924	0.457888	0.000027
 912	9.0644e+01	9.0585	13.632126	0.000266	2.661971	0.450950	0.000027
 913	9.0744e+01	9.0700	13.658196	0.000262	2.621017	0.444012	0.000026
 914	9.0844e+01	9.0792	13.684673	0.000266	2.661971	0.450950	0.000027
 915	9.0943e+01	9.0872	13.711965	0.000274	2.743877	0.464825	0.000027
 916	9.1043e+01	9.0975	13.739257	0.000274	2.743877	0.464825	0.000027
 917	9.1142e+01	9.1099	13.766956	0.000278	2.784831	0.471763	0.000028
 918	9.1242e+01	9.1203	13.790175	0.000233	2.334343	0.395448	0.000023
 919	9.1341e+01	9.1287	13.817467	0.000274	2.743877	0.464825	0.000027
 920	9.1441e+01	9.1399	13.845981	0.000287	2.866737	0.485638	0.000029
 921	9.1540e+01	9.1474	13.870421	0.000246	2.457204	0.416262	0.000025
 922	9.1639e+01	9.1545	13.899343	0.000291	2.907691	0.492576	0.000029
 923	9.1739e+01	9.1681	13.925412	0.000262	2.621017	0.444012	0.000026
 924	9.1838e+01	9.1773	13.954334	0.000291	2.907691	0.492576	0.000029
 925	9.1938e+01	9.1859	13.976330	0.000221	2.211483	0.374635	0.000022
 926	9.2037e+01	9.1987	14.005252	0.000291	2.907691	0.492576	0.000029
 927	9.2137e+01	9.2072	14.030914	0.000258	2.580064	0.437075	0.000026
 928	9.2237e+01	9.2169	14.056577	0.000258	2.580064	0.437075	0.000026
 929	9.2336e+01	9.2271	14.083054	0.000266	2.661971	0.450950	0.000027
 930	9.2436e+01	9.2392	14.110753	0.000278	2.784831	0.471763	0.000028
 931	9.2535e+01	9.2481	14.132750	0.000221	2.211483	0.374635	0.000022
 932	9.2635e+01	9.2628	14.157598	0.000250	2.498157	0.423199	0.000025
 933	9.2734e+01	9.2680	14.186112	0.000287	2.866737	0.485638	0.000029
 934	9.2834e+01	9.2795	14.209738	0.000238	2.375297	0.402386	0.000024
 935	9.2933e+01	9.2931	14.237437	0.000278	2.784831	0.471763	0.000028
 936	9.3032e+01	9.3003	14.263099	0.000258	2.580064	0.437075	0.000026
 937	9.3132e+01	9.3098	14.287540	0.000246	2.457204	0.416262	0.000025
 938	9.3231e+01	9.3176	14.316869	0.000295	2.948644	0.499514	0.000029
 939	9.3331e+01	9.3276	14.344568	0.000278	2.784831	0.471763	0.000028
 940	9.3430e+01	9.3384	14.372267	0.000278	2.784831	0.471763	0.000028
 941	9.3530e+01	9.3506	14.399559	0.000274	2.743877	0.464825	0.000027
 942	9.3629e+01	9.3574	14.422370	0.000229	2.293390	0.388511	0.000023
 943	9.3729e+01	9.3671	14.453328	0.000311	3.112458	0.527265	0.000031
 944	9.3829e+01	9.3765	14.481842	0.000287	2.866737	0.485638	0.000029
 945	9.3928e+01	9.3885	14.507912	0.000262	2.621017	0.444012	0.000026
 946	9.4028e+01	9.3974	14.531538	0.000238	2.375297	0.402386	0.000024
 947	9.4127e+01	9.4060	14.560460	0.000291	2.907691	0.492576	0.000029
 948	9.4227e+01	9.4169	14.588973	0.000287	2.866737	0.485638	0.000029
 949	9.4326e+01	9.4258	14.615858	0.000270	2.702924	0.457888	0.000027
 950	9.4425e+01	9.4349	14.643965	0.000283	2.825784	0.478701	0.000028
 951	9.4525e+01	9.4466	14.670849	0.000270	2.702924	0.457888	0.000027
 952	9.4624e+01	9.4589	14.699771	0.000291	2.907691	0.492576	0.000029
 953	9.4724e+01	9.4683	14.728285	0.000287	2.866737	0.485638	0.000029
 954	9.4823e+01	9.4758	14.754762	0.000266	2.661971	0.450950	0.000027
 955	9.4923e+01	9.4858	14.780424	0.000258	2.580064	0.437075	0.000026
 956	9.5022e+01	9.4946	14.805680	0.000254	2.539110	0.430137	0.000025
 957	9.5122e+01	9.5099	14.829306	0.000238	2.375297	0.402386	0.000024
 958	9.5222e+01	9.5167	14.859856	0.000307	3.071504	0.520327	0.000031
 959	9.5321e+01	9.5284	14.880223	0.000205	2.047670	0.346885	0.000020
 960	9.5421e+01	9.5380	14.907923	0.000278	2.784831	0.471763	0.000028
 961	9.5520e+01	9.5459	14.932363	0.000246	2.457204	0.416262	0.000025
 962	9.5620e+01	9.5569	14.961285	0.000291	2.907691	0.492576	0.000029
 963	9.5719e+01	9.5654	14.984910	0.000238	2.375297	0.402386	0.000024
 964	9.5819e+01	9.5773	15.009351	0.000246	2.457204	0.416262	0.000025
 965	9.5918e+01	9.5889	15.036643	0.000274	2.743877	0.464825	0.000027
 966	9.6017e+01	9.5978	15.058639	0.000221	2.211483	0.374635	0.000022
 967	9.6117e+01	9.6074	15.081858	0.000233	2.334343	0.395448	0.000023
 968	9.6216e+01	9.6172	15.104669	0.000229	2.293390	0.388511	0.000023
 969	9.6316e+01	9.6255	15.126258	0.000217	2.170530	0.367698	0.000022
 970	9.6415e+01	9.6359	15.151106	0.000250	2.498157	0.423199	0.000025
 971	9.6515e+01	9.6460	15.172695	0.000217	2.170530	0.367698	0.000022
 972	9.6615e+01	9.6560	15.198358	0.000258	2.580064	0.437075	0.000026
 973	9.6714e+01	9.6669	15.212208	0.000139	1.392415	0.235882	0.000014
 974	9.6814e+01	9.6771	15.239500	0.000274	2.743877	0.464825	0.000027
 975	9.6913e+01	9.6857	15.267199	0.000278	2.784831	0.471763	0.000028
 976	9.7013e+01	9.6941	15.285122	0.000180	1.801949	0.305258	0.000018
 977	9.7112e+01	9.7089	15.307933	0.000229	2.293390	0.388511	0.000023
 978	9.7212e+01	9.7162	15.334003	0.000262	2.621017	0.444012	0.000026
 979	9.7311e+01	9.7253	15.352333	0.000184	1.842903	0.312196	0.000018
 980	9.7410e+01	9.7351	15.374737	0.000225	2.252437	0.381573	0.000023
 981	9.7510e+01	9.7428	15.397956	0.000233	2.334343	0.395448	0.000023
 982	9.7609e+01	9.7560	15.419545	0.000217	2.170530	0.367698	0.000022
 983	9.7709e+01	9.7644	15.443578	0.000242	2.416250	0.409324	0.000024
 984	9.7808e+01	9.7748	15.467611	0.000242	2.416250	0.409324	0.000024
 985	9.7908e+01	9.7829	15.489201	0.000217	2.170530	0.367698	0.000022
 986	9.8007e+01	9.7950	15.514048	0.000250	2.498157	0.423199	0.000025
 987	9.8107e+01	9.8060	15.536452	0.000225	2.252437	0.381573	0.000023
 988	9.8207e+01	9.8135	15.556819	0.000205	2.047670	0.346885	0.000020
 989	9.8306e+01	9.8273	15.582075	0.000254	2.539110	0.430137	0.000025
 990	9.8406e+01	9.8364	15.609367	0.000274	2.743877	0.464825	0.000027
 991	9.8505e+01	9.8440	15.632178	0.000229	2.293390	0.388511	0.000023
 992	9.8605e+01	9.8584	15.651323	0.000192	1.924809	0.326072	0.000019
 993	9.8704e+01	9.8651	15.678615	0.000274	2.743877	0.464825	0.000027
 994	9.8803e+01	9.8718	15.701426	0.000229	2.293390	0.388511	0.000023
 995	9.8903e+01	9.8846	15.724645	0.000233	2.334343	0.395448	0.000023
 996	9.9002e+01	9.8951	15.748270	0.000238	2.375297	0.402386	0.000024
 997	9.9102e+01	9.9030	15.772711	0.000246	2.457204	0.416262	0.000025
 998	9.9201e+01	9.9139	15.800818	0.000283	2.825784	0.478701	0.000028
 999	9.9301e+01	9.9268	15.823629	0.000229	2.293390	0.388511	0.000023
1000	9.9400e+01	9.9365	15.850921	0.000274	2.743877	0.464825	0.000027
1001	9.9500e+01	9.9428	15.872103	0.000213	2.129576	0.360760	0.000021
1002	9.9600e+01	9.9561	15.899394	0.000274	2.743877	0.464825	0.000027
1003	9.9699e+01	9.9634	15.920576	0.000213	2.129576	0.360760	0.000021
1004	9.9799e+01	9.9738	15.949905	0.000295	2.948644	0.499514	0.000029
1005	9.9898e+01	9.9821	15.967828	0.000180	1.801949	0.305258	0.000018
1006	9.9998e+01	9.9933	15.992269	0.000246	2.457204	0.416262	0.000025
1007	1.0010e+02	9.9824	15.973938	0.000184	1.842903	0.312196	-0.000018
1008	1.0020e+02	9.9731	15.959681	0.000143	1.433369	0.242819	-0.000014
1009	1.0030e+02	9.9634	15.939314	0.000205	2.047670	0.346885	-0.000020
1010	1.0040e+02	9.9561	15.920576	0.000188	1.883856	0.319134	-0.000019
1011	1.0050e+02	9.9427	15.902653	0.000180	1.801949	0.305258	-0.000018
1012	1.0059e+02	9.9345	15.883101	0.000197	1.965763	0.333009	-0.000020
1013	1.0069e+02	9.9250	15.862326	0.000209	2.088623	0.353822	-0.000021
1014	1.0079e+02	9.9155	15.842774	0.000197	1.965763	0.333009	-0.000020
1015	1.0089e+02	9.9041	15.824443	0.000184	1.842903	0.312196	-0.000018
1016	1.0099e+02	9.8954	15.801632	0.000229	2.293390	0.388511	-0.000023
1017	1.0109e+02	9.8818	15.784931	0.000168	1.679089	0.284445	-0.000017
1018	1.0119e+02	9.8743	15.763749	0.000213	2.129576	0.360760	-0.000021
1019	1.0129e+02	9.8637	15.743382	0.000205	2.047670	0.346885	-0.000020
1020	1.0139e+02	9.8542	15.725867	0.000176	1.760996	0.298321	-0.000018
1021	1.0149e+02	9.8438	15.705092	0.000209	2.088623	0.353822	-0.000021
1022	1.0159e+02	9.8354	15.685132	0.000201	2.006716	0.339947	-0.000020
1023	1.0169e+02	9.8264	15.663950	0.000213	2.129576	0.360760	-0.000021
1024	1.0179e+02	9.8147	15.643176	0.000209	2.088623	0.353822	-0.000021
1025	1.0189e+02	9.8047	15.619957	0.000233	2.334343	0.395448	-0.000023
1026	1.0199e+02	9.7939	15.597554	0.000225	2.252437	0.381573	-0.000023
1027	1.0209e+02	9.7886	15.575557	0.000221	2.211483	0.374635	-0.000022
1028	1.0219e+02	9.7742	15.556819	0.000188	1.883856	0.319134	-0.000019
1029	1.0229e+02	9.7648	15.536452	0.000205	2.047670	0.346885	-0.000020
1030	1.0239e+02	9.7562	15.511604	0.000250	2.498157	0.423199	-0.000025
1031	1.0248e+02	9.7439	15.488793	0.000229	2.293390	0.388511	-0.000023
1032	1.0258e+02	9.7351	15.470870	0.000180	1.801949	0.305258	-0.000018
1033	1.0268e+02	9.7254	15.448059	0.000229	2.293390	0.388511	-0.000023
1034	1.0278e+02	9.7135	15.421174	0.000270	2.702924	0.457888	-0.000027
1035	1.0288e+02	9.7063	15.401215	0.000201	2.006716	0.339947	-0.000020
1036	1.0298e+02	9.6938	15.378811	0.000225	2.252437	0.381573	-0.000023
1037	1.0308e+02	9.6854	15.358851	0.000201	2.006716	0.339947	-0.000020
1038	1.0318e+02	9.6764	15.335632	0.000233	2.334343	0.395448	-0.000023
1039	1.0328e+02	9.6667	15.312007	0.000238	2.375297	0.402386	-0.000024
1040	1.0338e+02	9.6537	15.291232	0.000209	2.088623	0.353822	-0.000021
1041	1.0348e+02	9.6486	15.271680	0.000197	1.965763	0.333009	-0.000020
1042	1.0358e+02	9.6387	15.245202	0.000266	2.661971	0.450950	-0.000027
1043	1.0368e+02	9.6289	15.226872	0.000184	1.842903	0.312196	-0.000018
1044	1.0378e+02	9.6125	15.208134	0.000188	1.883856	0.319134	-0.000019
1045	1.0388e+02	9.6085	15.186138	0.000221	2.211483	0.374635	-0.000022
1046	1.0398e+02	9.5961	15.167400	0.000188	1.883856	0.319134	-0.000019
1047	1.0408e+02	9.5840	15.148662	0.000188	1.883856	0.319134	-0.000019
1048	1.0418e+02	9.5753	15.123814	0.000250	2.498157	0.423199	-0.000025
1049	1.0428e+02	9.5669	15.107113	0.000168	1.679089	0.284445	-0.000017
1050	1.0438e+02	9.5591	15.087153	0.000201	2.006716	0.339947	-0.000020
1051	1.0447e+02	9.5459	15.069638	0.000176	1.760996	0.298321	-0.000018
1052	1.0457e+02	9.5368	15.050493	0.000192	1.924809	0.326072	-0.000019
1053	1.0467e+02	9.5271	15.035014	0.000156	1.556229	0.263632	-0.000016
1054	1.0477e+02	9.5169	15.017091	0.000180	1.801949	0.305258	-0.000018
1055	1.0487e+02	9.5094	14.995909	0.000213	2.129576	0.360760	-0.000021
1056	1.0497e+02	9.4971	14.975134	0.000209	2.088623	0.353822	-0.000021
1057	1.0507e+02	9.4868	14.956396	0.000188	1.883856	0.319134	-0.000019
1058	1.0517e+02	9.4767	14.938066	0.000184	1.842903	0.312196	-0.000018
1059	1.0527e+02	9.4669	14.917292	0.000209	2.088623	0.353822	-0.000021
1060	1.0537e+02	9.4550	14.898961	0.000184	1.842903	0.312196	-0.000018
1061	1.0547e+02	9.4507	14.880631	0.000184	1.842903	0.312196	-0.000018
1062	1.0557e+02	9.4363	14.861078	0.000197	1.965763	0.333009	-0.000020
1063	1.0567e+02	9.4289	14.844785	0.000164	1.638136	0.277508	-0.000016
1064	1.0577e+02	9.4172	14.826862	0.000180	1.801949	0.305258	-0.000018
1065	1.0587e+02	9.4046	14.810160	0.000168	1.679089	0.284445	-0.000017
1066	1.0597e+02	9.3964	14.791423	0.000188	1.883856	0.319134	-0.000019
1067	1.0607e+02	9.3900	14.771056	0.000205	2.047670	0.346885	-0.000020
1068	1.0617e+02	9.3787	14.752318	0.000188	1.883856	0.319134	-0.000019
1069	1.0627e+02	9.3646	14.735617	0.000168	1.679089	0.284445	-0.000017
1070	1.0637e+02	9.3586	14.716064	0.000197	1.965763	0.333009	-0.000020
1071	1.0647e+02	9.3494	14.695290	0.000209	2.088623	0.353822	-0.000021
1072	1.0656e+02	9.3384	14.672479	0.000229	2.293390	0.388511	-0.000023
1073	1.0666e+02	9.3270	14.653334	0.000192	1.924809	0.326072	-0.000019
1074	1.0676e+02	9.3171	14.633781	0.000197	1.965763	0.333009	-0.000020
1075	1.0686e+02	9.3082	14.611785	0.000221	2.211483	0.374635	-0.000022
1076	1.0696e+02	9.2973	14.593047	0.000188	1.883856	0.319134	-0.000019
1077	1.0706e+02	9.2886	14.571458	0.000217	2.170530	0.367698	-0.000022
1078	1.0716e+02	9.2762	14.556386	0.000152	1.515276	0.256695	-0.000015
1079	1.0726e+02	9.2670	14.531946	0.000246	2.457204	0.416262	-0.000025
1080	1.0736e+02	9.2594	14.509949	0.000221	2.211483	0.374635	-0.000022
1081	1.0746e+02	9.2477	14.489989	0.000201	2.006716	0.339947	-0.000020
1082	1.0756e+02	9.2352	14.467178	0.000229	2.293390	0.388511	-0.000023
1083	1.0766e+02	9.2263	14.447626	0.000197	1.965763	0.333009	-0.000020
1084	1.0776e+02	9.2188	14.427258	0.000205	2.047670	0.346885	-0.000020
1085	1.0786e+02	9.2075	14.407706	0.000197	1.965763	0.333009	-0.000020
1086	1.0796e+02	9.1959	14.384895	0.000229	2.293390	0.388511	-0.000023
1087	1.0806e+02	9.1897	14.362491	0.000225	2.252437	0.381573	-0.000023
1088	1.0816e+02	9.1817	14.345383	0.000172	1.720042	0.291383	-0.000017
1089	1.0826e+02	9.1684	14.319720	0.000258	2.580064	0.437075	-0.000026
1090	1.0836e+02	9.1566	14.302204	0.000176	1.760996	0.298321	-0.000018
1091	1.0845e+02	9.1505	14.278171	0.000242	2.416250	0.409324	-0.000024
1092	1.0855e+02	9.1380	14.257397	0.000209	2.088623	0.353822	-0.000021
1093	1.0865e+02	9.1302	14.237844	0.000197	1.965763	0.333009	-0.000020
1094	1.0875e+02	9.1194	14.211367	0.000266	2.661971	0.450950	-0.000027
1095	1.0885e+02	9.1116	14.191814	0.000197	1.965763	0.333009	-0.000020
1096	1.0895e+02	9.0978	14.170633	0.000213	2.129576	0.360760	-0.000021
1097	1.0905e+02	9.0882	14.151080	0.000197	1.965763	0.333009	-0.000020
1098	1.0915e+02	9.0805	14.127454	0.000238	2.375297	0.402386	-0.000024
1099	1.0925e+02	9.0699	14.103829	0.000238	2.375297	0.402386	-0.000024
1100	1.0935e+02	9.0594	14.081425	0.000225	2.252437	0.381573	-0.000023
1101	1.0945e+02	9.0504	14.062280	0.000192	1.924809	0.326072	-0.000019
1102	1.0955e+02	9.0356	14.041505	0.000209	2.088623	0.353822	-0.000021
1103	1.0965e+02	9.0298	14.017472	0.000242	2.416250	0.409324	-0.000024
1104	1.0975e+02	9.0173	13.997512	0.000201	2.006716	0.339947	-0.000020
1105	1.0985e+02	9.0076	13.973479	0.000242	2.416250	0.409324	-0.000024
1106	1.0995e+02	8.9973	13.953112	0.000205	2.047670	0.346885	-0.000020
1107	1.1005e+02	8.9893	13.930301	0.000229	2.293390	0.388511	-0.000023
1108	1.1015e+02	8.9795	13.909933	0.000205	2.047670	0.346885	-0.000020
1109	1.1025e+02	8.9709	13.891603	0.000184	1.842903	0.312196	-0.000018
1110	1.1035e+02	8.9600	13.870829	0.000209	2.088623	0.353822	-0.000021
1111	1.1044e+02	8.9468	13.850054	0.000209	2.088623	0.353822	-0.000021
1112	1.1054e+02	8.9398	13.828058	0.000221	2.211483	0.374635	-0.000022
1113	1.1064e+02	8.9291	13.810542	0.000176	1.760996	0.298321	-0.000018
1114	1.1074e+02	8.9198	13.788953	0.000217	2.170530	0.367698	-0.000022
1115	1.1084e+02	8.9082	13.764105	0.000250	2.498157	0.423199	-0.000025
1116	1.1094e+02	8.8969	13.741294	0.000229	2.293390	0.388511	-0.000023
1117	1.1104e+02	8.8885	13.722556	0.000188	1.883856	0.319134	-0.000019
1118	1.1114e+02	8.8782	13.705447	0.000172	1.720042	0.291383	-0.000017
1119	1.1124e+02	8.8700	13.685080	0.000205	2.047670	0.346885	-0.000020
1120	1.1134e+02	8.8627	13.657788	0.000274	2.743877	0.464825	-0.000027
1121	1.1144e+02	8.8490	13.636607	0.000213	2.129576	0.360760	-0.000021
1122	1.1154e+02	8.8403	13.616647	0.000201	2.006716	0.339947	-0.000020
1123	1.1164e+02	8.8284	13.598316	0.000184	1.842903	0.312196	-0.000018
1124	1.1174e+02	8.8201	13.575505	0.000229	2.293390	0.388511	-0.000023
1125	1.1184e+02	8.8138	13.554731	0.000209	2.088623	0.353822	-0.000021
1126	1.1194e+02	8.7991	13.531920	0.000229	2.293390	0.388511	-0.000023
1127	1.1204e+02	8.7906	13.510330	0.000217	2.170530	0.367698	-0.000022
1128	1.1214e+02	8.7794	13.490778	0.000197	1.965763	0.333009	-0.000020
1129	1.1224e+02	8.7723	13.467559	0.000233	2.334343	0.395448	-0.000023
1130	1.1234e+02	8.7622	13.440675	0.000270	2.702924	0.457888	-0.000027
1131	1.1244e+02	8.7524	13.419086	0.000217	2.170530	0.367698	-0.000022
1132	1.1253e+02	8.7445	13.396682	0.000225	2.252437	0.381573	-0.000023
1133	1.1263e+02	8.7332	13.373463	0.000233	2.334343	0.395448	-0.000023
1134	1.1273e+02	8.7218	13.347801	0.000258	2.580064	0.437075	-0.000026
1135	1.1283e+02	8.7109	13.320916	0.000270	2.702924	0.457888	-0.000027
1136	1.1293e+02	8.7022	13.293217	0.000278	2.784831	0.471763	-0.000028
1137	1.1303e+02	8.6922	13.266740	0.000266	2.661971	0.450950	-0.000027
1138	1.1313e+02	8.6826	13.242299	0.000246	2.457204	0.416262	-0.000025
1139	1.1323e+02	8.6700	13.217451	0.000250	2.498157	0.423199	-0.000025
1140	1.1333e+02	8.6629	13.192603	0.000250	2.498157	0.423199	-0.000025
1141	1.1343e+02	8.6532	13.162867	0.000299	2.989598	0.506452	-0.000030
1142	1.1353e+02	8.6414	13.141278	0.000217	2.170530	0.367698	-0.000022
1143	1.1363e+02	8.6346	13.115208	0.000262	2.621017	0.444012	-0.000026
1144	1.1373e+02	8.6224	13.089953	0.000254	2.539110	0.430137	-0.000025
1145	1.1383e+02	8.6114	13.063476	0.000266	2.661971	0.450950	-0.000027
1146	1.1393e+02	8.6044	13.037406	0.000262	2.621017	0.444012	-0.000026
1147	1.1403e+02	8.5913	13.011336	0.000262	2.621017	0.444012	-0.000026
1148	1.1413e+02	8.5844	12.984451	0.000270	2.702924	0.457888	-0.000027
1149	1.1423e+02	8.5722	12.955937	0.000287	2.866737	0.485638	-0.000029
1150	1.1433e+02	8.5599	12.933941	0.000221	2.211483	0.374635	-0.000022
1151	1.1442e+02	8.5537	12.907056	0.000270	2.702924	0.457888	-0.000027
1152	1.1452e+02	8.5401	12.878135	0.000291	2.907691	0.492576	-0.000029
1153	1.1462e+02	8.5316	12.854509	0.000238	2.375297	0.402386	-0.000024
1154	1.1472e+02	8.5196	12.830883	0.000238	2.375297	0.402386	-0.000024
1155	1.1482e+02	8.5096	12.803998	0.000270	2.702924	0.457888	-0.000027
1156	1.1492e+02	8.5042	12.780780	0.000233	2.334343	0.395448	-0.000023
1157	1.1502e+02	8.4928	12.756339	0.000246	2.457204	0.416262	-0.000025
1158	1.1512e+02	8.4807	12.729047	0.000274	2.743877	0.464825	-0.000027
1159	1.1522e+02	8.4743	12.705829	0.000233	2.334343	0.395448	-0.000023
1160	1.1532e+02	8.4627	12.679759	0.000262	2.621017	0.444012	-0.000026
1161	1.1542e+02	8.4543	12.656133	0.000238	2.375297	0.402386	-0.000024
1162	1.1552e+02	8.4425	12.629656	0.000266	2.661971	0.450950	-0.000027
1163	1.1562e+02	8.4335	12.606030	0.000238	2.375297	0.402386	-0.000024
1164	1.1572e+02	8.4248	12.581182	0.000250	2.498157	0.423199	-0.000025
1165	1.1582e+02	8.4140	12.555112	0.000262	2.621017	0.444012	-0.000026
1166	1.1592e+02	8.4033	12.533116	0.000221	2.211483	0.374635	-0.000022
1167	1.1602e+02	8.3938	12.508268	0.000250	2.498157	0.423199	-0.000025
1168	1.1612e+02	8.3823	12.483012	0.000254	2.539110	0.430137	-0.000025
1169	1.1622e+02	8.3705	12.460201	0.000229	2.293390	0.388511	-0.000023
1170	1.1632e+02	8.3636	12.433724	0.000266	2.661971	0.450950	-0.000027
1171	1.1642e+02	8.3514	12.408061	0.000258	2.580064	0.437075	-0.000026
1172	1.1651e+02	8.3428	12.387287	0.000209	2.088623	0.353822	-0.000021
1173	1.1661e+02	8.3340	12.361217	0.000262	2.621017	0.444012	-0.000026
1174	1.1671e+02	8.3240	12.333518	0.000278	2.784831	0.471763	-0.000028
1175	1.1681e+02	8.3123	12.309077	0.000246	2.457204	0.416262	-0.000025
1176	1.1691e+02	8.3057	12.283822	0.000254	2.539110	0.430137	-0.000025
1177	1.1701e+02	8.2944	12.261011	0.000229	2.293390	0.388511	-0.000023
1178	1.1711e+02	8.2849	12.235756	0.000254	2.539110	0.430137	-0.000025
1179	1.1721e+02	8.2722	12.216203	0.000197	1.965763	0.333009	-0.000020
1180	1.1731e+02	8.2629	12.189319	0.000270	2.702924	0.457888	-0.000027
1181	1.1741e+02	8.2537	12.162841	0.000266	2.661971	0.450950	-0.000027
1182	1.1751e+02	8.2425	12.140845	0.000221	2.211483	0.374635	-0.000022
1183	1.1761e+02	8.2343	12.117626	0.000233	2.334343	0.395448	-0.000023
1184	1.1771e+02	8.2236	12.092371	0.000254	2.539110	0.430137	-0.000025
1185	1.1781e+02	8.2129	12.070782	0.000217	2.170530	0.367698	-0.000022
1186	1.1791e+02	8.2076	12.042675	0.000283	2.825784	0.478701	-0.000028
1187	1.1801e+02	8.1940	12.016198	0.000266	2.661971	0.450950	-0.000027
1188	1.1811e+02	8.1842	11.993387	0.000229	2.293390	0.388511	-0.000023
1189	1.1821e+02	8.1729	11.966095	0.000274	2.743877	0.464825	-0.000027
1190	1.1831e+02	8.1647	11.942469	0.000238	2.375297	0.402386	-0.000024
1191	1.1841e+02	8.1521	11.918843	0.000238	2.375297	0.402386	-0.000024
1192	1.1850e+02	8.1467	11.891958	0.000270	2.702924	0.457888	-0.000027
1193	1.1860e+02	8.1342	11.867925	0.000242	2.416250	0.409324	-0.000024
1194	1.1870e+02	8.1211	11.838189	0.000299	2.989598	0.506452	-0.000030
1195	1.1880e+02	8.1136	11.814156	0.000242	2.416250	0.409324	-0.000024
1196	1.1890e+02	8.1044	11.789715	0.000246	2.457204	0.416262	-0.000025
1197	1.1900e+02	8.0973	11.764053	0.000258	2.580064	0.437075	-0.000026
1198	1.1910e+02	8.0868	11.734317	0.000299	2.989598	0.506452	-0.000030
1199	1.1920e+02	8.0743	11.709876	0.000246	2.457204	0.416262	-0.000025
1200	1.1930e+02	8.0676	11.686250	0.000238	2.375297	0.402386	-0.000024
1201	1.1940e+02	8.0543	11.660181	0.000262	2.621017	0.444012	-0.000026
1202	1.1950e+02	8.0453	11.634111	0.000262	2.621017	0.444012	-0.000026
1203	1.1960e+02	8.0338	11.605597	0.000287	2.866737	0.485638	-0.000029
1204	1.1970e+02	8.0236	11.580341	0.000254	2.539110	0.430137	-0.000025
1205	1.1980e+02	8.0138	11.553049	0.000274	2.743877	0.464825	-0.000027
1206	1.1990e+02	8.0061	11.530238	0.000229	2.293390	0.388511	-0.000023
1207	1.2000e+02	7.9957	11.502946	0.000274	2.743877	0.464825	-0.000027
1208	1.2010e+02	7.9852	11.481357	0.000217	2.170530	0.367698	-0.000022
1209	1.2020e+02	7.9762	11.452843	0.000287	2.866737	0.485638	-0.000029
1210	1.2030e+02	7.9642	11.430032	0.000229	2.293390	0.388511	-0.000023
1211	1.2039e+02	7.9592	11.404369	0.000258	2.580064	0.437075	-0.000026
1212	1.2049e+02	7.9453	11.377485	0.000270	2.702924	0.457888	-0.000027
1213	1.2059e+02	7.9350	11.355488	0.000221	2.211483	0.374635	-0.000022
1214	1.2069e+02	7.9249	11.330640	0.000250	2.498157	0.423199	-0.000025
1215	1.2079e+02	7.9150	11.306607	0.000242	2.416250	0.409324	-0.000024
1216	1.2089e+02	7.9059	11.283389	0.000233	2.334343	0.395448	-0.000023
1217	1.2099e+02	7.8955	11.259763	0.000238	2.375297	0.402386	-0.000024
1218	1.2109e+02	7.8867	11.239803	0.000201	2.006716	0.339947	-0.000020
1219	1.2119e+02	7.8767	11.215770	0.000242	2.416250	0.409324	-0.000024
1220	1.2129e+02	7.8662	11.191329	0.000246	2.457204	0.416262	-0.000025
1221	1.2139e+02	7.8553	11.170962	0.000205	2.047670	0.346885	-0.000020
1222	1.2149e+02	7.8474	11.150188	0.000209	2.088623	0.353822	-0.000021
1223	1.2159e+02	7.8379	11.128191	0.000221	2.211483	0.374635	-0.000022
1224	1.2169e+02	7.8260	11.108639	0.000197	1.965763	0.333009	-0.000020
1225	1.2179e+02	7.8171	11.082161	0.000266	2.661971	0.450950	-0.000027
1226	1.2189e+02	7.8056	11.062609	0.000197	1.965763	0.333009	-0.000020
1227	1.2199e+02	7.7960	11.036539	0.000262	2.621017	0.444012	-0.000026
1228	1.2209e+02	7.7870	11.012506	0.000242	2.416250	0.409324	-0.000024
1229	1.2219e+02	7.7734	10.988065	0.000246	2.457204	0.416262	-0.000025
1230	1.2229e+02	7.7669	10.970550	0.000176	1.760996	0.298321	-0.000018
1231	1.2239e+02	7.7554	10.953034	0.000176	1.760996	0.298321	-0.000018
1232	1.2248e+02	7.7454	10.927779	0.000254	2.539110	0.430137	-0.000025
1233	1.2258e+02	7.7366	10.905375	0.000225	2.252437	0.381573	-0.000023
1234	1.2268e+02	7.7262	10.885415	0.000201	2.006716	0.339947	-0.000020
1235	1.2278e+02	7.7173	10.863826	0.000217	2.170530	0.367698	-0.000022
1236	1.2288e+02	7.7077	10.840200	0.000238	2.375297	0.402386	-0.000024
1237	1.2298e+02	7.6965	10.815352	0.000250	2.498157	0.423199	-0.000025
1238	1.2308e+02	7.6859	10.792541	0.000229	2.293390	0.388511	-0.000023
1239	1.2318e+02	7.6745	10.769322	0.000233	2.334343	0.395448	-0.000023
1240	1.2328e+02	7.6669	10.746511	0.000229	2.293390	0.388511	-0.000023
1241	1.2338e+02	7.6563	10.720034	0.000266	2.661971	0.450950	-0.000027
1242	1.2348e+02	7.6465	10.698037	0.000221	2.211483	0.374635	-0.000022
1243	1.2358e+02	7.6350	10.675634	0.000225	2.252437	0.381573	-0.000023
1244	1.2368e+02	7.6263	10.651193	0.000246	2.457204	0.416262	-0.000025
1245	1.2378e+02	7.6164	10.627567	0.000238	2.375297	0.402386	-0.000024
1246	1.2388e+02	7.6086	10.603534	0.000242	2.416250	0.409324	-0.000024
1247	1.2398e+02	7.5986	10.583167	0.000205	2.047670	0.346885	-0.000020
1248	1.2408e+02	7.5854	10.556690	0.000266	2.661971	0.450950	-0.000027
1249	1.2418e+02	7.5772	10.531434	0.000254	2.539110	0.430137	-0.000025
1250	1.2428e+02	7.5681	10.507401	0.000242	2.416250	0.409324	-0.000024
1251	1.2438e+02	7.5552	10.484590	0.000229	2.293390	0.388511	-0.000023
1252	1.2447e+02	7.5457	10.462593	0.000221	2.211483	0.374635	-0.000022
1253	1.2457e+02	7.5382	10.436524	0.000262	2.621017	0.444012	-0.000026
1254	1.2467e+02	7.5293	10.409232	0.000274	2.743877	0.464825	-0.000027
1255	1.2477e+02	7.5191	10.386420	0.000229	2.293390	0.388511	-0.000023
1256	1.2487e+02	7.5079	10.359943	0.000266	2.661971	0.450950	-0.000027
1257	1.2497e+02	7.4991	10.336317	0.000238	2.375297	0.402386	-0.000024
1258	1.2507e+02	7.4876	10.309433	0.000270	2.702924	0.457888	-0.000027
1259	1.2517e+02	7.4793	10.287436	0.000221	2.211483	0.374635	-0.000022
1260	1.2527e+02	7.4680	10.265032	0.000225	2.252437	0.381573	-0.000023
1261	1.2537e+02	7.4541	10.238148	0.000270	2.702924	0.457888	-0.000027
1262	1.2547e+02	7.4488	10.216966	0.000213	2.129576	0.360760	-0.000021
1263	1.2557e+02	7.4390	10.188859	0.000283	2.825784	0.478701	-0.000028
1264	1.2567e+02	7.4298	10.168085	0.000209	2.088623	0.353822	-0.000021
1265	1.2577e+02	7.4209	10.140385	0.000278	2.784831	0.471763	-0.000028
1266	1.2587e+02	7.4117	10.112279	0.000283	2.825784	0.478701	-0.000028
1267	1.2597e+02	7.3968	10.088246	0.000242	2.416250	0.409324	-0.000024
1268	1.2607e+02	7.3898	10.066656	0.000217	2.170530	0.367698	-0.000022
1269	1.2617e+02	7.3798	10.038550	0.000283	2.825784	0.478701	-0.000028
1270	1.2627e+02	7.3688	10.012887	0.000258	2.580064	0.437075	-0.000026
1271	1.2636e+02	7.3573	9.985595	0.000274	2.743877	0.464825	-0.000027
1272	1.2646e+02	7.3463	9.964006	0.000217	2.170530	0.367698	-0.000022
1273	1.2656e+02	7.3415	9.939158	0.000250	2.498157	0.423199	-0.000025
1274	1.2666e+02	7.3272	9.911866	0.000274	2.743877	0.464825	-0.000027
1275	1.2676e+02	7.3221	9.889870	0.000221	2.211483	0.374635	-0.000022
1276	1.2686e+02	7.3096	9.863393	0.000266	2.661971	0.450950	-0.000027
1277	1.2696e+02	7.2988	9.840989	0.000225	2.252437	0.381573	-0.000023
1278	1.2706e+02	7.2884	9.818585	0.000225	2.252437	0.381573	-0.000023
1279	1.2716e+02	7.2784	9.795774	0.000229	2.293390	0.388511	-0.000023
1280	1.2726e+02	7.2707	9.768074	0.000278	2.784831	0.471763	-0.000028
1281	1.2736e+02	7.2583	9.747707	0.000205	2.047670	0.346885	-0.000020
1282	1.2746e+02	7.2485	9.719193	0.000287	2.866737	0.485638	-0.000029
1283	1.2756e+02	7.2390	9.697604	0.000217	2.170530	0.367698	-0.000022
1284	1.2766e+02	7.2298	9.675608	0.000221	2.211483	0.374635	-0.000022
1285	1.2776e+02	7.2200	9.654018	0.000217	2.170530	0.367698	-0.000022
1286	1.2786e+02	7.2073	9.625912	0.000283	2.825784	0.478701	-0.000028
1287	1.2796e+02	7.2007	9.605545	0.000205	2.047670	0.346885	-0.000020
1288	1.2806e+02	7.1893	9.579067	0.000266	2.661971	0.450950	-0.000027
1289	1.2816e+02	7.1786	9.552590	0.000266	2.661971	0.450950	-0.000027
1290	1.2826e+02	7.1708	9.531001	0.000217	2.170530	0.367698	-0.000022
1291	1.2835e+02	7.1607	9.502080	0.000291	2.907691	0.492576	-0.000029
1292	1.2845e+02	7.1484	9.477232	0.000250	2.498157	0.423199	-0.000025
1293	1.2855e+02	7.1401	9.454421	0.000229	2.293390	0.388511	-0.000023
1294	1.2865e+02	7.1272	9.427536	0.000270	2.702924	0.457888	-0.000027
1295	1.2875e+02	7.1195	9.405947	0.000217	2.170530	0.367698	-0.000022
1296	1.2885e+02	7.1102	9.377840	0.000283	2.825784	0.478701	-0.000028
1297	1.2895e+02	7.0985	9.350141	0.000278	2.784831	0.471763	-0.000028
1298	1.2905e+02	7.0895	9.327737	0.000225	2.252437	0.381573	-0.000023
1299	1.2915e+02	7.0772	9.295964	0.000319	3.194365	0.541140	-0.000032
1300	1.2925e+02	7.0683	9.272746	0.000233	2.334343	0.395448	-0.000023
1301	1.2935e+02	7.0602	9.241380	0.000315	3.153411	0.534202	-0.000032
1302	1.2945e+02	7.0489	9.216533	0.000250	2.498157	0.423199	-0.000025
1303	1.2955e+02	7.0386	9.187611	0.000291	2.907691	0.492576	-0.000029
1304	1.2965e+02	7.0296	9.159505	0.000283	2.825784	0.478701	-0.000028
1305	1.2975e+02	7.0226	9.133842	0.000258	2.580064	0.437075	-0.000026
1306	1.2985e+02	7.0097	9.100033	0.000340	3.399132	0.575828	-0.000034
1307	1.2995e+02	6.9997	9.069889	0.000303	3.030551	0.513389	-0.000030
1308	1.3005e+02	6.9888	9.041375	0.000287	2.866737	0.485638	-0.000029
1309	1.3015e+02	6.9827	9.015305	0.000262	2.621017	0.444012	-0.000026
1310	1.3025e+02	6.9692	8.986384	0.000291	2.907691	0.492576	-0.000029
1311	1.3034e+02	6.9585	8.958685	0.000278	2.784831	0.471763	-0.000028
1312	1.3044e+02	6.9509	8.931800	0.000270	2.702924	0.457888	-0.000027
1313	1.3054e+02	6.9405	8.900842	0.000311	3.112458	0.527265	-0.000031
1314	1.3064e+02	6.9302	8.873550	0.000274	2.743877	0.464825	-0.000027
1315	1.3074e+02	6.9246	8.840963	0.000328	3.276271	0.555015	-0.000033
1316	1.3084e+02	6.9099	8.808375	0.000328	3.276271	0.555015	-0.000033
1317	1.3094e+02	6.9009	8.784342	0.000242	2.416250	0.409324	-0.000024
1318	1.3104e+02	6.8919	8.754199	0.000303	3.030551	0.513389	-0.000030
1319	1.3114e+02	6.8804	8.725685	0.000287	2.866737	0.485638	-0.000029
1320	1.3124e+02	6.8702	8.698393	0.000274	2.743877	0.464825	-0.000027
1321	1.3134e+02	6.8624	8.667842	0.000307	3.071504	0.520327	-0.000031
1322	1.3144e+02	6.8496	8.637291	0.000307	3.071504	0.520327	-0.000031
1323	1.3154e+02	6.8425	8.612444	0.000250	2.498157	0.423199	-0.000025
1324	1.3164e+02	6.8306	8.585152	0.000274	2.743877	0.464825	-0.000027
1325	1.3174e+02	6.8243	8.556638	0.000287	2.866737	0.485638	-0.000029
1326	1.3184e+02	6.8095	8.530160	0.000266	2.661971	0.450950	-0.000027
1327	1.3194e+02	6.8028	8.498795	0.000315	3.153411	0.534202	-0.000032
1328	1.3204e+02	6.7913	8.475576	0.000233	2.334343	0.395448	-0.000023
1329	1.3214e+02	6.7818	8.438916	0.000369	3.685805	0.624392	-0.000037
1330	1.3224e+02	6.7727	8.414882	0.000242	2.416250	0.409324	-0.000024
1331	1.3234e+02	6.7630	8.386368	0.000287	2.866737	0.485638	-0.000029
1332	1.3243e+02	6.7510	8.358669	0.000278	2.784831	0.471763	-0.000028
1333	1.3253e+02	6.7402	8.335043	0.000238	2.375297	0.402386	-0.000024
1334	1.3263e+02	6.7300	8.307751	0.000274	2.743877	0.464825	-0.000027
1335	1.3273e+02	6.7227	8.276386	0.000315	3.153411	0.534202	-0.000032
1336	1.3283e+02	6.7106	8.251945	0.000246	2.457204	0.416262	-0.000025
1337	1.3293e+02	6.7031	8.224653	0.000274	2.743877	0.464825	-0.000027
1338	1.3303e+02	6.6943	8.198176	0.000266	2.661971	0.450950	-0.000027
1339	1.3313e+02	6.6836	8.167625	0.000307	3.071504	0.520327	-0.000031
1340	1.3323e+02	6.6702	8.138704	0.000291	2.907691	0.492576	-0.000029
1341	1.3333e+02	6.6622	8.112227	0.000266	2.661971	0.450950	-0.000027
1342	1.3343e+02	6.6543	8.086157	0.000262	2.621017	0.444012	-0.000026
1343	1.3353e+02	6.6424	8.058458	0.000278	2.784831	0.471763	-0.000028
1344	1.3363e+02	6.6331	8.029129	0.000295	2.948644	0.499514	-0.000029
1345	1.3373e+02	6.6222	8.005911	0.000233	2.334343	0.395448	-0.000023
1346	1.3383e+02	6.6114	7.978211	0.000278	2.784831	0.471763	-0.000028
1347	1.3393e+02	6.6014	7.948068	0.000303	3.030551	0.513389	-0.000030
1348	1.3403e+02	6.5930	7.917925	0.000303	3.030551	0.513389	-0.000030
1349	1.3413e+02	6.5844	7.893484	0.000246	2.457204	0.416262	-0.000025
1350	1.3423e+02	6.5714	7.869043	0.000246	2.457204	0.416262	-0.000025
1351	1.3432e+02	6.5609	7.839715	0.000295	2.948644	0.499514	-0.000029
1352	1.3442e+02	6.5499	7.812015	0.000278	2.784831	0.471763	-0.000028
1353	1.3452e+02	6.5422	7.784316	0.000278	2.784831	0.471763	-0.000028
1354	1.3462e+02	6.5350	7.758654	0.000258	2.580064	0.437075	-0.000026
1355	1.3472e+02	6.5206	7.728103	0.000307	3.071504	0.520327	-0.000031
1356	1.3482e+02	6.5131	7.698367	0.000299	2.989598	0.506452	-0.000030
1357	1.3492e+02	6.5049	7.673112	0.000254	2.539110	0.430137	-0.000025
1358	1.3502e+02	6.4910	7.647042	0.000262	2.621017	0.444012	-0.000026
1359	1.3512e+02	6.4812	7.616084	0.000311	3.112458	0.527265	-0.000031
1360	1.3522e+02	6.4754	7.589199	0.000270	2.702924	0.457888	-0.000027
1361	1.3532e+02	6.4622	7.559463	0.000299	2.989598	0.506452	-0.000030
1362	1.3542e+02	6.4523	7.527283	0.000324	3.235318	0.548078	-0.000032
1363	1.3552e+02	6.4454	7.499584	0.000278	2.784831	0.471763	-0.000028
1364	1.3562e+02	6.4327	7.472292	0.000274	2.743877	0.464825	-0.000027
1365	1.3572e+02	6.4234	7.444185	0.000283	2.825784	0.478701	-0.000028
1366	1.3582e+02	6.4169	7.414042	0.000303	3.030551	0.513389	-0.000030
1367	1.3592e+02	6.4008	7.384713	0.000295	2.948644	0.499514	-0.000029
1368	1.3602e+02	6.3931	7.359458	0.000254	2.539110	0.430137	-0.000025
1369	1.3612e+02	6.3801	7.322797	0.000369	3.685805	0.624392	-0.000037
1370	1.3622e+02	6.3746	7.295912	0.000270	2.702924	0.457888	-0.000027
1371	1.3631e+02	6.3628	7.264954	0.000311	3.112458	0.527265	-0.000031
1372	1.3641e+02	6.3528	7.237255	0.000278	2.784831	0.471763	-0.000028
1373	1.3651e+02	6.3424	7.210371	0.000270	2.702924	0.457888	-0.000027
1374	1.3661e+02	6.3348	7.181857	0.000287	2.866737	0.485638	-0.000029
1375	1.3671e+02	6.3224	7.155787	0.000262	2.621017	0.444012	-0.000026
1376	1.3681e+02	6.3165	7.126051	0.000299	2.989598	0.506452	-0.000030
1377	1.3691e+02	6.3027	7.097129	0.000291	2.907691	0.492576	-0.000029
1378	1.3701e+02	6.2954	7.073096	0.000242	2.416250	0.409324	-0.000024
1379	1.3711e+02	6.2859	7.041323	0.000319	3.194365	0.541140	-0.000032
1380	1.3721e+02	6.2769	7.018105	0.000233	2.334343	0.395448	-0.000023
1381	1.3731e+02	6.2637	6.989998	0.000283	2.825784	0.478701	-0.000028
1382	1.3741e+02	6.2533	6.961892	0.000283	2.825784	0.478701	-0.000028
1383	1.3751e+02	6.2443	6.937044	0.000250	2.498157	0.423199	-0.000025
1384	1.3761e+02	6.2336	6.910566	0.000266	2.661971	0.450950	-0.000027
1385	1.3771e+02	6.2258	6.883682	0.000270	2.702924	0.457888	-0.000027
1386	1.3781e+02	6.2146	6.859649	0.000242	2.416250	0.409324	-0.000024
1387	1.3791e+02	6.2067	6.829505	0.000303	3.030551	0.513389	-0.000030
1388	1.3801e+02	6.1965	6.805472	0.000242	2.416250	0.409324	-0.000024
1389	1.3811e+02	6.1866	6.783883	0.000217	2.170530	0.367698	-0.000022
1390	1.3821e+02	6.1742	6.756998	0.000270	2.702924	0.457888	-0.000027
1391	1.3831e+02	6.1636	6.731743	0.000254	2.539110	0.430137	-0.000025
1392	1.3840e+02	6.1572	6.706488	0.000254	2.539110	0.430137	-0.000025
1393	1.3850e+02	6.1465	6.681640	0.000250	2.498157	0.423199	-0.000025
1394	1.3860e+02	6.1338	6.655570	0.000262	2.621017	0.444012	-0.000026
1395	1.3870e+02	6.1257	6.627871	0.000278	2.784831	0.471763	-0.000028
1396	1.3880e+02	6.1178	6.602208	0.000258	2.580064	0.437075	-0.000026
1397	1.3890e+02	6.1022	6.576545	0.000258	2.580064	0.437075	-0.000026
1398	1.3900e+02	6.0934	6.552512	0.000242	2.416250	0.409324	-0.000024
1399	1.3910e+02	6.0863	6.529701	0.000229	2.293390	0.388511	-0.000023
1400	1.3920e+02	6.0754	6.504853	0.000250	2.498157	0.423199	-0.000025
1401	1.3930e+02	6.0633	6.478783	0.000262	2.621017	0.444012	-0.000026
1402	1.3940e+02	6.0564	6.455972	0.000229	2.293390	0.388511	-0.000023
1403	1.3950e+02	6.0455	6.431532	0.000246	2.457204	0.416262	-0.000025
1404	1.3960e+02	6.0368	6.400981	0.000307	3.071504	0.520327	-0.000031
1405	1.3970e+02	6.0254	6.377355	0.000238	2.375297	0.402386	-0.000024
1406	1.3980e+02	6.0168	6.349248	0.000283	2.825784	0.478701	-0.000028
1407	1.3990e+02	6.0055	6.323178	0.000262	2.621017	0.444012	-0.000026
1408	1.4000e+02	5.9940	6.301182	0.000221	2.211483	0.374635	-0.000022
1409	1.4010e+02	5.9864	6.271446	0.000299	2.989598	0.506452	-0.000030
1410	1.4020e+02	5.9777	6.246598	0.000250	2.498157	0.423199	-0.000025
1411	1.4029e+02	5.9649	6.219306	0.000274	2.743877	0.464825	-0.000027
1412	1.4039e+02	5.9558	6.192421	0.000270	2.702924	0.457888	-0.000027
1413	1.4049e+02	5.9460	6.163907	0.000287	2.866737	0.485638	-0.000029
1414	1.4059e+02	5.9365	6.137430	0.000266	2.661971	0.450950	-0.000027
1415	1.4069e+02	5.9270	6.109324	0.000283	2.825784	0.478701	-0.000028
1416	1.4079e+02	5.9168	6.083254	0.000262	2.621017	0.444012	-0.000026
1417	1.4089e+02	5.9075	6.054740	0.000287	2.866737	0.485638	-0.000029
1418	1.4099e+02	5.8955	6.029484	0.000254	2.539110	0.430137	-0.000025
1419	1.4109e+02	5.8891	6.002600	0.000270	2.702924	0.457888	-0.000027
1420	1.4119e+02	5.8790	5.978159	0.000246	2.457204	0.416262	-0.000025
1421	1.4129e+02	5.8651	5.948016	0.000303	3.030551	0.513389	-0.000030
1422	1.4139e+02	5.8591	5.918280	0.000299	2.989598	0.506452	-0.000030
1423	1.4149e+02	5.8460	5.893432	0.000250	2.498157	0.423199	-0.000025
1424	1.4159e+02	5.8350	5.864511	0.000291	2.907691	0.492576	-0.000029
1425	1.4169e+02	5.8288	5.835997	0.000287	2.866737	0.485638	-0.000029
1426	1.4179e+02	5.8157	5.806668	0.000295	2.948644	0.499514	-0.000029
1427	1.4189e+02	5.8068	5.780598	0.000262	2.621017	0.444012	-0.000026
1428	1.4199e+02	5.7945	5.754121	0.000266	2.661971	0.450950	-0.000027
1429	1.4209e+02	5.7850	5.724792	0.000295	2.948644	0.499514	-0.000029
1430	1.4219e+02	5.7755	5.697500	0.000274	2.743877	0.464825	-0.000027
1431	1.4228e+02	5.7662	5.666950	0.000307	3.071504	0.520327	-0.000031
1432	1.4238e+02	5.7560	5.640472	0.000266	2.661971	0.450950	-0.000027
1433	1.4248e+02	5.7471	5.613588	0.000270	2.702924	0.457888	-0.000027
1434	1.4258e+02	5.7373	5.586296	0.000274	2.743877	0.464825	-0.000027
1435	1.4268e+02	5.7290	5.557782	0.000287	2.866737	0.485638	-0.000029
1436	1.4278e+02	5.7162	5.525602	0.000324	3.235318	0.548078	-0.000032
1437	1.4288e+02	5.7069	5.502383	0.000233	2.334343	0.395448	-0.000023
1438	1.4298e+02	5.6963	5.471832	0.000307	3.071504	0.520327	-0.000031
1439	1.4308e+02	5.6852	5.442504	0.000295	2.948644	0.499514	-0.000029
1440	1.4318e+02	5.6771	5.415619	0.000270	2.702924	0.457888	-0.000027
1441	1.4328e+02	5.6681	5.388735	0.000270	2.702924	0.457888	-0.000027
1442	1.4338e+02	5.6594	5.359406	0.000295	2.948644	0.499514	-0.000029
1443	1.4348e+02	5.6493	5.335373	0.000242	2.416250	0.409324	-0.000024
1444	1.4358e+02	5.6397	5.308488	0.000270	2.702924	0.457888	-0.000027
1445	1.4368e+02	5.6284	5.282418	0.000262	2.621017	0.444012	-0.000026
1446	1.4378e+02	5.6168	5.251868	0.000307	3.071504	0.520327	-0.000031
1447	1.4388e+02	5.6078	5.226205	0.000258	2.580064	0.437075	-0.000026
1448	1.4398e+02	5.5999	5.198098	0.000283	2.825784	0.478701	-0.000028
1449	1.4408e+02	5.5869	5.169992	0.000283	2.825784	0.478701	-0.000028
1450	1.4418e+02	5.5767	5.145958	0.000242	2.416250	0.409324	-0.000024
1451	1.4428e+02	5.5674	5.117852	0.000283	2.825784	0.478701	-0.000028
1452	1.4437e+02	5.5592	5.088523	0.000295	2.948644	0.499514	-0.000029
1453	1.4447e+02	5.5462	5.065712	0.000229	2.293390	0.388511	-0.000023
1454	1.4457e+02	5.5396	5.038420	0.000274	2.743877	0.464825	-0.000027
1455	1.4467e+02	5.5282	5.009906	0.000287	2.866737	0.485638	-0.000029
1456	1.4477e+02	5.5193	4.983429	0.000266	2.661971	0.450950	-0.000027
1457	1.4487e+02	5.5074	4.952471	0.000311	3.112458	0.527265	-0.000031
1458	1.4497e+02	5.4952	4.925586	0.000270	2.702924	0.457888	-0.000027
1459	1.4507e+02	5.4899	4.899924	0.000258	2.580064	0.437075	-0.000026
1460	1.4517e+02	5.4777	4.866929	0.000332	3.317225	0.561953	-0.000033
1461	1.4527e+02	5.4678	4.842896	0.000242	2.416250	0.409324	-0.000024
1462	1.4537e+02	5.4571	4.812345	0.000307	3.071504	0.520327	-0.000031
1463	1.4547e+02	5.4481	4.784238	0.000283	2.825784	0.478701	-0.000028
1464	1.4557e+02	5.4397	4.757354	0.000270	2.702924	0.457888	-0.000027
1465	1.4567e+02	5.4267	4.725581	0.000319	3.194365	0.541140	-0.000032
1466	1.4577e+02	5.4189	4.699104	0.000266	2.661971	0.450950	-0.000027
1467	1.4587e+02	5.4108	4.668553	0.000307	3.071504	0.520327	-0.000031
1468	1.4597e+02	5.4001	4.636373	0.000324	3.235318	0.548078	-0.000032
1469	1.4607e+02	5.3898	4.607452	0.000291	2.907691	0.492576	-0.000029
1470	1.4617e+02	5.3805	4.575679	0.000319	3.194365	0.541140	-0.000032
1471	1.4626e+02	5.3677	4.543906	0.000319	3.194365	0.541140	-0.000032
1472	1.4636e+02	5.3588	4.510097	0.000340	3.399132	0.575828	-0.000034
1473	1.4646e+02	5.3493	4.479546	0.000307	3.071504	0.520327	-0.000031
1474	1.4656e+02	5.3397	4.446144	0.000336	3.358178	0.568891	-0.000034
1475	1.4666e+02	5.3292	4.414779	0.000315	3.153411	0.534202	-0.000032
1476	1.4676e+02	5.3191	4.385857	0.000291	2.907691	0.492576	-0.000029
1477	1.4686e+02	5.3116	4.349604	0.000364	3.644852	0.617455	-0.000036
1478	1.4696e+02	5.2995	4.320682	0.000291	2.907691	0.492576	-0.000029
1479	1.4706e+02	5.2909	4.288502	0.000324	3.235318	0.548078	-0.000032
1480	1.4716e+02	5.2789	4.258766	0.000299	2.989598	0.506452	-0.000030
1481	1.4726e+02	5.2700	4.225772	0.000332	3.317225	0.561953	-0.000033
1482	1.4736e+02	5.2601	4.191962	0.000340	3.399132	0.575828	-0.000034
1483	1.4746e+02	5.2505	4.160189	0.000319	3.194365	0.541140	-0.000032
1484	1.4756e+02	5.2398	4.125973	0.000344	3.440085	0.582766	-0.000034
1485	1.4766e+02	5.2295	4.093385	0.000328	3.276271	0.555015	-0.000033
1486	1.4776e+02	5.2195	4.062427	0.000311	3.112458	0.527265	-0.000031
1487	1.4786e+02	5.2093	4.029025	0.000336	3.358178	0.568891	-0.000034
1488	1.4796e+02	5.1991	3.997252	0.000319	3.194365	0.541140	-0.000032
1489	1.4806e+02	5.1891	3.967109	0.000303	3.030551	0.513389	-0.000030
1490	1.4816e+02	5.1777	3.932078	0.000352	3.521992	0.596642	-0.000035
1491	1.4825e+02	5.1698	3.903156	0.000291	2.907691	0.492576	-0.000029
1492	1.4835e+02	5.1601	3.872606	0.000307	3.071504	0.520327	-0.000031
1493	1.4845e+02	5.1497	3.840426	0.000324	3.235318	0.548078	-0.000032
1494	1.4855e+02	5.1412	3.812319	0.000283	2.825784	0.478701	-0.000028
1495	1.4865e+02	5.1279	3.778102	0.000344	3.440085	0.582766	-0.000034
1496	1.4875e+02	5.1218	3.747959	0.000303	3.030551	0.513389	-0.000030
1497	1.4885e+02	5.1087	3.718630	0.000295	2.948644	0.499514	-0.000029
1498	1.4895e+02	5.1011	3.685228	0.000336	3.358178	0.568891	-0.000034
1499	1.4905e+02	5.0912	3.656307	0.000291	2.907691	0.492576	-0.000029
1500	1.4915e+02	5.0822	3.625756	0.000307	3.071504	0.520327	-0.000031
1501	1.4925e+02	5.0674	3.593169	0.000328	3.276271	0.555015	-0.000033
1502	1.4935e+02	5.0629	3.565469	0.000278	2.784831	0.471763	-0.000028
1503	1.4945e+02	5.0483	3.530845	0.000348	3.481038	0.589704	-0.000035
1504	1.4955e+02	5.0423	3.499887	0.000311	3.112458	0.527265	-0.000031
1505	1.4965e+02	5.0304	3.475039	0.000250	2.498157	0.423199	-0.000025
1506	1.4975e+02	5.0195	3.442045	0.000332	3.317225	0.561953	-0.000033
1507	1.4985e+02	5.0115	3.413938	0.000283	2.825784	0.478701	-0.000028
1508	1.4995e+02	5.0002	3.379314	0.000348	3.481038	0.589704	-0.000035
1509	1.5005e+02	4.9898	3.345097	0.000344	3.440085	0.582766	-0.000034
1510	1.5015e+02	4.9839	3.320656	0.000246	2.457204	0.416262	-0.000025
1511	1.5025e+02	4.9697	3.287662	0.000332	3.317225	0.561953	-0.000033
1512	1.5034e+02	4.9603	3.259555	0.000283	2.825784	0.478701	-0.000028
1513	1.5044e+02	4.9509	3.224931	0.000348	3.481038	0.589704	-0.000035
1514	1.5054e+02	4.9380	3.196824	0.000283	2.825784	0.478701	-0.000028
1515	1.5064e+02	4.9296	3.165052	0.000319	3.194365	0.541140	-0.000032
1516	1.5074e+02	4.9224	3.135316	0.000299	2.989598	0.506452	-0.000030
1517	1.5084e+02	4.9117	3.103543	0.000319	3.194365	0.541140	-0.000032
1518	1.5094e+02	4.9051	3.073400	0.000303	3.030551	0.513389	-0.000030
1519	1.5104e+02	4.8920	3.043256	0.000303	3.030551	0.513389	-0.000030
1520	1.5114e+02	4.8806	3.011483	0.000319	3.194365	0.541140	-0.000032
1521	1.5124e+02	4.8728	2.983784	0.000278	2.784831	0.471763	-0.000028
1522	1.5134e+02	4.8579	2.950789	0.000332	3.317225	0.561953	-0.000033
1523	1.5144e+02	4.8537	2.919017	0.000319	3.194365	0.541140	-0.000032
1524	1.5154e+02	4.8414	2.890095	0.000291	2.907691	0.492576	-0.000029
1525	1.5164e+02	4.8312	2.857101	0.000332	3.317225	0.561953	-0.000033
1526	1.5174e+02	4.8219	2.823291	0.000340	3.399132	0.575828	-0.000034
1527	1.5184e+02	4.8126	2.795185	0.000283	2.825784	0.478701	-0.000028
1528	1.5194e+02	4.8032	2.760153	0.000352	3.521992	0.596642	-0.000035
1529	1.5204e+02	4.7942	2.729602	0.000307	3.071504	0.520327	-0.000031
1530	1.5214e+02	4.7794	2.694978	0.000348	3.481038	0.589704	-0.000035
1531	1.5224e+02	4.7748	2.663613	0.000315	3.153411	0.534202	-0.000032
1532	1.5233e+02	4.7607	2.631026	0.000328	3.276271	0.555015	-0.000033
1533	1.5243e+02	4.7544	2.600068	0.000311	3.112458	0.527265	-0.000031
1534	1.5253e+02	4.7407	2.570739	0.000295	2.948644	0.499514	-0.000029
1535	1.5263e+02	4.7323	2.534485	0.000364	3.644852	0.617455	-0.000036
1536	1.5273e+02	4.7230	2.504749	0.000299	2.989598	0.506452	-0.000030
1537	1.5283e+02	4.7111	2.471755	0.000332	3.317225	0.561953	-0.000033
1538	1.5293e+02	4.7039	2.438353	0.000336	3.358178	0.568891	-0.000034
1539	1.5303e+02	4.6928	2.405765	0.000328	3.276271	0.555015	-0.000033
1540	1.5313e+02	4.6801	2.371548	0.000344	3.440085	0.582766	-0.000034
1541	1.5323e+02	4.6737	2.343442	0.000283	2.825784	0.478701	-0.000028
1542	1.5333e+02	4.6641	2.311669	0.000319	3.194365	0.541140	-0.000032
1543	1.5343e+02	4.6533	2.279896	0.000319	3.194365	0.541140	-0.000032
1544	1.5353e+02	4.6446	2.246902	0.000332	3.317225	0.561953	-0.000033
1545	1.5363e+02	4.6324	2.216758	0.000303	3.030551	0.513389	-0.000030
1546	1.5373e+02	4.6220	2.186207	0.000307	3.071504	0.520327	-0.000031
1547	1.5383e+02	4.6121	2.156471	0.000299	2.989598	0.506452	-0.000030
1548	1.5393e+02	4.6052	2.123884	0.000328	3.276271	0.555015	-0.000033
1549	1.5403e+02	4.5911	2.093741	0.000303	3.030551	0.513389	-0.000030
1550	1.5413e+02	4.5834	2.064005	0.000299	2.989598	0.506452	-0.000030
1551	1.5422e+02	4.5722	2.030603	0.000336	3.358178	0.568891	-0.000034
1552	1.5432e+02	4.5625	2.002496	0.000283	2.825784	0.478701	-0.000028
1553	1.5442e+02	4.5557	1.971131	0.000315	3.153411	0.534202	-0.000032
1554	1.5452e+02	4.5426	1.940987	0.000303	3.030551	0.513389	-0.000030
1555	1.5462e+02	4.5358	1.917361	0.000238	2.375297	0.402386	-0.000024
1556	1.5472e+02	4.5222	1.888033	0.000295	2.948644	0.499514	-0.000029
1557	1.5482e+02	4.5116	1.857482	0.000307	3.071504	0.520327	-0.000031
1558	1.5492e+02	4.5017	1.832634	0.000250	2.498157	0.423199	-0.000025
1559	1.5502e+02	4.4900	1.800454	0.000324	3.235318	0.548078	-0.000032
1560	1.5512e+02	4.4814	1.770718	0.000299	2.989598	0.506452	-0.000030
1561	1.5522e+02	4.4743	1.747500	0.000233	2.334343	0.395448	-0.000023
1562	1.5532e+02	4.4630	1.716134	0.000315	3.153411	0.534202	-0.000032
1563	1.5542e+02	4.4534	1.686806	0.000295	2.948644	0.499514	-0.000029
1564	1.5552e+02	4.4457	1.659921	0.000270	2.702924	0.457888	-0.000027
1565	1.5562e+02	4.4312	1.628556	0.000315	3.153411	0.534202	-0.000032
1566	1.5572e+02	4.4212	1.600856	0.000278	2.784831	0.471763	-0.000028
1567	1.5582e+02	4.4151	1.576823	0.000242	2.416250	0.409324	-0.000024
1568	1.5592e+02	4.4033	1.549124	0.000278	2.784831	0.471763	-0.000028
1569	1.5602e+02	4.3959	1.518166	0.000311	3.112458	0.527265	-0.000031
1570	1.5612e+02	4.3829	1.488022	0.000303	3.030551	0.513389	-0.000030
1571	1.5622e+02	4.3766	1.461138	0.000270	2.702924	0.457888	-0.000027
1572	1.5631e+02	4.3643	1.430994	0.000303	3.030551	0.513389	-0.000030
1573	1.5641e+02	4.3542	1.402480	0.000287	2.866737	0.485638	-0.000029
1574	1.5651e+02	4.3436	1.372744	0.000299	2.989598	0.506452	-0.000030
1575	1.5661e+02	4.3325	1.342601	0.000303	3.030551	0.513389	-0.000030
1576	1.5671e+02	4.3266	1.311643	0.000311	3.112458	0.527265	-0.000031
1577	1.5681e+02	4.3148	1.280685	0.000311	3.112458	0.527265	-0.000031
1578	1.5691e+02	4.3041	1.252986	0.000278	2.784831	0.471763	-0.000028
1579	1.5701e+02	4.2934	1.223250	0.000299	2.989598	0.506452	-0.000030
1580	1.5711e+02	4.2828	1.190662	0.000328	3.276271	0.555015	-0.000033
1581	1.5721e+02	4.2735	1.163778	0.000270	2.702924	0.457888	-0.000027
1582	1.5731e+02	4.2647	1.132412	0.000315	3.153411	0.534202	-0.000032
1583	1.5741e+02	4.2533	1.103491	0.000291	2.907691	0.492576	-0.000029
1584	1.5751e+02	4.2469	1.072126	0.000315	3.153411	0.534202	-0.000032
1585	1.5761e+02	4.2343	1.038316	0.000340	3.399132	0.575828	-0.000034
1586	1.5771e+02	4.2235	1.011839	0.000266	2.661971	0.450950	-0.000027
1587	1.5781e+02	4.2132	0.978844	0.000332	3.317225	0.561953	-0.000033
1588	1.5791e+02	4.2062	0.948293	0.000307	3.071504	0.520327	-0.000031
1589	1.5801e+02	4.1958	0.918150	0.000303	3.030551	0.513389	-0.000030
1590	1.5811e+02	4.1853	0.883526	0.000348	3.481038	0.589704	-0.000035
1591	1.5821e+02	4.1747	0.854605	0.000291	2.907691	0.492576	-0.000029
1592	1.5830e+02	4.1659	0.824461	0.000303	3.030551	0.513389	-0.000030
1593	1.5840e+02	4.1550	0.790652	0.000340	3.399132	0.575828	-0.000034
1594	1.5850e+02	4.1444	0.758472	0.000324	3.235318	0.548078	-0.000032
1595	1.5860e+02	4.1341	0.732402	0.000262	2.621017	0.444012	-0.000026
1596	1.5870e+02	4.1243	0.700222	0.000324	3.235318	0.548078	-0.000032
1597	1.5880e+02	4.1142	0.671301	0.000291	2.907691	0.492576	-0.000029
1598	1.5890e+02	4.1042	0.637491	0.000340	3.399132	0.575828	-0.000034
1599	1.5900e+02	4.0952	0.608162	0.000295	2.948644	0.499514	-0.000029
1600	1.5910e+02	4.0874	0.573946	0.000344	3.440085	0.582766	-0.000034
1601	1.5920e+02	4.0752	0.540136	0.000340	3.399132	0.575828	-0.000034
1602	1.5930e+02	4.0661	0.507549	0.000328	3.276271	0.555015	-0.000033
1603	1.5940e+02	4.0568	0.477813	0.000299	2.989598	0.506452	-0.000030
1604	1.5950e+02	4.0447	0.443189	0.000348	3.481038	0.589704	-0.000035
1605	1.5960e+02	4.0350	0.415489	0.000278	2.784831	0.471763	-0.000028
1606	1.5970e+02	4.0247	0.386161	0.000295	2.948644	0.499514	-0.000029
1607	1.5980e+02	4.0173	0.351537	0.000348	3.481038	0.589704	-0.000035
1608	1.5990e+02	4.0051	0.320171	0.000315	3.153411	0.534202	-0.000032
1609	1.6000e+02	3.9928	0.286769	0.000336	3.358178	0.568891	-0.000034
1610	1.6010e+02	3.9842	0.259885	0.000270	2.702924	0.457888	-0.000027
1611	1.6019e+02	3.9743	0.230963	0.000291	2.907691	0.492576	-0.000029
1612	1.6029e+02	3.9666	0.198376	0.000328	3.276271	0.555015	-0.000033
1613	1.6039e+02	3.9600	0.168232	0.000303	3.030551	0.513389	-0.000030
1614	1.6049e+02	3.9417	0.136460	0.000319	3.194365	0.541140	-0.000032
1615	1.6059e+02	3.9364	0.107131	0.000295	2.948644	0.499514	-0.000029
1616	1.6069e+02	3.9245	0.073729	0.000336	3.358178	0.568891	-0.000034
1617	1.6079e+02	3.9155	0.044808	0.000291	2.907691	0.492576	-0.000029
1618	1.6089e+02	3.9050	0.014257	0.000307	3.071504	0.520327	-0.000031
1619	1.6099e+02	3.8960	-0.015479	0.000299	2.989598	0.506452	-0.000030
1620	1.6109e+02	3.8867	-0.044808	0.000295	2.948644	0.499514	-0.000029
1621	1.6119e+02	3.8755	-0.076580	0.000319	3.194365	0.541140	-0.000032
1622	1.6129e+02	3.8644	-0.106316	0.000299	2.989598	0.506452	-0.000030
1623	1.6139e+02	3.8570	-0.138904	0.000328	3.276271	0.555015	-0.000033
1624	1.6149e+02	3.8485	-0.163752	0.000250	2.498157	0.423199	-0.000025
1625	1.6159e+02	3.8335	-0.199191	0.000356	3.562945	0.603579	-0.000036
1626	1.6169e+02	3.8244	-0.232593	0.000336	3.358178	0.568891	-0.000034
1627	1.6179e+02	3.8168	-0.261107	0.000287	2.866737	0.485638	-0.000029
1628	1.6189e+02	3.8052	-0.293694	0.000328	3.276271	0.555015	-0.000033
1629	1.6199e+02	3.7969	-0.325467	0.000319	3.194365	0.541140	-0.000032
1630	1.6209e+02	3.7874	-0.362128	0.000369	3.685805	0.624392	-0.000037
1631	1.6219e+02	3.7742	-0.391864	0.000299	2.989598	0.506452	-0.000030
1632	1.6228e+02	3.7665	-0.426080	0.000344	3.440085	0.582766	-0.000034
1633	1.6238e+02	3.7566	-0.455002	0.000291	2.907691	0.492576	-0.000029
1634	1.6248e+02	3.7496	-0.484738	0.000299	2.989598	0.506452	-0.000030
1635	1.6258e+02	3.7368	-0.519769	0.000352	3.521992	0.596642	-0.000035
1636	1.6268e+02	3.7267	-0.554393	0.000348	3.481038	0.589704	-0.000035
1637	1.6278e+02	3.7181	-0.592276	0.000381	3.808666	0.645205	-0.000038
1638	1.6288e+02	3.7082	-0.626086	0.000340	3.399132	0.575828	-0.000034
1639	1.6298e+02	3.6982	-0.661524	0.000356	3.562945	0.603579	-0.000036
1640	1.6308e+02	3.6869	-0.696148	0.000348	3.481038	0.589704	-0.000035
1641	1.6318e+02	3.6788	-0.732402	0.000364	3.644852	0.617455	-0.000036
1642	1.6328e+02	3.6679	-0.765397	0.000332	3.317225	0.561953	-0.000033
1643	1.6338e+02	3.6605	-0.803687	0.000385	3.849619	0.652143	-0.000038
1644	1.6348e+02	3.6449	-0.838718	0.000352	3.521992	0.596642	-0.000035
1645	1.6358e+02	3.6366	-0.871713	0.000332	3.317225	0.561953	-0.000033
1646	1.6368e+02	3.6276	-0.910003	0.000385	3.849619	0.652143	-0.000038
1647	1.6378e+02	3.6193	-0.945035	0.000352	3.521992	0.596642	-0.000035
1648	1.6388e+02	3.6057	-0.978029	0.000332	3.317225	0.561953	-0.000033
1649	1.6398e+02	3.5978	-1.015098	0.000373	3.726759	0.631330	-0.000037
1650	1.6408e+02	3.5883	-1.053388	0.000385	3.849619	0.652143	-0.000038
1651	1.6418e+02	3.5773	-1.088012	0.000348	3.481038	0.589704	-0.000035
1652	1.6427e+02	3.5686	-1.125080	0.000373	3.726759	0.631330	-0.000037
1653	1.6437e+02	3.5575	-1.159297	0.000344	3.440085	0.582766	-0.000034
1654	1.6447e+02	3.5477	-1.195550	0.000364	3.644852	0.617455	-0.000036
1655	1.6457e+02	3.5376	-1.233433	0.000381	3.808666	0.645205	-0.000038
1656	1.6467e+02	3.5258	-1.270094	0.000369	3.685805	0.624392	-0.000037
1657	1.6477e+02	3.5179	-1.301459	0.000315	3.153411	0.534202	-0.000032
1658	1.6487e+02	3.5074	-1.339750	0.000385	3.849619	0.652143	-0.000038
1659	1.6497e+02	3.4974	-1.368671	0.000291	2.907691	0.492576	-0.000029
1660	1.6507e+02	3.4875	-1.404517	0.000360	3.603899	0.610517	-0.000036
1661	1.6517e+02	3.4786	-1.444029	0.000397	3.972479	0.672956	-0.000040
1662	1.6527e+02	3.4690	-1.477431	0.000336	3.358178	0.568891	-0.000034
1663	1.6537e+02	3.4591	-1.507575	0.000303	3.030551	0.513389	-0.000030
1664	1.6547e+02	3.4477	-1.546680	0.000393	3.931526	0.666018	-0.000039
1665	1.6557e+02	3.4391	-1.580489	0.000340	3.399132	0.575828	-0.000034
1666	1.6567e+02	3.4280	-1.615521	0.000352	3.521992	0.596642	-0.000035
1667	1.6577e+02	3.4217	-1.649737	0.000344	3.440085	0.582766	-0.000034
1668	1.6587e+02	3.4081	-1.681103	0.000315	3.153411	0.534202	-0.000032
1669	1.6597e+02	3.3960	-1.718986	0.000381	3.808666	0.645205	-0.000038
1670	1.6607e+02	3.3905	-1.754017	0.000352	3.521992	0.596642	-0.000035
1671	1.6616e+02	3.3782	-1.782938	0.000291	2.907691	0.492576	-0.000029
1672	1.6626e+02	3.3685	-1.818784	0.000360	3.603899	0.610517	-0.000036
1673	1.6636e+02	3.3596	-1.855038	0.000364	3.644852	0.617455	-0.000036
1674	1.6646e+02	3.3501	-1.889255	0.000344	3.440085	0.582766	-0.000034
1675	1.6656e+02	3.3409	-1.926323	0.000373	3.726759	0.631330	-0.000037
1676	1.6666e+02	3.3329	-1.956874	0.000307	3.071504	0.520327	-0.000031
1677	1.6676e+02	3.3197	-1.991905	0.000352	3.521992	0.596642	-0.000035
1678	1.6686e+02	3.3088	-2.026122	0.000344	3.440085	0.582766	-0.000034
1679	1.6696e+02	3.3007	-2.061153	0.000352	3.521992	0.596642	-0.000035
1680	1.6706e+02	3.2917	-2.095777	0.000348	3.481038	0.589704	-0.000035
1681	1.6716e+02	3.2795	-2.130809	0.000352	3.521992	0.596642	-0.000035
1682	1.6726e+02	3.2696	-2.165433	0.000348	3.481038	0.589704	-0.000035
1683	1.6736e+02	3.2594	-2.202094	0.000369	3.685805	0.624392	-0.000037
1684	1.6746e+02	3.2507	-2.232645	0.000307	3.071504	0.520327	-0.000031
1685	1.6756e+02	3.2395	-2.266047	0.000336	3.358178	0.568891	-0.000034
1686	1.6766e+02	3.2291	-2.301078	0.000352	3.521992	0.596642	-0.000035
1687	1.6776e+02	3.2185	-2.334073	0.000332	3.317225	0.561953	-0.000033
1688	1.6786e+02	3.2098	-2.370734	0.000369	3.685805	0.624392	-0.000037
1689	1.6796e+02	3.1994	-2.405358	0.000348	3.481038	0.589704	-0.000035
1690	1.6806e+02	3.1890	-2.441204	0.000360	3.603899	0.610517	-0.000036
1691	1.6816e+02	3.1806	-2.472977	0.000319	3.194365	0.541140	-0.000032
1692	1.6825e+02	3.1698	-2.511267	0.000385	3.849619	0.652143	-0.000038
1693	1.6835e+02	3.1609	-2.543447	0.000324	3.235318	0.548078	-0.000032
1694	1.6845e+02	3.1519	-2.580515	0.000373	3.726759	0.631330	-0.000037
1695	1.6855e+02	3.1377	-2.613510	0.000332	3.317225	0.561953	-0.000033
1696	1.6865e+02	3.1315	-2.652207	0.000389	3.890572	0.659081	-0.000039
1697	1.6875e+02	3.1201	-2.689276	0.000373	3.726759	0.631330	-0.000037
1698	1.6885e+02	3.1097	-2.723085	0.000340	3.399132	0.575828	-0.000034
1699	1.6895e+02	3.0996	-2.760560	0.000377	3.767712	0.638268	-0.000038
1700	1.6905e+02	3.0893	-2.790704	0.000303	3.030551	0.513389	-0.000030
1701	1.6915e+02	3.0818	-2.831438	0.000410	4.095339	0.693769	-0.000041
1702	1.6925e+02	3.0699	-2.867692	0.000364	3.644852	0.617455	-0.000036
1703	1.6935e+02	3.0642	-2.901094	0.000336	3.358178	0.568891	-0.000034
1704	1.6945e+02	3.0453	-2.939791	0.000389	3.890572	0.659081	-0.000039
1705	1.6955e+02	3.0393	-2.974415	0.000348	3.481038	0.589704	-0.000035
1706	1.6965e+02	3.0311	-3.011891	0.000377	3.767712	0.638268	-0.000038
1707	1.6975e+02	3.0215	-3.047330	0.000356	3.562945	0.603579	-0.000036
1708	1.6985e+02	3.0108	-3.083176	0.000360	3.603899	0.610517	-0.000036
1709	1.6995e+02	2.9994	-3.117800	0.000348	3.481038	0.589704	-0.000035
1710	1.7005e+02	2.9897	-3.155275	0.000377	3.767712	0.638268	-0.000038
1711	1.7015e+02	2.9803	-3.190714	0.000356	3.562945	0.603579	-0.000036
1712	1.7024e+02	2.9685	-3.223302	0.000328	3.276271	0.555015	-0.000033
1713	1.7034e+02	2.9632	-3.258740	0.000356	3.562945	0.603579	-0.000036
1714	1.7044e+02	2.9497	-3.297031	0.000385	3.849619	0.652143	-0.000038
1715	1.7054e+02	2.9397	-3.331247	0.000344	3.440085	0.582766	-0.000034
1716	1.7064e+02	2.9304	-3.362613	0.000315	3.153411	0.534202	-0.000032
1717	1.7074e+02	2.9189	-3.398866	0.000364	3.644852	0.617455	-0.000036
1718	1.7084e+02	2.9107	-3.432268	0.000336	3.358178	0.568891	-0.000034
1719	1.7094e+02	2.8989	-3.467300	0.000352	3.521992	0.596642	-0.000035
1720	1.7104e+02	2.8909	-3.499480	0.000324	3.235318	0.548078	-0.000032
1721	1.7114e+02	2.8793	-3.532882	0.000336	3.358178	0.568891	-0.000034
1722	1.7124e+02	2.8727	-3.564655	0.000319	3.194365	0.541140	-0.000032
1723	1.7134e+02	2.8590	-3.596835	0.000324	3.235318	0.548078	-0.000032
1724	1.7144e+02	2.8507	-3.629422	0.000328	3.276271	0.555015	-0.000033
1725	1.7154e+02	2.8423	-3.662824	0.000336	3.358178	0.568891	-0.000034
1726	1.7164e+02	2.8317	-3.692153	0.000295	2.948644	0.499514	-0.000029
1727	1.7174e+02	2.8219	-3.722296	0.000303	3.030551	0.513389	-0.000030
1728	1.7184e+02	2.8103	-3.757328	0.000352	3.521992	0.596642	-0.000035
1729	1.7194e+02	2.8011	-3.791544	0.000344	3.440085	0.582766	-0.000034
1730	1.7204e+02	2.7908	-3.823725	0.000324	3.235318	0.548078	-0.000032
1731	1.7213e+02	2.7829	-3.858349	0.000348	3.481038	0.589704	-0.000035
1732	1.7223e+02	2.7708	-3.889307	0.000311	3.112458	0.527265	-0.000031
1733	1.7233e+02	2.7648	-3.919043	0.000299	2.989598	0.506452	-0.000030
1734	1.7243e+02	2.7522	-3.953667	0.000348	3.481038	0.589704	-0.000035
1735	1.7253e+02	2.7407	-3.984625	0.000311	3.112458	0.527265	-0.000031
1736	1.7263e+02	2.7329	-4.012731	0.000283	2.825784	0.478701	-0.000028
1737	1.7273e+02	2.7215	-4.049800	0.000373	3.726759	0.631330	-0.000037
1738	1.7283e+02	2.7120	-4.079943	0.000303	3.030551	0.513389	-0.000030
1739	1.7293e+02	2.7013	-4.110901	0.000311	3.112458	0.527265	-0.000031
1740	1.7303e+02	2.6910	-4.147969	0.000373	3.726759	0.631330	-0.000037
1741	1.7313e+02	2.6833	-4.182186	0.000344	3.440085	0.582766	-0.000034
1742	1.7323e+02	2.6718	-4.214773	0.000328	3.276271	0.555015	-0.000033
1743	1.7333e+02	2.6620	-4.250212	0.000356	3.562945	0.603579	-0.000036
1744	1.7343e+02	2.6517	-4.279134	0.000291	2.907691	0.492576	-0.000029
1745	1.7353e+02	2.6420	-4.317016	0.000381	3.808666	0.645205	-0.000038
1746	1.7363e+02	2.6310	-4.345530	0.000287	2.866737	0.485638	-0.000029
1747	1.7373e+02	2.6259	-4.381784	0.000364	3.644852	0.617455	-0.000036
1748	1.7383e+02	2.6093	-4.415593	0.000340	3.399132	0.575828	-0.000034
1749	1.7393e+02	2.6028	-4.452254	0.000369	3.685805	0.624392	-0.000037
1750	1.7403e+02	2.5936	-4.488100	0.000360	3.603899	0.610517	-0.000036
1751	1.7413e+02	2.5808	-4.519466	0.000315	3.153411	0.534202	-0.000032
1752	1.7422e+02	2.5735	-4.552053	0.000328	3.276271	0.555015	-0.000033
1753	1.7432e+02	2.5642	-4.587492	0.000356	3.562945	0.603579	-0.000036
1754	1.7442e+02	2.5519	-4.620487	0.000332	3.317225	0.561953	-0.000033
1755	1.7452e+02	2.5425	-4.655111	0.000348	3.481038	0.589704	-0.000035
1756	1.7462e+02	2.5314	-4.692586	0.000377	3.767712	0.638268	-0.000038
1757	1.7472e+02	2.5225	-4.727618	0.000352	3.521992	0.596642	-0.000035
1758	1.7482e+02	2.5143	-4.763056	0.000356	3.562945	0.603579	-0.000036
1759	1.7492e+02	2.5008	-4.796866	0.000340	3.399132	0.575828	-0.000034
1760	1.7502e+02	2.4929	-4.830675	0.000340	3.399132	0.575828	-0.000034
1761	1.7512e+02	2.4828	-4.864485	0.000340	3.399132	0.575828	-0.000034
1762	1.7522e+02	2.4726	-4.898294	0.000340	3.399132	0.575828	-0.000034
1763	1.7532e+02	2.4643	-4.936992	0.000389	3.890572	0.659081	-0.000039
1764	1.7542e+02	2.4525	-4.969579	0.000328	3.276271	0.555015	-0.000033
1765	1.7552e+02	2.4422	-5.004203	0.000348	3.481038	0.589704	-0.000035
1766	1.7562e+02	2.4344	-5.040457	0.000364	3.644852	0.617455	-0.000036
1767	1.7572e+02	2.4232	-5.077525	0.000373	3.726759	0.631330	-0.000037
1768	1.7582e+02	2.4146	-5.110520	0.000332	3.317225	0.561953	-0.000033
1769	1.7592e+02	2.4021	-5.146773	0.000364	3.644852	0.617455	-0.000036
1770	1.7602e+02	2.3956	-5.180990	0.000344	3.440085	0.582766	-0.000034
1771	1.7612e+02	2.3853	-5.220095	0.000393	3.931526	0.666018	-0.000039
1772	1.7621e+02	2.3733	-5.256348	0.000364	3.644852	0.617455	-0.000036
1773	1.7631e+02	2.3640	-5.289750	0.000336	3.358178	0.568891	-0.000034
1774	1.7641e+02	2.3560	-5.323967	0.000344	3.440085	0.582766	-0.000034
1775	1.7651e+02	2.3435	-5.363072	0.000393	3.931526	0.666018	-0.000039
1776	1.7661e+02	2.3331	-5.398918	0.000360	3.603899	0.610517	-0.000036
1777	1.7671e+02	2.3243	-5.430691	0.000319	3.194365	0.541140	-0.000032
1778	1.7681e+02	2.3146	-5.459205	0.000287	2.866737	0.485638	-0.000029
1779	1.7691e+02	2.3048	-5.501976	0.000430	4.300106	0.728458	-0.000043
1780	1.7701e+02	2.2950	-5.533341	0.000315	3.153411	0.534202	-0.000032
1781	1.7711e+02	2.2866	-5.567965	0.000348	3.481038	0.589704	-0.000035
1782	1.7721e+02	2.2749	-5.599331	0.000315	3.153411	0.534202	-0.000032
1783	1.7731e+02	2.2635	-5.634362	0.000352	3.521992	0.596642	-0.000035
1784	1.7741e+02	2.2529	-5.673060	0.000389	3.890572	0.659081	-0.000039
1785	1.7751e+02	2.2433	-5.706869	0.000340	3.399132	0.575828	-0.000034
1786	1.7761e+02	2.2348	-5.743530	0.000369	3.685805	0.624392	-0.000037
1787	1.7771e+02	2.2239	-5.772859	0.000295	2.948644	0.499514	-0.000029
1788	1.7781e+02	2.2196	-5.809112	0.000364	3.644852	0.617455	-0.000036
1789	1.7791e+02	2.2068	-5.843736	0.000348	3.481038	0.589704	-0.000035
1790	1.7801e+02	2.1918	-5.879175	0.000356	3.562945	0.603579	-0.000036
1791	1.7810e+02	2.1853	-5.912170	0.000332	3.317225	0.561953	-0.000033
1792	1.7820e+02	2.1739	-5.948016	0.000360	3.603899	0.610517	-0.000036
1793	1.7830e+02	2.1662	-5.985084	0.000373	3.726759	0.631330	-0.000037
1794	1.7840e+02	2.1572	-6.021338	0.000364	3.644852	0.617455	-0.000036
1795	1.7850e+02	2.1440	-6.057591	0.000364	3.644852	0.617455	-0.000036
1796	1.7860e+02	2.1328	-6.089364	0.000319	3.194365	0.541140	-0.000032
1797	1.7870e+02	2.1276	-6.126839	0.000377	3.767712	0.638268	-0.000038
1798	1.7880e+02	2.1149	-6.164315	0.000377	3.767712	0.638268	-0.000038
1799	1.7890e+02	2.1043	-6.200568	0.000364	3.644852	0.617455	-0.000036
1800	1.7900e+02	2.0938	-6.236007	0.000356	3.562945	0.603579	-0.000036
1801	1.7910e+02	2.0860	-6.273075	0.000373	3.726759	0.631330	-0.000037
1802	1.7920e+02	2.0778	-6.308107	0.000352	3.521992	0.596642	-0.000035
1803	1.7930e+02	2.0647	-6.347619	0.000397	3.972479	0.672956	-0.000040
1804	1.7940e+02	2.0539	-6.387539	0.000401	4.013432	0.679894	-0.000040
1805	1.7950e+02	2.0473	-6.422977	0.000356	3.562945	0.603579	-0.000036
1806	1.7960e+02	2.0327	-6.463304	0.000405	4.054386	0.686832	-0.000041
1807	1.7970e+02	2.0251	-6.505668	0.000426	4.259153	0.721520	-0.000043
1808	1.7980e+02	2.0158	-6.541514	0.000360	3.603899	0.610517	-0.000036
1809	1.7990e+02	2.0062	-6.582248	0.000410	4.095339	0.693769	-0.000041
1810	1.8000e+02	2.0002	-6.627871	0.000459	4.586780	0.777022	-0.000046
1811	1.8009e+02	1.9859	-6.662087	0.000344	3.440085	0.582766	-0.000034
1812	1.8019e+02	1.9744	-6.703229	0.000414	4.136293	0.700707	-0.000041
1813	1.8029e+02	1.9639	-6.743963	0.000410	4.095339	0.693769	-0.000041
1814	1.8039e+02	1.9552	-6.778995	0.000352	3.521992	0.596642	-0.000035
1815	1.8049e+02	1.9445	-6.818914	0.000401	4.013432	0.679894	-0.000040
1816	1.8059e+02	1.9337	-6.858834	0.000401	4.013432	0.679894	-0.000040
1817	1.8069e+02	1.9267	-6.898346	0.000397	3.972479	0.672956	-0.000040
1818	1.8079e+02	1.9152	-6.940710	0.000426	4.259153	0.721520	-0.000043
1819	1.8089e+02	1.9041	-6.981037	0.000405	4.054386	0.686832	-0.000041
1820	1.8099e+02	1.8991	-7.019327	0.000385	3.849619	0.652143	-0.000038
1821	1.8109e+02	1.8868	-7.058024	0.000389	3.890572	0.659081	-0.000039
1822	1.8119e+02	1.8764	-7.100388	0.000426	4.259153	0.721520	-0.000043
1823	1.8129e+02	1.8648	-7.139900	0.000397	3.972479	0.672956	-0.000040
1824	1.8139e+02	1.8575	-7.180634	0.000410	4.095339	0.693769	-0.000041
1825	1.8149e+02	1.8465	-7.218925	0.000385	3.849619	0.652143	-0.000038
1826	1.8159e+02	1.8354	-7.256808	0.000381	3.808666	0.645205	-0.000038
1827	1.8169e+02	1.8264	-7.294283	0.000377	3.767712	0.638268	-0.000038
1828	1.8179e+02	1.8162	-7.334203	0.000401	4.013432	0.679894	-0.000040
1829	1.8189e+02	1.8060	-7.370863	0.000369	3.685805	0.624392	-0.000037
1830	1.8199e+02	1.7961	-7.408339	0.000377	3.767712	0.638268	-0.000038
1831	1.8209e+02	1.7847	-7.451517	0.000434	4.341060	0.735395	-0.000043
1832	1.8218e+02	1.7771	-7.487363	0.000360	3.603899	0.610517	-0.000036
1833	1.8228e+02	1.7666	-7.528098	0.000410	4.095339	0.693769	-0.000041
1834	1.8238e+02	1.7558	-7.566388	0.000385	3.849619	0.652143	-0.000038
1835	1.8248e+02	1.7477	-7.605085	0.000389	3.890572	0.659081	-0.000039
1836	1.8258e+02	1.7362	-7.642561	0.000377	3.767712	0.638268	-0.000038
1837	1.8268e+02	1.7250	-7.684517	0.000422	4.218199	0.714582	-0.000042
1838	1.8278e+02	1.7149	-7.717512	0.000332	3.317225	0.561953	-0.000033
1839	1.8288e+02	1.7065	-7.753765	0.000364	3.644852	0.617455	-0.000036
1840	1.8298e+02	1.6988	-7.795314	0.000418	4.177246	0.707645	-0.000042
1841	1.8308e+02	1.6869	-7.834419	0.000393	3.931526	0.666018	-0.000039
1842	1.8318e+02	1.6772	-7.874746	0.000405	4.054386	0.686832	-0.000041
1843	1.8328e+02	1.6669	-7.911000	0.000364	3.644852	0.617455	-0.000036
1844	1.8338e+02	1.6578	-7.952549	0.000418	4.177246	0.707645	-0.000042
1845	1.8348e+02	1.6481	-7.990431	0.000381	3.808666	0.645205	-0.000038
1846	1.8358e+02	1.6343	-8.026685	0.000364	3.644852	0.617455	-0.000036
1847	1.8368e+02	1.6261	-8.064568	0.000381	3.808666	0.645205	-0.000038
1848	1.8378e+02	1.6175	-8.100414	0.000360	3.603899	0.610517	-0.000036
1849	1.8388e+02	1.6078	-8.144407	0.000442	4.422966	0.749271	-0.000044
1850	1.8398e+02	1.5954	-8.179846	0.000356	3.562945	0.603579	-0.000036
1851	1.8407e+02	1.5845	-8.218136	0.000385	3.849619	0.652143	-0.000038
1852	1.8417e+02	1.5763	-8.255611	0.000377	3.767712	0.638268	-0.000038
1853	1.8427e+02	1.5639	-8.295531	0.000401	4.013432	0.679894	-0.000040
1854	1.8437e+02	1.5573	-8.330155	0.000348	3.481038	0.589704	-0.000035
1855	1.8447e+02	1.5459	-8.373333	0.000434	4.341060	0.735395	-0.000043
1856	1.8457e+02	1.5382	-8.410809	0.000377	3.767712	0.638268	-0.000038
1857	1.8467e+02	1.5285	-8.451543	0.000410	4.095339	0.693769	-0.000041
1858	1.8477e+02	1.5203	-8.488204	0.000369	3.685805	0.624392	-0.000037
1859	1.8487e+02	1.5076	-8.524050	0.000360	3.603899	0.610517	-0.000036
1860	1.8497e+02	1.4948	-8.565192	0.000414	4.136293	0.700707	-0.000041
1861	1.8507e+02	1.4881	-8.605926	0.000410	4.095339	0.693769	-0.000041
1862	1.8517e+02	1.4751	-8.646253	0.000405	4.054386	0.686832	-0.000041
1863	1.8527e+02	1.4683	-8.687802	0.000418	4.177246	0.707645	-0.000042
1864	1.8537e+02	1.4578	-8.724463	0.000369	3.685805	0.624392	-0.000037
1865	1.8547e+02	1.4492	-8.766419	0.000422	4.218199	0.714582	-0.000042
1866	1.8557e+02	1.4376	-8.805524	0.000393	3.931526	0.666018	-0.000039
1867	1.8567e+02	1.4285	-8.842592	0.000373	3.726759	0.631330	-0.000037
1868	1.8577e+02	1.4184	-8.885363	0.000430	4.300106	0.728458	-0.000043
1869	1.8587e+02	1.4085	-8.926097	0.000410	4.095339	0.693769	-0.000041
1870	1.8597e+02	1.3966	-8.966424	0.000405	4.054386	0.686832	-0.000041
1871	1.8606e+02	1.3879	-9.006751	0.000405	4.054386	0.686832	-0.000041
1872	1.8616e+02	1.3803	-9.046263	0.000397	3.972479	0.672956	-0.000040
1873	1.8626e+02	1.3710	-9.088627	0.000426	4.259153	0.721520	-0.000043
1874	1.8636e+02	1.3580	-9.124880	0.000364	3.644852	0.617455	-0.000036
1875	1.8646e+02	1.3488	-9.167244	0.000426	4.259153	0.721520	-0.000043
1876	1.8656e+02	1.3348	-9.208793	0.000418	4.177246	0.707645	-0.000042
1877	1.8666e+02	1.3314	-9.245861	0.000373	3.726759	0.631330	-0.000037
1878	1.8676e+02	1.3175	-9.287410	0.000418	4.177246	0.707645	-0.000042
1879	1.8686e+02	1.3090	-9.326515	0.000393	3.931526	0.666018	-0.000039
1880	1.8696e+02	1.2996	-9.364398	0.000381	3.808666	0.645205	-0.000038
1881	1.8706e+02	1.2899	-9.404317	0.000401	4.013432	0.679894	-0.000040
1882	1.8716e+02	1.2782	-9.444237	0.000401	4.013432	0.679894	-0.000040
1883	1.8726e+02	1.2695	-9.485379	0.000414	4.136293	0.700707	-0.000041
1884	1.8736e+02	1.2597	-9.518373	0.000332	3.317225	0.561953	-0.000033
1885	1.8746e+02	1.2506	-9.555849	0.000377	3.767712	0.638268	-0.000038
1886	1.8756e+02	1.2377	-9.594954	0.000393	3.931526	0.666018	-0.000039
1887	1.8766e+02	1.2288	-9.632837	0.000381	3.808666	0.645205	-0.000038
1888	1.8776e+02	1.2194	-9.671942	0.000393	3.931526	0.666018	-0.000039
1889	1.8786e+02	1.2086	-9.704936	0.000332	3.317225	0.561953	-0.000033
1890	1.8796e+02	1.2001	-9.741190	0.000364	3.644852	0.617455	-0.000036
1891	1.8806e+02	1.1864	-9.780702	0.000397	3.972479	0.672956	-0.000040
1892	1.8815e+02	1.1806	-9.813289	0.000328	3.276271	0.555015	-0.000033
1893	1.8825e+02	1.1688	-9.852394	0.000393	3.931526	0.666018	-0.000039
1894	1.8835e+02	1.1609	-9.886611	0.000344	3.440085	0.582766	-0.000034
1895	1.8845e+02	1.1490	-9.925309	0.000389	3.890572	0.659081	-0.000039
1896	1.8855e+02	1.1418	-9.959525	0.000344	3.440085	0.582766	-0.000034
1897	1.8865e+02	1.1307	-9.999038	0.000397	3.972479	0.672956	-0.000040
1898	1.8875e+02	1.1202	-10.034476	0.000356	3.562945	0.603579	-0.000036
1899	1.8885e+02	1.1098	-10.074396	0.000401	4.013432	0.679894	-0.000040
1900	1.8895e+02	1.1016	-10.111057	0.000369	3.685805	0.624392	-0.000037
1901	1.8905e+02	1.0922	-10.144866	0.000340	3.399132	0.575828	-0.000034
1902	1.8915e+02	1.0816	-10.179898	0.000352	3.521992	0.596642	-0.000035
1903	1.8925e+02	1.0726	-10.219003	0.000393	3.931526	0.666018	-0.000039
1904	1.8935e+02	1.0601	-10.257293	0.000385	3.849619	0.652143	-0.000038
1905	1.8945e+02	1.0479	-10.287843	0.000307	3.071504	0.520327	-0.000031
1906	1.8955e+02	1.0424	-10.330614	0.000430	4.300106	0.728458	-0.000043
1907	1.8965e+02	1.0325	-10.366868	0.000364	3.644852	0.617455	-0.000036
1908	1.8975e+02	1.0230	-10.400270	0.000336	3.358178	0.568891	-0.000034
1909	1.8985e+02	1.0088	-10.438968	0.000389	3.890572	0.659081	-0.000039
1910	1.8995e+02	1.0000	-10.482146	0.000434	4.341060	0.735395	-0.000043
1911	1.9004e+02	0.9893	-10.515141	0.000332	3.317225	0.561953	-0.000033
1912	1.9014e+02	0.9797	-10.553023	0.000381	3.808666	0.645205	-0.000038
1913	1.9024e+02	0.9708	-10.592128	0.000393	3.931526	0.666018	-0.000039
1914	1.9034e+02	0.9616	-10.628382	0.000364	3.644852	0.617455	-0.000036
1915	1.9044e+02	0.9506	-10.667487	0.000393	3.931526	0.666018	-0.000039
1916	1.9054e+02	0.9396	-10.707406	0.000401	4.013432	0.679894	-0.000040
1917	1.9064e+02	0.9315	-10.744067	0.000369	3.685805	0.624392	-0.000037
1918	1.9074e+02	0.9206	-10.786023	0.000422	4.218199	0.714582	-0.000042
1919	1.9084e+02	0.9103	-10.822684	0.000369	3.685805	0.624392	-0.000037
1920	1.9094e+02	0.8990	-10.860974	0.000385	3.849619	0.652143	-0.000038
1921	1.9104e+02	0.8916	-10.901301	0.000405	4.054386	0.686832	-0.000041
1922	1.9114e+02	0.8815	-10.942850	0.000418	4.177246	0.707645	-0.000042
1923	1.9124e+02	0.8707	-10.976660	0.000340	3.399132	0.575828	-0.000034
1924	1.9134e+02	0.8616	-11.016987	0.000405	4.054386	0.686832	-0.000041
1925	1.9144e+02	0.8513	-11.056906	0.000401	4.013432	0.679894	-0.000040
1926	1.9154e+02	0.8392	-11.098455	0.000418	4.177246	0.707645	-0.000042
1927	1.9164e+02	0.8363	-11.134709	0.000364	3.644852	0.617455	-0.000036
1928	1.9174e+02	0.8237	-11.177480	0.000430	4.300106	0.728458	-0.000043
1929	1.9184e+02	0.8128	-11.214140	0.000369	3.685805	0.624392	-0.000037
1930	1.9194e+02	0.8023	-11.248765	0.000348	3.481038	0.589704	-0.000035
1931	1.9203e+02	0.7903	-11.291536	0.000430	4.300106	0.728458	-0.000043
1932	1.9213e+02	0.7841	-11.329011	0.000377	3.767712	0.638268	-0.000038
1933	1.9223e+02	0.7726	-11.369338	0.000405	4.054386	0.686832	-0.000041
1934	1.9233e+02	0.7615	-11.414960	0.000459	4.586780	0.777022	-0.000046
1935	1.9243e+02	0.7525	-11.450806	0.000360	3.603899	0.610517	-0.000036
1936	1.9253e+02	0.7410	-11.489911	0.000393	3.931526	0.666018	-0.000039
1937	1.9263e+02	0.7308	-11.531868	0.000422	4.218199	0.714582	-0.000042
1938	1.9273e+02	0.7204	-11.572195	0.000405	4.054386	0.686832	-0.000041
1939	1.9283e+02	0.7097	-11.610485	0.000385	3.849619	0.652143	-0.000038
1940	1.9293e+02	0.7027	-11.652848	0.000426	4.259153	0.721520	-0.000043
1941	1.9303e+02	0.6902	-11.690324	0.000377	3.767712	0.638268	-0.000038
1942	1.9313e+02	0.6816	-11.733910	0.000438	4.382013	0.742333	-0.000044
1943	1.9323e+02	0.6730	-11.768126	0.000344	3.440085	0.582766	-0.000034
1944	1.9333e+02	0.6638	-11.808046	0.000401	4.013432	0.679894	-0.000040
1945	1.9343e+02	0.6512	-11.847965	0.000401	4.013432	0.679894	-0.000040
1946	1.9353e+02	0.6426	-11.887070	0.000393	3.931526	0.666018	-0.000039
1947	1.9363e+02	0.6353	-11.924139	0.000373	3.726759	0.631330	-0.000037
1948	1.9373e+02	0.6209	-11.964058	0.000401	4.013432	0.679894	-0.000040
1949	1.9383e+02	0.6123	-12.001941	0.000381	3.808666	0.645205	-0.000038
1950	1.9393e+02	0.6025	-12.045119	0.000434	4.341060	0.735395	-0.000043
1951	1.9403e+02	0.5954	-12.079336	0.000344	3.440085	0.582766	-0.000034
1952	1.9412e+02	0.5834	-12.118441	0.000393	3.931526	0.666018	-0.000039
1953	1.9422e+02	0.5741	-12.159175	0.000410	4.095339	0.693769	-0.000041
1954	1.9432e+02	0.5633	-12.197058	0.000381	3.808666	0.645205	-0.000038
1955	1.9442e+02	0.5524	-12.237385	0.000405	4.054386	0.686832	-0.000041
1956	1.9452e+02	0.5416	-12.269972	0.000328	3.276271	0.555015	-0.000033
1957	1.9462e+02	0.5323	-12.312743	0.000430	4.300106	0.728458	-0.000043
1958	1.9472e+02	0.5221	-12.352663	0.000401	4.013432	0.679894	-0.000040
1959	1.9482e+02	0.5119	-12.389731	0.000373	3.726759	0.631330	-0.000037
1960	1.9492e+02	0.5023	-12.431687	0.000422	4.218199	0.714582	-0.000042
1961	1.9502e+02	0.4926	-12.471200	0.000397	3.972479	0.672956	-0.000040
1962	1.9512e+02	0.4827	-12.512748	0.000418	4.177246	0.707645	-0.000042
1963	1.9522e+02	0.4762	-12.552668	0.000401	4.013432	0.679894	-0.000040
1964	1.9532e+02	0.4661	-12.591773	0.000393	3.931526	0.666018	-0.000039
1965	1.9542e+02	0.4534	-12.633729	0.000422	4.218199	0.714582	-0.000042
1966	1.9552e+02	0.4398	-12.673649	0.000401	4.013432	0.679894	-0.000040
1967	1.9562e+02	0.4326	-12.718049	0.000446	4.463920	0.756208	-0.000045
1968	1.9572e+02	0.4242	-12.756747	0.000389	3.890572	0.659081	-0.000039
1969	1.9582e+02	0.4131	-12.799110	0.000426	4.259153	0.721520	-0.000043
1970	1.9592e+02	0.4038	-12.839030	0.000401	4.013432	0.679894	-0.000040
1971	1.9601e+02	0.3944	-12.884245	0.000455	4.545827	0.770084	-0.000045
1972	1.9611e+02	0.3848	-12.924979	0.000410	4.095339	0.693769	-0.000041
1973	1.9621e+02	0.3730	-12.968157	0.000434	4.341060	0.735395	-0.000043
1974	1.9631e+02	0.3670	-13.008484	0.000405	4.054386	0.686832	-0.000041
1975	1.9641e+02	0.3533	-13.057773	0.000496	4.955361	0.839461	-0.000050
1976	1.9651e+02	0.3410	-13.098914	0.000414	4.136293	0.700707	-0.000041
1977	1.9661e+02	0.3350	-13.140871	0.000422	4.218199	0.714582	-0.000042
1978	1.9671e+02	0.3233	-13.189344	0.000487	4.873454	0.825585	-0.000049
1979	1.9681e+02	0.3152	-13.234152	0.000450	4.504873	0.763146	-0.000045
1980	1.9691e+02	0.3043	-13.275701	0.000418	4.177246	0.707645	-0.000042
1981	1.9701e+02	0.2935	-13.318065	0.000426	4.259153	0.721520	-0.000043
1982	1.9711e+02	0.2834	-13.363280	0.000455	4.545827	0.770084	-0.000045
1983	1.9721e+02	0.2730	-13.410939	0.000479	4.791547	0.811710	-0.000048
1984	1.9731e+02	0.2641	-13.450451	0.000397	3.972479	0.672956	-0.000040
1985	1.9741e+02	0.2543	-13.499739	0.000496	4.955361	0.839461	-0.000050
1986	1.9751e+02	0.2441	-13.542510	0.000430	4.300106	0.728458	-0.000043
1987	1.9761e+02	0.2348	-13.588540	0.000463	4.627733	0.783959	-0.000046
1988	1.9771e+02	0.2245	-13.630496	0.000422	4.218199	0.714582	-0.000042
1989	1.9781e+02	0.2171	-13.676526	0.000463	4.627733	0.783959	-0.000046
1990	1.9791e+02	0.2040	-13.722556	0.000463	4.627733	0.783959	-0.000046
1991	1.9800e+02	0.1960	-13.766549	0.000442	4.422966	0.749271	-0.000044
1992	1.9810e+02	0.1820	-13.812171	0.000459	4.586780	0.777022	-0.000046
1993	1.9820e+02	0.1756	-13.855757	0.000438	4.382013	0.742333	-0.000044
1994	1.9830e+02	0.1643	-13.895269	0.000397	3.972479	0.672956	-0.000040
1995	1.9840e+02	0.1542	-13.940484	0.000455	4.545827	0.770084	-0.000045
1996	1.9850e+02	0.1467	-13.981626	0.000414	4.136293	0.700707	-0.000041
1997	1.9860e+02	0.1334	-14.026841	0.000455	4.545827	0.770084	-0.000045
1998	1.9870e+02	0.1236	-14.068797	0.000422	4.218199	0.714582	-0.000042
1999	1.9880e+02	0.1152	-14.111975	0.000434	4.341060	0.735395	-0.000043
2000	1.9890e+02	0.1033	-14.157598	0.000459	4.586780	0.777022	-0.000046
2001	1.9900e+02	0.0947	-14.195888	0.000385	3.849619	0.652143	-0.000038
2002	1.9910e+02	0.0829	-14.248028	0.000524	5.242034	0.888025	-0.000052
2003	1.9920e+02	0.0763	-14.282652	0.000348	3.481038	0.589704	-0.000035
2004	1.9930e+02	0.0647	-14.327052	0.000446	4.463920	0.756208	-0.000045
2005	1.9940e+02	0.0539	-14.367786	0.000410	4.095339	0.693769	-0.000041
2006	1.9950e+02	0.0452	-14.416260	0.000487	4.873454	0.825585	-0.000049
2007	1.9960e+02	0.0366	-14.456994	0.000410	4.095339	0.693769	-0.000041
2008	1.9970e+02	0.0253	-14.500987	0.000442	4.422966	0.749271	-0.000044
2009	1.9980e+02	0.0159	-14.544980	0.000442	4.422966	0.749271	-0.000044
2010	1.9990e+02	0.0050	-14.587344	0.000426	4.259153	0.721520	-0.000043
2011	2.0000e+02	-0.0003	-14.630522	0.000426	4.259153	0.721520	-0.000043

PMax (uC/cm2):	3.20e+01
Pr (uC/cm2):	1.36e+00
-Pr (uC/cm2):	0.00e+00
PLoss (uC/cm2):	0.00e+00
C (Max-Eff) (nF):	3.20e-01
K (Eff):	5.42e+02
Vert. (+/-Pr) Shift (uC/cm2):	6.78e-01
Offset (uC/cm2):	1.60e+01

A (Loop Area - uC/cm2·Volts):	-1.38e-02



Hysteresis Version: 5.48.1 - Radiant Technologies, Inc., 1999 - 9/12/24

