»»»»»»»»»»»»»»»»»»»»»»»»»»»»»»»»»»»» Hysteresis ««««««««««««««««««««««««««««««««««««
»»»  Executed Version:	5.48.1
»»»  Vision Version:	5.48.4 (R)
»»»  Vision Compiled:	9/18/24
»»»  Driver Version:	5.47.0
»»»  Windows Version:	Windows 8 or 8.1
»»»  Processor Information:	x86 (AMD or Intel) - 32 Processors
»»»  Tester Name:	PMF21124-494 (100V)
»»»  Tester S/N:	PMF21124-494
»»»  Internal Amp Type:	100V RevK 270k
»»»  Internal Amp S/N:	iAB2-596/K     
»»»  Execution Count:	1
»»»»»»»»»»»»»»»»»»»»»»»»»»»»»»»»»»»»»»»»»»««««««««««««««««««««««««««««««««««««««««««

Stored:	6/25/2025 - 18:22:53
Configured:	06/25/25 10:44:40 AM
Executed:	06/25/25 06:22:21 PM

»»»»»»»»»»»»»»»»»»»»»»»»»»»»»»»»»»» Sample Info ««««««««««««««««««««««««««««««««««««
Sample Name:	
Lot Name:	
Wafer Name:	
Die Row/Column:	0/0
Capacitor Number:	0
Sample Area (cm2):	1.00e-04
Sample Thickness (microns):	1.50e-01

Amplifier:	Internal

»»»»»»»»»»»»»»»»»»»»»»»»»»»»»»»»»»» Tester Info «««««««««««««««««««««««««««««««««««
Tester Name:	PMF21124-494 (100V)
Tester Serial Number:	PMF21124-494
Return Signal Amp. Level:	1.9 [Index: 2]

»»»»»»»»»»»»»»»»»»»»»»»»»»»»»»»» Hysteresis Info ««««««««««««««««««««««««««««««««««
Task Name:	Hyst-116
Volts:	10.00
Field:	666.67 (kV/cm)
DCBias:	0.00
DCField:	0.00 (kV/cm)
Hysteresis Period (ms):	2.00e+02
Preset:	Enabled
Preset Delay (ms):	1.00e+03
Profile:	Standard Monopolar

»»»»»»»»»»»»»»»»»»»»»»»»»»»»»»»»»»»»»» Data «««««««««««««««««««««««««««««««««««««««
Points:	2011

Valid Data

Point	Time (ms)	Drive Voltage	Measured Polarization (uC/cm2)	Capacitance (uF)	Normalized Capacitance (uF/cm2)	Dielectric Constant	Instantaneous Current (mA)
   1	0.0000e+00	-0.0028	-14.409132	0.000282	2.824308	0.478451	0.000028
   2	9.9500e-02	0.0087	-14.381025	0.000282	2.824308	0.478451	0.000028
   3	1.9900e-01	0.0175	-14.345994	0.000352	3.520151	0.596330	0.000035
   4	2.9850e-01	0.0248	-14.319924	0.000262	2.619648	0.443780	0.000026
   5	3.9800e-01	0.0342	-14.282448	0.000377	3.765743	0.637934	0.000038
   6	4.9750e-01	0.0420	-14.248231	0.000344	3.438287	0.582462	0.000034
   7	5.9700e-01	0.0534	-14.214829	0.000336	3.356423	0.568594	0.000034
   8	6.9650e-01	0.0654	-14.182242	0.000327	3.274559	0.554725	0.000033
   9	7.9600e-01	0.0742	-14.151691	0.000307	3.069899	0.520055	0.000031
  10	8.9550e-01	0.0869	-14.113401	0.000385	3.847607	0.651802	0.000038
  11	9.9500e-01	0.0953	-14.077962	0.000356	3.561083	0.603264	0.000036
  12	1.0945e+00	0.1052	-14.045375	0.000327	3.274559	0.554725	0.000033
  13	1.1940e+00	0.1160	-14.011158	0.000344	3.438287	0.582462	0.000034
  14	1.2935e+00	0.1225	-13.973275	0.000381	3.806675	0.644868	0.000038
  15	1.3930e+00	0.1376	-13.943132	0.000303	3.028967	0.513121	0.000030
  16	1.4925e+00	0.1414	-13.904842	0.000385	3.847607	0.651802	0.000038
  17	1.5920e+00	0.1553	-13.866959	0.000381	3.806675	0.644868	0.000038
  18	1.6915e+00	0.1618	-13.835593	0.000315	3.151763	0.533923	0.000032
  19	1.7910e+00	0.1748	-13.803413	0.000323	3.233627	0.547791	0.000032
  20	1.8905e+00	0.1858	-13.764716	0.000389	3.888539	0.658736	0.000039
  21	1.9900e+00	0.1958	-13.729684	0.000352	3.520151	0.596330	0.000035
  22	2.0895e+00	0.2076	-13.695875	0.000340	3.397355	0.575528	0.000034
  23	2.1890e+00	0.2137	-13.664102	0.000319	3.192695	0.540857	0.000032
  24	2.2885e+00	0.2232	-13.624590	0.000397	3.970403	0.672605	0.000040
  25	2.3880e+00	0.2339	-13.591595	0.000332	3.315491	0.561659	0.000033
  26	2.4875e+00	0.2448	-13.555749	0.000360	3.602015	0.610198	0.000036
  27	2.5870e+00	0.2532	-13.522754	0.000332	3.315491	0.561659	0.000033
  28	2.6865e+00	0.2641	-13.484464	0.000385	3.847607	0.651802	0.000038
  29	2.7860e+00	0.2750	-13.450655	0.000340	3.397355	0.575528	0.000034
  30	2.8855e+00	0.2850	-13.421326	0.000295	2.947103	0.499253	0.000029
  31	2.9850e+00	0.2938	-13.376926	0.000446	4.461587	0.755813	0.000045
  32	3.0845e+00	0.3057	-13.348412	0.000287	2.865240	0.485385	0.000029
  33	3.1840e+00	0.3160	-13.313380	0.000352	3.520151	0.596330	0.000035
  34	3.2835e+00	0.3252	-13.281608	0.000319	3.192695	0.540857	0.000032
  35	3.3830e+00	0.3362	-13.247798	0.000340	3.397355	0.575528	0.000034
  36	3.4825e+00	0.3438	-13.213581	0.000344	3.438287	0.582462	0.000034
  37	3.5820e+00	0.3548	-13.177735	0.000360	3.602015	0.610198	0.000036
  38	3.6815e+00	0.3631	-13.144740	0.000332	3.315491	0.561659	0.000033
  39	3.7810e+00	0.3716	-13.112153	0.000327	3.274559	0.554725	0.000033
  40	3.8805e+00	0.3804	-13.078751	0.000336	3.356423	0.568594	0.000034
  41	3.9800e+00	0.3926	-13.042497	0.000364	3.642947	0.617132	0.000036
  42	4.0795e+00	0.4034	-13.009910	0.000327	3.274559	0.554725	0.000033
  43	4.1790e+00	0.4144	-12.979767	0.000303	3.028967	0.513121	0.000030
  44	4.2785e+00	0.4206	-12.945957	0.000340	3.397355	0.575528	0.000034
  45	4.3780e+00	0.4308	-12.910518	0.000356	3.561083	0.603264	0.000036
  46	4.4775e+00	0.4419	-12.881597	0.000291	2.906172	0.492319	0.000029
  47	4.5770e+00	0.4556	-12.846158	0.000356	3.561083	0.603264	0.000036
  48	4.6765e+00	0.4644	-12.811127	0.000352	3.520151	0.596330	0.000035
  49	4.7760e+00	0.4729	-12.784650	0.000266	2.660580	0.450714	0.000027
  50	4.8755e+00	0.4833	-12.751655	0.000332	3.315491	0.561659	0.000033
  51	4.9750e+00	0.4930	-12.719067	0.000327	3.274559	0.554725	0.000033
  52	5.0745e+00	0.5006	-12.685258	0.000340	3.397355	0.575528	0.000034
  53	5.1740e+00	0.5116	-12.657559	0.000278	2.783376	0.471517	0.000028
  54	5.2735e+00	0.5203	-12.625786	0.000319	3.192695	0.540857	0.000032
  55	5.3730e+00	0.5334	-12.594421	0.000315	3.151763	0.533923	0.000032
  56	5.4725e+00	0.5438	-12.564277	0.000303	3.028967	0.513121	0.000030
  57	5.5720e+00	0.5519	-12.532912	0.000315	3.151763	0.533923	0.000032
  58	5.6715e+00	0.5655	-12.495844	0.000372	3.724811	0.631000	0.000037
  59	5.7710e+00	0.5716	-12.464071	0.000319	3.192695	0.540857	0.000032
  60	5.8705e+00	0.5840	-12.435557	0.000287	2.865240	0.485385	0.000029
  61	5.9700e+00	0.5939	-12.401748	0.000340	3.397355	0.575528	0.000034
  62	6.0695e+00	0.6013	-12.375270	0.000266	2.660580	0.450714	0.000027
  63	6.1690e+00	0.6150	-12.341868	0.000336	3.356423	0.568594	0.000034
  64	6.2685e+00	0.6242	-12.310503	0.000315	3.151763	0.533923	0.000032
  65	6.3680e+00	0.6344	-12.280360	0.000303	3.028967	0.513121	0.000030
  66	6.4675e+00	0.6451	-12.245328	0.000352	3.520151	0.596330	0.000035
  67	6.5670e+00	0.6526	-12.216407	0.000291	2.906172	0.492319	0.000029
  68	6.6665e+00	0.6648	-12.185041	0.000315	3.151763	0.533923	0.000032
  69	6.7660e+00	0.6734	-12.150825	0.000344	3.438287	0.582462	0.000034
  70	6.8655e+00	0.6837	-12.118645	0.000323	3.233627	0.547791	0.000032
  71	6.9650e+00	0.6931	-12.088094	0.000307	3.069899	0.520055	0.000031
  72	7.0645e+00	0.7017	-12.052248	0.000360	3.602015	0.610198	0.000036
  73	7.1640e+00	0.7129	-12.020475	0.000319	3.192695	0.540857	0.000032
  74	7.2635e+00	0.7220	-11.987480	0.000332	3.315491	0.561659	0.000033
  75	7.3630e+00	0.7317	-11.952856	0.000348	3.479219	0.589396	0.000035
  76	7.4625e+00	0.7430	-11.919454	0.000336	3.356423	0.568594	0.000034
  77	7.5620e+00	0.7524	-11.889311	0.000303	3.028967	0.513121	0.000030
  78	7.6615e+00	0.7625	-11.859167	0.000303	3.028967	0.513121	0.000030
  79	7.7610e+00	0.7705	-11.820470	0.000389	3.888539	0.658736	0.000039
  80	7.8605e+00	0.7812	-11.786660	0.000340	3.397355	0.575528	0.000034
  81	7.9600e+00	0.7922	-11.751629	0.000352	3.520151	0.596330	0.000035
  82	8.0595e+00	0.8024	-11.724337	0.000274	2.742444	0.464583	0.000027
  83	8.1590e+00	0.8116	-11.682381	0.000422	4.215995	0.714209	0.000042
  84	8.2585e+00	0.8189	-11.657125	0.000254	2.537784	0.429912	0.000025
  85	8.3580e+00	0.8308	-11.624538	0.000327	3.274559	0.554725	0.000033
  86	8.4575e+00	0.8430	-11.586655	0.000381	3.806675	0.644868	0.000038
  87	8.5570e+00	0.8514	-11.553660	0.000332	3.315491	0.561659	0.000033
  88	8.6565e+00	0.8608	-11.518629	0.000352	3.520151	0.596330	0.000035
  89	8.7560e+00	0.8711	-11.490522	0.000282	2.824308	0.478451	0.000028
  90	8.8555e+00	0.8775	-11.452640	0.000381	3.806675	0.644868	0.000038
  91	8.9550e+00	0.8942	-11.421681	0.000311	3.110831	0.526989	0.000031
  92	9.0545e+00	0.9004	-11.389501	0.000323	3.233627	0.547791	0.000032
  93	9.1540e+00	0.9097	-11.353248	0.000364	3.642947	0.617132	0.000036
  94	9.2535e+00	0.9175	-11.319846	0.000336	3.356423	0.568594	0.000034
  95	9.3530e+00	0.9318	-11.289295	0.000307	3.069899	0.520055	0.000031
  96	9.4525e+00	0.9427	-11.256708	0.000327	3.274559	0.554725	0.000033
  97	9.5520e+00	0.9523	-11.227379	0.000295	2.947103	0.499253	0.000029
  98	9.6515e+00	0.9616	-11.193162	0.000344	3.438287	0.582462	0.000034
  99	9.7510e+00	0.9705	-11.161390	0.000319	3.192695	0.540857	0.000032
 100	9.8505e+00	0.9802	-11.125951	0.000356	3.561083	0.603264	0.000036
 101	9.9500e+00	0.9914	-11.096622	0.000295	2.947103	0.499253	0.000029
 102	1.0050e+01	1.0027	-11.061183	0.000356	3.561083	0.603264	0.000036
 103	1.0149e+01	1.0108	-11.029411	0.000319	3.192695	0.540857	0.000032
 104	1.0248e+01	1.0214	-10.996416	0.000332	3.315491	0.561659	0.000033
 105	1.0348e+01	1.0313	-10.963014	0.000336	3.356423	0.568594	0.000034
 106	1.0447e+01	1.0395	-10.931241	0.000319	3.192695	0.540857	0.000032
 107	1.0547e+01	1.0535	-10.898654	0.000327	3.274559	0.554725	0.000033
 108	1.0646e+01	1.0602	-10.869325	0.000295	2.947103	0.499253	0.000029
 109	1.0746e+01	1.0722	-10.838774	0.000307	3.069899	0.520055	0.000031
 110	1.0845e+01	1.0813	-10.804558	0.000344	3.438287	0.582462	0.000034
 111	1.0945e+01	1.0915	-10.770748	0.000340	3.397355	0.575528	0.000034
 112	1.1044e+01	1.1001	-10.741012	0.000299	2.988035	0.506187	0.000030
 113	1.1144e+01	1.1106	-10.709647	0.000315	3.151763	0.533923	0.000032
 114	1.1243e+01	1.1210	-10.672986	0.000368	3.683879	0.624066	0.000037
 115	1.1343e+01	1.1315	-10.642843	0.000303	3.028967	0.513121	0.000030
 116	1.1443e+01	1.1379	-10.608218	0.000348	3.479219	0.589396	0.000035
 117	1.1542e+01	1.1482	-10.574816	0.000336	3.356423	0.568594	0.000034
 118	1.1642e+01	1.1588	-10.539378	0.000356	3.561083	0.603264	0.000036
 119	1.1741e+01	1.1666	-10.505975	0.000336	3.356423	0.568594	0.000034
 120	1.1841e+01	1.1810	-10.473388	0.000327	3.274559	0.554725	0.000033
 121	1.1940e+01	1.1886	-10.435098	0.000385	3.847607	0.651802	0.000038
 122	1.2040e+01	1.2005	-10.402103	0.000332	3.315491	0.561659	0.000033
 123	1.2139e+01	1.2088	-10.372367	0.000299	2.988035	0.506187	0.000030
 124	1.2239e+01	1.2197	-10.336521	0.000360	3.602015	0.610198	0.000036
 125	1.2338e+01	1.2324	-10.301082	0.000356	3.561083	0.603264	0.000036
 126	1.2438e+01	1.2415	-10.263199	0.000381	3.806675	0.644868	0.000038
 127	1.2537e+01	1.2508	-10.231834	0.000315	3.151763	0.533923	0.000032
 128	1.2636e+01	1.2603	-10.201691	0.000303	3.028967	0.513121	0.000030
 129	1.2736e+01	1.2703	-10.167474	0.000344	3.438287	0.582462	0.000034
 130	1.2835e+01	1.2792	-10.129184	0.000385	3.847607	0.651802	0.000038
 131	1.2935e+01	1.2905	-10.096189	0.000332	3.315491	0.561659	0.000033
 132	1.3034e+01	1.2991	-10.064009	0.000323	3.233627	0.547791	0.000032
 133	1.3134e+01	1.3094	-10.026126	0.000381	3.806675	0.644868	0.000038
 134	1.3233e+01	1.3209	-9.988650	0.000377	3.765743	0.637934	0.000038
 135	1.3333e+01	1.3278	-9.953212	0.000356	3.561083	0.603264	0.000036
 136	1.3432e+01	1.3416	-9.917365	0.000360	3.602015	0.610198	0.000036
 137	1.3532e+01	1.3485	-9.881927	0.000356	3.561083	0.603264	0.000036
 138	1.3632e+01	1.3596	-9.842822	0.000393	3.929471	0.665670	0.000039
 139	1.3731e+01	1.3699	-9.809827	0.000332	3.315491	0.561659	0.000033
 140	1.3831e+01	1.3799	-9.773166	0.000368	3.683879	0.624066	0.000037
 141	1.3930e+01	1.3877	-9.739357	0.000340	3.397355	0.575528	0.000034
 142	1.4030e+01	1.3972	-9.702289	0.000372	3.724811	0.631000	0.000037
 143	1.4129e+01	1.4095	-9.666850	0.000356	3.561083	0.603264	0.000036
 144	1.4229e+01	1.4194	-9.630596	0.000364	3.642947	0.617132	0.000036
 145	1.4328e+01	1.4275	-9.591491	0.000393	3.929471	0.665670	0.000039
 146	1.4428e+01	1.4373	-9.555645	0.000360	3.602015	0.610198	0.000036
 147	1.4527e+01	1.4475	-9.523465	0.000323	3.233627	0.547791	0.000032
 148	1.4627e+01	1.4608	-9.483546	0.000401	4.011335	0.679539	0.000040
 149	1.4726e+01	1.4667	-9.448514	0.000352	3.520151	0.596330	0.000035
 150	1.4825e+01	1.4788	-9.411853	0.000368	3.683879	0.624066	0.000037
 151	1.4925e+01	1.4876	-9.374785	0.000372	3.724811	0.631000	0.000037
 152	1.5024e+01	1.4966	-9.345049	0.000299	2.988035	0.506187	0.000030
 153	1.5124e+01	1.5115	-9.307574	0.000377	3.765743	0.637934	0.000038
 154	1.5223e+01	1.5204	-9.274579	0.000332	3.315491	0.561659	0.000033
 155	1.5323e+01	1.5263	-9.239547	0.000352	3.520151	0.596330	0.000035
 156	1.5422e+01	1.5372	-9.205738	0.000340	3.397355	0.575528	0.000034
 157	1.5522e+01	1.5467	-9.170707	0.000352	3.520151	0.596330	0.000035
 158	1.5621e+01	1.5585	-9.137304	0.000336	3.356423	0.568594	0.000034
 159	1.5721e+01	1.5689	-9.102273	0.000352	3.520151	0.596330	0.000035
 160	1.5820e+01	1.5765	-9.072537	0.000299	2.988035	0.506187	0.000030
 161	1.5920e+01	1.5900	-9.036283	0.000364	3.642947	0.617132	0.000036
 162	1.6020e+01	1.5996	-9.000030	0.000364	3.642947	0.617132	0.000036
 163	1.6119e+01	1.6075	-8.966628	0.000336	3.356423	0.568594	0.000034
 164	1.6218e+01	1.6194	-8.935263	0.000315	3.151763	0.533923	0.000032
 165	1.6318e+01	1.6272	-8.896565	0.000389	3.888539	0.658736	0.000039
 166	1.6418e+01	1.6373	-8.862348	0.000344	3.438287	0.582462	0.000034
 167	1.6517e+01	1.6461	-8.829761	0.000327	3.274559	0.554725	0.000033
 168	1.6616e+01	1.6579	-8.798395	0.000315	3.151763	0.533923	0.000032
 169	1.6716e+01	1.6672	-8.763364	0.000352	3.520151	0.596330	0.000035
 170	1.6816e+01	1.6777	-8.729147	0.000344	3.438287	0.582462	0.000034
 171	1.6915e+01	1.6882	-8.694930	0.000344	3.438287	0.582462	0.000034
 172	1.7015e+01	1.6972	-8.659899	0.000352	3.520151	0.596330	0.000035
 173	1.7114e+01	1.7043	-8.627312	0.000327	3.274559	0.554725	0.000033
 174	1.7213e+01	1.7146	-8.595132	0.000323	3.233627	0.547791	0.000032
 175	1.7313e+01	1.7281	-8.563766	0.000315	3.151763	0.533923	0.000032
 176	1.7413e+01	1.7379	-8.525883	0.000381	3.806675	0.644868	0.000038
 177	1.7512e+01	1.7465	-8.492889	0.000332	3.315491	0.561659	0.000033
 178	1.7611e+01	1.7586	-8.456635	0.000364	3.642947	0.617132	0.000036
 179	1.7711e+01	1.7660	-8.424862	0.000319	3.192695	0.540857	0.000032
 180	1.7811e+01	1.7778	-8.390238	0.000348	3.479219	0.589396	0.000035
 181	1.7910e+01	1.7847	-8.353170	0.000372	3.724811	0.631000	0.000037
 182	1.8009e+01	1.7979	-8.320583	0.000327	3.274559	0.554725	0.000033
 183	1.8109e+01	1.8066	-8.283107	0.000377	3.765743	0.637934	0.000038
 184	1.8209e+01	1.8169	-8.248076	0.000352	3.520151	0.596330	0.000035
 185	1.8308e+01	1.8266	-8.213859	0.000344	3.438287	0.582462	0.000034
 186	1.8407e+01	1.8357	-8.182901	0.000311	3.110831	0.526989	0.000031
 187	1.8507e+01	1.8455	-8.151943	0.000311	3.110831	0.526989	0.000031
 188	1.8607e+01	1.8566	-8.112431	0.000397	3.970403	0.672605	0.000040
 189	1.8706e+01	1.8674	-8.084731	0.000278	2.783376	0.471517	0.000028
 190	1.8805e+01	1.8787	-8.047256	0.000377	3.765743	0.637934	0.000038
 191	1.8905e+01	1.8856	-8.011817	0.000356	3.561083	0.603264	0.000036
 192	1.9005e+01	1.8946	-7.971490	0.000405	4.052267	0.686473	0.000041
 193	1.9104e+01	1.9049	-7.944605	0.000270	2.701512	0.457648	0.000027
 194	1.9203e+01	1.9183	-7.908759	0.000360	3.602015	0.610198	0.000036
 195	1.9303e+01	1.9278	-7.873321	0.000356	3.561083	0.603264	0.000036
 196	1.9402e+01	1.9347	-7.841140	0.000323	3.233627	0.547791	0.000032
 197	1.9502e+01	1.9473	-7.804480	0.000368	3.683879	0.624066	0.000037
 198	1.9602e+01	1.9559	-7.770670	0.000340	3.397355	0.575528	0.000034
 199	1.9701e+01	1.9680	-7.735231	0.000356	3.561083	0.603264	0.000036
 200	1.9800e+01	1.9756	-7.704681	0.000307	3.069899	0.520055	0.000031
 201	1.9900e+01	1.9834	-7.674130	0.000307	3.069899	0.520055	0.000031
 202	2.0000e+01	1.9982	-7.638284	0.000360	3.602015	0.610198	0.000036
 203	2.0099e+01	2.0048	-7.604474	0.000340	3.397355	0.575528	0.000034
 204	2.0198e+01	2.0142	-7.574738	0.000299	2.988035	0.506187	0.000030
 205	2.0298e+01	2.0251	-7.547854	0.000270	2.701512	0.457648	0.000027
 206	2.0398e+01	2.0341	-7.509564	0.000385	3.847607	0.651802	0.000038
 207	2.0497e+01	2.0448	-7.480235	0.000295	2.947103	0.499253	0.000029
 208	2.0596e+01	2.0551	-7.444796	0.000356	3.561083	0.603264	0.000036
 209	2.0696e+01	2.0657	-7.414653	0.000303	3.028967	0.513121	0.000030
 210	2.0796e+01	2.0743	-7.379621	0.000352	3.520151	0.596330	0.000035
 211	2.0895e+01	2.0865	-7.343775	0.000360	3.602015	0.610198	0.000036
 212	2.0994e+01	2.0930	-7.313632	0.000303	3.028967	0.513121	0.000030
 213	2.1094e+01	2.1072	-7.284303	0.000295	2.947103	0.499253	0.000029
 214	2.1194e+01	2.1120	-7.253345	0.000311	3.110831	0.526989	0.000031
 215	2.1293e+01	2.1249	-7.219536	0.000340	3.397355	0.575528	0.000034
 216	2.1392e+01	2.1326	-7.186134	0.000336	3.356423	0.568594	0.000034
 217	2.1492e+01	2.1449	-7.160878	0.000254	2.537784	0.429912	0.000025
 218	2.1591e+01	2.1568	-7.127476	0.000336	3.356423	0.568594	0.000034
 219	2.1691e+01	2.1678	-7.100999	0.000266	2.660580	0.450714	0.000027
 220	2.1791e+01	2.1773	-7.068819	0.000323	3.233627	0.547791	0.000032
 221	2.1890e+01	2.1866	-7.036232	0.000327	3.274559	0.554725	0.000033
 222	2.1989e+01	2.1912	-7.010162	0.000262	2.619648	0.443780	0.000026
 223	2.2089e+01	2.2049	-6.977574	0.000327	3.274559	0.554725	0.000033
 224	2.2189e+01	2.2142	-6.944579	0.000332	3.315491	0.561659	0.000033
 225	2.2288e+01	2.2253	-6.914029	0.000307	3.069899	0.520055	0.000031
 226	2.2387e+01	2.2324	-6.886330	0.000278	2.783376	0.471517	0.000028
 227	2.2487e+01	2.2443	-6.856593	0.000299	2.988035	0.506187	0.000030
 228	2.2587e+01	2.2514	-6.828080	0.000287	2.865240	0.485385	0.000029
 229	2.2686e+01	2.2671	-6.796714	0.000315	3.151763	0.533923	0.000032
 230	2.2785e+01	2.2736	-6.766163	0.000307	3.069899	0.520055	0.000031
 231	2.2885e+01	2.2849	-6.734391	0.000319	3.192695	0.540857	0.000032
 232	2.2985e+01	2.2954	-6.710765	0.000237	2.374056	0.402176	0.000024
 233	2.3084e+01	2.3040	-6.678992	0.000319	3.192695	0.540857	0.000032
 234	2.3183e+01	2.3145	-6.648441	0.000307	3.069899	0.520055	0.000031
 235	2.3283e+01	2.3230	-6.614225	0.000344	3.438287	0.582462	0.000034
 236	2.3383e+01	2.3323	-6.588969	0.000254	2.537784	0.429912	0.000025
 237	2.3482e+01	2.3463	-6.551494	0.000377	3.765743	0.637934	0.000038
 238	2.3581e+01	2.3544	-6.525017	0.000266	2.660580	0.450714	0.000027
 239	2.3681e+01	2.3643	-6.491207	0.000340	3.397355	0.575528	0.000034
 240	2.3780e+01	2.3737	-6.455361	0.000360	3.602015	0.610198	0.000036
 241	2.3880e+01	2.3862	-6.430106	0.000254	2.537784	0.429912	0.000025
 242	2.3980e+01	2.3890	-6.396296	0.000340	3.397355	0.575528	0.000034
 243	2.4079e+01	2.4032	-6.364116	0.000323	3.233627	0.547791	0.000032
 244	2.4178e+01	2.4120	-6.334380	0.000299	2.988035	0.506187	0.000030
 245	2.4278e+01	2.4225	-6.303015	0.000315	3.151763	0.533923	0.000032
 246	2.4378e+01	2.4322	-6.271242	0.000319	3.192695	0.540857	0.000032
 247	2.4477e+01	2.4458	-6.238655	0.000327	3.274559	0.554725	0.000033
 248	2.4576e+01	2.4538	-6.208104	0.000307	3.069899	0.520055	0.000031
 249	2.4676e+01	2.4636	-6.178368	0.000299	2.988035	0.506187	0.000030
 250	2.4776e+01	2.4710	-6.144151	0.000344	3.438287	0.582462	0.000034
 251	2.4875e+01	2.4842	-6.112379	0.000319	3.192695	0.540857	0.000032
 252	2.4974e+01	2.4915	-6.080606	0.000319	3.192695	0.540857	0.000032
 253	2.5074e+01	2.5056	-6.052092	0.000287	2.865240	0.485385	0.000029
 254	2.5174e+01	2.5123	-6.017060	0.000352	3.520151	0.596330	0.000035
 255	2.5273e+01	2.5248	-5.988954	0.000282	2.824308	0.478451	0.000028
 256	2.5372e+01	2.5339	-5.952293	0.000368	3.683879	0.624066	0.000037
 257	2.5472e+01	2.5424	-5.927852	0.000246	2.455920	0.416044	0.000025
 258	2.5572e+01	2.5531	-5.890784	0.000372	3.724811	0.631000	0.000037
 259	2.5671e+01	2.5625	-5.859419	0.000315	3.151763	0.533923	0.000032
 260	2.5770e+01	2.5732	-5.830905	0.000287	2.865240	0.485385	0.000029
 261	2.5870e+01	2.5823	-5.797910	0.000332	3.315491	0.561659	0.000033
 262	2.5970e+01	2.5945	-5.770618	0.000274	2.742444	0.464583	0.000027
 263	2.6069e+01	2.6039	-5.737216	0.000336	3.356423	0.568594	0.000034
 264	2.6169e+01	2.6104	-5.705443	0.000319	3.192695	0.540857	0.000032
 265	2.6268e+01	2.6226	-5.673263	0.000323	3.233627	0.547791	0.000032
 266	2.6367e+01	2.6325	-5.645971	0.000274	2.742444	0.464583	0.000027
 267	2.6467e+01	2.6433	-5.621531	0.000246	2.455920	0.416044	0.000025
 268	2.6567e+01	2.6498	-5.586092	0.000356	3.561083	0.603264	0.000036
 269	2.6666e+01	2.6616	-5.557171	0.000291	2.906172	0.492319	0.000029
 270	2.6765e+01	2.6717	-5.524583	0.000327	3.274559	0.554725	0.000033
 271	2.6865e+01	2.6788	-5.492403	0.000323	3.233627	0.547791	0.000032
 272	2.6965e+01	2.6951	-5.460223	0.000323	3.233627	0.547791	0.000032
 273	2.7064e+01	2.7016	-5.429673	0.000307	3.069899	0.520055	0.000031
 274	2.7163e+01	2.7106	-5.401159	0.000287	2.865240	0.485385	0.000029
 275	2.7263e+01	2.7221	-5.372237	0.000291	2.906172	0.492319	0.000029
 276	2.7363e+01	2.7308	-5.338428	0.000340	3.397355	0.575528	0.000034
 277	2.7462e+01	2.7439	-5.313580	0.000250	2.496852	0.422978	0.000025
 278	2.7561e+01	2.7483	-5.280585	0.000332	3.315491	0.561659	0.000033
 279	2.7661e+01	2.7624	-5.249627	0.000311	3.110831	0.526989	0.000031
 280	2.7761e+01	2.7741	-5.219484	0.000303	3.028967	0.513121	0.000030
 281	2.7860e+01	2.7818	-5.187304	0.000323	3.233627	0.547791	0.000032
 282	2.7959e+01	2.7914	-5.161641	0.000258	2.578716	0.436846	0.000026
 283	2.8059e+01	2.8034	-5.123351	0.000385	3.847607	0.651802	0.000038
 284	2.8159e+01	2.8125	-5.091986	0.000315	3.151763	0.533923	0.000032
 285	2.8258e+01	2.8224	-5.058583	0.000336	3.356423	0.568594	0.000034
 286	2.8358e+01	2.8314	-5.029255	0.000295	2.947103	0.499253	0.000029
 287	2.8457e+01	2.8403	-4.993816	0.000356	3.561083	0.603264	0.000036
 288	2.8556e+01	2.8519	-4.962043	0.000319	3.192695	0.540857	0.000032
 289	2.8656e+01	2.8611	-4.933122	0.000291	2.906172	0.492319	0.000029
 290	2.8756e+01	2.8676	-4.900942	0.000323	3.233627	0.547791	0.000032
 291	2.8855e+01	2.8806	-4.872835	0.000282	2.824308	0.478451	0.000028
 292	2.8954e+01	2.8921	-4.839433	0.000336	3.356423	0.568594	0.000034
 293	2.9054e+01	2.9028	-4.806438	0.000332	3.315491	0.561659	0.000033
 294	2.9154e+01	2.9150	-4.774666	0.000319	3.192695	0.540857	0.000032
 295	2.9253e+01	2.9207	-4.740042	0.000348	3.479219	0.589396	0.000035
 296	2.9352e+01	2.9321	-4.707454	0.000327	3.274559	0.554725	0.000033
 297	2.9452e+01	2.9409	-4.676496	0.000311	3.110831	0.526989	0.000031
 298	2.9552e+01	2.9510	-4.643094	0.000336	3.356423	0.568594	0.000034
 299	2.9651e+01	2.9635	-4.608470	0.000348	3.479219	0.589396	0.000035
 300	2.9750e+01	2.9690	-4.577105	0.000315	3.151763	0.533923	0.000032
 301	2.9850e+01	2.9801	-4.542073	0.000352	3.520151	0.596330	0.000035
 302	2.9950e+01	2.9918	-4.507042	0.000352	3.520151	0.596330	0.000035
 303	3.0049e+01	3.0012	-4.474862	0.000323	3.233627	0.547791	0.000032
 304	3.0148e+01	3.0112	-4.441460	0.000336	3.356423	0.568594	0.000034
 305	3.0248e+01	3.0207	-4.404799	0.000368	3.683879	0.624066	0.000037
 306	3.0348e+01	3.0328	-4.374248	0.000307	3.069899	0.520055	0.000031
 307	3.0447e+01	3.0394	-4.338809	0.000356	3.561083	0.603264	0.000036
 308	3.0547e+01	3.0533	-4.307444	0.000315	3.151763	0.533923	0.000032
 309	3.0646e+01	3.0587	-4.272412	0.000352	3.520151	0.596330	0.000035
 310	3.0745e+01	3.0688	-4.238603	0.000340	3.397355	0.575528	0.000034
 311	3.0845e+01	3.0811	-4.206016	0.000327	3.274559	0.554725	0.000033
 312	3.0945e+01	3.0889	-4.172613	0.000336	3.356423	0.568594	0.000034
 313	3.1044e+01	3.1017	-4.137582	0.000352	3.520151	0.596330	0.000035
 314	3.1143e+01	3.1110	-4.104180	0.000336	3.356423	0.568594	0.000034
 315	3.1243e+01	3.1210	-4.072407	0.000319	3.192695	0.540857	0.000032
 316	3.1343e+01	3.1324	-4.036561	0.000360	3.602015	0.610198	0.000036
 317	3.1442e+01	3.1403	-4.001122	0.000356	3.561083	0.603264	0.000036
 318	3.1541e+01	3.1501	-3.966091	0.000352	3.520151	0.596330	0.000035
 319	3.1641e+01	3.1612	-3.935540	0.000307	3.069899	0.520055	0.000031
 320	3.1741e+01	3.1713	-3.906211	0.000295	2.947103	0.499253	0.000029
 321	3.1840e+01	3.1812	-3.868329	0.000381	3.806675	0.644868	0.000038
 322	3.1939e+01	3.1873	-3.840222	0.000282	2.824308	0.478451	0.000028
 323	3.2039e+01	3.1979	-3.805598	0.000348	3.479219	0.589396	0.000035
 324	3.2139e+01	3.2084	-3.773418	0.000323	3.233627	0.547791	0.000032
 325	3.2238e+01	3.2156	-3.743682	0.000299	2.988035	0.506187	0.000030
 326	3.2337e+01	3.2281	-3.710280	0.000336	3.356423	0.568594	0.000034
 327	3.2437e+01	3.2397	-3.677692	0.000327	3.274559	0.554725	0.000033
 328	3.2536e+01	3.2499	-3.647142	0.000307	3.069899	0.520055	0.000031
 329	3.2636e+01	3.2580	-3.616184	0.000311	3.110831	0.526989	0.000031
 330	3.2736e+01	3.2675	-3.584411	0.000319	3.192695	0.540857	0.000032
 331	3.2835e+01	3.2796	-3.552231	0.000323	3.233627	0.547791	0.000032
 332	3.2934e+01	3.2888	-3.521273	0.000311	3.110831	0.526989	0.000031
 333	3.3034e+01	3.2990	-3.490315	0.000311	3.110831	0.526989	0.000031
 334	3.3133e+01	3.3118	-3.459764	0.000307	3.069899	0.520055	0.000031
 335	3.3233e+01	3.3206	-3.422288	0.000377	3.765743	0.637934	0.000038
 336	3.3333e+01	3.3297	-3.392552	0.000299	2.988035	0.506187	0.000030
 337	3.3432e+01	3.3392	-3.359965	0.000327	3.274559	0.554725	0.000033
 338	3.3532e+01	3.3487	-3.329414	0.000307	3.069899	0.520055	0.000031
 339	3.3631e+01	3.3594	-3.301715	0.000278	2.783376	0.471517	0.000028
 340	3.3730e+01	3.3673	-3.267091	0.000348	3.479219	0.589396	0.000035
 341	3.3830e+01	3.3801	-3.236133	0.000311	3.110831	0.526989	0.000031
 342	3.3929e+01	3.3889	-3.205582	0.000307	3.069899	0.520055	0.000031
 343	3.4029e+01	3.4007	-3.173402	0.000323	3.233627	0.547791	0.000032
 344	3.4129e+01	3.4109	-3.143666	0.000299	2.988035	0.506187	0.000030
 345	3.4228e+01	3.4190	-3.109449	0.000344	3.438287	0.582462	0.000034
 346	3.4328e+01	3.4272	-3.079713	0.000299	2.988035	0.506187	0.000030
 347	3.4427e+01	3.4389	-3.045497	0.000344	3.438287	0.582462	0.000034
 348	3.4526e+01	3.4484	-3.014131	0.000315	3.151763	0.533923	0.000032
 349	3.4626e+01	3.4597	-2.978692	0.000356	3.561083	0.603264	0.000036
 350	3.4725e+01	3.4692	-2.949364	0.000295	2.947103	0.499253	0.000029
 351	3.4825e+01	3.4778	-2.914740	0.000348	3.479219	0.589396	0.000035
 352	3.4925e+01	3.4885	-2.885818	0.000291	2.906172	0.492319	0.000029
 353	3.5024e+01	3.4995	-2.852824	0.000332	3.315491	0.561659	0.000033
 354	3.5123e+01	3.5085	-2.823088	0.000299	2.988035	0.506187	0.000030
 355	3.5223e+01	3.5175	-2.786427	0.000368	3.683879	0.624066	0.000037
 356	3.5322e+01	3.5288	-2.758727	0.000278	2.783376	0.471517	0.000028
 357	3.5422e+01	3.5372	-2.725733	0.000332	3.315491	0.561659	0.000033
 358	3.5522e+01	3.5503	-2.693145	0.000327	3.274559	0.554725	0.000033
 359	3.5621e+01	3.5586	-2.657706	0.000356	3.561083	0.603264	0.000036
 360	3.5721e+01	3.5659	-2.629600	0.000282	2.824308	0.478451	0.000028
 361	3.5820e+01	3.5783	-2.595790	0.000340	3.397355	0.575528	0.000034
 362	3.5919e+01	3.5894	-2.563203	0.000327	3.274559	0.554725	0.000033
 363	3.6019e+01	3.5983	-2.533874	0.000295	2.947103	0.499253	0.000029
 364	3.6118e+01	3.6082	-2.498843	0.000352	3.520151	0.596330	0.000035
 365	3.6218e+01	3.6156	-2.466255	0.000327	3.274559	0.554725	0.000033
 366	3.6318e+01	3.6299	-2.438556	0.000278	2.783376	0.471517	0.000028
 367	3.6417e+01	3.6366	-2.408005	0.000307	3.069899	0.520055	0.000031
 368	3.6517e+01	3.6471	-2.377047	0.000311	3.110831	0.526989	0.000031
 369	3.6616e+01	3.6588	-2.347311	0.000299	2.988035	0.506187	0.000030
 370	3.6715e+01	3.6674	-2.315131	0.000323	3.233627	0.547791	0.000032
 371	3.6815e+01	3.6785	-2.287839	0.000274	2.742444	0.464583	0.000027
 372	3.6914e+01	3.6880	-2.256881	0.000311	3.110831	0.526989	0.000031
 373	3.7014e+01	3.6971	-2.229182	0.000278	2.783376	0.471517	0.000028
 374	3.7114e+01	3.7075	-2.196187	0.000332	3.315491	0.561659	0.000033
 375	3.7213e+01	3.7171	-2.165229	0.000311	3.110831	0.526989	0.000031
 376	3.7313e+01	3.7275	-2.137530	0.000278	2.783376	0.471517	0.000028
 377	3.7412e+01	3.7338	-2.107387	0.000303	3.028967	0.513121	0.000030
 378	3.7511e+01	3.7486	-2.079687	0.000278	2.783376	0.471517	0.000028
 379	3.7611e+01	3.7572	-2.047915	0.000319	3.192695	0.540857	0.000032
 380	3.7711e+01	3.7664	-2.017771	0.000303	3.028967	0.513121	0.000030
 381	3.7810e+01	3.7764	-1.988850	0.000291	2.906172	0.492319	0.000029
 382	3.7910e+01	3.7865	-1.961965	0.000270	2.701512	0.457648	0.000027
 383	3.8009e+01	3.7950	-1.926934	0.000352	3.520151	0.596330	0.000035
 384	3.8108e+01	3.8066	-1.901271	0.000258	2.578716	0.436846	0.000026
 385	3.8208e+01	3.8168	-1.877238	0.000241	2.414988	0.409110	0.000024
 386	3.8307e+01	3.8267	-1.850354	0.000270	2.701512	0.457648	0.000027
 387	3.8407e+01	3.8363	-1.823062	0.000274	2.742444	0.464583	0.000027
 388	3.8507e+01	3.8477	-1.795770	0.000274	2.742444	0.464583	0.000027
 389	3.8606e+01	3.8548	-1.765626	0.000303	3.028967	0.513121	0.000030
 390	3.8706e+01	3.8647	-1.738742	0.000270	2.701512	0.457648	0.000027
 391	3.8805e+01	3.8770	-1.708191	0.000307	3.069899	0.520055	0.000031
 392	3.8904e+01	3.8860	-1.684158	0.000241	2.414988	0.409110	0.000024
 393	3.9004e+01	3.8965	-1.653200	0.000311	3.110831	0.526989	0.000031
 394	3.9103e+01	3.9082	-1.624278	0.000291	2.906172	0.492319	0.000029
 395	3.9203e+01	3.9163	-1.601060	0.000233	2.333124	0.395242	0.000023
 396	3.9303e+01	3.9260	-1.572546	0.000287	2.865240	0.485385	0.000029
 397	3.9402e+01	3.9346	-1.544439	0.000282	2.824308	0.478451	0.000028
 398	3.9502e+01	3.9449	-1.515111	0.000295	2.947103	0.499253	0.000029
 399	3.9601e+01	3.9573	-1.488226	0.000270	2.701512	0.457648	0.000027
 400	3.9700e+01	3.9672	-1.464193	0.000241	2.414988	0.409110	0.000024
 401	3.9800e+01	3.9764	-1.431605	0.000327	3.274559	0.554725	0.000033
 402	3.9900e+01	3.9854	-1.409202	0.000225	2.251260	0.381374	0.000023
 403	3.9999e+01	3.9977	-1.381502	0.000278	2.783376	0.471517	0.000028
 404	4.0099e+01	4.0041	-1.352581	0.000291	2.906172	0.492319	0.000029
 405	4.0198e+01	4.0154	-1.322438	0.000303	3.028967	0.513121	0.000030
 406	4.0297e+01	4.0235	-1.294738	0.000278	2.783376	0.471517	0.000028
 407	4.0397e+01	4.0376	-1.263780	0.000311	3.110831	0.526989	0.000031
 408	4.0496e+01	4.0428	-1.235266	0.000287	2.865240	0.485385	0.000029
 409	4.0596e+01	4.0566	-1.205530	0.000299	2.988035	0.506187	0.000030
 410	4.0696e+01	4.0661	-1.179460	0.000262	2.619648	0.443780	0.000026
 411	4.0795e+01	4.0743	-1.145651	0.000340	3.397355	0.575528	0.000034
 412	4.0895e+01	4.0853	-1.119174	0.000266	2.660580	0.450714	0.000027
 413	4.0994e+01	4.0952	-1.090660	0.000287	2.865240	0.485385	0.000029
 414	4.1093e+01	4.1055	-1.062553	0.000282	2.824308	0.478451	0.000028
 415	4.1193e+01	4.1181	-1.031188	0.000315	3.151763	0.533923	0.000032
 416	4.1292e+01	4.1228	-1.001044	0.000303	3.028967	0.513121	0.000030
 417	4.1392e+01	4.1359	-0.972123	0.000291	2.906172	0.492319	0.000029
 418	4.1492e+01	4.1485	-0.945238	0.000270	2.701512	0.457648	0.000027
 419	4.1591e+01	4.1553	-0.912651	0.000327	3.274559	0.554725	0.000033
 420	4.1691e+01	4.1653	-0.889432	0.000233	2.333124	0.395242	0.000023
 421	4.1790e+01	4.1776	-0.861326	0.000282	2.824308	0.478451	0.000028
 422	4.1889e+01	4.1814	-0.828738	0.000327	3.274559	0.554725	0.000033
 423	4.1989e+01	4.1955	-0.801854	0.000270	2.701512	0.457648	0.000027
 424	4.2089e+01	4.2047	-0.769266	0.000327	3.274559	0.554725	0.000033
 425	4.2188e+01	4.2130	-0.741974	0.000274	2.742444	0.464583	0.000027
 426	4.2288e+01	4.2234	-0.712646	0.000295	2.947103	0.499253	0.000029
 427	4.2387e+01	4.2335	-0.682502	0.000303	3.028967	0.513121	0.000030
 428	4.2486e+01	4.2448	-0.654396	0.000282	2.824308	0.478451	0.000028
 429	4.2586e+01	4.2545	-0.627511	0.000270	2.701512	0.457648	0.000027
 430	4.2685e+01	4.2654	-0.598590	0.000291	2.906172	0.492319	0.000029
 431	4.2785e+01	4.2741	-0.569669	0.000291	2.906172	0.492319	0.000029
 432	4.2885e+01	4.2831	-0.544006	0.000258	2.578716	0.436846	0.000026
 433	4.2984e+01	4.2951	-0.515085	0.000291	2.906172	0.492319	0.000029
 434	4.3084e+01	4.3043	-0.487793	0.000274	2.742444	0.464583	0.000027
 435	4.3183e+01	4.3132	-0.460908	0.000270	2.701512	0.457648	0.000027
 436	4.3282e+01	4.3262	-0.434838	0.000262	2.619648	0.443780	0.000026
 437	4.3382e+01	4.3330	-0.405102	0.000299	2.988035	0.506187	0.000030
 438	4.3481e+01	4.3445	-0.377810	0.000274	2.742444	0.464583	0.000027
 439	4.3581e+01	4.3552	-0.347260	0.000307	3.069899	0.520055	0.000031
 440	4.3681e+01	4.3645	-0.320375	0.000270	2.701512	0.457648	0.000027
 441	4.3780e+01	4.3713	-0.291046	0.000295	2.947103	0.499253	0.000029
 442	4.3880e+01	4.3827	-0.265791	0.000254	2.537784	0.429912	0.000025
 443	4.3979e+01	4.3931	-0.235648	0.000303	3.028967	0.513121	0.000030
 444	4.4078e+01	4.4054	-0.206319	0.000295	2.947103	0.499253	0.000029
 445	4.4178e+01	4.4134	-0.181878	0.000246	2.455920	0.416044	0.000025
 446	4.4278e+01	4.4239	-0.152142	0.000299	2.988035	0.506187	0.000030
 447	4.4377e+01	4.4335	-0.125665	0.000266	2.660580	0.450714	0.000027
 448	4.4477e+01	4.4411	-0.100003	0.000258	2.578716	0.436846	0.000026
 449	4.4576e+01	4.4491	-0.068230	0.000319	3.192695	0.540857	0.000032
 450	4.4675e+01	4.4625	-0.043382	0.000250	2.496852	0.422978	0.000025
 451	4.4775e+01	4.4724	-0.014053	0.000295	2.947103	0.499253	0.000029
 452	4.4874e+01	4.4839	0.020571	0.000348	3.479219	0.589396	0.000035
 453	4.4974e+01	4.4941	0.046233	0.000258	2.578716	0.436846	0.000026
 454	4.5074e+01	4.5059	0.079635	0.000336	3.356423	0.568594	0.000034
 455	4.5173e+01	4.5133	0.105298	0.000258	2.578716	0.436846	0.000026
 456	4.5273e+01	4.5255	0.136256	0.000311	3.110831	0.526989	0.000031
 457	4.5372e+01	4.5312	0.161919	0.000258	2.578716	0.436846	0.000026
 458	4.5471e+01	4.5419	0.193691	0.000319	3.192695	0.540857	0.000032
 459	4.5571e+01	4.5535	0.224242	0.000307	3.069899	0.520055	0.000031
 460	4.5670e+01	4.5623	0.252349	0.000282	2.824308	0.478451	0.000028
 461	4.5770e+01	4.5718	0.280455	0.000282	2.824308	0.478451	0.000028
 462	4.5870e+01	4.5824	0.308562	0.000282	2.824308	0.478451	0.000028
 463	4.5969e+01	4.5947	0.340742	0.000323	3.233627	0.547791	0.000032
 464	4.6069e+01	4.6009	0.372515	0.000319	3.192695	0.540857	0.000032
 465	4.6168e+01	4.6114	0.402251	0.000299	2.988035	0.506187	0.000030
 466	4.6267e+01	4.6204	0.433209	0.000311	3.110831	0.526989	0.000031
 467	4.6367e+01	4.6323	0.458871	0.000258	2.578716	0.436846	0.000026
 468	4.6467e+01	4.6407	0.493088	0.000344	3.438287	0.582462	0.000034
 469	4.6566e+01	4.6534	0.526083	0.000332	3.315491	0.561659	0.000033
 470	4.6666e+01	4.6629	0.554597	0.000287	2.865240	0.485385	0.000029
 471	4.6765e+01	4.6738	0.585148	0.000307	3.069899	0.520055	0.000031
 472	4.6864e+01	4.6816	0.616513	0.000315	3.151763	0.533923	0.000032
 473	4.6964e+01	4.6942	0.651137	0.000348	3.479219	0.589396	0.000035
 474	4.7063e+01	4.7018	0.677207	0.000262	2.619648	0.443780	0.000026
 475	4.7163e+01	4.7124	0.711831	0.000348	3.479219	0.589396	0.000035
 476	4.7263e+01	4.7226	0.744011	0.000323	3.233627	0.547791	0.000032
 477	4.7362e+01	4.7308	0.770081	0.000262	2.619648	0.443780	0.000026
 478	4.7462e+01	4.7414	0.803891	0.000340	3.397355	0.575528	0.000034
 479	4.7561e+01	4.7509	0.832812	0.000291	2.906172	0.492319	0.000029
 480	4.7660e+01	4.7624	0.866621	0.000340	3.397355	0.575528	0.000034
 481	4.7760e+01	4.7723	0.898801	0.000323	3.233627	0.547791	0.000032
 482	4.7859e+01	4.7865	0.927315	0.000287	2.865240	0.485385	0.000029
 483	4.7959e+01	4.7945	0.960717	0.000336	3.356423	0.568594	0.000034
 484	4.8059e+01	4.8035	0.993712	0.000332	3.315491	0.561659	0.000033
 485	4.8158e+01	4.8136	1.020597	0.000270	2.701512	0.457648	0.000027
 486	4.8258e+01	4.8223	1.052369	0.000319	3.192695	0.540857	0.000032
 487	4.8357e+01	4.8311	1.080476	0.000282	2.824308	0.478451	0.000028
 488	4.8456e+01	4.8408	1.115508	0.000352	3.520151	0.596330	0.000035
 489	4.8556e+01	4.8498	1.142800	0.000274	2.742444	0.464583	0.000027
 490	4.8656e+01	4.8678	1.172943	0.000303	3.028967	0.513121	0.000030
 491	4.8755e+01	4.8701	1.199013	0.000262	2.619648	0.443780	0.000026
 492	4.8855e+01	4.8817	1.232822	0.000340	3.397355	0.575528	0.000034
 493	4.8954e+01	4.8916	1.260114	0.000274	2.742444	0.464583	0.000027
 494	4.9053e+01	4.9010	1.287813	0.000278	2.783376	0.471517	0.000028
 495	4.9153e+01	4.9122	1.315920	0.000282	2.824308	0.478451	0.000028
 496	4.9252e+01	4.9203	1.344027	0.000282	2.824308	0.478451	0.000028
 497	4.9352e+01	4.9270	1.376614	0.000327	3.274559	0.554725	0.000033
 498	4.9452e+01	4.9399	1.407165	0.000307	3.069899	0.520055	0.000031
 499	4.9551e+01	4.9496	1.434457	0.000274	2.742444	0.464583	0.000027
 500	4.9651e+01	4.9615	1.465822	0.000315	3.151763	0.533923	0.000032
 501	4.9750e+01	4.9721	1.494336	0.000287	2.865240	0.485385	0.000029
 502	4.9849e+01	4.9808	1.525294	0.000311	3.110831	0.526989	0.000031
 503	4.9949e+01	4.9902	1.551771	0.000266	2.660580	0.450714	0.000027
 504	5.0048e+01	5.0014	1.579063	0.000274	2.742444	0.464583	0.000027
 505	5.0148e+01	5.0102	1.608392	0.000295	2.947103	0.499253	0.000029
 506	5.0248e+01	5.0199	1.637721	0.000295	2.947103	0.499253	0.000029
 507	5.0347e+01	5.0301	1.666642	0.000291	2.906172	0.492319	0.000029
 508	5.0447e+01	5.0393	1.693119	0.000266	2.660580	0.450714	0.000027
 509	5.0546e+01	5.0510	1.721633	0.000287	2.865240	0.485385	0.000029
 510	5.0645e+01	5.0599	1.751777	0.000303	3.028967	0.513121	0.000030
 511	5.0745e+01	5.0703	1.777847	0.000262	2.619648	0.443780	0.000026
 512	5.0844e+01	5.0808	1.808397	0.000307	3.069899	0.520055	0.000031
 513	5.0944e+01	5.0898	1.835282	0.000270	2.701512	0.457648	0.000027
 514	5.1044e+01	5.1015	1.865425	0.000303	3.028967	0.513121	0.000030
 515	5.1143e+01	5.1110	1.893532	0.000282	2.824308	0.478451	0.000028
 516	5.1242e+01	5.1210	1.925305	0.000319	3.192695	0.540857	0.000032
 517	5.1342e+01	5.1321	1.957892	0.000327	3.274559	0.554725	0.000033
 518	5.1441e+01	5.1405	1.987628	0.000299	2.988035	0.506187	0.000030
 519	5.1541e+01	5.1487	2.017364	0.000299	2.988035	0.506187	0.000030
 520	5.1641e+01	5.1598	2.045471	0.000282	2.824308	0.478451	0.000028
 521	5.1740e+01	5.1685	2.073577	0.000282	2.824308	0.478451	0.000028
 522	5.1840e+01	5.1800	2.102906	0.000295	2.947103	0.499253	0.000029
 523	5.1939e+01	5.1890	2.130198	0.000274	2.742444	0.464583	0.000027
 524	5.2038e+01	5.1996	2.159934	0.000299	2.988035	0.506187	0.000030
 525	5.2138e+01	5.2090	2.189670	0.000299	2.988035	0.506187	0.000030
 526	5.2237e+01	5.2221	2.218999	0.000295	2.947103	0.499253	0.000029
 527	5.2337e+01	5.2296	2.249957	0.000311	3.110831	0.526989	0.000031
 528	5.2437e+01	5.2406	2.279285	0.000295	2.947103	0.499253	0.000029
 529	5.2536e+01	5.2517	2.309429	0.000303	3.028967	0.513121	0.000030
 530	5.2636e+01	5.2602	2.338350	0.000291	2.906172	0.492319	0.000029
 531	5.2735e+01	5.2691	2.369308	0.000311	3.110831	0.526989	0.000031
 532	5.2834e+01	5.2796	2.397822	0.000287	2.865240	0.485385	0.000029
 533	5.2934e+01	5.2905	2.426743	0.000291	2.906172	0.492319	0.000029
 534	5.3033e+01	5.2996	2.453221	0.000266	2.660580	0.450714	0.000027
 535	5.3133e+01	5.3091	2.482957	0.000299	2.988035	0.506187	0.000030
 536	5.3233e+01	5.3205	2.509434	0.000266	2.660580	0.450714	0.000027
 537	5.3332e+01	5.3265	2.537540	0.000282	2.824308	0.478451	0.000028
 538	5.3431e+01	5.3387	2.562388	0.000250	2.496852	0.422978	0.000025
 539	5.3531e+01	5.3536	2.593346	0.000311	3.110831	0.526989	0.000031
 540	5.3630e+01	5.3587	2.619824	0.000266	2.660580	0.450714	0.000027
 541	5.3730e+01	5.3712	2.647523	0.000278	2.783376	0.471517	0.000028
 542	5.3830e+01	5.3786	2.671963	0.000246	2.455920	0.416044	0.000025
 543	5.3929e+01	5.3887	2.702922	0.000311	3.110831	0.526989	0.000031
 544	5.4029e+01	5.3971	2.728991	0.000262	2.619648	0.443780	0.000026
 545	5.4128e+01	5.4086	2.759949	0.000311	3.110831	0.526989	0.000031
 546	5.4227e+01	5.4162	2.784797	0.000250	2.496852	0.422978	0.000025
 547	5.4327e+01	5.4298	2.810460	0.000258	2.578716	0.436846	0.000026
 548	5.4426e+01	5.4364	2.839381	0.000291	2.906172	0.492319	0.000029
 549	5.4526e+01	5.4478	2.860970	0.000217	2.169396	0.367506	0.000022
 550	5.4626e+01	5.4586	2.890299	0.000295	2.947103	0.499253	0.000029
 551	5.4725e+01	5.4690	2.915554	0.000254	2.537784	0.429912	0.000025
 552	5.4825e+01	5.4777	2.940402	0.000250	2.496852	0.422978	0.000025
 553	5.4924e+01	5.4883	2.964843	0.000246	2.455920	0.416044	0.000025
 554	5.5023e+01	5.4990	2.989691	0.000250	2.496852	0.422978	0.000025
 555	5.5123e+01	5.5078	3.017797	0.000282	2.824308	0.478451	0.000028
 556	5.5222e+01	5.5173	3.039794	0.000221	2.210328	0.374440	0.000022
 557	5.5322e+01	5.5293	3.064234	0.000246	2.455920	0.416044	0.000025
 558	5.5422e+01	5.5384	3.089490	0.000254	2.537784	0.429912	0.000025
 559	5.5521e+01	5.5456	3.116782	0.000274	2.742444	0.464583	0.000027
 560	5.5620e+01	5.5604	3.141222	0.000246	2.455920	0.416044	0.000025
 561	5.5720e+01	5.5685	3.164441	0.000233	2.333124	0.395242	0.000023
 562	5.5819e+01	5.5762	3.190918	0.000266	2.660580	0.450714	0.000027
 563	5.5919e+01	5.5831	3.215766	0.000250	2.496852	0.422978	0.000025
 564	5.6019e+01	5.5975	3.241836	0.000262	2.619648	0.443780	0.000026
 565	5.6118e+01	5.6072	3.269535	0.000278	2.783376	0.471517	0.000028
 566	5.6218e+01	5.6190	3.290309	0.000209	2.087532	0.353637	0.000021
 567	5.6317e+01	5.6319	3.318009	0.000278	2.783376	0.471517	0.000028
 568	5.6416e+01	5.6377	3.341635	0.000237	2.374056	0.402176	0.000024
 569	5.6516e+01	5.6484	3.366483	0.000250	2.496852	0.422978	0.000025
 570	5.6615e+01	5.6600	3.389701	0.000233	2.333124	0.395242	0.000023
 571	5.6715e+01	5.6688	3.417808	0.000282	2.824308	0.478451	0.000028
 572	5.6815e+01	5.6791	3.441841	0.000241	2.414988	0.409110	0.000024
 573	5.6914e+01	5.6872	3.469133	0.000274	2.742444	0.464583	0.000027
 574	5.7014e+01	5.6940	3.496832	0.000278	2.783376	0.471517	0.000028
 575	5.7113e+01	5.7043	3.519236	0.000225	2.251260	0.381374	0.000023
 576	5.7212e+01	5.7189	3.546528	0.000274	2.742444	0.464583	0.000027
 577	5.7312e+01	5.7279	3.574227	0.000278	2.783376	0.471517	0.000028
 578	5.7411e+01	5.7376	3.600704	0.000266	2.660580	0.450714	0.000027
 579	5.7511e+01	5.7485	3.625960	0.000254	2.537784	0.429912	0.000025
 580	5.7611e+01	5.7574	3.651622	0.000258	2.578716	0.436846	0.000026
 581	5.7710e+01	5.7681	3.678507	0.000270	2.701512	0.457648	0.000027
 582	5.7809e+01	5.7774	3.707021	0.000287	2.865240	0.485385	0.000029
 583	5.7909e+01	5.7865	3.734313	0.000274	2.742444	0.464583	0.000027
 584	5.8008e+01	5.7977	3.760790	0.000266	2.660580	0.450714	0.000027
 585	5.8108e+01	5.8053	3.784416	0.000237	2.374056	0.402176	0.000024
 586	5.8208e+01	5.8170	3.811708	0.000274	2.742444	0.464583	0.000027
 587	5.8307e+01	5.8288	3.836556	0.000250	2.496852	0.422978	0.000025
 588	5.8407e+01	5.8353	3.865884	0.000295	2.947103	0.499253	0.000029
 589	5.8506e+01	5.8475	3.889510	0.000237	2.374056	0.402176	0.000024
 590	5.8605e+01	5.8561	3.915580	0.000262	2.619648	0.443780	0.000026
 591	5.8705e+01	5.8656	3.941650	0.000262	2.619648	0.443780	0.000026
 592	5.8804e+01	5.8755	3.972608	0.000311	3.110831	0.526989	0.000031
 593	5.8904e+01	5.8829	3.999493	0.000270	2.701512	0.457648	0.000027
 594	5.9004e+01	5.8962	4.025563	0.000262	2.619648	0.443780	0.000026
 595	5.9103e+01	5.9058	4.051225	0.000258	2.578716	0.436846	0.000026
 596	5.9203e+01	5.9148	4.075259	0.000241	2.414988	0.409110	0.000024
 597	5.9302e+01	5.9249	4.104180	0.000291	2.906172	0.492319	0.000029
 598	5.9401e+01	5.9327	4.127398	0.000233	2.333124	0.395242	0.000023
 599	5.9501e+01	5.9476	4.153061	0.000258	2.578716	0.436846	0.000026
 600	5.9600e+01	5.9557	4.173428	0.000205	2.046600	0.346703	0.000020
 601	5.9700e+01	5.9658	4.199905	0.000266	2.660580	0.450714	0.000027
 602	5.9800e+01	5.9768	4.228419	0.000287	2.865240	0.485385	0.000029
 603	5.9899e+01	5.9927	4.253267	0.000250	2.496852	0.422978	0.000025
 604	5.9998e+01	5.9954	4.282189	0.000291	2.906172	0.492319	0.000029
 605	6.0098e+01	6.0053	4.303778	0.000217	2.169396	0.367506	0.000022
 606	6.0197e+01	6.0146	4.329033	0.000254	2.537784	0.429912	0.000025
 607	6.0297e+01	6.0261	4.357954	0.000291	2.906172	0.492319	0.000029
 608	6.0397e+01	6.0371	4.382395	0.000246	2.455920	0.416044	0.000025
 609	6.0496e+01	6.0458	4.408057	0.000258	2.578716	0.436846	0.000026
 610	6.0596e+01	6.0548	4.431683	0.000237	2.374056	0.402176	0.000024
 611	6.0695e+01	6.0671	4.458975	0.000274	2.742444	0.464583	0.000027
 612	6.0794e+01	6.0743	4.485045	0.000262	2.619648	0.443780	0.000026
 613	6.0894e+01	6.0851	4.504598	0.000196	1.964736	0.332835	0.000020
 614	6.0993e+01	6.0943	4.527816	0.000233	2.333124	0.395242	0.000023
 615	6.1093e+01	6.1060	4.554701	0.000270	2.701512	0.457648	0.000027
 616	6.1193e+01	6.1160	4.584029	0.000295	2.947103	0.499253	0.000029
 617	6.1292e+01	6.1263	4.611321	0.000274	2.742444	0.464583	0.000027
 618	6.1392e+01	6.1378	4.634133	0.000229	2.292192	0.388308	0.000023
 619	6.1491e+01	6.1465	4.664683	0.000307	3.069899	0.520055	0.000031
 620	6.1590e+01	6.1544	4.687087	0.000225	2.251260	0.381374	0.000023
 621	6.1690e+01	6.1644	4.714786	0.000278	2.783376	0.471517	0.000028
 622	6.1789e+01	6.1752	4.743708	0.000291	2.906172	0.492319	0.000029
 623	6.1889e+01	6.1861	4.770592	0.000270	2.701512	0.457648	0.000027
 624	6.1989e+01	6.1967	4.796662	0.000262	2.619648	0.443780	0.000026
 625	6.2088e+01	6.2050	4.823139	0.000266	2.660580	0.450714	0.000027
 626	6.2188e+01	6.2141	4.850024	0.000270	2.701512	0.457648	0.000027
 627	6.2287e+01	6.2251	4.882204	0.000323	3.233627	0.547791	0.000032
 628	6.2386e+01	6.2341	4.902164	0.000201	2.005668	0.339769	0.000020
 629	6.2486e+01	6.2472	4.929049	0.000270	2.701512	0.457648	0.000027
 630	6.2586e+01	6.2549	4.957970	0.000291	2.906172	0.492319	0.000029
 631	6.2685e+01	6.2647	4.983632	0.000258	2.578716	0.436846	0.000026
 632	6.2785e+01	6.2746	5.011332	0.000278	2.783376	0.471517	0.000028
 633	6.2884e+01	6.2841	5.040660	0.000295	2.947103	0.499253	0.000029
 634	6.2983e+01	6.2951	5.067952	0.000274	2.742444	0.464583	0.000027
 635	6.3083e+01	6.3062	5.096466	0.000287	2.865240	0.485385	0.000029
 636	6.3182e+01	6.3129	5.125388	0.000291	2.906172	0.492319	0.000029
 637	6.3282e+01	6.3239	5.154716	0.000295	2.947103	0.499253	0.000029
 638	6.3382e+01	6.3323	5.185267	0.000307	3.069899	0.520055	0.000031
 639	6.3481e+01	6.3450	5.209300	0.000241	2.414988	0.409110	0.000024
 640	6.3581e+01	6.3514	5.239851	0.000307	3.069899	0.520055	0.000031
 641	6.3680e+01	6.3644	5.269587	0.000299	2.988035	0.506187	0.000030
 642	6.3779e+01	6.3746	5.296879	0.000274	2.742444	0.464583	0.000027
 643	6.3879e+01	6.3847	5.321319	0.000246	2.455920	0.416044	0.000025
 644	6.3978e+01	6.3934	5.352277	0.000311	3.110831	0.526989	0.000031
 645	6.4078e+01	6.4021	5.382013	0.000299	2.988035	0.506187	0.000030
 646	6.4177e+01	6.4142	5.410527	0.000287	2.865240	0.485385	0.000029
 647	6.4277e+01	6.4238	5.441078	0.000307	3.069899	0.520055	0.000031
 648	6.4376e+01	6.4350	5.471629	0.000307	3.069899	0.520055	0.000031
 649	6.4476e+01	6.4429	5.499328	0.000278	2.783376	0.471517	0.000028
 650	6.4576e+01	6.4524	5.523769	0.000246	2.455920	0.416044	0.000025
 651	6.4675e+01	6.4611	5.555134	0.000315	3.151763	0.533923	0.000032
 652	6.4775e+01	6.4727	5.582426	0.000274	2.742444	0.464583	0.000027
 653	6.4874e+01	6.4803	5.612977	0.000307	3.069899	0.520055	0.000031
 654	6.4974e+01	6.4913	5.641083	0.000282	2.824308	0.478451	0.000028
 655	6.5073e+01	6.5007	5.666339	0.000254	2.537784	0.429912	0.000025
 656	6.5172e+01	6.5121	5.698111	0.000319	3.192695	0.540857	0.000032
 657	6.5272e+01	6.5235	5.726625	0.000287	2.865240	0.485385	0.000029
 658	6.5371e+01	6.5325	5.747807	0.000213	2.128464	0.360572	0.000021
 659	6.5471e+01	6.5421	5.776321	0.000287	2.865240	0.485385	0.000029
 660	6.5570e+01	6.5530	5.805242	0.000291	2.906172	0.492319	0.000029
 661	6.5670e+01	6.5630	5.829276	0.000241	2.414988	0.409110	0.000024
 662	6.5769e+01	6.5734	5.857790	0.000287	2.865240	0.485385	0.000029
 663	6.5869e+01	6.5813	5.885082	0.000274	2.742444	0.464583	0.000027
 664	6.5969e+01	6.5911	5.911151	0.000262	2.619648	0.443780	0.000026
 665	6.6068e+01	6.6012	5.935999	0.000250	2.496852	0.422978	0.000025
 666	6.6168e+01	6.6120	5.961662	0.000258	2.578716	0.436846	0.000026
 667	6.6267e+01	6.6197	5.989769	0.000282	2.824308	0.478451	0.000028
 668	6.6367e+01	6.6320	6.019505	0.000299	2.988035	0.506187	0.000030
 669	6.6466e+01	6.6467	6.047611	0.000282	2.824308	0.478451	0.000028
 670	6.6566e+01	6.6506	6.073681	0.000262	2.619648	0.443780	0.000026
 671	6.6665e+01	6.6622	6.100973	0.000274	2.742444	0.464583	0.000027
 672	6.6764e+01	6.6723	6.126228	0.000254	2.537784	0.429912	0.000025
 673	6.6864e+01	6.6811	6.151484	0.000254	2.537784	0.429912	0.000025
 674	6.6963e+01	6.6946	6.177553	0.000262	2.619648	0.443780	0.000026
 675	6.7063e+01	6.7029	6.201587	0.000241	2.414988	0.409110	0.000024
 676	6.7162e+01	6.7117	6.228471	0.000270	2.701512	0.457648	0.000027
 677	6.7262e+01	6.7202	6.252097	0.000237	2.374056	0.402176	0.000024
 678	6.7362e+01	6.7327	6.280204	0.000282	2.824308	0.478451	0.000028
 679	6.7461e+01	6.7428	6.306681	0.000266	2.660580	0.450714	0.000027
 680	6.7561e+01	6.7522	6.332344	0.000258	2.578716	0.436846	0.000026
 681	6.7660e+01	6.7612	6.358821	0.000266	2.660580	0.450714	0.000027
 682	6.7760e+01	6.7709	6.388964	0.000303	3.028967	0.513121	0.000030
 683	6.7859e+01	6.7791	6.417071	0.000282	2.824308	0.478451	0.000028
 684	6.7959e+01	6.7920	6.446807	0.000299	2.988035	0.506187	0.000030
 685	6.8058e+01	6.8014	6.470025	0.000233	2.333124	0.395242	0.000023
 686	6.8157e+01	6.8141	6.501391	0.000315	3.151763	0.533923	0.000032
 687	6.8257e+01	6.8213	6.526239	0.000250	2.496852	0.422978	0.000025
 688	6.8356e+01	6.8288	6.555160	0.000291	2.906172	0.492319	0.000029
 689	6.8456e+01	6.8410	6.580823	0.000258	2.578716	0.436846	0.000026
 690	6.8555e+01	6.8484	6.607707	0.000270	2.701512	0.457648	0.000027
 691	6.8655e+01	6.8636	6.633370	0.000258	2.578716	0.436846	0.000026
 692	6.8754e+01	6.8727	6.661476	0.000282	2.824308	0.478451	0.000028
 693	6.8854e+01	6.8806	6.687954	0.000266	2.660580	0.450714	0.000027
 694	6.8954e+01	6.8922	6.715653	0.000278	2.783376	0.471517	0.000028
 695	6.9053e+01	6.9010	6.745389	0.000299	2.988035	0.506187	0.000030
 696	6.9153e+01	6.9120	6.769830	0.000246	2.455920	0.416044	0.000025
 697	6.9252e+01	6.9186	6.799158	0.000295	2.947103	0.499253	0.000029
 698	6.9352e+01	6.9295	6.826450	0.000274	2.742444	0.464583	0.000027
 699	6.9451e+01	6.9411	6.848039	0.000217	2.169396	0.367506	0.000022
 700	6.9550e+01	6.9540	6.876961	0.000291	2.906172	0.492319	0.000029
 701	6.9650e+01	6.9614	6.903845	0.000270	2.701512	0.457648	0.000027
 702	6.9749e+01	6.9711	6.929100	0.000254	2.537784	0.429912	0.000025
 703	6.9849e+01	6.9781	6.955170	0.000262	2.619648	0.443780	0.000026
 704	6.9948e+01	6.9930	6.980833	0.000258	2.578716	0.436846	0.000026
 705	7.0048e+01	7.0013	7.002829	0.000221	2.210328	0.374440	0.000022
 706	7.0147e+01	7.0107	7.030121	0.000274	2.742444	0.464583	0.000027
 707	7.0247e+01	7.0194	7.055377	0.000254	2.537784	0.429912	0.000025
 708	7.0347e+01	7.0309	7.080225	0.000250	2.496852	0.422978	0.000025
 709	7.0446e+01	7.0425	7.106294	0.000262	2.619648	0.443780	0.000026
 710	7.0546e+01	7.0525	7.128291	0.000221	2.210328	0.374440	0.000022
 711	7.0645e+01	7.0617	7.153139	0.000250	2.496852	0.422978	0.000025
 712	7.0745e+01	7.0705	7.180838	0.000278	2.783376	0.471517	0.000028
 713	7.0844e+01	7.0805	7.207723	0.000270	2.701512	0.457648	0.000027
 714	7.0944e+01	7.0893	7.228497	0.000209	2.087532	0.353637	0.000021
 715	7.1043e+01	7.0962	7.257011	0.000287	2.865240	0.485385	0.000029
 716	7.1142e+01	7.1113	7.282674	0.000258	2.578716	0.436846	0.000026
 717	7.1242e+01	7.1191	7.303041	0.000205	2.046600	0.346703	0.000020
 718	7.1341e+01	7.1286	7.329926	0.000270	2.701512	0.457648	0.000027
 719	7.1441e+01	7.1398	7.349885	0.000201	2.005668	0.339769	0.000020
 720	7.1540e+01	7.1469	7.375141	0.000254	2.537784	0.429912	0.000025
 721	7.1640e+01	7.1597	7.395508	0.000205	2.046600	0.346703	0.000020
 722	7.1740e+01	7.1690	7.417097	0.000217	2.169396	0.367506	0.000022
 723	7.1839e+01	7.1793	7.440315	0.000233	2.333124	0.395242	0.000023
 724	7.1939e+01	7.1870	7.463534	0.000233	2.333124	0.395242	0.000023
 725	7.2038e+01	7.2004	7.485123	0.000217	2.169396	0.367506	0.000022
 726	7.2138e+01	7.2085	7.514044	0.000291	2.906172	0.492319	0.000029
 727	7.2237e+01	7.2184	7.533597	0.000196	1.964736	0.332835	0.000020
 728	7.2337e+01	7.2303	7.553964	0.000205	2.046600	0.346703	0.000020
 729	7.2436e+01	7.2378	7.577997	0.000241	2.414988	0.409110	0.000024
 730	7.2535e+01	7.2478	7.602845	0.000250	2.496852	0.422978	0.000025
 731	7.2635e+01	7.2585	7.624842	0.000221	2.210328	0.374440	0.000022
 732	7.2734e+01	7.2686	7.649282	0.000246	2.455920	0.416044	0.000025
 733	7.2834e+01	7.2785	7.669242	0.000201	2.005668	0.339769	0.000020
 734	7.2933e+01	7.2895	7.696941	0.000278	2.783376	0.471517	0.000028
 735	7.3033e+01	7.2990	7.714457	0.000176	1.760076	0.298165	0.000018
 736	7.3132e+01	7.3085	7.738490	0.000241	2.414988	0.409110	0.000024
 737	7.3232e+01	7.3194	7.761301	0.000229	2.292192	0.388308	0.000023
 738	7.3332e+01	7.3269	7.785742	0.000246	2.455920	0.416044	0.000025
 739	7.3431e+01	7.3362	7.809775	0.000241	2.414988	0.409110	0.000024
 740	7.3531e+01	7.3504	7.831364	0.000217	2.169396	0.367506	0.000022
 741	7.3630e+01	7.3623	7.853361	0.000221	2.210328	0.374440	0.000022
 742	7.3730e+01	7.3728	7.882282	0.000291	2.906172	0.492319	0.000029
 743	7.3829e+01	7.3788	7.902242	0.000201	2.005668	0.339769	0.000020
 744	7.3928e+01	7.3910	7.931163	0.000291	2.906172	0.492319	0.000029
 745	7.4028e+01	7.3981	7.953160	0.000221	2.210328	0.374440	0.000022
 746	7.4127e+01	7.4113	7.980044	0.000270	2.701512	0.457648	0.000027
 747	7.4227e+01	7.4166	8.003670	0.000237	2.374056	0.402176	0.000024
 748	7.4326e+01	7.4281	8.026074	0.000225	2.251260	0.381374	0.000023
 749	7.4426e+01	7.4401	8.045219	0.000192	1.923804	0.325901	0.000019
 750	7.4525e+01	7.4483	8.072511	0.000274	2.742444	0.464583	0.000027
 751	7.4625e+01	7.4598	8.097766	0.000254	2.537784	0.429912	0.000025
 752	7.4725e+01	7.4683	8.121392	0.000237	2.374056	0.402176	0.000024
 753	7.4824e+01	7.4770	8.146647	0.000254	2.537784	0.429912	0.000025
 754	7.4924e+01	7.4871	8.174347	0.000278	2.783376	0.471517	0.000028
 755	7.5023e+01	7.5002	8.197973	0.000237	2.374056	0.402176	0.000024
 756	7.5123e+01	7.5062	8.220784	0.000229	2.292192	0.388308	0.000023
 757	7.5222e+01	7.5161	8.246039	0.000254	2.537784	0.429912	0.000025
 758	7.5322e+01	7.5278	8.270887	0.000250	2.496852	0.422978	0.000025
 759	7.5421e+01	7.5380	8.292883	0.000221	2.210328	0.374440	0.000022
 760	7.5520e+01	7.5454	8.320990	0.000282	2.824308	0.478451	0.000028
 761	7.5620e+01	7.5608	8.342986	0.000221	2.210328	0.374440	0.000022
 762	7.5719e+01	7.5697	8.371093	0.000282	2.824308	0.478451	0.000028
 763	7.5819e+01	7.5781	8.391053	0.000201	2.005668	0.339769	0.000020
 764	7.5918e+01	7.5858	8.415493	0.000246	2.455920	0.416044	0.000025
 765	7.6018e+01	7.5985	8.440341	0.000250	2.496852	0.422978	0.000025
 766	7.6118e+01	7.6075	8.462745	0.000225	2.251260	0.381374	0.000023
 767	7.6217e+01	7.6183	8.483927	0.000213	2.128464	0.360572	0.000021
 768	7.6317e+01	7.6271	8.508368	0.000246	2.455920	0.416044	0.000025
 769	7.6416e+01	7.6368	8.530364	0.000221	2.210328	0.374440	0.000022
 770	7.6516e+01	7.6465	8.553175	0.000229	2.292192	0.388308	0.000023
 771	7.6615e+01	7.6579	8.577208	0.000241	2.414988	0.409110	0.000024
 772	7.6715e+01	7.6675	8.600834	0.000237	2.374056	0.402176	0.000024
 773	7.6814e+01	7.6748	8.624053	0.000233	2.333124	0.395242	0.000023
 774	7.6913e+01	7.6849	8.650937	0.000270	2.701512	0.457648	0.000027
 775	7.7013e+01	7.6945	8.672527	0.000217	2.169396	0.367506	0.000022
 776	7.7112e+01	7.7057	8.694116	0.000217	2.169396	0.367506	0.000022
 777	7.7212e+01	7.7187	8.720593	0.000266	2.660580	0.450714	0.000027
 778	7.7311e+01	7.7295	8.742590	0.000221	2.210328	0.374440	0.000022
 779	7.7411e+01	7.7371	8.765808	0.000233	2.333124	0.395242	0.000023
 780	7.7510e+01	7.7483	8.789841	0.000241	2.414988	0.409110	0.000024
 781	7.7610e+01	7.7564	8.812652	0.000229	2.292192	0.388308	0.000023
 782	7.7710e+01	7.7663	8.835056	0.000225	2.251260	0.381374	0.000023
 783	7.7809e+01	7.7766	8.859089	0.000241	2.414988	0.409110	0.000024
 784	7.7909e+01	7.7876	8.881086	0.000221	2.210328	0.374440	0.000022
 785	7.8008e+01	7.7970	8.907156	0.000262	2.619648	0.443780	0.000026
 786	7.8108e+01	7.8078	8.932818	0.000258	2.578716	0.436846	0.000026
 787	7.8207e+01	7.8192	8.959296	0.000266	2.660580	0.450714	0.000027
 788	7.8306e+01	7.8259	8.980885	0.000217	2.169396	0.367506	0.000022
 789	7.8406e+01	7.8339	9.004103	0.000233	2.333124	0.395242	0.000023
 790	7.8505e+01	7.8455	9.033025	0.000291	2.906172	0.492319	0.000029
 791	7.8605e+01	7.8551	9.057873	0.000250	2.496852	0.422978	0.000025
 792	7.8704e+01	7.8667	9.083943	0.000262	2.619648	0.443780	0.000026
 793	7.8804e+01	7.8767	9.105939	0.000221	2.210328	0.374440	0.000022
 794	7.8903e+01	7.8892	9.130787	0.000250	2.496852	0.422978	0.000025
 795	7.9003e+01	7.8960	9.154820	0.000241	2.414988	0.409110	0.000024
 796	7.9103e+01	7.9039	9.181705	0.000270	2.701512	0.457648	0.000027
 797	7.9202e+01	7.9169	9.204923	0.000233	2.333124	0.395242	0.000023
 798	7.9302e+01	7.9261	9.233437	0.000287	2.865240	0.485385	0.000029
 799	7.9401e+01	7.9366	9.259915	0.000266	2.660580	0.450714	0.000027
 800	7.9501e+01	7.9423	9.279467	0.000196	1.964736	0.332835	0.000020
 801	7.9600e+01	7.9575	9.307574	0.000282	2.824308	0.478451	0.000028
 802	7.9700e+01	7.9672	9.334866	0.000274	2.742444	0.464583	0.000027
 803	7.9799e+01	7.9737	9.359713	0.000250	2.496852	0.422978	0.000025
 804	7.9898e+01	7.9836	9.390264	0.000307	3.069899	0.520055	0.000031
 805	7.9998e+01	7.9940	9.416334	0.000262	2.619648	0.443780	0.000026
 806	8.0097e+01	8.0061	9.442811	0.000266	2.660580	0.450714	0.000027
 807	8.0197e+01	8.0166	9.469289	0.000266	2.660580	0.450714	0.000027
 808	8.0296e+01	8.0246	9.494951	0.000258	2.578716	0.436846	0.000026
 809	8.0396e+01	8.0389	9.525095	0.000303	3.028967	0.513121	0.000030
 810	8.0496e+01	8.0460	9.552794	0.000278	2.783376	0.471517	0.000028
 811	8.0595e+01	8.0542	9.576420	0.000237	2.374056	0.402176	0.000024
 812	8.0695e+01	8.0643	9.604119	0.000278	2.783376	0.471517	0.000028
 813	8.0794e+01	8.0771	9.627745	0.000237	2.374056	0.402176	0.000024
 814	8.0894e+01	8.0865	9.659110	0.000315	3.151763	0.533923	0.000032
 815	8.0993e+01	8.0949	9.685995	0.000270	2.701512	0.457648	0.000027
 816	8.1093e+01	8.1051	9.713287	0.000274	2.742444	0.464583	0.000027
 817	8.1192e+01	8.1182	9.738949	0.000258	2.578716	0.436846	0.000026
 818	8.1291e+01	8.1229	9.769907	0.000311	3.110831	0.526989	0.000031
 819	8.1391e+01	8.1342	9.794348	0.000246	2.455920	0.416044	0.000025
 820	8.1490e+01	8.1434	9.819603	0.000254	2.537784	0.429912	0.000025
 821	8.1590e+01	8.1530	9.846080	0.000266	2.660580	0.450714	0.000027
 822	8.1689e+01	8.1653	9.871743	0.000258	2.578716	0.436846	0.000026
 823	8.1789e+01	8.1749	9.900257	0.000287	2.865240	0.485385	0.000029
 824	8.1888e+01	8.1837	9.921846	0.000217	2.169396	0.367506	0.000022
 825	8.1988e+01	8.1942	9.950768	0.000291	2.906172	0.492319	0.000029
 826	8.2088e+01	8.2047	9.973579	0.000229	2.292192	0.388308	0.000023
 827	8.2187e+01	8.2137	10.001278	0.000278	2.783376	0.471517	0.000028
 828	8.2287e+01	8.2241	10.022867	0.000217	2.169396	0.367506	0.000022
 829	8.2386e+01	8.2349	10.048530	0.000258	2.578716	0.436846	0.000026
 830	8.2486e+01	8.2433	10.074600	0.000262	2.619648	0.443780	0.000026
 831	8.2585e+01	8.2523	10.099448	0.000250	2.496852	0.422978	0.000025
 832	8.2684e+01	8.2629	10.121444	0.000221	2.210328	0.374440	0.000022
 833	8.2784e+01	8.2728	10.150365	0.000291	2.906172	0.492319	0.000029
 834	8.2883e+01	8.2852	10.177657	0.000274	2.742444	0.464583	0.000027
 835	8.2983e+01	8.2946	10.201691	0.000241	2.414988	0.409110	0.000024
 836	8.3082e+01	8.3023	10.227353	0.000258	2.578716	0.436846	0.000026
 837	8.3182e+01	8.3131	10.253830	0.000266	2.660580	0.450714	0.000027
 838	8.3281e+01	8.3240	10.274605	0.000209	2.087532	0.353637	0.000021
 839	8.3381e+01	8.3337	10.300267	0.000258	2.578716	0.436846	0.000026
 840	8.3481e+01	8.3459	10.324301	0.000241	2.414988	0.409110	0.000024
 841	8.3580e+01	8.3541	10.347519	0.000233	2.333124	0.395242	0.000023
 842	8.3680e+01	8.3660	10.376440	0.000291	2.906172	0.492319	0.000029
 843	8.3779e+01	8.3721	10.402510	0.000262	2.619648	0.443780	0.000026
 844	8.3879e+01	8.3832	10.428173	0.000258	2.578716	0.436846	0.000026
 845	8.3978e+01	8.3948	10.451392	0.000233	2.333124	0.395242	0.000023
 846	8.4078e+01	8.4027	10.474610	0.000233	2.333124	0.395242	0.000023
 847	8.4177e+01	8.4136	10.499865	0.000254	2.537784	0.429912	0.000025
 848	8.4276e+01	8.4212	10.523898	0.000241	2.414988	0.409110	0.000024
 849	8.4376e+01	8.4350	10.548339	0.000246	2.455920	0.416044	0.000025
 850	8.4475e+01	8.4428	10.576446	0.000282	2.824308	0.478451	0.000028
 851	8.4575e+01	8.4513	10.604145	0.000278	2.783376	0.471517	0.000028
 852	8.4674e+01	8.4625	10.625327	0.000213	2.128464	0.360572	0.000021
 853	8.4774e+01	8.4739	10.653026	0.000278	2.783376	0.471517	0.000028
 854	8.4874e+01	8.4824	10.679911	0.000270	2.701512	0.457648	0.000027
 855	8.4973e+01	8.4937	10.704351	0.000246	2.455920	0.416044	0.000025
 856	8.5073e+01	8.5027	10.731236	0.000270	2.701512	0.457648	0.000027
 857	8.5172e+01	8.5105	10.757306	0.000262	2.619648	0.443780	0.000026
 858	8.5272e+01	8.5247	10.778895	0.000217	2.169396	0.367506	0.000022
 859	8.5371e+01	8.5300	10.804558	0.000258	2.578716	0.436846	0.000026
 860	8.5471e+01	8.5416	10.834701	0.000303	3.028967	0.513121	0.000030
 861	8.5570e+01	8.5523	10.858734	0.000241	2.414988	0.409110	0.000024
 862	8.5669e+01	8.5622	10.885619	0.000270	2.701512	0.457648	0.000027
 863	8.5769e+01	8.5724	10.905171	0.000196	1.964736	0.332835	0.000020
 864	8.5868e+01	8.5864	10.935722	0.000307	3.069899	0.520055	0.000031
 865	8.5968e+01	8.5928	10.963828	0.000282	2.824308	0.478451	0.000028
 866	8.6067e+01	8.6024	10.985825	0.000221	2.210328	0.374440	0.000022
 867	8.6167e+01	8.6122	11.009858	0.000241	2.414988	0.409110	0.000024
 868	8.6266e+01	8.6219	11.041224	0.000315	3.151763	0.533923	0.000032
 869	8.6366e+01	8.6309	11.059961	0.000188	1.882872	0.318967	0.000019
 870	8.6466e+01	8.6427	11.087253	0.000274	2.742444	0.464583	0.000027
 871	8.6565e+01	8.6523	11.110064	0.000229	2.292192	0.388308	0.000023
 872	8.6665e+01	8.6638	11.133283	0.000233	2.333124	0.395242	0.000023
 873	8.6764e+01	8.6710	11.156909	0.000237	2.374056	0.402176	0.000024
 874	8.6864e+01	8.6816	11.182164	0.000254	2.537784	0.429912	0.000025
 875	8.6963e+01	8.6935	11.207012	0.000250	2.496852	0.422978	0.000025
 876	8.7063e+01	8.7035	11.230638	0.000237	2.374056	0.402176	0.000024
 877	8.7162e+01	8.7118	11.253856	0.000233	2.333124	0.395242	0.000023
 878	8.7261e+01	8.7198	11.278297	0.000246	2.455920	0.416044	0.000025
 879	8.7361e+01	8.7332	11.304367	0.000262	2.619648	0.443780	0.000026
 880	8.7460e+01	8.7451	11.325141	0.000209	2.087532	0.353637	0.000021
 881	8.7560e+01	8.7519	11.349582	0.000246	2.455920	0.416044	0.000025
 882	8.7659e+01	8.7634	11.376059	0.000266	2.660580	0.450714	0.000027
 883	8.7759e+01	8.7730	11.393575	0.000176	1.760076	0.298165	0.000018
 884	8.7859e+01	8.7815	11.417201	0.000237	2.374056	0.402176	0.000024
 885	8.7958e+01	8.7901	11.441234	0.000241	2.414988	0.409110	0.000024
 886	8.8058e+01	8.8007	11.463638	0.000225	2.251260	0.381374	0.000023
 887	8.8157e+01	8.8095	11.484820	0.000213	2.128464	0.360572	0.000021
 888	8.8257e+01	8.8227	11.507631	0.000229	2.292192	0.388308	0.000023
 889	8.8356e+01	8.8323	11.530849	0.000233	2.333124	0.395242	0.000023
 890	8.8456e+01	8.8394	11.552031	0.000213	2.128464	0.360572	0.000021
 891	8.8555e+01	8.8515	11.569954	0.000180	1.801008	0.305099	0.000018
 892	8.8654e+01	8.8607	11.592765	0.000229	2.292192	0.388308	0.000023
 893	8.8754e+01	8.8699	11.618835	0.000262	2.619648	0.443780	0.000026
 894	8.8853e+01	8.8796	11.640424	0.000217	2.169396	0.367506	0.000022
 895	8.8953e+01	8.8895	11.664865	0.000246	2.455920	0.416044	0.000025
 896	8.9052e+01	8.9015	11.681973	0.000172	1.719144	0.291231	0.000017
 897	8.9152e+01	8.9111	11.704377	0.000225	2.251260	0.381374	0.000023
 898	8.9251e+01	8.9182	11.723930	0.000196	1.964736	0.332835	0.000020
 899	8.9351e+01	8.9300	11.747963	0.000241	2.414988	0.409110	0.000024
 900	8.9451e+01	8.9374	11.770367	0.000225	2.251260	0.381374	0.000023
 901	8.9550e+01	8.9486	11.796029	0.000258	2.578716	0.436846	0.000026
 902	8.9650e+01	8.9584	11.814360	0.000184	1.841940	0.312033	0.000018
 903	8.9749e+01	8.9671	11.833912	0.000196	1.964736	0.332835	0.000020
 904	8.9849e+01	8.9795	11.861611	0.000278	2.783376	0.471517	0.000028
 905	8.9948e+01	8.9893	11.878720	0.000172	1.719144	0.291231	0.000017
 906	9.0047e+01	9.0016	11.901124	0.000225	2.251260	0.381374	0.000023
 907	9.0147e+01	9.0089	11.927194	0.000262	2.619648	0.443780	0.000026
 908	9.0246e+01	9.0207	11.947153	0.000201	2.005668	0.339769	0.000020
 909	9.0346e+01	9.0295	11.974038	0.000270	2.701512	0.457648	0.000027
 910	9.0445e+01	9.0382	11.996442	0.000225	2.251260	0.381374	0.000023
 911	9.0545e+01	9.0480	12.017624	0.000213	2.128464	0.360572	0.000021
 912	9.0644e+01	9.0580	12.039213	0.000217	2.169396	0.367506	0.000022
 913	9.0744e+01	9.0710	12.063653	0.000246	2.455920	0.416044	0.000025
 914	9.0844e+01	9.0762	12.090945	0.000274	2.742444	0.464583	0.000027
 915	9.0943e+01	9.0903	12.113756	0.000229	2.292192	0.388308	0.000023
 916	9.1043e+01	9.0967	12.140641	0.000270	2.701512	0.457648	0.000027
 917	9.1142e+01	9.1105	12.160601	0.000201	2.005668	0.339769	0.000020
 918	9.1242e+01	9.1180	12.187485	0.000270	2.701512	0.457648	0.000027
 919	9.1341e+01	9.1293	12.207038	0.000196	1.964736	0.332835	0.000020
 920	9.1441e+01	9.1382	12.232293	0.000254	2.537784	0.429912	0.000025
 921	9.1540e+01	9.1489	12.253882	0.000217	2.169396	0.367506	0.000022
 922	9.1639e+01	9.1602	12.279952	0.000262	2.619648	0.443780	0.000026
 923	9.1739e+01	9.1685	12.304800	0.000250	2.496852	0.422978	0.000025
 924	9.1838e+01	9.1787	12.324353	0.000196	1.964736	0.332835	0.000020
 925	9.1938e+01	9.1907	12.348793	0.000246	2.455920	0.416044	0.000025
 926	9.2037e+01	9.1984	12.375270	0.000266	2.660580	0.450714	0.000027
 927	9.2137e+01	9.2090	12.399711	0.000246	2.455920	0.416044	0.000025
 928	9.2237e+01	9.2169	12.424151	0.000246	2.455920	0.416044	0.000025
 929	9.2336e+01	9.2290	12.447777	0.000237	2.374056	0.402176	0.000024
 930	9.2436e+01	9.2391	12.472625	0.000250	2.496852	0.422978	0.000025
 931	9.2535e+01	9.2474	12.492992	0.000205	2.046600	0.346703	0.000020
 932	9.2635e+01	9.2588	12.519877	0.000270	2.701512	0.457648	0.000027
 933	9.2734e+01	9.2680	12.540244	0.000205	2.046600	0.346703	0.000020
 934	9.2834e+01	9.2801	12.563463	0.000233	2.333124	0.395242	0.000023
 935	9.2933e+01	9.2856	12.585052	0.000217	2.169396	0.367506	0.000022
 936	9.3032e+01	9.2993	12.607456	0.000225	2.251260	0.381374	0.000023
 937	9.3132e+01	9.3092	12.628230	0.000209	2.087532	0.353637	0.000021
 938	9.3231e+01	9.3185	12.653078	0.000250	2.496852	0.422978	0.000025
 939	9.3331e+01	9.3262	12.678333	0.000254	2.537784	0.429912	0.000025
 940	9.3430e+01	9.3390	12.701144	0.000229	2.292192	0.388308	0.000023
 941	9.3530e+01	9.3536	12.725585	0.000246	2.455920	0.416044	0.000025
 942	9.3629e+01	9.3573	12.748396	0.000229	2.292192	0.388308	0.000023
 943	9.3729e+01	9.3687	12.772022	0.000237	2.374056	0.402176	0.000024
 944	9.3829e+01	9.3775	12.794426	0.000225	2.251260	0.381374	0.000023
 945	9.3928e+01	9.3872	12.818052	0.000237	2.374056	0.402176	0.000024
 946	9.4028e+01	9.3970	12.842085	0.000241	2.414988	0.409110	0.000024
 947	9.4127e+01	9.4080	12.863267	0.000213	2.128464	0.360572	0.000021
 948	9.4227e+01	9.4161	12.882005	0.000188	1.882872	0.318967	0.000019
 949	9.4326e+01	9.4258	12.911333	0.000295	2.947103	0.499253	0.000029
 950	9.4425e+01	9.4366	12.933330	0.000221	2.210328	0.374440	0.000022
 951	9.4525e+01	9.4482	12.958178	0.000250	2.496852	0.422978	0.000025
 952	9.4624e+01	9.4582	12.979767	0.000217	2.169396	0.367506	0.000022
 953	9.4724e+01	9.4666	13.000541	0.000209	2.087532	0.353637	0.000021
 954	9.4823e+01	9.4763	13.029463	0.000291	2.906172	0.492319	0.000029
 955	9.4923e+01	9.4856	13.056347	0.000270	2.701512	0.457648	0.000027
 956	9.5022e+01	9.4961	13.085268	0.000291	2.906172	0.492319	0.000029
 957	9.5122e+01	9.5087	13.105636	0.000205	2.046600	0.346703	0.000020
 958	9.5222e+01	9.5170	13.133742	0.000282	2.824308	0.478451	0.000028
 959	9.5321e+01	9.5258	13.155331	0.000217	2.169396	0.367506	0.000022
 960	9.5421e+01	9.5361	13.180994	0.000258	2.578716	0.436846	0.000026
 961	9.5520e+01	9.5459	13.208693	0.000278	2.783376	0.471517	0.000028
 962	9.5620e+01	9.5576	13.231504	0.000229	2.292192	0.388308	0.000023
 963	9.5719e+01	9.5675	13.255538	0.000241	2.414988	0.409110	0.000024
 964	9.5819e+01	9.5752	13.282015	0.000266	2.660580	0.450714	0.000027
 965	9.5918e+01	9.5850	13.305233	0.000233	2.333124	0.395242	0.000023
 966	9.6017e+01	9.5975	13.334155	0.000291	2.906172	0.492319	0.000029
 967	9.6117e+01	9.6076	13.358595	0.000246	2.455920	0.416044	0.000025
 968	9.6216e+01	9.6158	13.384258	0.000258	2.578716	0.436846	0.000026
 969	9.6316e+01	9.6269	13.410735	0.000266	2.660580	0.450714	0.000027
 970	9.6415e+01	9.6362	13.442508	0.000319	3.192695	0.540857	0.000032
 971	9.6515e+01	9.6484	13.466948	0.000246	2.455920	0.416044	0.000025
 972	9.6615e+01	9.6582	13.498314	0.000315	3.151763	0.533923	0.000032
 973	9.6714e+01	9.6655	13.521125	0.000229	2.292192	0.388308	0.000023
 974	9.6814e+01	9.6766	13.551268	0.000303	3.028967	0.513121	0.000030
 975	9.6913e+01	9.6879	13.579375	0.000282	2.824308	0.478451	0.000028
 976	9.7013e+01	9.6976	13.603001	0.000237	2.374056	0.402176	0.000024
 977	9.7112e+01	9.7047	13.629478	0.000266	2.660580	0.450714	0.000027
 978	9.7212e+01	9.7157	13.655141	0.000258	2.578716	0.436846	0.000026
 979	9.7311e+01	9.7257	13.682840	0.000278	2.783376	0.471517	0.000028
 980	9.7410e+01	9.7364	13.710539	0.000278	2.783376	0.471517	0.000028
 981	9.7510e+01	9.7443	13.739868	0.000295	2.947103	0.499253	0.000029
 982	9.7609e+01	9.7554	13.767975	0.000282	2.824308	0.478451	0.000028
 983	9.7709e+01	9.7681	13.799340	0.000315	3.151763	0.533923	0.000032
 984	9.7808e+01	9.7771	13.823780	0.000246	2.455920	0.416044	0.000025
 985	9.7908e+01	9.7870	13.850258	0.000266	2.660580	0.450714	0.000027
 986	9.8007e+01	9.7939	13.881216	0.000311	3.110831	0.526989	0.000031
 987	9.8107e+01	9.8084	13.906878	0.000258	2.578716	0.436846	0.000026
 988	9.8207e+01	9.8175	13.933356	0.000266	2.660580	0.450714	0.000027
 989	9.8306e+01	9.8234	13.962277	0.000291	2.906172	0.492319	0.000029
 990	9.8406e+01	9.8358	13.986718	0.000246	2.455920	0.416044	0.000025
 991	9.8505e+01	9.8455	14.016046	0.000295	2.947103	0.499253	0.000029
 992	9.8605e+01	9.8527	14.039265	0.000233	2.333124	0.395242	0.000023
 993	9.8704e+01	9.8639	14.065742	0.000266	2.660580	0.450714	0.000027
 994	9.8803e+01	9.8733	14.093849	0.000282	2.824308	0.478451	0.000028
 995	9.8903e+01	9.8843	14.120733	0.000270	2.701512	0.457648	0.000027
 996	9.9002e+01	9.8938	14.145174	0.000246	2.455920	0.416044	0.000025
 997	9.9102e+01	9.9048	14.167985	0.000229	2.292192	0.388308	0.000023
 998	9.9201e+01	9.9135	14.196906	0.000291	2.906172	0.492319	0.000029
 999	9.9301e+01	9.9244	14.220532	0.000237	2.374056	0.402176	0.000024
1000	9.9400e+01	9.9319	14.247417	0.000270	2.701512	0.457648	0.000027
1001	9.9500e+01	9.9448	14.271857	0.000246	2.455920	0.416044	0.000025
1002	9.9600e+01	9.9545	14.301186	0.000295	2.947103	0.499253	0.000029
1003	9.9699e+01	9.9650	14.328071	0.000270	2.701512	0.457648	0.000027
1004	9.9799e+01	9.9738	14.355363	0.000274	2.742444	0.464583	0.000027
1005	9.9898e+01	9.9825	14.377766	0.000225	2.251260	0.381374	0.000023
1006	9.9998e+01	9.9976	14.409132	0.000315	3.151763	0.533923	0.000032
1007	1.0010e+02	9.9843	14.400170	0.000090	0.900504	0.152549	-0.000009
1008	1.0020e+02	9.9756	14.385913	0.000143	1.432620	0.242692	-0.000014
1009	1.0030e+02	9.9648	14.374100	0.000119	1.187028	0.201088	-0.000012
1010	1.0040e+02	9.9543	14.363102	0.000111	1.105164	0.187220	-0.000011
1011	1.0050e+02	9.9448	14.347623	0.000156	1.555416	0.263495	-0.000016
1012	1.0059e+02	9.9335	14.336217	0.000115	1.146096	0.194154	-0.000011
1013	1.0069e+02	9.9258	14.323590	0.000127	1.268892	0.214956	-0.000013
1014	1.0079e+02	9.9134	14.310555	0.000131	1.309824	0.221890	-0.000013
1015	1.0089e+02	9.9052	14.299149	0.000115	1.146096	0.194154	-0.000011
1016	1.0099e+02	9.8946	14.285707	0.000135	1.350756	0.228824	-0.000014
1017	1.0109e+02	9.8853	14.272672	0.000131	1.309824	0.221890	-0.000013
1018	1.0119e+02	9.8724	14.260452	0.000123	1.227960	0.208022	-0.000012
1019	1.0129e+02	9.8646	14.251490	0.000090	0.900504	0.152549	-0.000009
1020	1.0139e+02	9.8547	14.237641	0.000139	1.391688	0.235758	-0.000014
1021	1.0149e+02	9.8438	14.224606	0.000131	1.309824	0.221890	-0.000013
1022	1.0159e+02	9.8352	14.211163	0.000135	1.350756	0.228824	-0.000014
1023	1.0169e+02	9.8242	14.196092	0.000151	1.514484	0.256560	-0.000015
1024	1.0179e+02	9.8164	14.181427	0.000147	1.473552	0.249626	-0.000015
1025	1.0189e+02	9.8055	14.170022	0.000115	1.146096	0.194154	-0.000011
1026	1.0199e+02	9.7939	14.154135	0.000160	1.596348	0.270429	-0.000016
1027	1.0209e+02	9.7867	14.141508	0.000127	1.268892	0.214956	-0.000013
1028	1.0219e+02	9.7745	14.126843	0.000147	1.473552	0.249626	-0.000015
1029	1.0229e+02	9.7659	14.115438	0.000115	1.146096	0.194154	-0.000011
1030	1.0239e+02	9.7553	14.101588	0.000139	1.391688	0.235758	-0.000014
1031	1.0248e+02	9.7463	14.089368	0.000123	1.227960	0.208022	-0.000012
1032	1.0258e+02	9.7357	14.073481	0.000160	1.596348	0.270429	-0.000016
1033	1.0268e+02	9.7255	14.060447	0.000131	1.309824	0.221890	-0.000013
1034	1.0278e+02	9.7150	14.046190	0.000143	1.432620	0.242692	-0.000014
1035	1.0288e+02	9.7034	14.032340	0.000139	1.391688	0.235758	-0.000014
1036	1.0298e+02	9.6951	14.016046	0.000164	1.637280	0.277363	-0.000016
1037	1.0308e+02	9.6847	13.998123	0.000180	1.801008	0.305099	-0.000018
1038	1.0318e+02	9.6732	13.981015	0.000172	1.719144	0.291231	-0.000017
1039	1.0328e+02	9.6659	13.962277	0.000188	1.882872	0.318967	-0.000019
1040	1.0338e+02	9.6552	13.946798	0.000156	1.555416	0.263495	-0.000016
1041	1.0348e+02	9.6484	13.928875	0.000180	1.801008	0.305099	-0.000018
1042	1.0358e+02	9.6355	13.914618	0.000143	1.432620	0.242692	-0.000014
1043	1.0368e+02	9.6252	13.898732	0.000160	1.596348	0.270429	-0.000016
1044	1.0378e+02	9.6168	13.879179	0.000196	1.964736	0.332835	-0.000020
1045	1.0388e+02	9.6112	13.862071	0.000172	1.719144	0.291231	-0.000017
1046	1.0398e+02	9.5947	13.846592	0.000156	1.555416	0.263495	-0.000016
1047	1.0408e+02	9.5874	13.828261	0.000184	1.841940	0.312033	-0.000018
1048	1.0418e+02	9.5752	13.812375	0.000160	1.596348	0.270429	-0.000016
1049	1.0428e+02	9.5656	13.794859	0.000176	1.760076	0.298165	-0.000018
1050	1.0438e+02	9.5562	13.773677	0.000213	2.128464	0.360572	-0.000021
1051	1.0447e+02	9.5460	13.761864	0.000119	1.187028	0.201088	-0.000012
1052	1.0457e+02	9.5361	13.741497	0.000205	2.046600	0.346703	-0.000020
1053	1.0467e+02	9.5245	13.722352	0.000192	1.923804	0.325901	-0.000019
1054	1.0477e+02	9.5134	13.702800	0.000196	1.964736	0.332835	-0.000020
1055	1.0487e+02	9.5084	13.682025	0.000209	2.087532	0.353637	-0.000021
1056	1.0497e+02	9.4958	13.660436	0.000217	2.169396	0.367506	-0.000022
1057	1.0507e+02	9.4867	13.642513	0.000180	1.801008	0.305099	-0.000018
1058	1.0517e+02	9.4775	13.623368	0.000192	1.923804	0.325901	-0.000019
1059	1.0527e+02	9.4678	13.601371	0.000221	2.210328	0.374440	-0.000022
1060	1.0537e+02	9.4550	13.582226	0.000192	1.923804	0.325901	-0.000019
1061	1.0547e+02	9.4482	13.565525	0.000168	1.678212	0.284297	-0.000017
1062	1.0557e+02	9.4367	13.544344	0.000213	2.128464	0.360572	-0.000021
1063	1.0567e+02	9.4293	13.525198	0.000192	1.923804	0.325901	-0.000019
1064	1.0577e+02	9.4173	13.508497	0.000168	1.678212	0.284297	-0.000017
1065	1.0587e+02	9.4077	13.482835	0.000258	2.578716	0.436846	-0.000026
1066	1.0597e+02	9.3984	13.464912	0.000180	1.801008	0.305099	-0.000018
1067	1.0607e+02	9.3880	13.441693	0.000233	2.333124	0.395242	-0.000023
1068	1.0617e+02	9.3818	13.424177	0.000176	1.760076	0.298165	-0.000018
1069	1.0627e+02	9.3668	13.401774	0.000225	2.251260	0.381374	-0.000023
1070	1.0637e+02	9.3572	13.380999	0.000209	2.087532	0.353637	-0.000021
1071	1.0647e+02	9.3494	13.365520	0.000156	1.555416	0.263495	-0.000016
1072	1.0656e+02	9.3398	13.341080	0.000246	2.455920	0.416044	-0.000025
1073	1.0666e+02	9.3276	13.321120	0.000201	2.005668	0.339769	-0.000020
1074	1.0676e+02	9.3177	13.301975	0.000192	1.923804	0.325901	-0.000019
1075	1.0686e+02	9.3056	13.286088	0.000160	1.596348	0.270429	-0.000016
1076	1.0696e+02	9.2976	13.264907	0.000213	2.128464	0.360572	-0.000021
1077	1.0706e+02	9.2896	13.247798	0.000172	1.719144	0.291231	-0.000017
1078	1.0716e+02	9.2802	13.230282	0.000176	1.760076	0.298165	-0.000018
1079	1.0726e+02	9.2668	13.209915	0.000205	2.046600	0.346703	-0.000020
1080	1.0736e+02	9.2599	13.189141	0.000209	2.087532	0.353637	-0.000021
1081	1.0746e+02	9.2493	13.169996	0.000192	1.923804	0.325901	-0.000019
1082	1.0756e+02	9.2388	13.151258	0.000188	1.882872	0.318967	-0.000019
1083	1.0766e+02	9.2269	13.130483	0.000209	2.087532	0.353637	-0.000021
1084	1.0776e+02	9.2165	13.109709	0.000209	2.087532	0.353637	-0.000021
1085	1.0786e+02	9.2091	13.092193	0.000176	1.760076	0.298165	-0.000018
1086	1.0796e+02	9.2005	13.072233	0.000201	2.005668	0.339769	-0.000020
1087	1.0806e+02	9.1895	13.054310	0.000180	1.801008	0.305099	-0.000018
1088	1.0816e+02	9.1812	13.032314	0.000221	2.210328	0.374440	-0.000022
1089	1.0826e+02	9.1682	13.015613	0.000168	1.678212	0.284297	-0.000017
1090	1.0836e+02	9.1565	12.995246	0.000205	2.046600	0.346703	-0.000020
1091	1.0845e+02	9.1483	12.976101	0.000192	1.923804	0.325901	-0.000019
1092	1.0855e+02	9.1394	12.961844	0.000143	1.432620	0.242692	-0.000014
1093	1.0865e+02	9.1247	12.938625	0.000233	2.333124	0.395242	-0.000023
1094	1.0875e+02	9.1189	12.919480	0.000192	1.923804	0.325901	-0.000019
1095	1.0885e+02	9.1098	12.900335	0.000192	1.923804	0.325901	-0.000019
1096	1.0895e+02	9.0979	12.882819	0.000176	1.760076	0.298165	-0.000018
1097	1.0905e+02	9.0895	12.861637	0.000213	2.128464	0.360572	-0.000021
1098	1.0915e+02	9.0790	12.843307	0.000184	1.841940	0.312033	-0.000018
1099	1.0925e+02	9.0692	12.823347	0.000201	2.005668	0.339769	-0.000020
1100	1.0935e+02	9.0605	12.799314	0.000241	2.414988	0.409110	-0.000024
1101	1.0945e+02	9.0488	12.780576	0.000188	1.882872	0.318967	-0.000019
1102	1.0955e+02	9.0413	12.762653	0.000180	1.801008	0.305099	-0.000018
1103	1.0965e+02	9.0291	12.739842	0.000229	2.292192	0.388308	-0.000023
1104	1.0975e+02	9.0225	12.719882	0.000201	2.005668	0.339769	-0.000020
1105	1.0985e+02	9.0079	12.697478	0.000225	2.251260	0.381374	-0.000023
1106	1.0995e+02	9.0018	12.678333	0.000192	1.923804	0.325901	-0.000019
1107	1.1005e+02	8.9880	12.660410	0.000180	1.801008	0.305099	-0.000018
1108	1.1015e+02	8.9780	12.638414	0.000221	2.210328	0.374440	-0.000022
1109	1.1025e+02	8.9697	12.619269	0.000192	1.923804	0.325901	-0.000019
1110	1.1035e+02	8.9600	12.597679	0.000217	2.169396	0.367506	-0.000022
1111	1.1044e+02	8.9486	12.576090	0.000217	2.169396	0.367506	-0.000022
1112	1.1054e+02	8.9371	12.557760	0.000184	1.841940	0.312033	-0.000018
1113	1.1064e+02	8.9309	12.534541	0.000233	2.333124	0.395242	-0.000023
1114	1.1074e+02	8.9175	12.512952	0.000217	2.169396	0.367506	-0.000022
1115	1.1084e+02	8.9096	12.490548	0.000225	2.251260	0.381374	-0.000023
1116	1.1094e+02	8.9008	12.470996	0.000196	1.964736	0.332835	-0.000020
1117	1.1104e+02	8.8923	12.451851	0.000192	1.923804	0.325901	-0.000019
1118	1.1114e+02	8.8815	12.429854	0.000221	2.210328	0.374440	-0.000022
1119	1.1124e+02	8.8672	12.408265	0.000217	2.169396	0.367506	-0.000022
1120	1.1134e+02	8.8596	12.390342	0.000180	1.801008	0.305099	-0.000018
1121	1.1144e+02	8.8493	12.371197	0.000192	1.923804	0.325901	-0.000019
1122	1.1154e+02	8.8395	12.351237	0.000201	2.005668	0.339769	-0.000020
1123	1.1164e+02	8.8310	12.332499	0.000188	1.882872	0.318967	-0.000019
1124	1.1174e+02	8.8201	12.317428	0.000151	1.514484	0.256560	-0.000015
1125	1.1184e+02	8.8110	12.295024	0.000225	2.251260	0.381374	-0.000023
1126	1.1194e+02	8.8022	12.277508	0.000176	1.760076	0.298165	-0.000018
1127	1.1204e+02	8.7915	12.258770	0.000188	1.882872	0.318967	-0.000019
1128	1.1214e+02	8.7799	12.240033	0.000188	1.882872	0.318967	-0.000019
1129	1.1224e+02	8.7717	12.216814	0.000233	2.333124	0.395242	-0.000023
1130	1.1234e+02	8.7619	12.196854	0.000201	2.005668	0.339769	-0.000020
1131	1.1244e+02	8.7510	12.179746	0.000172	1.719144	0.291231	-0.000017
1132	1.1253e+02	8.7440	12.162638	0.000172	1.719144	0.291231	-0.000017
1133	1.1263e+02	8.7309	12.144307	0.000184	1.841940	0.312033	-0.000018
1134	1.1273e+02	8.7211	12.122311	0.000221	2.210328	0.374440	-0.000022
1135	1.1283e+02	8.7119	12.101129	0.000213	2.128464	0.360572	-0.000021
1136	1.1293e+02	8.7000	12.088501	0.000127	1.268892	0.214956	-0.000013
1137	1.1303e+02	8.6916	12.066912	0.000217	2.169396	0.367506	-0.000022
1138	1.1313e+02	8.6839	12.051433	0.000156	1.555416	0.263495	-0.000016
1139	1.1323e+02	8.6712	12.029844	0.000217	2.169396	0.367506	-0.000022
1140	1.1333e+02	8.6638	12.016809	0.000131	1.309824	0.221890	-0.000013
1141	1.1343e+02	8.6520	11.995627	0.000213	2.128464	0.360572	-0.000021
1142	1.1353e+02	8.6429	11.984222	0.000115	1.146096	0.194154	-0.000011
1143	1.1363e+02	8.6324	11.963040	0.000213	2.128464	0.360572	-0.000021
1144	1.1373e+02	8.6227	11.945524	0.000176	1.760076	0.298165	-0.000018
1145	1.1383e+02	8.6136	11.923935	0.000217	2.169396	0.367506	-0.000022
1146	1.1393e+02	8.6005	11.909271	0.000147	1.473552	0.249626	-0.000015
1147	1.1403e+02	8.5929	11.888903	0.000205	2.046600	0.346703	-0.000020
1148	1.1413e+02	8.5841	11.877498	0.000115	1.146096	0.194154	-0.000011
1149	1.1423e+02	8.5730	11.853465	0.000241	2.414988	0.409110	-0.000024
1150	1.1433e+02	8.5620	11.839615	0.000139	1.391688	0.235758	-0.000014
1151	1.1442e+02	8.5547	11.819248	0.000205	2.046600	0.346703	-0.000020
1152	1.1452e+02	8.5438	11.804583	0.000147	1.473552	0.249626	-0.000015
1153	1.1462e+02	8.5327	11.785846	0.000188	1.882872	0.318967	-0.000019
1154	1.1472e+02	8.5209	11.769552	0.000164	1.637280	0.277363	-0.000016
1155	1.1482e+02	8.5137	11.749592	0.000201	2.005668	0.339769	-0.000020
1156	1.1492e+02	8.5019	11.731262	0.000184	1.841940	0.312033	-0.000018
1157	1.1502e+02	8.4946	11.717820	0.000135	1.350756	0.228824	-0.000014
1158	1.1512e+02	8.4827	11.695008	0.000229	2.292192	0.388308	-0.000023
1159	1.1522e+02	8.4743	11.670975	0.000241	2.414988	0.409110	-0.000024
1160	1.1532e+02	8.4619	11.654274	0.000168	1.678212	0.284297	-0.000017
1161	1.1542e+02	8.4528	11.635944	0.000184	1.841940	0.312033	-0.000018
1162	1.1552e+02	8.4436	11.615169	0.000209	2.087532	0.353637	-0.000021
1163	1.1562e+02	8.4315	11.594802	0.000205	2.046600	0.346703	-0.000020
1164	1.1572e+02	8.4229	11.575657	0.000192	1.923804	0.325901	-0.000019
1165	1.1582e+02	8.4142	11.553660	0.000221	2.210328	0.374440	-0.000022
1166	1.1592e+02	8.4019	11.535330	0.000184	1.841940	0.312033	-0.000018
1167	1.1602e+02	8.3926	11.517407	0.000180	1.801008	0.305099	-0.000018
1168	1.1612e+02	8.3840	11.498262	0.000192	1.923804	0.325901	-0.000019
1169	1.1622e+02	8.3741	11.479117	0.000192	1.923804	0.325901	-0.000019
1170	1.1632e+02	8.3591	11.459564	0.000196	1.964736	0.332835	-0.000020
1171	1.1642e+02	8.3546	11.436346	0.000233	2.333124	0.395242	-0.000023
1172	1.1651e+02	8.3434	11.417201	0.000192	1.923804	0.325901	-0.000019
1173	1.1661e+02	8.3362	11.397241	0.000201	2.005668	0.339769	-0.000020
1174	1.1671e+02	8.3244	11.378096	0.000192	1.923804	0.325901	-0.000019
1175	1.1681e+02	8.3139	11.358543	0.000196	1.964736	0.332835	-0.000020
1176	1.1691e+02	8.3033	11.339806	0.000188	1.882872	0.318967	-0.000019
1177	1.1701e+02	8.2941	11.316994	0.000229	2.292192	0.388308	-0.000023
1178	1.1711e+02	8.2813	11.294183	0.000229	2.292192	0.388308	-0.000023
1179	1.1721e+02	8.2723	11.275038	0.000192	1.923804	0.325901	-0.000019
1180	1.1731e+02	8.2616	11.255893	0.000192	1.923804	0.325901	-0.000019
1181	1.1741e+02	8.2601	11.235526	0.000205	2.046600	0.346703	-0.000020
1182	1.1751e+02	8.2425	11.214344	0.000213	2.128464	0.360572	-0.000021
1183	1.1761e+02	8.2334	11.193162	0.000213	2.128464	0.360572	-0.000021
1184	1.1771e+02	8.2255	11.176054	0.000172	1.719144	0.291231	-0.000017
1185	1.1781e+02	8.2147	11.155279	0.000209	2.087532	0.353637	-0.000021
1186	1.1791e+02	8.2031	11.134912	0.000205	2.046600	0.346703	-0.000020
1187	1.1801e+02	8.1924	11.119841	0.000151	1.514484	0.256560	-0.000015
1188	1.1811e+02	8.1836	11.100696	0.000192	1.923804	0.325901	-0.000019
1189	1.1821e+02	8.1741	11.081143	0.000196	1.964736	0.332835	-0.000020
1190	1.1831e+02	8.1652	11.061183	0.000201	2.005668	0.339769	-0.000020
1191	1.1841e+02	8.1534	11.038372	0.000229	2.292192	0.388308	-0.000023
1192	1.1850e+02	8.1448	11.023300	0.000151	1.514484	0.256560	-0.000015
1193	1.1860e+02	8.1340	10.999267	0.000241	2.414988	0.409110	-0.000024
1194	1.1870e+02	8.1268	10.982159	0.000172	1.719144	0.291231	-0.000017
1195	1.1880e+02	8.1155	10.961384	0.000209	2.087532	0.353637	-0.000021
1196	1.1890e+02	8.1040	10.946720	0.000147	1.473552	0.249626	-0.000015
1197	1.1900e+02	8.0939	10.921465	0.000254	2.537784	0.429912	-0.000025
1198	1.1910e+02	8.0849	10.901098	0.000205	2.046600	0.346703	-0.000020
1199	1.1920e+02	8.0758	10.882360	0.000188	1.882872	0.318967	-0.000019
1200	1.1930e+02	8.0688	10.866474	0.000160	1.596348	0.270429	-0.000016
1201	1.1940e+02	8.0550	10.845292	0.000213	2.128464	0.360572	-0.000021
1202	1.1950e+02	8.0439	10.826961	0.000184	1.841940	0.312033	-0.000018
1203	1.1960e+02	8.0346	10.802521	0.000246	2.455920	0.416044	-0.000025
1204	1.1970e+02	8.0249	10.778895	0.000237	2.374056	0.402176	-0.000024
1205	1.1980e+02	8.0164	10.759342	0.000196	1.964736	0.332835	-0.000020
1206	1.1990e+02	8.0064	10.739383	0.000201	2.005668	0.339769	-0.000020
1207	1.2000e+02	7.9960	10.716164	0.000233	2.333124	0.395242	-0.000023
1208	1.2010e+02	7.9852	10.695797	0.000205	2.046600	0.346703	-0.000020
1209	1.2020e+02	7.9785	10.673393	0.000225	2.251260	0.381374	-0.000023
1210	1.2030e+02	7.9652	10.650989	0.000225	2.251260	0.381374	-0.000023
1211	1.2039e+02	7.9543	10.629400	0.000217	2.169396	0.367506	-0.000022
1212	1.2049e+02	7.9453	10.609848	0.000196	1.964736	0.332835	-0.000020
1213	1.2059e+02	7.9356	10.588666	0.000213	2.128464	0.360572	-0.000021
1214	1.2069e+02	7.9243	10.566669	0.000221	2.210328	0.374440	-0.000022
1215	1.2079e+02	7.9165	10.541822	0.000250	2.496852	0.422978	-0.000025
1216	1.2089e+02	7.9088	10.524713	0.000172	1.719144	0.291231	-0.000017
1217	1.2099e+02	7.8939	10.499458	0.000254	2.537784	0.429912	-0.000025
1218	1.2109e+02	7.8848	10.477461	0.000221	2.210328	0.374440	-0.000022
1219	1.2119e+02	7.8760	10.456280	0.000213	2.128464	0.360572	-0.000021
1220	1.2129e+02	7.8674	10.434283	0.000221	2.210328	0.374440	-0.000022
1221	1.2139e+02	7.8548	10.407806	0.000266	2.660580	0.450714	-0.000027
1222	1.2149e+02	7.8467	10.382958	0.000250	2.496852	0.422978	-0.000025
1223	1.2159e+02	7.8363	10.358925	0.000241	2.414988	0.409110	-0.000024
1224	1.2169e+02	7.8275	10.337336	0.000217	2.169396	0.367506	-0.000022
1225	1.2179e+02	7.8166	10.312895	0.000246	2.455920	0.416044	-0.000025
1226	1.2189e+02	7.8059	10.287232	0.000258	2.578716	0.436846	-0.000026
1227	1.2199e+02	7.7959	10.261163	0.000262	2.619648	0.443780	-0.000026
1228	1.2209e+02	7.7862	10.240795	0.000205	2.046600	0.346703	-0.000020
1229	1.2219e+02	7.7745	10.214318	0.000266	2.660580	0.450714	-0.000027
1230	1.2229e+02	7.7670	10.193136	0.000213	2.128464	0.360572	-0.000021
1231	1.2239e+02	7.7577	10.167066	0.000262	2.619648	0.443780	-0.000026
1232	1.2248e+02	7.7464	10.142219	0.000250	2.496852	0.422978	-0.000025
1233	1.2258e+02	7.7345	10.121851	0.000205	2.046600	0.346703	-0.000020
1234	1.2268e+02	7.7288	10.095374	0.000266	2.660580	0.450714	-0.000027
1235	1.2278e+02	7.7174	10.075007	0.000205	2.046600	0.346703	-0.000020
1236	1.2288e+02	7.7051	10.047308	0.000278	2.783376	0.471517	-0.000028
1237	1.2298e+02	7.6962	10.021645	0.000258	2.578716	0.436846	-0.000026
1238	1.2308e+02	7.6875	9.998427	0.000233	2.333124	0.395242	-0.000023
1239	1.2318e+02	7.6766	9.973986	0.000246	2.455920	0.416044	-0.000025
1240	1.2328e+02	7.6690	9.948323	0.000258	2.578716	0.436846	-0.000026
1241	1.2338e+02	7.6563	9.928364	0.000201	2.005668	0.339769	-0.000020
1242	1.2348e+02	7.6466	9.901886	0.000266	2.660580	0.450714	-0.000027
1243	1.2358e+02	7.6359	9.880297	0.000217	2.169396	0.367506	-0.000022
1244	1.2368e+02	7.6261	9.858301	0.000221	2.210328	0.374440	-0.000022
1245	1.2378e+02	7.6168	9.832638	0.000258	2.578716	0.436846	-0.000026
1246	1.2388e+02	7.6083	9.813493	0.000192	1.923804	0.325901	-0.000019
1247	1.2398e+02	7.5957	9.790275	0.000233	2.333124	0.395242	-0.000023
1248	1.2408e+02	7.5873	9.767871	0.000225	2.251260	0.381374	-0.000023
1249	1.2418e+02	7.5777	9.744652	0.000233	2.333124	0.395242	-0.000023
1250	1.2428e+02	7.5676	9.723063	0.000217	2.169396	0.367506	-0.000022
1251	1.2438e+02	7.5594	9.699437	0.000237	2.374056	0.402176	-0.000024
1252	1.2447e+02	7.5456	9.677033	0.000225	2.251260	0.381374	-0.000023
1253	1.2457e+02	7.5391	9.650149	0.000270	2.701512	0.457648	-0.000027
1254	1.2467e+02	7.5259	9.627745	0.000225	2.251260	0.381374	-0.000023
1255	1.2477e+02	7.5163	9.608600	0.000192	1.923804	0.325901	-0.000019
1256	1.2487e+02	7.5091	9.586196	0.000225	2.251260	0.381374	-0.000023
1257	1.2497e+02	7.4992	9.561755	0.000246	2.455920	0.416044	-0.000025
1258	1.2507e+02	7.4892	9.537722	0.000241	2.414988	0.409110	-0.000024
1259	1.2517e+02	7.4786	9.517762	0.000201	2.005668	0.339769	-0.000020
1260	1.2527e+02	7.4678	9.493729	0.000241	2.414988	0.409110	-0.000024
1261	1.2537e+02	7.4592	9.470511	0.000233	2.333124	0.395242	-0.000023
1262	1.2547e+02	7.4493	9.447699	0.000229	2.292192	0.388308	-0.000023
1263	1.2557e+02	7.4383	9.428147	0.000196	1.964736	0.332835	-0.000020
1264	1.2567e+02	7.4268	9.404114	0.000241	2.414988	0.409110	-0.000024
1265	1.2577e+02	7.4187	9.382117	0.000221	2.210328	0.374440	-0.000022
1266	1.2587e+02	7.4092	9.358491	0.000237	2.374056	0.402176	-0.000024
1267	1.2597e+02	7.3992	9.334458	0.000241	2.414988	0.409110	-0.000024
1268	1.2607e+02	7.3882	9.312054	0.000225	2.251260	0.381374	-0.000023
1269	1.2617e+02	7.3785	9.283540	0.000287	2.865240	0.485385	-0.000029
1270	1.2627e+02	7.3684	9.261137	0.000225	2.251260	0.381374	-0.000023
1271	1.2636e+02	7.3571	9.239140	0.000221	2.210328	0.374440	-0.000022
1272	1.2646e+02	7.3479	9.212663	0.000266	2.660580	0.450714	-0.000027
1273	1.2656e+02	7.3420	9.187408	0.000254	2.537784	0.429912	-0.000025
1274	1.2666e+02	7.3281	9.167040	0.000205	2.046600	0.346703	-0.000020
1275	1.2676e+02	7.3167	9.142193	0.000250	2.496852	0.422978	-0.000025
1276	1.2686e+02	7.3112	9.117345	0.000250	2.496852	0.422978	-0.000025
1277	1.2696e+02	7.2979	9.095756	0.000217	2.169396	0.367506	-0.000022
1278	1.2706e+02	7.2891	9.074574	0.000213	2.128464	0.360572	-0.000021
1279	1.2716e+02	7.2823	9.046060	0.000287	2.865240	0.485385	-0.000029
1280	1.2726e+02	7.2683	9.026100	0.000201	2.005668	0.339769	-0.000020
1281	1.2736e+02	7.2593	8.997586	0.000287	2.865240	0.485385	-0.000029
1282	1.2746e+02	7.2510	8.975997	0.000217	2.169396	0.367506	-0.000022
1283	1.2756e+02	7.2413	8.955630	0.000205	2.046600	0.346703	-0.000020
1284	1.2766e+02	7.2286	8.924672	0.000311	3.110831	0.526989	-0.000031
1285	1.2776e+02	7.2177	8.905527	0.000192	1.923804	0.325901	-0.000019
1286	1.2786e+02	7.2108	8.873754	0.000319	3.192695	0.540857	-0.000032
1287	1.2796e+02	7.1987	8.857460	0.000164	1.637280	0.277363	-0.000016
1288	1.2806e+02	7.1893	8.832612	0.000250	2.496852	0.422978	-0.000025
1289	1.2816e+02	7.1780	8.812245	0.000205	2.046600	0.346703	-0.000020
1290	1.2826e+02	7.1676	8.787805	0.000246	2.455920	0.416044	-0.000025
1291	1.2835e+02	7.1578	8.762957	0.000250	2.496852	0.422978	-0.000025
1292	1.2845e+02	7.1485	8.746663	0.000164	1.637280	0.277363	-0.000016
1293	1.2855e+02	7.1396	8.723037	0.000237	2.374056	0.402176	-0.000024
1294	1.2865e+02	7.1292	8.698597	0.000246	2.455920	0.416044	-0.000025
1295	1.2875e+02	7.1193	8.678229	0.000205	2.046600	0.346703	-0.000020
1296	1.2885e+02	7.1120	8.655418	0.000229	2.292192	0.388308	-0.000023
1297	1.2895e+02	7.1015	8.630163	0.000254	2.537784	0.429912	-0.000025
1298	1.2905e+02	7.0898	8.610611	0.000196	1.964736	0.332835	-0.000020
1299	1.2915e+02	7.0806	8.589429	0.000213	2.128464	0.360572	-0.000021
1300	1.2925e+02	7.0693	8.564988	0.000246	2.455920	0.416044	-0.000025
1301	1.2935e+02	7.0599	8.545028	0.000201	2.005668	0.339769	-0.000020
1302	1.2945e+02	7.0513	8.524661	0.000205	2.046600	0.346703	-0.000020
1303	1.2955e+02	7.0399	8.498591	0.000262	2.619648	0.443780	-0.000026
1304	1.2965e+02	7.0284	8.479039	0.000196	1.964736	0.332835	-0.000020
1305	1.2975e+02	7.0208	8.454191	0.000250	2.496852	0.422978	-0.000025
1306	1.2985e+02	7.0107	8.438712	0.000156	1.555416	0.263495	-0.000016
1307	1.2995e+02	7.0007	8.415086	0.000237	2.374056	0.402176	-0.000024
1308	1.3005e+02	6.9913	8.396756	0.000184	1.841940	0.312033	-0.000018
1309	1.3015e+02	6.9811	8.376796	0.000201	2.005668	0.339769	-0.000020
1310	1.3025e+02	6.9725	8.355614	0.000213	2.128464	0.360572	-0.000021
1311	1.3034e+02	6.9585	8.334432	0.000213	2.128464	0.360572	-0.000021
1312	1.3044e+02	6.9505	8.314472	0.000201	2.005668	0.339769	-0.000020
1313	1.3054e+02	6.9424	8.293698	0.000209	2.087532	0.353637	-0.000021
1314	1.3064e+02	6.9325	8.270479	0.000233	2.333124	0.395242	-0.000023
1315	1.3074e+02	6.9211	8.252556	0.000180	1.801008	0.305099	-0.000018
1316	1.3084e+02	6.9097	8.228116	0.000246	2.455920	0.416044	-0.000025
1317	1.3094e+02	6.9019	8.208971	0.000192	1.923804	0.325901	-0.000019
1318	1.3104e+02	6.8901	8.189011	0.000201	2.005668	0.339769	-0.000020
1319	1.3114e+02	6.8822	8.170681	0.000184	1.841940	0.312033	-0.000018
1320	1.3124e+02	6.8726	8.150721	0.000201	2.005668	0.339769	-0.000020
1321	1.3134e+02	6.8612	8.128317	0.000225	2.251260	0.381374	-0.000023
1322	1.3144e+02	6.8508	8.106728	0.000217	2.169396	0.367506	-0.000022
1323	1.3154e+02	6.8433	8.084324	0.000225	2.251260	0.381374	-0.000023
1324	1.3164e+02	6.8304	8.061513	0.000229	2.292192	0.388308	-0.000023
1325	1.3174e+02	6.8240	8.040331	0.000213	2.128464	0.360572	-0.000021
1326	1.3184e+02	6.8119	8.022815	0.000176	1.760076	0.298165	-0.000018
1327	1.3194e+02	6.8020	7.997560	0.000254	2.537784	0.429912	-0.000025
1328	1.3204e+02	6.7920	7.974341	0.000233	2.333124	0.395242	-0.000023
1329	1.3214e+02	6.7803	7.952345	0.000221	2.210328	0.374440	-0.000022
1330	1.3224e+02	6.7718	7.928719	0.000237	2.374056	0.402176	-0.000024
1331	1.3234e+02	6.7607	7.905908	0.000229	2.292192	0.388308	-0.000023
1332	1.3243e+02	6.7509	7.883097	0.000229	2.292192	0.388308	-0.000023
1333	1.3253e+02	6.7407	7.859471	0.000237	2.374056	0.402176	-0.000024
1334	1.3263e+02	6.7303	7.835030	0.000246	2.455920	0.416044	-0.000025
1335	1.3273e+02	6.7208	7.812626	0.000225	2.251260	0.381374	-0.000023
1336	1.3283e+02	6.7113	7.791037	0.000217	2.169396	0.367506	-0.000022
1337	1.3293e+02	6.7004	7.770263	0.000209	2.087532	0.353637	-0.000021
1338	1.3303e+02	6.6899	7.751118	0.000192	1.923804	0.325901	-0.000019
1339	1.3313e+02	6.6785	7.725455	0.000258	2.578716	0.436846	-0.000026
1340	1.3323e+02	6.6724	7.704273	0.000213	2.128464	0.360572	-0.000021
1341	1.3333e+02	6.6627	7.678611	0.000258	2.578716	0.436846	-0.000026
1342	1.3343e+02	6.6506	7.655392	0.000233	2.333124	0.395242	-0.000023
1343	1.3353e+02	6.6419	7.632174	0.000233	2.333124	0.395242	-0.000023
1344	1.3363e+02	6.6330	7.610992	0.000213	2.128464	0.360572	-0.000021
1345	1.3373e+02	6.6228	7.586959	0.000241	2.414988	0.409110	-0.000024
1346	1.3383e+02	6.6119	7.564148	0.000229	2.292192	0.388308	-0.000023
1347	1.3393e+02	6.6018	7.538892	0.000254	2.537784	0.429912	-0.000025
1348	1.3403e+02	6.5932	7.515674	0.000233	2.333124	0.395242	-0.000023
1349	1.3413e+02	6.5812	7.494085	0.000217	2.169396	0.367506	-0.000022
1350	1.3423e+02	6.5728	7.473717	0.000205	2.046600	0.346703	-0.000020
1351	1.3432e+02	6.5635	7.449684	0.000241	2.414988	0.409110	-0.000024
1352	1.3442e+02	6.5511	7.424022	0.000258	2.578716	0.436846	-0.000026
1353	1.3452e+02	6.5405	7.405284	0.000188	1.882872	0.318967	-0.000019
1354	1.3462e+02	6.5334	7.380029	0.000254	2.537784	0.429912	-0.000025
1355	1.3472e+02	6.5240	7.362920	0.000172	1.719144	0.291231	-0.000017
1356	1.3482e+02	6.5127	7.339702	0.000233	2.333124	0.395242	-0.000023
1357	1.3492e+02	6.5015	7.320149	0.000196	1.964736	0.332835	-0.000020
1358	1.3502e+02	6.4925	7.294487	0.000258	2.578716	0.436846	-0.000026
1359	1.3512e+02	6.4834	7.272898	0.000217	2.169396	0.367506	-0.000022
1360	1.3522e+02	6.4713	7.245606	0.000274	2.742444	0.464583	-0.000027
1361	1.3532e+02	6.4629	7.226461	0.000192	1.923804	0.325901	-0.000019
1362	1.3542e+02	6.4532	7.203649	0.000229	2.292192	0.388308	-0.000023
1363	1.3552e+02	6.4436	7.181653	0.000221	2.210328	0.374440	-0.000022
1364	1.3562e+02	6.4330	7.156805	0.000250	2.496852	0.422978	-0.000025
1365	1.3572e+02	6.4258	7.137660	0.000192	1.923804	0.325901	-0.000019
1366	1.3582e+02	6.4117	7.110775	0.000270	2.701512	0.457648	-0.000027
1367	1.3592e+02	6.4034	7.093260	0.000176	1.760076	0.298165	-0.000018
1368	1.3602e+02	6.3943	7.072078	0.000213	2.128464	0.360572	-0.000021
1369	1.3612e+02	6.3828	7.047637	0.000246	2.455920	0.416044	-0.000025
1370	1.3622e+02	6.3718	7.021160	0.000266	2.660580	0.450714	-0.000027
1371	1.3631e+02	6.3638	7.000793	0.000205	2.046600	0.346703	-0.000020
1372	1.3641e+02	6.3544	6.975130	0.000258	2.578716	0.436846	-0.000026
1373	1.3651e+02	6.3453	6.951504	0.000237	2.374056	0.402176	-0.000024
1374	1.3661e+02	6.3337	6.925842	0.000258	2.578716	0.436846	-0.000026
1375	1.3671e+02	6.3239	6.902216	0.000237	2.374056	0.402176	-0.000024
1376	1.3681e+02	6.3150	6.879405	0.000229	2.292192	0.388308	-0.000023
1377	1.3691e+02	6.3020	6.855779	0.000237	2.374056	0.402176	-0.000024
1378	1.3701e+02	6.2948	6.828894	0.000270	2.701512	0.457648	-0.000027
1379	1.3711e+02	6.2850	6.807305	0.000217	2.169396	0.367506	-0.000022
1380	1.3721e+02	6.2756	6.783679	0.000237	2.374056	0.402176	-0.000024
1381	1.3731e+02	6.2652	6.759646	0.000241	2.414988	0.409110	-0.000024
1382	1.3741e+02	6.2533	6.731947	0.000278	2.783376	0.471517	-0.000028
1383	1.3751e+02	6.2444	6.709135	0.000229	2.292192	0.388308	-0.000023
1384	1.3761e+02	6.2342	6.682658	0.000266	2.660580	0.450714	-0.000027
1385	1.3771e+02	6.2251	6.658625	0.000241	2.414988	0.409110	-0.000024
1386	1.3781e+02	6.2135	6.632148	0.000266	2.660580	0.450714	-0.000027
1387	1.3791e+02	6.2069	6.606893	0.000254	2.537784	0.429912	-0.000025
1388	1.3801e+02	6.1970	6.579601	0.000274	2.742444	0.464583	-0.000027
1389	1.3811e+02	6.1849	6.552309	0.000274	2.742444	0.464583	-0.000027
1390	1.3821e+02	6.1766	6.526239	0.000262	2.619648	0.443780	-0.000026
1391	1.3831e+02	6.1641	6.501391	0.000250	2.496852	0.422978	-0.000025
1392	1.3840e+02	6.1532	6.473284	0.000282	2.824308	0.478451	-0.000028
1393	1.3850e+02	6.1475	6.449251	0.000241	2.414988	0.409110	-0.000024
1394	1.3860e+02	6.1387	6.415849	0.000336	3.356423	0.568594	-0.000034
1395	1.3870e+02	6.1250	6.390594	0.000254	2.537784	0.429912	-0.000025
1396	1.3880e+02	6.1161	6.370634	0.000201	2.005668	0.339769	-0.000020
1397	1.3890e+02	6.1054	6.339676	0.000311	3.110831	0.526989	-0.000031
1398	1.3900e+02	6.0995	6.313199	0.000266	2.660580	0.450714	-0.000027
1399	1.3910e+02	6.0863	6.287943	0.000254	2.537784	0.429912	-0.000025
1400	1.3920e+02	6.0764	6.261466	0.000266	2.660580	0.450714	-0.000027
1401	1.3930e+02	6.0632	6.231323	0.000303	3.028967	0.513121	-0.000030
1402	1.3940e+02	6.0571	6.202809	0.000287	2.865240	0.485385	-0.000029
1403	1.3950e+02	6.0465	6.179590	0.000233	2.333124	0.395242	-0.000023
1404	1.3960e+02	6.0323	6.151484	0.000282	2.824308	0.478451	-0.000028
1405	1.3970e+02	6.0255	6.119303	0.000323	3.233627	0.547791	-0.000032
1406	1.3980e+02	6.0137	6.094456	0.000250	2.496852	0.422978	-0.000025
1407	1.3990e+02	6.0053	6.069200	0.000254	2.537784	0.429912	-0.000025
1408	1.4000e+02	5.9942	6.043538	0.000258	2.578716	0.436846	-0.000026
1409	1.4010e+02	5.9878	6.017468	0.000262	2.619648	0.443780	-0.000026
1410	1.4020e+02	5.9751	5.993842	0.000237	2.374056	0.402176	-0.000024
1411	1.4029e+02	5.9669	5.967772	0.000262	2.619648	0.443780	-0.000026
1412	1.4039e+02	5.9560	5.942109	0.000258	2.578716	0.436846	-0.000026
1413	1.4049e+02	5.9483	5.911966	0.000303	3.028967	0.513121	-0.000030
1414	1.4059e+02	5.9406	5.890784	0.000213	2.128464	0.360572	-0.000021
1415	1.4069e+02	5.9274	5.863492	0.000274	2.742444	0.464583	-0.000027
1416	1.4079e+02	5.9164	5.838237	0.000254	2.537784	0.429912	-0.000025
1417	1.4089e+02	5.9069	5.809316	0.000291	2.906172	0.492319	-0.000029
1418	1.4099e+02	5.8964	5.786912	0.000225	2.251260	0.381374	-0.000023
1419	1.4109e+02	5.8855	5.761657	0.000254	2.537784	0.429912	-0.000025
1420	1.4119e+02	5.8758	5.732328	0.000295	2.947103	0.499253	-0.000029
1421	1.4129e+02	5.8656	5.711146	0.000213	2.128464	0.360572	-0.000021
1422	1.4139e+02	5.8596	5.683447	0.000278	2.783376	0.471517	-0.000028
1423	1.4149e+02	5.8469	5.661043	0.000225	2.251260	0.381374	-0.000023
1424	1.4159e+02	5.8364	5.632529	0.000287	2.865240	0.485385	-0.000029
1425	1.4169e+02	5.8234	5.610533	0.000221	2.210328	0.374440	-0.000022
1426	1.4179e+02	5.8175	5.582833	0.000278	2.783376	0.471517	-0.000028
1427	1.4189e+02	5.8083	5.557578	0.000254	2.537784	0.429912	-0.000025
1428	1.4199e+02	5.7952	5.533138	0.000246	2.455920	0.416044	-0.000025
1429	1.4209e+02	5.7874	5.504624	0.000287	2.865240	0.485385	-0.000029
1430	1.4219e+02	5.7742	5.481812	0.000229	2.292192	0.388308	-0.000023
1431	1.4228e+02	5.7671	5.456557	0.000254	2.537784	0.429912	-0.000025
1432	1.4238e+02	5.7589	5.428858	0.000278	2.783376	0.471517	-0.000028
1433	1.4248e+02	5.7471	5.403195	0.000258	2.578716	0.436846	-0.000026
1434	1.4258e+02	5.7357	5.377125	0.000262	2.619648	0.443780	-0.000026
1435	1.4268e+02	5.7298	5.352685	0.000246	2.455920	0.416044	-0.000025
1436	1.4278e+02	5.7148	5.327022	0.000258	2.578716	0.436846	-0.000026
1437	1.4288e+02	5.7062	5.295249	0.000319	3.192695	0.540857	-0.000032
1438	1.4298e+02	5.6960	5.268365	0.000270	2.701512	0.457648	-0.000027
1439	1.4308e+02	5.6884	5.242702	0.000258	2.578716	0.436846	-0.000026
1440	1.4318e+02	5.6782	5.218262	0.000246	2.455920	0.416044	-0.000025
1441	1.4328e+02	5.6670	5.188526	0.000299	2.988035	0.506187	-0.000030
1442	1.4338e+02	5.6590	5.164493	0.000241	2.414988	0.409110	-0.000024
1443	1.4348e+02	5.6496	5.135979	0.000287	2.865240	0.485385	-0.000029
1444	1.4358e+02	5.6373	5.107872	0.000282	2.824308	0.478451	-0.000028
1445	1.4368e+02	5.6271	5.083839	0.000241	2.414988	0.409110	-0.000024
1446	1.4378e+02	5.6188	5.058991	0.000250	2.496852	0.422978	-0.000025
1447	1.4388e+02	5.6094	5.032106	0.000270	2.701512	0.457648	-0.000027
1448	1.4398e+02	5.5975	5.006851	0.000254	2.537784	0.429912	-0.000025
1449	1.4408e+02	5.5875	4.974264	0.000327	3.274559	0.554725	-0.000033
1450	1.4418e+02	5.5782	4.950230	0.000241	2.414988	0.409110	-0.000024
1451	1.4428e+02	5.5695	4.925382	0.000250	2.496852	0.422978	-0.000025
1452	1.4437e+02	5.5591	4.895646	0.000299	2.988035	0.506187	-0.000030
1453	1.4447e+02	5.5457	4.871613	0.000241	2.414988	0.409110	-0.000024
1454	1.4457e+02	5.5361	4.845951	0.000258	2.578716	0.436846	-0.000026
1455	1.4467e+02	5.5296	4.818251	0.000278	2.783376	0.471517	-0.000028
1456	1.4477e+02	5.5188	4.791367	0.000270	2.701512	0.457648	-0.000027
1457	1.4487e+02	5.5076	4.767334	0.000241	2.414988	0.409110	-0.000024
1458	1.4497e+02	5.4971	4.741671	0.000258	2.578716	0.436846	-0.000026
1459	1.4507e+02	5.4890	4.713564	0.000282	2.824308	0.478451	-0.000028
1460	1.4517e+02	5.4790	4.689124	0.000246	2.455920	0.416044	-0.000025
1461	1.4527e+02	5.4700	4.664683	0.000246	2.455920	0.416044	-0.000025
1462	1.4537e+02	5.4591	4.641872	0.000229	2.292192	0.388308	-0.000023
1463	1.4547e+02	5.4530	4.617431	0.000246	2.455920	0.416044	-0.000025
1464	1.4557e+02	5.4398	4.590547	0.000270	2.701512	0.457648	-0.000027
1465	1.4567e+02	5.4290	4.565292	0.000254	2.537784	0.429912	-0.000025
1466	1.4577e+02	5.4171	4.540036	0.000254	2.537784	0.429912	-0.000025
1467	1.4587e+02	5.4079	4.510300	0.000299	2.988035	0.506187	-0.000030
1468	1.4597e+02	5.3973	4.487897	0.000225	2.251260	0.381374	-0.000023
1469	1.4607e+02	5.3883	4.465493	0.000225	2.251260	0.381374	-0.000023
1470	1.4617e+02	5.3767	4.439015	0.000266	2.660580	0.450714	-0.000027
1471	1.4626e+02	5.3710	4.415797	0.000233	2.333124	0.395242	-0.000023
1472	1.4636e+02	5.3613	4.390134	0.000258	2.578716	0.436846	-0.000026
1473	1.4646e+02	5.3495	4.367731	0.000225	2.251260	0.381374	-0.000023
1474	1.4656e+02	5.3394	4.344512	0.000233	2.333124	0.395242	-0.000023
1475	1.4666e+02	5.3339	4.323738	0.000209	2.087532	0.353637	-0.000021
1476	1.4676e+02	5.3205	4.297260	0.000266	2.660580	0.450714	-0.000027
1477	1.4686e+02	5.3116	4.274856	0.000225	2.251260	0.381374	-0.000023
1478	1.4696e+02	5.2988	4.250823	0.000241	2.414988	0.409110	-0.000024
1479	1.4706e+02	5.2887	4.227197	0.000237	2.374056	0.402176	-0.000024
1480	1.4716e+02	5.2783	4.203571	0.000237	2.374056	0.402176	-0.000024
1481	1.4726e+02	5.2721	4.180760	0.000229	2.292192	0.388308	-0.000023
1482	1.4736e+02	5.2595	4.156727	0.000241	2.414988	0.409110	-0.000024
1483	1.4746e+02	5.2518	4.133101	0.000237	2.374056	0.402176	-0.000024
1484	1.4756e+02	5.2428	4.110290	0.000229	2.292192	0.388308	-0.000023
1485	1.4766e+02	5.2279	4.085849	0.000246	2.455920	0.416044	-0.000025
1486	1.4776e+02	5.2206	4.063038	0.000229	2.292192	0.388308	-0.000023
1487	1.4786e+02	5.2090	4.038190	0.000250	2.496852	0.422978	-0.000025
1488	1.4796e+02	5.1997	4.018638	0.000196	1.964736	0.332835	-0.000020
1489	1.4806e+02	5.1907	3.991753	0.000270	2.701512	0.457648	-0.000027
1490	1.4816e+02	5.1816	3.967313	0.000246	2.455920	0.416044	-0.000025
1491	1.4825e+02	5.1707	3.946131	0.000213	2.128464	0.360572	-0.000021
1492	1.4835e+02	5.1569	3.922505	0.000237	2.374056	0.402176	-0.000024
1493	1.4845e+02	5.1503	3.893176	0.000295	2.947103	0.499253	-0.000029
1494	1.4855e+02	5.1392	3.869551	0.000237	2.374056	0.402176	-0.000024
1495	1.4865e+02	5.1302	3.845110	0.000246	2.455920	0.416044	-0.000025
1496	1.4875e+02	5.1196	3.818633	0.000266	2.660580	0.450714	-0.000027
1497	1.4885e+02	5.1100	3.792155	0.000266	2.660580	0.450714	-0.000027
1498	1.4895e+02	5.0994	3.770566	0.000217	2.169396	0.367506	-0.000022
1499	1.4905e+02	5.0910	3.742867	0.000278	2.783376	0.471517	-0.000028
1500	1.4915e+02	5.0808	3.717204	0.000258	2.578716	0.436846	-0.000026
1501	1.4925e+02	5.0687	3.690320	0.000270	2.701512	0.457648	-0.000027
1502	1.4935e+02	5.0614	3.666694	0.000237	2.374056	0.402176	-0.000024
1503	1.4945e+02	5.0500	3.638995	0.000278	2.783376	0.471517	-0.000028
1504	1.4955e+02	5.0430	3.614961	0.000241	2.414988	0.409110	-0.000024
1505	1.4965e+02	5.0306	3.589299	0.000258	2.578716	0.436846	-0.000026
1506	1.4975e+02	5.0204	3.566080	0.000233	2.333124	0.395242	-0.000023
1507	1.4985e+02	5.0101	3.539603	0.000266	2.660580	0.450714	-0.000027
1508	1.4995e+02	5.0015	3.511904	0.000278	2.783376	0.471517	-0.000028
1509	1.5005e+02	4.9915	3.489093	0.000229	2.292192	0.388308	-0.000023
1510	1.5015e+02	4.9813	3.459764	0.000295	2.947103	0.499253	-0.000029
1511	1.5025e+02	4.9707	3.434101	0.000258	2.578716	0.436846	-0.000026
1512	1.5034e+02	4.9615	3.407624	0.000266	2.660580	0.450714	-0.000027
1513	1.5044e+02	4.9494	3.382369	0.000254	2.537784	0.429912	-0.000025
1514	1.5054e+02	4.9404	3.356299	0.000262	2.619648	0.443780	-0.000026
1515	1.5064e+02	4.9316	3.328192	0.000282	2.824308	0.478451	-0.000028
1516	1.5074e+02	4.9215	3.304566	0.000237	2.374056	0.402176	-0.000024
1517	1.5084e+02	4.9104	3.279311	0.000254	2.537784	0.429912	-0.000025
1518	1.5094e+02	4.8997	3.250797	0.000287	2.865240	0.485385	-0.000029
1519	1.5104e+02	4.8928	3.232059	0.000188	1.882872	0.318967	-0.000019
1520	1.5114e+02	4.8822	3.202731	0.000295	2.947103	0.499253	-0.000029
1521	1.5124e+02	4.8678	3.176661	0.000262	2.619648	0.443780	-0.000026
1522	1.5134e+02	4.8637	3.152628	0.000241	2.414988	0.409110	-0.000024
1523	1.5144e+02	4.8540	3.126150	0.000266	2.660580	0.450714	-0.000027
1524	1.5154e+02	4.8428	3.100488	0.000258	2.578716	0.436846	-0.000026
1525	1.5164e+02	4.8309	3.077269	0.000233	2.333124	0.395242	-0.000023
1526	1.5174e+02	4.8231	3.053236	0.000241	2.414988	0.409110	-0.000024
1527	1.5184e+02	4.8111	3.025537	0.000278	2.783376	0.471517	-0.000028
1528	1.5194e+02	4.8021	3.000689	0.000250	2.496852	0.422978	-0.000025
1529	1.5204e+02	4.7930	2.972175	0.000287	2.865240	0.485385	-0.000029
1530	1.5214e+02	4.7825	2.949771	0.000225	2.251260	0.381374	-0.000023
1531	1.5224e+02	4.7691	2.922072	0.000278	2.783376	0.471517	-0.000028
1532	1.5233e+02	4.7625	2.898039	0.000241	2.414988	0.409110	-0.000024
1533	1.5243e+02	4.7530	2.873191	0.000250	2.496852	0.422978	-0.000025
1534	1.5253e+02	4.7410	2.848750	0.000246	2.455920	0.416044	-0.000025
1535	1.5263e+02	4.7303	2.827568	0.000213	2.128464	0.360572	-0.000021
1536	1.5273e+02	4.7247	2.796610	0.000311	3.110831	0.526989	-0.000031
1537	1.5283e+02	4.7098	2.771355	0.000254	2.537784	0.429912	-0.000025
1538	1.5293e+02	4.7048	2.745285	0.000262	2.619648	0.443780	-0.000026
1539	1.5303e+02	4.6934	2.718401	0.000270	2.701512	0.457648	-0.000027
1540	1.5313e+02	4.6816	2.693960	0.000246	2.455920	0.416044	-0.000025
1541	1.5323e+02	4.6731	2.664631	0.000295	2.947103	0.499253	-0.000029
1542	1.5333e+02	4.6615	2.634895	0.000299	2.988035	0.506187	-0.000030
1543	1.5343e+02	4.6546	2.612084	0.000229	2.292192	0.388308	-0.000023
1544	1.5353e+02	4.6423	2.581126	0.000311	3.110831	0.526989	-0.000031
1545	1.5363e+02	4.6317	2.555463	0.000258	2.578716	0.436846	-0.000026
1546	1.5373e+02	4.6243	2.524913	0.000307	3.069899	0.520055	-0.000031
1547	1.5383e+02	4.6133	2.501694	0.000233	2.333124	0.395242	-0.000023
1548	1.5393e+02	4.6029	2.471551	0.000303	3.028967	0.513121	-0.000030
1549	1.5403e+02	4.5922	2.444666	0.000270	2.701512	0.457648	-0.000027
1550	1.5413e+02	4.5827	2.414116	0.000307	3.069899	0.520055	-0.000031
1551	1.5422e+02	4.5773	2.389675	0.000246	2.455920	0.416044	-0.000025
1552	1.5432e+02	4.5619	2.359124	0.000307	3.069899	0.520055	-0.000031
1553	1.5442e+02	4.5547	2.332647	0.000266	2.660580	0.450714	-0.000027
1554	1.5452e+02	4.5426	2.306170	0.000266	2.660580	0.450714	-0.000027
1555	1.5462e+02	4.5329	2.277656	0.000287	2.865240	0.485385	-0.000029
1556	1.5472e+02	4.5237	2.247513	0.000303	3.028967	0.513121	-0.000030
1557	1.5482e+02	4.5127	2.216962	0.000307	3.069899	0.520055	-0.000031
1558	1.5492e+02	4.5005	2.190077	0.000270	2.701512	0.457648	-0.000027
1559	1.5502e+02	4.4953	2.154638	0.000356	3.561083	0.603264	-0.000036
1560	1.5512e+02	4.4833	2.124902	0.000299	2.988035	0.506187	-0.000030
1561	1.5522e+02	4.4742	2.094352	0.000307	3.069899	0.520055	-0.000031
1562	1.5532e+02	4.4637	2.066245	0.000282	2.824308	0.478451	-0.000028
1563	1.5542e+02	4.4535	2.038138	0.000282	2.824308	0.478451	-0.000028
1564	1.5552e+02	4.4434	2.007995	0.000303	3.028967	0.513121	-0.000030
1565	1.5562e+02	4.4338	1.974186	0.000340	3.397355	0.575528	-0.000034
1566	1.5572e+02	4.4256	1.946486	0.000278	2.783376	0.471517	-0.000028
1567	1.5582e+02	4.4124	1.919194	0.000274	2.742444	0.464583	-0.000027
1568	1.5592e+02	4.4026	1.889051	0.000303	3.028967	0.513121	-0.000030
1569	1.5602e+02	4.3940	1.857278	0.000319	3.192695	0.540857	-0.000032
1570	1.5612e+02	4.3844	1.828764	0.000287	2.865240	0.485385	-0.000029
1571	1.5622e+02	4.3735	1.802287	0.000266	2.660580	0.450714	-0.000027
1572	1.5631e+02	4.3650	1.766848	0.000356	3.561083	0.603264	-0.000036
1573	1.5641e+02	4.3548	1.738334	0.000287	2.865240	0.485385	-0.000029
1574	1.5651e+02	4.3462	1.706969	0.000315	3.151763	0.533923	-0.000032
1575	1.5661e+02	4.3382	1.678048	0.000291	2.906172	0.492319	-0.000029
1576	1.5671e+02	4.3247	1.650756	0.000274	2.742444	0.464583	-0.000027
1577	1.5681e+02	4.3154	1.619390	0.000315	3.151763	0.533923	-0.000032
1578	1.5691e+02	4.3049	1.593320	0.000262	2.619648	0.443780	-0.000026
1579	1.5701e+02	4.2932	1.562770	0.000307	3.069899	0.520055	-0.000031
1580	1.5711e+02	4.2828	1.532626	0.000303	3.028967	0.513121	-0.000030
1581	1.5721e+02	4.2745	1.502890	0.000299	2.988035	0.506187	-0.000030
1582	1.5731e+02	4.2648	1.478450	0.000246	2.455920	0.416044	-0.000025
1583	1.5741e+02	4.2554	1.451158	0.000274	2.742444	0.464583	-0.000027
1584	1.5751e+02	4.2443	1.420607	0.000307	3.069899	0.520055	-0.000031
1585	1.5761e+02	4.2342	1.390056	0.000307	3.069899	0.520055	-0.000031
1586	1.5771e+02	4.2242	1.365209	0.000250	2.496852	0.422978	-0.000025
1587	1.5781e+02	4.2138	1.336287	0.000291	2.906172	0.492319	-0.000029
1588	1.5791e+02	4.2069	1.304515	0.000319	3.192695	0.540857	-0.000032
1589	1.5801e+02	4.1963	1.278445	0.000262	2.619648	0.443780	-0.000026
1590	1.5811e+02	4.1846	1.245857	0.000327	3.274559	0.554725	-0.000033
1591	1.5821e+02	4.1749	1.219380	0.000266	2.660580	0.450714	-0.000027
1592	1.5830e+02	4.1657	1.192495	0.000270	2.701512	0.457648	-0.000027
1593	1.5840e+02	4.1556	1.159908	0.000327	3.274559	0.554725	-0.000033
1594	1.5850e+02	4.1456	1.132616	0.000274	2.742444	0.464583	-0.000027
1595	1.5860e+02	4.1374	1.102473	0.000303	3.028967	0.513121	-0.000030
1596	1.5870e+02	4.1265	1.077217	0.000254	2.537784	0.429912	-0.000025
1597	1.5880e+02	4.1163	1.048703	0.000287	2.865240	0.485385	-0.000029
1598	1.5890e+02	4.1049	1.019782	0.000291	2.906172	0.492319	-0.000029
1599	1.5900e+02	4.0933	0.992083	0.000278	2.783376	0.471517	-0.000028
1600	1.5910e+02	4.0866	0.962347	0.000299	2.988035	0.506187	-0.000030
1601	1.5920e+02	4.0779	0.931389	0.000311	3.110831	0.526989	-0.000031
1602	1.5930e+02	4.0633	0.903689	0.000278	2.783376	0.471517	-0.000028
1603	1.5940e+02	4.0553	0.877620	0.000262	2.619648	0.443780	-0.000026
1604	1.5950e+02	4.0476	0.837293	0.000405	4.052267	0.686473	-0.000041
1605	1.5960e+02	4.0342	0.809593	0.000278	2.783376	0.471517	-0.000028
1606	1.5970e+02	4.0260	0.781894	0.000278	2.783376	0.471517	-0.000028
1607	1.5980e+02	4.0157	0.752158	0.000299	2.988035	0.506187	-0.000030
1608	1.5990e+02	4.0057	0.723237	0.000291	2.906172	0.492319	-0.000029
1609	1.6000e+02	3.9952	0.695130	0.000282	2.824308	0.478451	-0.000028
1610	1.6010e+02	3.9864	0.666616	0.000287	2.865240	0.485385	-0.000029
1611	1.6019e+02	3.9773	0.636880	0.000299	2.988035	0.506187	-0.000030
1612	1.6029e+02	3.9674	0.609588	0.000274	2.742444	0.464583	-0.000027
1613	1.6039e+02	3.9574	0.574149	0.000356	3.561083	0.603264	-0.000036
1614	1.6049e+02	3.9458	0.545228	0.000291	2.906172	0.492319	-0.000029
1615	1.6059e+02	3.9371	0.514270	0.000311	3.110831	0.526989	-0.000031
1616	1.6069e+02	3.9245	0.486163	0.000282	2.824308	0.478451	-0.000028
1617	1.6079e+02	3.9138	0.453983	0.000323	3.233627	0.547791	-0.000032
1618	1.6089e+02	3.9068	0.424247	0.000299	2.988035	0.506187	-0.000030
1619	1.6099e+02	3.8937	0.391660	0.000327	3.274559	0.554725	-0.000033
1620	1.6109e+02	3.8816	0.365183	0.000266	2.660580	0.450714	-0.000027
1621	1.6119e+02	3.8773	0.335854	0.000295	2.947103	0.499253	-0.000029
1622	1.6129e+02	3.8677	0.305711	0.000303	3.028967	0.513121	-0.000030
1623	1.6139e+02	3.8532	0.279233	0.000266	2.660580	0.450714	-0.000027
1624	1.6149e+02	3.8509	0.247053	0.000323	3.233627	0.547791	-0.000032
1625	1.6159e+02	3.8337	0.220169	0.000270	2.701512	0.457648	-0.000027
1626	1.6169e+02	3.8276	0.193284	0.000270	2.701512	0.457648	-0.000027
1627	1.6179e+02	3.8150	0.162733	0.000307	3.069899	0.520055	-0.000031
1628	1.6189e+02	3.8037	0.137885	0.000250	2.496852	0.422978	-0.000025
1629	1.6199e+02	3.7960	0.108149	0.000299	2.988035	0.506187	-0.000030
1630	1.6209e+02	3.7865	0.078821	0.000295	2.947103	0.499253	-0.000029
1631	1.6219e+02	3.7792	0.051529	0.000274	2.742444	0.464583	-0.000027
1632	1.6228e+02	3.7671	0.019756	0.000319	3.192695	0.540857	-0.000032
1633	1.6238e+02	3.7585	-0.005499	0.000254	2.537784	0.429912	-0.000025
1634	1.6248e+02	3.7476	-0.032791	0.000274	2.742444	0.464583	-0.000027
1635	1.6258e+02	3.7371	-0.060490	0.000278	2.783376	0.471517	-0.000028
1636	1.6268e+02	3.7300	-0.086968	0.000266	2.660580	0.450714	-0.000027
1637	1.6278e+02	3.7180	-0.117926	0.000311	3.110831	0.526989	-0.000031
1638	1.6288e+02	3.7054	-0.145625	0.000278	2.783376	0.471517	-0.000028
1639	1.6298e+02	3.6980	-0.172917	0.000274	2.742444	0.464583	-0.000027
1640	1.6308e+02	3.6880	-0.201024	0.000282	2.824308	0.478451	-0.000028
1641	1.6318e+02	3.6790	-0.228723	0.000278	2.783376	0.471517	-0.000028
1642	1.6328e+02	3.6671	-0.252349	0.000237	2.374056	0.402176	-0.000024
1643	1.6338e+02	3.6556	-0.277197	0.000250	2.496852	0.422978	-0.000025
1644	1.6348e+02	3.6486	-0.306525	0.000295	2.947103	0.499253	-0.000029
1645	1.6358e+02	3.6366	-0.332595	0.000262	2.619648	0.443780	-0.000026
1646	1.6368e+02	3.6292	-0.358665	0.000262	2.619648	0.443780	-0.000026
1647	1.6378e+02	3.6197	-0.385957	0.000274	2.742444	0.464583	-0.000027
1648	1.6388e+02	3.6083	-0.411212	0.000254	2.537784	0.429912	-0.000025
1649	1.6398e+02	3.5990	-0.444207	0.000332	3.315491	0.561659	-0.000033
1650	1.6408e+02	3.5874	-0.467833	0.000237	2.374056	0.402176	-0.000024
1651	1.6418e+02	3.5766	-0.493903	0.000262	2.619648	0.443780	-0.000026
1652	1.6427e+02	3.5668	-0.517936	0.000241	2.414988	0.409110	-0.000024
1653	1.6437e+02	3.5604	-0.547672	0.000299	2.988035	0.506187	-0.000030
1654	1.6447e+02	3.5485	-0.575371	0.000278	2.783376	0.471517	-0.000028
1655	1.6457e+02	3.5380	-0.598590	0.000233	2.333124	0.395242	-0.000023
1656	1.6467e+02	3.5265	-0.626697	0.000282	2.824308	0.478451	-0.000028
1657	1.6477e+02	3.5156	-0.653174	0.000266	2.660580	0.450714	-0.000027
1658	1.6487e+02	3.5101	-0.679651	0.000266	2.660580	0.450714	-0.000027
1659	1.6497e+02	3.4960	-0.708980	0.000295	2.947103	0.499253	-0.000029
1660	1.6507e+02	3.4909	-0.739123	0.000303	3.028967	0.513121	-0.000030
1661	1.6517e+02	3.4798	-0.765193	0.000262	2.619648	0.443780	-0.000026
1662	1.6527e+02	3.4694	-0.795744	0.000307	3.069899	0.520055	-0.000031
1663	1.6537e+02	3.4621	-0.820592	0.000250	2.496852	0.422978	-0.000025
1664	1.6547e+02	3.4480	-0.849513	0.000291	2.906172	0.492319	-0.000029
1665	1.6557e+02	3.4386	-0.880878	0.000315	3.151763	0.533923	-0.000032
1666	1.6567e+02	3.4299	-0.907763	0.000270	2.701512	0.457648	-0.000027
1667	1.6577e+02	3.4221	-0.940758	0.000332	3.315491	0.561659	-0.000033
1668	1.6587e+02	3.4089	-0.966420	0.000258	2.578716	0.436846	-0.000026
1669	1.6597e+02	3.3984	-0.993712	0.000274	2.742444	0.464583	-0.000027
1670	1.6607e+02	3.3890	-1.028336	0.000348	3.479219	0.589396	-0.000035
1671	1.6616e+02	3.3790	-1.051555	0.000233	2.333124	0.395242	-0.000023
1672	1.6626e+02	3.3699	-1.082920	0.000315	3.151763	0.533923	-0.000032
1673	1.6636e+02	3.3605	-1.111434	0.000287	2.865240	0.485385	-0.000029
1674	1.6646e+02	3.3484	-1.138319	0.000270	2.701512	0.457648	-0.000027
1675	1.6656e+02	3.3399	-1.166833	0.000287	2.865240	0.485385	-0.000029
1676	1.6666e+02	3.3285	-1.198605	0.000319	3.192695	0.540857	-0.000032
1677	1.6676e+02	3.3195	-1.228341	0.000299	2.988035	0.506187	-0.000030
1678	1.6686e+02	3.3099	-1.258892	0.000307	3.069899	0.520055	-0.000031
1679	1.6696e+02	3.2980	-1.288221	0.000295	2.947103	0.499253	-0.000029
1680	1.6706e+02	3.2910	-1.315105	0.000270	2.701512	0.457648	-0.000027
1681	1.6716e+02	3.2816	-1.344841	0.000299	2.988035	0.506187	-0.000030
1682	1.6726e+02	3.2708	-1.375392	0.000307	3.069899	0.520055	-0.000031
1683	1.6736e+02	3.2598	-1.407572	0.000323	3.233627	0.547791	-0.000032
1684	1.6746e+02	3.2490	-1.432827	0.000254	2.537784	0.429912	-0.000025
1685	1.6756e+02	3.2391	-1.460119	0.000274	2.742444	0.464583	-0.000027
1686	1.6766e+02	3.2287	-1.491485	0.000315	3.151763	0.533923	-0.000032
1687	1.6776e+02	3.2227	-1.520813	0.000295	2.947103	0.499253	-0.000029
1688	1.6786e+02	3.2104	-1.550957	0.000303	3.028967	0.513121	-0.000030
1689	1.6796e+02	3.2020	-1.575805	0.000250	2.496852	0.422978	-0.000025
1690	1.6806e+02	3.1929	-1.602689	0.000270	2.701512	0.457648	-0.000027
1691	1.6816e+02	3.1790	-1.632425	0.000299	2.988035	0.506187	-0.000030
1692	1.6825e+02	3.1708	-1.661347	0.000291	2.906172	0.492319	-0.000029
1693	1.6835e+02	3.1628	-1.694341	0.000332	3.315491	0.561659	-0.000033
1694	1.6845e+02	3.1509	-1.714301	0.000201	2.005668	0.339769	-0.000020
1695	1.6855e+02	3.1396	-1.748518	0.000344	3.438287	0.582462	-0.000034
1696	1.6865e+02	3.1303	-1.779476	0.000311	3.110831	0.526989	-0.000031
1697	1.6875e+02	3.1197	-1.808397	0.000291	2.906172	0.492319	-0.000029
1698	1.6885e+02	3.1106	-1.831208	0.000229	2.292192	0.388308	-0.000023
1699	1.6895e+02	3.1011	-1.862574	0.000315	3.151763	0.533923	-0.000032
1700	1.6905e+02	3.0888	-1.891902	0.000295	2.947103	0.499253	-0.000029
1701	1.6915e+02	3.0804	-1.920009	0.000282	2.824308	0.478451	-0.000028
1702	1.6925e+02	3.0711	-1.950967	0.000311	3.110831	0.526989	-0.000031
1703	1.6935e+02	3.0608	-1.977444	0.000266	2.660580	0.450714	-0.000027
1704	1.6945e+02	3.0506	-2.005551	0.000282	2.824308	0.478451	-0.000028
1705	1.6955e+02	3.0397	-2.033658	0.000282	2.824308	0.478451	-0.000028
1706	1.6965e+02	3.0300	-2.065023	0.000315	3.151763	0.533923	-0.000032
1707	1.6975e+02	3.0209	-2.093944	0.000291	2.906172	0.492319	-0.000029
1708	1.6985e+02	3.0116	-2.124902	0.000311	3.110831	0.526989	-0.000031
1709	1.6995e+02	3.0016	-2.155046	0.000303	3.028967	0.513121	-0.000030
1710	1.7005e+02	2.9922	-2.187633	0.000327	3.274559	0.554725	-0.000033
1711	1.7015e+02	2.9818	-2.218591	0.000311	3.110831	0.526989	-0.000031
1712	1.7024e+02	2.9725	-2.249142	0.000307	3.069899	0.520055	-0.000031
1713	1.7034e+02	2.9610	-2.283359	0.000344	3.438287	0.582462	-0.000034
1714	1.7044e+02	2.9503	-2.311465	0.000282	2.824308	0.478451	-0.000028
1715	1.7054e+02	2.9429	-2.344460	0.000332	3.315491	0.561659	-0.000033
1716	1.7064e+02	2.9293	-2.374196	0.000299	2.988035	0.506187	-0.000030
1717	1.7074e+02	2.9197	-2.403932	0.000299	2.988035	0.506187	-0.000030
1718	1.7084e+02	2.9111	-2.436112	0.000323	3.233627	0.547791	-0.000032
1719	1.7094e+02	2.9031	-2.464626	0.000287	2.865240	0.485385	-0.000029
1720	1.7104e+02	2.8909	-2.498843	0.000344	3.438287	0.582462	-0.000034
1721	1.7114e+02	2.8818	-2.530208	0.000315	3.151763	0.533923	-0.000032
1722	1.7124e+02	2.8714	-2.565240	0.000352	3.520151	0.596330	-0.000035
1723	1.7134e+02	2.8620	-2.596198	0.000311	3.110831	0.526989	-0.000031
1724	1.7144e+02	2.8510	-2.629600	0.000336	3.356423	0.568594	-0.000034
1725	1.7154e+02	2.8439	-2.662187	0.000327	3.274559	0.554725	-0.000033
1726	1.7164e+02	2.8312	-2.697626	0.000356	3.561083	0.603264	-0.000036
1727	1.7174e+02	2.8213	-2.729806	0.000323	3.233627	0.547791	-0.000032
1728	1.7184e+02	2.8109	-2.764430	0.000348	3.479219	0.589396	-0.000035
1729	1.7194e+02	2.7999	-2.794981	0.000307	3.069899	0.520055	-0.000031
1730	1.7204e+02	2.7881	-2.830420	0.000356	3.561083	0.603264	-0.000036
1731	1.7213e+02	2.7821	-2.860563	0.000303	3.028967	0.513121	-0.000030
1732	1.7223e+02	2.7679	-2.893558	0.000332	3.315491	0.561659	-0.000033
1733	1.7233e+02	2.7602	-2.924923	0.000315	3.151763	0.533923	-0.000032
1734	1.7243e+02	2.7515	-2.963621	0.000389	3.888539	0.658736	-0.000039
1735	1.7253e+02	2.7404	-2.995801	0.000323	3.233627	0.547791	-0.000032
1736	1.7263e+02	2.7293	-3.025944	0.000303	3.028967	0.513121	-0.000030
1737	1.7273e+02	2.7222	-3.061790	0.000360	3.602015	0.610198	-0.000036
1738	1.7283e+02	2.7119	-3.096007	0.000344	3.438287	0.582462	-0.000034
1739	1.7293e+02	2.7014	-3.127372	0.000315	3.151763	0.533923	-0.000032
1740	1.7303e+02	2.6935	-3.161182	0.000340	3.397355	0.575528	-0.000034
1741	1.7313e+02	2.6835	-3.194584	0.000336	3.356423	0.568594	-0.000034
1742	1.7323e+02	2.6717	-3.231652	0.000372	3.724811	0.631000	-0.000037
1743	1.7333e+02	2.6623	-3.264647	0.000332	3.315491	0.561659	-0.000033
1744	1.7343e+02	2.6525	-3.293976	0.000295	2.947103	0.499253	-0.000029
1745	1.7353e+02	2.6421	-3.330636	0.000368	3.683879	0.624066	-0.000037
1746	1.7363e+02	2.6345	-3.360780	0.000303	3.028967	0.513121	-0.000030
1747	1.7373e+02	2.6234	-3.394182	0.000336	3.356423	0.568594	-0.000034
1748	1.7383e+02	2.6112	-3.431250	0.000372	3.724811	0.631000	-0.000037
1749	1.7393e+02	2.6023	-3.455283	0.000241	2.414988	0.409110	-0.000024
1750	1.7403e+02	2.5907	-3.487871	0.000327	3.274559	0.554725	-0.000033
1751	1.7413e+02	2.5835	-3.522495	0.000348	3.479219	0.589396	-0.000035
1752	1.7422e+02	2.5716	-3.552638	0.000303	3.028967	0.513121	-0.000030
1753	1.7432e+02	2.5649	-3.585633	0.000332	3.315491	0.561659	-0.000033
1754	1.7442e+02	2.5553	-3.615369	0.000299	2.988035	0.506187	-0.000030
1755	1.7452e+02	2.5430	-3.650400	0.000352	3.520151	0.596330	-0.000035
1756	1.7462e+02	2.5341	-3.681358	0.000311	3.110831	0.526989	-0.000031
1757	1.7472e+02	2.5231	-3.715982	0.000348	3.479219	0.589396	-0.000035
1758	1.7482e+02	2.5124	-3.746126	0.000303	3.028967	0.513121	-0.000030
1759	1.7492e+02	2.5043	-3.779528	0.000336	3.356423	0.568594	-0.000034
1760	1.7502e+02	2.4953	-3.809264	0.000299	2.988035	0.506187	-0.000030
1761	1.7512e+02	2.4844	-3.839000	0.000299	2.988035	0.506187	-0.000030
1762	1.7522e+02	2.4757	-3.872809	0.000340	3.397355	0.575528	-0.000034
1763	1.7532e+02	2.4615	-3.905397	0.000327	3.274559	0.554725	-0.000033
1764	1.7542e+02	2.4535	-3.937577	0.000323	3.233627	0.547791	-0.000032
1765	1.7552e+02	2.4400	-3.966905	0.000295	2.947103	0.499253	-0.000029
1766	1.7562e+02	2.4364	-4.003566	0.000368	3.683879	0.624066	-0.000037
1767	1.7572e+02	2.4248	-4.032488	0.000291	2.906172	0.492319	-0.000029
1768	1.7582e+02	2.4133	-4.067112	0.000348	3.479219	0.589396	-0.000035
1769	1.7592e+02	2.4047	-4.102143	0.000352	3.520151	0.596330	-0.000035
1770	1.7602e+02	2.3930	-4.133101	0.000311	3.110831	0.526989	-0.000031
1771	1.7612e+02	2.3821	-4.165689	0.000327	3.274559	0.554725	-0.000033
1772	1.7621e+02	2.3723	-4.201535	0.000360	3.602015	0.610198	-0.000036
1773	1.7631e+02	2.3634	-4.235752	0.000344	3.438287	0.582462	-0.000034
1774	1.7641e+02	2.3523	-4.269968	0.000344	3.438287	0.582462	-0.000034
1775	1.7651e+02	2.3415	-4.302556	0.000327	3.274559	0.554725	-0.000033
1776	1.7661e+02	2.3373	-4.333514	0.000311	3.110831	0.526989	-0.000031
1777	1.7671e+02	2.3221	-4.366916	0.000336	3.356423	0.568594	-0.000034
1778	1.7681e+02	2.3151	-4.400725	0.000340	3.397355	0.575528	-0.000034
1779	1.7691e+02	2.3048	-4.433720	0.000332	3.315491	0.561659	-0.000033
1780	1.7701e+02	2.2947	-4.465900	0.000323	3.233627	0.547791	-0.000032
1781	1.7711e+02	2.2841	-4.498080	0.000323	3.233627	0.547791	-0.000032
1782	1.7721e+02	2.2733	-4.534741	0.000368	3.683879	0.624066	-0.000037
1783	1.7731e+02	2.2614	-4.570587	0.000360	3.602015	0.610198	-0.000036
1784	1.7741e+02	2.2559	-4.602360	0.000319	3.192695	0.540857	-0.000032
1785	1.7751e+02	2.2437	-4.635762	0.000336	3.356423	0.568594	-0.000034
1786	1.7761e+02	2.2337	-4.667942	0.000323	3.233627	0.547791	-0.000032
1787	1.7771e+02	2.2245	-4.703381	0.000356	3.561083	0.603264	-0.000036
1788	1.7781e+02	2.2159	-4.739227	0.000360	3.602015	0.610198	-0.000036
1789	1.7791e+02	2.2057	-4.768963	0.000299	2.988035	0.506187	-0.000030
1790	1.7801e+02	2.1986	-4.800328	0.000315	3.151763	0.533923	-0.000032
1791	1.7810e+02	2.1835	-4.830879	0.000307	3.069899	0.520055	-0.000031
1792	1.7820e+02	2.1738	-4.864688	0.000340	3.397355	0.575528	-0.000034
1793	1.7830e+02	2.1639	-4.897276	0.000327	3.274559	0.554725	-0.000033
1794	1.7840e+02	2.1572	-4.927419	0.000303	3.028967	0.513121	-0.000030
1795	1.7850e+02	2.1441	-4.960821	0.000336	3.356423	0.568594	-0.000034
1796	1.7860e+02	2.1349	-4.994223	0.000336	3.356423	0.568594	-0.000034
1797	1.7870e+02	2.1261	-5.026811	0.000327	3.274559	0.554725	-0.000033
1798	1.7880e+02	2.1134	-5.055325	0.000287	2.865240	0.485385	-0.000029
1799	1.7890e+02	2.1051	-5.087505	0.000323	3.233627	0.547791	-0.000032
1800	1.7900e+02	2.0971	-5.124166	0.000368	3.683879	0.624066	-0.000037
1801	1.7910e+02	2.0869	-5.153494	0.000295	2.947103	0.499253	-0.000029
1802	1.7920e+02	2.0763	-5.184452	0.000311	3.110831	0.526989	-0.000031
1803	1.7930e+02	2.0637	-5.217854	0.000336	3.356423	0.568594	-0.000034
1804	1.7940e+02	2.0544	-5.252071	0.000344	3.438287	0.582462	-0.000034
1805	1.7950e+02	2.0428	-5.281807	0.000299	2.988035	0.506187	-0.000030
1806	1.7960e+02	2.0340	-5.311543	0.000299	2.988035	0.506187	-0.000030
1807	1.7970e+02	2.0251	-5.342094	0.000307	3.069899	0.520055	-0.000031
1808	1.7980e+02	2.0141	-5.371015	0.000291	2.906172	0.492319	-0.000029
1809	1.7990e+02	2.0055	-5.402788	0.000319	3.192695	0.540857	-0.000032
1810	1.8000e+02	1.9962	-5.434561	0.000319	3.192695	0.540857	-0.000032
1811	1.8009e+02	1.9860	-5.465111	0.000307	3.069899	0.520055	-0.000031
1812	1.8019e+02	1.9753	-5.493218	0.000282	2.824308	0.478451	-0.000028
1813	1.8029e+02	1.9653	-5.526620	0.000336	3.356423	0.568594	-0.000034
1814	1.8039e+02	1.9567	-5.553505	0.000270	2.701512	0.457648	-0.000027
1815	1.8049e+02	1.9453	-5.589351	0.000360	3.602015	0.610198	-0.000036
1816	1.8059e+02	1.9363	-5.617050	0.000278	2.783376	0.471517	-0.000028
1817	1.8069e+02	1.9222	-5.647193	0.000303	3.028967	0.513121	-0.000030
1818	1.8079e+02	1.9176	-5.681818	0.000348	3.479219	0.589396	-0.000035
1819	1.8089e+02	1.9061	-5.709517	0.000278	2.783376	0.471517	-0.000028
1820	1.8099e+02	1.8972	-5.739253	0.000299	2.988035	0.506187	-0.000030
1821	1.8109e+02	1.8866	-5.765323	0.000262	2.619648	0.443780	-0.000026
1822	1.8119e+02	1.8768	-5.798318	0.000332	3.315491	0.561659	-0.000033
1823	1.8129e+02	1.8639	-5.828868	0.000307	3.069899	0.520055	-0.000031
1824	1.8139e+02	1.8563	-5.859419	0.000307	3.069899	0.520055	-0.000031
1825	1.8149e+02	1.8484	-5.888748	0.000295	2.947103	0.499253	-0.000029
1826	1.8159e+02	1.8340	-5.920520	0.000319	3.192695	0.540857	-0.000032
1827	1.8169e+02	1.8260	-5.954737	0.000344	3.438287	0.582462	-0.000034
1828	1.8179e+02	1.8152	-5.986510	0.000319	3.192695	0.540857	-0.000032
1829	1.8189e+02	1.8084	-6.016246	0.000299	2.988035	0.506187	-0.000030
1830	1.8199e+02	1.7953	-6.052092	0.000360	3.602015	0.610198	-0.000036
1831	1.8209e+02	1.7825	-6.083865	0.000319	3.192695	0.540857	-0.000032
1832	1.8218e+02	1.7754	-6.114823	0.000311	3.110831	0.526989	-0.000031
1833	1.8228e+02	1.7675	-6.144559	0.000299	2.988035	0.506187	-0.000030
1834	1.8238e+02	1.7571	-6.178775	0.000344	3.438287	0.582462	-0.000034
1835	1.8248e+02	1.7455	-6.214214	0.000356	3.561083	0.603264	-0.000036
1836	1.8258e+02	1.7374	-6.244765	0.000307	3.069899	0.520055	-0.000031
1837	1.8268e+02	1.7255	-6.278574	0.000340	3.397355	0.575528	-0.000034
1838	1.8278e+02	1.7158	-6.314013	0.000356	3.561083	0.603264	-0.000036
1839	1.8288e+02	1.7071	-6.343342	0.000295	2.947103	0.499253	-0.000029
1840	1.8298e+02	1.6981	-6.376337	0.000332	3.315491	0.561659	-0.000033
1841	1.8308e+02	1.6909	-6.407702	0.000315	3.151763	0.533923	-0.000032
1842	1.8318e+02	1.6770	-6.443955	0.000364	3.642947	0.617132	-0.000036
1843	1.8328e+02	1.6684	-6.474099	0.000303	3.028967	0.513121	-0.000030
1844	1.8338e+02	1.6607	-6.511982	0.000381	3.806675	0.644868	-0.000038
1845	1.8348e+02	1.6463	-6.540496	0.000287	2.865240	0.485385	-0.000029
1846	1.8358e+02	1.6359	-6.574712	0.000344	3.438287	0.582462	-0.000034
1847	1.8368e+02	1.6290	-6.604856	0.000303	3.028967	0.513121	-0.000030
1848	1.8378e+02	1.6168	-6.641924	0.000372	3.724811	0.631000	-0.000037
1849	1.8388e+02	1.6063	-6.673289	0.000315	3.151763	0.533923	-0.000032
1850	1.8398e+02	1.5993	-6.707099	0.000340	3.397355	0.575528	-0.000034
1851	1.8407e+02	1.5909	-6.738872	0.000319	3.192695	0.540857	-0.000032
1852	1.8417e+02	1.5765	-6.775125	0.000364	3.642947	0.617132	-0.000036
1853	1.8427e+02	1.5662	-6.806898	0.000319	3.192695	0.540857	-0.000032
1854	1.8437e+02	1.5558	-6.836226	0.000295	2.947103	0.499253	-0.000029
1855	1.8447e+02	1.5493	-6.867999	0.000319	3.192695	0.540857	-0.000032
1856	1.8457e+02	1.5403	-6.903031	0.000352	3.520151	0.596330	-0.000035
1857	1.8467e+02	1.5275	-6.935211	0.000323	3.233627	0.547791	-0.000032
1858	1.8477e+02	1.5168	-6.964539	0.000295	2.947103	0.499253	-0.000029
1859	1.8487e+02	1.5076	-7.001200	0.000368	3.683879	0.624066	-0.000037
1860	1.8497e+02	1.4993	-7.030121	0.000291	2.906172	0.492319	-0.000029
1861	1.8507e+02	1.4896	-7.059857	0.000299	2.988035	0.506187	-0.000030
1862	1.8517e+02	1.4775	-7.095296	0.000356	3.561083	0.603264	-0.000036
1863	1.8527e+02	1.4686	-7.132772	0.000377	3.765743	0.637934	-0.000038
1864	1.8537e+02	1.4559	-7.162915	0.000303	3.028967	0.513121	-0.000030
1865	1.8547e+02	1.4495	-7.194688	0.000319	3.192695	0.540857	-0.000032
1866	1.8557e+02	1.4381	-7.226053	0.000315	3.151763	0.533923	-0.000032
1867	1.8567e+02	1.4279	-7.257419	0.000315	3.151763	0.533923	-0.000032
1868	1.8577e+02	1.4187	-7.293265	0.000360	3.602015	0.610198	-0.000036
1869	1.8587e+02	1.4073	-7.323001	0.000299	2.988035	0.506187	-0.000030
1870	1.8597e+02	1.3966	-7.355181	0.000323	3.233627	0.547791	-0.000032
1871	1.8606e+02	1.3884	-7.388176	0.000332	3.315491	0.561659	-0.000033
1872	1.8616e+02	1.3776	-7.422800	0.000348	3.479219	0.589396	-0.000035
1873	1.8626e+02	1.3673	-7.459053	0.000364	3.642947	0.617132	-0.000036
1874	1.8636e+02	1.3584	-7.490011	0.000311	3.110831	0.526989	-0.000031
1875	1.8646e+02	1.3503	-7.525043	0.000352	3.520151	0.596330	-0.000035
1876	1.8656e+02	1.3373	-7.561296	0.000364	3.642947	0.617132	-0.000036
1877	1.8666e+02	1.3295	-7.593884	0.000327	3.274559	0.554725	-0.000033
1878	1.8676e+02	1.3203	-7.630544	0.000368	3.683879	0.624066	-0.000037
1879	1.8686e+02	1.3081	-7.664354	0.000340	3.397355	0.575528	-0.000034
1880	1.8696e+02	1.2993	-7.697349	0.000332	3.315491	0.561659	-0.000033
1881	1.8706e+02	1.2873	-7.731565	0.000344	3.438287	0.582462	-0.000034
1882	1.8716e+02	1.2791	-7.770670	0.000393	3.929471	0.665670	-0.000039
1883	1.8726e+02	1.2709	-7.801628	0.000311	3.110831	0.526989	-0.000031
1884	1.8736e+02	1.2626	-7.837474	0.000360	3.602015	0.610198	-0.000036
1885	1.8746e+02	1.2492	-7.872506	0.000352	3.520151	0.596330	-0.000035
1886	1.8756e+02	1.2410	-7.905908	0.000336	3.356423	0.568594	-0.000034
1887	1.8766e+02	1.2273	-7.938903	0.000332	3.315491	0.561659	-0.000033
1888	1.8776e+02	1.2193	-7.980044	0.000413	4.134131	0.700341	-0.000041
1889	1.8786e+02	1.2109	-8.013446	0.000336	3.356423	0.568594	-0.000034
1890	1.8796e+02	1.1987	-8.047663	0.000344	3.438287	0.582462	-0.000034
1891	1.8806e+02	1.1909	-8.089619	0.000422	4.215995	0.714209	-0.000042
1892	1.8815e+02	1.1782	-8.125058	0.000356	3.561083	0.603264	-0.000036
1893	1.8825e+02	1.1697	-8.160497	0.000356	3.561083	0.603264	-0.000036
1894	1.8835e+02	1.1621	-8.197973	0.000377	3.765743	0.637934	-0.000038
1895	1.8845e+02	1.1489	-8.233819	0.000360	3.602015	0.610198	-0.000036
1896	1.8855e+02	1.1396	-8.270072	0.000364	3.642947	0.617132	-0.000036
1897	1.8865e+02	1.1315	-8.310806	0.000409	4.093199	0.693407	-0.000041
1898	1.8875e+02	1.1202	-8.344616	0.000340	3.397355	0.575528	-0.000034
1899	1.8885e+02	1.1111	-8.382091	0.000377	3.765743	0.637934	-0.000038
1900	1.8895e+02	1.0999	-8.418345	0.000364	3.642947	0.617132	-0.000036
1901	1.8905e+02	1.0917	-8.453376	0.000352	3.520151	0.596330	-0.000035
1902	1.8915e+02	1.0806	-8.495740	0.000426	4.256927	0.721143	-0.000043
1903	1.8925e+02	1.0708	-8.533623	0.000381	3.806675	0.644868	-0.000038
1904	1.8935e+02	1.0627	-8.570284	0.000368	3.683879	0.624066	-0.000037
1905	1.8945e+02	1.0498	-8.606944	0.000368	3.683879	0.624066	-0.000037
1906	1.8955e+02	1.0410	-8.644827	0.000381	3.806675	0.644868	-0.000038
1907	1.8965e+02	1.0310	-8.682303	0.000377	3.765743	0.637934	-0.000038
1908	1.8975e+02	1.0207	-8.724259	0.000422	4.215995	0.714209	-0.000042
1909	1.8985e+02	1.0133	-8.757661	0.000336	3.356423	0.568594	-0.000034
1910	1.8995e+02	1.0010	-8.794322	0.000368	3.683879	0.624066	-0.000037
1911	1.9004e+02	0.9911	-8.829353	0.000352	3.520151	0.596330	-0.000035
1912	1.9014e+02	0.9797	-8.868458	0.000393	3.929471	0.665670	-0.000039
1913	1.9024e+02	0.9716	-8.904712	0.000364	3.642947	0.617132	-0.000036
1914	1.9034e+02	0.9605	-8.937299	0.000327	3.274559	0.554725	-0.000033
1915	1.9044e+02	0.9528	-8.977626	0.000405	4.052267	0.686473	-0.000041
1916	1.9054e+02	0.9417	-9.010214	0.000327	3.274559	0.554725	-0.000033
1917	1.9064e+02	0.9324	-9.046874	0.000368	3.683879	0.624066	-0.000037
1918	1.9074e+02	0.9224	-9.083943	0.000372	3.724811	0.631000	-0.000037
1919	1.9084e+02	0.9139	-9.115715	0.000319	3.192695	0.540857	-0.000032
1920	1.9094e+02	0.9019	-9.153191	0.000377	3.765743	0.637934	-0.000038
1921	1.9104e+02	0.8916	-9.191074	0.000381	3.806675	0.644868	-0.000038
1922	1.9114e+02	0.8764	-9.225698	0.000348	3.479219	0.589396	-0.000035
1923	1.9124e+02	0.8726	-9.260729	0.000352	3.520151	0.596330	-0.000035
1924	1.9134e+02	0.8649	-9.298612	0.000381	3.806675	0.644868	-0.000038
1925	1.9144e+02	0.8529	-9.336495	0.000381	3.806675	0.644868	-0.000038
1926	1.9154e+02	0.8399	-9.371934	0.000356	3.561083	0.603264	-0.000036
1927	1.9164e+02	0.8314	-9.410224	0.000385	3.847607	0.651802	-0.000038
1928	1.9174e+02	0.8195	-9.444033	0.000340	3.397355	0.575528	-0.000034
1929	1.9184e+02	0.8152	-9.482324	0.000385	3.847607	0.651802	-0.000038
1930	1.9194e+02	0.8022	-9.521836	0.000397	3.970403	0.672605	-0.000040
1931	1.9203e+02	0.7919	-9.551572	0.000299	2.988035	0.506187	-0.000030
1932	1.9213e+02	0.7815	-9.588640	0.000372	3.724811	0.631000	-0.000037
1933	1.9223e+02	0.7702	-9.627338	0.000389	3.888539	0.658736	-0.000039
1934	1.9233e+02	0.7642	-9.662776	0.000356	3.561083	0.603264	-0.000036
1935	1.9243e+02	0.7505	-9.701067	0.000385	3.847607	0.651802	-0.000038
1936	1.9253e+02	0.7423	-9.734061	0.000332	3.315491	0.561659	-0.000033
1937	1.9263e+02	0.7301	-9.772351	0.000385	3.847607	0.651802	-0.000038
1938	1.9273e+02	0.7240	-9.808605	0.000364	3.642947	0.617132	-0.000036
1939	1.9283e+02	0.7138	-9.845266	0.000368	3.683879	0.624066	-0.000037
1940	1.9293e+02	0.7003	-9.883963	0.000389	3.888539	0.658736	-0.000039
1941	1.9303e+02	0.6926	-9.919809	0.000360	3.602015	0.610198	-0.000036
1942	1.9313e+02	0.6834	-9.960544	0.000409	4.093199	0.693407	-0.000041
1943	1.9323e+02	0.6725	-9.995983	0.000356	3.561083	0.603264	-0.000036
1944	1.9333e+02	0.6606	-10.031421	0.000356	3.561083	0.603264	-0.000036
1945	1.9343e+02	0.6547	-10.072970	0.000418	4.175063	0.707275	-0.000042
1946	1.9353e+02	0.6426	-10.107187	0.000344	3.438287	0.582462	-0.000034
1947	1.9363e+02	0.6310	-10.145477	0.000385	3.847607	0.651802	-0.000038
1948	1.9373e+02	0.6230	-10.180916	0.000356	3.561083	0.603264	-0.000036
1949	1.9383e+02	0.6128	-10.219206	0.000385	3.847607	0.651802	-0.000038
1950	1.9393e+02	0.6020	-10.258718	0.000397	3.970403	0.672605	-0.000040
1951	1.9403e+02	0.5918	-10.291713	0.000332	3.315491	0.561659	-0.000033
1952	1.9412e+02	0.5815	-10.333262	0.000418	4.175063	0.707275	-0.000042
1953	1.9422e+02	0.5727	-10.368701	0.000356	3.561083	0.603264	-0.000036
1954	1.9432e+02	0.5627	-10.411065	0.000426	4.256927	0.721143	-0.000043
1955	1.9442e+02	0.5531	-10.447725	0.000368	3.683879	0.624066	-0.000037
1956	1.9452e+02	0.5435	-10.481942	0.000344	3.438287	0.582462	-0.000034
1957	1.9462e+02	0.5354	-10.520640	0.000389	3.888539	0.658736	-0.000039
1958	1.9472e+02	0.5227	-10.556893	0.000364	3.642947	0.617132	-0.000036
1959	1.9482e+02	0.5138	-10.593147	0.000364	3.642947	0.617132	-0.000036
1960	1.9492e+02	0.5029	-10.626956	0.000340	3.397355	0.575528	-0.000034
1961	1.9502e+02	0.4947	-10.665246	0.000385	3.847607	0.651802	-0.000038
1962	1.9512e+02	0.4837	-10.698241	0.000332	3.315491	0.561659	-0.000033
1963	1.9522e+02	0.4732	-10.734902	0.000368	3.683879	0.624066	-0.000037
1964	1.9532e+02	0.4633	-10.774414	0.000397	3.970403	0.672605	-0.000040
1965	1.9542e+02	0.4538	-10.810260	0.000360	3.602015	0.610198	-0.000036
1966	1.9552e+02	0.4436	-10.843662	0.000336	3.356423	0.568594	-0.000034
1967	1.9562e+02	0.4342	-10.881138	0.000377	3.765743	0.637934	-0.000038
1968	1.9572e+02	0.4253	-10.916577	0.000356	3.561083	0.603264	-0.000036
1969	1.9582e+02	0.4121	-10.953238	0.000368	3.683879	0.624066	-0.000037
1970	1.9592e+02	0.4019	-10.987862	0.000348	3.479219	0.589396	-0.000035
1971	1.9601e+02	0.3933	-11.019634	0.000319	3.192695	0.540857	-0.000032
1972	1.9611e+02	0.3819	-11.060369	0.000409	4.093199	0.693407	-0.000041
1973	1.9621e+02	0.3728	-11.096215	0.000360	3.602015	0.610198	-0.000036
1974	1.9631e+02	0.3640	-11.132061	0.000360	3.602015	0.610198	-0.000036
1975	1.9641e+02	0.3556	-11.160982	0.000291	2.906172	0.492319	-0.000029
1976	1.9651e+02	0.3441	-11.195606	0.000348	3.479219	0.589396	-0.000035
1977	1.9661e+02	0.3329	-11.237970	0.000426	4.256927	0.721143	-0.000043
1978	1.9671e+02	0.3228	-11.268521	0.000307	3.069899	0.520055	-0.000031
1979	1.9681e+02	0.3173	-11.299071	0.000307	3.069899	0.520055	-0.000031
1980	1.9691e+02	0.3059	-11.334510	0.000356	3.561083	0.603264	-0.000036
1981	1.9701e+02	0.2955	-11.368727	0.000344	3.438287	0.582462	-0.000034
1982	1.9711e+02	0.2851	-11.401722	0.000332	3.315491	0.561659	-0.000033
1983	1.9721e+02	0.2741	-11.439605	0.000381	3.806675	0.644868	-0.000038
1984	1.9731e+02	0.2654	-11.473821	0.000344	3.438287	0.582462	-0.000034
1985	1.9741e+02	0.2568	-11.508038	0.000344	3.438287	0.582462	-0.000034
1986	1.9751e+02	0.2458	-11.543884	0.000360	3.602015	0.610198	-0.000036
1987	1.9761e+02	0.2347	-11.579730	0.000360	3.602015	0.610198	-0.000036
1988	1.9771e+02	0.2225	-11.611910	0.000323	3.233627	0.547791	-0.000032
1989	1.9781e+02	0.2147	-11.647757	0.000360	3.602015	0.610198	-0.000036
1990	1.9791e+02	0.2029	-11.680344	0.000327	3.274559	0.554725	-0.000033
1991	1.9800e+02	0.1961	-11.716190	0.000360	3.602015	0.610198	-0.000036
1992	1.9810e+02	0.1871	-11.748778	0.000327	3.274559	0.554725	-0.000033
1993	1.9820e+02	0.1726	-11.784624	0.000360	3.602015	0.610198	-0.000036
1994	1.9830e+02	0.1651	-11.820877	0.000364	3.642947	0.617132	-0.000036
1995	1.9840e+02	0.1550	-11.851021	0.000303	3.028967	0.513121	-0.000030
1996	1.9850e+02	0.1445	-11.892162	0.000413	4.134131	0.700341	-0.000041
1997	1.9860e+02	0.1368	-11.928416	0.000364	3.642947	0.617132	-0.000036
1998	1.9870e+02	0.1261	-11.966706	0.000385	3.847607	0.651802	-0.000038
1999	1.9880e+02	0.1147	-12.002552	0.000360	3.602015	0.610198	-0.000036
2000	1.9890e+02	0.1054	-12.037176	0.000348	3.479219	0.589396	-0.000035
2001	1.9900e+02	0.0969	-12.074244	0.000372	3.724811	0.631000	-0.000037
2002	1.9910e+02	0.0867	-12.109276	0.000352	3.520151	0.596330	-0.000035
2003	1.9920e+02	0.0744	-12.148788	0.000397	3.970403	0.672605	-0.000040
2004	1.9930e+02	0.0670	-12.186671	0.000381	3.806675	0.644868	-0.000038
2005	1.9940e+02	0.0552	-12.220073	0.000336	3.356423	0.568594	-0.000034
2006	1.9950e+02	0.0465	-12.255104	0.000352	3.520151	0.596330	-0.000035
2007	1.9960e+02	0.0363	-12.292987	0.000381	3.806675	0.644868	-0.000038
2008	1.9970e+02	0.0243	-12.332499	0.000397	3.970403	0.672605	-0.000040
2009	1.9980e+02	0.0143	-12.368346	0.000360	3.602015	0.610198	-0.000036
2010	1.9990e+02	0.0066	-12.402155	0.000340	3.397355	0.575528	-0.000034
2011	2.0000e+02	-0.0050	-12.440445	0.000340	3.397355	0.575528	-0.000038

PMax (uC/cm2):	2.88e+01
Pr (uC/cm2):	1.98e+00
-Pr (uC/cm2):	0.00e+00
PLoss (uC/cm2):	0.00e+00
C (Max-Eff) (nF):	2.88e-01
K (Eff):	4.88e+02
Vert. (+/-Pr) Shift (uC/cm2):	9.88e-01
Offset (uC/cm2):	1.44e+01

A (Loop Area - uC/cm2·Volts):	-1.96e-02



Hysteresis Version: 5.48.1 - Radiant Technologies, Inc., 1999 - 9/12/24

