»»»»»»»»»»»»»»»»»»»»»»»»»»»»»»»»»»»» Hysteresis ««««««««««««««««««««««««««««««««««««
»»»  Executed Version:	5.48.1
»»»  Vision Version:	5.48.4 (R)
»»»  Vision Compiled:	9/18/24
»»»  Driver Version:	5.47.0
»»»  Windows Version:	Windows 8 or 8.1
»»»  Processor Information:	x86 (AMD or Intel) - 32 Processors
»»»  Tester Name:	PMF21124-494 (100V)
»»»  Tester S/N:	PMF21124-494
»»»  Internal Amp Type:	100V RevK 270k
»»»  Internal Amp S/N:	iAB2-596/K     
»»»  Execution Count:	1
»»»»»»»»»»»»»»»»»»»»»»»»»»»»»»»»»»»»»»»»»»««««««««««««««««««««««««««««««««««««««««««

Stored:	6/26/2025 - 10:43:51
Configured:	06/26/25 10:24:47 AM
Executed:	06/26/25 10:43:22 AM

»»»»»»»»»»»»»»»»»»»»»»»»»»»»»»»»»»» Sample Info ««««««««««««««««««««««««««««««««««««
Sample Name:	
Lot Name:	
Wafer Name:	
Die Row/Column:	0/0
Capacitor Number:	0
Sample Area (cm2):	1.00e-04
Sample Thickness (microns):	1.50e-01

Amplifier:	Internal

»»»»»»»»»»»»»»»»»»»»»»»»»»»»»»»»»»» Tester Info «««««««««««««««««««««««««««««««««««
Tester Name:	PMF21124-494 (100V)
Tester Serial Number:	PMF21124-494
Return Signal Amp. Level:	1.9 [Index: 2]

»»»»»»»»»»»»»»»»»»»»»»»»»»»»»»»» Hysteresis Info ««««««««««««««««««««««««««««««««««
Task Name:	Hyst-562
Volts:	10.00
Field:	666.67 (kV/cm)
DCBias:	0.00
DCField:	0.00 (kV/cm)
Hysteresis Period (ms):	2.00e+02
Preset:	Enabled
Preset Delay (ms):	1.00e+03
Profile:	Standard Monopolar

»»»»»»»»»»»»»»»»»»»»»»»»»»»»»»»»»»»»»» Data «««««««««««««««««««««««««««««««««««««««
Points:	2011

Valid Data

Point	Time (ms)	Drive Voltage	Measured Polarization (uC/cm2)	Capacitance (uF)	Normalized Capacitance (uF/cm2)	Dielectric Constant	Instantaneous Current (mA)
   1	0.0000e+00	-0.0020	-15.318931	0.000401	4.011901	0.679635	0.000040
   2	9.9500e-02	0.0064	-15.279012	0.000401	4.011901	0.679635	0.000040
   3	1.9900e-01	0.0208	-15.244388	0.000348	3.479710	0.589479	0.000035
   4	2.9850e-01	0.0255	-15.205690	0.000389	3.889088	0.658829	0.000039
   5	3.9800e-01	0.0389	-15.166178	0.000397	3.970964	0.672699	0.000040
   6	4.9750e-01	0.0465	-15.126666	0.000397	3.970964	0.672699	0.000040
   7	5.9700e-01	0.0551	-15.086746	0.000401	4.011901	0.679635	0.000040
   8	6.9650e-01	0.0629	-15.050493	0.000364	3.643462	0.617219	0.000036
   9	7.9600e-01	0.0759	-15.012610	0.000381	3.807213	0.644959	0.000038
  10	8.9550e-01	0.0832	-14.972283	0.000405	4.052839	0.686570	0.000041
  11	9.9500e-01	0.0957	-14.932771	0.000397	3.970964	0.672699	0.000040
  12	1.0945e+00	0.1071	-14.898554	0.000344	3.438773	0.582544	0.000034
  13	1.1940e+00	0.1157	-14.859449	0.000393	3.930026	0.665764	0.000039
  14	1.2935e+00	0.1259	-14.818307	0.000413	4.134715	0.700440	0.000041
  15	1.3930e+00	0.1353	-14.782461	0.000360	3.602524	0.610284	0.000036
  16	1.4925e+00	0.1473	-14.745393	0.000373	3.725337	0.631089	0.000037
  17	1.5920e+00	0.1550	-14.709954	0.000356	3.561586	0.603349	0.000036
  18	1.6915e+00	0.1672	-14.672886	0.000373	3.725337	0.631089	0.000037
  19	1.7910e+00	0.1762	-14.633374	0.000397	3.970964	0.672699	0.000040
  20	1.8905e+00	0.1869	-14.593047	0.000405	4.052839	0.686570	0.000041
  21	1.9900e+00	0.1984	-14.552313	0.000409	4.093777	0.693505	0.000041
  22	2.0895e+00	0.2069	-14.514430	0.000381	3.807213	0.644959	0.000038
  23	2.1890e+00	0.2135	-14.475732	0.000389	3.889088	0.658829	0.000039
  24	2.2885e+00	0.2255	-14.441515	0.000344	3.438773	0.582544	0.000034
  25	2.3880e+00	0.2337	-14.406077	0.000356	3.561586	0.603349	0.000036
  26	2.4875e+00	0.2435	-14.370231	0.000360	3.602524	0.610284	0.000036
  27	2.5870e+00	0.2560	-14.329904	0.000405	4.052839	0.686570	0.000041
  28	2.6865e+00	0.2636	-14.292021	0.000381	3.807213	0.644959	0.000038
  29	2.7860e+00	0.2734	-14.258619	0.000336	3.356897	0.568674	0.000034
  30	2.8855e+00	0.2849	-14.220736	0.000381	3.807213	0.644959	0.000038
  31	2.9850e+00	0.2953	-14.181224	0.000397	3.970964	0.672699	0.000040
  32	3.0845e+00	0.3044	-14.140897	0.000405	4.052839	0.686570	0.000041
  33	3.1840e+00	0.3143	-14.102606	0.000385	3.848150	0.651894	0.000038
  34	3.2835e+00	0.3266	-14.066760	0.000360	3.602524	0.610284	0.000036
  35	3.3830e+00	0.3339	-14.031322	0.000356	3.561586	0.603349	0.000036
  36	3.4825e+00	0.3436	-13.992217	0.000393	3.930026	0.665764	0.000039
  37	3.5820e+00	0.3548	-13.955148	0.000373	3.725337	0.631089	0.000037
  38	3.6815e+00	0.3639	-13.916858	0.000385	3.848150	0.651894	0.000038
  39	3.7810e+00	0.3728	-13.881419	0.000356	3.561586	0.603349	0.000036
  40	3.8805e+00	0.3821	-13.838649	0.000430	4.298466	0.728180	0.000043
  41	3.9800e+00	0.3960	-13.801580	0.000373	3.725337	0.631089	0.000037
  42	4.0795e+00	0.4040	-13.762068	0.000397	3.970964	0.672699	0.000040
  43	4.1790e+00	0.4192	-13.730703	0.000315	3.152208	0.533999	0.000032
  44	4.2785e+00	0.4222	-13.689561	0.000413	4.134715	0.700440	0.000041
  45	4.3780e+00	0.4333	-13.650864	0.000389	3.889088	0.658829	0.000039
  46	4.4775e+00	0.4456	-13.613795	0.000373	3.725337	0.631089	0.000037
  47	4.5770e+00	0.4523	-13.579171	0.000348	3.479710	0.589479	0.000035
  48	4.6765e+00	0.4641	-13.541288	0.000381	3.807213	0.644959	0.000038
  49	4.7760e+00	0.4723	-13.500962	0.000405	4.052839	0.686570	0.000041
  50	4.8755e+00	0.4842	-13.461857	0.000393	3.930026	0.665764	0.000039
  51	4.9750e+00	0.4958	-13.423974	0.000381	3.807213	0.644959	0.000038
  52	5.0745e+00	0.5023	-13.388128	0.000360	3.602524	0.610284	0.000036
  53	5.1740e+00	0.5131	-13.351059	0.000373	3.725337	0.631089	0.000037
  54	5.2735e+00	0.5212	-13.310733	0.000405	4.052839	0.686570	0.000041
  55	5.3730e+00	0.5351	-13.273257	0.000377	3.766275	0.638024	0.000038
  56	5.4725e+00	0.5422	-13.237818	0.000356	3.561586	0.603349	0.000036
  57	5.5720e+00	0.5532	-13.197084	0.000409	4.093777	0.693505	0.000041
  58	5.6715e+00	0.5624	-13.162460	0.000348	3.479710	0.589479	0.000035
  59	5.7710e+00	0.5758	-13.121726	0.000409	4.093777	0.693505	0.000041
  60	5.8705e+00	0.5859	-13.087916	0.000340	3.397835	0.575609	0.000034
  61	5.9700e+00	0.5922	-13.051663	0.000364	3.643462	0.617219	0.000036
  62	6.0695e+00	0.6076	-13.012965	0.000389	3.889088	0.658829	0.000039
  63	6.1690e+00	0.6161	-12.975490	0.000377	3.766275	0.638024	0.000038
  64	6.2685e+00	0.6242	-12.938829	0.000368	3.684399	0.624154	0.000037
  65	6.3680e+00	0.6342	-12.899317	0.000397	3.970964	0.672699	0.000040
  66	6.4675e+00	0.6431	-12.860212	0.000393	3.930026	0.665764	0.000039
  67	6.5670e+00	0.6571	-12.827624	0.000328	3.275022	0.554804	0.000033
  68	6.6665e+00	0.6618	-12.786483	0.000413	4.134715	0.700440	0.000041
  69	6.7660e+00	0.6718	-12.748192	0.000385	3.848150	0.651894	0.000038
  70	6.8655e+00	0.6808	-12.710310	0.000381	3.807213	0.644959	0.000038
  71	6.9650e+00	0.6944	-12.672427	0.000381	3.807213	0.644959	0.000038
  72	7.0645e+00	0.7019	-12.636581	0.000360	3.602524	0.610284	0.000036
  73	7.1640e+00	0.7148	-12.599920	0.000368	3.684399	0.624154	0.000037
  74	7.2635e+00	0.7228	-12.561630	0.000385	3.848150	0.651894	0.000038
  75	7.3630e+00	0.7312	-12.524154	0.000377	3.766275	0.638024	0.000038
  76	7.4625e+00	0.7432	-12.483012	0.000413	4.134715	0.700440	0.000041
  77	7.5620e+00	0.7539	-12.452462	0.000307	3.070333	0.520128	0.000031
  78	7.6615e+00	0.7617	-12.409691	0.000430	4.298466	0.728180	0.000043
  79	7.7610e+00	0.7727	-12.375067	0.000348	3.479710	0.589479	0.000035
  80	7.8605e+00	0.7829	-12.331888	0.000434	4.339404	0.735115	0.000043
  81	7.9600e+00	0.7945	-12.298894	0.000332	3.315959	0.561739	0.000033
  82	8.0595e+00	0.8014	-12.261418	0.000377	3.766275	0.638024	0.000038
  83	8.1590e+00	0.8144	-12.219462	0.000422	4.216590	0.714310	0.000042
  84	8.2585e+00	0.8268	-12.181172	0.000385	3.848150	0.651894	0.000038
  85	8.3580e+00	0.8299	-12.148992	0.000323	3.234084	0.547869	0.000032
  86	8.4575e+00	0.8425	-12.109479	0.000397	3.970964	0.672699	0.000040
  87	8.5570e+00	0.8516	-12.070782	0.000389	3.889088	0.658829	0.000039
  88	8.6565e+00	0.8633	-12.036565	0.000344	3.438773	0.582544	0.000034
  89	8.7560e+00	0.8753	-11.999497	0.000373	3.725337	0.631089	0.000037
  90	8.8555e+00	0.8813	-11.962021	0.000377	3.766275	0.638024	0.000038
  91	8.9550e+00	0.8913	-11.926175	0.000360	3.602524	0.610284	0.000036
  92	9.0545e+00	0.9045	-11.891958	0.000344	3.438773	0.582544	0.000034
  93	9.1540e+00	0.9116	-11.852446	0.000397	3.970964	0.672699	0.000040
  94	9.2535e+00	0.9231	-11.819859	0.000328	3.275022	0.554804	0.000033
  95	9.3530e+00	0.9340	-11.781976	0.000381	3.807213	0.644959	0.000038
  96	9.4525e+00	0.9424	-11.743278	0.000389	3.889088	0.658829	0.000039
  97	9.5520e+00	0.9502	-11.707432	0.000360	3.602524	0.610284	0.000036
  98	9.6515e+00	0.9611	-11.668735	0.000389	3.889088	0.658829	0.000039
  99	9.7510e+00	0.9719	-11.631259	0.000377	3.766275	0.638024	0.000038
 100	9.8505e+00	0.9818	-11.593784	0.000377	3.766275	0.638024	0.000038
 101	9.9500e+00	0.9904	-11.553457	0.000405	4.052839	0.686570	0.000041
 102	1.0050e+01	1.0003	-11.515167	0.000385	3.848150	0.651894	0.000038
 103	1.0149e+01	1.0136	-11.481764	0.000336	3.356897	0.568674	0.000034
 104	1.0248e+01	1.0215	-11.444289	0.000377	3.766275	0.638024	0.000038
 105	1.0348e+01	1.0340	-11.410480	0.000340	3.397835	0.575609	0.000034
 106	1.0447e+01	1.0419	-11.371375	0.000393	3.930026	0.665764	0.000039
 107	1.0547e+01	1.0530	-11.336343	0.000352	3.520648	0.596414	0.000035
 108	1.0646e+01	1.0644	-11.296831	0.000397	3.970964	0.672699	0.000040
 109	1.0746e+01	1.0748	-11.262207	0.000348	3.479710	0.589479	0.000035
 110	1.0845e+01	1.0799	-11.221473	0.000409	4.093777	0.693505	0.000041
 111	1.0945e+01	1.0916	-11.183590	0.000381	3.807213	0.644959	0.000038
 112	1.1044e+01	1.1013	-11.146114	0.000377	3.766275	0.638024	0.000038
 113	1.1144e+01	1.1109	-11.105380	0.000409	4.093777	0.693505	0.000041
 114	1.1243e+01	1.1192	-11.067904	0.000377	3.766275	0.638024	0.000038
 115	1.1343e+01	1.1331	-11.038576	0.000295	2.947519	0.499323	0.000029
 116	1.1443e+01	1.1431	-10.995805	0.000430	4.298466	0.728180	0.000043
 117	1.1542e+01	1.1520	-10.961995	0.000340	3.397835	0.575609	0.000034
 118	1.1642e+01	1.1592	-10.922483	0.000397	3.970964	0.672699	0.000040
 119	1.1741e+01	1.1698	-10.885822	0.000368	3.684399	0.624154	0.000037
 120	1.1841e+01	1.1825	-10.850384	0.000356	3.561586	0.603349	0.000036
 121	1.1940e+01	1.1924	-10.810464	0.000401	4.011901	0.679635	0.000040
 122	1.2040e+01	1.1980	-10.773803	0.000368	3.684399	0.624154	0.000037
 123	1.2139e+01	1.2124	-10.737957	0.000360	3.602524	0.610284	0.000036
 124	1.2239e+01	1.2180	-10.698852	0.000393	3.930026	0.665764	0.000039
 125	1.2338e+01	1.2302	-10.668301	0.000307	3.070333	0.520128	0.000031
 126	1.2438e+01	1.2450	-10.626752	0.000418	4.175653	0.707375	0.000042
 127	1.2537e+01	1.2455	-10.594980	0.000319	3.193146	0.540934	0.000032
 128	1.2636e+01	1.2594	-10.557097	0.000381	3.807213	0.644959	0.000038
 129	1.2736e+01	1.2705	-10.522065	0.000352	3.520648	0.596414	0.000035
 130	1.2835e+01	1.2775	-10.487034	0.000352	3.520648	0.596414	0.000035
 131	1.2935e+01	1.2923	-10.443856	0.000434	4.339404	0.735115	0.000043
 132	1.3034e+01	1.2994	-10.410046	0.000340	3.397835	0.575609	0.000034
 133	1.3134e+01	1.3086	-10.372163	0.000381	3.807213	0.644959	0.000038
 134	1.3233e+01	1.3200	-10.338354	0.000340	3.397835	0.575609	0.000034
 135	1.3333e+01	1.3301	-10.301693	0.000368	3.684399	0.624154	0.000037
 136	1.3432e+01	1.3383	-10.262588	0.000393	3.930026	0.665764	0.000039
 137	1.3532e+01	1.3495	-10.230408	0.000323	3.234084	0.547869	0.000032
 138	1.3632e+01	1.3596	-10.189674	0.000409	4.093777	0.693505	0.000041
 139	1.3731e+01	1.3679	-10.157087	0.000328	3.275022	0.554804	0.000033
 140	1.3831e+01	1.3778	-10.119204	0.000381	3.807213	0.644959	0.000038
 141	1.3930e+01	1.3906	-10.084580	0.000348	3.479710	0.589479	0.000035
 142	1.4030e+01	1.4002	-10.041809	0.000430	4.298466	0.728180	0.000043
 143	1.4129e+01	1.4079	-10.007592	0.000344	3.438773	0.582544	0.000034
 144	1.4229e+01	1.4195	-9.973375	0.000344	3.438773	0.582544	0.000034
 145	1.4328e+01	1.4261	-9.935492	0.000381	3.807213	0.644959	0.000038
 146	1.4428e+01	1.4419	-9.896795	0.000389	3.889088	0.658829	0.000039
 147	1.4527e+01	1.4473	-9.865022	0.000319	3.193146	0.540934	0.000032
 148	1.4627e+01	1.4596	-9.825102	0.000401	4.011901	0.679635	0.000040
 149	1.4726e+01	1.4690	-9.788442	0.000368	3.684399	0.624154	0.000037
 150	1.4825e+01	1.4814	-9.755854	0.000328	3.275022	0.554804	0.000033
 151	1.4925e+01	1.4889	-9.719601	0.000364	3.643462	0.617219	0.000036
 152	1.5024e+01	1.5014	-9.680088	0.000397	3.970964	0.672699	0.000040
 153	1.5124e+01	1.5087	-9.646279	0.000340	3.397835	0.575609	0.000034
 154	1.5223e+01	1.5204	-9.611248	0.000352	3.520648	0.596414	0.000035
 155	1.5323e+01	1.5269	-9.575809	0.000356	3.561586	0.603349	0.000036
 156	1.5422e+01	1.5416	-9.537519	0.000385	3.848150	0.651894	0.000038
 157	1.5522e+01	1.5519	-9.502080	0.000356	3.561586	0.603349	0.000036
 158	1.5621e+01	1.5591	-9.463789	0.000385	3.848150	0.651894	0.000038
 159	1.5721e+01	1.5701	-9.431202	0.000328	3.275022	0.554804	0.000033
 160	1.5820e+01	1.5782	-9.395763	0.000356	3.561586	0.603349	0.000036
 161	1.5920e+01	1.5887	-9.357880	0.000381	3.807213	0.644959	0.000038
 162	1.6020e+01	1.5961	-9.319998	0.000381	3.807213	0.644959	0.000038
 163	1.6119e+01	1.6109	-9.291484	0.000287	2.865644	0.485453	0.000029
 164	1.6218e+01	1.6198	-9.249935	0.000418	4.175653	0.707375	0.000042
 165	1.6318e+01	1.6286	-9.214089	0.000360	3.602524	0.610284	0.000036
 166	1.6418e+01	1.6371	-9.179464	0.000348	3.479710	0.589479	0.000035
 167	1.6517e+01	1.6517	-9.142396	0.000373	3.725337	0.631089	0.000037
 168	1.6616e+01	1.6567	-9.109401	0.000332	3.315959	0.561739	0.000033
 169	1.6716e+01	1.6710	-9.076407	0.000332	3.315959	0.561739	0.000033
 170	1.6816e+01	1.6761	-9.036487	0.000401	4.011901	0.679635	0.000040
 171	1.6915e+01	1.6875	-9.001863	0.000348	3.479710	0.589479	0.000035
 172	1.7015e+01	1.6972	-8.964795	0.000373	3.725337	0.631089	0.000037
 173	1.7114e+01	1.7091	-8.927319	0.000377	3.766275	0.638024	0.000038
 174	1.7213e+01	1.7168	-8.893917	0.000336	3.356897	0.568674	0.000034
 175	1.7313e+01	1.7281	-8.853998	0.000401	4.011901	0.679635	0.000040
 176	1.7413e+01	1.7371	-8.816115	0.000381	3.807213	0.644959	0.000038
 177	1.7512e+01	1.7471	-8.781083	0.000352	3.520648	0.596414	0.000035
 178	1.7611e+01	1.7601	-8.747681	0.000336	3.356897	0.568674	0.000034
 179	1.7711e+01	1.7667	-8.707354	0.000405	4.052839	0.686570	0.000041
 180	1.7811e+01	1.7794	-8.671508	0.000360	3.602524	0.610284	0.000036
 181	1.7910e+01	1.7885	-8.636884	0.000348	3.479710	0.589479	0.000035
 182	1.8009e+01	1.7990	-8.606333	0.000307	3.070333	0.520128	0.000031
 183	1.8109e+01	1.8073	-8.566414	0.000401	4.011901	0.679635	0.000040
 184	1.8209e+01	1.8179	-8.537085	0.000295	2.947519	0.499323	0.000029
 185	1.8308e+01	1.8266	-8.500017	0.000373	3.725337	0.631089	0.000037
 186	1.8407e+01	1.8375	-8.464171	0.000360	3.602524	0.610284	0.000036
 187	1.8507e+01	1.8478	-8.425881	0.000385	3.848150	0.651894	0.000038
 188	1.8607e+01	1.8575	-8.386776	0.000393	3.930026	0.665764	0.000039
 189	1.8706e+01	1.8668	-8.354596	0.000323	3.234084	0.547869	0.000032
 190	1.8805e+01	1.8781	-8.317120	0.000377	3.766275	0.638024	0.000038
 191	1.8905e+01	1.8864	-8.282903	0.000344	3.438773	0.582544	0.000034
 192	1.9005e+01	1.9007	-8.249094	0.000340	3.397835	0.575609	0.000034
 193	1.9104e+01	1.9067	-8.212026	0.000373	3.725337	0.631089	0.000037
 194	1.9203e+01	1.9163	-8.177809	0.000344	3.438773	0.582544	0.000034
 195	1.9303e+01	1.9254	-8.146444	0.000315	3.152208	0.533999	0.000032
 196	1.9402e+01	1.9375	-8.111412	0.000352	3.520648	0.596414	0.000035
 197	1.9502e+01	1.9456	-8.077195	0.000344	3.438773	0.582544	0.000034
 198	1.9602e+01	1.9588	-8.045015	0.000323	3.234084	0.547869	0.000032
 199	1.9701e+01	1.9643	-8.009984	0.000352	3.520648	0.596414	0.000035
 200	1.9800e+01	1.9788	-7.974138	0.000360	3.602524	0.610284	0.000036
 201	1.9900e+01	1.9875	-7.940328	0.000340	3.397835	0.575609	0.000034
 202	2.0000e+01	1.9961	-7.904075	0.000364	3.643462	0.617219	0.000036
 203	2.0099e+01	2.0069	-7.869043	0.000352	3.520648	0.596414	0.000035
 204	2.0198e+01	2.0122	-7.833197	0.000360	3.602524	0.610284	0.000036
 205	2.0298e+01	2.0274	-7.798980	0.000344	3.438773	0.582544	0.000034
 206	2.0398e+01	2.0364	-7.765171	0.000340	3.397835	0.575609	0.000034
 207	2.0497e+01	2.0470	-7.728510	0.000368	3.684399	0.624154	0.000037
 208	2.0596e+01	2.0574	-7.695515	0.000332	3.315959	0.561739	0.000033
 209	2.0696e+01	2.0673	-7.659669	0.000360	3.602524	0.610284	0.000036
 210	2.0796e+01	2.0763	-7.620972	0.000389	3.889088	0.658829	0.000039
 211	2.0895e+01	2.0848	-7.588792	0.000323	3.234084	0.547869	0.000032
 212	2.0994e+01	2.0977	-7.554575	0.000344	3.438773	0.582544	0.000034
 213	2.1094e+01	2.1059	-7.517914	0.000368	3.684399	0.624154	0.000037
 214	2.1194e+01	2.1175	-7.483290	0.000348	3.479710	0.589479	0.000035
 215	2.1293e+01	2.1275	-7.450295	0.000332	3.315959	0.561739	0.000033
 216	2.1392e+01	2.1383	-7.418115	0.000323	3.234084	0.547869	0.000032
 217	2.1492e+01	2.1472	-7.379825	0.000385	3.848150	0.651894	0.000038
 218	2.1591e+01	2.1581	-7.343979	0.000360	3.602524	0.610284	0.000036
 219	2.1691e+01	2.1656	-7.310577	0.000336	3.356897	0.568674	0.000034
 220	2.1791e+01	2.1760	-7.277582	0.000332	3.315959	0.561739	0.000033
 221	2.1890e+01	2.1902	-7.241329	0.000364	3.643462	0.617219	0.000036
 222	2.1989e+01	2.1954	-7.208334	0.000332	3.315959	0.561739	0.000033
 223	2.2089e+01	2.2050	-7.174932	0.000336	3.356897	0.568674	0.000034
 224	2.2189e+01	2.2176	-7.138271	0.000368	3.684399	0.624154	0.000037
 225	2.2288e+01	2.2250	-7.101203	0.000373	3.725337	0.631089	0.000037
 226	2.2387e+01	2.2333	-7.071467	0.000299	2.988457	0.506258	0.000030
 227	2.2487e+01	2.2459	-7.035213	0.000364	3.643462	0.617219	0.000036
 228	2.2587e+01	2.2540	-6.998145	0.000373	3.725337	0.631089	0.000037
 229	2.2686e+01	2.2651	-6.968409	0.000299	2.988457	0.506258	0.000030
 230	2.2785e+01	2.2759	-6.931748	0.000368	3.684399	0.624154	0.000037
 231	2.2885e+01	2.2839	-6.895495	0.000364	3.643462	0.617219	0.000036
 232	2.2985e+01	2.2948	-6.865759	0.000299	2.988457	0.506258	0.000030
 233	2.3084e+01	2.3062	-6.827469	0.000385	3.848150	0.651894	0.000038
 234	2.3183e+01	2.3159	-6.795696	0.000319	3.193146	0.540934	0.000032
 235	2.3283e+01	2.3296	-6.759850	0.000360	3.602524	0.610284	0.000036
 236	2.3383e+01	2.3347	-6.725633	0.000344	3.438773	0.582544	0.000034
 237	2.3482e+01	2.3448	-6.690601	0.000352	3.520648	0.596414	0.000035
 238	2.3581e+01	2.3546	-6.655977	0.000348	3.479710	0.589479	0.000035
 239	2.3681e+01	2.3663	-6.621761	0.000344	3.438773	0.582544	0.000034
 240	2.3780e+01	2.3803	-6.588766	0.000332	3.315959	0.561739	0.000033
 241	2.3880e+01	2.3847	-6.550883	0.000381	3.807213	0.644959	0.000038
 242	2.3980e+01	2.3949	-6.517888	0.000332	3.315959	0.561739	0.000033
 243	2.4079e+01	2.4068	-6.485301	0.000328	3.275022	0.554804	0.000033
 244	2.4178e+01	2.4162	-6.451491	0.000340	3.397835	0.575609	0.000034
 245	2.4278e+01	2.4273	-6.416053	0.000356	3.561586	0.603349	0.000036
 246	2.4378e+01	2.4371	-6.384687	0.000315	3.152208	0.533999	0.000032
 247	2.4477e+01	2.4453	-6.345990	0.000389	3.889088	0.658829	0.000039
 248	2.4576e+01	2.4578	-6.312588	0.000336	3.356897	0.568674	0.000034
 249	2.4676e+01	2.4641	-6.281222	0.000315	3.152208	0.533999	0.000032
 250	2.4776e+01	2.4783	-6.245376	0.000360	3.602524	0.610284	0.000036
 251	2.4875e+01	2.4848	-6.209530	0.000360	3.602524	0.610284	0.000036
 252	2.4974e+01	2.4957	-6.176128	0.000336	3.356897	0.568674	0.000034
 253	2.5074e+01	2.5034	-6.143540	0.000328	3.275022	0.554804	0.000033
 254	2.5174e+01	2.5134	-6.107694	0.000360	3.602524	0.610284	0.000036
 255	2.5273e+01	2.5259	-6.077144	0.000307	3.070333	0.520128	0.000031
 256	2.5372e+01	2.5323	-6.039668	0.000377	3.766275	0.638024	0.000038
 257	2.5472e+01	2.5458	-6.009117	0.000307	3.070333	0.520128	0.000031
 258	2.5572e+01	2.5533	-5.978567	0.000307	3.070333	0.520128	0.000031
 259	2.5671e+01	2.5661	-5.941498	0.000373	3.725337	0.631089	0.000037
 260	2.5770e+01	2.5747	-5.910133	0.000315	3.152208	0.533999	0.000032
 261	2.5870e+01	2.5857	-5.880397	0.000299	2.988457	0.506258	0.000030
 262	2.5970e+01	2.5915	-5.844144	0.000364	3.643462	0.617219	0.000036
 263	2.6069e+01	2.6041	-5.809927	0.000344	3.438773	0.582544	0.000034
 264	2.6169e+01	2.6119	-5.780598	0.000295	2.947519	0.499323	0.000029
 265	2.6268e+01	2.6239	-5.746381	0.000344	3.438773	0.582544	0.000034
 266	2.6367e+01	2.6370	-5.708499	0.000381	3.807213	0.644959	0.000038
 267	2.6467e+01	2.6460	-5.675096	0.000336	3.356897	0.568674	0.000034
 268	2.6567e+01	2.6527	-5.643324	0.000319	3.193146	0.540934	0.000032
 269	2.6666e+01	2.6629	-5.608700	0.000348	3.479710	0.589479	0.000035
 270	2.6765e+01	2.6742	-5.574075	0.000348	3.479710	0.589479	0.000035
 271	2.6865e+01	2.6839	-5.538229	0.000360	3.602524	0.610284	0.000036
 272	2.6965e+01	2.6931	-5.509715	0.000287	2.865644	0.485453	0.000029
 273	2.7064e+01	2.7016	-5.471425	0.000385	3.848150	0.651894	0.000038
 274	2.7163e+01	2.7143	-5.442096	0.000295	2.947519	0.499323	0.000029
 275	2.7263e+01	2.7233	-5.407472	0.000348	3.479710	0.589479	0.000035
 276	2.7363e+01	2.7337	-5.370404	0.000373	3.725337	0.631089	0.000037
 277	2.7462e+01	2.7416	-5.338224	0.000323	3.234084	0.547869	0.000032
 278	2.7561e+01	2.7526	-5.305637	0.000328	3.275022	0.554804	0.000033
 279	2.7661e+01	2.7656	-5.268569	0.000373	3.725337	0.631089	0.000037
 280	2.7761e+01	2.7731	-5.233537	0.000352	3.520648	0.596414	0.000035
 281	2.7860e+01	2.7833	-5.201764	0.000319	3.193146	0.540934	0.000032
 282	2.7959e+01	2.7929	-5.161845	0.000401	4.011901	0.679635	0.000040
 283	2.8059e+01	2.8017	-5.130479	0.000315	3.152208	0.533999	0.000032
 284	2.8159e+01	2.8128	-5.098299	0.000323	3.234084	0.547869	0.000032
 285	2.8258e+01	2.8212	-5.066119	0.000323	3.234084	0.547869	0.000032
 286	2.8358e+01	2.8329	-5.031495	0.000348	3.479710	0.589479	0.000035
 287	2.8457e+01	2.8416	-4.997278	0.000344	3.438773	0.582544	0.000034
 288	2.8556e+01	2.8519	-4.962654	0.000348	3.479710	0.589479	0.000035
 289	2.8656e+01	2.8600	-4.928845	0.000340	3.397835	0.575609	0.000034
 290	2.8756e+01	2.8750	-4.895443	0.000336	3.356897	0.568674	0.000034
 291	2.8855e+01	2.8832	-4.862041	0.000336	3.356897	0.568674	0.000034
 292	2.8954e+01	2.8936	-4.831083	0.000311	3.111271	0.527063	0.000031
 293	2.9054e+01	2.9018	-4.797681	0.000336	3.356897	0.568674	0.000034
 294	2.9154e+01	2.9133	-4.766315	0.000315	3.152208	0.533999	0.000032
 295	2.9253e+01	2.9220	-4.733728	0.000328	3.275022	0.554804	0.000033
 296	2.9352e+01	2.9330	-4.697882	0.000360	3.602524	0.610284	0.000036
 297	2.9452e+01	2.9424	-4.664480	0.000336	3.356897	0.568674	0.000034
 298	2.9552e+01	2.9533	-4.632707	0.000319	3.193146	0.540934	0.000032
 299	2.9651e+01	2.9613	-4.596046	0.000368	3.684399	0.624154	0.000037
 300	2.9750e+01	2.9726	-4.564681	0.000315	3.152208	0.533999	0.000032
 301	2.9850e+01	2.9821	-4.534537	0.000303	3.029395	0.513193	0.000030
 302	2.9950e+01	2.9923	-4.501135	0.000336	3.356897	0.568674	0.000034
 303	3.0049e+01	3.0021	-4.464474	0.000368	3.684399	0.624154	0.000037
 304	3.0148e+01	3.0138	-4.430258	0.000344	3.438773	0.582544	0.000034
 305	3.0248e+01	3.0227	-4.398892	0.000315	3.152208	0.533999	0.000032
 306	3.0348e+01	3.0309	-4.364675	0.000344	3.438773	0.582544	0.000034
 307	3.0447e+01	3.0418	-4.333310	0.000315	3.152208	0.533999	0.000032
 308	3.0547e+01	3.0531	-4.299501	0.000340	3.397835	0.575609	0.000034
 309	3.0646e+01	3.0615	-4.264062	0.000356	3.561586	0.603349	0.000036
 310	3.0745e+01	3.0730	-4.232696	0.000315	3.152208	0.533999	0.000032
 311	3.0845e+01	3.0800	-4.199702	0.000332	3.315959	0.561739	0.000033
 312	3.0945e+01	3.0934	-4.168744	0.000311	3.111271	0.527063	0.000031
 313	3.1044e+01	3.1020	-4.131675	0.000373	3.725337	0.631089	0.000037
 314	3.1143e+01	3.1116	-4.099903	0.000319	3.193146	0.540934	0.000032
 315	3.1243e+01	3.1199	-4.068130	0.000319	3.193146	0.540934	0.000032
 316	3.1343e+01	3.1310	-4.033099	0.000352	3.520648	0.596414	0.000035
 317	3.1442e+01	3.1428	-4.003770	0.000295	2.947519	0.499323	0.000029
 318	3.1541e+01	3.1496	-3.970368	0.000336	3.356897	0.568674	0.000034
 319	3.1641e+01	3.1600	-3.939410	0.000311	3.111271	0.527063	0.000031
 320	3.1741e+01	3.1712	-3.903564	0.000360	3.602524	0.610284	0.000036
 321	3.1840e+01	3.1796	-3.874235	0.000295	2.947519	0.499323	0.000029
 322	3.1939e+01	3.1886	-3.842870	0.000315	3.152208	0.533999	0.000032
 323	3.2039e+01	3.2020	-3.808653	0.000344	3.438773	0.582544	0.000034
 324	3.2139e+01	3.2108	-3.776065	0.000328	3.275022	0.554804	0.000033
 325	3.2238e+01	3.2223	-3.743071	0.000332	3.315959	0.561739	0.000033
 326	3.2337e+01	3.2307	-3.708854	0.000344	3.438773	0.582544	0.000034
 327	3.2437e+01	3.2404	-3.676267	0.000328	3.275022	0.554804	0.000033
 328	3.2536e+01	3.2516	-3.641642	0.000348	3.479710	0.589479	0.000035
 329	3.2636e+01	3.2600	-3.610684	0.000311	3.111271	0.527063	0.000031
 330	3.2736e+01	3.2697	-3.577282	0.000336	3.356897	0.568674	0.000034
 331	3.2835e+01	3.2815	-3.547954	0.000295	2.947519	0.499323	0.000029
 332	3.2934e+01	3.2875	-3.516588	0.000315	3.152208	0.533999	0.000032
 333	3.3034e+01	3.2995	-3.481964	0.000348	3.479710	0.589479	0.000035
 334	3.3133e+01	3.3115	-3.449377	0.000328	3.275022	0.554804	0.000033
 335	3.3233e+01	3.3206	-3.419641	0.000299	2.988457	0.506258	0.000030
 336	3.3333e+01	3.3324	-3.386239	0.000336	3.356897	0.568674	0.000034
 337	3.3432e+01	3.3408	-3.354059	0.000323	3.234084	0.547869	0.000032
 338	3.3532e+01	3.3523	-3.317805	0.000364	3.643462	0.617219	0.000036
 339	3.3631e+01	3.3588	-3.288476	0.000295	2.947519	0.499323	0.000029
 340	3.3730e+01	3.3694	-3.255074	0.000336	3.356897	0.568674	0.000034
 341	3.3830e+01	3.3784	-3.219636	0.000356	3.561586	0.603349	0.000036
 342	3.3929e+01	3.3892	-3.189085	0.000307	3.070333	0.520128	0.000031
 343	3.4029e+01	3.3990	-3.154053	0.000352	3.520648	0.596414	0.000035
 344	3.4129e+01	3.4115	-3.119429	0.000348	3.479710	0.589479	0.000035
 345	3.4228e+01	3.4223	-3.090915	0.000287	2.865644	0.485453	0.000029
 346	3.4328e+01	3.4346	-3.054662	0.000364	3.643462	0.617219	0.000036
 347	3.4427e+01	3.4386	-3.023296	0.000315	3.152208	0.533999	0.000032
 348	3.4526e+01	3.4477	-2.992338	0.000311	3.111271	0.527063	0.000031
 349	3.4626e+01	3.4593	-2.960566	0.000319	3.193146	0.540934	0.000032
 350	3.4725e+01	3.4704	-2.931237	0.000295	2.947519	0.499323	0.000029
 351	3.4825e+01	3.4814	-2.897428	0.000340	3.397835	0.575609	0.000034
 352	3.4925e+01	3.4904	-2.864025	0.000336	3.356897	0.568674	0.000034
 353	3.5024e+01	3.4999	-2.836326	0.000278	2.783768	0.471583	0.000028
 354	3.5123e+01	3.5115	-2.800073	0.000364	3.643462	0.617219	0.000036
 355	3.5223e+01	3.5183	-2.767078	0.000332	3.315959	0.561739	0.000033
 356	3.5322e+01	3.5315	-2.736935	0.000303	3.029395	0.513193	0.000030
 357	3.5422e+01	3.5406	-2.701496	0.000356	3.561586	0.603349	0.000036
 358	3.5522e+01	3.5509	-2.670945	0.000307	3.070333	0.520128	0.000031
 359	3.5621e+01	3.5612	-2.637543	0.000336	3.356897	0.568674	0.000034
 360	3.5721e+01	3.5691	-2.611880	0.000258	2.579080	0.436908	0.000026
 361	3.5820e+01	3.5816	-2.581330	0.000307	3.070333	0.520128	0.000031
 362	3.5919e+01	3.5906	-2.547928	0.000336	3.356897	0.568674	0.000034
 363	3.6019e+01	3.5978	-2.518599	0.000295	2.947519	0.499323	0.000029
 364	3.6118e+01	3.6089	-2.485604	0.000332	3.315959	0.561739	0.000033
 365	3.6218e+01	3.6195	-2.455054	0.000307	3.070333	0.520128	0.000031
 366	3.6318e+01	3.6266	-2.425725	0.000295	2.947519	0.499323	0.000029
 367	3.6417e+01	3.6378	-2.391508	0.000344	3.438773	0.582544	0.000034
 368	3.6517e+01	3.6491	-2.360550	0.000311	3.111271	0.527063	0.000031
 369	3.6616e+01	3.6596	-2.330814	0.000299	2.988457	0.506258	0.000030
 370	3.6715e+01	3.6669	-2.297819	0.000332	3.315959	0.561739	0.000033
 371	3.6815e+01	3.6822	-2.266454	0.000315	3.152208	0.533999	0.000032
 372	3.6914e+01	3.6896	-2.236311	0.000303	3.029395	0.513193	0.000030
 373	3.7014e+01	3.6968	-2.202501	0.000340	3.397835	0.575609	0.000034
 374	3.7114e+01	3.7101	-2.168692	0.000340	3.397835	0.575609	0.000034
 375	3.7213e+01	3.7184	-2.137734	0.000311	3.111271	0.527063	0.000031
 376	3.7313e+01	3.7305	-2.107998	0.000299	2.988457	0.506258	0.000030
 377	3.7412e+01	3.7395	-2.080706	0.000274	2.742831	0.464648	0.000027
 378	3.7511e+01	3.7466	-2.044045	0.000368	3.684399	0.624154	0.000037
 379	3.7611e+01	3.7614	-2.013494	0.000307	3.070333	0.520128	0.000031
 380	3.7711e+01	3.7702	-1.982944	0.000307	3.070333	0.520128	0.000031
 381	3.7810e+01	3.7783	-1.950356	0.000328	3.275022	0.554804	0.000033
 382	3.7910e+01	3.7883	-1.923472	0.000270	2.701893	0.457713	0.000027
 383	3.8009e+01	3.7981	-1.888847	0.000348	3.479710	0.589479	0.000035
 384	3.8108e+01	3.8062	-1.860741	0.000282	2.824706	0.478518	0.000028
 385	3.8208e+01	3.8177	-1.827746	0.000332	3.315959	0.561739	0.000033
 386	3.8307e+01	3.8288	-1.798010	0.000299	2.988457	0.506258	0.000030
 387	3.8407e+01	3.8365	-1.767867	0.000303	3.029395	0.513193	0.000030
 388	3.8507e+01	3.8476	-1.736094	0.000319	3.193146	0.540934	0.000032
 389	3.8606e+01	3.8583	-1.701877	0.000344	3.438773	0.582544	0.000034
 390	3.8706e+01	3.8706	-1.674585	0.000274	2.742831	0.464648	0.000027
 391	3.8805e+01	3.8794	-1.643627	0.000311	3.111271	0.527063	0.000031
 392	3.8904e+01	3.8863	-1.604930	0.000389	3.889088	0.658829	0.000039
 393	3.9004e+01	3.8980	-1.577638	0.000274	2.742831	0.464648	0.000027
 394	3.9103e+01	3.9065	-1.547494	0.000303	3.029395	0.513193	0.000030
 395	3.9203e+01	3.9169	-1.518573	0.000291	2.906582	0.492388	0.000029
 396	3.9303e+01	3.9268	-1.486393	0.000323	3.234084	0.547869	0.000032
 397	3.9402e+01	3.9375	-1.456250	0.000303	3.029395	0.513193	0.000030
 398	3.9502e+01	3.9474	-1.427736	0.000287	2.865644	0.485453	0.000029
 399	3.9601e+01	3.9573	-1.393112	0.000348	3.479710	0.589479	0.000035
 400	3.9700e+01	3.9678	-1.366227	0.000270	2.701893	0.457713	0.000027
 401	3.9800e+01	3.9770	-1.330381	0.000360	3.602524	0.610284	0.000036
 402	3.9900e+01	3.9893	-1.300237	0.000303	3.029395	0.513193	0.000030
 403	3.9999e+01	3.9994	-1.268465	0.000319	3.193146	0.540934	0.000032
 404	4.0099e+01	4.0063	-1.237099	0.000315	3.152208	0.533999	0.000032
 405	4.0198e+01	4.0153	-1.206549	0.000307	3.070333	0.520128	0.000031
 406	4.0297e+01	4.0263	-1.170295	0.000364	3.643462	0.617219	0.000036
 407	4.0397e+01	4.0400	-1.145855	0.000246	2.456266	0.416103	0.000025
 408	4.0496e+01	4.0469	-1.113267	0.000328	3.275022	0.554804	0.000033
 409	4.0596e+01	4.0582	-1.081087	0.000323	3.234084	0.547869	0.000032
 410	4.0696e+01	4.0690	-1.051758	0.000295	2.947519	0.499323	0.000029
 411	4.0795e+01	4.0780	-1.019578	0.000323	3.234084	0.547869	0.000032
 412	4.0895e+01	4.0873	-0.990250	0.000295	2.947519	0.499323	0.000029
 413	4.0994e+01	4.0968	-0.956848	0.000336	3.356897	0.568674	0.000034
 414	4.1093e+01	4.1077	-0.928741	0.000282	2.824706	0.478518	0.000028
 415	4.1193e+01	4.1177	-0.899820	0.000291	2.906582	0.492388	0.000029
 416	4.1292e+01	4.1264	-0.865603	0.000344	3.438773	0.582544	0.000034
 417	4.1392e+01	4.1373	-0.833016	0.000328	3.275022	0.554804	0.000033
 418	4.1492e+01	4.1495	-0.803280	0.000299	2.988457	0.506258	0.000030
 419	4.1591e+01	4.1586	-0.773544	0.000299	2.988457	0.506258	0.000030
 420	4.1691e+01	4.1677	-0.739734	0.000340	3.397835	0.575609	0.000034
 421	4.1790e+01	4.1774	-0.710813	0.000291	2.906582	0.492388	0.000029
 422	4.1889e+01	4.1869	-0.683113	0.000278	2.783768	0.471583	0.000028
 423	4.1989e+01	4.1994	-0.652563	0.000307	3.070333	0.520128	0.000031
 424	4.2089e+01	4.2054	-0.619161	0.000336	3.356897	0.568674	0.000034
 425	4.2188e+01	4.2171	-0.587795	0.000315	3.152208	0.533999	0.000032
 426	4.2288e+01	4.2234	-0.562540	0.000254	2.538142	0.429973	0.000025
 427	4.2387e+01	4.2344	-0.531582	0.000311	3.111271	0.527063	0.000031
 428	4.2486e+01	4.2474	-0.502253	0.000295	2.947519	0.499323	0.000029
 429	4.2586e+01	4.2576	-0.474554	0.000278	2.783768	0.471583	0.000028
 430	4.2685e+01	4.2670	-0.440337	0.000344	3.438773	0.582544	0.000034
 431	4.2785e+01	4.2754	-0.412638	0.000278	2.783768	0.471583	0.000028
 432	4.2885e+01	4.2846	-0.380865	0.000319	3.193146	0.540934	0.000032
 433	4.2984e+01	4.2958	-0.348278	0.000328	3.275022	0.554804	0.000033
 434	4.3084e+01	4.3077	-0.314468	0.000340	3.397835	0.575609	0.000034
 435	4.3183e+01	4.3147	-0.290028	0.000246	2.456266	0.416103	0.000025
 436	4.3282e+01	4.3243	-0.255404	0.000348	3.479710	0.589479	0.000035
 437	4.3382e+01	4.3382	-0.225668	0.000299	2.988457	0.506258	0.000030
 438	4.3481e+01	4.3471	-0.199598	0.000262	2.620017	0.443843	0.000026
 439	4.3581e+01	4.3584	-0.167418	0.000323	3.234084	0.547869	0.000032
 440	4.3681e+01	4.3673	-0.138904	0.000287	2.865644	0.485453	0.000029
 441	4.3780e+01	4.3742	-0.107946	0.000311	3.111271	0.527063	0.000031
 442	4.3880e+01	4.3845	-0.077395	0.000307	3.070333	0.520128	0.000031
 443	4.3979e+01	4.3966	-0.047252	0.000303	3.029395	0.513193	0.000030
 444	4.4078e+01	4.4047	-0.013442	0.000340	3.397835	0.575609	0.000034
 445	4.4178e+01	4.4131	0.017923	0.000315	3.152208	0.533999	0.000032
 446	4.4278e+01	4.4263	0.047659	0.000299	2.988457	0.506258	0.000030
 447	4.4377e+01	4.4349	0.077395	0.000299	2.988457	0.506258	0.000030
 448	4.4477e+01	4.4450	0.109575	0.000323	3.234084	0.547869	0.000032
 449	4.4576e+01	4.4532	0.142570	0.000332	3.315959	0.561739	0.000033
 450	4.4675e+01	4.4640	0.173121	0.000307	3.070333	0.520128	0.000031
 451	4.4775e+01	4.4759	0.201635	0.000287	2.865644	0.485453	0.000029
 452	4.4874e+01	4.4828	0.230963	0.000295	2.947519	0.499323	0.000029
 453	4.4974e+01	4.4898	0.262736	0.000319	3.193146	0.540934	0.000032
 454	4.5074e+01	4.5067	0.295323	0.000328	3.275022	0.554804	0.000033
 455	4.5173e+01	4.5156	0.321801	0.000266	2.660955	0.450778	0.000027
 456	4.5273e+01	4.5240	0.356425	0.000348	3.479710	0.589479	0.000035
 457	4.5372e+01	4.5330	0.383309	0.000270	2.701893	0.457713	0.000027
 458	4.5471e+01	4.5425	0.415082	0.000319	3.193146	0.540934	0.000032
 459	4.5571e+01	4.5568	0.443189	0.000282	2.824706	0.478518	0.000028
 460	4.5670e+01	4.5654	0.473739	0.000307	3.070333	0.520128	0.000031
 461	4.5770e+01	4.5770	0.504697	0.000311	3.111271	0.527063	0.000031
 462	4.5870e+01	4.5844	0.536877	0.000323	3.234084	0.547869	0.000032
 463	4.5969e+01	4.5956	0.564577	0.000278	2.783768	0.471583	0.000028
 464	4.6069e+01	4.6010	0.595535	0.000311	3.111271	0.527063	0.000031
 465	4.6168e+01	4.6135	0.624863	0.000295	2.947519	0.499323	0.000029
 466	4.6267e+01	4.6264	0.653785	0.000291	2.906582	0.492388	0.000029
 467	4.6367e+01	4.6345	0.682299	0.000287	2.865644	0.485453	0.000029
 468	4.6467e+01	4.6420	0.711627	0.000295	2.947519	0.499323	0.000029
 469	4.6566e+01	4.6560	0.744215	0.000328	3.275022	0.554804	0.000033
 470	4.6666e+01	4.6641	0.775173	0.000311	3.111271	0.527063	0.000031
 471	4.6765e+01	4.6737	0.805724	0.000307	3.070333	0.520128	0.000031
 472	4.6864e+01	4.6832	0.829349	0.000237	2.374391	0.402233	0.000024
 473	4.6964e+01	4.6966	0.863159	0.000340	3.397835	0.575609	0.000034
 474	4.7063e+01	4.7034	0.892080	0.000291	2.906582	0.492388	0.000029
 475	4.7163e+01	4.7141	0.922631	0.000307	3.070333	0.520128	0.000031
 476	4.7263e+01	4.7253	0.954404	0.000319	3.193146	0.540934	0.000032
 477	4.7362e+01	4.7320	0.980474	0.000262	2.620017	0.443843	0.000026
 478	4.7462e+01	4.7439	1.014690	0.000344	3.438773	0.582544	0.000034
 479	4.7561e+01	4.7515	1.045241	0.000307	3.070333	0.520128	0.000031
 480	4.7660e+01	4.7614	1.071718	0.000266	2.660955	0.450778	0.000027
 481	4.7760e+01	4.7735	1.101862	0.000303	3.029395	0.513193	0.000030
 482	4.7859e+01	4.7852	1.131190	0.000295	2.947519	0.499323	0.000029
 483	4.7959e+01	4.7945	1.162963	0.000319	3.193146	0.540934	0.000032
 484	4.8059e+01	4.8034	1.193921	0.000311	3.111271	0.527063	0.000031
 485	4.8158e+01	4.8110	1.221213	0.000274	2.742831	0.464648	0.000027
 486	4.8258e+01	4.8238	1.252171	0.000311	3.111271	0.527063	0.000031
 487	4.8357e+01	4.8333	1.278241	0.000262	2.620017	0.443843	0.000026
 488	4.8456e+01	4.8437	1.313272	0.000352	3.520648	0.596414	0.000035
 489	4.8556e+01	4.8512	1.338528	0.000254	2.538142	0.429973	0.000025
 490	4.8656e+01	4.8602	1.368671	0.000303	3.029395	0.513193	0.000030
 491	4.8755e+01	4.8696	1.393519	0.000250	2.497204	0.423038	0.000025
 492	4.8855e+01	4.8809	1.427328	0.000340	3.397835	0.575609	0.000034
 493	4.8954e+01	4.8962	1.458286	0.000311	3.111271	0.527063	0.000031
 494	4.9053e+01	4.9026	1.487615	0.000295	2.947519	0.499323	0.000029
 495	4.9153e+01	4.9116	1.512870	0.000254	2.538142	0.429973	0.000025
 496	4.9252e+01	4.9252	1.548716	0.000360	3.602524	0.610284	0.000036
 497	4.9352e+01	4.9316	1.575601	0.000270	2.701893	0.457713	0.000027
 498	4.9452e+01	4.9439	1.604930	0.000295	2.947519	0.499323	0.000029
 499	4.9551e+01	4.9528	1.633036	0.000282	2.824706	0.478518	0.000028
 500	4.9651e+01	4.9628	1.661550	0.000287	2.865644	0.485453	0.000029
 501	4.9750e+01	4.9712	1.694952	0.000336	3.356897	0.568674	0.000034
 502	4.9849e+01	4.9816	1.720615	0.000258	2.579080	0.436908	0.000026
 503	4.9949e+01	4.9921	1.749944	0.000295	2.947519	0.499323	0.000029
 504	5.0048e+01	5.0021	1.780494	0.000307	3.070333	0.520128	0.000031
 505	5.0148e+01	5.0158	1.808601	0.000282	2.824706	0.478518	0.000028
 506	5.0248e+01	5.0233	1.836300	0.000278	2.783768	0.471583	0.000028
 507	5.0347e+01	5.0304	1.872961	0.000368	3.684399	0.624154	0.000037
 508	5.0447e+01	5.0416	1.898216	0.000254	2.538142	0.429973	0.000025
 509	5.0546e+01	5.0518	1.924694	0.000266	2.660955	0.450778	0.000027
 510	5.0645e+01	5.0610	1.955652	0.000311	3.111271	0.527063	0.000031
 511	5.0745e+01	5.0718	1.986610	0.000311	3.111271	0.527063	0.000031
 512	5.0844e+01	5.0852	2.016753	0.000303	3.029395	0.513193	0.000030
 513	5.0944e+01	5.0927	2.048933	0.000323	3.234084	0.547869	0.000032
 514	5.1044e+01	5.1026	2.080706	0.000319	3.193146	0.540934	0.000032
 515	5.1143e+01	5.1092	2.105146	0.000246	2.456266	0.416103	0.000025
 516	5.1242e+01	5.1220	2.135290	0.000303	3.029395	0.513193	0.000030
 517	5.1342e+01	5.1292	2.166248	0.000311	3.111271	0.527063	0.000031
 518	5.1441e+01	5.1438	2.190688	0.000246	2.456266	0.416103	0.000025
 519	5.1541e+01	5.1522	2.220017	0.000295	2.947519	0.499323	0.000029
 520	5.1641e+01	5.1604	2.249346	0.000295	2.947519	0.499323	0.000029
 521	5.1740e+01	5.1717	2.277860	0.000287	2.865644	0.485453	0.000029
 522	5.1840e+01	5.1794	2.309225	0.000315	3.152208	0.533999	0.000032
 523	5.1939e+01	5.1891	2.339776	0.000307	3.070333	0.520128	0.000031
 524	5.2038e+01	5.2032	2.367882	0.000282	2.824706	0.478518	0.000028
 525	5.2138e+01	5.2092	2.397211	0.000295	2.947519	0.499323	0.000029
 526	5.2237e+01	5.2251	2.426947	0.000299	2.988457	0.506258	0.000030
 527	5.2337e+01	5.2291	2.452202	0.000254	2.538142	0.429973	0.000025
 528	5.2437e+01	5.2415	2.481531	0.000295	2.947519	0.499323	0.000029
 529	5.2536e+01	5.2506	2.509230	0.000278	2.783768	0.471583	0.000028
 530	5.2636e+01	5.2607	2.537337	0.000282	2.824706	0.478518	0.000028
 531	5.2735e+01	5.2700	2.563407	0.000262	2.620017	0.443843	0.000026
 532	5.2834e+01	5.2817	2.589069	0.000258	2.579080	0.436908	0.000026
 533	5.2934e+01	5.2886	2.618805	0.000299	2.988457	0.506258	0.000030
 534	5.3033e+01	5.3011	2.648541	0.000299	2.988457	0.506258	0.000030
 535	5.3133e+01	5.3075	2.675019	0.000266	2.660955	0.450778	0.000027
 536	5.3233e+01	5.3220	2.706791	0.000319	3.193146	0.540934	0.000032
 537	5.3332e+01	5.3312	2.734083	0.000274	2.742831	0.464648	0.000027
 538	5.3431e+01	5.3399	2.759746	0.000258	2.579080	0.436908	0.000026
 539	5.3531e+01	5.3521	2.791111	0.000315	3.152208	0.533999	0.000032
 540	5.3630e+01	5.3597	2.820440	0.000295	2.947519	0.499323	0.000029
 541	5.3730e+01	5.3716	2.848546	0.000282	2.824706	0.478518	0.000028
 542	5.3830e+01	5.3799	2.878282	0.000299	2.988457	0.506258	0.000030
 543	5.3929e+01	5.3912	2.904352	0.000262	2.620017	0.443843	0.000026
 544	5.4029e+01	5.3997	2.933274	0.000291	2.906582	0.492388	0.000029
 545	5.4128e+01	5.4070	2.961788	0.000287	2.865644	0.485453	0.000029
 546	5.4227e+01	5.4229	2.989894	0.000282	2.824706	0.478518	0.000028
 547	5.4327e+01	5.4269	3.018408	0.000287	2.865644	0.485453	0.000029
 548	5.4426e+01	5.4406	3.046108	0.000278	2.783768	0.471583	0.000028
 549	5.4526e+01	5.4498	3.074622	0.000287	2.865644	0.485453	0.000029
 550	5.4626e+01	5.4620	3.105172	0.000307	3.070333	0.520128	0.000031
 551	5.4725e+01	5.4720	3.137352	0.000323	3.234084	0.547869	0.000032
 552	5.4825e+01	5.4787	3.164644	0.000274	2.742831	0.464648	0.000027
 553	5.4924e+01	5.4916	3.191936	0.000274	2.742831	0.464648	0.000027
 554	5.5023e+01	5.5004	3.219228	0.000274	2.742831	0.464648	0.000027
 555	5.5123e+01	5.5106	3.248964	0.000299	2.988457	0.506258	0.000030
 556	5.5222e+01	5.5218	3.275034	0.000262	2.620017	0.443843	0.000026
 557	5.5322e+01	5.5315	3.305177	0.000303	3.029395	0.513193	0.000030
 558	5.5422e+01	5.5364	3.333284	0.000282	2.824706	0.478518	0.000028
 559	5.5521e+01	5.5494	3.360983	0.000278	2.783768	0.471583	0.000028
 560	5.5620e+01	5.5590	3.387461	0.000266	2.660955	0.450778	0.000027
 561	5.5720e+01	5.5676	3.416789	0.000295	2.947519	0.499323	0.000029
 562	5.5819e+01	5.5813	3.444896	0.000282	2.824706	0.478518	0.000028
 563	5.5919e+01	5.5886	3.475039	0.000303	3.029395	0.513193	0.000030
 564	5.6019e+01	5.5996	3.501924	0.000270	2.701893	0.457713	0.000027
 565	5.6118e+01	5.6127	3.529216	0.000274	2.742831	0.464648	0.000027
 566	5.6218e+01	5.6194	3.560174	0.000311	3.111271	0.527063	0.000031
 567	5.6317e+01	5.6295	3.585836	0.000258	2.579080	0.436908	0.000026
 568	5.6416e+01	5.6393	3.615572	0.000299	2.988457	0.506258	0.000030
 569	5.6516e+01	5.6518	3.640420	0.000250	2.497204	0.423038	0.000025
 570	5.6615e+01	5.6600	3.670971	0.000307	3.070333	0.520128	0.000031
 571	5.6715e+01	5.6683	3.699892	0.000291	2.906582	0.492388	0.000029
 572	5.6815e+01	5.6774	3.727592	0.000278	2.783768	0.471583	0.000028
 573	5.6914e+01	5.6902	3.754884	0.000274	2.742831	0.464648	0.000027
 574	5.7014e+01	5.6974	3.786656	0.000319	3.193146	0.540934	0.000032
 575	5.7113e+01	5.7083	3.814763	0.000282	2.824706	0.478518	0.000028
 576	5.7212e+01	5.7201	3.839204	0.000246	2.456266	0.416103	0.000025
 577	5.7312e+01	5.7272	3.869347	0.000303	3.029395	0.513193	0.000030
 578	5.7411e+01	5.7378	3.900712	0.000315	3.152208	0.533999	0.000032
 579	5.7511e+01	5.7507	3.926782	0.000262	2.620017	0.443843	0.000026
 580	5.7611e+01	5.7578	3.950408	0.000237	2.374391	0.402233	0.000024
 581	5.7710e+01	5.7677	3.980959	0.000307	3.070333	0.520128	0.000031
 582	5.7809e+01	5.7780	4.010695	0.000299	2.988457	0.506258	0.000030
 583	5.7909e+01	5.7885	4.035135	0.000246	2.456266	0.416103	0.000025
 584	5.8008e+01	5.8022	4.062835	0.000278	2.783768	0.471583	0.000028
 585	5.8108e+01	5.8079	4.091756	0.000291	2.906582	0.492388	0.000029
 586	5.8208e+01	5.8208	4.125973	0.000344	3.438773	0.582544	0.000034
 587	5.8307e+01	5.8279	4.150006	0.000242	2.415328	0.409168	0.000024
 588	5.8407e+01	5.8402	4.176483	0.000266	2.660955	0.450778	0.000027
 589	5.8506e+01	5.8449	4.207849	0.000315	3.152208	0.533999	0.000032
 590	5.8605e+01	5.8585	4.232696	0.000250	2.497204	0.423038	0.000025
 591	5.8705e+01	5.8695	4.259581	0.000270	2.701893	0.457713	0.000027
 592	5.8804e+01	5.8779	4.286873	0.000274	2.742831	0.464648	0.000027
 593	5.8904e+01	5.8910	4.313758	0.000270	2.701893	0.457713	0.000027
 594	5.9004e+01	5.8984	4.343086	0.000295	2.947519	0.499323	0.000029
 595	5.9103e+01	5.9109	4.364268	0.000213	2.128764	0.360622	0.000021
 596	5.9203e+01	5.9187	4.394411	0.000303	3.029395	0.513193	0.000030
 597	5.9302e+01	5.9266	4.423333	0.000291	2.906582	0.492388	0.000029
 598	5.9401e+01	5.9354	4.447366	0.000242	2.415328	0.409168	0.000024
 599	5.9501e+01	5.9467	4.474658	0.000274	2.742831	0.464648	0.000027
 600	5.9600e+01	5.9548	4.507245	0.000328	3.275022	0.554804	0.000033
 601	5.9700e+01	5.9682	4.534945	0.000278	2.783768	0.471583	0.000028
 602	5.9800e+01	5.9785	4.563051	0.000282	2.824706	0.478518	0.000028
 603	5.9899e+01	5.9887	4.591158	0.000282	2.824706	0.478518	0.000028
 604	5.9998e+01	6.0000	4.618857	0.000278	2.783768	0.471583	0.000028
 605	6.0098e+01	6.0067	4.646964	0.000282	2.824706	0.478518	0.000028
 606	6.0197e+01	6.0172	4.671404	0.000246	2.456266	0.416103	0.000025
 607	6.0297e+01	6.0275	4.697474	0.000262	2.620017	0.443843	0.000026
 608	6.0397e+01	6.0360	4.726803	0.000295	2.947519	0.499323	0.000029
 609	6.0496e+01	6.0477	4.753688	0.000270	2.701893	0.457713	0.000027
 610	6.0596e+01	6.0576	4.784646	0.000311	3.111271	0.527063	0.000031
 611	6.0695e+01	6.0661	4.809901	0.000254	2.538142	0.429973	0.000025
 612	6.0794e+01	6.0776	4.842081	0.000323	3.234084	0.547869	0.000032
 613	6.0894e+01	6.0863	4.871002	0.000291	2.906582	0.492388	0.000029
 614	6.0993e+01	6.0967	4.894221	0.000233	2.333453	0.395298	0.000023
 615	6.1093e+01	6.1087	4.927623	0.000336	3.356897	0.568674	0.000034
 616	6.1193e+01	6.1167	4.957766	0.000303	3.029395	0.513193	0.000030
 617	6.1292e+01	6.1256	4.985058	0.000274	2.742831	0.464648	0.000027
 618	6.1392e+01	6.1362	5.008277	0.000233	2.333453	0.395298	0.000023
 619	6.1491e+01	6.1471	5.039235	0.000311	3.111271	0.527063	0.000031
 620	6.1590e+01	6.1584	5.066934	0.000278	2.783768	0.471583	0.000028
 621	6.1690e+01	6.1681	5.092189	0.000254	2.538142	0.429973	0.000025
 622	6.1789e+01	6.1806	5.121518	0.000295	2.947519	0.499323	0.000029
 623	6.1889e+01	6.1866	5.149625	0.000282	2.824706	0.478518	0.000028
 624	6.1989e+01	6.1977	5.175694	0.000262	2.620017	0.443843	0.000026
 625	6.2088e+01	6.2063	5.202172	0.000266	2.660955	0.450778	0.000027
 626	6.2188e+01	6.2187	5.230686	0.000287	2.865644	0.485453	0.000029
 627	6.2287e+01	6.2261	5.257163	0.000266	2.660955	0.450778	0.000027
 628	6.2386e+01	6.2379	5.285270	0.000282	2.824706	0.478518	0.000028
 629	6.2486e+01	6.2479	5.311747	0.000266	2.660955	0.450778	0.000027
 630	6.2586e+01	6.2536	5.341076	0.000295	2.947519	0.499323	0.000029
 631	6.2685e+01	6.2673	5.368367	0.000274	2.742831	0.464648	0.000027
 632	6.2785e+01	6.2760	5.397696	0.000295	2.947519	0.499323	0.000029
 633	6.2884e+01	6.2875	5.424173	0.000266	2.660955	0.450778	0.000027
 634	6.2983e+01	6.2988	5.451873	0.000278	2.783768	0.471583	0.000028
 635	6.3083e+01	6.3061	5.475906	0.000242	2.415328	0.409168	0.000024
 636	6.3182e+01	6.3155	5.505235	0.000295	2.947519	0.499323	0.000029
 637	6.3282e+01	6.3247	5.532934	0.000278	2.783768	0.471583	0.000028
 638	6.3382e+01	6.3350	5.560633	0.000278	2.783768	0.471583	0.000028
 639	6.3481e+01	6.3457	5.585888	0.000254	2.538142	0.429973	0.000025
 640	6.3581e+01	6.3563	5.611551	0.000258	2.579080	0.436908	0.000026
 641	6.3680e+01	6.3642	5.640065	0.000287	2.865644	0.485453	0.000029
 642	6.3779e+01	6.3770	5.668172	0.000282	2.824706	0.478518	0.000028
 643	6.3879e+01	6.3833	5.693427	0.000254	2.538142	0.429973	0.000025
 644	6.3978e+01	6.3934	5.723570	0.000303	3.029395	0.513193	0.000030
 645	6.4078e+01	6.4033	5.748825	0.000254	2.538142	0.429973	0.000025
 646	6.4177e+01	6.4138	5.780598	0.000319	3.193146	0.540934	0.000032
 647	6.4277e+01	6.4256	5.805853	0.000254	2.538142	0.429973	0.000025
 648	6.4376e+01	6.4323	5.831109	0.000254	2.538142	0.429973	0.000025
 649	6.4476e+01	6.4451	5.858808	0.000278	2.783768	0.471583	0.000028
 650	6.4576e+01	6.4548	5.888951	0.000303	3.029395	0.513193	0.000030
 651	6.4675e+01	6.4635	5.915429	0.000266	2.660955	0.450778	0.000027
 652	6.4775e+01	6.4742	5.941906	0.000266	2.660955	0.450778	0.000027
 653	6.4874e+01	6.4852	5.969198	0.000274	2.742831	0.464648	0.000027
 654	6.4974e+01	6.4974	5.997712	0.000287	2.865644	0.485453	0.000029
 655	6.5073e+01	6.5072	6.022967	0.000254	2.538142	0.429973	0.000025
 656	6.5172e+01	6.5177	6.049852	0.000270	2.701893	0.457713	0.000027
 657	6.5272e+01	6.5260	6.077958	0.000282	2.824706	0.478518	0.000028
 658	6.5371e+01	6.5356	6.106065	0.000282	2.824706	0.478518	0.000028
 659	6.5471e+01	6.5456	6.126025	0.000201	2.005951	0.339817	0.000020
 660	6.5570e+01	6.5530	6.156168	0.000303	3.029395	0.513193	0.000030
 661	6.5670e+01	6.5643	6.183053	0.000270	2.701893	0.457713	0.000027
 662	6.5769e+01	6.5746	6.211974	0.000291	2.906582	0.492388	0.000029
 663	6.5869e+01	6.5831	6.236007	0.000242	2.415328	0.409168	0.000024
 664	6.5969e+01	6.5944	6.264114	0.000282	2.824706	0.478518	0.000028
 665	6.6068e+01	6.6048	6.294257	0.000303	3.029395	0.513193	0.000030
 666	6.6168e+01	6.6155	6.321549	0.000274	2.742831	0.464648	0.000027
 667	6.6267e+01	6.6273	6.342731	0.000213	2.128764	0.360622	0.000021
 668	6.6367e+01	6.6348	6.374911	0.000323	3.234084	0.547869	0.000032
 669	6.6466e+01	6.6442	6.400166	0.000254	2.538142	0.429973	0.000025
 670	6.6566e+01	6.6544	6.424607	0.000246	2.456266	0.416103	0.000025
 671	6.6665e+01	6.6636	6.451084	0.000266	2.660955	0.450778	0.000027
 672	6.6764e+01	6.6757	6.480005	0.000291	2.906582	0.492388	0.000029
 673	6.6864e+01	6.6856	6.505668	0.000258	2.579080	0.436908	0.000026
 674	6.6963e+01	6.6949	6.535404	0.000299	2.988457	0.506258	0.000030
 675	6.7063e+01	6.7042	6.561881	0.000266	2.660955	0.450778	0.000027
 676	6.7162e+01	6.7132	6.590395	0.000287	2.865644	0.485453	0.000029
 677	6.7262e+01	6.7248	6.616465	0.000262	2.620017	0.443843	0.000026
 678	6.7362e+01	6.7333	6.644979	0.000287	2.865644	0.485453	0.000029
 679	6.7461e+01	6.7429	6.673900	0.000291	2.906582	0.492388	0.000029
 680	6.7561e+01	6.7506	6.700378	0.000266	2.660955	0.450778	0.000027
 681	6.7660e+01	6.7654	6.728077	0.000278	2.783768	0.471583	0.000028
 682	6.7760e+01	6.7741	6.756591	0.000287	2.865644	0.485453	0.000029
 683	6.7859e+01	6.7856	6.782661	0.000262	2.620017	0.443843	0.000026
 684	6.7959e+01	6.7934	6.809138	0.000266	2.660955	0.450778	0.000027
 685	6.8058e+01	6.8022	6.833579	0.000246	2.456266	0.416103	0.000025
 686	6.8157e+01	6.8110	6.860056	0.000266	2.660955	0.450778	0.000027
 687	6.8257e+01	6.8229	6.886533	0.000266	2.660955	0.450778	0.000027
 688	6.8356e+01	6.8346	6.913418	0.000270	2.701893	0.457713	0.000027
 689	6.8456e+01	6.8439	6.944376	0.000311	3.111271	0.527063	0.000031
 690	6.8555e+01	6.8515	6.968409	0.000242	2.415328	0.409168	0.000024
 691	6.8655e+01	6.8659	6.995294	0.000270	2.701893	0.457713	0.000027
 692	6.8754e+01	6.8717	7.027066	0.000319	3.193146	0.540934	0.000032
 693	6.8854e+01	6.8829	7.049063	0.000221	2.210640	0.374492	0.000022
 694	6.8954e+01	6.8932	7.074725	0.000258	2.579080	0.436908	0.000026
 695	6.9053e+01	6.9009	7.100388	0.000258	2.579080	0.436908	0.000026
 696	6.9153e+01	6.9122	7.128087	0.000278	2.783768	0.471583	0.000028
 697	6.9252e+01	6.9242	7.150898	0.000229	2.292515	0.388363	0.000023
 698	6.9352e+01	6.9321	7.178598	0.000278	2.783768	0.471583	0.000028
 699	6.9451e+01	6.9422	7.202631	0.000242	2.415328	0.409168	0.000024
 700	6.9550e+01	6.9515	7.225035	0.000225	2.251577	0.381428	0.000023
 701	6.9650e+01	6.9618	7.253549	0.000287	2.865644	0.485453	0.000029
 702	6.9749e+01	6.9720	7.278804	0.000254	2.538142	0.429973	0.000025
 703	6.9849e+01	6.9817	7.308947	0.000303	3.029395	0.513193	0.000030
 704	6.9948e+01	6.9925	7.332981	0.000242	2.415328	0.409168	0.000024
 705	7.0048e+01	7.0042	7.361087	0.000282	2.824706	0.478518	0.000028
 706	7.0147e+01	7.0119	7.388787	0.000278	2.783768	0.471583	0.000028
 707	7.0247e+01	7.0220	7.416893	0.000282	2.824706	0.478518	0.000028
 708	7.0347e+01	7.0327	7.439704	0.000229	2.292515	0.388363	0.000023
 709	7.0446e+01	7.0412	7.466589	0.000270	2.701893	0.457713	0.000027
 710	7.0546e+01	7.0536	7.490622	0.000242	2.415328	0.409168	0.000024
 711	7.0645e+01	7.0603	7.519951	0.000295	2.947519	0.499323	0.000029
 712	7.0745e+01	7.0724	7.544799	0.000250	2.497204	0.423038	0.000025
 713	7.0844e+01	7.0813	7.571276	0.000266	2.660955	0.450778	0.000027
 714	7.0944e+01	7.0911	7.596531	0.000254	2.538142	0.429973	0.000025
 715	7.1043e+01	7.1020	7.621379	0.000250	2.497204	0.423038	0.000025
 716	7.1142e+01	7.1124	7.650300	0.000291	2.906582	0.492388	0.000029
 717	7.1242e+01	7.1233	7.675556	0.000254	2.538142	0.429973	0.000025
 718	7.1341e+01	7.1319	7.701218	0.000258	2.579080	0.436908	0.000026
 719	7.1441e+01	7.1436	7.729732	0.000287	2.865644	0.485453	0.000029
 720	7.1540e+01	7.1511	7.756617	0.000270	2.701893	0.457713	0.000027
 721	7.1640e+01	7.1600	7.779021	0.000225	2.251577	0.381428	0.000023
 722	7.1740e+01	7.1709	7.809164	0.000303	3.029395	0.513193	0.000030
 723	7.1839e+01	7.1809	7.834827	0.000258	2.579080	0.436908	0.000026
 724	7.1939e+01	7.1903	7.860489	0.000258	2.579080	0.436908	0.000026
 725	7.2038e+01	7.2005	7.887781	0.000274	2.742831	0.464648	0.000027
 726	7.2138e+01	7.2121	7.915888	0.000282	2.824706	0.478518	0.000028
 727	7.2237e+01	7.2215	7.939106	0.000233	2.333453	0.395298	0.000023
 728	7.2337e+01	7.2311	7.967620	0.000287	2.865644	0.485453	0.000029
 729	7.2436e+01	7.2390	7.987987	0.000205	2.046889	0.346752	0.000020
 730	7.2535e+01	7.2498	8.016094	0.000282	2.824706	0.478518	0.000028
 731	7.2635e+01	7.2607	8.041757	0.000258	2.579080	0.436908	0.000026
 732	7.2734e+01	7.2704	8.069049	0.000274	2.742831	0.464648	0.000027
 733	7.2834e+01	7.2808	8.093489	0.000246	2.456266	0.416103	0.000025
 734	7.2933e+01	7.2863	8.124855	0.000315	3.152208	0.533999	0.000032
 735	7.3033e+01	7.3010	8.148480	0.000237	2.374391	0.402233	0.000024
 736	7.3132e+01	7.3101	8.172921	0.000246	2.456266	0.416103	0.000025
 737	7.3232e+01	7.3218	8.202657	0.000299	2.988457	0.506258	0.000030
 738	7.3332e+01	7.3299	8.226690	0.000242	2.415328	0.409168	0.000024
 739	7.3431e+01	7.3447	8.250316	0.000237	2.374391	0.402233	0.000024
 740	7.3531e+01	7.3476	8.278423	0.000282	2.824706	0.478518	0.000028
 741	7.3630e+01	7.3607	8.310195	0.000319	3.193146	0.540934	0.000032
 742	7.3730e+01	7.3712	8.330970	0.000209	2.087826	0.353687	0.000021
 743	7.3829e+01	7.3812	8.359076	0.000282	2.824706	0.478518	0.000028
 744	7.3928e+01	7.3881	8.382702	0.000237	2.374391	0.402233	0.000024
 745	7.4028e+01	7.4003	8.407550	0.000250	2.497204	0.423038	0.000025
 746	7.4127e+01	7.4086	8.434028	0.000266	2.660955	0.450778	0.000027
 747	7.4227e+01	7.4220	8.462542	0.000287	2.865644	0.485453	0.000029
 748	7.4326e+01	7.4317	8.490648	0.000282	2.824706	0.478518	0.000028
 749	7.4426e+01	7.4415	8.510608	0.000201	2.005951	0.339817	0.000020
 750	7.4525e+01	7.4503	8.540344	0.000299	2.988457	0.506258	0.000030
 751	7.4625e+01	7.4610	8.568858	0.000287	2.865644	0.485453	0.000029
 752	7.4725e+01	7.4680	8.590854	0.000221	2.210640	0.374492	0.000022
 753	7.4824e+01	7.4767	8.618146	0.000274	2.742831	0.464648	0.000027
 754	7.4924e+01	7.4909	8.643809	0.000258	2.579080	0.436908	0.000026
 755	7.5023e+01	7.5005	8.673952	0.000303	3.029395	0.513193	0.000030
 756	7.5123e+01	7.5083	8.697578	0.000237	2.374391	0.402233	0.000024
 757	7.5222e+01	7.5197	8.722833	0.000254	2.538142	0.429973	0.000025
 758	7.5322e+01	7.5295	8.751347	0.000287	2.865644	0.485453	0.000029
 759	7.5421e+01	7.5388	8.776603	0.000254	2.538142	0.429973	0.000025
 760	7.5520e+01	7.5488	8.799006	0.000225	2.251577	0.381428	0.000023
 761	7.5620e+01	7.5620	8.826298	0.000274	2.742831	0.464648	0.000027
 762	7.5719e+01	7.5698	8.849924	0.000237	2.374391	0.402233	0.000024
 763	7.5819e+01	7.5830	8.875587	0.000258	2.579080	0.436908	0.000026
 764	7.5918e+01	7.5866	8.900027	0.000246	2.456266	0.416103	0.000025
 765	7.6018e+01	7.5980	8.925690	0.000258	2.579080	0.436908	0.000026
 766	7.6118e+01	7.6087	8.950945	0.000254	2.538142	0.429973	0.000025
 767	7.6217e+01	7.6188	8.976200	0.000254	2.538142	0.429973	0.000025
 768	7.6317e+01	7.6314	9.006751	0.000307	3.070333	0.520128	0.000031
 769	7.6416e+01	7.6395	9.029970	0.000233	2.333453	0.395298	0.000023
 770	7.6516e+01	7.6504	9.057262	0.000274	2.742831	0.464648	0.000027
 771	7.6615e+01	7.6589	9.084554	0.000274	2.742831	0.464648	0.000027
 772	7.6715e+01	7.6696	9.107772	0.000233	2.333453	0.395298	0.000023
 773	7.6814e+01	7.6803	9.135471	0.000278	2.783768	0.471583	0.000028
 774	7.6913e+01	7.6881	9.159097	0.000237	2.374391	0.402233	0.000024
 775	7.7013e+01	7.6994	9.186389	0.000274	2.742831	0.464648	0.000027
 776	7.7112e+01	7.7070	9.211644	0.000254	2.538142	0.429973	0.000025
 777	7.7212e+01	7.7187	9.236085	0.000246	2.456266	0.416103	0.000025
 778	7.7311e+01	7.7268	9.264192	0.000282	2.824706	0.478518	0.000028
 779	7.7411e+01	7.7384	9.290669	0.000266	2.660955	0.450778	0.000027
 780	7.7510e+01	7.7456	9.315109	0.000246	2.456266	0.416103	0.000025
 781	7.7610e+01	7.7576	9.341587	0.000266	2.660955	0.450778	0.000027
 782	7.7710e+01	7.7676	9.371323	0.000299	2.988457	0.506258	0.000030
 783	7.7809e+01	7.7789	9.397800	0.000266	2.660955	0.450778	0.000027
 784	7.7909e+01	7.7895	9.423870	0.000262	2.620017	0.443843	0.000026
 785	7.8008e+01	7.8011	9.450347	0.000266	2.660955	0.450778	0.000027
 786	7.8108e+01	7.8094	9.479676	0.000295	2.947519	0.499323	0.000029
 787	7.8207e+01	7.8164	9.506560	0.000270	2.701893	0.457713	0.000027
 788	7.8306e+01	7.8286	9.529779	0.000233	2.333453	0.395298	0.000023
 789	7.8406e+01	7.8386	9.555442	0.000258	2.579080	0.436908	0.000026
 790	7.8505e+01	7.8472	9.582734	0.000274	2.742831	0.464648	0.000027
 791	7.8605e+01	7.8561	9.608396	0.000258	2.579080	0.436908	0.000026
 792	7.8704e+01	7.8673	9.633244	0.000250	2.497204	0.423038	0.000025
 793	7.8804e+01	7.8770	9.660129	0.000270	2.701893	0.457713	0.000027
 794	7.8903e+01	7.8881	9.684977	0.000250	2.497204	0.423038	0.000025
 795	7.9003e+01	7.8971	9.711046	0.000262	2.620017	0.443843	0.000026
 796	7.9103e+01	7.9070	9.739968	0.000291	2.906582	0.492388	0.000029
 797	7.9202e+01	7.9199	9.764408	0.000246	2.456266	0.416103	0.000025
 798	7.9302e+01	7.9290	9.790071	0.000258	2.579080	0.436908	0.000026
 799	7.9401e+01	7.9358	9.816141	0.000262	2.620017	0.443843	0.000026
 800	7.9501e+01	7.9481	9.839359	0.000233	2.333453	0.395298	0.000023
 801	7.9600e+01	7.9559	9.867873	0.000287	2.865644	0.485453	0.000029
 802	7.9700e+01	7.9658	9.895165	0.000274	2.742831	0.464648	0.000027
 803	7.9799e+01	7.9792	9.922050	0.000270	2.701893	0.457713	0.000027
 804	7.9898e+01	7.9873	9.943639	0.000217	2.169702	0.367557	0.000022
 805	7.9998e+01	7.9983	9.972968	0.000295	2.947519	0.499323	0.000029
 806	8.0097e+01	8.0078	9.996186	0.000233	2.333453	0.395298	0.000023
 807	8.0197e+01	8.0183	10.022663	0.000266	2.660955	0.450778	0.000027
 808	8.0296e+01	8.0277	10.050363	0.000278	2.783768	0.471583	0.000028
 809	8.0396e+01	8.0386	10.071137	0.000209	2.087826	0.353687	0.000021
 810	8.0496e+01	8.0494	10.100466	0.000295	2.947519	0.499323	0.000029
 811	8.0595e+01	8.0584	10.123277	0.000229	2.292515	0.388363	0.000023
 812	8.0695e+01	8.0666	10.153828	0.000307	3.070333	0.520128	0.000031
 813	8.0794e+01	8.0774	10.179898	0.000262	2.620017	0.443843	0.000026
 814	8.0894e+01	8.0877	10.202709	0.000229	2.292515	0.388363	0.000023
 815	8.0993e+01	8.0967	10.232445	0.000299	2.988457	0.506258	0.000030
 816	8.1093e+01	8.1046	10.259737	0.000274	2.742831	0.464648	0.000027
 817	8.1192e+01	8.1168	10.282955	0.000233	2.333453	0.395298	0.000023
 818	8.1291e+01	8.1265	10.311062	0.000282	2.824706	0.478518	0.000028
 819	8.1391e+01	8.1368	10.335095	0.000242	2.415328	0.409168	0.000024
 820	8.1490e+01	8.1501	10.361980	0.000270	2.701893	0.457713	0.000027
 821	8.1590e+01	8.1559	10.386013	0.000242	2.415328	0.409168	0.000024
 822	8.1689e+01	8.1655	10.413305	0.000274	2.742831	0.464648	0.000027
 823	8.1789e+01	8.1765	10.440597	0.000274	2.742831	0.464648	0.000027
 824	8.1888e+01	8.1881	10.465037	0.000246	2.456266	0.416103	0.000025
 825	8.1988e+01	8.1956	10.489478	0.000246	2.456266	0.416103	0.000025
 826	8.2088e+01	8.2061	10.513104	0.000237	2.374391	0.402233	0.000024
 827	8.2187e+01	8.2141	10.541211	0.000282	2.824706	0.478518	0.000028
 828	8.2287e+01	8.2265	10.566058	0.000250	2.497204	0.423038	0.000025
 829	8.2386e+01	8.2363	10.592536	0.000266	2.660955	0.450778	0.000027
 830	8.2486e+01	8.2478	10.620235	0.000278	2.783768	0.471583	0.000028
 831	8.2585e+01	8.2561	10.643861	0.000237	2.374391	0.402233	0.000024
 832	8.2684e+01	8.2681	10.674004	0.000303	3.029395	0.513193	0.000030
 833	8.2784e+01	8.2748	10.696815	0.000229	2.292515	0.388363	0.000023
 834	8.2883e+01	8.2882	10.724515	0.000278	2.783768	0.471583	0.000028
 835	8.2983e+01	8.2961	10.750177	0.000258	2.579080	0.436908	0.000026
 836	8.3082e+01	8.3053	10.775433	0.000254	2.538142	0.429973	0.000025
 837	8.3182e+01	8.3170	10.799058	0.000237	2.374391	0.402233	0.000024
 838	8.3281e+01	8.3244	10.821462	0.000225	2.251577	0.381428	0.000023
 839	8.3381e+01	8.3362	10.849976	0.000287	2.865644	0.485453	0.000029
 840	8.3481e+01	8.3452	10.876453	0.000266	2.660955	0.450778	0.000027
 841	8.3580e+01	8.3581	10.900487	0.000242	2.415328	0.409168	0.000024
 842	8.3680e+01	8.3639	10.927779	0.000274	2.742831	0.464648	0.000027
 843	8.3779e+01	8.3765	10.953441	0.000258	2.579080	0.436908	0.000026
 844	8.3879e+01	8.3851	10.982363	0.000291	2.906582	0.492388	0.000029
 845	8.3978e+01	8.3947	11.006803	0.000246	2.456266	0.416103	0.000025
 846	8.4078e+01	8.4083	11.034910	0.000282	2.824706	0.478518	0.000028
 847	8.4177e+01	8.4174	11.063424	0.000287	2.865644	0.485453	0.000029
 848	8.4276e+01	8.4261	11.091123	0.000278	2.783768	0.471583	0.000028
 849	8.4376e+01	8.4338	11.113527	0.000225	2.251577	0.381428	0.000023
 850	8.4475e+01	8.4449	11.142041	0.000287	2.865644	0.485453	0.000029
 851	8.4575e+01	8.4548	11.169333	0.000274	2.742831	0.464648	0.000027
 852	8.4674e+01	8.4646	11.195810	0.000266	2.660955	0.450778	0.000027
 853	8.4774e+01	8.4739	11.216177	0.000205	2.046889	0.346752	0.000020
 854	8.4874e+01	8.4849	11.242247	0.000262	2.620017	0.443843	0.000026
 855	8.4973e+01	8.4968	11.269539	0.000274	2.742831	0.464648	0.000027
 856	8.5073e+01	8.5061	11.295202	0.000258	2.579080	0.436908	0.000026
 857	8.5172e+01	8.5143	11.322494	0.000274	2.742831	0.464648	0.000027
 858	8.5272e+01	8.5254	11.348563	0.000262	2.620017	0.443843	0.000026
 859	8.5371e+01	8.5360	11.375448	0.000270	2.701893	0.457713	0.000027
 860	8.5471e+01	8.5425	11.402333	0.000270	2.701893	0.457713	0.000027
 861	8.5570e+01	8.5528	11.426773	0.000246	2.456266	0.416103	0.000025
 862	8.5669e+01	8.5639	11.452436	0.000258	2.579080	0.436908	0.000026
 863	8.5769e+01	8.5754	11.477284	0.000250	2.497204	0.423038	0.000025
 864	8.5868e+01	8.5879	11.502946	0.000258	2.579080	0.436908	0.000026
 865	8.5968e+01	8.5931	11.526980	0.000242	2.415328	0.409168	0.000024
 866	8.6067e+01	8.6036	11.551013	0.000242	2.415328	0.409168	0.000024
 867	8.6167e+01	8.6160	11.578305	0.000274	2.742831	0.464648	0.000027
 868	8.6266e+01	8.6233	11.603153	0.000250	2.497204	0.423038	0.000025
 869	8.6366e+01	8.6346	11.626371	0.000233	2.333453	0.395298	0.000023
 870	8.6466e+01	8.6453	11.650812	0.000246	2.456266	0.416103	0.000025
 871	8.6565e+01	8.6533	11.678918	0.000282	2.824706	0.478518	0.000028
 872	8.6665e+01	8.6629	11.704174	0.000254	2.538142	0.429973	0.000025
 873	8.6764e+01	8.6755	11.727392	0.000233	2.333453	0.395298	0.000023
 874	8.6864e+01	8.6850	11.754684	0.000274	2.742831	0.464648	0.000027
 875	8.6963e+01	8.6945	11.781976	0.000274	2.742831	0.464648	0.000027
 876	8.7063e+01	8.7036	11.809268	0.000274	2.742831	0.464648	0.000027
 877	8.7162e+01	8.7125	11.833708	0.000246	2.456266	0.416103	0.000025
 878	8.7261e+01	8.7264	11.860593	0.000270	2.701893	0.457713	0.000027
 879	8.7361e+01	8.7336	11.885441	0.000250	2.497204	0.423038	0.000025
 880	8.7460e+01	8.7440	11.913140	0.000278	2.783768	0.471583	0.000028
 881	8.7560e+01	8.7530	11.934729	0.000217	2.169702	0.367557	0.000022
 882	8.7659e+01	8.7630	11.965687	0.000311	3.111271	0.527063	0.000031
 883	8.7759e+01	8.7746	11.989721	0.000242	2.415328	0.409168	0.000024
 884	8.7859e+01	8.7823	12.017420	0.000278	2.783768	0.471583	0.000028
 885	8.7958e+01	8.7926	12.038602	0.000213	2.128764	0.360622	0.000021
 886	8.8058e+01	8.8026	12.065894	0.000274	2.742831	0.464648	0.000027
 887	8.8157e+01	8.8151	12.094815	0.000291	2.906582	0.492388	0.000029
 888	8.8257e+01	8.8224	12.116404	0.000217	2.169702	0.367557	0.000022
 889	8.8356e+01	8.8337	12.144511	0.000282	2.824706	0.478518	0.000028
 890	8.8456e+01	8.8407	12.171395	0.000270	2.701893	0.457713	0.000027
 891	8.8555e+01	8.8538	12.195021	0.000237	2.374391	0.402233	0.000024
 892	8.8654e+01	8.8624	12.223943	0.000291	2.906582	0.492388	0.000029
 893	8.8754e+01	8.8726	12.250013	0.000262	2.620017	0.443843	0.000026
 894	8.8853e+01	8.8790	12.271602	0.000217	2.169702	0.367557	0.000022
 895	8.8953e+01	8.8927	12.301338	0.000299	2.988457	0.506258	0.000030
 896	8.9052e+01	8.9001	12.326186	0.000250	2.497204	0.423038	0.000025
 897	8.9152e+01	8.9144	12.351848	0.000258	2.579080	0.436908	0.000026
 898	8.9251e+01	8.9214	12.378325	0.000266	2.660955	0.450778	0.000027
 899	8.9351e+01	8.9310	12.403173	0.000250	2.497204	0.423038	0.000025
 900	8.9451e+01	8.9436	12.431687	0.000287	2.865644	0.485453	0.000029
 901	8.9550e+01	8.9504	12.452054	0.000205	2.046889	0.346752	0.000020
 902	8.9650e+01	8.9601	12.480976	0.000291	2.906582	0.492388	0.000029
 903	8.9749e+01	8.9760	12.508268	0.000274	2.742831	0.464648	0.000027
 904	8.9849e+01	8.9819	12.535967	0.000278	2.783768	0.471583	0.000028
 905	8.9948e+01	8.9910	12.563259	0.000274	2.742831	0.464648	0.000027
 906	9.0047e+01	9.0063	12.590551	0.000274	2.742831	0.464648	0.000027
 907	9.0147e+01	9.0131	12.616214	0.000258	2.579080	0.436908	0.000026
 908	9.0246e+01	9.0213	12.639839	0.000237	2.374391	0.402233	0.000024
 909	9.0346e+01	9.0316	12.667946	0.000282	2.824706	0.478518	0.000028
 910	9.0445e+01	9.0402	12.695645	0.000278	2.783768	0.471583	0.000028
 911	9.0545e+01	9.0517	12.721715	0.000262	2.620017	0.443843	0.000026
 912	9.0644e+01	9.0601	12.742897	0.000213	2.128764	0.360622	0.000021
 913	9.0744e+01	9.0741	12.772633	0.000299	2.988457	0.506258	0.000030
 914	9.0844e+01	9.0821	12.794222	0.000217	2.169702	0.367557	0.000022
 915	9.0943e+01	9.0929	12.824366	0.000303	3.029395	0.513193	0.000030
 916	9.1043e+01	9.1018	12.851250	0.000270	2.701893	0.457713	0.000027
 917	9.1142e+01	9.1119	12.876913	0.000258	2.579080	0.436908	0.000026
 918	9.1242e+01	9.1211	12.903797	0.000270	2.701893	0.457713	0.000027
 919	9.1341e+01	9.1311	12.933941	0.000303	3.029395	0.513193	0.000030
 920	9.1441e+01	9.1402	12.957567	0.000237	2.374391	0.402233	0.000024
 921	9.1540e+01	9.1467	12.983229	0.000258	2.579080	0.436908	0.000026
 922	9.1639e+01	9.1592	13.015002	0.000319	3.193146	0.540934	0.000032
 923	9.1739e+01	9.1690	13.035776	0.000209	2.087826	0.353687	0.000021
 924	9.1838e+01	9.1772	13.065920	0.000303	3.029395	0.513193	0.000030
 925	9.1938e+01	9.1921	13.089953	0.000242	2.415328	0.409168	0.000024
 926	9.2037e+01	9.2004	13.113986	0.000242	2.415328	0.409168	0.000024
 927	9.2137e+01	9.2120	13.143315	0.000295	2.947519	0.499323	0.000029
 928	9.2237e+01	9.2222	13.166126	0.000229	2.292515	0.388363	0.000023
 929	9.2336e+01	9.2275	13.193418	0.000274	2.742831	0.464648	0.000027
 930	9.2436e+01	9.2410	13.218266	0.000250	2.497204	0.423038	0.000025
 931	9.2535e+01	9.2501	13.245558	0.000274	2.742831	0.464648	0.000027
 932	9.2635e+01	9.2602	13.265925	0.000205	2.046889	0.346752	0.000020
 933	9.2734e+01	9.2701	13.294439	0.000287	2.865644	0.485453	0.000029
 934	9.2834e+01	9.2785	13.323360	0.000291	2.906582	0.492388	0.000029
 935	9.2933e+01	9.2898	13.349837	0.000266	2.660955	0.450778	0.000027
 936	9.3032e+01	9.3007	13.378351	0.000287	2.865644	0.485453	0.000029
 937	9.3132e+01	9.3096	13.407680	0.000295	2.947519	0.499323	0.000029
 938	9.3231e+01	9.3214	13.434157	0.000266	2.660955	0.450778	0.000027
 939	9.3331e+01	9.3291	13.457376	0.000233	2.333453	0.395298	0.000023
 940	9.3430e+01	9.3400	13.487519	0.000303	3.029395	0.513193	0.000030
 941	9.3530e+01	9.3502	13.509108	0.000217	2.169702	0.367557	0.000022
 942	9.3629e+01	9.3639	13.536400	0.000274	2.742831	0.464648	0.000027
 943	9.3729e+01	9.3755	13.563285	0.000270	2.701893	0.457713	0.000027
 944	9.3829e+01	9.3816	13.589762	0.000266	2.660955	0.450778	0.000027
 945	9.3928e+01	9.3913	13.618684	0.000291	2.906582	0.492388	0.000029
 946	9.4028e+01	9.3994	13.647198	0.000287	2.865644	0.485453	0.000029
 947	9.4127e+01	9.4096	13.673675	0.000266	2.660955	0.450778	0.000027
 948	9.4227e+01	9.4189	13.702596	0.000291	2.906582	0.492388	0.000029
 949	9.4326e+01	9.4280	13.727037	0.000246	2.456266	0.416103	0.000025
 950	9.4425e+01	9.4393	13.759217	0.000323	3.234084	0.547869	0.000032
 951	9.4525e+01	9.4492	13.788138	0.000291	2.906582	0.492388	0.000029
 952	9.4624e+01	9.4595	13.813801	0.000258	2.579080	0.436908	0.000026
 953	9.4724e+01	9.4711	13.841093	0.000274	2.742831	0.464648	0.000027
 954	9.4823e+01	9.4808	13.866755	0.000258	2.579080	0.436908	0.000026
 955	9.4923e+01	9.4892	13.896898	0.000303	3.029395	0.513193	0.000030
 956	9.5022e+01	9.4971	13.925005	0.000282	2.824706	0.478518	0.000028
 957	9.5122e+01	9.5100	13.951482	0.000266	2.660955	0.450778	0.000027
 958	9.5222e+01	9.5215	13.976738	0.000254	2.538142	0.429973	0.000025
 959	9.5321e+01	9.5280	14.006474	0.000299	2.988457	0.506258	0.000030
 960	9.5421e+01	9.5374	14.031322	0.000250	2.497204	0.423038	0.000025
 961	9.5520e+01	9.5459	14.060650	0.000295	2.947519	0.499323	0.000029
 962	9.5620e+01	9.5606	14.089164	0.000287	2.865644	0.485453	0.000029
 963	9.5719e+01	9.5695	14.115641	0.000266	2.660955	0.450778	0.000027
 964	9.5819e+01	9.5801	14.142119	0.000266	2.660955	0.450778	0.000027
 965	9.5918e+01	9.5889	14.170225	0.000282	2.824706	0.478518	0.000028
 966	9.6017e+01	9.5965	14.197110	0.000270	2.701893	0.457713	0.000027
 967	9.6117e+01	9.6072	14.224809	0.000278	2.783768	0.471583	0.000028
 968	9.6216e+01	9.6197	14.250879	0.000262	2.620017	0.443843	0.000026
 969	9.6316e+01	9.6276	14.281430	0.000307	3.070333	0.520128	0.000031
 970	9.6415e+01	9.6393	14.308314	0.000270	2.701893	0.457713	0.000027
 971	9.6515e+01	9.6490	14.334792	0.000266	2.660955	0.450778	0.000027
 972	9.6615e+01	9.6597	14.360862	0.000262	2.620017	0.443843	0.000026
 973	9.6714e+01	9.6663	14.390598	0.000299	2.988457	0.506258	0.000030
 974	9.6814e+01	9.6761	14.418704	0.000282	2.824706	0.478518	0.000028
 975	9.6913e+01	9.6854	14.445589	0.000270	2.701893	0.457713	0.000027
 976	9.7013e+01	9.6973	14.470029	0.000246	2.456266	0.416103	0.000025
 977	9.7112e+01	9.7082	14.498543	0.000287	2.865644	0.485453	0.000029
 978	9.7212e+01	9.7217	14.528279	0.000299	2.988457	0.506258	0.000030
 979	9.7311e+01	9.7277	14.556386	0.000282	2.824706	0.478518	0.000028
 980	9.7410e+01	9.7388	14.586122	0.000299	2.988457	0.506258	0.000030
 981	9.7510e+01	9.7488	14.612192	0.000262	2.620017	0.443843	0.000026
 982	9.7609e+01	9.7564	14.641928	0.000299	2.988457	0.506258	0.000030
 983	9.7709e+01	9.7685	14.667183	0.000254	2.538142	0.429973	0.000025
 984	9.7808e+01	9.7793	14.701400	0.000344	3.438773	0.582544	0.000034
 985	9.7908e+01	9.7869	14.728692	0.000274	2.742831	0.464648	0.000027
 986	9.8007e+01	9.7950	14.755984	0.000274	2.742831	0.464648	0.000027
 987	9.8107e+01	9.8064	14.780017	0.000242	2.415328	0.409168	0.000024
 988	9.8207e+01	9.8153	14.806902	0.000270	2.701893	0.457713	0.000027
 989	9.8306e+01	9.8278	14.837452	0.000307	3.070333	0.520128	0.000031
 990	9.8406e+01	9.8377	14.866781	0.000295	2.947519	0.499323	0.000029
 991	9.8505e+01	9.8451	14.892444	0.000258	2.579080	0.436908	0.000026
 992	9.8605e+01	9.8589	14.920143	0.000278	2.783768	0.471583	0.000028
 993	9.8704e+01	9.8673	14.948657	0.000287	2.865644	0.485453	0.000029
 994	9.8803e+01	9.8755	14.974320	0.000258	2.579080	0.436908	0.000026
 995	9.8903e+01	9.8870	15.005685	0.000315	3.152208	0.533999	0.000032
 996	9.9002e+01	9.8975	15.035421	0.000299	2.988457	0.506258	0.000030
 997	9.9102e+01	9.9075	15.062306	0.000270	2.701893	0.457713	0.000027
 998	9.9201e+01	9.9191	15.091634	0.000295	2.947519	0.499323	0.000029
 999	9.9301e+01	9.9268	15.120963	0.000295	2.947519	0.499323	0.000029
1000	9.9400e+01	9.9366	15.150292	0.000295	2.947519	0.499323	0.000029
1001	9.9500e+01	9.9464	15.176361	0.000262	2.620017	0.443843	0.000026
1002	9.9600e+01	9.9554	15.202024	0.000258	2.579080	0.436908	0.000026
1003	9.9699e+01	9.9636	15.229316	0.000274	2.742831	0.464648	0.000027
1004	9.9799e+01	9.9757	15.260274	0.000311	3.111271	0.527063	0.000031
1005	9.9898e+01	9.9892	15.289195	0.000291	2.906582	0.492388	0.000029
1006	9.9998e+01	9.9979	15.318931	0.000299	2.988457	0.506258	0.000030
1007	1.0010e+02	9.9874	15.307118	0.000119	1.187195	0.201116	-0.000012
1008	1.0020e+02	9.9770	15.298157	0.000090	0.900631	0.152571	-0.000009
1009	1.0030e+02	9.9677	15.283900	0.000143	1.432822	0.242727	-0.000014
1010	1.0040e+02	9.9578	15.271680	0.000123	1.228133	0.208051	-0.000012
1011	1.0050e+02	9.9468	15.261903	0.000098	0.982506	0.166441	-0.000010
1012	1.0059e+02	9.9386	15.251720	0.000102	1.023444	0.173376	-0.000010
1013	1.0069e+02	9.9273	15.239092	0.000127	1.269071	0.214986	-0.000013
1014	1.0079e+02	9.9176	15.227687	0.000115	1.146258	0.194181	-0.000011
1015	1.0089e+02	9.9049	15.216281	0.000115	1.146258	0.194181	-0.000011
1016	1.0099e+02	9.8978	15.201209	0.000151	1.514697	0.256597	-0.000015
1017	1.0109e+02	9.8872	15.185730	0.000156	1.555635	0.263532	-0.000016
1018	1.0119e+02	9.8785	15.174325	0.000115	1.146258	0.194181	-0.000011
1019	1.0129e+02	9.8664	15.162104	0.000123	1.228133	0.208051	-0.000012
1020	1.0139e+02	9.8566	15.144589	0.000176	1.760324	0.298207	-0.000018
1021	1.0149e+02	9.8476	15.133998	0.000106	1.064382	0.180311	-0.000011
1022	1.0159e+02	9.8365	15.117704	0.000164	1.637511	0.277402	-0.000016
1023	1.0169e+02	9.8277	15.103447	0.000143	1.432822	0.242727	-0.000014
1024	1.0179e+02	9.8173	15.090412	0.000131	1.310009	0.221921	-0.000013
1025	1.0189e+02	9.8077	15.079007	0.000115	1.146258	0.194181	-0.000011
1026	1.0199e+02	9.7985	15.062306	0.000168	1.678449	0.284337	-0.000017
1027	1.0209e+02	9.7886	15.050085	0.000123	1.228133	0.208051	-0.000012
1028	1.0219e+02	9.7758	15.033792	0.000164	1.637511	0.277402	-0.000016
1029	1.0229e+02	9.7670	15.018313	0.000156	1.555635	0.263532	-0.000016
1030	1.0239e+02	9.7572	15.000797	0.000176	1.760324	0.298207	-0.000018
1031	1.0248e+02	9.7477	14.985318	0.000156	1.555635	0.263532	-0.000016
1032	1.0258e+02	9.7372	14.971875	0.000135	1.350946	0.228857	-0.000014
1033	1.0268e+02	9.7269	14.952323	0.000197	1.965013	0.332882	-0.000020
1034	1.0278e+02	9.7187	14.936029	0.000164	1.637511	0.277402	-0.000016
1035	1.0288e+02	9.7083	14.918921	0.000172	1.719386	0.291272	-0.000017
1036	1.0298e+02	9.6975	14.905479	0.000135	1.350946	0.228857	-0.000014
1037	1.0308e+02	9.6879	14.888778	0.000168	1.678449	0.284337	-0.000017
1038	1.0318e+02	9.6796	14.874113	0.000147	1.473760	0.249662	-0.000015
1039	1.0328e+02	9.6686	14.857412	0.000168	1.678449	0.284337	-0.000017
1040	1.0338e+02	9.6564	14.843563	0.000139	1.391884	0.235792	-0.000014
1041	1.0348e+02	9.6503	14.824010	0.000197	1.965013	0.332882	-0.000020
1042	1.0358e+02	9.6358	14.807716	0.000164	1.637511	0.277402	-0.000016
1043	1.0368e+02	9.6296	14.792645	0.000151	1.514697	0.256597	-0.000015
1044	1.0378e+02	9.6166	14.778795	0.000139	1.391884	0.235792	-0.000014
1045	1.0388e+02	9.6105	14.763316	0.000156	1.555635	0.263532	-0.000016
1046	1.0398e+02	9.5968	14.744171	0.000192	1.924075	0.325947	-0.000019
1047	1.0408e+02	9.5879	14.728692	0.000156	1.555635	0.263532	-0.000016
1048	1.0418e+02	9.5829	14.713213	0.000156	1.555635	0.263532	-0.000016
1049	1.0428e+02	9.5693	14.696919	0.000164	1.637511	0.277402	-0.000016
1050	1.0438e+02	9.5574	14.681440	0.000156	1.555635	0.263532	-0.000016
1051	1.0447e+02	9.5422	14.661073	0.000205	2.046889	0.346752	-0.000020
1052	1.0457e+02	9.5394	14.644372	0.000168	1.678449	0.284337	-0.000017
1053	1.0467e+02	9.5290	14.627264	0.000172	1.719386	0.291272	-0.000017
1054	1.0477e+02	9.5198	14.609341	0.000180	1.801262	0.305142	-0.000018
1055	1.0487e+02	9.5083	14.591010	0.000184	1.842200	0.312077	-0.000018
1056	1.0497e+02	9.4991	14.573087	0.000180	1.801262	0.305142	-0.000018
1057	1.0507e+02	9.4865	14.559645	0.000135	1.350946	0.228857	-0.000014
1058	1.0517e+02	9.4788	14.542536	0.000172	1.719386	0.291272	-0.000017
1059	1.0527e+02	9.4711	14.527057	0.000156	1.555635	0.263532	-0.000016
1060	1.0537e+02	9.4605	14.510764	0.000164	1.637511	0.277402	-0.000016
1061	1.0547e+02	9.4494	14.489582	0.000213	2.128764	0.360622	-0.000021
1062	1.0557e+02	9.4403	14.477769	0.000119	1.187195	0.201116	-0.000012
1063	1.0567e+02	9.4312	14.458217	0.000197	1.965013	0.332882	-0.000020
1064	1.0577e+02	9.4199	14.439479	0.000188	1.883137	0.319012	-0.000019
1065	1.0587e+02	9.4098	14.419519	0.000201	2.005951	0.339817	-0.000020
1066	1.0597e+02	9.3994	14.403225	0.000164	1.637511	0.277402	-0.000016
1067	1.0607e+02	9.3882	14.384080	0.000192	1.924075	0.325947	-0.000019
1068	1.0617e+02	9.3801	14.365750	0.000184	1.842200	0.312077	-0.000018
1069	1.0627e+02	9.3732	14.352307	0.000135	1.350946	0.228857	-0.000014
1070	1.0637e+02	9.3606	14.329496	0.000229	2.292515	0.388363	-0.000023
1071	1.0647e+02	9.3514	14.316054	0.000135	1.350946	0.228857	-0.000014
1072	1.0656e+02	9.3417	14.296909	0.000192	1.924075	0.325947	-0.000019
1073	1.0666e+02	9.3287	14.277764	0.000192	1.924075	0.325947	-0.000019
1074	1.0676e+02	9.3182	14.259841	0.000180	1.801262	0.305142	-0.000018
1075	1.0686e+02	9.3105	14.246806	0.000131	1.310009	0.221921	-0.000013
1076	1.0696e+02	9.3020	14.225217	0.000217	2.169702	0.367557	-0.000022
1077	1.0706e+02	9.2899	14.208923	0.000164	1.637511	0.277402	-0.000016
1078	1.0716e+02	9.2799	14.193037	0.000160	1.596573	0.270467	-0.000016
1079	1.0726e+02	9.2696	14.171855	0.000213	2.128764	0.360622	-0.000021
1080	1.0736e+02	9.2612	14.150673	0.000213	2.128764	0.360622	-0.000021
1081	1.0746e+02	9.2511	14.135194	0.000156	1.555635	0.263532	-0.000016
1082	1.0756e+02	9.2420	14.118085	0.000172	1.719386	0.291272	-0.000017
1083	1.0766e+02	9.2300	14.101384	0.000168	1.678449	0.284337	-0.000017
1084	1.0776e+02	9.2188	14.081017	0.000205	2.046889	0.346752	-0.000020
1085	1.0786e+02	9.2113	14.063909	0.000172	1.719386	0.291272	-0.000017
1086	1.0796e+02	9.1998	14.041505	0.000225	2.251577	0.381428	-0.000023
1087	1.0806e+02	9.1904	14.024804	0.000168	1.678449	0.284337	-0.000017
1088	1.0816e+02	9.1800	14.008510	0.000164	1.637511	0.277402	-0.000016
1089	1.0826e+02	9.1736	13.989773	0.000188	1.883137	0.319012	-0.000019
1090	1.0836e+02	9.1605	13.971035	0.000188	1.883137	0.319012	-0.000019
1091	1.0845e+02	9.1509	13.949853	0.000213	2.128764	0.360622	-0.000021
1092	1.0855e+02	9.1415	13.929893	0.000201	2.005951	0.339817	-0.000020
1093	1.0865e+02	9.1299	13.913600	0.000164	1.637511	0.277402	-0.000016
1094	1.0875e+02	9.1187	13.892418	0.000213	2.128764	0.360622	-0.000021
1095	1.0885e+02	9.1091	13.876124	0.000164	1.637511	0.277402	-0.000016
1096	1.0895e+02	9.1021	13.856979	0.000192	1.924075	0.325947	-0.000019
1097	1.0905e+02	9.0911	13.836204	0.000209	2.087826	0.353687	-0.000021
1098	1.0915e+02	9.0821	13.811764	0.000246	2.456266	0.416103	-0.000025
1099	1.0925e+02	9.0737	13.793026	0.000188	1.883137	0.319012	-0.000019
1100	1.0935e+02	9.0615	13.775918	0.000172	1.719386	0.291272	-0.000017
1101	1.0945e+02	9.0511	13.753514	0.000225	2.251577	0.381428	-0.000023
1102	1.0955e+02	9.0467	13.739664	0.000139	1.391884	0.235792	-0.000014
1103	1.0965e+02	9.0332	13.720927	0.000188	1.883137	0.319012	-0.000019
1104	1.0975e+02	9.0232	13.697708	0.000233	2.333453	0.395298	-0.000023
1105	1.0985e+02	9.0137	13.685895	0.000119	1.187195	0.201116	-0.000012
1106	1.0995e+02	9.0022	13.665935	0.000201	2.005951	0.339817	-0.000020
1107	1.1005e+02	8.9954	13.644346	0.000217	2.169702	0.367557	-0.000022
1108	1.1015e+02	8.9803	13.622757	0.000217	2.169702	0.367557	-0.000022
1109	1.1025e+02	8.9733	13.606463	0.000164	1.637511	0.277402	-0.000016
1110	1.1035e+02	8.9632	13.585689	0.000209	2.087826	0.353687	-0.000021
1111	1.1044e+02	8.9524	13.566544	0.000192	1.924075	0.325947	-0.000019
1112	1.1054e+02	8.9405	13.545769	0.000209	2.087826	0.353687	-0.000021
1113	1.1064e+02	8.9336	13.528253	0.000176	1.760324	0.298207	-0.000018
1114	1.1074e+02	8.9230	13.505035	0.000233	2.333453	0.395298	-0.000023
1115	1.1084e+02	8.9117	13.489963	0.000151	1.514697	0.256597	-0.000015
1116	1.1094e+02	8.9040	13.470818	0.000192	1.924075	0.325947	-0.000019
1117	1.1104e+02	8.8924	13.455747	0.000151	1.514697	0.256597	-0.000015
1118	1.1114e+02	8.8822	13.434972	0.000209	2.087826	0.353687	-0.000021
1119	1.1124e+02	8.8699	13.411754	0.000233	2.333453	0.395298	-0.000023
1120	1.1134e+02	8.8634	13.395867	0.000160	1.596573	0.270467	-0.000016
1121	1.1144e+02	8.8522	13.377944	0.000180	1.801262	0.305142	-0.000018
1122	1.1154e+02	8.8428	13.355540	0.000225	2.251577	0.381428	-0.000023
1123	1.1164e+02	8.8342	13.340061	0.000156	1.555635	0.263532	-0.000016
1124	1.1174e+02	8.8223	13.321731	0.000184	1.842200	0.312077	-0.000018
1125	1.1184e+02	8.8147	13.302586	0.000192	1.924075	0.325947	-0.000019
1126	1.1194e+02	8.8038	13.280997	0.000217	2.169702	0.367557	-0.000022
1127	1.1204e+02	8.7957	13.261444	0.000197	1.965013	0.332882	-0.000020
1128	1.1214e+02	8.7846	13.241077	0.000205	2.046889	0.346752	-0.000020
1129	1.1224e+02	8.7726	13.225191	0.000160	1.596573	0.270467	-0.000016
1130	1.1234e+02	8.7640	13.201565	0.000237	2.374391	0.402233	-0.000024
1131	1.1244e+02	8.7554	13.184049	0.000176	1.760324	0.298207	-0.000018
1132	1.1253e+02	8.7429	13.163682	0.000205	2.046889	0.346752	-0.000020
1133	1.1263e+02	8.7341	13.144944	0.000188	1.883137	0.319012	-0.000019
1134	1.1273e+02	8.7234	13.124577	0.000205	2.046889	0.346752	-0.000020
1135	1.1283e+02	8.7159	13.105432	0.000192	1.924075	0.325947	-0.000019
1136	1.1293e+02	8.7025	13.083843	0.000217	2.169702	0.367557	-0.000022
1137	1.1303e+02	8.6936	13.062254	0.000217	2.169702	0.367557	-0.000022
1138	1.1313e+02	8.6887	13.042294	0.000201	2.005951	0.339817	-0.000020
1139	1.1323e+02	8.6745	13.025185	0.000172	1.719386	0.291272	-0.000017
1140	1.1333e+02	8.6666	13.002374	0.000229	2.292515	0.388363	-0.000023
1141	1.1343e+02	8.6552	12.984451	0.000180	1.801262	0.305142	-0.000018
1142	1.1353e+02	8.6426	12.963269	0.000213	2.128764	0.360622	-0.000021
1143	1.1363e+02	8.6373	12.942088	0.000213	2.128764	0.360622	-0.000021
1144	1.1373e+02	8.6282	12.921313	0.000209	2.087826	0.353687	-0.000021
1145	1.1383e+02	8.6134	12.901761	0.000197	1.965013	0.332882	-0.000020
1146	1.1393e+02	8.6060	12.882208	0.000197	1.965013	0.332882	-0.000020
1147	1.1403e+02	8.5943	12.863470	0.000188	1.883137	0.319012	-0.000019
1148	1.1413e+02	8.5854	12.838623	0.000250	2.497204	0.423038	-0.000025
1149	1.1423e+02	8.5780	12.823958	0.000147	1.473760	0.249662	-0.000015
1150	1.1433e+02	8.5622	12.802369	0.000217	2.169702	0.367557	-0.000022
1151	1.1442e+02	8.5542	12.781187	0.000213	2.128764	0.360622	-0.000021
1152	1.1452e+02	8.5446	12.761227	0.000201	2.005951	0.339817	-0.000020
1153	1.1462e+02	8.5357	12.742490	0.000188	1.883137	0.319012	-0.000019
1154	1.1472e+02	8.5247	12.722530	0.000201	2.005951	0.339817	-0.000020
1155	1.1482e+02	8.5177	12.695238	0.000274	2.742831	0.464648	-0.000027
1156	1.1492e+02	8.5041	12.680981	0.000143	1.432822	0.242727	-0.000014
1157	1.1502e+02	8.4954	12.658170	0.000229	2.292515	0.388363	-0.000023
1158	1.1512e+02	8.4841	12.635766	0.000225	2.251577	0.381428	-0.000023
1159	1.1522e+02	8.4774	12.617436	0.000184	1.842200	0.312077	-0.000018
1160	1.1532e+02	8.4669	12.595032	0.000225	2.251577	0.381428	-0.000023
1161	1.1542e+02	8.4548	12.575479	0.000197	1.965013	0.332882	-0.000020
1162	1.1552e+02	8.4458	12.554705	0.000209	2.087826	0.353687	-0.000021
1163	1.1562e+02	8.4365	12.538004	0.000168	1.678449	0.284337	-0.000017
1164	1.1572e+02	8.4249	12.514378	0.000237	2.374391	0.402233	-0.000024
1165	1.1582e+02	8.4170	12.494011	0.000205	2.046889	0.346752	-0.000020
1166	1.1592e+02	8.4060	12.472422	0.000217	2.169702	0.367557	-0.000022
1167	1.1602e+02	8.3974	12.447981	0.000246	2.456266	0.416103	-0.000025
1168	1.1612e+02	8.3862	12.429243	0.000188	1.883137	0.319012	-0.000019
1169	1.1622e+02	8.3743	12.408876	0.000205	2.046889	0.346752	-0.000020
1170	1.1632e+02	8.3659	12.393397	0.000156	1.555635	0.263532	-0.000016
1171	1.1642e+02	8.3559	12.368549	0.000250	2.497204	0.423038	-0.000025
1172	1.1651e+02	8.3460	12.348997	0.000197	1.965013	0.332882	-0.000020
1173	1.1661e+02	8.3356	12.324556	0.000246	2.456266	0.416103	-0.000025
1174	1.1671e+02	8.3234	12.303374	0.000213	2.128764	0.360622	-0.000021
1175	1.1681e+02	8.3166	12.283822	0.000197	1.965013	0.332882	-0.000020
1176	1.1691e+02	8.3062	12.262640	0.000213	2.128764	0.360622	-0.000021
1177	1.1701e+02	8.2931	12.240644	0.000221	2.210640	0.374492	-0.000022
1178	1.1711e+02	8.2865	12.219055	0.000217	2.169702	0.367557	-0.000022
1179	1.1721e+02	8.2768	12.198687	0.000205	2.046889	0.346752	-0.000020
1180	1.1731e+02	8.2652	12.180764	0.000180	1.801262	0.305142	-0.000018
1181	1.1741e+02	8.2573	12.159990	0.000209	2.087826	0.353687	-0.000021
1182	1.1751e+02	8.2464	12.138808	0.000213	2.128764	0.360622	-0.000021
1183	1.1761e+02	8.2361	12.120478	0.000184	1.842200	0.312077	-0.000018
1184	1.1771e+02	8.2259	12.099296	0.000213	2.128764	0.360622	-0.000021
1185	1.1781e+02	8.2178	12.080965	0.000184	1.842200	0.312077	-0.000018
1186	1.1791e+02	8.2076	12.060598	0.000205	2.046889	0.346752	-0.000020
1187	1.1801e+02	8.1969	12.035750	0.000250	2.497204	0.423038	-0.000025
1188	1.1811e+02	8.1843	12.012939	0.000229	2.292515	0.388363	-0.000023
1189	1.1821e+02	8.1727	11.990943	0.000221	2.210640	0.374492	-0.000022
1190	1.1831e+02	8.1661	11.969761	0.000213	2.128764	0.360622	-0.000021
1191	1.1841e+02	8.1567	11.949394	0.000205	2.046889	0.346752	-0.000020
1192	1.1850e+02	8.1456	11.930656	0.000188	1.883137	0.319012	-0.000019
1193	1.1860e+02	8.1372	11.908659	0.000221	2.210640	0.374492	-0.000022
1194	1.1870e+02	8.1266	11.888700	0.000201	2.005951	0.339817	-0.000020
1195	1.1880e+02	8.1187	11.866703	0.000221	2.210640	0.374492	-0.000022
1196	1.1890e+02	8.1068	11.839819	0.000270	2.701893	0.457713	-0.000027
1197	1.1900e+02	8.0947	11.821081	0.000188	1.883137	0.319012	-0.000019
1198	1.1910e+02	8.0891	11.801528	0.000197	1.965013	0.332882	-0.000020
1199	1.1920e+02	8.0763	11.777495	0.000242	2.415328	0.409168	-0.000024
1200	1.1930e+02	8.0671	11.755091	0.000225	2.251577	0.381428	-0.000023
1201	1.1940e+02	8.0544	11.732280	0.000229	2.292515	0.388363	-0.000023
1202	1.1950e+02	8.0474	11.708247	0.000242	2.415328	0.409168	-0.000024
1203	1.1960e+02	8.0390	11.687880	0.000205	2.046889	0.346752	-0.000020
1204	1.1970e+02	8.0257	11.665476	0.000225	2.251577	0.381428	-0.000023
1205	1.1980e+02	8.0177	11.642257	0.000233	2.333453	0.395298	-0.000023
1206	1.1990e+02	8.0045	11.621483	0.000209	2.087826	0.353687	-0.000021
1207	1.2000e+02	7.9990	11.598672	0.000229	2.292515	0.388363	-0.000023
1208	1.2010e+02	7.9896	11.577897	0.000209	2.087826	0.353687	-0.000021
1209	1.2020e+02	7.9776	11.557123	0.000209	2.087826	0.353687	-0.000021
1210	1.2030e+02	7.9668	11.533904	0.000233	2.333453	0.395298	-0.000023
1211	1.2039e+02	7.9583	11.509464	0.000246	2.456266	0.416103	-0.000025
1212	1.2049e+02	7.9472	11.491541	0.000180	1.801262	0.305142	-0.000018
1213	1.2059e+02	7.9385	11.467915	0.000237	2.374391	0.402233	-0.000024
1214	1.2069e+02	7.9271	11.445511	0.000225	2.251577	0.381428	-0.000023
1215	1.2079e+02	7.9171	11.424329	0.000213	2.128764	0.360622	-0.000021
1216	1.2089e+02	7.9095	11.405184	0.000192	1.924075	0.325947	-0.000019
1217	1.2099e+02	7.8974	11.380336	0.000250	2.497204	0.423038	-0.000025
1218	1.2109e+02	7.8872	11.357118	0.000233	2.333453	0.395298	-0.000023
1219	1.2119e+02	7.8757	11.335936	0.000213	2.128764	0.360622	-0.000021
1220	1.2129e+02	7.8662	11.313125	0.000229	2.292515	0.388363	-0.000023
1221	1.2139e+02	7.8564	11.289906	0.000233	2.333453	0.395298	-0.000023
1222	1.2149e+02	7.8467	11.270354	0.000197	1.965013	0.332882	-0.000020
1223	1.2159e+02	7.8384	11.250801	0.000197	1.965013	0.332882	-0.000020
1224	1.2169e+02	7.8255	11.225546	0.000254	2.538142	0.429973	-0.000025
1225	1.2179e+02	7.8175	11.204364	0.000213	2.128764	0.360622	-0.000021
1226	1.2189e+02	7.8066	11.180331	0.000242	2.415328	0.409168	-0.000024
1227	1.2199e+02	7.7975	11.156298	0.000242	2.415328	0.409168	-0.000024
1228	1.2209e+02	7.7882	11.135116	0.000213	2.128764	0.360622	-0.000021
1229	1.2219e+02	7.7790	11.115564	0.000197	1.965013	0.332882	-0.000020
1230	1.2229e+02	7.7671	11.092752	0.000229	2.292515	0.388363	-0.000023
1231	1.2239e+02	7.7563	11.071571	0.000213	2.128764	0.360622	-0.000021
1232	1.2248e+02	7.7479	11.048352	0.000233	2.333453	0.395298	-0.000023
1233	1.2258e+02	7.7397	11.024319	0.000242	2.415328	0.409168	-0.000024
1234	1.2268e+02	7.7290	11.002730	0.000217	2.169702	0.367557	-0.000022
1235	1.2278e+02	7.7197	10.977067	0.000258	2.579080	0.436908	-0.000026
1236	1.2288e+02	7.7070	10.954256	0.000229	2.292515	0.388363	-0.000023
1237	1.2298e+02	7.6986	10.932259	0.000221	2.210640	0.374492	-0.000022
1238	1.2308e+02	7.6881	10.910670	0.000217	2.169702	0.367557	-0.000022
1239	1.2318e+02	7.6785	10.887452	0.000233	2.333453	0.395298	-0.000023
1240	1.2328e+02	7.6698	10.865455	0.000221	2.210640	0.374492	-0.000022
1241	1.2338e+02	7.6575	10.849976	0.000156	1.555635	0.263532	-0.000016
1242	1.2348e+02	7.6507	10.821055	0.000291	2.906582	0.492388	-0.000029
1243	1.2358e+02	7.6398	10.798651	0.000225	2.251577	0.381428	-0.000023
1244	1.2368e+02	7.6254	10.777877	0.000209	2.087826	0.353687	-0.000021
1245	1.2378e+02	7.6221	10.754251	0.000237	2.374391	0.402233	-0.000024
1246	1.2388e+02	7.6099	10.737142	0.000172	1.719386	0.291272	-0.000017
1247	1.2398e+02	7.5988	10.710258	0.000270	2.701893	0.457713	-0.000027
1248	1.2408e+02	7.5896	10.689483	0.000209	2.087826	0.353687	-0.000021
1249	1.2418e+02	7.5813	10.661784	0.000278	2.783768	0.471583	-0.000028
1250	1.2428e+02	7.5697	10.643454	0.000184	1.842200	0.312077	-0.000018
1251	1.2438e+02	7.5587	10.621457	0.000221	2.210640	0.374492	-0.000022
1252	1.2447e+02	7.5494	10.597831	0.000237	2.374391	0.402233	-0.000024
1253	1.2457e+02	7.5391	10.576649	0.000213	2.128764	0.360622	-0.000021
1254	1.2467e+02	7.5304	10.553838	0.000229	2.292515	0.388363	-0.000023
1255	1.2477e+02	7.5196	10.530212	0.000237	2.374391	0.402233	-0.000024
1256	1.2487e+02	7.5078	10.509438	0.000209	2.087826	0.353687	-0.000021
1257	1.2497e+02	7.4986	10.489071	0.000205	2.046889	0.346752	-0.000020
1258	1.2507e+02	7.4900	10.465852	0.000233	2.333453	0.395298	-0.000023
1259	1.2517e+02	7.4808	10.438560	0.000274	2.742831	0.464648	-0.000027
1260	1.2527e+02	7.4704	10.418193	0.000205	2.046889	0.346752	-0.000020
1261	1.2537e+02	7.4601	10.397011	0.000213	2.128764	0.360622	-0.000021
1262	1.2547e+02	7.4503	10.372163	0.000250	2.497204	0.423038	-0.000025
1263	1.2557e+02	7.4387	10.347723	0.000246	2.456266	0.416103	-0.000025
1264	1.2567e+02	7.4312	10.326134	0.000217	2.169702	0.367557	-0.000022
1265	1.2577e+02	7.4233	10.301286	0.000250	2.497204	0.423038	-0.000025
1266	1.2587e+02	7.4099	10.276438	0.000250	2.497204	0.423038	-0.000025
1267	1.2597e+02	7.3992	10.252405	0.000242	2.415328	0.409168	-0.000024
1268	1.2607e+02	7.3913	10.225927	0.000266	2.660955	0.450778	-0.000027
1269	1.2617e+02	7.3785	10.203116	0.000229	2.292515	0.388363	-0.000023
1270	1.2627e+02	7.3695	10.186415	0.000168	1.678449	0.284337	-0.000017
1271	1.2636e+02	7.3598	10.161160	0.000254	2.538142	0.429973	-0.000025
1272	1.2646e+02	7.3535	10.139571	0.000217	2.169702	0.367557	-0.000022
1273	1.2656e+02	7.3438	10.116352	0.000233	2.333453	0.395298	-0.000023
1274	1.2666e+02	7.3310	10.093541	0.000229	2.292515	0.388363	-0.000023
1275	1.2676e+02	7.3217	10.072767	0.000209	2.087826	0.353687	-0.000021
1276	1.2686e+02	7.3100	10.045882	0.000270	2.701893	0.457713	-0.000027
1277	1.2696e+02	7.3013	10.021034	0.000250	2.497204	0.423038	-0.000025
1278	1.2706e+02	7.2881	10.001074	0.000201	2.005951	0.339817	-0.000020
1279	1.2716e+02	7.2796	9.975412	0.000258	2.579080	0.436908	-0.000026
1280	1.2726e+02	7.2715	9.953008	0.000225	2.251577	0.381428	-0.000023
1281	1.2736e+02	7.2637	9.931011	0.000221	2.210640	0.374492	-0.000022
1282	1.2746e+02	7.2486	9.906571	0.000246	2.456266	0.416103	-0.000025
1283	1.2756e+02	7.2424	9.885796	0.000209	2.087826	0.353687	-0.000021
1284	1.2766e+02	7.2311	9.866244	0.000197	1.965013	0.332882	-0.000020
1285	1.2776e+02	7.2202	9.843840	0.000225	2.251577	0.381428	-0.000023
1286	1.2786e+02	7.2111	9.820622	0.000233	2.333453	0.395298	-0.000023
1287	1.2796e+02	7.2007	9.799032	0.000217	2.169702	0.367557	-0.000022
1288	1.2806e+02	7.1902	9.775814	0.000233	2.333453	0.395298	-0.000023
1289	1.2816e+02	7.1801	9.753410	0.000225	2.251577	0.381428	-0.000023
1290	1.2826e+02	7.1741	9.728969	0.000246	2.456266	0.416103	-0.000025
1291	1.2835e+02	7.1631	9.706158	0.000229	2.292515	0.388363	-0.000023
1292	1.2845e+02	7.1510	9.683347	0.000229	2.292515	0.388363	-0.000023
1293	1.2855e+02	7.1411	9.658907	0.000246	2.456266	0.416103	-0.000025
1294	1.2865e+02	7.1268	9.636095	0.000229	2.292515	0.388363	-0.000023
1295	1.2875e+02	7.1194	9.612470	0.000237	2.374391	0.402233	-0.000024
1296	1.2885e+02	7.1113	9.586807	0.000258	2.579080	0.436908	-0.000026
1297	1.2895e+02	7.1003	9.564403	0.000225	2.251577	0.381428	-0.000023
1298	1.2905e+02	7.0891	9.542814	0.000217	2.169702	0.367557	-0.000022
1299	1.2915e+02	7.0824	9.519188	0.000237	2.374391	0.402233	-0.000024
1300	1.2925e+02	7.0708	9.495155	0.000242	2.415328	0.409168	-0.000024
1301	1.2935e+02	7.0612	9.471529	0.000237	2.374391	0.402233	-0.000024
1302	1.2945e+02	7.0507	9.450755	0.000209	2.087826	0.353687	-0.000021
1303	1.2955e+02	7.0432	9.428758	0.000221	2.210640	0.374492	-0.000022
1304	1.2965e+02	7.0303	9.401466	0.000274	2.742831	0.464648	-0.000027
1305	1.2975e+02	7.0217	9.377026	0.000246	2.456266	0.416103	-0.000025
1306	1.2985e+02	7.0120	9.353400	0.000237	2.374391	0.402233	-0.000024
1307	1.2995e+02	7.0019	9.331403	0.000221	2.210640	0.374492	-0.000022
1308	1.3005e+02	6.9927	9.310221	0.000213	2.128764	0.360622	-0.000021
1309	1.3015e+02	6.9833	9.284966	0.000254	2.538142	0.429973	-0.000025
1310	1.3025e+02	6.9698	9.260933	0.000242	2.415328	0.409168	-0.000024
1311	1.3034e+02	6.9619	9.239751	0.000213	2.128764	0.360622	-0.000021
1312	1.3044e+02	6.9512	9.211237	0.000287	2.865644	0.485453	-0.000029
1313	1.3054e+02	6.9427	9.192499	0.000188	1.883137	0.319012	-0.000019
1314	1.3064e+02	6.9334	9.166429	0.000262	2.620017	0.443843	-0.000026
1315	1.3074e+02	6.9225	9.144433	0.000221	2.210640	0.374492	-0.000022
1316	1.3084e+02	6.9109	9.122029	0.000225	2.251577	0.381428	-0.000023
1317	1.3094e+02	6.9024	9.096774	0.000254	2.538142	0.429973	-0.000025
1318	1.3104e+02	6.8914	9.071111	0.000258	2.579080	0.436908	-0.000026
1319	1.3114e+02	6.8822	9.047893	0.000233	2.333453	0.395298	-0.000023
1320	1.3124e+02	6.8710	9.026711	0.000213	2.128764	0.360622	-0.000021
1321	1.3134e+02	6.8627	9.000234	0.000266	2.660955	0.450778	-0.000027
1322	1.3144e+02	6.8531	8.978237	0.000221	2.210640	0.374492	-0.000022
1323	1.3154e+02	6.8435	8.955019	0.000233	2.333453	0.395298	-0.000023
1324	1.3164e+02	6.8353	8.930171	0.000250	2.497204	0.423038	-0.000025
1325	1.3174e+02	6.8226	8.907767	0.000225	2.251577	0.381428	-0.000023
1326	1.3184e+02	6.8163	8.880882	0.000270	2.701893	0.457713	-0.000027
1327	1.3194e+02	6.8019	8.858886	0.000221	2.210640	0.374492	-0.000022
1328	1.3204e+02	6.7944	8.833223	0.000258	2.579080	0.436908	-0.000026
1329	1.3214e+02	6.7844	8.806339	0.000270	2.701893	0.457713	-0.000027
1330	1.3224e+02	6.7736	8.785564	0.000209	2.087826	0.353687	-0.000021
1331	1.3234e+02	6.7627	8.759087	0.000266	2.660955	0.450778	-0.000027
1332	1.3243e+02	6.7532	8.738720	0.000205	2.046889	0.346752	-0.000020
1333	1.3253e+02	6.7429	8.712242	0.000266	2.660955	0.450778	-0.000027
1334	1.3263e+02	6.7336	8.689839	0.000225	2.251577	0.381428	-0.000023
1335	1.3273e+02	6.7252	8.667842	0.000221	2.210640	0.374492	-0.000022
1336	1.3283e+02	6.7171	8.641772	0.000262	2.620017	0.443843	-0.000026
1337	1.3293e+02	6.7036	8.614888	0.000270	2.701893	0.457713	-0.000027
1338	1.3303e+02	6.6946	8.593298	0.000217	2.169702	0.367557	-0.000022
1339	1.3313e+02	6.6840	8.568451	0.000250	2.497204	0.423038	-0.000025
1340	1.3323e+02	6.6749	8.547269	0.000213	2.128764	0.360622	-0.000021
1341	1.3333e+02	6.6631	8.522014	0.000254	2.538142	0.429973	-0.000025
1342	1.3343e+02	6.6526	8.495129	0.000270	2.701893	0.457713	-0.000027
1343	1.3353e+02	6.6430	8.470281	0.000250	2.497204	0.423038	-0.000025
1344	1.3363e+02	6.6329	8.448692	0.000217	2.169702	0.367557	-0.000022
1345	1.3373e+02	6.6253	8.421807	0.000270	2.701893	0.457713	-0.000027
1346	1.3383e+02	6.6131	8.400218	0.000217	2.169702	0.367557	-0.000022
1347	1.3393e+02	6.6081	8.375778	0.000246	2.456266	0.416103	-0.000025
1348	1.3403e+02	6.5968	8.352966	0.000229	2.292515	0.388363	-0.000023
1349	1.3413e+02	6.5830	8.331377	0.000217	2.169702	0.367557	-0.000022
1350	1.3423e+02	6.5740	8.304493	0.000270	2.701893	0.457713	-0.000027
1351	1.3432e+02	6.5652	8.284125	0.000205	2.046889	0.346752	-0.000020
1352	1.3442e+02	6.5563	8.257648	0.000266	2.660955	0.450778	-0.000027
1353	1.3452e+02	6.5455	8.231986	0.000258	2.579080	0.436908	-0.000026
1354	1.3462e+02	6.5342	8.212433	0.000197	1.965013	0.332882	-0.000020
1355	1.3472e+02	6.5249	8.186363	0.000262	2.620017	0.443843	-0.000026
1356	1.3482e+02	6.5139	8.158664	0.000278	2.783768	0.471583	-0.000028
1357	1.3492e+02	6.5047	8.130965	0.000278	2.783768	0.471583	-0.000028
1358	1.3502e+02	6.4939	8.109376	0.000217	2.169702	0.367557	-0.000022
1359	1.3512e+02	6.4866	8.087379	0.000221	2.210640	0.374492	-0.000022
1360	1.3522e+02	6.4754	8.064568	0.000229	2.292515	0.388363	-0.000023
1361	1.3532e+02	6.4649	8.037276	0.000274	2.742831	0.464648	-0.000027
1362	1.3542e+02	6.4536	8.012428	0.000250	2.497204	0.423038	-0.000025
1363	1.3552e+02	6.4455	7.990024	0.000225	2.251577	0.381428	-0.000023
1364	1.3562e+02	6.4339	7.963547	0.000266	2.660955	0.450778	-0.000027
1365	1.3572e+02	6.4277	7.939106	0.000246	2.456266	0.416103	-0.000025
1366	1.3582e+02	6.4150	7.912629	0.000266	2.660955	0.450778	-0.000027
1367	1.3592e+02	6.4050	7.884930	0.000278	2.783768	0.471583	-0.000028
1368	1.3602e+02	6.3943	7.864563	0.000205	2.046889	0.346752	-0.000020
1369	1.3612e+02	6.3854	7.836863	0.000278	2.783768	0.471583	-0.000028
1370	1.3622e+02	6.3762	7.811201	0.000258	2.579080	0.436908	-0.000026
1371	1.3631e+02	6.3651	7.784724	0.000266	2.660955	0.450778	-0.000027
1372	1.3641e+02	6.3531	7.756617	0.000282	2.824706	0.478518	-0.000028
1373	1.3651e+02	6.3470	7.733398	0.000233	2.333453	0.395298	-0.000023
1374	1.3661e+02	6.3332	7.709772	0.000237	2.374391	0.402233	-0.000024
1375	1.3671e+02	6.3238	7.684110	0.000258	2.579080	0.436908	-0.000026
1376	1.3681e+02	6.3165	7.661299	0.000229	2.292515	0.388363	-0.000023
1377	1.3691e+02	6.3052	7.633599	0.000278	2.783768	0.471583	-0.000028
1378	1.3701e+02	6.2981	7.613232	0.000205	2.046889	0.346752	-0.000020
1379	1.3711e+02	6.2877	7.584311	0.000291	2.906582	0.492388	-0.000029
1380	1.3721e+02	6.2774	7.561092	0.000233	2.333453	0.395298	-0.000023
1381	1.3731e+02	6.2655	7.532171	0.000291	2.906582	0.492388	-0.000029
1382	1.3741e+02	6.2586	7.509767	0.000225	2.251577	0.381428	-0.000023
1383	1.3751e+02	6.2466	7.486549	0.000233	2.333453	0.395298	-0.000023
1384	1.3761e+02	6.2347	7.455183	0.000315	3.152208	0.533999	-0.000032
1385	1.3771e+02	6.2292	7.437260	0.000180	1.801262	0.305142	-0.000018
1386	1.3781e+02	6.2182	7.409968	0.000274	2.742831	0.464648	-0.000027
1387	1.3791e+02	6.2106	7.386342	0.000237	2.374391	0.402233	-0.000024
1388	1.3801e+02	6.1961	7.361087	0.000254	2.538142	0.429973	-0.000025
1389	1.3811e+02	6.1868	7.331759	0.000295	2.947519	0.499323	-0.000029
1390	1.3821e+02	6.1779	7.311391	0.000205	2.046889	0.346752	-0.000020
1391	1.3831e+02	6.1669	7.282877	0.000287	2.865644	0.485453	-0.000029
1392	1.3840e+02	6.1549	7.256400	0.000266	2.660955	0.450778	-0.000027
1393	1.3850e+02	6.1482	7.233996	0.000225	2.251577	0.381428	-0.000023
1394	1.3860e+02	6.1358	7.208741	0.000254	2.538142	0.429973	-0.000025
1395	1.3870e+02	6.1285	7.182671	0.000262	2.620017	0.443843	-0.000026
1396	1.3880e+02	6.1160	7.154972	0.000278	2.783768	0.471583	-0.000028
1397	1.3890e+02	6.1080	7.133790	0.000213	2.128764	0.360622	-0.000021
1398	1.3900e+02	6.0960	7.108128	0.000258	2.579080	0.436908	-0.000026
1399	1.3910e+02	6.0879	7.080836	0.000274	2.742831	0.464648	-0.000027
1400	1.3920e+02	6.0748	7.057617	0.000233	2.333453	0.395298	-0.000023
1401	1.3930e+02	6.0662	7.030732	0.000270	2.701893	0.457713	-0.000027
1402	1.3940e+02	6.0564	7.004663	0.000262	2.620017	0.443843	-0.000026
1403	1.3950e+02	6.0472	6.977371	0.000274	2.742831	0.464648	-0.000027
1404	1.3960e+02	6.0401	6.952523	0.000250	2.497204	0.423038	-0.000025
1405	1.3970e+02	6.0280	6.927267	0.000254	2.538142	0.429973	-0.000025
1406	1.3980e+02	6.0174	6.902827	0.000246	2.456266	0.416103	-0.000025
1407	1.3990e+02	6.0070	6.875942	0.000270	2.701893	0.457713	-0.000027
1408	1.4000e+02	5.9985	6.848650	0.000274	2.742831	0.464648	-0.000027
1409	1.4010e+02	5.9890	6.826654	0.000221	2.210640	0.374492	-0.000022
1410	1.4020e+02	5.9759	6.799769	0.000270	2.701893	0.457713	-0.000027
1411	1.4029e+02	5.9679	6.774921	0.000250	2.497204	0.423038	-0.000025
1412	1.4039e+02	5.9568	6.752517	0.000225	2.251577	0.381428	-0.000023
1413	1.4049e+02	5.9472	6.726040	0.000266	2.660955	0.450778	-0.000027
1414	1.4059e+02	5.9356	6.700378	0.000258	2.579080	0.436908	-0.000026
1415	1.4069e+02	5.9290	6.672678	0.000278	2.783768	0.471583	-0.000028
1416	1.4079e+02	5.9182	6.646201	0.000266	2.660955	0.450778	-0.000027
1417	1.4089e+02	5.9127	6.622168	0.000242	2.415328	0.409168	-0.000024
1418	1.4099e+02	5.8985	6.594469	0.000278	2.783768	0.471583	-0.000028
1419	1.4109e+02	5.8875	6.570028	0.000246	2.456266	0.416103	-0.000025
1420	1.4119e+02	5.8813	6.547217	0.000229	2.292515	0.388363	-0.000023
1421	1.4129e+02	5.8685	6.519110	0.000282	2.824706	0.478518	-0.000028
1422	1.4139e+02	5.8579	6.493448	0.000258	2.579080	0.436908	-0.000026
1423	1.4149e+02	5.8479	6.468600	0.000250	2.497204	0.423038	-0.000025
1424	1.4159e+02	5.8376	6.445789	0.000229	2.292515	0.388363	-0.000023
1425	1.4169e+02	5.8298	6.419311	0.000266	2.660955	0.450778	-0.000027
1426	1.4179e+02	5.8202	6.391205	0.000282	2.824706	0.478518	-0.000028
1427	1.4189e+02	5.8098	6.362283	0.000291	2.906582	0.492388	-0.000029
1428	1.4199e+02	5.7964	6.338657	0.000237	2.374391	0.402233	-0.000024
1429	1.4209e+02	5.7891	6.312588	0.000262	2.620017	0.443843	-0.000026
1430	1.4219e+02	5.7798	6.285703	0.000270	2.701893	0.457713	-0.000027
1431	1.4228e+02	5.7716	6.256374	0.000295	2.947519	0.499323	-0.000029
1432	1.4238e+02	5.7601	6.230712	0.000258	2.579080	0.436908	-0.000026
1433	1.4248e+02	5.7482	6.209123	0.000217	2.169702	0.367557	-0.000022
1434	1.4258e+02	5.7377	6.176128	0.000332	3.315959	0.561739	-0.000033
1435	1.4268e+02	5.7284	6.150465	0.000258	2.579080	0.436908	-0.000026
1436	1.4278e+02	5.7146	6.127654	0.000229	2.292515	0.388363	-0.000023
1437	1.4288e+02	5.7076	6.098733	0.000291	2.906582	0.492388	-0.000029
1438	1.4298e+02	5.6966	6.075921	0.000229	2.292515	0.388363	-0.000023
1439	1.4308e+02	5.6901	6.047408	0.000287	2.865644	0.485453	-0.000029
1440	1.4318e+02	5.6799	6.024596	0.000229	2.292515	0.388363	-0.000023
1441	1.4328e+02	5.6701	5.997712	0.000270	2.701893	0.457713	-0.000027
1442	1.4338e+02	5.6599	5.972456	0.000254	2.538142	0.429973	-0.000025
1443	1.4348e+02	5.6481	5.945979	0.000266	2.660955	0.450778	-0.000027
1444	1.4358e+02	5.6399	5.917465	0.000287	2.865644	0.485453	-0.000029
1445	1.4368e+02	5.6306	5.888137	0.000295	2.947519	0.499323	-0.000029
1446	1.4378e+02	5.6194	5.865325	0.000229	2.292515	0.388363	-0.000023
1447	1.4388e+02	5.6094	5.838441	0.000270	2.701893	0.457713	-0.000027
1448	1.4398e+02	5.5993	5.814000	0.000246	2.456266	0.416103	-0.000025
1449	1.4408e+02	5.5892	5.787523	0.000266	2.660955	0.450778	-0.000027
1450	1.4418e+02	5.5782	5.761860	0.000258	2.579080	0.436908	-0.000026
1451	1.4428e+02	5.5685	5.733754	0.000282	2.824706	0.478518	-0.000028
1452	1.4437e+02	5.5592	5.711350	0.000225	2.251577	0.381428	-0.000023
1453	1.4447e+02	5.5502	5.686095	0.000254	2.538142	0.429973	-0.000025
1454	1.4457e+02	5.5415	5.662469	0.000237	2.374391	0.402233	-0.000024
1455	1.4467e+02	5.5294	5.638028	0.000246	2.456266	0.416103	-0.000025
1456	1.4477e+02	5.5190	5.610329	0.000278	2.783768	0.471583	-0.000028
1457	1.4487e+02	5.5082	5.585481	0.000250	2.497204	0.423038	-0.000025
1458	1.4497e+02	5.5007	5.560633	0.000250	2.497204	0.423038	-0.000025
1459	1.4507e+02	5.4887	5.530897	0.000299	2.988457	0.506258	-0.000030
1460	1.4517e+02	5.4786	5.501569	0.000295	2.947519	0.499323	-0.000029
1461	1.4527e+02	5.4694	5.479979	0.000217	2.169702	0.367557	-0.000022
1462	1.4537e+02	5.4613	5.451058	0.000291	2.906582	0.492388	-0.000029
1463	1.4547e+02	5.4504	5.426617	0.000246	2.456266	0.416103	-0.000025
1464	1.4557e+02	5.4391	5.398918	0.000278	2.783768	0.471583	-0.000028
1465	1.4567e+02	5.4308	5.369590	0.000295	2.947519	0.499323	-0.000029
1466	1.4577e+02	5.4198	5.344334	0.000254	2.538142	0.429973	-0.000025
1467	1.4587e+02	5.4107	5.319079	0.000254	2.538142	0.429973	-0.000025
1468	1.4597e+02	5.3991	5.292194	0.000270	2.701893	0.457713	-0.000027
1469	1.4607e+02	5.3896	5.268161	0.000242	2.415328	0.409168	-0.000024
1470	1.4617e+02	5.3836	5.240055	0.000282	2.824706	0.478518	-0.000028
1471	1.4626e+02	5.3698	5.211133	0.000291	2.906582	0.492388	-0.000029
1472	1.4636e+02	5.3616	5.188729	0.000225	2.251577	0.381428	-0.000023
1473	1.4646e+02	5.3484	5.157771	0.000311	3.111271	0.527063	-0.000031
1474	1.4656e+02	5.3399	5.134960	0.000229	2.292515	0.388363	-0.000023
1475	1.4666e+02	5.3304	5.106446	0.000287	2.865644	0.485453	-0.000029
1476	1.4676e+02	5.3207	5.079562	0.000270	2.701893	0.457713	-0.000027
1477	1.4686e+02	5.3118	5.050640	0.000291	2.906582	0.492388	-0.000029
1478	1.4696e+02	5.3027	5.027014	0.000237	2.374391	0.402233	-0.000024
1479	1.4706e+02	5.2905	5.002167	0.000250	2.497204	0.423038	-0.000025
1480	1.4716e+02	5.2807	4.969579	0.000328	3.275022	0.554804	-0.000033
1481	1.4726e+02	5.2731	4.942695	0.000270	2.701893	0.457713	-0.000027
1482	1.4736e+02	5.2619	4.916217	0.000266	2.660955	0.450778	-0.000027
1483	1.4746e+02	5.2514	4.888925	0.000274	2.742831	0.464648	-0.000027
1484	1.4756e+02	5.2431	4.866929	0.000221	2.210640	0.374492	-0.000022
1485	1.4766e+02	5.2293	4.836785	0.000303	3.029395	0.513193	-0.000030
1486	1.4776e+02	5.2221	4.811530	0.000254	2.538142	0.429973	-0.000025
1487	1.4786e+02	5.2068	4.783016	0.000287	2.865644	0.485453	-0.000029
1488	1.4796e+02	5.2020	4.757761	0.000254	2.538142	0.429973	-0.000025
1489	1.4806e+02	5.1913	4.728840	0.000291	2.906582	0.492388	-0.000029
1490	1.4816e+02	5.1827	4.705214	0.000237	2.374391	0.402233	-0.000024
1491	1.4825e+02	5.1725	4.674663	0.000307	3.070333	0.520128	-0.000031
1492	1.4835e+02	5.1586	4.650223	0.000246	2.456266	0.416103	-0.000025
1493	1.4845e+02	5.1492	4.621709	0.000287	2.865644	0.485453	-0.000029
1494	1.4855e+02	5.1431	4.596453	0.000254	2.538142	0.429973	-0.000025
1495	1.4865e+02	5.1309	4.568347	0.000282	2.824706	0.478518	-0.000028
1496	1.4875e+02	5.1207	4.541462	0.000270	2.701893	0.457713	-0.000027
1497	1.4885e+02	5.1131	4.512948	0.000287	2.865644	0.485453	-0.000029
1498	1.4895e+02	5.1028	4.486878	0.000262	2.620017	0.443843	-0.000026
1499	1.4905e+02	5.0930	4.456735	0.000303	3.029395	0.513193	-0.000030
1500	1.4915e+02	5.0817	4.433109	0.000237	2.374391	0.402233	-0.000024
1501	1.4925e+02	5.0748	4.405002	0.000282	2.824706	0.478518	-0.000028
1502	1.4935e+02	5.0637	4.379747	0.000254	2.538142	0.429973	-0.000025
1503	1.4945e+02	5.0523	4.351640	0.000282	2.824706	0.478518	-0.000028
1504	1.4955e+02	5.0423	4.324349	0.000274	2.742831	0.464648	-0.000027
1505	1.4965e+02	5.0326	4.299908	0.000246	2.456266	0.416103	-0.000025
1506	1.4975e+02	5.0256	4.270579	0.000295	2.947519	0.499323	-0.000029
1507	1.4985e+02	5.0112	4.239214	0.000315	3.152208	0.533999	-0.000032
1508	1.4995e+02	5.0010	4.212329	0.000270	2.701893	0.457713	-0.000027
1509	1.5005e+02	4.9923	4.187074	0.000254	2.538142	0.429973	-0.000025
1510	1.5015e+02	4.9831	4.156931	0.000303	3.029395	0.513193	-0.000030
1511	1.5025e+02	4.9740	4.134527	0.000225	2.251577	0.381428	-0.000023
1512	1.5034e+02	4.9618	4.104384	0.000303	3.029395	0.513193	-0.000030
1513	1.5044e+02	4.9566	4.076684	0.000278	2.783768	0.471583	-0.000028
1514	1.5054e+02	4.9415	4.052244	0.000246	2.456266	0.416103	-0.000025
1515	1.5064e+02	4.9284	4.024952	0.000274	2.742831	0.464648	-0.000027
1516	1.5074e+02	4.9226	4.001733	0.000233	2.333453	0.395298	-0.000023
1517	1.5084e+02	4.9145	3.971997	0.000299	2.988457	0.506258	-0.000030
1518	1.5094e+02	4.9014	3.946335	0.000258	2.579080	0.436908	-0.000026
1519	1.5104e+02	4.8927	3.918635	0.000278	2.783768	0.471583	-0.000028
1520	1.5114e+02	4.8797	3.889714	0.000291	2.906582	0.492388	-0.000029
1521	1.5124e+02	4.8696	3.864051	0.000258	2.579080	0.436908	-0.000026
1522	1.5134e+02	4.8614	3.835945	0.000282	2.824706	0.478518	-0.000028
1523	1.5144e+02	4.8519	3.804579	0.000315	3.152208	0.533999	-0.000032
1524	1.5154e+02	4.8450	3.772807	0.000319	3.193146	0.540934	-0.000032
1525	1.5164e+02	4.8307	3.748366	0.000246	2.456266	0.416103	-0.000025
1526	1.5174e+02	4.8228	3.722296	0.000262	2.620017	0.443843	-0.000026
1527	1.5184e+02	4.8107	3.694190	0.000282	2.824706	0.478518	-0.000028
1528	1.5194e+02	4.8021	3.665676	0.000287	2.865644	0.485453	-0.000029
1529	1.5204e+02	4.7955	3.639606	0.000262	2.620017	0.443843	-0.000026
1530	1.5214e+02	4.7837	3.611092	0.000287	2.865644	0.485453	-0.000029
1531	1.5224e+02	4.7717	3.584614	0.000266	2.660955	0.450778	-0.000027
1532	1.5233e+02	4.7658	3.553656	0.000311	3.111271	0.527063	-0.000031
1533	1.5243e+02	4.7527	3.524328	0.000295	2.947519	0.499323	-0.000029
1534	1.5253e+02	4.7441	3.495814	0.000287	2.865644	0.485453	-0.000029
1535	1.5263e+02	4.7346	3.466485	0.000295	2.947519	0.499323	-0.000029
1536	1.5273e+02	4.7243	3.439193	0.000274	2.742831	0.464648	-0.000027
1537	1.5283e+02	4.7112	3.410272	0.000291	2.906582	0.492388	-0.000029
1538	1.5293e+02	4.7019	3.383795	0.000266	2.660955	0.450778	-0.000027
1539	1.5303e+02	4.6958	3.352429	0.000315	3.152208	0.533999	-0.000032
1540	1.5313e+02	4.6845	3.323915	0.000287	2.865644	0.485453	-0.000029
1541	1.5323e+02	4.6712	3.297845	0.000262	2.620017	0.443843	-0.000026
1542	1.5333e+02	4.6633	3.263221	0.000348	3.479710	0.589479	-0.000035
1543	1.5343e+02	4.6540	3.238781	0.000246	2.456266	0.416103	-0.000025
1544	1.5353e+02	4.6429	3.208637	0.000303	3.029395	0.513193	-0.000030
1545	1.5363e+02	4.6348	3.182975	0.000258	2.579080	0.436908	-0.000026
1546	1.5373e+02	4.6260	3.154461	0.000287	2.865644	0.485453	-0.000029
1547	1.5383e+02	4.6153	3.125947	0.000287	2.865644	0.485453	-0.000029
1548	1.5393e+02	4.6059	3.095803	0.000303	3.029395	0.513193	-0.000030
1549	1.5403e+02	4.5942	3.067697	0.000282	2.824706	0.478518	-0.000028
1550	1.5413e+02	4.5840	3.038368	0.000295	2.947519	0.499323	-0.000029
1551	1.5422e+02	4.5751	3.013520	0.000250	2.497204	0.423038	-0.000025
1552	1.5432e+02	4.5675	2.981340	0.000323	3.234084	0.547869	-0.000032
1553	1.5442e+02	4.5554	2.954863	0.000266	2.660955	0.450778	-0.000027
1554	1.5452e+02	4.5449	2.927978	0.000270	2.701893	0.457713	-0.000027
1555	1.5462e+02	4.5343	2.898650	0.000295	2.947519	0.499323	-0.000029
1556	1.5472e+02	4.5234	2.868099	0.000307	3.070333	0.520128	-0.000031
1557	1.5482e+02	4.5139	2.841214	0.000270	2.701893	0.457713	-0.000027
1558	1.5492e+02	4.5052	2.812293	0.000291	2.906582	0.492388	-0.000029
1559	1.5502e+02	4.4956	2.783372	0.000291	2.906582	0.492388	-0.000029
1560	1.5512e+02	4.4839	2.755265	0.000282	2.824706	0.478518	-0.000028
1561	1.5522e+02	4.4740	2.730417	0.000250	2.497204	0.423038	-0.000025
1562	1.5532e+02	4.4669	2.695793	0.000348	3.479710	0.589479	-0.000035
1563	1.5542e+02	4.4570	2.668908	0.000270	2.701893	0.457713	-0.000027
1564	1.5552e+02	4.4454	2.643653	0.000254	2.538142	0.429973	-0.000025
1565	1.5562e+02	4.4334	2.611880	0.000319	3.193146	0.540934	-0.000032
1566	1.5572e+02	4.4259	2.580922	0.000311	3.111271	0.527063	-0.000031
1567	1.5582e+02	4.4158	2.553630	0.000274	2.742831	0.464648	-0.000027
1568	1.5592e+02	4.4072	2.524709	0.000291	2.906582	0.492388	-0.000029
1569	1.5602e+02	4.3941	2.496602	0.000282	2.824706	0.478518	-0.000028
1570	1.5612e+02	4.3865	2.466459	0.000303	3.029395	0.513193	-0.000030
1571	1.5622e+02	4.3776	2.439575	0.000270	2.701893	0.457713	-0.000027
1572	1.5631e+02	4.3648	2.409839	0.000299	2.988457	0.506258	-0.000030
1573	1.5641e+02	4.3548	2.380510	0.000295	2.947519	0.499323	-0.000029
1574	1.5651e+02	4.3455	2.351996	0.000287	2.865644	0.485453	-0.000029
1575	1.5661e+02	4.3348	2.321853	0.000303	3.029395	0.513193	-0.000030
1576	1.5671e+02	4.3246	2.293746	0.000282	2.824706	0.478518	-0.000028
1577	1.5681e+02	4.3172	2.264825	0.000291	2.906582	0.492388	-0.000029
1578	1.5691e+02	4.3063	2.236311	0.000287	2.865644	0.485453	-0.000029
1579	1.5701e+02	4.2958	2.208204	0.000282	2.824706	0.478518	-0.000028
1580	1.5711e+02	4.2852	2.180097	0.000282	2.824706	0.478518	-0.000028
1581	1.5721e+02	4.2760	2.151176	0.000291	2.906582	0.492388	-0.000029
1582	1.5731e+02	4.2658	2.121847	0.000295	2.947519	0.499323	-0.000029
1583	1.5741e+02	4.2547	2.093333	0.000287	2.865644	0.485453	-0.000029
1584	1.5751e+02	4.2483	2.064412	0.000291	2.906582	0.492388	-0.000029
1585	1.5761e+02	4.2350	2.033861	0.000307	3.070333	0.520128	-0.000031
1586	1.5771e+02	4.2275	2.001681	0.000323	3.234084	0.547869	-0.000032
1587	1.5781e+02	4.2167	1.975204	0.000266	2.660955	0.450778	-0.000027
1588	1.5791e+02	4.2074	1.944653	0.000307	3.070333	0.520128	-0.000031
1589	1.5801e+02	4.1947	1.915325	0.000295	2.947519	0.499323	-0.000029
1590	1.5811e+02	4.1845	1.888440	0.000270	2.701893	0.457713	-0.000027
1591	1.5821e+02	4.1773	1.859519	0.000291	2.906582	0.492388	-0.000029
1592	1.5830e+02	4.1645	1.830190	0.000295	2.947519	0.499323	-0.000029
1593	1.5840e+02	4.1567	1.799639	0.000307	3.070333	0.520128	-0.000031
1594	1.5850e+02	4.1479	1.771533	0.000282	2.824706	0.478518	-0.000028
1595	1.5860e+02	4.1364	1.740575	0.000311	3.111271	0.527063	-0.000031
1596	1.5870e+02	4.1251	1.712468	0.000282	2.824706	0.478518	-0.000028
1597	1.5880e+02	4.1155	1.679881	0.000328	3.275022	0.554804	-0.000033
1598	1.5890e+02	4.1076	1.648923	0.000311	3.111271	0.527063	-0.000031
1599	1.5900e+02	4.0971	1.621223	0.000278	2.783768	0.471583	-0.000028
1600	1.5910e+02	4.0845	1.590265	0.000311	3.111271	0.527063	-0.000031
1601	1.5920e+02	4.0765	1.557678	0.000328	3.275022	0.554804	-0.000033
1602	1.5930e+02	4.0665	1.529164	0.000287	2.865644	0.485453	-0.000029
1603	1.5940e+02	4.0591	1.499428	0.000299	2.988457	0.506258	-0.000030
1604	1.5950e+02	4.0482	1.469285	0.000303	3.029395	0.513193	-0.000030
1605	1.5960e+02	4.0368	1.439956	0.000295	2.947519	0.499323	-0.000029
1606	1.5970e+02	4.0285	1.412664	0.000274	2.742831	0.464648	-0.000027
1607	1.5980e+02	4.0165	1.382113	0.000307	3.070333	0.520128	-0.000031
1608	1.5990e+02	4.0047	1.352785	0.000295	2.947519	0.499323	-0.000029
1609	1.6000e+02	3.9964	1.325085	0.000278	2.783768	0.471583	-0.000028
1610	1.6010e+02	3.9854	1.295757	0.000295	2.947519	0.499323	-0.000029
1611	1.6019e+02	3.9761	1.262762	0.000332	3.315959	0.561739	-0.000033
1612	1.6029e+02	3.9684	1.230175	0.000328	3.275022	0.554804	-0.000033
1613	1.6039e+02	3.9574	1.202068	0.000282	2.824706	0.478518	-0.000028
1614	1.6049e+02	3.9474	1.172332	0.000299	2.988457	0.506258	-0.000030
1615	1.6059e+02	3.9385	1.142189	0.000303	3.029395	0.513193	-0.000030
1616	1.6069e+02	3.9280	1.112860	0.000295	2.947519	0.499323	-0.000029
1617	1.6079e+02	3.9157	1.084753	0.000282	2.824706	0.478518	-0.000028
1618	1.6089e+02	3.9088	1.056239	0.000287	2.865644	0.485453	-0.000029
1619	1.6099e+02	3.9017	1.027318	0.000291	2.906582	0.492388	-0.000029
1620	1.6109e+02	3.8895	0.998804	0.000287	2.865644	0.485453	-0.000029
1621	1.6119e+02	3.8799	0.969068	0.000299	2.988457	0.506258	-0.000030
1622	1.6129e+02	3.8677	0.940554	0.000287	2.865644	0.485453	-0.000029
1623	1.6139e+02	3.8586	0.910818	0.000299	2.988457	0.506258	-0.000030
1624	1.6149e+02	3.8478	0.882304	0.000287	2.865644	0.485453	-0.000029
1625	1.6159e+02	3.8386	0.851753	0.000307	3.070333	0.520128	-0.000031
1626	1.6169e+02	3.8287	0.821610	0.000303	3.029395	0.513193	-0.000030
1627	1.6179e+02	3.8186	0.792281	0.000295	2.947519	0.499323	-0.000029
1628	1.6189e+02	3.8076	0.761731	0.000307	3.070333	0.520128	-0.000031
1629	1.6199e+02	3.7980	0.731587	0.000303	3.029395	0.513193	-0.000030
1630	1.6209e+02	3.7867	0.702259	0.000295	2.947519	0.499323	-0.000029
1631	1.6219e+02	3.7795	0.671301	0.000311	3.111271	0.527063	-0.000031
1632	1.6228e+02	3.7673	0.641157	0.000303	3.029395	0.513193	-0.000030
1633	1.6238e+02	3.7609	0.609792	0.000315	3.152208	0.533999	-0.000032
1634	1.6248e+02	3.7487	0.583722	0.000262	2.620017	0.443843	-0.000026
1635	1.6258e+02	3.7414	0.553579	0.000303	3.029395	0.513193	-0.000030
1636	1.6268e+02	3.7293	0.525065	0.000287	2.865644	0.485453	-0.000029
1637	1.6278e+02	3.7177	0.492477	0.000328	3.275022	0.554804	-0.000033
1638	1.6288e+02	3.7116	0.462334	0.000303	3.029395	0.513193	-0.000030
1639	1.6298e+02	3.6994	0.431783	0.000307	3.070333	0.520128	-0.000031
1640	1.6308e+02	3.6877	0.402047	0.000299	2.988457	0.506258	-0.000030
1641	1.6318e+02	3.6791	0.372311	0.000299	2.988457	0.506258	-0.000030
1642	1.6328e+02	3.6691	0.342168	0.000303	3.029395	0.513193	-0.000030
1643	1.6338e+02	3.6597	0.309580	0.000328	3.275022	0.554804	-0.000033
1644	1.6348e+02	3.6510	0.281474	0.000282	2.824706	0.478518	-0.000028
1645	1.6358e+02	3.6395	0.248072	0.000336	3.356897	0.568674	-0.000034
1646	1.6368e+02	3.6269	0.219558	0.000287	2.865644	0.485453	-0.000029
1647	1.6378e+02	3.6219	0.187378	0.000323	3.234084	0.547869	-0.000032
1648	1.6388e+02	3.6105	0.155605	0.000319	3.193146	0.540934	-0.000032
1649	1.6398e+02	3.6022	0.124647	0.000311	3.111271	0.527063	-0.000031
1650	1.6408e+02	3.5925	0.096540	0.000282	2.824706	0.478518	-0.000028
1651	1.6418e+02	3.5757	0.068026	0.000287	2.865644	0.485453	-0.000029
1652	1.6427e+02	3.5693	0.032995	0.000352	3.520648	0.596414	-0.000035
1653	1.6437e+02	3.5603	0.006925	0.000262	2.620017	0.443843	-0.000026
1654	1.6447e+02	3.5548	-0.024848	0.000319	3.193146	0.540934	-0.000032
1655	1.6457e+02	3.5403	-0.058250	0.000336	3.356897	0.568674	-0.000034
1656	1.6467e+02	3.5283	-0.085135	0.000270	2.701893	0.457713	-0.000027
1657	1.6477e+02	3.5201	-0.116500	0.000315	3.152208	0.533999	-0.000032
1658	1.6487e+02	3.5107	-0.149902	0.000336	3.356897	0.568674	-0.000034
1659	1.6497e+02	3.4985	-0.179638	0.000299	2.988457	0.506258	-0.000030
1660	1.6507e+02	3.4888	-0.211003	0.000315	3.152208	0.533999	-0.000032
1661	1.6517e+02	3.4795	-0.241554	0.000307	3.070333	0.520128	-0.000031
1662	1.6527e+02	3.4689	-0.271697	0.000303	3.029395	0.513193	-0.000030
1663	1.6537e+02	3.4600	-0.301026	0.000295	2.947519	0.499323	-0.000029
1664	1.6547e+02	3.4493	-0.334836	0.000340	3.397835	0.575609	-0.000034
1665	1.6557e+02	3.4412	-0.364164	0.000295	2.947519	0.499323	-0.000029
1666	1.6567e+02	3.4281	-0.394715	0.000307	3.070333	0.520128	-0.000031
1667	1.6577e+02	3.4203	-0.426895	0.000323	3.234084	0.547869	-0.000032
1668	1.6587e+02	3.4097	-0.453780	0.000270	2.701893	0.457713	-0.000027
1669	1.6597e+02	3.4000	-0.484330	0.000307	3.070333	0.520128	-0.000031
1670	1.6607e+02	3.3901	-0.520584	0.000364	3.643462	0.617219	-0.000036
1671	1.6616e+02	3.3805	-0.550320	0.000299	2.988457	0.506258	-0.000030
1672	1.6626e+02	3.3697	-0.582500	0.000323	3.234084	0.547869	-0.000032
1673	1.6636e+02	3.3593	-0.615495	0.000332	3.315959	0.561739	-0.000033
1674	1.6646e+02	3.3516	-0.645638	0.000303	3.029395	0.513193	-0.000030
1675	1.6656e+02	3.3425	-0.675781	0.000303	3.029395	0.513193	-0.000030
1676	1.6666e+02	3.3306	-0.707961	0.000323	3.234084	0.547869	-0.000032
1677	1.6676e+02	3.3199	-0.738105	0.000303	3.029395	0.513193	-0.000030
1678	1.6686e+02	3.3114	-0.768248	0.000303	3.029395	0.513193	-0.000030
1679	1.6696e+02	3.3019	-0.801243	0.000332	3.315959	0.561739	-0.000033
1680	1.6706e+02	3.2888	-0.830571	0.000295	2.947519	0.499323	-0.000029
1681	1.6716e+02	3.2819	-0.862752	0.000323	3.234084	0.547869	-0.000032
1682	1.6726e+02	3.2700	-0.894117	0.000315	3.152208	0.533999	-0.000032
1683	1.6736e+02	3.2577	-0.926704	0.000328	3.275022	0.554804	-0.000033
1684	1.6746e+02	3.2495	-0.950738	0.000242	2.415328	0.409168	-0.000024
1685	1.6756e+02	3.2420	-0.984140	0.000336	3.356897	0.568674	-0.000034
1686	1.6766e+02	3.2304	-1.015098	0.000311	3.111271	0.527063	-0.000031
1687	1.6776e+02	3.2189	-1.045241	0.000303	3.029395	0.513193	-0.000030
1688	1.6786e+02	3.2130	-1.080680	0.000356	3.561586	0.603349	-0.000036
1689	1.6796e+02	3.2012	-1.112860	0.000323	3.234084	0.547869	-0.000032
1690	1.6806e+02	3.1904	-1.144633	0.000319	3.193146	0.540934	-0.000032
1691	1.6816e+02	3.1812	-1.175998	0.000315	3.152208	0.533999	-0.000032
1692	1.6825e+02	3.1709	-1.210215	0.000344	3.438773	0.582544	-0.000034
1693	1.6835e+02	3.1637	-1.237507	0.000274	2.742831	0.464648	-0.000027
1694	1.6845e+02	3.1535	-1.271316	0.000340	3.397835	0.575609	-0.000034
1695	1.6855e+02	3.1419	-1.300237	0.000291	2.906582	0.492388	-0.000029
1696	1.6865e+02	3.1336	-1.331195	0.000311	3.111271	0.527063	-0.000031
1697	1.6875e+02	3.1212	-1.361339	0.000303	3.029395	0.513193	-0.000030
1698	1.6885e+02	3.1117	-1.394741	0.000336	3.356897	0.568674	-0.000034
1699	1.6895e+02	3.1028	-1.426921	0.000323	3.234084	0.547869	-0.000032
1700	1.6905e+02	3.0904	-1.459101	0.000323	3.234084	0.547869	-0.000032
1701	1.6915e+02	3.0810	-1.494540	0.000356	3.561586	0.603349	-0.000036
1702	1.6925e+02	3.0727	-1.527942	0.000336	3.356897	0.568674	-0.000034
1703	1.6935e+02	3.0610	-1.557678	0.000299	2.988457	0.506258	-0.000030
1704	1.6945e+02	3.0514	-1.594339	0.000368	3.684399	0.624154	-0.000037
1705	1.6955e+02	3.0389	-1.624482	0.000303	3.029395	0.513193	-0.000030
1706	1.6965e+02	3.0325	-1.660328	0.000360	3.602524	0.610284	-0.000036
1707	1.6975e+02	3.0183	-1.692916	0.000328	3.275022	0.554804	-0.000033
1708	1.6985e+02	3.0138	-1.721430	0.000287	2.865644	0.485453	-0.000029
1709	1.6995e+02	3.0032	-1.756868	0.000356	3.561586	0.603349	-0.000036
1710	1.7005e+02	2.9936	-1.789456	0.000328	3.275022	0.554804	-0.000033
1711	1.7015e+02	2.9817	-1.822858	0.000336	3.356897	0.568674	-0.000034
1712	1.7024e+02	2.9705	-1.853409	0.000307	3.070333	0.520128	-0.000031
1713	1.7034e+02	2.9620	-1.882330	0.000291	2.906582	0.492388	-0.000029
1714	1.7044e+02	2.9522	-1.917769	0.000356	3.561586	0.603349	-0.000036
1715	1.7054e+02	2.9414	-1.949134	0.000315	3.152208	0.533999	-0.000032
1716	1.7064e+02	2.9336	-1.983758	0.000348	3.479710	0.589479	-0.000035
1717	1.7074e+02	2.9227	-2.014716	0.000311	3.111271	0.527063	-0.000031
1718	1.7084e+02	2.9115	-2.048526	0.000340	3.397835	0.575609	-0.000034
1719	1.7094e+02	2.9050	-2.079484	0.000311	3.111271	0.527063	-0.000031
1720	1.7104e+02	2.8938	-2.117367	0.000381	3.807213	0.644959	-0.000038
1721	1.7114e+02	2.8816	-2.146288	0.000291	2.906582	0.492388	-0.000029
1722	1.7124e+02	2.8696	-2.178061	0.000319	3.193146	0.540934	-0.000032
1723	1.7134e+02	2.8637	-2.211463	0.000336	3.356897	0.568674	-0.000034
1724	1.7144e+02	2.8537	-2.247309	0.000360	3.602524	0.610284	-0.000036
1725	1.7154e+02	2.8419	-2.277860	0.000307	3.070333	0.520128	-0.000031
1726	1.7164e+02	2.8320	-2.309225	0.000315	3.152208	0.533999	-0.000032
1727	1.7174e+02	2.8235	-2.341812	0.000328	3.275022	0.554804	-0.000033
1728	1.7184e+02	2.8138	-2.371956	0.000303	3.029395	0.513193	-0.000030
1729	1.7194e+02	2.8045	-2.405765	0.000340	3.397835	0.575609	-0.000034
1730	1.7204e+02	2.7947	-2.438353	0.000328	3.275022	0.554804	-0.000033
1731	1.7213e+02	2.7832	-2.471755	0.000336	3.356897	0.568674	-0.000034
1732	1.7223e+02	2.7711	-2.507601	0.000360	3.602524	0.610284	-0.000036
1733	1.7233e+02	2.7645	-2.536522	0.000291	2.906582	0.492388	-0.000029
1734	1.7243e+02	2.7525	-2.569924	0.000336	3.356897	0.568674	-0.000034
1735	1.7253e+02	2.7410	-2.603734	0.000340	3.397835	0.575609	-0.000034
1736	1.7263e+02	2.7337	-2.634692	0.000311	3.111271	0.527063	-0.000031
1737	1.7273e+02	2.7215	-2.668501	0.000340	3.397835	0.575609	-0.000034
1738	1.7283e+02	2.7146	-2.705569	0.000373	3.725337	0.631089	-0.000037
1739	1.7293e+02	2.7041	-2.732046	0.000266	2.660955	0.450778	-0.000027
1740	1.7303e+02	2.6940	-2.768300	0.000364	3.643462	0.617219	-0.000036
1741	1.7313e+02	2.6853	-2.802924	0.000348	3.479710	0.589479	-0.000035
1742	1.7323e+02	2.6727	-2.835919	0.000332	3.315959	0.561739	-0.000033
1743	1.7333e+02	2.6646	-2.867284	0.000315	3.152208	0.533999	-0.000032
1744	1.7343e+02	2.6527	-2.901501	0.000344	3.438773	0.582544	-0.000034
1745	1.7353e+02	2.6423	-2.935310	0.000340	3.397835	0.575609	-0.000034
1746	1.7363e+02	2.6364	-2.969935	0.000348	3.479710	0.589479	-0.000035
1747	1.7373e+02	2.6231	-3.002929	0.000332	3.315959	0.561739	-0.000033
1748	1.7383e+02	2.6162	-3.035517	0.000328	3.275022	0.554804	-0.000033
1749	1.7393e+02	2.5993	-3.070548	0.000352	3.520648	0.596414	-0.000035
1750	1.7403e+02	2.5948	-3.101506	0.000311	3.111271	0.527063	-0.000031
1751	1.7413e+02	2.5854	-3.134094	0.000328	3.275022	0.554804	-0.000033
1752	1.7422e+02	2.5748	-3.170754	0.000368	3.684399	0.624154	-0.000037
1753	1.7432e+02	2.5644	-3.199676	0.000291	2.906582	0.492388	-0.000029
1754	1.7442e+02	2.5533	-3.235929	0.000364	3.643462	0.617219	-0.000036
1755	1.7452e+02	2.5442	-3.267295	0.000315	3.152208	0.533999	-0.000032
1756	1.7462e+02	2.5356	-3.298253	0.000311	3.111271	0.527063	-0.000031
1757	1.7472e+02	2.5246	-3.335321	0.000373	3.725337	0.631089	-0.000037
1758	1.7482e+02	2.5143	-3.368723	0.000336	3.356897	0.568674	-0.000034
1759	1.7492e+02	2.5027	-3.400903	0.000323	3.234084	0.547869	-0.000032
1760	1.7502e+02	2.4932	-3.434712	0.000340	3.397835	0.575609	-0.000034
1761	1.7512e+02	2.4847	-3.466892	0.000323	3.234084	0.547869	-0.000032
1762	1.7522e+02	2.4755	-3.499073	0.000323	3.234084	0.547869	-0.000032
1763	1.7532e+02	2.4633	-3.534919	0.000360	3.602524	0.610284	-0.000036
1764	1.7542e+02	2.4566	-3.569135	0.000344	3.438773	0.582544	-0.000034
1765	1.7552e+02	2.4428	-3.605389	0.000364	3.643462	0.617219	-0.000036
1766	1.7562e+02	2.4349	-3.639198	0.000340	3.397835	0.575609	-0.000034
1767	1.7572e+02	2.4252	-3.672193	0.000332	3.315959	0.561739	-0.000033
1768	1.7582e+02	2.4150	-3.707632	0.000356	3.561586	0.603349	-0.000036
1769	1.7592e+02	2.4033	-3.745107	0.000377	3.766275	0.638024	-0.000038
1770	1.7602e+02	2.3989	-3.780139	0.000352	3.520648	0.596414	-0.000035
1771	1.7612e+02	2.3847	-3.807431	0.000274	2.742831	0.464648	-0.000027
1772	1.7621e+02	2.3733	-3.844092	0.000368	3.684399	0.624154	-0.000037
1773	1.7631e+02	2.3635	-3.879123	0.000352	3.520648	0.596414	-0.000035
1774	1.7641e+02	2.3550	-3.910081	0.000311	3.111271	0.527063	-0.000031
1775	1.7651e+02	2.3438	-3.941447	0.000315	3.152208	0.533999	-0.000032
1776	1.7661e+02	2.3360	-3.974034	0.000328	3.275022	0.554804	-0.000033
1777	1.7671e+02	2.3260	-4.012324	0.000385	3.848150	0.651894	-0.000038
1778	1.7681e+02	2.3156	-4.051022	0.000389	3.889088	0.658829	-0.000039
1779	1.7691e+02	2.3047	-4.083202	0.000323	3.234084	0.547869	-0.000032
1780	1.7701e+02	2.2958	-4.116604	0.000336	3.356897	0.568674	-0.000034
1781	1.7711e+02	2.2900	-4.152857	0.000364	3.643462	0.617219	-0.000036
1782	1.7721e+02	2.2765	-4.183815	0.000311	3.111271	0.527063	-0.000031
1783	1.7731e+02	2.2649	-4.217217	0.000336	3.356897	0.568674	-0.000034
1784	1.7741e+02	2.2558	-4.248175	0.000311	3.111271	0.527063	-0.000031
1785	1.7751e+02	2.2453	-4.287688	0.000397	3.970964	0.672699	-0.000040
1786	1.7761e+02	2.2366	-4.319053	0.000315	3.152208	0.533999	-0.000032
1787	1.7771e+02	2.2234	-4.352863	0.000340	3.397835	0.575609	-0.000034
1788	1.7781e+02	2.2161	-4.381376	0.000287	2.865644	0.485453	-0.000029
1789	1.7791e+02	2.2058	-4.417630	0.000364	3.643462	0.617219	-0.000036
1790	1.7801e+02	2.1981	-4.456328	0.000389	3.889088	0.658829	-0.000039
1791	1.7810e+02	2.1854	-4.487286	0.000311	3.111271	0.527063	-0.000031
1792	1.7820e+02	2.1754	-4.524354	0.000373	3.725337	0.631089	-0.000037
1793	1.7830e+02	2.1662	-4.555719	0.000315	3.152208	0.533999	-0.000032
1794	1.7840e+02	2.1561	-4.586677	0.000311	3.111271	0.527063	-0.000031
1795	1.7850e+02	2.1468	-4.622116	0.000356	3.561586	0.603349	-0.000036
1796	1.7860e+02	2.1348	-4.655925	0.000340	3.397835	0.575609	-0.000034
1797	1.7870e+02	2.1272	-4.690142	0.000344	3.438773	0.582544	-0.000034
1798	1.7880e+02	2.1146	-4.726803	0.000368	3.684399	0.624154	-0.000037
1799	1.7890e+02	2.1077	-4.760205	0.000336	3.356897	0.568674	-0.000034
1800	1.7900e+02	2.0959	-4.796051	0.000360	3.602524	0.610284	-0.000036
1801	1.7910e+02	2.0889	-4.831083	0.000352	3.520648	0.596414	-0.000035
1802	1.7920e+02	2.0760	-4.866114	0.000352	3.520648	0.596414	-0.000035
1803	1.7930e+02	2.0631	-4.898702	0.000328	3.275022	0.554804	-0.000033
1804	1.7940e+02	2.0557	-4.936177	0.000377	3.766275	0.638024	-0.000038
1805	1.7950e+02	2.0477	-4.968357	0.000323	3.234084	0.547869	-0.000032
1806	1.7960e+02	2.0354	-5.002167	0.000340	3.397835	0.575609	-0.000034
1807	1.7970e+02	2.0296	-5.040864	0.000389	3.889088	0.658829	-0.000039
1808	1.7980e+02	2.0159	-5.070600	0.000299	2.988457	0.506258	-0.000030
1809	1.7990e+02	2.0089	-5.109298	0.000389	3.889088	0.658829	-0.000039
1810	1.8000e+02	1.9964	-5.143514	0.000344	3.438773	0.582544	-0.000034
1811	1.8009e+02	1.9878	-5.175694	0.000323	3.234084	0.547869	-0.000032
1812	1.8019e+02	1.9761	-5.213170	0.000377	3.766275	0.638024	-0.000038
1813	1.8029e+02	1.9668	-5.249016	0.000360	3.602524	0.610284	-0.000036
1814	1.8039e+02	1.9556	-5.287306	0.000385	3.848150	0.651894	-0.000038
1815	1.8049e+02	1.9473	-5.319079	0.000319	3.193146	0.540934	-0.000032
1816	1.8059e+02	1.9363	-5.354518	0.000356	3.561586	0.603349	-0.000036
1817	1.8069e+02	1.9277	-5.389549	0.000352	3.520648	0.596414	-0.000035
1818	1.8079e+02	1.9161	-5.425395	0.000360	3.602524	0.610284	-0.000036
1819	1.8089e+02	1.9079	-5.459205	0.000340	3.397835	0.575609	-0.000034
1820	1.8099e+02	1.8931	-5.495051	0.000360	3.602524	0.610284	-0.000036
1821	1.8109e+02	1.8868	-5.530082	0.000352	3.520648	0.596414	-0.000035
1822	1.8119e+02	1.8772	-5.561448	0.000315	3.152208	0.533999	-0.000032
1823	1.8129e+02	1.8688	-5.596887	0.000356	3.561586	0.603349	-0.000036
1824	1.8139e+02	1.8590	-5.634362	0.000377	3.766275	0.638024	-0.000038
1825	1.8149e+02	1.8473	-5.671430	0.000373	3.725337	0.631089	-0.000037
1826	1.8159e+02	1.8396	-5.703610	0.000323	3.234084	0.547869	-0.000032
1827	1.8169e+02	1.8286	-5.738642	0.000352	3.520648	0.596414	-0.000035
1828	1.8179e+02	1.8147	-5.776525	0.000381	3.807213	0.644959	-0.000038
1829	1.8189e+02	1.8075	-5.810334	0.000340	3.397835	0.575609	-0.000034
1830	1.8199e+02	1.7992	-5.845773	0.000356	3.561586	0.603349	-0.000036
1831	1.8209e+02	1.7865	-5.884470	0.000389	3.889088	0.658829	-0.000039
1832	1.8218e+02	1.7797	-5.919095	0.000348	3.479710	0.589479	-0.000035
1833	1.8228e+02	1.7702	-5.954941	0.000360	3.602524	0.610284	-0.000036
1834	1.8238e+02	1.7577	-5.987528	0.000328	3.275022	0.554804	-0.000033
1835	1.8248e+02	1.7466	-6.026633	0.000393	3.930026	0.665764	-0.000039
1836	1.8258e+02	1.7367	-6.062887	0.000364	3.643462	0.617219	-0.000036
1837	1.8268e+02	1.7294	-6.097918	0.000352	3.520648	0.596414	-0.000035
1838	1.8278e+02	1.7163	-6.131727	0.000340	3.397835	0.575609	-0.000034
1839	1.8288e+02	1.7094	-6.168796	0.000373	3.725337	0.631089	-0.000037
1840	1.8298e+02	1.6998	-6.202198	0.000336	3.356897	0.568674	-0.000034
1841	1.8308e+02	1.6903	-6.238859	0.000368	3.684399	0.624154	-0.000037
1842	1.8318e+02	1.6791	-6.276741	0.000381	3.807213	0.644959	-0.000038
1843	1.8328e+02	1.6656	-6.312588	0.000360	3.602524	0.610284	-0.000036
1844	1.8338e+02	1.6582	-6.345990	0.000336	3.356897	0.568674	-0.000034
1845	1.8348e+02	1.6476	-6.387946	0.000422	4.216590	0.714310	-0.000042
1846	1.8358e+02	1.6409	-6.418089	0.000303	3.029395	0.513193	-0.000030
1847	1.8368e+02	1.6271	-6.453935	0.000360	3.602524	0.610284	-0.000036
1848	1.8378e+02	1.6175	-6.492633	0.000389	3.889088	0.658829	-0.000039
1849	1.8388e+02	1.6069	-6.524813	0.000323	3.234084	0.547869	-0.000032
1850	1.8398e+02	1.5965	-6.562696	0.000381	3.807213	0.644959	-0.000038
1851	1.8407e+02	1.5884	-6.599357	0.000368	3.684399	0.624154	-0.000037
1852	1.8417e+02	1.5778	-6.631129	0.000319	3.193146	0.540934	-0.000032
1853	1.8427e+02	1.5686	-6.666976	0.000360	3.602524	0.610284	-0.000036
1854	1.8437e+02	1.5600	-6.703636	0.000368	3.684399	0.624154	-0.000037
1855	1.8447e+02	1.5479	-6.742741	0.000393	3.930026	0.665764	-0.000039
1856	1.8457e+02	1.5385	-6.776551	0.000340	3.397835	0.575609	-0.000034
1857	1.8467e+02	1.5275	-6.811175	0.000348	3.479710	0.589479	-0.000035
1858	1.8477e+02	1.5187	-6.854353	0.000434	4.339404	0.735115	-0.000043
1859	1.8487e+02	1.5091	-6.888163	0.000340	3.397835	0.575609	-0.000034
1860	1.8497e+02	1.4994	-6.925231	0.000373	3.725337	0.631089	-0.000037
1861	1.8507e+02	1.4911	-6.961484	0.000364	3.643462	0.617219	-0.000036
1862	1.8517e+02	1.4773	-6.999367	0.000381	3.807213	0.644959	-0.000038
1863	1.8527e+02	1.4693	-7.032769	0.000336	3.356897	0.568674	-0.000034
1864	1.8537e+02	1.4590	-7.064135	0.000315	3.152208	0.533999	-0.000032
1865	1.8547e+02	1.4493	-7.101610	0.000377	3.766275	0.638024	-0.000038
1866	1.8557e+02	1.4364	-7.145196	0.000438	4.380341	0.742050	-0.000044
1867	1.8567e+02	1.4294	-7.179820	0.000348	3.479710	0.589479	-0.000035
1868	1.8577e+02	1.4192	-7.216888	0.000373	3.725337	0.631089	-0.000037
1869	1.8587e+02	1.4102	-7.255993	0.000393	3.930026	0.665764	-0.000039
1870	1.8597e+02	1.4008	-7.292654	0.000368	3.684399	0.624154	-0.000037
1871	1.8606e+02	1.3905	-7.329722	0.000373	3.725337	0.631089	-0.000037
1872	1.8616e+02	1.3786	-7.367605	0.000381	3.807213	0.644959	-0.000038
1873	1.8626e+02	1.3673	-7.408339	0.000409	4.093777	0.693505	-0.000041
1874	1.8636e+02	1.3615	-7.442556	0.000344	3.438773	0.582544	-0.000034
1875	1.8646e+02	1.3499	-7.479624	0.000373	3.725337	0.631089	-0.000037
1876	1.8656e+02	1.3403	-7.518321	0.000389	3.889088	0.658829	-0.000039
1877	1.8666e+02	1.3305	-7.554982	0.000368	3.684399	0.624154	-0.000037
1878	1.8676e+02	1.3195	-7.591643	0.000368	3.684399	0.624154	-0.000037
1879	1.8686e+02	1.3101	-7.627897	0.000364	3.643462	0.617219	-0.000036
1880	1.8696e+02	1.2973	-7.666594	0.000389	3.889088	0.658829	-0.000039
1881	1.8706e+02	1.2893	-7.702848	0.000364	3.643462	0.617219	-0.000036
1882	1.8716e+02	1.2814	-7.739508	0.000368	3.684399	0.624154	-0.000037
1883	1.8726e+02	1.2704	-7.775355	0.000360	3.602524	0.610284	-0.000036
1884	1.8736e+02	1.2600	-7.815274	0.000401	4.011901	0.679635	-0.000040
1885	1.8746e+02	1.2510	-7.850713	0.000356	3.561586	0.603349	-0.000036
1886	1.8756e+02	1.2400	-7.883708	0.000332	3.315959	0.561739	-0.000033
1887	1.8766e+02	1.2297	-7.927701	0.000442	4.421279	0.748985	-0.000044
1888	1.8776e+02	1.2260	-7.962732	0.000352	3.520648	0.596414	-0.000035
1889	1.8786e+02	1.2111	-7.999800	0.000373	3.725337	0.631089	-0.000037
1890	1.8796e+02	1.2026	-8.036869	0.000373	3.725337	0.631089	-0.000037
1891	1.8806e+02	1.1912	-8.073122	0.000364	3.643462	0.617219	-0.000036
1892	1.8815e+02	1.1797	-8.114264	0.000413	4.134715	0.700440	-0.000041
1893	1.8825e+02	1.1690	-8.150924	0.000368	3.684399	0.624154	-0.000037
1894	1.8835e+02	1.1617	-8.187178	0.000364	3.643462	0.617219	-0.000036
1895	1.8845e+02	1.1510	-8.225875	0.000389	3.889088	0.658829	-0.000039
1896	1.8855e+02	1.1433	-8.260092	0.000344	3.438773	0.582544	-0.000034
1897	1.8865e+02	1.1326	-8.298790	0.000389	3.889088	0.658829	-0.000039
1898	1.8875e+02	1.1211	-8.337080	0.000385	3.848150	0.651894	-0.000038
1899	1.8885e+02	1.1085	-8.371704	0.000348	3.479710	0.589479	-0.000035
1900	1.8895e+02	1.1013	-8.411624	0.000401	4.011901	0.679635	-0.000040
1901	1.8905e+02	1.0918	-8.448692	0.000373	3.725337	0.631089	-0.000037
1902	1.8915e+02	1.0815	-8.487389	0.000389	3.889088	0.658829	-0.000039
1903	1.8925e+02	1.0698	-8.528531	0.000413	4.134715	0.700440	-0.000041
1904	1.8935e+02	1.0641	-8.565192	0.000368	3.684399	0.624154	-0.000037
1905	1.8945e+02	1.0510	-8.605926	0.000409	4.093777	0.693505	-0.000041
1906	1.8955e+02	1.0405	-8.640958	0.000352	3.520648	0.596414	-0.000035
1907	1.8965e+02	1.0310	-8.682099	0.000413	4.134715	0.700440	-0.000041
1908	1.8975e+02	1.0247	-8.717538	0.000356	3.561586	0.603349	-0.000036
1909	1.8985e+02	1.0101	-8.755421	0.000381	3.807213	0.644959	-0.000038
1910	1.8995e+02	1.0014	-8.792082	0.000368	3.684399	0.624154	-0.000037
1911	1.9004e+02	0.9895	-8.832001	0.000401	4.011901	0.679635	-0.000040
1912	1.9014e+02	0.9820	-8.868662	0.000368	3.684399	0.624154	-0.000037
1913	1.9024e+02	0.9725	-8.910618	0.000422	4.216590	0.714310	-0.000042
1914	1.9034e+02	0.9622	-8.943613	0.000332	3.315959	0.561739	-0.000033
1915	1.9044e+02	0.9519	-8.979867	0.000364	3.643462	0.617219	-0.000036
1916	1.9054e+02	0.9411	-9.018157	0.000385	3.848150	0.651894	-0.000038
1917	1.9064e+02	0.9321	-9.060928	0.000430	4.298466	0.728180	-0.000043
1918	1.9074e+02	0.9212	-9.093515	0.000328	3.275022	0.554804	-0.000033
1919	1.9084e+02	0.9142	-9.138730	0.000454	4.544092	0.769790	-0.000045
1920	1.9094e+02	0.9010	-9.174169	0.000356	3.561586	0.603349	-0.000036
1921	1.9104e+02	0.8934	-9.214903	0.000409	4.093777	0.693505	-0.000041
1922	1.9114e+02	0.8832	-9.250749	0.000360	3.602524	0.610284	-0.000036
1923	1.9124e+02	0.8713	-9.288632	0.000381	3.807213	0.644959	-0.000038
1924	1.9134e+02	0.8640	-9.328959	0.000405	4.052839	0.686570	-0.000041
1925	1.9144e+02	0.8526	-9.367657	0.000389	3.889088	0.658829	-0.000039
1926	1.9154e+02	0.8444	-9.402688	0.000352	3.520648	0.596414	-0.000035
1927	1.9164e+02	0.8340	-9.440978	0.000385	3.848150	0.651894	-0.000038
1928	1.9174e+02	0.8259	-9.482527	0.000418	4.175653	0.707375	-0.000042
1929	1.9184e+02	0.8131	-9.521225	0.000389	3.889088	0.658829	-0.000039
1930	1.9194e+02	0.8035	-9.557886	0.000368	3.684399	0.624154	-0.000037
1931	1.9203e+02	0.7937	-9.601064	0.000434	4.339404	0.735115	-0.000043
1932	1.9213e+02	0.7843	-9.638947	0.000381	3.807213	0.644959	-0.000038
1933	1.9223e+02	0.7739	-9.678459	0.000397	3.970964	0.672699	-0.000040
1934	1.9233e+02	0.7639	-9.717564	0.000393	3.930026	0.665764	-0.000039
1935	1.9243e+02	0.7541	-9.755854	0.000385	3.848150	0.651894	-0.000038
1936	1.9253e+02	0.7431	-9.799847	0.000442	4.421279	0.748985	-0.000044
1937	1.9263e+02	0.7332	-9.842211	0.000426	4.257528	0.721245	-0.000043
1938	1.9273e+02	0.7214	-9.876835	0.000348	3.479710	0.589479	-0.000035
1939	1.9283e+02	0.7129	-9.913496	0.000368	3.684399	0.624154	-0.000037
1940	1.9293e+02	0.7006	-9.949749	0.000364	3.643462	0.617219	-0.000036
1941	1.9303e+02	0.6914	-9.988854	0.000393	3.930026	0.665764	-0.000039
1942	1.9313e+02	0.6821	-10.032440	0.000438	4.380341	0.742050	-0.000044
1943	1.9323e+02	0.6715	-10.065434	0.000332	3.315959	0.561739	-0.000033
1944	1.9333e+02	0.6639	-10.109427	0.000442	4.421279	0.748985	-0.000044
1945	1.9343e+02	0.6558	-10.144459	0.000352	3.520648	0.596414	-0.000035
1946	1.9353e+02	0.6447	-10.188452	0.000442	4.421279	0.748985	-0.000044
1947	1.9363e+02	0.6347	-10.227964	0.000397	3.970964	0.672699	-0.000040
1948	1.9373e+02	0.6231	-10.268698	0.000409	4.093777	0.693505	-0.000041
1949	1.9383e+02	0.6139	-10.302100	0.000336	3.356897	0.568674	-0.000034
1950	1.9393e+02	0.6055	-10.344057	0.000422	4.216590	0.714310	-0.000042
1951	1.9403e+02	0.5955	-10.382754	0.000389	3.889088	0.658829	-0.000039
1952	1.9412e+02	0.5827	-10.421044	0.000385	3.848150	0.651894	-0.000038
1953	1.9422e+02	0.5742	-10.463408	0.000426	4.257528	0.721245	-0.000043
1954	1.9432e+02	0.5651	-10.495996	0.000328	3.275022	0.554804	-0.000033
1955	1.9442e+02	0.5531	-10.531842	0.000360	3.602524	0.610284	-0.000036
1956	1.9452e+02	0.5424	-10.573798	0.000422	4.216590	0.714310	-0.000042
1957	1.9462e+02	0.5343	-10.613310	0.000397	3.970964	0.672699	-0.000040
1958	1.9472e+02	0.5261	-10.651600	0.000385	3.848150	0.651894	-0.000038
1959	1.9482e+02	0.5150	-10.691113	0.000397	3.970964	0.672699	-0.000040
1960	1.9492e+02	0.5017	-10.727773	0.000368	3.684399	0.624154	-0.000037
1961	1.9502e+02	0.4922	-10.765249	0.000377	3.766275	0.638024	-0.000038
1962	1.9512e+02	0.4847	-10.808427	0.000434	4.339404	0.735115	-0.000043
1963	1.9522e+02	0.4758	-10.849976	0.000418	4.175653	0.707375	-0.000042
1964	1.9532e+02	0.4637	-10.886230	0.000364	3.643462	0.617219	-0.000036
1965	1.9542e+02	0.4520	-10.924520	0.000385	3.848150	0.651894	-0.000038
1966	1.9552e+02	0.4448	-10.964439	0.000401	4.011901	0.679635	-0.000040
1967	1.9562e+02	0.4388	-11.005174	0.000409	4.093777	0.693505	-0.000041
1968	1.9572e+02	0.4244	-11.041427	0.000364	3.643462	0.617219	-0.000036
1969	1.9582e+02	0.4118	-11.089086	0.000479	4.789719	0.811400	-0.000048
1970	1.9592e+02	0.4050	-11.126154	0.000373	3.725337	0.631089	-0.000037
1971	1.9601e+02	0.3922	-11.167703	0.000418	4.175653	0.707375	-0.000042
1972	1.9611e+02	0.3863	-11.208030	0.000405	4.052839	0.686570	-0.000041
1973	1.9621e+02	0.3754	-11.243876	0.000360	3.602524	0.610284	-0.000036
1974	1.9631e+02	0.3633	-11.289091	0.000454	4.544092	0.769790	-0.000045
1975	1.9641e+02	0.3564	-11.324938	0.000360	3.602524	0.610284	-0.000036
1976	1.9651e+02	0.3427	-11.363635	0.000389	3.889088	0.658829	-0.000039
1977	1.9661e+02	0.3358	-11.402333	0.000389	3.889088	0.658829	-0.000039
1978	1.9671e+02	0.3230	-11.443882	0.000418	4.175653	0.707375	-0.000042
1979	1.9681e+02	0.3143	-11.482172	0.000385	3.848150	0.651894	-0.000038
1980	1.9691e+02	0.3044	-11.526165	0.000442	4.421279	0.748985	-0.000044
1981	1.9701e+02	0.2969	-11.563640	0.000377	3.766275	0.638024	-0.000038
1982	1.9711e+02	0.2858	-11.608448	0.000450	4.503155	0.762855	-0.000045
1983	1.9721e+02	0.2745	-11.646331	0.000381	3.807213	0.644959	-0.000038
1984	1.9731e+02	0.2681	-11.685843	0.000397	3.970964	0.672699	-0.000040
1985	1.9741e+02	0.2540	-11.730651	0.000450	4.503155	0.762855	-0.000045
1986	1.9751e+02	0.2438	-11.768534	0.000381	3.807213	0.644959	-0.000038
1987	1.9761e+02	0.2367	-11.802343	0.000340	3.397835	0.575609	-0.000034
1988	1.9771e+02	0.2241	-11.848780	0.000467	4.666906	0.790595	-0.000047
1989	1.9781e+02	0.2177	-11.886663	0.000381	3.807213	0.644959	-0.000038
1990	1.9791e+02	0.2047	-11.928619	0.000422	4.216590	0.714310	-0.000042
1991	1.9800e+02	0.1977	-11.962021	0.000336	3.356897	0.568674	-0.000034
1992	1.9810e+02	0.1861	-12.006422	0.000446	4.462217	0.755920	-0.000045
1993	1.9820e+02	0.1755	-12.048378	0.000422	4.216590	0.714310	-0.000042
1994	1.9830e+02	0.1672	-12.087483	0.000393	3.930026	0.665764	-0.000039
1995	1.9840e+02	0.1559	-12.128217	0.000409	4.093777	0.693505	-0.000041
1996	1.9850e+02	0.1463	-12.168544	0.000405	4.052839	0.686570	-0.000041
1997	1.9860e+02	0.1340	-12.209278	0.000409	4.093777	0.693505	-0.000041
1998	1.9870e+02	0.1253	-12.254086	0.000450	4.503155	0.762855	-0.000045
1999	1.9880e+02	0.1165	-12.292376	0.000385	3.848150	0.651894	-0.000038
2000	1.9890e+02	0.1056	-12.331074	0.000389	3.889088	0.658829	-0.000039
2001	1.9900e+02	0.0974	-12.370586	0.000397	3.970964	0.672699	-0.000040
2002	1.9910e+02	0.0868	-12.414172	0.000438	4.380341	0.742050	-0.000044
2003	1.9920e+02	0.0758	-12.454499	0.000405	4.052839	0.686570	-0.000041
2004	1.9930e+02	0.0665	-12.492789	0.000385	3.848150	0.651894	-0.000038
2005	1.9940e+02	0.0583	-12.535560	0.000430	4.298466	0.728180	-0.000043
2006	1.9950e+02	0.0474	-12.576294	0.000409	4.093777	0.693505	-0.000041
2007	1.9960e+02	0.0358	-12.615806	0.000397	3.970964	0.672699	-0.000040
2008	1.9970e+02	0.0257	-12.657762	0.000422	4.216590	0.714310	-0.000042
2009	1.9980e+02	0.0152	-12.699311	0.000418	4.175653	0.707375	-0.000042
2010	1.9990e+02	0.0059	-12.743304	0.000442	4.421279	0.748985	-0.000044
2011	2.0000e+02	-0.0022	-12.783631	0.000442	4.421279	0.748985	-0.000041

PMax (uC/cm2):	3.06e+01
Pr (uC/cm2):	2.53e+00
-Pr (uC/cm2):	0.00e+00
PLoss (uC/cm2):	0.00e+00
C (Max-Eff) (nF):	3.06e-01
K (Eff):	5.19e+02
Vert. (+/-Pr) Shift (uC/cm2):	1.27e+00
Offset (uC/cm2):	1.53e+01

A (Loop Area - uC/cm2·Volts):	-2.50e-02



Hysteresis Version: 5.48.1 - Radiant Technologies, Inc., 1999 - 9/12/24

