»»»»»»»»»»»»»»»»»»»»»»»»»»»»»»»»»»»» Hysteresis ««««««««««««««««««««««««««««««««««««
»»»  Executed Version:	5.48.1
»»»  Vision Version:	5.48.4 (R)
»»»  Vision Compiled:	9/18/24
»»»  Driver Version:	5.47.0
»»»  Windows Version:	Windows 8 or 8.1
»»»  Processor Information:	x86 (AMD or Intel) - 32 Processors
»»»  Tester Name:	PMF21124-494 (100V)
»»»  Tester S/N:	PMF21124-494
»»»  Internal Amp Type:	100V RevK 270k
»»»  Internal Amp S/N:	iAB2-596/K     
»»»  Execution Count:	1
»»»»»»»»»»»»»»»»»»»»»»»»»»»»»»»»»»»»»»»»»»««««««««««««««««««««««««««««««««««««««««««

Stored:	6/26/2025 - 11:28:15
Configured:	06/26/25 10:24:47 AM
Executed:	06/26/25 11:27:41 AM

»»»»»»»»»»»»»»»»»»»»»»»»»»»»»»»»»»» Sample Info ««««««««««««««««««««««««««««««««««««
Sample Name:	
Lot Name:	
Wafer Name:	
Die Row/Column:	0/0
Capacitor Number:	0
Sample Area (cm2):	1.00e-04
Sample Thickness (microns):	1.50e-01

Amplifier:	Internal

»»»»»»»»»»»»»»»»»»»»»»»»»»»»»»»»»»» Tester Info «««««««««««««««««««««««««««««««««««
Tester Name:	PMF21124-494 (100V)
Tester Serial Number:	PMF21124-494
Return Signal Amp. Level:	1.9 [Index: 2]

»»»»»»»»»»»»»»»»»»»»»»»»»»»»»»»» Hysteresis Info ««««««««««««««««««««««««««««««««««
Task Name:	Hyst-562
Volts:	10.00
Field:	666.67 (kV/cm)
DCBias:	0.00
DCField:	0.00 (kV/cm)
Hysteresis Period (ms):	2.00e+02
Preset:	Enabled
Preset Delay (ms):	1.00e+03
Profile:	Standard Monopolar

»»»»»»»»»»»»»»»»»»»»»»»»»»»»»»»»»»»»»» Data «««««««««««««««««««««««««««««««««««««««
Points:	2011

Valid Data

Point	Time (ms)	Drive Voltage	Measured Polarization (uC/cm2)	Capacitance (uF)	Normalized Capacitance (uF/cm2)	Dielectric Constant	Instantaneous Current (mA)
   1	0.0000e+00	-0.0055	-15.740735	0.000344	3.439271	0.582628	0.000034
   2	9.9500e-02	0.0099	-15.706518	0.000344	3.439271	0.582628	0.000034
   3	1.9900e-01	0.0170	-15.668228	0.000385	3.848708	0.651989	0.000038
   4	2.9850e-01	0.0239	-15.631974	0.000364	3.643990	0.617309	0.000036
   5	3.9800e-01	0.0339	-15.597757	0.000344	3.439271	0.582628	0.000034
   6	4.9750e-01	0.0462	-15.561504	0.000364	3.643990	0.617309	0.000036
   7	5.9700e-01	0.0562	-15.523621	0.000381	3.807765	0.645053	0.000038
   8	6.9650e-01	0.0624	-15.483701	0.000401	4.012483	0.679733	0.000040
   9	7.9600e-01	0.0756	-15.443782	0.000401	4.012483	0.679733	0.000040
  10	8.9550e-01	0.0842	-15.409158	0.000348	3.480215	0.589564	0.000035
  11	9.9500e-01	0.0942	-15.370460	0.000389	3.889652	0.658925	0.000039
  12	1.0945e+00	0.1051	-15.328504	0.000422	4.217202	0.714413	0.000042
  13	1.1940e+00	0.1142	-15.290621	0.000381	3.807765	0.645053	0.000038
  14	1.2935e+00	0.1235	-15.255590	0.000352	3.521159	0.596500	0.000035
  15	1.3930e+00	0.1350	-15.218929	0.000368	3.684933	0.624245	0.000037
  16	1.4925e+00	0.1428	-15.181046	0.000381	3.807765	0.645053	0.000038
  17	1.5920e+00	0.1543	-15.139904	0.000414	4.135314	0.700541	0.000041
  18	1.6915e+00	0.1674	-15.104465	0.000356	3.562102	0.603436	0.000036
  19	1.7910e+00	0.1742	-15.067397	0.000373	3.725877	0.631181	0.000037
  20	1.8905e+00	0.1841	-15.030329	0.000373	3.725877	0.631181	0.000037
  21	1.9900e+00	0.1958	-14.988780	0.000418	4.176258	0.707477	0.000042
  22	2.0895e+00	0.2050	-14.952119	0.000368	3.684933	0.624245	0.000037
  23	2.1890e+00	0.2147	-14.914644	0.000377	3.766821	0.638117	0.000038
  24	2.2885e+00	0.2216	-14.873502	0.000414	4.135314	0.700541	0.000041
  25	2.3880e+00	0.2370	-14.841322	0.000323	3.234553	0.547948	0.000032
  26	2.4875e+00	0.2422	-14.800181	0.000414	4.135314	0.700541	0.000041
  27	2.5870e+00	0.2539	-14.768408	0.000319	3.193609	0.541012	0.000032
  28	2.6865e+00	0.2635	-14.730525	0.000381	3.807765	0.645053	0.000038
  29	2.7860e+00	0.2769	-14.696716	0.000340	3.398328	0.575692	0.000034
  30	2.8855e+00	0.2870	-14.660869	0.000360	3.603046	0.610373	0.000036
  31	2.9850e+00	0.2950	-14.625431	0.000356	3.562102	0.603436	0.000036
  32	3.0845e+00	0.3067	-14.587955	0.000377	3.766821	0.638117	0.000038
  33	3.1840e+00	0.3136	-14.554960	0.000332	3.316440	0.561820	0.000033
  34	3.2835e+00	0.3226	-14.513819	0.000414	4.135314	0.700541	0.000041
  35	3.3830e+00	0.3345	-14.481231	0.000328	3.275496	0.554884	0.000033
  36	3.4825e+00	0.3442	-14.442941	0.000385	3.848708	0.651989	0.000038
  37	3.5820e+00	0.3548	-14.412390	0.000307	3.070778	0.520204	0.000031
  38	3.6815e+00	0.3645	-14.372878	0.000397	3.971539	0.672797	0.000040
  39	3.7810e+00	0.3744	-14.338661	0.000344	3.439271	0.582628	0.000034
  40	3.8805e+00	0.3830	-14.300371	0.000385	3.848708	0.651989	0.000038
  41	3.9800e+00	0.3954	-14.262896	0.000377	3.766821	0.638117	0.000038
  42	4.0795e+00	0.4027	-14.232345	0.000307	3.070778	0.520204	0.000031
  43	4.1790e+00	0.4142	-14.196499	0.000360	3.603046	0.610373	0.000036
  44	4.2785e+00	0.4266	-14.163912	0.000328	3.275496	0.554884	0.000033
  45	4.3780e+00	0.4343	-14.128065	0.000360	3.603046	0.610373	0.000036
  46	4.4775e+00	0.4472	-14.090590	0.000377	3.766821	0.638117	0.000038
  47	4.5770e+00	0.4561	-14.059632	0.000311	3.111722	0.527140	0.000031
  48	4.6765e+00	0.4637	-14.027452	0.000323	3.234553	0.547948	0.000032
  49	4.7760e+00	0.4741	-13.991198	0.000364	3.643990	0.617309	0.000036
  50	4.8755e+00	0.4807	-13.956167	0.000352	3.521159	0.596500	0.000035
  51	4.9750e+00	0.4942	-13.924394	0.000319	3.193609	0.541012	0.000032
  52	5.0745e+00	0.5030	-13.891807	0.000328	3.275496	0.554884	0.000033
  53	5.1740e+00	0.5142	-13.856775	0.000352	3.521159	0.596500	0.000035
  54	5.2735e+00	0.5242	-13.820522	0.000364	3.643990	0.617309	0.000036
  55	5.3730e+00	0.5324	-13.787934	0.000328	3.275496	0.554884	0.000033
  56	5.4725e+00	0.5411	-13.757384	0.000307	3.070778	0.520204	0.000031
  57	5.5720e+00	0.5535	-13.719093	0.000385	3.848708	0.651989	0.000038
  58	5.6715e+00	0.5631	-13.684469	0.000348	3.480215	0.589564	0.000035
  59	5.7710e+00	0.5728	-13.656363	0.000283	2.825116	0.478588	0.000028
  60	5.8705e+00	0.5855	-13.622553	0.000340	3.398328	0.575692	0.000034
  61	5.9700e+00	0.5930	-13.590781	0.000319	3.193609	0.541012	0.000032
  62	6.0695e+00	0.6030	-13.555749	0.000352	3.521159	0.596500	0.000035
  63	6.1690e+00	0.6125	-13.524384	0.000315	3.152665	0.534076	0.000032
  64	6.2685e+00	0.6242	-13.488945	0.000356	3.562102	0.603436	0.000036
  65	6.3680e+00	0.6332	-13.451877	0.000373	3.725877	0.631181	0.000037
  66	6.4675e+00	0.6445	-13.417660	0.000344	3.439271	0.582628	0.000034
  67	6.5670e+00	0.6528	-13.385480	0.000323	3.234553	0.547948	0.000032
  68	6.6665e+00	0.6623	-13.347597	0.000381	3.807765	0.645053	0.000038
  69	6.7660e+00	0.6735	-13.315824	0.000319	3.193609	0.541012	0.000032
  70	6.8655e+00	0.6837	-13.279978	0.000360	3.603046	0.610373	0.000036
  71	6.9650e+00	0.6913	-13.246576	0.000336	3.357384	0.568756	0.000034
  72	7.0645e+00	0.6992	-13.210730	0.000360	3.603046	0.610373	0.000036
  73	7.1640e+00	0.7116	-13.174884	0.000360	3.603046	0.610373	0.000036
  74	7.2635e+00	0.7233	-13.136186	0.000389	3.889652	0.658925	0.000039
  75	7.3630e+00	0.7306	-13.102784	0.000336	3.357384	0.568756	0.000034
  76	7.4625e+00	0.7427	-13.066123	0.000368	3.684933	0.624245	0.000037
  77	7.5620e+00	0.7530	-13.032721	0.000336	3.357384	0.568756	0.000034
  78	7.6615e+00	0.7633	-12.998097	0.000348	3.480215	0.589564	0.000035
  79	7.7610e+00	0.7722	-12.960622	0.000377	3.766821	0.638117	0.000038
  80	7.8605e+00	0.7799	-12.924368	0.000364	3.643990	0.617309	0.000036
  81	7.9600e+00	0.7905	-12.890151	0.000344	3.439271	0.582628	0.000034
  82	8.0595e+00	0.8011	-12.858379	0.000319	3.193609	0.541012	0.000032
  83	8.1590e+00	0.8106	-12.821718	0.000368	3.684933	0.624245	0.000037
  84	8.2585e+00	0.8242	-12.786279	0.000356	3.562102	0.603436	0.000036
  85	8.3580e+00	0.8340	-12.751655	0.000348	3.480215	0.589564	0.000035
  86	8.4575e+00	0.8425	-12.713772	0.000381	3.807765	0.645053	0.000038
  87	8.5570e+00	0.8517	-12.679555	0.000344	3.439271	0.582628	0.000034
  88	8.6565e+00	0.8633	-12.642487	0.000373	3.725877	0.631181	0.000037
  89	8.7560e+00	0.8719	-12.610714	0.000319	3.193609	0.541012	0.000032
  90	8.8555e+00	0.8814	-12.576090	0.000348	3.480215	0.589564	0.000035
  91	8.9550e+00	0.8933	-12.547169	0.000291	2.907003	0.492460	0.000029
  92	9.0545e+00	0.9023	-12.508471	0.000389	3.889652	0.658925	0.000039
  93	9.1540e+00	0.9145	-12.475477	0.000332	3.316440	0.561820	0.000033
  94	9.2535e+00	0.9212	-12.443704	0.000319	3.193609	0.541012	0.000032
  95	9.3530e+00	0.9329	-12.411524	0.000323	3.234553	0.547948	0.000032
  96	9.4525e+00	0.9420	-12.376492	0.000352	3.521159	0.596500	0.000035
  97	9.5520e+00	0.9521	-12.347164	0.000295	2.947947	0.499396	0.000029
  98	9.6515e+00	0.9626	-12.308874	0.000385	3.848708	0.651989	0.000038
  99	9.7510e+00	0.9693	-12.273842	0.000352	3.521159	0.596500	0.000035
 100	9.8505e+00	0.9800	-12.236367	0.000377	3.766821	0.638117	0.000038
 101	9.9500e+00	0.9913	-12.205816	0.000307	3.070778	0.520204	0.000031
 102	1.0050e+01	1.0001	-12.173228	0.000328	3.275496	0.554884	0.000033
 103	1.0149e+01	1.0101	-12.138197	0.000352	3.521159	0.596500	0.000035
 104	1.0248e+01	1.0212	-12.105202	0.000332	3.316440	0.561820	0.000033
 105	1.0348e+01	1.0329	-12.075059	0.000303	3.029834	0.513268	0.000030
 106	1.0447e+01	1.0433	-12.040435	0.000348	3.480215	0.589564	0.000035
 107	1.0547e+01	1.0505	-12.002959	0.000377	3.766821	0.638117	0.000038
 108	1.0646e+01	1.0618	-11.972001	0.000311	3.111722	0.527140	0.000031
 109	1.0746e+01	1.0729	-11.938599	0.000336	3.357384	0.568756	0.000034
 110	1.0845e+01	1.0819	-11.901124	0.000377	3.766821	0.638117	0.000038
 111	1.0945e+01	1.0945	-11.864463	0.000368	3.684933	0.624245	0.000037
 112	1.1044e+01	1.1029	-11.831875	0.000328	3.275496	0.554884	0.000033
 113	1.1144e+01	1.1132	-11.796844	0.000352	3.521159	0.596500	0.000035
 114	1.1243e+01	1.1199	-11.759368	0.000377	3.766821	0.638117	0.000038
 115	1.1343e+01	1.1316	-11.724337	0.000352	3.521159	0.596500	0.000035
 116	1.1443e+01	1.1413	-11.695008	0.000295	2.947947	0.499396	0.000029
 117	1.1542e+01	1.1517	-11.656311	0.000389	3.889652	0.658925	0.000039
 118	1.1642e+01	1.1621	-11.619243	0.000373	3.725877	0.631181	0.000037
 119	1.1741e+01	1.1691	-11.582989	0.000364	3.643990	0.617309	0.000036
 120	1.1841e+01	1.1801	-11.553660	0.000295	2.947947	0.499396	0.000029
 121	1.1940e+01	1.1910	-11.515370	0.000385	3.848708	0.651989	0.000038
 122	1.2040e+01	1.1985	-11.481153	0.000344	3.439271	0.582628	0.000034
 123	1.2139e+01	1.2083	-11.446122	0.000352	3.521159	0.596500	0.000035
 124	1.2239e+01	1.2212	-11.408239	0.000381	3.807765	0.645053	0.000038
 125	1.2338e+01	1.2308	-11.373208	0.000352	3.521159	0.596500	0.000035
 126	1.2438e+01	1.2399	-11.334918	0.000385	3.848708	0.651989	0.000038
 127	1.2537e+01	1.2521	-11.301515	0.000336	3.357384	0.568756	0.000034
 128	1.2636e+01	1.2605	-11.263633	0.000381	3.807765	0.645053	0.000038
 129	1.2736e+01	1.2700	-11.230230	0.000336	3.357384	0.568756	0.000034
 130	1.2835e+01	1.2802	-11.191940	0.000385	3.848708	0.651989	0.000038
 131	1.2935e+01	1.2905	-11.154057	0.000381	3.807765	0.645053	0.000038
 132	1.3034e+01	1.2985	-11.117397	0.000368	3.684933	0.624245	0.000037
 133	1.3134e+01	1.3091	-11.077884	0.000397	3.971539	0.672797	0.000040
 134	1.3233e+01	1.3227	-11.044075	0.000340	3.398328	0.575692	0.000034
 135	1.3333e+01	1.3298	-11.009451	0.000348	3.480215	0.589564	0.000035
 136	1.3432e+01	1.3397	-10.969124	0.000405	4.053427	0.686669	0.000041
 137	1.3532e+01	1.3479	-10.935722	0.000336	3.357384	0.568756	0.000034
 138	1.3632e+01	1.3619	-10.899876	0.000360	3.603046	0.610373	0.000036
 139	1.3731e+01	1.3711	-10.860771	0.000393	3.930596	0.665861	0.000039
 140	1.3831e+01	1.3801	-10.826554	0.000344	3.439271	0.582628	0.000034
 141	1.3930e+01	1.3885	-10.791115	0.000356	3.562102	0.603436	0.000036
 142	1.4030e+01	1.3983	-10.754454	0.000368	3.684933	0.624245	0.000037
 143	1.4129e+01	1.4098	-10.716164	0.000385	3.848708	0.651989	0.000038
 144	1.4229e+01	1.4208	-10.678689	0.000377	3.766821	0.638117	0.000038
 145	1.4328e+01	1.4288	-10.648545	0.000303	3.029834	0.513268	0.000030
 146	1.4428e+01	1.4372	-10.617180	0.000315	3.152665	0.534076	0.000032
 147	1.4527e+01	1.4503	-10.573594	0.000438	4.380976	0.742158	0.000044
 148	1.4627e+01	1.4588	-10.534082	0.000397	3.971539	0.672797	0.000040
 149	1.4726e+01	1.4684	-10.498643	0.000356	3.562102	0.603436	0.000036
 150	1.4825e+01	1.4775	-10.462390	0.000364	3.643990	0.617309	0.000036
 151	1.4925e+01	1.4892	-10.426951	0.000356	3.562102	0.603436	0.000036
 152	1.5024e+01	1.4993	-10.392327	0.000348	3.480215	0.589564	0.000035
 153	1.5124e+01	1.5081	-10.354851	0.000377	3.766821	0.638117	0.000038
 154	1.5223e+01	1.5205	-10.315746	0.000393	3.930596	0.665861	0.000039
 155	1.5323e+01	1.5279	-10.283159	0.000328	3.275496	0.554884	0.000033
 156	1.5422e+01	1.5389	-10.248942	0.000344	3.439271	0.582628	0.000034
 157	1.5522e+01	1.5479	-10.212281	0.000368	3.684933	0.624245	0.000037
 158	1.5621e+01	1.5589	-10.176028	0.000364	3.643990	0.617309	0.000036
 159	1.5721e+01	1.5691	-10.144663	0.000315	3.152665	0.534076	0.000032
 160	1.5820e+01	1.5762	-10.110446	0.000344	3.439271	0.582628	0.000034
 161	1.5920e+01	1.5904	-10.071748	0.000389	3.889652	0.658925	0.000039
 162	1.6020e+01	1.5967	-10.038754	0.000332	3.316440	0.561820	0.000033
 163	1.6119e+01	1.6116	-10.005351	0.000336	3.357384	0.568756	0.000034
 164	1.6218e+01	1.6159	-9.968283	0.000373	3.725877	0.631181	0.000037
 165	1.6318e+01	1.6269	-9.937325	0.000311	3.111722	0.527140	0.000031
 166	1.6418e+01	1.6394	-9.900257	0.000373	3.725877	0.631181	0.000037
 167	1.6517e+01	1.6489	-9.867670	0.000328	3.275496	0.554884	0.000033
 168	1.6616e+01	1.6555	-9.833860	0.000340	3.398328	0.575692	0.000034
 169	1.6716e+01	1.6670	-9.801273	0.000328	3.275496	0.554884	0.000033
 170	1.6816e+01	1.6800	-9.767056	0.000344	3.439271	0.582628	0.000034
 171	1.6915e+01	1.6865	-9.730803	0.000364	3.643990	0.617309	0.000036
 172	1.7015e+01	1.6986	-9.695771	0.000352	3.521159	0.596500	0.000035
 173	1.7114e+01	1.7076	-9.663591	0.000323	3.234553	0.547948	0.000032
 174	1.7213e+01	1.7188	-9.628967	0.000348	3.480215	0.589564	0.000035
 175	1.7313e+01	1.7269	-9.591899	0.000373	3.725877	0.631181	0.000037
 176	1.7413e+01	1.7359	-9.557682	0.000344	3.439271	0.582628	0.000034
 177	1.7512e+01	1.7461	-9.521428	0.000364	3.643990	0.617309	0.000036
 178	1.7611e+01	1.7547	-9.485990	0.000356	3.562102	0.603436	0.000036
 179	1.7711e+01	1.7667	-9.446885	0.000393	3.930596	0.665861	0.000039
 180	1.7811e+01	1.7780	-9.413483	0.000336	3.357384	0.568756	0.000034
 181	1.7910e+01	1.7852	-9.380081	0.000336	3.357384	0.568756	0.000034
 182	1.8009e+01	1.7968	-9.344234	0.000360	3.603046	0.610373	0.000036
 183	1.8109e+01	1.8075	-9.314091	0.000303	3.029834	0.513268	0.000030
 184	1.8209e+01	1.8177	-9.274579	0.000397	3.971539	0.672797	0.000040
 185	1.8308e+01	1.8272	-9.241584	0.000332	3.316440	0.561820	0.000033
 186	1.8407e+01	1.8389	-9.202887	0.000389	3.889652	0.658925	0.000039
 187	1.8507e+01	1.8490	-9.169892	0.000332	3.316440	0.561820	0.000033
 188	1.8607e+01	1.8567	-9.135675	0.000344	3.439271	0.582628	0.000034
 189	1.8706e+01	1.8639	-9.102680	0.000332	3.316440	0.561820	0.000033
 190	1.8805e+01	1.8766	-9.063575	0.000393	3.930596	0.665861	0.000039
 191	1.8905e+01	1.8835	-9.032617	0.000311	3.111722	0.527140	0.000031
 192	1.9005e+01	1.9002	-8.998401	0.000344	3.439271	0.582628	0.000034
 193	1.9104e+01	1.9061	-8.962147	0.000364	3.643990	0.617309	0.000036
 194	1.9203e+01	1.9183	-8.927930	0.000344	3.439271	0.582628	0.000034
 195	1.9303e+01	1.9269	-8.895750	0.000323	3.234553	0.547948	0.000032
 196	1.9402e+01	1.9352	-8.861534	0.000344	3.439271	0.582628	0.000034
 197	1.9502e+01	1.9482	-8.830983	0.000307	3.070778	0.520204	0.000031
 198	1.9602e+01	1.9559	-8.799617	0.000315	3.152665	0.534076	0.000032
 199	1.9701e+01	1.9672	-8.764586	0.000352	3.521159	0.596500	0.000035
 200	1.9800e+01	1.9762	-8.736479	0.000283	2.825116	0.478588	0.000028
 201	1.9900e+01	1.9849	-8.699004	0.000377	3.766821	0.638117	0.000038
 202	2.0000e+01	1.9973	-8.669675	0.000295	2.947947	0.499396	0.000029
 203	2.0099e+01	2.0077	-8.633014	0.000368	3.684933	0.624245	0.000037
 204	2.0198e+01	2.0147	-8.601649	0.000315	3.152665	0.534076	0.000032
 205	2.0298e+01	2.0262	-8.570691	0.000311	3.111722	0.527140	0.000031
 206	2.0398e+01	2.0370	-8.537289	0.000336	3.357384	0.568756	0.000034
 207	2.0497e+01	2.0486	-8.503887	0.000336	3.357384	0.568756	0.000034
 208	2.0596e+01	2.0584	-8.474151	0.000299	2.988890	0.506332	0.000030
 209	2.0696e+01	2.0656	-8.439527	0.000348	3.480215	0.589564	0.000035
 210	2.0796e+01	2.0731	-8.410198	0.000295	2.947947	0.499396	0.000029
 211	2.0895e+01	2.0851	-8.375167	0.000352	3.521159	0.596500	0.000035
 212	2.0994e+01	2.0979	-8.342172	0.000332	3.316440	0.561820	0.000033
 213	2.1094e+01	2.1072	-8.314472	0.000278	2.784172	0.471651	0.000028
 214	2.1194e+01	2.1159	-8.286366	0.000283	2.825116	0.478588	0.000028
 215	2.1293e+01	2.1240	-8.253778	0.000328	3.275496	0.554884	0.000033
 216	2.1392e+01	2.1361	-8.225264	0.000287	2.866059	0.485524	0.000029
 217	2.1492e+01	2.1470	-8.192677	0.000328	3.275496	0.554884	0.000033
 218	2.1591e+01	2.1544	-8.163756	0.000291	2.907003	0.492460	0.000029
 219	2.1691e+01	2.1663	-8.133205	0.000307	3.070778	0.520204	0.000031
 220	2.1791e+01	2.1745	-8.102654	0.000307	3.070778	0.520204	0.000031
 221	2.1890e+01	2.1854	-8.071289	0.000315	3.152665	0.534076	0.000032
 222	2.1989e+01	2.1956	-8.039924	0.000315	3.152665	0.534076	0.000032
 223	2.2089e+01	2.2070	-8.011002	0.000291	2.907003	0.492460	0.000029
 224	2.2189e+01	2.2175	-7.980044	0.000311	3.111722	0.527140	0.000031
 225	2.2288e+01	2.2248	-7.951530	0.000287	2.866059	0.485524	0.000029
 226	2.2387e+01	2.2344	-7.920980	0.000307	3.070778	0.520204	0.000031
 227	2.2487e+01	2.2445	-7.892873	0.000283	2.825116	0.478588	0.000028
 228	2.2587e+01	2.2583	-7.860693	0.000323	3.234553	0.547948	0.000032
 229	2.2686e+01	2.2629	-7.830957	0.000299	2.988890	0.506332	0.000030
 230	2.2785e+01	2.2757	-7.801628	0.000295	2.947947	0.499396	0.000029
 231	2.2885e+01	2.2852	-7.770670	0.000311	3.111722	0.527140	0.000031
 232	2.2985e+01	2.2955	-7.740934	0.000299	2.988890	0.506332	0.000030
 233	2.3084e+01	2.3039	-7.707532	0.000336	3.357384	0.568756	0.000034
 234	2.3183e+01	2.3138	-7.676167	0.000315	3.152665	0.534076	0.000032
 235	2.3283e+01	2.3227	-7.646838	0.000295	2.947947	0.499396	0.000029
 236	2.3383e+01	2.3366	-7.615065	0.000319	3.193609	0.541012	0.000032
 237	2.3482e+01	2.3459	-7.584922	0.000303	3.029834	0.513268	0.000030
 238	2.3581e+01	2.3565	-7.545817	0.000393	3.930596	0.665861	0.000039
 239	2.3681e+01	2.3615	-7.520155	0.000258	2.579453	0.436971	0.000026
 240	2.3780e+01	2.3783	-7.485938	0.000344	3.439271	0.582628	0.000034
 241	2.3880e+01	2.3868	-7.456202	0.000299	2.988890	0.506332	0.000030
 242	2.3980e+01	2.3933	-7.426466	0.000299	2.988890	0.506332	0.000030
 243	2.4079e+01	2.4056	-7.393878	0.000328	3.275496	0.554884	0.000033
 244	2.4178e+01	2.4148	-7.362106	0.000319	3.193609	0.541012	0.000032
 245	2.4278e+01	2.4226	-7.329518	0.000328	3.275496	0.554884	0.000033
 246	2.4378e+01	2.4331	-7.299782	0.000299	2.988890	0.506332	0.000030
 247	2.4477e+01	2.4421	-7.267602	0.000323	3.234553	0.547948	0.000032
 248	2.4576e+01	2.4537	-7.237866	0.000299	2.988890	0.506332	0.000030
 249	2.4676e+01	2.4638	-7.206093	0.000319	3.193609	0.541012	0.000032
 250	2.4776e+01	2.4728	-7.171062	0.000352	3.521159	0.596500	0.000035
 251	2.4875e+01	2.4866	-7.143363	0.000278	2.784172	0.471651	0.000028
 252	2.4974e+01	2.4940	-7.109146	0.000344	3.439271	0.582628	0.000034
 253	2.5074e+01	2.5027	-7.076151	0.000332	3.316440	0.561820	0.000033
 254	2.5174e+01	2.5123	-7.047637	0.000287	2.866059	0.485524	0.000029
 255	2.5273e+01	2.5241	-7.015864	0.000319	3.193609	0.541012	0.000032
 256	2.5372e+01	2.5332	-6.984906	0.000311	3.111722	0.527140	0.000031
 257	2.5472e+01	2.5442	-6.956392	0.000287	2.866059	0.485524	0.000029
 258	2.5572e+01	2.5532	-6.924212	0.000323	3.234553	0.547948	0.000032
 259	2.5671e+01	2.5644	-6.890403	0.000340	3.398328	0.575692	0.000034
 260	2.5770e+01	2.5764	-6.861482	0.000291	2.907003	0.492460	0.000029
 261	2.5870e+01	2.5808	-6.835004	0.000266	2.661341	0.450843	0.000027
 262	2.5970e+01	2.5929	-6.804861	0.000303	3.029834	0.513268	0.000030
 263	2.6069e+01	2.6037	-6.777162	0.000278	2.784172	0.471651	0.000028
 264	2.6169e+01	2.6110	-6.744574	0.000328	3.275496	0.554884	0.000033
 265	2.6268e+01	2.6250	-6.713209	0.000315	3.152665	0.534076	0.000032
 266	2.6367e+01	2.6315	-6.680622	0.000328	3.275496	0.554884	0.000033
 267	2.6467e+01	2.6408	-6.652108	0.000287	2.866059	0.485524	0.000029
 268	2.6567e+01	2.6519	-6.620742	0.000315	3.152665	0.534076	0.000032
 269	2.6666e+01	2.6621	-6.588562	0.000323	3.234553	0.547948	0.000032
 270	2.6765e+01	2.6722	-6.562900	0.000258	2.579453	0.436971	0.000026
 271	2.6865e+01	2.6817	-6.528683	0.000344	3.439271	0.582628	0.000034
 272	2.6965e+01	2.6935	-6.500576	0.000283	2.825116	0.478588	0.000028
 273	2.7064e+01	2.7029	-6.469211	0.000315	3.152665	0.534076	0.000032
 274	2.7163e+01	2.7114	-6.439067	0.000303	3.029834	0.513268	0.000030
 275	2.7263e+01	2.7235	-6.412590	0.000266	2.661341	0.450843	0.000027
 276	2.7363e+01	2.7316	-6.377151	0.000356	3.562102	0.603436	0.000036
 277	2.7462e+01	2.7415	-6.349452	0.000278	2.784172	0.471651	0.000028
 278	2.7561e+01	2.7522	-6.315643	0.000340	3.398328	0.575692	0.000034
 279	2.7661e+01	2.7658	-6.285907	0.000299	2.988890	0.506332	0.000030
 280	2.7761e+01	2.7729	-6.255763	0.000303	3.029834	0.513268	0.000030
 281	2.7860e+01	2.7815	-6.223176	0.000328	3.275496	0.554884	0.000033
 282	2.7959e+01	2.7901	-6.191403	0.000319	3.193609	0.541012	0.000032
 283	2.8059e+01	2.8030	-6.160445	0.000311	3.111722	0.527140	0.000031
 284	2.8159e+01	2.8105	-6.125006	0.000356	3.562102	0.603436	0.000036
 285	2.8258e+01	2.8239	-6.096900	0.000283	2.825116	0.478588	0.000028
 286	2.8358e+01	2.8365	-6.063498	0.000336	3.357384	0.568756	0.000034
 287	2.8457e+01	2.8416	-6.034576	0.000291	2.907003	0.492460	0.000029
 288	2.8556e+01	2.8540	-6.002396	0.000323	3.234553	0.547948	0.000032
 289	2.8656e+01	2.8632	-5.969401	0.000332	3.316440	0.561820	0.000033
 290	2.8756e+01	2.8708	-5.938036	0.000315	3.152665	0.534076	0.000032
 291	2.8855e+01	2.8815	-5.904227	0.000340	3.398328	0.575692	0.000034
 292	2.8954e+01	2.8904	-5.875305	0.000291	2.907003	0.492460	0.000029
 293	2.9054e+01	2.9023	-5.839866	0.000356	3.562102	0.603436	0.000036
 294	2.9154e+01	2.9113	-5.811760	0.000283	2.825116	0.478588	0.000028
 295	2.9253e+01	2.9243	-5.778765	0.000332	3.316440	0.561820	0.000033
 296	2.9352e+01	2.9308	-5.740475	0.000385	3.848708	0.651989	0.000038
 297	2.9452e+01	2.9412	-5.709924	0.000307	3.070778	0.520204	0.000031
 298	2.9552e+01	2.9488	-5.675300	0.000348	3.480215	0.589564	0.000035
 299	2.9651e+01	2.9631	-5.643120	0.000323	3.234553	0.547948	0.000032
 300	2.9750e+01	2.9707	-5.610125	0.000332	3.316440	0.561820	0.000033
 301	2.9850e+01	2.9794	-5.576316	0.000340	3.398328	0.575692	0.000034
 302	2.9950e+01	2.9922	-5.541692	0.000348	3.480215	0.589564	0.000035
 303	3.0049e+01	3.0014	-5.509512	0.000323	3.234553	0.547948	0.000032
 304	3.0148e+01	3.0096	-5.474888	0.000348	3.480215	0.589564	0.000035
 305	3.0248e+01	3.0217	-5.443522	0.000315	3.152665	0.534076	0.000032
 306	3.0348e+01	3.0291	-5.410935	0.000328	3.275496	0.554884	0.000033
 307	3.0447e+01	3.0410	-5.382013	0.000291	2.907003	0.492460	0.000029
 308	3.0547e+01	3.0496	-5.342094	0.000401	4.012483	0.679733	0.000040
 309	3.0646e+01	3.0599	-5.307470	0.000348	3.480215	0.589564	0.000035
 310	3.0745e+01	3.0689	-5.278956	0.000287	2.866059	0.485524	0.000029
 311	3.0845e+01	3.0803	-5.243110	0.000360	3.603046	0.610373	0.000036
 312	3.0945e+01	3.0923	-5.211744	0.000315	3.152665	0.534076	0.000032
 313	3.1044e+01	3.0997	-5.176305	0.000356	3.562102	0.603436	0.000036
 314	3.1143e+01	3.1104	-5.141274	0.000352	3.521159	0.596500	0.000035
 315	3.1243e+01	3.1200	-5.108279	0.000332	3.316440	0.561820	0.000033
 316	3.1343e+01	3.1319	-5.078136	0.000303	3.029834	0.513268	0.000030
 317	3.1442e+01	3.1437	-5.045549	0.000328	3.275496	0.554884	0.000033
 318	3.1541e+01	3.1536	-5.015405	0.000303	3.029834	0.513268	0.000030
 319	3.1641e+01	3.1603	-4.982003	0.000336	3.357384	0.568756	0.000034
 320	3.1741e+01	3.1667	-4.950638	0.000315	3.152665	0.534076	0.000032
 321	3.1840e+01	3.1789	-4.921716	0.000291	2.907003	0.492460	0.000029
 322	3.1939e+01	3.1892	-4.892388	0.000295	2.947947	0.499396	0.000029
 323	3.2039e+01	3.2018	-4.857356	0.000352	3.521159	0.596500	0.000035
 324	3.2139e+01	3.2104	-4.824362	0.000332	3.316440	0.561820	0.000033
 325	3.2238e+01	3.2201	-4.794626	0.000299	2.988890	0.506332	0.000030
 326	3.2337e+01	3.2354	-4.762445	0.000323	3.234553	0.547948	0.000032
 327	3.2437e+01	3.2410	-4.732302	0.000303	3.029834	0.513268	0.000030
 328	3.2536e+01	3.2503	-4.700937	0.000315	3.152665	0.534076	0.000032
 329	3.2636e+01	3.2599	-4.670386	0.000307	3.070778	0.520204	0.000031
 330	3.2736e+01	3.2719	-4.636169	0.000344	3.439271	0.582628	0.000034
 331	3.2835e+01	3.2785	-4.607655	0.000287	2.866059	0.485524	0.000029
 332	3.2934e+01	3.2897	-4.579141	0.000287	2.866059	0.485524	0.000029
 333	3.3034e+01	3.2992	-4.546147	0.000332	3.316440	0.561820	0.000033
 334	3.3133e+01	3.3088	-4.517633	0.000287	2.866059	0.485524	0.000029
 335	3.3233e+01	3.3219	-4.486267	0.000315	3.152665	0.534076	0.000032
 336	3.3333e+01	3.3284	-4.456124	0.000303	3.029834	0.513268	0.000030
 337	3.3432e+01	3.3415	-4.424758	0.000315	3.152665	0.534076	0.000032
 338	3.3532e+01	3.3469	-4.395430	0.000295	2.947947	0.499396	0.000029
 339	3.3631e+01	3.3602	-4.362435	0.000332	3.316440	0.561820	0.000033
 340	3.3730e+01	3.3688	-4.327404	0.000352	3.521159	0.596500	0.000035
 341	3.3830e+01	3.3784	-4.299704	0.000278	2.784172	0.471651	0.000028
 342	3.3929e+01	3.3875	-4.267932	0.000319	3.193609	0.541012	0.000032
 343	3.4029e+01	3.3990	-4.234529	0.000336	3.357384	0.568756	0.000034
 344	3.4129e+01	3.4108	-4.201535	0.000332	3.316440	0.561820	0.000033
 345	3.4228e+01	3.4203	-4.171391	0.000303	3.029834	0.513268	0.000030
 346	3.4328e+01	3.4284	-4.138804	0.000328	3.275496	0.554884	0.000033
 347	3.4427e+01	3.4402	-4.108253	0.000307	3.070778	0.520204	0.000031
 348	3.4526e+01	3.4475	-4.076073	0.000323	3.234553	0.547948	0.000032
 349	3.4626e+01	3.4579	-4.047967	0.000283	2.825116	0.478588	0.000028
 350	3.4725e+01	3.4661	-4.012935	0.000352	3.521159	0.596500	0.000035
 351	3.4825e+01	3.4803	-3.985643	0.000274	2.743228	0.464715	0.000027
 352	3.4925e+01	3.4867	-3.954685	0.000311	3.111722	0.527140	0.000031
 353	3.5024e+01	3.4989	-3.918839	0.000360	3.603046	0.610373	0.000036
 354	3.5123e+01	3.5072	-3.889510	0.000295	2.947947	0.499396	0.000029
 355	3.5223e+01	3.5172	-3.859774	0.000299	2.988890	0.506332	0.000030
 356	3.5322e+01	3.5278	-3.828409	0.000315	3.152665	0.534076	0.000032
 357	3.5422e+01	3.5378	-3.795007	0.000336	3.357384	0.568756	0.000034
 358	3.5522e+01	3.5473	-3.761605	0.000336	3.357384	0.568756	0.000034
 359	3.5621e+01	3.5588	-3.731461	0.000303	3.029834	0.513268	0.000030
 360	3.5721e+01	3.5661	-3.704169	0.000274	2.743228	0.464715	0.000027
 361	3.5820e+01	3.5799	-3.669545	0.000348	3.480215	0.589564	0.000035
 362	3.5919e+01	3.5857	-3.641846	0.000278	2.784172	0.471651	0.000028
 363	3.6019e+01	3.5978	-3.613739	0.000283	2.825116	0.478588	0.000028
 364	3.6118e+01	3.6077	-3.584003	0.000299	2.988890	0.506332	0.000030
 365	3.6218e+01	3.6163	-3.553453	0.000307	3.070778	0.520204	0.000031
 366	3.6318e+01	3.6271	-3.524124	0.000295	2.947947	0.499396	0.000029
 367	3.6417e+01	3.6402	-3.494388	0.000299	2.988890	0.506332	0.000030
 368	3.6517e+01	3.6501	-3.467096	0.000274	2.743228	0.464715	0.000027
 369	3.6616e+01	3.6599	-3.436138	0.000311	3.111722	0.527140	0.000031
 370	3.6715e+01	3.6658	-3.405995	0.000303	3.029834	0.513268	0.000030
 371	3.6815e+01	3.6801	-3.376259	0.000299	2.988890	0.506332	0.000030
 372	3.6914e+01	3.6876	-3.350596	0.000258	2.579453	0.436971	0.000026
 373	3.7014e+01	3.6996	-3.318823	0.000319	3.193609	0.541012	0.000032
 374	3.7114e+01	3.7088	-3.289087	0.000299	2.988890	0.506332	0.000030
 375	3.7213e+01	3.7183	-3.262610	0.000266	2.661341	0.450843	0.000027
 376	3.7313e+01	3.7304	-3.233282	0.000295	2.947947	0.499396	0.000029
 377	3.7412e+01	3.7370	-3.201916	0.000315	3.152665	0.534076	0.000032
 378	3.7511e+01	3.7470	-3.177883	0.000242	2.415679	0.409227	0.000024
 379	3.7611e+01	3.7592	-3.148554	0.000295	2.947947	0.499396	0.000029
 380	3.7711e+01	3.7685	-3.120448	0.000283	2.825116	0.478588	0.000028
 381	3.7810e+01	3.7803	-3.093970	0.000266	2.661341	0.450843	0.000027
 382	3.7910e+01	3.7860	-3.069937	0.000242	2.415679	0.409227	0.000024
 383	3.8009e+01	3.7936	-3.043867	0.000262	2.620397	0.443907	0.000026
 384	3.8108e+01	3.8049	-3.015353	0.000287	2.866059	0.485524	0.000029
 385	3.8208e+01	3.8184	-2.992542	0.000229	2.292848	0.388419	0.000023
 386	3.8307e+01	3.8261	-2.957918	0.000348	3.480215	0.589564	0.000035
 387	3.8407e+01	3.8366	-2.932663	0.000254	2.538510	0.430035	0.000025
 388	3.8507e+01	3.8457	-2.901705	0.000311	3.111722	0.527140	0.000031
 389	3.8606e+01	3.8594	-2.876042	0.000258	2.579453	0.436971	0.000026
 390	3.8706e+01	3.8688	-2.851602	0.000246	2.456622	0.416163	0.000025
 391	3.8805e+01	3.8756	-2.826754	0.000250	2.497566	0.423099	0.000025
 392	3.8904e+01	3.8880	-2.798240	0.000287	2.866059	0.485524	0.000029
 393	3.9004e+01	3.8952	-2.769318	0.000291	2.907003	0.492460	0.000029
 394	3.9103e+01	3.9006	-2.746100	0.000233	2.333791	0.395355	0.000023
 395	3.9203e+01	3.9194	-2.716771	0.000295	2.947947	0.499396	0.000029
 396	3.9303e+01	3.9288	-2.692738	0.000242	2.415679	0.409227	0.000024
 397	3.9402e+01	3.9354	-2.665853	0.000270	2.702285	0.457779	0.000027
 398	3.9502e+01	3.9426	-2.638154	0.000278	2.784172	0.471651	0.000028
 399	3.9601e+01	3.9572	-2.613306	0.000250	2.497566	0.423099	0.000025
 400	3.9700e+01	3.9677	-2.581941	0.000315	3.152665	0.534076	0.000032
 401	3.9800e+01	3.9768	-2.553427	0.000287	2.866059	0.485524	0.000029
 402	3.9900e+01	3.9849	-2.530208	0.000233	2.333791	0.395355	0.000023
 403	3.9999e+01	3.9976	-2.498843	0.000315	3.152665	0.534076	0.000032
 404	4.0099e+01	4.0076	-2.473180	0.000258	2.579453	0.436971	0.000026
 405	4.0198e+01	4.0174	-2.443037	0.000303	3.029834	0.513268	0.000030
 406	4.0297e+01	4.0266	-2.414116	0.000291	2.907003	0.492460	0.000029
 407	4.0397e+01	4.0393	-2.384787	0.000295	2.947947	0.499396	0.000029
 408	4.0496e+01	4.0473	-2.357902	0.000270	2.702285	0.457779	0.000027
 409	4.0596e+01	4.0565	-2.328574	0.000295	2.947947	0.499396	0.000029
 410	4.0696e+01	4.0680	-2.299245	0.000295	2.947947	0.499396	0.000029
 411	4.0795e+01	4.0767	-2.271953	0.000274	2.743228	0.464715	0.000027
 412	4.0895e+01	4.0833	-2.245883	0.000262	2.620397	0.443907	0.000026
 413	4.0994e+01	4.0961	-2.214925	0.000311	3.111722	0.527140	0.000031
 414	4.1093e+01	4.1061	-2.188448	0.000266	2.661341	0.450843	0.000027
 415	4.1193e+01	4.1153	-2.159527	0.000291	2.907003	0.492460	0.000029
 416	4.1292e+01	4.1262	-2.131827	0.000278	2.784172	0.471651	0.000028
 417	4.1392e+01	4.1350	-2.106979	0.000250	2.497566	0.423099	0.000025
 418	4.1492e+01	4.1450	-2.075614	0.000315	3.152665	0.534076	0.000032
 419	4.1591e+01	4.1567	-2.045063	0.000307	3.070778	0.520204	0.000031
 420	4.1691e+01	4.1647	-2.016957	0.000283	2.825116	0.478588	0.000028
 421	4.1790e+01	4.1744	-1.988850	0.000283	2.825116	0.478588	0.000028
 422	4.1889e+01	4.1857	-1.959521	0.000295	2.947947	0.499396	0.000029
 423	4.1989e+01	4.1973	-1.931415	0.000283	2.825116	0.478588	0.000028
 424	4.2089e+01	4.2045	-1.904123	0.000274	2.743228	0.464715	0.000027
 425	4.2188e+01	4.2135	-1.877238	0.000270	2.702285	0.457779	0.000027
 426	4.2288e+01	4.2240	-1.851168	0.000262	2.620397	0.443907	0.000026
 427	4.2387e+01	4.2339	-1.825098	0.000262	2.620397	0.443907	0.000026
 428	4.2486e+01	4.2443	-1.799028	0.000262	2.620397	0.443907	0.000026
 429	4.2586e+01	4.2547	-1.770514	0.000287	2.866059	0.485524	0.000029
 430	4.2685e+01	4.2649	-1.744444	0.000262	2.620397	0.443907	0.000026
 431	4.2785e+01	4.2753	-1.718782	0.000258	2.579453	0.436971	0.000026
 432	4.2885e+01	4.2855	-1.689861	0.000291	2.907003	0.492460	0.000029
 433	4.2984e+01	4.2942	-1.661754	0.000283	2.825116	0.478588	0.000028
 434	4.3084e+01	4.3037	-1.632833	0.000291	2.907003	0.492460	0.000029
 435	4.3183e+01	4.3139	-1.603911	0.000291	2.907003	0.492460	0.000029
 436	4.3282e+01	4.3237	-1.576619	0.000274	2.743228	0.464715	0.000027
 437	4.3382e+01	4.3349	-1.549735	0.000270	2.702285	0.457779	0.000027
 438	4.3481e+01	4.3459	-1.526109	0.000237	2.374735	0.402291	0.000024
 439	4.3581e+01	4.3548	-1.501261	0.000250	2.497566	0.423099	0.000025
 440	4.3681e+01	4.3639	-1.471525	0.000299	2.988890	0.506332	0.000030
 441	4.3780e+01	4.3725	-1.442196	0.000295	2.947947	0.499396	0.000029
 442	4.3880e+01	4.3841	-1.415719	0.000266	2.661341	0.450843	0.000027
 443	4.3979e+01	4.3954	-1.390871	0.000250	2.497566	0.423099	0.000025
 444	4.4078e+01	4.4036	-1.363987	0.000270	2.702285	0.457779	0.000027
 445	4.4178e+01	4.4135	-1.335880	0.000283	2.825116	0.478588	0.000028
 446	4.4278e+01	4.4212	-1.309403	0.000266	2.661341	0.450843	0.000027
 447	4.4377e+01	4.4372	-1.279259	0.000303	3.029834	0.513268	0.000030
 448	4.4477e+01	4.4448	-1.247487	0.000319	3.193609	0.541012	0.000032
 449	4.4576e+01	4.4536	-1.221009	0.000266	2.661341	0.450843	0.000027
 450	4.4675e+01	4.4647	-1.193310	0.000278	2.784172	0.471651	0.000028
 451	4.4775e+01	4.4746	-1.165203	0.000283	2.825116	0.478588	0.000028
 452	4.4874e+01	4.4837	-1.134245	0.000311	3.111722	0.527140	0.000031
 453	4.4974e+01	4.4949	-1.106953	0.000274	2.743228	0.464715	0.000027
 454	4.5074e+01	4.5033	-1.080069	0.000270	2.702285	0.457779	0.000027
 455	4.5173e+01	4.5145	-1.047889	0.000323	3.234553	0.547948	0.000032
 456	4.5273e+01	4.5234	-1.020189	0.000278	2.784172	0.471651	0.000028
 457	4.5372e+01	4.5347	-0.992490	0.000278	2.784172	0.471651	0.000028
 458	4.5471e+01	4.5431	-0.961125	0.000315	3.152665	0.534076	0.000032
 459	4.5571e+01	4.5538	-0.933833	0.000274	2.743228	0.464715	0.000027
 460	4.5670e+01	4.5654	-0.908985	0.000250	2.497566	0.423099	0.000025
 461	4.5770e+01	4.5723	-0.876805	0.000323	3.234553	0.547948	0.000032
 462	4.5870e+01	4.5812	-0.850328	0.000266	2.661341	0.450843	0.000027
 463	4.5969e+01	4.5938	-0.820999	0.000295	2.947947	0.499396	0.000029
 464	4.6069e+01	4.6043	-0.782301	0.000389	3.889652	0.658925	0.000039
 465	4.6168e+01	4.6128	-0.757453	0.000250	2.497566	0.423099	0.000025
 466	4.6267e+01	4.6239	-0.725273	0.000323	3.234553	0.547948	0.000032
 467	4.6367e+01	4.6343	-0.694315	0.000311	3.111722	0.527140	0.000031
 468	4.6467e+01	4.6455	-0.664579	0.000299	2.988890	0.506332	0.000030
 469	4.6566e+01	4.6545	-0.631177	0.000336	3.357384	0.568756	0.000034
 470	4.6666e+01	4.6626	-0.601441	0.000299	2.988890	0.506332	0.000030
 471	4.6765e+01	4.6737	-0.571298	0.000303	3.029834	0.513268	0.000030
 472	4.6864e+01	4.6841	-0.542784	0.000287	2.866059	0.485524	0.000029
 473	4.6964e+01	4.6905	-0.512641	0.000303	3.029834	0.513268	0.000030
 474	4.7063e+01	4.7017	-0.483312	0.000295	2.947947	0.499396	0.000029
 475	4.7163e+01	4.7144	-0.451947	0.000315	3.152665	0.534076	0.000032
 476	4.7263e+01	4.7239	-0.420174	0.000319	3.193609	0.541012	0.000032
 477	4.7362e+01	4.7344	-0.389216	0.000311	3.111722	0.527140	0.000031
 478	4.7462e+01	4.7453	-0.355814	0.000336	3.357384	0.568756	0.000034
 479	4.7561e+01	4.7531	-0.325670	0.000303	3.029834	0.513268	0.000030
 480	4.7660e+01	4.7643	-0.296342	0.000295	2.947947	0.499396	0.000029
 481	4.7760e+01	4.7731	-0.267420	0.000291	2.907003	0.492460	0.000029
 482	4.7859e+01	4.7803	-0.239721	0.000278	2.784172	0.471651	0.000028
 483	4.7959e+01	4.7928	-0.207541	0.000323	3.234553	0.547948	0.000032
 484	4.8059e+01	4.8026	-0.178620	0.000291	2.907003	0.492460	0.000029
 485	4.8158e+01	4.8122	-0.150920	0.000278	2.784172	0.471651	0.000028
 486	4.8258e+01	4.8211	-0.118333	0.000328	3.275496	0.554884	0.000033
 487	4.8357e+01	4.8357	-0.093078	0.000254	2.538510	0.430035	0.000025
 488	4.8456e+01	4.8412	-0.059268	0.000340	3.398328	0.575692	0.000034
 489	4.8556e+01	4.8528	-0.035642	0.000237	2.374735	0.402291	0.000024
 490	4.8656e+01	4.8614	-0.006314	0.000295	2.947947	0.499396	0.000029
 491	4.8755e+01	4.8724	0.018534	0.000250	2.497566	0.423099	0.000025
 492	4.8855e+01	4.8833	0.047455	0.000291	2.907003	0.492460	0.000029
 493	4.8954e+01	4.8921	0.074747	0.000274	2.743228	0.464715	0.000027
 494	4.9053e+01	4.9020	0.106113	0.000315	3.152665	0.534076	0.000032
 495	4.9153e+01	4.9110	0.130961	0.000250	2.497566	0.423099	0.000025
 496	4.9252e+01	4.9207	0.169658	0.000389	3.889652	0.658925	0.000039
 497	4.9352e+01	4.9323	0.191247	0.000217	2.170016	0.367611	0.000022
 498	4.9452e+01	4.9418	0.222613	0.000315	3.152665	0.534076	0.000032
 499	4.9551e+01	4.9503	0.254385	0.000319	3.193609	0.541012	0.000032
 500	4.9651e+01	4.9593	0.278826	0.000246	2.456622	0.416163	0.000025
 501	4.9750e+01	4.9726	0.305711	0.000270	2.702285	0.457779	0.000027
 502	4.9849e+01	4.9828	0.337891	0.000323	3.234553	0.547948	0.000032
 503	4.9949e+01	4.9920	0.364775	0.000270	2.702285	0.457779	0.000027
 504	5.0048e+01	5.0026	0.389623	0.000250	2.497566	0.423099	0.000025
 505	5.0148e+01	5.0111	0.418137	0.000287	2.866059	0.485524	0.000029
 506	5.0248e+01	5.0195	0.445429	0.000274	2.743228	0.464715	0.000027
 507	5.0347e+01	5.0298	0.471906	0.000266	2.661341	0.450843	0.000027
 508	5.0447e+01	5.0399	0.500420	0.000287	2.866059	0.485524	0.000029
 509	5.0546e+01	5.0506	0.528120	0.000278	2.784172	0.471651	0.000028
 510	5.0645e+01	5.0610	0.560300	0.000323	3.234553	0.547948	0.000032
 511	5.0745e+01	5.0724	0.587184	0.000270	2.702285	0.457779	0.000027
 512	5.0844e+01	5.0787	0.617735	0.000307	3.070778	0.520204	0.000031
 513	5.0944e+01	5.0900	0.648286	0.000307	3.070778	0.520204	0.000031
 514	5.1044e+01	5.1006	0.679651	0.000315	3.152665	0.534076	0.000032
 515	5.1143e+01	5.1128	0.705314	0.000258	2.579453	0.436971	0.000026
 516	5.1242e+01	5.1227	0.736679	0.000315	3.152665	0.534076	0.000032
 517	5.1342e+01	5.1270	0.760712	0.000242	2.415679	0.409227	0.000024
 518	5.1441e+01	5.1408	0.790856	0.000303	3.029834	0.513268	0.000030
 519	5.1541e+01	5.1512	0.819777	0.000291	2.907003	0.492460	0.000029
 520	5.1641e+01	5.1621	0.847069	0.000274	2.743228	0.464715	0.000027
 521	5.1740e+01	5.1702	0.875175	0.000283	2.825116	0.478588	0.000028
 522	5.1840e+01	5.1801	0.906134	0.000311	3.111722	0.527140	0.000031
 523	5.1939e+01	5.1891	0.933833	0.000278	2.784172	0.471651	0.000028
 524	5.2038e+01	5.2020	0.963161	0.000295	2.947947	0.499396	0.000029
 525	5.2138e+01	5.2089	0.991268	0.000283	2.825116	0.478588	0.000028
 526	5.2237e+01	5.2209	1.022226	0.000311	3.111722	0.527140	0.000031
 527	5.2337e+01	5.2290	1.047481	0.000254	2.538510	0.430035	0.000025
 528	5.2437e+01	5.2380	1.073959	0.000266	2.661341	0.450843	0.000027
 529	5.2536e+01	5.2501	1.106139	0.000323	3.234553	0.547948	0.000032
 530	5.2636e+01	5.2589	1.129765	0.000237	2.374735	0.402291	0.000024
 531	5.2735e+01	5.2715	1.155427	0.000258	2.579453	0.436971	0.000026
 532	5.2834e+01	5.2783	1.185163	0.000299	2.988890	0.506332	0.000030
 533	5.2934e+01	5.2893	1.211640	0.000266	2.661341	0.450843	0.000027
 534	5.3033e+01	5.3011	1.240969	0.000295	2.947947	0.499396	0.000029
 535	5.3133e+01	5.3089	1.262558	0.000217	2.170016	0.367611	0.000022
 536	5.3233e+01	5.3197	1.290258	0.000278	2.784172	0.471651	0.000028
 537	5.3332e+01	5.3294	1.313883	0.000237	2.374735	0.402291	0.000024
 538	5.3431e+01	5.3371	1.342805	0.000291	2.907003	0.492460	0.000029
 539	5.3531e+01	5.3519	1.372948	0.000303	3.029834	0.513268	0.000030
 540	5.3630e+01	5.3603	1.393723	0.000209	2.088129	0.353739	0.000021
 541	5.3730e+01	5.3696	1.423051	0.000295	2.947947	0.499396	0.000029
 542	5.3830e+01	5.3796	1.447899	0.000250	2.497566	0.423099	0.000025
 543	5.3929e+01	5.3883	1.476820	0.000291	2.907003	0.492460	0.000029
 544	5.4029e+01	5.3991	1.502890	0.000262	2.620397	0.443907	0.000026
 545	5.4128e+01	5.4102	1.524072	0.000213	2.129073	0.360675	0.000021
 546	5.4227e+01	5.4214	1.550549	0.000266	2.661341	0.450843	0.000027
 547	5.4327e+01	5.4263	1.579063	0.000287	2.866059	0.485524	0.000029
 548	5.4426e+01	5.4379	1.604319	0.000254	2.538510	0.430035	0.000025
 549	5.4526e+01	5.4484	1.624278	0.000201	2.006242	0.339867	0.000020
 550	5.4626e+01	5.4589	1.650756	0.000266	2.661341	0.450843	0.000027
 551	5.4725e+01	5.4705	1.675604	0.000250	2.497566	0.423099	0.000025
 552	5.4825e+01	5.4785	1.700859	0.000254	2.538510	0.430035	0.000025
 553	5.4924e+01	5.4896	1.719189	0.000184	1.842467	0.312122	0.000018
 554	5.5023e+01	5.4980	1.749740	0.000307	3.070778	0.520204	0.000031
 555	5.5123e+01	5.5108	1.776217	0.000266	2.661341	0.450843	0.000027
 556	5.5222e+01	5.5193	1.803102	0.000270	2.702285	0.457779	0.000027
 557	5.5322e+01	5.5271	1.825098	0.000221	2.210960	0.374547	0.000022
 558	5.5422e+01	5.5375	1.849132	0.000242	2.415679	0.409227	0.000024
 559	5.5521e+01	5.5498	1.872757	0.000237	2.374735	0.402291	0.000024
 560	5.5620e+01	5.5578	1.893939	0.000213	2.129073	0.360675	0.000021
 561	5.5720e+01	5.5679	1.917158	0.000233	2.333791	0.395355	0.000023
 562	5.5819e+01	5.5789	1.943635	0.000266	2.661341	0.450843	0.000027
 563	5.5919e+01	5.5886	1.967261	0.000237	2.374735	0.402291	0.000024
 564	5.6019e+01	5.6004	1.990072	0.000229	2.292848	0.388419	0.000023
 565	5.6118e+01	5.6091	2.012883	0.000229	2.292848	0.388419	0.000023
 566	5.6218e+01	5.6167	2.043027	0.000303	3.029834	0.513268	0.000030
 567	5.6317e+01	5.6295	2.069504	0.000266	2.661341	0.450843	0.000027
 568	5.6416e+01	5.6414	2.091500	0.000221	2.210960	0.374547	0.000022
 569	5.6516e+01	5.6497	2.118792	0.000274	2.743228	0.464715	0.000027
 570	5.6615e+01	5.6568	2.142418	0.000237	2.374735	0.402291	0.000024
 571	5.6715e+01	5.6676	2.170117	0.000278	2.784172	0.471651	0.000028
 572	5.6815e+01	5.6788	2.194151	0.000242	2.415679	0.409227	0.000024
 573	5.6914e+01	5.6886	2.219813	0.000258	2.579453	0.436971	0.000026
 574	5.7014e+01	5.6997	2.247105	0.000274	2.743228	0.464715	0.000027
 575	5.7113e+01	5.7078	2.276027	0.000291	2.907003	0.492460	0.000029
 576	5.7212e+01	5.7186	2.298838	0.000229	2.292848	0.388419	0.000023
 577	5.7312e+01	5.7288	2.325722	0.000270	2.702285	0.457779	0.000027
 578	5.7411e+01	5.7375	2.347311	0.000217	2.170016	0.367611	0.000022
 579	5.7511e+01	5.7484	2.373381	0.000262	2.620397	0.443907	0.000026
 580	5.7611e+01	5.7586	2.403117	0.000299	2.988890	0.506332	0.000030
 581	5.7710e+01	5.7685	2.426743	0.000237	2.374735	0.402291	0.000024
 582	5.7809e+01	5.7807	2.455665	0.000291	2.907003	0.492460	0.000029
 583	5.7909e+01	5.7872	2.478068	0.000225	2.251904	0.381483	0.000023
 584	5.8008e+01	5.7961	2.505768	0.000278	2.784172	0.471651	0.000028
 585	5.8108e+01	5.8089	2.533060	0.000274	2.743228	0.464715	0.000027
 586	5.8208e+01	5.8167	2.559130	0.000262	2.620397	0.443907	0.000026
 587	5.8307e+01	5.8279	2.582348	0.000233	2.333791	0.395355	0.000023
 588	5.8407e+01	5.8334	2.609233	0.000270	2.702285	0.457779	0.000027
 589	5.8506e+01	5.8454	2.634488	0.000254	2.538510	0.430035	0.000025
 590	5.8605e+01	5.8584	2.662187	0.000278	2.784172	0.471651	0.000028
 591	5.8705e+01	5.8662	2.687442	0.000254	2.538510	0.430035	0.000025
 592	5.8804e+01	5.8796	2.710661	0.000233	2.333791	0.395355	0.000023
 593	5.8904e+01	5.8852	2.735916	0.000254	2.538510	0.430035	0.000025
 594	5.9004e+01	5.8982	2.761986	0.000262	2.620397	0.443907	0.000026
 595	5.9103e+01	5.9072	2.784390	0.000225	2.251904	0.381483	0.000023
 596	5.9203e+01	5.9152	2.811275	0.000270	2.702285	0.457779	0.000027
 597	5.9302e+01	5.9274	2.835308	0.000242	2.415679	0.409227	0.000024
 598	5.9401e+01	5.9348	2.855268	0.000201	2.006242	0.339867	0.000020
 599	5.9501e+01	5.9476	2.885004	0.000299	2.988890	0.506332	0.000030
 600	5.9600e+01	5.9580	2.910666	0.000258	2.579453	0.436971	0.000026
 601	5.9700e+01	5.9657	2.935921	0.000254	2.538510	0.430035	0.000025
 602	5.9800e+01	5.9766	2.965250	0.000295	2.947947	0.499396	0.000029
 603	5.9899e+01	5.9866	2.985617	0.000205	2.047185	0.346803	0.000020
 604	5.9998e+01	5.9952	3.010872	0.000254	2.538510	0.430035	0.000025
 605	6.0098e+01	6.0069	3.035720	0.000250	2.497566	0.423099	0.000025
 606	6.0197e+01	6.0166	3.054865	0.000192	1.924354	0.325994	0.000019
 607	6.0297e+01	6.0256	3.085009	0.000303	3.029834	0.513268	0.000030
 608	6.0397e+01	6.0348	3.106598	0.000217	2.170016	0.367611	0.000022
 609	6.0496e+01	6.0469	3.134297	0.000278	2.784172	0.471651	0.000028
 610	6.0596e+01	6.0542	3.153850	0.000197	1.965298	0.332930	0.000020
 611	6.0695e+01	6.0689	3.184400	0.000307	3.070778	0.520204	0.000031
 612	6.0794e+01	6.0777	3.209656	0.000254	2.538510	0.430035	0.000025
 613	6.0894e+01	6.0908	3.232874	0.000233	2.333791	0.395355	0.000023
 614	6.0993e+01	6.0969	3.263018	0.000303	3.029834	0.513268	0.000030
 615	6.1093e+01	6.1071	3.285014	0.000221	2.210960	0.374547	0.000022
 616	6.1193e+01	6.1160	3.313528	0.000287	2.866059	0.485524	0.000029
 617	6.1292e+01	6.1251	3.341635	0.000283	2.825116	0.478588	0.000028
 618	6.1392e+01	6.1358	3.367705	0.000262	2.620397	0.443907	0.000026
 619	6.1491e+01	6.1434	3.394589	0.000270	2.702285	0.457779	0.000027
 620	6.1590e+01	6.1594	3.419844	0.000254	2.538510	0.430035	0.000025
 621	6.1690e+01	6.1628	3.449580	0.000299	2.988890	0.506332	0.000030
 622	6.1789e+01	6.1729	3.477687	0.000283	2.825116	0.478588	0.000028
 623	6.1889e+01	6.1858	3.499276	0.000217	2.170016	0.367611	0.000022
 624	6.1989e+01	6.1964	3.526568	0.000274	2.743228	0.464715	0.000027
 625	6.2088e+01	6.2038	3.555082	0.000287	2.866059	0.485524	0.000029
 626	6.2188e+01	6.2146	3.581152	0.000262	2.620397	0.443907	0.000026
 627	6.2287e+01	6.2243	3.607222	0.000262	2.620397	0.443907	0.000026
 628	6.2386e+01	6.2359	3.632070	0.000250	2.497566	0.423099	0.000025
 629	6.2486e+01	6.2461	3.660176	0.000283	2.825116	0.478588	0.000028
 630	6.2586e+01	6.2563	3.687876	0.000278	2.784172	0.471651	0.000028
 631	6.2685e+01	6.2646	3.716797	0.000291	2.907003	0.492460	0.000029
 632	6.2785e+01	6.2724	3.747348	0.000307	3.070778	0.520204	0.000031
 633	6.2884e+01	6.2868	3.775047	0.000278	2.784172	0.471651	0.000028
 634	6.2983e+01	6.2943	3.805190	0.000303	3.029834	0.513268	0.000030
 635	6.3083e+01	6.3005	3.834112	0.000291	2.907003	0.492460	0.000029
 636	6.3182e+01	6.3155	3.860182	0.000262	2.620397	0.443907	0.000026
 637	6.3282e+01	6.3247	3.886659	0.000266	2.661341	0.450843	0.000027
 638	6.3382e+01	6.3351	3.915173	0.000287	2.866059	0.485524	0.000029
 639	6.3481e+01	6.3423	3.944094	0.000291	2.907003	0.492460	0.000029
 640	6.3581e+01	6.3540	3.970572	0.000266	2.661341	0.450843	0.000027
 641	6.3680e+01	6.3642	4.000308	0.000299	2.988890	0.506332	0.000030
 642	6.3779e+01	6.3751	4.028007	0.000278	2.784172	0.471651	0.000028
 643	6.3879e+01	6.3836	4.057335	0.000295	2.947947	0.499396	0.000029
 644	6.3978e+01	6.3941	4.082183	0.000250	2.497566	0.423099	0.000025
 645	6.4078e+01	6.4008	4.111512	0.000295	2.947947	0.499396	0.000029
 646	6.4177e+01	6.4146	4.143285	0.000319	3.193609	0.541012	0.000032
 647	6.4277e+01	6.4228	4.172613	0.000295	2.947947	0.499396	0.000029
 648	6.4376e+01	6.4350	4.200720	0.000283	2.825116	0.478588	0.000028
 649	6.4476e+01	6.4475	4.229234	0.000287	2.866059	0.485524	0.000029
 650	6.4576e+01	6.4552	4.256933	0.000278	2.784172	0.471651	0.000028
 651	6.4675e+01	6.4645	4.282189	0.000254	2.538510	0.430035	0.000025
 652	6.4775e+01	6.4738	4.307851	0.000258	2.579453	0.436971	0.000026
 653	6.4874e+01	6.4824	4.339624	0.000319	3.193609	0.541012	0.000032
 654	6.4974e+01	6.4937	4.366101	0.000266	2.661341	0.450843	0.000027
 655	6.5073e+01	6.5052	4.388098	0.000221	2.210960	0.374547	0.000022
 656	6.5172e+01	6.5142	4.417426	0.000295	2.947947	0.499396	0.000029
 657	6.5272e+01	6.5235	4.446348	0.000291	2.907003	0.492460	0.000029
 658	6.5371e+01	6.5335	4.472418	0.000262	2.620397	0.443907	0.000026
 659	6.5471e+01	6.5423	4.497265	0.000250	2.497566	0.423099	0.000025
 660	6.5570e+01	6.5511	4.524150	0.000270	2.702285	0.457779	0.000027
 661	6.5670e+01	6.5633	4.552664	0.000287	2.866059	0.485524	0.000029
 662	6.5769e+01	6.5733	4.579141	0.000266	2.661341	0.450843	0.000027
 663	6.5869e+01	6.5832	4.608063	0.000291	2.907003	0.492460	0.000029
 664	6.5969e+01	6.5907	4.636169	0.000283	2.825116	0.478588	0.000028
 665	6.6068e+01	6.6044	4.658980	0.000229	2.292848	0.388419	0.000023
 666	6.6168e+01	6.6127	4.687494	0.000287	2.866059	0.485524	0.000029
 667	6.6267e+01	6.6213	4.713972	0.000266	2.661341	0.450843	0.000027
 668	6.6367e+01	6.6317	4.736783	0.000229	2.292848	0.388419	0.000023
 669	6.6466e+01	6.6398	4.763260	0.000266	2.661341	0.450843	0.000027
 670	6.6566e+01	6.6505	4.794218	0.000311	3.111722	0.527140	0.000031
 671	6.6665e+01	6.6677	4.817844	0.000237	2.374735	0.402291	0.000024
 672	6.6764e+01	6.6750	4.844321	0.000266	2.661341	0.450843	0.000027
 673	6.6864e+01	6.6830	4.873243	0.000291	2.907003	0.492460	0.000029
 674	6.6963e+01	6.6932	4.897683	0.000246	2.456622	0.416163	0.000025
 675	6.7063e+01	6.7054	4.928641	0.000311	3.111722	0.527140	0.000031
 676	6.7162e+01	6.7094	4.957155	0.000287	2.866059	0.485524	0.000029
 677	6.7262e+01	6.7219	4.982410	0.000254	2.538510	0.430035	0.000025
 678	6.7362e+01	6.7311	5.009702	0.000274	2.743228	0.464715	0.000027
 679	6.7461e+01	6.7437	5.043919	0.000344	3.439271	0.582628	0.000034
 680	6.7561e+01	6.7554	5.074062	0.000303	3.029834	0.513268	0.000030
 681	6.7660e+01	6.7612	5.097281	0.000233	2.333791	0.395355	0.000023
 682	6.7760e+01	6.7707	5.129868	0.000328	3.275496	0.554884	0.000033
 683	6.7859e+01	6.7820	5.159604	0.000299	2.988890	0.506332	0.000030
 684	6.7959e+01	6.7952	5.183230	0.000237	2.374735	0.402291	0.000024
 685	6.8058e+01	6.8019	5.212966	0.000299	2.988890	0.506332	0.000030
 686	6.8157e+01	6.8115	5.239444	0.000266	2.661341	0.450843	0.000027
 687	6.8257e+01	6.8248	5.269994	0.000307	3.070778	0.520204	0.000031
 688	6.8356e+01	6.8314	5.294027	0.000242	2.415679	0.409227	0.000024
 689	6.8456e+01	6.8444	5.326208	0.000323	3.234553	0.547948	0.000032
 690	6.8555e+01	6.8511	5.353499	0.000274	2.743228	0.464715	0.000027
 691	6.8655e+01	6.8630	5.383643	0.000303	3.029834	0.513268	0.000030
 692	6.8754e+01	6.8719	5.411342	0.000278	2.784172	0.471651	0.000028
 693	6.8854e+01	6.8835	5.437819	0.000266	2.661341	0.450843	0.000027
 694	6.8954e+01	6.8926	5.464704	0.000270	2.702285	0.457779	0.000027
 695	6.9053e+01	6.8990	5.494033	0.000295	2.947947	0.499396	0.000029
 696	6.9153e+01	6.9102	5.523769	0.000299	2.988890	0.506332	0.000030
 697	6.9252e+01	6.9205	5.548209	0.000246	2.456622	0.416163	0.000025
 698	6.9352e+01	6.9337	5.574279	0.000262	2.620397	0.443907	0.000026
 699	6.9451e+01	6.9430	5.604830	0.000307	3.070778	0.520204	0.000031
 700	6.9550e+01	6.9556	5.627641	0.000229	2.292848	0.388419	0.000023
 701	6.9650e+01	6.9619	5.650045	0.000225	2.251904	0.381483	0.000023
 702	6.9749e+01	6.9707	5.679781	0.000299	2.988890	0.506332	0.000030
 703	6.9849e+01	6.9817	5.703814	0.000242	2.415679	0.409227	0.000024
 704	6.9948e+01	6.9908	5.729884	0.000262	2.620397	0.443907	0.000026
 705	7.0048e+01	6.9992	5.761657	0.000319	3.193609	0.541012	0.000032
 706	7.0147e+01	7.0094	5.783246	0.000217	2.170016	0.367611	0.000022
 707	7.0247e+01	7.0224	5.814611	0.000315	3.152665	0.534076	0.000032
 708	7.0347e+01	7.0290	5.838644	0.000242	2.415679	0.409227	0.000024
 709	7.0446e+01	7.0410	5.867158	0.000287	2.866059	0.485524	0.000029
 710	7.0546e+01	7.0508	5.894043	0.000270	2.702285	0.457779	0.000027
 711	7.0645e+01	7.0594	5.916854	0.000229	2.292848	0.388419	0.000023
 712	7.0745e+01	7.0679	5.942517	0.000258	2.579453	0.436971	0.000026
 713	7.0844e+01	7.0792	5.971438	0.000291	2.907003	0.492460	0.000029
 714	7.0944e+01	7.0876	5.994657	0.000233	2.333791	0.395355	0.000023
 715	7.1043e+01	7.0999	6.019505	0.000250	2.497566	0.423099	0.000025
 716	7.1142e+01	7.1094	6.042316	0.000229	2.292848	0.388419	0.000023
 717	7.1242e+01	7.1208	6.070015	0.000278	2.784172	0.471651	0.000028
 718	7.1341e+01	7.1318	6.092419	0.000225	2.251904	0.381483	0.000023
 719	7.1441e+01	7.1411	6.116859	0.000246	2.456622	0.416163	0.000025
 720	7.1540e+01	7.1521	6.139671	0.000229	2.292848	0.388419	0.000023
 721	7.1640e+01	7.1600	6.166555	0.000270	2.702285	0.457779	0.000027
 722	7.1740e+01	7.1725	6.193032	0.000266	2.661341	0.450843	0.000027
 723	7.1839e+01	7.1826	6.216251	0.000233	2.333791	0.395355	0.000023
 724	7.1939e+01	7.1922	6.241506	0.000254	2.538510	0.430035	0.000025
 725	7.2038e+01	7.2002	6.265947	0.000246	2.456622	0.416163	0.000025
 726	7.2138e+01	7.2106	6.292017	0.000262	2.620397	0.443907	0.000026
 727	7.2237e+01	7.2195	6.314013	0.000221	2.210960	0.374547	0.000022
 728	7.2337e+01	7.2324	6.334380	0.000205	2.047185	0.346803	0.000020
 729	7.2436e+01	7.2398	6.360858	0.000266	2.661341	0.450843	0.000027
 730	7.2535e+01	7.2481	6.383669	0.000229	2.292848	0.388419	0.000023
 731	7.2635e+01	7.2594	6.410553	0.000270	2.702285	0.457779	0.000027
 732	7.2734e+01	7.2702	6.432957	0.000225	2.251904	0.381483	0.000023
 733	7.2834e+01	7.2813	6.459842	0.000270	2.702285	0.457779	0.000027
 734	7.2933e+01	7.2907	6.483060	0.000233	2.333791	0.395355	0.000023
 735	7.3033e+01	7.3025	6.509130	0.000262	2.620397	0.443907	0.000026
 736	7.3132e+01	7.3098	6.536422	0.000274	2.743228	0.464715	0.000027
 737	7.3232e+01	7.3199	6.561270	0.000250	2.497566	0.423099	0.000025
 738	7.3332e+01	7.3299	6.585303	0.000242	2.415679	0.409227	0.000024
 739	7.3431e+01	7.3400	6.608115	0.000229	2.292848	0.388419	0.000023
 740	7.3531e+01	7.3524	6.635406	0.000274	2.743228	0.464715	0.000027
 741	7.3630e+01	7.3587	6.663106	0.000278	2.784172	0.471651	0.000028
 742	7.3730e+01	7.3692	6.688361	0.000254	2.538510	0.430035	0.000025
 743	7.3829e+01	7.3781	6.712802	0.000246	2.456622	0.416163	0.000025
 744	7.3928e+01	7.3891	6.739686	0.000270	2.702285	0.457779	0.000027
 745	7.4028e+01	7.3975	6.764127	0.000246	2.456622	0.416163	0.000025
 746	7.4127e+01	7.4077	6.791419	0.000274	2.743228	0.464715	0.000027
 747	7.4227e+01	7.4174	6.817489	0.000262	2.620397	0.443907	0.000026
 748	7.4326e+01	7.4300	6.843559	0.000262	2.620397	0.443907	0.000026
 749	7.4426e+01	7.4390	6.870850	0.000274	2.743228	0.464715	0.000027
 750	7.4525e+01	7.4503	6.898142	0.000274	2.743228	0.464715	0.000027
 751	7.4625e+01	7.4583	6.921768	0.000237	2.374735	0.402291	0.000024
 752	7.4725e+01	7.4686	6.948653	0.000270	2.702285	0.457779	0.000027
 753	7.4824e+01	7.4769	6.976760	0.000283	2.825116	0.478588	0.000028
 754	7.4924e+01	7.4879	7.005681	0.000291	2.907003	0.492460	0.000029
 755	7.5023e+01	7.4986	7.032973	0.000274	2.743228	0.464715	0.000027
 756	7.5123e+01	7.5109	7.058228	0.000254	2.538510	0.430035	0.000025
 757	7.5222e+01	7.5157	7.087557	0.000295	2.947947	0.499396	0.000029
 758	7.5322e+01	7.5278	7.111997	0.000246	2.456622	0.416163	0.000025
 759	7.5421e+01	7.5396	7.137660	0.000258	2.579453	0.436971	0.000026
 760	7.5520e+01	7.5481	7.164544	0.000270	2.702285	0.457779	0.000027
 761	7.5620e+01	7.5582	7.191836	0.000274	2.743228	0.464715	0.000027
 762	7.5719e+01	7.5684	7.219943	0.000283	2.825116	0.478588	0.000028
 763	7.5819e+01	7.5782	7.241125	0.000213	2.129073	0.360675	0.000021
 764	7.5918e+01	7.5870	7.268824	0.000278	2.784172	0.471651	0.000028
 765	7.6018e+01	7.5978	7.296931	0.000283	2.825116	0.478588	0.000028
 766	7.6118e+01	7.6074	7.322186	0.000254	2.538510	0.430035	0.000025
 767	7.6217e+01	7.6195	7.351922	0.000299	2.988890	0.506332	0.000030
 768	7.6317e+01	7.6265	7.381251	0.000295	2.947947	0.499396	0.000029
 769	7.6416e+01	7.6383	7.407321	0.000262	2.620397	0.443907	0.000026
 770	7.6516e+01	7.6459	7.431761	0.000246	2.456622	0.416163	0.000025
 771	7.6615e+01	7.6592	7.459868	0.000283	2.825116	0.478588	0.000028
 772	7.6715e+01	7.6694	7.489196	0.000295	2.947947	0.499396	0.000029
 773	7.6814e+01	7.6775	7.515674	0.000266	2.661341	0.450843	0.000027
 774	7.6913e+01	7.6870	7.537263	0.000217	2.170016	0.367611	0.000022
 775	7.7013e+01	7.6957	7.566999	0.000299	2.988890	0.506332	0.000030
 776	7.7112e+01	7.7057	7.592661	0.000258	2.579453	0.436971	0.000026
 777	7.7212e+01	7.7176	7.620361	0.000278	2.784172	0.471651	0.000028
 778	7.7311e+01	7.7241	7.647245	0.000270	2.702285	0.457779	0.000027
 779	7.7411e+01	7.7402	7.680647	0.000336	3.357384	0.568756	0.000034
 780	7.7510e+01	7.7477	7.705903	0.000254	2.538510	0.430035	0.000025
 781	7.7610e+01	7.7566	7.734417	0.000287	2.866059	0.485524	0.000029
 782	7.7710e+01	7.7686	7.762931	0.000287	2.866059	0.485524	0.000029
 783	7.7809e+01	7.7767	7.792259	0.000295	2.947947	0.499396	0.000029
 784	7.7909e+01	7.7869	7.822403	0.000303	3.029834	0.513268	0.000030
 785	7.8008e+01	7.7969	7.852953	0.000307	3.070778	0.520204	0.000031
 786	7.8108e+01	7.8076	7.881875	0.000291	2.907003	0.492460	0.000029
 787	7.8207e+01	7.8175	7.910796	0.000291	2.907003	0.492460	0.000029
 788	7.8306e+01	7.8242	7.946235	0.000356	3.562102	0.603436	0.000036
 789	7.8406e+01	7.8379	7.970268	0.000242	2.415679	0.409227	0.000024
 790	7.8505e+01	7.8461	8.003263	0.000332	3.316440	0.561820	0.000033
 791	7.8605e+01	7.8593	8.031369	0.000283	2.825116	0.478588	0.000028
 792	7.8704e+01	7.8681	8.058661	0.000274	2.743228	0.464715	0.000027
 793	7.8804e+01	7.8751	8.088805	0.000303	3.029834	0.513268	0.000030
 794	7.8903e+01	7.8846	8.118133	0.000295	2.947947	0.499396	0.000029
 795	7.9003e+01	7.8979	8.148277	0.000303	3.029834	0.513268	0.000030
 796	7.9103e+01	7.9075	8.178013	0.000299	2.988890	0.506332	0.000030
 797	7.9202e+01	7.9182	8.210193	0.000323	3.234553	0.547948	0.000032
 798	7.9302e+01	7.9265	8.242373	0.000323	3.234553	0.547948	0.000032
 799	7.9401e+01	7.9377	8.276590	0.000344	3.439271	0.582628	0.000034
 800	7.9501e+01	7.9462	8.304289	0.000278	2.784172	0.471651	0.000028
 801	7.9600e+01	7.9538	8.338098	0.000340	3.398328	0.575692	0.000034
 802	7.9700e+01	7.9650	8.371093	0.000332	3.316440	0.561820	0.000033
 803	7.9799e+01	7.9768	8.401236	0.000303	3.029834	0.513268	0.000030
 804	7.9898e+01	7.9867	8.438712	0.000377	3.766821	0.638117	0.000038
 805	7.9998e+01	7.9957	8.466819	0.000283	2.825116	0.478588	0.000028
 806	8.0097e+01	8.0067	8.501443	0.000348	3.480215	0.589564	0.000035
 807	8.0197e+01	8.0151	8.528735	0.000274	2.743228	0.464715	0.000027
 808	8.0296e+01	8.0273	8.564988	0.000364	3.643990	0.617309	0.000036
 809	8.0396e+01	8.0358	8.596354	0.000315	3.152665	0.534076	0.000032
 810	8.0496e+01	8.0477	8.629756	0.000336	3.357384	0.568756	0.000034
 811	8.0595e+01	8.0543	8.661936	0.000323	3.234553	0.547948	0.000032
 812	8.0695e+01	8.0638	8.695338	0.000336	3.357384	0.568756	0.000034
 813	8.0794e+01	8.0767	8.731999	0.000368	3.684933	0.624245	0.000037
 814	8.0894e+01	8.0872	8.763364	0.000315	3.152665	0.534076	0.000032
 815	8.0993e+01	8.0958	8.796766	0.000336	3.357384	0.568756	0.000034
 816	8.1093e+01	8.1055	8.826095	0.000295	2.947947	0.499396	0.000029
 817	8.1192e+01	8.1165	8.859497	0.000336	3.357384	0.568756	0.000034
 818	8.1291e+01	8.1239	8.890048	0.000307	3.070778	0.520204	0.000031
 819	8.1391e+01	8.1342	8.922228	0.000323	3.234553	0.547948	0.000032
 820	8.1490e+01	8.1442	8.955630	0.000336	3.357384	0.568756	0.000034
 821	8.1590e+01	8.1613	8.987810	0.000323	3.234553	0.547948	0.000032
 822	8.1689e+01	8.1662	9.015916	0.000283	2.825116	0.478588	0.000028
 823	8.1789e+01	8.1747	9.050948	0.000352	3.521159	0.596500	0.000035
 824	8.1888e+01	8.1814	9.085165	0.000344	3.439271	0.582628	0.000034
 825	8.1988e+01	8.1975	9.107568	0.000225	2.251904	0.381483	0.000023
 826	8.2088e+01	8.2056	9.144229	0.000368	3.684933	0.624245	0.000037
 827	8.2187e+01	8.2175	9.175187	0.000311	3.111722	0.527140	0.000031
 828	8.2287e+01	8.2244	9.208589	0.000336	3.357384	0.568756	0.000034
 829	8.2386e+01	8.2324	9.235067	0.000266	2.661341	0.450843	0.000027
 830	8.2486e+01	8.2478	9.268876	0.000340	3.398328	0.575692	0.000034
 831	8.2585e+01	8.2568	9.298612	0.000299	2.988890	0.506332	0.000030
 832	8.2684e+01	8.2648	9.332829	0.000344	3.439271	0.582628	0.000034
 833	8.2784e+01	8.2729	9.360936	0.000283	2.825116	0.478588	0.000028
 834	8.2883e+01	8.2869	9.390672	0.000299	2.988890	0.506332	0.000030
 835	8.2983e+01	8.2953	9.422852	0.000323	3.234553	0.547948	0.000032
 836	8.3082e+01	8.3047	9.455439	0.000328	3.275496	0.554884	0.000033
 837	8.3182e+01	8.3165	9.486804	0.000315	3.152665	0.534076	0.000032
 838	8.3281e+01	8.3244	9.517355	0.000307	3.070778	0.520204	0.000031
 839	8.3381e+01	8.3350	9.546684	0.000295	2.947947	0.499396	0.000029
 840	8.3481e+01	8.3408	9.578456	0.000319	3.193609	0.541012	0.000032
 841	8.3580e+01	8.3556	9.610636	0.000323	3.234553	0.547948	0.000032
 842	8.3680e+01	8.3643	9.638743	0.000283	2.825116	0.478588	0.000028
 843	8.3779e+01	8.3755	9.671738	0.000332	3.316440	0.561820	0.000033
 844	8.3879e+01	8.3899	9.702289	0.000307	3.070778	0.520204	0.000031
 845	8.3978e+01	8.3936	9.732839	0.000307	3.070778	0.520204	0.000031
 846	8.4078e+01	8.4026	9.768685	0.000360	3.603046	0.610373	0.000036
 847	8.4177e+01	8.4110	9.802495	0.000340	3.398328	0.575692	0.000034
 848	8.4276e+01	8.4249	9.836304	0.000340	3.398328	0.575692	0.000034
 849	8.4376e+01	8.4326	9.868484	0.000323	3.234553	0.547948	0.000032
 850	8.4475e+01	8.4467	9.901479	0.000332	3.316440	0.561820	0.000033
 851	8.4575e+01	8.4535	9.932844	0.000315	3.152665	0.534076	0.000032
 852	8.4674e+01	8.4626	9.964210	0.000315	3.152665	0.534076	0.000032
 853	8.4774e+01	8.4717	9.998834	0.000348	3.480215	0.589564	0.000035
 854	8.4874e+01	8.4849	10.031014	0.000323	3.234553	0.547948	0.000032
 855	8.4973e+01	8.4938	10.065231	0.000344	3.439271	0.582628	0.000034
 856	8.5073e+01	8.4989	10.099040	0.000340	3.398328	0.575692	0.000034
 857	8.5172e+01	8.5133	10.132850	0.000340	3.398328	0.575692	0.000034
 858	8.5272e+01	8.5205	10.165437	0.000328	3.275496	0.554884	0.000033
 859	8.5371e+01	8.5329	10.198432	0.000332	3.316440	0.561820	0.000033
 860	8.5471e+01	8.5449	10.228168	0.000299	2.988890	0.506332	0.000030
 861	8.5570e+01	8.5517	10.261570	0.000336	3.357384	0.568756	0.000034
 862	8.5669e+01	8.5623	10.292935	0.000315	3.152665	0.534076	0.000032
 863	8.5769e+01	8.5721	10.329189	0.000364	3.643990	0.617309	0.000036
 864	8.5868e+01	8.5825	10.361369	0.000323	3.234553	0.547948	0.000032
 865	8.5968e+01	8.5941	10.395178	0.000340	3.398328	0.575692	0.000034
 866	8.6067e+01	8.6039	10.428988	0.000340	3.398328	0.575692	0.000034
 867	8.6167e+01	8.6093	10.465241	0.000364	3.643990	0.617309	0.000036
 868	8.6266e+01	8.6230	10.499458	0.000344	3.439271	0.582628	0.000034
 869	8.6366e+01	8.6354	10.531638	0.000323	3.234553	0.547948	0.000032
 870	8.6466e+01	8.6450	10.564225	0.000328	3.275496	0.554884	0.000033
 871	8.6565e+01	8.6525	10.594369	0.000303	3.029834	0.513268	0.000030
 872	8.6665e+01	8.6652	10.625734	0.000315	3.152665	0.534076	0.000032
 873	8.6764e+01	8.6728	10.660766	0.000352	3.521159	0.596500	0.000035
 874	8.6864e+01	8.6819	10.696612	0.000360	3.603046	0.610373	0.000036
 875	8.6963e+01	8.6926	10.731236	0.000348	3.480215	0.589564	0.000035
 876	8.7063e+01	8.7000	10.760565	0.000295	2.947947	0.499396	0.000029
 877	8.7162e+01	8.7140	10.795189	0.000348	3.480215	0.589564	0.000035
 878	8.7261e+01	8.7222	10.832664	0.000377	3.766821	0.638117	0.000038
 879	8.7361e+01	8.7324	10.864844	0.000323	3.234553	0.547948	0.000032
 880	8.7460e+01	8.7418	10.895395	0.000307	3.070778	0.520204	0.000031
 881	8.7560e+01	8.7521	10.929612	0.000344	3.439271	0.582628	0.000034
 882	8.7659e+01	8.7618	10.960570	0.000311	3.111722	0.527140	0.000031
 883	8.7759e+01	8.7745	10.988676	0.000283	2.825116	0.478588	0.000028
 884	8.7859e+01	8.7843	11.022486	0.000340	3.398328	0.575692	0.000034
 885	8.7958e+01	8.7933	11.051814	0.000295	2.947947	0.499396	0.000029
 886	8.8058e+01	8.8002	11.082365	0.000307	3.070778	0.520204	0.000031
 887	8.8157e+01	8.8098	11.112916	0.000307	3.070778	0.520204	0.000031
 888	8.8257e+01	8.8223	11.143467	0.000307	3.070778	0.520204	0.000031
 889	8.8356e+01	8.8306	11.176869	0.000336	3.357384	0.568756	0.000034
 890	8.8456e+01	8.8419	11.209863	0.000332	3.316440	0.561820	0.000033
 891	8.8555e+01	8.8504	11.240821	0.000311	3.111722	0.527140	0.000031
 892	8.8654e+01	8.8602	11.273001	0.000323	3.234553	0.547948	0.000032
 893	8.8754e+01	8.8709	11.304367	0.000315	3.152665	0.534076	0.000032
 894	8.8853e+01	8.8812	11.331251	0.000270	2.702285	0.457779	0.000027
 895	8.8953e+01	8.8879	11.363839	0.000328	3.275496	0.554884	0.000033
 896	8.9052e+01	8.9022	11.394797	0.000311	3.111722	0.527140	0.000031
 897	8.9152e+01	8.9112	11.418015	0.000233	2.333791	0.395355	0.000023
 898	8.9251e+01	8.9209	11.450195	0.000323	3.234553	0.547948	0.000032
 899	8.9351e+01	8.9312	11.484005	0.000340	3.398328	0.575692	0.000034
 900	8.9451e+01	8.9394	11.514963	0.000311	3.111722	0.527140	0.000031
 901	8.9550e+01	8.9504	11.542662	0.000278	2.784172	0.471651	0.000028
 902	8.9650e+01	8.9577	11.573620	0.000311	3.111722	0.527140	0.000031
 903	8.9749e+01	8.9709	11.608652	0.000352	3.521159	0.596500	0.000035
 904	8.9849e+01	8.9797	11.641239	0.000328	3.275496	0.554884	0.000033
 905	8.9948e+01	8.9897	11.673419	0.000323	3.234553	0.547948	0.000032
 906	9.0047e+01	9.0022	11.706821	0.000336	3.357384	0.568756	0.000034
 907	9.0147e+01	9.0081	11.742260	0.000356	3.562102	0.603436	0.000036
 908	9.0246e+01	9.0205	11.772403	0.000303	3.029834	0.513268	0.000030
 909	9.0346e+01	9.0307	11.803361	0.000311	3.111722	0.527140	0.000031
 910	9.0445e+01	9.0417	11.837986	0.000348	3.480215	0.589564	0.000035
 911	9.0545e+01	9.0493	11.868129	0.000303	3.029834	0.513268	0.000030
 912	9.0644e+01	9.0587	11.906826	0.000389	3.889652	0.658925	0.000039
 913	9.0744e+01	9.0705	11.940636	0.000340	3.398328	0.575692	0.000034
 914	9.0844e+01	9.0799	11.975667	0.000352	3.521159	0.596500	0.000035
 915	9.0943e+01	9.0908	12.008255	0.000328	3.275496	0.554884	0.000033
 916	9.1043e+01	9.0982	12.048582	0.000405	4.053427	0.686669	0.000041
 917	9.1142e+01	9.1090	12.080762	0.000323	3.234553	0.547948	0.000032
 918	9.1242e+01	9.1212	12.113349	0.000328	3.275496	0.554884	0.000033
 919	9.1341e+01	9.1284	12.149603	0.000364	3.643990	0.617309	0.000036
 920	9.1441e+01	9.1399	12.188300	0.000389	3.889652	0.658925	0.000039
 921	9.1540e+01	9.1505	12.222517	0.000344	3.439271	0.582628	0.000034
 922	9.1639e+01	9.1605	12.262029	0.000397	3.971539	0.672797	0.000040
 923	9.1739e+01	9.1689	12.295431	0.000336	3.357384	0.568756	0.000034
 924	9.1838e+01	9.1772	12.332499	0.000373	3.725877	0.631181	0.000037
 925	9.1938e+01	9.1915	12.373641	0.000414	4.135314	0.700541	0.000041
 926	9.2037e+01	9.1994	12.409895	0.000364	3.643990	0.617309	0.000036
 927	9.2137e+01	9.2084	12.445741	0.000360	3.603046	0.610373	0.000036
 928	9.2237e+01	9.2175	12.482809	0.000373	3.725877	0.631181	0.000037
 929	9.2336e+01	9.2292	12.523950	0.000414	4.135314	0.700541	0.000041
 930	9.2436e+01	9.2392	12.554094	0.000303	3.029834	0.513268	0.000030
 931	9.2535e+01	9.2492	12.584237	0.000303	3.029834	0.513268	0.000030
 932	9.2635e+01	9.2612	12.621305	0.000373	3.725877	0.631181	0.000037
 933	9.2734e+01	9.2676	12.656744	0.000356	3.562102	0.603436	0.000036
 934	9.2834e+01	9.2819	12.692590	0.000360	3.603046	0.610373	0.000036
 935	9.2933e+01	9.2887	12.729251	0.000368	3.684933	0.624245	0.000037
 936	9.3032e+01	9.2974	12.766727	0.000377	3.766821	0.638117	0.000038
 937	9.3132e+01	9.3121	12.799314	0.000328	3.275496	0.554884	0.000033
 938	9.3231e+01	9.3182	12.833123	0.000340	3.398328	0.575692	0.000034
 939	9.3331e+01	9.3265	12.867340	0.000344	3.439271	0.582628	0.000034
 940	9.3430e+01	9.3382	12.900335	0.000332	3.316440	0.561820	0.000033
 941	9.3530e+01	9.3472	12.933737	0.000336	3.357384	0.568756	0.000034
 942	9.3629e+01	9.3591	12.963066	0.000295	2.947947	0.499396	0.000029
 943	9.3729e+01	9.3681	13.000541	0.000377	3.766821	0.638117	0.000038
 944	9.3829e+01	9.3804	13.034758	0.000344	3.439271	0.582628	0.000034
 945	9.3928e+01	9.3888	13.068160	0.000336	3.357384	0.568756	0.000034
 946	9.4028e+01	9.4001	13.102377	0.000344	3.439271	0.582628	0.000034
 947	9.4127e+01	9.4106	13.136594	0.000344	3.439271	0.582628	0.000034
 948	9.4227e+01	9.4171	13.169181	0.000328	3.275496	0.554884	0.000033
 949	9.4326e+01	9.4271	13.207064	0.000381	3.807765	0.645053	0.000038
 950	9.4425e+01	9.4370	13.239244	0.000323	3.234553	0.547948	0.000032
 951	9.4525e+01	9.4486	13.276312	0.000373	3.725877	0.631181	0.000037
 952	9.4624e+01	9.4572	13.315417	0.000393	3.930596	0.665861	0.000039
 953	9.4724e+01	9.4650	13.350448	0.000352	3.521159	0.596500	0.000035
 954	9.4823e+01	9.4800	13.382629	0.000323	3.234553	0.547948	0.000032
 955	9.4923e+01	9.4922	13.421733	0.000393	3.930596	0.665861	0.000039
 956	9.5022e+01	9.5020	13.462875	0.000414	4.135314	0.700541	0.000041
 957	9.5122e+01	9.5068	13.498721	0.000360	3.603046	0.610373	0.000036
 958	9.5222e+01	9.5190	13.538233	0.000397	3.971539	0.672797	0.000040
 959	9.5321e+01	9.5264	13.577746	0.000397	3.971539	0.672797	0.000040
 960	9.5421e+01	9.5374	13.617258	0.000397	3.971539	0.672797	0.000040
 961	9.5520e+01	9.5459	13.654733	0.000377	3.766821	0.638117	0.000038
 962	9.5620e+01	9.5575	13.692209	0.000377	3.766821	0.638117	0.000038
 963	9.5719e+01	9.5655	13.731721	0.000397	3.971539	0.672797	0.000040
 964	9.5819e+01	9.5767	13.773270	0.000418	4.176258	0.707477	0.000042
 965	9.5918e+01	9.5876	13.816041	0.000430	4.299089	0.728285	0.000043
 966	9.6017e+01	9.5975	13.853109	0.000373	3.725877	0.631181	0.000037
 967	9.6117e+01	9.6066	13.898732	0.000459	4.585695	0.776838	0.000046
 968	9.6216e+01	9.6159	13.937836	0.000393	3.930596	0.665861	0.000039
 969	9.6316e+01	9.6253	13.980607	0.000430	4.299089	0.728285	0.000043
 970	9.6415e+01	9.6377	14.023378	0.000430	4.299089	0.728285	0.000043
 971	9.6515e+01	9.6471	14.064520	0.000414	4.135314	0.700541	0.000041
 972	9.6615e+01	9.6571	14.110957	0.000467	4.667582	0.790710	0.000047
 973	9.6714e+01	9.6680	14.151284	0.000405	4.053427	0.686669	0.000041
 974	9.6814e+01	9.6771	14.198128	0.000471	4.708526	0.797646	0.000047
 975	9.6913e+01	9.6866	14.247824	0.000500	4.995132	0.846198	0.000050
 976	9.7013e+01	9.6958	14.286929	0.000393	3.930596	0.665861	0.000039
 977	9.7112e+01	9.7058	14.333366	0.000467	4.667582	0.790710	0.000047
 978	9.7212e+01	9.7176	14.374915	0.000418	4.176258	0.707477	0.000042
 979	9.7311e+01	9.7288	14.418908	0.000442	4.421920	0.749094	0.000044
 980	9.7410e+01	9.7345	14.464530	0.000459	4.585695	0.776838	0.000046
 981	9.7510e+01	9.7485	14.507709	0.000434	4.340033	0.735221	0.000043
 982	9.7609e+01	9.7540	14.560663	0.000532	5.322682	0.901687	0.000053
 983	9.7709e+01	9.7675	14.607100	0.000467	4.667582	0.790710	0.000047
 984	9.7808e+01	9.7784	14.652723	0.000459	4.585695	0.776838	0.000046
 985	9.7908e+01	9.7888	14.697938	0.000454	4.544751	0.769902	0.000045
 986	9.8007e+01	9.7950	14.741523	0.000438	4.380976	0.742158	0.000044
 987	9.8107e+01	9.8072	14.784294	0.000430	4.299089	0.728285	0.000043
 988	9.8207e+01	9.8145	14.827473	0.000434	4.340033	0.735221	0.000043
 989	9.8306e+01	9.8270	14.875946	0.000487	4.872301	0.825390	0.000049
 990	9.8406e+01	9.8370	14.919532	0.000438	4.380976	0.742158	0.000044
 991	9.8505e+01	9.8469	14.963118	0.000438	4.380976	0.742158	0.000044
 992	9.8605e+01	9.8590	15.010777	0.000479	4.790414	0.811518	0.000048
 993	9.8704e+01	9.8670	15.055584	0.000450	4.503808	0.762966	0.000045
 994	9.8803e+01	9.8769	15.098355	0.000430	4.299089	0.728285	0.000043
 995	9.8903e+01	9.8859	15.148051	0.000500	4.995132	0.846198	0.000050
 996	9.9002e+01	9.8938	15.191637	0.000438	4.380976	0.742158	0.000044
 997	9.9102e+01	9.9037	15.240925	0.000495	4.954188	0.839262	0.000050
 998	9.9201e+01	9.9160	15.278808	0.000381	3.807765	0.645053	0.000038
 999	9.9301e+01	9.9256	15.322394	0.000438	4.380976	0.742158	0.000044
1000	9.9400e+01	9.9349	15.364350	0.000422	4.217202	0.714413	0.000042
1001	9.9500e+01	9.9470	15.410380	0.000463	4.626639	0.783774	0.000046
1002	9.9600e+01	9.9527	15.450707	0.000405	4.053427	0.686669	0.000041
1003	9.9699e+01	9.9661	15.495107	0.000446	4.462864	0.756030	0.000045
1004	9.9799e+01	9.9745	15.538285	0.000434	4.340033	0.735221	0.000043
1005	9.9898e+01	9.9854	15.583908	0.000459	4.585695	0.776838	0.000046
1006	9.9998e+01	9.9939	15.629937	0.000463	4.626639	0.783774	0.000046
1007	1.0010e+02	9.9861	15.635233	-0.000053	-0.532268	-0.090169	0.000005
1008	1.0020e+02	9.9757	15.642972	-0.000078	-0.777930	-0.131785	0.000008
1009	1.0030e+02	9.9677	15.651527	-0.000086	-0.859818	-0.145657	0.000009
1010	1.0040e+02	9.9573	15.658859	-0.000074	-0.736987	-0.124849	0.000007
1011	1.0050e+02	9.9470	15.662525	-0.000037	-0.368493	-0.062424	0.000004
1012	1.0059e+02	9.9341	15.672708	-0.000102	-1.023593	-0.173401	0.000010
1013	1.0069e+02	9.9256	15.677596	-0.000049	-0.491324	-0.083233	0.000005
1014	1.0079e+02	9.9128	15.678411	-0.000008	-0.081887	-0.013872	0.000001
1015	1.0089e+02	9.9073	15.687373	-0.000090	-0.900762	-0.152593	0.000009
1016	1.0099e+02	9.8955	15.691039	-0.000037	-0.368493	-0.062424	0.000004
1017	1.0109e+02	9.8859	15.696742	-0.000057	-0.573212	-0.097105	0.000006
1018	1.0119e+02	9.8761	15.697149	-0.000004	-0.040944	-0.006936	0.000000
1019	1.0129e+02	9.8660	15.700408	-0.000033	-0.327550	-0.055488	0.000003
1020	1.0139e+02	9.8542	15.703259	-0.000029	-0.286606	-0.048552	0.000003
1021	1.0149e+02	9.8444	15.704481	-0.000012	-0.122831	-0.020808	0.000001
1022	1.0159e+02	9.8379	15.710591	-0.000061	-0.614156	-0.104041	0.000006
1023	1.0169e+02	9.8254	15.709369	0.000012	0.122831	0.020808	-0.000001
1024	1.0179e+02	9.8155	15.712221	-0.000029	-0.286606	-0.048552	0.000003
1025	1.0189e+02	9.8054	15.718738	-0.000066	-0.655099	-0.110977	0.000007
1026	1.0199e+02	9.7925	15.722811	-0.000041	-0.409437	-0.069361	0.000004
1027	1.0209e+02	9.7862	15.724441	-0.000016	-0.163775	-0.027744	0.000002
1028	1.0219e+02	9.7768	15.726885	-0.000025	-0.245662	-0.041616	0.000002
1029	1.0229e+02	9.7668	15.726885	-0.000000	-0.000000	-0.000000	0.000000
1030	1.0239e+02	9.7561	15.730958	-0.000041	-0.409437	-0.069361	0.000004
1031	1.0248e+02	9.7471	15.735846	-0.000049	-0.491324	-0.083233	0.000005
1032	1.0258e+02	9.7352	15.733810	0.000020	0.204719	0.034680	-0.000002
1033	1.0268e+02	9.7253	15.739920	-0.000061	-0.614156	-0.104041	0.000006
1034	1.0278e+02	9.7195	15.740735	-0.000008	-0.081887	-0.013872	0.000001
1035	1.0288e+02	9.7083	15.737476	0.000033	0.327550	0.055488	-0.000003
1036	1.0298e+02	9.6960	15.738698	-0.000012	-0.122831	-0.020808	0.000001
1037	1.0308e+02	9.6853	15.740735	-0.000020	-0.204719	-0.034680	0.000002
1038	1.0318e+02	9.6777	15.737883	0.000029	0.286606	0.048552	-0.000003
1039	1.0328e+02	9.6665	15.735846	0.000020	0.204719	0.034680	-0.000002
1040	1.0338e+02	9.6575	15.735439	0.000004	0.040944	0.006936	-0.000000
1041	1.0348e+02	9.6465	15.729329	0.000061	0.614156	0.104041	-0.000006
1042	1.0358e+02	9.6353	15.722811	0.000066	0.655099	0.110977	-0.000007
1043	1.0368e+02	9.6272	15.717923	0.000049	0.491324	0.083233	-0.000005
1044	1.0378e+02	9.6164	15.715479	0.000025	0.245662	0.041616	-0.000002
1045	1.0388e+02	9.6065	15.710184	0.000053	0.532268	0.090169	-0.000005
1046	1.0398e+02	9.5984	15.704888	0.000053	0.532268	0.090169	-0.000005
1047	1.0408e+02	9.5880	15.699186	0.000057	0.573212	0.097105	-0.000006
1048	1.0418e+02	9.5783	15.695112	0.000041	0.409437	0.069361	-0.000004
1049	1.0428e+02	9.5663	15.690631	0.000045	0.450381	0.076297	-0.000005
1050	1.0438e+02	9.5586	15.681263	0.000094	0.941705	0.159529	-0.000009
1051	1.0447e+02	9.5484	15.675560	0.000057	0.573212	0.097105	-0.000006
1052	1.0457e+02	9.5375	15.663747	0.000119	1.187367	0.201145	-0.000012
1053	1.0467e+02	9.5251	15.655193	0.000086	0.859818	0.145657	-0.000009
1054	1.0477e+02	9.5169	15.647046	0.000082	0.818874	0.138721	-0.000008
1055	1.0487e+02	9.5074	15.636862	0.000102	1.023593	0.173401	-0.000010
1056	1.0497e+02	9.4971	15.626679	0.000102	1.023593	0.173401	-0.000010
1057	1.0507e+02	9.4881	15.616495	0.000102	1.023593	0.173401	-0.000010
1058	1.0517e+02	9.4782	15.608756	0.000078	0.777930	0.131785	-0.000008
1059	1.0527e+02	9.4678	15.601831	0.000070	0.696043	0.117913	-0.000007
1060	1.0537e+02	9.4558	15.590425	0.000115	1.146424	0.194209	-0.000011
1061	1.0547e+02	9.4485	15.583093	0.000074	0.736987	0.124849	-0.000007
1062	1.0557e+02	9.4404	15.570465	0.000127	1.269255	0.215018	-0.000013
1063	1.0567e+02	9.4287	15.557023	0.000135	1.351142	0.228890	-0.000014
1064	1.0577e+02	9.4183	15.545617	0.000115	1.146424	0.194209	-0.000011
1065	1.0587e+02	9.4094	15.537063	0.000086	0.859818	0.145657	-0.000009
1066	1.0597e+02	9.3984	15.518733	0.000184	1.842467	0.312122	-0.000018
1067	1.0607e+02	9.3896	15.506920	0.000119	1.187367	0.201145	-0.000012
1068	1.0617e+02	9.3781	15.496329	0.000106	1.064536	0.180337	-0.000011
1069	1.0627e+02	9.3701	15.485331	0.000111	1.105480	0.187273	-0.000011
1070	1.0637e+02	9.3579	15.475555	0.000098	0.982649	0.166465	-0.000010
1071	1.0647e+02	9.3516	15.461705	0.000139	1.392086	0.235826	-0.000014
1072	1.0656e+02	9.3369	15.452336	0.000094	0.941705	0.159529	-0.000009
1073	1.0666e+02	9.3280	15.438079	0.000143	1.433030	0.242762	-0.000014
1074	1.0676e+02	9.3188	15.423822	0.000143	1.433030	0.242762	-0.000014
1075	1.0686e+02	9.3131	15.419749	0.000041	0.409437	0.069361	-0.000004
1076	1.0696e+02	9.2997	15.406306	0.000135	1.351142	0.228890	-0.000014
1077	1.0706e+02	9.2911	15.396123	0.000102	1.023593	0.173401	-0.000010
1078	1.0716e+02	9.2773	15.383088	0.000131	1.310199	0.221954	-0.000013
1079	1.0726e+02	9.2706	15.371275	0.000119	1.187367	0.201145	-0.000012
1080	1.0736e+02	9.2570	15.357833	0.000135	1.351142	0.228890	-0.000014
1081	1.0746e+02	9.2507	15.345612	0.000123	1.228311	0.208082	-0.000012
1082	1.0756e+02	9.2373	15.335429	0.000102	1.023593	0.173401	-0.000010
1083	1.0766e+02	9.2306	15.320764	0.000147	1.473973	0.249698	-0.000015
1084	1.0776e+02	9.2194	15.312210	0.000086	0.859818	0.145657	-0.000009
1085	1.0786e+02	9.2091	15.299990	0.000123	1.228311	0.208082	-0.000012
1086	1.0796e+02	9.2005	15.286955	0.000131	1.310199	0.221954	-0.000013
1087	1.0806e+02	9.1900	15.273920	0.000131	1.310199	0.221954	-0.000013
1088	1.0816e+02	9.1797	15.262107	0.000119	1.187367	0.201145	-0.000012
1089	1.0826e+02	9.1691	15.253960	0.000082	0.818874	0.138721	-0.000008
1090	1.0836e+02	9.1609	15.243777	0.000102	1.023593	0.173401	-0.000010
1091	1.0845e+02	9.1488	15.229112	0.000147	1.473973	0.249698	-0.000015
1092	1.0855e+02	9.1396	15.220151	0.000090	0.900762	0.152593	-0.000009
1093	1.0865e+02	9.1322	15.207116	0.000131	1.310199	0.221954	-0.000013
1094	1.0875e+02	9.1204	15.191637	0.000156	1.555861	0.263570	-0.000016
1095	1.0885e+02	9.1093	15.179009	0.000127	1.269255	0.215018	-0.000013
1096	1.0895e+02	9.0989	15.166382	0.000127	1.269255	0.215018	-0.000013
1097	1.0905e+02	9.0915	15.150088	0.000164	1.637748	0.277442	-0.000016
1098	1.0915e+02	9.0832	15.134201	0.000160	1.596805	0.270506	-0.000016
1099	1.0925e+02	9.0687	15.118722	0.000156	1.555861	0.263570	-0.000016
1100	1.0935e+02	9.0604	15.101207	0.000176	1.760579	0.298250	-0.000018
1101	1.0945e+02	9.0510	15.093467	0.000078	0.777930	0.131785	-0.000008
1102	1.0955e+02	9.0418	15.073507	0.000201	2.006242	0.339867	-0.000020
1103	1.0965e+02	9.0295	15.064546	0.000090	0.900762	0.152593	-0.000009
1104	1.0975e+02	9.0186	15.053955	0.000106	1.064536	0.180337	-0.000011
1105	1.0985e+02	9.0107	15.039698	0.000143	1.433030	0.242762	-0.000014
1106	1.0995e+02	8.9990	15.029514	0.000102	1.023593	0.173401	-0.000010
1107	1.1005e+02	8.9918	15.016887	0.000127	1.269255	0.215018	-0.000013
1108	1.1015e+02	8.9811	15.004259	0.000127	1.269255	0.215018	-0.000013
1109	1.1025e+02	8.9707	14.992446	0.000119	1.187367	0.201145	-0.000012
1110	1.1035e+02	8.9602	14.979004	0.000135	1.351142	0.228890	-0.000014
1111	1.1044e+02	8.9465	14.965154	0.000139	1.392086	0.235826	-0.000014
1112	1.1054e+02	8.9411	14.948453	0.000168	1.678692	0.284378	-0.000017
1113	1.1064e+02	8.9322	14.939899	0.000086	0.859818	0.145657	-0.000009
1114	1.1074e+02	8.9211	14.925642	0.000143	1.433030	0.242762	-0.000014
1115	1.1084e+02	8.9130	14.912607	0.000131	1.310199	0.221954	-0.000013
1116	1.1094e+02	8.9027	14.902831	0.000098	0.982649	0.166465	-0.000010
1117	1.1104e+02	8.8906	14.893055	0.000098	0.982649	0.166465	-0.000010
1118	1.1114e+02	8.8811	14.876354	0.000168	1.678692	0.284378	-0.000017
1119	1.1124e+02	8.8725	14.870651	0.000057	0.573212	0.097105	-0.000006
1120	1.1134e+02	8.8592	14.857616	0.000131	1.310199	0.221954	-0.000013
1121	1.1144e+02	8.8525	14.845803	0.000119	1.187367	0.201145	-0.000012
1122	1.1154e+02	8.8407	14.837656	0.000082	0.818874	0.138721	-0.000008
1123	1.1164e+02	8.8318	14.828287	0.000094	0.941705	0.159529	-0.000009
1124	1.1174e+02	8.8213	14.818104	0.000102	1.023593	0.173401	-0.000010
1125	1.1184e+02	8.8159	14.808327	0.000098	0.982649	0.166465	-0.000010
1126	1.1194e+02	8.8013	14.798551	0.000098	0.982649	0.166465	-0.000010
1127	1.1204e+02	8.7943	14.792441	0.000061	0.614156	0.104041	-0.000006
1128	1.1214e+02	8.7814	14.775740	0.000168	1.678692	0.284378	-0.000017
1129	1.1224e+02	8.7726	14.766371	0.000094	0.941705	0.159529	-0.000009
1130	1.1234e+02	8.7614	14.759446	0.000070	0.696043	0.117913	-0.000007
1131	1.1244e+02	8.7536	14.743967	0.000156	1.555861	0.263570	-0.000016
1132	1.1253e+02	8.7443	14.731747	0.000123	1.228311	0.208082	-0.000012
1133	1.1263e+02	8.7347	14.725637	0.000061	0.614156	0.104041	-0.000006
1134	1.1273e+02	8.7238	14.717490	0.000082	0.818874	0.138721	-0.000008
1135	1.1283e+02	8.7139	14.712602	0.000049	0.491324	0.083233	-0.000005
1136	1.1293e+02	8.7029	14.704862	0.000078	0.777930	0.131785	-0.000008
1137	1.1303e+02	8.6914	14.698345	0.000066	0.655099	0.110977	-0.000007
1138	1.1313e+02	8.6836	14.689791	0.000086	0.859818	0.145657	-0.000009
1139	1.1323e+02	8.6735	14.676756	0.000131	1.310199	0.221954	-0.000013
1140	1.1333e+02	8.6636	14.667794	0.000090	0.900762	0.152593	-0.000009
1141	1.1343e+02	8.6543	14.661277	0.000066	0.655099	0.110977	-0.000007
1142	1.1353e+02	8.6405	14.649871	0.000115	1.146424	0.194209	-0.000011
1143	1.1363e+02	8.6323	14.642539	0.000074	0.736987	0.124849	-0.000007
1144	1.1373e+02	8.6201	14.636429	0.000061	0.614156	0.104041	-0.000006
1145	1.1383e+02	8.6141	14.630726	0.000057	0.573212	0.097105	-0.000006
1146	1.1393e+02	8.6030	14.620950	0.000098	0.982649	0.166465	-0.000010
1147	1.1403e+02	8.5924	14.614432	0.000066	0.655099	0.110977	-0.000007
1148	1.1413e+02	8.5843	14.602619	0.000119	1.187367	0.201145	-0.000012
1149	1.1423e+02	8.5720	14.592436	0.000102	1.023593	0.173401	-0.000010
1150	1.1433e+02	8.5630	14.585104	0.000074	0.736987	0.124849	-0.000007
1151	1.1442e+02	8.5523	14.578994	0.000061	0.614156	0.104041	-0.000006
1152	1.1452e+02	8.5455	14.570847	0.000082	0.818874	0.138721	-0.000008
1153	1.1462e+02	8.5320	14.562700	0.000082	0.818874	0.138721	-0.000008
1154	1.1472e+02	8.5233	14.550480	0.000123	1.228311	0.208082	-0.000012
1155	1.1482e+02	8.5151	14.540296	0.000102	1.023593	0.173401	-0.000010
1156	1.1492e+02	8.5059	14.531335	0.000090	0.900762	0.152593	-0.000009
1157	1.1502e+02	8.4951	14.518300	0.000131	1.310199	0.221954	-0.000013
1158	1.1512e+02	8.4874	14.504857	0.000135	1.351142	0.228890	-0.000014
1159	1.1522e+02	8.4727	14.496303	0.000086	0.859818	0.145657	-0.000009
1160	1.1532e+02	8.4644	14.484490	0.000119	1.187367	0.201145	-0.000012
1161	1.1542e+02	8.4547	14.472677	0.000119	1.187367	0.201145	-0.000012
1162	1.1552e+02	8.4424	14.462901	0.000098	0.982649	0.166465	-0.000010
1163	1.1562e+02	8.4326	14.453532	0.000094	0.941705	0.159529	-0.000009
1164	1.1572e+02	8.4229	14.440497	0.000131	1.310199	0.221954	-0.000013
1165	1.1582e+02	8.4151	14.428684	0.000119	1.187367	0.201145	-0.000012
1166	1.1592e+02	8.4039	14.418093	0.000106	1.064536	0.180337	-0.000011
1167	1.1602e+02	8.3950	14.403429	0.000147	1.473973	0.249698	-0.000015
1168	1.1612e+02	8.3854	14.389987	0.000135	1.351142	0.228890	-0.000014
1169	1.1622e+02	8.3727	14.375730	0.000143	1.433030	0.242762	-0.000014
1170	1.1632e+02	8.3664	14.365139	0.000106	1.064536	0.180337	-0.000011
1171	1.1642e+02	8.3540	14.350882	0.000143	1.433030	0.242762	-0.000014
1172	1.1651e+02	8.3447	14.334588	0.000164	1.637748	0.277442	-0.000016
1173	1.1661e+02	8.3365	14.321960	0.000127	1.269255	0.215018	-0.000013
1174	1.1671e+02	8.3216	14.304037	0.000180	1.801523	0.305186	-0.000018
1175	1.1681e+02	8.3156	14.290595	0.000135	1.351142	0.228890	-0.000014
1176	1.1691e+02	8.3062	14.273487	0.000172	1.719636	0.291314	-0.000017
1177	1.1701e+02	8.2936	14.256786	0.000168	1.678692	0.284378	-0.000017
1178	1.1711e+02	8.2848	14.238048	0.000188	1.883410	0.319058	-0.000019
1179	1.1721e+02	8.2735	14.223384	0.000147	1.473973	0.249698	-0.000015
1180	1.1731e+02	8.2642	14.208312	0.000151	1.514917	0.256634	-0.000015
1181	1.1741e+02	8.2536	14.193240	0.000151	1.514917	0.256634	-0.000015
1182	1.1751e+02	8.2484	14.176132	0.000172	1.719636	0.291314	-0.000017
1183	1.1761e+02	8.2343	14.161467	0.000147	1.473973	0.249698	-0.000015
1184	1.1771e+02	8.2245	14.143137	0.000184	1.842467	0.312122	-0.000018
1185	1.1781e+02	8.2172	14.129287	0.000139	1.392086	0.235826	-0.000014
1186	1.1791e+02	8.2035	14.110550	0.000188	1.883410	0.319058	-0.000019
1187	1.1801e+02	8.1967	14.097922	0.000127	1.269255	0.215018	-0.000013
1188	1.1811e+02	8.1865	14.081628	0.000164	1.637748	0.277442	-0.000016
1189	1.1821e+02	8.1738	14.062483	0.000192	1.924354	0.325994	-0.000019
1190	1.1831e+02	8.1667	14.048634	0.000139	1.392086	0.235826	-0.000014
1191	1.1841e+02	8.1543	14.028674	0.000201	2.006242	0.339867	-0.000020
1192	1.1850e+02	8.1445	14.019712	0.000090	0.900762	0.152593	-0.000009
1193	1.1860e+02	8.1369	14.000160	0.000197	1.965298	0.332930	-0.000020
1194	1.1870e+02	8.1271	13.984273	0.000160	1.596805	0.270506	-0.000016
1195	1.1880e+02	8.1157	13.965943	0.000184	1.842467	0.312122	-0.000018
1196	1.1890e+02	8.1052	13.953315	0.000127	1.269255	0.215018	-0.000013
1197	1.1900e+02	8.0957	13.933763	0.000197	1.965298	0.332930	-0.000020
1198	1.1910e+02	8.0853	13.916655	0.000172	1.719636	0.291314	-0.000017
1199	1.1920e+02	8.0769	13.901583	0.000151	1.514917	0.256634	-0.000015
1200	1.1930e+02	8.0659	13.880808	0.000209	2.088129	0.353739	-0.000021
1201	1.1940e+02	8.0561	13.864922	0.000160	1.596805	0.270506	-0.000016
1202	1.1950e+02	8.0444	13.843740	0.000213	2.129073	0.360675	-0.000021
1203	1.1960e+02	8.0347	13.827039	0.000168	1.678692	0.284378	-0.000017
1204	1.1970e+02	8.0252	13.806265	0.000209	2.088129	0.353739	-0.000021
1205	1.1980e+02	8.0171	13.785898	0.000205	2.047185	0.346803	-0.000020
1206	1.1990e+02	8.0093	13.766753	0.000192	1.924354	0.325994	-0.000019
1207	1.2000e+02	7.9952	13.751274	0.000156	1.555861	0.263570	-0.000016
1208	1.2010e+02	7.9839	13.732536	0.000188	1.883410	0.319058	-0.000019
1209	1.2020e+02	7.9763	13.710539	0.000221	2.210960	0.374547	-0.000022
1210	1.2030e+02	7.9699	13.695060	0.000156	1.555861	0.263570	-0.000016
1211	1.2039e+02	7.9569	13.676322	0.000188	1.883410	0.319058	-0.000019
1212	1.2049e+02	7.9452	13.658807	0.000176	1.760579	0.298250	-0.000018
1213	1.2059e+02	7.9371	13.634774	0.000242	2.415679	0.409227	-0.000024
1214	1.2069e+02	7.9248	13.618887	0.000160	1.596805	0.270506	-0.000016
1215	1.2079e+02	7.9183	13.599335	0.000197	1.965298	0.332930	-0.000020
1216	1.2089e+02	7.9057	13.576116	0.000233	2.333791	0.395355	-0.000023
1217	1.2099e+02	7.8960	13.565118	0.000111	1.105480	0.187273	-0.000011
1218	1.2109e+02	7.8860	13.549639	0.000156	1.555861	0.263570	-0.000016
1219	1.2119e+02	7.8785	13.530087	0.000197	1.965298	0.332930	-0.000020
1220	1.2129e+02	7.8664	13.512978	0.000172	1.719636	0.291314	-0.000017
1221	1.2139e+02	7.8570	13.486908	0.000262	2.620397	0.443907	-0.000026
1222	1.2149e+02	7.8471	13.468985	0.000180	1.801523	0.305186	-0.000018
1223	1.2159e+02	7.8369	13.452691	0.000164	1.637748	0.277442	-0.000016
1224	1.2169e+02	7.8271	13.430288	0.000225	2.251904	0.381483	-0.000023
1225	1.2179e+02	7.8143	13.410328	0.000201	2.006242	0.339867	-0.000020
1226	1.2189e+02	7.8076	13.391997	0.000184	1.842467	0.312122	-0.000018
1227	1.2199e+02	7.7967	13.371223	0.000209	2.088129	0.353739	-0.000021
1228	1.2209e+02	7.7891	13.348819	0.000225	2.251904	0.381483	-0.000023
1229	1.2219e+02	7.7760	13.326415	0.000225	2.251904	0.381483	-0.000023
1230	1.2229e+02	7.7686	13.303604	0.000229	2.292848	0.388419	-0.000023
1231	1.2239e+02	7.7563	13.282015	0.000217	2.170016	0.367611	-0.000022
1232	1.2248e+02	7.7466	13.257167	0.000250	2.497566	0.423099	-0.000025
1233	1.2258e+02	7.7385	13.237615	0.000197	1.965298	0.332930	-0.000020
1234	1.2268e+02	7.7246	13.213989	0.000237	2.374735	0.402291	-0.000024
1235	1.2278e+02	7.7181	13.195251	0.000188	1.883410	0.319058	-0.000019
1236	1.2288e+02	7.7068	13.178143	0.000172	1.719636	0.291314	-0.000017
1237	1.2298e+02	7.6962	13.154517	0.000237	2.374735	0.402291	-0.000024
1238	1.2308e+02	7.6880	13.132928	0.000217	2.170016	0.367611	-0.000022
1239	1.2318e+02	7.6764	13.111338	0.000217	2.170016	0.367611	-0.000022
1240	1.2328e+02	7.6665	13.098711	0.000127	1.269255	0.215018	-0.000013
1241	1.2338e+02	7.6600	13.074678	0.000242	2.415679	0.409227	-0.000024
1242	1.2348e+02	7.6469	13.053903	0.000209	2.088129	0.353739	-0.000021
1243	1.2358e+02	7.6363	13.039646	0.000143	1.433030	0.242762	-0.000014
1244	1.2368e+02	7.6294	13.017650	0.000221	2.210960	0.374547	-0.000022
1245	1.2378e+02	7.6182	12.993616	0.000242	2.415679	0.409227	-0.000024
1246	1.2388e+02	7.6076	12.975693	0.000180	1.801523	0.305186	-0.000018
1247	1.2398e+02	7.5991	12.959807	0.000160	1.596805	0.270506	-0.000016
1248	1.2408e+02	7.5879	12.936181	0.000237	2.374735	0.402291	-0.000024
1249	1.2418e+02	7.5769	12.913777	0.000225	2.251904	0.381483	-0.000023
1250	1.2428e+02	7.5678	12.896262	0.000176	1.760579	0.298250	-0.000018
1251	1.2438e+02	7.5597	12.875894	0.000205	2.047185	0.346803	-0.000020
1252	1.2447e+02	7.5479	12.852269	0.000237	2.374735	0.402291	-0.000024
1253	1.2457e+02	7.5375	12.833938	0.000184	1.842467	0.312122	-0.000018
1254	1.2467e+02	7.5304	12.816015	0.000180	1.801523	0.305186	-0.000018
1255	1.2477e+02	7.5188	12.792389	0.000237	2.374735	0.402291	-0.000024
1256	1.2487e+02	7.5098	12.774873	0.000176	1.760579	0.298250	-0.000018
1257	1.2497e+02	7.4951	12.754099	0.000209	2.088129	0.353739	-0.000021
1258	1.2507e+02	7.4880	12.734954	0.000192	1.924354	0.325994	-0.000019
1259	1.2517e+02	7.4784	12.717845	0.000172	1.719636	0.291314	-0.000017
1260	1.2527e+02	7.4680	12.698293	0.000197	1.965298	0.332930	-0.000020
1261	1.2537e+02	7.4582	12.675482	0.000229	2.292848	0.388419	-0.000023
1262	1.2547e+02	7.4453	12.654300	0.000213	2.129073	0.360675	-0.000021
1263	1.2557e+02	7.4395	12.635562	0.000188	1.883410	0.319058	-0.000019
1264	1.2567e+02	7.4291	12.615602	0.000201	2.006242	0.339867	-0.000020
1265	1.2577e+02	7.4178	12.595643	0.000201	2.006242	0.339867	-0.000020
1266	1.2587e+02	7.4093	12.571609	0.000242	2.415679	0.409227	-0.000024
1267	1.2597e+02	7.4010	12.545540	0.000262	2.620397	0.443907	-0.000026
1268	1.2607e+02	7.3900	12.525580	0.000201	2.006242	0.339867	-0.000020
1269	1.2617e+02	7.3795	12.507249	0.000184	1.842467	0.312122	-0.000018
1270	1.2627e+02	7.3703	12.482809	0.000246	2.456622	0.416163	-0.000025
1271	1.2636e+02	7.3584	12.464071	0.000188	1.883410	0.319058	-0.000019
1272	1.2646e+02	7.3486	12.449407	0.000147	1.473973	0.249698	-0.000015
1273	1.2656e+02	7.3413	12.422522	0.000270	2.702285	0.457779	-0.000027
1274	1.2666e+02	7.3323	12.401340	0.000213	2.129073	0.360675	-0.000021
1275	1.2676e+02	7.3198	12.381788	0.000197	1.965298	0.332930	-0.000020
1276	1.2686e+02	7.3104	12.362235	0.000197	1.965298	0.332930	-0.000020
1277	1.2696e+02	7.2990	12.341868	0.000205	2.047185	0.346803	-0.000020
1278	1.2706e+02	7.2906	12.318650	0.000233	2.333791	0.395355	-0.000023
1279	1.2716e+02	7.2814	12.295839	0.000229	2.292848	0.388419	-0.000023
1280	1.2726e+02	7.2729	12.272213	0.000237	2.374735	0.402291	-0.000024
1281	1.2736e+02	7.2588	12.251031	0.000213	2.129073	0.360675	-0.000021
1282	1.2746e+02	7.2511	12.233923	0.000172	1.719636	0.291314	-0.000017
1283	1.2756e+02	7.2398	12.211111	0.000229	2.292848	0.388419	-0.000023
1284	1.2766e+02	7.2260	12.191559	0.000197	1.965298	0.332930	-0.000020
1285	1.2776e+02	7.2217	12.173228	0.000184	1.842467	0.312122	-0.000018
1286	1.2786e+02	7.2103	12.152047	0.000213	2.129073	0.360675	-0.000021
1287	1.2796e+02	7.2001	12.129643	0.000225	2.251904	0.381483	-0.000023
1288	1.2806e+02	7.1897	12.112534	0.000172	1.719636	0.291314	-0.000017
1289	1.2816e+02	7.1826	12.089723	0.000229	2.292848	0.388419	-0.000023
1290	1.2826e+02	7.1714	12.067727	0.000221	2.210960	0.374547	-0.000022
1291	1.2835e+02	7.1590	12.049804	0.000180	1.801523	0.305186	-0.000018
1292	1.2845e+02	7.1496	12.028622	0.000213	2.129073	0.360675	-0.000021
1293	1.2855e+02	7.1389	12.009477	0.000192	1.924354	0.325994	-0.000019
1294	1.2865e+02	7.1269	11.986666	0.000229	2.292848	0.388419	-0.000023
1295	1.2875e+02	7.1203	11.969557	0.000172	1.719636	0.291314	-0.000017
1296	1.2885e+02	7.1098	11.948375	0.000213	2.129073	0.360675	-0.000021
1297	1.2895e+02	7.0993	11.929230	0.000192	1.924354	0.325994	-0.000019
1298	1.2905e+02	7.0890	11.909678	0.000197	1.965298	0.332930	-0.000020
1299	1.2915e+02	7.0816	11.889718	0.000201	2.006242	0.339867	-0.000020
1300	1.2925e+02	7.0716	11.868944	0.000209	2.088129	0.353739	-0.000021
1301	1.2935e+02	7.0625	11.850613	0.000184	1.842467	0.312122	-0.000018
1302	1.2945e+02	7.0486	11.838800	0.000119	1.187367	0.201145	-0.000012
1303	1.2955e+02	7.0446	11.818026	0.000209	2.088129	0.353739	-0.000021
1304	1.2965e+02	7.0318	11.797659	0.000205	2.047185	0.346803	-0.000020
1305	1.2975e+02	7.0200	11.785438	0.000123	1.228311	0.208082	-0.000012
1306	1.2985e+02	7.0123	11.764664	0.000209	2.088129	0.353739	-0.000021
1307	1.2995e+02	7.0044	11.747556	0.000172	1.719636	0.291314	-0.000017
1308	1.3005e+02	6.9919	11.725966	0.000217	2.170016	0.367611	-0.000022
1309	1.3015e+02	6.9807	11.710080	0.000160	1.596805	0.270506	-0.000016
1310	1.3025e+02	6.9711	11.692157	0.000180	1.801523	0.305186	-0.000018
1311	1.3034e+02	6.9613	11.671382	0.000209	2.088129	0.353739	-0.000021
1312	1.3044e+02	6.9508	11.654274	0.000172	1.719636	0.291314	-0.000017
1313	1.3054e+02	6.9445	11.637573	0.000168	1.678692	0.284378	-0.000017
1314	1.3064e+02	6.9327	11.618428	0.000192	1.924354	0.325994	-0.000019
1315	1.3074e+02	6.9234	11.600505	0.000180	1.801523	0.305186	-0.000018
1316	1.3084e+02	6.9134	11.581767	0.000188	1.883410	0.319058	-0.000019
1317	1.3094e+02	6.9006	11.565881	0.000160	1.596805	0.270506	-0.000016
1318	1.3104e+02	6.8908	11.547550	0.000184	1.842467	0.312122	-0.000018
1319	1.3114e+02	6.8832	11.528813	0.000188	1.883410	0.319058	-0.000019
1320	1.3124e+02	6.8702	11.510889	0.000180	1.801523	0.305186	-0.000018
1321	1.3134e+02	6.8609	11.491744	0.000192	1.924354	0.325994	-0.000019
1322	1.3144e+02	6.8523	11.469341	0.000225	2.251904	0.381483	-0.000023
1323	1.3154e+02	6.8421	11.455898	0.000135	1.351142	0.228890	-0.000014
1324	1.3164e+02	6.8320	11.434716	0.000213	2.129073	0.360675	-0.000021
1325	1.3174e+02	6.8218	11.412720	0.000221	2.210960	0.374547	-0.000022
1326	1.3184e+02	6.8158	11.396426	0.000164	1.637748	0.277442	-0.000016
1327	1.3194e+02	6.8039	11.373615	0.000229	2.292848	0.388419	-0.000023
1328	1.3204e+02	6.7907	11.351619	0.000221	2.210960	0.374547	-0.000022
1329	1.3214e+02	6.7827	11.332066	0.000197	1.965298	0.332930	-0.000020
1330	1.3224e+02	6.7726	11.313328	0.000188	1.883410	0.319058	-0.000019
1331	1.3234e+02	6.7648	11.292147	0.000213	2.129073	0.360675	-0.000021
1332	1.3243e+02	6.7547	11.271779	0.000205	2.047185	0.346803	-0.000020
1333	1.3253e+02	6.7439	11.255486	0.000164	1.637748	0.277442	-0.000016
1334	1.3263e+02	6.7303	11.233897	0.000217	2.170016	0.367611	-0.000022
1335	1.3273e+02	6.7204	11.212307	0.000217	2.170016	0.367611	-0.000022
1336	1.3283e+02	6.7123	11.193977	0.000184	1.842467	0.312122	-0.000018
1337	1.3293e+02	6.7001	11.174425	0.000197	1.965298	0.332930	-0.000020
1338	1.3303e+02	6.6952	11.155279	0.000192	1.924354	0.325994	-0.000019
1339	1.3313e+02	6.6814	11.134505	0.000209	2.088129	0.353739	-0.000021
1340	1.3323e+02	6.6729	11.117397	0.000172	1.719636	0.291314	-0.000017
1341	1.3333e+02	6.6636	11.095400	0.000221	2.210960	0.374547	-0.000022
1342	1.3343e+02	6.6545	11.072182	0.000233	2.333791	0.395355	-0.000023
1343	1.3353e+02	6.6429	11.056295	0.000160	1.596805	0.270506	-0.000016
1344	1.3363e+02	6.6341	11.034299	0.000221	2.210960	0.374547	-0.000022
1345	1.3373e+02	6.6204	11.018005	0.000164	1.637748	0.277442	-0.000016
1346	1.3383e+02	6.6128	10.993972	0.000242	2.415679	0.409227	-0.000024
1347	1.3393e+02	6.6033	10.974419	0.000197	1.965298	0.332930	-0.000020
1348	1.3403e+02	6.5923	10.955274	0.000192	1.924354	0.325994	-0.000019
1349	1.3413e+02	6.5818	10.936536	0.000188	1.883410	0.319058	-0.000019
1350	1.3423e+02	6.5752	10.919835	0.000168	1.678692	0.284378	-0.000017
1351	1.3432e+02	6.5643	10.902320	0.000176	1.760579	0.298250	-0.000018
1352	1.3442e+02	6.5527	10.885211	0.000172	1.719636	0.291314	-0.000017
1353	1.3452e+02	6.5435	10.863215	0.000221	2.210960	0.374547	-0.000022
1354	1.3462e+02	6.5328	10.845292	0.000180	1.801523	0.305186	-0.000018
1355	1.3472e+02	6.5233	10.822888	0.000225	2.251904	0.381483	-0.000023
1356	1.3482e+02	6.5105	10.802113	0.000209	2.088129	0.353739	-0.000021
1357	1.3492e+02	6.5068	10.782154	0.000201	2.006242	0.339867	-0.000020
1358	1.3502e+02	6.4950	10.763416	0.000188	1.883410	0.319058	-0.000019
1359	1.3512e+02	6.4825	10.745900	0.000176	1.760579	0.298250	-0.000018
1360	1.3522e+02	6.4735	10.725940	0.000201	2.006242	0.339867	-0.000020
1361	1.3532e+02	6.4627	10.706795	0.000192	1.924354	0.325994	-0.000019
1362	1.3542e+02	6.4495	10.687650	0.000192	1.924354	0.325994	-0.000019
1363	1.3552e+02	6.4442	10.668098	0.000197	1.965298	0.332930	-0.000020
1364	1.3562e+02	6.4329	10.647323	0.000209	2.088129	0.353739	-0.000021
1365	1.3572e+02	6.4263	10.626549	0.000209	2.088129	0.353739	-0.000021
1366	1.3582e+02	6.4127	10.604552	0.000221	2.210960	0.374547	-0.000022
1367	1.3592e+02	6.4051	10.582963	0.000217	2.170016	0.367611	-0.000022
1368	1.3602e+02	6.3924	10.560152	0.000229	2.292848	0.388419	-0.000023
1369	1.3612e+02	6.3840	10.537341	0.000229	2.292848	0.388419	-0.000023
1370	1.3622e+02	6.3772	10.518196	0.000192	1.924354	0.325994	-0.000019
1371	1.3631e+02	6.3616	10.492940	0.000254	2.538510	0.430035	-0.000025
1372	1.3641e+02	6.3519	10.472573	0.000205	2.047185	0.346803	-0.000020
1373	1.3651e+02	6.3435	10.452206	0.000205	2.047185	0.346803	-0.000020
1374	1.3661e+02	6.3341	10.430617	0.000217	2.170016	0.367611	-0.000022
1375	1.3671e+02	6.3260	10.409843	0.000209	2.088129	0.353739	-0.000021
1376	1.3681e+02	6.3148	10.387031	0.000229	2.292848	0.388419	-0.000023
1377	1.3691e+02	6.3042	10.359739	0.000274	2.743228	0.464715	-0.000027
1378	1.3701e+02	6.2969	10.343038	0.000168	1.678692	0.284378	-0.000017
1379	1.3711e+02	6.2835	10.322671	0.000205	2.047185	0.346803	-0.000020
1380	1.3721e+02	6.2759	10.297009	0.000258	2.579453	0.436971	-0.000026
1381	1.3731e+02	6.2643	10.277049	0.000201	2.006242	0.339867	-0.000020
1382	1.3741e+02	6.2556	10.250164	0.000270	2.702285	0.457779	-0.000027
1383	1.3751e+02	6.2467	10.225724	0.000246	2.456622	0.416163	-0.000025
1384	1.3761e+02	6.2356	10.205764	0.000201	2.006242	0.339867	-0.000020
1385	1.3771e+02	6.2280	10.180101	0.000258	2.579453	0.436971	-0.000026
1386	1.3781e+02	6.2173	10.156476	0.000237	2.374735	0.402291	-0.000024
1387	1.3791e+02	6.2054	10.134479	0.000221	2.210960	0.374547	-0.000022
1388	1.3801e+02	6.1955	10.108816	0.000258	2.579453	0.436971	-0.000026
1389	1.3811e+02	6.1854	10.082339	0.000266	2.661341	0.450843	-0.000027
1390	1.3821e+02	6.1758	10.059935	0.000225	2.251904	0.381483	-0.000023
1391	1.3831e+02	6.1658	10.033051	0.000270	2.702285	0.457779	-0.000027
1392	1.3840e+02	6.1552	10.008610	0.000246	2.456622	0.416163	-0.000025
1393	1.3850e+02	6.1469	9.988650	0.000201	2.006242	0.339867	-0.000020
1394	1.3860e+02	6.1341	9.965839	0.000229	2.292848	0.388419	-0.000023
1395	1.3870e+02	6.1253	9.940177	0.000258	2.579453	0.436971	-0.000026
1396	1.3880e+02	6.1127	9.913699	0.000266	2.661341	0.450843	-0.000027
1397	1.3890e+02	6.1081	9.890888	0.000229	2.292848	0.388419	-0.000023
1398	1.3900e+02	6.0943	9.865226	0.000258	2.579453	0.436971	-0.000026
1399	1.3910e+02	6.0889	9.833860	0.000315	3.152665	0.534076	-0.000032
1400	1.3920e+02	6.0767	9.812271	0.000217	2.170016	0.367611	-0.000022
1401	1.3930e+02	6.0656	9.785794	0.000266	2.661341	0.450843	-0.000027
1402	1.3940e+02	6.0547	9.761761	0.000242	2.415679	0.409227	-0.000024
1403	1.3950e+02	6.0458	9.735691	0.000262	2.620397	0.443907	-0.000026
1404	1.3960e+02	6.0354	9.713694	0.000221	2.210960	0.374547	-0.000022
1405	1.3970e+02	6.0258	9.689661	0.000242	2.415679	0.409227	-0.000024
1406	1.3980e+02	6.0156	9.666035	0.000237	2.374735	0.402291	-0.000024
1407	1.3990e+02	6.0064	9.641187	0.000250	2.497566	0.423099	-0.000025
1408	1.4000e+02	5.9962	9.615932	0.000254	2.538510	0.430035	-0.000025
1409	1.4010e+02	5.9884	9.593935	0.000221	2.210960	0.374547	-0.000022
1410	1.4020e+02	5.9768	9.567866	0.000262	2.620397	0.443907	-0.000026
1411	1.4029e+02	5.9668	9.546276	0.000217	2.170016	0.367611	-0.000022
1412	1.4039e+02	5.9559	9.522243	0.000242	2.415679	0.409227	-0.000024
1413	1.4049e+02	5.9475	9.494951	0.000274	2.743228	0.464715	-0.000027
1414	1.4059e+02	5.9356	9.472955	0.000221	2.210960	0.374547	-0.000022
1415	1.4069e+02	5.9287	9.447699	0.000254	2.538510	0.430035	-0.000025
1416	1.4079e+02	5.9219	9.424888	0.000229	2.292848	0.388419	-0.000023
1417	1.4089e+02	5.9103	9.399633	0.000254	2.538510	0.430035	-0.000025
1418	1.4099e+02	5.8976	9.376007	0.000237	2.374735	0.402291	-0.000024
1419	1.4109e+02	5.8846	9.353196	0.000229	2.292848	0.388419	-0.000023
1420	1.4119e+02	5.8781	9.328348	0.000250	2.497566	0.423099	-0.000025
1421	1.4129e+02	5.8678	9.301463	0.000270	2.702285	0.457779	-0.000027
1422	1.4139e+02	5.8561	9.279060	0.000225	2.251904	0.381483	-0.000023
1423	1.4149e+02	5.8492	9.255026	0.000242	2.415679	0.409227	-0.000024
1424	1.4159e+02	5.8402	9.231401	0.000237	2.374735	0.402291	-0.000024
1425	1.4169e+02	5.8298	9.210219	0.000213	2.129073	0.360675	-0.000021
1426	1.4179e+02	5.8173	9.186186	0.000242	2.415679	0.409227	-0.000024
1427	1.4189e+02	5.8088	9.160523	0.000258	2.579453	0.436971	-0.000026
1428	1.4199e+02	5.7978	9.137712	0.000229	2.292848	0.388419	-0.000023
1429	1.4209e+02	5.7862	9.108790	0.000291	2.907003	0.492460	-0.000029
1430	1.4219e+02	5.7774	9.088423	0.000205	2.047185	0.346803	-0.000020
1431	1.4228e+02	5.7661	9.061131	0.000274	2.743228	0.464715	-0.000027
1432	1.4238e+02	5.7574	9.035061	0.000262	2.620397	0.443907	-0.000026
1433	1.4248e+02	5.7487	9.012658	0.000225	2.251904	0.381483	-0.000023
1434	1.4258e+02	5.7369	8.985773	0.000270	2.702285	0.457779	-0.000027
1435	1.4268e+02	5.7315	8.960518	0.000254	2.538510	0.430035	-0.000025
1436	1.4278e+02	5.7214	8.934855	0.000258	2.579453	0.436971	-0.000026
1437	1.4288e+02	5.7101	8.911637	0.000233	2.333791	0.395355	-0.000023
1438	1.4298e+02	5.6977	8.885567	0.000262	2.620397	0.443907	-0.000026
1439	1.4308e+02	5.6902	8.859904	0.000258	2.579453	0.436971	-0.000026
1440	1.4318e+02	5.6811	8.837500	0.000225	2.251904	0.381483	-0.000023
1441	1.4328e+02	5.6683	8.813467	0.000242	2.415679	0.409227	-0.000024
1442	1.4338e+02	5.6535	8.787805	0.000258	2.579453	0.436971	-0.000026
1443	1.4348e+02	5.6487	8.758069	0.000299	2.988890	0.506332	-0.000030
1444	1.4358e+02	5.6374	8.731999	0.000262	2.620397	0.443907	-0.000026
1445	1.4368e+02	5.6321	8.707151	0.000250	2.497566	0.423099	-0.000025
1446	1.4378e+02	5.6202	8.683932	0.000233	2.333791	0.395355	-0.000023
1447	1.4388e+02	5.6084	8.658270	0.000258	2.579453	0.436971	-0.000026
1448	1.4398e+02	5.5991	8.632607	0.000258	2.579453	0.436971	-0.000026
1449	1.4408e+02	5.5886	8.609796	0.000229	2.292848	0.388419	-0.000023
1450	1.4418e+02	5.5790	8.585355	0.000246	2.456622	0.416163	-0.000025
1451	1.4428e+02	5.5692	8.559693	0.000258	2.579453	0.436971	-0.000026
1452	1.4437e+02	5.5560	8.537289	0.000225	2.251904	0.381483	-0.000023
1453	1.4447e+02	5.5494	8.512441	0.000250	2.497566	0.423099	-0.000025
1454	1.4457e+02	5.5398	8.493703	0.000188	1.883410	0.319058	-0.000019
1455	1.4467e+02	5.5264	8.466004	0.000278	2.784172	0.471651	-0.000028
1456	1.4477e+02	5.5196	8.441971	0.000242	2.415679	0.409227	-0.000024
1457	1.4487e+02	5.5099	8.416308	0.000258	2.579453	0.436971	-0.000026
1458	1.4497e+02	5.4997	8.393904	0.000225	2.251904	0.381483	-0.000023
1459	1.4507e+02	5.4937	8.369464	0.000246	2.456622	0.416163	-0.000025
1460	1.4517e+02	5.4794	8.348689	0.000209	2.088129	0.353739	-0.000021
1461	1.4527e+02	5.4708	8.327915	0.000209	2.088129	0.353739	-0.000021
1462	1.4537e+02	5.4589	8.297364	0.000307	3.070778	0.520204	-0.000031
1463	1.4547e+02	5.4493	8.273331	0.000242	2.415679	0.409227	-0.000024
1464	1.4557e+02	5.4397	8.249705	0.000237	2.374735	0.402291	-0.000024
1465	1.4567e+02	5.4287	8.227301	0.000225	2.251904	0.381483	-0.000023
1466	1.4577e+02	5.4177	8.202046	0.000254	2.538510	0.430035	-0.000025
1467	1.4587e+02	5.4066	8.180864	0.000213	2.129073	0.360675	-0.000021
1468	1.4597e+02	5.4004	8.159275	0.000217	2.170016	0.367611	-0.000022
1469	1.4607e+02	5.3927	8.135242	0.000242	2.415679	0.409227	-0.000024
1470	1.4617e+02	5.3786	8.112431	0.000229	2.292848	0.388419	-0.000023
1471	1.4626e+02	5.3677	8.094508	0.000180	1.801523	0.305186	-0.000018
1472	1.4636e+02	5.3579	8.069660	0.000250	2.497566	0.423099	-0.000025
1473	1.4646e+02	5.3486	8.052144	0.000176	1.760579	0.298250	-0.000018
1474	1.4656e+02	5.3378	8.028111	0.000242	2.415679	0.409227	-0.000024
1475	1.4666e+02	5.3308	8.006929	0.000213	2.129073	0.360675	-0.000021
1476	1.4676e+02	5.3216	7.983710	0.000233	2.333791	0.395355	-0.000023
1477	1.4686e+02	5.3105	7.958455	0.000254	2.538510	0.430035	-0.000025
1478	1.4696e+02	5.2985	7.937273	0.000213	2.129073	0.360675	-0.000021
1479	1.4706e+02	5.2894	7.912425	0.000250	2.497566	0.423099	-0.000025
1480	1.4716e+02	5.2827	7.890836	0.000217	2.170016	0.367611	-0.000022
1481	1.4726e+02	5.2718	7.872506	0.000184	1.842467	0.312122	-0.000018
1482	1.4736e+02	5.2595	7.849287	0.000233	2.333791	0.395355	-0.000023
1483	1.4746e+02	5.2505	7.826069	0.000233	2.333791	0.395355	-0.000023
1484	1.4756e+02	5.2409	7.802850	0.000233	2.333791	0.395355	-0.000023
1485	1.4766e+02	5.2291	7.785742	0.000172	1.719636	0.291314	-0.000017
1486	1.4776e+02	5.2213	7.760894	0.000250	2.497566	0.423099	-0.000025
1487	1.4786e+02	5.2129	7.738897	0.000221	2.210960	0.374547	-0.000022
1488	1.4796e+02	5.2032	7.718123	0.000209	2.088129	0.353739	-0.000021
1489	1.4806e+02	5.1899	7.693275	0.000250	2.497566	0.423099	-0.000025
1490	1.4816e+02	5.1790	7.665576	0.000278	2.784172	0.471651	-0.000028
1491	1.4825e+02	5.1729	7.646023	0.000197	1.965298	0.332930	-0.000020
1492	1.4835e+02	5.1614	7.622805	0.000233	2.333791	0.395355	-0.000023
1493	1.4845e+02	5.1495	7.598772	0.000242	2.415679	0.409227	-0.000024
1494	1.4855e+02	5.1392	7.570665	0.000283	2.825116	0.478588	-0.000028
1495	1.4865e+02	5.1289	7.548668	0.000221	2.210960	0.374547	-0.000022
1496	1.4875e+02	5.1185	7.524635	0.000242	2.415679	0.409227	-0.000024
1497	1.4885e+02	5.1106	7.500195	0.000246	2.456622	0.416163	-0.000025
1498	1.4895e+02	5.1011	7.476569	0.000237	2.374735	0.402291	-0.000024
1499	1.4905e+02	5.0886	7.453758	0.000229	2.292848	0.388419	-0.000023
1500	1.4915e+02	5.0805	7.428502	0.000254	2.538510	0.430035	-0.000025
1501	1.4925e+02	5.0690	7.404877	0.000237	2.374735	0.402291	-0.000024
1502	1.4935e+02	5.0597	7.382880	0.000221	2.210960	0.374547	-0.000022
1503	1.4945e+02	5.0488	7.358032	0.000250	2.497566	0.423099	-0.000025
1504	1.4955e+02	5.0408	7.332777	0.000254	2.538510	0.430035	-0.000025
1505	1.4965e+02	5.0321	7.303041	0.000299	2.988890	0.506332	-0.000030
1506	1.4975e+02	5.0219	7.283488	0.000197	1.965298	0.332930	-0.000020
1507	1.4985e+02	5.0099	7.256604	0.000270	2.702285	0.457779	-0.000027
1508	1.4995e+02	5.0042	7.230127	0.000266	2.661341	0.450843	-0.000027
1509	1.5005e+02	4.9917	7.204464	0.000258	2.579453	0.436971	-0.000026
1510	1.5015e+02	4.9813	7.183282	0.000213	2.129073	0.360675	-0.000021
1511	1.5025e+02	4.9733	7.157620	0.000258	2.579453	0.436971	-0.000026
1512	1.5034e+02	4.9619	7.131550	0.000262	2.620397	0.443907	-0.000026
1513	1.5044e+02	4.9510	7.109961	0.000217	2.170016	0.367611	-0.000022
1514	1.5054e+02	4.9441	7.084298	0.000258	2.579453	0.436971	-0.000026
1515	1.5064e+02	4.9334	7.056599	0.000278	2.784172	0.471651	-0.000028
1516	1.5074e+02	4.9242	7.035824	0.000209	2.088129	0.353739	-0.000021
1517	1.5084e+02	4.9129	7.013013	0.000229	2.292848	0.388419	-0.000023
1518	1.5094e+02	4.9017	6.990202	0.000229	2.292848	0.388419	-0.000023
1519	1.5104e+02	4.8927	6.967391	0.000229	2.292848	0.388419	-0.000023
1520	1.5114e+02	4.8800	6.943357	0.000242	2.415679	0.409227	-0.000024
1521	1.5124e+02	4.8699	6.918102	0.000254	2.538510	0.430035	-0.000025
1522	1.5134e+02	4.8624	6.890403	0.000278	2.784172	0.471651	-0.000028
1523	1.5144e+02	4.8553	6.870443	0.000201	2.006242	0.339867	-0.000020
1524	1.5154e+02	4.8409	6.844373	0.000262	2.620397	0.443907	-0.000026
1525	1.5164e+02	4.8327	6.816674	0.000278	2.784172	0.471651	-0.000028
1526	1.5174e+02	4.8199	6.795492	0.000213	2.129073	0.360675	-0.000021
1527	1.5184e+02	4.8132	6.771866	0.000237	2.374735	0.402291	-0.000024
1528	1.5194e+02	4.8045	6.747833	0.000242	2.415679	0.409227	-0.000024
1529	1.5204e+02	4.7922	6.725022	0.000229	2.292848	0.388419	-0.000023
1530	1.5214e+02	4.7836	6.697323	0.000278	2.784172	0.471651	-0.000028
1531	1.5224e+02	4.7713	6.672882	0.000246	2.456622	0.416163	-0.000025
1532	1.5233e+02	4.7646	6.646405	0.000266	2.661341	0.450843	-0.000027
1533	1.5243e+02	4.7538	6.622372	0.000242	2.415679	0.409227	-0.000024
1534	1.5253e+02	4.7395	6.598746	0.000237	2.374735	0.402291	-0.000024
1535	1.5263e+02	4.7367	6.571046	0.000278	2.784172	0.471651	-0.000028
1536	1.5273e+02	4.7243	6.548235	0.000229	2.292848	0.388419	-0.000023
1537	1.5283e+02	4.7127	6.520943	0.000274	2.743228	0.464715	-0.000027
1538	1.5293e+02	4.7045	6.491207	0.000299	2.988890	0.506332	-0.000030
1539	1.5303e+02	4.6944	6.470840	0.000205	2.047185	0.346803	-0.000020
1540	1.5313e+02	4.6848	6.442733	0.000283	2.825116	0.478588	-0.000028
1541	1.5323e+02	4.6719	6.412590	0.000303	3.029834	0.513268	-0.000030
1542	1.5333e+02	4.6633	6.387335	0.000254	2.538510	0.430035	-0.000025
1543	1.5343e+02	4.6545	6.361672	0.000258	2.579453	0.436971	-0.000026
1544	1.5353e+02	4.6442	6.331529	0.000303	3.029834	0.513268	-0.000030
1545	1.5363e+02	4.6315	6.305459	0.000262	2.620397	0.443907	-0.000026
1546	1.5373e+02	4.6240	6.280611	0.000250	2.497566	0.423099	-0.000025
1547	1.5383e+02	4.6148	6.254541	0.000262	2.620397	0.443907	-0.000026
1548	1.5393e+02	4.6058	6.227657	0.000270	2.702285	0.457779	-0.000027
1549	1.5403e+02	4.5946	6.200365	0.000274	2.743228	0.464715	-0.000027
1550	1.5413e+02	4.5843	6.174702	0.000258	2.579453	0.436971	-0.000026
1551	1.5422e+02	4.5724	6.145781	0.000291	2.907003	0.492460	-0.000029
1552	1.5432e+02	4.5594	6.118081	0.000278	2.784172	0.471651	-0.000028
1553	1.5442e+02	4.5531	6.088345	0.000299	2.988890	0.506332	-0.000030
1554	1.5452e+02	4.5436	6.059424	0.000291	2.907003	0.492460	-0.000029
1555	1.5462e+02	4.5321	6.028466	0.000311	3.111722	0.527140	-0.000031
1556	1.5472e+02	4.5257	6.001174	0.000274	2.743228	0.464715	-0.000027
1557	1.5482e+02	4.5101	5.971438	0.000299	2.988890	0.506332	-0.000030
1558	1.5492e+02	4.5031	5.945368	0.000262	2.620397	0.443907	-0.000026
1559	1.5502e+02	4.4933	5.913595	0.000319	3.193609	0.541012	-0.000032
1560	1.5512e+02	4.4836	5.888748	0.000250	2.497566	0.423099	-0.000025
1561	1.5522e+02	4.4772	5.860641	0.000283	2.825116	0.478588	-0.000028
1562	1.5532e+02	4.4639	5.831312	0.000295	2.947947	0.499396	-0.000029
1563	1.5542e+02	4.4536	5.806872	0.000246	2.456622	0.416163	-0.000025
1564	1.5552e+02	4.4462	5.774284	0.000328	3.275496	0.554884	-0.000033
1565	1.5562e+02	4.4326	5.746178	0.000283	2.825116	0.478588	-0.000028
1566	1.5572e+02	4.4234	5.714405	0.000319	3.193609	0.541012	-0.000032
1567	1.5582e+02	4.4134	5.685076	0.000295	2.947947	0.499396	-0.000029
1568	1.5592e+02	4.4060	5.656970	0.000283	2.825116	0.478588	-0.000028
1569	1.5602e+02	4.3969	5.626419	0.000307	3.070778	0.520204	-0.000031
1570	1.5612e+02	4.3844	5.599534	0.000270	2.702285	0.457779	-0.000027
1571	1.5622e+02	4.3734	5.566540	0.000332	3.316440	0.561820	-0.000033
1572	1.5631e+02	4.3662	5.538433	0.000283	2.825116	0.478588	-0.000028
1573	1.5641e+02	4.3560	5.514400	0.000242	2.415679	0.409227	-0.000024
1574	1.5651e+02	4.3468	5.487515	0.000270	2.702285	0.457779	-0.000027
1575	1.5661e+02	4.3340	5.459001	0.000287	2.866059	0.485524	-0.000029
1576	1.5671e+02	4.3255	5.428858	0.000303	3.029834	0.513268	-0.000030
1577	1.5681e+02	4.3147	5.400344	0.000287	2.866059	0.485524	-0.000029
1578	1.5691e+02	4.3038	5.373459	0.000270	2.702285	0.457779	-0.000027
1579	1.5701e+02	4.2960	5.347797	0.000258	2.579453	0.436971	-0.000026
1580	1.5711e+02	4.2822	5.317246	0.000307	3.070778	0.520204	-0.000031
1581	1.5721e+02	4.2751	5.290361	0.000270	2.702285	0.457779	-0.000027
1582	1.5731e+02	4.2657	5.259811	0.000307	3.070778	0.520204	-0.000031
1583	1.5741e+02	4.2539	5.234963	0.000250	2.497566	0.423099	-0.000025
1584	1.5751e+02	4.2471	5.210522	0.000246	2.456622	0.416163	-0.000025
1585	1.5761e+02	4.2370	5.177935	0.000328	3.275496	0.554884	-0.000033
1586	1.5771e+02	4.2262	5.153087	0.000250	2.497566	0.423099	-0.000025
1587	1.5781e+02	4.2150	5.123758	0.000295	2.947947	0.499396	-0.000029
1588	1.5791e+02	4.2071	5.094022	0.000299	2.988890	0.506332	-0.000030
1589	1.5801e+02	4.1940	5.065916	0.000283	2.825116	0.478588	-0.000028
1590	1.5811e+02	4.1860	5.040253	0.000258	2.579453	0.436971	-0.000026
1591	1.5821e+02	4.1762	5.012146	0.000283	2.825116	0.478588	-0.000028
1592	1.5830e+02	4.1670	4.984447	0.000278	2.784172	0.471651	-0.000028
1593	1.5840e+02	4.1560	4.956748	0.000278	2.784172	0.471651	-0.000028
1594	1.5850e+02	4.1489	4.928641	0.000283	2.825116	0.478588	-0.000028
1595	1.5860e+02	4.1344	4.903386	0.000254	2.538510	0.430035	-0.000025
1596	1.5870e+02	4.1261	4.872021	0.000315	3.152665	0.534076	-0.000032
1597	1.5880e+02	4.1150	4.846358	0.000258	2.579453	0.436971	-0.000026
1598	1.5890e+02	4.1022	4.817029	0.000295	2.947947	0.499396	-0.000029
1599	1.5900e+02	4.0977	4.786479	0.000307	3.070778	0.520204	-0.000031
1600	1.5910e+02	4.0881	4.755521	0.000311	3.111722	0.527140	-0.000031
1601	1.5920e+02	4.0782	4.727821	0.000278	2.784172	0.471651	-0.000028
1602	1.5930e+02	4.0673	4.697271	0.000307	3.070778	0.520204	-0.000031
1603	1.5940e+02	4.0591	4.668349	0.000291	2.907003	0.492460	-0.000029
1604	1.5950e+02	4.0447	4.638206	0.000303	3.029834	0.513268	-0.000030
1605	1.5960e+02	4.0386	4.610099	0.000283	2.825116	0.478588	-0.000028
1606	1.5970e+02	4.0257	4.583622	0.000266	2.661341	0.450843	-0.000027
1607	1.5980e+02	4.0145	4.555515	0.000283	2.825116	0.478588	-0.000028
1608	1.5990e+02	4.0066	4.524557	0.000311	3.111722	0.527140	-0.000031
1609	1.6000e+02	3.9930	4.496858	0.000278	2.784172	0.471651	-0.000028
1610	1.6010e+02	3.9824	4.466307	0.000307	3.070778	0.520204	-0.000031
1611	1.6019e+02	3.9790	4.435757	0.000307	3.070778	0.520204	-0.000031
1612	1.6029e+02	3.9657	4.407243	0.000287	2.866059	0.485524	-0.000029
1613	1.6039e+02	3.9548	4.379951	0.000274	2.743228	0.464715	-0.000027
1614	1.6049e+02	3.9453	4.350215	0.000299	2.988890	0.506332	-0.000030
1615	1.6059e+02	3.9352	4.322515	0.000278	2.784172	0.471651	-0.000028
1616	1.6069e+02	3.9259	4.291557	0.000311	3.111722	0.527140	-0.000031
1617	1.6079e+02	3.9147	4.263858	0.000278	2.784172	0.471651	-0.000028
1618	1.6089e+02	3.9068	4.235344	0.000287	2.866059	0.485524	-0.000029
1619	1.6099e+02	3.8956	4.209274	0.000262	2.620397	0.443907	-0.000026
1620	1.6109e+02	3.8864	4.177094	0.000323	3.234553	0.547948	-0.000032
1621	1.6119e+02	3.8775	4.150210	0.000270	2.702285	0.457779	-0.000027
1622	1.6129e+02	3.8688	4.124954	0.000254	2.538510	0.430035	-0.000025
1623	1.6139e+02	3.8560	4.097255	0.000278	2.784172	0.471651	-0.000028
1624	1.6149e+02	3.8478	4.069148	0.000283	2.825116	0.478588	-0.000028
1625	1.6159e+02	3.8369	4.037783	0.000315	3.152665	0.534076	-0.000032
1626	1.6169e+02	3.8270	4.012528	0.000254	2.538510	0.430035	-0.000025
1627	1.6179e+02	3.8172	3.984421	0.000283	2.825116	0.478588	-0.000028
1628	1.6189e+02	3.8078	3.955500	0.000291	2.907003	0.492460	-0.000029
1629	1.6199e+02	3.7972	3.929023	0.000266	2.661341	0.450843	-0.000027
1630	1.6209e+02	3.7841	3.899694	0.000295	2.947947	0.499396	-0.000029
1631	1.6219e+02	3.7815	3.875253	0.000246	2.456622	0.416163	-0.000025
1632	1.6228e+02	3.7691	3.845110	0.000303	3.029834	0.513268	-0.000030
1633	1.6238e+02	3.7587	3.821077	0.000242	2.415679	0.409227	-0.000024
1634	1.6248e+02	3.7458	3.792155	0.000291	2.907003	0.492460	-0.000029
1635	1.6258e+02	3.7371	3.762827	0.000295	2.947947	0.499396	-0.000029
1636	1.6268e+02	3.7295	3.737572	0.000254	2.538510	0.430035	-0.000025
1637	1.6278e+02	3.7184	3.713538	0.000242	2.415679	0.409227	-0.000024
1638	1.6288e+02	3.7088	3.687876	0.000258	2.579453	0.436971	-0.000026
1639	1.6298e+02	3.6964	3.659769	0.000283	2.825116	0.478588	-0.000028
1640	1.6308e+02	3.6879	3.634921	0.000250	2.497566	0.423099	-0.000025
1641	1.6318e+02	3.6788	3.613332	0.000217	2.170016	0.367611	-0.000022
1642	1.6328e+02	3.6713	3.586855	0.000266	2.661341	0.450843	-0.000027
1643	1.6338e+02	3.6572	3.559156	0.000278	2.784172	0.471651	-0.000028
1644	1.6348e+02	3.6488	3.531049	0.000283	2.825116	0.478588	-0.000028
1645	1.6358e+02	3.6372	3.502535	0.000287	2.866059	0.485524	-0.000029
1646	1.6368e+02	3.6278	3.480131	0.000225	2.251904	0.381483	-0.000023
1647	1.6378e+02	3.6193	3.452432	0.000278	2.784172	0.471651	-0.000028
1648	1.6388e+02	3.6065	3.425547	0.000270	2.702285	0.457779	-0.000027
1649	1.6398e+02	3.6011	3.399477	0.000262	2.620397	0.443907	-0.000026
1650	1.6408e+02	3.5915	3.375037	0.000246	2.456622	0.416163	-0.000025
1651	1.6418e+02	3.5777	3.350596	0.000246	2.456622	0.416163	-0.000025
1652	1.6427e+02	3.5678	3.323304	0.000274	2.743228	0.464715	-0.000027
1653	1.6437e+02	3.5587	3.302122	0.000213	2.129073	0.360675	-0.000021
1654	1.6447e+02	3.5500	3.275238	0.000270	2.702285	0.457779	-0.000027
1655	1.6457e+02	3.5379	3.243058	0.000323	3.234553	0.547948	-0.000032
1656	1.6467e+02	3.5285	3.219432	0.000237	2.374735	0.402291	-0.000024
1657	1.6477e+02	3.5194	3.190103	0.000295	2.947947	0.499396	-0.000029
1658	1.6487e+02	3.5085	3.163626	0.000266	2.661341	0.450843	-0.000027
1659	1.6497e+02	3.4965	3.135112	0.000287	2.866059	0.485524	-0.000029
1660	1.6507e+02	3.4886	3.107413	0.000278	2.784172	0.471651	-0.000028
1661	1.6517e+02	3.4788	3.076862	0.000307	3.070778	0.520204	-0.000031
1662	1.6527e+02	3.4693	3.054051	0.000229	2.292848	0.388419	-0.000023
1663	1.6537e+02	3.4586	3.023093	0.000311	3.111722	0.527140	-0.000031
1664	1.6547e+02	3.4490	2.997838	0.000254	2.538510	0.430035	-0.000025
1665	1.6557e+02	3.4408	2.964028	0.000340	3.398328	0.575692	-0.000034
1666	1.6567e+02	3.4339	2.936736	0.000274	2.743228	0.464715	-0.000027
1667	1.6577e+02	3.4200	2.907815	0.000291	2.907003	0.492460	-0.000029
1668	1.6587e+02	3.4103	2.882560	0.000254	2.538510	0.430035	-0.000025
1669	1.6597e+02	3.3990	2.854046	0.000287	2.866059	0.485524	-0.000029
1670	1.6607e+02	3.3889	2.826754	0.000274	2.743228	0.464715	-0.000027
1671	1.6616e+02	3.3786	2.796203	0.000307	3.070778	0.520204	-0.000031
1672	1.6626e+02	3.3707	2.769726	0.000266	2.661341	0.450843	-0.000027
1673	1.6636e+02	3.3596	2.738360	0.000315	3.152665	0.534076	-0.000032
1674	1.6646e+02	3.3512	2.708217	0.000303	3.029834	0.513268	-0.000030
1675	1.6656e+02	3.3376	2.678888	0.000295	2.947947	0.499396	-0.000029
1676	1.6666e+02	3.3312	2.650374	0.000287	2.866059	0.485524	-0.000029
1677	1.6676e+02	3.3178	2.623082	0.000274	2.743228	0.464715	-0.000027
1678	1.6686e+02	3.3099	2.595790	0.000274	2.743228	0.464715	-0.000027
1679	1.6696e+02	3.3008	2.565240	0.000307	3.070778	0.520204	-0.000031
1680	1.6706e+02	3.2882	2.537540	0.000278	2.784172	0.471651	-0.000028
1681	1.6716e+02	3.2795	2.511471	0.000262	2.620397	0.443907	-0.000026
1682	1.6726e+02	3.2690	2.478883	0.000328	3.275496	0.554884	-0.000033
1683	1.6736e+02	3.2613	2.454035	0.000250	2.497566	0.423099	-0.000025
1684	1.6746e+02	3.2491	2.427151	0.000270	2.702285	0.457779	-0.000027
1685	1.6756e+02	3.2409	2.403117	0.000242	2.415679	0.409227	-0.000024
1686	1.6766e+02	3.2314	2.370123	0.000332	3.316440	0.561820	-0.000033
1687	1.6776e+02	3.2198	2.338757	0.000315	3.152665	0.534076	-0.000032
1688	1.6786e+02	3.2098	2.316353	0.000225	2.251904	0.381483	-0.000023
1689	1.6796e+02	3.1995	2.286617	0.000299	2.988890	0.506332	-0.000030
1690	1.6806e+02	3.1884	2.254845	0.000319	3.193609	0.541012	-0.000032
1691	1.6816e+02	3.1822	2.225516	0.000295	2.947947	0.499396	-0.000029
1692	1.6825e+02	3.1701	2.199853	0.000258	2.579453	0.436971	-0.000026
1693	1.6835e+02	3.1586	2.170932	0.000291	2.907003	0.492460	-0.000029
1694	1.6845e+02	3.1506	2.142011	0.000291	2.907003	0.492460	-0.000029
1695	1.6855e+02	3.1400	2.119607	0.000225	2.251904	0.381483	-0.000023
1696	1.6865e+02	3.1326	2.086205	0.000336	3.357384	0.568756	-0.000034
1697	1.6875e+02	3.1182	2.059728	0.000266	2.661341	0.450843	-0.000027
1698	1.6885e+02	3.1125	2.032436	0.000274	2.743228	0.464715	-0.000027
1699	1.6895e+02	3.1025	2.004736	0.000278	2.784172	0.471651	-0.000028
1700	1.6905e+02	3.0892	1.975000	0.000299	2.988890	0.506332	-0.000030
1701	1.6915e+02	3.0798	1.946894	0.000283	2.825116	0.478588	-0.000028
1702	1.6925e+02	3.0701	1.914306	0.000328	3.275496	0.554884	-0.000033
1703	1.6935e+02	3.0596	1.884978	0.000295	2.947947	0.499396	-0.000029
1704	1.6945e+02	3.0481	1.853205	0.000319	3.193609	0.541012	-0.000032
1705	1.6955e+02	3.0402	1.825506	0.000278	2.784172	0.471651	-0.000028
1706	1.6965e+02	3.0315	1.797806	0.000278	2.784172	0.471651	-0.000028
1707	1.6975e+02	3.0222	1.762368	0.000356	3.562102	0.603436	-0.000036
1708	1.6985e+02	3.0116	1.729373	0.000332	3.316440	0.561820	-0.000033
1709	1.6995e+02	2.9998	1.701266	0.000283	2.825116	0.478588	-0.000028
1710	1.7005e+02	2.9908	1.671123	0.000303	3.029834	0.513268	-0.000030
1711	1.7015e+02	2.9813	1.638943	0.000323	3.234553	0.547948	-0.000032
1712	1.7024e+02	2.9710	1.611243	0.000278	2.784172	0.471651	-0.000028
1713	1.7034e+02	2.9601	1.579063	0.000323	3.234553	0.547948	-0.000032
1714	1.7044e+02	2.9507	1.546883	0.000323	3.234553	0.547948	-0.000032
1715	1.7054e+02	2.9455	1.517962	0.000291	2.907003	0.492460	-0.000029
1716	1.7064e+02	2.9324	1.487819	0.000303	3.029834	0.513268	-0.000030
1717	1.7074e+02	2.9217	1.456046	0.000319	3.193609	0.541012	-0.000032
1718	1.7084e+02	2.9114	1.424273	0.000319	3.193609	0.541012	-0.000032
1719	1.7094e+02	2.8973	1.390464	0.000340	3.398328	0.575692	-0.000034
1720	1.7104e+02	2.8935	1.359506	0.000311	3.111722	0.527140	-0.000031
1721	1.7114e+02	2.8825	1.329770	0.000299	2.988890	0.506332	-0.000030
1722	1.7124e+02	2.8712	1.297590	0.000323	3.234553	0.547948	-0.000032
1723	1.7134e+02	2.8612	1.260522	0.000373	3.725877	0.631181	-0.000037
1724	1.7144e+02	2.8554	1.230378	0.000303	3.029834	0.513268	-0.000030
1725	1.7154e+02	2.8429	1.194532	0.000360	3.603046	0.610373	-0.000036
1726	1.7164e+02	2.8315	1.163167	0.000315	3.152665	0.534076	-0.000032
1727	1.7174e+02	2.8215	1.130987	0.000323	3.234553	0.547948	-0.000032
1728	1.7184e+02	2.8117	1.098399	0.000328	3.275496	0.554884	-0.000033
1729	1.7194e+02	2.8088	1.067034	0.000315	3.152665	0.534076	-0.000032
1730	1.7204e+02	2.7924	1.032817	0.000344	3.439271	0.582628	-0.000034
1731	1.7213e+02	2.7807	1.000230	0.000328	3.275496	0.554884	-0.000033
1732	1.7223e+02	2.7719	0.964383	0.000360	3.603046	0.610373	-0.000036
1733	1.7233e+02	2.7616	0.933425	0.000311	3.111722	0.527140	-0.000031
1734	1.7243e+02	2.7502	0.898801	0.000348	3.480215	0.589564	-0.000035
1735	1.7253e+02	2.7450	0.864585	0.000344	3.439271	0.582628	-0.000034
1736	1.7263e+02	2.7319	0.829146	0.000356	3.562102	0.603436	-0.000036
1737	1.7273e+02	2.7229	0.798188	0.000311	3.111722	0.527140	-0.000031
1738	1.7283e+02	2.7113	0.763156	0.000352	3.521159	0.596500	-0.000035
1739	1.7293e+02	2.7006	0.731791	0.000315	3.152665	0.534076	-0.000032
1740	1.7303e+02	2.6926	0.699611	0.000323	3.234553	0.547948	-0.000032
1741	1.7313e+02	2.6820	0.671912	0.000278	2.784172	0.471651	-0.000028
1742	1.7323e+02	2.6720	0.636880	0.000352	3.521159	0.596500	-0.000035
1743	1.7333e+02	2.6631	0.604700	0.000323	3.234553	0.547948	-0.000032
1744	1.7343e+02	2.6541	0.570891	0.000340	3.398328	0.575692	-0.000034
1745	1.7353e+02	2.6437	0.541155	0.000299	2.988890	0.506332	-0.000030
1746	1.7363e+02	2.6295	0.511826	0.000295	2.947947	0.499396	-0.000029
1747	1.7373e+02	2.6232	0.478424	0.000336	3.357384	0.568756	-0.000034
1748	1.7383e+02	2.6119	0.441356	0.000373	3.725877	0.631181	-0.000037
1749	1.7393e+02	2.6015	0.409176	0.000323	3.234553	0.547948	-0.000032
1750	1.7403e+02	2.5932	0.380662	0.000287	2.866059	0.485524	-0.000029
1751	1.7413e+02	2.5793	0.346445	0.000344	3.439271	0.582628	-0.000034
1752	1.7422e+02	2.5752	0.319153	0.000274	2.743228	0.464715	-0.000027
1753	1.7432e+02	2.5622	0.288195	0.000311	3.111722	0.527140	-0.000031
1754	1.7442e+02	2.5512	0.256829	0.000315	3.152665	0.534076	-0.000032
1755	1.7452e+02	2.5415	0.225464	0.000315	3.152665	0.534076	-0.000032
1756	1.7462e+02	2.5330	0.192062	0.000336	3.357384	0.568756	-0.000034
1757	1.7472e+02	2.5228	0.158253	0.000340	3.398328	0.575692	-0.000034
1758	1.7482e+02	2.5127	0.126073	0.000323	3.234553	0.547948	-0.000032
1759	1.7492e+02	2.5034	0.094300	0.000319	3.193609	0.541012	-0.000032
1760	1.7502e+02	2.4924	0.066193	0.000283	2.825116	0.478588	-0.000028
1761	1.7512e+02	2.4842	0.031162	0.000352	3.521159	0.596500	-0.000035
1762	1.7522e+02	2.4724	-0.000611	0.000319	3.193609	0.541012	-0.000032
1763	1.7532e+02	2.4619	-0.035235	0.000348	3.480215	0.589564	-0.000035
1764	1.7542e+02	2.4538	-0.065786	0.000307	3.070778	0.520204	-0.000031
1765	1.7552e+02	2.4456	-0.099188	0.000336	3.357384	0.568756	-0.000034
1766	1.7562e+02	2.4319	-0.132590	0.000336	3.357384	0.568756	-0.000034
1767	1.7572e+02	2.4247	-0.165585	0.000332	3.316440	0.561820	-0.000033
1768	1.7582e+02	2.4126	-0.197765	0.000323	3.234553	0.547948	-0.000032
1769	1.7592e+02	2.4035	-0.234833	0.000373	3.725877	0.631181	-0.000037
1770	1.7602e+02	2.3952	-0.267828	0.000332	3.316440	0.561820	-0.000033
1771	1.7612e+02	2.3832	-0.300415	0.000328	3.275496	0.554884	-0.000033
1772	1.7621e+02	2.3746	-0.332188	0.000319	3.193609	0.541012	-0.000032
1773	1.7631e+02	2.3644	-0.367627	0.000356	3.562102	0.603436	-0.000036
1774	1.7641e+02	2.3574	-0.399807	0.000323	3.234553	0.547948	-0.000032
1775	1.7651e+02	2.3441	-0.429950	0.000303	3.029834	0.513268	-0.000030
1776	1.7661e+02	2.3370	-0.462945	0.000332	3.316440	0.561820	-0.000033
1777	1.7671e+02	2.3228	-0.494718	0.000319	3.193609	0.541012	-0.000032
1778	1.7681e+02	2.3128	-0.533008	0.000385	3.848708	0.651989	-0.000038
1779	1.7691e+02	2.3053	-0.564373	0.000315	3.152665	0.534076	-0.000032
1780	1.7701e+02	2.2930	-0.597368	0.000332	3.316440	0.561820	-0.000033
1781	1.7711e+02	2.2860	-0.629955	0.000328	3.275496	0.554884	-0.000033
1782	1.7721e+02	2.2740	-0.666209	0.000364	3.643990	0.617309	-0.000036
1783	1.7731e+02	2.2655	-0.697981	0.000319	3.193609	0.541012	-0.000032
1784	1.7741e+02	2.2555	-0.732606	0.000348	3.480215	0.589564	-0.000035
1785	1.7751e+02	2.2483	-0.766822	0.000344	3.439271	0.582628	-0.000034
1786	1.7761e+02	2.2337	-0.798188	0.000315	3.152665	0.534076	-0.000032
1787	1.7771e+02	2.2243	-0.829553	0.000315	3.152665	0.534076	-0.000032
1788	1.7781e+02	2.2150	-0.862548	0.000332	3.316440	0.561820	-0.000033
1789	1.7791e+02	2.2047	-0.892284	0.000299	2.988890	0.506332	-0.000030
1790	1.7801e+02	2.1920	-0.927315	0.000352	3.521159	0.596500	-0.000035
1791	1.7810e+02	2.1856	-0.956644	0.000295	2.947947	0.499396	-0.000029
1792	1.7820e+02	2.1734	-0.990861	0.000344	3.439271	0.582628	-0.000034
1793	1.7830e+02	2.1671	-1.023448	0.000328	3.275496	0.554884	-0.000033
1794	1.7840e+02	2.1535	-1.052369	0.000291	2.907003	0.492460	-0.000029
1795	1.7850e+02	2.1498	-1.085364	0.000332	3.316440	0.561820	-0.000033
1796	1.7860e+02	2.1369	-1.117544	0.000323	3.234553	0.547948	-0.000032
1797	1.7870e+02	2.1249	-1.149317	0.000319	3.193609	0.541012	-0.000032
1798	1.7880e+02	2.1159	-1.186385	0.000373	3.725877	0.631181	-0.000037
1799	1.7890e+02	2.1062	-1.215307	0.000291	2.907003	0.492460	-0.000029
1800	1.7900e+02	2.0939	-1.247487	0.000323	3.234553	0.547948	-0.000032
1801	1.7910e+02	2.0831	-1.278445	0.000311	3.111722	0.527140	-0.000031
1802	1.7920e+02	2.0770	-1.310625	0.000323	3.234553	0.547948	-0.000032
1803	1.7930e+02	2.0681	-1.342805	0.000323	3.234553	0.547948	-0.000032
1804	1.7940e+02	2.0541	-1.372133	0.000295	2.947947	0.499396	-0.000029
1805	1.7950e+02	2.0446	-1.400240	0.000283	2.825116	0.478588	-0.000028
1806	1.7960e+02	2.0385	-1.434049	0.000340	3.398328	0.575692	-0.000034
1807	1.7970e+02	2.0261	-1.465007	0.000311	3.111722	0.527140	-0.000031
1808	1.7980e+02	2.0168	-1.491485	0.000266	2.661341	0.450843	-0.000027
1809	1.7990e+02	2.0086	-1.519999	0.000287	2.866059	0.485524	-0.000029
1810	1.8000e+02	1.9966	-1.552586	0.000328	3.275496	0.554884	-0.000033
1811	1.8009e+02	1.9875	-1.585988	0.000336	3.357384	0.568756	-0.000034
1812	1.8019e+02	1.9765	-1.613688	0.000278	2.784172	0.471651	-0.000028
1813	1.8029e+02	1.9666	-1.647090	0.000336	3.357384	0.568756	-0.000034
1814	1.8039e+02	1.9584	-1.676011	0.000291	2.907003	0.492460	-0.000029
1815	1.8049e+02	1.9449	-1.709413	0.000336	3.357384	0.568756	-0.000034
1816	1.8059e+02	1.9383	-1.734261	0.000250	2.497566	0.423099	-0.000025
1817	1.8069e+02	1.9257	-1.769292	0.000352	3.521159	0.596500	-0.000035
1818	1.8079e+02	1.9151	-1.797806	0.000287	2.866059	0.485524	-0.000029
1819	1.8089e+02	1.9056	-1.827950	0.000303	3.029834	0.513268	-0.000030
1820	1.8099e+02	1.8985	-1.856464	0.000287	2.866059	0.485524	-0.000029
1821	1.8109e+02	1.8867	-1.888236	0.000319	3.193609	0.541012	-0.000032
1822	1.8119e+02	1.8797	-1.922861	0.000348	3.480215	0.589564	-0.000035
1823	1.8129e+02	1.8670	-1.950560	0.000278	2.784172	0.471651	-0.000028
1824	1.8139e+02	1.8563	-1.985591	0.000352	3.521159	0.596500	-0.000035
1825	1.8149e+02	1.8469	-2.016549	0.000311	3.111722	0.527140	-0.000031
1826	1.8159e+02	1.8388	-2.047507	0.000311	3.111722	0.527140	-0.000031
1827	1.8169e+02	1.8264	-2.082539	0.000352	3.521159	0.596500	-0.000035
1828	1.8179e+02	1.8150	-2.113497	0.000311	3.111722	0.527140	-0.000031
1829	1.8189e+02	1.8066	-2.140789	0.000274	2.743228	0.464715	-0.000027
1830	1.8199e+02	1.7984	-2.177857	0.000373	3.725877	0.631181	-0.000037
1831	1.8209e+02	1.7883	-2.211666	0.000340	3.398328	0.575692	-0.000034
1832	1.8218e+02	1.7774	-2.241810	0.000303	3.029834	0.513268	-0.000030
1833	1.8228e+02	1.7670	-2.277656	0.000360	3.603046	0.610373	-0.000036
1834	1.8238e+02	1.7592	-2.311058	0.000336	3.357384	0.568756	-0.000034
1835	1.8248e+02	1.7507	-2.340387	0.000295	2.947947	0.499396	-0.000029
1836	1.8258e+02	1.7382	-2.375825	0.000356	3.562102	0.603436	-0.000036
1837	1.8268e+02	1.7258	-2.406783	0.000311	3.111722	0.527140	-0.000031
1838	1.8278e+02	1.7181	-2.439778	0.000332	3.316440	0.561820	-0.000033
1839	1.8288e+02	1.7088	-2.471144	0.000315	3.152665	0.534076	-0.000032
1840	1.8298e+02	1.6975	-2.510248	0.000393	3.930596	0.665861	-0.000039
1841	1.8308e+02	1.6868	-2.540392	0.000303	3.029834	0.513268	-0.000030
1842	1.8318e+02	1.6779	-2.572979	0.000328	3.275496	0.554884	-0.000033
1843	1.8328e+02	1.6666	-2.608011	0.000352	3.521159	0.596500	-0.000035
1844	1.8338e+02	1.6576	-2.641413	0.000336	3.357384	0.568756	-0.000034
1845	1.8348e+02	1.6462	-2.674000	0.000328	3.275496	0.554884	-0.000033
1846	1.8358e+02	1.6393	-2.707810	0.000340	3.398328	0.575692	-0.000034
1847	1.8368e+02	1.6283	-2.742841	0.000352	3.521159	0.596500	-0.000035
1848	1.8378e+02	1.6151	-2.776651	0.000340	3.398328	0.575692	-0.000034
1849	1.8388e+02	1.6113	-2.808831	0.000323	3.234553	0.547948	-0.000032
1850	1.8398e+02	1.5980	-2.840603	0.000319	3.193609	0.541012	-0.000032
1851	1.8407e+02	1.5884	-2.871969	0.000315	3.152665	0.534076	-0.000032
1852	1.8417e+02	1.5797	-2.905778	0.000340	3.398328	0.575692	-0.000034
1853	1.8427e+02	1.5688	-2.936329	0.000307	3.070778	0.520204	-0.000031
1854	1.8437e+02	1.5594	-2.968102	0.000319	3.193609	0.541012	-0.000032
1855	1.8447e+02	1.5465	-3.001096	0.000332	3.316440	0.561820	-0.000033
1856	1.8457e+02	1.5398	-3.034091	0.000332	3.316440	0.561820	-0.000033
1857	1.8467e+02	1.5313	-3.067900	0.000340	3.398328	0.575692	-0.000034
1858	1.8477e+02	1.5161	-3.101710	0.000340	3.398328	0.575692	-0.000034
1859	1.8487e+02	1.5096	-3.136741	0.000352	3.521159	0.596500	-0.000035
1860	1.8497e+02	1.4955	-3.168514	0.000319	3.193609	0.541012	-0.000032
1861	1.8507e+02	1.4883	-3.201101	0.000328	3.275496	0.554884	-0.000033
1862	1.8517e+02	1.4804	-3.235726	0.000348	3.480215	0.589564	-0.000035
1863	1.8527e+02	1.4686	-3.271572	0.000360	3.603046	0.610373	-0.000036
1864	1.8537e+02	1.4587	-3.302530	0.000311	3.111722	0.527140	-0.000031
1865	1.8547e+02	1.4508	-3.333488	0.000311	3.111722	0.527140	-0.000031
1866	1.8557e+02	1.4384	-3.366075	0.000328	3.275496	0.554884	-0.000033
1867	1.8567e+02	1.4293	-3.399070	0.000332	3.316440	0.561820	-0.000033
1868	1.8577e+02	1.4178	-3.435731	0.000368	3.684933	0.624245	-0.000037
1869	1.8587e+02	1.4101	-3.469133	0.000336	3.357384	0.568756	-0.000034
1870	1.8597e+02	1.4005	-3.500906	0.000319	3.193609	0.541012	-0.000032
1871	1.8606e+02	1.3911	-3.534308	0.000336	3.357384	0.568756	-0.000034
1872	1.8616e+02	1.3795	-3.571376	0.000373	3.725877	0.631181	-0.000037
1873	1.8626e+02	1.3699	-3.610481	0.000393	3.930596	0.665861	-0.000039
1874	1.8636e+02	1.3615	-3.644290	0.000340	3.398328	0.575692	-0.000034
1875	1.8646e+02	1.3501	-3.678100	0.000340	3.398328	0.575692	-0.000034
1876	1.8656e+02	1.3387	-3.710687	0.000328	3.275496	0.554884	-0.000033
1877	1.8666e+02	1.3312	-3.751014	0.000405	4.053427	0.686669	-0.000041
1878	1.8676e+02	1.3189	-3.786453	0.000356	3.562102	0.603436	-0.000036
1879	1.8686e+02	1.3121	-3.823114	0.000368	3.684933	0.624245	-0.000037
1880	1.8696e+02	1.2989	-3.855294	0.000323	3.234553	0.547948	-0.000032
1881	1.8706e+02	1.2889	-3.891547	0.000364	3.643990	0.617309	-0.000036
1882	1.8716e+02	1.2775	-3.925764	0.000344	3.439271	0.582628	-0.000034
1883	1.8726e+02	1.2688	-3.962832	0.000373	3.725877	0.631181	-0.000037
1884	1.8736e+02	1.2597	-3.998271	0.000356	3.562102	0.603436	-0.000036
1885	1.8746e+02	1.2521	-4.034524	0.000364	3.643990	0.617309	-0.000036
1886	1.8756e+02	1.2411	-4.069148	0.000348	3.480215	0.589564	-0.000035
1887	1.8766e+02	1.2297	-4.103773	0.000348	3.480215	0.589564	-0.000035
1888	1.8776e+02	1.2193	-4.142063	0.000385	3.848708	0.651989	-0.000038
1889	1.8786e+02	1.2113	-4.179538	0.000377	3.766821	0.638117	-0.000038
1890	1.8796e+02	1.2000	-4.220273	0.000409	4.094371	0.693605	-0.000041
1891	1.8806e+02	1.1904	-4.258155	0.000381	3.807765	0.645053	-0.000038
1892	1.8815e+02	1.1794	-4.294002	0.000360	3.603046	0.610373	-0.000036
1893	1.8825e+02	1.1667	-4.332699	0.000389	3.889652	0.658925	-0.000039
1894	1.8835e+02	1.1625	-4.367731	0.000352	3.521159	0.596500	-0.000035
1895	1.8845e+02	1.1510	-4.403577	0.000360	3.603046	0.610373	-0.000036
1896	1.8855e+02	1.1405	-4.442274	0.000389	3.889652	0.658925	-0.000039
1897	1.8865e+02	1.1326	-4.486675	0.000446	4.462864	0.756030	-0.000045
1898	1.8875e+02	1.1231	-4.519669	0.000332	3.316440	0.561820	-0.000033
1899	1.8885e+02	1.1108	-4.554701	0.000352	3.521159	0.596500	-0.000035
1900	1.8895e+02	1.0996	-4.597064	0.000426	4.258145	0.721349	-0.000043
1901	1.8905e+02	1.0914	-4.634133	0.000373	3.725877	0.631181	-0.000037
1902	1.8915e+02	1.0805	-4.672015	0.000381	3.807765	0.645053	-0.000038
1903	1.8925e+02	1.0709	-4.713564	0.000418	4.176258	0.707477	-0.000042
1904	1.8935e+02	1.0613	-4.752669	0.000393	3.930596	0.665861	-0.000039
1905	1.8945e+02	1.0513	-4.790959	0.000385	3.848708	0.651989	-0.000038
1906	1.8955e+02	1.0428	-4.828842	0.000381	3.807765	0.645053	-0.000038
1907	1.8965e+02	1.0311	-4.863466	0.000348	3.480215	0.589564	-0.000035
1908	1.8975e+02	1.0198	-4.901349	0.000381	3.807765	0.645053	-0.000038
1909	1.8985e+02	1.0127	-4.936788	0.000356	3.562102	0.603436	-0.000036
1910	1.8995e+02	1.0031	-4.976708	0.000401	4.012483	0.679733	-0.000040
1911	1.9004e+02	0.9939	-5.012146	0.000356	3.562102	0.603436	-0.000036
1912	1.9014e+02	0.9807	-5.049215	0.000373	3.725877	0.631181	-0.000037
1913	1.9024e+02	0.9721	-5.085875	0.000368	3.684933	0.624245	-0.000037
1914	1.9034e+02	0.9598	-5.123758	0.000381	3.807765	0.645053	-0.000038
1915	1.9044e+02	0.9531	-5.157975	0.000344	3.439271	0.582628	-0.000034
1916	1.9054e+02	0.9430	-5.194636	0.000368	3.684933	0.624245	-0.000037
1917	1.9064e+02	0.9311	-5.233741	0.000393	3.930596	0.665861	-0.000039
1918	1.9074e+02	0.9184	-5.266736	0.000332	3.316440	0.561820	-0.000033
1919	1.9084e+02	0.9121	-5.305840	0.000393	3.930596	0.665861	-0.000039
1920	1.9094e+02	0.9024	-5.346982	0.000414	4.135314	0.700541	-0.000041
1921	1.9104e+02	0.8920	-5.381606	0.000348	3.480215	0.589564	-0.000035
1922	1.9114e+02	0.8829	-5.419489	0.000381	3.807765	0.645053	-0.000038
1923	1.9124e+02	0.8720	-5.455742	0.000364	3.643990	0.617309	-0.000036
1924	1.9134e+02	0.8607	-5.490367	0.000348	3.480215	0.589564	-0.000035
1925	1.9144e+02	0.8540	-5.527435	0.000373	3.725877	0.631181	-0.000037
1926	1.9154e+02	0.8418	-5.564096	0.000368	3.684933	0.624245	-0.000037
1927	1.9164e+02	0.8318	-5.600349	0.000364	3.643990	0.617309	-0.000036
1928	1.9174e+02	0.8231	-5.640269	0.000401	4.012483	0.679733	-0.000040
1929	1.9184e+02	0.8140	-5.675300	0.000352	3.521159	0.596500	-0.000035
1930	1.9194e+02	0.7999	-5.711554	0.000364	3.643990	0.617309	-0.000036
1931	1.9203e+02	0.7944	-5.751066	0.000397	3.971539	0.672797	-0.000040
1932	1.9213e+02	0.7811	-5.787727	0.000368	3.684933	0.624245	-0.000037
1933	1.9223e+02	0.7673	-5.827239	0.000397	3.971539	0.672797	-0.000040
1934	1.9233e+02	0.7605	-5.866344	0.000393	3.930596	0.665861	-0.000039
1935	1.9243e+02	0.7542	-5.903005	0.000368	3.684933	0.624245	-0.000037
1936	1.9253e+02	0.7390	-5.943331	0.000405	4.053427	0.686669	-0.000041
1937	1.9263e+02	0.7293	-5.980400	0.000373	3.725877	0.631181	-0.000037
1938	1.9273e+02	0.7223	-6.019097	0.000389	3.889652	0.658925	-0.000039
1939	1.9283e+02	0.7121	-6.061053	0.000422	4.217202	0.714413	-0.000042
1940	1.9293e+02	0.7041	-6.099344	0.000385	3.848708	0.651989	-0.000038
1941	1.9303e+02	0.6905	-6.135597	0.000364	3.643990	0.617309	-0.000036
1942	1.9313e+02	0.6839	-6.175109	0.000397	3.971539	0.672797	-0.000040
1943	1.9323e+02	0.6695	-6.209734	0.000348	3.480215	0.589564	-0.000035
1944	1.9333e+02	0.6644	-6.246394	0.000368	3.684933	0.624245	-0.000037
1945	1.9343e+02	0.6557	-6.287943	0.000418	4.176258	0.707477	-0.000042
1946	1.9353e+02	0.6463	-6.324197	0.000364	3.643990	0.617309	-0.000036
1947	1.9363e+02	0.6357	-6.364931	0.000409	4.094371	0.693605	-0.000041
1948	1.9373e+02	0.6230	-6.403629	0.000389	3.889652	0.658925	-0.000039
1949	1.9383e+02	0.6128	-6.443141	0.000397	3.971539	0.672797	-0.000040
1950	1.9393e+02	0.6030	-6.479802	0.000368	3.684933	0.624245	-0.000037
1951	1.9403e+02	0.5922	-6.518907	0.000393	3.930596	0.665861	-0.000039
1952	1.9412e+02	0.5856	-6.558419	0.000397	3.971539	0.672797	-0.000040
1953	1.9422e+02	0.5737	-6.594265	0.000360	3.603046	0.610373	-0.000036
1954	1.9432e+02	0.5664	-6.630518	0.000364	3.643990	0.617309	-0.000036
1955	1.9442e+02	0.5544	-6.671253	0.000409	4.094371	0.693605	-0.000041
1956	1.9452e+02	0.5399	-6.706284	0.000352	3.521159	0.596500	-0.000035
1957	1.9462e+02	0.5324	-6.744167	0.000381	3.807765	0.645053	-0.000038
1958	1.9472e+02	0.5221	-6.783679	0.000397	3.971539	0.672797	-0.000040
1959	1.9482e+02	0.5178	-6.818303	0.000348	3.480215	0.589564	-0.000035
1960	1.9492e+02	0.5040	-6.855779	0.000377	3.766821	0.638117	-0.000038
1961	1.9502e+02	0.4960	-6.893254	0.000377	3.766821	0.638117	-0.000038
1962	1.9512e+02	0.4819	-6.931137	0.000381	3.807765	0.645053	-0.000038
1963	1.9522e+02	0.4745	-6.967391	0.000364	3.643990	0.617309	-0.000036
1964	1.9532e+02	0.4623	-7.005274	0.000381	3.807765	0.645053	-0.000038
1965	1.9542e+02	0.4539	-7.043564	0.000385	3.848708	0.651989	-0.000038
1966	1.9552e+02	0.4426	-7.079003	0.000356	3.562102	0.603436	-0.000036
1967	1.9562e+02	0.4365	-7.120144	0.000414	4.135314	0.700541	-0.000041
1968	1.9572e+02	0.4266	-7.156398	0.000364	3.643990	0.617309	-0.000036
1969	1.9582e+02	0.4150	-7.190207	0.000340	3.398328	0.575692	-0.000034
1970	1.9592e+02	0.4047	-7.227683	0.000377	3.766821	0.638117	-0.000038
1971	1.9601e+02	0.3951	-7.264751	0.000373	3.725877	0.631181	-0.000037
1972	1.9611e+02	0.3839	-7.298153	0.000336	3.357384	0.568756	-0.000034
1973	1.9621e+02	0.3775	-7.333999	0.000360	3.603046	0.610373	-0.000036
1974	1.9631e+02	0.3635	-7.371882	0.000381	3.807765	0.645053	-0.000038
1975	1.9641e+02	0.3542	-7.405691	0.000340	3.398328	0.575692	-0.000034
1976	1.9651e+02	0.3448	-7.441130	0.000356	3.562102	0.603436	-0.000036
1977	1.9661e+02	0.3348	-7.474532	0.000336	3.357384	0.568756	-0.000034
1978	1.9671e+02	0.3260	-7.513230	0.000389	3.889652	0.658925	-0.000039
1979	1.9681e+02	0.3156	-7.551520	0.000385	3.848708	0.651989	-0.000038
1980	1.9691e+02	0.3023	-7.582478	0.000311	3.111722	0.527140	-0.000031
1981	1.9701e+02	0.2931	-7.617509	0.000352	3.521159	0.596500	-0.000035
1982	1.9711e+02	0.2840	-7.656614	0.000393	3.930596	0.665861	-0.000039
1983	1.9721e+02	0.2738	-7.690424	0.000340	3.398328	0.575692	-0.000034
1984	1.9731e+02	0.2654	-7.728714	0.000385	3.848708	0.651989	-0.000038
1985	1.9741e+02	0.2549	-7.763338	0.000348	3.480215	0.589564	-0.000035
1986	1.9751e+02	0.2432	-7.797962	0.000348	3.480215	0.589564	-0.000035
1987	1.9761e+02	0.2341	-7.832994	0.000352	3.521159	0.596500	-0.000035
1988	1.9771e+02	0.2264	-7.871284	0.000385	3.848708	0.651989	-0.000038
1989	1.9781e+02	0.2152	-7.905501	0.000344	3.439271	0.582628	-0.000034
1990	1.9791e+02	0.2062	-7.942976	0.000377	3.766821	0.638117	-0.000038
1991	1.9800e+02	0.1965	-7.980452	0.000377	3.766821	0.638117	-0.000038
1992	1.9810e+02	0.1837	-8.017112	0.000368	3.684933	0.624245	-0.000037
1993	1.9820e+02	0.1759	-8.056625	0.000397	3.971539	0.672797	-0.000040
1994	1.9830e+02	0.1667	-8.090434	0.000340	3.398328	0.575692	-0.000034
1995	1.9840e+02	0.1546	-8.130761	0.000405	4.053427	0.686669	-0.000041
1996	1.9850e+02	0.1460	-8.165792	0.000352	3.521159	0.596500	-0.000035
1997	1.9860e+02	0.1361	-8.204083	0.000385	3.848708	0.651989	-0.000038
1998	1.9870e+02	0.1247	-8.245224	0.000414	4.135314	0.700541	-0.000041
1999	1.9880e+02	0.1157	-8.280663	0.000356	3.562102	0.603436	-0.000036
2000	1.9890e+02	0.1049	-8.314065	0.000336	3.357384	0.568756	-0.000034
2001	1.9900e+02	0.0964	-8.354392	0.000405	4.053427	0.686669	-0.000041
2002	1.9910e+02	0.0858	-8.396756	0.000426	4.258145	0.721349	-0.000043
2003	1.9920e+02	0.0732	-8.433009	0.000364	3.643990	0.617309	-0.000036
2004	1.9930e+02	0.0654	-8.468448	0.000356	3.562102	0.603436	-0.000036
2005	1.9940e+02	0.0546	-8.507553	0.000393	3.930596	0.665861	-0.000039
2006	1.9950e+02	0.0469	-8.550731	0.000434	4.340033	0.735221	-0.000043
2007	1.9960e+02	0.0388	-8.584948	0.000344	3.439271	0.582628	-0.000034
2008	1.9970e+02	0.0296	-8.624868	0.000401	4.012483	0.679733	-0.000040
2009	1.9980e+02	0.0172	-8.662343	0.000377	3.766821	0.638117	-0.000038
2010	1.9990e+02	0.0043	-8.699819	0.000377	3.766821	0.638117	-0.000038
2011	2.0000e+02	-0.0039	-8.742182	0.000377	3.766821	0.638117	-0.000043

PMax (uC/cm2):	3.14e+01
Pr (uC/cm2):	7.00e+00
-Pr (uC/cm2):	0.00e+00
PLoss (uC/cm2):	0.00e+00
C (Max-Eff) (nF):	3.14e-01
K (Eff):	5.32e+02
Vert. (+/-Pr) Shift (uC/cm2):	3.50e+00
Offset (uC/cm2):	1.57e+01

A (Loop Area - uC/cm2·Volts):	-6.73e-02



Hysteresis Version: 5.48.1 - Radiant Technologies, Inc., 1999 - 9/12/24

