»»»»»»»»»»»»»»»»»»»»»»»»»»»»»»»»»»»» Hysteresis ««««««««««««««««««««««««««««««««««««
»»»  Executed Version:	5.48.1
»»»  Vision Version:	5.48.4 (R)
»»»  Vision Compiled:	9/18/24
»»»  Driver Version:	5.47.0
»»»  Windows Version:	Windows 8 or 8.1
»»»  Processor Information:	x86 (AMD or Intel) - 32 Processors
»»»  Tester Name:	PMF21124-494 (100V)
»»»  Tester S/N:	PMF21124-494
»»»  Internal Amp Type:	100V RevK 270k
»»»  Internal Amp S/N:	iAB2-596/K     
»»»  Execution Count:	1
»»»»»»»»»»»»»»»»»»»»»»»»»»»»»»»»»»»»»»»»»»««««««««««««««««««««««««««««««««««««««««««

Stored:	6/26/2025 - 11:38:29
Configured:	06/26/25 10:24:47 AM
Executed:	06/26/25 11:37:57 AM

»»»»»»»»»»»»»»»»»»»»»»»»»»»»»»»»»»» Sample Info ««««««««««««««««««««««««««««««««««««
Sample Name:	
Lot Name:	
Wafer Name:	
Die Row/Column:	0/0
Capacitor Number:	0
Sample Area (cm2):	1.00e-04
Sample Thickness (microns):	1.50e-01

Amplifier:	Internal

»»»»»»»»»»»»»»»»»»»»»»»»»»»»»»»»»»» Tester Info «««««««««««««««««««««««««««««««««««
Tester Name:	PMF21124-494 (100V)
Tester Serial Number:	PMF21124-494
Return Signal Amp. Level:	1.9 [Index: 2]

»»»»»»»»»»»»»»»»»»»»»»»»»»»»»»»» Hysteresis Info ««««««««««««««««««««««««««««««««««
Task Name:	Hyst-562
Volts:	10.00
Field:	666.67 (kV/cm)
DCBias:	0.00
DCField:	0.00 (kV/cm)
Hysteresis Period (ms):	2.00e+02
Preset:	Enabled
Preset Delay (ms):	1.00e+03
Profile:	Standard Monopolar

»»»»»»»»»»»»»»»»»»»»»»»»»»»»»»»»»»»»»» Data «««««««««««««««««««««««««««««««««««««««
Points:	2011

Valid Data

Point	Time (ms)	Drive Voltage	Measured Polarization (uC/cm2)	Capacitance (uF)	Normalized Capacitance (uF/cm2)	Dielectric Constant	Instantaneous Current (mA)
   1	0.0000e+00	-0.0016	-11.907437	0.000258	2.579148	0.436920	0.000026
   2	9.9500e-02	0.0043	-11.881775	0.000258	2.579148	0.436920	0.000026
   3	1.9900e-01	0.0162	-11.852039	0.000299	2.988537	0.506272	0.000030
   4	2.9850e-01	0.0262	-11.830450	0.000217	2.169760	0.367567	0.000022
   5	3.9800e-01	0.0348	-11.803972	0.000266	2.661026	0.450790	0.000027
   6	4.9750e-01	0.0460	-11.778310	0.000258	2.579148	0.436920	0.000026
   7	5.9700e-01	0.0568	-11.753055	0.000254	2.538210	0.429984	0.000025
   8	6.9650e-01	0.0658	-11.727392	0.000258	2.579148	0.436920	0.000026
   9	7.9600e-01	0.0774	-11.701322	0.000262	2.620087	0.443855	0.000026
  10	8.9550e-01	0.0861	-11.674030	0.000274	2.742904	0.464660	0.000027
  11	9.9500e-01	0.0945	-11.643887	0.000303	3.029476	0.513207	0.000030
  12	1.0945e+00	0.1059	-11.621076	0.000229	2.292576	0.388373	0.000023
  13	1.1940e+00	0.1154	-11.594191	0.000270	2.701965	0.457725	0.000027
  14	1.2935e+00	0.1251	-11.568936	0.000254	2.538210	0.429984	0.000025
  15	1.3930e+00	0.1347	-11.543273	0.000258	2.579148	0.436920	0.000026
  16	1.4925e+00	0.1464	-11.509871	0.000336	3.356987	0.568689	0.000034
  17	1.5920e+00	0.1559	-11.485838	0.000242	2.415393	0.409179	0.000024
  18	1.6915e+00	0.1654	-11.454880	0.000311	3.111354	0.527078	0.000031
  19	1.7910e+00	0.1753	-11.430439	0.000246	2.456332	0.416114	0.000025
  20	1.8905e+00	0.1867	-11.399889	0.000307	3.070415	0.520142	0.000031
  21	1.9900e+00	0.1984	-11.374226	0.000258	2.579148	0.436920	0.000026
  22	2.0895e+00	0.2059	-11.351008	0.000233	2.333515	0.395308	0.000023
  23	2.1890e+00	0.2110	-11.320457	0.000307	3.070415	0.520142	0.000031
  24	2.2885e+00	0.2234	-11.293980	0.000266	2.661026	0.450790	0.000027
  25	2.3880e+00	0.2357	-11.266280	0.000278	2.783843	0.471596	0.000028
  26	2.4875e+00	0.2444	-11.239803	0.000266	2.661026	0.450790	0.000027
  27	2.5870e+00	0.2544	-11.214140	0.000258	2.579148	0.436920	0.000026
  28	2.6865e+00	0.2621	-11.186848	0.000274	2.742904	0.464660	0.000027
  29	2.7860e+00	0.2744	-11.162001	0.000250	2.497271	0.423049	0.000025
  30	2.8855e+00	0.2840	-11.131450	0.000307	3.070415	0.520142	0.000031
  31	2.9850e+00	0.2954	-11.104973	0.000266	2.661026	0.450790	0.000027
  32	3.0845e+00	0.3043	-11.078495	0.000266	2.661026	0.450790	0.000027
  33	3.1840e+00	0.3156	-11.049574	0.000291	2.906659	0.492401	0.000029
  34	3.2835e+00	0.3259	-11.023504	0.000262	2.620087	0.443855	0.000026
  35	3.3830e+00	0.3321	-10.995805	0.000278	2.783843	0.471596	0.000028
  36	3.4825e+00	0.3430	-10.972994	0.000229	2.292576	0.388373	0.000023
  37	3.5820e+00	0.3541	-10.946516	0.000266	2.661026	0.450790	0.000027
  38	3.6815e+00	0.3654	-10.918002	0.000287	2.865720	0.485466	0.000029
  39	3.7810e+00	0.3741	-10.891932	0.000262	2.620087	0.443855	0.000026
  40	3.8805e+00	0.3835	-10.863826	0.000282	2.824782	0.478531	0.000028
  41	3.9800e+00	0.3951	-10.834090	0.000299	2.988537	0.506272	0.000030
  42	4.0795e+00	0.4047	-10.808020	0.000262	2.620087	0.443855	0.000026
  43	4.1790e+00	0.4136	-10.776655	0.000315	3.152292	0.534013	0.000032
  44	4.2785e+00	0.4234	-10.753029	0.000237	2.374454	0.402243	0.000024
  45	4.3780e+00	0.4317	-10.720849	0.000323	3.234170	0.547883	0.000032
  46	4.4775e+00	0.4432	-10.695593	0.000254	2.538210	0.429984	0.000025
  47	4.5770e+00	0.4536	-10.663006	0.000328	3.275109	0.554818	0.000033
  48	4.6765e+00	0.4645	-10.634492	0.000287	2.865720	0.485466	0.000029
  49	4.7760e+00	0.4720	-10.606793	0.000278	2.783843	0.471596	0.000028
  50	4.8755e+00	0.4827	-10.573798	0.000332	3.316048	0.561754	0.000033
  51	4.9750e+00	0.4937	-10.546506	0.000274	2.742904	0.464660	0.000027
  52	5.0745e+00	0.5047	-10.516770	0.000299	2.988537	0.506272	0.000030
  53	5.1740e+00	0.5128	-10.488663	0.000282	2.824782	0.478531	0.000028
  54	5.2735e+00	0.5231	-10.458927	0.000299	2.988537	0.506272	0.000030
  55	5.3730e+00	0.5325	-10.426340	0.000328	3.275109	0.554818	0.000033
  56	5.4725e+00	0.5399	-10.395382	0.000311	3.111354	0.527078	0.000031
  57	5.5720e+00	0.5519	-10.369719	0.000258	2.579148	0.436920	0.000026
  58	5.6715e+00	0.5608	-10.340798	0.000291	2.906659	0.492401	0.000029
  59	5.7710e+00	0.5727	-10.313099	0.000278	2.783843	0.471596	0.000028
  60	5.8705e+00	0.5824	-10.283363	0.000299	2.988537	0.506272	0.000030
  61	5.9700e+00	0.5933	-10.256478	0.000270	2.701965	0.457725	0.000027
  62	6.0695e+00	0.5991	-10.222669	0.000340	3.397926	0.575624	0.000034
  63	6.1690e+00	0.6142	-10.194155	0.000287	2.865720	0.485466	0.000029
  64	6.2685e+00	0.6226	-10.164011	0.000303	3.029476	0.513207	0.000030
  65	6.3680e+00	0.6330	-10.137127	0.000270	2.701965	0.457725	0.000027
  66	6.4675e+00	0.6438	-10.104947	0.000323	3.234170	0.547883	0.000032
  67	6.5670e+00	0.6533	-10.074396	0.000307	3.070415	0.520142	0.000031
  68	6.6665e+00	0.6657	-10.046697	0.000278	2.783843	0.471596	0.000028
  69	6.7660e+00	0.6741	-10.018997	0.000278	2.783843	0.471596	0.000028
  70	6.8655e+00	0.6832	-9.988039	0.000311	3.111354	0.527078	0.000031
  71	6.9650e+00	0.6895	-9.961969	0.000262	2.620087	0.443855	0.000026
  72	7.0645e+00	0.7019	-9.927753	0.000344	3.438865	0.582559	0.000034
  73	7.1640e+00	0.7120	-9.899646	0.000282	2.824782	0.478531	0.000028
  74	7.2635e+00	0.7233	-9.869503	0.000303	3.029476	0.513207	0.000030
  75	7.3630e+00	0.7355	-9.839359	0.000303	3.029476	0.513207	0.000030
  76	7.4625e+00	0.7458	-9.807994	0.000315	3.152292	0.534013	0.000032
  77	7.5620e+00	0.7511	-9.780702	0.000274	2.742904	0.464660	0.000027
  78	7.6615e+00	0.7607	-9.746893	0.000340	3.397926	0.575624	0.000034
  79	7.7610e+00	0.7733	-9.720415	0.000266	2.661026	0.450790	0.000027
  80	7.8605e+00	0.7836	-9.685384	0.000352	3.520742	0.596430	0.000035
  81	7.9600e+00	0.7915	-9.656055	0.000295	2.947598	0.499337	0.000029
  82	8.0595e+00	0.8028	-9.623875	0.000323	3.234170	0.547883	0.000032
  83	8.1590e+00	0.8118	-9.592102	0.000319	3.193231	0.540948	0.000032
  84	8.2585e+00	0.8232	-9.564403	0.000278	2.783843	0.471596	0.000028
  85	8.3580e+00	0.8293	-9.530186	0.000344	3.438865	0.582559	0.000034
  86	8.4575e+00	0.8435	-9.498414	0.000319	3.193231	0.540948	0.000032
  87	8.5570e+00	0.8538	-9.472751	0.000258	2.579148	0.436920	0.000026
  88	8.6565e+00	0.8621	-9.436498	0.000364	3.643559	0.617236	0.000036
  89	8.7560e+00	0.8702	-9.406762	0.000299	2.988537	0.506272	0.000030
  90	8.8555e+00	0.8822	-9.376618	0.000303	3.029476	0.513207	0.000030
  91	8.9550e+00	0.8925	-9.346882	0.000299	2.988537	0.506272	0.000030
  92	9.0545e+00	0.9012	-9.314295	0.000328	3.275109	0.554818	0.000033
  93	9.1540e+00	0.9131	-9.279263	0.000352	3.520742	0.596430	0.000035
  94	9.2535e+00	0.9215	-9.251971	0.000274	2.742904	0.464660	0.000027
  95	9.3530e+00	0.9312	-9.217755	0.000344	3.438865	0.582559	0.000034
  96	9.4525e+00	0.9419	-9.190463	0.000274	2.742904	0.464660	0.000027
  97	9.5520e+00	0.9502	-9.159912	0.000307	3.070415	0.520142	0.000031
  98	9.6515e+00	0.9599	-9.132620	0.000274	2.742904	0.464660	0.000027
  99	9.7510e+00	0.9695	-9.101255	0.000315	3.152292	0.534013	0.000032
 100	9.8505e+00	0.9796	-9.074370	0.000270	2.701965	0.457725	0.000027
 101	9.9500e+00	0.9916	-9.041375	0.000332	3.316048	0.561754	0.000033
 102	1.0050e+01	0.9986	-9.012454	0.000291	2.906659	0.492401	0.000029
 103	1.0149e+01	1.0103	-8.980274	0.000323	3.234170	0.547883	0.000032
 104	1.0248e+01	1.0238	-8.956648	0.000237	2.374454	0.402243	0.000024
 105	1.0348e+01	1.0339	-8.923653	0.000332	3.316048	0.561754	0.000033
 106	1.0447e+01	1.0421	-8.892695	0.000311	3.111354	0.527078	0.000031
 107	1.0547e+01	1.0517	-8.864181	0.000287	2.865720	0.485466	0.000029
 108	1.0646e+01	1.0645	-8.834445	0.000299	2.988537	0.506272	0.000030
 109	1.0746e+01	1.0703	-8.804709	0.000299	2.988537	0.506272	0.000030
 110	1.0845e+01	1.0790	-8.768863	0.000360	3.602620	0.610300	0.000036
 111	1.0945e+01	1.0921	-8.741571	0.000274	2.742904	0.464660	0.000027
 112	1.1044e+01	1.1027	-8.712242	0.000295	2.947598	0.499337	0.000029
 113	1.1144e+01	1.1108	-8.678840	0.000336	3.356987	0.568689	0.000034
 114	1.1243e+01	1.1217	-8.653993	0.000250	2.497271	0.423049	0.000025
 115	1.1343e+01	1.1323	-8.619368	0.000348	3.479803	0.589495	0.000035
 116	1.1443e+01	1.1413	-8.593706	0.000258	2.579148	0.436920	0.000026
 117	1.1542e+01	1.1498	-8.564784	0.000291	2.906659	0.492401	0.000029
 118	1.1642e+01	1.1585	-8.530568	0.000344	3.438865	0.582559	0.000034
 119	1.1741e+01	1.1717	-8.501239	0.000295	2.947598	0.499337	0.000029
 120	1.1841e+01	1.1817	-8.473132	0.000282	2.824782	0.478531	0.000028
 121	1.1940e+01	1.1899	-8.440545	0.000328	3.275109	0.554818	0.000033
 122	1.2040e+01	1.2004	-8.412031	0.000287	2.865720	0.485466	0.000029
 123	1.2139e+01	1.2121	-8.382702	0.000295	2.947598	0.499337	0.000029
 124	1.2239e+01	1.2209	-8.353374	0.000295	2.947598	0.499337	0.000029
 125	1.2338e+01	1.2297	-8.324860	0.000287	2.865720	0.485466	0.000029
 126	1.2438e+01	1.2426	-8.296753	0.000282	2.824782	0.478531	0.000028
 127	1.2537e+01	1.2508	-8.265388	0.000315	3.152292	0.534013	0.000032
 128	1.2636e+01	1.2578	-8.242984	0.000225	2.251637	0.381438	0.000023
 129	1.2736e+01	1.2704	-8.215692	0.000274	2.742904	0.464660	0.000027
 130	1.2835e+01	1.2809	-8.187993	0.000278	2.783843	0.471596	0.000028
 131	1.2935e+01	1.2882	-8.154998	0.000332	3.316048	0.561754	0.000033
 132	1.3034e+01	1.2985	-8.135445	0.000197	1.965065	0.332891	0.000020
 133	1.3134e+01	1.3080	-8.106931	0.000287	2.865720	0.485466	0.000029
 134	1.3233e+01	1.3184	-8.078010	0.000291	2.906659	0.492401	0.000029
 135	1.3333e+01	1.3289	-8.051533	0.000266	2.661026	0.450790	0.000027
 136	1.3432e+01	1.3395	-8.020575	0.000311	3.111354	0.527078	0.000031
 137	1.3532e+01	1.3486	-7.994912	0.000258	2.579148	0.436920	0.000026
 138	1.3632e+01	1.3598	-7.970064	0.000250	2.497271	0.423049	0.000025
 139	1.3731e+01	1.3687	-7.943587	0.000266	2.661026	0.450790	0.000027
 140	1.3831e+01	1.3797	-7.915480	0.000282	2.824782	0.478531	0.000028
 141	1.3930e+01	1.3873	-7.889411	0.000262	2.620087	0.443855	0.000026
 142	1.4030e+01	1.3982	-7.859675	0.000299	2.988537	0.506272	0.000030
 143	1.4129e+01	1.4094	-7.835641	0.000242	2.415393	0.409179	0.000024
 144	1.4229e+01	1.4199	-7.805905	0.000299	2.988537	0.506272	0.000030
 145	1.4328e+01	1.4285	-7.777391	0.000287	2.865720	0.485466	0.000029
 146	1.4428e+01	1.4381	-7.750099	0.000274	2.742904	0.464660	0.000027
 147	1.4527e+01	1.4481	-7.725251	0.000250	2.497271	0.423049	0.000025
 148	1.4627e+01	1.4601	-7.699589	0.000258	2.579148	0.436920	0.000026
 149	1.4726e+01	1.4670	-7.674334	0.000254	2.538210	0.429984	0.000025
 150	1.4825e+01	1.4795	-7.647449	0.000270	2.701965	0.457725	0.000027
 151	1.4925e+01	1.4898	-7.618120	0.000295	2.947598	0.499337	0.000029
 152	1.5024e+01	1.5018	-7.596124	0.000221	2.210699	0.374502	0.000022
 153	1.5124e+01	1.5086	-7.567203	0.000291	2.906659	0.492401	0.000029
 154	1.5223e+01	1.5189	-7.541947	0.000254	2.538210	0.429984	0.000025
 155	1.5323e+01	1.5263	-7.509360	0.000328	3.275109	0.554818	0.000033
 156	1.5422e+01	1.5380	-7.484512	0.000250	2.497271	0.423049	0.000025
 157	1.5522e+01	1.5479	-7.462108	0.000225	2.251637	0.381438	0.000023
 158	1.5621e+01	1.5585	-7.432780	0.000295	2.947598	0.499337	0.000029
 159	1.5721e+01	1.5685	-7.405080	0.000278	2.783843	0.471596	0.000028
 160	1.5820e+01	1.5768	-7.383084	0.000221	2.210699	0.374502	0.000022
 161	1.5920e+01	1.5909	-7.357421	0.000258	2.579148	0.436920	0.000026
 162	1.6020e+01	1.5974	-7.333795	0.000237	2.374454	0.402243	0.000024
 163	1.6119e+01	1.6058	-7.306503	0.000274	2.742904	0.464660	0.000027
 164	1.6218e+01	1.6177	-7.281248	0.000254	2.538210	0.429984	0.000025
 165	1.6318e+01	1.6286	-7.255993	0.000254	2.538210	0.429984	0.000025
 166	1.6418e+01	1.6382	-7.234811	0.000213	2.128821	0.360632	0.000021
 167	1.6517e+01	1.6471	-7.213629	0.000213	2.128821	0.360632	0.000021
 168	1.6616e+01	1.6576	-7.187152	0.000266	2.661026	0.450790	0.000027
 169	1.6716e+01	1.6666	-7.158638	0.000287	2.865720	0.485466	0.000029
 170	1.6816e+01	1.6750	-7.137049	0.000217	2.169760	0.367567	0.000022
 171	1.6915e+01	1.6869	-7.110572	0.000266	2.661026	0.450790	0.000027
 172	1.7015e+01	1.6941	-7.083687	0.000270	2.701965	0.457725	0.000027
 173	1.7114e+01	1.7072	-7.062913	0.000209	2.087882	0.353697	0.000021
 174	1.7213e+01	1.7143	-7.037250	0.000258	2.579148	0.436920	0.000026
 175	1.7313e+01	1.7278	-7.009958	0.000274	2.742904	0.464660	0.000027
 176	1.7413e+01	1.7385	-6.987554	0.000225	2.251637	0.381438	0.000023
 177	1.7512e+01	1.7464	-6.964336	0.000233	2.333515	0.395308	0.000023
 178	1.7611e+01	1.7574	-6.939488	0.000250	2.497271	0.423049	0.000025
 179	1.7711e+01	1.7678	-6.915862	0.000237	2.374454	0.402243	0.000024
 180	1.7811e+01	1.7779	-6.892643	0.000233	2.333515	0.395308	0.000023
 181	1.7910e+01	1.7881	-6.869017	0.000237	2.374454	0.402243	0.000024
 182	1.8009e+01	1.7955	-6.835208	0.000340	3.397926	0.575624	0.000034
 183	1.8109e+01	1.8058	-6.816063	0.000192	1.924127	0.325956	0.000019
 184	1.8209e+01	1.8169	-6.787549	0.000287	2.865720	0.485466	0.000029
 185	1.8308e+01	1.8274	-6.759442	0.000282	2.824782	0.478531	0.000028
 186	1.8407e+01	1.8394	-6.739075	0.000205	2.046943	0.346762	0.000020
 187	1.8507e+01	1.8462	-6.710561	0.000287	2.865720	0.485466	0.000029
 188	1.8607e+01	1.8530	-6.686121	0.000246	2.456332	0.416114	0.000025
 189	1.8706e+01	1.8660	-6.659643	0.000266	2.661026	0.450790	0.000027
 190	1.8805e+01	1.8737	-6.631944	0.000278	2.783843	0.471596	0.000028
 191	1.8905e+01	1.8865	-6.609540	0.000225	2.251637	0.381438	0.000023
 192	1.9005e+01	1.8951	-6.585914	0.000237	2.374454	0.402243	0.000024
 193	1.9104e+01	1.9069	-6.557808	0.000282	2.824782	0.478531	0.000028
 194	1.9203e+01	1.9176	-6.537848	0.000201	2.006004	0.339826	0.000020
 195	1.9303e+01	1.9265	-6.514222	0.000237	2.374454	0.402243	0.000024
 196	1.9402e+01	1.9364	-6.484893	0.000295	2.947598	0.499337	0.000029
 197	1.9502e+01	1.9448	-6.462082	0.000229	2.292576	0.388373	0.000023
 198	1.9602e+01	1.9570	-6.436420	0.000258	2.579148	0.436920	0.000026
 199	1.9701e+01	1.9669	-6.407091	0.000295	2.947598	0.499337	0.000029
 200	1.9800e+01	1.9772	-6.385094	0.000221	2.210699	0.374502	0.000022
 201	1.9900e+01	1.9858	-6.361469	0.000237	2.374454	0.402243	0.000024
 202	2.0000e+01	1.9972	-6.337435	0.000242	2.415393	0.409179	0.000024
 203	2.0099e+01	2.0091	-6.312180	0.000254	2.538210	0.429984	0.000025
 204	2.0198e+01	2.0155	-6.285703	0.000266	2.661026	0.450790	0.000027
 205	2.0298e+01	2.0251	-6.262892	0.000229	2.292576	0.388373	0.000023
 206	2.0398e+01	2.0368	-6.238044	0.000250	2.497271	0.423049	0.000025
 207	2.0497e+01	2.0454	-6.214011	0.000242	2.415393	0.409179	0.000024
 208	2.0596e+01	2.0533	-6.187533	0.000266	2.661026	0.450790	0.000027
 209	2.0696e+01	2.0678	-6.161056	0.000266	2.661026	0.450790	0.000027
 210	2.0796e+01	2.0741	-6.132135	0.000291	2.906659	0.492401	0.000029
 211	2.0895e+01	2.0874	-6.104028	0.000282	2.824782	0.478531	0.000028
 212	2.0994e+01	2.0950	-6.081624	0.000225	2.251637	0.381438	0.000023
 213	2.1094e+01	2.1053	-6.054740	0.000270	2.701965	0.457725	0.000027
 214	2.1194e+01	2.1146	-6.027448	0.000274	2.742904	0.464660	0.000027
 215	2.1293e+01	2.1268	-6.000970	0.000266	2.661026	0.450790	0.000027
 216	2.1392e+01	2.1346	-5.970012	0.000311	3.111354	0.527078	0.000031
 217	2.1492e+01	2.1426	-5.948423	0.000217	2.169760	0.367567	0.000022
 218	2.1591e+01	2.1543	-5.918280	0.000303	3.029476	0.513207	0.000030
 219	2.1691e+01	2.1651	-5.893025	0.000254	2.538210	0.429984	0.000025
 220	2.1791e+01	2.1761	-5.864511	0.000287	2.865720	0.485466	0.000029
 221	2.1890e+01	2.1850	-5.837219	0.000274	2.742904	0.464660	0.000027
 222	2.1989e+01	2.1958	-5.808297	0.000291	2.906659	0.492401	0.000029
 223	2.2089e+01	2.2047	-5.782635	0.000258	2.579148	0.436920	0.000026
 224	2.2189e+01	2.2157	-5.757787	0.000250	2.497271	0.423049	0.000025
 225	2.2288e+01	2.2270	-5.728051	0.000299	2.988537	0.506272	0.000030
 226	2.2387e+01	2.2328	-5.701981	0.000262	2.620087	0.443855	0.000026
 227	2.2487e+01	2.2446	-5.675911	0.000262	2.620087	0.443855	0.000026
 228	2.2587e+01	2.2565	-5.649027	0.000270	2.701965	0.457725	0.000027
 229	2.2686e+01	2.2640	-5.622549	0.000266	2.661026	0.450790	0.000027
 230	2.2785e+01	2.2771	-5.593628	0.000291	2.906659	0.492401	0.000029
 231	2.2885e+01	2.2817	-5.564299	0.000295	2.947598	0.499337	0.000029
 232	2.2985e+01	2.2950	-5.543117	0.000213	2.128821	0.360632	0.000021
 233	2.3084e+01	2.3080	-5.510530	0.000328	3.275109	0.554818	0.000033
 234	2.3183e+01	2.3147	-5.484460	0.000262	2.620087	0.443855	0.000026
 235	2.3283e+01	2.3245	-5.457576	0.000270	2.701965	0.457725	0.000027
 236	2.3383e+01	2.3376	-5.432320	0.000254	2.538210	0.429984	0.000025
 237	2.3482e+01	2.3466	-5.404621	0.000278	2.783843	0.471596	0.000028
 238	2.3581e+01	2.3531	-5.376107	0.000287	2.865720	0.485466	0.000029
 239	2.3681e+01	2.3655	-5.351259	0.000250	2.497271	0.423049	0.000025
 240	2.3780e+01	2.3746	-5.322338	0.000291	2.906659	0.492401	0.000029
 241	2.3880e+01	2.3833	-5.293009	0.000295	2.947598	0.499337	0.000029
 242	2.3980e+01	2.3942	-5.269791	0.000233	2.333515	0.395308	0.000023
 243	2.4079e+01	2.4038	-5.239240	0.000307	3.070415	0.520142	0.000031
 244	2.4178e+01	2.4136	-5.212763	0.000266	2.661026	0.450790	0.000027
 245	2.4278e+01	2.4242	-5.180990	0.000319	3.193231	0.540948	0.000032
 246	2.4378e+01	2.4333	-5.156957	0.000242	2.415393	0.409179	0.000024
 247	2.4477e+01	2.4455	-5.125591	0.000315	3.152292	0.534013	0.000032
 248	2.4576e+01	2.4540	-5.096670	0.000291	2.906659	0.492401	0.000029
 249	2.4676e+01	2.4657	-5.068156	0.000287	2.865720	0.485466	0.000029
 250	2.4776e+01	2.4734	-5.035569	0.000328	3.275109	0.554818	0.000033
 251	2.4875e+01	2.4840	-5.011943	0.000237	2.374454	0.402243	0.000024
 252	2.4974e+01	2.4946	-4.984243	0.000278	2.783843	0.471596	0.000028
 253	2.5074e+01	2.5031	-4.955729	0.000287	2.865720	0.485466	0.000029
 254	2.5174e+01	2.5147	-4.926401	0.000295	2.947598	0.499337	0.000029
 255	2.5273e+01	2.5245	-4.897479	0.000291	2.906659	0.492401	0.000029
 256	2.5372e+01	2.5348	-4.868558	0.000291	2.906659	0.492401	0.000029
 257	2.5472e+01	2.5445	-4.838822	0.000299	2.988537	0.506272	0.000030
 258	2.5572e+01	2.5540	-4.809086	0.000299	2.988537	0.506272	0.000030
 259	2.5671e+01	2.5663	-4.781387	0.000278	2.783843	0.471596	0.000028
 260	2.5770e+01	2.5741	-4.754910	0.000266	2.661026	0.450790	0.000027
 261	2.5870e+01	2.5851	-4.721508	0.000336	3.356987	0.568689	0.000034
 262	2.5970e+01	2.5945	-4.695030	0.000266	2.661026	0.450790	0.000027
 263	2.6069e+01	2.6018	-4.668146	0.000270	2.701965	0.457725	0.000027
 264	2.6169e+01	2.6131	-4.639224	0.000291	2.906659	0.492401	0.000029
 265	2.6268e+01	2.6221	-4.611932	0.000274	2.742904	0.464660	0.000027
 266	2.6367e+01	2.6324	-4.585048	0.000270	2.701965	0.457725	0.000027
 267	2.6467e+01	2.6411	-4.561829	0.000233	2.333515	0.395308	0.000023
 268	2.6567e+01	2.6527	-4.532501	0.000295	2.947598	0.499337	0.000029
 269	2.6666e+01	2.6627	-4.501135	0.000315	3.152292	0.534013	0.000032
 270	2.6765e+01	2.6717	-4.476695	0.000246	2.456332	0.416114	0.000025
 271	2.6865e+01	2.6836	-4.450625	0.000262	2.620087	0.443855	0.000026
 272	2.6965e+01	2.6936	-4.420074	0.000307	3.070415	0.520142	0.000031
 273	2.7064e+01	2.7019	-4.397263	0.000229	2.292576	0.388373	0.000023
 274	2.7163e+01	2.7123	-4.369156	0.000282	2.824782	0.478531	0.000028
 275	2.7263e+01	2.7221	-4.336569	0.000328	3.275109	0.554818	0.000033
 276	2.7363e+01	2.7288	-4.311314	0.000254	2.538210	0.429984	0.000025
 277	2.7462e+01	2.7416	-4.281578	0.000299	2.988537	0.506272	0.000030
 278	2.7561e+01	2.7493	-4.256730	0.000250	2.497271	0.423049	0.000025
 279	2.7661e+01	2.7646	-4.230660	0.000262	2.620087	0.443855	0.000026
 280	2.7761e+01	2.7713	-4.198480	0.000323	3.234170	0.547883	0.000032
 281	2.7860e+01	2.7810	-4.174446	0.000242	2.415393	0.409179	0.000024
 282	2.7959e+01	2.7922	-4.143081	0.000315	3.152292	0.534013	0.000032
 283	2.8059e+01	2.8047	-4.119863	0.000233	2.333515	0.395308	0.000023
 284	2.8159e+01	2.8115	-4.090534	0.000295	2.947598	0.499337	0.000029
 285	2.8258e+01	2.8219	-4.063649	0.000270	2.701965	0.457725	0.000027
 286	2.8358e+01	2.8329	-4.034321	0.000295	2.947598	0.499337	0.000029
 287	2.8457e+01	2.8402	-4.007029	0.000274	2.742904	0.464660	0.000027
 288	2.8556e+01	2.8513	-3.980551	0.000266	2.661026	0.450790	0.000027
 289	2.8656e+01	2.8640	-3.952037	0.000287	2.865720	0.485466	0.000029
 290	2.8756e+01	2.8721	-3.921487	0.000307	3.070415	0.520142	0.000031
 291	2.8855e+01	2.8792	-3.896232	0.000254	2.538210	0.429984	0.000025
 292	2.8954e+01	2.8946	-3.871791	0.000246	2.456332	0.416114	0.000025
 293	2.9054e+01	2.9031	-3.847758	0.000242	2.415393	0.409179	0.000024
 294	2.9154e+01	2.9111	-3.819651	0.000282	2.824782	0.478531	0.000028
 295	2.9253e+01	2.9237	-3.791952	0.000278	2.783843	0.471596	0.000028
 296	2.9352e+01	2.9306	-3.767511	0.000246	2.456332	0.416114	0.000025
 297	2.9452e+01	2.9385	-3.743885	0.000237	2.374454	0.402243	0.000024
 298	2.9552e+01	2.9530	-3.718223	0.000258	2.579148	0.436920	0.000026
 299	2.9651e+01	2.9630	-3.692153	0.000262	2.620087	0.443855	0.000026
 300	2.9750e+01	2.9736	-3.668527	0.000237	2.374454	0.402243	0.000024
 301	2.9850e+01	2.9810	-3.641642	0.000270	2.701965	0.457725	0.000027
 302	2.9950e+01	2.9879	-3.618831	0.000229	2.292576	0.388373	0.000023
 303	3.0049e+01	3.0018	-3.593576	0.000254	2.538210	0.429984	0.000025
 304	3.0148e+01	3.0116	-3.573209	0.000205	2.046943	0.346762	0.000020
 305	3.0248e+01	3.0230	-3.547139	0.000262	2.620087	0.443855	0.000026
 306	3.0348e+01	3.0302	-3.523106	0.000242	2.415393	0.409179	0.000024
 307	3.0447e+01	3.0412	-3.493777	0.000295	2.947598	0.499337	0.000029
 308	3.0547e+01	3.0490	-3.470151	0.000237	2.374454	0.402243	0.000024
 309	3.0646e+01	3.0616	-3.443267	0.000270	2.701965	0.457725	0.000027
 310	3.0745e+01	3.0715	-3.422492	0.000209	2.087882	0.353697	0.000021
 311	3.0845e+01	3.0798	-3.398866	0.000237	2.374454	0.402243	0.000024
 312	3.0945e+01	3.0891	-3.372389	0.000266	2.661026	0.450790	0.000027
 313	3.1044e+01	3.1017	-3.346319	0.000262	2.620087	0.443855	0.000026
 314	3.1143e+01	3.1097	-3.326359	0.000201	2.006004	0.339826	0.000020
 315	3.1243e+01	3.1211	-3.301104	0.000254	2.538210	0.429984	0.000025
 316	3.1343e+01	3.1306	-3.275441	0.000258	2.579148	0.436920	0.000026
 317	3.1442e+01	3.1384	-3.252223	0.000233	2.333515	0.395308	0.000023
 318	3.1541e+01	3.1505	-3.231041	0.000213	2.128821	0.360632	0.000021
 319	3.1641e+01	3.1597	-3.207415	0.000237	2.374454	0.402243	0.000024
 320	3.1741e+01	3.1715	-3.182567	0.000250	2.497271	0.423049	0.000025
 321	3.1840e+01	3.1827	-3.156497	0.000262	2.620087	0.443855	0.000026
 322	3.1939e+01	3.1889	-3.129613	0.000270	2.701965	0.457725	0.000027
 323	3.2039e+01	3.2035	-3.106802	0.000229	2.292576	0.388373	0.000023
 324	3.2139e+01	3.2119	-3.078288	0.000287	2.865720	0.485466	0.000029
 325	3.2238e+01	3.2183	-3.063623	0.000147	1.473799	0.249668	0.000015
 326	3.2337e+01	3.2288	-3.035517	0.000282	2.824782	0.478531	0.000028
 327	3.2437e+01	3.2413	-3.013520	0.000221	2.210699	0.374502	0.000022
 328	3.2536e+01	3.2510	-2.986636	0.000270	2.701965	0.457725	0.000027
 329	3.2636e+01	3.2596	-2.967898	0.000188	1.883188	0.319021	0.000019
 330	3.2736e+01	3.2680	-2.945901	0.000221	2.210699	0.374502	0.000022
 331	3.2835e+01	3.2815	-2.923905	0.000221	2.210699	0.374502	0.000022
 332	3.2934e+01	3.2911	-2.903945	0.000201	2.006004	0.339826	0.000020
 333	3.3034e+01	3.2996	-2.881541	0.000225	2.251637	0.381438	0.000023
 334	3.3133e+01	3.3082	-2.857915	0.000237	2.374454	0.402243	0.000024
 335	3.3233e+01	3.3184	-2.836326	0.000217	2.169760	0.367567	0.000022
 336	3.3333e+01	3.3279	-2.815144	0.000213	2.128821	0.360632	0.000021
 337	3.3432e+01	3.3379	-2.789889	0.000254	2.538210	0.429984	0.000025
 338	3.3532e+01	3.3522	-2.769522	0.000205	2.046943	0.346762	0.000020
 339	3.3631e+01	3.3582	-2.743859	0.000258	2.579148	0.436920	0.000026
 340	3.3730e+01	3.3683	-2.721048	0.000229	2.292576	0.388373	0.000023
 341	3.3830e+01	3.3796	-2.704755	0.000164	1.637555	0.277409	0.000016
 342	3.3929e+01	3.3900	-2.682758	0.000221	2.210699	0.374502	0.000022
 343	3.4029e+01	3.4000	-2.654651	0.000282	2.824782	0.478531	0.000028
 344	3.4129e+01	3.4114	-2.635914	0.000188	1.883188	0.319021	0.000019
 345	3.4228e+01	3.4171	-2.615547	0.000205	2.046943	0.346762	0.000020
 346	3.4328e+01	3.4303	-2.593550	0.000221	2.210699	0.374502	0.000022
 347	3.4427e+01	3.4383	-2.571146	0.000225	2.251637	0.381438	0.000023
 348	3.4526e+01	3.4480	-2.548742	0.000225	2.251637	0.381438	0.000023
 349	3.4626e+01	3.4591	-2.525116	0.000237	2.374454	0.402243	0.000024
 350	3.4725e+01	3.4686	-2.499861	0.000254	2.538210	0.429984	0.000025
 351	3.4825e+01	3.4785	-2.477457	0.000225	2.251637	0.381438	0.000023
 352	3.4925e+01	3.4870	-2.455054	0.000225	2.251637	0.381438	0.000023
 353	3.5024e+01	3.4997	-2.433464	0.000217	2.169760	0.367567	0.000022
 354	3.5123e+01	3.5099	-2.408617	0.000250	2.497271	0.423049	0.000025
 355	3.5223e+01	3.5210	-2.387435	0.000213	2.128821	0.360632	0.000021
 356	3.5322e+01	3.5291	-2.365846	0.000217	2.169760	0.367567	0.000022
 357	3.5422e+01	3.5390	-2.342220	0.000237	2.374454	0.402243	0.000024
 358	3.5522e+01	3.5502	-2.319001	0.000233	2.333515	0.395308	0.000023
 359	3.5621e+01	3.5569	-2.297819	0.000213	2.128821	0.360632	0.000021
 360	3.5721e+01	3.5680	-2.275008	0.000229	2.292576	0.388373	0.000023
 361	3.5820e+01	3.5796	-2.251382	0.000237	2.374454	0.402243	0.000024
 362	3.5919e+01	3.5892	-2.232237	0.000192	1.924127	0.325956	0.000019
 363	3.6019e+01	3.5986	-2.211463	0.000209	2.087882	0.353697	0.000021
 364	3.6118e+01	3.6092	-2.188244	0.000233	2.333515	0.395308	0.000023
 365	3.6218e+01	3.6186	-2.159730	0.000287	2.865720	0.485466	0.000029
 366	3.6318e+01	3.6272	-2.138956	0.000209	2.087882	0.353697	0.000021
 367	3.6417e+01	3.6396	-2.117367	0.000217	2.169760	0.367567	0.000022
 368	3.6517e+01	3.6495	-2.094555	0.000229	2.292576	0.388373	0.000023
 369	3.6616e+01	3.6578	-2.070522	0.000242	2.415393	0.409179	0.000024
 370	3.6715e+01	3.6667	-2.050562	0.000201	2.006004	0.339826	0.000020
 371	3.6815e+01	3.6798	-2.031010	0.000197	1.965065	0.332891	0.000020
 372	3.6914e+01	3.6875	-2.007791	0.000233	2.333515	0.395308	0.000023
 373	3.7014e+01	3.6964	-1.979685	0.000282	2.824782	0.478531	0.000028
 374	3.7114e+01	3.7061	-1.965020	0.000147	1.473799	0.249668	0.000015
 375	3.7213e+01	3.7177	-1.939765	0.000254	2.538210	0.429984	0.000025
 376	3.7313e+01	3.7238	-1.915325	0.000246	2.456332	0.416114	0.000025
 377	3.7412e+01	3.7377	-1.893328	0.000221	2.210699	0.374502	0.000022
 378	3.7511e+01	3.7469	-1.871332	0.000221	2.210699	0.374502	0.000022
 379	3.7611e+01	3.7574	-1.844040	0.000274	2.742904	0.464660	0.000027
 380	3.7711e+01	3.7696	-1.822858	0.000213	2.128821	0.360632	0.000021
 381	3.7810e+01	3.7780	-1.799232	0.000237	2.374454	0.402243	0.000024
 382	3.7910e+01	3.7904	-1.773977	0.000254	2.538210	0.429984	0.000025
 383	3.8009e+01	3.7988	-1.749129	0.000250	2.497271	0.423049	0.000025
 384	3.8108e+01	3.8064	-1.725503	0.000237	2.374454	0.402243	0.000024
 385	3.8208e+01	3.8151	-1.699840	0.000258	2.579148	0.436920	0.000026
 386	3.8307e+01	3.8294	-1.678251	0.000217	2.169760	0.367567	0.000022
 387	3.8407e+01	3.8348	-1.652181	0.000262	2.620087	0.443855	0.000026
 388	3.8507e+01	3.8444	-1.625297	0.000270	2.701965	0.457725	0.000027
 389	3.8606e+01	3.8538	-1.602486	0.000229	2.292576	0.388373	0.000023
 390	3.8706e+01	3.8657	-1.578045	0.000246	2.456332	0.416114	0.000025
 391	3.8805e+01	3.8746	-1.551975	0.000262	2.620087	0.443855	0.000026
 392	3.8904e+01	3.8857	-1.527535	0.000246	2.456332	0.416114	0.000025
 393	3.9004e+01	3.8962	-1.501057	0.000266	2.661026	0.450790	0.000027
 394	3.9103e+01	3.9071	-1.475802	0.000254	2.538210	0.429984	0.000025
 395	3.9203e+01	3.9169	-1.455435	0.000205	2.046943	0.346762	0.000020
 396	3.9303e+01	3.9274	-1.429772	0.000258	2.579148	0.436920	0.000026
 397	3.9402e+01	3.9369	-1.405332	0.000246	2.456332	0.416114	0.000025
 398	3.9502e+01	3.9467	-1.382113	0.000233	2.333515	0.395308	0.000023
 399	3.9601e+01	3.9547	-1.356858	0.000254	2.538210	0.429984	0.000025
 400	3.9700e+01	3.9677	-1.327529	0.000295	2.947598	0.499337	0.000029
 401	3.9800e+01	3.9747	-1.307570	0.000201	2.006004	0.339826	0.000020
 402	3.9900e+01	3.9851	-1.282314	0.000254	2.538210	0.429984	0.000025
 403	3.9999e+01	3.9965	-1.258281	0.000242	2.415393	0.409179	0.000024
 404	4.0099e+01	4.0055	-1.230989	0.000274	2.742904	0.464660	0.000027
 405	4.0198e+01	4.0142	-1.206549	0.000246	2.456332	0.416114	0.000025
 406	4.0297e+01	4.0253	-1.179257	0.000274	2.742904	0.464660	0.000027
 407	4.0397e+01	4.0379	-1.159704	0.000197	1.965065	0.332891	0.000020
 408	4.0496e+01	4.0447	-1.137300	0.000225	2.251637	0.381438	0.000023
 409	4.0596e+01	4.0582	-1.108379	0.000291	2.906659	0.492401	0.000029
 410	4.0696e+01	4.0677	-1.086790	0.000217	2.169760	0.367567	0.000022
 411	4.0795e+01	4.0760	-1.060720	0.000262	2.620087	0.443855	0.000026
 412	4.0895e+01	4.0852	-1.031799	0.000291	2.906659	0.492401	0.000029
 413	4.0994e+01	4.0997	-1.007358	0.000246	2.456332	0.416114	0.000025
 414	4.1093e+01	4.1052	-0.982918	0.000246	2.456332	0.416114	0.000025
 415	4.1193e+01	4.1162	-0.955218	0.000278	2.783843	0.471596	0.000028
 416	4.1292e+01	4.1291	-0.929148	0.000262	2.620087	0.443855	0.000026
 417	4.1392e+01	4.1358	-0.900227	0.000291	2.906659	0.492401	0.000029
 418	4.1492e+01	4.1448	-0.874564	0.000258	2.579148	0.436920	0.000026
 419	4.1591e+01	4.1566	-0.846865	0.000278	2.783843	0.471596	0.000028
 420	4.1691e+01	4.1673	-0.821203	0.000258	2.579148	0.436920	0.000026
 421	4.1790e+01	4.1775	-0.794318	0.000270	2.701965	0.457725	0.000027
 422	4.1889e+01	4.1845	-0.773136	0.000213	2.128821	0.360632	0.000021
 423	4.1989e+01	4.1930	-0.747881	0.000254	2.538210	0.429984	0.000025
 424	4.2089e+01	4.2046	-0.720589	0.000274	2.742904	0.464660	0.000027
 425	4.2188e+01	4.2149	-0.696556	0.000242	2.415393	0.409179	0.000024
 426	4.2288e+01	4.2268	-0.669671	0.000270	2.701965	0.457725	0.000027
 427	4.2387e+01	4.2371	-0.637898	0.000319	3.193231	0.540948	0.000032
 428	4.2486e+01	4.2452	-0.614273	0.000237	2.374454	0.402243	0.000024
 429	4.2586e+01	4.2538	-0.587795	0.000266	2.661026	0.450790	0.000027
 430	4.2685e+01	4.2658	-0.562133	0.000258	2.579148	0.436920	0.000026
 431	4.2785e+01	4.2765	-0.534841	0.000274	2.742904	0.464660	0.000027
 432	4.2885e+01	4.2874	-0.510400	0.000246	2.456332	0.416114	0.000025
 433	4.2984e+01	4.2929	-0.486774	0.000237	2.374454	0.402243	0.000024
 434	4.3084e+01	4.3021	-0.463148	0.000237	2.374454	0.402243	0.000024
 435	4.3183e+01	4.3147	-0.439930	0.000233	2.333515	0.395308	0.000023
 436	4.3282e+01	4.3250	-0.415489	0.000246	2.456332	0.416114	0.000025
 437	4.3382e+01	4.3336	-0.391864	0.000237	2.374454	0.402243	0.000024
 438	4.3481e+01	4.3465	-0.369867	0.000221	2.210699	0.374502	0.000022
 439	4.3581e+01	4.3548	-0.339316	0.000307	3.070415	0.520142	0.000031
 440	4.3681e+01	4.3676	-0.314876	0.000246	2.456332	0.416114	0.000025
 441	4.3780e+01	4.3746	-0.294916	0.000201	2.006004	0.339826	0.000020
 442	4.3880e+01	4.3851	-0.268439	0.000266	2.661026	0.450790	0.000027
 443	4.3979e+01	4.3946	-0.240739	0.000278	2.783843	0.471596	0.000028
 444	4.4078e+01	4.4067	-0.216706	0.000242	2.415393	0.409179	0.000024
 445	4.4178e+01	4.4154	-0.189007	0.000278	2.783843	0.471596	0.000028
 446	4.4278e+01	4.4247	-0.166196	0.000229	2.292576	0.388373	0.000023
 447	4.4377e+01	4.4363	-0.139311	0.000270	2.701965	0.457725	0.000027
 448	4.4477e+01	4.4448	-0.116907	0.000225	2.251637	0.381438	0.000023
 449	4.4576e+01	4.4540	-0.094911	0.000221	2.210699	0.374502	0.000022
 450	4.4675e+01	4.4637	-0.069248	0.000258	2.579148	0.436920	0.000026
 451	4.4775e+01	4.4758	-0.041956	0.000274	2.742904	0.464660	0.000027
 452	4.4874e+01	4.4852	-0.017108	0.000250	2.497271	0.423049	0.000025
 453	4.4974e+01	4.4931	0.008962	0.000262	2.620087	0.443855	0.000026
 454	4.5074e+01	4.5046	0.035031	0.000262	2.620087	0.443855	0.000026
 455	4.5173e+01	4.5171	0.059472	0.000246	2.456332	0.416114	0.000025
 456	4.5273e+01	4.5249	0.085135	0.000258	2.579148	0.436920	0.000026
 457	4.5372e+01	4.5319	0.107946	0.000229	2.292576	0.388373	0.000023
 458	4.5471e+01	4.5458	0.132794	0.000250	2.497271	0.423049	0.000025
 459	4.5571e+01	4.5545	0.160086	0.000274	2.742904	0.464660	0.000027
 460	4.5670e+01	4.5657	0.181675	0.000217	2.169760	0.367567	0.000022
 461	4.5770e+01	4.5726	0.204486	0.000229	2.292576	0.388373	0.000023
 462	4.5870e+01	4.5822	0.226890	0.000225	2.251637	0.381438	0.000023
 463	4.5969e+01	4.5937	0.253367	0.000266	2.661026	0.450790	0.000027
 464	4.6069e+01	4.6043	0.272920	0.000197	1.965065	0.332891	0.000020
 465	4.6168e+01	4.6149	0.295731	0.000229	2.292576	0.388373	0.000023
 466	4.6267e+01	4.6235	0.319357	0.000237	2.374454	0.402243	0.000024
 467	4.6367e+01	4.6316	0.339724	0.000205	2.046943	0.346762	0.000020
 468	4.6467e+01	4.6454	0.363757	0.000242	2.415393	0.409179	0.000024
 469	4.6566e+01	4.6554	0.387383	0.000237	2.374454	0.402243	0.000024
 470	4.6666e+01	4.6619	0.411009	0.000237	2.374454	0.402243	0.000024
 471	4.6765e+01	4.6748	0.429339	0.000184	1.842249	0.312085	0.000018
 472	4.6864e+01	4.6828	0.448484	0.000192	1.924127	0.325956	0.000019
 473	4.6964e+01	4.6924	0.473739	0.000254	2.538210	0.429984	0.000025
 474	4.7063e+01	4.7030	0.496143	0.000225	2.251637	0.381438	0.000023
 475	4.7163e+01	4.7158	0.517325	0.000213	2.128821	0.360632	0.000021
 476	4.7263e+01	4.7223	0.540544	0.000233	2.333515	0.395308	0.000023
 477	4.7362e+01	4.7309	0.559689	0.000192	1.924127	0.325956	0.000019
 478	4.7462e+01	4.7440	0.584129	0.000246	2.456332	0.416114	0.000025
 479	4.7561e+01	4.7527	0.606533	0.000225	2.251637	0.381438	0.000023
 480	4.7660e+01	4.7619	0.628122	0.000217	2.169760	0.367567	0.000022
 481	4.7760e+01	4.7717	0.650933	0.000229	2.292576	0.388373	0.000023
 482	4.7859e+01	4.7828	0.668449	0.000176	1.760371	0.298215	0.000018
 483	4.7959e+01	4.7901	0.690446	0.000221	2.210699	0.374502	0.000022
 484	4.8059e+01	4.7999	0.713257	0.000229	2.292576	0.388373	0.000023
 485	4.8158e+01	4.8131	0.734846	0.000217	2.169760	0.367567	0.000022
 486	4.8258e+01	4.8228	0.755213	0.000205	2.046943	0.346762	0.000020
 487	4.8357e+01	4.8323	0.778024	0.000229	2.292576	0.388373	0.000023
 488	4.8456e+01	4.8443	0.799206	0.000213	2.128821	0.360632	0.000021
 489	4.8556e+01	4.8489	0.820795	0.000217	2.169760	0.367567	0.000022
 490	4.8656e+01	4.8615	0.840755	0.000201	2.006004	0.339826	0.000020
 491	4.8755e+01	4.8730	0.866010	0.000254	2.538210	0.429984	0.000025
 492	4.8855e+01	4.8783	0.887599	0.000217	2.169760	0.367567	0.000022
 493	4.8954e+01	4.8922	0.911225	0.000237	2.374454	0.402243	0.000024
 494	4.9053e+01	4.9056	0.929963	0.000188	1.883188	0.319021	0.000019
 495	4.9153e+01	4.9140	0.948701	0.000188	1.883188	0.319021	0.000019
 496	4.9252e+01	4.9241	0.968661	0.000201	2.006004	0.339826	0.000020
 497	4.9352e+01	4.9304	0.987398	0.000188	1.883188	0.319021	0.000019
 498	4.9452e+01	4.9410	1.009395	0.000221	2.210699	0.374502	0.000022
 499	4.9551e+01	4.9509	1.030984	0.000217	2.169760	0.367567	0.000022
 500	4.9651e+01	4.9638	1.045648	0.000147	1.473799	0.249668	0.000015
 501	4.9750e+01	4.9720	1.064793	0.000192	1.924127	0.325956	0.000019
 502	4.9849e+01	4.9827	1.088827	0.000242	2.415393	0.409179	0.000024
 503	4.9949e+01	4.9923	1.104713	0.000160	1.596616	0.270474	0.000016
 504	5.0048e+01	5.0024	1.127932	0.000233	2.333515	0.395308	0.000023
 505	5.0148e+01	5.0100	1.146262	0.000184	1.842249	0.312085	0.000018
 506	5.0248e+01	5.0178	1.166629	0.000205	2.046943	0.346762	0.000020
 507	5.0347e+01	5.0329	1.187404	0.000209	2.087882	0.353697	0.000021
 508	5.0447e+01	5.0410	1.202068	0.000147	1.473799	0.249668	0.000015
 509	5.0546e+01	5.0467	1.222842	0.000209	2.087882	0.353697	0.000021
 510	5.0645e+01	5.0602	1.243209	0.000205	2.046943	0.346762	0.000020
 511	5.0745e+01	5.0714	1.261133	0.000180	1.801310	0.305150	0.000018
 512	5.0844e+01	5.0776	1.281092	0.000201	2.006004	0.339826	0.000020
 513	5.0944e+01	5.0909	1.298201	0.000172	1.719432	0.291280	0.000017
 514	5.1044e+01	5.1001	1.321012	0.000229	2.292576	0.388373	0.000023
 515	5.1143e+01	5.1090	1.338935	0.000180	1.801310	0.305150	0.000018
 516	5.1242e+01	5.1191	1.362968	0.000242	2.415393	0.409179	0.000024
 517	5.1342e+01	5.1330	1.382113	0.000192	1.924127	0.325956	0.000019
 518	5.1441e+01	5.1400	1.402480	0.000205	2.046943	0.346762	0.000020
 519	5.1541e+01	5.1523	1.422440	0.000201	2.006004	0.339826	0.000020
 520	5.1641e+01	5.1580	1.441585	0.000192	1.924127	0.325956	0.000019
 521	5.1740e+01	5.1706	1.462767	0.000213	2.128821	0.360632	0.000021
 522	5.1840e+01	5.1801	1.484356	0.000217	2.169760	0.367567	0.000022
 523	5.1939e+01	5.1906	1.505538	0.000213	2.128821	0.360632	0.000021
 524	5.2038e+01	5.2015	1.526720	0.000213	2.128821	0.360632	0.000021
 525	5.2138e+01	5.2102	1.544643	0.000180	1.801310	0.305150	0.000018
 526	5.2237e+01	5.2198	1.562973	0.000184	1.842249	0.312085	0.000018
 527	5.2337e+01	5.2288	1.588229	0.000254	2.538210	0.429984	0.000025
 528	5.2437e+01	5.2387	1.605744	0.000176	1.760371	0.298215	0.000018
 529	5.2536e+01	5.2507	1.623667	0.000180	1.801310	0.305150	0.000018
 530	5.2636e+01	5.2574	1.641590	0.000180	1.801310	0.305150	0.000018
 531	5.2735e+01	5.2694	1.663587	0.000221	2.210699	0.374502	0.000022
 532	5.2834e+01	5.2808	1.684361	0.000209	2.087882	0.353697	0.000021
 533	5.2934e+01	5.2898	1.705951	0.000217	2.169760	0.367567	0.000022
 534	5.3033e+01	5.3020	1.725910	0.000201	2.006004	0.339826	0.000020
 535	5.3133e+01	5.3076	1.744648	0.000188	1.883188	0.319021	0.000019
 536	5.3233e+01	5.3170	1.763386	0.000188	1.883188	0.319021	0.000019
 537	5.3332e+01	5.3313	1.785790	0.000225	2.251637	0.381438	0.000023
 538	5.3431e+01	5.3399	1.803713	0.000180	1.801310	0.305150	0.000018
 539	5.3531e+01	5.3472	1.824895	0.000213	2.128821	0.360632	0.000021
 540	5.3630e+01	5.3585	1.842410	0.000176	1.760371	0.298215	0.000018
 541	5.3730e+01	5.3707	1.863185	0.000209	2.087882	0.353697	0.000021
 542	5.3830e+01	5.3805	1.884774	0.000217	2.169760	0.367567	0.000022
 543	5.3929e+01	5.3907	1.905548	0.000209	2.087882	0.353697	0.000021
 544	5.4029e+01	5.3980	1.928360	0.000229	2.292576	0.388373	0.000023
 545	5.4128e+01	5.4119	1.948727	0.000205	2.046943	0.346762	0.000020
 546	5.4227e+01	5.4177	1.972353	0.000237	2.374454	0.402243	0.000024
 547	5.4327e+01	5.4297	1.992720	0.000205	2.046943	0.346762	0.000020
 548	5.4426e+01	5.4388	2.013494	0.000209	2.087882	0.353697	0.000021
 549	5.4526e+01	5.4481	2.034269	0.000209	2.087882	0.353697	0.000021
 550	5.4626e+01	5.4589	2.055858	0.000217	2.169760	0.367567	0.000022
 551	5.4725e+01	5.4699	2.080706	0.000250	2.497271	0.423049	0.000025
 552	5.4825e+01	5.4771	2.099851	0.000192	1.924127	0.325956	0.000019
 553	5.4924e+01	5.4913	2.123069	0.000233	2.333515	0.395308	0.000023
 554	5.5023e+01	5.5016	2.149547	0.000266	2.661026	0.450790	0.000027
 555	5.5123e+01	5.5101	2.169099	0.000197	1.965065	0.332891	0.000020
 556	5.5222e+01	5.5183	2.191910	0.000229	2.292576	0.388373	0.000023
 557	5.5322e+01	5.5317	2.211055	0.000192	1.924127	0.325956	0.000019
 558	5.5422e+01	5.5410	2.237533	0.000266	2.661026	0.450790	0.000027
 559	5.5521e+01	5.5506	2.255863	0.000184	1.842249	0.312085	0.000018
 560	5.5620e+01	5.5595	2.279896	0.000242	2.415393	0.409179	0.000024
 561	5.5720e+01	5.5671	2.301485	0.000217	2.169760	0.367567	0.000022
 562	5.5819e+01	5.5792	2.322667	0.000213	2.128821	0.360632	0.000021
 563	5.5919e+01	5.5895	2.347922	0.000254	2.538210	0.429984	0.000025
 564	5.6019e+01	5.5970	2.368697	0.000209	2.087882	0.353697	0.000021
 565	5.6118e+01	5.6075	2.391508	0.000229	2.292576	0.388373	0.000023
 566	5.6218e+01	5.6193	2.412283	0.000209	2.087882	0.353697	0.000021
 567	5.6317e+01	5.6274	2.437130	0.000250	2.497271	0.423049	0.000025
 568	5.6416e+01	5.6394	2.456276	0.000192	1.924127	0.325956	0.000019
 569	5.6516e+01	5.6484	2.480309	0.000242	2.415393	0.409179	0.000024
 570	5.6615e+01	5.6547	2.503120	0.000229	2.292576	0.388373	0.000023
 571	5.6715e+01	5.6702	2.524302	0.000213	2.128821	0.360632	0.000021
 572	5.6815e+01	5.6824	2.546706	0.000225	2.251637	0.381438	0.000023
 573	5.6914e+01	5.6886	2.571146	0.000246	2.456332	0.416114	0.000025
 574	5.7014e+01	5.6959	2.590699	0.000197	1.965065	0.332891	0.000020
 575	5.7113e+01	5.7070	2.616769	0.000262	2.620087	0.443855	0.000026
 576	5.7212e+01	5.7174	2.634692	0.000180	1.801310	0.305150	0.000018
 577	5.7312e+01	5.7263	2.660762	0.000262	2.620087	0.443855	0.000026
 578	5.7411e+01	5.7396	2.686017	0.000254	2.538210	0.429984	0.000025
 579	5.7511e+01	5.7499	2.708013	0.000221	2.210699	0.374502	0.000022
 580	5.7611e+01	5.7587	2.729602	0.000217	2.169760	0.367567	0.000022
 581	5.7710e+01	5.7684	2.754858	0.000254	2.538210	0.429984	0.000025
 582	5.7809e+01	5.7789	2.773595	0.000188	1.883188	0.319021	0.000019
 583	5.7909e+01	5.7862	2.802924	0.000295	2.947598	0.499337	0.000029
 584	5.8008e+01	5.7984	2.827772	0.000250	2.497271	0.423049	0.000025
 585	5.8108e+01	5.8088	2.849361	0.000217	2.169760	0.367567	0.000022
 586	5.8208e+01	5.8166	2.875838	0.000266	2.661026	0.450790	0.000027
 587	5.8307e+01	5.8252	2.903130	0.000274	2.742904	0.464660	0.000027
 588	5.8407e+01	5.8381	2.924312	0.000213	2.128821	0.360632	0.000021
 589	5.8506e+01	5.8463	2.949567	0.000254	2.538210	0.429984	0.000025
 590	5.8605e+01	5.8605	2.967490	0.000180	1.801310	0.305150	0.000018
 591	5.8705e+01	5.8702	2.996004	0.000287	2.865720	0.485466	0.000029
 592	5.8804e+01	5.8761	3.018816	0.000229	2.292576	0.388373	0.000023
 593	5.8904e+01	5.8865	3.042849	0.000242	2.415393	0.409179	0.000024
 594	5.9004e+01	5.8999	3.068919	0.000262	2.620087	0.443855	0.000026
 595	5.9103e+01	5.9075	3.088471	0.000197	1.965065	0.332891	0.000020
 596	5.9203e+01	5.9155	3.116578	0.000282	2.824782	0.478531	0.000028
 597	5.9302e+01	5.9263	3.140611	0.000242	2.415393	0.409179	0.000024
 598	5.9401e+01	5.9365	3.163015	0.000225	2.251637	0.381438	0.000023
 599	5.9501e+01	5.9481	3.183789	0.000209	2.087882	0.353697	0.000021
 600	5.9600e+01	5.9585	3.211489	0.000278	2.783843	0.471596	0.000028
 601	5.9700e+01	5.9668	3.231041	0.000197	1.965065	0.332891	0.000020
 602	5.9800e+01	5.9739	3.251816	0.000209	2.087882	0.353697	0.000021
 603	5.9899e+01	5.9856	3.275034	0.000233	2.333515	0.395308	0.000023
 604	5.9998e+01	5.9961	3.298253	0.000233	2.333515	0.395308	0.000023
 605	6.0098e+01	6.0059	3.321471	0.000233	2.333515	0.395308	0.000023
 606	6.0197e+01	6.0145	3.341431	0.000201	2.006004	0.339826	0.000020
 607	6.0297e+01	6.0281	3.363835	0.000225	2.251637	0.381438	0.000023
 608	6.0397e+01	6.0382	3.387461	0.000237	2.374454	0.402243	0.000024
 609	6.0496e+01	6.0442	3.411087	0.000237	2.374454	0.402243	0.000024
 610	6.0596e+01	6.0542	3.435527	0.000246	2.456332	0.416114	0.000025
 611	6.0695e+01	6.0670	3.455894	0.000205	2.046943	0.346762	0.000020
 612	6.0794e+01	6.0747	3.481964	0.000262	2.620087	0.443855	0.000026
 613	6.0894e+01	6.0844	3.505997	0.000242	2.415393	0.409179	0.000024
 614	6.0993e+01	6.0960	3.530845	0.000250	2.497271	0.423049	0.000025
 615	6.1093e+01	6.1045	3.554878	0.000242	2.415393	0.409179	0.000024
 616	6.1193e+01	6.1150	3.573616	0.000188	1.883188	0.319021	0.000019
 617	6.1292e+01	6.1263	3.598871	0.000254	2.538210	0.429984	0.000025
 618	6.1392e+01	6.1358	3.620461	0.000217	2.169760	0.367567	0.000022
 619	6.1491e+01	6.1459	3.640828	0.000205	2.046943	0.346762	0.000020
 620	6.1590e+01	6.1560	3.667305	0.000266	2.661026	0.450790	0.000027
 621	6.1690e+01	6.1646	3.688079	0.000209	2.087882	0.353697	0.000021
 622	6.1789e+01	6.1770	3.714964	0.000270	2.701965	0.457725	0.000027
 623	6.1889e+01	6.1860	3.734517	0.000197	1.965065	0.332891	0.000020
 624	6.1989e+01	6.1965	3.758550	0.000242	2.415393	0.409179	0.000024
 625	6.2088e+01	6.2061	3.780139	0.000217	2.169760	0.367567	0.000022
 626	6.2188e+01	6.2176	3.802543	0.000225	2.251637	0.381438	0.000023
 627	6.2287e+01	6.2272	3.823725	0.000213	2.128821	0.360632	0.000021
 628	6.2386e+01	6.2354	3.846536	0.000229	2.292576	0.388373	0.000023
 629	6.2486e+01	6.2461	3.868940	0.000225	2.251637	0.381438	0.000023
 630	6.2586e+01	6.2555	3.893380	0.000246	2.456332	0.416114	0.000025
 631	6.2685e+01	6.2637	3.909674	0.000164	1.637555	0.277409	0.000016
 632	6.2785e+01	6.2759	3.930448	0.000209	2.087882	0.353697	0.000021
 633	6.2884e+01	6.2879	3.955704	0.000254	2.538210	0.429984	0.000025
 634	6.2983e+01	6.2955	3.974034	0.000184	1.842249	0.312085	0.000018
 635	6.3083e+01	6.3040	3.989513	0.000156	1.555677	0.263539	0.000016
 636	6.3182e+01	6.3158	4.015176	0.000258	2.579148	0.436920	0.000026
 637	6.3282e+01	6.3236	4.029025	0.000139	1.391921	0.235798	0.000014
 638	6.3382e+01	6.3330	4.048170	0.000192	1.924127	0.325956	0.000019
 639	6.3481e+01	6.3428	4.071796	0.000237	2.374454	0.402243	0.000024
 640	6.3581e+01	6.3536	4.091756	0.000201	2.006004	0.339826	0.000020
 641	6.3680e+01	6.3656	4.111716	0.000201	2.006004	0.339826	0.000020
 642	6.3779e+01	6.3738	4.132898	0.000213	2.128821	0.360632	0.000021
 643	6.3879e+01	6.3851	4.152857	0.000201	2.006004	0.339826	0.000020
 644	6.3978e+01	6.3961	4.176483	0.000237	2.374454	0.402243	0.000024
 645	6.4078e+01	6.4070	4.195628	0.000192	1.924127	0.325956	0.000019
 646	6.4177e+01	6.4160	4.212737	0.000172	1.719432	0.291280	0.000017
 647	6.4277e+01	6.4272	4.235548	0.000229	2.292576	0.388373	0.000023
 648	6.4376e+01	6.4334	4.255100	0.000197	1.965065	0.332891	0.000020
 649	6.4476e+01	6.4449	4.273838	0.000188	1.883188	0.319021	0.000019
 650	6.4576e+01	6.4531	4.291761	0.000180	1.801310	0.305150	0.000018
 651	6.4675e+01	6.4640	4.312128	0.000205	2.046943	0.346762	0.000020
 652	6.4775e+01	6.4743	4.330051	0.000180	1.801310	0.305150	0.000018
 653	6.4874e+01	6.4844	4.349604	0.000197	1.965065	0.332891	0.000020
 654	6.4974e+01	6.4928	4.374859	0.000254	2.538210	0.429984	0.000025
 655	6.5073e+01	6.5009	4.393189	0.000184	1.842249	0.312085	0.000018
 656	6.5172e+01	6.5130	4.410705	0.000176	1.760371	0.298215	0.000018
 657	6.5272e+01	6.5248	4.431887	0.000213	2.128821	0.360632	0.000021
 658	6.5371e+01	6.5339	4.452254	0.000205	2.046943	0.346762	0.000020
 659	6.5471e+01	6.5462	4.471807	0.000197	1.965065	0.332891	0.000020
 660	6.5570e+01	6.5548	4.494618	0.000229	2.292576	0.388373	0.000023
 661	6.5670e+01	6.5627	4.510504	0.000160	1.596616	0.270474	0.000016
 662	6.5769e+01	6.5762	4.532093	0.000217	2.169760	0.367567	0.000022
 663	6.5869e+01	6.5846	4.550424	0.000184	1.842249	0.312085	0.000018
 664	6.5969e+01	6.5919	4.565903	0.000156	1.555677	0.263539	0.000016
 665	6.6068e+01	6.6038	4.586677	0.000209	2.087882	0.353697	0.000021
 666	6.6168e+01	6.6131	4.607044	0.000205	2.046943	0.346762	0.000020
 667	6.6267e+01	6.6240	4.622523	0.000156	1.555677	0.263539	0.000016
 668	6.6367e+01	6.6340	4.638002	0.000156	1.555677	0.263539	0.000016
 669	6.6466e+01	6.6436	4.656333	0.000184	1.842249	0.312085	0.000018
 670	6.6566e+01	6.6544	4.673034	0.000168	1.678493	0.284344	0.000017
 671	6.6665e+01	6.6626	4.690142	0.000172	1.719432	0.291280	0.000017
 672	6.6764e+01	6.6738	4.712546	0.000225	2.251637	0.381438	0.000023
 673	6.6864e+01	6.6825	4.730062	0.000176	1.760371	0.298215	0.000018
 674	6.6963e+01	6.6925	4.748799	0.000188	1.883188	0.319021	0.000019
 675	6.7063e+01	6.7031	4.766723	0.000180	1.801310	0.305150	0.000018
 676	6.7162e+01	6.7129	4.783424	0.000168	1.678493	0.284344	0.000017
 677	6.7262e+01	6.7217	4.800125	0.000168	1.678493	0.284344	0.000017
 678	6.7362e+01	6.7297	4.813974	0.000139	1.391921	0.235798	0.000014
 679	6.7461e+01	6.7423	4.837193	0.000233	2.333515	0.395308	0.000023
 680	6.7561e+01	6.7539	4.852672	0.000156	1.555677	0.263539	0.000016
 681	6.7660e+01	6.7634	4.870188	0.000176	1.760371	0.298215	0.000018
 682	6.7760e+01	6.7719	4.888518	0.000184	1.842249	0.312085	0.000018
 683	6.7859e+01	6.7825	4.909292	0.000209	2.087882	0.353697	0.000021
 684	6.7959e+01	6.7901	4.927216	0.000180	1.801310	0.305150	0.000018
 685	6.8058e+01	6.8025	4.945953	0.000188	1.883188	0.319021	0.000019
 686	6.8157e+01	6.8117	4.962247	0.000164	1.637555	0.277409	0.000016
 687	6.8257e+01	6.8216	4.981392	0.000192	1.924127	0.325956	0.000019
 688	6.8356e+01	6.8338	5.000945	0.000197	1.965065	0.332891	0.000020
 689	6.8456e+01	6.8414	5.020904	0.000201	2.006004	0.339826	0.000020
 690	6.8555e+01	6.8508	5.040457	0.000197	1.965065	0.332891	0.000020
 691	6.8655e+01	6.8615	5.060824	0.000205	2.046943	0.346762	0.000020
 692	6.8754e+01	6.8731	5.077525	0.000168	1.678493	0.284344	0.000017
 693	6.8854e+01	6.8813	5.097892	0.000205	2.046943	0.346762	0.000020
 694	6.8954e+01	6.8926	5.115815	0.000180	1.801310	0.305150	0.000018
 695	6.9053e+01	6.9009	5.134146	0.000184	1.842249	0.312085	0.000018
 696	6.9153e+01	6.9131	5.151254	0.000172	1.719432	0.291280	0.000017
 697	6.9252e+01	6.9209	5.166733	0.000156	1.555677	0.263539	0.000016
 698	6.9352e+01	6.9297	5.185878	0.000192	1.924127	0.325956	0.000019
 699	6.9451e+01	6.9417	5.207467	0.000217	2.169760	0.367567	0.000022
 700	6.9550e+01	6.9482	5.222946	0.000156	1.555677	0.263539	0.000016
 701	6.9650e+01	6.9633	5.242091	0.000192	1.924127	0.325956	0.000019
 702	6.9749e+01	6.9744	5.264088	0.000221	2.210699	0.374502	0.000022
 703	6.9849e+01	6.9833	5.284048	0.000201	2.006004	0.339826	0.000020
 704	6.9948e+01	6.9908	5.298305	0.000143	1.432860	0.242733	0.000014
 705	7.0048e+01	7.0026	5.319486	0.000213	2.128821	0.360632	0.000021
 706	7.0147e+01	7.0106	5.336187	0.000168	1.678493	0.284344	0.000017
 707	7.0247e+01	7.0229	5.353296	0.000172	1.719432	0.291280	0.000017
 708	7.0347e+01	7.0318	5.370404	0.000172	1.719432	0.291280	0.000017
 709	7.0446e+01	7.0413	5.390364	0.000201	2.006004	0.339826	0.000020
 710	7.0546e+01	7.0523	5.411546	0.000213	2.128821	0.360632	0.000021
 711	7.0645e+01	7.0620	5.430284	0.000188	1.883188	0.319021	0.000019
 712	7.0745e+01	7.0691	5.448207	0.000180	1.801310	0.305150	0.000018
 713	7.0844e+01	7.0791	5.468981	0.000209	2.087882	0.353697	0.000021
 714	7.0944e+01	7.0907	5.493014	0.000242	2.415393	0.409179	0.000024
 715	7.1043e+01	7.0992	5.513789	0.000209	2.087882	0.353697	0.000021
 716	7.1142e+01	7.1095	5.530897	0.000172	1.719432	0.291280	0.000017
 717	7.1242e+01	7.1227	5.551672	0.000209	2.087882	0.353697	0.000021
 718	7.1341e+01	7.1300	5.575298	0.000237	2.374454	0.402243	0.000024
 719	7.1441e+01	7.1397	5.594443	0.000192	1.924127	0.325956	0.000019
 720	7.1540e+01	7.1497	5.614402	0.000201	2.006004	0.339826	0.000020
 721	7.1640e+01	7.1587	5.637214	0.000229	2.292576	0.388373	0.000023
 722	7.1740e+01	7.1707	5.655544	0.000184	1.842249	0.312085	0.000018
 723	7.1839e+01	7.1807	5.677948	0.000225	2.251637	0.381438	0.000023
 724	7.1939e+01	7.1935	5.699537	0.000217	2.169760	0.367567	0.000022
 725	7.2038e+01	7.2002	5.719089	0.000197	1.965065	0.332891	0.000020
 726	7.2138e+01	7.2105	5.742308	0.000233	2.333515	0.395308	0.000023
 727	7.2237e+01	7.2182	5.763490	0.000213	2.128821	0.360632	0.000021
 728	7.2337e+01	7.2291	5.785486	0.000221	2.210699	0.374502	0.000022
 729	7.2436e+01	7.2399	5.803409	0.000180	1.801310	0.305150	0.000018
 730	7.2535e+01	7.2480	5.822962	0.000197	1.965065	0.332891	0.000020
 731	7.2635e+01	7.2621	5.847810	0.000250	2.497271	0.423049	0.000025
 732	7.2734e+01	7.2704	5.867769	0.000201	2.006004	0.339826	0.000020
 733	7.2834e+01	7.2766	5.889766	0.000221	2.210699	0.374502	0.000022
 734	7.2933e+01	7.2919	5.910133	0.000205	2.046943	0.346762	0.000020
 735	7.3033e+01	7.2988	5.933352	0.000233	2.333515	0.395308	0.000023
 736	7.3132e+01	7.3096	5.951682	0.000184	1.842249	0.312085	0.000018
 737	7.3232e+01	7.3206	5.973271	0.000217	2.169760	0.367567	0.000022
 738	7.3332e+01	7.3299	5.999748	0.000266	2.661026	0.450790	0.000027
 739	7.3431e+01	7.3370	6.020523	0.000209	2.087882	0.353697	0.000021
 740	7.3531e+01	7.3501	6.036409	0.000160	1.596616	0.270474	0.000016
 741	7.3630e+01	7.3626	6.057998	0.000217	2.169760	0.367567	0.000022
 742	7.3730e+01	7.3679	6.081217	0.000233	2.333515	0.395308	0.000023
 743	7.3829e+01	7.3804	6.101177	0.000201	2.006004	0.339826	0.000020
 744	7.3928e+01	7.3877	6.121951	0.000209	2.087882	0.353697	0.000021
 745	7.4028e+01	7.3995	6.144762	0.000229	2.292576	0.388373	0.000023
 746	7.4127e+01	7.4091	6.167981	0.000233	2.333515	0.395308	0.000023
 747	7.4227e+01	7.4194	6.191199	0.000233	2.333515	0.395308	0.000023
 748	7.4326e+01	7.4291	6.214011	0.000229	2.292576	0.388373	0.000023
 749	7.4426e+01	7.4394	6.236007	0.000221	2.210699	0.374502	0.000022
 750	7.4525e+01	7.4480	6.259226	0.000233	2.333515	0.395308	0.000023
 751	7.4625e+01	7.4595	6.283666	0.000246	2.456332	0.416114	0.000025
 752	7.4725e+01	7.4683	6.308514	0.000250	2.497271	0.423049	0.000025
 753	7.4824e+01	7.4773	6.331325	0.000229	2.292576	0.388373	0.000023
 754	7.4924e+01	7.4904	6.355358	0.000242	2.415393	0.409179	0.000024
 755	7.5023e+01	7.4993	6.376948	0.000217	2.169760	0.367567	0.000022
 756	7.5123e+01	7.5084	6.398537	0.000217	2.169760	0.367567	0.000022
 757	7.5222e+01	7.5201	6.420533	0.000221	2.210699	0.374502	0.000022
 758	7.5322e+01	7.5288	6.442530	0.000221	2.210699	0.374502	0.000022
 759	7.5421e+01	7.5359	6.465341	0.000229	2.292576	0.388373	0.000023
 760	7.5520e+01	7.5509	6.491004	0.000258	2.579148	0.436920	0.000026
 761	7.5620e+01	7.5578	6.511371	0.000205	2.046943	0.346762	0.000020
 762	7.5719e+01	7.5702	6.537441	0.000262	2.620087	0.443855	0.000026
 763	7.5819e+01	7.5804	6.561066	0.000237	2.374454	0.402243	0.000024
 764	7.5918e+01	7.5912	6.584692	0.000237	2.374454	0.402243	0.000024
 765	7.6018e+01	7.6006	6.605874	0.000213	2.128821	0.360632	0.000021
 766	7.6118e+01	7.6074	6.629093	0.000233	2.333515	0.395308	0.000023
 767	7.6217e+01	7.6184	6.653126	0.000242	2.415393	0.409179	0.000024
 768	7.6317e+01	7.6270	6.674308	0.000213	2.128821	0.360632	0.000021
 769	7.6416e+01	7.6384	6.694675	0.000205	2.046943	0.346762	0.000020
 770	7.6516e+01	7.6473	6.716264	0.000217	2.169760	0.367567	0.000022
 771	7.6615e+01	7.6602	6.737038	0.000209	2.087882	0.353697	0.000021
 772	7.6715e+01	7.6682	6.758220	0.000213	2.128821	0.360632	0.000021
 773	7.6814e+01	7.6774	6.779809	0.000217	2.169760	0.367567	0.000022
 774	7.6913e+01	7.6871	6.802621	0.000229	2.292576	0.388373	0.000023
 775	7.7013e+01	7.6978	6.822988	0.000205	2.046943	0.346762	0.000020
 776	7.7112e+01	7.7084	6.846614	0.000237	2.374454	0.402243	0.000024
 777	7.7212e+01	7.7189	6.866573	0.000201	2.006004	0.339826	0.000020
 778	7.7311e+01	7.7313	6.893865	0.000274	2.742904	0.464660	0.000027
 779	7.7411e+01	7.7364	6.916677	0.000229	2.292576	0.388373	0.000023
 780	7.7510e+01	7.7476	6.936229	0.000197	1.965065	0.332891	0.000020
 781	7.7610e+01	7.7568	6.961077	0.000250	2.497271	0.423049	0.000025
 782	7.7710e+01	7.7706	6.986332	0.000254	2.538210	0.429984	0.000025
 783	7.7809e+01	7.7774	7.003033	0.000168	1.678493	0.284344	0.000017
 784	7.7909e+01	7.7859	7.028288	0.000254	2.538210	0.429984	0.000025
 785	7.8008e+01	7.7962	7.048656	0.000205	2.046943	0.346762	0.000020
 786	7.8108e+01	7.8065	7.070652	0.000221	2.210699	0.374502	0.000022
 787	7.8207e+01	7.8175	7.094278	0.000237	2.374454	0.402243	0.000024
 788	7.8306e+01	7.8256	7.117496	0.000233	2.333515	0.395308	0.000023
 789	7.8406e+01	7.8370	7.140308	0.000229	2.292576	0.388373	0.000023
 790	7.8505e+01	7.8457	7.158231	0.000180	1.801310	0.305150	0.000018
 791	7.8605e+01	7.8577	7.182264	0.000242	2.415393	0.409179	0.000024
 792	7.8704e+01	7.8647	7.205890	0.000237	2.374454	0.402243	0.000024
 793	7.8804e+01	7.8772	7.226257	0.000205	2.046943	0.346762	0.000020
 794	7.8903e+01	7.8867	7.251512	0.000254	2.538210	0.429984	0.000025
 795	7.9003e+01	7.8968	7.271879	0.000205	2.046943	0.346762	0.000020
 796	7.9103e+01	7.9062	7.295912	0.000242	2.415393	0.409179	0.000024
 797	7.9202e+01	7.9199	7.315058	0.000192	1.924127	0.325956	0.000019
 798	7.9302e+01	7.9276	7.333795	0.000188	1.883188	0.319021	0.000019
 799	7.9401e+01	7.9380	7.352533	0.000188	1.883188	0.319021	0.000019
 800	7.9501e+01	7.9447	7.374530	0.000221	2.210699	0.374502	0.000022
 801	7.9600e+01	7.9565	7.393267	0.000188	1.883188	0.319021	0.000019
 802	7.9700e+01	7.9671	7.414042	0.000209	2.087882	0.353697	0.000021
 803	7.9799e+01	7.9762	7.433594	0.000197	1.965065	0.332891	0.000020
 804	7.9898e+01	7.9871	7.452739	0.000192	1.924127	0.325956	0.000019
 805	7.9998e+01	7.9941	7.472699	0.000201	2.006004	0.339826	0.000020
 806	8.0097e+01	8.0073	7.493066	0.000205	2.046943	0.346762	0.000020
 807	8.0197e+01	8.0151	7.513841	0.000209	2.087882	0.353697	0.000021
 808	8.0296e+01	8.0273	7.532171	0.000184	1.842249	0.312085	0.000018
 809	8.0396e+01	8.0357	7.553353	0.000213	2.128821	0.360632	0.000021
 810	8.0496e+01	8.0479	7.572905	0.000197	1.965065	0.332891	0.000020
 811	8.0595e+01	8.0582	7.589606	0.000168	1.678493	0.284344	0.000017
 812	8.0695e+01	8.0667	7.610381	0.000209	2.087882	0.353697	0.000021
 813	8.0794e+01	8.0762	7.632785	0.000225	2.251637	0.381438	0.000023
 814	8.0894e+01	8.0838	7.650708	0.000180	1.801310	0.305150	0.000018
 815	8.0993e+01	8.0964	7.671075	0.000205	2.046943	0.346762	0.000020
 816	8.1093e+01	8.1013	7.689813	0.000188	1.883188	0.319021	0.000019
 817	8.1192e+01	8.1135	7.712624	0.000229	2.292576	0.388373	0.000023
 818	8.1291e+01	8.1255	7.728510	0.000160	1.596616	0.270474	0.000016
 819	8.1391e+01	8.1360	7.749692	0.000213	2.128821	0.360632	0.000021
 820	8.1490e+01	8.1454	7.768837	0.000192	1.924127	0.325956	0.000019
 821	8.1590e+01	8.1561	7.788390	0.000197	1.965065	0.332891	0.000020
 822	8.1689e+01	8.1652	7.809979	0.000217	2.169760	0.367567	0.000022
 823	8.1789e+01	8.1731	7.830753	0.000209	2.087882	0.353697	0.000021
 824	8.1888e+01	8.1857	7.848676	0.000180	1.801310	0.305150	0.000018
 825	8.1988e+01	8.1920	7.865377	0.000168	1.678493	0.284344	0.000017
 826	8.2088e+01	8.2032	7.889818	0.000246	2.456332	0.416114	0.000025
 827	8.2187e+01	8.2178	7.910592	0.000209	2.087882	0.353697	0.000021
 828	8.2287e+01	8.2265	7.928108	0.000176	1.760371	0.298215	0.000018
 829	8.2386e+01	8.2354	7.946031	0.000180	1.801310	0.305150	0.000018
 830	8.2486e+01	8.2439	7.963140	0.000172	1.719432	0.291280	0.000017
 831	8.2585e+01	8.2520	7.985951	0.000229	2.292576	0.388373	0.000023
 832	8.2684e+01	8.2652	8.004281	0.000184	1.842249	0.312085	0.000018
 833	8.2784e+01	8.2755	8.020167	0.000160	1.596616	0.270474	0.000016
 834	8.2883e+01	8.2882	8.037276	0.000172	1.719432	0.291280	0.000017
 835	8.2983e+01	8.2966	8.058865	0.000217	2.169760	0.367567	0.000022
 836	8.3082e+01	8.3047	8.076788	0.000180	1.801310	0.305150	0.000018
 837	8.3182e+01	8.3128	8.094711	0.000180	1.801310	0.305150	0.000018
 838	8.3281e+01	8.3220	8.107339	0.000127	1.269105	0.214992	0.000013
 839	8.3381e+01	8.3359	8.132187	0.000250	2.497271	0.423049	0.000025
 840	8.3481e+01	8.3439	8.153776	0.000217	2.169760	0.367567	0.000022
 841	8.3580e+01	8.3546	8.168440	0.000147	1.473799	0.249668	0.000015
 842	8.3680e+01	8.3634	8.189215	0.000209	2.087882	0.353697	0.000021
 843	8.3779e+01	8.3733	8.206323	0.000172	1.719432	0.291280	0.000017
 844	8.3879e+01	8.3838	8.223839	0.000176	1.760371	0.298215	0.000018
 845	8.3978e+01	8.3949	8.239318	0.000156	1.555677	0.263539	0.000016
 846	8.4078e+01	8.4033	8.253575	0.000143	1.432860	0.242733	0.000014
 847	8.4177e+01	8.4145	8.276793	0.000233	2.333515	0.395308	0.000023
 848	8.4276e+01	8.4248	8.291865	0.000151	1.514738	0.256604	0.000015
 849	8.4376e+01	8.4333	8.314269	0.000225	2.251637	0.381438	0.000023
 850	8.4475e+01	8.4419	8.329340	0.000151	1.514738	0.256604	0.000015
 851	8.4575e+01	8.4559	8.350115	0.000209	2.087882	0.353697	0.000021
 852	8.4674e+01	8.4621	8.370889	0.000209	2.087882	0.353697	0.000021
 853	8.4774e+01	8.4731	8.390442	0.000197	1.965065	0.332891	0.000020
 854	8.4874e+01	8.4814	8.411216	0.000209	2.087882	0.353697	0.000021
 855	8.4973e+01	8.4934	8.430769	0.000197	1.965065	0.332891	0.000020
 856	8.5073e+01	8.5001	8.451951	0.000213	2.128821	0.360632	0.000021
 857	8.5172e+01	8.5135	8.473540	0.000217	2.169760	0.367567	0.000022
 858	8.5272e+01	8.5265	8.488204	0.000147	1.473799	0.249668	0.000015
 859	8.5371e+01	8.5319	8.506535	0.000184	1.842249	0.312085	0.000018
 860	8.5471e+01	8.5449	8.528938	0.000225	2.251637	0.381438	0.000023
 861	8.5570e+01	8.5547	8.546047	0.000172	1.719432	0.291280	0.000017
 862	8.5669e+01	8.5629	8.564377	0.000184	1.842249	0.312085	0.000018
 863	8.5769e+01	8.5742	8.584744	0.000205	2.046943	0.346762	0.000020
 864	8.5868e+01	8.5849	8.603075	0.000184	1.842249	0.312085	0.000018
 865	8.5968e+01	8.5948	8.623849	0.000209	2.087882	0.353697	0.000021
 866	8.6067e+01	8.6042	8.640550	0.000168	1.678493	0.284344	0.000017
 867	8.6167e+01	8.6124	8.661325	0.000209	2.087882	0.353697	0.000021
 868	8.6266e+01	8.6258	8.681692	0.000205	2.046943	0.346762	0.000020
 869	8.6366e+01	8.6346	8.701244	0.000197	1.965065	0.332891	0.000020
 870	8.6466e+01	8.6450	8.718760	0.000176	1.760371	0.298215	0.000018
 871	8.6565e+01	8.6533	8.737905	0.000192	1.924127	0.325956	0.000019
 872	8.6665e+01	8.6628	8.757458	0.000197	1.965065	0.332891	0.000020
 873	8.6764e+01	8.6720	8.775788	0.000184	1.842249	0.312085	0.000018
 874	8.6864e+01	8.6829	8.794118	0.000184	1.842249	0.312085	0.000018
 875	8.6963e+01	8.6935	8.814893	0.000209	2.087882	0.353697	0.000021
 876	8.7063e+01	8.7040	8.834445	0.000197	1.965065	0.332891	0.000020
 877	8.7162e+01	8.7114	8.857256	0.000229	2.292576	0.388373	0.000023
 878	8.7261e+01	8.7215	8.878031	0.000209	2.087882	0.353697	0.000021
 879	8.7361e+01	8.7330	8.897583	0.000197	1.965065	0.332891	0.000020
 880	8.7460e+01	8.7427	8.916321	0.000188	1.883188	0.319021	0.000019
 881	8.7560e+01	8.7531	8.938725	0.000225	2.251637	0.381438	0.000023
 882	8.7659e+01	8.7630	8.960314	0.000217	2.169760	0.367567	0.000022
 883	8.7759e+01	8.7733	8.986384	0.000262	2.620087	0.443855	0.000026
 884	8.7859e+01	8.7821	9.002678	0.000164	1.637555	0.277409	0.000016
 885	8.7958e+01	8.7939	9.029155	0.000266	2.661026	0.450790	0.000027
 886	8.8058e+01	8.8013	9.051151	0.000221	2.210699	0.374502	0.000022
 887	8.8157e+01	8.8110	9.070704	0.000197	1.965065	0.332891	0.000020
 888	8.8257e+01	8.8209	9.089442	0.000188	1.883188	0.319021	0.000019
 889	8.8356e+01	8.8344	9.111438	0.000221	2.210699	0.374502	0.000022
 890	8.8456e+01	8.8403	9.136693	0.000254	2.538210	0.429984	0.000025
 891	8.8555e+01	8.8525	9.156246	0.000197	1.965065	0.332891	0.000020
 892	8.8654e+01	8.8605	9.182316	0.000262	2.620087	0.443855	0.000026
 893	8.8754e+01	8.8751	9.204312	0.000221	2.210699	0.374502	0.000022
 894	8.8853e+01	8.8799	9.224272	0.000201	2.006004	0.339826	0.000020
 895	8.8953e+01	8.8904	9.245454	0.000213	2.128821	0.360632	0.000021
 896	8.9052e+01	8.8980	9.267450	0.000221	2.210699	0.374502	0.000022
 897	8.9152e+01	8.9160	9.289854	0.000225	2.251637	0.381438	0.000023
 898	8.9251e+01	8.9194	9.311036	0.000213	2.128821	0.360632	0.000021
 899	8.9351e+01	8.9307	9.336291	0.000254	2.538210	0.429984	0.000025
 900	8.9451e+01	8.9410	9.357880	0.000217	2.169760	0.367567	0.000022
 901	8.9550e+01	8.9526	9.377433	0.000197	1.965065	0.332891	0.000020
 902	8.9650e+01	8.9605	9.402688	0.000254	2.538210	0.429984	0.000025
 903	8.9749e+01	8.9703	9.427536	0.000250	2.497271	0.423049	0.000025
 904	8.9849e+01	8.9803	9.449125	0.000217	2.169760	0.367567	0.000022
 905	8.9948e+01	8.9954	9.472751	0.000237	2.374454	0.402243	0.000024
 906	9.0047e+01	9.0010	9.497599	0.000250	2.497271	0.423049	0.000025
 907	9.0147e+01	9.0088	9.515115	0.000176	1.760371	0.298215	0.000018
 908	9.0246e+01	9.0199	9.540370	0.000254	2.538210	0.429984	0.000025
 909	9.0346e+01	9.0314	9.563588	0.000233	2.333515	0.395308	0.000023
 910	9.0445e+01	9.0388	9.583141	0.000197	1.965065	0.332891	0.000020
 911	9.0545e+01	9.0504	9.611248	0.000282	2.824782	0.478531	0.000028
 912	9.0644e+01	9.0601	9.632022	0.000209	2.087882	0.353697	0.000021
 913	9.0744e+01	9.0705	9.658499	0.000266	2.661026	0.450790	0.000027
 914	9.0844e+01	9.0797	9.677644	0.000192	1.924127	0.325956	0.000019
 915	9.0943e+01	9.0897	9.702900	0.000254	2.538210	0.429984	0.000025
 916	9.1043e+01	9.0981	9.728562	0.000258	2.579148	0.436920	0.000026
 917	9.1142e+01	9.1107	9.757076	0.000287	2.865720	0.485466	0.000029
 918	9.1242e+01	9.1199	9.778258	0.000213	2.128821	0.360632	0.000021
 919	9.1341e+01	9.1320	9.804735	0.000266	2.661026	0.450790	0.000027
 920	9.1441e+01	9.1406	9.829583	0.000250	2.497271	0.423049	0.000025
 921	9.1540e+01	9.1486	9.853616	0.000242	2.415393	0.409179	0.000024
 922	9.1639e+01	9.1586	9.879686	0.000262	2.620087	0.443855	0.000026
 923	9.1739e+01	9.1692	9.905349	0.000258	2.579148	0.436920	0.000026
 924	9.1838e+01	9.1773	9.923679	0.000184	1.842249	0.312085	0.000018
 925	9.1938e+01	9.1885	9.951786	0.000282	2.824782	0.478531	0.000028
 926	9.2037e+01	9.1980	9.974597	0.000229	2.292576	0.388373	0.000023
 927	9.2137e+01	9.2117	10.001482	0.000270	2.701965	0.457725	0.000027
 928	9.2237e+01	9.2173	10.027552	0.000262	2.620087	0.443855	0.000026
 929	9.2336e+01	9.2318	10.054029	0.000266	2.661026	0.450790	0.000027
 930	9.2436e+01	9.2397	10.081728	0.000278	2.783843	0.471596	0.000028
 931	9.2535e+01	9.2480	10.102503	0.000209	2.087882	0.353697	0.000021
 932	9.2635e+01	9.2592	10.130202	0.000278	2.783843	0.471596	0.000028
 933	9.2734e+01	9.2703	10.151791	0.000217	2.169760	0.367567	0.000022
 934	9.2834e+01	9.2791	10.179083	0.000274	2.742904	0.464660	0.000027
 935	9.2933e+01	9.2886	10.201894	0.000229	2.292576	0.388373	0.000023
 936	9.3032e+01	9.2994	10.223891	0.000221	2.210699	0.374502	0.000022
 937	9.3132e+01	9.3101	10.246295	0.000225	2.251637	0.381438	0.000023
 938	9.3231e+01	9.3179	10.273586	0.000274	2.742904	0.464660	0.000027
 939	9.3331e+01	9.3276	10.293954	0.000205	2.046943	0.346762	0.000020
 940	9.3430e+01	9.3398	10.319209	0.000254	2.538210	0.429984	0.000025
 941	9.3530e+01	9.3474	10.339169	0.000201	2.006004	0.339826	0.000020
 942	9.3629e+01	9.3559	10.368497	0.000295	2.947598	0.499337	0.000029
 943	9.3729e+01	9.3668	10.390494	0.000221	2.210699	0.374502	0.000022
 944	9.3829e+01	9.3787	10.418600	0.000282	2.824782	0.478531	0.000028
 945	9.3928e+01	9.3875	10.442634	0.000242	2.415393	0.409179	0.000024
 946	9.4028e+01	9.3978	10.469111	0.000266	2.661026	0.450790	0.000027
 947	9.4127e+01	9.4098	10.495588	0.000266	2.661026	0.450790	0.000027
 948	9.4227e+01	9.4189	10.522880	0.000274	2.742904	0.464660	0.000027
 949	9.4326e+01	9.4279	10.549765	0.000270	2.701965	0.457725	0.000027
 950	9.4425e+01	9.4360	10.573391	0.000237	2.374454	0.402243	0.000024
 951	9.4525e+01	9.4471	10.592128	0.000188	1.883188	0.319021	0.000019
 952	9.4624e+01	9.4563	10.619013	0.000270	2.701965	0.457725	0.000027
 953	9.4724e+01	9.4662	10.645490	0.000266	2.661026	0.450790	0.000027
 954	9.4823e+01	9.4759	10.671153	0.000258	2.579148	0.436920	0.000026
 955	9.4923e+01	9.4878	10.693557	0.000225	2.251637	0.381438	0.000023
 956	9.5022e+01	9.4993	10.722071	0.000287	2.865720	0.485466	0.000029
 957	9.5122e+01	9.5078	10.749770	0.000278	2.783843	0.471596	0.000028
 958	9.5222e+01	9.5192	10.768915	0.000192	1.924127	0.325956	0.000019
 959	9.5321e+01	9.5283	10.795800	0.000270	2.701965	0.457725	0.000027
 960	9.5421e+01	9.5387	10.823092	0.000274	2.742904	0.464660	0.000027
 961	9.5520e+01	9.5485	10.847532	0.000246	2.456332	0.416114	0.000025
 962	9.5620e+01	9.5563	10.869529	0.000221	2.210699	0.374502	0.000022
 963	9.5719e+01	9.5657	10.896821	0.000274	2.742904	0.464660	0.000027
 964	9.5819e+01	9.5786	10.920446	0.000237	2.374454	0.402243	0.000024
 965	9.5918e+01	9.5875	10.943665	0.000233	2.333515	0.395308	0.000023
 966	9.6017e+01	9.5963	10.969328	0.000258	2.579148	0.436920	0.000026
 967	9.6117e+01	9.6053	10.990102	0.000209	2.087882	0.353697	0.000021
 968	9.6216e+01	9.6174	11.014135	0.000242	2.415393	0.409179	0.000024
 969	9.6316e+01	9.6265	11.038168	0.000242	2.415393	0.409179	0.000024
 970	9.6415e+01	9.6362	11.063424	0.000254	2.538210	0.429984	0.000025
 971	9.6515e+01	9.6460	11.084198	0.000209	2.087882	0.353697	0.000021
 972	9.6615e+01	9.6570	11.109453	0.000254	2.538210	0.429984	0.000025
 973	9.6714e+01	9.6682	11.126969	0.000176	1.760371	0.298215	0.000018
 974	9.6814e+01	9.6753	11.153446	0.000266	2.661026	0.450790	0.000027
 975	9.6913e+01	9.6858	11.179516	0.000262	2.620087	0.443855	0.000026
 976	9.7013e+01	9.6988	11.203142	0.000237	2.374454	0.402243	0.000024
 977	9.7112e+01	9.7052	11.227990	0.000250	2.497271	0.423049	0.000025
 978	9.7212e+01	9.7147	11.249172	0.000213	2.128821	0.360632	0.000021
 979	9.7311e+01	9.7272	11.275242	0.000262	2.620087	0.443855	0.000026
 980	9.7410e+01	9.7300	11.303756	0.000287	2.865720	0.485466	0.000029
 981	9.7510e+01	9.7461	11.324938	0.000213	2.128821	0.360632	0.000021
 982	9.7609e+01	9.7565	11.350600	0.000258	2.579148	0.436920	0.000026
 983	9.7709e+01	9.7633	11.373004	0.000225	2.251637	0.381438	0.000023
 984	9.7808e+01	9.7754	11.395408	0.000225	2.251637	0.381438	0.000023
 985	9.7908e+01	9.7864	11.416590	0.000213	2.128821	0.360632	0.000021
 986	9.8007e+01	9.7952	11.442252	0.000258	2.579148	0.436920	0.000026
 987	9.8107e+01	9.8063	11.465063	0.000229	2.292576	0.388373	0.000023
 988	9.8207e+01	9.8157	11.489097	0.000242	2.415393	0.409179	0.000024
 989	9.8306e+01	9.8280	11.514352	0.000254	2.538210	0.429984	0.000025
 990	9.8406e+01	9.8356	11.541237	0.000270	2.701965	0.457725	0.000027
 991	9.8505e+01	9.8458	11.565270	0.000242	2.415393	0.409179	0.000024
 992	9.8605e+01	9.8548	11.588081	0.000229	2.292576	0.388373	0.000023
 993	9.8704e+01	9.8646	11.614966	0.000270	2.701965	0.457725	0.000027
 994	9.8803e+01	9.8771	11.638999	0.000242	2.415393	0.409179	0.000024
 995	9.8903e+01	9.8865	11.664254	0.000254	2.538210	0.429984	0.000025
 996	9.9002e+01	9.8961	11.688287	0.000242	2.415393	0.409179	0.000024
 997	9.9102e+01	9.9038	11.709062	0.000209	2.087882	0.353697	0.000021
 998	9.9201e+01	9.9164	11.732280	0.000233	2.333515	0.395308	0.000023
 999	9.9301e+01	9.9274	11.753055	0.000209	2.087882	0.353697	0.000021
1000	9.9400e+01	9.9336	11.777903	0.000250	2.497271	0.423049	0.000025
1001	9.9500e+01	9.9483	11.796640	0.000188	1.883188	0.319021	0.000019
1002	9.9600e+01	9.9546	11.820674	0.000242	2.415393	0.409179	0.000024
1003	9.9699e+01	9.9673	11.840633	0.000201	2.006004	0.339826	0.000020
1004	9.9799e+01	9.9744	11.864259	0.000237	2.374454	0.402243	0.000024
1005	9.9898e+01	9.9863	11.887070	0.000229	2.292576	0.388373	0.000023
1006	9.9998e+01	9.9957	11.907437	0.000205	2.046943	0.346762	0.000020
1007	1.0010e+02	9.9833	11.902957	0.000045	0.450327	0.076288	-0.000005
1008	1.0020e+02	9.9738	11.896032	0.000070	0.695961	0.117899	-0.000007
1009	1.0030e+02	9.9666	11.890329	0.000057	0.573144	0.097093	-0.000006
1010	1.0040e+02	9.9541	11.883404	0.000070	0.695961	0.117899	-0.000007
1011	1.0050e+02	9.9416	11.873628	0.000098	0.982533	0.166446	-0.000010
1012	1.0059e+02	9.9359	11.864259	0.000094	0.941594	0.159510	-0.000009
1013	1.0069e+02	9.9268	11.855705	0.000086	0.859716	0.145640	-0.000009
1014	1.0079e+02	9.9121	11.845929	0.000098	0.982533	0.166446	-0.000010
1015	1.0089e+02	9.9050	11.840226	0.000057	0.573144	0.097093	-0.000006
1016	1.0099e+02	9.8962	11.831672	0.000086	0.859716	0.145640	-0.000009
1017	1.0109e+02	9.8847	11.822710	0.000090	0.900655	0.152575	-0.000009
1018	1.0119e+02	9.8767	11.814156	0.000086	0.859716	0.145640	-0.000009
1019	1.0129e+02	9.8669	11.804380	0.000098	0.982533	0.166446	-0.000010
1020	1.0139e+02	9.8560	11.798270	0.000061	0.614083	0.104028	-0.000006
1021	1.0149e+02	9.8473	11.793789	0.000045	0.450327	0.076288	-0.000005
1022	1.0159e+02	9.8365	11.783605	0.000102	1.023472	0.173381	-0.000010
1023	1.0169e+02	9.8254	11.772200	0.000115	1.146288	0.194186	-0.000011
1024	1.0179e+02	9.8163	11.761201	0.000111	1.105349	0.187251	-0.000011
1025	1.0189e+02	9.8071	11.754684	0.000066	0.655022	0.110964	-0.000007
1026	1.0199e+02	9.7956	11.746130	0.000086	0.859716	0.145640	-0.000009
1027	1.0209e+02	9.7858	11.738390	0.000078	0.777838	0.131769	-0.000008
1028	1.0219e+02	9.7768	11.726985	0.000115	1.146288	0.194186	-0.000011
1029	1.0229e+02	9.7658	11.719653	0.000074	0.736900	0.124834	-0.000007
1030	1.0239e+02	9.7571	11.708247	0.000115	1.146288	0.194186	-0.000011
1031	1.0248e+02	9.7461	11.693990	0.000143	1.432860	0.242733	-0.000014
1032	1.0258e+02	9.7379	11.687472	0.000066	0.655022	0.110964	-0.000007
1033	1.0268e+02	9.7266	11.678918	0.000086	0.859716	0.145640	-0.000009
1034	1.0278e+02	9.7174	11.666698	0.000123	1.228166	0.208057	-0.000012
1035	1.0288e+02	9.7089	11.657329	0.000094	0.941594	0.159510	-0.000009
1036	1.0298e+02	9.6964	11.645109	0.000123	1.228166	0.208057	-0.000012
1037	1.0308e+02	9.6857	11.635333	0.000098	0.982533	0.166446	-0.000010
1038	1.0318e+02	9.6768	11.624334	0.000111	1.105349	0.187251	-0.000011
1039	1.0328e+02	9.6658	11.614966	0.000094	0.941594	0.159510	-0.000009
1040	1.0338e+02	9.6570	11.604375	0.000106	1.064410	0.180316	-0.000011
1041	1.0348e+02	9.6466	11.590118	0.000143	1.432860	0.242733	-0.000014
1042	1.0358e+02	9.6376	11.580341	0.000098	0.982533	0.166446	-0.000010
1043	1.0368e+02	9.6262	11.570565	0.000098	0.982533	0.166446	-0.000010
1044	1.0378e+02	9.6174	11.556308	0.000143	1.432860	0.242733	-0.000014
1045	1.0388e+02	9.6058	11.545717	0.000106	1.064410	0.180316	-0.000011
1046	1.0398e+02	9.5966	11.535126	0.000106	1.064410	0.180316	-0.000011
1047	1.0408e+02	9.5892	11.526572	0.000086	0.859716	0.145640	-0.000009
1048	1.0418e+02	9.5802	11.513537	0.000131	1.310044	0.221927	-0.000013
1049	1.0428e+02	9.5658	11.503761	0.000098	0.982533	0.166446	-0.000010
1050	1.0438e+02	9.5566	11.494392	0.000094	0.941594	0.159510	-0.000009
1051	1.0447e+02	9.5469	11.485023	0.000094	0.941594	0.159510	-0.000009
1052	1.0457e+02	9.5376	11.478506	0.000066	0.655022	0.110964	-0.000007
1053	1.0467e+02	9.5246	11.469544	0.000090	0.900655	0.152575	-0.000009
1054	1.0477e+02	9.5155	11.454473	0.000151	1.514738	0.256604	-0.000015
1055	1.0487e+02	9.5068	11.448770	0.000057	0.573144	0.097093	-0.000006
1056	1.0497e+02	9.4962	11.437364	0.000115	1.146288	0.194186	-0.000011
1057	1.0507e+02	9.4881	11.430032	0.000074	0.736900	0.124834	-0.000007
1058	1.0517e+02	9.4775	11.419848	0.000102	1.023472	0.173381	-0.000010
1059	1.0527e+02	9.4678	11.406406	0.000135	1.350982	0.228863	-0.000014
1060	1.0537e+02	9.4558	11.399889	0.000066	0.655022	0.110964	-0.000007
1061	1.0547e+02	9.4482	11.390927	0.000090	0.900655	0.152575	-0.000009
1062	1.0557e+02	9.4394	11.379929	0.000111	1.105349	0.187251	-0.000011
1063	1.0567e+02	9.4279	11.369745	0.000102	1.023472	0.173381	-0.000010
1064	1.0577e+02	9.4189	11.357118	0.000127	1.269105	0.214992	-0.000013
1065	1.0587e+02	9.4080	11.348563	0.000086	0.859716	0.145640	-0.000009
1066	1.0597e+02	9.4008	11.340417	0.000082	0.818777	0.138705	-0.000008
1067	1.0607e+02	9.3896	11.330640	0.000098	0.982533	0.166446	-0.000010
1068	1.0617e+02	9.3799	11.322494	0.000082	0.818777	0.138705	-0.000008
1069	1.0627e+02	9.3703	11.310681	0.000119	1.187227	0.201122	-0.000012
1070	1.0637e+02	9.3565	11.300497	0.000102	1.023472	0.173381	-0.000010
1071	1.0647e+02	9.3460	11.287869	0.000127	1.269105	0.214992	-0.000013
1072	1.0656e+02	9.3396	11.278501	0.000094	0.941594	0.159510	-0.000009
1073	1.0666e+02	9.3301	11.268317	0.000102	1.023472	0.173381	-0.000010
1074	1.0676e+02	9.3190	11.256504	0.000119	1.187227	0.201122	-0.000012
1075	1.0686e+02	9.3074	11.243876	0.000127	1.269105	0.214992	-0.000013
1076	1.0696e+02	9.3031	11.238174	0.000057	0.573144	0.097093	-0.000006
1077	1.0706e+02	9.2891	11.227175	0.000111	1.105349	0.187251	-0.000011
1078	1.0716e+02	9.2788	11.212918	0.000143	1.432860	0.242733	-0.000014
1079	1.0726e+02	9.2685	11.204364	0.000086	0.859716	0.145640	-0.000009
1080	1.0736e+02	9.2587	11.192551	0.000119	1.187227	0.201122	-0.000012
1081	1.0746e+02	9.2496	11.185219	0.000074	0.736900	0.124834	-0.000007
1082	1.0756e+02	9.2387	11.173406	0.000119	1.187227	0.201122	-0.000012
1083	1.0766e+02	9.2288	11.162408	0.000111	1.105349	0.187251	-0.000011
1084	1.0776e+02	9.2178	11.157112	0.000053	0.532205	0.090158	-0.000005
1085	1.0786e+02	9.2078	11.151410	0.000057	0.573144	0.097093	-0.000006
1086	1.0796e+02	9.2025	11.137153	0.000143	1.432860	0.242733	-0.000014
1087	1.0806e+02	9.1886	11.133079	0.000041	0.409389	0.069352	-0.000004
1088	1.0816e+02	9.1773	11.120452	0.000127	1.269105	0.214992	-0.000013
1089	1.0826e+02	9.1678	11.112712	0.000078	0.777838	0.131769	-0.000008
1090	1.0836e+02	9.1628	11.099270	0.000135	1.350982	0.228863	-0.000014
1091	1.0845e+02	9.1500	11.089901	0.000094	0.941594	0.159510	-0.000009
1092	1.0855e+02	9.1406	11.079717	0.000102	1.023472	0.173381	-0.000010
1093	1.0865e+02	9.1309	11.074015	0.000057	0.573144	0.097093	-0.000006
1094	1.0875e+02	9.1191	11.063424	0.000106	1.064410	0.180316	-0.000011
1095	1.0885e+02	9.1093	11.054462	0.000090	0.900655	0.152575	-0.000009
1096	1.0895e+02	9.0987	11.045093	0.000094	0.941594	0.159510	-0.000009
1097	1.0905e+02	9.0894	11.039798	0.000053	0.532205	0.090158	-0.000005
1098	1.0915e+02	9.0823	11.027170	0.000127	1.269105	0.214992	-0.000013
1099	1.0925e+02	9.0690	11.018616	0.000086	0.859716	0.145640	-0.000009
1100	1.0935e+02	9.0580	11.008025	0.000106	1.064410	0.180316	-0.000011
1101	1.0945e+02	9.0488	10.998249	0.000098	0.982533	0.166446	-0.000010
1102	1.0955e+02	9.0388	10.989287	0.000090	0.900655	0.152575	-0.000009
1103	1.0965e+02	9.0298	10.977474	0.000119	1.187227	0.201122	-0.000012
1104	1.0975e+02	9.0198	10.961995	0.000156	1.555677	0.263539	-0.000016
1105	1.0985e+02	9.0089	10.954663	0.000074	0.736900	0.124834	-0.000007
1106	1.0995e+02	8.9981	10.936740	0.000180	1.801310	0.305150	-0.000018
1107	1.1005e+02	8.9909	10.930223	0.000066	0.655022	0.110964	-0.000007
1108	1.1015e+02	8.9799	10.914744	0.000156	1.555677	0.263539	-0.000016
1109	1.1025e+02	8.9697	10.905782	0.000090	0.900655	0.152575	-0.000009
1110	1.1035e+02	8.9604	10.891932	0.000139	1.391921	0.235798	-0.000014
1111	1.1044e+02	8.9502	10.882564	0.000094	0.941594	0.159510	-0.000009
1112	1.1054e+02	8.9392	10.875231	0.000074	0.736900	0.124834	-0.000007
1113	1.1064e+02	8.9322	10.863011	0.000123	1.228166	0.208057	-0.000012
1114	1.1074e+02	8.9201	10.852828	0.000102	1.023472	0.173381	-0.000010
1115	1.1084e+02	8.9117	10.843866	0.000090	0.900655	0.152575	-0.000009
1116	1.1094e+02	8.9014	10.832460	0.000115	1.146288	0.194186	-0.000011
1117	1.1104e+02	8.8916	10.819833	0.000127	1.269105	0.214992	-0.000013
1118	1.1114e+02	8.8804	10.809242	0.000106	1.064410	0.180316	-0.000011
1119	1.1124e+02	8.8712	10.797429	0.000119	1.187227	0.201122	-0.000012
1120	1.1134e+02	8.8629	10.785209	0.000123	1.228166	0.208057	-0.000012
1121	1.1144e+02	8.8538	10.774618	0.000106	1.064410	0.180316	-0.000011
1122	1.1154e+02	8.8403	10.765656	0.000090	0.900655	0.152575	-0.000009
1123	1.1164e+02	8.8334	10.755473	0.000102	1.023472	0.173381	-0.000010
1124	1.1174e+02	8.8223	10.742438	0.000131	1.310044	0.221927	-0.000013
1125	1.1184e+02	8.8137	10.731032	0.000115	1.146288	0.194186	-0.000011
1126	1.1194e+02	8.8029	10.716368	0.000147	1.473799	0.249668	-0.000015
1127	1.1204e+02	8.7939	10.706184	0.000102	1.023472	0.173381	-0.000010
1128	1.1214e+02	8.7817	10.692742	0.000135	1.350982	0.228863	-0.000014
1129	1.1224e+02	8.7702	10.681744	0.000111	1.105349	0.187251	-0.000011
1130	1.1234e+02	8.7629	10.669523	0.000123	1.228166	0.208057	-0.000012
1131	1.1244e+02	8.7575	10.658118	0.000115	1.146288	0.194186	-0.000011
1132	1.1253e+02	8.7404	10.643861	0.000143	1.432860	0.242733	-0.000014
1133	1.1263e+02	8.7341	10.628789	0.000151	1.514738	0.256604	-0.000015
1134	1.1273e+02	8.7233	10.616569	0.000123	1.228166	0.208057	-0.000012
1135	1.1283e+02	8.7119	10.602312	0.000143	1.432860	0.242733	-0.000014
1136	1.1293e+02	8.7032	10.588462	0.000139	1.391921	0.235798	-0.000014
1137	1.1303e+02	8.6914	10.572169	0.000164	1.637555	0.277409	-0.000016
1138	1.1313e+02	8.6813	10.556282	0.000160	1.596616	0.270474	-0.000016
1139	1.1323e+02	8.6721	10.542840	0.000135	1.350982	0.228863	-0.000014
1140	1.1333e+02	8.6639	10.529398	0.000135	1.350982	0.228863	-0.000014
1141	1.1343e+02	8.6529	10.515955	0.000135	1.350982	0.228863	-0.000014
1142	1.1353e+02	8.6434	10.499254	0.000168	1.678493	0.284344	-0.000017
1143	1.1363e+02	8.6330	10.485812	0.000135	1.350982	0.228863	-0.000014
1144	1.1373e+02	8.6230	10.474406	0.000115	1.146288	0.194186	-0.000011
1145	1.1383e+02	8.6130	10.456891	0.000176	1.760371	0.298215	-0.000018
1146	1.1393e+02	8.6036	10.443041	0.000139	1.391921	0.235798	-0.000014
1147	1.1403e+02	8.5938	10.427969	0.000151	1.514738	0.256604	-0.000015
1148	1.1413e+02	8.5846	10.412898	0.000151	1.514738	0.256604	-0.000015
1149	1.1423e+02	8.5749	10.397011	0.000160	1.596616	0.270474	-0.000016
1150	1.1433e+02	8.5620	10.381532	0.000156	1.555677	0.263539	-0.000016
1151	1.1442e+02	8.5516	10.369719	0.000119	1.187227	0.201122	-0.000012
1152	1.1452e+02	8.5449	10.350167	0.000197	1.965065	0.332891	-0.000020
1153	1.1462e+02	8.5327	10.340391	0.000098	0.982533	0.166446	-0.000010
1154	1.1472e+02	8.5265	10.323690	0.000168	1.678493	0.284344	-0.000017
1155	1.1482e+02	8.5162	10.309433	0.000143	1.432860	0.242733	-0.000014
1156	1.1492e+02	8.4998	10.289473	0.000201	2.006004	0.339826	-0.000020
1157	1.1502e+02	8.4953	10.279697	0.000098	0.982533	0.166446	-0.000010
1158	1.1512e+02	8.4858	10.261774	0.000180	1.801310	0.305150	-0.000018
1159	1.1522e+02	8.4717	10.247109	0.000147	1.473799	0.249668	-0.000015
1160	1.1532e+02	8.4619	10.232445	0.000147	1.473799	0.249668	-0.000015
1161	1.1542e+02	8.4536	10.216151	0.000164	1.637555	0.277409	-0.000016
1162	1.1552e+02	8.4417	10.200672	0.000156	1.555677	0.263539	-0.000016
1163	1.1562e+02	8.4317	10.186008	0.000147	1.473799	0.249668	-0.000015
1164	1.1572e+02	8.4260	10.168899	0.000172	1.719432	0.291280	-0.000017
1165	1.1582e+02	8.4150	10.154235	0.000147	1.473799	0.249668	-0.000015
1166	1.1592e+02	8.4045	10.136312	0.000180	1.801310	0.305150	-0.000018
1167	1.1602e+02	8.3918	10.118796	0.000176	1.760371	0.298215	-0.000018
1168	1.1612e+02	8.3840	10.102910	0.000160	1.596616	0.270474	-0.000016
1169	1.1622e+02	8.3748	10.086209	0.000168	1.678493	0.284344	-0.000017
1170	1.1632e+02	8.3637	10.066656	0.000197	1.965065	0.332891	-0.000020
1171	1.1642e+02	8.3546	10.050770	0.000160	1.596616	0.270474	-0.000016
1172	1.1651e+02	8.3421	10.029996	0.000209	2.087882	0.353697	-0.000021
1173	1.1661e+02	8.3317	10.014517	0.000156	1.555677	0.263539	-0.000016
1174	1.1671e+02	8.3241	9.997001	0.000176	1.760371	0.298215	-0.000018
1175	1.1681e+02	8.3156	9.976634	0.000205	2.046943	0.346762	-0.000020
1176	1.1691e+02	8.3044	9.964006	0.000127	1.269105	0.214992	-0.000013
1177	1.1701e+02	8.2944	9.947305	0.000168	1.678493	0.284344	-0.000017
1178	1.1711e+02	8.2838	9.929789	0.000176	1.760371	0.298215	-0.000018
1179	1.1721e+02	8.2717	9.911459	0.000184	1.842249	0.312085	-0.000018
1180	1.1731e+02	8.2639	9.891907	0.000197	1.965065	0.332891	-0.000020
1181	1.1741e+02	8.2558	9.873983	0.000180	1.801310	0.305150	-0.000018
1182	1.1751e+02	8.2433	9.856060	0.000180	1.801310	0.305150	-0.000018
1183	1.1761e+02	8.2346	9.838137	0.000180	1.801310	0.305150	-0.000018
1184	1.1771e+02	8.2241	9.818585	0.000197	1.965065	0.332891	-0.000020
1185	1.1781e+02	8.2135	9.803921	0.000147	1.473799	0.249668	-0.000015
1186	1.1791e+02	8.2063	9.788034	0.000160	1.596616	0.270474	-0.000016
1187	1.1801e+02	8.1934	9.768074	0.000201	2.006004	0.339826	-0.000020
1188	1.1811e+02	8.1841	9.750966	0.000172	1.719432	0.291280	-0.000017
1189	1.1821e+02	8.1748	9.737524	0.000135	1.350982	0.228863	-0.000014
1190	1.1831e+02	8.1635	9.722452	0.000151	1.514738	0.256604	-0.000015
1191	1.1841e+02	8.1552	9.704122	0.000184	1.842249	0.312085	-0.000018
1192	1.1850e+02	8.1412	9.684162	0.000201	2.006004	0.339826	-0.000020
1193	1.1860e+02	8.1362	9.669497	0.000147	1.473799	0.249668	-0.000015
1194	1.1870e+02	8.1269	9.655240	0.000143	1.432860	0.242733	-0.000014
1195	1.1880e+02	8.1171	9.638132	0.000172	1.719432	0.291280	-0.000017
1196	1.1890e+02	8.1059	9.617765	0.000205	2.046943	0.346762	-0.000020
1197	1.1900e+02	8.0951	9.602286	0.000156	1.555677	0.263539	-0.000016
1198	1.1910e+02	8.0854	9.584363	0.000180	1.801310	0.305150	-0.000018
1199	1.1920e+02	8.0762	9.565218	0.000192	1.924127	0.325956	-0.000019
1200	1.1930e+02	8.0670	9.545665	0.000197	1.965065	0.332891	-0.000020
1201	1.1940e+02	8.0558	9.528557	0.000172	1.719432	0.291280	-0.000017
1202	1.1950e+02	8.0453	9.511449	0.000172	1.719432	0.291280	-0.000017
1203	1.1960e+02	8.0362	9.495562	0.000160	1.596616	0.270474	-0.000016
1204	1.1970e+02	8.0251	9.477639	0.000180	1.801310	0.305150	-0.000018
1205	1.1980e+02	8.0152	9.463382	0.000143	1.432860	0.242733	-0.000014
1206	1.1990e+02	8.0071	9.446274	0.000172	1.719432	0.291280	-0.000017
1207	1.2000e+02	7.9941	9.425092	0.000213	2.128821	0.360632	-0.000021
1208	1.2010e+02	7.9870	9.407984	0.000172	1.719432	0.291280	-0.000017
1209	1.2020e+02	7.9759	9.394134	0.000139	1.391921	0.235798	-0.000014
1210	1.2030e+02	7.9642	9.373359	0.000209	2.087882	0.353697	-0.000021
1211	1.2039e+02	7.9563	9.355844	0.000176	1.760371	0.298215	-0.000018
1212	1.2049e+02	7.9457	9.335477	0.000205	2.046943	0.346762	-0.000020
1213	1.2059e+02	7.9364	9.322034	0.000135	1.350982	0.228863	-0.000014
1214	1.2069e+02	7.9276	9.304926	0.000172	1.719432	0.291280	-0.000017
1215	1.2079e+02	7.9193	9.289040	0.000160	1.596616	0.270474	-0.000016
1216	1.2089e+02	7.9053	9.269080	0.000201	2.006004	0.339826	-0.000020
1217	1.2099e+02	7.8966	9.260526	0.000086	0.859716	0.145640	-0.000009
1218	1.2109e+02	7.8870	9.239344	0.000213	2.128821	0.360632	-0.000021
1219	1.2119e+02	7.8760	9.225087	0.000143	1.432860	0.242733	-0.000014
1220	1.2129e+02	7.8699	9.210015	0.000151	1.514738	0.256604	-0.000015
1221	1.2139e+02	7.8566	9.195758	0.000143	1.432860	0.242733	-0.000014
1222	1.2149e+02	7.8484	9.177020	0.000188	1.883188	0.319021	-0.000019
1223	1.2159e+02	7.8346	9.165207	0.000119	1.187227	0.201122	-0.000012
1224	1.2169e+02	7.8245	9.148914	0.000164	1.637555	0.277409	-0.000016
1225	1.2179e+02	7.8178	9.132213	0.000168	1.678493	0.284344	-0.000017
1226	1.2189e+02	7.8065	9.116734	0.000156	1.555677	0.263539	-0.000016
1227	1.2199e+02	7.7979	9.101662	0.000151	1.514738	0.256604	-0.000015
1228	1.2209e+02	7.7887	9.086590	0.000151	1.514738	0.256604	-0.000015
1229	1.2219e+02	7.7768	9.070704	0.000160	1.596616	0.270474	-0.000016
1230	1.2229e+02	7.7686	9.058484	0.000123	1.228166	0.208057	-0.000012
1231	1.2239e+02	7.7582	9.038117	0.000205	2.046943	0.346762	-0.000020
1232	1.2248e+02	7.7454	9.020601	0.000176	1.760371	0.298215	-0.000018
1233	1.2258e+02	7.7369	9.008381	0.000123	1.228166	0.208057	-0.000012
1234	1.2268e+02	7.7295	8.990050	0.000184	1.842249	0.312085	-0.000018
1235	1.2278e+02	7.7174	8.974571	0.000156	1.555677	0.263539	-0.000016
1236	1.2288e+02	7.7087	8.959092	0.000156	1.555677	0.263539	-0.000016
1237	1.2298e+02	7.6968	8.944428	0.000147	1.473799	0.249668	-0.000015
1238	1.2308e+02	7.6895	8.930578	0.000139	1.391921	0.235798	-0.000014
1239	1.2318e+02	7.6776	8.914284	0.000164	1.637555	0.277409	-0.000016
1240	1.2328e+02	7.6688	8.898805	0.000156	1.555677	0.263539	-0.000016
1241	1.2338e+02	7.6572	8.886178	0.000127	1.269105	0.214992	-0.000013
1242	1.2348e+02	7.6479	8.868255	0.000180	1.801310	0.305150	-0.000018
1243	1.2358e+02	7.6373	8.850332	0.000180	1.801310	0.305150	-0.000018
1244	1.2368e+02	7.6272	8.836889	0.000135	1.350982	0.228863	-0.000014
1245	1.2378e+02	7.6186	8.825891	0.000111	1.105349	0.187251	-0.000011
1246	1.2388e+02	7.6102	8.806746	0.000192	1.924127	0.325956	-0.000019
1247	1.2398e+02	7.5982	8.788416	0.000184	1.842249	0.312085	-0.000018
1248	1.2408e+02	7.5860	8.777825	0.000106	1.064410	0.180316	-0.000011
1249	1.2418e+02	7.5800	8.761531	0.000164	1.637555	0.277409	-0.000016
1250	1.2428e+02	7.5698	8.750125	0.000115	1.146288	0.194186	-0.000011
1251	1.2438e+02	7.5597	8.733424	0.000168	1.678493	0.284344	-0.000017
1252	1.2447e+02	7.5497	8.718760	0.000147	1.473799	0.249668	-0.000015
1253	1.2457e+02	7.5404	8.704503	0.000143	1.432860	0.242733	-0.000014
1254	1.2467e+02	7.5274	8.693097	0.000115	1.146288	0.194186	-0.000011
1255	1.2477e+02	7.5195	8.677618	0.000156	1.555677	0.263539	-0.000016
1256	1.2487e+02	7.5113	8.661732	0.000160	1.596616	0.270474	-0.000016
1257	1.2497e+02	7.4985	8.651141	0.000106	1.064410	0.180316	-0.000011
1258	1.2507e+02	7.4891	8.635662	0.000156	1.555677	0.263539	-0.000016
1259	1.2517e+02	7.4805	8.617739	0.000180	1.801310	0.305150	-0.000018
1260	1.2527e+02	7.4683	8.605926	0.000119	1.187227	0.201122	-0.000012
1261	1.2537e+02	7.4604	8.590447	0.000156	1.555677	0.263539	-0.000016
1262	1.2547e+02	7.4454	8.577412	0.000131	1.310044	0.221927	-0.000013
1263	1.2557e+02	7.4398	8.561526	0.000160	1.596616	0.270474	-0.000016
1264	1.2567e+02	7.4302	8.552157	0.000094	0.941594	0.159510	-0.000009
1265	1.2577e+02	7.4205	8.541159	0.000111	1.105349	0.187251	-0.000011
1266	1.2587e+02	7.4075	8.521606	0.000197	1.965065	0.332891	-0.000020
1267	1.2597e+02	7.3994	8.507349	0.000143	1.432860	0.242733	-0.000014
1268	1.2607e+02	7.3893	8.492685	0.000147	1.473799	0.249668	-0.000015
1269	1.2617e+02	7.3804	8.479243	0.000135	1.350982	0.228863	-0.000014
1270	1.2627e+02	7.3687	8.462542	0.000168	1.678493	0.284344	-0.000017
1271	1.2636e+02	7.3619	8.447470	0.000151	1.514738	0.256604	-0.000015
1272	1.2646e+02	7.3487	8.430361	0.000172	1.719432	0.291280	-0.000017
1273	1.2656e+02	7.3394	8.413253	0.000172	1.719432	0.291280	-0.000017
1274	1.2666e+02	7.3305	8.394923	0.000184	1.842249	0.312085	-0.000018
1275	1.2676e+02	7.3193	8.381888	0.000131	1.310044	0.221927	-0.000013
1276	1.2686e+02	7.3119	8.367631	0.000143	1.432860	0.242733	-0.000014
1277	1.2696e+02	7.2998	8.352559	0.000151	1.514738	0.256604	-0.000015
1278	1.2706e+02	7.2891	8.333414	0.000192	1.924127	0.325956	-0.000019
1279	1.2716e+02	7.2805	8.318342	0.000151	1.514738	0.256604	-0.000015
1280	1.2726e+02	7.2740	8.306937	0.000115	1.146288	0.194186	-0.000011
1281	1.2736e+02	7.2585	8.291458	0.000156	1.555677	0.263539	-0.000016
1282	1.2746e+02	7.2527	8.276386	0.000151	1.514738	0.256604	-0.000015
1283	1.2756e+02	7.2411	8.260500	0.000160	1.596616	0.270474	-0.000016
1284	1.2766e+02	7.2311	8.247872	0.000127	1.269105	0.214992	-0.000013
1285	1.2776e+02	7.2192	8.231578	0.000164	1.637555	0.277409	-0.000016
1286	1.2786e+02	7.2093	8.218951	0.000127	1.269105	0.214992	-0.000013
1287	1.2796e+02	7.1994	8.196139	0.000229	2.292576	0.388373	-0.000023
1288	1.2806e+02	7.1912	8.181068	0.000151	1.514738	0.256604	-0.000015
1289	1.2816e+02	7.1798	8.166403	0.000147	1.473799	0.249668	-0.000015
1290	1.2826e+02	7.1700	8.154183	0.000123	1.228166	0.208057	-0.000012
1291	1.2835e+02	7.1598	8.140741	0.000135	1.350982	0.228863	-0.000014
1292	1.2845e+02	7.1503	8.122410	0.000184	1.842249	0.312085	-0.000018
1293	1.2855e+02	7.1420	8.108153	0.000143	1.432860	0.242733	-0.000014
1294	1.2865e+02	7.1310	8.093082	0.000151	1.514738	0.256604	-0.000015
1295	1.2875e+02	7.1185	8.075159	0.000180	1.801310	0.305150	-0.000018
1296	1.2885e+02	7.1107	8.060494	0.000147	1.473799	0.249668	-0.000015
1297	1.2895e+02	7.1008	8.045423	0.000151	1.514738	0.256604	-0.000015
1298	1.2905e+02	7.0887	8.022612	0.000229	2.292576	0.388373	-0.000023
1299	1.2915e+02	7.0818	8.009984	0.000127	1.269105	0.214992	-0.000013
1300	1.2925e+02	7.0693	7.990431	0.000197	1.965065	0.332891	-0.000020
1301	1.2935e+02	7.0608	7.975360	0.000151	1.514738	0.256604	-0.000015
1302	1.2945e+02	7.0510	7.960288	0.000151	1.514738	0.256604	-0.000015
1303	1.2955e+02	7.0412	7.937070	0.000233	2.333515	0.395308	-0.000023
1304	1.2965e+02	7.0318	7.920369	0.000168	1.678493	0.284344	-0.000017
1305	1.2975e+02	7.0202	7.901223	0.000192	1.924127	0.325956	-0.000019
1306	1.2985e+02	7.0104	7.882078	0.000192	1.924127	0.325956	-0.000019
1307	1.2995e+02	6.9964	7.864970	0.000172	1.719432	0.291280	-0.000017
1308	1.3005e+02	6.9889	7.847047	0.000180	1.801310	0.305150	-0.000018
1309	1.3015e+02	6.9807	7.831161	0.000160	1.596616	0.270474	-0.000016
1310	1.3025e+02	6.9717	7.809164	0.000221	2.210699	0.374502	-0.000022
1311	1.3034e+02	6.9615	7.790019	0.000192	1.924127	0.325956	-0.000019
1312	1.3044e+02	6.9511	7.775355	0.000147	1.473799	0.249668	-0.000015
1313	1.3054e+02	6.9389	7.753765	0.000217	2.169760	0.367567	-0.000022
1314	1.3064e+02	6.9326	7.736657	0.000172	1.719432	0.291280	-0.000017
1315	1.3074e+02	6.9253	7.719549	0.000172	1.719432	0.291280	-0.000017
1316	1.3084e+02	6.9112	7.702033	0.000176	1.760371	0.298215	-0.000018
1317	1.3094e+02	6.8995	7.679222	0.000229	2.292576	0.388373	-0.000023
1318	1.3104e+02	6.8897	7.658855	0.000205	2.046943	0.346762	-0.000020
1319	1.3114e+02	6.8807	7.644190	0.000147	1.473799	0.249668	-0.000015
1320	1.3124e+02	6.8696	7.625045	0.000192	1.924127	0.325956	-0.000019
1321	1.3134e+02	6.8612	7.606715	0.000184	1.842249	0.312085	-0.000018
1322	1.3144e+02	6.8523	7.589199	0.000176	1.760371	0.298215	-0.000018
1323	1.3154e+02	6.8417	7.568425	0.000209	2.087882	0.353697	-0.000021
1324	1.3164e+02	6.8333	7.546021	0.000225	2.251637	0.381438	-0.000023
1325	1.3174e+02	6.8229	7.528098	0.000180	1.801310	0.305150	-0.000018
1326	1.3184e+02	6.8142	7.510582	0.000176	1.760371	0.298215	-0.000018
1327	1.3194e+02	6.8029	7.493474	0.000172	1.719432	0.291280	-0.000017
1328	1.3204e+02	6.7894	7.474328	0.000192	1.924127	0.325956	-0.000019
1329	1.3214e+02	6.7812	7.457627	0.000168	1.678493	0.284344	-0.000017
1330	1.3224e+02	6.7693	7.438075	0.000197	1.965065	0.332891	-0.000020
1331	1.3234e+02	6.7611	7.417301	0.000209	2.087882	0.353697	-0.000021
1332	1.3243e+02	6.7495	7.396933	0.000205	2.046943	0.346762	-0.000020
1333	1.3253e+02	6.7434	7.374530	0.000225	2.251637	0.381438	-0.000023
1334	1.3263e+02	6.7319	7.355792	0.000188	1.883188	0.319021	-0.000019
1335	1.3273e+02	6.7261	7.334203	0.000217	2.169760	0.367567	-0.000022
1336	1.3283e+02	6.7145	7.314650	0.000197	1.965065	0.332891	-0.000020
1337	1.3293e+02	6.7028	7.293061	0.000217	2.169760	0.367567	-0.000022
1338	1.3303e+02	6.6943	7.272694	0.000205	2.046943	0.346762	-0.000020
1339	1.3313e+02	6.6824	7.250290	0.000225	2.251637	0.381438	-0.000023
1340	1.3323e+02	6.6714	7.229516	0.000209	2.087882	0.353697	-0.000021
1341	1.3333e+02	6.6640	7.206297	0.000233	2.333515	0.395308	-0.000023
1342	1.3343e+02	6.6520	7.188374	0.000180	1.801310	0.305150	-0.000018
1343	1.3353e+02	6.6431	7.168007	0.000205	2.046943	0.346762	-0.000020
1344	1.3363e+02	6.6323	7.147640	0.000205	2.046943	0.346762	-0.000020
1345	1.3373e+02	6.6218	7.128087	0.000197	1.965065	0.332891	-0.000020
1346	1.3383e+02	6.6122	7.106498	0.000217	2.169760	0.367567	-0.000022
1347	1.3393e+02	6.6021	7.083280	0.000233	2.333515	0.395308	-0.000023
1348	1.3403e+02	6.5934	7.064135	0.000192	1.924127	0.325956	-0.000019
1349	1.3413e+02	6.5819	7.043360	0.000209	2.087882	0.353697	-0.000021
1350	1.3423e+02	6.5710	7.023808	0.000197	1.965065	0.332891	-0.000020
1351	1.3432e+02	6.5633	6.998960	0.000250	2.497271	0.423049	-0.000025
1352	1.3442e+02	6.5542	6.978185	0.000209	2.087882	0.353697	-0.000021
1353	1.3452e+02	6.5430	6.960262	0.000180	1.801310	0.305150	-0.000018
1354	1.3462e+02	6.5340	6.938266	0.000221	2.210699	0.374502	-0.000022
1355	1.3472e+02	6.5249	6.919935	0.000184	1.842249	0.312085	-0.000018
1356	1.3482e+02	6.5112	6.897939	0.000221	2.210699	0.374502	-0.000022
1357	1.3492e+02	6.5028	6.878794	0.000192	1.924127	0.325956	-0.000019
1358	1.3502e+02	6.4948	6.859649	0.000192	1.924127	0.325956	-0.000019
1359	1.3512e+02	6.4831	6.837245	0.000225	2.251637	0.381438	-0.000023
1360	1.3522e+02	6.4719	6.816470	0.000209	2.087882	0.353697	-0.000021
1361	1.3532e+02	6.4635	6.798140	0.000184	1.842249	0.312085	-0.000018
1362	1.3542e+02	6.4532	6.777365	0.000209	2.087882	0.353697	-0.000021
1363	1.3552e+02	6.4453	6.759442	0.000180	1.801310	0.305150	-0.000018
1364	1.3562e+02	6.4352	6.735002	0.000246	2.456332	0.416114	-0.000025
1365	1.3572e+02	6.4236	6.716264	0.000188	1.883188	0.319021	-0.000019
1366	1.3582e+02	6.4139	6.694675	0.000217	2.169760	0.367567	-0.000022
1367	1.3592e+02	6.4014	6.670234	0.000246	2.456332	0.416114	-0.000025
1368	1.3602e+02	6.3940	6.650682	0.000197	1.965065	0.332891	-0.000020
1369	1.3612e+02	6.3860	6.631944	0.000188	1.883188	0.319021	-0.000019
1370	1.3622e+02	6.3741	6.612799	0.000192	1.924127	0.325956	-0.000019
1371	1.3631e+02	6.3650	6.592025	0.000209	2.087882	0.353697	-0.000021
1372	1.3641e+02	6.3528	6.568399	0.000237	2.374454	0.402243	-0.000024
1373	1.3651e+02	6.3435	6.554956	0.000135	1.350982	0.228863	-0.000014
1374	1.3661e+02	6.3356	6.530516	0.000246	2.456332	0.416114	-0.000025
1375	1.3671e+02	6.3234	6.508112	0.000225	2.251637	0.381438	-0.000023
1376	1.3681e+02	6.3142	6.485708	0.000225	2.251637	0.381438	-0.000023
1377	1.3691e+02	6.3037	6.465341	0.000205	2.046943	0.346762	-0.000020
1378	1.3701e+02	6.2958	6.449047	0.000164	1.637555	0.277409	-0.000016
1379	1.3711e+02	6.2834	6.424199	0.000250	2.497271	0.423049	-0.000025
1380	1.3721e+02	6.2756	6.407498	0.000168	1.678493	0.284344	-0.000017
1381	1.3731e+02	6.2635	6.388353	0.000192	1.924127	0.325956	-0.000019
1382	1.3741e+02	6.2574	6.366357	0.000221	2.210699	0.374502	-0.000022
1383	1.3751e+02	6.2457	6.352100	0.000143	1.432860	0.242733	-0.000014
1384	1.3761e+02	6.2350	6.332140	0.000201	2.006004	0.339826	-0.000020
1385	1.3771e+02	6.2262	6.311365	0.000209	2.087882	0.353697	-0.000021
1386	1.3781e+02	6.2159	6.290591	0.000209	2.087882	0.353697	-0.000021
1387	1.3791e+02	6.2038	6.273890	0.000168	1.678493	0.284344	-0.000017
1388	1.3801e+02	6.1961	6.258004	0.000160	1.596616	0.270474	-0.000016
1389	1.3811e+02	6.1868	6.236414	0.000217	2.169760	0.367567	-0.000022
1390	1.3821e+02	6.1738	6.217269	0.000192	1.924127	0.325956	-0.000019
1391	1.3831e+02	6.1668	6.201383	0.000160	1.596616	0.270474	-0.000016
1392	1.3840e+02	6.1559	6.181831	0.000197	1.965065	0.332891	-0.000020
1393	1.3850e+02	6.1465	6.165537	0.000164	1.637555	0.277409	-0.000016
1394	1.3860e+02	6.1320	6.141096	0.000246	2.456332	0.416114	-0.000025
1395	1.3870e+02	6.1254	6.129283	0.000119	1.187227	0.201122	-0.000012
1396	1.3880e+02	6.1162	6.107694	0.000217	2.169760	0.367567	-0.000022
1397	1.3890e+02	6.1059	6.086105	0.000217	2.169760	0.367567	-0.000022
1398	1.3900e+02	6.0973	6.070219	0.000160	1.596616	0.270474	-0.000016
1399	1.3910e+02	6.0860	6.054740	0.000156	1.555677	0.263539	-0.000016
1400	1.3920e+02	6.0767	6.033965	0.000209	2.087882	0.353697	-0.000021
1401	1.3930e+02	6.0662	6.013191	0.000209	2.087882	0.353697	-0.000021
1402	1.3940e+02	6.0566	5.998119	0.000151	1.514738	0.256604	-0.000015
1403	1.3950e+02	6.0462	5.979381	0.000188	1.883188	0.319021	-0.000019
1404	1.3960e+02	6.0369	5.964310	0.000151	1.514738	0.256604	-0.000015
1405	1.3970e+02	6.0246	5.943535	0.000209	2.087882	0.353697	-0.000021
1406	1.3980e+02	6.0149	5.925612	0.000180	1.801310	0.305150	-0.000018
1407	1.3990e+02	6.0034	5.907282	0.000184	1.842249	0.312085	-0.000018
1408	1.4000e+02	5.9950	5.888137	0.000192	1.924127	0.325956	-0.000019
1409	1.4010e+02	5.9859	5.870214	0.000180	1.801310	0.305150	-0.000018
1410	1.4020e+02	5.9782	5.851476	0.000188	1.883188	0.319021	-0.000019
1411	1.4029e+02	5.9687	5.830701	0.000209	2.087882	0.353697	-0.000021
1412	1.4039e+02	5.9547	5.815222	0.000156	1.555677	0.263539	-0.000016
1413	1.4049e+02	5.9481	5.794855	0.000205	2.046943	0.346762	-0.000020
1414	1.4059e+02	5.9375	5.775303	0.000197	1.965065	0.332891	-0.000020
1415	1.4069e+02	5.9290	5.759009	0.000164	1.637555	0.277409	-0.000016
1416	1.4079e+02	5.9164	5.745567	0.000135	1.350982	0.228863	-0.000014
1417	1.4089e+02	5.9068	5.723978	0.000217	2.169760	0.367567	-0.000022
1418	1.4099e+02	5.8988	5.708091	0.000160	1.596616	0.270474	-0.000016
1419	1.4109e+02	5.8858	5.693834	0.000143	1.432860	0.242733	-0.000014
1420	1.4119e+02	5.8781	5.676726	0.000172	1.719432	0.291280	-0.000017
1421	1.4129e+02	5.8671	5.659210	0.000176	1.760371	0.298215	-0.000018
1422	1.4139e+02	5.8590	5.643324	0.000160	1.596616	0.270474	-0.000016
1423	1.4149e+02	5.8496	5.625808	0.000176	1.760371	0.298215	-0.000018
1424	1.4159e+02	5.8367	5.609107	0.000168	1.678493	0.284344	-0.000017
1425	1.4169e+02	5.8245	5.593628	0.000156	1.555677	0.263539	-0.000016
1426	1.4179e+02	5.8155	5.575705	0.000180	1.801310	0.305150	-0.000018
1427	1.4189e+02	5.8105	5.556152	0.000197	1.965065	0.332891	-0.000020
1428	1.4199e+02	5.7967	5.541488	0.000147	1.473799	0.249668	-0.000015
1429	1.4209e+02	5.7848	5.521528	0.000201	2.006004	0.339826	-0.000020
1430	1.4219e+02	5.7777	5.505642	0.000160	1.596616	0.270474	-0.000016
1431	1.4228e+02	5.7693	5.489756	0.000160	1.596616	0.270474	-0.000016
1432	1.4238e+02	5.7571	5.475499	0.000143	1.432860	0.242733	-0.000014
1433	1.4248e+02	5.7484	5.453909	0.000217	2.169760	0.367567	-0.000022
1434	1.4258e+02	5.7363	5.439652	0.000143	1.432860	0.242733	-0.000014
1435	1.4268e+02	5.7269	5.424173	0.000156	1.555677	0.263539	-0.000016
1436	1.4278e+02	5.7183	5.404214	0.000201	2.006004	0.339826	-0.000020
1437	1.4288e+02	5.7067	5.387513	0.000168	1.678493	0.284344	-0.000017
1438	1.4298e+02	5.6994	5.367960	0.000197	1.965065	0.332891	-0.000020
1439	1.4308e+02	5.6857	5.350037	0.000180	1.801310	0.305150	-0.000018
1440	1.4318e+02	5.6771	5.332929	0.000172	1.719432	0.291280	-0.000017
1441	1.4328e+02	5.6655	5.312154	0.000209	2.087882	0.353697	-0.000021
1442	1.4338e+02	5.6594	5.290565	0.000217	2.169760	0.367567	-0.000022
1443	1.4348e+02	5.6486	5.273457	0.000172	1.719432	0.291280	-0.000017
1444	1.4358e+02	5.6356	5.253497	0.000201	2.006004	0.339826	-0.000020
1445	1.4368e+02	5.6289	5.238018	0.000156	1.555677	0.263539	-0.000016
1446	1.4378e+02	5.6179	5.219687	0.000184	1.842249	0.312085	-0.000018
1447	1.4388e+02	5.6104	5.201357	0.000184	1.842249	0.312085	-0.000018
1448	1.4398e+02	5.5982	5.182619	0.000188	1.883188	0.319021	-0.000019
1449	1.4408e+02	5.5913	5.167955	0.000147	1.473799	0.249668	-0.000015
1450	1.4418e+02	5.5776	5.151254	0.000168	1.678493	0.284344	-0.000017
1451	1.4428e+02	5.5695	5.131701	0.000197	1.965065	0.332891	-0.000020
1452	1.4437e+02	5.5578	5.117444	0.000143	1.432860	0.242733	-0.000014
1453	1.4447e+02	5.5495	5.098707	0.000188	1.883188	0.319021	-0.000019
1454	1.4457e+02	5.5376	5.077932	0.000209	2.087882	0.353697	-0.000021
1455	1.4467e+02	5.5291	5.061231	0.000168	1.678493	0.284344	-0.000017
1456	1.4477e+02	5.5209	5.043715	0.000176	1.760371	0.298215	-0.000018
1457	1.4487e+02	5.5095	5.023348	0.000205	2.046943	0.346762	-0.000020
1458	1.4497e+02	5.4993	5.005425	0.000180	1.801310	0.305150	-0.000018
1459	1.4507e+02	5.4870	4.987502	0.000180	1.801310	0.305150	-0.000018
1460	1.4517e+02	5.4781	4.972838	0.000147	1.473799	0.249668	-0.000015
1461	1.4527e+02	5.4713	4.952063	0.000209	2.087882	0.353697	-0.000021
1462	1.4537e+02	5.4607	4.934955	0.000172	1.719432	0.291280	-0.000017
1463	1.4547e+02	5.4516	4.917847	0.000172	1.719432	0.291280	-0.000017
1464	1.4557e+02	5.4388	4.897887	0.000201	2.006004	0.339826	-0.000020
1465	1.4567e+02	5.4298	4.877927	0.000201	2.006004	0.339826	-0.000020
1466	1.4577e+02	5.4182	4.859189	0.000188	1.883188	0.319021	-0.000019
1467	1.4587e+02	5.4127	4.834749	0.000246	2.456332	0.416114	-0.000025
1468	1.4597e+02	5.3967	4.813974	0.000209	2.087882	0.353697	-0.000021
1469	1.4607e+02	5.3930	4.796866	0.000172	1.719432	0.291280	-0.000017
1470	1.4617e+02	5.3790	4.777721	0.000192	1.924127	0.325956	-0.000019
1471	1.4626e+02	5.3689	4.756132	0.000217	2.169760	0.367567	-0.000022
1472	1.4636e+02	5.3585	4.736579	0.000197	1.965065	0.332891	-0.000020
1473	1.4646e+02	5.3479	4.714990	0.000217	2.169760	0.367567	-0.000022
1474	1.4656e+02	5.3400	4.693401	0.000217	2.169760	0.367567	-0.000022
1475	1.4666e+02	5.3303	4.670182	0.000233	2.333515	0.395308	-0.000023
1476	1.4676e+02	5.3197	4.650223	0.000201	2.006004	0.339826	-0.000020
1477	1.4686e+02	5.3094	4.632707	0.000176	1.760371	0.298215	-0.000018
1478	1.4696e+02	5.2973	4.612340	0.000205	2.046943	0.346762	-0.000020
1479	1.4706e+02	5.2886	4.586270	0.000262	2.620087	0.443855	-0.000026
1480	1.4716e+02	5.2818	4.564273	0.000221	2.210699	0.374502	-0.000022
1481	1.4726e+02	5.2706	4.548387	0.000160	1.596616	0.270474	-0.000016
1482	1.4736e+02	5.2589	4.525983	0.000225	2.251637	0.381438	-0.000023
1483	1.4746e+02	5.2537	4.506023	0.000201	2.006004	0.339826	-0.000020
1484	1.4756e+02	5.2401	4.480768	0.000254	2.538210	0.429984	-0.000025
1485	1.4766e+02	5.2307	4.460808	0.000201	2.006004	0.339826	-0.000020
1486	1.4776e+02	5.2203	4.440034	0.000209	2.087882	0.353697	-0.000021
1487	1.4786e+02	5.2100	4.418037	0.000221	2.210699	0.374502	-0.000022
1488	1.4796e+02	5.2020	4.397670	0.000205	2.046943	0.346762	-0.000020
1489	1.4806e+02	5.1896	4.379340	0.000184	1.842249	0.312085	-0.000018
1490	1.4816e+02	5.1768	4.348789	0.000307	3.070415	0.520142	-0.000031
1491	1.4825e+02	5.1711	4.330866	0.000180	1.801310	0.305150	-0.000018
1492	1.4835e+02	5.1620	4.309684	0.000213	2.128821	0.360632	-0.000021
1493	1.4845e+02	5.1503	4.288095	0.000217	2.169760	0.367567	-0.000022
1494	1.4855e+02	5.1378	4.267728	0.000205	2.046943	0.346762	-0.000020
1495	1.4865e+02	5.1314	4.246546	0.000213	2.128821	0.360632	-0.000021
1496	1.4875e+02	5.1223	4.226179	0.000205	2.046943	0.346762	-0.000020
1497	1.4885e+02	5.1126	4.200109	0.000262	2.620087	0.443855	-0.000026
1498	1.4895e+02	5.1015	4.182593	0.000176	1.760371	0.298215	-0.000018
1499	1.4905e+02	5.0922	4.157338	0.000254	2.538210	0.429984	-0.000025
1500	1.4915e+02	5.0787	4.135749	0.000217	2.169760	0.367567	-0.000022
1501	1.4925e+02	5.0705	4.115382	0.000205	2.046943	0.346762	-0.000020
1502	1.4935e+02	5.0597	4.090127	0.000254	2.538210	0.429984	-0.000025
1503	1.4945e+02	5.0520	4.069759	0.000205	2.046943	0.346762	-0.000020
1504	1.4955e+02	5.0401	4.046134	0.000237	2.374454	0.402243	-0.000024
1505	1.4965e+02	5.0329	4.021286	0.000250	2.497271	0.423049	-0.000025
1506	1.4975e+02	5.0209	4.000511	0.000209	2.087882	0.353697	-0.000021
1507	1.4985e+02	5.0123	3.974034	0.000266	2.661026	0.450790	-0.000027
1508	1.4995e+02	5.0033	3.948779	0.000254	2.538210	0.429984	-0.000025
1509	1.5005e+02	4.9895	3.927597	0.000213	2.128821	0.360632	-0.000021
1510	1.5015e+02	4.9809	3.905600	0.000221	2.210699	0.374502	-0.000022
1511	1.5025e+02	4.9708	3.879938	0.000258	2.579148	0.436920	-0.000026
1512	1.5034e+02	4.9602	3.853868	0.000262	2.620087	0.443855	-0.000026
1513	1.5044e+02	4.9548	3.833908	0.000201	2.006004	0.339826	-0.000020
1514	1.5054e+02	4.9422	3.806616	0.000274	2.742904	0.464660	-0.000027
1515	1.5064e+02	4.9305	3.785842	0.000209	2.087882	0.353697	-0.000021
1516	1.5074e+02	4.9233	3.762623	0.000233	2.333515	0.395308	-0.000023
1517	1.5084e+02	4.9142	3.737368	0.000254	2.538210	0.429984	-0.000025
1518	1.5094e+02	4.9036	3.712113	0.000254	2.538210	0.429984	-0.000025
1519	1.5104e+02	4.8923	3.690116	0.000221	2.210699	0.374502	-0.000022
1520	1.5114e+02	4.8815	3.666083	0.000242	2.415393	0.409179	-0.000024
1521	1.5124e+02	4.8730	3.643679	0.000225	2.251637	0.381438	-0.000023
1522	1.5134e+02	4.8626	3.620053	0.000237	2.374454	0.402243	-0.000024
1523	1.5144e+02	4.8528	3.595205	0.000250	2.497271	0.423049	-0.000025
1524	1.5154e+02	4.8428	3.576468	0.000188	1.883188	0.319021	-0.000019
1525	1.5164e+02	4.8327	3.556100	0.000205	2.046943	0.346762	-0.000020
1526	1.5174e+02	4.8232	3.532067	0.000242	2.415393	0.409179	-0.000024
1527	1.5184e+02	4.8116	3.507219	0.000250	2.497271	0.423049	-0.000025
1528	1.5194e+02	4.8006	3.484408	0.000229	2.292576	0.388373	-0.000023
1529	1.5204e+02	4.7930	3.462004	0.000225	2.251637	0.381438	-0.000023
1530	1.5214e+02	4.7811	3.441637	0.000205	2.046943	0.346762	-0.000020
1531	1.5224e+02	4.7762	3.415567	0.000262	2.620087	0.443855	-0.000026
1532	1.5233e+02	4.7624	3.392349	0.000233	2.333515	0.395308	-0.000023
1533	1.5243e+02	4.7552	3.371982	0.000205	2.046943	0.346762	-0.000020
1534	1.5253e+02	4.7407	3.346319	0.000258	2.579148	0.436920	-0.000026
1535	1.5263e+02	4.7332	3.319842	0.000266	2.661026	0.450790	-0.000027
1536	1.5273e+02	4.7234	3.298253	0.000217	2.169760	0.367567	-0.000022
1537	1.5283e+02	4.7149	3.274219	0.000242	2.415393	0.409179	-0.000024
1538	1.5293e+02	4.7033	3.255074	0.000192	1.924127	0.325956	-0.000019
1539	1.5303e+02	4.6934	3.230634	0.000246	2.456332	0.416114	-0.000025
1540	1.5313e+02	4.6835	3.204971	0.000258	2.579148	0.436920	-0.000026
1541	1.5323e+02	4.6741	3.181753	0.000233	2.333515	0.395308	-0.000023
1542	1.5333e+02	4.6612	3.159349	0.000225	2.251637	0.381438	-0.000023
1543	1.5343e+02	4.6538	3.137352	0.000221	2.210699	0.374502	-0.000022
1544	1.5353e+02	4.6453	3.113726	0.000237	2.374454	0.402243	-0.000024
1545	1.5363e+02	4.6301	3.088064	0.000258	2.579148	0.436920	-0.000026
1546	1.5373e+02	4.6232	3.066475	0.000217	2.169760	0.367567	-0.000022
1547	1.5383e+02	4.6159	3.043256	0.000233	2.333515	0.395308	-0.000023
1548	1.5393e+02	4.6033	3.022074	0.000213	2.128821	0.360632	-0.000021
1549	1.5403e+02	4.5929	2.996819	0.000254	2.538210	0.429984	-0.000025
1550	1.5413e+02	4.5845	2.975637	0.000213	2.128821	0.360632	-0.000021
1551	1.5422e+02	4.5744	2.955678	0.000201	2.006004	0.339826	-0.000020
1552	1.5432e+02	4.5632	2.931237	0.000246	2.456332	0.416114	-0.000025
1553	1.5442e+02	4.5540	2.909241	0.000221	2.210699	0.374502	-0.000022
1554	1.5452e+02	4.5422	2.892947	0.000164	1.637555	0.277409	-0.000016
1555	1.5462e+02	4.5343	2.870950	0.000221	2.210699	0.374502	-0.000022
1556	1.5472e+02	4.5231	2.846510	0.000246	2.456332	0.416114	-0.000025
1557	1.5482e+02	4.5150	2.826143	0.000205	2.046943	0.346762	-0.000020
1558	1.5492e+02	4.5026	2.804146	0.000221	2.210699	0.374502	-0.000022
1559	1.5502e+02	4.4946	2.787038	0.000172	1.719432	0.291280	-0.000017
1560	1.5512e+02	4.4841	2.764227	0.000229	2.292576	0.388373	-0.000023
1561	1.5522e+02	4.4772	2.744267	0.000201	2.006004	0.339826	-0.000020
1562	1.5532e+02	4.4665	2.721863	0.000225	2.251637	0.381438	-0.000023
1563	1.5542e+02	4.4512	2.701088	0.000209	2.087882	0.353697	-0.000021
1564	1.5552e+02	4.4452	2.681129	0.000201	2.006004	0.339826	-0.000020
1565	1.5562e+02	4.4317	2.655873	0.000254	2.538210	0.429984	-0.000025
1566	1.5572e+02	4.4253	2.636321	0.000197	1.965065	0.332891	-0.000020
1567	1.5582e+02	4.4152	2.613102	0.000233	2.333515	0.395308	-0.000023
1568	1.5592e+02	4.4057	2.592735	0.000205	2.046943	0.346762	-0.000020
1569	1.5602e+02	4.3938	2.568702	0.000242	2.415393	0.409179	-0.000024
1570	1.5612e+02	4.3839	2.553630	0.000151	1.514738	0.256604	-0.000015
1571	1.5622e+02	4.3723	2.533263	0.000205	2.046943	0.346762	-0.000020
1572	1.5631e+02	4.3658	2.510452	0.000229	2.292576	0.388373	-0.000023
1573	1.5641e+02	4.3546	2.490900	0.000197	1.965065	0.332891	-0.000020
1574	1.5651e+02	4.3441	2.466459	0.000246	2.456332	0.416114	-0.000025
1575	1.5661e+02	4.3349	2.448129	0.000184	1.842249	0.312085	-0.000018
1576	1.5671e+02	4.3243	2.427354	0.000209	2.087882	0.353697	-0.000021
1577	1.5681e+02	4.3129	2.404950	0.000225	2.251637	0.381438	-0.000023
1578	1.5691e+02	4.3026	2.385398	0.000197	1.965065	0.332891	-0.000020
1579	1.5701e+02	4.2937	2.361772	0.000237	2.374454	0.402243	-0.000024
1580	1.5711e+02	4.2841	2.340183	0.000217	2.169760	0.367567	-0.000022
1581	1.5721e+02	4.2745	2.319001	0.000213	2.128821	0.360632	-0.000021
1582	1.5731e+02	4.2626	2.301078	0.000180	1.801310	0.305150	-0.000018
1583	1.5741e+02	4.2565	2.280304	0.000209	2.087882	0.353697	-0.000021
1584	1.5751e+02	4.2471	2.258307	0.000221	2.210699	0.374502	-0.000022
1585	1.5761e+02	4.2345	2.237940	0.000205	2.046943	0.346762	-0.000020
1586	1.5771e+02	4.2249	2.220017	0.000180	1.801310	0.305150	-0.000018
1587	1.5781e+02	4.2153	2.203316	0.000168	1.678493	0.284344	-0.000017
1588	1.5791e+02	4.2046	2.181319	0.000221	2.210699	0.374502	-0.000022
1589	1.5801e+02	4.1959	2.162989	0.000184	1.842249	0.312085	-0.000018
1590	1.5811e+02	4.1874	2.144251	0.000188	1.883188	0.319021	-0.000019
1591	1.5821e+02	4.1759	2.122662	0.000217	2.169760	0.367567	-0.000022
1592	1.5830e+02	4.1652	2.105146	0.000176	1.760371	0.298215	-0.000018
1593	1.5840e+02	4.1537	2.083964	0.000213	2.128821	0.360632	-0.000021
1594	1.5850e+02	4.1450	2.063597	0.000205	2.046943	0.346762	-0.000020
1595	1.5860e+02	4.1375	2.042823	0.000209	2.087882	0.353697	-0.000021
1596	1.5870e+02	4.1256	2.023270	0.000197	1.965065	0.332891	-0.000020
1597	1.5880e+02	4.1167	2.003311	0.000201	2.006004	0.339826	-0.000020
1598	1.5890e+02	4.1049	1.982944	0.000205	2.046943	0.346762	-0.000020
1599	1.5900e+02	4.0923	1.964206	0.000188	1.883188	0.319021	-0.000019
1600	1.5910e+02	4.0873	1.950356	0.000139	1.391921	0.235798	-0.000014
1601	1.5920e+02	4.0743	1.927138	0.000233	2.333515	0.395308	-0.000023
1602	1.5930e+02	4.0653	1.906770	0.000205	2.046943	0.346762	-0.000020
1603	1.5940e+02	4.0574	1.886811	0.000201	2.006004	0.339826	-0.000020
1604	1.5950e+02	4.0455	1.867258	0.000197	1.965065	0.332891	-0.000020
1605	1.5960e+02	4.0347	1.842003	0.000254	2.538210	0.429984	-0.000025
1606	1.5970e+02	4.0292	1.823673	0.000184	1.842249	0.312085	-0.000018
1607	1.5980e+02	4.0173	1.800047	0.000237	2.374454	0.402243	-0.000024
1608	1.5990e+02	4.0060	1.779680	0.000205	2.046943	0.346762	-0.000020
1609	1.6000e+02	3.9950	1.756868	0.000229	2.292576	0.388373	-0.000023
1610	1.6010e+02	3.9849	1.737723	0.000192	1.924127	0.325956	-0.000019
1611	1.6019e+02	3.9741	1.715727	0.000221	2.210699	0.374502	-0.000022
1612	1.6029e+02	3.9674	1.696989	0.000188	1.883188	0.319021	-0.000019
1613	1.6039e+02	3.9582	1.675400	0.000217	2.169760	0.367567	-0.000022
1614	1.6049e+02	3.9448	1.651774	0.000237	2.374454	0.402243	-0.000024
1615	1.6059e+02	3.9378	1.632222	0.000197	1.965065	0.332891	-0.000020
1616	1.6069e+02	3.9243	1.616743	0.000156	1.555677	0.263539	-0.000016
1617	1.6079e+02	3.9181	1.591080	0.000258	2.579148	0.436920	-0.000026
1618	1.6089e+02	3.9082	1.576008	0.000151	1.514738	0.256604	-0.000015
1619	1.6099e+02	3.8992	1.552382	0.000237	2.374454	0.402243	-0.000024
1620	1.6109e+02	3.8873	1.529979	0.000225	2.251637	0.381438	-0.000023
1621	1.6119e+02	3.8763	1.510834	0.000192	1.924127	0.325956	-0.000019
1622	1.6129e+02	3.8636	1.483949	0.000270	2.701965	0.457725	-0.000027
1623	1.6139e+02	3.8574	1.468470	0.000156	1.555677	0.263539	-0.000016
1624	1.6149e+02	3.8427	1.446473	0.000221	2.210699	0.374502	-0.000022
1625	1.6159e+02	3.8374	1.423662	0.000229	2.292576	0.388373	-0.000023
1626	1.6169e+02	3.8275	1.406554	0.000172	1.719432	0.291280	-0.000017
1627	1.6179e+02	3.8166	1.384965	0.000217	2.169760	0.367567	-0.000022
1628	1.6189e+02	3.8091	1.360117	0.000250	2.497271	0.423049	-0.000025
1629	1.6199e+02	3.7991	1.343416	0.000168	1.678493	0.284344	-0.000017
1630	1.6209e+02	3.7861	1.321012	0.000225	2.251637	0.381438	-0.000023
1631	1.6219e+02	3.7762	1.300645	0.000205	2.046943	0.346762	-0.000020
1632	1.6228e+02	3.7682	1.278241	0.000225	2.251637	0.381438	-0.000023
1633	1.6238e+02	3.7577	1.254208	0.000242	2.415393	0.409179	-0.000024
1634	1.6248e+02	3.7478	1.228545	0.000258	2.579148	0.436920	-0.000026
1635	1.6258e+02	3.7420	1.209400	0.000192	1.924127	0.325956	-0.000019
1636	1.6268e+02	3.7292	1.191884	0.000176	1.760371	0.298215	-0.000018
1637	1.6278e+02	3.7184	1.165000	0.000270	2.701965	0.457725	-0.000027
1638	1.6288e+02	3.7064	1.140152	0.000250	2.497271	0.423049	-0.000025
1639	1.6298e+02	3.6974	1.118563	0.000217	2.169760	0.367567	-0.000022
1640	1.6308e+02	3.6865	1.092493	0.000262	2.620087	0.443855	-0.000026
1641	1.6318e+02	3.6832	1.070904	0.000217	2.169760	0.367567	-0.000022
1642	1.6328e+02	3.6687	1.046870	0.000242	2.415393	0.409179	-0.000024
1643	1.6338e+02	3.6575	1.020800	0.000262	2.620087	0.443855	-0.000026
1644	1.6348e+02	3.6500	0.995138	0.000258	2.579148	0.436920	-0.000026
1645	1.6358e+02	3.6402	0.971512	0.000237	2.374454	0.402243	-0.000024
1646	1.6368e+02	3.6297	0.949923	0.000217	2.169760	0.367567	-0.000022
1647	1.6378e+02	3.6162	0.926704	0.000233	2.333515	0.395308	-0.000023
1648	1.6388e+02	3.6069	0.898598	0.000282	2.824782	0.478531	-0.000028
1649	1.6398e+02	3.5975	0.876601	0.000221	2.210699	0.374502	-0.000022
1650	1.6408e+02	3.5876	0.855012	0.000217	2.169760	0.367567	-0.000022
1651	1.6418e+02	3.5802	0.829757	0.000254	2.538210	0.429984	-0.000025
1652	1.6427e+02	3.5677	0.806538	0.000233	2.333515	0.395308	-0.000023
1653	1.6437e+02	3.5587	0.783727	0.000229	2.292576	0.388373	-0.000023
1654	1.6447e+02	3.5482	0.757250	0.000266	2.661026	0.450790	-0.000027
1655	1.6457e+02	3.5360	0.732809	0.000246	2.456332	0.416114	-0.000025
1656	1.6467e+02	3.5298	0.708369	0.000246	2.456332	0.416114	-0.000025
1657	1.6477e+02	3.5195	0.681891	0.000266	2.661026	0.450790	-0.000027
1658	1.6487e+02	3.5126	0.659895	0.000221	2.210699	0.374502	-0.000022
1659	1.6497e+02	3.4973	0.634232	0.000258	2.579148	0.436920	-0.000026
1660	1.6507e+02	3.4866	0.610606	0.000237	2.374454	0.402243	-0.000024
1661	1.6517e+02	3.4796	0.585759	0.000250	2.497271	0.423049	-0.000025
1662	1.6527e+02	3.4695	0.562540	0.000233	2.333515	0.395308	-0.000023
1663	1.6537e+02	3.4575	0.538914	0.000237	2.374454	0.402243	-0.000024
1664	1.6547e+02	3.4487	0.512030	0.000270	2.701965	0.457725	-0.000027
1665	1.6557e+02	3.4387	0.487182	0.000250	2.497271	0.423049	-0.000025
1666	1.6567e+02	3.4285	0.462741	0.000246	2.456332	0.416114	-0.000025
1667	1.6577e+02	3.4193	0.436671	0.000262	2.620087	0.443855	-0.000026
1668	1.6587e+02	3.4069	0.409787	0.000270	2.701965	0.457725	-0.000027
1669	1.6597e+02	3.3999	0.385346	0.000246	2.456332	0.416114	-0.000025
1670	1.6607e+02	3.3908	0.359276	0.000262	2.620087	0.443855	-0.000026
1671	1.6616e+02	3.3782	0.333206	0.000262	2.620087	0.443855	-0.000026
1672	1.6626e+02	3.3670	0.305507	0.000278	2.783843	0.471596	-0.000028
1673	1.6636e+02	3.3604	0.278215	0.000274	2.742904	0.464660	-0.000027
1674	1.6646e+02	3.3484	0.250516	0.000278	2.783843	0.471596	-0.000028
1675	1.6656e+02	3.3405	0.224038	0.000266	2.661026	0.450790	-0.000027
1676	1.6666e+02	3.3327	0.200820	0.000233	2.333515	0.395308	-0.000023
1677	1.6676e+02	3.3190	0.173935	0.000270	2.701965	0.457725	-0.000027
1678	1.6686e+02	3.3117	0.148273	0.000258	2.579148	0.436920	-0.000026
1679	1.6696e+02	3.2998	0.119351	0.000291	2.906659	0.492401	-0.000029
1680	1.6706e+02	3.2900	0.094911	0.000246	2.456332	0.416114	-0.000025
1681	1.6716e+02	3.2834	0.071285	0.000237	2.374454	0.402243	-0.000024
1682	1.6726e+02	3.2674	0.040734	0.000307	3.070415	0.520142	-0.000031
1683	1.6736e+02	3.2601	0.013850	0.000270	2.701965	0.457725	-0.000027
1684	1.6746e+02	3.2510	-0.011813	0.000258	2.579148	0.436920	-0.000026
1685	1.6756e+02	3.2417	-0.043178	0.000315	3.152292	0.534013	-0.000032
1686	1.6766e+02	3.2324	-0.066804	0.000237	2.374454	0.402243	-0.000024
1687	1.6776e+02	3.2211	-0.092467	0.000258	2.579148	0.436920	-0.000026
1688	1.6786e+02	3.2110	-0.118129	0.000258	2.579148	0.436920	-0.000026
1689	1.6796e+02	3.2011	-0.145829	0.000278	2.783843	0.471596	-0.000028
1690	1.6806e+02	3.1895	-0.170269	0.000246	2.456332	0.416114	-0.000025
1691	1.6816e+02	3.1802	-0.195117	0.000250	2.497271	0.423049	-0.000025
1692	1.6825e+02	3.1721	-0.222409	0.000274	2.742904	0.464660	-0.000027
1693	1.6835e+02	3.1599	-0.243184	0.000209	2.087882	0.353697	-0.000021
1694	1.6845e+02	3.1499	-0.271697	0.000287	2.865720	0.485466	-0.000029
1695	1.6855e+02	3.1425	-0.296545	0.000250	2.497271	0.423049	-0.000025
1696	1.6865e+02	3.1328	-0.323430	0.000270	2.701965	0.457725	-0.000027
1697	1.6875e+02	3.1194	-0.350315	0.000270	2.701965	0.457725	-0.000027
1698	1.6885e+02	3.1109	-0.378421	0.000282	2.824782	0.478531	-0.000028
1699	1.6895e+02	3.1037	-0.402454	0.000242	2.415393	0.409179	-0.000024
1700	1.6905e+02	3.0881	-0.428524	0.000262	2.620087	0.443855	-0.000026
1701	1.6915e+02	3.0794	-0.456224	0.000278	2.783843	0.471596	-0.000028
1702	1.6925e+02	3.0706	-0.481886	0.000258	2.579148	0.436920	-0.000026
1703	1.6935e+02	3.0605	-0.512030	0.000303	3.029476	0.513207	-0.000030
1704	1.6945e+02	3.0486	-0.535248	0.000233	2.333515	0.395308	-0.000023
1705	1.6955e+02	3.0398	-0.560911	0.000258	2.579148	0.436920	-0.000026
1706	1.6965e+02	3.0300	-0.587388	0.000266	2.661026	0.450790	-0.000027
1707	1.6975e+02	3.0227	-0.613458	0.000262	2.620087	0.443855	-0.000026
1708	1.6985e+02	3.0118	-0.637084	0.000237	2.374454	0.402243	-0.000024
1709	1.6995e+02	3.0057	-0.666412	0.000295	2.947598	0.499337	-0.000029
1710	1.7005e+02	2.9904	-0.694112	0.000278	2.783843	0.471596	-0.000028
1711	1.7015e+02	2.9816	-0.721404	0.000274	2.742904	0.464660	-0.000027
1712	1.7024e+02	2.9707	-0.745030	0.000237	2.374454	0.402243	-0.000024
1713	1.7034e+02	2.9617	-0.773544	0.000287	2.865720	0.485466	-0.000029
1714	1.7044e+02	2.9513	-0.796762	0.000233	2.333515	0.395308	-0.000023
1715	1.7054e+02	2.9415	-0.823239	0.000266	2.661026	0.450790	-0.000027
1716	1.7064e+02	2.9328	-0.850531	0.000274	2.742904	0.464660	-0.000027
1717	1.7074e+02	2.9217	-0.875786	0.000254	2.538210	0.429984	-0.000025
1718	1.7084e+02	2.9123	-0.899005	0.000233	2.333515	0.395308	-0.000023
1719	1.7094e+02	2.8986	-0.923446	0.000246	2.456332	0.416114	-0.000025
1720	1.7104e+02	2.8899	-0.950738	0.000274	2.742904	0.464660	-0.000027
1721	1.7114e+02	2.8814	-0.972734	0.000221	2.210699	0.374502	-0.000022
1722	1.7124e+02	2.8709	-0.998804	0.000262	2.620087	0.443855	-0.000026
1723	1.7134e+02	2.8612	-1.023244	0.000246	2.456332	0.416114	-0.000025
1724	1.7144e+02	2.8509	-1.047685	0.000246	2.456332	0.416114	-0.000025
1725	1.7154e+02	2.8410	-1.072940	0.000254	2.538210	0.429984	-0.000025
1726	1.7164e+02	2.8328	-1.095344	0.000225	2.251637	0.381438	-0.000023
1727	1.7174e+02	2.8209	-1.119785	0.000246	2.456332	0.416114	-0.000025
1728	1.7184e+02	2.8114	-1.141781	0.000221	2.210699	0.374502	-0.000022
1729	1.7194e+02	2.8033	-1.169888	0.000282	2.824782	0.478531	-0.000028
1730	1.7204e+02	2.7909	-1.193921	0.000242	2.415393	0.409179	-0.000024
1731	1.7213e+02	2.7818	-1.220398	0.000266	2.661026	0.450790	-0.000027
1732	1.7223e+02	2.7709	-1.238729	0.000184	1.842249	0.312085	-0.000018
1733	1.7233e+02	2.7615	-1.265206	0.000266	2.661026	0.450790	-0.000027
1734	1.7243e+02	2.7505	-1.292091	0.000270	2.701965	0.457725	-0.000027
1735	1.7253e+02	2.7427	-1.314494	0.000225	2.251637	0.381438	-0.000023
1736	1.7263e+02	2.7338	-1.340972	0.000266	2.661026	0.450790	-0.000027
1737	1.7273e+02	2.7224	-1.363783	0.000229	2.292576	0.388373	-0.000023
1738	1.7283e+02	2.7113	-1.384150	0.000205	2.046943	0.346762	-0.000020
1739	1.7293e+02	2.7030	-1.408591	0.000246	2.456332	0.416114	-0.000025
1740	1.7303e+02	2.6933	-1.437105	0.000287	2.865720	0.485466	-0.000029
1741	1.7313e+02	2.6843	-1.457472	0.000205	2.046943	0.346762	-0.000020
1742	1.7323e+02	2.6712	-1.486800	0.000295	2.947598	0.499337	-0.000029
1743	1.7333e+02	2.6604	-1.506760	0.000201	2.006004	0.339826	-0.000020
1744	1.7343e+02	2.6528	-1.531201	0.000246	2.456332	0.416114	-0.000025
1745	1.7353e+02	2.6428	-1.555234	0.000242	2.415393	0.409179	-0.000024
1746	1.7363e+02	2.6351	-1.580082	0.000250	2.497271	0.423049	-0.000025
1747	1.7373e+02	2.6197	-1.603708	0.000237	2.374454	0.402243	-0.000024
1748	1.7383e+02	2.6118	-1.632629	0.000291	2.906659	0.492401	-0.000029
1749	1.7393e+02	2.6027	-1.653811	0.000213	2.128821	0.360632	-0.000021
1750	1.7403e+02	2.5928	-1.675400	0.000217	2.169760	0.367567	-0.000022
1751	1.7413e+02	2.5842	-1.696582	0.000213	2.128821	0.360632	-0.000021
1752	1.7422e+02	2.5721	-1.721837	0.000254	2.538210	0.429984	-0.000025
1753	1.7432e+02	2.5613	-1.746278	0.000246	2.456332	0.416114	-0.000025
1754	1.7442e+02	2.5517	-1.769903	0.000237	2.374454	0.402243	-0.000024
1755	1.7452e+02	2.5421	-1.795159	0.000254	2.538210	0.429984	-0.000025
1756	1.7462e+02	2.5349	-1.815933	0.000209	2.087882	0.353697	-0.000021
1757	1.7472e+02	2.5237	-1.838337	0.000225	2.251637	0.381438	-0.000023
1758	1.7482e+02	2.5114	-1.861963	0.000237	2.374454	0.402243	-0.000024
1759	1.7492e+02	2.5044	-1.882737	0.000209	2.087882	0.353697	-0.000021
1760	1.7502e+02	2.4949	-1.905956	0.000233	2.333515	0.395308	-0.000023
1761	1.7512e+02	2.4813	-1.927138	0.000213	2.128821	0.360632	-0.000021
1762	1.7522e+02	2.4760	-1.952800	0.000258	2.579148	0.436920	-0.000026
1763	1.7532e+02	2.4638	-1.976426	0.000237	2.374454	0.402243	-0.000024
1764	1.7542e+02	2.4585	-1.997608	0.000213	2.128821	0.360632	-0.000021
1765	1.7552e+02	2.4435	-2.023270	0.000258	2.579148	0.436920	-0.000026
1766	1.7562e+02	2.4332	-2.045267	0.000221	2.210699	0.374502	-0.000022
1767	1.7572e+02	2.4236	-2.062783	0.000176	1.760371	0.298215	-0.000018
1768	1.7582e+02	2.4139	-2.087223	0.000246	2.456332	0.416114	-0.000025
1769	1.7592e+02	2.4061	-2.110034	0.000229	2.292576	0.388373	-0.000023
1770	1.7602e+02	2.3920	-2.135290	0.000254	2.538210	0.429984	-0.000025
1771	1.7612e+02	2.3863	-2.158508	0.000233	2.333515	0.395308	-0.000023
1772	1.7621e+02	2.3737	-2.182134	0.000237	2.374454	0.402243	-0.000024
1773	1.7631e+02	2.3649	-2.205760	0.000237	2.374454	0.402243	-0.000024
1774	1.7641e+02	2.3508	-2.228978	0.000233	2.333515	0.395308	-0.000023
1775	1.7651e+02	2.3443	-2.259122	0.000303	3.029476	0.513207	-0.000030
1776	1.7661e+02	2.3341	-2.281526	0.000225	2.251637	0.381438	-0.000023
1777	1.7671e+02	2.3269	-2.307596	0.000262	2.620087	0.443855	-0.000026
1778	1.7681e+02	2.3167	-2.329999	0.000225	2.251637	0.381438	-0.000023
1779	1.7691e+02	2.3048	-2.354440	0.000246	2.456332	0.416114	-0.000025
1780	1.7701e+02	2.2948	-2.378473	0.000242	2.415393	0.409179	-0.000024
1781	1.7711e+02	2.2848	-2.401692	0.000233	2.333515	0.395308	-0.000023
1782	1.7721e+02	2.2784	-2.425318	0.000237	2.374454	0.402243	-0.000024
1783	1.7731e+02	2.2662	-2.447721	0.000225	2.251637	0.381438	-0.000023
1784	1.7741e+02	2.2539	-2.472569	0.000250	2.497271	0.423049	-0.000025
1785	1.7751e+02	2.2428	-2.492122	0.000197	1.965065	0.332891	-0.000020
1786	1.7761e+02	2.2363	-2.522672	0.000307	3.070415	0.520142	-0.000031
1787	1.7771e+02	2.2249	-2.547520	0.000250	2.497271	0.423049	-0.000025
1788	1.7781e+02	2.2110	-2.570331	0.000229	2.292576	0.388373	-0.000023
1789	1.7791e+02	2.2031	-2.593550	0.000233	2.333515	0.395308	-0.000023
1790	1.7801e+02	2.1954	-2.617991	0.000246	2.456332	0.416114	-0.000025
1791	1.7810e+02	2.1856	-2.641616	0.000237	2.374454	0.402243	-0.000024
1792	1.7820e+02	2.1758	-2.662798	0.000213	2.128821	0.360632	-0.000021
1793	1.7830e+02	2.1645	-2.687646	0.000250	2.497271	0.423049	-0.000025
1794	1.7840e+02	2.1575	-2.712494	0.000250	2.497271	0.423049	-0.000025
1795	1.7850e+02	2.1451	-2.739786	0.000274	2.742904	0.464660	-0.000027
1796	1.7860e+02	2.1371	-2.765041	0.000254	2.538210	0.429984	-0.000025
1797	1.7870e+02	2.1258	-2.783372	0.000184	1.842249	0.312085	-0.000018
1798	1.7880e+02	2.1154	-2.813515	0.000303	3.029476	0.513207	-0.000030
1799	1.7890e+02	2.1053	-2.839178	0.000258	2.579148	0.436920	-0.000026
1800	1.7900e+02	2.0965	-2.864840	0.000258	2.579148	0.436920	-0.000026
1801	1.7910e+02	2.0830	-2.888873	0.000242	2.415393	0.409179	-0.000024
1802	1.7920e+02	2.0755	-2.912907	0.000242	2.415393	0.409179	-0.000024
1803	1.7930e+02	2.0654	-2.941013	0.000282	2.824782	0.478531	-0.000028
1804	1.7940e+02	2.0541	-2.967083	0.000262	2.620087	0.443855	-0.000026
1805	1.7950e+02	2.0456	-2.993968	0.000270	2.701965	0.457725	-0.000027
1806	1.7960e+02	2.0362	-3.021667	0.000278	2.783843	0.471596	-0.000028
1807	1.7970e+02	2.0253	-3.050588	0.000291	2.906659	0.492401	-0.000029
1808	1.7980e+02	2.0196	-3.077066	0.000266	2.661026	0.450790	-0.000027
1809	1.7990e+02	2.0041	-3.104358	0.000274	2.742904	0.464660	-0.000027
1810	1.8000e+02	1.9952	-3.131650	0.000274	2.742904	0.464660	-0.000027
1811	1.8009e+02	1.9846	-3.157312	0.000258	2.579148	0.436920	-0.000026
1812	1.8019e+02	1.9750	-3.188270	0.000311	3.111354	0.527078	-0.000031
1813	1.8029e+02	1.9634	-3.214340	0.000262	2.620087	0.443855	-0.000026
1814	1.8039e+02	1.9570	-3.240003	0.000258	2.579148	0.436920	-0.000026
1815	1.8049e+02	1.9460	-3.267295	0.000274	2.742904	0.464660	-0.000027
1816	1.8059e+02	1.9335	-3.294179	0.000270	2.701965	0.457725	-0.000027
1817	1.8069e+02	1.9271	-3.323915	0.000299	2.988537	0.506272	-0.000030
1818	1.8079e+02	1.9149	-3.349170	0.000254	2.538210	0.429984	-0.000025
1819	1.8089e+02	1.9051	-3.376055	0.000270	2.701965	0.457725	-0.000027
1820	1.8099e+02	1.8934	-3.402125	0.000262	2.620087	0.443855	-0.000026
1821	1.8109e+02	1.8871	-3.433083	0.000311	3.111354	0.527078	-0.000031
1822	1.8119e+02	1.8754	-3.462412	0.000295	2.947598	0.499337	-0.000029
1823	1.8129e+02	1.8658	-3.488074	0.000258	2.579148	0.436920	-0.000026
1824	1.8139e+02	1.8554	-3.515774	0.000278	2.783843	0.471596	-0.000028
1825	1.8149e+02	1.8470	-3.544288	0.000287	2.865720	0.485466	-0.000029
1826	1.8159e+02	1.8346	-3.567506	0.000233	2.333515	0.395308	-0.000023
1827	1.8169e+02	1.8271	-3.598871	0.000315	3.152292	0.534013	-0.000032
1828	1.8179e+02	1.8166	-3.624941	0.000262	2.620087	0.443855	-0.000026
1829	1.8189e+02	1.8060	-3.653048	0.000282	2.824782	0.478531	-0.000028
1830	1.8199e+02	1.7972	-3.683599	0.000307	3.070415	0.520142	-0.000031
1831	1.8209e+02	1.7870	-3.708039	0.000246	2.456332	0.416114	-0.000025
1832	1.8218e+02	1.7777	-3.736553	0.000287	2.865720	0.485466	-0.000029
1833	1.8228e+02	1.7669	-3.764253	0.000278	2.783843	0.471596	-0.000028
1834	1.8238e+02	1.7564	-3.793581	0.000295	2.947598	0.499337	-0.000029
1835	1.8248e+02	1.7461	-3.823317	0.000299	2.988537	0.506272	-0.000030
1836	1.8258e+02	1.7392	-3.853461	0.000303	3.029476	0.513207	-0.000030
1837	1.8268e+02	1.7267	-3.882382	0.000291	2.906659	0.492401	-0.000029
1838	1.8278e+02	1.7175	-3.911303	0.000291	2.906659	0.492401	-0.000029
1839	1.8288e+02	1.7098	-3.941039	0.000299	2.988537	0.506272	-0.000030
1840	1.8298e+02	1.6973	-3.974849	0.000340	3.397926	0.575624	-0.000034
1841	1.8308e+02	1.6882	-4.004992	0.000303	3.029476	0.513207	-0.000030
1842	1.8318e+02	1.6794	-4.034728	0.000299	2.988537	0.506272	-0.000030
1843	1.8328e+02	1.6658	-4.062835	0.000282	2.824782	0.478531	-0.000028
1844	1.8338e+02	1.6586	-4.091756	0.000291	2.906659	0.492401	-0.000029
1845	1.8348e+02	1.6447	-4.124343	0.000328	3.275109	0.554818	-0.000033
1846	1.8358e+02	1.6379	-4.148377	0.000242	2.415393	0.409179	-0.000024
1847	1.8368e+02	1.6287	-4.180149	0.000319	3.193231	0.540948	-0.000032
1848	1.8378e+02	1.6186	-4.211515	0.000315	3.152292	0.534013	-0.000032
1849	1.8388e+02	1.6074	-4.241251	0.000299	2.988537	0.506272	-0.000030
1850	1.8398e+02	1.5969	-4.270987	0.000299	2.988537	0.506272	-0.000030
1851	1.8407e+02	1.5881	-4.303981	0.000332	3.316048	0.561754	-0.000033
1852	1.8417e+02	1.5786	-4.337791	0.000340	3.397926	0.575624	-0.000034
1853	1.8427e+02	1.5652	-4.365490	0.000278	2.783843	0.471596	-0.000028
1854	1.8437e+02	1.5575	-4.394819	0.000295	2.947598	0.499337	-0.000029
1855	1.8447e+02	1.5468	-4.423740	0.000291	2.906659	0.492401	-0.000029
1856	1.8457e+02	1.5395	-4.455105	0.000315	3.152292	0.534013	-0.000032
1857	1.8467e+02	1.5301	-4.483619	0.000287	2.865720	0.485466	-0.000029
1858	1.8477e+02	1.5196	-4.515800	0.000323	3.234170	0.547883	-0.000032
1859	1.8487e+02	1.5090	-4.540647	0.000250	2.497271	0.423049	-0.000025
1860	1.8497e+02	1.4956	-4.567939	0.000274	2.742904	0.464660	-0.000027
1861	1.8507e+02	1.4892	-4.596861	0.000291	2.906659	0.492401	-0.000029
1862	1.8517e+02	1.4782	-4.626189	0.000295	2.947598	0.499337	-0.000029
1863	1.8527e+02	1.4708	-4.657555	0.000315	3.152292	0.534013	-0.000032
1864	1.8537e+02	1.4584	-4.686476	0.000291	2.906659	0.492401	-0.000029
1865	1.8547e+02	1.4484	-4.712953	0.000266	2.661026	0.450790	-0.000027
1866	1.8557e+02	1.4405	-4.742282	0.000295	2.947598	0.499337	-0.000029
1867	1.8567e+02	1.4304	-4.776091	0.000340	3.397926	0.575624	-0.000034
1868	1.8577e+02	1.4173	-4.804605	0.000287	2.865720	0.485466	-0.000029
1869	1.8587e+02	1.4072	-4.838415	0.000340	3.397926	0.575624	-0.000034
1870	1.8597e+02	1.3997	-4.868558	0.000303	3.029476	0.513207	-0.000030
1871	1.8606e+02	1.3851	-4.895443	0.000270	2.701965	0.457725	-0.000027
1872	1.8616e+02	1.3770	-4.927216	0.000319	3.193231	0.540948	-0.000032
1873	1.8626e+02	1.3693	-4.954100	0.000270	2.701965	0.457725	-0.000027
1874	1.8636e+02	1.3611	-4.983021	0.000291	2.906659	0.492401	-0.000029
1875	1.8646e+02	1.3482	-5.015609	0.000328	3.275109	0.554818	-0.000033
1876	1.8656e+02	1.3387	-5.045752	0.000303	3.029476	0.513207	-0.000030
1877	1.8666e+02	1.3302	-5.072229	0.000266	2.661026	0.450790	-0.000027
1878	1.8676e+02	1.3204	-5.104410	0.000323	3.234170	0.547883	-0.000032
1879	1.8686e+02	1.3108	-5.135775	0.000315	3.152292	0.534013	-0.000032
1880	1.8696e+02	1.3008	-5.166326	0.000307	3.070415	0.520142	-0.000031
1881	1.8706e+02	1.2902	-5.198913	0.000328	3.275109	0.554818	-0.000033
1882	1.8716e+02	1.2800	-5.224576	0.000258	2.579148	0.436920	-0.000026
1883	1.8726e+02	1.2676	-5.255126	0.000307	3.070415	0.520142	-0.000031
1884	1.8736e+02	1.2605	-5.282418	0.000274	2.742904	0.464660	-0.000027
1885	1.8746e+02	1.2498	-5.310525	0.000282	2.824782	0.478531	-0.000028
1886	1.8756e+02	1.2394	-5.340261	0.000299	2.988537	0.506272	-0.000030
1887	1.8766e+02	1.2318	-5.367145	0.000270	2.701965	0.457725	-0.000027
1888	1.8776e+02	1.2202	-5.391993	0.000250	2.497271	0.423049	-0.000025
1889	1.8786e+02	1.2099	-5.421729	0.000299	2.988537	0.506272	-0.000030
1890	1.8796e+02	1.2025	-5.449021	0.000274	2.742904	0.464660	-0.000027
1891	1.8806e+02	1.1917	-5.480794	0.000319	3.193231	0.540948	-0.000032
1892	1.8815e+02	1.1795	-5.506457	0.000258	2.579148	0.436920	-0.000026
1893	1.8825e+02	1.1723	-5.534971	0.000287	2.865720	0.485466	-0.000029
1894	1.8835e+02	1.1613	-5.558596	0.000237	2.374454	0.402243	-0.000024
1895	1.8845e+02	1.1488	-5.587518	0.000291	2.906659	0.492401	-0.000029
1896	1.8855e+02	1.1401	-5.616032	0.000287	2.865720	0.485466	-0.000029
1897	1.8865e+02	1.1311	-5.646175	0.000303	3.029476	0.513207	-0.000030
1898	1.8875e+02	1.1206	-5.673874	0.000278	2.783843	0.471596	-0.000028
1899	1.8885e+02	1.1134	-5.701981	0.000282	2.824782	0.478531	-0.000028
1900	1.8895e+02	1.0999	-5.728866	0.000270	2.701965	0.457725	-0.000027
1901	1.8905e+02	1.0900	-5.753714	0.000250	2.497271	0.423049	-0.000025
1902	1.8915e+02	1.0816	-5.786301	0.000328	3.275109	0.554818	-0.000033
1903	1.8925e+02	1.0720	-5.814000	0.000278	2.783843	0.471596	-0.000028
1904	1.8935e+02	1.0612	-5.836811	0.000229	2.292576	0.388373	-0.000023
1905	1.8945e+02	1.0519	-5.866955	0.000303	3.029476	0.513207	-0.000030
1906	1.8955e+02	1.0408	-5.893025	0.000262	2.620087	0.443855	-0.000026
1907	1.8965e+02	1.0312	-5.926427	0.000336	3.356987	0.568689	-0.000034
1908	1.8975e+02	1.0213	-5.950867	0.000246	2.456332	0.416114	-0.000025
1909	1.8985e+02	1.0102	-5.977752	0.000270	2.701965	0.457725	-0.000027
1910	1.8995e+02	1.0014	-6.007488	0.000299	2.988537	0.506272	-0.000030
1911	1.9004e+02	0.9914	-6.037224	0.000299	2.988537	0.506272	-0.000030
1912	1.9014e+02	0.9836	-6.066145	0.000291	2.906659	0.492401	-0.000029
1913	1.9024e+02	0.9718	-6.094659	0.000287	2.865720	0.485466	-0.000029
1914	1.9034e+02	0.9610	-6.119914	0.000254	2.538210	0.429984	-0.000025
1915	1.9044e+02	0.9530	-6.146392	0.000266	2.661026	0.450790	-0.000027
1916	1.9054e+02	0.9418	-6.174091	0.000278	2.783843	0.471596	-0.000028
1917	1.9064e+02	0.9326	-6.204234	0.000303	3.029476	0.513207	-0.000030
1918	1.9074e+02	0.9232	-6.228268	0.000242	2.415393	0.409179	-0.000024
1919	1.9084e+02	0.9119	-6.254745	0.000266	2.661026	0.450790	-0.000027
1920	1.9094e+02	0.9010	-6.284481	0.000299	2.988537	0.506272	-0.000030
1921	1.9104e+02	0.8919	-6.308107	0.000237	2.374454	0.402243	-0.000024
1922	1.9114e+02	0.8834	-6.336213	0.000282	2.824782	0.478531	-0.000028
1923	1.9124e+02	0.8730	-6.361876	0.000258	2.579148	0.436920	-0.000026
1924	1.9134e+02	0.8591	-6.388353	0.000266	2.661026	0.450790	-0.000027
1925	1.9144e+02	0.8499	-6.411572	0.000233	2.333515	0.395308	-0.000023
1926	1.9154e+02	0.8388	-6.440900	0.000295	2.947598	0.499337	-0.000029
1927	1.9164e+02	0.8309	-6.470229	0.000295	2.947598	0.499337	-0.000029
1928	1.9174e+02	0.8236	-6.497114	0.000270	2.701965	0.457725	-0.000027
1929	1.9184e+02	0.8132	-6.520332	0.000233	2.333515	0.395308	-0.000023
1930	1.9194e+02	0.8035	-6.548846	0.000287	2.865720	0.485466	-0.000029
1931	1.9203e+02	0.7934	-6.575731	0.000270	2.701965	0.457725	-0.000027
1932	1.9213e+02	0.7803	-6.603430	0.000278	2.783843	0.471596	-0.000028
1933	1.9223e+02	0.7702	-6.627871	0.000246	2.456332	0.416114	-0.000025
1934	1.9233e+02	0.7650	-6.653533	0.000258	2.579148	0.436920	-0.000026
1935	1.9243e+02	0.7529	-6.681233	0.000278	2.783843	0.471596	-0.000028
1936	1.9253e+02	0.7417	-6.705266	0.000242	2.415393	0.409179	-0.000024
1937	1.9263e+02	0.7321	-6.732558	0.000274	2.742904	0.464660	-0.000027
1938	1.9273e+02	0.7227	-6.763108	0.000307	3.070415	0.520142	-0.000031
1939	1.9283e+02	0.7139	-6.787142	0.000242	2.415393	0.409179	-0.000024
1940	1.9293e+02	0.7030	-6.818507	0.000315	3.152292	0.534013	-0.000032
1941	1.9303e+02	0.6931	-6.844984	0.000266	2.661026	0.450790	-0.000027
1942	1.9313e+02	0.6852	-6.873498	0.000287	2.865720	0.485466	-0.000029
1943	1.9323e+02	0.6718	-6.903234	0.000299	2.988537	0.506272	-0.000030
1944	1.9333e+02	0.6640	-6.932970	0.000299	2.988537	0.506272	-0.000030
1945	1.9343e+02	0.6532	-6.958225	0.000254	2.538210	0.429984	-0.000025
1946	1.9353e+02	0.6425	-6.985517	0.000274	2.742904	0.464660	-0.000027
1947	1.9363e+02	0.6346	-7.015253	0.000299	2.988537	0.506272	-0.000030
1948	1.9373e+02	0.6245	-7.047026	0.000319	3.193231	0.540948	-0.000032
1949	1.9383e+02	0.6146	-7.067393	0.000205	2.046943	0.346762	-0.000020
1950	1.9393e+02	0.6030	-7.098759	0.000315	3.152292	0.534013	-0.000032
1951	1.9403e+02	0.5920	-7.123607	0.000250	2.497271	0.423049	-0.000025
1952	1.9412e+02	0.5833	-7.154157	0.000307	3.070415	0.520142	-0.000031
1953	1.9422e+02	0.5750	-7.179820	0.000258	2.579148	0.436920	-0.000026
1954	1.9432e+02	0.5631	-7.205890	0.000262	2.620087	0.443855	-0.000026
1955	1.9442e+02	0.5541	-7.238070	0.000323	3.234170	0.547883	-0.000032
1956	1.9452e+02	0.5431	-7.262510	0.000246	2.456332	0.416114	-0.000025
1957	1.9462e+02	0.5315	-7.290210	0.000278	2.783843	0.471596	-0.000028
1958	1.9472e+02	0.5235	-7.319538	0.000295	2.947598	0.499337	-0.000029
1959	1.9482e+02	0.5166	-7.346016	0.000266	2.661026	0.450790	-0.000027
1960	1.9492e+02	0.5020	-7.373308	0.000274	2.742904	0.464660	-0.000027
1961	1.9502e+02	0.4945	-7.402229	0.000291	2.906659	0.492401	-0.000029
1962	1.9512e+02	0.4840	-7.427891	0.000258	2.579148	0.436920	-0.000026
1963	1.9522e+02	0.4742	-7.457220	0.000295	2.947598	0.499337	-0.000029
1964	1.9532e+02	0.4633	-7.488585	0.000315	3.152292	0.534013	-0.000032
1965	1.9542e+02	0.4550	-7.512619	0.000242	2.415393	0.409179	-0.000024
1966	1.9552e+02	0.4439	-7.544391	0.000319	3.193231	0.540948	-0.000032
1967	1.9562e+02	0.4346	-7.573313	0.000291	2.906659	0.492401	-0.000029
1968	1.9572e+02	0.4242	-7.601419	0.000282	2.824782	0.478531	-0.000028
1969	1.9582e+02	0.4152	-7.630341	0.000291	2.906659	0.492401	-0.000029
1970	1.9592e+02	0.4057	-7.656411	0.000262	2.620087	0.443855	-0.000026
1971	1.9601e+02	0.3967	-7.691849	0.000356	3.561681	0.603365	-0.000036
1972	1.9611e+02	0.3811	-7.718734	0.000270	2.701965	0.457725	-0.000027
1973	1.9621e+02	0.3686	-7.750507	0.000319	3.193231	0.540948	-0.000032
1974	1.9631e+02	0.3662	-7.783501	0.000332	3.316048	0.561754	-0.000033
1975	1.9641e+02	0.3564	-7.815682	0.000323	3.234170	0.547883	-0.000032
1976	1.9651e+02	0.3435	-7.842159	0.000266	2.661026	0.450790	-0.000027
1977	1.9661e+02	0.3354	-7.878412	0.000364	3.643559	0.617236	-0.000036
1978	1.9671e+02	0.3246	-7.908963	0.000307	3.070415	0.520142	-0.000031
1979	1.9681e+02	0.3151	-7.937884	0.000291	2.906659	0.492401	-0.000029
1980	1.9691e+02	0.3053	-7.967620	0.000299	2.988537	0.506272	-0.000030
1981	1.9701e+02	0.2947	-7.996949	0.000295	2.947598	0.499337	-0.000029
1982	1.9711e+02	0.2902	-8.029129	0.000323	3.234170	0.547883	-0.000032
1983	1.9721e+02	0.2744	-8.059272	0.000303	3.029476	0.513207	-0.000030
1984	1.9731e+02	0.2620	-8.093489	0.000344	3.438865	0.582559	-0.000034
1985	1.9741e+02	0.2539	-8.122818	0.000295	2.947598	0.499337	-0.000029
1986	1.9751e+02	0.2436	-8.151739	0.000291	2.906659	0.492401	-0.000029
1987	1.9761e+02	0.2379	-8.185141	0.000336	3.356987	0.568689	-0.000034
1988	1.9771e+02	0.2244	-8.215692	0.000307	3.070415	0.520142	-0.000031
1989	1.9781e+02	0.2144	-8.249909	0.000344	3.438865	0.582559	-0.000034
1990	1.9791e+02	0.2049	-8.279237	0.000295	2.947598	0.499337	-0.000029
1991	1.9800e+02	0.1984	-8.315491	0.000364	3.643559	0.617236	-0.000036
1992	1.9810e+02	0.1844	-8.344412	0.000291	2.906659	0.492401	-0.000029
1993	1.9820e+02	0.1756	-8.374148	0.000299	2.988537	0.506272	-0.000030
1994	1.9830e+02	0.1620	-8.408365	0.000344	3.438865	0.582559	-0.000034
1995	1.9840e+02	0.1551	-8.440952	0.000328	3.275109	0.554818	-0.000033
1996	1.9850e+02	0.1472	-8.467837	0.000270	2.701965	0.457725	-0.000027
1997	1.9860e+02	0.1385	-8.500832	0.000332	3.316048	0.561754	-0.000033
1998	1.9870e+02	0.1236	-8.531790	0.000311	3.111354	0.527078	-0.000031
1999	1.9880e+02	0.1168	-8.565192	0.000336	3.356987	0.568689	-0.000034
2000	1.9890e+02	0.1072	-8.595743	0.000307	3.070415	0.520142	-0.000031
2001	1.9900e+02	0.0943	-8.623442	0.000278	2.783843	0.471596	-0.000028
2002	1.9910e+02	0.0858	-8.659695	0.000364	3.643559	0.617236	-0.000036
2003	1.9920e+02	0.0751	-8.693912	0.000344	3.438865	0.582559	-0.000034
2004	1.9930e+02	0.0642	-8.726499	0.000328	3.275109	0.554818	-0.000033
2005	1.9940e+02	0.0537	-8.759087	0.000328	3.275109	0.554818	-0.000033
2006	1.9950e+02	0.0435	-8.790860	0.000319	3.193231	0.540948	-0.000032
2007	1.9960e+02	0.0349	-8.825484	0.000348	3.479803	0.589495	-0.000035
2008	1.9970e+02	0.0298	-8.860923	0.000356	3.561681	0.603365	-0.000036
2009	1.9980e+02	0.0163	-8.895547	0.000348	3.479803	0.589495	-0.000035
2010	1.9990e+02	0.0038	-8.929356	0.000340	3.397926	0.575624	-0.000034
2011	2.0000e+02	-0.0066	-8.961129	0.000340	3.397926	0.575624	-0.000032

PMax (uC/cm2):	2.38e+01
Pr (uC/cm2):	2.92e+00
-Pr (uC/cm2):	0.00e+00
PLoss (uC/cm2):	0.00e+00
C (Max-Eff) (nF):	2.38e-01
K (Eff):	4.03e+02
Vert. (+/-Pr) Shift (uC/cm2):	1.46e+00
Offset (uC/cm2):	1.19e+01

A (Loop Area - uC/cm2·Volts):	-2.91e-02



Hysteresis Version: 5.48.1 - Radiant Technologies, Inc., 1999 - 9/12/24

