»»»»»»»»»»»»»»»»»»»»»»»»»»»»»»»»»»»» Hysteresis ««««««««««««««««««««««««««««««««««««
»»»  Executed Version:	5.48.1
»»»  Vision Version:	5.48.4 (R)
»»»  Vision Compiled:	9/18/24
»»»  Driver Version:	5.47.0
»»»  Windows Version:	Windows 8 or 8.1
»»»  Processor Information:	x86 (AMD or Intel) - 32 Processors
»»»  Tester Name:	PMF21124-494 (100V)
»»»  Tester S/N:	PMF21124-494
»»»  Internal Amp Type:	100V RevK 270k
»»»  Internal Amp S/N:	iAB2-596/K     
»»»  Execution Count:	1
»»»»»»»»»»»»»»»»»»»»»»»»»»»»»»»»»»»»»»»»»»««««««««««««««««««««««««««««««««««««««««««

Stored:	6/26/2025 - 11:52:47
Configured:	06/26/25 10:24:47 AM
Executed:	06/26/25 11:52:15 AM

»»»»»»»»»»»»»»»»»»»»»»»»»»»»»»»»»»» Sample Info ««««««««««««««««««««««««««««««««««««
Sample Name:	
Lot Name:	
Wafer Name:	
Die Row/Column:	0/0
Capacitor Number:	0
Sample Area (cm2):	1.00e-04
Sample Thickness (microns):	1.50e-01

Amplifier:	Internal

»»»»»»»»»»»»»»»»»»»»»»»»»»»»»»»»»»» Tester Info «««««««««««««««««««««««««««««««««««
Tester Name:	PMF21124-494 (100V)
Tester Serial Number:	PMF21124-494
Return Signal Amp. Level:	1.9 [Index: 2]

»»»»»»»»»»»»»»»»»»»»»»»»»»»»»»»» Hysteresis Info ««««««««««««««««««««««««««««««««««
Task Name:	Hyst-562
Volts:	10.00
Field:	666.67 (kV/cm)
DCBias:	0.00
DCField:	0.00 (kV/cm)
Hysteresis Period (ms):	2.00e+02
Preset:	Enabled
Preset Delay (ms):	1.00e+03
Profile:	Standard Monopolar

»»»»»»»»»»»»»»»»»»»»»»»»»»»»»»»»»»»»»» Data «««««««««««««««««««««««««««««««««««««««
Points:	2011

Valid Data

Point	Time (ms)	Drive Voltage	Measured Polarization (uC/cm2)	Capacitance (uF)	Normalized Capacitance (uF/cm2)	Dielectric Constant	Instantaneous Current (mA)
   1	0.0000e+00	-0.0039	-12.600734	0.000299	2.987922	0.506168	0.000030
   2	9.9500e-02	0.0066	-12.570998	0.000299	2.987922	0.506168	0.000030
   3	1.9900e-01	0.0152	-12.538004	0.000332	3.315365	0.561638	0.000033
   4	2.9850e-01	0.0265	-12.502565	0.000356	3.560948	0.603241	0.000036
   5	3.9800e-01	0.0349	-12.469978	0.000327	3.274435	0.554704	0.000033
   6	4.9750e-01	0.0452	-12.433724	0.000364	3.642808	0.617108	0.000036
   7	5.9700e-01	0.0572	-12.399915	0.000340	3.397226	0.575506	0.000034
   8	6.9650e-01	0.0642	-12.364068	0.000360	3.601878	0.610175	0.000036
   9	7.9600e-01	0.0739	-12.322520	0.000417	4.174904	0.707248	0.000042
  10	8.9550e-01	0.0861	-12.288303	0.000344	3.438156	0.582439	0.000034
  11	9.9500e-01	0.0970	-12.250420	0.000381	3.806530	0.644844	0.000038
  12	1.0945e+00	0.1051	-12.217832	0.000327	3.274435	0.554704	0.000033
  13	1.1940e+00	0.1168	-12.178728	0.000393	3.929321	0.665645	0.000039
  14	1.2935e+00	0.1224	-12.148992	0.000299	2.987922	0.506168	0.000030
  15	1.3930e+00	0.1359	-12.112738	0.000364	3.642808	0.617108	0.000036
  16	1.4925e+00	0.1456	-12.073633	0.000393	3.929321	0.665645	0.000039
  17	1.5920e+00	0.1559	-12.039824	0.000340	3.397226	0.575506	0.000034
  18	1.6915e+00	0.1655	-12.005607	0.000344	3.438156	0.582439	0.000034
  19	1.7910e+00	0.1753	-11.970168	0.000356	3.560948	0.603241	0.000036
  20	1.8905e+00	0.1858	-11.933100	0.000372	3.724669	0.630976	0.000037
  21	1.9900e+00	0.1991	-11.898069	0.000352	3.520017	0.596307	0.000035
  22	2.0895e+00	0.2045	-11.866703	0.000315	3.151643	0.533903	0.000032
  23	2.1890e+00	0.2151	-11.832894	0.000340	3.397226	0.575506	0.000034
  24	2.2885e+00	0.2254	-11.795826	0.000372	3.724669	0.630976	0.000037
  25	2.3880e+00	0.2331	-11.764053	0.000319	3.192574	0.540837	0.000032
  26	2.4875e+00	0.2444	-11.732688	0.000315	3.151643	0.533903	0.000032
  27	2.5870e+00	0.2525	-11.700100	0.000327	3.274435	0.554704	0.000033
  28	2.6865e+00	0.2655	-11.669957	0.000303	3.028852	0.513101	0.000030
  29	2.7860e+00	0.2722	-11.634111	0.000360	3.601878	0.610175	0.000036
  30	2.8855e+00	0.2799	-11.605597	0.000287	2.865130	0.485366	0.000029
  31	2.9850e+00	0.2953	-11.574639	0.000311	3.110713	0.526969	0.000031
  32	3.0845e+00	0.3046	-11.538385	0.000364	3.642808	0.617108	0.000036
  33	3.1840e+00	0.3151	-11.504983	0.000336	3.356295	0.568572	0.000034
  34	3.2835e+00	0.3254	-11.475247	0.000299	2.987922	0.506168	0.000030
  35	3.3830e+00	0.3346	-11.442252	0.000332	3.315365	0.561638	0.000033
  36	3.4825e+00	0.3432	-11.409665	0.000327	3.274435	0.554704	0.000033
  37	3.5820e+00	0.3519	-11.379114	0.000307	3.069782	0.520035	0.000031
  38	3.6815e+00	0.3651	-11.348156	0.000311	3.110713	0.526969	0.000031
  39	3.7810e+00	0.3717	-11.317198	0.000311	3.110713	0.526969	0.000031
  40	3.8805e+00	0.3854	-11.282981	0.000344	3.438156	0.582439	0.000034
  41	3.9800e+00	0.3924	-11.249987	0.000332	3.315365	0.561638	0.000033
  42	4.0795e+00	0.4060	-11.219843	0.000303	3.028852	0.513101	0.000030
  43	4.1790e+00	0.4124	-11.189700	0.000303	3.028852	0.513101	0.000030
  44	4.2785e+00	0.4243	-11.157520	0.000323	3.233504	0.547770	0.000032
  45	4.3780e+00	0.4349	-11.126154	0.000315	3.151643	0.533903	0.000032
  46	4.4775e+00	0.4414	-11.096011	0.000303	3.028852	0.513101	0.000030
  47	4.5770e+00	0.4535	-11.064646	0.000315	3.151643	0.533903	0.000032
  48	4.6765e+00	0.4642	-11.031244	0.000336	3.356295	0.568572	0.000034
  49	4.7760e+00	0.4736	-11.000286	0.000311	3.110713	0.526969	0.000031
  50	4.8755e+00	0.4818	-10.970957	0.000295	2.946991	0.499234	0.000029
  51	4.9750e+00	0.4917	-10.940406	0.000307	3.069782	0.520035	0.000031
  52	5.0745e+00	0.5009	-10.911485	0.000291	2.906061	0.492300	0.000029
  53	5.1740e+00	0.5125	-10.876861	0.000348	3.479087	0.589373	0.000035
  54	5.2735e+00	0.5222	-10.850384	0.000266	2.660478	0.450697	0.000027
  55	5.3730e+00	0.5336	-10.817796	0.000327	3.274435	0.554704	0.000033
  56	5.4725e+00	0.5428	-10.783172	0.000348	3.479087	0.589373	0.000035
  57	5.5720e+00	0.5521	-10.752214	0.000311	3.110713	0.526969	0.000031
  58	5.6715e+00	0.5641	-10.722071	0.000303	3.028852	0.513101	0.000030
  59	5.7710e+00	0.5728	-10.689483	0.000327	3.274435	0.554704	0.000033
  60	5.8705e+00	0.5814	-10.662599	0.000270	2.701409	0.457631	0.000027
  61	5.9700e+00	0.5927	-10.630419	0.000323	3.233504	0.547770	0.000032
  62	6.0695e+00	0.6041	-10.600275	0.000303	3.028852	0.513101	0.000030
  63	6.1690e+00	0.6135	-10.568502	0.000319	3.192574	0.540837	0.000032
  64	6.2685e+00	0.6231	-10.539174	0.000295	2.946991	0.499234	0.000029
  65	6.3680e+00	0.6332	-10.507808	0.000315	3.151643	0.533903	0.000032
  66	6.4675e+00	0.6445	-10.480924	0.000270	2.701409	0.457631	0.000027
  67	6.5670e+00	0.6517	-10.450373	0.000307	3.069782	0.520035	0.000031
  68	6.6665e+00	0.6622	-10.419415	0.000311	3.110713	0.526969	0.000031
  69	6.7660e+00	0.6733	-10.390086	0.000295	2.946991	0.499234	0.000029
  70	6.8655e+00	0.6823	-10.359128	0.000311	3.110713	0.526969	0.000031
  71	6.9650e+00	0.6921	-10.327356	0.000319	3.192574	0.540837	0.000032
  72	7.0645e+00	0.7034	-10.297620	0.000299	2.987922	0.506168	0.000030
  73	7.1640e+00	0.7141	-10.264625	0.000332	3.315365	0.561638	0.000033
  74	7.2635e+00	0.7211	-10.235296	0.000295	2.946991	0.499234	0.000029
  75	7.3630e+00	0.7327	-10.205560	0.000299	2.987922	0.506168	0.000030
  76	7.4625e+00	0.7425	-10.176232	0.000295	2.946991	0.499234	0.000029
  77	7.5620e+00	0.7538	-10.146088	0.000303	3.028852	0.513101	0.000030
  78	7.6615e+00	0.7633	-10.112279	0.000340	3.397226	0.575506	0.000034
  79	7.7610e+00	0.7745	-10.084172	0.000282	2.824200	0.478432	0.000028
  80	7.8605e+00	0.7818	-10.056473	0.000278	2.783269	0.471499	0.000028
  81	7.9600e+00	0.7932	-10.026737	0.000299	2.987922	0.506168	0.000030
  82	8.0595e+00	0.8014	-10.001889	0.000250	2.496756	0.422962	0.000025
  83	8.1590e+00	0.8119	-9.972560	0.000295	2.946991	0.499234	0.000029
  84	8.2585e+00	0.8181	-9.944046	0.000287	2.865130	0.485366	0.000029
  85	8.3580e+00	0.8327	-9.915940	0.000282	2.824200	0.478432	0.000028
  86	8.4575e+00	0.8382	-9.885796	0.000303	3.028852	0.513101	0.000030
  87	8.5570e+00	0.8519	-9.854431	0.000315	3.151643	0.533903	0.000032
  88	8.6565e+00	0.8607	-9.827139	0.000274	2.742339	0.464565	0.000027
  89	8.7560e+00	0.8713	-9.795366	0.000319	3.192574	0.540837	0.000032
  90	8.8555e+00	0.8810	-9.768482	0.000270	2.701409	0.457631	0.000027
  91	8.9550e+00	0.8965	-9.738746	0.000299	2.987922	0.506168	0.000030
  92	9.0545e+00	0.9017	-9.716749	0.000221	2.210243	0.374425	0.000022
  93	9.1540e+00	0.9109	-9.690272	0.000266	2.660478	0.450697	0.000027
  94	9.2535e+00	0.9202	-9.660536	0.000299	2.987922	0.506168	0.000030
  95	9.3530e+00	0.9335	-9.632837	0.000278	2.783269	0.471499	0.000028
  96	9.4525e+00	0.9432	-9.608803	0.000241	2.414895	0.409094	0.000024
  97	9.5520e+00	0.9515	-9.579475	0.000295	2.946991	0.499234	0.000029
  98	9.6515e+00	0.9602	-9.554627	0.000250	2.496756	0.422962	0.000025
  99	9.7510e+00	0.9712	-9.524891	0.000299	2.987922	0.506168	0.000030
 100	9.8505e+00	0.9797	-9.493118	0.000319	3.192574	0.540837	0.000032
 101	9.9500e+00	0.9895	-9.463789	0.000295	2.946991	0.499234	0.000029
 102	1.0050e+01	1.0013	-9.436090	0.000278	2.783269	0.471499	0.000028
 103	1.0149e+01	1.0125	-9.405132	0.000311	3.110713	0.526969	0.000031
 104	1.0248e+01	1.0239	-9.376211	0.000291	2.906061	0.492300	0.000029
 105	1.0348e+01	1.0293	-9.348512	0.000278	2.783269	0.471499	0.000028
 106	1.0447e+01	1.0413	-9.315924	0.000327	3.274435	0.554704	0.000033
 107	1.0547e+01	1.0498	-9.287003	0.000291	2.906061	0.492300	0.000029
 108	1.0646e+01	1.0612	-9.260118	0.000270	2.701409	0.457631	0.000027
 109	1.0746e+01	1.0724	-9.230382	0.000299	2.987922	0.506168	0.000030
 110	1.0845e+01	1.0786	-9.198202	0.000323	3.233504	0.547770	0.000032
 111	1.0945e+01	1.0889	-9.164800	0.000336	3.356295	0.568572	0.000034
 112	1.1044e+01	1.1026	-9.137915	0.000270	2.701409	0.457631	0.000027
 113	1.1144e+01	1.1115	-9.106550	0.000315	3.151643	0.533903	0.000032
 114	1.1243e+01	1.1197	-9.075185	0.000315	3.151643	0.533903	0.000032
 115	1.1343e+01	1.1288	-9.047078	0.000282	2.824200	0.478432	0.000028
 116	1.1443e+01	1.1394	-9.015713	0.000315	3.151643	0.533903	0.000032
 117	1.1542e+01	1.1470	-8.981496	0.000344	3.438156	0.582439	0.000034
 118	1.1642e+01	1.1620	-8.953797	0.000278	2.783269	0.471499	0.000028
 119	1.1741e+01	1.1599	-8.920802	-0.000332	-3.315365	-0.561638	0.000033
 120	1.1841e+01	1.1787	-8.887807	0.000332	3.315365	0.561638	0.000033
 121	1.1940e+01	1.1919	-8.858886	0.000291	2.906061	0.492300	0.000029
 122	1.2040e+01	1.2016	-8.826706	0.000323	3.233504	0.547770	0.000032
 123	1.2139e+01	1.2070	-8.796970	0.000299	2.987922	0.506168	0.000030
 124	1.2239e+01	1.2199	-8.760716	0.000364	3.642808	0.617108	0.000036
 125	1.2338e+01	1.2365	-8.733017	0.000278	2.783269	0.471499	0.000028
 126	1.2438e+01	1.2392	-8.701244	0.000319	3.192574	0.540837	0.000032
 127	1.2537e+01	1.2513	-8.673138	0.000282	2.824200	0.478432	0.000028
 128	1.2636e+01	1.2598	-8.642180	0.000311	3.110713	0.526969	0.000031
 129	1.2736e+01	1.2726	-8.607555	0.000348	3.479087	0.589373	0.000035
 130	1.2835e+01	1.2788	-8.581078	0.000266	2.660478	0.450697	0.000027
 131	1.2935e+01	1.2901	-8.546861	0.000344	3.438156	0.582439	0.000034
 132	1.3034e+01	1.2991	-8.514274	0.000327	3.274435	0.554704	0.000033
 133	1.3134e+01	1.3107	-8.483723	0.000307	3.069782	0.520035	0.000031
 134	1.3233e+01	1.3203	-8.449507	0.000344	3.438156	0.582439	0.000034
 135	1.3333e+01	1.3291	-8.419363	0.000303	3.028852	0.513101	0.000030
 136	1.3432e+01	1.3411	-8.385961	0.000336	3.356295	0.568572	0.000034
 137	1.3532e+01	1.3506	-8.355003	0.000311	3.110713	0.526969	0.000031
 138	1.3632e+01	1.3593	-8.319972	0.000352	3.520017	0.596307	0.000035
 139	1.3731e+01	1.3680	-8.291050	0.000291	2.906061	0.492300	0.000029
 140	1.3831e+01	1.3779	-8.258463	0.000327	3.274435	0.554704	0.000033
 141	1.3930e+01	1.3866	-8.225875	0.000327	3.274435	0.554704	0.000033
 142	1.4030e+01	1.3971	-8.195732	0.000303	3.028852	0.513101	0.000030
 143	1.4129e+01	1.4075	-8.167218	0.000287	2.865130	0.485366	0.000029
 144	1.4229e+01	1.4213	-8.134223	0.000332	3.315365	0.561638	0.000033
 145	1.4328e+01	1.4261	-8.099192	0.000352	3.520017	0.596307	0.000035
 146	1.4428e+01	1.4394	-8.066605	0.000327	3.274435	0.554704	0.000033
 147	1.4527e+01	1.4467	-8.033202	0.000336	3.356295	0.568572	0.000034
 148	1.4627e+01	1.4584	-8.000208	0.000332	3.315365	0.561638	0.000033
 149	1.4726e+01	1.4701	-7.968028	0.000323	3.233504	0.547770	0.000032
 150	1.4825e+01	1.4780	-7.936662	0.000315	3.151643	0.533903	0.000032
 151	1.4925e+01	1.4906	-7.902445	0.000344	3.438156	0.582439	0.000034
 152	1.5024e+01	1.4985	-7.873932	0.000287	2.865130	0.485366	0.000029
 153	1.5124e+01	1.5110	-7.837271	0.000368	3.683739	0.624042	0.000037
 154	1.5223e+01	1.5164	-7.809164	0.000282	2.824200	0.478432	0.000028
 155	1.5323e+01	1.5294	-7.776984	0.000323	3.233504	0.547770	0.000032
 156	1.5422e+01	1.5371	-7.743989	0.000332	3.315365	0.561638	0.000033
 157	1.5522e+01	1.5489	-7.715068	0.000291	2.906061	0.492300	0.000029
 158	1.5621e+01	1.5587	-7.679629	0.000356	3.560948	0.603241	0.000036
 159	1.5721e+01	1.5691	-7.651115	0.000287	2.865130	0.485366	0.000029
 160	1.5820e+01	1.5789	-7.615676	0.000356	3.560948	0.603241	0.000036
 161	1.5920e+01	1.5893	-7.583496	0.000323	3.233504	0.547770	0.000032
 162	1.6020e+01	1.5974	-7.552946	0.000307	3.069782	0.520035	0.000031
 163	1.6119e+01	1.6061	-7.519136	0.000340	3.397226	0.575506	0.000034
 164	1.6218e+01	1.6162	-7.486956	0.000323	3.233504	0.547770	0.000032
 165	1.6318e+01	1.6280	-7.449481	0.000377	3.765600	0.637910	0.000038
 166	1.6418e+01	1.6448	-7.420152	0.000295	2.946991	0.499234	0.000029
 167	1.6517e+01	1.6454	-7.386750	0.000336	3.356295	0.568572	0.000034
 168	1.6616e+01	1.6586	-7.351718	0.000352	3.520017	0.596307	0.000035
 169	1.6716e+01	1.6691	-7.318316	0.000336	3.356295	0.568572	0.000034
 170	1.6816e+01	1.6770	-7.288580	0.000299	2.987922	0.506168	0.000030
 171	1.6915e+01	1.6872	-7.249475	0.000393	3.929321	0.665645	0.000039
 172	1.7015e+01	1.6995	-7.218517	0.000311	3.110713	0.526969	0.000031
 173	1.7114e+01	1.7078	-7.187559	0.000311	3.110713	0.526969	0.000031
 174	1.7213e+01	1.7164	-7.154157	0.000336	3.356295	0.568572	0.000034
 175	1.7313e+01	1.7255	-7.119940	0.000344	3.438156	0.582439	0.000034
 176	1.7413e+01	1.7358	-7.077577	0.000426	4.256765	0.721115	0.000043
 177	1.7512e+01	1.7489	-7.046619	0.000311	3.110713	0.526969	0.000031
 178	1.7611e+01	1.7575	-7.011995	0.000348	3.479087	0.589373	0.000035
 179	1.7711e+01	1.7669	-6.974927	0.000372	3.724669	0.630976	0.000037
 180	1.7811e+01	1.7745	-6.940302	0.000348	3.479087	0.589373	0.000035
 181	1.7910e+01	1.7886	-6.906086	0.000344	3.438156	0.582439	0.000034
 182	1.8009e+01	1.7961	-6.873498	0.000327	3.274435	0.554704	0.000033
 183	1.8109e+01	1.8087	-6.841725	0.000319	3.192574	0.540837	0.000032
 184	1.8209e+01	1.8162	-6.809138	0.000327	3.274435	0.554704	0.000033
 185	1.8308e+01	1.8262	-6.773699	0.000356	3.560948	0.603241	0.000036
 186	1.8407e+01	1.8359	-6.743963	0.000299	2.987922	0.506168	0.000030
 187	1.8507e+01	1.8472	-6.710561	0.000336	3.356295	0.568572	0.000034
 188	1.8607e+01	1.8568	-6.678788	0.000319	3.192574	0.540837	0.000032
 189	1.8706e+01	1.8679	-6.644979	0.000340	3.397226	0.575506	0.000034
 190	1.8805e+01	1.8799	-6.609133	0.000360	3.601878	0.610175	0.000036
 191	1.8905e+01	1.8870	-6.575731	0.000336	3.356295	0.568572	0.000034
 192	1.9005e+01	1.8914	-6.545587	0.000303	3.028852	0.513101	0.000030
 193	1.9104e+01	1.9088	-6.514629	0.000311	3.110713	0.526969	0.000031
 194	1.9203e+01	1.9152	-6.485301	0.000295	2.946991	0.499234	0.000029
 195	1.9303e+01	1.9233	-6.455565	0.000299	2.987922	0.506168	0.000030
 196	1.9402e+01	1.9328	-6.421755	0.000340	3.397226	0.575506	0.000034
 197	1.9502e+01	1.9471	-6.388353	0.000336	3.356295	0.568572	0.000034
 198	1.9602e+01	1.9561	-6.360247	0.000282	2.824200	0.478432	0.000028
 199	1.9701e+01	1.9654	-6.333362	0.000270	2.701409	0.457631	0.000027
 200	1.9800e+01	1.9767	-6.305663	0.000278	2.783269	0.471499	0.000028
 201	1.9900e+01	1.9865	-6.271039	0.000348	3.479087	0.589373	0.000035
 202	2.0000e+01	1.9952	-6.240895	0.000303	3.028852	0.513101	0.000030
 203	2.0099e+01	2.0067	-6.211567	0.000295	2.946991	0.499234	0.000029
 204	2.0198e+01	2.0136	-6.183867	0.000278	2.783269	0.471499	0.000028
 205	2.0298e+01	2.0266	-6.155761	0.000282	2.824200	0.478432	0.000028
 206	2.0398e+01	2.0381	-6.121544	0.000344	3.438156	0.582439	0.000034
 207	2.0497e+01	2.0432	-6.090586	0.000311	3.110713	0.526969	0.000031
 208	2.0596e+01	2.0550	-6.064516	0.000262	2.619548	0.443763	0.000026
 209	2.0696e+01	2.0630	-6.037224	0.000274	2.742339	0.464565	0.000027
 210	2.0796e+01	2.0737	-6.003822	0.000336	3.356295	0.568572	0.000034
 211	2.0895e+01	2.0861	-5.973271	0.000307	3.069782	0.520035	0.000031
 212	2.0994e+01	2.0972	-5.948423	0.000250	2.496756	0.422962	0.000025
 213	2.1094e+01	2.1035	-5.914207	0.000344	3.438156	0.582439	0.000034
 214	2.1194e+01	2.1157	-5.881619	0.000327	3.274435	0.554704	0.000033
 215	2.1293e+01	2.1253	-5.858401	0.000233	2.333035	0.395227	0.000023
 216	2.1392e+01	2.1336	-5.828665	0.000299	2.987922	0.506168	0.000030
 217	2.1492e+01	2.1425	-5.798521	0.000303	3.028852	0.513101	0.000030
 218	2.1591e+01	2.1546	-5.772859	0.000258	2.578617	0.436830	0.000026
 219	2.1691e+01	2.1646	-5.745159	0.000278	2.783269	0.471499	0.000028
 220	2.1791e+01	2.1757	-5.716238	0.000291	2.906061	0.492300	0.000029
 221	2.1890e+01	2.1863	-5.687317	0.000291	2.906061	0.492300	0.000029
 222	2.1989e+01	2.1954	-5.657581	0.000299	2.987922	0.506168	0.000030
 223	2.2089e+01	2.2033	-5.628659	0.000291	2.906061	0.492300	0.000029
 224	2.2189e+01	2.2153	-5.600960	0.000278	2.783269	0.471499	0.000028
 225	2.2288e+01	2.2253	-5.568373	0.000327	3.274435	0.554704	0.000033
 226	2.2387e+01	2.2352	-5.541895	0.000266	2.660478	0.450697	0.000027
 227	2.2487e+01	2.2429	-5.514196	0.000278	2.783269	0.471499	0.000028
 228	2.2587e+01	2.2536	-5.484867	0.000295	2.946991	0.499234	0.000029
 229	2.2686e+01	2.2633	-5.454317	0.000307	3.069782	0.520035	0.000031
 230	2.2785e+01	2.2742	-5.429876	0.000246	2.455826	0.416028	0.000025
 231	2.2885e+01	2.2858	-5.401770	0.000282	2.824200	0.478432	0.000028
 232	2.2985e+01	2.2960	-5.372441	0.000295	2.946991	0.499234	0.000029
 233	2.3084e+01	2.3010	-5.341890	0.000307	3.069782	0.520035	0.000031
 234	2.3183e+01	2.3150	-5.317450	0.000246	2.455826	0.416028	0.000025
 235	2.3283e+01	2.3230	-5.289343	0.000282	2.824200	0.478432	0.000028
 236	2.3383e+01	2.3355	-5.257978	0.000315	3.151643	0.533903	0.000032
 237	2.3482e+01	2.3444	-5.231908	0.000262	2.619548	0.443763	0.000026
 238	2.3581e+01	2.3526	-5.203394	0.000287	2.865130	0.485366	0.000029
 239	2.3681e+01	2.3637	-5.176916	0.000266	2.660478	0.450697	0.000027
 240	2.3780e+01	2.3721	-5.145551	0.000315	3.151643	0.533903	0.000032
 241	2.3880e+01	2.3830	-5.117852	0.000278	2.783269	0.471499	0.000028
 242	2.3980e+01	2.3939	-5.088523	0.000295	2.946991	0.499234	0.000029
 243	2.4079e+01	2.4088	-5.060824	0.000278	2.783269	0.471499	0.000028
 244	2.4178e+01	2.4141	-5.035161	0.000258	2.578617	0.436830	0.000026
 245	2.4278e+01	2.4249	-5.009091	0.000262	2.619548	0.443763	0.000026
 246	2.4378e+01	2.4339	-4.979355	0.000299	2.987922	0.506168	0.000030
 247	2.4477e+01	2.4421	-4.952878	0.000266	2.660478	0.450697	0.000027
 248	2.4576e+01	2.4530	-4.925586	0.000274	2.742339	0.464565	0.000027
 249	2.4676e+01	2.4645	-4.903590	0.000221	2.210243	0.374425	0.000022
 250	2.4776e+01	2.4712	-4.874668	0.000291	2.906061	0.492300	0.000029
 251	2.4875e+01	2.4840	-4.849820	0.000250	2.496756	0.422962	0.000025
 252	2.4974e+01	2.4928	-4.824565	0.000254	2.537687	0.429896	0.000025
 253	2.5074e+01	2.5028	-4.796866	0.000278	2.783269	0.471499	0.000028
 254	2.5174e+01	2.5120	-4.770796	0.000262	2.619548	0.443763	0.000026
 255	2.5273e+01	2.5248	-4.745541	0.000254	2.537687	0.429896	0.000025
 256	2.5372e+01	2.5329	-4.714990	0.000307	3.069782	0.520035	0.000031
 257	2.5472e+01	2.5452	-4.695438	0.000196	1.964661	0.332823	0.000020
 258	2.5572e+01	2.5529	-4.664887	0.000307	3.069782	0.520035	0.000031
 259	2.5671e+01	2.5634	-4.642076	0.000229	2.292104	0.388293	0.000023
 260	2.5770e+01	2.5721	-4.620487	0.000217	2.169313	0.367492	0.000022
 261	2.5870e+01	2.5832	-4.594417	0.000262	2.619548	0.443763	0.000026
 262	2.5970e+01	2.5947	-4.569161	0.000254	2.537687	0.429896	0.000025
 263	2.6069e+01	2.6031	-4.544314	0.000250	2.496756	0.422962	0.000025
 264	2.6169e+01	2.6110	-4.524354	0.000201	2.005591	0.339756	0.000020
 265	2.6268e+01	2.6236	-4.495025	0.000295	2.946991	0.499234	0.000029
 266	2.6367e+01	2.6324	-4.467733	0.000274	2.742339	0.464565	0.000027
 267	2.6467e+01	2.6453	-4.442478	0.000254	2.537687	0.429896	0.000025
 268	2.6567e+01	2.6518	-4.414371	0.000282	2.824200	0.478432	0.000028
 269	2.6666e+01	2.6635	-4.387079	0.000274	2.742339	0.464565	0.000027
 270	2.6765e+01	2.6727	-4.359787	0.000274	2.742339	0.464565	0.000027
 271	2.6865e+01	2.6806	-4.336569	0.000233	2.333035	0.395227	0.000023
 272	2.6965e+01	2.6929	-4.308462	0.000282	2.824200	0.478432	0.000028
 273	2.7064e+01	2.7025	-4.283614	0.000250	2.496756	0.422962	0.000025
 274	2.7163e+01	2.7108	-4.259174	0.000246	2.455826	0.416028	0.000025
 275	2.7263e+01	2.7219	-4.229438	0.000299	2.987922	0.506168	0.000030
 276	2.7363e+01	2.7332	-4.198887	0.000307	3.069782	0.520035	0.000031
 277	2.7462e+01	2.7432	-4.175261	0.000237	2.373965	0.402161	0.000024
 278	2.7561e+01	2.7515	-4.148784	0.000266	2.660478	0.450697	0.000027
 279	2.7661e+01	2.7636	-4.118641	0.000303	3.028852	0.513101	0.000030
 280	2.7761e+01	2.7732	-4.087275	0.000315	3.151643	0.533903	0.000032
 281	2.7860e+01	2.7843	-4.063649	0.000237	2.373965	0.402161	0.000024
 282	2.7959e+01	2.7918	-4.035135	0.000287	2.865130	0.485366	0.000029
 283	2.8059e+01	2.8019	-4.010695	0.000246	2.455826	0.416028	0.000025
 284	2.8159e+01	2.8116	-3.978107	0.000327	3.274435	0.554704	0.000033
 285	2.8258e+01	2.8205	-3.947964	0.000303	3.028852	0.513101	0.000030
 286	2.8358e+01	2.8310	-3.922301	0.000258	2.578617	0.436830	0.000026
 287	2.8457e+01	2.8428	-3.892973	0.000295	2.946991	0.499234	0.000029
 288	2.8556e+01	2.8521	-3.864051	0.000291	2.906061	0.492300	0.000029
 289	2.8656e+01	2.8613	-3.836759	0.000274	2.742339	0.464565	0.000027
 290	2.8756e+01	2.8709	-3.804987	0.000319	3.192574	0.540837	0.000032
 291	2.8855e+01	2.8823	-3.779732	0.000254	2.537687	0.429896	0.000025
 292	2.8954e+01	2.8915	-3.749588	0.000303	3.028852	0.513101	0.000030
 293	2.9054e+01	2.9021	-3.721482	0.000282	2.824200	0.478432	0.000028
 294	2.9154e+01	2.9133	-3.688894	0.000327	3.274435	0.554704	0.000033
 295	2.9253e+01	2.9226	-3.666083	0.000229	2.292104	0.388293	0.000023
 296	2.9352e+01	2.9321	-3.634310	0.000319	3.192574	0.540837	0.000032
 297	2.9452e+01	2.9421	-3.608648	0.000258	2.578617	0.436830	0.000026
 298	2.9552e+01	2.9521	-3.577690	0.000311	3.110713	0.526969	0.000031
 299	2.9651e+01	2.9610	-3.548768	0.000291	2.906061	0.492300	0.000029
 300	2.9750e+01	2.9734	-3.522291	0.000266	2.660478	0.450697	0.000027
 301	2.9850e+01	2.9818	-3.490926	0.000315	3.151643	0.533903	0.000032
 302	2.9950e+01	2.9910	-3.462819	0.000282	2.824200	0.478432	0.000028
 303	3.0049e+01	3.0023	-3.434305	0.000287	2.865130	0.485366	0.000029
 304	3.0148e+01	3.0090	-3.400903	0.000336	3.356295	0.568572	0.000034
 305	3.0248e+01	3.0216	-3.374833	0.000262	2.619548	0.443763	0.000026
 306	3.0348e+01	3.0294	-3.344690	0.000303	3.028852	0.513101	0.000030
 307	3.0447e+01	3.0405	-3.313732	0.000311	3.110713	0.526969	0.000031
 308	3.0547e+01	3.0502	-3.286440	0.000274	2.742339	0.464565	0.000027
 309	3.0646e+01	3.0593	-3.257926	0.000287	2.865130	0.485366	0.000029
 310	3.0745e+01	3.0699	-3.229412	0.000287	2.865130	0.485366	0.000029
 311	3.0845e+01	3.0839	-3.198861	0.000307	3.069782	0.520035	0.000031
 312	3.0945e+01	3.0892	-3.169532	0.000295	2.946991	0.499234	0.000029
 313	3.1044e+01	3.1010	-3.138167	0.000315	3.151643	0.533903	0.000032
 314	3.1143e+01	3.1083	-3.113319	0.000250	2.496756	0.422962	0.000025
 315	3.1243e+01	3.1194	-3.082768	0.000307	3.069782	0.520035	0.000031
 316	3.1343e+01	3.1286	-3.051403	0.000315	3.151643	0.533903	0.000032
 317	3.1442e+01	3.1420	-3.022482	0.000291	2.906061	0.492300	0.000029
 318	3.1541e+01	3.1503	-2.994375	0.000282	2.824200	0.478432	0.000028
 319	3.1641e+01	3.1606	-2.966268	0.000282	2.824200	0.478432	0.000028
 320	3.1741e+01	3.1701	-2.934496	0.000319	3.192574	0.540837	0.000032
 321	3.1840e+01	3.1796	-2.904352	0.000303	3.028852	0.513101	0.000030
 322	3.1939e+01	3.1908	-2.880727	0.000237	2.373965	0.402161	0.000024
 323	3.2039e+01	3.2005	-2.846510	0.000344	3.438156	0.582439	0.000034
 324	3.2139e+01	3.2124	-2.819218	0.000274	2.742339	0.464565	0.000027
 325	3.2238e+01	3.2188	-2.793148	0.000262	2.619548	0.443763	0.000026
 326	3.2337e+01	3.2304	-2.762597	0.000307	3.069782	0.520035	0.000031
 327	3.2437e+01	3.2375	-2.732454	0.000303	3.028852	0.513101	0.000030
 328	3.2536e+01	3.2494	-2.701903	0.000307	3.069782	0.520035	0.000031
 329	3.2636e+01	3.2600	-2.670538	0.000315	3.151643	0.533903	0.000032
 330	3.2736e+01	3.2708	-2.644468	0.000262	2.619548	0.443763	0.000026
 331	3.2835e+01	3.2803	-2.613510	0.000311	3.110713	0.526969	0.000031
 332	3.2934e+01	3.2861	-2.584181	0.000295	2.946991	0.499234	0.000029
 333	3.3034e+01	3.2996	-2.550779	0.000336	3.356295	0.568572	0.000034
 334	3.3133e+01	3.3144	-2.523487	0.000274	2.742339	0.464565	0.000027
 335	3.3233e+01	3.3184	-2.490492	0.000332	3.315365	0.561638	0.000033
 336	3.3333e+01	3.3289	-2.461571	0.000291	2.906061	0.492300	0.000029
 337	3.3432e+01	3.3412	-2.430206	0.000315	3.151643	0.533903	0.000032
 338	3.3532e+01	3.3494	-2.400470	0.000299	2.987922	0.506168	0.000030
 339	3.3631e+01	3.3611	-2.371548	0.000291	2.906061	0.492300	0.000029
 340	3.3730e+01	3.3680	-2.339776	0.000319	3.192574	0.540837	0.000032
 341	3.3830e+01	3.3765	-2.308818	0.000311	3.110713	0.526969	0.000031
 342	3.3929e+01	3.3881	-2.278674	0.000303	3.028852	0.513101	0.000030
 343	3.4029e+01	3.4003	-2.248531	0.000303	3.028852	0.513101	0.000030
 344	3.4129e+01	3.4100	-2.213499	0.000352	3.520017	0.596307	0.000035
 345	3.4228e+01	3.4220	-2.180097	0.000336	3.356295	0.568572	0.000034
 346	3.4328e+01	3.4289	-2.149547	0.000307	3.069782	0.520035	0.000031
 347	3.4427e+01	3.4386	-2.115737	0.000340	3.397226	0.575506	0.000034
 348	3.4526e+01	3.4495	-2.086816	0.000291	2.906061	0.492300	0.000029
 349	3.4626e+01	3.4578	-2.059524	0.000274	2.742339	0.464565	0.000027
 350	3.4725e+01	3.4671	-2.024492	0.000352	3.520017	0.596307	0.000035
 351	3.4825e+01	3.4782	-1.994349	0.000303	3.028852	0.513101	0.000030
 352	3.4925e+01	3.4892	-1.965428	0.000291	2.906061	0.492300	0.000029
 353	3.5024e+01	3.4988	-1.936914	0.000287	2.865130	0.485366	0.000029
 354	3.5123e+01	3.5105	-1.906363	0.000307	3.069782	0.520035	0.000031
 355	3.5223e+01	3.5180	-1.874998	0.000315	3.151643	0.533903	0.000032
 356	3.5322e+01	3.5262	-1.847706	0.000274	2.742339	0.464565	0.000027
 357	3.5422e+01	3.5380	-1.817970	0.000299	2.987922	0.506168	0.000030
 358	3.5522e+01	3.5497	-1.789048	0.000291	2.906061	0.492300	0.000029
 359	3.5621e+01	3.5605	-1.755646	0.000336	3.356295	0.568572	0.000034
 360	3.5721e+01	3.5664	-1.728354	0.000274	2.742339	0.464565	0.000027
 361	3.5820e+01	3.5796	-1.701877	0.000266	2.660478	0.450697	0.000027
 362	3.5919e+01	3.5872	-1.673363	0.000287	2.865130	0.485366	0.000029
 363	3.6019e+01	3.5986	-1.645257	0.000282	2.824200	0.478432	0.000028
 364	3.6118e+01	3.6074	-1.617557	0.000278	2.783269	0.471499	0.000028
 365	3.6218e+01	3.6182	-1.592302	0.000254	2.537687	0.429896	0.000025
 366	3.6318e+01	3.6288	-1.560937	0.000315	3.151643	0.533903	0.000032
 367	3.6417e+01	3.6404	-1.536903	0.000241	2.414895	0.409094	0.000024
 368	3.6517e+01	3.6492	-1.512056	0.000250	2.496756	0.422962	0.000025
 369	3.6616e+01	3.6578	-1.483134	0.000291	2.906061	0.492300	0.000029
 370	3.6715e+01	3.6686	-1.455435	0.000278	2.783269	0.471499	0.000028
 371	3.6815e+01	3.6774	-1.430180	0.000254	2.537687	0.429896	0.000025
 372	3.6914e+01	3.6898	-1.403702	0.000266	2.660478	0.450697	0.000027
 373	3.7014e+01	3.6964	-1.376003	0.000278	2.783269	0.471499	0.000028
 374	3.7114e+01	3.7069	-1.349119	0.000270	2.701409	0.457631	0.000027
 375	3.7213e+01	3.7183	-1.324678	0.000246	2.455826	0.416028	0.000025
 376	3.7313e+01	3.7281	-1.296164	0.000287	2.865130	0.485366	0.000029
 377	3.7412e+01	3.7359	-1.270909	0.000254	2.537687	0.429896	0.000025
 378	3.7511e+01	3.7483	-1.243617	0.000274	2.742339	0.464565	0.000027
 379	3.7611e+01	3.7603	-1.216732	0.000270	2.701409	0.457631	0.000027
 380	3.7711e+01	3.7675	-1.191884	0.000250	2.496756	0.422962	0.000025
 381	3.7810e+01	3.7734	-1.166222	0.000258	2.578617	0.436830	0.000026
 382	3.7910e+01	3.7865	-1.136893	0.000295	2.946991	0.499234	0.000029
 383	3.8009e+01	3.7974	-1.114897	0.000221	2.210243	0.374425	0.000022
 384	3.8108e+01	3.8039	-1.089234	0.000258	2.578617	0.436830	0.000026
 385	3.8208e+01	3.8184	-1.065608	0.000237	2.373965	0.402161	0.000024
 386	3.8307e+01	3.8253	-1.036687	0.000291	2.906061	0.492300	0.000029
 387	3.8407e+01	3.8359	-1.011432	0.000254	2.537687	0.429896	0.000025
 388	3.8507e+01	3.8455	-0.983732	0.000278	2.783269	0.471499	0.000028
 389	3.8606e+01	3.8553	-0.959699	0.000241	2.414895	0.409094	0.000024
 390	3.8706e+01	3.8656	-0.932407	0.000274	2.742339	0.464565	0.000027
 391	3.8805e+01	3.8754	-0.909596	0.000229	2.292104	0.388293	0.000023
 392	3.8904e+01	3.8863	-0.882711	0.000270	2.701409	0.457631	0.000027
 393	3.9004e+01	3.8983	-0.858678	0.000241	2.414895	0.409094	0.000024
 394	3.9103e+01	3.9054	-0.833423	0.000254	2.537687	0.429896	0.000025
 395	3.9203e+01	3.9159	-0.805316	0.000282	2.824200	0.478432	0.000028
 396	3.9303e+01	3.9265	-0.781283	0.000241	2.414895	0.409094	0.000024
 397	3.9402e+01	3.9358	-0.755213	0.000262	2.619548	0.443763	0.000026
 398	3.9502e+01	3.9471	-0.734031	0.000213	2.128382	0.360558	0.000021
 399	3.9601e+01	3.9572	-0.706739	0.000274	2.742339	0.464565	0.000027
 400	3.9700e+01	3.9661	-0.679040	0.000278	2.783269	0.471499	0.000028
 401	3.9800e+01	3.9774	-0.655414	0.000237	2.373965	0.402161	0.000024
 402	3.9900e+01	3.9854	-0.631788	0.000237	2.373965	0.402161	0.000024
 403	3.9999e+01	3.9950	-0.606940	0.000250	2.496756	0.422962	0.000025
 404	4.0099e+01	4.0070	-0.581685	0.000254	2.537687	0.429896	0.000025
 405	4.0198e+01	4.0158	-0.557245	0.000246	2.455826	0.416028	0.000025
 406	4.0297e+01	4.0285	-0.531989	0.000254	2.537687	0.429896	0.000025
 407	4.0397e+01	4.0356	-0.511215	0.000209	2.087452	0.353624	0.000021
 408	4.0496e+01	4.0423	-0.482294	0.000291	2.906061	0.492300	0.000029
 409	4.0596e+01	4.0540	-0.455002	0.000274	2.742339	0.464565	0.000027
 410	4.0696e+01	4.0672	-0.430154	0.000250	2.496756	0.422962	0.000025
 411	4.0795e+01	4.0758	-0.404084	0.000262	2.619548	0.443763	0.000026
 412	4.0895e+01	4.0864	-0.380865	0.000233	2.333035	0.395227	0.000023
 413	4.0994e+01	4.0942	-0.356832	0.000241	2.414895	0.409094	0.000024
 414	4.1093e+01	4.1044	-0.332799	0.000241	2.414895	0.409094	0.000024
 415	4.1193e+01	4.1154	-0.310802	0.000221	2.210243	0.374425	0.000022
 416	4.1292e+01	4.1273	-0.288806	0.000221	2.210243	0.374425	0.000022
 417	4.1392e+01	4.1349	-0.264365	0.000246	2.455826	0.416028	0.000025
 418	4.1492e+01	4.1457	-0.241147	0.000233	2.333035	0.395227	0.000023
 419	4.1591e+01	4.1570	-0.220780	0.000205	2.046522	0.346690	0.000020
 420	4.1691e+01	4.1656	-0.196339	0.000246	2.455826	0.416028	0.000025
 421	4.1790e+01	4.1785	-0.171491	0.000250	2.496756	0.422962	0.000025
 422	4.1889e+01	4.1845	-0.148680	0.000229	2.292104	0.388293	0.000023
 423	4.1989e+01	4.1978	-0.125054	0.000237	2.373965	0.402161	0.000024
 424	4.2089e+01	4.2063	-0.106724	0.000184	1.841869	0.312021	0.000018
 425	4.2188e+01	4.2133	-0.081061	0.000258	2.578617	0.436830	0.000026
 426	4.2288e+01	4.2216	-0.054991	0.000262	2.619548	0.443763	0.000026
 427	4.2387e+01	4.2367	-0.037476	0.000176	1.760009	0.298154	0.000018
 428	4.2486e+01	4.2437	-0.015479	0.000221	2.210243	0.374425	0.000022
 429	4.2586e+01	4.2544	0.002444	0.000180	1.800939	0.305087	0.000018
 430	4.2685e+01	4.2635	0.024848	0.000225	2.251174	0.381359	0.000023
 431	4.2785e+01	4.2770	0.048066	0.000233	2.333035	0.395227	0.000023
 432	4.2885e+01	4.2840	0.068434	0.000205	2.046522	0.346690	0.000020
 433	4.2984e+01	4.2956	0.090430	0.000221	2.210243	0.374425	0.000022
 434	4.3084e+01	4.3044	0.115278	0.000250	2.496756	0.422962	0.000025
 435	4.3183e+01	4.3159	0.140126	0.000250	2.496756	0.422962	0.000025
 436	4.3282e+01	4.3231	0.161715	0.000217	2.169313	0.367492	0.000022
 437	4.3382e+01	4.3345	0.184119	0.000225	2.251174	0.381359	0.000023
 438	4.3481e+01	4.3462	0.211411	0.000274	2.742339	0.464565	0.000027
 439	4.3581e+01	4.3566	0.235851	0.000246	2.455826	0.416028	0.000025
 440	4.3681e+01	4.3652	0.254996	0.000192	1.923730	0.325889	0.000019
 441	4.3780e+01	4.3737	0.278622	0.000237	2.373965	0.402161	0.000024
 442	4.3880e+01	4.3838	0.301841	0.000233	2.333035	0.395227	0.000023
 443	4.3979e+01	4.3956	0.327911	0.000262	2.619548	0.443763	0.000026
 444	4.4078e+01	4.4048	0.352351	0.000246	2.455826	0.416028	0.000025
 445	4.4178e+01	4.4151	0.375570	0.000233	2.333035	0.395227	0.000023
 446	4.4278e+01	4.4256	0.398788	0.000233	2.333035	0.395227	0.000023
 447	4.4377e+01	4.4350	0.422822	0.000241	2.414895	0.409094	0.000024
 448	4.4477e+01	4.4430	0.448484	0.000258	2.578617	0.436830	0.000026
 449	4.4576e+01	4.4557	0.474147	0.000258	2.578617	0.436830	0.000026
 450	4.4675e+01	4.4617	0.503068	0.000291	2.906061	0.492300	0.000029
 451	4.4775e+01	4.4753	0.523028	0.000201	2.005591	0.339756	0.000020
 452	4.4874e+01	4.4843	0.549098	0.000262	2.619548	0.443763	0.000026
 453	4.4974e+01	4.4921	0.575168	0.000262	2.619548	0.443763	0.000026
 454	4.5074e+01	4.5025	0.597572	0.000225	2.251174	0.381359	0.000023
 455	4.5173e+01	4.5129	0.624863	0.000274	2.742339	0.464565	0.000027
 456	4.5273e+01	4.5249	0.652155	0.000274	2.742339	0.464565	0.000027
 457	4.5372e+01	4.5335	0.676189	0.000241	2.414895	0.409094	0.000024
 458	4.5471e+01	4.5425	0.701037	0.000250	2.496756	0.422962	0.000025
 459	4.5571e+01	4.5551	0.724255	0.000233	2.333035	0.395227	0.000023
 460	4.5670e+01	4.5628	0.754398	0.000303	3.028852	0.513101	0.000030
 461	4.5770e+01	4.5756	0.776802	0.000225	2.251174	0.381359	0.000023
 462	4.5870e+01	4.5831	0.804094	0.000274	2.742339	0.464565	0.000027
 463	4.5969e+01	4.5937	0.831793	0.000278	2.783269	0.471499	0.000028
 464	4.6069e+01	4.6046	0.855827	0.000241	2.414895	0.409094	0.000024
 465	4.6168e+01	4.6128	0.879045	0.000233	2.333035	0.395227	0.000023
 466	4.6267e+01	4.6247	0.905115	0.000262	2.619548	0.443763	0.000026
 467	4.6367e+01	4.6353	0.930370	0.000254	2.537687	0.429896	0.000025
 468	4.6467e+01	4.6450	0.959699	0.000295	2.946991	0.499234	0.000029
 469	4.6566e+01	4.6546	0.984140	0.000246	2.455826	0.416028	0.000025
 470	4.6666e+01	4.6654	1.009395	0.000254	2.537687	0.429896	0.000025
 471	4.6765e+01	4.6728	1.037501	0.000282	2.824200	0.478432	0.000028
 472	4.6864e+01	4.6819	1.059091	0.000217	2.169313	0.367492	0.000022
 473	4.6964e+01	4.6964	1.085568	0.000266	2.660478	0.450697	0.000027
 474	4.7063e+01	4.7021	1.114897	0.000295	2.946991	0.499234	0.000029
 475	4.7163e+01	4.7123	1.139744	0.000250	2.496756	0.422962	0.000025
 476	4.7263e+01	4.7217	1.168258	0.000287	2.865130	0.485366	0.000029
 477	4.7362e+01	4.7307	1.191477	0.000233	2.333035	0.395227	0.000023
 478	4.7462e+01	4.7398	1.216732	0.000254	2.537687	0.429896	0.000025
 479	4.7561e+01	4.7524	1.240765	0.000241	2.414895	0.409094	0.000024
 480	4.7660e+01	4.7631	1.267650	0.000270	2.701409	0.457631	0.000027
 481	4.7760e+01	4.7717	1.296164	0.000287	2.865130	0.485366	0.000029
 482	4.7859e+01	4.7817	1.322234	0.000262	2.619548	0.443763	0.000026
 483	4.7959e+01	4.7927	1.349933	0.000278	2.783269	0.471499	0.000028
 484	4.8059e+01	4.8023	1.377225	0.000274	2.742339	0.464565	0.000027
 485	4.8158e+01	4.8125	1.402888	0.000258	2.578617	0.436830	0.000026
 486	4.8258e+01	4.8258	1.428958	0.000262	2.619548	0.443763	0.000026
 487	4.8357e+01	4.8313	1.454213	0.000254	2.537687	0.429896	0.000025
 488	4.8456e+01	4.8421	1.481098	0.000270	2.701409	0.457631	0.000027
 489	4.8556e+01	4.8501	1.506760	0.000258	2.578617	0.436830	0.000026
 490	4.8656e+01	4.8637	1.529571	0.000229	2.292104	0.388293	0.000023
 491	4.8755e+01	4.8727	1.555234	0.000258	2.578617	0.436830	0.000026
 492	4.8855e+01	4.8820	1.580489	0.000254	2.537687	0.429896	0.000025
 493	4.8954e+01	4.8898	1.610225	0.000299	2.987922	0.506168	0.000030
 494	4.9053e+01	4.8994	1.636295	0.000262	2.619548	0.443763	0.000026
 495	4.9153e+01	4.9129	1.658699	0.000225	2.251174	0.381359	0.000023
 496	4.9252e+01	4.9242	1.684769	0.000262	2.619548	0.443763	0.000026
 497	4.9352e+01	4.9351	1.712875	0.000282	2.824200	0.478432	0.000028
 498	4.9452e+01	4.9418	1.741389	0.000287	2.865130	0.485366	0.000029
 499	4.9551e+01	4.9538	1.767867	0.000266	2.660478	0.450697	0.000027
 500	4.9651e+01	4.9609	1.794751	0.000270	2.701409	0.457631	0.000027
 501	4.9750e+01	4.9694	1.823265	0.000287	2.865130	0.485366	0.000029
 502	4.9849e+01	4.9828	1.849335	0.000262	2.619548	0.443763	0.000026
 503	4.9949e+01	4.9906	1.880701	0.000315	3.151643	0.533903	0.000032
 504	5.0048e+01	5.0028	1.905956	0.000254	2.537687	0.429896	0.000025
 505	5.0148e+01	5.0111	1.931618	0.000258	2.578617	0.436830	0.000026
 506	5.0248e+01	5.0208	1.958503	0.000270	2.701409	0.457631	0.000027
 507	5.0347e+01	5.0305	1.982536	0.000241	2.414895	0.409094	0.000024
 508	5.0447e+01	5.0401	2.012680	0.000303	3.028852	0.513101	0.000030
 509	5.0546e+01	5.0512	2.044452	0.000319	3.192574	0.540837	0.000032
 510	5.0645e+01	5.0590	2.069300	0.000250	2.496756	0.422962	0.000025
 511	5.0745e+01	5.0709	2.096999	0.000278	2.783269	0.471499	0.000028
 512	5.0844e+01	5.0829	2.129994	0.000332	3.315365	0.561638	0.000033
 513	5.0944e+01	5.0919	2.152805	0.000229	2.292104	0.388293	0.000023
 514	5.1044e+01	5.0996	2.186615	0.000340	3.397226	0.575506	0.000034
 515	5.1143e+01	5.1101	2.214721	0.000282	2.824200	0.478432	0.000028
 516	5.1242e+01	5.1203	2.242828	0.000282	2.824200	0.478432	0.000028
 517	5.1342e+01	5.1293	2.271749	0.000291	2.906061	0.492300	0.000029
 518	5.1441e+01	5.1413	2.296597	0.000250	2.496756	0.422962	0.000025
 519	5.1541e+01	5.1482	2.320223	0.000237	2.373965	0.402161	0.000024
 520	5.1641e+01	5.1619	2.350774	0.000307	3.069782	0.520035	0.000031
 521	5.1740e+01	5.1707	2.375622	0.000250	2.496756	0.422962	0.000025
 522	5.1840e+01	5.1785	2.402506	0.000270	2.701409	0.457631	0.000027
 523	5.1939e+01	5.1937	2.429391	0.000270	2.701409	0.457631	0.000027
 524	5.2038e+01	5.2002	2.457498	0.000282	2.824200	0.478432	0.000028
 525	5.2138e+01	5.2087	2.483975	0.000266	2.660478	0.450697	0.000027
 526	5.2237e+01	5.2227	2.510859	0.000270	2.701409	0.457631	0.000027
 527	5.2337e+01	5.2272	2.537744	0.000270	2.701409	0.457631	0.000027
 528	5.2437e+01	5.2386	2.561777	0.000241	2.414895	0.409094	0.000024
 529	5.2536e+01	5.2508	2.586625	0.000250	2.496756	0.422962	0.000025
 530	5.2636e+01	5.2590	2.609436	0.000229	2.292104	0.388293	0.000023
 531	5.2735e+01	5.2697	2.635506	0.000262	2.619548	0.443763	0.000026
 532	5.2834e+01	5.2795	2.658317	0.000229	2.292104	0.388293	0.000023
 533	5.2934e+01	5.2891	2.687239	0.000291	2.906061	0.492300	0.000029
 534	5.3033e+01	5.3004	2.706384	0.000192	1.923730	0.325889	0.000019
 535	5.3133e+01	5.3083	2.730417	0.000241	2.414895	0.409094	0.000024
 536	5.3233e+01	5.3197	2.756080	0.000258	2.578617	0.436830	0.000026
 537	5.3332e+01	5.3298	2.782964	0.000270	2.701409	0.457631	0.000027
 538	5.3431e+01	5.3379	2.805775	0.000229	2.292104	0.388293	0.000023
 539	5.3531e+01	5.3489	2.828179	0.000225	2.251174	0.381359	0.000023
 540	5.3630e+01	5.3580	2.853027	0.000250	2.496756	0.422962	0.000025
 541	5.3730e+01	5.3693	2.875838	0.000229	2.292104	0.388293	0.000023
 542	5.3830e+01	5.3786	2.899464	0.000237	2.373965	0.402161	0.000024
 543	5.3929e+01	5.3875	2.920239	0.000209	2.087452	0.353624	0.000021
 544	5.4029e+01	5.3986	2.944679	0.000246	2.455826	0.416028	0.000025
 545	5.4128e+01	5.4079	2.969527	0.000250	2.496756	0.422962	0.000025
 546	5.4227e+01	5.4188	2.989080	0.000196	1.964661	0.332823	0.000020
 547	5.4327e+01	5.4267	3.015964	0.000270	2.701409	0.457631	0.000027
 548	5.4426e+01	5.4385	3.039590	0.000237	2.373965	0.402161	0.000024
 549	5.4526e+01	5.4479	3.060365	0.000209	2.087452	0.353624	0.000021
 550	5.4626e+01	5.4568	3.086027	0.000258	2.578617	0.436830	0.000026
 551	5.4725e+01	5.4678	3.109653	0.000237	2.373965	0.402161	0.000024
 552	5.4825e+01	5.4778	3.131650	0.000221	2.210243	0.374425	0.000022
 553	5.4924e+01	5.4893	3.151609	0.000201	2.005591	0.339756	0.000020
 554	5.5023e+01	5.5010	3.177272	0.000258	2.578617	0.436830	0.000026
 555	5.5123e+01	5.5109	3.196824	0.000196	1.964661	0.332823	0.000020
 556	5.5222e+01	5.5186	3.222080	0.000254	2.537687	0.429896	0.000025
 557	5.5322e+01	5.5297	3.244483	0.000225	2.251174	0.381359	0.000023
 558	5.5422e+01	5.5368	3.267702	0.000233	2.333035	0.395227	0.000023
 559	5.5521e+01	5.5489	3.292957	0.000254	2.537687	0.429896	0.000025
 560	5.5620e+01	5.5602	3.310880	0.000180	1.800939	0.305087	0.000018
 561	5.5720e+01	5.5679	3.334506	0.000237	2.373965	0.402161	0.000024
 562	5.5819e+01	5.5776	3.358947	0.000246	2.455826	0.416028	0.000025
 563	5.5919e+01	5.5872	3.382980	0.000241	2.414895	0.409094	0.000024
 564	5.6019e+01	5.5984	3.401718	0.000188	1.882800	0.318955	0.000019
 565	5.6118e+01	5.6081	3.421270	0.000196	1.964661	0.332823	0.000020
 566	5.6218e+01	5.6205	3.446118	0.000250	2.496756	0.422962	0.000025
 567	5.6317e+01	5.6287	3.466892	0.000209	2.087452	0.353624	0.000021
 568	5.6416e+01	5.6370	3.490518	0.000237	2.373965	0.402161	0.000024
 569	5.6516e+01	5.6486	3.512515	0.000221	2.210243	0.374425	0.000022
 570	5.6615e+01	5.6582	3.532475	0.000201	2.005591	0.339756	0.000020
 571	5.6715e+01	5.6672	3.555693	0.000233	2.333035	0.395227	0.000023
 572	5.6815e+01	5.6799	3.576060	0.000205	2.046522	0.346690	0.000020
 573	5.6914e+01	5.6852	3.603352	0.000274	2.742339	0.464565	0.000027
 574	5.7014e+01	5.6958	3.624534	0.000213	2.128382	0.360558	0.000021
 575	5.7113e+01	5.7076	3.646531	0.000221	2.210243	0.374425	0.000022
 576	5.7212e+01	5.7156	3.670156	0.000237	2.373965	0.402161	0.000024
 577	5.7312e+01	5.7305	3.689709	0.000196	1.964661	0.332823	0.000020
 578	5.7411e+01	5.7363	3.712113	0.000225	2.251174	0.381359	0.000023
 579	5.7511e+01	5.7464	3.734517	0.000225	2.251174	0.381359	0.000023
 580	5.7611e+01	5.7583	3.752032	0.000176	1.760009	0.298154	0.000018
 581	5.7710e+01	5.7676	3.775251	0.000233	2.333035	0.395227	0.000023
 582	5.7809e+01	5.7784	3.793989	0.000188	1.882800	0.318955	0.000019
 583	5.7909e+01	5.7858	3.813541	0.000196	1.964661	0.332823	0.000020
 584	5.8008e+01	5.7966	3.838796	0.000254	2.537687	0.429896	0.000025
 585	5.8108e+01	5.8065	3.856719	0.000180	1.800939	0.305087	0.000018
 586	5.8208e+01	5.8196	3.876272	0.000196	1.964661	0.332823	0.000020
 587	5.8307e+01	5.8257	3.897046	0.000209	2.087452	0.353624	0.000021
 588	5.8407e+01	5.8369	3.917006	0.000201	2.005591	0.339756	0.000020
 589	5.8506e+01	5.8472	3.937373	0.000205	2.046522	0.346690	0.000020
 590	5.8605e+01	5.8553	3.957740	0.000205	2.046522	0.346690	0.000020
 591	5.8705e+01	5.8672	3.978922	0.000213	2.128382	0.360558	0.000021
 592	5.8804e+01	5.8822	4.000919	0.000221	2.210243	0.374425	0.000022
 593	5.8904e+01	5.8887	4.022100	0.000213	2.128382	0.360558	0.000021
 594	5.9004e+01	5.8970	4.035950	0.000139	1.391635	0.235749	0.000014
 595	5.9103e+01	5.9061	4.053466	0.000176	1.760009	0.298154	0.000018
 596	5.9203e+01	5.9158	4.072611	0.000192	1.923730	0.325889	0.000019
 597	5.9302e+01	5.9265	4.088905	0.000164	1.637217	0.277352	0.000016
 598	5.9401e+01	5.9348	4.112938	0.000241	2.414895	0.409094	0.000024
 599	5.9501e+01	5.9453	4.127602	0.000147	1.473496	0.249617	0.000015
 600	5.9600e+01	5.9556	4.147155	0.000196	1.964661	0.332823	0.000020
 601	5.9700e+01	5.9679	4.169558	0.000225	2.251174	0.381359	0.000023
 602	5.9800e+01	5.9793	4.188296	0.000188	1.882800	0.318955	0.000019
 603	5.9899e+01	5.9868	4.211107	0.000229	2.292104	0.388293	0.000023
 604	5.9998e+01	5.9980	4.227808	0.000168	1.678148	0.284286	0.000017
 605	6.0098e+01	6.0059	4.250212	0.000225	2.251174	0.381359	0.000023
 606	6.0197e+01	6.0155	4.269765	0.000196	1.964661	0.332823	0.000020
 607	6.0297e+01	6.0287	4.289724	0.000201	2.005591	0.339756	0.000020
 608	6.0397e+01	6.0348	4.311721	0.000221	2.210243	0.374425	0.000022
 609	6.0496e+01	6.0474	4.332088	0.000205	2.046522	0.346690	0.000020
 610	6.0596e+01	6.0567	4.355307	0.000233	2.333035	0.395227	0.000023
 611	6.0695e+01	6.0667	4.371600	0.000164	1.637217	0.277352	0.000016
 612	6.0794e+01	6.0748	4.396856	0.000254	2.537687	0.429896	0.000025
 613	6.0894e+01	6.0841	4.420481	0.000237	2.373965	0.402161	0.000024
 614	6.0993e+01	6.0958	4.442478	0.000221	2.210243	0.374425	0.000022
 615	6.1093e+01	6.1052	4.462438	0.000201	2.005591	0.339756	0.000020
 616	6.1193e+01	6.1166	4.483619	0.000213	2.128382	0.360558	0.000021
 617	6.1292e+01	6.1257	4.508060	0.000246	2.455826	0.416028	0.000025
 618	6.1392e+01	6.1351	4.531279	0.000233	2.333035	0.395227	0.000023
 619	6.1491e+01	6.1462	4.552868	0.000217	2.169313	0.367492	0.000022
 620	6.1590e+01	6.1523	4.572827	0.000201	2.005591	0.339756	0.000020
 621	6.1690e+01	6.1658	4.598083	0.000254	2.537687	0.429896	0.000025
 622	6.1789e+01	6.1771	4.622116	0.000241	2.414895	0.409094	0.000024
 623	6.1889e+01	6.1846	4.638817	0.000168	1.678148	0.284286	0.000017
 624	6.1989e+01	6.1932	4.664887	0.000262	2.619548	0.443763	0.000026
 625	6.2088e+01	6.2045	4.687291	0.000225	2.251174	0.381359	0.000023
 626	6.2188e+01	6.2130	4.708065	0.000209	2.087452	0.353624	0.000021
 627	6.2287e+01	6.2237	4.735765	0.000278	2.783269	0.471499	0.000028
 628	6.2386e+01	6.2385	4.754502	0.000188	1.882800	0.318955	0.000019
 629	6.2486e+01	6.2480	4.777721	0.000233	2.333035	0.395227	0.000023
 630	6.2586e+01	6.2576	4.799310	0.000217	2.169313	0.367492	0.000022
 631	6.2685e+01	6.2659	4.824973	0.000258	2.578617	0.436830	0.000026
 632	6.2785e+01	6.2761	4.843303	0.000184	1.841869	0.312021	0.000018
 633	6.2884e+01	6.2861	4.868966	0.000258	2.578617	0.436830	0.000026
 634	6.2983e+01	6.2955	4.890962	0.000221	2.210243	0.374425	0.000022
 635	6.3083e+01	6.3039	4.914181	0.000233	2.333035	0.395227	0.000023
 636	6.3182e+01	6.3113	4.938214	0.000241	2.414895	0.409094	0.000024
 637	6.3282e+01	6.3237	4.959803	0.000217	2.169313	0.367492	0.000022
 638	6.3382e+01	6.3342	4.983429	0.000237	2.373965	0.402161	0.000024
 639	6.3481e+01	6.3464	5.006647	0.000233	2.333035	0.395227	0.000023
 640	6.3581e+01	6.3555	5.031903	0.000254	2.537687	0.429896	0.000025
 641	6.3680e+01	6.3641	5.054306	0.000225	2.251174	0.381359	0.000023
 642	6.3779e+01	6.3714	5.076710	0.000225	2.251174	0.381359	0.000023
 643	6.3879e+01	6.3860	5.099929	0.000233	2.333035	0.395227	0.000023
 644	6.3978e+01	6.3949	5.123147	0.000233	2.333035	0.395227	0.000023
 645	6.4078e+01	6.4046	5.150032	0.000270	2.701409	0.457631	0.000027
 646	6.4177e+01	6.4160	5.170806	0.000209	2.087452	0.353624	0.000021
 647	6.4277e+01	6.4242	5.194432	0.000237	2.373965	0.402161	0.000024
 648	6.4376e+01	6.4333	5.218465	0.000241	2.414895	0.409094	0.000024
 649	6.4476e+01	6.4416	5.244943	0.000266	2.660478	0.450697	0.000027
 650	6.4576e+01	6.4545	5.269383	0.000246	2.455826	0.416028	0.000025
 651	6.4675e+01	6.4623	5.288936	0.000196	1.964661	0.332823	0.000020
 652	6.4775e+01	6.4722	5.313784	0.000250	2.496756	0.422962	0.000025
 653	6.4874e+01	6.4852	5.335373	0.000217	2.169313	0.367492	0.000022
 654	6.4974e+01	6.4895	5.360628	0.000254	2.537687	0.429896	0.000025
 655	6.5073e+01	6.5049	5.384254	0.000237	2.373965	0.402161	0.000024
 656	6.5172e+01	6.5131	5.408287	0.000241	2.414895	0.409094	0.000024
 657	6.5272e+01	6.5211	5.428654	0.000205	2.046522	0.346690	0.000020
 658	6.5371e+01	6.5328	5.450243	0.000217	2.169313	0.367492	0.000022
 659	6.5471e+01	6.5455	5.474277	0.000241	2.414895	0.409094	0.000024
 660	6.5570e+01	6.5533	5.502791	0.000287	2.865130	0.485366	0.000029
 661	6.5670e+01	6.5662	5.523158	0.000205	2.046522	0.346690	0.000020
 662	6.5769e+01	6.5749	5.545969	0.000229	2.292104	0.388293	0.000023
 663	6.5869e+01	6.5810	5.568780	0.000229	2.292104	0.388293	0.000023
 664	6.5969e+01	6.5918	5.594850	0.000262	2.619548	0.443763	0.000026
 665	6.6068e+01	6.6039	5.620105	0.000254	2.537687	0.429896	0.000025
 666	6.6168e+01	6.6131	5.641287	0.000213	2.128382	0.360558	0.000021
 667	6.6267e+01	6.6246	5.664913	0.000237	2.373965	0.402161	0.000024
 668	6.6367e+01	6.6328	5.691797	0.000270	2.701409	0.457631	0.000027
 669	6.6466e+01	6.6452	5.717460	0.000258	2.578617	0.436830	0.000026
 670	6.6566e+01	6.6525	5.737420	0.000201	2.005591	0.339756	0.000020
 671	6.6665e+01	6.6644	5.766341	0.000291	2.906061	0.492300	0.000029
 672	6.6764e+01	6.6715	5.794448	0.000282	2.824200	0.478432	0.000028
 673	6.6864e+01	6.6830	5.814815	0.000205	2.046522	0.346690	0.000020
 674	6.6963e+01	6.6920	5.841292	0.000266	2.660478	0.450697	0.000027
 675	6.7063e+01	6.7025	5.864918	0.000237	2.373965	0.402161	0.000024
 676	6.7162e+01	6.7128	5.887322	0.000225	2.251174	0.381359	0.000023
 677	6.7262e+01	6.7233	5.912170	0.000250	2.496756	0.422962	0.000025
 678	6.7362e+01	6.7315	5.940684	0.000287	2.865130	0.485366	0.000029
 679	6.7461e+01	6.7437	5.967161	0.000266	2.660478	0.450697	0.000027
 680	6.7561e+01	6.7512	5.994860	0.000278	2.783269	0.471499	0.000028
 681	6.7660e+01	6.7604	6.023782	0.000291	2.906061	0.492300	0.000029
 682	6.7760e+01	6.7712	6.051888	0.000282	2.824200	0.478432	0.000028
 683	6.7859e+01	6.7813	6.073885	0.000221	2.210243	0.374425	0.000022
 684	6.7959e+01	6.7922	6.099955	0.000262	2.619548	0.443763	0.000026
 685	6.8058e+01	6.8018	6.123173	0.000233	2.333035	0.395227	0.000023
 686	6.8157e+01	6.8108	6.146799	0.000237	2.373965	0.402161	0.000024
 687	6.8257e+01	6.8229	6.174498	0.000278	2.783269	0.471499	0.000028
 688	6.8356e+01	6.8311	6.191607	0.000172	1.719078	0.291220	0.000017
 689	6.8456e+01	6.8408	6.218899	0.000274	2.742339	0.464565	0.000027
 690	6.8555e+01	6.8532	6.244561	0.000258	2.578617	0.436830	0.000026
 691	6.8655e+01	6.8630	6.268595	0.000241	2.414895	0.409094	0.000024
 692	6.8754e+01	6.8703	6.293035	0.000246	2.455826	0.416028	0.000025
 693	6.8854e+01	6.8810	6.316661	0.000237	2.373965	0.402161	0.000024
 694	6.8954e+01	6.8879	6.339879	0.000233	2.333035	0.395227	0.000023
 695	6.9053e+01	6.9029	6.365949	0.000262	2.619548	0.443763	0.000026
 696	6.9153e+01	6.9106	6.386724	0.000209	2.087452	0.353624	0.000021
 697	6.9252e+01	6.9190	6.411572	0.000250	2.496756	0.422962	0.000025
 698	6.9352e+01	6.9324	6.429495	0.000180	1.800939	0.305087	0.000018
 699	6.9451e+01	6.9396	6.451899	0.000225	2.251174	0.381359	0.000023
 700	6.9550e+01	6.9534	6.474710	0.000229	2.292104	0.388293	0.000023
 701	6.9650e+01	6.9629	6.494262	0.000196	1.964661	0.332823	0.000020
 702	6.9749e+01	6.9742	6.521147	0.000270	2.701409	0.457631	0.000027
 703	6.9849e+01	6.9817	6.538255	0.000172	1.719078	0.291220	0.000017
 704	6.9948e+01	6.9930	6.563103	0.000250	2.496756	0.422962	0.000025
 705	7.0048e+01	7.0025	6.583063	0.000201	2.005591	0.339756	0.000020
 706	7.0147e+01	7.0100	6.604245	0.000213	2.128382	0.360558	0.000021
 707	7.0247e+01	7.0216	6.625834	0.000217	2.169313	0.367492	0.000022
 708	7.0347e+01	7.0290	6.642942	0.000172	1.719078	0.291220	0.000017
 709	7.0446e+01	7.0412	6.665346	0.000225	2.251174	0.381359	0.000023
 710	7.0546e+01	7.0501	6.688972	0.000237	2.373965	0.402161	0.000024
 711	7.0645e+01	7.0617	6.708524	0.000196	1.964661	0.332823	0.000020
 712	7.0745e+01	7.0715	6.732558	0.000241	2.414895	0.409094	0.000024
 713	7.0844e+01	7.0815	6.751295	0.000188	1.882800	0.318955	0.000019
 714	7.0944e+01	7.0909	6.772070	0.000209	2.087452	0.353624	0.000021
 715	7.1043e+01	7.1020	6.790400	0.000184	1.841869	0.312021	0.000018
 716	7.1142e+01	7.1112	6.816878	0.000266	2.660478	0.450697	0.000027
 717	7.1242e+01	7.1188	6.834801	0.000180	1.800939	0.305087	0.000018
 718	7.1341e+01	7.1289	6.857205	0.000225	2.251174	0.381359	0.000023
 719	7.1441e+01	7.1396	6.877572	0.000205	2.046522	0.346690	0.000020
 720	7.1540e+01	7.1529	6.895902	0.000184	1.841869	0.312021	0.000018
 721	7.1640e+01	7.1590	6.917491	0.000217	2.169313	0.367492	0.000022
 722	7.1740e+01	7.1707	6.936229	0.000188	1.882800	0.318955	0.000019
 723	7.1839e+01	7.1784	6.957411	0.000213	2.128382	0.360558	0.000021
 724	7.1939e+01	7.1902	6.976963	0.000196	1.964661	0.332823	0.000020
 725	7.2038e+01	7.1989	6.998960	0.000221	2.210243	0.374425	0.000022
 726	7.2138e+01	7.2086	7.018512	0.000196	1.964661	0.332823	0.000020
 727	7.2237e+01	7.2202	7.040509	0.000221	2.210243	0.374425	0.000022
 728	7.2337e+01	7.2282	7.056395	0.000160	1.596287	0.270418	0.000016
 729	7.2436e+01	7.2398	7.076355	0.000201	2.005591	0.339756	0.000020
 730	7.2535e+01	7.2502	7.097944	0.000217	2.169313	0.367492	0.000022
 731	7.2635e+01	7.2578	7.118311	0.000205	2.046522	0.346690	0.000020
 732	7.2734e+01	7.2710	7.139086	0.000209	2.087452	0.353624	0.000021
 733	7.2834e+01	7.2804	7.156601	0.000176	1.760009	0.298154	0.000018
 734	7.2933e+01	7.2897	7.177376	0.000209	2.087452	0.353624	0.000021
 735	7.3033e+01	7.2977	7.197743	0.000205	2.046522	0.346690	0.000020
 736	7.3132e+01	7.3074	7.216888	0.000192	1.923730	0.325889	0.000019
 737	7.3232e+01	7.3189	7.236848	0.000201	2.005591	0.339756	0.000020
 738	7.3332e+01	7.3282	7.256400	0.000196	1.964661	0.332823	0.000020
 739	7.3431e+01	7.3370	7.275138	0.000188	1.882800	0.318955	0.000019
 740	7.3531e+01	7.3472	7.292654	0.000176	1.760009	0.298154	0.000018
 741	7.3630e+01	7.3577	7.313836	0.000213	2.128382	0.360558	0.000021
 742	7.3730e+01	7.3699	7.335017	0.000213	2.128382	0.360558	0.000021
 743	7.3829e+01	7.3757	7.356199	0.000213	2.128382	0.360558	0.000021
 744	7.3928e+01	7.3926	7.375752	0.000196	1.964661	0.332823	0.000020
 745	7.4028e+01	7.3980	7.396933	0.000213	2.128382	0.360558	0.000021
 746	7.4127e+01	7.4107	7.416078	0.000192	1.923730	0.325889	0.000019
 747	7.4227e+01	7.4197	7.436853	0.000209	2.087452	0.353624	0.000021
 748	7.4326e+01	7.4287	7.455183	0.000184	1.841869	0.312021	0.000018
 749	7.4426e+01	7.4358	7.473514	0.000184	1.841869	0.312021	0.000018
 750	7.4525e+01	7.4484	7.491844	0.000184	1.841869	0.312021	0.000018
 751	7.4625e+01	7.4589	7.508953	0.000172	1.719078	0.291220	0.000017
 752	7.4725e+01	7.4691	7.526468	0.000176	1.760009	0.298154	0.000018
 753	7.4824e+01	7.4783	7.545206	0.000188	1.882800	0.318955	0.000019
 754	7.4924e+01	7.4892	7.562314	0.000172	1.719078	0.291220	0.000017
 755	7.5023e+01	7.4987	7.581460	0.000192	1.923730	0.325889	0.000019
 756	7.5123e+01	7.5071	7.597346	0.000160	1.596287	0.270418	0.000016
 757	7.5222e+01	7.5188	7.614862	0.000176	1.760009	0.298154	0.000018
 758	7.5322e+01	7.5263	7.630748	0.000160	1.596287	0.270418	0.000016
 759	7.5421e+01	7.5378	7.652337	0.000217	2.169313	0.367492	0.000022
 760	7.5520e+01	7.5488	7.668631	0.000164	1.637217	0.277352	0.000016
 761	7.5620e+01	7.5581	7.686554	0.000180	1.800939	0.305087	0.000018
 762	7.5719e+01	7.5699	7.704884	0.000184	1.841869	0.312021	0.000018
 763	7.5819e+01	7.5736	7.721178	0.000164	1.637217	0.277352	0.000016
 764	7.5918e+01	7.5881	7.732991	0.000119	1.186983	0.201080	0.000012
 765	7.6018e+01	7.5977	7.750507	0.000176	1.760009	0.298154	0.000018
 766	7.6118e+01	7.6074	7.765578	0.000151	1.514426	0.256551	0.000015
 767	7.6217e+01	7.6191	7.783909	0.000184	1.841869	0.312021	0.000018
 768	7.6317e+01	7.6278	7.801832	0.000180	1.800939	0.305087	0.000018
 769	7.6416e+01	7.6357	7.816089	0.000143	1.432565	0.242683	0.000014
 770	7.6516e+01	7.6461	7.838493	0.000225	2.251174	0.381359	0.000023
 771	7.6615e+01	7.6569	7.857230	0.000188	1.882800	0.318955	0.000019
 772	7.6715e+01	7.6660	7.877598	0.000205	2.046522	0.346690	0.000020
 773	7.6814e+01	7.6778	7.892262	0.000147	1.473496	0.249617	0.000015
 774	7.6913e+01	7.6868	7.908556	0.000164	1.637217	0.277352	0.000016
 775	7.7013e+01	7.6974	7.928108	0.000196	1.964661	0.332823	0.000020
 776	7.7112e+01	7.7057	7.947253	0.000192	1.923730	0.325889	0.000019
 777	7.7212e+01	7.7166	7.967620	0.000205	2.046522	0.346690	0.000020
 778	7.7311e+01	7.7262	7.985543	0.000180	1.800939	0.305087	0.000018
 779	7.7411e+01	7.7349	8.005503	0.000201	2.005591	0.339756	0.000020
 780	7.7510e+01	7.7477	8.022612	0.000172	1.719078	0.291220	0.000017
 781	7.7610e+01	7.7588	8.048274	0.000258	2.578617	0.436830	0.000026
 782	7.7710e+01	7.7673	8.067419	0.000192	1.923730	0.325889	0.000019
 783	7.7809e+01	7.7766	8.085342	0.000180	1.800939	0.305087	0.000018
 784	7.7909e+01	7.7862	8.105302	0.000201	2.005591	0.339756	0.000020
 785	7.8008e+01	7.7951	8.127299	0.000221	2.210243	0.374425	0.000022
 786	7.8108e+01	7.8103	8.144000	0.000168	1.678148	0.284286	0.000017
 787	7.8207e+01	7.8174	8.164774	0.000209	2.087452	0.353624	0.000021
 788	7.8306e+01	7.8252	8.185141	0.000205	2.046522	0.346690	0.000020
 789	7.8406e+01	7.8353	8.205101	0.000201	2.005591	0.339756	0.000020
 790	7.8505e+01	7.8456	8.223024	0.000180	1.800939	0.305087	0.000018
 791	7.8605e+01	7.8550	8.247057	0.000241	2.414895	0.409094	0.000024
 792	7.8704e+01	7.8662	8.269054	0.000221	2.210243	0.374425	0.000022
 793	7.8804e+01	7.8769	8.289014	0.000201	2.005591	0.339756	0.000020
 794	7.8903e+01	7.8857	8.308159	0.000192	1.923730	0.325889	0.000019
 795	7.9003e+01	7.8948	8.326896	0.000188	1.882800	0.318955	0.000019
 796	7.9103e+01	7.9044	8.349300	0.000225	2.251174	0.381359	0.000023
 797	7.9202e+01	7.9166	8.370075	0.000209	2.087452	0.353624	0.000021
 798	7.9302e+01	7.9278	8.389220	0.000192	1.923730	0.325889	0.000019
 799	7.9401e+01	7.9386	8.408772	0.000196	1.964661	0.332823	0.000020
 800	7.9501e+01	7.9465	8.430769	0.000221	2.210243	0.374425	0.000022
 801	7.9600e+01	7.9552	8.450729	0.000201	2.005591	0.339756	0.000020
 802	7.9700e+01	7.9649	8.474762	0.000241	2.414895	0.409094	0.000024
 803	7.9799e+01	7.9762	8.498388	0.000237	2.373965	0.402161	0.000024
 804	7.9898e+01	7.9837	8.517533	0.000192	1.923730	0.325889	0.000019
 805	7.9998e+01	7.9935	8.537493	0.000201	2.005591	0.339756	0.000020
 806	8.0097e+01	8.0056	8.563970	0.000266	2.660478	0.450697	0.000027
 807	8.0197e+01	8.0145	8.583522	0.000196	1.964661	0.332823	0.000020
 808	8.0296e+01	8.0247	8.603889	0.000205	2.046522	0.346690	0.000020
 809	8.0396e+01	8.0333	8.623442	0.000196	1.964661	0.332823	0.000020
 810	8.0496e+01	8.0455	8.646660	0.000233	2.333035	0.395227	0.000023
 811	8.0595e+01	8.0554	8.667842	0.000213	2.128382	0.360558	0.000021
 812	8.0695e+01	8.0648	8.689839	0.000221	2.210243	0.374425	0.000022
 813	8.0794e+01	8.0814	8.713465	0.000237	2.373965	0.402161	0.000024
 814	8.0894e+01	8.0840	8.731388	0.000180	1.800939	0.305087	0.000018
 815	8.0993e+01	8.0960	8.751755	0.000205	2.046522	0.346690	0.000020
 816	8.1093e+01	8.1034	8.772122	0.000205	2.046522	0.346690	0.000020
 817	8.1192e+01	8.1128	8.796970	0.000250	2.496756	0.422962	0.000025
 818	8.1291e+01	8.1235	8.820188	0.000233	2.333035	0.395227	0.000023
 819	8.1391e+01	8.1368	8.842185	0.000221	2.210243	0.374425	0.000022
 820	8.1490e+01	8.1449	8.861737	0.000196	1.964661	0.332823	0.000020
 821	8.1590e+01	8.1568	8.882512	0.000209	2.087452	0.353624	0.000021
 822	8.1689e+01	8.1651	8.902471	0.000201	2.005591	0.339756	0.000020
 823	8.1789e+01	8.1770	8.928134	0.000258	2.578617	0.436830	0.000026
 824	8.1888e+01	8.1865	8.947686	0.000196	1.964661	0.332823	0.000020
 825	8.1988e+01	8.1928	8.964795	0.000172	1.719078	0.291220	0.000017
 826	8.2088e+01	8.2008	8.989643	0.000250	2.496756	0.422962	0.000025
 827	8.2187e+01	8.2159	9.008788	0.000192	1.923730	0.325889	0.000019
 828	8.2287e+01	8.2257	9.031192	0.000225	2.251174	0.381359	0.000023
 829	8.2386e+01	8.2342	9.051559	0.000205	2.046522	0.346690	0.000020
 830	8.2486e+01	8.2462	9.075592	0.000241	2.414895	0.409094	0.000024
 831	8.2585e+01	8.2562	9.096774	0.000213	2.128382	0.360558	0.000021
 832	8.2684e+01	8.2639	9.120400	0.000237	2.373965	0.402161	0.000024
 833	8.2784e+01	8.2752	9.142396	0.000221	2.210243	0.374425	0.000022
 834	8.2883e+01	8.2845	9.162356	0.000201	2.005591	0.339756	0.000020
 835	8.2983e+01	8.2974	9.189648	0.000274	2.742339	0.464565	0.000027
 836	8.3082e+01	8.3041	9.210015	0.000205	2.046522	0.346690	0.000020
 837	8.3182e+01	8.3160	9.230790	0.000209	2.087452	0.353624	0.000021
 838	8.3281e+01	8.3240	9.256045	0.000254	2.537687	0.429896	0.000025
 839	8.3381e+01	8.3338	9.278041	0.000221	2.210243	0.374425	0.000022
 840	8.3481e+01	8.3431	9.300852	0.000229	2.292104	0.388293	0.000023
 841	8.3580e+01	8.3527	9.325700	0.000250	2.496756	0.422962	0.000025
 842	8.3680e+01	8.3644	9.347697	0.000221	2.210243	0.374425	0.000022
 843	8.3779e+01	8.3770	9.367249	0.000196	1.964661	0.332823	0.000020
 844	8.3879e+01	8.3832	9.392097	0.000250	2.496756	0.422962	0.000025
 845	8.3978e+01	8.3891	9.416538	0.000246	2.455826	0.416028	0.000025
 846	8.4078e+01	8.4025	9.440164	0.000237	2.373965	0.402161	0.000024
 847	8.4177e+01	8.4145	9.465826	0.000258	2.578617	0.436830	0.000026
 848	8.4276e+01	8.4258	9.494340	0.000287	2.865130	0.485366	0.000029
 849	8.4376e+01	8.4327	9.515522	0.000213	2.128382	0.360558	0.000021
 850	8.4475e+01	8.4433	9.542814	0.000274	2.742339	0.464565	0.000027
 851	8.4575e+01	8.4517	9.564810	0.000221	2.210243	0.374425	0.000022
 852	8.4674e+01	8.4611	9.587214	0.000225	2.251174	0.381359	0.000023
 853	8.4774e+01	8.4736	9.613692	0.000266	2.660478	0.450697	0.000027
 854	8.4874e+01	8.4843	9.634466	0.000209	2.087452	0.353624	0.000021
 855	8.4973e+01	8.4937	9.657277	0.000229	2.292104	0.388293	0.000023
 856	8.5073e+01	8.5023	9.678459	0.000213	2.128382	0.360558	0.000021
 857	8.5172e+01	8.5104	9.700863	0.000225	2.251174	0.381359	0.000023
 858	8.5272e+01	8.5267	9.723267	0.000225	2.251174	0.381359	0.000023
 859	8.5371e+01	8.5335	9.748115	0.000250	2.496756	0.422962	0.000025
 860	8.5471e+01	8.5434	9.769704	0.000217	2.169313	0.367492	0.000022
 861	8.5570e+01	8.5556	9.794959	0.000254	2.537687	0.429896	0.000025
 862	8.5669e+01	8.5645	9.814104	0.000192	1.923730	0.325889	0.000019
 863	8.5769e+01	8.5742	9.836101	0.000221	2.210243	0.374425	0.000022
 864	8.5868e+01	8.5840	9.856875	0.000209	2.087452	0.353624	0.000021
 865	8.5968e+01	8.5903	9.876020	0.000192	1.923730	0.325889	0.000019
 866	8.6067e+01	8.6020	9.893129	0.000172	1.719078	0.291220	0.000017
 867	8.6167e+01	8.6118	9.915532	0.000225	2.251174	0.381359	0.000023
 868	8.6266e+01	8.6230	9.936714	0.000213	2.128382	0.360558	0.000021
 869	8.6366e+01	8.6353	9.955452	0.000188	1.882800	0.318955	0.000019
 870	8.6466e+01	8.6420	9.976634	0.000213	2.128382	0.360558	0.000021
 871	8.6565e+01	8.6510	9.999852	0.000233	2.333035	0.395227	0.000023
 872	8.6665e+01	8.6632	10.018590	0.000188	1.882800	0.318955	0.000019
 873	8.6764e+01	8.6713	10.037735	0.000192	1.923730	0.325889	0.000019
 874	8.6864e+01	8.6835	10.054844	0.000172	1.719078	0.291220	0.000017
 875	8.6963e+01	8.6934	10.075211	0.000205	2.046522	0.346690	0.000020
 876	8.7063e+01	8.7021	10.092726	0.000176	1.760009	0.298154	0.000018
 877	8.7162e+01	8.7134	10.117167	0.000246	2.455826	0.416028	0.000025
 878	8.7261e+01	8.7214	10.134683	0.000176	1.760009	0.298154	0.000018
 879	8.7361e+01	8.7334	10.155050	0.000205	2.046522	0.346690	0.000020
 880	8.7460e+01	8.7405	10.174602	0.000196	1.964661	0.332823	0.000020
 881	8.7560e+01	8.7537	10.192525	0.000180	1.800939	0.305087	0.000018
 882	8.7659e+01	8.7617	10.214522	0.000221	2.210243	0.374425	0.000022
 883	8.7759e+01	8.7711	10.230816	0.000164	1.637217	0.277352	0.000016
 884	8.7859e+01	8.7817	10.251183	0.000205	2.046522	0.346690	0.000020
 885	8.7958e+01	8.7947	10.272364	0.000213	2.128382	0.360558	0.000021
 886	8.8058e+01	8.8013	10.290695	0.000184	1.841869	0.312021	0.000018
 887	8.8157e+01	8.8114	10.309025	0.000184	1.841869	0.312021	0.000018
 888	8.8257e+01	8.8211	10.327356	0.000184	1.841869	0.312021	0.000018
 889	8.8356e+01	8.8316	10.346908	0.000196	1.964661	0.332823	0.000020
 890	8.8456e+01	8.8419	10.366461	0.000196	1.964661	0.332823	0.000020
 891	8.8555e+01	8.8515	10.384791	0.000184	1.841869	0.312021	0.000018
 892	8.8654e+01	8.8599	10.403121	0.000184	1.841869	0.312021	0.000018
 893	8.8754e+01	8.8703	10.419822	0.000168	1.678148	0.284286	0.000017
 894	8.8853e+01	8.8813	10.441004	0.000213	2.128382	0.360558	0.000021
 895	8.8953e+01	8.8919	10.456076	0.000151	1.514426	0.256551	0.000015
 896	8.9052e+01	8.9024	10.476036	0.000201	2.005591	0.339756	0.000020
 897	8.9152e+01	8.9093	10.497218	0.000213	2.128382	0.360558	0.000021
 898	8.9251e+01	8.9222	10.516363	0.000192	1.923730	0.325889	0.000019
 899	8.9351e+01	8.9319	10.534286	0.000180	1.800939	0.305087	0.000018
 900	8.9451e+01	8.9387	10.550579	0.000164	1.637217	0.277352	0.000016
 901	8.9550e+01	8.9474	10.570132	0.000196	1.964661	0.332823	0.000020
 902	8.9650e+01	8.9600	10.590906	0.000209	2.087452	0.353624	0.000021
 903	8.9749e+01	8.9698	10.605163	0.000143	1.432565	0.242683	0.000014
 904	8.9849e+01	8.9795	10.626345	0.000213	2.128382	0.360558	0.000021
 905	8.9948e+01	8.9893	10.645898	0.000196	1.964661	0.332823	0.000020
 906	9.0047e+01	9.0015	10.663821	0.000180	1.800939	0.305087	0.000018
 907	9.0147e+01	9.0137	10.677670	0.000139	1.391635	0.235749	0.000014
 908	9.0246e+01	9.0195	10.696408	0.000188	1.882800	0.318955	0.000019
 909	9.0346e+01	9.0289	10.718405	0.000221	2.210243	0.374425	0.000022
 910	9.0445e+01	9.0416	10.738772	0.000205	2.046522	0.346690	0.000020
 911	9.0545e+01	9.0496	10.756287	0.000176	1.760009	0.298154	0.000018
 912	9.0644e+01	9.0582	10.775433	0.000192	1.923730	0.325889	0.000019
 913	9.0744e+01	9.0686	10.794578	0.000192	1.923730	0.325889	0.000019
 914	9.0844e+01	9.0791	10.814945	0.000205	2.046522	0.346690	0.000020
 915	9.0943e+01	9.0894	10.833275	0.000184	1.841869	0.312021	0.000018
 916	9.1043e+01	9.0987	10.849569	0.000164	1.637217	0.277352	0.000016
 917	9.1142e+01	9.1096	10.867085	0.000176	1.760009	0.298154	0.000018
 918	9.1242e+01	9.1205	10.879712	0.000127	1.268843	0.214948	0.000013
 919	9.1341e+01	9.1299	10.898857	0.000192	1.923730	0.325889	0.000019
 920	9.1441e+01	9.1395	10.913929	0.000151	1.514426	0.256551	0.000015
 921	9.1540e+01	9.1490	10.931037	0.000172	1.719078	0.291220	0.000017
 922	9.1639e+01	9.1627	10.946109	0.000151	1.514426	0.256551	0.000015
 923	9.1739e+01	9.1718	10.964439	0.000184	1.841869	0.312021	0.000018
 924	9.1838e+01	9.1800	10.980733	0.000164	1.637217	0.277352	0.000016
 925	9.1938e+01	9.1895	10.997842	0.000172	1.719078	0.291220	0.000017
 926	9.2037e+01	9.1992	11.017801	0.000201	2.005591	0.339756	0.000020
 927	9.2137e+01	9.2084	11.031651	0.000139	1.391635	0.235749	0.000014
 928	9.2237e+01	9.2181	11.049981	0.000184	1.841869	0.312021	0.000018
 929	9.2336e+01	9.2308	11.066275	0.000164	1.637217	0.277352	0.000016
 930	9.2436e+01	9.2386	11.082976	0.000168	1.678148	0.284286	0.000017
 931	9.2535e+01	9.2480	11.094382	0.000115	1.146052	0.194146	0.000011
 932	9.2635e+01	9.2612	11.109453	0.000151	1.514426	0.256551	0.000015
 933	9.2734e+01	9.2686	11.126562	0.000172	1.719078	0.291220	0.000017
 934	9.2834e+01	9.2767	11.140411	0.000139	1.391635	0.235749	0.000014
 935	9.2933e+01	9.2872	11.154668	0.000143	1.432565	0.242683	0.000014
 936	9.3032e+01	9.2973	11.175850	0.000213	2.128382	0.360558	0.000021
 937	9.3132e+01	9.3067	11.189700	0.000139	1.391635	0.235749	0.000014
 938	9.3231e+01	9.3188	11.210067	0.000205	2.046522	0.346690	0.000020
 939	9.3331e+01	9.3277	11.226361	0.000164	1.637217	0.277352	0.000016
 940	9.3430e+01	9.3361	11.245913	0.000196	1.964661	0.332823	0.000020
 941	9.3530e+01	9.3481	11.263022	0.000172	1.719078	0.291220	0.000017
 942	9.3629e+01	9.3579	11.280537	0.000176	1.760009	0.298154	0.000018
 943	9.3729e+01	9.3750	11.296016	0.000156	1.555356	0.263485	0.000016
 944	9.3829e+01	9.3790	11.313532	0.000176	1.760009	0.298154	0.000018
 945	9.3928e+01	9.3911	11.330233	0.000168	1.678148	0.284286	0.000017
 946	9.4028e+01	9.3956	11.346934	0.000168	1.678148	0.284286	0.000017
 947	9.4127e+01	9.4093	11.369745	0.000229	2.292104	0.388293	0.000023
 948	9.4227e+01	9.4189	11.388483	0.000188	1.882800	0.318955	0.000019
 949	9.4326e+01	9.4295	11.405184	0.000168	1.678148	0.284286	0.000017
 950	9.4425e+01	9.4364	11.428810	0.000237	2.373965	0.402161	0.000024
 951	9.4525e+01	9.4482	11.449584	0.000209	2.087452	0.353624	0.000021
 952	9.4624e+01	9.4568	11.468322	0.000188	1.882800	0.318955	0.000019
 953	9.4724e+01	9.4678	11.479320	0.000111	1.105122	0.187213	0.000011
 954	9.4823e+01	9.4778	11.504983	0.000258	2.578617	0.436830	0.000026
 955	9.4923e+01	9.4873	11.525757	0.000209	2.087452	0.353624	0.000021
 956	9.5022e+01	9.4980	11.547347	0.000217	2.169313	0.367492	0.000022
 957	9.5122e+01	9.5082	11.562418	0.000151	1.514426	0.256551	0.000015
 958	9.5222e+01	9.5173	11.581563	0.000192	1.923730	0.325889	0.000019
 959	9.5321e+01	9.5276	11.603153	0.000217	2.169313	0.367492	0.000022
 960	9.5421e+01	9.5361	11.623112	0.000201	2.005591	0.339756	0.000020
 961	9.5520e+01	9.5449	11.643072	0.000201	2.005591	0.339756	0.000020
 962	9.5620e+01	9.5574	11.663847	0.000209	2.087452	0.353624	0.000021
 963	9.5719e+01	9.5691	11.680548	0.000168	1.678148	0.284286	0.000017
 964	9.5819e+01	9.5782	11.702544	0.000221	2.210243	0.374425	0.000022
 965	9.5918e+01	9.5875	11.722097	0.000196	1.964661	0.332823	0.000020
 966	9.6017e+01	9.5966	11.746130	0.000241	2.414895	0.409094	0.000024
 967	9.6117e+01	9.6080	11.766090	0.000201	2.005591	0.339756	0.000020
 968	9.6216e+01	9.6165	11.784013	0.000180	1.800939	0.305087	0.000018
 969	9.6316e+01	9.6252	11.804787	0.000209	2.087452	0.353624	0.000021
 970	9.6415e+01	9.6350	11.826784	0.000221	2.210243	0.374425	0.000022
 971	9.6515e+01	9.6460	11.843485	0.000168	1.678148	0.284286	0.000017
 972	9.6615e+01	9.6542	11.867518	0.000241	2.414895	0.409094	0.000024
 973	9.6714e+01	9.6645	11.887070	0.000196	1.964661	0.332823	0.000020
 974	9.6814e+01	9.6777	11.908252	0.000213	2.128382	0.360558	0.000021
 975	9.6913e+01	9.6864	11.932693	0.000246	2.455826	0.416028	0.000025
 976	9.7013e+01	9.6944	11.950616	0.000180	1.800939	0.305087	0.000018
 977	9.7112e+01	9.7058	11.971390	0.000209	2.087452	0.353624	0.000021
 978	9.7212e+01	9.7144	11.992165	0.000209	2.087452	0.353624	0.000021
 979	9.7311e+01	9.7257	12.014976	0.000229	2.292104	0.388293	0.000023
 980	9.7410e+01	9.7370	12.035343	0.000205	2.046522	0.346690	0.000020
 981	9.7510e+01	9.7461	12.056117	0.000209	2.087452	0.353624	0.000021
 982	9.7609e+01	9.7583	12.079743	0.000237	2.373965	0.402161	0.000024
 983	9.7709e+01	9.7636	12.097666	0.000180	1.800939	0.305087	0.000018
 984	9.7808e+01	9.7755	12.120478	0.000229	2.292104	0.388293	0.000023
 985	9.7908e+01	9.7864	12.141659	0.000213	2.128382	0.360558	0.000021
 986	9.8007e+01	9.7937	12.165693	0.000241	2.414895	0.409094	0.000024
 987	9.8107e+01	9.8074	12.187282	0.000217	2.169313	0.367492	0.000022
 988	9.8207e+01	9.8145	12.202761	0.000156	1.555356	0.263485	0.000016
 989	9.8306e+01	9.8249	12.231682	0.000291	2.906061	0.492300	0.000029
 990	9.8406e+01	9.8357	12.250013	0.000184	1.841869	0.312021	0.000018
 991	9.8505e+01	9.8478	12.269158	0.000192	1.923730	0.325889	0.000019
 992	9.8605e+01	9.8566	12.292784	0.000237	2.373965	0.402161	0.000024
 993	9.8704e+01	9.8633	12.310299	0.000176	1.760009	0.298154	0.000018
 994	9.8803e+01	9.8737	12.333925	0.000237	2.373965	0.402161	0.000024
 995	9.8903e+01	9.8862	12.356736	0.000229	2.292104	0.388293	0.000023
 996	9.9002e+01	9.8962	12.377918	0.000213	2.128382	0.360558	0.000021
 997	9.9102e+01	9.9036	12.399915	0.000221	2.210243	0.374425	0.000022
 998	9.9201e+01	9.9154	12.417838	0.000180	1.800939	0.305087	0.000018
 999	9.9301e+01	9.9253	12.441871	0.000241	2.414895	0.409094	0.000024
1000	9.9400e+01	9.9343	12.463867	0.000221	2.210243	0.374425	0.000022
1001	9.9500e+01	9.9445	12.484235	0.000205	2.046522	0.346690	0.000020
1002	9.9600e+01	9.9561	12.509490	0.000254	2.537687	0.429896	0.000025
1003	9.9699e+01	9.9644	12.531079	0.000217	2.169313	0.367492	0.000022
1004	9.9799e+01	9.9750	12.555519	0.000246	2.455826	0.416028	0.000025
1005	9.9898e+01	9.9856	12.578331	0.000229	2.292104	0.388293	0.000023
1006	9.9998e+01	9.9960	12.600734	0.000225	2.251174	0.381359	0.000023
1007	1.0010e+02	9.9854	12.592588	0.000082	0.818609	0.138676	-0.000008
1008	1.0020e+02	9.9756	12.581997	0.000106	1.064191	0.180279	-0.000011
1009	1.0030e+02	9.9664	12.573035	0.000090	0.900470	0.152544	-0.000009
1010	1.0040e+02	9.9557	12.561222	0.000119	1.186983	0.201080	-0.000012
1011	1.0050e+02	9.9470	12.553483	0.000078	0.777678	0.131742	-0.000008
1012	1.0059e+02	9.9365	12.542892	0.000106	1.064191	0.180279	-0.000011
1013	1.0069e+02	9.9243	12.535967	0.000070	0.695817	0.117875	-0.000007
1014	1.0079e+02	9.9152	12.528635	0.000074	0.736748	0.124808	-0.000007
1015	1.0089e+02	9.9035	12.518451	0.000102	1.023261	0.173345	-0.000010
1016	1.0099e+02	9.8962	12.511119	0.000074	0.736748	0.124808	-0.000007
1017	1.0109e+02	9.8853	12.502158	0.000090	0.900470	0.152544	-0.000009
1018	1.0119e+02	9.8761	12.490752	0.000115	1.146052	0.194146	-0.000011
1019	1.0129e+02	9.8657	12.482198	0.000086	0.859539	0.145610	-0.000009
1020	1.0139e+02	9.8544	12.469570	0.000127	1.268843	0.214948	-0.000013
1021	1.0149e+02	9.8477	12.460201	0.000094	0.941400	0.159477	-0.000009
1022	1.0159e+02	9.8364	12.448388	0.000119	1.186983	0.201080	-0.000012
1023	1.0169e+02	9.8267	12.437797	0.000106	1.064191	0.180279	-0.000011
1024	1.0179e+02	9.8163	12.425577	0.000123	1.227913	0.208014	-0.000012
1025	1.0189e+02	9.8080	12.414172	0.000115	1.146052	0.194146	-0.000011
1026	1.0199e+02	9.7950	12.403173	0.000111	1.105122	0.187213	-0.000011
1027	1.0209e+02	9.7889	12.389731	0.000135	1.350704	0.228815	-0.000014
1028	1.0219e+02	9.7739	12.375881	0.000139	1.391635	0.235749	-0.000014
1029	1.0229e+02	9.7669	12.365698	0.000102	1.023261	0.173345	-0.000010
1030	1.0239e+02	9.7549	12.355107	0.000106	1.064191	0.180279	-0.000011
1031	1.0248e+02	9.7473	12.341257	0.000139	1.391635	0.235749	-0.000014
1032	1.0258e+02	9.7373	12.326186	0.000151	1.514426	0.256551	-0.000015
1033	1.0268e+02	9.7245	12.314373	0.000119	1.186983	0.201080	-0.000012
1034	1.0278e+02	9.7168	12.296857	0.000176	1.760009	0.298154	-0.000018
1035	1.0288e+02	9.7084	12.281785	0.000151	1.514426	0.256551	-0.000015
1036	1.0298e+02	9.6979	12.265492	0.000164	1.637217	0.277352	-0.000016
1037	1.0308e+02	9.6877	12.252049	0.000135	1.350704	0.228815	-0.000014
1038	1.0318e+02	9.6806	12.239829	0.000123	1.227913	0.208014	-0.000012
1039	1.0328e+02	9.6668	12.222721	0.000172	1.719078	0.291220	-0.000017
1040	1.0338e+02	9.6564	12.210908	0.000119	1.186983	0.201080	-0.000012
1041	1.0348e+02	9.6468	12.197465	0.000135	1.350704	0.228815	-0.000014
1042	1.0358e+02	9.6344	12.179950	0.000176	1.760009	0.298154	-0.000018
1043	1.0368e+02	9.6244	12.164471	0.000156	1.555356	0.263485	-0.000016
1044	1.0378e+02	9.6191	12.148584	0.000160	1.596287	0.270418	-0.000016
1045	1.0388e+02	9.6066	12.133513	0.000151	1.514426	0.256551	-0.000015
1046	1.0398e+02	9.5972	12.117626	0.000160	1.596287	0.270418	-0.000016
1047	1.0408e+02	9.5884	12.104184	0.000135	1.350704	0.228815	-0.000014
1048	1.0418e+02	9.5780	12.087890	0.000164	1.637217	0.277352	-0.000016
1049	1.0428e+02	9.5673	12.071597	0.000164	1.637217	0.277352	-0.000016
1050	1.0438e+02	9.5566	12.057340	0.000143	1.432565	0.242683	-0.000014
1051	1.0447e+02	9.5486	12.043897	0.000135	1.350704	0.228815	-0.000014
1052	1.0457e+02	9.5380	12.023123	0.000209	2.087452	0.353624	-0.000021
1053	1.0467e+02	9.5251	12.010495	0.000127	1.268843	0.214948	-0.000013
1054	1.0477e+02	9.5194	11.992572	0.000180	1.800939	0.305087	-0.000018
1055	1.0487e+02	9.5061	11.974242	0.000184	1.841869	0.312021	-0.000018
1056	1.0497e+02	9.4971	11.958355	0.000160	1.596287	0.270418	-0.000016
1057	1.0507e+02	9.4865	11.941654	0.000168	1.678148	0.284286	-0.000017
1058	1.0517e+02	9.4777	11.926583	0.000151	1.514426	0.256551	-0.000015
1059	1.0527e+02	9.4680	11.906623	0.000201	2.005591	0.339756	-0.000020
1060	1.0537e+02	9.4571	11.889922	0.000168	1.678148	0.284286	-0.000017
1061	1.0547e+02	9.4482	11.875665	0.000143	1.432565	0.242683	-0.000014
1062	1.0557e+02	9.4355	11.862222	0.000135	1.350704	0.228815	-0.000014
1063	1.0567e+02	9.4263	11.842670	0.000196	1.964661	0.332823	-0.000020
1064	1.0577e+02	9.4144	11.826784	0.000160	1.596287	0.270418	-0.000016
1065	1.0587e+02	9.4069	11.811305	0.000156	1.555356	0.263485	-0.000016
1066	1.0597e+02	9.3967	11.795011	0.000164	1.637217	0.277352	-0.000016
1067	1.0607e+02	9.3872	11.775458	0.000196	1.964661	0.332823	-0.000020
1068	1.0617e+02	9.3789	11.757943	0.000176	1.760009	0.298154	-0.000018
1069	1.0627e+02	9.3654	11.738390	0.000196	1.964661	0.332823	-0.000020
1070	1.0637e+02	9.3604	11.721689	0.000168	1.678148	0.284286	-0.000017
1071	1.0647e+02	9.3488	11.706618	0.000151	1.514426	0.256551	-0.000015
1072	1.0656e+02	9.3386	11.687880	0.000188	1.882800	0.318955	-0.000019
1073	1.0666e+02	9.3288	11.668327	0.000196	1.964661	0.332823	-0.000020
1074	1.0676e+02	9.3170	11.655292	0.000131	1.309774	0.221882	-0.000013
1075	1.0686e+02	9.3109	11.637369	0.000180	1.800939	0.305087	-0.000018
1076	1.0696e+02	9.2970	11.616595	0.000209	2.087452	0.353624	-0.000021
1077	1.0706e+02	9.2875	11.604782	0.000119	1.186983	0.201080	-0.000012
1078	1.0716e+02	9.2792	11.586044	0.000188	1.882800	0.318955	-0.000019
1079	1.0726e+02	9.2686	11.569750	0.000164	1.637217	0.277352	-0.000016
1080	1.0736e+02	9.2606	11.548161	0.000217	2.169313	0.367492	-0.000022
1081	1.0746e+02	9.2489	11.530646	0.000176	1.760009	0.298154	-0.000018
1082	1.0756e+02	9.2377	11.517611	0.000131	1.309774	0.221882	-0.000013
1083	1.0766e+02	9.2304	11.497244	0.000205	2.046522	0.346690	-0.000020
1084	1.0776e+02	9.2188	11.484616	0.000127	1.268843	0.214948	-0.000013
1085	1.0786e+02	9.2092	11.462619	0.000221	2.210243	0.374425	-0.000022
1086	1.0796e+02	9.1993	11.440216	0.000225	2.251174	0.381359	-0.000023
1087	1.0806e+02	9.1886	11.422292	0.000180	1.800939	0.305087	-0.000018
1088	1.0816e+02	9.1775	11.401111	0.000213	2.128382	0.360558	-0.000021
1089	1.0826e+02	9.1659	11.382780	0.000184	1.841869	0.312021	-0.000018
1090	1.0836e+02	9.1589	11.363228	0.000196	1.964661	0.332823	-0.000020
1091	1.0845e+02	9.1505	11.342861	0.000205	2.046522	0.346690	-0.000020
1092	1.0855e+02	9.1377	11.324938	0.000180	1.800939	0.305087	-0.000018
1093	1.0865e+02	9.1295	11.305385	0.000196	1.964661	0.332823	-0.000020
1094	1.0875e+02	9.1199	11.287462	0.000180	1.800939	0.305087	-0.000018
1095	1.0885e+02	9.1113	11.266688	0.000209	2.087452	0.353624	-0.000021
1096	1.0895e+02	9.0982	11.249172	0.000176	1.760009	0.298154	-0.000018
1097	1.0905e+02	9.0923	11.225953	0.000233	2.333035	0.395227	-0.000023
1098	1.0915e+02	9.0790	11.205994	0.000201	2.005591	0.339756	-0.000020
1099	1.0925e+02	9.0707	11.183590	0.000225	2.251174	0.381359	-0.000023
1100	1.0935e+02	9.0595	11.159557	0.000241	2.414895	0.409094	-0.000024
1101	1.0945e+02	9.0501	11.139189	0.000205	2.046522	0.346690	-0.000020
1102	1.0955e+02	9.0414	11.122896	0.000164	1.637217	0.277352	-0.000016
1103	1.0965e+02	9.0274	11.102936	0.000201	2.005591	0.339756	-0.000020
1104	1.0975e+02	9.0217	11.084606	0.000184	1.841869	0.312021	-0.000018
1105	1.0985e+02	9.0092	11.063424	0.000213	2.128382	0.360558	-0.000021
1106	1.0995e+02	9.0034	11.045501	0.000180	1.800939	0.305087	-0.000018
1107	1.1005e+02	8.9908	11.029207	0.000164	1.637217	0.277352	-0.000016
1108	1.1015e+02	8.9809	11.007618	0.000217	2.169313	0.367492	-0.000022
1109	1.1025e+02	8.9710	10.989287	0.000184	1.841869	0.312021	-0.000018
1110	1.1035e+02	8.9624	10.970957	0.000184	1.841869	0.312021	-0.000018
1111	1.1044e+02	8.9503	10.950997	0.000201	2.005591	0.339756	-0.000020
1112	1.1054e+02	8.9417	10.932667	0.000184	1.841869	0.312021	-0.000018
1113	1.1064e+02	8.9321	10.909448	0.000233	2.333035	0.395227	-0.000023
1114	1.1074e+02	8.9173	10.892340	0.000172	1.719078	0.291220	-0.000017
1115	1.1084e+02	8.9084	10.875639	0.000168	1.678148	0.284286	-0.000017
1116	1.1094e+02	8.8996	10.856494	0.000192	1.923730	0.325889	-0.000019
1117	1.1104e+02	8.8898	10.838978	0.000176	1.760009	0.298154	-0.000018
1118	1.1114e+02	8.8818	10.821055	0.000180	1.800939	0.305087	-0.000018
1119	1.1124e+02	8.8706	10.803539	0.000176	1.760009	0.298154	-0.000018
1120	1.1134e+02	8.8599	10.788875	0.000147	1.473496	0.249617	-0.000015
1121	1.1144e+02	8.8547	10.769730	0.000192	1.923730	0.325889	-0.000019
1122	1.1154e+02	8.8419	10.753843	0.000160	1.596287	0.270418	-0.000016
1123	1.1164e+02	8.8306	10.735920	0.000180	1.800939	0.305087	-0.000018
1124	1.1174e+02	8.8217	10.717997	0.000180	1.800939	0.305087	-0.000018
1125	1.1184e+02	8.8129	10.702111	0.000160	1.596287	0.270418	-0.000016
1126	1.1194e+02	8.8028	10.682558	0.000196	1.964661	0.332823	-0.000020
1127	1.1204e+02	8.7915	10.671560	0.000111	1.105122	0.187213	-0.000011
1128	1.1214e+02	8.7797	10.650378	0.000213	2.128382	0.360558	-0.000021
1129	1.1224e+02	8.7711	10.632455	0.000180	1.800939	0.305087	-0.000018
1130	1.1234e+02	8.7637	10.614532	0.000180	1.800939	0.305087	-0.000018
1131	1.1244e+02	8.7532	10.601497	0.000131	1.309774	0.221882	-0.000013
1132	1.1253e+02	8.7421	10.579501	0.000221	2.210243	0.374425	-0.000022
1133	1.1263e+02	8.7317	10.563614	0.000160	1.596287	0.270418	-0.000016
1134	1.1273e+02	8.7207	10.546913	0.000168	1.678148	0.284286	-0.000017
1135	1.1283e+02	8.7109	10.528176	0.000188	1.882800	0.318955	-0.000019
1136	1.1293e+02	8.7027	10.514733	0.000135	1.350704	0.228815	-0.000014
1137	1.1303e+02	8.6917	10.497218	0.000176	1.760009	0.298154	-0.000018
1138	1.1313e+02	8.6816	10.483775	0.000135	1.350704	0.228815	-0.000014
1139	1.1323e+02	8.6725	10.466667	0.000172	1.719078	0.291220	-0.000017
1140	1.1333e+02	8.6639	10.449558	0.000172	1.719078	0.291220	-0.000017
1141	1.1343e+02	8.6538	10.430821	0.000188	1.882800	0.318955	-0.000019
1142	1.1353e+02	8.6439	10.417378	0.000135	1.350704	0.228815	-0.000014
1143	1.1363e+02	8.6340	10.399455	0.000180	1.800939	0.305087	-0.000018
1144	1.1373e+02	8.6231	10.382347	0.000172	1.719078	0.291220	-0.000017
1145	1.1383e+02	8.6124	10.371349	0.000111	1.105122	0.187213	-0.000011
1146	1.1393e+02	8.6008	10.351796	0.000196	1.964661	0.332823	-0.000020
1147	1.1403e+02	8.5948	10.335910	0.000160	1.596287	0.270418	-0.000016
1148	1.1413e+02	8.5852	10.316357	0.000196	1.964661	0.332823	-0.000020
1149	1.1423e+02	8.5722	10.300471	0.000160	1.596287	0.270418	-0.000016
1150	1.1433e+02	8.5638	10.285399	0.000151	1.514426	0.256551	-0.000015
1151	1.1442e+02	8.5529	10.271550	0.000139	1.391635	0.235749	-0.000014
1152	1.1452e+02	8.5433	10.253219	0.000184	1.841869	0.312021	-0.000018
1153	1.1462e+02	8.5349	10.235704	0.000176	1.760009	0.298154	-0.000018
1154	1.1472e+02	8.5254	10.221039	0.000147	1.473496	0.249617	-0.000015
1155	1.1482e+02	8.5142	10.204338	0.000168	1.678148	0.284286	-0.000017
1156	1.1492e+02	8.5034	10.189267	0.000151	1.514426	0.256551	-0.000015
1157	1.1502e+02	8.4905	10.173788	0.000156	1.555356	0.263485	-0.000016
1158	1.1512e+02	8.4834	10.155864	0.000180	1.800939	0.305087	-0.000018
1159	1.1522e+02	8.4721	10.137941	0.000180	1.800939	0.305087	-0.000018
1160	1.1532e+02	8.4633	10.123277	0.000147	1.473496	0.249617	-0.000015
1161	1.1542e+02	8.4551	10.106576	0.000168	1.678148	0.284286	-0.000017
1162	1.1552e+02	8.4410	10.090282	0.000164	1.637217	0.277352	-0.000016
1163	1.1562e+02	8.4326	10.073581	0.000168	1.678148	0.284286	-0.000017
1164	1.1572e+02	8.4262	10.057695	0.000160	1.596287	0.270418	-0.000016
1165	1.1582e+02	8.4143	10.044660	0.000131	1.309774	0.221882	-0.000013
1166	1.1592e+02	8.4046	10.024700	0.000201	2.005591	0.339756	-0.000020
1167	1.1602e+02	8.3940	10.009629	0.000151	1.514426	0.256551	-0.000015
1168	1.1612e+02	8.3850	9.994557	0.000151	1.514426	0.256551	-0.000015
1169	1.1622e+02	8.3730	9.980707	0.000139	1.391635	0.235749	-0.000014
1170	1.1632e+02	8.3649	9.962784	0.000180	1.800939	0.305087	-0.000018
1171	1.1642e+02	8.3546	9.948120	0.000147	1.473496	0.249617	-0.000015
1172	1.1651e+02	8.3456	9.936714	0.000115	1.146052	0.194146	-0.000011
1173	1.1661e+02	8.3322	9.918791	0.000180	1.800939	0.305087	-0.000018
1174	1.1671e+02	8.3230	9.902090	0.000168	1.678148	0.284286	-0.000017
1175	1.1681e+02	8.3144	9.889462	0.000127	1.268843	0.214948	-0.000013
1176	1.1691e+02	8.3030	9.869910	0.000196	1.964661	0.332823	-0.000020
1177	1.1701e+02	8.2925	9.856060	0.000139	1.391635	0.235749	-0.000014
1178	1.1711e+02	8.2837	9.843433	0.000127	1.268843	0.214948	-0.000013
1179	1.1721e+02	8.2749	9.825102	0.000184	1.841869	0.312021	-0.000018
1180	1.1731e+02	8.2630	9.813697	0.000115	1.146052	0.194146	-0.000011
1181	1.1741e+02	8.2537	9.797810	0.000160	1.596287	0.270418	-0.000016
1182	1.1751e+02	8.2446	9.785183	0.000127	1.268843	0.214948	-0.000013
1183	1.1761e+02	8.2373	9.773370	0.000119	1.186983	0.201080	-0.000012
1184	1.1771e+02	8.2232	9.757891	0.000156	1.555356	0.263485	-0.000016
1185	1.1781e+02	8.2147	9.749337	0.000086	0.859539	0.145610	-0.000009
1186	1.1791e+02	8.2010	9.732228	0.000172	1.719078	0.291220	-0.000017
1187	1.1801e+02	8.1943	9.717564	0.000147	1.473496	0.249617	-0.000015
1188	1.1811e+02	8.1851	9.701678	0.000160	1.596287	0.270418	-0.000016
1189	1.1821e+02	8.1753	9.687828	0.000139	1.391635	0.235749	-0.000014
1190	1.1831e+02	8.1641	9.668275	0.000196	1.964661	0.332823	-0.000020
1191	1.1841e+02	8.1519	9.653611	0.000147	1.473496	0.249617	-0.000015
1192	1.1850e+02	8.1448	9.639761	0.000139	1.391635	0.235749	-0.000014
1193	1.1860e+02	8.1348	9.624282	0.000156	1.555356	0.263485	-0.000016
1194	1.1870e+02	8.1242	9.610433	0.000139	1.391635	0.235749	-0.000014
1195	1.1880e+02	8.1158	9.596176	0.000143	1.432565	0.242683	-0.000014
1196	1.1890e+02	8.1061	9.576216	0.000201	2.005591	0.339756	-0.000020
1197	1.1900e+02	8.0935	9.561144	0.000151	1.514426	0.256551	-0.000015
1198	1.1910e+02	8.0854	9.544851	0.000164	1.637217	0.277352	-0.000016
1199	1.1920e+02	8.0739	9.526928	0.000180	1.800939	0.305087	-0.000018
1200	1.1930e+02	8.0686	9.511449	0.000156	1.555356	0.263485	-0.000016
1201	1.1940e+02	8.0569	9.492303	0.000192	1.923730	0.325889	-0.000019
1202	1.1950e+02	8.0457	9.472344	0.000201	2.005591	0.339756	-0.000020
1203	1.1960e+02	8.0361	9.456050	0.000164	1.637217	0.277352	-0.000016
1204	1.1970e+02	8.0268	9.439349	0.000168	1.678148	0.284286	-0.000017
1205	1.1980e+02	8.0141	9.418574	0.000209	2.087452	0.353624	-0.000021
1206	1.1990e+02	8.0036	9.400244	0.000184	1.841869	0.312021	-0.000018
1207	1.2000e+02	8.0004	9.383543	0.000168	1.678148	0.284286	-0.000017
1208	1.2010e+02	7.9852	9.362769	0.000209	2.087452	0.353624	-0.000021
1209	1.2020e+02	7.9717	9.346475	0.000164	1.637217	0.277352	-0.000016
1210	1.2030e+02	7.9640	9.326922	0.000196	1.964661	0.332823	-0.000020
1211	1.2039e+02	7.9559	9.307777	0.000192	1.923730	0.325889	-0.000019
1212	1.2049e+02	7.9460	9.289447	0.000184	1.841869	0.312021	-0.000018
1213	1.2059e+02	7.9374	9.271931	0.000176	1.760009	0.298154	-0.000018
1214	1.2069e+02	7.9266	9.250749	0.000213	2.128382	0.360558	-0.000021
1215	1.2079e+02	7.9145	9.235270	0.000156	1.555356	0.263485	-0.000016
1216	1.2089e+02	7.9061	9.214496	0.000209	2.087452	0.353624	-0.000021
1217	1.2099e+02	7.8950	9.193314	0.000213	2.128382	0.360558	-0.000021
1218	1.2109e+02	7.8949	9.174984	0.000184	1.841869	0.312021	-0.000018
1219	1.2119e+02	7.8786	9.155839	0.000192	1.923730	0.325889	-0.000019
1220	1.2129e+02	7.8674	9.137101	0.000188	1.882800	0.318955	-0.000019
1221	1.2139e+02	7.8586	9.116326	0.000209	2.087452	0.353624	-0.000021
1222	1.2149e+02	7.8460	9.094330	0.000221	2.210243	0.374425	-0.000022
1223	1.2159e+02	7.8380	9.080888	0.000135	1.350704	0.228815	-0.000014
1224	1.2169e+02	7.8256	9.058484	0.000225	2.251174	0.381359	-0.000023
1225	1.2179e+02	7.8158	9.040968	0.000176	1.760009	0.298154	-0.000018
1226	1.2189e+02	7.8062	9.021008	0.000201	2.005591	0.339756	-0.000020
1227	1.2199e+02	7.7984	9.001048	0.000201	2.005591	0.339756	-0.000020
1228	1.2209e+02	7.7874	8.983125	0.000180	1.800939	0.305087	-0.000018
1229	1.2219e+02	7.7768	8.962758	0.000205	2.046522	0.346690	-0.000020
1230	1.2229e+02	7.7676	8.942391	0.000205	2.046522	0.346690	-0.000020
1231	1.2239e+02	7.7575	8.919580	0.000229	2.292104	0.388293	-0.000023
1232	1.2248e+02	7.7466	8.903693	0.000160	1.596287	0.270418	-0.000016
1233	1.2258e+02	7.7380	8.885770	0.000180	1.800939	0.305087	-0.000018
1234	1.2268e+02	7.7277	8.863367	0.000225	2.251174	0.381359	-0.000023
1235	1.2278e+02	7.7156	8.842185	0.000213	2.128382	0.360558	-0.000021
1236	1.2288e+02	7.7057	8.821410	0.000209	2.087452	0.353624	-0.000021
1237	1.2298e+02	7.6968	8.803487	0.000180	1.800939	0.305087	-0.000018
1238	1.2308e+02	7.6864	8.782713	0.000209	2.087452	0.353624	-0.000021
1239	1.2318e+02	7.6768	8.757865	0.000250	2.496756	0.422962	-0.000025
1240	1.2328e+02	7.6688	8.738720	0.000192	1.923730	0.325889	-0.000019
1241	1.2338e+02	7.6571	8.719575	0.000192	1.923730	0.325889	-0.000019
1242	1.2348e+02	7.6454	8.700837	0.000188	1.882800	0.318955	-0.000019
1243	1.2358e+02	7.6387	8.679655	0.000213	2.128382	0.360558	-0.000021
1244	1.2368e+02	7.6270	8.661325	0.000184	1.841869	0.312021	-0.000018
1245	1.2378e+02	7.6176	8.640550	0.000209	2.087452	0.353624	-0.000021
1246	1.2388e+02	7.6076	8.623849	0.000168	1.678148	0.284286	-0.000017
1247	1.2398e+02	7.5977	8.602260	0.000217	2.169313	0.367492	-0.000022
1248	1.2408e+02	7.5879	8.578227	0.000241	2.414895	0.409094	-0.000024
1249	1.2418e+02	7.5765	8.558674	0.000196	1.964661	0.332823	-0.000020
1250	1.2428e+02	7.5671	8.540751	0.000180	1.800939	0.305087	-0.000018
1251	1.2438e+02	7.5591	8.519977	0.000209	2.087452	0.353624	-0.000021
1252	1.2447e+02	7.5466	8.494314	0.000258	2.578617	0.436830	-0.000026
1253	1.2457e+02	7.5391	8.474762	0.000196	1.964661	0.332823	-0.000020
1254	1.2467e+02	7.5264	8.455617	0.000192	1.923730	0.325889	-0.000019
1255	1.2477e+02	7.5199	8.429954	0.000258	2.578617	0.436830	-0.000026
1256	1.2487e+02	7.5094	8.411216	0.000188	1.882800	0.318955	-0.000019
1257	1.2497e+02	7.4972	8.385961	0.000254	2.537687	0.429896	-0.000025
1258	1.2507e+02	7.4879	8.364779	0.000213	2.128382	0.360558	-0.000021
1259	1.2517e+02	7.4792	8.339524	0.000254	2.537687	0.429896	-0.000025
1260	1.2527e+02	7.4664	8.322416	0.000172	1.719078	0.291220	-0.000017
1261	1.2537e+02	7.4572	8.302863	0.000196	1.964661	0.332823	-0.000020
1262	1.2547e+02	7.4508	8.275979	0.000270	2.701409	0.457631	-0.000027
1263	1.2557e+02	7.4401	8.255611	0.000205	2.046522	0.346690	-0.000020
1264	1.2567e+02	7.4307	8.231986	0.000237	2.373965	0.402161	-0.000024
1265	1.2577e+02	7.4200	8.206323	0.000258	2.578617	0.436830	-0.000026
1266	1.2587e+02	7.4052	8.180253	0.000262	2.619548	0.443763	-0.000026
1267	1.2597e+02	7.3957	8.157849	0.000225	2.251174	0.381359	-0.000023
1268	1.2607e+02	7.3904	8.133001	0.000250	2.496756	0.422962	-0.000025
1269	1.2617e+02	7.3788	8.106117	0.000270	2.701409	0.457631	-0.000027
1270	1.2627e+02	7.3687	8.086564	0.000196	1.964661	0.332823	-0.000020
1271	1.2636e+02	7.3623	8.063753	0.000229	2.292104	0.388293	-0.000023
1272	1.2646e+02	7.3483	8.043386	0.000205	2.046522	0.346690	-0.000020
1273	1.2656e+02	7.3399	8.025463	0.000180	1.800939	0.305087	-0.000018
1274	1.2666e+02	7.3291	8.001430	0.000241	2.414895	0.409094	-0.000024
1275	1.2676e+02	7.3180	7.977804	0.000237	2.373965	0.402161	-0.000024
1276	1.2686e+02	7.3096	7.960288	0.000176	1.760009	0.298154	-0.000018
1277	1.2696e+02	7.2982	7.935440	0.000250	2.496756	0.422962	-0.000025
1278	1.2706e+02	7.2881	7.912629	0.000229	2.292104	0.388293	-0.000023
1279	1.2716e+02	7.2778	7.890633	0.000221	2.210243	0.374425	-0.000022
1280	1.2726e+02	7.2706	7.869858	0.000209	2.087452	0.353624	-0.000021
1281	1.2736e+02	7.2585	7.851528	0.000184	1.841869	0.312021	-0.000018
1282	1.2746e+02	7.2492	7.831161	0.000205	2.046522	0.346690	-0.000020
1283	1.2756e+02	7.2404	7.810386	0.000209	2.087452	0.353624	-0.000021
1284	1.2766e+02	7.2294	7.790019	0.000205	2.046522	0.346690	-0.000020
1285	1.2776e+02	7.2231	7.770874	0.000192	1.923730	0.325889	-0.000019
1286	1.2786e+02	7.2131	7.747655	0.000233	2.333035	0.395227	-0.000023
1287	1.2796e+02	7.2001	7.727288	0.000205	2.046522	0.346690	-0.000020
1288	1.2806e+02	7.1889	7.708550	0.000188	1.882800	0.318955	-0.000019
1289	1.2816e+02	7.1798	7.688591	0.000201	2.005591	0.339756	-0.000020
1290	1.2826e+02	7.1712	7.669446	0.000192	1.923730	0.325889	-0.000019
1291	1.2835e+02	7.1568	7.649078	0.000205	2.046522	0.346690	-0.000020
1292	1.2845e+02	7.1515	7.629526	0.000196	1.964661	0.332823	-0.000020
1293	1.2855e+02	7.1390	7.607122	0.000225	2.251174	0.381359	-0.000023
1294	1.2865e+02	7.1313	7.588792	0.000184	1.841869	0.312021	-0.000018
1295	1.2875e+02	7.1203	7.572498	0.000164	1.637217	0.277352	-0.000016
1296	1.2885e+02	7.1058	7.549687	0.000229	2.292104	0.388293	-0.000023
1297	1.2895e+02	7.0990	7.532986	0.000168	1.678148	0.284286	-0.000017
1298	1.2905e+02	7.0900	7.510175	0.000229	2.292104	0.388293	-0.000023
1299	1.2915e+02	7.0815	7.491030	0.000192	1.923730	0.325889	-0.000019
1300	1.2925e+02	7.0721	7.472699	0.000184	1.841869	0.312021	-0.000018
1301	1.2935e+02	7.0610	7.452739	0.000201	2.005591	0.339756	-0.000020
1302	1.2945e+02	7.0509	7.431558	0.000213	2.128382	0.360558	-0.000021
1303	1.2955e+02	7.0418	7.414449	0.000172	1.719078	0.291220	-0.000017
1304	1.2965e+02	7.0293	7.394082	0.000205	2.046522	0.346690	-0.000020
1305	1.2975e+02	7.0205	7.374937	0.000192	1.923730	0.325889	-0.000019
1306	1.2985e+02	7.0104	7.359051	0.000160	1.596287	0.270418	-0.000016
1307	1.2995e+02	6.9992	7.337869	0.000213	2.128382	0.360558	-0.000021
1308	1.3005e+02	6.9955	7.317502	0.000205	2.046522	0.346690	-0.000020
1309	1.3015e+02	6.9805	7.300801	0.000168	1.678148	0.284286	-0.000017
1310	1.3025e+02	6.9733	7.281655	0.000192	1.923730	0.325889	-0.000019
1311	1.3034e+02	6.9608	7.262103	0.000196	1.964661	0.332823	-0.000020
1312	1.3044e+02	6.9531	7.241329	0.000209	2.087452	0.353624	-0.000021
1313	1.3054e+02	6.9406	7.224627	0.000168	1.678148	0.284286	-0.000017
1314	1.3064e+02	6.9317	7.204260	0.000205	2.046522	0.346690	-0.000020
1315	1.3074e+02	6.9220	7.188374	0.000160	1.596287	0.270418	-0.000016
1316	1.3084e+02	6.9099	7.166378	0.000221	2.210243	0.374425	-0.000022
1317	1.3094e+02	6.9006	7.148047	0.000184	1.841869	0.312021	-0.000018
1318	1.3104e+02	6.8919	7.131753	0.000164	1.637217	0.277352	-0.000016
1319	1.3114e+02	6.8818	7.109350	0.000225	2.251174	0.381359	-0.000023
1320	1.3124e+02	6.8725	7.093871	0.000156	1.555356	0.263485	-0.000016
1321	1.3134e+02	6.8636	7.075947	0.000180	1.800939	0.305087	-0.000018
1322	1.3144e+02	6.8527	7.058024	0.000180	1.800939	0.305087	-0.000018
1323	1.3154e+02	6.8437	7.039694	0.000184	1.841869	0.312021	-0.000018
1324	1.3164e+02	6.8315	7.022178	0.000176	1.760009	0.298154	-0.000018
1325	1.3174e+02	6.8214	6.999774	0.000225	2.251174	0.381359	-0.000023
1326	1.3184e+02	6.8099	6.981851	0.000180	1.800939	0.305087	-0.000018
1327	1.3194e+02	6.8029	6.961484	0.000205	2.046522	0.346690	-0.000020
1328	1.3204e+02	6.7907	6.943154	0.000184	1.841869	0.312021	-0.000018
1329	1.3214e+02	6.7855	6.921972	0.000213	2.128382	0.360558	-0.000021
1330	1.3224e+02	6.7700	6.904049	0.000180	1.800939	0.305087	-0.000018
1331	1.3234e+02	6.7628	6.886533	0.000176	1.760009	0.298154	-0.000018
1332	1.3243e+02	6.7513	6.868610	0.000180	1.800939	0.305087	-0.000018
1333	1.3253e+02	6.7422	6.852724	0.000160	1.596287	0.270418	-0.000016
1334	1.3263e+02	6.7310	6.829098	0.000237	2.373965	0.402161	-0.000024
1335	1.3273e+02	6.7226	6.811989	0.000172	1.719078	0.291220	-0.000017
1336	1.3283e+02	6.7139	6.790808	0.000213	2.128382	0.360558	-0.000021
1337	1.3293e+02	6.6997	6.778180	0.000127	1.268843	0.214948	-0.000013
1338	1.3303e+02	6.6919	6.760257	0.000180	1.800939	0.305087	-0.000018
1339	1.3313e+02	6.6854	6.743149	0.000172	1.719078	0.291220	-0.000017
1340	1.3323e+02	6.6732	6.725633	0.000176	1.760009	0.298154	-0.000018
1341	1.3333e+02	6.6616	6.703636	0.000221	2.210243	0.374425	-0.000022
1342	1.3343e+02	6.6507	6.689379	0.000143	1.432565	0.242683	-0.000014
1343	1.3353e+02	6.6422	6.671456	0.000180	1.800939	0.305087	-0.000018
1344	1.3363e+02	6.6320	6.655163	0.000164	1.637217	0.277352	-0.000016
1345	1.3373e+02	6.6221	6.638054	0.000172	1.719078	0.291220	-0.000017
1346	1.3383e+02	6.6134	6.614836	0.000233	2.333035	0.395227	-0.000023
1347	1.3393e+02	6.6021	6.598542	0.000164	1.637217	0.277352	-0.000016
1348	1.3403e+02	6.5922	6.583878	0.000147	1.473496	0.249617	-0.000015
1349	1.3413e+02	6.5813	6.568806	0.000151	1.514426	0.256551	-0.000015
1350	1.3423e+02	6.5752	6.552512	0.000164	1.637217	0.277352	-0.000016
1351	1.3432e+02	6.5638	6.534997	0.000176	1.760009	0.298154	-0.000018
1352	1.3442e+02	6.5529	6.519925	0.000151	1.514426	0.256551	-0.000015
1353	1.3452e+02	6.5441	6.505261	0.000147	1.473496	0.249617	-0.000015
1354	1.3462e+02	6.5332	6.489782	0.000156	1.555356	0.263485	-0.000016
1355	1.3472e+02	6.5224	6.474710	0.000151	1.514426	0.256551	-0.000015
1356	1.3482e+02	6.5142	6.451084	0.000237	2.373965	0.402161	-0.000024
1357	1.3492e+02	6.5034	6.433161	0.000180	1.800939	0.305087	-0.000018
1358	1.3502e+02	6.4954	6.417275	0.000160	1.596287	0.270418	-0.000016
1359	1.3512e+02	6.4822	6.399759	0.000176	1.760009	0.298154	-0.000018
1360	1.3522e+02	6.4719	6.379392	0.000205	2.046522	0.346690	-0.000020
1361	1.3532e+02	6.4656	6.363505	0.000160	1.596287	0.270418	-0.000016
1362	1.3542e+02	6.4531	6.344360	0.000192	1.923730	0.325889	-0.000019
1363	1.3552e+02	6.4443	6.326030	0.000184	1.841869	0.312021	-0.000018
1364	1.3562e+02	6.4310	6.309329	0.000168	1.678148	0.284286	-0.000017
1365	1.3572e+02	6.4258	6.288962	0.000205	2.046522	0.346690	-0.000020
1366	1.3582e+02	6.4143	6.273483	0.000156	1.555356	0.263485	-0.000016
1367	1.3592e+02	6.4028	6.249449	0.000241	2.414895	0.409094	-0.000024
1368	1.3602e+02	6.3934	6.228675	0.000209	2.087452	0.353624	-0.000021
1369	1.3612e+02	6.3845	6.208308	0.000205	2.046522	0.346690	-0.000020
1370	1.3622e+02	6.3736	6.191607	0.000168	1.678148	0.284286	-0.000017
1371	1.3631e+02	6.3644	6.169203	0.000225	2.251174	0.381359	-0.000023
1372	1.3641e+02	6.3541	6.148836	0.000205	2.046522	0.346690	-0.000020
1373	1.3651e+02	6.3438	6.128061	0.000209	2.087452	0.353624	-0.000021
1374	1.3661e+02	6.3342	6.108509	0.000196	1.964661	0.332823	-0.000020
1375	1.3671e+02	6.3245	6.084883	0.000237	2.373965	0.402161	-0.000024
1376	1.3681e+02	6.3135	6.063701	0.000213	2.128382	0.360558	-0.000021
1377	1.3691e+02	6.3053	6.040483	0.000233	2.333035	0.395227	-0.000023
1378	1.3701e+02	6.2943	6.025004	0.000156	1.555356	0.263485	-0.000016
1379	1.3711e+02	6.2849	6.000970	0.000241	2.414895	0.409094	-0.000024
1380	1.3721e+02	6.2740	5.978567	0.000225	2.251174	0.381359	-0.000023
1381	1.3731e+02	6.2630	5.958607	0.000201	2.005591	0.339756	-0.000020
1382	1.3741e+02	6.2529	5.936610	0.000221	2.210243	0.374425	-0.000022
1383	1.3751e+02	6.2424	5.914207	0.000225	2.251174	0.381359	-0.000023
1384	1.3761e+02	6.2382	5.894247	0.000201	2.005591	0.339756	-0.000020
1385	1.3771e+02	6.2278	5.872658	0.000217	2.169313	0.367492	-0.000022
1386	1.3781e+02	6.2153	5.852290	0.000205	2.046522	0.346690	-0.000020
1387	1.3791e+02	6.2046	5.830701	0.000217	2.169313	0.367492	-0.000022
1388	1.3801e+02	6.1932	5.811556	0.000192	1.923730	0.325889	-0.000019
1389	1.3811e+02	6.1858	5.787116	0.000246	2.455826	0.416028	-0.000025
1390	1.3821e+02	6.1733	5.765119	0.000221	2.210243	0.374425	-0.000022
1391	1.3831e+02	6.1640	5.740271	0.000250	2.496756	0.422962	-0.000025
1392	1.3840e+02	6.1592	5.722756	0.000176	1.760009	0.298154	-0.000018
1393	1.3850e+02	6.1488	5.699944	0.000229	2.292104	0.388293	-0.000023
1394	1.3860e+02	6.1369	5.675911	0.000241	2.414895	0.409094	-0.000024
1395	1.3870e+02	6.1245	5.656766	0.000192	1.923730	0.325889	-0.000019
1396	1.3880e+02	6.1152	5.630289	0.000266	2.660478	0.450697	-0.000027
1397	1.3890e+02	6.1060	5.611551	0.000188	1.882800	0.318955	-0.000019
1398	1.3900e+02	6.0952	5.587110	0.000246	2.455826	0.416028	-0.000025
1399	1.3910e+02	6.0847	5.566336	0.000209	2.087452	0.353624	-0.000021
1400	1.3920e+02	6.0739	5.543117	0.000233	2.333035	0.395227	-0.000023
1401	1.3930e+02	6.0662	5.516233	0.000270	2.701409	0.457631	-0.000027
1402	1.3940e+02	6.0564	5.498310	0.000180	1.800939	0.305087	-0.000018
1403	1.3950e+02	6.0455	5.475906	0.000225	2.251174	0.381359	-0.000023
1404	1.3960e+02	6.0369	5.449836	0.000262	2.619548	0.443763	-0.000026
1405	1.3970e+02	6.0290	5.430284	0.000196	1.964661	0.332823	-0.000020
1406	1.3980e+02	6.0172	5.407472	0.000229	2.292104	0.388293	-0.000023
1407	1.3990e+02	6.0075	5.381810	0.000258	2.578617	0.436830	-0.000026
1408	1.4000e+02	5.9968	5.362257	0.000196	1.964661	0.332823	-0.000020
1409	1.4010e+02	5.9863	5.335780	0.000266	2.660478	0.450697	-0.000027
1410	1.4020e+02	5.9754	5.316228	0.000196	1.964661	0.332823	-0.000020
1411	1.4029e+02	5.9670	5.292602	0.000237	2.373965	0.402161	-0.000024
1412	1.4039e+02	5.9566	5.269791	0.000229	2.292104	0.388293	-0.000023
1413	1.4049e+02	5.9473	5.248201	0.000217	2.169313	0.367492	-0.000022
1414	1.4059e+02	5.9355	5.225798	0.000225	2.251174	0.381359	-0.000023
1415	1.4069e+02	5.9274	5.202172	0.000237	2.373965	0.402161	-0.000024
1416	1.4079e+02	5.9159	5.181397	0.000209	2.087452	0.353624	-0.000021
1417	1.4089e+02	5.9075	5.155735	0.000258	2.578617	0.436830	-0.000026
1418	1.4099e+02	5.8939	5.136590	0.000192	1.923730	0.325889	-0.000019
1419	1.4109e+02	5.8889	5.110927	0.000258	2.578617	0.436830	-0.000026
1420	1.4119e+02	5.8750	5.082006	0.000291	2.906061	0.492300	-0.000029
1421	1.4129e+02	5.8659	5.061231	0.000209	2.087452	0.353624	-0.000021
1422	1.4139e+02	5.8542	5.033532	0.000278	2.783269	0.471499	-0.000028
1423	1.4149e+02	5.8440	5.012350	0.000213	2.128382	0.360558	-0.000021
1424	1.4159e+02	5.8355	4.987502	0.000250	2.496756	0.422962	-0.000025
1425	1.4169e+02	5.8253	4.963469	0.000241	2.414895	0.409094	-0.000024
1426	1.4179e+02	5.8147	4.935362	0.000282	2.824200	0.478432	-0.000028
1427	1.4189e+02	5.8074	4.913773	0.000217	2.169313	0.367492	-0.000022
1428	1.4199e+02	5.7952	4.888518	0.000254	2.537687	0.429896	-0.000025
1429	1.4209e+02	5.7853	4.863670	0.000250	2.496756	0.422962	-0.000025
1430	1.4219e+02	5.7783	4.840044	0.000237	2.373965	0.402161	-0.000024
1431	1.4228e+02	5.7666	4.815196	0.000250	2.496756	0.422962	-0.000025
1432	1.4238e+02	5.7560	4.787904	0.000274	2.742339	0.464565	-0.000027
1433	1.4248e+02	5.7471	4.761020	0.000270	2.701409	0.457631	-0.000027
1434	1.4258e+02	5.7362	4.733320	0.000278	2.783269	0.471499	-0.000028
1435	1.4268e+02	5.7278	4.708880	0.000246	2.455826	0.416028	-0.000025
1436	1.4278e+02	5.7174	4.678737	0.000303	3.028852	0.513101	-0.000030
1437	1.4288e+02	5.7071	4.656740	0.000221	2.210243	0.374425	-0.000022
1438	1.4298e+02	5.6972	4.628633	0.000282	2.824200	0.478432	-0.000028
1439	1.4308e+02	5.6875	4.605008	0.000237	2.373965	0.402161	-0.000024
1440	1.4318e+02	5.6782	4.581382	0.000237	2.373965	0.402161	-0.000024
1441	1.4328e+02	5.6681	4.559793	0.000217	2.169313	0.367492	-0.000022
1442	1.4338e+02	5.6588	4.534945	0.000250	2.496756	0.422962	-0.000025
1443	1.4348e+02	5.6454	4.506023	0.000291	2.906061	0.492300	-0.000029
1444	1.4358e+02	5.6374	4.487286	0.000188	1.882800	0.318955	-0.000019
1445	1.4368e+02	5.6269	4.458364	0.000291	2.906061	0.492300	-0.000029
1446	1.4378e+02	5.6191	4.436775	0.000217	2.169313	0.367492	-0.000022
1447	1.4388e+02	5.6113	4.412335	0.000246	2.455826	0.416028	-0.000025
1448	1.4398e+02	5.5971	4.387894	0.000246	2.455826	0.416028	-0.000025
1449	1.4408e+02	5.5854	4.363046	0.000250	2.496756	0.422962	-0.000025
1450	1.4418e+02	5.5798	4.343086	0.000201	2.005591	0.339756	-0.000020
1451	1.4428e+02	5.5680	4.317831	0.000254	2.537687	0.429896	-0.000025
1452	1.4437e+02	5.5587	4.297871	0.000201	2.005591	0.339756	-0.000020
1453	1.4447e+02	5.5489	4.276282	0.000217	2.169313	0.367492	-0.000022
1454	1.4457e+02	5.5384	4.253064	0.000233	2.333035	0.395227	-0.000023
1455	1.4467e+02	5.5300	4.228216	0.000250	2.496756	0.422962	-0.000025
1456	1.4477e+02	5.5190	4.205405	0.000229	2.292104	0.388293	-0.000023
1457	1.4487e+02	5.5061	4.183815	0.000217	2.169313	0.367492	-0.000022
1458	1.4497e+02	5.4958	4.159375	0.000246	2.455826	0.416028	-0.000025
1459	1.4507e+02	5.4902	4.134934	0.000246	2.455826	0.416028	-0.000025
1460	1.4517e+02	5.4816	4.114974	0.000201	2.005591	0.339756	-0.000020
1461	1.4527e+02	5.4688	4.092978	0.000221	2.210243	0.374425	-0.000022
1462	1.4537e+02	5.4569	4.071389	0.000217	2.169313	0.367492	-0.000022
1463	1.4547e+02	5.4485	4.046948	0.000246	2.455826	0.416028	-0.000025
1464	1.4557e+02	5.4397	4.024544	0.000225	2.251174	0.381359	-0.000023
1465	1.4567e+02	5.4270	4.003770	0.000209	2.087452	0.353624	-0.000021
1466	1.4577e+02	5.4173	3.979737	0.000241	2.414895	0.409094	-0.000024
1467	1.4587e+02	5.4107	3.961406	0.000184	1.841869	0.312021	-0.000018
1468	1.4597e+02	5.4007	3.939817	0.000217	2.169313	0.367492	-0.000022
1469	1.4607e+02	5.3899	3.912933	0.000270	2.701409	0.457631	-0.000027
1470	1.4617e+02	5.3799	3.895417	0.000176	1.760009	0.298154	-0.000018
1471	1.4626e+02	5.3706	3.872198	0.000233	2.333035	0.395227	-0.000023
1472	1.4636e+02	5.3565	3.849794	0.000225	2.251174	0.381359	-0.000023
1473	1.4646e+02	5.3496	3.829020	0.000209	2.087452	0.353624	-0.000021
1474	1.4656e+02	5.3391	3.809875	0.000192	1.923730	0.325889	-0.000019
1475	1.4666e+02	5.3287	3.785434	0.000246	2.455826	0.416028	-0.000025
1476	1.4676e+02	5.3181	3.764253	0.000213	2.128382	0.360558	-0.000021
1477	1.4686e+02	5.3092	3.741849	0.000225	2.251174	0.381359	-0.000023
1478	1.4696e+02	5.3001	3.723926	0.000180	1.800939	0.305087	-0.000018
1479	1.4706e+02	5.2894	3.701929	0.000221	2.210243	0.374425	-0.000022
1480	1.4716e+02	5.2798	3.675452	0.000266	2.660478	0.450697	-0.000027
1481	1.4726e+02	5.2728	3.655492	0.000201	2.005591	0.339756	-0.000020
1482	1.4736e+02	5.2588	3.632274	0.000233	2.333035	0.395227	-0.000023
1483	1.4746e+02	5.2502	3.610277	0.000221	2.210243	0.374425	-0.000022
1484	1.4756e+02	5.2390	3.588688	0.000217	2.169313	0.367492	-0.000022
1485	1.4766e+02	5.2303	3.569135	0.000196	1.964661	0.332823	-0.000020
1486	1.4776e+02	5.2226	3.549176	0.000201	2.005591	0.339756	-0.000020
1487	1.4786e+02	5.2078	3.526772	0.000225	2.251174	0.381359	-0.000023
1488	1.4796e+02	5.2003	3.507627	0.000192	1.923730	0.325889	-0.000019
1489	1.4806e+02	5.1913	3.486038	0.000217	2.169313	0.367492	-0.000022
1490	1.4816e+02	5.1809	3.463226	0.000229	2.292104	0.388293	-0.000023
1491	1.4825e+02	5.1694	3.443674	0.000196	1.964661	0.332823	-0.000020
1492	1.4835e+02	5.1594	3.421677	0.000221	2.210243	0.374425	-0.000022
1493	1.4845e+02	5.1534	3.396422	0.000254	2.537687	0.429896	-0.000025
1494	1.4855e+02	5.1389	3.377684	0.000188	1.882800	0.318955	-0.000019
1495	1.4865e+02	5.1330	3.359761	0.000180	1.800939	0.305087	-0.000018
1496	1.4875e+02	5.1193	3.335321	0.000246	2.455826	0.416028	-0.000025
1497	1.4885e+02	5.1110	3.310066	0.000254	2.537687	0.429896	-0.000025
1498	1.4895e+02	5.0991	3.293365	0.000168	1.678148	0.284286	-0.000017
1499	1.4905e+02	5.0898	3.268924	0.000246	2.455826	0.416028	-0.000025
1500	1.4915e+02	5.0809	3.247742	0.000213	2.128382	0.360558	-0.000021
1501	1.4925e+02	5.0701	3.225746	0.000221	2.210243	0.374425	-0.000022
1502	1.4935e+02	5.0597	3.206193	0.000196	1.964661	0.332823	-0.000020
1503	1.4945e+02	5.0515	3.185011	0.000213	2.128382	0.360558	-0.000021
1504	1.4955e+02	5.0407	3.161793	0.000233	2.333035	0.395227	-0.000023
1505	1.4965e+02	5.0318	3.143055	0.000188	1.882800	0.318955	-0.000019
1506	1.4975e+02	5.0194	3.126354	0.000168	1.678148	0.284286	-0.000017
1507	1.4985e+02	5.0105	3.104765	0.000217	2.169313	0.367492	-0.000022
1508	1.4995e+02	5.0021	3.083176	0.000217	2.169313	0.367492	-0.000022
1509	1.5005e+02	4.9914	3.063216	0.000201	2.005591	0.339756	-0.000020
1510	1.5015e+02	4.9818	3.043256	0.000201	2.005591	0.339756	-0.000020
1511	1.5025e+02	4.9731	3.019223	0.000241	2.414895	0.409094	-0.000024
1512	1.5034e+02	4.9609	3.000078	0.000192	1.923730	0.325889	-0.000019
1513	1.5044e+02	4.9558	2.980933	0.000192	1.923730	0.325889	-0.000019
1514	1.5054e+02	4.9415	2.958936	0.000221	2.210243	0.374425	-0.000022
1515	1.5064e+02	4.9316	2.938569	0.000205	2.046522	0.346690	-0.000020
1516	1.5074e+02	4.9218	2.924720	0.000139	1.391635	0.235749	-0.000014
1517	1.5084e+02	4.9126	2.904760	0.000201	2.005591	0.339756	-0.000020
1518	1.5094e+02	4.9014	2.886429	0.000184	1.841869	0.312021	-0.000018
1519	1.5104e+02	4.8919	2.869728	0.000168	1.678148	0.284286	-0.000017
1520	1.5114e+02	4.8829	2.850991	0.000188	1.882800	0.318955	-0.000019
1521	1.5124e+02	4.8728	2.830216	0.000209	2.087452	0.353624	-0.000021
1522	1.5134e+02	4.8612	2.804961	0.000254	2.537687	0.429896	-0.000025
1523	1.5144e+02	4.8540	2.791926	0.000131	1.309774	0.221882	-0.000013
1524	1.5154e+02	4.8434	2.766671	0.000254	2.537687	0.429896	-0.000025
1525	1.5164e+02	4.8312	2.743452	0.000233	2.333035	0.395227	-0.000023
1526	1.5174e+02	4.8211	2.728380	0.000151	1.514426	0.256551	-0.000015
1527	1.5184e+02	4.8121	2.702718	0.000258	2.578617	0.436830	-0.000026
1528	1.5194e+02	4.8055	2.684795	0.000180	1.800939	0.305087	-0.000018
1529	1.5204e+02	4.7929	2.661984	0.000229	2.292104	0.388293	-0.000023
1530	1.5214e+02	4.7822	2.644875	0.000172	1.719078	0.291220	-0.000017
1531	1.5224e+02	4.7729	2.625323	0.000196	1.964661	0.332823	-0.000020
1532	1.5233e+02	4.7631	2.602104	0.000233	2.333035	0.395227	-0.000023
1533	1.5243e+02	4.7524	2.580515	0.000217	2.169313	0.367492	-0.000022
1534	1.5253e+02	4.7456	2.557704	0.000229	2.292104	0.388293	-0.000023
1535	1.5263e+02	4.7298	2.532449	0.000254	2.537687	0.429896	-0.000025
1536	1.5273e+02	4.7247	2.508823	0.000237	2.373965	0.402161	-0.000024
1537	1.5283e+02	4.7099	2.486826	0.000221	2.210243	0.374425	-0.000022
1538	1.5293e+02	4.6993	2.461978	0.000250	2.496756	0.422962	-0.000025
1539	1.5303e+02	4.6932	2.440389	0.000217	2.169313	0.367492	-0.000022
1540	1.5313e+02	4.6828	2.418393	0.000221	2.210243	0.374425	-0.000022
1541	1.5323e+02	4.6732	2.392730	0.000258	2.578617	0.436830	-0.000026
1542	1.5333e+02	4.6632	2.367882	0.000250	2.496756	0.422962	-0.000025
1543	1.5343e+02	4.6526	2.347108	0.000209	2.087452	0.353624	-0.000021
1544	1.5353e+02	4.6427	2.325926	0.000213	2.128382	0.360558	-0.000021
1545	1.5363e+02	4.6320	2.293746	0.000323	3.233504	0.547770	-0.000032
1546	1.5373e+02	4.6252	2.275008	0.000188	1.882800	0.318955	-0.000019
1547	1.5383e+02	4.6122	2.245272	0.000299	2.987922	0.506168	-0.000030
1548	1.5393e+02	4.6029	2.225720	0.000196	1.964661	0.332823	-0.000020
1549	1.5403e+02	4.5937	2.201686	0.000241	2.414895	0.409094	-0.000024
1550	1.5413e+02	4.5829	2.176431	0.000254	2.537687	0.429896	-0.000025
1551	1.5422e+02	4.5731	2.149954	0.000266	2.660478	0.450697	-0.000027
1552	1.5432e+02	4.5641	2.129994	0.000201	2.005591	0.339756	-0.000020
1553	1.5442e+02	4.5553	2.104332	0.000258	2.578617	0.436830	-0.000026
1554	1.5452e+02	4.5448	2.079484	0.000250	2.496756	0.422962	-0.000025
1555	1.5462e+02	4.5330	2.051377	0.000282	2.824200	0.478432	-0.000028
1556	1.5472e+02	4.5236	2.030603	0.000209	2.087452	0.353624	-0.000021
1557	1.5482e+02	4.5147	2.004940	0.000258	2.578617	0.436830	-0.000026
1558	1.5492e+02	4.5055	1.979685	0.000254	2.537687	0.429896	-0.000025
1559	1.5502e+02	4.4946	1.956059	0.000237	2.373965	0.402161	-0.000024
1560	1.5512e+02	4.4839	1.927952	0.000282	2.824200	0.478432	-0.000028
1561	1.5522e+02	4.4747	1.907178	0.000209	2.087452	0.353624	-0.000021
1562	1.5532e+02	4.4656	1.878664	0.000287	2.865130	0.485366	-0.000029
1563	1.5542e+02	4.4537	1.855853	0.000229	2.292104	0.388293	-0.000023
1564	1.5552e+02	4.4446	1.829375	0.000266	2.660478	0.450697	-0.000027
1565	1.5562e+02	4.4343	1.804528	0.000250	2.496756	0.422962	-0.000025
1566	1.5572e+02	4.4233	1.777643	0.000270	2.701409	0.457631	-0.000027
1567	1.5582e+02	4.4129	1.754832	0.000229	2.292104	0.388293	-0.000023
1568	1.5592e+02	4.4028	1.728762	0.000262	2.619548	0.443763	-0.000026
1569	1.5602e+02	4.3937	1.703507	0.000254	2.537687	0.429896	-0.000025
1570	1.5612e+02	4.3837	1.675400	0.000282	2.824200	0.478432	-0.000028
1571	1.5622e+02	4.3755	1.651367	0.000241	2.414895	0.409094	-0.000024
1572	1.5631e+02	4.3658	1.626111	0.000254	2.537687	0.429896	-0.000025
1573	1.5641e+02	4.3538	1.600449	0.000258	2.578617	0.436830	-0.000026
1574	1.5651e+02	4.3488	1.576823	0.000237	2.373965	0.402161	-0.000024
1575	1.5661e+02	4.3337	1.546272	0.000307	3.069782	0.520035	-0.000031
1576	1.5671e+02	4.3256	1.527127	0.000192	1.923730	0.325889	-0.000019
1577	1.5681e+02	4.3144	1.496169	0.000311	3.110713	0.526969	-0.000031
1578	1.5691e+02	4.3061	1.476209	0.000201	2.005591	0.339756	-0.000020
1579	1.5701e+02	4.2933	1.445659	0.000307	3.069782	0.520035	-0.000031
1580	1.5711e+02	4.2857	1.422848	0.000229	2.292104	0.388293	-0.000023
1581	1.5721e+02	4.2762	1.395963	0.000270	2.701409	0.457631	-0.000027
1582	1.5731e+02	4.2651	1.371522	0.000246	2.455826	0.416028	-0.000025
1583	1.5741e+02	4.2565	1.341379	0.000303	3.028852	0.513101	-0.000030
1584	1.5751e+02	4.2448	1.321419	0.000201	2.005591	0.339756	-0.000020
1585	1.5761e+02	4.2341	1.290054	0.000315	3.151643	0.533903	-0.000032
1586	1.5771e+02	4.2251	1.266428	0.000237	2.373965	0.402161	-0.000024
1587	1.5781e+02	4.2146	1.239951	0.000266	2.660478	0.450697	-0.000027
1588	1.5791e+02	4.2071	1.212251	0.000278	2.783269	0.471499	-0.000028
1589	1.5801e+02	4.1928	1.184959	0.000274	2.742339	0.464565	-0.000027
1590	1.5811e+02	4.1825	1.154409	0.000307	3.069782	0.520035	-0.000031
1591	1.5821e+02	4.1781	1.126302	0.000282	2.824200	0.478432	-0.000028
1592	1.5830e+02	4.1651	1.100640	0.000258	2.578617	0.436830	-0.000026
1593	1.5840e+02	4.1584	1.072533	0.000282	2.824200	0.478432	-0.000028
1594	1.5850e+02	4.1463	1.046056	0.000266	2.660478	0.450697	-0.000027
1595	1.5860e+02	4.1337	1.018764	0.000274	2.742339	0.464565	-0.000027
1596	1.5870e+02	4.1257	0.993508	0.000254	2.537687	0.429896	-0.000025
1597	1.5880e+02	4.1145	0.964180	0.000295	2.946991	0.499234	-0.000029
1598	1.5890e+02	4.1048	0.936481	0.000278	2.783269	0.471499	-0.000028
1599	1.5900e+02	4.0937	0.907559	0.000291	2.906061	0.492300	-0.000029
1600	1.5910e+02	4.0903	0.873750	0.000340	3.397226	0.575506	-0.000034
1601	1.5920e+02	4.0742	0.846050	0.000278	2.783269	0.471499	-0.000028
1602	1.5930e+02	4.0650	0.817537	0.000287	2.865130	0.485366	-0.000029
1603	1.5940e+02	4.0539	0.789430	0.000282	2.824200	0.478432	-0.000028
1604	1.5950e+02	4.0446	0.758472	0.000311	3.110713	0.526969	-0.000031
1605	1.5960e+02	4.0365	0.729143	0.000295	2.946991	0.499234	-0.000029
1606	1.5970e+02	4.0274	0.700629	0.000287	2.865130	0.485366	-0.000029
1607	1.5980e+02	4.0166	0.673745	0.000270	2.701409	0.457631	-0.000027
1608	1.5990e+02	4.0054	0.647675	0.000262	2.619548	0.443763	-0.000026
1609	1.6000e+02	3.9983	0.619161	0.000287	2.865130	0.485366	-0.000029
1610	1.6010e+02	3.9876	0.590647	0.000287	2.865130	0.485366	-0.000029
1611	1.6019e+02	3.9752	0.568243	0.000225	2.251174	0.381359	-0.000023
1612	1.6029e+02	3.9645	0.536470	0.000319	3.192574	0.540837	-0.000032
1613	1.6039e+02	3.9574	0.508771	0.000278	2.783269	0.471499	-0.000028
1614	1.6049e+02	3.9445	0.479442	0.000295	2.946991	0.499234	-0.000029
1615	1.6059e+02	3.9360	0.454187	0.000254	2.537687	0.429896	-0.000025
1616	1.6069e+02	3.9278	0.429746	0.000246	2.455826	0.416028	-0.000025
1617	1.6079e+02	3.9148	0.400418	0.000295	2.946991	0.499234	-0.000029
1618	1.6089e+02	3.9122	0.378014	0.000225	2.251174	0.381359	-0.000023
1619	1.6099e+02	3.8988	0.348278	0.000299	2.987922	0.506168	-0.000030
1620	1.6109e+02	3.8853	0.324245	0.000241	2.414895	0.409094	-0.000024
1621	1.6119e+02	3.8758	0.297767	0.000266	2.660478	0.450697	-0.000027
1622	1.6129e+02	3.8659	0.272512	0.000254	2.537687	0.429896	-0.000025
1623	1.6139e+02	3.8558	0.247664	0.000250	2.496756	0.422962	-0.000025
1624	1.6149e+02	3.8476	0.220780	0.000270	2.701409	0.457631	-0.000027
1625	1.6159e+02	3.8366	0.196746	0.000241	2.414895	0.409094	-0.000024
1626	1.6169e+02	3.8263	0.173121	0.000237	2.373965	0.402161	-0.000024
1627	1.6179e+02	3.8171	0.140533	0.000327	3.274435	0.554704	-0.000033
1628	1.6189e+02	3.8053	0.120981	0.000196	1.964661	0.332823	-0.000020
1629	1.6199e+02	3.7946	0.094096	0.000270	2.701409	0.457631	-0.000027
1630	1.6209e+02	3.7840	0.069656	0.000246	2.455826	0.416028	-0.000025
1631	1.6219e+02	3.7772	0.043586	0.000262	2.619548	0.443763	-0.000026
1632	1.6228e+02	3.7672	0.013442	0.000303	3.028852	0.513101	-0.000030
1633	1.6238e+02	3.7576	-0.008147	0.000217	2.169313	0.367492	-0.000022
1634	1.6248e+02	3.7474	-0.029329	0.000213	2.128382	0.360558	-0.000021
1635	1.6258e+02	3.7377	-0.054177	0.000250	2.496756	0.422962	-0.000025
1636	1.6268e+02	3.7283	-0.081876	0.000278	2.783269	0.471499	-0.000028
1637	1.6278e+02	3.7167	-0.109575	0.000278	2.783269	0.471499	-0.000028
1638	1.6288e+02	3.7070	-0.133608	0.000241	2.414895	0.409094	-0.000024
1639	1.6298e+02	3.6935	-0.158049	0.000246	2.455826	0.416028	-0.000025
1640	1.6308e+02	3.6868	-0.182897	0.000250	2.496756	0.422962	-0.000025
1641	1.6318e+02	3.6775	-0.208967	0.000262	2.619548	0.443763	-0.000026
1642	1.6328e+02	3.6660	-0.233407	0.000246	2.455826	0.416028	-0.000025
1643	1.6338e+02	3.6610	-0.255811	0.000225	2.251174	0.381359	-0.000023
1644	1.6348e+02	3.6474	-0.283510	0.000278	2.783269	0.471499	-0.000028
1645	1.6358e+02	3.6389	-0.306322	0.000229	2.292104	0.388293	-0.000023
1646	1.6368e+02	3.6323	-0.331577	0.000254	2.537687	0.429896	-0.000025
1647	1.6378e+02	3.6172	-0.358054	0.000266	2.660478	0.450697	-0.000027
1648	1.6388e+02	3.6087	-0.380051	0.000221	2.210243	0.374425	-0.000022
1649	1.6398e+02	3.6008	-0.406935	0.000270	2.701409	0.457631	-0.000027
1650	1.6408e+02	3.5863	-0.432598	0.000258	2.578617	0.436830	-0.000026
1651	1.6418e+02	3.5778	-0.457853	0.000254	2.537687	0.429896	-0.000025
1652	1.6427e+02	3.5668	-0.481072	0.000233	2.333035	0.395227	-0.000023
1653	1.6437e+02	3.5578	-0.503883	0.000229	2.292104	0.388293	-0.000023
1654	1.6447e+02	3.5506	-0.529953	0.000262	2.619548	0.443763	-0.000026
1655	1.6457e+02	3.5387	-0.555615	0.000258	2.578617	0.436830	-0.000026
1656	1.6467e+02	3.5285	-0.580463	0.000250	2.496756	0.422962	-0.000025
1657	1.6477e+02	3.5177	-0.604496	0.000241	2.414895	0.409094	-0.000024
1658	1.6487e+02	3.5082	-0.629344	0.000250	2.496756	0.422962	-0.000025
1659	1.6497e+02	3.4986	-0.652563	0.000233	2.333035	0.395227	-0.000023
1660	1.6507e+02	3.4914	-0.676596	0.000241	2.414895	0.409094	-0.000024
1661	1.6517e+02	3.4756	-0.702666	0.000262	2.619548	0.443763	-0.000026
1662	1.6527e+02	3.4708	-0.730773	0.000282	2.824200	0.478432	-0.000028
1663	1.6537e+02	3.4608	-0.751547	0.000209	2.087452	0.353624	-0.000021
1664	1.6547e+02	3.4492	-0.778839	0.000274	2.742339	0.464565	-0.000027
1665	1.6557e+02	3.4379	-0.804094	0.000254	2.537687	0.429896	-0.000025
1666	1.6567e+02	3.4295	-0.825683	0.000217	2.169313	0.367492	-0.000022
1667	1.6577e+02	3.4217	-0.852975	0.000274	2.742339	0.464565	-0.000027
1668	1.6587e+02	3.4097	-0.876194	0.000233	2.333035	0.395227	-0.000023
1669	1.6597e+02	3.3996	-0.901042	0.000250	2.496756	0.422962	-0.000025
1670	1.6607e+02	3.3907	-0.925890	0.000250	2.496756	0.422962	-0.000025
1671	1.6616e+02	3.3806	-0.950738	0.000250	2.496756	0.422962	-0.000025
1672	1.6626e+02	3.3718	-0.975178	0.000246	2.455826	0.416028	-0.000025
1673	1.6636e+02	3.3595	-0.995953	0.000209	2.087452	0.353624	-0.000021
1674	1.6646e+02	3.3485	-1.020393	0.000246	2.455826	0.416028	-0.000025
1675	1.6656e+02	3.3377	-1.045241	0.000250	2.496756	0.422962	-0.000025
1676	1.6666e+02	3.3301	-1.068867	0.000237	2.373965	0.402161	-0.000024
1677	1.6676e+02	3.3193	-1.092085	0.000233	2.333035	0.395227	-0.000023
1678	1.6686e+02	3.3141	-1.113675	0.000217	2.169313	0.367492	-0.000022
1679	1.6696e+02	3.3007	-1.141781	0.000282	2.824200	0.478432	-0.000028
1680	1.6706e+02	3.2870	-1.167444	0.000258	2.578617	0.436830	-0.000026
1681	1.6716e+02	3.2815	-1.188626	0.000213	2.128382	0.360558	-0.000021
1682	1.6726e+02	3.2681	-1.212659	0.000241	2.414895	0.409094	-0.000024
1683	1.6736e+02	3.2608	-1.235877	0.000233	2.333035	0.395227	-0.000023
1684	1.6746e+02	3.2510	-1.253800	0.000180	1.800939	0.305087	-0.000018
1685	1.6756e+02	3.2395	-1.275797	0.000221	2.210243	0.374425	-0.000022
1686	1.6766e+02	3.2281	-1.296164	0.000205	2.046522	0.346690	-0.000020
1687	1.6776e+02	3.2204	-1.320197	0.000241	2.414895	0.409094	-0.000024
1688	1.6786e+02	3.2104	-1.339342	0.000192	1.923730	0.325889	-0.000019
1689	1.6796e+02	3.1992	-1.364598	0.000254	2.537687	0.429896	-0.000025
1690	1.6806e+02	3.1919	-1.391482	0.000270	2.701409	0.457631	-0.000027
1691	1.6816e+02	3.1805	-1.411849	0.000205	2.046522	0.346690	-0.000020
1692	1.6825e+02	3.1675	-1.436697	0.000250	2.496756	0.422962	-0.000025
1693	1.6835e+02	3.1609	-1.462767	0.000262	2.619548	0.443763	-0.000026
1694	1.6845e+02	3.1496	-1.487208	0.000246	2.455826	0.416028	-0.000025
1695	1.6855e+02	3.1426	-1.509204	0.000221	2.210243	0.374425	-0.000022
1696	1.6865e+02	3.1319	-1.532830	0.000237	2.373965	0.402161	-0.000024
1697	1.6875e+02	3.1199	-1.557678	0.000250	2.496756	0.422962	-0.000025
1698	1.6885e+02	3.1089	-1.582118	0.000246	2.455826	0.416028	-0.000025
1699	1.6895e+02	3.1009	-1.604930	0.000229	2.292104	0.388293	-0.000023
1700	1.6905e+02	3.0930	-1.632222	0.000274	2.742339	0.464565	-0.000027
1701	1.6915e+02	3.0822	-1.658292	0.000262	2.619548	0.443763	-0.000026
1702	1.6925e+02	3.0692	-1.685991	0.000278	2.783269	0.471499	-0.000028
1703	1.6935e+02	3.0625	-1.712875	0.000270	2.701409	0.457631	-0.000027
1704	1.6945e+02	3.0510	-1.736094	0.000233	2.333035	0.395227	-0.000023
1705	1.6955e+02	3.0402	-1.763386	0.000274	2.742339	0.464565	-0.000027
1706	1.6965e+02	3.0317	-1.791900	0.000287	2.865130	0.485366	-0.000029
1707	1.6975e+02	3.0213	-1.813896	0.000221	2.210243	0.374425	-0.000022
1708	1.6985e+02	3.0109	-1.844040	0.000303	3.028852	0.513101	-0.000030
1709	1.6995e+02	3.0038	-1.869702	0.000258	2.578617	0.436830	-0.000026
1710	1.7005e+02	2.9900	-1.901068	0.000315	3.151643	0.533903	-0.000032
1711	1.7015e+02	2.9816	-1.925101	0.000241	2.414895	0.409094	-0.000024
1712	1.7024e+02	2.9710	-1.953208	0.000282	2.824200	0.478432	-0.000028
1713	1.7034e+02	2.9615	-1.986610	0.000336	3.356295	0.568572	-0.000034
1714	1.7044e+02	2.9508	-2.011865	0.000254	2.537687	0.429896	-0.000025
1715	1.7054e+02	2.9409	-2.038342	0.000266	2.660478	0.450697	-0.000027
1716	1.7064e+02	2.9311	-2.063597	0.000254	2.537687	0.429896	-0.000025
1717	1.7074e+02	2.9238	-2.088038	0.000246	2.455826	0.416028	-0.000025
1718	1.7084e+02	2.9104	-2.120218	0.000323	3.233504	0.547770	-0.000032
1719	1.7094e+02	2.9014	-2.149954	0.000299	2.987922	0.506168	-0.000030
1720	1.7104e+02	2.8915	-2.176431	0.000266	2.660478	0.450697	-0.000027
1721	1.7114e+02	2.8848	-2.204131	0.000278	2.783269	0.471499	-0.000028
1722	1.7124e+02	2.8728	-2.232237	0.000282	2.824200	0.478432	-0.000028
1723	1.7134e+02	2.8605	-2.261159	0.000291	2.906061	0.492300	-0.000029
1724	1.7144e+02	2.8509	-2.289672	0.000287	2.865130	0.485366	-0.000029
1725	1.7154e+02	2.8437	-2.317372	0.000278	2.783269	0.471499	-0.000028
1726	1.7164e+02	2.8313	-2.348330	0.000311	3.110713	0.526969	-0.000031
1727	1.7174e+02	2.8233	-2.373585	0.000254	2.537687	0.429896	-0.000025
1728	1.7184e+02	2.8126	-2.405358	0.000319	3.192574	0.540837	-0.000032
1729	1.7194e+02	2.8028	-2.432242	0.000270	2.701409	0.457631	-0.000027
1730	1.7204e+02	2.7894	-2.458720	0.000266	2.660478	0.450697	-0.000027
1731	1.7213e+02	2.7814	-2.488863	0.000303	3.028852	0.513101	-0.000030
1732	1.7223e+02	2.7768	-2.516970	0.000282	2.824200	0.478432	-0.000028
1733	1.7233e+02	2.7587	-2.543854	0.000270	2.701409	0.457631	-0.000027
1734	1.7243e+02	2.7523	-2.576034	0.000323	3.233504	0.547770	-0.000032
1735	1.7253e+02	2.7421	-2.604548	0.000287	2.865130	0.485366	-0.000029
1736	1.7263e+02	2.7308	-2.628581	0.000241	2.414895	0.409094	-0.000024
1737	1.7273e+02	2.7222	-2.660354	0.000319	3.192574	0.540837	-0.000032
1738	1.7283e+02	2.7122	-2.689683	0.000295	2.946991	0.499234	-0.000029
1739	1.7293e+02	2.7026	-2.721456	0.000319	3.192574	0.540837	-0.000032
1740	1.7303e+02	2.6921	-2.751599	0.000303	3.028852	0.513101	-0.000030
1741	1.7313e+02	2.6806	-2.780928	0.000295	2.946991	0.499234	-0.000029
1742	1.7323e+02	2.6713	-2.811886	0.000311	3.110713	0.526969	-0.000031
1743	1.7333e+02	2.6600	-2.837548	0.000258	2.578617	0.436830	-0.000026
1744	1.7343e+02	2.6533	-2.869728	0.000323	3.233504	0.547770	-0.000032
1745	1.7353e+02	2.6421	-2.898242	0.000287	2.865130	0.485366	-0.000029
1746	1.7363e+02	2.6327	-2.925942	0.000278	2.783269	0.471499	-0.000028
1747	1.7373e+02	2.6226	-2.954863	0.000291	2.906061	0.492300	-0.000029
1748	1.7383e+02	2.6118	-2.982562	0.000278	2.783269	0.471499	-0.000028
1749	1.7393e+02	2.6009	-3.018001	0.000356	3.560948	0.603241	-0.000036
1750	1.7403e+02	2.5916	-3.043664	0.000258	2.578617	0.436830	-0.000026
1751	1.7413e+02	2.5818	-3.072178	0.000287	2.865130	0.485366	-0.000029
1752	1.7422e+02	2.5736	-3.097840	0.000258	2.578617	0.436830	-0.000026
1753	1.7432e+02	2.5615	-3.130835	0.000332	3.315365	0.561638	-0.000033
1754	1.7442e+02	2.5529	-3.161793	0.000311	3.110713	0.526969	-0.000031
1755	1.7452e+02	2.5440	-3.191122	0.000295	2.946991	0.499234	-0.000029
1756	1.7462e+02	2.5319	-3.222894	0.000319	3.192574	0.540837	-0.000032
1757	1.7472e+02	2.5240	-3.253445	0.000307	3.069782	0.520035	-0.000031
1758	1.7482e+02	2.5134	-3.290106	0.000368	3.683739	0.624042	-0.000037
1759	1.7492e+02	2.5040	-3.316990	0.000270	2.701409	0.457631	-0.000027
1760	1.7502e+02	2.4958	-3.349170	0.000323	3.233504	0.547770	-0.000032
1761	1.7512e+02	2.4850	-3.379314	0.000303	3.028852	0.513101	-0.000030
1762	1.7522e+02	2.4731	-3.413123	0.000340	3.397226	0.575506	-0.000034
1763	1.7532e+02	2.4651	-3.442452	0.000295	2.946991	0.499234	-0.000029
1764	1.7542e+02	2.4545	-3.472188	0.000299	2.987922	0.506168	-0.000030
1765	1.7552e+02	2.4438	-3.505183	0.000332	3.315365	0.561638	-0.000033
1766	1.7562e+02	2.4342	-3.538177	0.000332	3.315365	0.561638	-0.000033
1767	1.7572e+02	2.4240	-3.567506	0.000295	2.946991	0.499234	-0.000029
1768	1.7582e+02	2.4142	-3.603352	0.000360	3.601878	0.610175	-0.000036
1769	1.7592e+02	2.4053	-3.634310	0.000311	3.110713	0.526969	-0.000031
1770	1.7602e+02	2.3935	-3.670564	0.000364	3.642808	0.617108	-0.000036
1771	1.7612e+02	2.3853	-3.703151	0.000327	3.274435	0.554704	-0.000033
1772	1.7621e+02	2.3757	-3.736146	0.000332	3.315365	0.561638	-0.000033
1773	1.7631e+02	2.3664	-3.770770	0.000348	3.479087	0.589373	-0.000035
1774	1.7641e+02	2.3548	-3.802135	0.000315	3.151643	0.533903	-0.000032
1775	1.7651e+02	2.3435	-3.833093	0.000311	3.110713	0.526969	-0.000031
1776	1.7661e+02	2.3354	-3.859571	0.000266	2.660478	0.450697	-0.000027
1777	1.7671e+02	2.3257	-3.894602	0.000352	3.520017	0.596307	-0.000035
1778	1.7681e+02	2.3116	-3.925968	0.000315	3.151643	0.533903	-0.000032
1779	1.7691e+02	2.3060	-3.955704	0.000299	2.987922	0.506168	-0.000030
1780	1.7701e+02	2.2942	-3.988291	0.000327	3.274435	0.554704	-0.000033
1781	1.7711e+02	2.2838	-4.018434	0.000303	3.028852	0.513101	-0.000030
1782	1.7721e+02	2.2751	-4.050207	0.000319	3.192574	0.540837	-0.000032
1783	1.7731e+02	2.2639	-4.079128	0.000291	2.906061	0.492300	-0.000029
1784	1.7741e+02	2.2536	-4.112123	0.000332	3.315365	0.561638	-0.000033
1785	1.7751e+02	2.2459	-4.140637	0.000287	2.865130	0.485366	-0.000029
1786	1.7761e+02	2.2334	-4.168336	0.000278	2.783269	0.471499	-0.000028
1787	1.7771e+02	2.2256	-4.199294	0.000311	3.110713	0.526969	-0.000031
1788	1.7781e+02	2.2134	-4.231882	0.000327	3.274435	0.554704	-0.000033
1789	1.7791e+02	2.2063	-4.260396	0.000287	2.865130	0.485366	-0.000029
1790	1.7801e+02	2.1929	-4.290132	0.000299	2.987922	0.506168	-0.000030
1791	1.7810e+02	2.1876	-4.317424	0.000274	2.742339	0.464565	-0.000027
1792	1.7820e+02	2.1779	-4.346752	0.000295	2.946991	0.499234	-0.000029
1793	1.7830e+02	2.1658	-4.376081	0.000295	2.946991	0.499234	-0.000029
1794	1.7840e+02	2.1535	-4.404595	0.000287	2.865130	0.485366	-0.000029
1795	1.7850e+02	2.1453	-4.435960	0.000315	3.151643	0.533903	-0.000032
1796	1.7860e+02	2.1336	-4.466511	0.000307	3.069782	0.520035	-0.000031
1797	1.7870e+02	2.1273	-4.494618	0.000282	2.824200	0.478432	-0.000028
1798	1.7880e+02	2.1173	-4.525576	0.000311	3.110713	0.526969	-0.000031
1799	1.7890e+02	2.1056	-4.552868	0.000274	2.742339	0.464565	-0.000027
1800	1.7900e+02	2.0962	-4.581789	0.000291	2.906061	0.492300	-0.000029
1801	1.7910e+02	2.0876	-4.611932	0.000303	3.028852	0.513101	-0.000030
1802	1.7920e+02	2.0762	-4.638817	0.000270	2.701409	0.457631	-0.000027
1803	1.7930e+02	2.0676	-4.668960	0.000303	3.028852	0.513101	-0.000030
1804	1.7940e+02	2.0543	-4.697474	0.000287	2.865130	0.485366	-0.000029
1805	1.7950e+02	2.0455	-4.729247	0.000319	3.192574	0.540837	-0.000032
1806	1.7960e+02	2.0329	-4.755317	0.000262	2.619548	0.443763	-0.000026
1807	1.7970e+02	2.0245	-4.786275	0.000311	3.110713	0.526969	-0.000031
1808	1.7980e+02	2.0159	-4.816011	0.000299	2.987922	0.506168	-0.000030
1809	1.7990e+02	2.0075	-4.842896	0.000270	2.701409	0.457631	-0.000027
1810	1.8000e+02	1.9949	-4.871410	0.000287	2.865130	0.485366	-0.000029
1811	1.8009e+02	1.9875	-4.899924	0.000287	2.865130	0.485366	-0.000029
1812	1.8019e+02	1.9784	-4.925586	0.000258	2.578617	0.436830	-0.000026
1813	1.8029e+02	1.9664	-4.958581	0.000332	3.315365	0.561638	-0.000033
1814	1.8039e+02	1.9564	-4.989539	0.000311	3.110713	0.526969	-0.000031
1815	1.8049e+02	1.9464	-5.014794	0.000254	2.537687	0.429896	-0.000025
1816	1.8059e+02	1.9378	-5.045752	0.000311	3.110713	0.526969	-0.000031
1817	1.8069e+02	1.9273	-5.074266	0.000287	2.865130	0.485366	-0.000029
1818	1.8079e+02	1.9176	-5.099521	0.000254	2.537687	0.429896	-0.000025
1819	1.8089e+02	1.9080	-5.130072	0.000307	3.069782	0.520035	-0.000031
1820	1.8099e+02	1.8971	-5.161845	0.000319	3.192574	0.540837	-0.000032
1821	1.8109e+02	1.8870	-5.186693	0.000250	2.496756	0.422962	-0.000025
1822	1.8119e+02	1.8747	-5.213985	0.000274	2.742339	0.464565	-0.000027
1823	1.8129e+02	1.8682	-5.246165	0.000323	3.233504	0.547770	-0.000032
1824	1.8139e+02	1.8566	-5.270605	0.000246	2.455826	0.416028	-0.000025
1825	1.8149e+02	1.8439	-5.303600	0.000332	3.315365	0.561638	-0.000033
1826	1.8159e+02	1.8360	-5.330892	0.000274	2.742339	0.464565	-0.000027
1827	1.8169e+02	1.8262	-5.359813	0.000291	2.906061	0.492300	-0.000029
1828	1.8179e+02	1.8159	-5.388327	0.000287	2.865130	0.485366	-0.000029
1829	1.8189e+02	1.8075	-5.412768	0.000246	2.455826	0.416028	-0.000025
1830	1.8199e+02	1.7984	-5.444541	0.000319	3.192574	0.540837	-0.000032
1831	1.8209e+02	1.7847	-5.475091	0.000307	3.069782	0.520035	-0.000031
1832	1.8218e+02	1.7757	-5.501976	0.000270	2.701409	0.457631	-0.000027
1833	1.8228e+02	1.7667	-5.534563	0.000327	3.274435	0.554704	-0.000033
1834	1.8238e+02	1.7597	-5.561448	0.000270	2.701409	0.457631	-0.000027
1835	1.8248e+02	1.7465	-5.589147	0.000278	2.783269	0.471499	-0.000028
1836	1.8258e+02	1.7363	-5.618476	0.000295	2.946991	0.499234	-0.000029
1837	1.8268e+02	1.7294	-5.647804	0.000295	2.946991	0.499234	-0.000029
1838	1.8278e+02	1.7180	-5.680392	0.000327	3.274435	0.554704	-0.000033
1839	1.8288e+02	1.7078	-5.706054	0.000258	2.578617	0.436830	-0.000026
1840	1.8298e+02	1.6964	-5.734976	0.000291	2.906061	0.492300	-0.000029
1841	1.8308e+02	1.6864	-5.757787	0.000229	2.292104	0.388293	-0.000023
1842	1.8318e+02	1.6743	-5.786708	0.000291	2.906061	0.492300	-0.000029
1843	1.8328e+02	1.6680	-5.815222	0.000287	2.865130	0.485366	-0.000029
1844	1.8338e+02	1.6573	-5.842107	0.000270	2.701409	0.457631	-0.000027
1845	1.8348e+02	1.6485	-5.871028	0.000291	2.906061	0.492300	-0.000029
1846	1.8358e+02	1.6370	-5.892210	0.000213	2.128382	0.360558	-0.000021
1847	1.8368e+02	1.6321	-5.924797	0.000327	3.274435	0.554704	-0.000033
1848	1.8378e+02	1.6187	-5.955755	0.000311	3.110713	0.526969	-0.000031
1849	1.8388e+02	1.6094	-5.981011	0.000254	2.537687	0.429896	-0.000025
1850	1.8398e+02	1.6004	-6.010339	0.000295	2.946991	0.499234	-0.000029
1851	1.8407e+02	1.5895	-6.033151	0.000229	2.292104	0.388293	-0.000023
1852	1.8417e+02	1.5801	-6.061665	0.000287	2.865130	0.485366	-0.000029
1853	1.8427e+02	1.5694	-6.086920	0.000254	2.537687	0.429896	-0.000025
1854	1.8437e+02	1.5580	-6.112175	0.000254	2.537687	0.429896	-0.000025
1855	1.8447e+02	1.5475	-6.137838	0.000258	2.578617	0.436830	-0.000026
1856	1.8457e+02	1.5397	-6.164722	0.000270	2.701409	0.457631	-0.000027
1857	1.8467e+02	1.5269	-6.188348	0.000237	2.373965	0.402161	-0.000024
1858	1.8477e+02	1.5176	-6.218899	0.000307	3.069782	0.520035	-0.000031
1859	1.8487e+02	1.5113	-6.247820	0.000291	2.906061	0.492300	-0.000029
1860	1.8497e+02	1.4993	-6.277149	0.000295	2.946991	0.499234	-0.000029
1861	1.8507e+02	1.4874	-6.306885	0.000299	2.987922	0.506168	-0.000030
1862	1.8517e+02	1.4769	-6.336213	0.000295	2.946991	0.499234	-0.000029
1863	1.8527e+02	1.4716	-6.361061	0.000250	2.496756	0.422962	-0.000025
1864	1.8537e+02	1.4590	-6.390797	0.000299	2.987922	0.506168	-0.000030
1865	1.8547e+02	1.4492	-6.417682	0.000270	2.701409	0.457631	-0.000027
1866	1.8557e+02	1.4382	-6.448233	0.000307	3.069782	0.520035	-0.000031
1867	1.8567e+02	1.4298	-6.475525	0.000274	2.742339	0.464565	-0.000027
1868	1.8577e+02	1.4198	-6.506890	0.000315	3.151643	0.533903	-0.000032
1869	1.8587e+02	1.4066	-6.531330	0.000246	2.455826	0.416028	-0.000025
1870	1.8597e+02	1.3987	-6.564325	0.000332	3.315365	0.561638	-0.000033
1871	1.8606e+02	1.3869	-6.598949	0.000348	3.479087	0.589373	-0.000035
1872	1.8616e+02	1.3771	-6.632351	0.000336	3.356295	0.568572	-0.000034
1873	1.8626e+02	1.3700	-6.661680	0.000295	2.946991	0.499234	-0.000029
1874	1.8636e+02	1.3593	-6.691009	0.000295	2.946991	0.499234	-0.000029
1875	1.8646e+02	1.3492	-6.724411	0.000336	3.356295	0.568572	-0.000034
1876	1.8656e+02	1.3390	-6.750888	0.000266	2.660478	0.450697	-0.000027
1877	1.8666e+02	1.3280	-6.787549	0.000368	3.683739	0.624042	-0.000037
1878	1.8676e+02	1.3207	-6.816878	0.000295	2.946991	0.499234	-0.000029
1879	1.8686e+02	1.3099	-6.848650	0.000319	3.192574	0.540837	-0.000032
1880	1.8696e+02	1.2975	-6.880423	0.000319	3.192574	0.540837	-0.000032
1881	1.8706e+02	1.2901	-6.912196	0.000319	3.192574	0.540837	-0.000032
1882	1.8716e+02	1.2771	-6.942339	0.000303	3.028852	0.513101	-0.000030
1883	1.8726e+02	1.2736	-6.974927	0.000327	3.274435	0.554704	-0.000033
1884	1.8736e+02	1.2584	-7.005477	0.000307	3.069782	0.520035	-0.000031
1885	1.8746e+02	1.2509	-7.040509	0.000352	3.520017	0.596307	-0.000035
1886	1.8756e+02	1.2399	-7.073503	0.000332	3.315365	0.561638	-0.000033
1887	1.8766e+02	1.2299	-7.104869	0.000315	3.151643	0.533903	-0.000032
1888	1.8776e+02	1.2201	-7.133790	0.000291	2.906061	0.492300	-0.000029
1889	1.8786e+02	1.2100	-7.168007	0.000344	3.438156	0.582439	-0.000034
1890	1.8796e+02	1.1980	-7.198150	0.000303	3.028852	0.513101	-0.000030
1891	1.8806e+02	1.1894	-7.227886	0.000299	2.987922	0.506168	-0.000030
1892	1.8815e+02	1.1815	-7.260881	0.000332	3.315365	0.561638	-0.000033
1893	1.8825e+02	1.1701	-7.290617	0.000299	2.987922	0.506168	-0.000030
1894	1.8835e+02	1.1620	-7.328500	0.000381	3.806530	0.644844	-0.000038
1895	1.8845e+02	1.1502	-7.360273	0.000319	3.192574	0.540837	-0.000032
1896	1.8855e+02	1.1414	-7.395711	0.000356	3.560948	0.603241	-0.000036
1897	1.8865e+02	1.1312	-7.426669	0.000311	3.110713	0.526969	-0.000031
1898	1.8875e+02	1.1209	-7.461294	0.000348	3.479087	0.589373	-0.000035
1899	1.8885e+02	1.1113	-7.493066	0.000319	3.192574	0.540837	-0.000032
1900	1.8895e+02	1.0991	-7.526468	0.000336	3.356295	0.568572	-0.000034
1901	1.8905e+02	1.0886	-7.556204	0.000299	2.987922	0.506168	-0.000030
1902	1.8915e+02	1.0786	-7.593680	0.000377	3.765600	0.637910	-0.000038
1903	1.8925e+02	1.0720	-7.625045	0.000315	3.151643	0.533903	-0.000032
1904	1.8935e+02	1.0595	-7.657633	0.000327	3.274435	0.554704	-0.000033
1905	1.8945e+02	1.0500	-7.689405	0.000319	3.192574	0.540837	-0.000032
1906	1.8955e+02	1.0416	-7.724844	0.000356	3.560948	0.603241	-0.000036
1907	1.8965e+02	1.0317	-7.760283	0.000356	3.560948	0.603241	-0.000036
1908	1.8975e+02	1.0206	-7.793685	0.000336	3.356295	0.568572	-0.000034
1909	1.8985e+02	1.0086	-7.831161	0.000377	3.765600	0.637910	-0.000038
1910	1.8995e+02	1.0016	-7.861711	0.000307	3.069782	0.520035	-0.000031
1911	1.9004e+02	0.9914	-7.893891	0.000323	3.233504	0.547770	-0.000032
1912	1.9014e+02	0.9819	-7.930145	0.000364	3.642808	0.617108	-0.000036
1913	1.9024e+02	0.9715	-7.961103	0.000311	3.110713	0.526969	-0.000031
1914	1.9034e+02	0.9617	-7.993690	0.000327	3.274435	0.554704	-0.000033
1915	1.9044e+02	0.9514	-8.027092	0.000336	3.356295	0.568572	-0.000034
1916	1.9054e+02	0.9399	-8.063346	0.000364	3.642808	0.617108	-0.000036
1917	1.9064e+02	0.9339	-8.092267	0.000291	2.906061	0.492300	-0.000029
1918	1.9074e+02	0.9235	-8.129335	0.000372	3.724669	0.630976	-0.000037
1919	1.9084e+02	0.9102	-8.159886	0.000307	3.069782	0.520035	-0.000031
1920	1.9094e+02	0.9011	-8.197769	0.000381	3.806530	0.644844	-0.000038
1921	1.9104e+02	0.8895	-8.228727	0.000311	3.110713	0.526969	-0.000031
1922	1.9114e+02	0.8823	-8.265795	0.000372	3.724669	0.630976	-0.000037
1923	1.9124e+02	0.8720	-8.298790	0.000332	3.315365	0.561638	-0.000033
1924	1.9134e+02	0.8632	-8.333007	0.000344	3.438156	0.582439	-0.000034
1925	1.9144e+02	0.8529	-8.374148	0.000413	4.133974	0.700314	-0.000041
1926	1.9154e+02	0.8409	-8.407143	0.000332	3.315365	0.561638	-0.000033
1927	1.9164e+02	0.8301	-8.444211	0.000372	3.724669	0.630976	-0.000037
1928	1.9174e+02	0.8224	-8.484131	0.000401	4.011182	0.679513	-0.000040
1929	1.9184e+02	0.8107	-8.517125	0.000332	3.315365	0.561638	-0.000033
1930	1.9194e+02	0.8010	-8.551750	0.000348	3.479087	0.589373	-0.000035
1931	1.9203e+02	0.7938	-8.590040	0.000385	3.847461	0.651777	-0.000038
1932	1.9213e+02	0.7826	-8.623034	0.000332	3.315365	0.561638	-0.000033
1933	1.9223e+02	0.7716	-8.654807	0.000319	3.192574	0.540837	-0.000032
1934	1.9233e+02	0.7623	-8.694727	0.000401	4.011182	0.679513	-0.000040
1935	1.9243e+02	0.7530	-8.735868	0.000413	4.133974	0.700314	-0.000041
1936	1.9253e+02	0.7397	-8.771715	0.000360	3.601878	0.610175	-0.000036
1937	1.9263e+02	0.7357	-8.810005	0.000385	3.847461	0.651777	-0.000038
1938	1.9273e+02	0.7190	-8.844221	0.000344	3.438156	0.582439	-0.000034
1939	1.9283e+02	0.7138	-8.885770	0.000417	4.174904	0.707248	-0.000042
1940	1.9293e+02	0.7013	-8.920395	0.000348	3.479087	0.589373	-0.000035
1941	1.9303e+02	0.6948	-8.958685	0.000385	3.847461	0.651777	-0.000038
1942	1.9313e+02	0.6806	-8.991272	0.000327	3.274435	0.554704	-0.000033
1943	1.9323e+02	0.6703	-9.027933	0.000368	3.683739	0.624042	-0.000037
1944	1.9333e+02	0.6615	-9.065001	0.000372	3.724669	0.630976	-0.000037
1945	1.9343e+02	0.6521	-9.100033	0.000352	3.520017	0.596307	-0.000035
1946	1.9353e+02	0.6425	-9.133842	0.000340	3.397226	0.575506	-0.000034
1947	1.9363e+02	0.6310	-9.172540	0.000389	3.888391	0.658711	-0.000039
1948	1.9373e+02	0.6209	-9.206349	0.000340	3.397226	0.575506	-0.000034
1949	1.9383e+02	0.6126	-9.242602	0.000364	3.642808	0.617108	-0.000036
1950	1.9393e+02	0.6041	-9.279263	0.000368	3.683739	0.624042	-0.000037
1951	1.9403e+02	0.5931	-9.313887	0.000348	3.479087	0.589373	-0.000035
1952	1.9412e+02	0.5819	-9.348104	0.000344	3.438156	0.582439	-0.000034
1953	1.9422e+02	0.5755	-9.379062	0.000311	3.110713	0.526969	-0.000031
1954	1.9432e+02	0.5603	-9.414908	0.000360	3.601878	0.610175	-0.000036
1955	1.9442e+02	0.5555	-9.448718	0.000340	3.397226	0.575506	-0.000034
1956	1.9452e+02	0.5418	-9.482935	0.000344	3.438156	0.582439	-0.000034
1957	1.9462e+02	0.5341	-9.516744	0.000340	3.397226	0.575506	-0.000034
1958	1.9472e+02	0.5231	-9.552590	0.000360	3.601878	0.610175	-0.000036
1959	1.9482e+02	0.5103	-9.581919	0.000295	2.946991	0.499234	-0.000029
1960	1.9492e+02	0.5022	-9.620616	0.000389	3.888391	0.658711	-0.000039
1961	1.9502e+02	0.4922	-9.654833	0.000344	3.438156	0.582439	-0.000034
1962	1.9512e+02	0.4866	-9.689865	0.000352	3.520017	0.596307	-0.000035
1963	1.9522e+02	0.4733	-9.723267	0.000336	3.356295	0.568572	-0.000034
1964	1.9532e+02	0.4655	-9.754632	0.000315	3.151643	0.533903	-0.000032
1965	1.9542e+02	0.4546	-9.788849	0.000344	3.438156	0.582439	-0.000034
1966	1.9552e+02	0.4430	-9.821844	0.000332	3.315365	0.561638	-0.000033
1967	1.9562e+02	0.4331	-9.854431	0.000327	3.274435	0.554704	-0.000033
1968	1.9572e+02	0.4237	-9.892314	0.000381	3.806530	0.644844	-0.000038
1969	1.9582e+02	0.4147	-9.925309	0.000332	3.315365	0.561638	-0.000033
1970	1.9592e+02	0.4030	-9.957081	0.000319	3.192574	0.540837	-0.000032
1971	1.9601e+02	0.3951	-9.988447	0.000315	3.151643	0.533903	-0.000032
1972	1.9611e+02	0.3840	-10.027959	0.000397	3.970252	0.672579	-0.000040
1973	1.9621e+02	0.3736	-10.056066	0.000282	2.824200	0.478432	-0.000028
1974	1.9631e+02	0.3637	-10.089468	0.000336	3.356295	0.568572	-0.000034
1975	1.9641e+02	0.3532	-10.124906	0.000356	3.560948	0.603241	-0.000036
1976	1.9651e+02	0.3445	-10.155050	0.000303	3.028852	0.513101	-0.000030
1977	1.9661e+02	0.3352	-10.190489	0.000356	3.560948	0.603241	-0.000036
1978	1.9671e+02	0.3239	-10.222669	0.000323	3.233504	0.547770	-0.000032
1979	1.9681e+02	0.3143	-10.258107	0.000356	3.560948	0.603241	-0.000036
1980	1.9691e+02	0.3015	-10.287436	0.000295	2.946991	0.499234	-0.000029
1981	1.9701e+02	0.2958	-10.324504	0.000372	3.724669	0.630976	-0.000037
1982	1.9711e+02	0.2846	-10.355870	0.000315	3.151643	0.533903	-0.000032
1983	1.9721e+02	0.2747	-10.393345	0.000377	3.765600	0.637910	-0.000038
1984	1.9731e+02	0.2707	-10.421859	0.000287	2.865130	0.485366	-0.000029
1985	1.9741e+02	0.2572	-10.457705	0.000360	3.601878	0.610175	-0.000036
1986	1.9751e+02	0.2466	-10.492329	0.000348	3.479087	0.589373	-0.000035
1987	1.9761e+02	0.2361	-10.523287	0.000311	3.110713	0.526969	-0.000031
1988	1.9771e+02	0.2272	-10.556690	0.000336	3.356295	0.568572	-0.000034
1989	1.9781e+02	0.2165	-10.592128	0.000356	3.560948	0.603241	-0.000036
1990	1.9791e+02	0.2035	-10.621864	0.000299	2.987922	0.506168	-0.000030
1991	1.9800e+02	0.1973	-10.651600	0.000299	2.987922	0.506168	-0.000030
1992	1.9810e+02	0.1842	-10.692742	0.000413	4.133974	0.700314	-0.000041
1993	1.9820e+02	0.1751	-10.721256	0.000287	2.865130	0.485366	-0.000029
1994	1.9830e+02	0.1644	-10.753843	0.000327	3.274435	0.554704	-0.000033
1995	1.9840e+02	0.1553	-10.787245	0.000336	3.356295	0.568572	-0.000034
1996	1.9850e+02	0.1456	-10.823092	0.000360	3.601878	0.610175	-0.000036
1997	1.9860e+02	0.1363	-10.855272	0.000323	3.233504	0.547770	-0.000032
1998	1.9870e+02	0.1249	-10.889488	0.000344	3.438156	0.582439	-0.000034
1999	1.9880e+02	0.1146	-10.920039	0.000307	3.069782	0.520035	-0.000031
2000	1.9890e+02	0.1063	-10.957107	0.000372	3.724669	0.630976	-0.000037
2001	1.9900e+02	0.0931	-10.988880	0.000319	3.192574	0.540837	-0.000032
2002	1.9910e+02	0.0811	-11.026763	0.000381	3.806530	0.644844	-0.000038
2003	1.9920e+02	0.0747	-11.057314	0.000307	3.069782	0.520035	-0.000031
2004	1.9930e+02	0.0641	-11.088679	0.000315	3.151643	0.533903	-0.000032
2005	1.9940e+02	0.0554	-11.120859	0.000323	3.233504	0.547770	-0.000032
2006	1.9950e+02	0.0447	-11.157112	0.000364	3.642808	0.617108	-0.000036
2007	1.9960e+02	0.0338	-11.187256	0.000303	3.028852	0.513101	-0.000030
2008	1.9970e+02	0.0229	-11.221473	0.000344	3.438156	0.582439	-0.000034
2009	1.9980e+02	0.0145	-11.249987	0.000287	2.865130	0.485366	-0.000029
2010	1.9990e+02	0.0063	-11.287055	0.000372	3.724669	0.630976	-0.000037
2011	2.0000e+02	-0.0036	-11.316383	0.000372	3.724669	0.630976	-0.000029

PMax (uC/cm2):	2.52e+01
Pr (uC/cm2):	1.31e+00
-Pr (uC/cm2):	0.00e+00
PLoss (uC/cm2):	0.00e+00
C (Max-Eff) (nF):	2.52e-01
K (Eff):	4.28e+02
Vert. (+/-Pr) Shift (uC/cm2):	6.54e-01
Offset (uC/cm2):	1.26e+01

A (Loop Area - uC/cm2·Volts):	-1.25e-02



Hysteresis Version: 5.48.1 - Radiant Technologies, Inc., 1999 - 9/12/24

