»»»»»»»»»»»»»»»»»»»»»»»»»»»»»»»»»»»» Hysteresis ««««««««««««««««««««««««««««««««««««
»»»  Executed Version:	5.48.1
»»»  Vision Version:	5.48.4 (R)
»»»  Vision Compiled:	9/18/24
»»»  Driver Version:	5.47.0
»»»  Windows Version:	Windows 8 or 8.1
»»»  Processor Information:	x86 (AMD or Intel) - 32 Processors
»»»  Tester Name:	PMF21124-494 (100V)
»»»  Tester S/N:	PMF21124-494
»»»  Internal Amp Type:	100V RevK 270k
»»»  Internal Amp S/N:	iAB2-596/K     
»»»  Execution Count:	1
»»»»»»»»»»»»»»»»»»»»»»»»»»»»»»»»»»»»»»»»»»««««««««««««««««««««««««««««««««««««««««««

Stored:	6/26/2025 - 11:57:29
Configured:	06/26/25 10:24:47 AM
Executed:	06/26/25 11:56:33 AM

»»»»»»»»»»»»»»»»»»»»»»»»»»»»»»»»»»» Sample Info ««««««««««««««««««««««««««««««««««««
Sample Name:	
Lot Name:	
Wafer Name:	
Die Row/Column:	0/0
Capacitor Number:	0
Sample Area (cm2):	1.00e-04
Sample Thickness (microns):	1.50e-01

Amplifier:	Internal

»»»»»»»»»»»»»»»»»»»»»»»»»»»»»»»»»»» Tester Info «««««««««««««««««««««««««««««««««««
Tester Name:	PMF21124-494 (100V)
Tester Serial Number:	PMF21124-494
Return Signal Amp. Level:	1.9 [Index: 2]

»»»»»»»»»»»»»»»»»»»»»»»»»»»»»»»» Hysteresis Info ««««««««««««««««««««««««««««««««««
Task Name:	Hyst-562
Volts:	10.00
Field:	666.67 (kV/cm)
DCBias:	0.00
DCField:	0.00 (kV/cm)
Hysteresis Period (ms):	2.00e+02
Preset:	Enabled
Preset Delay (ms):	1.00e+03
Profile:	Standard Monopolar

»»»»»»»»»»»»»»»»»»»»»»»»»»»»»»»»»»»»»» Data «««««««««««««««««««««««««««««««««««««««
Points:	2011

Valid Data

Point	Time (ms)	Drive Voltage	Measured Polarization (uC/cm2)	Capacitance (uF)	Normalized Capacitance (uF/cm2)	Dielectric Constant	Instantaneous Current (mA)
   1	0.0000e+00	-0.0050	-12.038805	0.000266	2.660356	0.450677	0.000027
   2	9.9500e-02	0.0069	-12.012328	0.000266	2.660356	0.450677	0.000027
   3	1.9900e-01	0.0145	-11.976482	0.000360	3.601713	0.610147	0.000036
   4	2.9850e-01	0.0253	-11.945931	0.000307	3.069642	0.520011	0.000031
   5	3.9800e-01	0.0351	-11.917825	0.000282	2.824071	0.478411	0.000028
   6	4.9750e-01	0.0452	-11.881979	0.000360	3.601713	0.610147	0.000036
   7	5.9700e-01	0.0578	-11.853872	0.000282	2.824071	0.478411	0.000028
   8	6.9650e-01	0.0676	-11.821692	0.000323	3.233356	0.547745	0.000032
   9	7.9600e-01	0.0777	-11.791141	0.000307	3.069642	0.520011	0.000031
  10	8.9550e-01	0.0857	-11.757739	0.000336	3.356142	0.568546	0.000034
  11	9.9500e-01	0.0966	-11.726374	0.000315	3.151499	0.533878	0.000032
  12	1.0945e+00	0.1051	-11.699489	0.000270	2.701285	0.457610	0.000027
  13	1.1940e+00	0.1141	-11.668938	0.000307	3.069642	0.520011	0.000031
  14	1.2935e+00	0.1235	-11.641646	0.000274	2.742213	0.464544	0.000027
  15	1.3930e+00	0.1349	-11.606208	0.000356	3.560785	0.603213	0.000036
  16	1.4925e+00	0.1446	-11.575250	0.000311	3.110570	0.526945	0.000031
  17	1.5920e+00	0.1529	-11.548365	0.000270	2.701285	0.457610	0.000027
  18	1.6915e+00	0.1689	-11.517814	0.000307	3.069642	0.520011	0.000031
  19	1.7910e+00	0.1743	-11.489300	0.000286	2.864999	0.485344	0.000029
  20	1.8905e+00	0.1839	-11.458750	0.000307	3.069642	0.520011	0.000031
  21	1.9900e+00	0.1935	-11.428199	0.000307	3.069642	0.520011	0.000031
  22	2.0895e+00	0.2013	-11.399278	0.000291	2.905928	0.492277	0.000029
  23	2.1890e+00	0.2151	-11.374022	0.000254	2.537571	0.429876	0.000025
  24	2.2885e+00	0.2248	-11.346730	0.000274	2.742213	0.464544	0.000027
  25	2.3880e+00	0.2356	-11.318624	0.000282	2.824071	0.478411	0.000028
  26	2.4875e+00	0.2476	-11.288480	0.000303	3.028713	0.513078	0.000030
  27	2.5870e+00	0.2531	-11.258337	0.000303	3.028713	0.513078	0.000030
  28	2.6865e+00	0.2657	-11.228601	0.000299	2.987785	0.506144	0.000030
  29	2.7860e+00	0.2734	-11.198865	0.000299	2.987785	0.506144	0.000030
  30	2.8855e+00	0.2841	-11.171980	0.000270	2.701285	0.457610	0.000027
  31	2.9850e+00	0.2925	-11.143467	0.000286	2.864999	0.485344	0.000029
  32	3.0845e+00	0.3049	-11.114953	0.000286	2.864999	0.485344	0.000029
  33	3.1840e+00	0.3132	-11.089290	0.000258	2.578499	0.436810	0.000026
  34	3.2835e+00	0.3254	-11.060776	0.000286	2.864999	0.485344	0.000029
  35	3.3830e+00	0.3353	-11.028189	0.000327	3.274285	0.554679	0.000033
  36	3.4825e+00	0.3436	-11.005785	0.000225	2.251071	0.381342	0.000023
  37	3.5820e+00	0.3542	-10.974827	0.000311	3.110570	0.526945	0.000031
  38	3.6815e+00	0.3655	-10.943461	0.000315	3.151499	0.533878	0.000032
  39	3.7810e+00	0.3722	-10.912096	0.000315	3.151499	0.533878	0.000032
  40	3.8805e+00	0.3839	-10.884397	0.000278	2.783142	0.471477	0.000028
  41	3.9800e+00	0.3961	-10.855068	0.000295	2.946856	0.499211	0.000029
  42	4.0795e+00	0.4034	-10.826147	0.000291	2.905928	0.492277	0.000029
  43	4.1790e+00	0.4138	-10.798855	0.000274	2.742213	0.464544	0.000027
  44	4.2785e+00	0.4230	-10.766675	0.000323	3.233356	0.547745	0.000032
  45	4.3780e+00	0.4324	-10.737753	0.000291	2.905928	0.492277	0.000029
  46	4.4775e+00	0.4443	-10.707203	0.000307	3.069642	0.520011	0.000031
  47	4.5770e+00	0.4530	-10.678281	0.000291	2.905928	0.492277	0.000029
  48	4.6765e+00	0.4630	-10.646101	0.000323	3.233356	0.547745	0.000032
  49	4.7760e+00	0.4730	-10.614329	0.000319	3.192428	0.540812	0.000032
  50	4.8755e+00	0.4848	-10.585815	0.000286	2.864999	0.485344	0.000029
  51	4.9750e+00	0.4929	-10.556079	0.000299	2.987785	0.506144	0.000030
  52	5.0745e+00	0.5022	-10.523898	0.000323	3.233356	0.547745	0.000032
  53	5.1740e+00	0.5121	-10.498236	0.000258	2.578499	0.436810	0.000026
  54	5.2735e+00	0.5232	-10.461982	0.000364	3.642642	0.617080	0.000036
  55	5.3730e+00	0.5353	-10.435098	0.000270	2.701285	0.457610	0.000027
  56	5.4725e+00	0.5444	-10.403732	0.000315	3.151499	0.533878	0.000032
  57	5.5720e+00	0.5540	-10.377255	0.000266	2.660356	0.450677	0.000027
  58	5.6715e+00	0.5614	-10.344668	0.000327	3.274285	0.554679	0.000033
  59	5.7710e+00	0.5740	-10.315339	0.000295	2.946856	0.499211	0.000029
  60	5.8705e+00	0.5833	-10.286825	0.000286	2.864999	0.485344	0.000029
  61	5.9700e+00	0.5912	-10.251386	0.000356	3.560785	0.603213	0.000036
  62	6.0695e+00	0.6046	-10.223280	0.000282	2.824071	0.478411	0.000028
  63	6.1690e+00	0.6124	-10.195580	0.000278	2.783142	0.471477	0.000028
  64	6.2685e+00	0.6210	-10.165437	0.000303	3.028713	0.513078	0.000030
  65	6.3680e+00	0.6335	-10.132850	0.000327	3.274285	0.554679	0.000033
  66	6.4675e+00	0.6447	-10.103114	0.000299	2.987785	0.506144	0.000030
  67	6.5670e+00	0.6528	-10.074600	0.000286	2.864999	0.485344	0.000029
  68	6.6665e+00	0.6633	-10.044456	0.000303	3.028713	0.513078	0.000030
  69	6.7660e+00	0.6724	-10.012276	0.000323	3.233356	0.547745	0.000032
  70	6.8655e+00	0.6837	-9.986206	0.000262	2.619428	0.443743	0.000026
  71	6.9650e+00	0.6949	-9.951582	0.000348	3.478927	0.589346	0.000035
  72	7.0645e+00	0.7033	-9.925512	0.000262	2.619428	0.443743	0.000026
  73	7.1640e+00	0.7129	-9.896591	0.000291	2.905928	0.492277	0.000029
  74	7.2635e+00	0.7236	-9.869299	0.000274	2.742213	0.464544	0.000027
  75	7.3630e+00	0.7327	-9.835082	0.000344	3.437999	0.582413	0.000034
  76	7.4625e+00	0.7418	-9.811456	0.000237	2.373856	0.402142	0.000024
  77	7.5620e+00	0.7526	-9.782128	0.000295	2.946856	0.499211	0.000029
  78	7.6615e+00	0.7625	-9.752799	0.000295	2.946856	0.499211	0.000029
  79	7.7610e+00	0.7726	-9.720619	0.000323	3.233356	0.547745	0.000032
  80	7.8605e+00	0.7830	-9.693327	0.000274	2.742213	0.464544	0.000027
  81	7.9600e+00	0.7928	-9.663184	0.000303	3.028713	0.513078	0.000030
  82	8.0595e+00	0.8018	-9.637114	0.000262	2.619428	0.443743	0.000026
  83	8.1590e+00	0.8153	-9.606970	0.000303	3.028713	0.513078	0.000030
  84	8.2585e+00	0.8198	-9.578049	0.000291	2.905928	0.492277	0.000029
  85	8.3580e+00	0.8321	-9.547906	0.000303	3.028713	0.513078	0.000030
  86	8.4575e+00	0.8414	-9.520614	0.000274	2.742213	0.464544	0.000027
  87	8.5570e+00	0.8517	-9.490878	0.000299	2.987785	0.506144	0.000030
  88	8.6565e+00	0.8643	-9.463586	0.000274	2.742213	0.464544	0.000027
  89	8.7560e+00	0.8708	-9.430998	0.000327	3.274285	0.554679	0.000033
  90	8.8555e+00	0.8816	-9.406151	0.000250	2.496642	0.422943	0.000025
  91	8.9550e+00	0.8911	-9.368268	0.000381	3.806356	0.644814	0.000038
  92	9.0545e+00	0.8996	-9.341383	0.000270	2.701285	0.457610	0.000027
  93	9.1540e+00	0.9122	-9.306352	0.000352	3.519856	0.596280	0.000035
  94	9.2535e+00	0.9225	-9.279060	0.000274	2.742213	0.464544	0.000027
  95	9.3530e+00	0.9308	-9.250546	0.000286	2.864999	0.485344	0.000029
  96	9.4525e+00	0.9417	-9.217958	0.000327	3.274285	0.554679	0.000033
  97	9.5520e+00	0.9510	-9.185778	0.000323	3.233356	0.547745	0.000032
  98	9.6515e+00	0.9595	-9.159301	0.000266	2.660356	0.450677	0.000027
  99	9.7510e+00	0.9695	-9.127121	0.000323	3.233356	0.547745	0.000032
 100	9.8505e+00	0.9828	-9.095756	0.000315	3.151499	0.533878	0.000032
 101	9.9500e+00	0.9927	-9.067649	0.000282	2.824071	0.478411	0.000028
 102	1.0050e+01	1.0028	-9.037913	0.000299	2.987785	0.506144	0.000030
 103	1.0149e+01	1.0110	-9.004103	0.000340	3.397070	0.575479	0.000034
 104	1.0248e+01	1.0226	-8.969072	0.000352	3.519856	0.596280	0.000035
 105	1.0348e+01	1.0300	-8.936485	0.000327	3.274285	0.554679	0.000033
 106	1.0447e+01	1.0411	-8.906341	0.000303	3.028713	0.513078	0.000030
 107	1.0547e+01	1.0519	-8.875791	0.000307	3.069642	0.520011	0.000031
 108	1.0646e+01	1.0564	-8.839537	0.000364	3.642642	0.617080	0.000036
 109	1.0746e+01	1.0726	-8.805320	0.000344	3.437999	0.582413	0.000034
 110	1.0845e+01	1.0814	-8.775584	0.000299	2.987785	0.506144	0.000030
 111	1.0945e+01	1.0931	-8.744626	0.000311	3.110570	0.526945	0.000031
 112	1.1044e+01	1.1031	-8.716520	0.000282	2.824071	0.478411	0.000028
 113	1.1144e+01	1.1100	-8.677822	0.000389	3.888213	0.658681	0.000039
 114	1.1243e+01	1.1198	-8.646864	0.000311	3.110570	0.526945	0.000031
 115	1.1343e+01	1.1310	-8.615499	0.000315	3.151499	0.533878	0.000032
 116	1.1443e+01	1.1404	-8.580467	0.000352	3.519856	0.596280	0.000035
 117	1.1542e+01	1.1516	-8.550731	0.000299	2.987785	0.506144	0.000030
 118	1.1642e+01	1.1607	-8.518551	0.000323	3.233356	0.547745	0.000032
 119	1.1741e+01	1.1688	-8.483112	0.000356	3.560785	0.603213	0.000036
 120	1.1841e+01	1.1819	-8.456635	0.000266	2.660356	0.450677	0.000027
 121	1.1940e+01	1.1901	-8.426084	0.000307	3.069642	0.520011	0.000031
 122	1.2040e+01	1.1990	-8.390646	0.000356	3.560785	0.603213	0.000036
 123	1.2139e+01	1.2115	-8.360095	0.000307	3.069642	0.520011	0.000031
 124	1.2239e+01	1.2198	-8.328322	0.000319	3.192428	0.540812	0.000032
 125	1.2338e+01	1.2290	-8.295735	0.000327	3.274285	0.554679	0.000033
 126	1.2438e+01	1.2405	-8.267221	0.000286	2.864999	0.485344	0.000029
 127	1.2537e+01	1.2505	-8.235448	0.000319	3.192428	0.540812	0.000032
 128	1.2636e+01	1.2591	-8.202861	0.000327	3.274285	0.554679	0.000033
 129	1.2736e+01	1.2682	-8.175569	0.000274	2.742213	0.464544	0.000027
 130	1.2835e+01	1.2808	-8.143389	0.000323	3.233356	0.547745	0.000032
 131	1.2935e+01	1.2881	-8.114875	0.000286	2.864999	0.485344	0.000029
 132	1.3034e+01	1.2984	-8.085546	0.000295	2.946856	0.499211	0.000029
 133	1.3134e+01	1.3079	-8.052551	0.000332	3.315213	0.561612	0.000033
 134	1.3233e+01	1.3190	-8.024445	0.000282	2.824071	0.478411	0.000028
 135	1.3333e+01	1.3325	-7.996338	0.000282	2.824071	0.478411	0.000028
 136	1.3432e+01	1.3391	-7.962121	0.000344	3.437999	0.582413	0.000034
 137	1.3532e+01	1.3495	-7.933200	0.000291	2.905928	0.492277	0.000029
 138	1.3632e+01	1.3586	-7.899798	0.000336	3.356142	0.568546	0.000034
 139	1.3731e+01	1.3673	-7.872506	0.000274	2.742213	0.464544	0.000027
 140	1.3831e+01	1.3788	-7.842362	0.000303	3.028713	0.513078	0.000030
 141	1.3930e+01	1.3876	-7.809368	0.000332	3.315213	0.561612	0.000033
 142	1.4030e+01	1.3997	-7.779224	0.000303	3.028713	0.513078	0.000030
 143	1.4129e+01	1.4088	-7.750303	0.000291	2.905928	0.492277	0.000029
 144	1.4229e+01	1.4156	-7.722604	0.000278	2.783142	0.471477	0.000028
 145	1.4328e+01	1.4266	-7.688794	0.000340	3.397070	0.575479	0.000034
 146	1.4428e+01	1.4382	-7.661910	0.000270	2.701285	0.457610	0.000027
 147	1.4527e+01	1.4469	-7.630137	0.000319	3.192428	0.540812	0.000032
 148	1.4627e+01	1.4581	-7.603252	0.000270	2.701285	0.457610	0.000027
 149	1.4726e+01	1.4671	-7.571480	0.000319	3.192428	0.540812	0.000032
 150	1.4825e+01	1.4780	-7.542966	0.000286	2.864999	0.485344	0.000029
 151	1.4925e+01	1.4966	-7.509156	0.000340	3.397070	0.575479	0.000034
 152	1.5024e+01	1.4977	-7.478198	0.000311	3.110570	0.526945	0.000031
 153	1.5124e+01	1.5077	-7.451314	0.000270	2.701285	0.457610	0.000027
 154	1.5223e+01	1.5195	-7.422392	0.000291	2.905928	0.492277	0.000029
 155	1.5323e+01	1.5277	-7.391434	0.000311	3.110570	0.526945	0.000031
 156	1.5422e+01	1.5393	-7.359662	0.000319	3.192428	0.540812	0.000032
 157	1.5522e+01	1.5472	-7.328704	0.000311	3.110570	0.526945	0.000031
 158	1.5621e+01	1.5582	-7.297745	0.000311	3.110570	0.526945	0.000031
 159	1.5721e+01	1.5652	-7.267602	0.000303	3.028713	0.513078	0.000030
 160	1.5820e+01	1.5754	-7.238681	0.000291	2.905928	0.492277	0.000029
 161	1.5920e+01	1.5868	-7.203649	0.000352	3.519856	0.596280	0.000035
 162	1.6020e+01	1.5975	-7.173913	0.000299	2.987785	0.506144	0.000030
 163	1.6119e+01	1.6080	-7.147843	0.000262	2.619428	0.443743	0.000026
 164	1.6218e+01	1.6181	-7.114441	0.000336	3.356142	0.568546	0.000034
 165	1.6318e+01	1.6263	-7.086742	0.000278	2.783142	0.471477	0.000028
 166	1.6418e+01	1.6392	-7.052118	0.000348	3.478927	0.589346	0.000035
 167	1.6517e+01	1.6451	-7.019938	0.000323	3.233356	0.547745	0.000032
 168	1.6616e+01	1.6612	-6.990609	0.000295	2.946856	0.499211	0.000029
 169	1.6716e+01	1.6694	-6.960059	0.000307	3.069642	0.520011	0.000031
 170	1.6816e+01	1.6748	-6.931545	0.000286	2.864999	0.485344	0.000029
 171	1.6915e+01	1.6883	-6.899364	0.000323	3.233356	0.547745	0.000032
 172	1.7015e+01	1.6980	-6.870036	0.000295	2.946856	0.499211	0.000029
 173	1.7114e+01	1.7083	-6.838670	0.000315	3.151499	0.533878	0.000032
 174	1.7213e+01	1.7165	-6.811378	0.000274	2.742213	0.464544	0.000027
 175	1.7313e+01	1.7272	-6.780013	0.000315	3.151499	0.533878	0.000032
 176	1.7413e+01	1.7365	-6.747833	0.000323	3.233356	0.547745	0.000032
 177	1.7512e+01	1.7463	-6.723392	0.000246	2.455714	0.416009	0.000025
 178	1.7611e+01	1.7574	-6.690398	0.000332	3.315213	0.561612	0.000033
 179	1.7711e+01	1.7649	-6.665550	0.000250	2.496642	0.422943	0.000025
 180	1.7811e+01	1.7770	-6.634592	0.000311	3.110570	0.526945	0.000031
 181	1.7910e+01	1.7867	-6.604041	0.000307	3.069642	0.520011	0.000031
 182	1.8009e+01	1.7966	-6.578379	0.000258	2.578499	0.436810	0.000026
 183	1.8109e+01	1.8085	-6.551494	0.000270	2.701285	0.457610	0.000027
 184	1.8209e+01	1.8180	-6.524202	0.000274	2.742213	0.464544	0.000027
 185	1.8308e+01	1.8269	-6.495281	0.000291	2.905928	0.492277	0.000029
 186	1.8407e+01	1.8368	-6.466767	0.000286	2.864999	0.485344	0.000029
 187	1.8507e+01	1.8443	-6.440697	0.000262	2.619428	0.443743	0.000026
 188	1.8607e+01	1.8586	-6.414627	0.000262	2.619428	0.443743	0.000026
 189	1.8706e+01	1.8693	-6.385298	0.000295	2.946856	0.499211	0.000029
 190	1.8805e+01	1.8739	-6.359636	0.000258	2.578499	0.436810	0.000026
 191	1.8905e+01	1.8853	-6.334380	0.000254	2.537571	0.429876	0.000025
 192	1.9005e+01	1.8975	-6.307088	0.000274	2.742213	0.464544	0.000027
 193	1.9104e+01	1.9070	-6.279389	0.000278	2.783142	0.471477	0.000028
 194	1.9203e+01	1.9170	-6.252504	0.000270	2.701285	0.457610	0.000027
 195	1.9303e+01	1.9250	-6.225620	0.000270	2.701285	0.457610	0.000027
 196	1.9402e+01	1.9372	-6.197513	0.000282	2.824071	0.478411	0.000028
 197	1.9502e+01	1.9477	-6.169814	0.000278	2.783142	0.471477	0.000028
 198	1.9602e+01	1.9559	-6.148225	0.000217	2.169214	0.367475	0.000022
 199	1.9701e+01	1.9669	-6.123377	0.000250	2.496642	0.422943	0.000025
 200	1.9800e+01	1.9757	-6.100158	0.000233	2.332928	0.395209	0.000023
 201	1.9900e+01	1.9880	-6.071237	0.000291	2.905928	0.492277	0.000029
 202	2.0000e+01	1.9963	-6.041501	0.000299	2.987785	0.506144	0.000030
 203	2.0099e+01	2.0039	-6.018283	0.000233	2.332928	0.395209	0.000023
 204	2.0198e+01	2.0168	-5.986510	0.000319	3.192428	0.540812	0.000032
 205	2.0298e+01	2.0245	-5.962477	0.000241	2.414785	0.409076	0.000024
 206	2.0398e+01	2.0367	-5.936814	0.000258	2.578499	0.436810	0.000026
 207	2.0497e+01	2.0467	-5.909929	0.000270	2.701285	0.457610	0.000027
 208	2.0596e+01	2.0560	-5.882230	0.000278	2.783142	0.471477	0.000028
 209	2.0696e+01	2.0681	-5.851272	0.000311	3.110570	0.526945	0.000031
 210	2.0796e+01	2.0737	-5.824387	0.000270	2.701285	0.457610	0.000027
 211	2.0895e+01	2.0850	-5.795059	0.000295	2.946856	0.499211	0.000029
 212	2.0994e+01	2.0948	-5.771026	0.000241	2.414785	0.409076	0.000024
 213	2.1094e+01	2.1066	-5.743326	0.000278	2.783142	0.471477	0.000028
 214	2.1194e+01	2.1171	-5.715627	0.000278	2.783142	0.471477	0.000028
 215	2.1293e+01	2.1233	-5.689964	0.000258	2.578499	0.436810	0.000026
 216	2.1392e+01	2.1346	-5.658192	0.000319	3.192428	0.540812	0.000032
 217	2.1492e+01	2.1474	-5.632529	0.000258	2.578499	0.436810	0.000026
 218	2.1591e+01	2.1554	-5.601164	0.000315	3.151499	0.533878	0.000032
 219	2.1691e+01	2.1633	-5.577945	0.000233	2.332928	0.395209	0.000023
 220	2.1791e+01	2.1745	-5.548209	0.000299	2.987785	0.506144	0.000030
 221	2.1890e+01	2.1861	-5.521732	0.000266	2.660356	0.450677	0.000027
 222	2.1989e+01	2.1946	-5.496069	0.000258	2.578499	0.436810	0.000026
 223	2.2089e+01	2.2045	-5.463889	0.000323	3.233356	0.547745	0.000032
 224	2.2189e+01	2.2132	-5.437412	0.000266	2.660356	0.450677	0.000027
 225	2.2288e+01	2.2249	-5.411749	0.000258	2.578499	0.436810	0.000026
 226	2.2387e+01	2.2350	-5.384050	0.000278	2.783142	0.471477	0.000028
 227	2.2487e+01	2.2417	-5.355944	0.000282	2.824071	0.478411	0.000028
 228	2.2587e+01	2.2549	-5.329466	0.000266	2.660356	0.450677	0.000027
 229	2.2686e+01	2.2651	-5.300138	0.000295	2.946856	0.499211	0.000029
 230	2.2785e+01	2.2742	-5.270809	0.000295	2.946856	0.499211	0.000029
 231	2.2885e+01	2.2852	-5.243924	0.000270	2.701285	0.457610	0.000027
 232	2.2985e+01	2.2950	-5.217040	0.000270	2.701285	0.457610	0.000027
 233	2.3084e+01	2.3058	-5.185674	0.000315	3.151499	0.533878	0.000032
 234	2.3183e+01	2.3131	-5.163678	0.000221	2.210142	0.374408	0.000022
 235	2.3283e+01	2.3232	-5.134757	0.000291	2.905928	0.492277	0.000029
 236	2.3383e+01	2.3340	-5.104613	0.000303	3.028713	0.513078	0.000030
 237	2.3482e+01	2.3462	-5.080987	0.000237	2.373856	0.402142	0.000024
 238	2.3581e+01	2.3518	-5.050437	0.000307	3.069642	0.520011	0.000031
 239	2.3681e+01	2.3670	-5.023959	0.000266	2.660356	0.450677	0.000027
 240	2.3780e+01	2.3742	-4.997889	0.000262	2.619428	0.443743	0.000026
 241	2.3880e+01	2.3859	-4.972227	0.000258	2.578499	0.436810	0.000026
 242	2.3980e+01	2.3933	-4.946564	0.000258	2.578499	0.436810	0.000026
 243	2.4079e+01	2.4047	-4.920087	0.000266	2.660356	0.450677	0.000027
 244	2.4178e+01	2.4143	-4.894832	0.000254	2.537571	0.429876	0.000025
 245	2.4278e+01	2.4245	-4.865096	0.000299	2.987785	0.506144	0.000030
 246	2.4378e+01	2.4345	-4.840248	0.000250	2.496642	0.422943	0.000025
 247	2.4477e+01	2.4448	-4.814178	0.000262	2.619428	0.443743	0.000026
 248	2.4576e+01	2.4497	-4.781998	0.000323	3.233356	0.547745	0.000032
 249	2.4676e+01	2.4648	-4.760001	0.000221	2.210142	0.374408	0.000022
 250	2.4776e+01	2.4748	-4.733117	0.000270	2.701285	0.457610	0.000027
 251	2.4875e+01	2.4872	-4.709898	0.000233	2.332928	0.395209	0.000023
 252	2.4974e+01	2.4963	-4.679348	0.000307	3.069642	0.520011	0.000031
 253	2.5074e+01	2.5052	-4.656944	0.000225	2.251071	0.381342	0.000023
 254	2.5174e+01	2.5119	-4.631281	0.000258	2.578499	0.436810	0.000026
 255	2.5273e+01	2.5244	-4.601952	0.000295	2.946856	0.499211	0.000029
 256	2.5372e+01	2.5334	-4.576697	0.000254	2.537571	0.429876	0.000025
 257	2.5472e+01	2.5457	-4.549813	0.000270	2.701285	0.457610	0.000027
 258	2.5572e+01	2.5512	-4.520891	0.000291	2.905928	0.492277	0.000029
 259	2.5671e+01	2.5620	-4.493599	0.000274	2.742213	0.464544	0.000027
 260	2.5770e+01	2.5727	-4.467529	0.000262	2.619428	0.443743	0.000026
 261	2.5870e+01	2.5833	-4.435349	0.000323	3.233356	0.547745	0.000032
 262	2.5970e+01	2.5939	-4.412946	0.000225	2.251071	0.381342	0.000023
 263	2.6069e+01	2.6003	-4.382802	0.000303	3.028713	0.513078	0.000030
 264	2.6169e+01	2.6128	-4.357954	0.000250	2.496642	0.422943	0.000025
 265	2.6268e+01	2.6201	-4.325367	0.000327	3.274285	0.554679	0.000033
 266	2.6367e+01	2.6328	-4.298075	0.000274	2.742213	0.464544	0.000027
 267	2.6467e+01	2.6430	-4.270376	0.000278	2.783142	0.471477	0.000028
 268	2.6567e+01	2.6511	-4.243084	0.000274	2.742213	0.464544	0.000027
 269	2.6666e+01	2.6636	-4.212940	0.000303	3.028713	0.513078	0.000030
 270	2.6765e+01	2.6724	-4.186463	0.000266	2.660356	0.450677	0.000027
 271	2.6865e+01	2.6818	-4.155098	0.000315	3.151499	0.533878	0.000032
 272	2.6965e+01	2.6927	-4.128213	0.000270	2.701285	0.457610	0.000027
 273	2.7064e+01	2.7020	-4.092367	0.000360	3.601713	0.610147	0.000036
 274	2.7163e+01	2.7109	-4.063853	0.000286	2.864999	0.485344	0.000029
 275	2.7263e+01	2.7203	-4.034932	0.000291	2.905928	0.492277	0.000029
 276	2.7363e+01	2.7332	-4.003566	0.000315	3.151499	0.533878	0.000032
 277	2.7462e+01	2.7422	-3.979533	0.000241	2.414785	0.409076	0.000024
 278	2.7561e+01	2.7525	-3.951426	0.000282	2.824071	0.478411	0.000028
 279	2.7661e+01	2.7613	-3.918839	0.000327	3.274285	0.554679	0.000033
 280	2.7761e+01	2.7710	-3.890325	0.000286	2.864999	0.485344	0.000029
 281	2.7860e+01	2.7844	-3.862218	0.000282	2.824071	0.478411	0.000028
 282	2.7959e+01	2.7914	-3.834926	0.000274	2.742213	0.464544	0.000027
 283	2.8059e+01	2.8011	-3.801524	0.000336	3.356142	0.568546	0.000034
 284	2.8159e+01	2.8120	-3.773010	0.000286	2.864999	0.485344	0.000029
 285	2.8258e+01	2.8233	-3.740830	0.000323	3.233356	0.547745	0.000032
 286	2.8358e+01	2.8330	-3.712724	0.000282	2.824071	0.478411	0.000028
 287	2.8457e+01	2.8407	-3.684617	0.000282	2.824071	0.478411	0.000028
 288	2.8556e+01	2.8518	-3.655288	0.000295	2.946856	0.499211	0.000029
 289	2.8656e+01	2.8619	-3.625145	0.000303	3.028713	0.513078	0.000030
 290	2.8756e+01	2.8749	-3.599482	0.000258	2.578499	0.436810	0.000026
 291	2.8855e+01	2.8817	-3.569746	0.000299	2.987785	0.506144	0.000030
 292	2.8954e+01	2.8896	-3.542454	0.000274	2.742213	0.464544	0.000027
 293	2.9054e+01	2.9028	-3.511904	0.000307	3.069642	0.520011	0.000031
 294	2.9154e+01	2.9107	-3.483390	0.000286	2.864999	0.485344	0.000029
 295	2.9253e+01	2.9227	-3.453246	0.000303	3.028713	0.513078	0.000030
 296	2.9352e+01	2.9311	-3.425955	0.000274	2.742213	0.464544	0.000027
 297	2.9452e+01	2.9420	-3.397848	0.000282	2.824071	0.478411	0.000028
 298	2.9552e+01	2.9513	-3.373000	0.000250	2.496642	0.422943	0.000025
 299	2.9651e+01	2.9632	-3.345708	0.000274	2.742213	0.464544	0.000027
 300	2.9750e+01	2.9693	-3.317601	0.000282	2.824071	0.478411	0.000028
 301	2.9850e+01	2.9807	-3.291531	0.000262	2.619428	0.443743	0.000026
 302	2.9950e+01	2.9910	-3.262610	0.000291	2.905928	0.492277	0.000029
 303	3.0049e+01	3.0036	-3.234911	0.000278	2.783142	0.471477	0.000028
 304	3.0148e+01	3.0116	-3.204360	0.000307	3.069642	0.520011	0.000031
 305	3.0248e+01	3.0208	-3.184808	0.000196	1.964571	0.332807	0.000020
 306	3.0348e+01	3.0334	-3.151813	0.000332	3.315213	0.561612	0.000033
 307	3.0447e+01	3.0382	-3.128594	0.000233	2.332928	0.395209	0.000023
 308	3.0547e+01	3.0535	-3.099673	0.000291	2.905928	0.492277	0.000029
 309	3.0646e+01	3.0598	-3.073196	0.000266	2.660356	0.450677	0.000027
 310	3.0745e+01	3.0703	-3.044275	0.000291	2.905928	0.492277	0.000029
 311	3.0845e+01	3.0789	-3.016983	0.000274	2.742213	0.464544	0.000027
 312	3.0945e+01	3.0920	-2.989691	0.000274	2.742213	0.464544	0.000027
 313	3.1044e+01	3.1006	-2.963213	0.000266	2.660356	0.450677	0.000027
 314	3.1143e+01	3.1104	-2.935514	0.000278	2.783142	0.471477	0.000028
 315	3.1243e+01	3.1219	-2.909852	0.000258	2.578499	0.436810	0.000026
 316	3.1343e+01	3.1309	-2.883782	0.000262	2.619428	0.443743	0.000026
 317	3.1442e+01	3.1419	-2.854860	0.000291	2.905928	0.492277	0.000029
 318	3.1541e+01	3.1477	-2.832456	0.000225	2.251071	0.381342	0.000023
 319	3.1641e+01	3.1609	-2.799869	0.000327	3.274285	0.554679	0.000033
 320	3.1741e+01	3.1676	-2.774206	0.000258	2.578499	0.436810	0.000026
 321	3.1840e+01	3.1802	-2.742026	0.000323	3.233356	0.547745	0.000032
 322	3.1939e+01	3.1902	-2.720845	0.000213	2.128285	0.360541	0.000021
 323	3.2039e+01	3.1999	-2.693960	0.000270	2.701285	0.457610	0.000027
 324	3.2139e+01	3.2087	-2.665039	0.000291	2.905928	0.492277	0.000029
 325	3.2238e+01	3.2202	-2.635710	0.000295	2.946856	0.499211	0.000029
 326	3.2337e+01	3.2306	-2.608011	0.000278	2.783142	0.471477	0.000028
 327	3.2437e+01	3.2381	-2.580311	0.000278	2.783142	0.471477	0.000028
 328	3.2536e+01	3.2504	-2.552612	0.000278	2.783142	0.471477	0.000028
 329	3.2636e+01	3.2616	-2.523691	0.000291	2.905928	0.492277	0.000029
 330	3.2736e+01	3.2710	-2.498843	0.000250	2.496642	0.422943	0.000025
 331	3.2835e+01	3.2807	-2.469107	0.000299	2.987785	0.506144	0.000030
 332	3.2934e+01	3.2906	-2.444666	0.000246	2.455714	0.416009	0.000025
 333	3.3034e+01	3.3012	-2.415338	0.000295	2.946856	0.499211	0.000029
 334	3.3133e+01	3.3111	-2.384380	0.000311	3.110570	0.526945	0.000031
 335	3.3233e+01	3.3190	-2.355051	0.000295	2.946856	0.499211	0.000029
 336	3.3333e+01	3.3308	-2.328981	0.000262	2.619428	0.443743	0.000026
 337	3.3432e+01	3.3384	-2.304133	0.000250	2.496642	0.422943	0.000025
 338	3.3532e+01	3.3500	-2.276027	0.000282	2.824071	0.478411	0.000028
 339	3.3631e+01	3.3609	-2.247920	0.000282	2.824071	0.478411	0.000028
 340	3.3730e+01	3.3696	-2.216147	0.000319	3.192428	0.540812	0.000032
 341	3.3830e+01	3.3776	-2.194965	0.000213	2.128285	0.360541	0.000021
 342	3.3929e+01	3.3912	-2.168895	0.000262	2.619428	0.443743	0.000026
 343	3.4029e+01	3.3990	-2.144455	0.000246	2.455714	0.416009	0.000025
 344	3.4129e+01	3.4100	-2.113089	0.000315	3.151499	0.533878	0.000032
 345	3.4228e+01	3.4203	-2.087020	0.000262	2.619428	0.443743	0.000026
 346	3.4328e+01	3.4267	-2.061357	0.000258	2.578499	0.436810	0.000026
 347	3.4427e+01	3.4381	-2.038138	0.000233	2.332928	0.395209	0.000023
 348	3.4526e+01	3.4467	-2.010847	0.000274	2.742213	0.464544	0.000027
 349	3.4626e+01	3.4600	-1.985184	0.000258	2.578499	0.436810	0.000026
 350	3.4725e+01	3.4676	-1.958707	0.000266	2.660356	0.450677	0.000027
 351	3.4825e+01	3.4781	-1.934673	0.000241	2.414785	0.409076	0.000024
 352	3.4925e+01	3.4893	-1.912677	0.000221	2.210142	0.374408	0.000022
 353	3.5024e+01	3.4982	-1.882126	0.000307	3.069642	0.520011	0.000031
 354	3.5123e+01	3.5082	-1.860130	0.000221	2.210142	0.374408	0.000022
 355	3.5223e+01	3.5196	-1.834875	0.000254	2.537571	0.429876	0.000025
 356	3.5322e+01	3.5275	-1.812063	0.000229	2.291999	0.388275	0.000023
 357	3.5422e+01	3.5378	-1.790474	0.000217	2.169214	0.367475	0.000022
 358	3.5522e+01	3.5479	-1.765626	0.000250	2.496642	0.422943	0.000025
 359	3.5621e+01	3.5603	-1.744037	0.000217	2.169214	0.367475	0.000022
 360	3.5721e+01	3.5695	-1.722041	0.000221	2.210142	0.374408	0.000022
 361	3.5820e+01	3.5786	-1.697600	0.000246	2.455714	0.416009	0.000025
 362	3.5919e+01	3.5906	-1.669901	0.000278	2.783142	0.471477	0.000028
 363	3.6019e+01	3.5996	-1.647904	0.000221	2.210142	0.374408	0.000022
 364	3.6118e+01	3.6099	-1.622649	0.000254	2.537571	0.429876	0.000025
 365	3.6218e+01	3.6160	-1.603911	0.000188	1.882714	0.318940	0.000019
 366	3.6318e+01	3.6287	-1.578249	0.000258	2.578499	0.436810	0.000026
 367	3.6417e+01	3.6371	-1.558289	0.000201	2.005499	0.339741	0.000020
 368	3.6517e+01	3.6469	-1.533034	0.000254	2.537571	0.429876	0.000025
 369	3.6616e+01	3.6570	-1.509408	0.000237	2.373856	0.402142	0.000024
 370	3.6715e+01	3.6677	-1.485375	0.000241	2.414785	0.409076	0.000024
 371	3.6815e+01	3.6767	-1.462971	0.000225	2.251071	0.381342	0.000023
 372	3.6914e+01	3.6904	-1.440567	0.000225	2.251071	0.381342	0.000023
 373	3.7014e+01	3.6971	-1.414090	0.000266	2.660356	0.450677	0.000027
 374	3.7114e+01	3.7086	-1.388020	0.000262	2.619428	0.443743	0.000026
 375	3.7213e+01	3.7159	-1.363579	0.000246	2.455714	0.416009	0.000025
 376	3.7313e+01	3.7280	-1.340768	0.000229	2.291999	0.388275	0.000023
 377	3.7412e+01	3.7363	-1.317142	0.000237	2.373856	0.402142	0.000024
 378	3.7511e+01	3.7485	-1.293109	0.000241	2.414785	0.409076	0.000024
 379	3.7611e+01	3.7563	-1.269890	0.000233	2.332928	0.395209	0.000023
 380	3.7711e+01	3.7640	-1.243820	0.000262	2.619428	0.443743	0.000026
 381	3.7810e+01	3.7784	-1.216121	0.000278	2.783142	0.471477	0.000028
 382	3.7910e+01	3.7870	-1.195754	0.000205	2.046428	0.346674	0.000020
 383	3.8009e+01	3.7929	-1.172536	0.000233	2.332928	0.395209	0.000023
 384	3.8108e+01	3.8064	-1.148095	0.000246	2.455714	0.416009	0.000025
 385	3.8208e+01	3.8184	-1.122840	0.000254	2.537571	0.429876	0.000025
 386	3.8307e+01	3.8276	-1.094326	0.000286	2.864999	0.485344	0.000029
 387	3.8407e+01	3.8378	-1.072737	0.000217	2.169214	0.367475	0.000022
 388	3.8507e+01	3.8477	-1.045037	0.000278	2.783142	0.471477	0.000028
 389	3.8606e+01	3.8561	-1.023041	0.000221	2.210142	0.374408	0.000022
 390	3.8706e+01	3.8684	-0.996564	0.000266	2.660356	0.450677	0.000027
 391	3.8805e+01	3.8773	-0.974160	0.000225	2.251071	0.381342	0.000023
 392	3.8904e+01	3.8847	-0.948497	0.000258	2.578499	0.436810	0.000026
 393	3.9004e+01	3.8982	-0.925686	0.000229	2.291999	0.388275	0.000023
 394	3.9103e+01	3.9074	-0.902060	0.000237	2.373856	0.402142	0.000024
 395	3.9203e+01	3.9154	-0.877620	0.000246	2.455714	0.416009	0.000025
 396	3.9303e+01	3.9268	-0.851142	0.000266	2.660356	0.450677	0.000027
 397	3.9402e+01	3.9349	-0.826702	0.000246	2.455714	0.416009	0.000025
 398	3.9502e+01	3.9452	-0.797780	0.000291	2.905928	0.492277	0.000029
 399	3.9601e+01	3.9542	-0.775784	0.000221	2.210142	0.374408	0.000022
 400	3.9700e+01	3.9663	-0.753787	0.000221	2.210142	0.374408	0.000022
 401	3.9800e+01	3.9747	-0.725273	0.000286	2.864999	0.485344	0.000029
 402	3.9900e+01	3.9848	-0.703684	0.000217	2.169214	0.367475	0.000022
 403	3.9999e+01	3.9983	-0.678022	0.000258	2.578499	0.436810	0.000026
 404	4.0099e+01	4.0061	-0.656433	0.000217	2.169214	0.367475	0.000022
 405	4.0198e+01	4.0156	-0.629141	0.000274	2.742213	0.464544	0.000027
 406	4.0297e+01	4.0246	-0.605515	0.000237	2.373856	0.402142	0.000024
 407	4.0397e+01	4.0369	-0.579037	0.000266	2.660356	0.450677	0.000027
 408	4.0496e+01	4.0467	-0.559892	0.000192	1.923642	0.325874	0.000019
 409	4.0596e+01	4.0562	-0.534230	0.000258	2.578499	0.436810	0.000026
 410	4.0696e+01	4.0639	-0.511826	0.000225	2.251071	0.381342	0.000023
 411	4.0795e+01	4.0764	-0.486571	0.000254	2.537571	0.429876	0.000025
 412	4.0895e+01	4.0881	-0.469055	0.000176	1.759928	0.298140	0.000018
 413	4.0994e+01	4.0965	-0.440134	0.000291	2.905928	0.492277	0.000029
 414	4.1093e+01	4.1060	-0.416100	0.000241	2.414785	0.409076	0.000024
 415	4.1193e+01	4.1138	-0.392067	0.000241	2.414785	0.409076	0.000024
 416	4.1292e+01	4.1286	-0.371700	0.000205	2.046428	0.346674	0.000020
 417	4.1392e+01	4.1341	-0.351740	0.000201	2.005499	0.339741	0.000020
 418	4.1492e+01	4.1456	-0.323634	0.000282	2.824071	0.478411	0.000028
 419	4.1591e+01	4.1555	-0.302045	0.000217	2.169214	0.367475	0.000022
 420	4.1691e+01	4.1650	-0.278419	0.000237	2.373856	0.402142	0.000024
 421	4.1790e+01	4.1771	-0.255200	0.000233	2.332928	0.395209	0.000023
 422	4.1889e+01	4.1831	-0.232389	0.000229	2.291999	0.388275	0.000023
 423	4.1989e+01	4.1955	-0.207948	0.000246	2.455714	0.416009	0.000025
 424	4.2089e+01	4.2064	-0.184730	0.000233	2.332928	0.395209	0.000023
 425	4.2188e+01	4.2139	-0.162326	0.000225	2.251071	0.381342	0.000023
 426	4.2288e+01	4.2243	-0.136663	0.000258	2.578499	0.436810	0.000026
 427	4.2387e+01	4.2347	-0.107742	0.000291	2.905928	0.492277	0.000029
 428	4.2486e+01	4.2467	-0.086968	0.000209	2.087356	0.353608	0.000021
 429	4.2586e+01	4.2538	-0.062527	0.000246	2.455714	0.416009	0.000025
 430	4.2685e+01	4.2657	-0.037679	0.000250	2.496642	0.422943	0.000025
 431	4.2785e+01	4.2756	-0.014053	0.000237	2.373856	0.402142	0.000024
 432	4.2885e+01	4.2834	0.012424	0.000266	2.660356	0.450677	0.000027
 433	4.2984e+01	4.2948	0.040123	0.000278	2.783142	0.471477	0.000028
 434	4.3084e+01	4.3050	0.063749	0.000237	2.373856	0.402142	0.000024
 435	4.3183e+01	4.3154	0.089819	0.000262	2.619428	0.443743	0.000026
 436	4.3282e+01	4.3221	0.115482	0.000258	2.578499	0.436810	0.000026
 437	4.3382e+01	4.3356	0.137071	0.000217	2.169214	0.367475	0.000022
 438	4.3481e+01	4.3443	0.161511	0.000246	2.455714	0.416009	0.000025
 439	4.3581e+01	4.3548	0.193691	0.000323	3.233356	0.547745	0.000032
 440	4.3681e+01	4.3642	0.216910	0.000233	2.332928	0.395209	0.000023
 441	4.3780e+01	4.3742	0.244202	0.000274	2.742213	0.464544	0.000027
 442	4.3880e+01	4.3845	0.270272	0.000262	2.619428	0.443743	0.000026
 443	4.3979e+01	4.3958	0.297971	0.000278	2.783142	0.471477	0.000028
 444	4.4078e+01	4.4030	0.324041	0.000262	2.619428	0.443743	0.000026
 445	4.4178e+01	4.4116	0.351333	0.000274	2.742213	0.464544	0.000027
 446	4.4278e+01	4.4253	0.380662	0.000295	2.946856	0.499211	0.000029
 447	4.4377e+01	4.4349	0.401029	0.000205	2.046428	0.346674	0.000020
 448	4.4477e+01	4.4436	0.427099	0.000262	2.619428	0.443743	0.000026
 449	4.4576e+01	4.4537	0.455205	0.000282	2.824071	0.478411	0.000028
 450	4.4675e+01	4.4654	0.481275	0.000262	2.619428	0.443743	0.000026
 451	4.4775e+01	4.4727	0.511011	0.000299	2.987785	0.506144	0.000030
 452	4.4874e+01	4.4825	0.537488	0.000266	2.660356	0.450677	0.000027
 453	4.4974e+01	4.4918	0.558670	0.000213	2.128285	0.360541	0.000021
 454	4.5074e+01	4.5043	0.591258	0.000327	3.274285	0.554679	0.000033
 455	4.5173e+01	4.5135	0.615291	0.000241	2.414785	0.409076	0.000024
 456	4.5273e+01	4.5240	0.639324	0.000241	2.414785	0.409076	0.000024
 457	4.5372e+01	4.5331	0.662543	0.000233	2.332928	0.395209	0.000023
 458	4.5471e+01	4.5437	0.688205	0.000258	2.578499	0.436810	0.000026
 459	4.5571e+01	4.5521	0.713868	0.000258	2.578499	0.436810	0.000026
 460	4.5670e+01	4.5623	0.740752	0.000270	2.701285	0.457610	0.000027
 461	4.5770e+01	4.5727	0.768044	0.000274	2.742213	0.464544	0.000027
 462	4.5870e+01	4.5817	0.794114	0.000262	2.619428	0.443743	0.000026
 463	4.5969e+01	4.5930	0.818148	0.000241	2.414785	0.409076	0.000024
 464	4.6069e+01	4.6023	0.842995	0.000250	2.496642	0.422943	0.000025
 465	4.6168e+01	4.6108	0.867843	0.000250	2.496642	0.422943	0.000025
 466	4.6267e+01	4.6221	0.891877	0.000241	2.414785	0.409076	0.000024
 467	4.6367e+01	4.6342	0.917132	0.000254	2.537571	0.429876	0.000025
 468	4.6467e+01	4.6427	0.944424	0.000274	2.742213	0.464544	0.000027
 469	4.6566e+01	4.6552	0.962754	0.000184	1.841785	0.312007	0.000018
 470	4.6666e+01	4.6651	0.988824	0.000262	2.619428	0.443743	0.000026
 471	4.6765e+01	4.6744	1.012857	0.000241	2.414785	0.409076	0.000024
 472	4.6864e+01	4.6815	1.038112	0.000254	2.537571	0.429876	0.000025
 473	4.6964e+01	4.6913	1.063368	0.000254	2.537571	0.429876	0.000025
 474	4.7063e+01	4.7039	1.090252	0.000270	2.701285	0.457610	0.000027
 475	4.7163e+01	4.7141	1.111841	0.000217	2.169214	0.367475	0.000022
 476	4.7263e+01	4.7211	1.137504	0.000258	2.578499	0.436810	0.000026
 477	4.7362e+01	4.7308	1.160315	0.000229	2.291999	0.388275	0.000023
 478	4.7462e+01	4.7466	1.185163	0.000250	2.496642	0.422943	0.000025
 479	4.7561e+01	4.7534	1.210418	0.000254	2.537571	0.429876	0.000025
 480	4.7660e+01	4.7601	1.233637	0.000233	2.332928	0.395209	0.000023
 481	4.7760e+01	4.7720	1.256041	0.000225	2.251071	0.381342	0.000023
 482	4.7859e+01	4.7852	1.282111	0.000262	2.619428	0.443743	0.000026
 483	4.7959e+01	4.7973	1.304515	0.000225	2.251071	0.381342	0.000023
 484	4.8059e+01	4.8013	1.326918	0.000225	2.251071	0.381342	0.000023
 485	4.8158e+01	4.8125	1.351359	0.000246	2.455714	0.416009	0.000025
 486	4.8258e+01	4.8254	1.377021	0.000258	2.578499	0.436810	0.000026
 487	4.8357e+01	4.8325	1.400240	0.000233	2.332928	0.395209	0.000023
 488	4.8456e+01	4.8418	1.424681	0.000246	2.455714	0.416009	0.000025
 489	4.8556e+01	4.8524	1.446270	0.000217	2.169214	0.367475	0.000022
 490	4.8656e+01	4.8615	1.473562	0.000274	2.742213	0.464544	0.000027
 491	4.8755e+01	4.8742	1.498002	0.000246	2.455714	0.416009	0.000025
 492	4.8855e+01	4.8814	1.522035	0.000241	2.414785	0.409076	0.000024
 493	4.8954e+01	4.8904	1.548105	0.000262	2.619428	0.443743	0.000026
 494	4.9053e+01	4.9024	1.574990	0.000270	2.701285	0.457610	0.000027
 495	4.9153e+01	4.9116	1.594135	0.000192	1.923642	0.325874	0.000019
 496	4.9252e+01	4.9221	1.622649	0.000286	2.864999	0.485344	0.000029
 497	4.9352e+01	4.9313	1.648312	0.000258	2.578499	0.436810	0.000026
 498	4.9452e+01	4.9406	1.672345	0.000241	2.414785	0.409076	0.000024
 499	4.9551e+01	4.9519	1.699637	0.000274	2.742213	0.464544	0.000027
 500	4.9651e+01	4.9595	1.720004	0.000205	2.046428	0.346674	0.000020
 501	4.9750e+01	4.9711	1.743222	0.000233	2.332928	0.395209	0.000023
 502	4.9849e+01	4.9816	1.772144	0.000291	2.905928	0.492277	0.000029
 503	4.9949e+01	4.9912	1.798214	0.000262	2.619428	0.443743	0.000026
 504	5.0048e+01	5.0013	1.822247	0.000241	2.414785	0.409076	0.000024
 505	5.0148e+01	5.0100	1.845058	0.000229	2.291999	0.388275	0.000023
 506	5.0248e+01	5.0233	1.871128	0.000262	2.619428	0.443743	0.000026
 507	5.0347e+01	5.0319	1.894754	0.000237	2.373856	0.402142	0.000024
 508	5.0447e+01	5.0426	1.920009	0.000254	2.537571	0.429876	0.000025
 509	5.0546e+01	5.0494	1.942820	0.000229	2.291999	0.388275	0.000023
 510	5.0645e+01	5.0610	1.964817	0.000221	2.210142	0.374408	0.000022
 511	5.0745e+01	5.0710	1.988850	0.000241	2.414785	0.409076	0.000024
 512	5.0844e+01	5.0811	2.013291	0.000246	2.455714	0.416009	0.000025
 513	5.0944e+01	5.0925	2.037324	0.000241	2.414785	0.409076	0.000024
 514	5.1044e+01	5.0965	2.056876	0.000196	1.964571	0.332807	0.000020
 515	5.1143e+01	5.1097	2.082539	0.000258	2.578499	0.436810	0.000026
 516	5.1242e+01	5.1185	2.104128	0.000217	2.169214	0.367475	0.000022
 517	5.1342e+01	5.1308	2.128569	0.000246	2.455714	0.416009	0.000025
 518	5.1441e+01	5.1394	2.148528	0.000201	2.005499	0.339741	0.000020
 519	5.1541e+01	5.1504	2.170932	0.000225	2.251071	0.381342	0.000023
 520	5.1641e+01	5.1600	2.193336	0.000225	2.251071	0.381342	0.000023
 521	5.1740e+01	5.1687	2.214110	0.000209	2.087356	0.353608	0.000021
 522	5.1840e+01	5.1804	2.239366	0.000254	2.537571	0.429876	0.000025
 523	5.1939e+01	5.1936	2.255252	0.000160	1.596214	0.270406	0.000016
 524	5.2038e+01	5.2032	2.280507	0.000254	2.537571	0.429876	0.000025
 525	5.2138e+01	5.2119	2.298838	0.000184	1.841785	0.312007	0.000018
 526	5.2237e+01	5.2186	2.318797	0.000201	2.005499	0.339741	0.000020
 527	5.2337e+01	5.2303	2.339165	0.000205	2.046428	0.346674	0.000020
 528	5.2437e+01	5.2373	2.359532	0.000205	2.046428	0.346674	0.000020
 529	5.2536e+01	5.2502	2.380714	0.000213	2.128285	0.360541	0.000021
 530	5.2636e+01	5.2592	2.402710	0.000221	2.210142	0.374408	0.000022
 531	5.2735e+01	5.2694	2.421855	0.000192	1.923642	0.325874	0.000019
 532	5.2834e+01	5.2792	2.443444	0.000217	2.169214	0.367475	0.000022
 533	5.2934e+01	5.2901	2.465033	0.000217	2.169214	0.367475	0.000022
 534	5.3033e+01	5.2999	2.485401	0.000205	2.046428	0.346674	0.000020
 535	5.3133e+01	5.3088	2.501694	0.000164	1.637142	0.277339	0.000016
 536	5.3233e+01	5.3199	2.524505	0.000229	2.291999	0.388275	0.000023
 537	5.3332e+01	5.3304	2.546502	0.000221	2.210142	0.374408	0.000022
 538	5.3431e+01	5.3411	2.566462	0.000201	2.005499	0.339741	0.000020
 539	5.3531e+01	5.3487	2.586422	0.000201	2.005499	0.339741	0.000020
 540	5.3630e+01	5.3634	2.606381	0.000201	2.005499	0.339741	0.000020
 541	5.3730e+01	5.3686	2.627970	0.000217	2.169214	0.367475	0.000022
 542	5.3830e+01	5.3797	2.649152	0.000213	2.128285	0.360541	0.000021
 543	5.3929e+01	5.3882	2.670334	0.000213	2.128285	0.360541	0.000021
 544	5.4029e+01	5.3998	2.693145	0.000229	2.291999	0.388275	0.000023
 545	5.4128e+01	5.4075	2.713512	0.000205	2.046428	0.346674	0.000020
 546	5.4227e+01	5.4199	2.736731	0.000233	2.332928	0.395209	0.000023
 547	5.4327e+01	5.4273	2.755061	0.000184	1.841785	0.312007	0.000018
 548	5.4426e+01	5.4400	2.777058	0.000221	2.210142	0.374408	0.000022
 549	5.4526e+01	5.4485	2.801091	0.000241	2.414785	0.409076	0.000024
 550	5.4626e+01	5.4626	2.823495	0.000225	2.251071	0.381342	0.000023
 551	5.4725e+01	5.4688	2.845491	0.000221	2.210142	0.374408	0.000022
 552	5.4825e+01	5.4777	2.865859	0.000205	2.046428	0.346674	0.000020
 553	5.4924e+01	5.4877	2.888670	0.000229	2.291999	0.388275	0.000023
 554	5.5023e+01	5.4987	2.909852	0.000213	2.128285	0.360541	0.000021
 555	5.5123e+01	5.5089	2.929404	0.000196	1.964571	0.332807	0.000020
 556	5.5222e+01	5.5169	2.953845	0.000246	2.455714	0.416009	0.000025
 557	5.5322e+01	5.5288	2.974619	0.000209	2.087356	0.353608	0.000021
 558	5.5422e+01	5.5396	2.996615	0.000221	2.210142	0.374408	0.000022
 559	5.5521e+01	5.5483	3.018612	0.000221	2.210142	0.374408	0.000022
 560	5.5620e+01	5.5587	3.036942	0.000184	1.841785	0.312007	0.000018
 561	5.5720e+01	5.5657	3.063420	0.000266	2.660356	0.450677	0.000027
 562	5.5819e+01	5.5813	3.087046	0.000237	2.373856	0.402142	0.000024
 563	5.5919e+01	5.5883	3.108635	0.000217	2.169214	0.367475	0.000022
 564	5.6019e+01	5.5968	3.127780	0.000192	1.923642	0.325874	0.000019
 565	5.6118e+01	5.6072	3.148147	0.000205	2.046428	0.346674	0.000020
 566	5.6218e+01	5.6171	3.172995	0.000250	2.496642	0.422943	0.000025
 567	5.6317e+01	5.6300	3.198250	0.000254	2.537571	0.429876	0.000025
 568	5.6416e+01	5.6348	3.218210	0.000201	2.005499	0.339741	0.000020
 569	5.6516e+01	5.6472	3.237762	0.000196	1.964571	0.332807	0.000020
 570	5.6615e+01	5.6570	3.258944	0.000213	2.128285	0.360541	0.000021
 571	5.6715e+01	5.6702	3.279311	0.000205	2.046428	0.346674	0.000020
 572	5.6815e+01	5.6801	3.302122	0.000229	2.291999	0.388275	0.000023
 573	5.6914e+01	5.6918	3.322897	0.000209	2.087356	0.353608	0.000021
 574	5.7014e+01	5.6977	3.344079	0.000213	2.128285	0.360541	0.000021
 575	5.7113e+01	5.7076	3.364446	0.000205	2.046428	0.346674	0.000020
 576	5.7212e+01	5.7192	3.384406	0.000201	2.005499	0.339741	0.000020
 577	5.7312e+01	5.7280	3.409253	0.000250	2.496642	0.422943	0.000025
 578	5.7411e+01	5.7375	3.427177	0.000180	1.800857	0.305073	0.000018
 579	5.7511e+01	5.7528	3.447951	0.000209	2.087356	0.353608	0.000021
 580	5.7611e+01	5.7571	3.467096	0.000192	1.923642	0.325874	0.000019
 581	5.7710e+01	5.7679	3.486649	0.000196	1.964571	0.332807	0.000020
 582	5.7809e+01	5.7771	3.510682	0.000241	2.414785	0.409076	0.000024
 583	5.7909e+01	5.7864	3.531456	0.000209	2.087356	0.353608	0.000021
 584	5.8008e+01	5.7946	3.553045	0.000217	2.169214	0.367475	0.000022
 585	5.8108e+01	5.8040	3.571783	0.000188	1.882714	0.318940	0.000019
 586	5.8208e+01	5.8169	3.595409	0.000237	2.373856	0.402142	0.000024
 587	5.8307e+01	5.8252	3.612925	0.000176	1.759928	0.298140	0.000018
 588	5.8407e+01	5.8375	3.634107	0.000213	2.128285	0.360541	0.000021
 589	5.8506e+01	5.8456	3.656918	0.000229	2.291999	0.388275	0.000023
 590	5.8605e+01	5.8564	3.672804	0.000160	1.596214	0.270406	0.000016
 591	5.8705e+01	5.8680	3.698059	0.000254	2.537571	0.429876	0.000025
 592	5.8804e+01	5.8775	3.715982	0.000180	1.800857	0.305073	0.000018
 593	5.8904e+01	5.8884	3.738386	0.000225	2.251071	0.381342	0.000023
 594	5.9004e+01	5.8979	3.757939	0.000196	1.964571	0.332807	0.000020
 595	5.9103e+01	5.9057	3.783601	0.000258	2.578499	0.436810	0.000026
 596	5.9203e+01	5.9154	3.808857	0.000254	2.537571	0.429876	0.000025
 597	5.9302e+01	5.9241	3.825150	0.000164	1.637142	0.277339	0.000016
 598	5.9401e+01	5.9361	3.849183	0.000241	2.414785	0.409076	0.000024
 599	5.9501e+01	5.9457	3.870773	0.000217	2.169214	0.367475	0.000022
 600	5.9600e+01	5.9557	3.891140	0.000205	2.046428	0.346674	0.000020
 601	5.9700e+01	5.9667	3.915988	0.000250	2.496642	0.422943	0.000025
 602	5.9800e+01	5.9771	3.937984	0.000221	2.210142	0.374408	0.000022
 603	5.9899e+01	5.9875	3.962425	0.000246	2.455714	0.416009	0.000025
 604	5.9998e+01	5.9962	3.986051	0.000237	2.373856	0.402142	0.000024
 605	6.0098e+01	6.0088	4.008454	0.000225	2.251071	0.381342	0.000023
 606	6.0197e+01	6.0146	4.030451	0.000221	2.210142	0.374408	0.000022
 607	6.0297e+01	6.0226	4.055706	0.000254	2.537571	0.429876	0.000025
 608	6.0397e+01	6.0342	4.076888	0.000213	2.128285	0.360541	0.000021
 609	6.0496e+01	6.0444	4.100921	0.000241	2.414785	0.409076	0.000024
 610	6.0596e+01	6.0543	4.126991	0.000262	2.619428	0.443743	0.000026
 611	6.0695e+01	6.0653	4.148988	0.000221	2.210142	0.374408	0.000022
 612	6.0794e+01	6.0766	4.171799	0.000229	2.291999	0.388275	0.000023
 613	6.0894e+01	6.0841	4.198683	0.000270	2.701285	0.457610	0.000027
 614	6.0993e+01	6.0958	4.221495	0.000229	2.291999	0.388275	0.000023
 615	6.1093e+01	6.1080	4.243898	0.000225	2.251071	0.381342	0.000023
 616	6.1193e+01	6.1156	4.265488	0.000217	2.169214	0.367475	0.000022
 617	6.1292e+01	6.1257	4.291965	0.000266	2.660356	0.450677	0.000027
 618	6.1392e+01	6.1338	4.319664	0.000278	2.783142	0.471477	0.000028
 619	6.1491e+01	6.1468	4.338809	0.000192	1.923642	0.325874	0.000019
 620	6.1590e+01	6.1572	4.366101	0.000274	2.742213	0.464544	0.000027
 621	6.1690e+01	6.1639	4.390542	0.000246	2.455714	0.416009	0.000025
 622	6.1789e+01	6.1752	4.410501	0.000201	2.005499	0.339741	0.000020
 623	6.1889e+01	6.1865	4.432498	0.000221	2.210142	0.374408	0.000022
 624	6.1989e+01	6.1941	4.458975	0.000266	2.660356	0.450677	0.000027
 625	6.2088e+01	6.2066	4.481786	0.000229	2.291999	0.388275	0.000023
 626	6.2188e+01	6.2147	4.502561	0.000209	2.087356	0.353608	0.000021
 627	6.2287e+01	6.2284	4.528631	0.000262	2.619428	0.443743	0.000026
 628	6.2386e+01	6.2357	4.551849	0.000233	2.332928	0.395209	0.000023
 629	6.2486e+01	6.2470	4.573031	0.000213	2.128285	0.360541	0.000021
 630	6.2586e+01	6.2583	4.592584	0.000196	1.964571	0.332807	0.000020
 631	6.2685e+01	6.2643	4.615802	0.000233	2.332928	0.395209	0.000023
 632	6.2785e+01	6.2745	4.639021	0.000233	2.332928	0.395209	0.000023
 633	6.2884e+01	6.2864	4.665498	0.000266	2.660356	0.450677	0.000027
 634	6.2983e+01	6.2940	4.684643	0.000192	1.923642	0.325874	0.000019
 635	6.3083e+01	6.3027	4.703788	0.000192	1.923642	0.325874	0.000019
 636	6.3182e+01	6.3152	4.725377	0.000217	2.169214	0.367475	0.000022
 637	6.3282e+01	6.3245	4.749818	0.000246	2.455714	0.416009	0.000025
 638	6.3382e+01	6.3376	4.770592	0.000209	2.087356	0.353608	0.000021
 639	6.3481e+01	6.3442	4.792996	0.000225	2.251071	0.381342	0.000023
 640	6.3581e+01	6.3516	4.813363	0.000205	2.046428	0.346674	0.000020
 641	6.3680e+01	6.3631	4.835767	0.000225	2.251071	0.381342	0.000023
 642	6.3779e+01	6.3764	4.857356	0.000217	2.169214	0.367475	0.000022
 643	6.3879e+01	6.3840	4.879353	0.000221	2.210142	0.374408	0.000022
 644	6.3978e+01	6.3960	4.900535	0.000213	2.128285	0.360541	0.000021
 645	6.4078e+01	6.4053	4.921309	0.000209	2.087356	0.353608	0.000021
 646	6.4177e+01	6.4120	4.941676	0.000205	2.046428	0.346674	0.000020
 647	6.4277e+01	6.4246	4.966117	0.000246	2.455714	0.416009	0.000025
 648	6.4376e+01	6.4324	4.986077	0.000201	2.005499	0.339741	0.000020
 649	6.4476e+01	6.4437	5.008480	0.000225	2.251071	0.381342	0.000023
 650	6.4576e+01	6.4551	5.030477	0.000221	2.210142	0.374408	0.000022
 651	6.4675e+01	6.4645	5.052881	0.000225	2.251071	0.381342	0.000023
 652	6.4775e+01	6.4746	5.073655	0.000209	2.087356	0.353608	0.000021
 653	6.4874e+01	6.4818	5.093208	0.000196	1.964571	0.332807	0.000020
 654	6.4974e+01	6.4956	5.115204	0.000221	2.210142	0.374408	0.000022
 655	6.5073e+01	6.5026	5.140459	0.000254	2.537571	0.429876	0.000025
 656	6.5172e+01	6.5154	5.160012	0.000196	1.964571	0.332807	0.000020
 657	6.5272e+01	6.5231	5.182416	0.000225	2.251071	0.381342	0.000023
 658	6.5371e+01	6.5346	5.205227	0.000229	2.291999	0.388275	0.000023
 659	6.5471e+01	6.5435	5.226816	0.000217	2.169214	0.367475	0.000022
 660	6.5570e+01	6.5511	5.250849	0.000241	2.414785	0.409076	0.000024
 661	6.5670e+01	6.5639	5.271624	0.000209	2.087356	0.353608	0.000021
 662	6.5769e+01	6.5764	5.295657	0.000241	2.414785	0.409076	0.000024
 663	6.5869e+01	6.5840	5.316431	0.000209	2.087356	0.353608	0.000021
 664	6.5969e+01	6.5943	5.338428	0.000221	2.210142	0.374408	0.000022
 665	6.6068e+01	6.6045	5.363276	0.000250	2.496642	0.422943	0.000025
 666	6.6168e+01	6.6122	5.380384	0.000172	1.718999	0.291206	0.000017
 667	6.6267e+01	6.6250	5.405639	0.000254	2.537571	0.429876	0.000025
 668	6.6367e+01	6.6313	5.426006	0.000205	2.046428	0.346674	0.000020
 669	6.6466e+01	6.6434	5.449225	0.000233	2.332928	0.395209	0.000023
 670	6.6566e+01	6.6526	5.472036	0.000229	2.291999	0.388275	0.000023
 671	6.6665e+01	6.6602	5.492811	0.000209	2.087356	0.353608	0.000021
 672	6.6764e+01	6.6724	5.516844	0.000241	2.414785	0.409076	0.000024
 673	6.6864e+01	6.6821	5.540062	0.000233	2.332928	0.395209	0.000023
 674	6.6963e+01	6.6943	5.562059	0.000221	2.210142	0.374408	0.000022
 675	6.7063e+01	6.7018	5.583648	0.000217	2.169214	0.367475	0.000022
 676	6.7162e+01	6.7107	5.601164	0.000176	1.759928	0.298140	0.000018
 677	6.7262e+01	6.7242	5.628863	0.000278	2.783142	0.471477	0.000028
 678	6.7362e+01	6.7315	5.648415	0.000196	1.964571	0.332807	0.000020
 679	6.7461e+01	6.7428	5.669190	0.000209	2.087356	0.353608	0.000021
 680	6.7561e+01	6.7502	5.685076	0.000160	1.596214	0.270406	0.000016
 681	6.7660e+01	6.7616	5.707073	0.000221	2.210142	0.374408	0.000022
 682	6.7760e+01	6.7702	5.731921	0.000250	2.496642	0.422943	0.000025
 683	6.7859e+01	6.7807	5.752288	0.000205	2.046428	0.346674	0.000020
 684	6.7959e+01	6.7915	5.767767	0.000156	1.555285	0.263472	0.000016
 685	6.8058e+01	6.8015	5.789763	0.000221	2.210142	0.374408	0.000022
 686	6.8157e+01	6.8118	5.812575	0.000229	2.291999	0.388275	0.000023
 687	6.8257e+01	6.8214	5.833349	0.000209	2.087356	0.353608	0.000021
 688	6.8356e+01	6.8339	5.849643	0.000164	1.637142	0.277339	0.000016
 689	6.8456e+01	6.8431	5.870417	0.000209	2.087356	0.353608	0.000021
 690	6.8555e+01	6.8514	5.888340	0.000180	1.800857	0.305073	0.000018
 691	6.8655e+01	6.8609	5.908707	0.000205	2.046428	0.346674	0.000020
 692	6.8754e+01	6.8731	5.925408	0.000168	1.678071	0.284273	0.000017
 693	6.8854e+01	6.8827	5.942517	0.000172	1.718999	0.291206	0.000017
 694	6.8954e+01	6.8916	5.959625	0.000172	1.718999	0.291206	0.000017
 695	6.9053e+01	6.9019	5.977956	0.000184	1.841785	0.312007	0.000018
 696	6.9153e+01	6.9114	5.996693	0.000188	1.882714	0.318940	0.000019
 697	6.9252e+01	6.9195	6.017468	0.000209	2.087356	0.353608	0.000021
 698	6.9352e+01	6.9324	6.034984	0.000176	1.759928	0.298140	0.000018
 699	6.9451e+01	6.9410	6.054536	0.000196	1.964571	0.332807	0.000020
 700	6.9550e+01	6.9533	6.072459	0.000180	1.800857	0.305073	0.000018
 701	6.9650e+01	6.9592	6.089160	0.000168	1.678071	0.284273	0.000017
 702	6.9749e+01	6.9712	6.108305	0.000192	1.923642	0.325874	0.000019
 703	6.9849e+01	6.9794	6.127450	0.000192	1.923642	0.325874	0.000019
 704	6.9948e+01	6.9908	6.141707	0.000143	1.432500	0.242672	0.000014
 705	7.0048e+01	7.0008	6.160852	0.000192	1.923642	0.325874	0.000019
 706	7.0147e+01	7.0109	6.182034	0.000213	2.128285	0.360541	0.000021
 707	7.0247e+01	7.0232	6.199957	0.000180	1.800857	0.305073	0.000018
 708	7.0347e+01	7.0310	6.215844	0.000160	1.596214	0.270406	0.000016
 709	7.0446e+01	7.0404	6.236211	0.000205	2.046428	0.346674	0.000020
 710	7.0546e+01	7.0500	6.257393	0.000213	2.128285	0.360541	0.000021
 711	7.0645e+01	7.0633	6.273279	0.000160	1.596214	0.270406	0.000016
 712	7.0745e+01	7.0679	6.293239	0.000201	2.005499	0.339741	0.000020
 713	7.0844e+01	7.0821	6.310754	0.000176	1.759928	0.298140	0.000018
 714	7.0944e+01	7.0897	6.330714	0.000201	2.005499	0.339741	0.000020
 715	7.1043e+01	7.0988	6.349045	0.000184	1.841785	0.312007	0.000018
 716	7.1142e+01	7.1095	6.370634	0.000217	2.169214	0.367475	0.000022
 717	7.1242e+01	7.1183	6.392223	0.000217	2.169214	0.367475	0.000022
 718	7.1341e+01	7.1296	6.409331	0.000172	1.718999	0.291206	0.000017
 719	7.1441e+01	7.1413	6.428884	0.000196	1.964571	0.332807	0.000020
 720	7.1540e+01	7.1487	6.448844	0.000201	2.005499	0.339741	0.000020
 721	7.1640e+01	7.1579	6.467174	0.000184	1.841785	0.312007	0.000018
 722	7.1740e+01	7.1729	6.489578	0.000225	2.251071	0.381342	0.000023
 723	7.1839e+01	7.1811	6.512389	0.000229	2.291999	0.388275	0.000023
 724	7.1939e+01	7.1906	6.526239	0.000139	1.391571	0.235739	0.000014
 725	7.2038e+01	7.2001	6.546198	0.000201	2.005499	0.339741	0.000020
 726	7.2138e+01	7.2105	6.567788	0.000217	2.169214	0.367475	0.000022
 727	7.2237e+01	7.2195	6.585303	0.000176	1.759928	0.298140	0.000018
 728	7.2337e+01	7.2292	6.605263	0.000201	2.005499	0.339741	0.000020
 729	7.2436e+01	7.2412	6.626445	0.000213	2.128285	0.360541	0.000021
 730	7.2535e+01	7.2501	6.643961	0.000176	1.759928	0.298140	0.000018
 731	7.2635e+01	7.2588	6.666772	0.000229	2.291999	0.388275	0.000023
 732	7.2734e+01	7.2686	6.684695	0.000180	1.800857	0.305073	0.000018
 733	7.2834e+01	7.2780	6.704655	0.000201	2.005499	0.339741	0.000020
 734	7.2933e+01	7.2884	6.724207	0.000196	1.964571	0.332807	0.000020
 735	7.3033e+01	7.2982	6.743352	0.000192	1.923642	0.325874	0.000019
 736	7.3132e+01	7.3109	6.761683	0.000184	1.841785	0.312007	0.000018
 737	7.3232e+01	7.3187	6.787345	0.000258	2.578499	0.436810	0.000026
 738	7.3332e+01	7.3270	6.799973	0.000127	1.268785	0.214938	0.000013
 739	7.3431e+01	7.3389	6.822784	0.000229	2.291999	0.388275	0.000023
 740	7.3531e+01	7.3508	6.838263	0.000156	1.555285	0.263472	0.000016
 741	7.3630e+01	7.3590	6.862704	0.000246	2.455714	0.416009	0.000025
 742	7.3730e+01	7.3712	6.875331	0.000127	1.268785	0.214938	0.000013
 743	7.3829e+01	7.3808	6.896920	0.000217	2.169214	0.367475	0.000022
 744	7.3928e+01	7.3882	6.915658	0.000188	1.882714	0.318940	0.000019
 745	7.4028e+01	7.3979	6.935618	0.000201	2.005499	0.339741	0.000020
 746	7.4127e+01	7.4105	6.953541	0.000180	1.800857	0.305073	0.000018
 747	7.4227e+01	7.4187	6.969427	0.000160	1.596214	0.270406	0.000016
 748	7.4326e+01	7.4306	6.993053	0.000237	2.373856	0.402142	0.000024
 749	7.4426e+01	7.4386	7.011384	0.000184	1.841785	0.312007	0.000018
 750	7.4525e+01	7.4491	7.030936	0.000196	1.964571	0.332807	0.000020
 751	7.4625e+01	7.4593	7.044378	0.000135	1.350642	0.228805	0.000014
 752	7.4725e+01	7.4669	7.063931	0.000196	1.964571	0.332807	0.000020
 753	7.4824e+01	7.4810	7.081854	0.000180	1.800857	0.305073	0.000018
 754	7.4924e+01	7.4883	7.103443	0.000217	2.169214	0.367475	0.000022
 755	7.5023e+01	7.4969	7.118515	0.000151	1.514357	0.256539	0.000015
 756	7.5123e+01	7.5068	7.139289	0.000209	2.087356	0.353608	0.000021
 757	7.5222e+01	7.5205	7.158027	0.000188	1.882714	0.318940	0.000019
 758	7.5322e+01	7.5300	7.176357	0.000184	1.841785	0.312007	0.000018
 759	7.5421e+01	7.5375	7.193873	0.000176	1.759928	0.298140	0.000018
 760	7.5520e+01	7.5482	7.214240	0.000205	2.046428	0.346674	0.000020
 761	7.5620e+01	7.5591	7.237459	0.000233	2.332928	0.395209	0.000023
 762	7.5719e+01	7.5684	7.254975	0.000176	1.759928	0.298140	0.000018
 763	7.5819e+01	7.5768	7.275342	0.000205	2.046428	0.346674	0.000020
 764	7.5918e+01	7.5893	7.291228	0.000160	1.596214	0.270406	0.000016
 765	7.6018e+01	7.5967	7.313632	0.000225	2.251071	0.381342	0.000023
 766	7.6118e+01	7.6067	7.331962	0.000184	1.841785	0.312007	0.000018
 767	7.6217e+01	7.6162	7.354773	0.000229	2.291999	0.388275	0.000023
 768	7.6317e+01	7.6285	7.375955	0.000213	2.128285	0.360541	0.000021
 769	7.6416e+01	7.6389	7.392249	0.000164	1.637142	0.277339	0.000016
 770	7.6516e+01	7.6465	7.416690	0.000246	2.455714	0.416009	0.000025
 771	7.6615e+01	7.6579	7.435427	0.000188	1.882714	0.318940	0.000019
 772	7.6715e+01	7.6714	7.457424	0.000221	2.210142	0.374408	0.000022
 773	7.6814e+01	7.6739	7.476976	0.000196	1.964571	0.332807	0.000020
 774	7.6913e+01	7.6872	7.498565	0.000217	2.169214	0.367475	0.000022
 775	7.7013e+01	7.6981	7.520562	0.000221	2.210142	0.374408	0.000022
 776	7.7112e+01	7.7044	7.540929	0.000205	2.046428	0.346674	0.000020
 777	7.7212e+01	7.7183	7.562925	0.000221	2.210142	0.374408	0.000022
 778	7.7311e+01	7.7269	7.586959	0.000241	2.414785	0.409076	0.000024
 779	7.7411e+01	7.7376	7.606104	0.000192	1.923642	0.325874	0.000019
 780	7.7510e+01	7.7430	7.629322	0.000233	2.332928	0.395209	0.000023
 781	7.7610e+01	7.7577	7.650504	0.000213	2.128285	0.360541	0.000021
 782	7.7710e+01	7.7667	7.672501	0.000221	2.210142	0.374408	0.000022
 783	7.7809e+01	7.7763	7.694090	0.000217	2.169214	0.367475	0.000022
 784	7.7909e+01	7.7866	7.715679	0.000217	2.169214	0.367475	0.000022
 785	7.8008e+01	7.7968	7.740527	0.000250	2.496642	0.422943	0.000025
 786	7.8108e+01	7.8052	7.762116	0.000217	2.169214	0.367475	0.000022
 787	7.8207e+01	7.8176	7.783298	0.000213	2.128285	0.360541	0.000021
 788	7.8306e+01	7.8275	7.806516	0.000233	2.332928	0.395209	0.000023
 789	7.8406e+01	7.8362	7.828513	0.000221	2.210142	0.374408	0.000022
 790	7.8505e+01	7.8478	7.849287	0.000209	2.087356	0.353608	0.000021
 791	7.8605e+01	7.8555	7.869654	0.000205	2.046428	0.346674	0.000020
 792	7.8704e+01	7.8665	7.891651	0.000221	2.210142	0.374408	0.000022
 793	7.8804e+01	7.8767	7.913240	0.000217	2.169214	0.367475	0.000022
 794	7.8903e+01	7.8869	7.933200	0.000201	2.005499	0.339741	0.000020
 795	7.9003e+01	7.8981	7.951123	0.000180	1.800857	0.305073	0.000018
 796	7.9103e+01	7.9058	7.977193	0.000262	2.619428	0.443743	0.000026
 797	7.9202e+01	7.9179	7.996338	0.000192	1.923642	0.325874	0.000019
 798	7.9302e+01	7.9267	8.015076	0.000188	1.882714	0.318940	0.000019
 799	7.9401e+01	7.9352	8.035850	0.000209	2.087356	0.353608	0.000021
 800	7.9501e+01	7.9443	8.057439	0.000217	2.169214	0.367475	0.000022
 801	7.9600e+01	7.9551	8.080658	0.000233	2.332928	0.395209	0.000023
 802	7.9700e+01	7.9678	8.098581	0.000180	1.800857	0.305073	0.000018
 803	7.9799e+01	7.9753	8.114875	0.000164	1.637142	0.277339	0.000016
 804	7.9898e+01	7.9863	8.136056	0.000213	2.128285	0.360541	0.000021
 805	7.9998e+01	7.9963	8.153980	0.000180	1.800857	0.305073	0.000018
 806	8.0097e+01	8.0078	8.180864	0.000270	2.701285	0.457610	0.000027
 807	8.0197e+01	8.0169	8.195936	0.000151	1.514357	0.256539	0.000015
 808	8.0296e+01	8.0238	8.216710	0.000209	2.087356	0.353608	0.000021
 809	8.0396e+01	8.0354	8.237077	0.000205	2.046428	0.346674	0.000020
 810	8.0496e+01	8.0489	8.259481	0.000225	2.251071	0.381342	0.000023
 811	8.0595e+01	8.0540	8.276182	0.000168	1.678071	0.284273	0.000017
 812	8.0695e+01	8.0692	8.301438	0.000254	2.537571	0.429876	0.000025
 813	8.0794e+01	8.0762	8.314880	0.000135	1.350642	0.228805	0.000014
 814	8.0894e+01	8.0873	8.340542	0.000258	2.578499	0.436810	0.000026
 815	8.0993e+01	8.0957	8.355207	0.000147	1.473428	0.249605	0.000015
 816	8.1093e+01	8.1059	8.375574	0.000205	2.046428	0.346674	0.000020
 817	8.1192e+01	8.1129	8.396756	0.000213	2.128285	0.360541	0.000021
 818	8.1291e+01	8.1250	8.415086	0.000184	1.841785	0.312007	0.000018
 819	8.1391e+01	8.1361	8.434231	0.000192	1.923642	0.325874	0.000019
 820	8.1490e+01	8.1457	8.454191	0.000201	2.005499	0.339741	0.000020
 821	8.1590e+01	8.1538	8.475780	0.000217	2.169214	0.367475	0.000022
 822	8.1689e+01	8.1654	8.493296	0.000176	1.759928	0.298140	0.000018
 823	8.1789e+01	8.1767	8.516922	0.000237	2.373856	0.402142	0.000024
 824	8.1888e+01	8.1862	8.536474	0.000196	1.964571	0.332807	0.000020
 825	8.1988e+01	8.1952	8.554397	0.000180	1.800857	0.305073	0.000018
 826	8.2088e+01	8.2045	8.575986	0.000217	2.169214	0.367475	0.000022
 827	8.2187e+01	8.2153	8.595946	0.000201	2.005499	0.339741	0.000020
 828	8.2287e+01	8.2263	8.617535	0.000217	2.169214	0.367475	0.000022
 829	8.2386e+01	8.2350	8.635458	0.000180	1.800857	0.305073	0.000018
 830	8.2486e+01	8.2446	8.659084	0.000237	2.373856	0.402142	0.000024
 831	8.2585e+01	8.2547	8.680673	0.000217	2.169214	0.367475	0.000022
 832	8.2684e+01	8.2624	8.700633	0.000201	2.005499	0.339741	0.000020
 833	8.2784e+01	8.2748	8.720186	0.000196	1.964571	0.332807	0.000020
 834	8.2883e+01	8.2870	8.742590	0.000225	2.251071	0.381342	0.000023
 835	8.2983e+01	8.2950	8.760513	0.000180	1.800857	0.305073	0.000018
 836	8.3082e+01	8.3041	8.781694	0.000213	2.128285	0.360541	0.000021
 837	8.3182e+01	8.3126	8.805320	0.000237	2.373856	0.402142	0.000024
 838	8.3281e+01	8.3253	8.823651	0.000184	1.841785	0.312007	0.000018
 839	8.3381e+01	8.3350	8.844018	0.000205	2.046428	0.346674	0.000020
 840	8.3481e+01	8.3436	8.867644	0.000237	2.373856	0.402142	0.000024
 841	8.3580e+01	8.3556	8.884752	0.000172	1.718999	0.291206	0.000017
 842	8.3680e+01	8.3656	8.907156	0.000225	2.251071	0.381342	0.000023
 843	8.3779e+01	8.3755	8.927116	0.000201	2.005499	0.339741	0.000020
 844	8.3879e+01	8.3814	8.945039	0.000180	1.800857	0.305073	0.000018
 845	8.3978e+01	8.3936	8.963777	0.000188	1.882714	0.318940	0.000019
 846	8.4078e+01	8.4016	8.986180	0.000225	2.251071	0.381342	0.000023
 847	8.4177e+01	8.4147	9.004511	0.000184	1.841785	0.312007	0.000018
 848	8.4276e+01	8.4238	9.024471	0.000201	2.005499	0.339741	0.000020
 849	8.4376e+01	8.4341	9.044430	0.000201	2.005499	0.339741	0.000020
 850	8.4475e+01	8.4434	9.061539	0.000172	1.718999	0.291206	0.000017
 851	8.4575e+01	8.4533	9.080684	0.000192	1.923642	0.325874	0.000019
 852	8.4674e+01	8.4644	9.098200	0.000176	1.759928	0.298140	0.000018
 853	8.4774e+01	8.4738	9.115715	0.000176	1.759928	0.298140	0.000018
 854	8.4874e+01	8.4818	9.138934	0.000233	2.332928	0.395209	0.000023
 855	8.4973e+01	8.4953	9.154820	0.000160	1.596214	0.270406	0.000016
 856	8.5073e+01	8.5028	9.169892	0.000151	1.514357	0.256539	0.000015
 857	8.5172e+01	8.5133	9.189444	0.000196	1.964571	0.332807	0.000020
 858	8.5272e+01	8.5236	9.207367	0.000180	1.800857	0.305073	0.000018
 859	8.5371e+01	8.5315	9.224068	0.000168	1.678071	0.284273	0.000017
 860	8.5471e+01	8.5444	9.238325	0.000143	1.432500	0.242672	0.000014
 861	8.5570e+01	8.5522	9.252990	0.000147	1.473428	0.249605	0.000015
 862	8.5669e+01	8.5615	9.273764	0.000209	2.087356	0.353608	0.000021
 863	8.5769e+01	8.5724	9.289243	0.000156	1.555285	0.263472	0.000016
 864	8.5868e+01	8.5828	9.309203	0.000201	2.005499	0.339741	0.000020
 865	8.5968e+01	8.5917	9.325089	0.000160	1.596214	0.270406	0.000016
 866	8.6067e+01	8.6038	9.342605	0.000176	1.759928	0.298140	0.000018
 867	8.6167e+01	8.6133	9.358491	0.000160	1.596214	0.270406	0.000016
 868	8.6266e+01	8.6230	9.372748	0.000143	1.432500	0.242672	0.000014
 869	8.6366e+01	8.6328	9.390264	0.000176	1.759928	0.298140	0.000018
 870	8.6466e+01	8.6430	9.406151	0.000160	1.596214	0.270406	0.000016
 871	8.6565e+01	8.6536	9.425296	0.000192	1.923642	0.325874	0.000019
 872	8.6665e+01	8.6631	9.439145	0.000139	1.391571	0.235739	0.000014
 873	8.6764e+01	8.6712	9.460734	0.000217	2.169214	0.367475	0.000022
 874	8.6864e+01	8.6842	9.476621	0.000160	1.596214	0.270406	0.000016
 875	8.6963e+01	8.6924	9.493729	0.000172	1.718999	0.291206	0.000017
 876	8.7063e+01	8.7038	9.510430	0.000168	1.678071	0.284273	0.000017
 877	8.7162e+01	8.7122	9.527946	0.000176	1.759928	0.298140	0.000018
 878	8.7261e+01	8.7231	9.547091	0.000192	1.923642	0.325874	0.000019
 879	8.7361e+01	8.7320	9.562977	0.000160	1.596214	0.270406	0.000016
 880	8.7460e+01	8.7409	9.580900	0.000180	1.800857	0.305073	0.000018
 881	8.7560e+01	8.7526	9.599231	0.000184	1.841785	0.312007	0.000018
 882	8.7659e+01	8.7611	9.616339	0.000172	1.718999	0.291206	0.000017
 883	8.7759e+01	8.7714	9.634262	0.000180	1.800857	0.305073	0.000018
 884	8.7859e+01	8.7817	9.653815	0.000196	1.964571	0.332807	0.000020
 885	8.7958e+01	8.7926	9.671331	0.000176	1.759928	0.298140	0.000018
 886	8.8058e+01	8.8003	9.689661	0.000184	1.841785	0.312007	0.000018
 887	8.8157e+01	8.8135	9.707584	0.000180	1.800857	0.305073	0.000018
 888	8.8257e+01	8.8193	9.725100	0.000176	1.759928	0.298140	0.000018
 889	8.8356e+01	8.8330	9.743838	0.000188	1.882714	0.318940	0.000019
 890	8.8456e+01	8.8393	9.761353	0.000176	1.759928	0.298140	0.000018
 891	8.8555e+01	8.8531	9.780498	0.000192	1.923642	0.325874	0.000019
 892	8.8654e+01	8.8623	9.802495	0.000221	2.210142	0.374408	0.000022
 893	8.8754e+01	8.8673	9.814715	0.000123	1.227857	0.208005	0.000012
 894	8.8853e+01	8.8786	9.836712	0.000221	2.210142	0.374408	0.000022
 895	8.8953e+01	8.8905	9.853005	0.000164	1.637142	0.277339	0.000016
 896	8.9052e+01	8.9026	9.872558	0.000196	1.964571	0.332807	0.000020
 897	8.9152e+01	8.9087	9.893740	0.000213	2.128285	0.360541	0.000021
 898	8.9251e+01	8.9209	9.912885	0.000192	1.923642	0.325874	0.000019
 899	8.9351e+01	8.9319	9.927142	0.000143	1.432500	0.242672	0.000014
 900	8.9451e+01	8.9388	9.947509	0.000205	2.046428	0.346674	0.000020
 901	8.9550e+01	8.9512	9.967469	0.000201	2.005499	0.339741	0.000020
 902	8.9650e+01	8.9608	9.987428	0.000201	2.005499	0.339741	0.000020
 903	8.9749e+01	8.9728	10.002907	0.000156	1.555285	0.263472	0.000016
 904	8.9849e+01	8.9826	10.023682	0.000209	2.087356	0.353608	0.000021
 905	8.9948e+01	8.9893	10.040790	0.000172	1.718999	0.291206	0.000017
 906	9.0047e+01	8.9996	10.060750	0.000201	2.005499	0.339741	0.000020
 907	9.0147e+01	9.0112	10.078673	0.000180	1.800857	0.305073	0.000018
 908	9.0246e+01	9.0197	10.097411	0.000188	1.882714	0.318940	0.000019
 909	9.0346e+01	9.0298	10.112890	0.000156	1.555285	0.263472	0.000016
 910	9.0445e+01	9.0405	10.132442	0.000196	1.964571	0.332807	0.000020
 911	9.0545e+01	9.0516	10.147107	0.000147	1.473428	0.249605	0.000015
 912	9.0644e+01	9.0604	10.167881	0.000209	2.087356	0.353608	0.000021
 913	9.0744e+01	9.0687	10.184582	0.000168	1.678071	0.284273	0.000017
 914	9.0844e+01	9.0781	10.198024	0.000135	1.350642	0.228805	0.000014
 915	9.0943e+01	9.0908	10.218392	0.000205	2.046428	0.346674	0.000020
 916	9.1043e+01	9.1010	10.236315	0.000180	1.800857	0.305073	0.000018
 917	9.1142e+01	9.1108	10.254645	0.000184	1.841785	0.312007	0.000018
 918	9.1242e+01	9.1187	10.272161	0.000176	1.759928	0.298140	0.000018
 919	9.1341e+01	9.1309	10.292121	0.000201	2.005499	0.339741	0.000020
 920	9.1441e+01	9.1399	10.306785	0.000147	1.473428	0.249605	0.000015
 921	9.1540e+01	9.1504	10.326745	0.000201	2.005499	0.339741	0.000020
 922	9.1639e+01	9.1583	10.342224	0.000156	1.555285	0.263472	0.000016
 923	9.1739e+01	9.1699	10.359739	0.000176	1.759928	0.298140	0.000018
 924	9.1838e+01	9.1788	10.373589	0.000139	1.391571	0.235739	0.000014
 925	9.1938e+01	9.1919	10.391512	0.000180	1.800857	0.305073	0.000018
 926	9.2037e+01	9.1986	10.412694	0.000213	2.128285	0.360541	0.000021
 927	9.2137e+01	9.2125	10.432246	0.000196	1.964571	0.332807	0.000020
 928	9.2237e+01	9.2200	10.445689	0.000135	1.350642	0.228805	0.000014
 929	9.2336e+01	9.2303	10.470129	0.000246	2.455714	0.416009	0.000025
 930	9.2436e+01	9.2385	10.488867	0.000188	1.882714	0.318940	0.000019
 931	9.2535e+01	9.2496	10.503531	0.000147	1.473428	0.249605	0.000015
 932	9.2635e+01	9.2562	10.526343	0.000229	2.291999	0.388275	0.000023
 933	9.2734e+01	9.2669	10.545080	0.000188	1.882714	0.318940	0.000019
 934	9.2834e+01	9.2774	10.563818	0.000188	1.882714	0.318940	0.000019
 935	9.2933e+01	9.2883	10.586222	0.000225	2.251071	0.381342	0.000023
 936	9.3032e+01	9.2969	10.604145	0.000180	1.800857	0.305073	0.000018
 937	9.3132e+01	9.3105	10.621253	0.000172	1.718999	0.291206	0.000017
 938	9.3231e+01	9.3201	10.643250	0.000221	2.210142	0.374408	0.000022
 939	9.3331e+01	9.3287	10.661988	0.000188	1.882714	0.318940	0.000019
 940	9.3430e+01	9.3385	10.681947	0.000201	2.005499	0.339741	0.000020
 941	9.3530e+01	9.3470	10.703537	0.000217	2.169214	0.367475	0.000022
 942	9.3629e+01	9.3599	10.731236	0.000278	2.783142	0.471477	0.000028
 943	9.3729e+01	9.3674	10.748344	0.000172	1.718999	0.291206	0.000017
 944	9.3829e+01	9.3777	10.771155	0.000229	2.291999	0.388275	0.000023
 945	9.3928e+01	9.3891	10.789893	0.000188	1.882714	0.318940	0.000019
 946	9.4028e+01	9.3982	10.811890	0.000221	2.210142	0.374408	0.000022
 947	9.4127e+01	9.4102	10.833479	0.000217	2.169214	0.367475	0.000022
 948	9.4227e+01	9.4193	10.855475	0.000221	2.210142	0.374408	0.000022
 949	9.4326e+01	9.4269	10.877064	0.000217	2.169214	0.367475	0.000022
 950	9.4425e+01	9.4375	10.896617	0.000196	1.964571	0.332807	0.000020
 951	9.4525e+01	9.4459	10.917391	0.000209	2.087356	0.353608	0.000021
 952	9.4624e+01	9.4553	10.936129	0.000188	1.882714	0.318940	0.000019
 953	9.4724e+01	9.4684	10.960977	0.000250	2.496642	0.422943	0.000025
 954	9.4823e+01	9.4778	10.983788	0.000229	2.291999	0.388275	0.000023
 955	9.4923e+01	9.4875	11.001304	0.000176	1.759928	0.298140	0.000018
 956	9.5022e+01	9.4971	11.025337	0.000241	2.414785	0.409076	0.000024
 957	9.5122e+01	9.5032	11.047334	0.000221	2.210142	0.374408	0.000022
 958	9.5222e+01	9.5158	11.067293	0.000201	2.005499	0.339741	0.000020
 959	9.5321e+01	9.5288	11.089697	0.000225	2.251071	0.381342	0.000023
 960	9.5421e+01	9.5377	11.108842	0.000192	1.923642	0.325874	0.000019
 961	9.5520e+01	9.5467	11.126765	0.000180	1.800857	0.305073	0.000018
 962	9.5620e+01	9.5557	11.149577	0.000229	2.291999	0.388275	0.000023
 963	9.5719e+01	9.5654	11.170351	0.000209	2.087356	0.353608	0.000021
 964	9.5819e+01	9.5776	11.189904	0.000196	1.964571	0.332807	0.000020
 965	9.5918e+01	9.5874	11.205383	0.000156	1.555285	0.263472	0.000016
 966	9.6017e+01	9.5979	11.230230	0.000250	2.496642	0.422943	0.000025
 967	9.6117e+01	9.6067	11.251412	0.000213	2.128285	0.360541	0.000021
 968	9.6216e+01	9.6200	11.271372	0.000201	2.005499	0.339741	0.000020
 969	9.6316e+01	9.6267	11.288888	0.000176	1.759928	0.298140	0.000018
 970	9.6415e+01	9.6362	11.311292	0.000225	2.251071	0.381342	0.000023
 971	9.6515e+01	9.6469	11.331659	0.000205	2.046428	0.346674	0.000020
 972	9.6615e+01	9.6572	11.350397	0.000188	1.882714	0.318940	0.000019
 973	9.6714e+01	9.6667	11.369134	0.000188	1.882714	0.318940	0.000019
 974	9.6814e+01	9.6767	11.394390	0.000254	2.537571	0.429876	0.000025
 975	9.6913e+01	9.6878	11.413535	0.000192	1.923642	0.325874	0.000019
 976	9.7013e+01	9.6985	11.430236	0.000168	1.678071	0.284273	0.000017
 977	9.7112e+01	9.7054	11.449788	0.000196	1.964571	0.332807	0.000020
 978	9.7212e+01	9.7157	11.469748	0.000201	2.005499	0.339741	0.000020
 979	9.7311e+01	9.7256	11.488486	0.000188	1.882714	0.318940	0.000019
 980	9.7410e+01	9.7363	11.512112	0.000237	2.373856	0.402142	0.000024
 981	9.7510e+01	9.7468	11.527998	0.000160	1.596214	0.270406	0.000016
 982	9.7609e+01	9.7572	11.548772	0.000209	2.087356	0.353608	0.000021
 983	9.7709e+01	9.7656	11.566288	0.000176	1.759928	0.298140	0.000018
 984	9.7808e+01	9.7768	11.588285	0.000221	2.210142	0.374408	0.000022
 985	9.7908e+01	9.7867	11.608244	0.000201	2.005499	0.339741	0.000020
 986	9.8007e+01	9.7958	11.626167	0.000180	1.800857	0.305073	0.000018
 987	9.8107e+01	9.8064	11.648571	0.000225	2.251071	0.381342	0.000023
 988	9.8207e+01	9.8145	11.666902	0.000184	1.841785	0.312007	0.000018
 989	9.8306e+01	9.8251	11.687269	0.000205	2.046428	0.346674	0.000020
 990	9.8406e+01	9.8367	11.709673	0.000225	2.251071	0.381342	0.000023
 991	9.8505e+01	9.8444	11.728818	0.000192	1.923642	0.325874	0.000019
 992	9.8605e+01	9.8578	11.745519	0.000168	1.678071	0.284273	0.000017
 993	9.8704e+01	9.8657	11.771589	0.000262	2.619428	0.443743	0.000026
 994	9.8803e+01	9.8755	11.786253	0.000147	1.473428	0.249605	0.000015
 995	9.8903e+01	9.8856	11.810286	0.000241	2.414785	0.409076	0.000024
 996	9.9002e+01	9.8952	11.828617	0.000184	1.841785	0.312007	0.000018
 997	9.9102e+01	9.9030	11.852650	0.000241	2.414785	0.409076	0.000024
 998	9.9201e+01	9.9128	11.873832	0.000213	2.128285	0.360541	0.000021
 999	9.9301e+01	9.9253	11.894199	0.000205	2.046428	0.346674	0.000020
1000	9.9400e+01	9.9335	11.913344	0.000192	1.923642	0.325874	0.000019
1001	9.9500e+01	9.9451	11.932082	0.000188	1.882714	0.318940	0.000019
1002	9.9600e+01	9.9586	11.952856	0.000209	2.087356	0.353608	0.000021
1003	9.9699e+01	9.9637	11.973631	0.000209	2.087356	0.353608	0.000021
1004	9.9799e+01	9.9752	11.994812	0.000213	2.128285	0.360541	0.000021
1005	9.9898e+01	9.9854	12.016809	0.000221	2.210142	0.374408	0.000022
1006	9.9998e+01	9.9963	12.038805	0.000221	2.210142	0.374408	0.000022
1007	1.0010e+02	9.9831	12.032695	0.000061	0.613928	0.104002	-0.000006
1008	1.0020e+02	9.9756	12.020882	0.000119	1.186928	0.201071	-0.000012
1009	1.0030e+02	9.9658	12.008255	0.000127	1.268785	0.214938	-0.000013
1010	1.0040e+02	9.9540	11.996849	0.000115	1.146000	0.194138	-0.000011
1011	1.0050e+02	9.9441	11.987073	0.000098	0.982285	0.166404	-0.000010
1012	1.0059e+02	9.9365	11.976482	0.000106	1.064143	0.180271	-0.000011
1013	1.0069e+02	9.9255	11.965076	0.000115	1.146000	0.194138	-0.000011
1014	1.0079e+02	9.9158	11.951227	0.000139	1.391571	0.235739	-0.000014
1015	1.0089e+02	9.9039	11.937784	0.000135	1.350642	0.228805	-0.000014
1016	1.0099e+02	9.8951	11.925972	0.000119	1.186928	0.201071	-0.000012
1017	1.0109e+02	9.8853	11.911715	0.000143	1.432500	0.242672	-0.000014
1018	1.0119e+02	9.8740	11.896643	0.000151	1.514357	0.256539	-0.000015
1019	1.0129e+02	9.8653	11.884015	0.000127	1.268785	0.214938	-0.000013
1020	1.0139e+02	9.8567	11.873424	0.000106	1.064143	0.180271	-0.000011
1021	1.0149e+02	9.8463	11.855909	0.000176	1.759928	0.298140	-0.000018
1022	1.0159e+02	9.8352	11.844503	0.000115	1.146000	0.194138	-0.000011
1023	1.0169e+02	9.8263	11.831468	0.000131	1.309714	0.221872	-0.000013
1024	1.0179e+02	9.8161	11.814767	0.000168	1.678071	0.284273	-0.000017
1025	1.0189e+02	9.8071	11.797659	0.000172	1.718999	0.291206	-0.000017
1026	1.0199e+02	9.7949	11.781772	0.000160	1.596214	0.270406	-0.000016
1027	1.0209e+02	9.7867	11.767515	0.000143	1.432500	0.242672	-0.000014
1028	1.0219e+02	9.7754	11.751629	0.000160	1.596214	0.270406	-0.000016
1029	1.0229e+02	9.7650	11.732484	0.000192	1.923642	0.325874	-0.000019
1030	1.0239e+02	9.7559	11.716190	0.000164	1.637142	0.277339	-0.000016
1031	1.0248e+02	9.7461	11.702340	0.000139	1.391571	0.235739	-0.000014
1032	1.0258e+02	9.7365	11.688491	0.000139	1.391571	0.235739	-0.000014
1033	1.0268e+02	9.7266	11.670975	0.000176	1.759928	0.298140	-0.000018
1034	1.0278e+02	9.7192	11.654681	0.000164	1.637142	0.277339	-0.000016
1035	1.0288e+02	9.7050	11.641646	0.000131	1.309714	0.221872	-0.000013
1036	1.0298e+02	9.6955	11.625353	0.000164	1.637142	0.277339	-0.000016
1037	1.0308e+02	9.6915	11.608652	0.000168	1.678071	0.284273	-0.000017
1038	1.0318e+02	9.6760	11.589507	0.000192	1.923642	0.325874	-0.000019
1039	1.0328e+02	9.6670	11.573213	0.000164	1.637142	0.277339	-0.000016
1040	1.0338e+02	9.6555	11.557327	0.000160	1.596214	0.270406	-0.000016
1041	1.0348e+02	9.6473	11.536959	0.000205	2.046428	0.346674	-0.000020
1042	1.0358e+02	9.6369	11.524332	0.000127	1.268785	0.214938	-0.000013
1043	1.0368e+02	9.6277	11.507223	0.000172	1.718999	0.291206	-0.000017
1044	1.0378e+02	9.6169	11.492966	0.000143	1.432500	0.242672	-0.000014
1045	1.0388e+02	9.6081	11.475858	0.000172	1.718999	0.291206	-0.000017
1046	1.0398e+02	9.5959	11.459157	0.000168	1.678071	0.284273	-0.000017
1047	1.0408e+02	9.5888	11.444493	0.000147	1.473428	0.249605	-0.000015
1048	1.0418e+02	9.5783	11.434309	0.000102	1.023214	0.173337	-0.000010
1049	1.0428e+02	9.5655	11.413535	0.000209	2.087356	0.353608	-0.000021
1050	1.0438e+02	9.5557	11.398870	0.000147	1.473428	0.249605	-0.000015
1051	1.0447e+02	9.5487	11.383799	0.000151	1.514357	0.256539	-0.000015
1052	1.0457e+02	9.5364	11.367098	0.000168	1.678071	0.284273	-0.000017
1053	1.0467e+02	9.5276	11.351619	0.000156	1.555285	0.263472	-0.000016
1054	1.0477e+02	9.5178	11.336954	0.000147	1.473428	0.249605	-0.000015
1055	1.0487e+02	9.5084	11.325549	0.000115	1.146000	0.194138	-0.000011
1056	1.0497e+02	9.4965	11.309255	0.000164	1.637142	0.277339	-0.000016
1057	1.0507e+02	9.4908	11.292554	0.000168	1.678071	0.284273	-0.000017
1058	1.0517e+02	9.4757	11.275853	0.000168	1.678071	0.284273	-0.000017
1059	1.0527e+02	9.4678	11.260781	0.000151	1.514357	0.256539	-0.000015
1060	1.0537e+02	9.4568	11.245302	0.000156	1.555285	0.263472	-0.000016
1061	1.0547e+02	9.4486	11.232267	0.000131	1.309714	0.221872	-0.000013
1062	1.0557e+02	9.4385	11.214344	0.000180	1.800857	0.305073	-0.000018
1063	1.0567e+02	9.4263	11.196421	0.000180	1.800857	0.305073	-0.000018
1064	1.0577e+02	9.4170	11.183793	0.000127	1.268785	0.214938	-0.000013
1065	1.0587e+02	9.4107	11.170351	0.000135	1.350642	0.228805	-0.000014
1066	1.0597e+02	9.3958	11.153243	0.000172	1.718999	0.291206	-0.000017
1067	1.0607e+02	9.3884	11.137356	0.000160	1.596214	0.270406	-0.000016
1068	1.0617e+02	9.3762	11.121877	0.000156	1.555285	0.263472	-0.000016
1069	1.0627e+02	9.3710	11.103547	0.000184	1.841785	0.312007	-0.000018
1070	1.0637e+02	9.3588	11.090105	0.000135	1.350642	0.228805	-0.000014
1071	1.0647e+02	9.3481	11.074626	0.000156	1.555285	0.263472	-0.000016
1072	1.0656e+02	9.3381	11.059147	0.000156	1.555285	0.263472	-0.000016
1073	1.0666e+02	9.3268	11.045704	0.000135	1.350642	0.228805	-0.000014
1074	1.0676e+02	9.3171	11.027374	0.000184	1.841785	0.312007	-0.000018
1075	1.0686e+02	9.3094	11.010265	0.000172	1.718999	0.291206	-0.000017
1076	1.0696e+02	9.2988	10.993972	0.000164	1.637142	0.277339	-0.000016
1077	1.0706e+02	9.2890	10.977678	0.000164	1.637142	0.277339	-0.000016
1078	1.0716e+02	9.2786	10.964236	0.000135	1.350642	0.228805	-0.000014
1079	1.0726e+02	9.2670	10.946313	0.000180	1.800857	0.305073	-0.000018
1080	1.0736e+02	9.2587	10.929612	0.000168	1.678071	0.284273	-0.000017
1081	1.0746e+02	9.2464	10.907615	0.000221	2.210142	0.374408	-0.000022
1082	1.0756e+02	9.2395	10.895395	0.000123	1.227857	0.208005	-0.000012
1083	1.0766e+02	9.2290	10.876657	0.000188	1.882714	0.318940	-0.000019
1084	1.0776e+02	9.2188	10.861585	0.000151	1.514357	0.256539	-0.000015
1085	1.0786e+02	9.2103	10.847736	0.000139	1.391571	0.235739	-0.000014
1086	1.0796e+02	9.2001	10.828591	0.000192	1.923642	0.325874	-0.000019
1087	1.0806e+02	9.1895	10.809853	0.000188	1.882714	0.318940	-0.000019
1088	1.0816e+02	9.1797	10.792745	0.000172	1.718999	0.291206	-0.000017
1089	1.0826e+02	9.1692	10.774007	0.000188	1.882714	0.318940	-0.000019
1090	1.0836e+02	9.1621	10.757306	0.000168	1.678071	0.284273	-0.000017
1091	1.0845e+02	9.1506	10.739383	0.000180	1.800857	0.305073	-0.000018
1092	1.0855e+02	9.1389	10.724311	0.000151	1.514357	0.256539	-0.000015
1093	1.0865e+02	9.1286	10.706795	0.000176	1.759928	0.298140	-0.000018
1094	1.0875e+02	9.1194	10.690909	0.000160	1.596214	0.270406	-0.000016
1095	1.0885e+02	9.1080	10.673801	0.000172	1.718999	0.291206	-0.000017
1096	1.0895e+02	9.0987	10.659544	0.000143	1.432500	0.242672	-0.000014
1097	1.0905e+02	9.0895	10.642435	0.000172	1.718999	0.291206	-0.000017
1098	1.0915e+02	9.0810	10.627363	0.000151	1.514357	0.256539	-0.000015
1099	1.0925e+02	9.0708	10.614736	0.000127	1.268785	0.214938	-0.000013
1100	1.0935e+02	9.0594	10.595591	0.000192	1.923642	0.325874	-0.000019
1101	1.0945e+02	9.0490	10.578075	0.000176	1.759928	0.298140	-0.000018
1102	1.0955e+02	9.0396	10.565855	0.000123	1.227857	0.208005	-0.000012
1103	1.0965e+02	9.0314	10.549968	0.000160	1.596214	0.270406	-0.000016
1104	1.0975e+02	9.0191	10.532045	0.000180	1.800857	0.305073	-0.000018
1105	1.0985e+02	9.0100	10.518196	0.000139	1.391571	0.235739	-0.000014
1106	1.0995e+02	8.9997	10.504346	0.000139	1.391571	0.235739	-0.000014
1107	1.1005e+02	8.9875	10.490904	0.000135	1.350642	0.228805	-0.000014
1108	1.1015e+02	8.9789	10.475017	0.000160	1.596214	0.270406	-0.000016
1109	1.1025e+02	8.9673	10.458724	0.000164	1.637142	0.277339	-0.000016
1110	1.1035e+02	8.9590	10.446503	0.000123	1.227857	0.208005	-0.000012
1111	1.1044e+02	8.9514	10.432654	0.000139	1.391571	0.235739	-0.000014
1112	1.1054e+02	8.9404	10.417582	0.000151	1.514357	0.256539	-0.000015
1113	1.1064e+02	8.9298	10.408621	0.000090	0.900428	0.152537	-0.000009
1114	1.1074e+02	8.9197	10.390290	0.000184	1.841785	0.312007	-0.000018
1115	1.1084e+02	8.9124	10.380514	0.000098	0.982285	0.166404	-0.000010
1116	1.1094e+02	8.9014	10.365035	0.000156	1.555285	0.263472	-0.000016
1117	1.1104e+02	8.8905	10.348334	0.000168	1.678071	0.284273	-0.000017
1118	1.1114e+02	8.8800	10.331225	0.000172	1.718999	0.291206	-0.000017
1119	1.1124e+02	8.8699	10.319005	0.000123	1.227857	0.208005	-0.000012
1120	1.1134e+02	8.8601	10.308007	0.000111	1.105071	0.187204	-0.000011
1121	1.1144e+02	8.8504	10.292935	0.000151	1.514357	0.256539	-0.000015
1122	1.1154e+02	8.8400	10.281937	0.000111	1.105071	0.187204	-0.000011
1123	1.1164e+02	8.8302	10.263199	0.000188	1.882714	0.318940	-0.000019
1124	1.1174e+02	8.8226	10.251386	0.000119	1.186928	0.201071	-0.000012
1125	1.1184e+02	8.8126	10.240388	0.000111	1.105071	0.187204	-0.000011
1126	1.1194e+02	8.8004	10.223687	0.000168	1.678071	0.284273	-0.000017
1127	1.1204e+02	8.7897	10.206986	0.000168	1.678071	0.284273	-0.000017
1128	1.1214e+02	8.7836	10.193136	0.000139	1.391571	0.235739	-0.000014
1129	1.1224e+02	8.7728	10.180101	0.000131	1.309714	0.221872	-0.000013
1130	1.1234e+02	8.7618	10.164622	0.000156	1.555285	0.263472	-0.000016
1131	1.1244e+02	8.7500	10.149958	0.000147	1.473428	0.249605	-0.000015
1132	1.1253e+02	8.7420	10.133257	0.000168	1.678071	0.284273	-0.000017
1133	1.1263e+02	8.7317	10.120222	0.000131	1.309714	0.221872	-0.000013
1134	1.1273e+02	8.7207	10.101892	0.000184	1.841785	0.312007	-0.000018
1135	1.1283e+02	8.7127	10.087635	0.000143	1.432500	0.242672	-0.000014
1136	1.1293e+02	8.7038	10.071341	0.000164	1.637142	0.277339	-0.000016
1137	1.1303e+02	8.6916	10.055047	0.000164	1.637142	0.277339	-0.000016
1138	1.1313e+02	8.6805	10.039568	0.000156	1.555285	0.263472	-0.000016
1139	1.1323e+02	8.6728	10.021645	0.000180	1.800857	0.305073	-0.000018
1140	1.1333e+02	8.6611	10.007388	0.000143	1.432500	0.242672	-0.000014
1141	1.1343e+02	8.6517	9.991502	0.000160	1.596214	0.270406	-0.000016
1142	1.1353e+02	8.6427	9.976023	0.000156	1.555285	0.263472	-0.000016
1143	1.1363e+02	8.6335	9.961358	0.000147	1.473428	0.249605	-0.000015
1144	1.1373e+02	8.6222	9.947101	0.000143	1.432500	0.242672	-0.000014
1145	1.1383e+02	8.6117	9.927956	0.000192	1.923642	0.325874	-0.000019
1146	1.1393e+02	8.6001	9.914107	0.000139	1.391571	0.235739	-0.000014
1147	1.1403e+02	8.5953	9.896591	0.000176	1.759928	0.298140	-0.000018
1148	1.1413e+02	8.5815	9.882741	0.000139	1.391571	0.235739	-0.000014
1149	1.1423e+02	8.5724	9.864411	0.000184	1.841785	0.312007	-0.000018
1150	1.1433e+02	8.5632	9.848117	0.000164	1.637142	0.277339	-0.000016
1151	1.1442e+02	8.5527	9.831416	0.000168	1.678071	0.284273	-0.000017
1152	1.1452e+02	8.5425	9.816344	0.000151	1.514357	0.256539	-0.000015
1153	1.1462e+02	8.5332	9.797607	0.000188	1.882714	0.318940	-0.000019
1154	1.1472e+02	8.5218	9.783350	0.000143	1.432500	0.242672	-0.000014
1155	1.1482e+02	8.5136	9.764612	0.000188	1.882714	0.318940	-0.000019
1156	1.1492e+02	8.5033	9.747096	0.000176	1.759928	0.298140	-0.000018
1157	1.1502e+02	8.4941	9.733654	0.000135	1.350642	0.228805	-0.000014
1158	1.1512e+02	8.4828	9.714101	0.000196	1.964571	0.332807	-0.000020
1159	1.1522e+02	8.4728	9.697400	0.000168	1.678071	0.284273	-0.000017
1160	1.1532e+02	8.4656	9.682736	0.000147	1.473428	0.249605	-0.000015
1161	1.1542e+02	8.4536	9.665628	0.000172	1.718999	0.291206	-0.000017
1162	1.1552e+02	8.4460	9.651778	0.000139	1.391571	0.235739	-0.000014
1163	1.1562e+02	8.4327	9.638743	0.000131	1.309714	0.221872	-0.000013
1164	1.1572e+02	8.4244	9.625301	0.000135	1.350642	0.228805	-0.000014
1165	1.1582e+02	8.4131	9.607785	0.000176	1.759928	0.298140	-0.000018
1166	1.1592e+02	8.4046	9.593121	0.000147	1.473428	0.249605	-0.000015
1167	1.1602e+02	8.3950	9.575605	0.000176	1.759928	0.298140	-0.000018
1168	1.1612e+02	8.3857	9.559719	0.000160	1.596214	0.270406	-0.000016
1169	1.1622e+02	8.3767	9.543832	0.000160	1.596214	0.270406	-0.000016
1170	1.1632e+02	8.3634	9.526724	0.000172	1.718999	0.291206	-0.000017
1171	1.1642e+02	8.3532	9.513689	0.000131	1.309714	0.221872	-0.000013
1172	1.1651e+02	8.3441	9.499025	0.000147	1.473428	0.249605	-0.000015
1173	1.1661e+02	8.3344	9.482324	0.000168	1.678071	0.284273	-0.000017
1174	1.1671e+02	8.3252	9.468474	0.000139	1.391571	0.235739	-0.000014
1175	1.1681e+02	8.3129	9.452180	0.000164	1.637142	0.277339	-0.000016
1176	1.1691e+02	8.3057	9.434665	0.000176	1.759928	0.298140	-0.000018
1177	1.1701e+02	8.2941	9.414705	0.000201	2.005499	0.339741	-0.000020
1178	1.1711e+02	8.2826	9.404114	0.000106	1.064143	0.180271	-0.000011
1179	1.1721e+02	8.2732	9.387005	0.000172	1.718999	0.291206	-0.000017
1180	1.1731e+02	8.2650	9.371526	0.000156	1.555285	0.263472	-0.000016
1181	1.1741e+02	8.2547	9.349123	0.000225	2.251071	0.381342	-0.000023
1182	1.1751e+02	8.2446	9.334458	0.000147	1.473428	0.249605	-0.000015
1183	1.1761e+02	8.2368	9.318165	0.000164	1.637142	0.277339	-0.000016
1184	1.1771e+02	8.2240	9.300241	0.000180	1.800857	0.305073	-0.000018
1185	1.1781e+02	8.2178	9.280689	0.000196	1.964571	0.332807	-0.000020
1186	1.1791e+02	8.2043	9.263581	0.000172	1.718999	0.291206	-0.000017
1187	1.1801e+02	8.1951	9.247694	0.000160	1.596214	0.270406	-0.000016
1188	1.1811e+02	8.1850	9.232215	0.000156	1.555285	0.263472	-0.000016
1189	1.1821e+02	8.1738	9.210219	0.000221	2.210142	0.374408	-0.000022
1190	1.1831e+02	8.1641	9.195554	0.000147	1.473428	0.249605	-0.000015
1191	1.1841e+02	8.1551	9.172336	0.000233	2.332928	0.395209	-0.000023
1192	1.1850e+02	8.1455	9.157264	0.000151	1.514357	0.256539	-0.000015
1193	1.1860e+02	8.1335	9.138526	0.000188	1.882714	0.318940	-0.000019
1194	1.1870e+02	8.1245	9.116123	0.000225	2.251071	0.381342	-0.000023
1195	1.1880e+02	8.1161	9.095756	0.000205	2.046428	0.346674	-0.000020
1196	1.1890e+02	8.1029	9.075388	0.000205	2.046428	0.346674	-0.000020
1197	1.1900e+02	8.0940	9.056651	0.000188	1.882714	0.318940	-0.000019
1198	1.1910e+02	8.0864	9.034654	0.000221	2.210142	0.374408	-0.000022
1199	1.1920e+02	8.0762	9.020397	0.000143	1.432500	0.242672	-0.000014
1200	1.1930e+02	8.0664	9.003696	0.000168	1.678071	0.284273	-0.000017
1201	1.1940e+02	8.0543	8.980070	0.000237	2.373856	0.402142	-0.000024
1202	1.1950e+02	8.0460	8.956852	0.000233	2.332928	0.395209	-0.000023
1203	1.1960e+02	8.0362	8.940965	0.000160	1.596214	0.270406	-0.000016
1204	1.1970e+02	8.0266	8.922228	0.000188	1.882714	0.318940	-0.000019
1205	1.1980e+02	8.0160	8.899009	0.000233	2.332928	0.395209	-0.000023
1206	1.1990e+02	8.0090	8.879457	0.000196	1.964571	0.332807	-0.000020
1207	1.2000e+02	7.9963	8.860312	0.000192	1.923642	0.325874	-0.000019
1208	1.2010e+02	7.9888	8.840352	0.000201	2.005499	0.339741	-0.000020
1209	1.2020e+02	7.9771	8.822429	0.000180	1.800857	0.305073	-0.000018
1210	1.2030e+02	7.9667	8.800025	0.000225	2.251071	0.381342	-0.000023
1211	1.2039e+02	7.9541	8.778028	0.000221	2.210142	0.374408	-0.000022
1212	1.2049e+02	7.9458	8.762549	0.000156	1.555285	0.263472	-0.000016
1213	1.2059e+02	7.9346	8.745034	0.000176	1.759928	0.298140	-0.000018
1214	1.2069e+02	7.9258	8.721000	0.000241	2.414785	0.409076	-0.000024
1215	1.2079e+02	7.9156	8.704299	0.000168	1.678071	0.284273	-0.000017
1216	1.2089e+02	7.9071	8.686784	0.000176	1.759928	0.298140	-0.000018
1217	1.2099e+02	7.8946	8.665602	0.000213	2.128285	0.360541	-0.000021
1218	1.2109e+02	7.8867	8.648901	0.000168	1.678071	0.284273	-0.000017
1219	1.2119e+02	7.8760	8.630570	0.000184	1.841785	0.312007	-0.000018
1220	1.2129e+02	7.8679	8.614684	0.000160	1.596214	0.270406	-0.000016
1221	1.2139e+02	7.8547	8.592280	0.000225	2.251071	0.381342	-0.000023
1222	1.2149e+02	7.8461	8.575172	0.000172	1.718999	0.291206	-0.000017
1223	1.2159e+02	7.8386	8.555212	0.000201	2.005499	0.339741	-0.000020
1224	1.2169e+02	7.8277	8.540955	0.000143	1.432500	0.242672	-0.000014
1225	1.2179e+02	7.8152	8.519366	0.000217	2.169214	0.367475	-0.000022
1226	1.2189e+02	7.8101	8.503479	0.000160	1.596214	0.270406	-0.000016
1227	1.2199e+02	7.7988	8.483927	0.000196	1.964571	0.332807	-0.000020
1228	1.2209e+02	7.7862	8.463967	0.000201	2.005499	0.339741	-0.000020
1229	1.2219e+02	7.7751	8.443600	0.000205	2.046428	0.346674	-0.000020
1230	1.2229e+02	7.7662	8.426899	0.000168	1.678071	0.284273	-0.000017
1231	1.2239e+02	7.7552	8.410198	0.000168	1.678071	0.284273	-0.000017
1232	1.2248e+02	7.7452	8.386572	0.000237	2.373856	0.402142	-0.000024
1233	1.2258e+02	7.7374	8.372315	0.000143	1.432500	0.242672	-0.000014
1234	1.2268e+02	7.7261	8.354799	0.000176	1.759928	0.298140	-0.000018
1235	1.2278e+02	7.7178	8.331988	0.000229	2.291999	0.388275	-0.000023
1236	1.2288e+02	7.7077	8.316917	0.000151	1.514357	0.256539	-0.000015
1237	1.2298e+02	7.6987	8.296957	0.000201	2.005499	0.339741	-0.000020
1238	1.2308e+02	7.6849	8.279441	0.000176	1.759928	0.298140	-0.000018
1239	1.2318e+02	7.6766	8.259889	0.000196	1.964571	0.332807	-0.000020
1240	1.2328e+02	7.6731	8.244817	0.000151	1.514357	0.256539	-0.000015
1241	1.2338e+02	7.6601	8.223635	0.000213	2.128285	0.360541	-0.000021
1242	1.2348e+02	7.6522	8.204897	0.000188	1.882714	0.318940	-0.000019
1243	1.2358e+02	7.6389	8.182494	0.000225	2.251071	0.381342	-0.000023
1244	1.2368e+02	7.6276	8.167422	0.000151	1.514357	0.256539	-0.000015
1245	1.2378e+02	7.6175	8.147869	0.000196	1.964571	0.332807	-0.000020
1246	1.2388e+02	7.6065	8.124244	0.000237	2.373856	0.402142	-0.000024
1247	1.2398e+02	7.6009	8.106728	0.000176	1.759928	0.298140	-0.000018
1248	1.2408e+02	7.5876	8.088397	0.000184	1.841785	0.312007	-0.000018
1249	1.2418e+02	7.5794	8.070882	0.000176	1.759928	0.298140	-0.000018
1250	1.2428e+02	7.5677	8.051737	0.000192	1.923642	0.325874	-0.000019
1251	1.2438e+02	7.5586	8.035035	0.000168	1.678071	0.284273	-0.000017
1252	1.2447e+02	7.5503	8.010188	0.000250	2.496642	0.422943	-0.000025
1253	1.2457e+02	7.5383	7.993487	0.000168	1.678071	0.284273	-0.000017
1254	1.2467e+02	7.5295	7.973527	0.000201	2.005499	0.339741	-0.000020
1255	1.2477e+02	7.5164	7.954382	0.000192	1.923642	0.325874	-0.000019
1256	1.2487e+02	7.5057	7.932793	0.000217	2.169214	0.367475	-0.000022
1257	1.2497e+02	7.4981	7.914869	0.000180	1.800857	0.305073	-0.000018
1258	1.2507e+02	7.4877	7.893280	0.000217	2.169214	0.367475	-0.000022
1259	1.2517e+02	7.4799	7.870062	0.000233	2.332928	0.395209	-0.000023
1260	1.2527e+02	7.4674	7.856212	0.000139	1.391571	0.235739	-0.000014
1261	1.2537e+02	7.4574	7.836252	0.000201	2.005499	0.339741	-0.000020
1262	1.2547e+02	7.4499	7.813848	0.000225	2.251071	0.381342	-0.000023
1263	1.2557e+02	7.4415	7.796740	0.000172	1.718999	0.291206	-0.000017
1264	1.2567e+02	7.4298	7.776373	0.000205	2.046428	0.346674	-0.000020
1265	1.2577e+02	7.4189	7.758857	0.000176	1.759928	0.298140	-0.000018
1266	1.2587e+02	7.4079	7.738897	0.000201	2.005499	0.339741	-0.000020
1267	1.2597e+02	7.3976	7.723011	0.000160	1.596214	0.270406	-0.000016
1268	1.2607e+02	7.3917	7.705495	0.000176	1.759928	0.298140	-0.000018
1269	1.2617e+02	7.3790	7.684721	0.000209	2.087356	0.353608	-0.000021
1270	1.2627e+02	7.3675	7.669242	0.000156	1.555285	0.263472	-0.000016
1271	1.2636e+02	7.3610	7.650504	0.000188	1.882714	0.318940	-0.000019
1272	1.2646e+02	7.3487	7.633803	0.000168	1.678071	0.284273	-0.000017
1273	1.2656e+02	7.3380	7.613843	0.000201	2.005499	0.339741	-0.000020
1274	1.2666e+02	7.3285	7.600401	0.000135	1.350642	0.228805	-0.000014
1275	1.2676e+02	7.3209	7.580849	0.000196	1.964571	0.332807	-0.000020
1276	1.2686e+02	7.3098	7.563740	0.000172	1.718999	0.291206	-0.000017
1277	1.2696e+02	7.3003	7.543780	0.000201	2.005499	0.339741	-0.000020
1278	1.2706e+02	7.2883	7.531967	0.000119	1.186928	0.201071	-0.000012
1279	1.2716e+02	7.2791	7.513637	0.000184	1.841785	0.312007	-0.000018
1280	1.2726e+02	7.2694	7.497751	0.000160	1.596214	0.270406	-0.000016
1281	1.2736e+02	7.2602	7.483086	0.000147	1.473428	0.249605	-0.000015
1282	1.2746e+02	7.2517	7.464756	0.000184	1.841785	0.312007	-0.000018
1283	1.2756e+02	7.2376	7.448055	0.000168	1.678071	0.284273	-0.000017
1284	1.2766e+02	7.2315	7.428910	0.000192	1.923642	0.325874	-0.000019
1285	1.2776e+02	7.2207	7.415875	0.000131	1.309714	0.221872	-0.000013
1286	1.2786e+02	7.2104	7.398359	0.000176	1.759928	0.298140	-0.000018
1287	1.2796e+02	7.1996	7.381658	0.000168	1.678071	0.284273	-0.000017
1288	1.2806e+02	7.1896	7.366994	0.000147	1.473428	0.249605	-0.000015
1289	1.2816e+02	7.1799	7.349071	0.000180	1.800857	0.305073	-0.000018
1290	1.2826e+02	7.1703	7.333999	0.000151	1.514357	0.256539	-0.000015
1291	1.2835e+02	7.1590	7.319335	0.000147	1.473428	0.249605	-0.000015
1292	1.2845e+02	7.1476	7.298968	0.000205	2.046428	0.346674	-0.000020
1293	1.2855e+02	7.1404	7.285525	0.000135	1.350642	0.228805	-0.000014
1294	1.2865e+02	7.1290	7.265158	0.000205	2.046428	0.346674	-0.000020
1295	1.2875e+02	7.1220	7.248457	0.000168	1.678071	0.284273	-0.000017
1296	1.2885e+02	7.1101	7.228497	0.000201	2.005499	0.339741	-0.000020
1297	1.2895e+02	7.0991	7.213833	0.000147	1.473428	0.249605	-0.000015
1298	1.2905e+02	7.0916	7.195503	0.000184	1.841785	0.312007	-0.000018
1299	1.2915e+02	7.0822	7.179616	0.000160	1.596214	0.270406	-0.000016
1300	1.2925e+02	7.0702	7.160064	0.000196	1.964571	0.332807	-0.000020
1301	1.2935e+02	7.0637	7.142955	0.000172	1.718999	0.291206	-0.000017
1302	1.2945e+02	7.0489	7.125847	0.000172	1.718999	0.291206	-0.000017
1303	1.2955e+02	7.0416	7.105480	0.000205	2.046428	0.346674	-0.000020
1304	1.2965e+02	7.0289	7.090815	0.000147	1.473428	0.249605	-0.000015
1305	1.2975e+02	7.0205	7.068819	0.000221	2.210142	0.374408	-0.000022
1306	1.2985e+02	7.0132	7.052525	0.000164	1.637142	0.277339	-0.000016
1307	1.2995e+02	7.0005	7.036232	0.000164	1.637142	0.277339	-0.000016
1308	1.3005e+02	6.9922	7.016272	0.000201	2.005499	0.339741	-0.000020
1309	1.3015e+02	6.9820	6.999163	0.000172	1.718999	0.291206	-0.000017
1310	1.3025e+02	6.9698	6.980018	0.000192	1.923642	0.325874	-0.000019
1311	1.3034e+02	6.9612	6.960466	0.000196	1.964571	0.332807	-0.000020
1312	1.3044e+02	6.9500	6.940913	0.000196	1.964571	0.332807	-0.000020
1313	1.3054e+02	6.9402	6.923805	0.000172	1.718999	0.291206	-0.000017
1314	1.3064e+02	6.9325	6.903438	0.000205	2.046428	0.346674	-0.000020
1315	1.3074e+02	6.9204	6.887552	0.000160	1.596214	0.270406	-0.000016
1316	1.3084e+02	6.9097	6.870443	0.000172	1.718999	0.291206	-0.000017
1317	1.3094e+02	6.9008	6.852113	0.000184	1.841785	0.312007	-0.000018
1318	1.3104e+02	6.8904	6.831746	0.000205	2.046428	0.346674	-0.000020
1319	1.3114e+02	6.8829	6.809749	0.000221	2.210142	0.374408	-0.000022
1320	1.3124e+02	6.8726	6.796307	0.000135	1.350642	0.228805	-0.000014
1321	1.3134e+02	6.8613	6.773088	0.000233	2.332928	0.395209	-0.000023
1322	1.3144e+02	6.8564	6.755980	0.000172	1.718999	0.291206	-0.000017
1323	1.3154e+02	6.8403	6.734798	0.000213	2.128285	0.360541	-0.000021
1324	1.3164e+02	6.8343	6.716468	0.000184	1.841785	0.312007	-0.000018
1325	1.3174e+02	6.8215	6.700989	0.000156	1.555285	0.263472	-0.000016
1326	1.3184e+02	6.8108	6.682251	0.000188	1.882714	0.318940	-0.000019
1327	1.3194e+02	6.8024	6.660662	0.000217	2.169214	0.367475	-0.000022
1328	1.3204e+02	6.7928	6.643146	0.000176	1.759928	0.298140	-0.000018
1329	1.3214e+02	6.7808	6.624816	0.000184	1.841785	0.312007	-0.000018
1330	1.3224e+02	6.7730	6.608115	0.000168	1.678071	0.284273	-0.000017
1331	1.3234e+02	6.7641	6.586933	0.000213	2.128285	0.360541	-0.000021
1332	1.3243e+02	6.7529	6.571861	0.000151	1.514357	0.256539	-0.000015
1333	1.3253e+02	6.7432	6.556382	0.000156	1.555285	0.263472	-0.000016
1334	1.3263e+02	6.7305	6.533571	0.000229	2.291999	0.388275	-0.000023
1335	1.3273e+02	6.7220	6.518499	0.000151	1.514357	0.256539	-0.000015
1336	1.3283e+02	6.7106	6.501798	0.000168	1.678071	0.284273	-0.000017
1337	1.3293e+02	6.7034	6.479802	0.000221	2.210142	0.374408	-0.000022
1338	1.3303e+02	6.6912	6.464730	0.000151	1.514357	0.256539	-0.000015
1339	1.3313e+02	6.6833	6.445585	0.000192	1.923642	0.325874	-0.000019
1340	1.3323e+02	6.6743	6.427662	0.000180	1.800857	0.305073	-0.000018
1341	1.3333e+02	6.6617	6.408517	0.000192	1.923642	0.325874	-0.000019
1342	1.3343e+02	6.6521	6.391408	0.000172	1.718999	0.291206	-0.000017
1343	1.3353e+02	6.6436	6.372671	0.000188	1.882714	0.318940	-0.000019
1344	1.3363e+02	6.6311	6.356377	0.000164	1.637142	0.277339	-0.000016
1345	1.3373e+02	6.6234	6.336417	0.000201	2.005499	0.339741	-0.000020
1346	1.3383e+02	6.6146	6.317272	0.000192	1.923642	0.325874	-0.000019
1347	1.3393e+02	6.6058	6.299756	0.000176	1.759928	0.298140	-0.000018
1348	1.3403e+02	6.5955	6.280204	0.000196	1.964571	0.332807	-0.000020
1349	1.3413e+02	6.5838	6.261873	0.000184	1.841785	0.312007	-0.000018
1350	1.3423e+02	6.5737	6.240284	0.000217	2.169214	0.367475	-0.000022
1351	1.3432e+02	6.5603	6.222768	0.000176	1.759928	0.298140	-0.000018
1352	1.3442e+02	6.5527	6.200365	0.000225	2.251071	0.381342	-0.000023
1353	1.3452e+02	6.5430	6.185293	0.000151	1.514357	0.256539	-0.000015
1354	1.3462e+02	6.5324	6.162889	0.000225	2.251071	0.381342	-0.000023
1355	1.3472e+02	6.5252	6.143744	0.000192	1.923642	0.325874	-0.000019
1356	1.3482e+02	6.5156	6.121748	0.000221	2.210142	0.374408	-0.000022
1357	1.3492e+02	6.5032	6.105861	0.000160	1.596214	0.270406	-0.000016
1358	1.3502e+02	6.4855	6.080606	0.000254	2.537571	0.429876	-0.000025
1359	1.3512e+02	6.4822	6.057387	0.000233	2.332928	0.395209	-0.000023
1360	1.3522e+02	6.4730	6.035798	0.000217	2.169214	0.367475	-0.000022
1361	1.3532e+02	6.4611	6.019097	0.000168	1.678071	0.284273	-0.000017
1362	1.3542e+02	6.4527	5.996286	0.000229	2.291999	0.388275	-0.000023
1363	1.3552e+02	6.4440	5.969809	0.000266	2.660356	0.450677	-0.000027
1364	1.3562e+02	6.4335	5.949442	0.000205	2.046428	0.346674	-0.000020
1365	1.3572e+02	6.4254	5.927445	0.000221	2.210142	0.374408	-0.000022
1366	1.3582e+02	6.4120	5.902597	0.000250	2.496642	0.422943	-0.000025
1367	1.3592e+02	6.4043	5.886304	0.000164	1.637142	0.277339	-0.000016
1368	1.3602e+02	6.3958	5.862678	0.000237	2.373856	0.402142	-0.000024
1369	1.3612e+02	6.3845	5.841903	0.000209	2.087356	0.353608	-0.000021
1370	1.3622e+02	6.3674	5.818277	0.000237	2.373856	0.402142	-0.000024
1371	1.3631e+02	6.3619	5.795873	0.000225	2.251071	0.381342	-0.000023
1372	1.3641e+02	6.3535	5.772655	0.000233	2.332928	0.395209	-0.000023
1373	1.3651e+02	6.3457	5.752288	0.000205	2.046428	0.346674	-0.000020
1374	1.3661e+02	6.3335	5.728255	0.000241	2.414785	0.409076	-0.000024
1375	1.3671e+02	6.3224	5.706258	0.000221	2.210142	0.374408	-0.000022
1376	1.3681e+02	6.3177	5.686298	0.000201	2.005499	0.339741	-0.000020
1377	1.3691e+02	6.3038	5.664302	0.000221	2.210142	0.374408	-0.000022
1378	1.3701e+02	6.2951	5.642305	0.000221	2.210142	0.374408	-0.000022
1379	1.3711e+02	6.2850	5.618679	0.000237	2.373856	0.402142	-0.000024
1380	1.3721e+02	6.2731	5.597090	0.000217	2.169214	0.367475	-0.000022
1381	1.3731e+02	6.2652	5.577945	0.000192	1.923642	0.325874	-0.000019
1382	1.3741e+02	6.2548	5.556356	0.000217	2.169214	0.367475	-0.000022
1383	1.3751e+02	6.2464	5.533545	0.000229	2.291999	0.388275	-0.000023
1384	1.3761e+02	6.2328	5.513585	0.000201	2.005499	0.339741	-0.000020
1385	1.3771e+02	6.2266	5.493218	0.000205	2.046428	0.346674	-0.000020
1386	1.3781e+02	6.2148	5.474073	0.000192	1.923642	0.325874	-0.000019
1387	1.3791e+02	6.2048	5.449632	0.000246	2.455714	0.416009	-0.000025
1388	1.3801e+02	6.1944	5.430487	0.000192	1.923642	0.325874	-0.000019
1389	1.3811e+02	6.1867	5.410527	0.000201	2.005499	0.339741	-0.000020
1390	1.3821e+02	6.1749	5.391790	0.000188	1.882714	0.318940	-0.000019
1391	1.3831e+02	6.1649	5.367756	0.000241	2.414785	0.409076	-0.000024
1392	1.3840e+02	6.1532	5.345353	0.000225	2.251071	0.381342	-0.000023
1393	1.3850e+02	6.1445	5.329874	0.000156	1.555285	0.263472	-0.000016
1394	1.3860e+02	6.1364	5.305433	0.000246	2.455714	0.416009	-0.000025
1395	1.3870e+02	6.1269	5.284251	0.000213	2.128285	0.360541	-0.000021
1396	1.3880e+02	6.1174	5.262662	0.000217	2.169214	0.367475	-0.000022
1397	1.3890e+02	6.1059	5.240666	0.000221	2.210142	0.374408	-0.000022
1398	1.3900e+02	6.0972	5.222335	0.000184	1.841785	0.312007	-0.000018
1399	1.3910e+02	6.0857	5.202375	0.000201	2.005499	0.339741	-0.000020
1400	1.3920e+02	6.0768	5.179157	0.000233	2.332928	0.395209	-0.000023
1401	1.3930e+02	6.0645	5.160012	0.000192	1.923642	0.325874	-0.000019
1402	1.3940e+02	6.0535	5.139645	0.000205	2.046428	0.346674	-0.000020
1403	1.3950e+02	6.0452	5.115204	0.000246	2.455714	0.416009	-0.000025
1404	1.3960e+02	6.0378	5.096874	0.000184	1.841785	0.312007	-0.000018
1405	1.3970e+02	6.0247	5.076914	0.000201	2.005499	0.339741	-0.000020
1406	1.3980e+02	6.0165	5.055732	0.000213	2.128285	0.360541	-0.000021
1407	1.3990e+02	6.0046	5.033328	0.000225	2.251071	0.381342	-0.000023
1408	1.4000e+02	5.9962	5.013776	0.000196	1.964571	0.332807	-0.000020
1409	1.4010e+02	5.9878	4.992187	0.000217	2.169214	0.367475	-0.000022
1410	1.4020e+02	5.9779	4.971005	0.000213	2.128285	0.360541	-0.000021
1411	1.4029e+02	5.9673	4.947379	0.000237	2.373856	0.402142	-0.000024
1412	1.4039e+02	5.9539	4.929456	0.000180	1.800857	0.305073	-0.000018
1413	1.4049e+02	5.9464	4.905830	0.000237	2.373856	0.402142	-0.000024
1414	1.4059e+02	5.9356	4.887092	0.000188	1.882714	0.318940	-0.000019
1415	1.4069e+02	5.9298	4.861837	0.000254	2.537571	0.429876	-0.000025
1416	1.4079e+02	5.9151	4.839433	0.000225	2.251071	0.381342	-0.000023
1417	1.4089e+02	5.9075	4.817437	0.000221	2.210142	0.374408	-0.000022
1418	1.4099e+02	5.8968	4.794218	0.000233	2.332928	0.395209	-0.000023
1419	1.4109e+02	5.8866	4.773036	0.000213	2.128285	0.360541	-0.000021
1420	1.4119e+02	5.8776	4.757150	0.000160	1.596214	0.270406	-0.000016
1421	1.4129e+02	5.8688	4.731080	0.000262	2.619428	0.443743	-0.000026
1422	1.4139e+02	5.8575	4.708269	0.000229	2.291999	0.388275	-0.000023
1423	1.4149e+02	5.8479	4.687087	0.000213	2.128285	0.360541	-0.000021
1424	1.4159e+02	5.8375	4.661017	0.000262	2.619428	0.443743	-0.000026
1425	1.4169e+02	5.8285	4.641057	0.000201	2.005499	0.339741	-0.000020
1426	1.4179e+02	5.8204	4.618654	0.000225	2.251071	0.381342	-0.000023
1427	1.4189e+02	5.8064	4.597879	0.000209	2.087356	0.353608	-0.000021
1428	1.4199e+02	5.7964	4.577105	0.000209	2.087356	0.353608	-0.000021
1429	1.4209e+02	5.7896	4.555108	0.000221	2.210142	0.374408	-0.000022
1430	1.4219e+02	5.7757	4.534334	0.000209	2.087356	0.353608	-0.000021
1431	1.4228e+02	5.7659	4.510708	0.000237	2.373856	0.402142	-0.000024
1432	1.4238e+02	5.7574	4.490748	0.000201	2.005499	0.339741	-0.000020
1433	1.4248e+02	5.7465	4.467529	0.000233	2.332928	0.395209	-0.000023
1434	1.4258e+02	5.7363	4.450828	0.000168	1.678071	0.284273	-0.000017
1435	1.4268e+02	5.7267	4.425166	0.000258	2.578499	0.436810	-0.000026
1436	1.4278e+02	5.7164	4.407650	0.000176	1.759928	0.298140	-0.000018
1437	1.4288e+02	5.7077	4.386061	0.000217	2.169214	0.367475	-0.000022
1438	1.4298e+02	5.6966	4.367731	0.000184	1.841785	0.312007	-0.000018
1439	1.4308e+02	5.6855	4.346141	0.000217	2.169214	0.367475	-0.000022
1440	1.4318e+02	5.6788	4.323330	0.000229	2.291999	0.388275	-0.000023
1441	1.4328e+02	5.6705	4.307444	0.000160	1.596214	0.270406	-0.000016
1442	1.4338e+02	5.6574	4.287077	0.000205	2.046428	0.346674	-0.000020
1443	1.4348e+02	5.6492	4.268746	0.000184	1.841785	0.312007	-0.000018
1444	1.4358e+02	5.6383	4.246750	0.000221	2.210142	0.374408	-0.000022
1445	1.4368e+02	5.6277	4.228827	0.000180	1.800857	0.305073	-0.000018
1446	1.4378e+02	5.6158	4.206423	0.000225	2.251071	0.381342	-0.000023
1447	1.4388e+02	5.6069	4.186870	0.000196	1.964571	0.332807	-0.000020
1448	1.4398e+02	5.5993	4.172613	0.000143	1.432500	0.242672	-0.000014
1449	1.4408e+02	5.5889	4.153061	0.000196	1.964571	0.332807	-0.000020
1450	1.4418e+02	5.5762	4.136360	0.000168	1.678071	0.284273	-0.000017
1451	1.4428e+02	5.5696	4.112734	0.000237	2.373856	0.402142	-0.000024
1452	1.4437e+02	5.5601	4.093182	0.000196	1.964571	0.332807	-0.000020
1453	1.4447e+02	5.5483	4.074444	0.000188	1.882714	0.318940	-0.000019
1454	1.4457e+02	5.5398	4.055706	0.000188	1.882714	0.318940	-0.000019
1455	1.4467e+02	5.5302	4.036154	0.000196	1.964571	0.332807	-0.000020
1456	1.4477e+02	5.5184	4.021489	0.000147	1.473428	0.249605	-0.000015
1457	1.4487e+02	5.5091	4.001122	0.000205	2.046428	0.346674	-0.000020
1458	1.4497e+02	5.4995	3.984014	0.000172	1.718999	0.291206	-0.000017
1459	1.4507e+02	5.4884	3.963239	0.000209	2.087356	0.353608	-0.000021
1460	1.4517e+02	5.4794	3.943280	0.000201	2.005499	0.339741	-0.000020
1461	1.4527e+02	5.4710	3.923727	0.000196	1.964571	0.332807	-0.000020
1462	1.4537e+02	5.4580	3.904175	0.000196	1.964571	0.332807	-0.000020
1463	1.4547e+02	5.4488	3.885844	0.000184	1.841785	0.312007	-0.000018
1464	1.4557e+02	5.4388	3.864255	0.000217	2.169214	0.367475	-0.000022
1465	1.4567e+02	5.4288	3.845925	0.000184	1.841785	0.312007	-0.000018
1466	1.4577e+02	5.4212	3.821484	0.000246	2.455714	0.416009	-0.000025
1467	1.4587e+02	5.4113	3.805190	0.000164	1.637142	0.277339	-0.000016
1468	1.4597e+02	5.4002	3.784823	0.000205	2.046428	0.346674	-0.000020
1469	1.4607e+02	5.3892	3.764049	0.000209	2.087356	0.353608	-0.000021
1470	1.4617e+02	5.3780	3.743682	0.000205	2.046428	0.346674	-0.000020
1471	1.4626e+02	5.3690	3.725351	0.000184	1.841785	0.312007	-0.000018
1472	1.4636e+02	5.3580	3.700096	0.000254	2.537571	0.429876	-0.000025
1473	1.4646e+02	5.3484	3.680136	0.000201	2.005499	0.339741	-0.000020
1474	1.4656e+02	5.3409	3.663028	0.000172	1.718999	0.291206	-0.000017
1475	1.4666e+02	5.3341	3.637773	0.000254	2.537571	0.429876	-0.000025
1476	1.4676e+02	5.3194	3.619442	0.000184	1.841785	0.312007	-0.000018
1477	1.4686e+02	5.3100	3.601519	0.000180	1.800857	0.305073	-0.000018
1478	1.4696e+02	5.3002	3.576671	0.000250	2.496642	0.422943	-0.000025
1479	1.4706e+02	5.2911	3.555489	0.000213	2.128285	0.360541	-0.000021
1480	1.4716e+02	5.2801	3.535937	0.000196	1.964571	0.332807	-0.000020
1481	1.4726e+02	5.2673	3.513126	0.000229	2.291999	0.388275	-0.000023
1482	1.4736e+02	5.2595	3.492759	0.000205	2.046428	0.346674	-0.000020
1483	1.4746e+02	5.2499	3.473206	0.000196	1.964571	0.332807	-0.000020
1484	1.4756e+02	5.2396	3.451210	0.000221	2.210142	0.374408	-0.000022
1485	1.4766e+02	5.2337	3.426769	0.000246	2.455714	0.416009	-0.000025
1486	1.4776e+02	5.2172	3.406809	0.000201	2.005499	0.339741	-0.000020
1487	1.4786e+02	5.2105	3.386442	0.000205	2.046428	0.346674	-0.000020
1488	1.4796e+02	5.2016	3.364853	0.000217	2.169214	0.367475	-0.000022
1489	1.4806e+02	5.1912	3.343264	0.000217	2.169214	0.367475	-0.000022
1490	1.4816e+02	5.1820	3.318823	0.000246	2.455714	0.416009	-0.000025
1491	1.4825e+02	5.1732	3.302937	0.000160	1.596214	0.270406	-0.000016
1492	1.4835e+02	5.1609	3.281348	0.000217	2.169214	0.367475	-0.000022
1493	1.4845e+02	5.1515	3.254463	0.000270	2.701285	0.457610	-0.000027
1494	1.4855e+02	5.1398	3.234504	0.000201	2.005499	0.339741	-0.000020
1495	1.4865e+02	5.1307	3.216580	0.000180	1.800857	0.305073	-0.000018
1496	1.4875e+02	5.1214	3.194584	0.000221	2.210142	0.374408	-0.000022
1497	1.4885e+02	5.1086	3.176254	0.000184	1.841785	0.312007	-0.000018
1498	1.4895e+02	5.1005	3.155479	0.000209	2.087356	0.353608	-0.000021
1499	1.4905e+02	5.0928	3.133483	0.000221	2.210142	0.374408	-0.000022
1500	1.4915e+02	5.0805	3.111079	0.000225	2.251071	0.381342	-0.000023
1501	1.4925e+02	5.0726	3.092341	0.000188	1.882714	0.318940	-0.000019
1502	1.4935e+02	5.0617	3.070344	0.000221	2.210142	0.374408	-0.000022
1503	1.4945e+02	5.0517	3.051607	0.000188	1.882714	0.318940	-0.000019
1504	1.4955e+02	5.0421	3.029610	0.000221	2.210142	0.374408	-0.000022
1505	1.4965e+02	5.0304	3.011280	0.000184	1.841785	0.312007	-0.000018
1506	1.4975e+02	5.0224	2.986025	0.000254	2.537571	0.429876	-0.000025
1507	1.4985e+02	5.0105	2.971768	0.000143	1.432500	0.242672	-0.000014
1508	1.4995e+02	4.9982	2.950993	0.000209	2.087356	0.353608	-0.000021
1509	1.5005e+02	4.9909	2.931033	0.000201	2.005499	0.339741	-0.000020
1510	1.5015e+02	4.9837	2.909037	0.000221	2.210142	0.374408	-0.000022
1511	1.5025e+02	4.9718	2.889077	0.000201	2.005499	0.339741	-0.000020
1512	1.5034e+02	4.9610	2.863822	0.000254	2.537571	0.429876	-0.000025
1513	1.5044e+02	4.9499	2.843047	0.000209	2.087356	0.353608	-0.000021
1514	1.5054e+02	4.9404	2.823902	0.000192	1.923642	0.325874	-0.000019
1515	1.5064e+02	4.9300	2.803535	0.000205	2.046428	0.346674	-0.000020
1516	1.5074e+02	4.9227	2.779909	0.000237	2.373856	0.402142	-0.000024
1517	1.5084e+02	4.9129	2.758727	0.000213	2.128285	0.360541	-0.000021
1518	1.5094e+02	4.9032	2.738360	0.000205	2.046428	0.346674	-0.000020
1519	1.5104e+02	4.8904	2.711476	0.000270	2.701285	0.457610	-0.000027
1520	1.5114e+02	4.8817	2.690701	0.000209	2.087356	0.353608	-0.000021
1521	1.5124e+02	4.8736	2.668297	0.000225	2.251071	0.381342	-0.000023
1522	1.5134e+02	4.8625	2.646708	0.000217	2.169214	0.367475	-0.000022
1523	1.5144e+02	4.8531	2.625934	0.000209	2.087356	0.353608	-0.000021
1524	1.5154e+02	4.8420	2.600271	0.000258	2.578499	0.436810	-0.000026
1525	1.5164e+02	4.8307	2.573794	0.000266	2.660356	0.450677	-0.000027
1526	1.5174e+02	4.8241	2.556278	0.000176	1.759928	0.298140	-0.000018
1527	1.5184e+02	4.8127	2.528579	0.000278	2.783142	0.471477	-0.000028
1528	1.5194e+02	4.8052	2.502916	0.000258	2.578499	0.436810	-0.000026
1529	1.5204e+02	4.7932	2.479290	0.000237	2.373856	0.402142	-0.000024
1530	1.5214e+02	4.7829	2.454443	0.000250	2.496642	0.422943	-0.000025
1531	1.5224e+02	4.7724	2.429595	0.000250	2.496642	0.422943	-0.000025
1532	1.5233e+02	4.7620	2.403525	0.000262	2.619428	0.443743	-0.000026
1533	1.5243e+02	4.7495	2.379084	0.000246	2.455714	0.416009	-0.000025
1534	1.5253e+02	4.7416	2.354644	0.000246	2.455714	0.416009	-0.000025
1535	1.5263e+02	4.7326	2.335091	0.000196	1.964571	0.332807	-0.000020
1536	1.5273e+02	4.7234	2.307799	0.000274	2.742213	0.464544	-0.000027
1537	1.5283e+02	4.7131	2.283359	0.000246	2.455714	0.416009	-0.000025
1538	1.5293e+02	4.7018	2.255659	0.000278	2.783142	0.471477	-0.000028
1539	1.5303e+02	4.6929	2.229997	0.000258	2.578499	0.436810	-0.000026
1540	1.5313e+02	4.6806	2.210037	0.000201	2.005499	0.339741	-0.000020
1541	1.5323e+02	4.6707	2.180708	0.000295	2.946856	0.499211	-0.000029
1542	1.5333e+02	4.6635	2.156675	0.000241	2.414785	0.409076	-0.000024
1543	1.5343e+02	4.6555	2.134271	0.000225	2.251071	0.381342	-0.000023
1544	1.5353e+02	4.6427	2.104535	0.000299	2.987785	0.506144	-0.000030
1545	1.5363e+02	4.6325	2.084168	0.000205	2.046428	0.346674	-0.000020
1546	1.5373e+02	4.6203	2.058098	0.000262	2.619428	0.443743	-0.000026
1547	1.5383e+02	4.6131	2.034065	0.000241	2.414785	0.409076	-0.000024
1548	1.5393e+02	4.6011	2.007588	0.000266	2.660356	0.450677	-0.000027
1549	1.5403e+02	4.5957	1.981925	0.000258	2.578499	0.436810	-0.000026
1550	1.5413e+02	4.5847	1.958707	0.000233	2.332928	0.395209	-0.000023
1551	1.5422e+02	4.5734	1.937118	0.000217	2.169214	0.367475	-0.000022
1552	1.5432e+02	4.5629	1.912677	0.000246	2.455714	0.416009	-0.000025
1553	1.5442e+02	4.5541	1.889866	0.000229	2.291999	0.388275	-0.000023
1554	1.5452e+02	4.5452	1.866647	0.000233	2.332928	0.395209	-0.000023
1555	1.5462e+02	4.5344	1.842614	0.000241	2.414785	0.409076	-0.000024
1556	1.5472e+02	4.5209	1.819396	0.000233	2.332928	0.395209	-0.000023
1557	1.5482e+02	4.5132	1.795362	0.000241	2.414785	0.409076	-0.000024
1558	1.5492e+02	4.5017	1.772551	0.000229	2.291999	0.388275	-0.000023
1559	1.5502e+02	4.4949	1.746074	0.000266	2.660356	0.450677	-0.000027
1560	1.5512e+02	4.4842	1.724077	0.000221	2.210142	0.374408	-0.000022
1561	1.5522e+02	4.4746	1.699229	0.000250	2.496642	0.422943	-0.000025
1562	1.5532e+02	4.4650	1.676418	0.000229	2.291999	0.388275	-0.000023
1563	1.5542e+02	4.4546	1.654422	0.000221	2.210142	0.374408	-0.000022
1564	1.5552e+02	4.4422	1.632425	0.000221	2.210142	0.374408	-0.000022
1565	1.5562e+02	4.4323	1.602689	0.000299	2.987785	0.506144	-0.000030
1566	1.5572e+02	4.4223	1.580285	0.000225	2.251071	0.381342	-0.000023
1567	1.5582e+02	4.4170	1.556660	0.000237	2.373856	0.402142	-0.000024
1568	1.5592e+02	4.4028	1.533034	0.000237	2.373856	0.402142	-0.000024
1569	1.5602e+02	4.3943	1.513889	0.000192	1.923642	0.325874	-0.000019
1570	1.5612e+02	4.3856	1.485782	0.000282	2.824071	0.478411	-0.000028
1571	1.5622e+02	4.3752	1.464193	0.000217	2.169214	0.367475	-0.000022
1572	1.5631e+02	4.3659	1.438123	0.000262	2.619428	0.443743	-0.000026
1573	1.5641e+02	4.3545	1.416534	0.000217	2.169214	0.367475	-0.000022
1574	1.5651e+02	4.3438	1.394945	0.000217	2.169214	0.367475	-0.000022
1575	1.5661e+02	4.3376	1.370911	0.000241	2.414785	0.409076	-0.000024
1576	1.5671e+02	4.3240	1.343619	0.000274	2.742213	0.464544	-0.000027
1577	1.5681e+02	4.3145	1.319586	0.000241	2.414785	0.409076	-0.000024
1578	1.5691e+02	4.3080	1.295553	0.000241	2.414785	0.409076	-0.000024
1579	1.5701e+02	4.2934	1.272742	0.000229	2.291999	0.388275	-0.000023
1580	1.5711e+02	4.2866	1.250745	0.000221	2.210142	0.374408	-0.000022
1581	1.5721e+02	4.2748	1.221824	0.000291	2.905928	0.492277	-0.000029
1582	1.5731e+02	4.2645	1.199827	0.000221	2.210142	0.374408	-0.000022
1583	1.5741e+02	4.2562	1.172943	0.000270	2.701285	0.457610	-0.000027
1584	1.5751e+02	4.2451	1.147688	0.000254	2.537571	0.429876	-0.000025
1585	1.5761e+02	4.2374	1.121618	0.000262	2.619428	0.443743	-0.000026
1586	1.5771e+02	4.2233	1.098807	0.000229	2.291999	0.388275	-0.000023
1587	1.5781e+02	4.2157	1.074773	0.000241	2.414785	0.409076	-0.000024
1588	1.5791e+02	4.2037	1.051147	0.000237	2.373856	0.402142	-0.000024
1589	1.5801e+02	4.1952	1.025078	0.000262	2.619428	0.443743	-0.000026
1590	1.5811e+02	4.1850	0.999822	0.000254	2.537571	0.429876	-0.000025
1591	1.5821e+02	4.1772	0.974567	0.000254	2.537571	0.429876	-0.000025
1592	1.5830e+02	4.1634	0.948090	0.000266	2.660356	0.450677	-0.000027
1593	1.5840e+02	4.1564	0.923649	0.000246	2.455714	0.416009	-0.000025
1594	1.5850e+02	4.1455	0.900838	0.000229	2.291999	0.388275	-0.000023
1595	1.5860e+02	4.1381	0.873139	0.000278	2.783142	0.471477	-0.000028
1596	1.5870e+02	4.1247	0.845847	0.000274	2.742213	0.464544	-0.000027
1597	1.5880e+02	4.1131	0.826702	0.000192	1.923642	0.325874	-0.000019
1598	1.5890e+02	4.1043	0.802668	0.000241	2.414785	0.409076	-0.000024
1599	1.5900e+02	4.0952	0.774562	0.000282	2.824071	0.478411	-0.000028
1600	1.5910e+02	4.0868	0.753787	0.000209	2.087356	0.353608	-0.000021
1601	1.5920e+02	4.0748	0.728125	0.000258	2.578499	0.436810	-0.000026
1602	1.5930e+02	4.0668	0.703684	0.000246	2.455714	0.416009	-0.000025
1603	1.5940e+02	4.0565	0.682502	0.000213	2.128285	0.360541	-0.000021
1604	1.5950e+02	4.0452	0.658062	0.000246	2.455714	0.416009	-0.000025
1605	1.5960e+02	4.0348	0.636473	0.000217	2.169214	0.367475	-0.000022
1606	1.5970e+02	4.0255	0.610810	0.000258	2.578499	0.436810	-0.000026
1607	1.5980e+02	4.0147	0.588406	0.000225	2.251071	0.381342	-0.000023
1608	1.5990e+02	4.0086	0.564780	0.000237	2.373856	0.402142	-0.000024
1609	1.6000e+02	3.9986	0.541155	0.000237	2.373856	0.402142	-0.000024
1610	1.6010e+02	3.9861	0.515899	0.000254	2.537571	0.429876	-0.000025
1611	1.6019e+02	3.9759	0.496347	0.000196	1.964571	0.332807	-0.000020
1612	1.6029e+02	3.9674	0.474350	0.000221	2.210142	0.374408	-0.000022
1613	1.6039e+02	3.9596	0.453983	0.000205	2.046428	0.346674	-0.000020
1614	1.6049e+02	3.9474	0.430765	0.000233	2.332928	0.395209	-0.000023
1615	1.6059e+02	3.9362	0.407546	0.000233	2.332928	0.395209	-0.000023
1616	1.6069e+02	3.9258	0.387586	0.000201	2.005499	0.339741	-0.000020
1617	1.6079e+02	3.9178	0.363961	0.000237	2.373856	0.402142	-0.000024
1618	1.6089e+02	3.9053	0.343186	0.000209	2.087356	0.353608	-0.000021
1619	1.6099e+02	3.8954	0.323634	0.000196	1.964571	0.332807	-0.000020
1620	1.6109e+02	3.8851	0.299600	0.000241	2.414785	0.409076	-0.000024
1621	1.6119e+02	3.8758	0.277197	0.000225	2.251071	0.381342	-0.000023
1622	1.6129e+02	3.8663	0.255200	0.000221	2.210142	0.374408	-0.000022
1623	1.6139e+02	3.8531	0.235240	0.000201	2.005499	0.339741	-0.000020
1624	1.6149e+02	3.8454	0.209578	0.000258	2.578499	0.436810	-0.000026
1625	1.6159e+02	3.8355	0.192877	0.000168	1.678071	0.284273	-0.000017
1626	1.6169e+02	3.8276	0.169658	0.000233	2.332928	0.395209	-0.000023
1627	1.6179e+02	3.8165	0.148476	0.000213	2.128285	0.360541	-0.000021
1628	1.6189e+02	3.8058	0.125665	0.000229	2.291999	0.388275	-0.000023
1629	1.6199e+02	3.7959	0.100003	0.000258	2.578499	0.436810	-0.000026
1630	1.6209e+02	3.7881	0.076784	0.000233	2.332928	0.395209	-0.000023
1631	1.6219e+02	3.7809	0.052751	0.000241	2.414785	0.409076	-0.000024
1632	1.6228e+02	3.7676	0.034420	0.000184	1.841785	0.312007	-0.000018
1633	1.6238e+02	3.7594	0.012424	0.000221	2.210142	0.374408	-0.000022
1634	1.6248e+02	3.7431	-0.011609	0.000241	2.414785	0.409076	-0.000024
1635	1.6258e+02	3.7381	-0.038494	0.000270	2.701285	0.457610	-0.000027
1636	1.6268e+02	3.7284	-0.060083	0.000217	2.169214	0.367475	-0.000022
1637	1.6278e+02	3.7183	-0.082487	0.000225	2.251071	0.381342	-0.000023
1638	1.6288e+02	3.7099	-0.106113	0.000237	2.373856	0.402142	-0.000024
1639	1.6298e+02	3.6968	-0.129739	0.000237	2.373856	0.402142	-0.000024
1640	1.6308e+02	3.6871	-0.158253	0.000286	2.864999	0.485344	-0.000029
1641	1.6318e+02	3.6788	-0.176176	0.000180	1.800857	0.305073	-0.000018
1642	1.6328e+02	3.6674	-0.200616	0.000246	2.455714	0.416009	-0.000025
1643	1.6338e+02	3.6585	-0.226686	0.000262	2.619428	0.443743	-0.000026
1644	1.6348e+02	3.6482	-0.252349	0.000258	2.578499	0.436810	-0.000026
1645	1.6358e+02	3.6404	-0.276382	0.000241	2.414785	0.409076	-0.000024
1646	1.6368e+02	3.6282	-0.299193	0.000229	2.291999	0.388275	-0.000023
1647	1.6378e+02	3.6163	-0.317931	0.000188	1.882714	0.318940	-0.000019
1648	1.6388e+02	3.6097	-0.346445	0.000286	2.864999	0.485344	-0.000029
1649	1.6398e+02	3.5979	-0.372107	0.000258	2.578499	0.436810	-0.000026
1650	1.6408e+02	3.5923	-0.393697	0.000217	2.169214	0.367475	-0.000022
1651	1.6418e+02	3.5786	-0.418544	0.000250	2.496642	0.422943	-0.000025
1652	1.6427e+02	3.5683	-0.442170	0.000237	2.373856	0.402142	-0.000024
1653	1.6437e+02	3.5590	-0.468240	0.000262	2.619428	0.443743	-0.000026
1654	1.6447e+02	3.5514	-0.493496	0.000254	2.537571	0.429876	-0.000025
1655	1.6457e+02	3.5413	-0.518343	0.000250	2.496642	0.422943	-0.000025
1656	1.6467e+02	3.5271	-0.543191	0.000250	2.496642	0.422943	-0.000025
1657	1.6477e+02	3.5169	-0.568447	0.000254	2.537571	0.429876	-0.000025
1658	1.6487e+02	3.5120	-0.590036	0.000217	2.169214	0.367475	-0.000022
1659	1.6497e+02	3.4990	-0.617735	0.000278	2.783142	0.471477	-0.000028
1660	1.6507e+02	3.4878	-0.638917	0.000213	2.128285	0.360541	-0.000021
1661	1.6517e+02	3.4801	-0.662135	0.000233	2.332928	0.395209	-0.000023
1662	1.6527e+02	3.4708	-0.686576	0.000246	2.455714	0.416009	-0.000025
1663	1.6537e+02	3.4586	-0.715090	0.000286	2.864999	0.485344	-0.000029
1664	1.6547e+02	3.4463	-0.734642	0.000196	1.964571	0.332807	-0.000020
1665	1.6557e+02	3.4380	-0.759898	0.000254	2.537571	0.429876	-0.000025
1666	1.6567e+02	3.4292	-0.783523	0.000237	2.373856	0.402142	-0.000024
1667	1.6577e+02	3.4219	-0.807964	0.000246	2.455714	0.416009	-0.000025
1668	1.6587e+02	3.4113	-0.829553	0.000217	2.169214	0.367475	-0.000022
1669	1.6597e+02	3.4004	-0.856030	0.000266	2.660356	0.450677	-0.000027
1670	1.6607e+02	3.3884	-0.878842	0.000229	2.291999	0.388275	-0.000023
1671	1.6616e+02	3.3788	-0.901245	0.000225	2.251071	0.381342	-0.000023
1672	1.6626e+02	3.3660	-0.923649	0.000225	2.251071	0.381342	-0.000023
1673	1.6636e+02	3.3588	-0.951349	0.000278	2.783142	0.471477	-0.000028
1674	1.6646e+02	3.3514	-0.974974	0.000237	2.373856	0.402142	-0.000024
1675	1.6656e+02	3.3393	-0.997378	0.000225	2.251071	0.381342	-0.000023
1676	1.6666e+02	3.3323	-1.019375	0.000221	2.210142	0.374408	-0.000022
1677	1.6676e+02	3.3191	-1.043815	0.000246	2.455714	0.416009	-0.000025
1678	1.6686e+02	3.3100	-1.064590	0.000209	2.087356	0.353608	-0.000021
1679	1.6696e+02	3.2995	-1.091882	0.000274	2.742213	0.464544	-0.000027
1680	1.6706e+02	3.2901	-1.118766	0.000270	2.701285	0.457610	-0.000027
1681	1.6716e+02	3.2788	-1.142392	0.000237	2.373856	0.402142	-0.000024
1682	1.6726e+02	3.2708	-1.168869	0.000266	2.660356	0.450677	-0.000027
1683	1.6736e+02	3.2616	-1.191273	0.000225	2.251071	0.381342	-0.000023
1684	1.6746e+02	3.2479	-1.218565	0.000274	2.742213	0.464544	-0.000027
1685	1.6756e+02	3.2388	-1.243006	0.000246	2.455714	0.416009	-0.000025
1686	1.6766e+02	3.2285	-1.267446	0.000246	2.455714	0.416009	-0.000025
1687	1.6776e+02	3.2195	-1.291887	0.000246	2.455714	0.416009	-0.000025
1688	1.6786e+02	3.2087	-1.321216	0.000295	2.946856	0.499211	-0.000029
1689	1.6796e+02	3.1995	-1.345249	0.000241	2.414785	0.409076	-0.000024
1690	1.6806e+02	3.1886	-1.368467	0.000233	2.332928	0.395209	-0.000023
1691	1.6816e+02	3.1802	-1.394537	0.000262	2.619428	0.443743	-0.000026
1692	1.6825e+02	3.1702	-1.423051	0.000286	2.864999	0.485344	-0.000029
1693	1.6835e+02	3.1597	-1.449121	0.000262	2.619428	0.443743	-0.000026
1694	1.6845e+02	3.1536	-1.476820	0.000278	2.783142	0.471477	-0.000028
1695	1.6855e+02	3.1456	-1.502890	0.000262	2.619428	0.443743	-0.000026
1696	1.6865e+02	3.1292	-1.532626	0.000299	2.987785	0.506144	-0.000030
1697	1.6875e+02	3.1197	-1.565214	0.000327	3.274285	0.554679	-0.000033
1698	1.6885e+02	3.1097	-1.588432	0.000233	2.332928	0.395209	-0.000023
1699	1.6895e+02	3.0996	-1.620205	0.000319	3.192428	0.540812	-0.000032
1700	1.6905e+02	3.0933	-1.643831	0.000237	2.373856	0.402142	-0.000024
1701	1.6915e+02	3.0799	-1.673160	0.000295	2.946856	0.499211	-0.000029
1702	1.6925e+02	3.0717	-1.702488	0.000295	2.946856	0.499211	-0.000029
1703	1.6935e+02	3.0622	-1.729373	0.000270	2.701285	0.457610	-0.000027
1704	1.6945e+02	3.0505	-1.758701	0.000295	2.946856	0.499211	-0.000029
1705	1.6955e+02	3.0410	-1.783142	0.000246	2.455714	0.416009	-0.000025
1706	1.6965e+02	3.0315	-1.811656	0.000286	2.864999	0.485344	-0.000029
1707	1.6975e+02	3.0195	-1.840985	0.000295	2.946856	0.499211	-0.000029
1708	1.6985e+02	3.0114	-1.870313	0.000295	2.946856	0.499211	-0.000029
1709	1.6995e+02	3.0007	-1.898420	0.000282	2.824071	0.478411	-0.000028
1710	1.7005e+02	2.9931	-1.928563	0.000303	3.028713	0.513078	-0.000030
1711	1.7015e+02	2.9821	-1.956263	0.000278	2.783142	0.471477	-0.000028
1712	1.7024e+02	2.9697	-1.982333	0.000262	2.619428	0.443743	-0.000026
1713	1.7034e+02	2.9595	-2.011254	0.000291	2.905928	0.492277	-0.000029
1714	1.7044e+02	2.9537	-2.040583	0.000295	2.946856	0.499211	-0.000029
1715	1.7054e+02	2.9397	-2.067874	0.000274	2.742213	0.464544	-0.000027
1716	1.7064e+02	2.9330	-2.094759	0.000270	2.701285	0.457610	-0.000027
1717	1.7074e+02	2.9202	-2.116348	0.000217	2.169214	0.367475	-0.000022
1718	1.7084e+02	2.9124	-2.146899	0.000307	3.069642	0.520011	-0.000031
1719	1.7094e+02	2.9039	-2.177450	0.000307	3.069642	0.520011	-0.000031
1720	1.7104e+02	2.8918	-2.203927	0.000266	2.660356	0.450677	-0.000027
1721	1.7114e+02	2.8822	-2.230404	0.000266	2.660356	0.450677	-0.000027
1722	1.7124e+02	2.8716	-2.254845	0.000246	2.455714	0.416009	-0.000025
1723	1.7134e+02	2.8617	-2.284581	0.000299	2.987785	0.506144	-0.000030
1724	1.7144e+02	2.8534	-2.313502	0.000291	2.905928	0.492277	-0.000029
1725	1.7154e+02	2.8417	-2.337128	0.000237	2.373856	0.402142	-0.000024
1726	1.7164e+02	2.8342	-2.365235	0.000282	2.824071	0.478411	-0.000028
1727	1.7174e+02	2.8242	-2.389268	0.000241	2.414785	0.409076	-0.000024
1728	1.7184e+02	2.8135	-2.416967	0.000278	2.783142	0.471477	-0.000028
1729	1.7194e+02	2.8020	-2.445481	0.000286	2.864999	0.485344	-0.000029
1730	1.7204e+02	2.7930	-2.476032	0.000307	3.069642	0.520011	-0.000031
1731	1.7213e+02	2.7855	-2.498028	0.000221	2.210142	0.374408	-0.000022
1732	1.7223e+02	2.7712	-2.530616	0.000327	3.274285	0.554679	-0.000033
1733	1.7233e+02	2.7640	-2.557908	0.000274	2.742213	0.464544	-0.000027
1734	1.7243e+02	2.7519	-2.583163	0.000254	2.537571	0.429876	-0.000025
1735	1.7253e+02	2.7419	-2.608011	0.000250	2.496642	0.422943	-0.000025
1736	1.7263e+02	2.7337	-2.636525	0.000286	2.864999	0.485344	-0.000029
1737	1.7273e+02	2.7233	-2.663409	0.000270	2.701285	0.457610	-0.000027
1738	1.7283e+02	2.7110	-2.688665	0.000254	2.537571	0.429876	-0.000025
1739	1.7293e+02	2.7048	-2.720845	0.000323	3.233356	0.547745	-0.000032
1740	1.7303e+02	2.6931	-2.744878	0.000241	2.414785	0.409076	-0.000024
1741	1.7313e+02	2.6831	-2.771762	0.000270	2.701285	0.457610	-0.000027
1742	1.7323e+02	2.6740	-2.801906	0.000303	3.028713	0.513078	-0.000030
1743	1.7333e+02	2.6655	-2.826754	0.000250	2.496642	0.422943	-0.000025
1744	1.7343e+02	2.6513	-2.855675	0.000291	2.905928	0.492277	-0.000029
1745	1.7353e+02	2.6424	-2.880116	0.000246	2.455714	0.416009	-0.000025
1746	1.7363e+02	2.6312	-2.908629	0.000286	2.864999	0.485344	-0.000029
1747	1.7373e+02	2.6252	-2.939180	0.000307	3.069642	0.520011	-0.000031
1748	1.7383e+02	2.6202	-2.965250	0.000262	2.619428	0.443743	-0.000026
1749	1.7393e+02	2.6020	-2.992135	0.000270	2.701285	0.457610	-0.000027
1750	1.7403e+02	2.5945	-3.021463	0.000295	2.946856	0.499211	-0.000029
1751	1.7413e+02	2.5839	-3.051607	0.000303	3.028713	0.513078	-0.000030
1752	1.7422e+02	2.5753	-3.079713	0.000282	2.824071	0.478411	-0.000028
1753	1.7432e+02	2.5658	-3.108227	0.000286	2.864999	0.485344	-0.000029
1754	1.7442e+02	2.5529	-3.135112	0.000270	2.701285	0.457610	-0.000027
1755	1.7452e+02	2.5443	-3.162404	0.000274	2.742213	0.464544	-0.000027
1756	1.7462e+02	2.5352	-3.190918	0.000286	2.864999	0.485344	-0.000029
1757	1.7472e+02	2.5251	-3.220247	0.000295	2.946856	0.499211	-0.000029
1758	1.7482e+02	2.5117	-3.245094	0.000250	2.496642	0.422943	-0.000025
1759	1.7492e+02	2.5062	-3.274016	0.000291	2.905928	0.492277	-0.000029
1760	1.7502e+02	2.4953	-3.305381	0.000315	3.151499	0.533878	-0.000032
1761	1.7512e+02	2.4850	-3.334710	0.000295	2.946856	0.499211	-0.000029
1762	1.7522e+02	2.4750	-3.365260	0.000307	3.069642	0.520011	-0.000031
1763	1.7532e+02	2.4619	-3.392552	0.000274	2.742213	0.464544	-0.000027
1764	1.7542e+02	2.4539	-3.419437	0.000270	2.701285	0.457610	-0.000027
1765	1.7552e+02	2.4455	-3.445914	0.000266	2.660356	0.450677	-0.000027
1766	1.7562e+02	2.4342	-3.474021	0.000282	2.824071	0.478411	-0.000028
1767	1.7572e+02	2.4249	-3.503757	0.000299	2.987785	0.506144	-0.000030
1768	1.7582e+02	2.4120	-3.530234	0.000266	2.660356	0.450677	-0.000027
1769	1.7592e+02	2.4034	-3.559563	0.000295	2.946856	0.499211	-0.000029
1770	1.7602e+02	2.3934	-3.586040	0.000266	2.660356	0.450677	-0.000027
1771	1.7612e+02	2.3855	-3.613332	0.000274	2.742213	0.464544	-0.000027
1772	1.7621e+02	2.3725	-3.640624	0.000274	2.742213	0.464544	-0.000027
1773	1.7631e+02	2.3638	-3.665879	0.000254	2.537571	0.429876	-0.000025
1774	1.7641e+02	2.3559	-3.690320	0.000246	2.455714	0.416009	-0.000025
1775	1.7651e+02	2.3447	-3.718019	0.000278	2.783142	0.471477	-0.000028
1776	1.7661e+02	2.3363	-3.744904	0.000270	2.701285	0.457610	-0.000027
1777	1.7671e+02	2.3251	-3.770159	0.000254	2.537571	0.429876	-0.000025
1778	1.7681e+02	2.3125	-3.798673	0.000286	2.864999	0.485344	-0.000029
1779	1.7691e+02	2.3052	-3.826780	0.000282	2.824071	0.478411	-0.000028
1780	1.7701e+02	2.2958	-3.851220	0.000246	2.455714	0.416009	-0.000025
1781	1.7711e+02	2.2825	-3.874846	0.000237	2.373856	0.402142	-0.000024
1782	1.7721e+02	2.2754	-3.904175	0.000295	2.946856	0.499211	-0.000029
1783	1.7731e+02	2.2672	-3.925356	0.000213	2.128285	0.360541	-0.000021
1784	1.7741e+02	2.2547	-3.948982	0.000237	2.373856	0.402142	-0.000024
1785	1.7751e+02	2.2459	-3.975460	0.000266	2.660356	0.450677	-0.000027
1786	1.7761e+02	2.2348	-4.001937	0.000266	2.660356	0.450677	-0.000027
1787	1.7771e+02	2.2233	-4.029229	0.000274	2.742213	0.464544	-0.000027
1788	1.7781e+02	2.2134	-4.056521	0.000274	2.742213	0.464544	-0.000027
1789	1.7791e+02	2.2044	-4.080554	0.000241	2.414785	0.409076	-0.000024
1790	1.7801e+02	2.1967	-4.103365	0.000229	2.291999	0.388275	-0.000023
1791	1.7810e+02	2.1822	-4.129435	0.000262	2.619428	0.443743	-0.000026
1792	1.7820e+02	2.1745	-4.155098	0.000258	2.578499	0.436810	-0.000026
1793	1.7830e+02	2.1684	-4.182797	0.000278	2.783142	0.471477	-0.000028
1794	1.7840e+02	2.1555	-4.206830	0.000241	2.414785	0.409076	-0.000024
1795	1.7850e+02	2.1445	-4.235344	0.000286	2.864999	0.485344	-0.000029
1796	1.7860e+02	2.1358	-4.262229	0.000270	2.701285	0.457610	-0.000027
1797	1.7870e+02	2.1239	-4.287077	0.000250	2.496642	0.422943	-0.000025
1798	1.7880e+02	2.1146	-4.314369	0.000274	2.742213	0.464544	-0.000027
1799	1.7890e+02	2.1051	-4.338402	0.000241	2.414785	0.409076	-0.000024
1800	1.7900e+02	2.0959	-4.367323	0.000291	2.905928	0.492277	-0.000029
1801	1.7910e+02	2.0873	-4.390542	0.000233	2.332928	0.395209	-0.000023
1802	1.7920e+02	2.0744	-4.417019	0.000266	2.660356	0.450677	-0.000027
1803	1.7930e+02	2.0654	-4.443496	0.000266	2.660356	0.450677	-0.000027
1804	1.7940e+02	2.0583	-4.478120	0.000348	3.478927	0.589346	-0.000035
1805	1.7950e+02	2.0462	-4.503783	0.000258	2.578499	0.436810	-0.000026
1806	1.7960e+02	2.0374	-4.529446	0.000258	2.578499	0.436810	-0.000026
1807	1.7970e+02	2.0238	-4.555515	0.000262	2.619428	0.443743	-0.000026
1808	1.7980e+02	2.0161	-4.584437	0.000291	2.905928	0.492277	-0.000029
1809	1.7990e+02	2.0059	-4.612543	0.000282	2.824071	0.478411	-0.000028
1810	1.8000e+02	1.9939	-4.640243	0.000278	2.783142	0.471477	-0.000028
1811	1.8009e+02	1.9875	-4.664683	0.000246	2.455714	0.416009	-0.000025
1812	1.8019e+02	1.9724	-4.690753	0.000262	2.619428	0.443743	-0.000026
1813	1.8029e+02	1.9671	-4.724563	0.000340	3.397070	0.575479	-0.000034
1814	1.8039e+02	1.9567	-4.750225	0.000258	2.578499	0.436810	-0.000026
1815	1.8049e+02	1.9453	-4.775073	0.000250	2.496642	0.422943	-0.000025
1816	1.8059e+02	1.9381	-4.804809	0.000299	2.987785	0.506144	-0.000030
1817	1.8069e+02	1.9274	-4.832101	0.000274	2.742213	0.464544	-0.000027
1818	1.8079e+02	1.9170	-4.862652	0.000307	3.069642	0.520011	-0.000031
1819	1.8089e+02	1.9051	-4.885870	0.000233	2.332928	0.395209	-0.000023
1820	1.8099e+02	1.8960	-4.916421	0.000307	3.069642	0.520011	-0.000031
1821	1.8109e+02	1.8881	-4.944935	0.000286	2.864999	0.485344	-0.000029
1822	1.8119e+02	1.8753	-4.974264	0.000295	2.946856	0.499211	-0.000029
1823	1.8129e+02	1.8678	-5.006036	0.000319	3.192428	0.540812	-0.000032
1824	1.8139e+02	1.8578	-5.032106	0.000262	2.619428	0.443743	-0.000026
1825	1.8149e+02	1.8461	-5.061028	0.000291	2.905928	0.492277	-0.000029
1826	1.8159e+02	1.8340	-5.084653	0.000237	2.373856	0.402142	-0.000024
1827	1.8169e+02	1.8273	-5.115204	0.000307	3.069642	0.520011	-0.000031
1828	1.8179e+02	1.8165	-5.143718	0.000286	2.864999	0.485344	-0.000029
1829	1.8189e+02	1.8066	-5.173454	0.000299	2.987785	0.506144	-0.000030
1830	1.8199e+02	1.7982	-5.199117	0.000258	2.578499	0.436810	-0.000026
1831	1.8209e+02	1.7833	-5.226409	0.000274	2.742213	0.464544	-0.000027
1832	1.8218e+02	1.7755	-5.254923	0.000286	2.864999	0.485344	-0.000029
1833	1.8228e+02	1.7648	-5.280993	0.000262	2.619428	0.443743	-0.000026
1834	1.8238e+02	1.7561	-5.308284	0.000274	2.742213	0.464544	-0.000027
1835	1.8248e+02	1.7496	-5.338020	0.000299	2.987785	0.506144	-0.000030
1836	1.8258e+02	1.7411	-5.362868	0.000250	2.496642	0.422943	-0.000025
1837	1.8268e+02	1.7258	-5.393826	0.000311	3.110570	0.526945	-0.000031
1838	1.8278e+02	1.7187	-5.422340	0.000286	2.864999	0.485344	-0.000029
1839	1.8288e+02	1.7088	-5.450447	0.000282	2.824071	0.478411	-0.000028
1840	1.8298e+02	1.6965	-5.477739	0.000274	2.742213	0.464544	-0.000027
1841	1.8308e+02	1.6871	-5.505438	0.000278	2.783142	0.471477	-0.000028
1842	1.8318e+02	1.6773	-5.528657	0.000233	2.332928	0.395209	-0.000023
1843	1.8328e+02	1.6671	-5.556763	0.000282	2.824071	0.478411	-0.000028
1844	1.8338e+02	1.6586	-5.587314	0.000307	3.069642	0.520011	-0.000031
1845	1.8348e+02	1.6488	-5.617050	0.000299	2.987785	0.506144	-0.000030
1846	1.8358e+02	1.6374	-5.643527	0.000266	2.660356	0.450677	-0.000027
1847	1.8368e+02	1.6300	-5.667561	0.000241	2.414785	0.409076	-0.000024
1848	1.8378e+02	1.6196	-5.697704	0.000303	3.028713	0.513078	-0.000030
1849	1.8388e+02	1.6085	-5.727033	0.000295	2.946856	0.499211	-0.000029
1850	1.8398e+02	1.5974	-5.757176	0.000303	3.028713	0.513078	-0.000030
1851	1.8407e+02	1.5898	-5.783653	0.000266	2.660356	0.450677	-0.000027
1852	1.8417e+02	1.5775	-5.815833	0.000323	3.233356	0.547745	-0.000032
1853	1.8427e+02	1.5672	-5.843533	0.000278	2.783142	0.471477	-0.000028
1854	1.8437e+02	1.5557	-5.870010	0.000266	2.660356	0.450677	-0.000027
1855	1.8447e+02	1.5462	-5.902190	0.000323	3.233356	0.547745	-0.000032
1856	1.8457e+02	1.5392	-5.929482	0.000274	2.742213	0.464544	-0.000027
1857	1.8467e+02	1.5299	-5.960033	0.000307	3.069642	0.520011	-0.000031
1858	1.8477e+02	1.5166	-5.994657	0.000348	3.478927	0.589346	-0.000035
1859	1.8487e+02	1.5094	-6.020727	0.000262	2.619428	0.443743	-0.000026
1860	1.8497e+02	1.4966	-6.054129	0.000336	3.356142	0.568546	-0.000034
1861	1.8507e+02	1.4903	-6.086309	0.000323	3.233356	0.547745	-0.000032
1862	1.8517e+02	1.4783	-6.112379	0.000262	2.619428	0.443743	-0.000026
1863	1.8527e+02	1.4687	-6.144966	0.000327	3.274285	0.554679	-0.000033
1864	1.8537e+02	1.4568	-6.172258	0.000274	2.742213	0.464544	-0.000027
1865	1.8547e+02	1.4485	-6.209734	0.000377	3.765427	0.637881	-0.000038
1866	1.8557e+02	1.4373	-6.239062	0.000295	2.946856	0.499211	-0.000029
1867	1.8567e+02	1.4287	-6.274501	0.000356	3.560785	0.603213	-0.000036
1868	1.8577e+02	1.4175	-6.305866	0.000315	3.151499	0.533878	-0.000032
1869	1.8587e+02	1.4092	-6.340490	0.000348	3.478927	0.589346	-0.000035
1870	1.8597e+02	1.3972	-6.369004	0.000286	2.864999	0.485344	-0.000029
1871	1.8606e+02	1.3875	-6.403221	0.000344	3.437999	0.582413	-0.000034
1872	1.8616e+02	1.3764	-6.434994	0.000319	3.192428	0.540812	-0.000032
1873	1.8626e+02	1.3718	-6.465545	0.000307	3.069642	0.520011	-0.000031
1874	1.8636e+02	1.3607	-6.502205	0.000368	3.683570	0.624014	-0.000037
1875	1.8646e+02	1.3515	-6.533571	0.000315	3.151499	0.533878	-0.000032
1876	1.8656e+02	1.3391	-6.563714	0.000303	3.028713	0.513078	-0.000030
1877	1.8666e+02	1.3291	-6.593450	0.000299	2.987785	0.506144	-0.000030
1878	1.8676e+02	1.3172	-6.629296	0.000360	3.601713	0.610147	-0.000036
1879	1.8686e+02	1.3113	-6.656996	0.000278	2.783142	0.471477	-0.000028
1880	1.8696e+02	1.3009	-6.692434	0.000356	3.560785	0.603213	-0.000036
1881	1.8706e+02	1.2906	-6.721763	0.000295	2.946856	0.499211	-0.000029
1882	1.8716e+02	1.2783	-6.753128	0.000315	3.151499	0.533878	-0.000032
1883	1.8726e+02	1.2704	-6.788975	0.000360	3.601713	0.610147	-0.000036
1884	1.8736e+02	1.2604	-6.819525	0.000307	3.069642	0.520011	-0.000031
1885	1.8746e+02	1.2485	-6.848447	0.000291	2.905928	0.492277	-0.000029
1886	1.8756e+02	1.2410	-6.881034	0.000327	3.274285	0.554679	-0.000033
1887	1.8766e+02	1.2306	-6.911177	0.000303	3.028713	0.513078	-0.000030
1888	1.8776e+02	1.2177	-6.944172	0.000332	3.315213	0.561612	-0.000033
1889	1.8786e+02	1.2127	-6.972279	0.000282	2.824071	0.478411	-0.000028
1890	1.8796e+02	1.2000	-7.000385	0.000282	2.824071	0.478411	-0.000028
1891	1.8806e+02	1.1906	-7.033380	0.000332	3.315213	0.561612	-0.000033
1892	1.8815e+02	1.1796	-7.065968	0.000327	3.274285	0.554679	-0.000033
1893	1.8825e+02	1.1671	-7.094889	0.000291	2.905928	0.492277	-0.000029
1894	1.8835e+02	1.1610	-7.127476	0.000327	3.274285	0.554679	-0.000033
1895	1.8845e+02	1.1472	-7.159656	0.000323	3.233356	0.547745	-0.000032
1896	1.8855e+02	1.1384	-7.188985	0.000295	2.946856	0.499211	-0.000029
1897	1.8865e+02	1.1296	-7.217906	0.000291	2.905928	0.492277	-0.000029
1898	1.8875e+02	1.1221	-7.250086	0.000323	3.233356	0.547745	-0.000032
1899	1.8885e+02	1.1133	-7.282674	0.000327	3.274285	0.554679	-0.000033
1900	1.8895e+02	1.1005	-7.312817	0.000303	3.028713	0.513078	-0.000030
1901	1.8905e+02	1.0903	-7.346627	0.000340	3.397070	0.575479	-0.000034
1902	1.8915e+02	1.0799	-7.377177	0.000307	3.069642	0.520011	-0.000031
1903	1.8925e+02	1.0693	-7.412209	0.000352	3.519856	0.596280	-0.000035
1904	1.8935e+02	1.0610	-7.442352	0.000303	3.028713	0.513078	-0.000030
1905	1.8945e+02	1.0506	-7.470866	0.000286	2.864999	0.485344	-0.000029
1906	1.8955e+02	1.0414	-7.501009	0.000303	3.028713	0.513078	-0.000030
1907	1.8965e+02	1.0300	-7.532782	0.000319	3.192428	0.540812	-0.000032
1908	1.8975e+02	1.0220	-7.564962	0.000323	3.233356	0.547745	-0.000032
1909	1.8985e+02	1.0122	-7.596328	0.000315	3.151499	0.533878	-0.000032
1910	1.8995e+02	1.0020	-7.626064	0.000299	2.987785	0.506144	-0.000030
1911	1.9004e+02	0.9902	-7.660280	0.000344	3.437999	0.582413	-0.000034
1912	1.9014e+02	0.9813	-7.689202	0.000291	2.905928	0.492277	-0.000029
1913	1.9024e+02	0.9692	-7.722196	0.000332	3.315213	0.561612	-0.000033
1914	1.9034e+02	0.9607	-7.754376	0.000323	3.233356	0.547745	-0.000032
1915	1.9044e+02	0.9534	-7.784520	0.000303	3.028713	0.513078	-0.000030
1916	1.9054e+02	0.9408	-7.815071	0.000307	3.069642	0.520011	-0.000031
1917	1.9064e+02	0.9295	-7.850917	0.000360	3.601713	0.610147	-0.000036
1918	1.9074e+02	0.9211	-7.883504	0.000327	3.274285	0.554679	-0.000033
1919	1.9084e+02	0.9103	-7.913647	0.000303	3.028713	0.513078	-0.000030
1920	1.9094e+02	0.8977	-7.948679	0.000352	3.519856	0.596280	-0.000035
1921	1.9104e+02	0.8914	-7.979230	0.000307	3.069642	0.520011	-0.000031
1922	1.9114e+02	0.8822	-8.012224	0.000332	3.315213	0.561612	-0.000033
1923	1.9124e+02	0.8736	-8.046441	0.000344	3.437999	0.582413	-0.000034
1924	1.9134e+02	0.8629	-8.072104	0.000258	2.578499	0.436810	-0.000026
1925	1.9144e+02	0.8533	-8.107135	0.000352	3.519856	0.596280	-0.000035
1926	1.9154e+02	0.8396	-8.140130	0.000332	3.315213	0.561612	-0.000033
1927	1.9164e+02	0.8320	-8.176383	0.000364	3.642642	0.617080	-0.000036
1928	1.9174e+02	0.8187	-8.210600	0.000344	3.437999	0.582413	-0.000034
1929	1.9184e+02	0.8144	-8.237485	0.000270	2.701285	0.457610	-0.000027
1930	1.9194e+02	0.8031	-8.274553	0.000372	3.724499	0.630947	-0.000037
1931	1.9203e+02	0.7936	-8.308362	0.000340	3.397070	0.575479	-0.000034
1932	1.9213e+02	0.7829	-8.340542	0.000323	3.233356	0.547745	-0.000032
1933	1.9223e+02	0.7719	-8.369056	0.000286	2.864999	0.485344	-0.000029
1934	1.9233e+02	0.7619	-8.404495	0.000356	3.560785	0.603213	-0.000036
1935	1.9243e+02	0.7543	-8.434231	0.000299	2.987785	0.506144	-0.000030
1936	1.9253e+02	0.7418	-8.461930	0.000278	2.783142	0.471477	-0.000028
1937	1.9263e+02	0.7323	-8.502665	0.000409	4.092856	0.693349	-0.000041
1938	1.9273e+02	0.7218	-8.530364	0.000278	2.783142	0.471477	-0.000028
1939	1.9283e+02	0.7119	-8.560915	0.000307	3.069642	0.520011	-0.000031
1940	1.9293e+02	0.7025	-8.592280	0.000315	3.151499	0.533878	-0.000032
1941	1.9303e+02	0.6919	-8.619572	0.000274	2.742213	0.464544	-0.000027
1942	1.9313e+02	0.6816	-8.656233	0.000368	3.683570	0.624014	-0.000037
1943	1.9323e+02	0.6713	-8.682710	0.000266	2.660356	0.450677	-0.000027
1944	1.9333e+02	0.6599	-8.717742	0.000352	3.519856	0.596280	-0.000035
1945	1.9343e+02	0.6492	-8.749922	0.000323	3.233356	0.547745	-0.000032
1946	1.9353e+02	0.6428	-8.772326	0.000225	2.251071	0.381342	-0.000023
1947	1.9363e+02	0.6338	-8.803691	0.000315	3.151499	0.533878	-0.000032
1948	1.9373e+02	0.6244	-8.832205	0.000286	2.864999	0.485344	-0.000029
1949	1.9383e+02	0.6102	-8.863570	0.000315	3.151499	0.533878	-0.000032
1950	1.9393e+02	0.6013	-8.890862	0.000274	2.742213	0.464544	-0.000027
1951	1.9403e+02	0.5941	-8.921820	0.000311	3.110570	0.526945	-0.000031
1952	1.9412e+02	0.5867	-8.949520	0.000278	2.783142	0.471477	-0.000028
1953	1.9422e+02	0.5736	-8.984958	0.000356	3.560785	0.603213	-0.000036
1954	1.9432e+02	0.5633	-9.010621	0.000258	2.578499	0.436810	-0.000026
1955	1.9442e+02	0.5537	-9.044023	0.000336	3.356142	0.568546	-0.000034
1956	1.9452e+02	0.5447	-9.068871	0.000250	2.496642	0.422943	-0.000025
1957	1.9462e+02	0.5359	-9.102273	0.000336	3.356142	0.568546	-0.000034
1958	1.9472e+02	0.5231	-9.132416	0.000303	3.028713	0.513078	-0.000030
1959	1.9482e+02	0.5119	-9.160523	0.000282	2.824071	0.478411	-0.000028
1960	1.9492e+02	0.5044	-9.190666	0.000303	3.028713	0.513078	-0.000030
1961	1.9502e+02	0.4937	-9.218773	0.000282	2.824071	0.478411	-0.000028
1962	1.9512e+02	0.4846	-9.250546	0.000319	3.192428	0.540812	-0.000032
1963	1.9522e+02	0.4724	-9.280689	0.000303	3.028713	0.513078	-0.000030
1964	1.9532e+02	0.4648	-9.314906	0.000344	3.437999	0.582413	-0.000034
1965	1.9542e+02	0.4549	-9.342198	0.000274	2.742213	0.464544	-0.000027
1966	1.9552e+02	0.4420	-9.374378	0.000323	3.233356	0.547745	-0.000032
1967	1.9562e+02	0.4324	-9.403299	0.000291	2.905928	0.492277	-0.000029
1968	1.9572e+02	0.4272	-9.433850	0.000307	3.069642	0.520011	-0.000031
1969	1.9582e+02	0.4146	-9.466845	0.000332	3.315213	0.561612	-0.000033
1970	1.9592e+02	0.4056	-9.497803	0.000311	3.110570	0.526945	-0.000031
1971	1.9601e+02	0.3965	-9.525502	0.000278	2.783142	0.471477	-0.000028
1972	1.9611e+02	0.3824	-9.557682	0.000323	3.233356	0.547745	-0.000032
1973	1.9621e+02	0.3728	-9.592713	0.000352	3.519856	0.596280	-0.000035
1974	1.9631e+02	0.3626	-9.621635	0.000291	2.905928	0.492277	-0.000029
1975	1.9641e+02	0.3555	-9.652185	0.000307	3.069642	0.520011	-0.000031
1976	1.9651e+02	0.3435	-9.684365	0.000323	3.233356	0.547745	-0.000032
1977	1.9661e+02	0.3370	-9.719804	0.000356	3.560785	0.603213	-0.000036
1978	1.9671e+02	0.3251	-9.752392	0.000327	3.274285	0.554679	-0.000033
1979	1.9681e+02	0.3143	-9.780906	0.000286	2.864999	0.485344	-0.000029
1980	1.9691e+02	0.3033	-9.815937	0.000352	3.519856	0.596280	-0.000035
1981	1.9701e+02	0.2957	-9.842822	0.000270	2.701285	0.457610	-0.000027
1982	1.9711e+02	0.2844	-9.876631	0.000340	3.397070	0.575479	-0.000034
1983	1.9721e+02	0.2740	-9.911255	0.000348	3.478927	0.589346	-0.000035
1984	1.9731e+02	0.2632	-9.938955	0.000278	2.783142	0.471477	-0.000028
1985	1.9741e+02	0.2522	-9.969913	0.000311	3.110570	0.526945	-0.000031
1986	1.9751e+02	0.2448	-10.006166	0.000364	3.642642	0.617080	-0.000036
1987	1.9761e+02	0.2371	-10.039568	0.000336	3.356142	0.568546	-0.000034
1988	1.9771e+02	0.2231	-10.070934	0.000315	3.151499	0.533878	-0.000032
1989	1.9781e+02	0.2144	-10.101892	0.000311	3.110570	0.526945	-0.000031
1990	1.9791e+02	0.2048	-10.136516	0.000348	3.478927	0.589346	-0.000035
1991	1.9800e+02	0.1942	-10.169103	0.000327	3.274285	0.554679	-0.000033
1992	1.9810e+02	0.1833	-10.201283	0.000323	3.233356	0.547745	-0.000032
1993	1.9820e+02	0.1730	-10.235500	0.000344	3.437999	0.582413	-0.000034
1994	1.9830e+02	0.1647	-10.265236	0.000299	2.987785	0.506144	-0.000030
1995	1.9840e+02	0.1580	-10.297416	0.000323	3.233356	0.547745	-0.000032
1996	1.9850e+02	0.1437	-10.330818	0.000336	3.356142	0.568546	-0.000034
1997	1.9860e+02	0.1338	-10.362998	0.000323	3.233356	0.547745	-0.000032
1998	1.9870e+02	0.1235	-10.396400	0.000336	3.356142	0.568546	-0.000034
1999	1.9880e+02	0.1160	-10.427358	0.000311	3.110570	0.526945	-0.000031
2000	1.9890e+02	0.1080	-10.457909	0.000307	3.069642	0.520011	-0.000031
2001	1.9900e+02	0.0935	-10.490904	0.000332	3.315213	0.561612	-0.000033
2002	1.9910e+02	0.0844	-10.521047	0.000303	3.028713	0.513078	-0.000030
2003	1.9920e+02	0.0745	-10.553227	0.000323	3.233356	0.547745	-0.000032
2004	1.9930e+02	0.0624	-10.583371	0.000303	3.028713	0.513078	-0.000030
2005	1.9940e+02	0.0562	-10.617587	0.000344	3.437999	0.582413	-0.000034
2006	1.9950e+02	0.0453	-10.647731	0.000303	3.028713	0.513078	-0.000030
2007	1.9960e+02	0.0360	-10.680725	0.000332	3.315213	0.561612	-0.000033
2008	1.9970e+02	0.0271	-10.710869	0.000303	3.028713	0.513078	-0.000030
2009	1.9980e+02	0.0153	-10.743049	0.000323	3.233356	0.547745	-0.000032
2010	1.9990e+02	0.0080	-10.776044	0.000332	3.315213	0.561612	-0.000033
2011	2.0000e+02	-0.0069	-10.807409	0.000332	3.315213	0.561612	-0.000032

PMax (uC/cm2):	2.41e+01
Pr (uC/cm2):	1.24e+00
-Pr (uC/cm2):	0.00e+00
PLoss (uC/cm2):	0.00e+00
C (Max-Eff) (nF):	2.41e-01
K (Eff):	4.08e+02
Vert. (+/-Pr) Shift (uC/cm2):	6.22e-01
Offset (uC/cm2):	1.21e+01

A (Loop Area - uC/cm2·Volts):	-1.25e-02



Hysteresis Version: 5.48.1 - Radiant Technologies, Inc., 1999 - 9/12/24

