»»»»»»»»»»»»»»»»»»»»»»»»»»»»»»»»»»»» Hysteresis ««««««««««««««««««««««««««««««««««««
»»»  Executed Version:	5.48.1
»»»  Vision Version:	5.48.4 (R)
»»»  Vision Compiled:	9/18/24
»»»  Driver Version:	5.47.0
»»»  Windows Version:	Windows 8 or 8.1
»»»  Processor Information:	x86 (AMD or Intel) - 32 Processors
»»»  Tester Name:	PMF21124-494 (100V)
»»»  Tester S/N:	PMF21124-494
»»»  Internal Amp Type:	100V RevK 270k
»»»  Internal Amp S/N:	iAB2-596/K     
»»»  Execution Count:	1
»»»»»»»»»»»»»»»»»»»»»»»»»»»»»»»»»»»»»»»»»»««««««««««««««««««««««««««««««««««««««««««

Stored:	6/26/2025 - 12:24:22
Configured:	06/26/25 10:24:47 AM
Executed:	06/26/25 12:23:51 PM

»»»»»»»»»»»»»»»»»»»»»»»»»»»»»»»»»»» Sample Info ««««««««««««««««««««««««««««««««««««
Sample Name:	
Lot Name:	
Wafer Name:	
Die Row/Column:	0/0
Capacitor Number:	0
Sample Area (cm2):	1.00e-04
Sample Thickness (microns):	1.50e-01

Amplifier:	Internal

»»»»»»»»»»»»»»»»»»»»»»»»»»»»»»»»»»» Tester Info «««««««««««««««««««««««««««««««««««
Tester Name:	PMF21124-494 (100V)
Tester Serial Number:	PMF21124-494
Return Signal Amp. Level:	1.9 [Index: 2]

»»»»»»»»»»»»»»»»»»»»»»»»»»»»»»»» Hysteresis Info ««««««««««««««««««««««««««««««««««
Task Name:	Hyst-562
Volts:	10.00
Field:	666.67 (kV/cm)
DCBias:	0.00
DCField:	0.00 (kV/cm)
Hysteresis Period (ms):	2.00e+02
Preset:	Enabled
Preset Delay (ms):	1.00e+03
Profile:	Standard Monopolar

»»»»»»»»»»»»»»»»»»»»»»»»»»»»»»»»»»»»»» Data «««««««««««««««««««««««««««««««««««««««
Points:	2011

Valid Data

Point	Time (ms)	Drive Voltage	Measured Polarization (uC/cm2)	Capacitance (uF)	Normalized Capacitance (uF/cm2)	Dielectric Constant	Instantaneous Current (mA)
   1	0.0000e+00	-0.0054	-16.455417	0.000397	3.971964	0.672869	0.000040
   2	9.9500e-02	0.0037	-16.415905	0.000397	3.971964	0.672869	0.000040
   3	1.9900e-01	0.0153	-16.377615	0.000385	3.849119	0.652058	0.000038
   4	2.9850e-01	0.0237	-16.331992	0.000459	4.586185	0.776921	0.000046
   5	3.9800e-01	0.0340	-16.296961	0.000352	3.521535	0.596564	0.000035
   6	4.9750e-01	0.0473	-16.251746	0.000455	4.545237	0.769984	0.000045
   7	5.9700e-01	0.0578	-16.211419	0.000405	4.053860	0.686742	0.000041
   8	6.9650e-01	0.0632	-16.171499	0.000401	4.012912	0.679806	0.000040
   9	7.9600e-01	0.0734	-16.133209	0.000385	3.849119	0.652058	0.000038
  10	8.9550e-01	0.0845	-16.092882	0.000405	4.053860	0.686742	0.000041
  11	9.9500e-01	0.0939	-16.050519	0.000426	4.258600	0.721426	0.000043
  12	1.0945e+00	0.1038	-16.011414	0.000393	3.931016	0.665932	0.000039
  13	1.1940e+00	0.1151	-15.974345	0.000373	3.726275	0.631248	0.000037
  14	1.2935e+00	0.1275	-15.935648	0.000389	3.890068	0.658995	0.000039
  15	1.3930e+00	0.1335	-15.896543	0.000393	3.931016	0.665932	0.000039
  16	1.4925e+00	0.1490	-15.859068	0.000377	3.767223	0.638185	0.000038
  17	1.5920e+00	0.1552	-15.819555	0.000397	3.971964	0.672869	0.000040
  18	1.6915e+00	0.1641	-15.775970	0.000438	4.381445	0.742237	0.000044
  19	1.7910e+00	0.1756	-15.738902	0.000373	3.726275	0.631248	0.000037
  20	1.8905e+00	0.1855	-15.701833	0.000373	3.726275	0.631248	0.000037
  21	1.9900e+00	0.1935	-15.658655	0.000434	4.340496	0.735300	0.000043
  22	2.0895e+00	0.2031	-15.620772	0.000381	3.808171	0.645122	0.000038
  23	2.1890e+00	0.2180	-15.578001	0.000430	4.299548	0.728363	0.000043
  24	2.2885e+00	0.2261	-15.536045	0.000422	4.217652	0.714490	0.000042
  25	2.3880e+00	0.2357	-15.496125	0.000401	4.012912	0.679806	0.000040
  26	2.4875e+00	0.2453	-15.455798	0.000405	4.053860	0.686742	0.000041
  27	2.5870e+00	0.2534	-15.415472	0.000405	4.053860	0.686742	0.000041
  28	2.6865e+00	0.2623	-15.375959	0.000397	3.971964	0.672869	0.000040
  29	2.7860e+00	0.2750	-15.337669	0.000385	3.849119	0.652058	0.000038
  30	2.8855e+00	0.2856	-15.297750	0.000401	4.012912	0.679806	0.000040
  31	2.9850e+00	0.2941	-15.253349	0.000446	4.463341	0.756110	0.000045
  32	3.0845e+00	0.3024	-15.215466	0.000381	3.808171	0.645122	0.000038
  33	3.1840e+00	0.3160	-15.174325	0.000414	4.135756	0.700616	0.000041
  34	3.2835e+00	0.3251	-15.136849	0.000377	3.767223	0.638185	0.000038
  35	3.3830e+00	0.3329	-15.097337	0.000397	3.971964	0.672869	0.000040
  36	3.4825e+00	0.3432	-15.053344	0.000442	4.422393	0.749174	0.000044
  37	3.5820e+00	0.3529	-15.017091	0.000364	3.644379	0.617375	0.000036
  38	3.6815e+00	0.3630	-14.975949	0.000414	4.135756	0.700616	0.000041
  39	3.7810e+00	0.3752	-14.938473	0.000377	3.767223	0.638185	0.000038
  40	3.8805e+00	0.3852	-14.898554	0.000401	4.012912	0.679806	0.000040
  41	3.9800e+00	0.3933	-14.859449	0.000393	3.931016	0.665932	0.000039
  42	4.0795e+00	0.4020	-14.819122	0.000405	4.053860	0.686742	0.000041
  43	4.1790e+00	0.4141	-14.781647	0.000377	3.767223	0.638185	0.000038
  44	4.2785e+00	0.4211	-14.743356	0.000385	3.849119	0.652058	0.000038
  45	4.3780e+00	0.4329	-14.707103	0.000364	3.644379	0.617375	0.000036
  46	4.4775e+00	0.4433	-14.668813	0.000385	3.849119	0.652058	0.000038
  47	4.5770e+00	0.4535	-14.628078	0.000409	4.094808	0.693679	0.000041
  48	4.6765e+00	0.4649	-14.593862	0.000344	3.439639	0.582691	0.000034
  49	4.7760e+00	0.4713	-14.555979	0.000381	3.808171	0.645122	0.000038
  50	4.8755e+00	0.4832	-14.516059	0.000401	4.012912	0.679806	0.000040
  51	4.9750e+00	0.4949	-14.486323	0.000299	2.989210	0.506386	0.000030
  52	5.0745e+00	0.5035	-14.443960	0.000426	4.258600	0.721426	0.000043
  53	5.1740e+00	0.5126	-14.406077	0.000381	3.808171	0.645122	0.000038
  54	5.2735e+00	0.5243	-14.369823	0.000364	3.644379	0.617375	0.000036
  55	5.3730e+00	0.5335	-14.333162	0.000369	3.685327	0.624311	0.000037
  56	5.4725e+00	0.5441	-14.291613	0.000418	4.176704	0.707553	0.000042
  57	5.5720e+00	0.5534	-14.260248	0.000315	3.153002	0.534133	0.000032
  58	5.6715e+00	0.5633	-14.220736	0.000397	3.971964	0.672869	0.000040
  59	5.7710e+00	0.5714	-14.185297	0.000356	3.562483	0.603501	0.000036
  60	5.8705e+00	0.5824	-14.141304	0.000442	4.422393	0.749174	0.000044
  61	5.9700e+00	0.5903	-14.105865	0.000356	3.562483	0.603501	0.000036
  62	6.0695e+00	0.6013	-14.070426	0.000356	3.562483	0.603501	0.000036
  63	6.1690e+00	0.6123	-14.032951	0.000377	3.767223	0.638185	0.000038
  64	6.2685e+00	0.6216	-13.997105	0.000360	3.603431	0.610438	0.000036
  65	6.3680e+00	0.6331	-13.958000	0.000393	3.931016	0.665932	0.000039
  66	6.4675e+00	0.6425	-13.918080	0.000401	4.012912	0.679806	0.000040
  67	6.5670e+00	0.6541	-13.885900	0.000323	3.234898	0.548007	0.000032
  68	6.6665e+00	0.6637	-13.848832	0.000373	3.726275	0.631248	0.000037
  69	6.7660e+00	0.6731	-13.807690	0.000414	4.135756	0.700616	0.000041
  70	6.8655e+00	0.6819	-13.777954	0.000299	2.989210	0.506386	0.000030
  71	6.9650e+00	0.6926	-13.732332	0.000459	4.586185	0.776921	0.000046
  72	7.0645e+00	0.7023	-13.699745	0.000328	3.275846	0.554943	0.000033
  73	7.1640e+00	0.7123	-13.660232	0.000397	3.971964	0.672869	0.000040
  74	7.2635e+00	0.7210	-13.628460	0.000319	3.193950	0.541070	0.000032
  75	7.3630e+00	0.7334	-13.591799	0.000369	3.685327	0.624311	0.000037
  76	7.4625e+00	0.7397	-13.554731	0.000373	3.726275	0.631248	0.000037
  77	7.5620e+00	0.7497	-13.519292	0.000356	3.562483	0.603501	0.000036
  78	7.6615e+00	0.7611	-13.486297	0.000332	3.316794	0.561880	0.000033
  79	7.7610e+00	0.7699	-13.450858	0.000356	3.562483	0.603501	0.000036
  80	7.8605e+00	0.7813	-13.415420	0.000356	3.562483	0.603501	0.000036
  81	7.9600e+00	0.7919	-13.380795	0.000348	3.480587	0.589627	0.000035
  82	8.0595e+00	0.8038	-13.348615	0.000323	3.234898	0.548007	0.000032
  83	8.1590e+00	0.8106	-13.310733	0.000381	3.808171	0.645122	0.000038
  84	8.2585e+00	0.8245	-13.277330	0.000336	3.357743	0.568817	0.000034
  85	8.3580e+00	0.8318	-13.241484	0.000360	3.603431	0.610438	0.000036
  86	8.4575e+00	0.8443	-13.201972	0.000397	3.971964	0.672869	0.000040
  87	8.5570e+00	0.8531	-13.168163	0.000340	3.398691	0.575754	0.000034
  88	8.6565e+00	0.8612	-13.134761	0.000336	3.357743	0.568817	0.000034
  89	8.7560e+00	0.8742	-13.101766	0.000332	3.316794	0.561880	0.000033
  90	8.8555e+00	0.8799	-13.065105	0.000369	3.685327	0.624311	0.000037
  91	8.9550e+00	0.8941	-13.032518	0.000328	3.275846	0.554943	0.000033
  92	9.0545e+00	0.9024	-12.997079	0.000356	3.562483	0.603501	0.000036
  93	9.1540e+00	0.9143	-12.958381	0.000389	3.890068	0.658995	0.000039
  94	9.2535e+00	0.9228	-12.925794	0.000328	3.275846	0.554943	0.000033
  95	9.3530e+00	0.9302	-12.889133	0.000369	3.685327	0.624311	0.000037
  96	9.4525e+00	0.9431	-12.855731	0.000336	3.357743	0.568817	0.000034
  97	9.5520e+00	0.9510	-12.816219	0.000397	3.971964	0.672869	0.000040
  98	9.6515e+00	0.9625	-12.783224	0.000332	3.316794	0.561880	0.000033
  99	9.7510e+00	0.9719	-12.746156	0.000373	3.726275	0.631248	0.000037
 100	9.8505e+00	0.9818	-12.705422	0.000409	4.094808	0.693679	0.000041
 101	9.9500e+00	0.9924	-12.672019	0.000336	3.357743	0.568817	0.000034
 102	1.0050e+01	1.0023	-12.638210	0.000340	3.398691	0.575754	0.000034
 103	1.0149e+01	1.0127	-12.601957	0.000364	3.644379	0.617375	0.000036
 104	1.0248e+01	1.0233	-12.567332	0.000348	3.480587	0.589627	0.000035
 105	1.0348e+01	1.0307	-12.530264	0.000373	3.726275	0.631248	0.000037
 106	1.0447e+01	1.0389	-12.491159	0.000393	3.931016	0.665932	0.000039
 107	1.0547e+01	1.0472	-12.460609	0.000307	3.071106	0.520259	0.000031
 108	1.0646e+01	1.0615	-12.425170	0.000356	3.562483	0.603501	0.000036
 109	1.0746e+01	1.0683	-12.390546	0.000348	3.480587	0.589627	0.000035
 110	1.0845e+01	1.0816	-12.354292	0.000364	3.644379	0.617375	0.000036
 111	1.0945e+01	1.0885	-12.314780	0.000397	3.971964	0.672869	0.000040
 112	1.1044e+01	1.1015	-12.279749	0.000352	3.521535	0.596564	0.000035
 113	1.1144e+01	1.1113	-12.246346	0.000336	3.357743	0.568817	0.000034
 114	1.1243e+01	1.1224	-12.209278	0.000373	3.726275	0.631248	0.000037
 115	1.1343e+01	1.1306	-12.174247	0.000352	3.521535	0.596564	0.000035
 116	1.1443e+01	1.1420	-12.137586	0.000369	3.685327	0.624311	0.000037
 117	1.1542e+01	1.1514	-12.102555	0.000352	3.521535	0.596564	0.000035
 118	1.1642e+01	1.1626	-12.068745	0.000340	3.398691	0.575754	0.000034
 119	1.1741e+01	1.1722	-12.039009	0.000299	2.989210	0.506386	0.000030
 120	1.1841e+01	1.1797	-12.000719	0.000385	3.849119	0.652058	0.000038
 121	1.1940e+01	1.1898	-11.960799	0.000401	4.012912	0.679806	0.000040
 122	1.2040e+01	1.2016	-11.927805	0.000332	3.316794	0.561880	0.000033
 123	1.2139e+01	1.2129	-11.893588	0.000344	3.439639	0.582691	0.000034
 124	1.2239e+01	1.2194	-11.856112	0.000377	3.767223	0.638185	0.000038
 125	1.2338e+01	1.2296	-11.815378	0.000409	4.094808	0.693679	0.000041
 126	1.2438e+01	1.2406	-11.782383	0.000332	3.316794	0.561880	0.000033
 127	1.2537e+01	1.2484	-11.745315	0.000373	3.726275	0.631248	0.000037
 128	1.2636e+01	1.2582	-11.710284	0.000352	3.521535	0.596564	0.000035
 129	1.2736e+01	1.2667	-11.671586	0.000389	3.890068	0.658995	0.000039
 130	1.2835e+01	1.2784	-11.634518	0.000373	3.726275	0.631248	0.000037
 131	1.2935e+01	1.2901	-11.597042	0.000377	3.767223	0.638185	0.000038
 132	1.3034e+01	1.2968	-11.564862	0.000323	3.234898	0.548007	0.000032
 133	1.3134e+01	1.3090	-11.522499	0.000426	4.258600	0.721426	0.000043
 134	1.3233e+01	1.3165	-11.488282	0.000344	3.439639	0.582691	0.000034
 135	1.3333e+01	1.3278	-11.447548	0.000409	4.094808	0.693679	0.000041
 136	1.3432e+01	1.3393	-11.409258	0.000385	3.849119	0.652058	0.000038
 137	1.3532e+01	1.3493	-11.374226	0.000352	3.521535	0.596564	0.000035
 138	1.3632e+01	1.3600	-11.337158	0.000373	3.726275	0.631248	0.000037
 139	1.3731e+01	1.3698	-11.301719	0.000356	3.562483	0.603501	0.000036
 140	1.3831e+01	1.3808	-11.262614	0.000393	3.931016	0.665932	0.000039
 141	1.3930e+01	1.3885	-11.223102	0.000397	3.971964	0.672869	0.000040
 142	1.4030e+01	1.3996	-11.188885	0.000344	3.439639	0.582691	0.000034
 143	1.4129e+01	1.4068	-11.150188	0.000389	3.890068	0.658995	0.000039
 144	1.4229e+01	1.4181	-11.110268	0.000401	4.012912	0.679806	0.000040
 145	1.4328e+01	1.4309	-11.071978	0.000385	3.849119	0.652058	0.000038
 146	1.4428e+01	1.4379	-11.035724	0.000364	3.644379	0.617375	0.000036
 147	1.4527e+01	1.4491	-11.001915	0.000340	3.398691	0.575754	0.000034
 148	1.4627e+01	1.4588	-10.961588	0.000405	4.053860	0.686742	0.000041
 149	1.4726e+01	1.4693	-10.925335	0.000364	3.644379	0.617375	0.000036
 150	1.4825e+01	1.4754	-10.887044	0.000385	3.849119	0.652058	0.000038
 151	1.4925e+01	1.4883	-10.851606	0.000356	3.562483	0.603501	0.000036
 152	1.5024e+01	1.4980	-10.810464	0.000414	4.135756	0.700616	0.000041
 153	1.5124e+01	1.5087	-10.775840	0.000348	3.480587	0.589627	0.000035
 154	1.5223e+01	1.5163	-10.738772	0.000373	3.726275	0.631248	0.000037
 155	1.5323e+01	1.5247	-10.700074	0.000389	3.890068	0.658995	0.000039
 156	1.5422e+01	1.5344	-10.663006	0.000373	3.726275	0.631248	0.000037
 157	1.5522e+01	1.5484	-10.623901	0.000393	3.931016	0.665932	0.000039
 158	1.5621e+01	1.5572	-10.586833	0.000373	3.726275	0.631248	0.000037
 159	1.5721e+01	1.5664	-10.546099	0.000409	4.094808	0.693679	0.000041
 160	1.5820e+01	1.5788	-10.510253	0.000360	3.603431	0.610438	0.000036
 161	1.5920e+01	1.5885	-10.468296	0.000422	4.217652	0.714490	0.000042
 162	1.6020e+01	1.5995	-10.430413	0.000381	3.808171	0.645122	0.000038
 163	1.6119e+01	1.6068	-10.392938	0.000377	3.767223	0.638185	0.000038
 164	1.6218e+01	1.6180	-10.353426	0.000397	3.971964	0.672869	0.000040
 165	1.6318e+01	1.6277	-10.313099	0.000405	4.053860	0.686742	0.000041
 166	1.6418e+01	1.6367	-10.272772	0.000405	4.053860	0.686742	0.000041
 167	1.6517e+01	1.6446	-10.235296	0.000377	3.767223	0.638185	0.000038
 168	1.6616e+01	1.6573	-10.198228	0.000373	3.726275	0.631248	0.000037
 169	1.6716e+01	1.6655	-10.162382	0.000360	3.603431	0.610438	0.000036
 170	1.6816e+01	1.6792	-10.123277	0.000393	3.931016	0.665932	0.000039
 171	1.6915e+01	1.6877	-10.082543	0.000409	4.094808	0.693679	0.000041
 172	1.7015e+01	1.6970	-10.043438	0.000393	3.931016	0.665932	0.000039
 173	1.7114e+01	1.7084	-10.004333	0.000393	3.931016	0.665932	0.000039
 174	1.7213e+01	1.7194	-9.967672	0.000369	3.685327	0.624311	0.000037
 175	1.7313e+01	1.7310	-9.925716	0.000422	4.217652	0.714490	0.000042
 176	1.7413e+01	1.7362	-9.888648	0.000373	3.726275	0.631248	0.000037
 177	1.7512e+01	1.7469	-9.851580	0.000373	3.726275	0.631248	0.000037
 178	1.7611e+01	1.7588	-9.810031	0.000418	4.176704	0.707553	0.000042
 179	1.7711e+01	1.7669	-9.774592	0.000356	3.562483	0.603501	0.000036
 180	1.7811e+01	1.7781	-9.735894	0.000389	3.890068	0.658995	0.000039
 181	1.7910e+01	1.7873	-9.702085	0.000340	3.398691	0.575754	0.000034
 182	1.8009e+01	1.7953	-9.667053	0.000352	3.521535	0.596564	0.000035
 183	1.8109e+01	1.8074	-9.625097	0.000422	4.217652	0.714490	0.000042
 184	1.8209e+01	1.8156	-9.594954	0.000303	3.030158	0.513323	0.000030
 185	1.8308e+01	1.8261	-9.554220	0.000409	4.094808	0.693679	0.000041
 186	1.8407e+01	1.8362	-9.518373	0.000360	3.603431	0.610438	0.000036
 187	1.8507e+01	1.8493	-9.480898	0.000377	3.767223	0.638185	0.000038
 188	1.8607e+01	1.8546	-9.441793	0.000393	3.931016	0.665932	0.000039
 189	1.8706e+01	1.8635	-9.405947	0.000360	3.603431	0.610438	0.000036
 190	1.8805e+01	1.8774	-9.365620	0.000405	4.053860	0.686742	0.000041
 191	1.8905e+01	1.8861	-9.327330	0.000385	3.849119	0.652058	0.000038
 192	1.9005e+01	1.8964	-9.288632	0.000389	3.890068	0.658995	0.000039
 193	1.9104e+01	1.9070	-9.250342	0.000385	3.849119	0.652058	0.000038
 194	1.9203e+01	1.9147	-9.212052	0.000385	3.849119	0.652058	0.000038
 195	1.9303e+01	1.9247	-9.178242	0.000340	3.398691	0.575754	0.000034
 196	1.9402e+01	1.9390	-9.138323	0.000401	4.012912	0.679806	0.000040
 197	1.9502e+01	1.9444	-9.108179	0.000303	3.030158	0.513323	0.000030
 198	1.9602e+01	1.9579	-9.065816	0.000426	4.258600	0.721426	0.000043
 199	1.9701e+01	1.9669	-9.028748	0.000373	3.726275	0.631248	0.000037
 200	1.9800e+01	1.9777	-8.991679	0.000373	3.726275	0.631248	0.000037
 201	1.9900e+01	1.9865	-8.953389	0.000385	3.849119	0.652058	0.000038
 202	2.0000e+01	1.9949	-8.917950	0.000356	3.562483	0.603501	0.000036
 203	2.0099e+01	2.0061	-8.877216	0.000409	4.094808	0.693679	0.000041
 204	2.0198e+01	2.0167	-8.843407	0.000340	3.398691	0.575754	0.000034
 205	2.0298e+01	2.0256	-8.806339	0.000373	3.726275	0.631248	0.000037
 206	2.0398e+01	2.0352	-8.769678	0.000369	3.685327	0.624311	0.000037
 207	2.0497e+01	2.0477	-8.733017	0.000369	3.685327	0.624311	0.000037
 208	2.0596e+01	2.0566	-8.699615	0.000336	3.357743	0.568817	0.000034
 209	2.0696e+01	2.0636	-8.664583	0.000352	3.521535	0.596564	0.000035
 210	2.0796e+01	2.0773	-8.626293	0.000385	3.849119	0.652058	0.000038
 211	2.0895e+01	2.0875	-8.589632	0.000369	3.685327	0.624311	0.000037
 212	2.0994e+01	2.0964	-8.556638	0.000332	3.316794	0.561880	0.000033
 213	2.1094e+01	2.1044	-8.519162	0.000377	3.767223	0.638185	0.000038
 214	2.1194e+01	2.1154	-8.489426	0.000299	2.989210	0.506386	0.000030
 215	2.1293e+01	2.1243	-8.450729	0.000389	3.890068	0.658995	0.000039
 216	2.1392e+01	2.1361	-8.418141	0.000328	3.275846	0.554943	0.000033
 217	2.1492e+01	2.1461	-8.385554	0.000328	3.275846	0.554943	0.000033
 218	2.1591e+01	2.1571	-8.351337	0.000344	3.439639	0.582691	0.000034
 219	2.1691e+01	2.1637	-8.319157	0.000323	3.234898	0.548007	0.000032
 220	2.1791e+01	2.1732	-8.284125	0.000352	3.521535	0.596564	0.000035
 221	2.1890e+01	2.1853	-8.249094	0.000352	3.521535	0.596564	0.000035
 222	2.1989e+01	2.1967	-8.214877	0.000344	3.439639	0.582691	0.000034
 223	2.2089e+01	2.2051	-8.173328	0.000418	4.176704	0.707553	0.000042
 224	2.2189e+01	2.2131	-8.145629	0.000278	2.784469	0.471702	0.000028
 225	2.2288e+01	2.2245	-8.110598	0.000352	3.521535	0.596564	0.000035
 226	2.2387e+01	2.2363	-8.075973	0.000348	3.480587	0.589627	0.000035
 227	2.2487e+01	2.2439	-8.040942	0.000352	3.521535	0.596564	0.000035
 228	2.2587e+01	2.2549	-8.007540	0.000336	3.357743	0.568817	0.000034
 229	2.2686e+01	2.2643	-7.975767	0.000319	3.193950	0.541070	0.000032
 230	2.2785e+01	2.2703	-7.941143	0.000348	3.480587	0.589627	0.000035
 231	2.2885e+01	2.2837	-7.905704	0.000356	3.562483	0.603501	0.000036
 232	2.2985e+01	2.2953	-7.876376	0.000295	2.948262	0.499449	0.000029
 233	2.3084e+01	2.3043	-7.840937	0.000356	3.562483	0.603501	0.000036
 234	2.3183e+01	2.3151	-7.804683	0.000364	3.644379	0.617375	0.000036
 235	2.3283e+01	2.3244	-7.772096	0.000328	3.275846	0.554943	0.000033
 236	2.3383e+01	2.3346	-7.735842	0.000364	3.644379	0.617375	0.000036
 237	2.3482e+01	2.3457	-7.704070	0.000319	3.193950	0.541070	0.000032
 238	2.3581e+01	2.3567	-7.671482	0.000328	3.275846	0.554943	0.000033
 239	2.3681e+01	2.3633	-7.636858	0.000348	3.480587	0.589627	0.000035
 240	2.3780e+01	2.3717	-7.604678	0.000323	3.234898	0.548007	0.000032
 241	2.3880e+01	2.3859	-7.572498	0.000323	3.234898	0.548007	0.000032
 242	2.3980e+01	2.3930	-7.538281	0.000344	3.439639	0.582691	0.000034
 243	2.4079e+01	2.4044	-7.509767	0.000287	2.866366	0.485575	0.000029
 244	2.4178e+01	2.4164	-7.476365	0.000336	3.357743	0.568817	0.000034
 245	2.4278e+01	2.4242	-7.442556	0.000340	3.398691	0.575754	0.000034
 246	2.4378e+01	2.4322	-7.412412	0.000303	3.030158	0.513323	0.000030
 247	2.4477e+01	2.4442	-7.383898	0.000287	2.866366	0.485575	0.000029
 248	2.4576e+01	2.4535	-7.350496	0.000336	3.357743	0.568817	0.000034
 249	2.4676e+01	2.4625	-7.319538	0.000311	3.112054	0.527196	0.000031
 250	2.4776e+01	2.4706	-7.290210	0.000295	2.948262	0.499449	0.000029
 251	2.4875e+01	2.4862	-7.258437	0.000319	3.193950	0.541070	0.000032
 252	2.4974e+01	2.4934	-7.224627	0.000340	3.398691	0.575754	0.000034
 253	2.5074e+01	2.5066	-7.189189	0.000356	3.562483	0.603501	0.000036
 254	2.5174e+01	2.5120	-7.164341	0.000250	2.497833	0.423144	0.000025
 255	2.5273e+01	2.5260	-7.130531	0.000340	3.398691	0.575754	0.000034
 256	2.5372e+01	2.5317	-7.096722	0.000340	3.398691	0.575754	0.000034
 257	2.5472e+01	2.5407	-7.066986	0.000299	2.989210	0.506386	0.000030
 258	2.5572e+01	2.5520	-7.036435	0.000307	3.071106	0.520259	0.000031
 259	2.5671e+01	2.5661	-7.006699	0.000299	2.989210	0.506386	0.000030
 260	2.5770e+01	2.5713	-6.978185	0.000287	2.866366	0.485575	0.000029
 261	2.5870e+01	2.5832	-6.942746	0.000356	3.562483	0.603501	0.000036
 262	2.5970e+01	2.5912	-6.912603	0.000303	3.030158	0.513323	0.000030
 263	2.6069e+01	2.6022	-6.879201	0.000336	3.357743	0.568817	0.000034
 264	2.6169e+01	2.6127	-6.848243	0.000311	3.112054	0.527196	0.000031
 265	2.6268e+01	2.6232	-6.813212	0.000352	3.521535	0.596564	0.000035
 266	2.6367e+01	2.6337	-6.779809	0.000336	3.357743	0.568817	0.000034
 267	2.6467e+01	2.6398	-6.752110	0.000278	2.784469	0.471702	0.000028
 268	2.6567e+01	2.6556	-6.716671	0.000356	3.562483	0.603501	0.000036
 269	2.6666e+01	2.6652	-6.684899	0.000319	3.193950	0.541070	0.000032
 270	2.6765e+01	2.6715	-6.652311	0.000328	3.275846	0.554943	0.000033
 271	2.6865e+01	2.6821	-6.617687	0.000348	3.480587	0.589627	0.000035
 272	2.6965e+01	2.6921	-6.589173	0.000287	2.866366	0.485575	0.000029
 273	2.7064e+01	2.7012	-6.556178	0.000332	3.316794	0.561880	0.000033
 274	2.7163e+01	2.7145	-6.529294	0.000270	2.702573	0.457828	0.000027
 275	2.7263e+01	2.7225	-6.493855	0.000356	3.562483	0.603501	0.000036
 276	2.7363e+01	2.7348	-6.460453	0.000336	3.357743	0.568817	0.000034
 277	2.7462e+01	2.7410	-6.434383	0.000262	2.620677	0.443955	0.000026
 278	2.7561e+01	2.7502	-6.400166	0.000344	3.439639	0.582691	0.000034
 279	2.7661e+01	2.7637	-6.366764	0.000336	3.357743	0.568817	0.000034
 280	2.7761e+01	2.7736	-6.332547	0.000344	3.439639	0.582691	0.000034
 281	2.7860e+01	2.7804	-6.302811	0.000299	2.989210	0.506386	0.000030
 282	2.7959e+01	2.7927	-6.273890	0.000291	2.907314	0.492512	0.000029
 283	2.8059e+01	2.8017	-6.243747	0.000303	3.030158	0.513323	0.000030
 284	2.8159e+01	2.8109	-6.211159	0.000328	3.275846	0.554943	0.000033
 285	2.8258e+01	2.8217	-6.178572	0.000328	3.275846	0.554943	0.000033
 286	2.8358e+01	2.8301	-6.146799	0.000319	3.193950	0.541070	0.000032
 287	2.8457e+01	2.8426	-6.117878	0.000291	2.907314	0.492512	0.000029
 288	2.8556e+01	2.8506	-6.086105	0.000319	3.193950	0.541070	0.000032
 289	2.8656e+01	2.8627	-6.052703	0.000336	3.357743	0.568817	0.000034
 290	2.8756e+01	2.8722	-6.020116	0.000328	3.275846	0.554943	0.000033
 291	2.8855e+01	2.8810	-5.987936	0.000323	3.234898	0.548007	0.000032
 292	2.8954e+01	2.8908	-5.957385	0.000307	3.071106	0.520259	0.000031
 293	2.9054e+01	2.9012	-5.921946	0.000356	3.562483	0.603501	0.000036
 294	2.9154e+01	2.9066	-5.888544	0.000336	3.357743	0.568817	0.000034
 295	2.9253e+01	2.9199	-5.855142	0.000336	3.357743	0.568817	0.000034
 296	2.9352e+01	2.9298	-5.823369	0.000319	3.193950	0.541070	0.000032
 297	2.9452e+01	2.9414	-5.789560	0.000340	3.398691	0.575754	0.000034
 298	2.9552e+01	2.9507	-5.758194	0.000315	3.153002	0.534133	0.000032
 299	2.9651e+01	2.9623	-5.725200	0.000332	3.316794	0.561880	0.000033
 300	2.9750e+01	2.9723	-5.690168	0.000352	3.521535	0.596564	0.000035
 301	2.9850e+01	2.9810	-5.655951	0.000344	3.439639	0.582691	0.000034
 302	2.9950e+01	2.9882	-5.622142	0.000340	3.398691	0.575754	0.000034
 303	3.0049e+01	3.0011	-5.590777	0.000315	3.153002	0.534133	0.000032
 304	3.0148e+01	3.0145	-5.555338	0.000356	3.562483	0.603501	0.000036
 305	3.0248e+01	3.0241	-5.521936	0.000336	3.357743	0.568817	0.000034
 306	3.0348e+01	3.0309	-5.487719	0.000344	3.439639	0.582691	0.000034
 307	3.0447e+01	3.0397	-5.454317	0.000336	3.357743	0.568817	0.000034
 308	3.0547e+01	3.0552	-5.420507	0.000340	3.398691	0.575754	0.000034
 309	3.0646e+01	3.0627	-5.387513	0.000332	3.316794	0.561880	0.000033
 310	3.0745e+01	3.0685	-5.354110	0.000336	3.357743	0.568817	0.000034
 311	3.0845e+01	3.0807	-5.321523	0.000328	3.275846	0.554943	0.000033
 312	3.0945e+01	3.0912	-5.288121	0.000336	3.357743	0.568817	0.000034
 313	3.1044e+01	3.1014	-5.254312	0.000340	3.398691	0.575754	0.000034
 314	3.1143e+01	3.1104	-5.219280	0.000352	3.521535	0.596564	0.000035
 315	3.1243e+01	3.1202	-5.188322	0.000311	3.112054	0.527196	0.000031
 316	3.1343e+01	3.1324	-5.150439	0.000381	3.808171	0.645122	0.000038
 317	3.1442e+01	3.1402	-5.122740	0.000278	2.784469	0.471702	0.000028
 318	3.1541e+01	3.1494	-5.086894	0.000360	3.603431	0.610438	0.000036
 319	3.1641e+01	3.1599	-5.052677	0.000344	3.439639	0.582691	0.000034
 320	3.1741e+01	3.1670	-5.020090	0.000328	3.275846	0.554943	0.000033
 321	3.1840e+01	3.1815	-4.988317	0.000319	3.193950	0.541070	0.000032
 322	3.1939e+01	3.1892	-4.956137	0.000323	3.234898	0.548007	0.000032
 323	3.2039e+01	3.2021	-4.922735	0.000336	3.357743	0.568817	0.000034
 324	3.2139e+01	3.2132	-4.885259	0.000377	3.767223	0.638185	0.000038
 325	3.2238e+01	3.2197	-4.853079	0.000323	3.234898	0.548007	0.000032
 326	3.2337e+01	3.2302	-4.816826	0.000364	3.644379	0.617375	0.000036
 327	3.2437e+01	3.2406	-4.786682	0.000303	3.030158	0.513323	0.000030
 328	3.2536e+01	3.2509	-4.747577	0.000393	3.931016	0.665932	0.000039
 329	3.2636e+01	3.2604	-4.714583	0.000332	3.316794	0.561880	0.000033
 330	3.2736e+01	3.2713	-4.676292	0.000385	3.849119	0.652058	0.000038
 331	3.2835e+01	3.2824	-4.641261	0.000352	3.521535	0.596564	0.000035
 332	3.2934e+01	3.2879	-4.607859	0.000336	3.357743	0.568817	0.000034
 333	3.3034e+01	3.2973	-4.571605	0.000364	3.644379	0.617375	0.000036
 334	3.3133e+01	3.3061	-4.535352	0.000364	3.644379	0.617375	0.000036
 335	3.3233e+01	3.3211	-4.501543	0.000340	3.398691	0.575754	0.000034
 336	3.3333e+01	3.3278	-4.466918	0.000348	3.480587	0.589627	0.000035
 337	3.3432e+01	3.3398	-4.440848	0.000262	2.620677	0.443955	0.000026
 338	3.3532e+01	3.3508	-4.399300	0.000418	4.176704	0.707553	0.000042
 339	3.3631e+01	3.3610	-4.361824	0.000377	3.767223	0.638185	0.000038
 340	3.3730e+01	3.3685	-4.328829	0.000332	3.316794	0.561880	0.000033
 341	3.3830e+01	3.3803	-4.293390	0.000356	3.562483	0.603501	0.000036
 342	3.3929e+01	3.3892	-4.259174	0.000344	3.439639	0.582691	0.000034
 343	3.4029e+01	3.4011	-4.223328	0.000360	3.603431	0.610438	0.000036
 344	3.4129e+01	3.4093	-4.190740	0.000328	3.275846	0.554943	0.000033
 345	3.4228e+01	3.4194	-4.160597	0.000303	3.030158	0.513323	0.000030
 346	3.4328e+01	3.4275	-4.125158	0.000356	3.562483	0.603501	0.000036
 347	3.4427e+01	3.4370	-4.091349	0.000340	3.398691	0.575754	0.000034
 348	3.4526e+01	3.4505	-4.059169	0.000323	3.234898	0.548007	0.000032
 349	3.4626e+01	3.4597	-4.024952	0.000344	3.439639	0.582691	0.000034
 350	3.4725e+01	3.4695	-3.989513	0.000356	3.562483	0.603501	0.000036
 351	3.4825e+01	3.4768	-3.958962	0.000307	3.071106	0.520259	0.000031
 352	3.4925e+01	3.4904	-3.926782	0.000323	3.234898	0.548007	0.000032
 353	3.5024e+01	3.4995	-3.895417	0.000315	3.153002	0.534133	0.000032
 354	3.5123e+01	3.5103	-3.862422	0.000332	3.316794	0.561880	0.000033
 355	3.5223e+01	3.5220	-3.824947	0.000377	3.767223	0.638185	0.000038
 356	3.5322e+01	3.5287	-3.795618	0.000295	2.948262	0.499449	0.000029
 357	3.5422e+01	3.5358	-3.759772	0.000360	3.603431	0.610438	0.000036
 358	3.5522e+01	3.5484	-3.725555	0.000344	3.439639	0.582691	0.000034
 359	3.5621e+01	3.5607	-3.687265	0.000385	3.849119	0.652058	0.000038
 360	3.5721e+01	3.5714	-3.656714	0.000307	3.071106	0.520259	0.000031
 361	3.5820e+01	3.5781	-3.626163	0.000307	3.071106	0.520259	0.000031
 362	3.5919e+01	3.5888	-3.588688	0.000377	3.767223	0.638185	0.000038
 363	3.6019e+01	3.5983	-3.557730	0.000311	3.112054	0.527196	0.000031
 364	3.6118e+01	3.6110	-3.524328	0.000336	3.357743	0.568817	0.000034
 365	3.6218e+01	3.6139	-3.492962	0.000315	3.153002	0.534133	0.000032
 366	3.6318e+01	3.6310	-3.458746	0.000344	3.439639	0.582691	0.000034
 367	3.6417e+01	3.6393	-3.424936	0.000340	3.398691	0.575754	0.000034
 368	3.6517e+01	3.6463	-3.394793	0.000303	3.030158	0.513323	0.000030
 369	3.6616e+01	3.6605	-3.354059	0.000409	4.094808	0.693679	0.000041
 370	3.6715e+01	3.6654	-3.325137	0.000291	2.907314	0.492512	0.000029
 371	3.6815e+01	3.6772	-3.290513	0.000348	3.480587	0.589627	0.000035
 372	3.6914e+01	3.6877	-3.257926	0.000328	3.275846	0.554943	0.000033
 373	3.7014e+01	3.6977	-3.224931	0.000332	3.316794	0.561880	0.000033
 374	3.7114e+01	3.7084	-3.193973	0.000311	3.112054	0.527196	0.000031
 375	3.7213e+01	3.7199	-3.160978	0.000332	3.316794	0.561880	0.000033
 376	3.7313e+01	3.7263	-3.130020	0.000311	3.112054	0.527196	0.000031
 377	3.7412e+01	3.7350	-3.094581	0.000356	3.562483	0.603501	0.000036
 378	3.7511e+01	3.7473	-3.065253	0.000295	2.948262	0.499449	0.000029
 379	3.7611e+01	3.7577	-3.034295	0.000311	3.112054	0.527196	0.000031
 380	3.7711e+01	3.7704	-3.004151	0.000303	3.030158	0.513323	0.000030
 381	3.7810e+01	3.7794	-2.974008	0.000303	3.030158	0.513323	0.000030
 382	3.7910e+01	3.7868	-2.945494	0.000287	2.866366	0.485575	0.000029
 383	3.8009e+01	3.7952	-2.916980	0.000287	2.866366	0.485575	0.000029
 384	3.8108e+01	3.8080	-2.883985	0.000332	3.316794	0.561880	0.000033
 385	3.8208e+01	3.8187	-2.854657	0.000295	2.948262	0.499449	0.000029
 386	3.8307e+01	3.8238	-2.823699	0.000311	3.112054	0.527196	0.000031
 387	3.8407e+01	3.8372	-2.793963	0.000299	2.989210	0.506386	0.000030
 388	3.8507e+01	3.8437	-2.762190	0.000319	3.193950	0.541070	0.000032
 389	3.8606e+01	3.8564	-2.730824	0.000315	3.153002	0.534133	0.000032
 390	3.8706e+01	3.8670	-2.700681	0.000303	3.030158	0.513323	0.000030
 391	3.8805e+01	3.8758	-2.674204	0.000266	2.661625	0.450892	0.000027
 392	3.8904e+01	3.8832	-2.643246	0.000311	3.112054	0.527196	0.000031
 393	3.9004e+01	3.8947	-2.612288	0.000311	3.112054	0.527196	0.000031
 394	3.9103e+01	3.9082	-2.582144	0.000303	3.030158	0.513323	0.000030
 395	3.9203e+01	3.9188	-2.552408	0.000299	2.989210	0.506386	0.000030
 396	3.9303e+01	3.9238	-2.523080	0.000295	2.948262	0.499449	0.000029
 397	3.9402e+01	3.9367	-2.491307	0.000319	3.193950	0.541070	0.000032
 398	3.9502e+01	3.9452	-2.463200	0.000283	2.825418	0.478639	0.000028
 399	3.9601e+01	3.9582	-2.432242	0.000311	3.112054	0.527196	0.000031
 400	3.9700e+01	3.9663	-2.404950	0.000274	2.743521	0.464765	0.000027
 401	3.9800e+01	3.9745	-2.373585	0.000315	3.153002	0.534133	0.000032
 402	3.9900e+01	3.9863	-2.339368	0.000344	3.439639	0.582691	0.000034
 403	3.9999e+01	3.9972	-2.312076	0.000274	2.743521	0.464765	0.000027
 404	4.0099e+01	4.0052	-2.280711	0.000315	3.153002	0.534133	0.000032
 405	4.0198e+01	4.0142	-2.251790	0.000291	2.907314	0.492512	0.000029
 406	4.0297e+01	4.0275	-2.225720	0.000262	2.620677	0.443955	0.000026
 407	4.0397e+01	4.0369	-2.193947	0.000319	3.193950	0.541070	0.000032
 408	4.0496e+01	4.0481	-2.164211	0.000299	2.989210	0.506386	0.000030
 409	4.0596e+01	4.0549	-2.136104	0.000283	2.825418	0.478639	0.000028
 410	4.0696e+01	4.0659	-2.108405	0.000278	2.784469	0.471702	0.000028
 411	4.0795e+01	4.0755	-2.079076	0.000295	2.948262	0.499449	0.000029
 412	4.0895e+01	4.0836	-2.051784	0.000274	2.743521	0.464765	0.000027
 413	4.0994e+01	4.0926	-2.023678	0.000283	2.825418	0.478639	0.000028
 414	4.1093e+01	4.1064	-1.999237	0.000246	2.456885	0.416208	0.000025
 415	4.1193e+01	4.1148	-1.969501	0.000299	2.989210	0.506386	0.000030
 416	4.1292e+01	4.1238	-1.941802	0.000278	2.784469	0.471702	0.000028
 417	4.1392e+01	4.1349	-1.915325	0.000266	2.661625	0.450892	0.000027
 418	4.1492e+01	4.1448	-1.886403	0.000291	2.907314	0.492512	0.000029
 419	4.1591e+01	4.1572	-1.862370	0.000242	2.415937	0.409271	0.000024
 420	4.1691e+01	4.1619	-1.830190	0.000323	3.234898	0.548007	0.000032
 421	4.1790e+01	4.1733	-1.803713	0.000266	2.661625	0.450892	0.000027
 422	4.1889e+01	4.1879	-1.776014	0.000278	2.784469	0.471702	0.000028
 423	4.1989e+01	4.1956	-1.749536	0.000266	2.661625	0.450892	0.000027
 424	4.2089e+01	4.2045	-1.721022	0.000287	2.866366	0.485575	0.000029
 425	4.2188e+01	4.2165	-1.692508	0.000287	2.866366	0.485575	0.000029
 426	4.2288e+01	4.2236	-1.665624	0.000270	2.702573	0.457828	0.000027
 427	4.2387e+01	4.2358	-1.639146	0.000266	2.661625	0.450892	0.000027
 428	4.2486e+01	4.2439	-1.611447	0.000278	2.784469	0.471702	0.000028
 429	4.2586e+01	4.2531	-1.582526	0.000291	2.907314	0.492512	0.000029
 430	4.2685e+01	4.2629	-1.554827	0.000278	2.784469	0.471702	0.000028
 431	4.2785e+01	4.2728	-1.524683	0.000303	3.030158	0.513323	0.000030
 432	4.2885e+01	4.2857	-1.495355	0.000295	2.948262	0.499449	0.000029
 433	4.2984e+01	4.2939	-1.467655	0.000278	2.784469	0.471702	0.000028
 434	4.3084e+01	4.3044	-1.440771	0.000270	2.702573	0.457828	0.000027
 435	4.3183e+01	4.3153	-1.413886	0.000270	2.702573	0.457828	0.000027
 436	4.3282e+01	4.3291	-1.384150	0.000299	2.989210	0.506386	0.000030
 437	4.3382e+01	4.3340	-1.358080	0.000262	2.620677	0.443955	0.000026
 438	4.3481e+01	4.3443	-1.323863	0.000344	3.439639	0.582691	0.000034
 439	4.3581e+01	4.3528	-1.297793	0.000262	2.620677	0.443955	0.000026
 440	4.3681e+01	4.3641	-1.269279	0.000287	2.866366	0.485575	0.000029
 441	4.3780e+01	4.3745	-1.239136	0.000303	3.030158	0.513323	0.000030
 442	4.3880e+01	4.3835	-1.216325	0.000229	2.293092	0.388460	0.000023
 443	4.3979e+01	4.3932	-1.186589	0.000299	2.989210	0.506386	0.000030
 444	4.4078e+01	4.4086	-1.160926	0.000258	2.579729	0.437018	0.000026
 445	4.4178e+01	4.4149	-1.131190	0.000299	2.989210	0.506386	0.000030
 446	4.4278e+01	4.4265	-1.101047	0.000303	3.030158	0.513323	0.000030
 447	4.4377e+01	4.4336	-1.076606	0.000246	2.456885	0.416208	0.000025
 448	4.4477e+01	4.4457	-1.048907	0.000278	2.784469	0.471702	0.000028
 449	4.4576e+01	4.4534	-1.019171	0.000299	2.989210	0.506386	0.000030
 450	4.4675e+01	4.4646	-0.993916	0.000254	2.538781	0.430081	0.000025
 451	4.4775e+01	4.4736	-0.962958	0.000311	3.112054	0.527196	0.000031
 452	4.4874e+01	4.4813	-0.940554	0.000225	2.252144	0.381524	0.000023
 453	4.4974e+01	4.4946	-0.907967	0.000328	3.275846	0.554943	0.000033
 454	4.5074e+01	4.5045	-0.881489	0.000266	2.661625	0.450892	0.000027
 455	4.5173e+01	4.5168	-0.855012	0.000266	2.661625	0.450892	0.000027
 456	4.5273e+01	4.5238	-0.822425	0.000328	3.275846	0.554943	0.000033
 457	4.5372e+01	4.5347	-0.795540	0.000270	2.702573	0.457828	0.000027
 458	4.5471e+01	4.5470	-0.769877	0.000258	2.579729	0.437018	0.000026
 459	4.5571e+01	4.5516	-0.738512	0.000315	3.153002	0.534133	0.000032
 460	4.5670e+01	4.5631	-0.710405	0.000283	2.825418	0.478639	0.000028
 461	4.5770e+01	4.5737	-0.683928	0.000266	2.661625	0.450892	0.000027
 462	4.5870e+01	4.5840	-0.652970	0.000311	3.112054	0.527196	0.000031
 463	4.5969e+01	4.5959	-0.621197	0.000319	3.193950	0.541070	0.000032
 464	4.6069e+01	4.5992	-0.595942	0.000254	2.538781	0.430081	0.000025
 465	4.6168e+01	4.6148	-0.564169	0.000319	3.193950	0.541070	0.000032
 466	4.6267e+01	4.6239	-0.534841	0.000295	2.948262	0.499449	0.000029
 467	4.6367e+01	4.6331	-0.502661	0.000323	3.234898	0.548007	0.000032
 468	4.6467e+01	4.6436	-0.475369	0.000274	2.743521	0.464765	0.000027
 469	4.6566e+01	4.6535	-0.441559	0.000340	3.398691	0.575754	0.000034
 470	4.6666e+01	4.6631	-0.413045	0.000287	2.866366	0.485575	0.000029
 471	4.6765e+01	4.6712	-0.384939	0.000283	2.825418	0.478639	0.000028
 472	4.6864e+01	4.6825	-0.355203	0.000299	2.989210	0.506386	0.000030
 473	4.6964e+01	4.6930	-0.324245	0.000311	3.112054	0.527196	0.000031
 474	4.7063e+01	4.7044	-0.296545	0.000278	2.784469	0.471702	0.000028
 475	4.7163e+01	4.7118	-0.263551	0.000332	3.316794	0.561880	0.000033
 476	4.7263e+01	4.7215	-0.237073	0.000266	2.661625	0.450892	0.000027
 477	4.7362e+01	4.7334	-0.205708	0.000315	3.153002	0.534133	0.000032
 478	4.7462e+01	4.7430	-0.175565	0.000303	3.030158	0.513323	0.000030
 479	4.7561e+01	4.7524	-0.146236	0.000295	2.948262	0.499449	0.000029
 480	4.7660e+01	4.7627	-0.115685	0.000307	3.071106	0.520259	0.000031
 481	4.7760e+01	4.7726	-0.085135	0.000307	3.071106	0.520259	0.000031
 482	4.7859e+01	4.7826	-0.057435	0.000278	2.784469	0.471702	0.000028
 483	4.7959e+01	4.7913	-0.027292	0.000303	3.030158	0.513323	0.000030
 484	4.8059e+01	4.8045	0.004481	0.000319	3.193950	0.541070	0.000032
 485	4.8158e+01	4.8145	0.035031	0.000307	3.071106	0.520259	0.000031
 486	4.8258e+01	4.8200	0.062731	0.000278	2.784469	0.471702	0.000028
 487	4.8357e+01	4.8336	0.090837	0.000283	2.825418	0.478639	0.000028
 488	4.8456e+01	4.8423	0.121388	0.000307	3.071106	0.520259	0.000031
 489	4.8556e+01	4.8537	0.149902	0.000287	2.866366	0.485575	0.000029
 490	4.8656e+01	4.8623	0.182082	0.000323	3.234898	0.548007	0.000032
 491	4.8755e+01	4.8716	0.214262	0.000323	3.234898	0.548007	0.000032
 492	4.8855e+01	4.8824	0.244406	0.000303	3.030158	0.513323	0.000030
 493	4.8954e+01	4.8895	0.270883	0.000266	2.661625	0.450892	0.000027
 494	4.9053e+01	4.9046	0.306729	0.000360	3.603431	0.610438	0.000036
 495	4.9153e+01	4.9128	0.334428	0.000278	2.784469	0.471702	0.000028
 496	4.9252e+01	4.9221	0.370682	0.000364	3.644379	0.617375	0.000036
 497	4.9352e+01	4.9305	0.399196	0.000287	2.866366	0.485575	0.000029
 498	4.9452e+01	4.9420	0.431783	0.000328	3.275846	0.554943	0.000033
 499	4.9551e+01	4.9535	0.463556	0.000319	3.193950	0.541070	0.000032
 500	4.9651e+01	4.9612	0.496143	0.000328	3.275846	0.554943	0.000033
 501	4.9750e+01	4.9693	0.523843	0.000278	2.784469	0.471702	0.000028
 502	4.9849e+01	4.9822	0.557652	0.000340	3.398691	0.575754	0.000034
 503	4.9949e+01	4.9908	0.587795	0.000303	3.030158	0.513323	0.000030
 504	5.0048e+01	5.0011	0.617124	0.000295	2.948262	0.499449	0.000029
 505	5.0148e+01	5.0098	0.645638	0.000287	2.866366	0.485575	0.000029
 506	5.0248e+01	5.0222	0.682299	0.000369	3.685327	0.624311	0.000037
 507	5.0347e+01	5.0336	0.711627	0.000295	2.948262	0.499449	0.000029
 508	5.0447e+01	5.0396	0.745030	0.000336	3.357743	0.568817	0.000034
 509	5.0546e+01	5.0524	0.773951	0.000291	2.907314	0.492512	0.000029
 510	5.0645e+01	5.0591	0.805724	0.000319	3.193950	0.541070	0.000032
 511	5.0745e+01	5.0713	0.839940	0.000344	3.439639	0.582691	0.000034
 512	5.0844e+01	5.0817	0.868454	0.000287	2.866366	0.485575	0.000029
 513	5.0944e+01	5.0903	0.896968	0.000287	2.866366	0.485575	0.000029
 514	5.1044e+01	5.1014	0.931185	0.000344	3.439639	0.582691	0.000034
 515	5.1143e+01	5.1105	0.959292	0.000283	2.825418	0.478639	0.000028
 516	5.1242e+01	5.1199	0.988620	0.000295	2.948262	0.499449	0.000029
 517	5.1342e+01	5.1279	1.014690	0.000262	2.620677	0.443955	0.000026
 518	5.1441e+01	5.1395	1.046870	0.000323	3.234898	0.548007	0.000032
 519	5.1541e+01	5.1496	1.071718	0.000250	2.497833	0.423144	0.000025
 520	5.1641e+01	5.1601	1.103491	0.000319	3.193950	0.541070	0.000032
 521	5.1740e+01	5.1684	1.136078	0.000328	3.275846	0.554943	0.000033
 522	5.1840e+01	5.1781	1.163370	0.000274	2.743521	0.464765	0.000027
 523	5.1939e+01	5.1885	1.192292	0.000291	2.907314	0.492512	0.000029
 524	5.2038e+01	5.2021	1.226101	0.000340	3.398691	0.575754	0.000034
 525	5.2138e+01	5.2117	1.257466	0.000315	3.153002	0.534133	0.000032
 526	5.2237e+01	5.2218	1.286795	0.000295	2.948262	0.499449	0.000029
 527	5.2337e+01	5.2279	1.318975	0.000323	3.234898	0.548007	0.000032
 528	5.2437e+01	5.2398	1.351155	0.000323	3.234898	0.548007	0.000032
 529	5.2536e+01	5.2528	1.378447	0.000274	2.743521	0.464765	0.000027
 530	5.2636e+01	5.2592	1.405332	0.000270	2.702573	0.457828	0.000027
 531	5.2735e+01	5.2704	1.435882	0.000307	3.071106	0.520259	0.000031
 532	5.2834e+01	5.2775	1.466433	0.000307	3.071106	0.520259	0.000031
 533	5.2934e+01	5.2883	1.499835	0.000336	3.357743	0.568817	0.000034
 534	5.3033e+01	5.3002	1.529164	0.000295	2.948262	0.499449	0.000029
 535	5.3133e+01	5.3126	1.556863	0.000278	2.784469	0.471702	0.000028
 536	5.3233e+01	5.3179	1.588636	0.000319	3.193950	0.541070	0.000032
 537	5.3332e+01	5.3307	1.620816	0.000323	3.234898	0.548007	0.000032
 538	5.3431e+01	5.3374	1.651367	0.000307	3.071106	0.520259	0.000031
 539	5.3531e+01	5.3488	1.678659	0.000274	2.743521	0.464765	0.000027
 540	5.3630e+01	5.3601	1.706765	0.000283	2.825418	0.478639	0.000028
 541	5.3730e+01	5.3693	1.738131	0.000315	3.153002	0.534133	0.000032
 542	5.3830e+01	5.3794	1.764201	0.000262	2.620677	0.443955	0.000026
 543	5.3929e+01	5.3876	1.792715	0.000287	2.866366	0.485575	0.000029
 544	5.4029e+01	5.4001	1.824080	0.000315	3.153002	0.534133	0.000032
 545	5.4128e+01	5.4090	1.852187	0.000283	2.825418	0.478639	0.000028
 546	5.4227e+01	5.4189	1.881515	0.000295	2.948262	0.499449	0.000029
 547	5.4327e+01	5.4308	1.907993	0.000266	2.661625	0.450892	0.000027
 548	5.4426e+01	5.4379	1.936099	0.000283	2.825418	0.478639	0.000028
 549	5.4526e+01	5.4505	1.962169	0.000262	2.620677	0.443955	0.000026
 550	5.4626e+01	5.4594	1.985388	0.000233	2.334041	0.395397	0.000023
 551	5.4725e+01	5.4684	2.019197	0.000340	3.398691	0.575754	0.000034
 552	5.4825e+01	5.4781	2.042823	0.000237	2.374989	0.402334	0.000024
 553	5.4924e+01	5.4884	2.070115	0.000274	2.743521	0.464765	0.000027
 554	5.5023e+01	5.5006	2.100258	0.000303	3.030158	0.513323	0.000030
 555	5.5123e+01	5.5074	2.123069	0.000229	2.293092	0.388460	0.000023
 556	5.5222e+01	5.5199	2.154027	0.000311	3.112054	0.527196	0.000031
 557	5.5322e+01	5.5301	2.181727	0.000278	2.784469	0.471702	0.000028
 558	5.5422e+01	5.5392	2.208611	0.000270	2.702573	0.457828	0.000027
 559	5.5521e+01	5.5504	2.237533	0.000291	2.907314	0.492512	0.000029
 560	5.5620e+01	5.5567	2.262381	0.000250	2.497833	0.423144	0.000025
 561	5.5720e+01	5.5693	2.290895	0.000287	2.866366	0.485575	0.000029
 562	5.5819e+01	5.5778	2.313298	0.000225	2.252144	0.381524	0.000023
 563	5.5919e+01	5.5877	2.339776	0.000266	2.661625	0.450892	0.000027
 564	5.6019e+01	5.5980	2.369512	0.000299	2.989210	0.506386	0.000030
 565	5.6118e+01	5.6099	2.393137	0.000237	2.374989	0.402334	0.000024
 566	5.6218e+01	5.6175	2.421651	0.000287	2.866366	0.485575	0.000029
 567	5.6317e+01	5.6281	2.448129	0.000266	2.661625	0.450892	0.000027
 568	5.6416e+01	5.6371	2.473384	0.000254	2.538781	0.430081	0.000025
 569	5.6516e+01	5.6496	2.505564	0.000323	3.234898	0.548007	0.000032
 570	5.6615e+01	5.6600	2.529597	0.000242	2.415937	0.409271	0.000024
 571	5.6715e+01	5.6663	2.558111	0.000287	2.866366	0.485575	0.000029
 572	5.6815e+01	5.6802	2.587033	0.000291	2.907314	0.492512	0.000029
 573	5.6914e+01	5.6863	2.611880	0.000250	2.497833	0.423144	0.000025
 574	5.7014e+01	5.6994	2.639172	0.000274	2.743521	0.464765	0.000027
 575	5.7113e+01	5.7049	2.664428	0.000254	2.538781	0.430081	0.000025
 576	5.7212e+01	5.7178	2.692534	0.000283	2.825418	0.478639	0.000028
 577	5.7312e+01	5.7269	2.715345	0.000229	2.293092	0.388460	0.000023
 578	5.7411e+01	5.7364	2.741823	0.000266	2.661625	0.450892	0.000027
 579	5.7511e+01	5.7487	2.764634	0.000229	2.293092	0.388460	0.000023
 580	5.7611e+01	5.7560	2.787038	0.000225	2.252144	0.381524	0.000023
 581	5.7710e+01	5.7670	2.813515	0.000266	2.661625	0.450892	0.000027
 582	5.7809e+01	5.7787	2.839992	0.000266	2.661625	0.450892	0.000027
 583	5.7909e+01	5.7873	2.863618	0.000237	2.374989	0.402334	0.000024
 584	5.8008e+01	5.7951	2.887244	0.000237	2.374989	0.402334	0.000024
 585	5.8108e+01	5.8062	2.912499	0.000254	2.538781	0.430081	0.000025
 586	5.8208e+01	5.8120	2.940199	0.000278	2.784469	0.471702	0.000028
 587	5.8307e+01	5.8265	2.965046	0.000250	2.497833	0.423144	0.000025
 588	5.8407e+01	5.8376	2.986636	0.000217	2.170248	0.367650	0.000022
 589	5.8506e+01	5.8468	3.014335	0.000278	2.784469	0.471702	0.000028
 590	5.8605e+01	5.8558	3.038775	0.000246	2.456885	0.416208	0.000025
 591	5.8705e+01	5.8668	3.062809	0.000242	2.415937	0.409271	0.000024
 592	5.8804e+01	5.8778	3.086435	0.000237	2.374989	0.402334	0.000024
 593	5.8904e+01	5.8871	3.112097	0.000258	2.579729	0.437018	0.000026
 594	5.9004e+01	5.8971	3.138982	0.000270	2.702573	0.457828	0.000027
 595	5.9103e+01	5.9060	3.159756	0.000209	2.088352	0.353776	0.000021
 596	5.9203e+01	5.9174	3.181753	0.000221	2.211196	0.374587	0.000022
 597	5.9302e+01	5.9267	3.208637	0.000270	2.702573	0.457828	0.000027
 598	5.9401e+01	5.9400	3.236744	0.000283	2.825418	0.478639	0.000028
 599	5.9501e+01	5.9474	3.263221	0.000266	2.661625	0.450892	0.000027
 600	5.9600e+01	5.9566	3.288069	0.000250	2.497833	0.423144	0.000025
 601	5.9700e+01	5.9669	3.314954	0.000270	2.702573	0.457828	0.000027
 602	5.9800e+01	5.9757	3.342246	0.000274	2.743521	0.464765	0.000027
 603	5.9899e+01	5.9875	3.371167	0.000291	2.907314	0.492512	0.000029
 604	5.9998e+01	5.9933	3.394793	0.000237	2.374989	0.402334	0.000024
 605	6.0098e+01	6.0072	3.419233	0.000246	2.456885	0.416208	0.000025
 606	6.0197e+01	6.0161	3.448155	0.000291	2.907314	0.492512	0.000029
 607	6.0297e+01	6.0259	3.472188	0.000242	2.415937	0.409271	0.000024
 608	6.0397e+01	6.0365	3.496221	0.000242	2.415937	0.409271	0.000024
 609	6.0496e+01	6.0458	3.521884	0.000258	2.579729	0.437018	0.000026
 610	6.0596e+01	6.0567	3.543473	0.000217	2.170248	0.367650	0.000022
 611	6.0695e+01	6.0641	3.570357	0.000270	2.702573	0.457828	0.000027
 612	6.0794e+01	6.0763	3.596020	0.000258	2.579729	0.437018	0.000026
 613	6.0894e+01	6.0857	3.622497	0.000266	2.661625	0.450892	0.000027
 614	6.0993e+01	6.0954	3.644901	0.000225	2.252144	0.381524	0.000023
 615	6.1093e+01	6.1044	3.672193	0.000274	2.743521	0.464765	0.000027
 616	6.1193e+01	6.1141	3.696634	0.000246	2.456885	0.416208	0.000025
 617	6.1292e+01	6.1269	3.725555	0.000291	2.907314	0.492512	0.000029
 618	6.1392e+01	6.1369	3.745922	0.000205	2.047404	0.346840	0.000020
 619	6.1491e+01	6.1445	3.774029	0.000283	2.825418	0.478639	0.000028
 620	6.1590e+01	6.1556	3.796840	0.000229	2.293092	0.388460	0.000023
 621	6.1690e+01	6.1640	3.823725	0.000270	2.702573	0.457828	0.000027
 622	6.1789e+01	6.1744	3.848165	0.000246	2.456885	0.416208	0.000025
 623	6.1889e+01	6.1890	3.876272	0.000283	2.825418	0.478639	0.000028
 624	6.1989e+01	6.1947	3.900305	0.000242	2.415937	0.409271	0.000024
 625	6.2088e+01	6.2041	3.925968	0.000258	2.579729	0.437018	0.000026
 626	6.2188e+01	6.2158	3.951630	0.000258	2.579729	0.437018	0.000026
 627	6.2287e+01	6.2246	3.979329	0.000278	2.784469	0.471702	0.000028
 628	6.2386e+01	6.2345	4.004992	0.000258	2.579729	0.437018	0.000026
 629	6.2486e+01	6.2449	4.032691	0.000278	2.784469	0.471702	0.000028
 630	6.2586e+01	6.2557	4.063242	0.000307	3.071106	0.520259	0.000031
 631	6.2685e+01	6.2673	4.090127	0.000270	2.702573	0.457828	0.000027
 632	6.2785e+01	6.2739	4.117419	0.000274	2.743521	0.464765	0.000027
 633	6.2884e+01	6.2829	4.142674	0.000254	2.538781	0.430081	0.000025
 634	6.2983e+01	6.2940	4.167929	0.000254	2.538781	0.430081	0.000025
 635	6.3083e+01	6.3033	4.195221	0.000274	2.743521	0.464765	0.000027
 636	6.3182e+01	6.3134	4.221291	0.000262	2.620677	0.443955	0.000026
 637	6.3282e+01	6.3270	4.247361	0.000262	2.620677	0.443955	0.000026
 638	6.3382e+01	6.3351	4.277911	0.000307	3.071106	0.520259	0.000031
 639	6.3481e+01	6.3450	4.308055	0.000303	3.030158	0.513323	0.000030
 640	6.3581e+01	6.3550	4.336569	0.000287	2.866366	0.485575	0.000029
 641	6.3680e+01	6.3644	4.359380	0.000229	2.293092	0.388460	0.000023
 642	6.3779e+01	6.3744	4.390745	0.000315	3.153002	0.534133	0.000032
 643	6.3879e+01	6.3839	4.414779	0.000242	2.415937	0.409271	0.000024
 644	6.3978e+01	6.3932	4.444922	0.000303	3.030158	0.513323	0.000030
 645	6.4078e+01	6.4019	4.472214	0.000274	2.743521	0.464765	0.000027
 646	6.4177e+01	6.4117	4.500321	0.000283	2.825418	0.478639	0.000028
 647	6.4277e+01	6.4236	4.527205	0.000270	2.702573	0.457828	0.000027
 648	6.4376e+01	6.4339	4.556941	0.000299	2.989210	0.506386	0.000030
 649	6.4476e+01	6.4431	4.583011	0.000262	2.620677	0.443955	0.000026
 650	6.4576e+01	6.4553	4.609488	0.000266	2.661625	0.450892	0.000027
 651	6.4675e+01	6.4632	4.641668	0.000323	3.234898	0.548007	0.000032
 652	6.4775e+01	6.4719	4.668960	0.000274	2.743521	0.464765	0.000027
 653	6.4874e+01	6.4837	4.696252	0.000274	2.743521	0.464765	0.000027
 654	6.4974e+01	6.4909	4.724359	0.000283	2.825418	0.478639	0.000028
 655	6.5073e+01	6.5054	4.749207	0.000250	2.497833	0.423144	0.000025
 656	6.5172e+01	6.5099	4.777313	0.000283	2.825418	0.478639	0.000028
 657	6.5272e+01	6.5211	4.804198	0.000270	2.702573	0.457828	0.000027
 658	6.5371e+01	6.5337	4.834341	0.000303	3.030158	0.513323	0.000030
 659	6.5471e+01	6.5438	4.861226	0.000270	2.702573	0.457828	0.000027
 660	6.5570e+01	6.5530	4.890555	0.000295	2.948262	0.499449	0.000029
 661	6.5670e+01	6.5628	4.918661	0.000283	2.825418	0.478639	0.000028
 662	6.5769e+01	6.5733	4.951249	0.000328	3.275846	0.554943	0.000033
 663	6.5869e+01	6.5823	4.983021	0.000319	3.193950	0.541070	0.000032
 664	6.5969e+01	6.5923	5.013572	0.000307	3.071106	0.520259	0.000031
 665	6.6068e+01	6.6024	5.037605	0.000242	2.415937	0.409271	0.000024
 666	6.6168e+01	6.6138	5.069785	0.000323	3.234898	0.548007	0.000032
 667	6.6267e+01	6.6213	5.098707	0.000291	2.907314	0.492512	0.000029
 668	6.6367e+01	6.6314	5.127628	0.000291	2.907314	0.492512	0.000029
 669	6.6466e+01	6.6460	5.158179	0.000307	3.071106	0.520259	0.000031
 670	6.6566e+01	6.6511	5.183434	0.000254	2.538781	0.430081	0.000025
 671	6.6665e+01	6.6613	5.214799	0.000315	3.153002	0.534133	0.000032
 672	6.6764e+01	6.6723	5.249016	0.000344	3.439639	0.582691	0.000034
 673	6.6864e+01	6.6821	5.273049	0.000242	2.415937	0.409271	0.000024
 674	6.6963e+01	6.6933	5.306859	0.000340	3.398691	0.575754	0.000034
 675	6.7063e+01	6.7014	5.332929	0.000262	2.620677	0.443955	0.000026
 676	6.7162e+01	6.7114	5.360628	0.000278	2.784469	0.471702	0.000028
 677	6.7262e+01	6.7223	5.397289	0.000369	3.685327	0.624311	0.000037
 678	6.7362e+01	6.7309	5.422544	0.000254	2.538781	0.430081	0.000025
 679	6.7461e+01	6.7413	5.453909	0.000315	3.153002	0.534133	0.000032
 680	6.7561e+01	6.7498	5.482016	0.000283	2.825418	0.478639	0.000028
 681	6.7660e+01	6.7593	5.509715	0.000278	2.784469	0.471702	0.000028
 682	6.7760e+01	6.7742	5.541895	0.000323	3.234898	0.548007	0.000032
 683	6.7859e+01	6.7810	5.563077	0.000213	2.129300	0.360713	0.000021
 684	6.7959e+01	6.7905	5.594850	0.000319	3.193950	0.541070	0.000032
 685	6.8058e+01	6.8020	5.622957	0.000283	2.825418	0.478639	0.000028
 686	6.8157e+01	6.8115	5.645768	0.000229	2.293092	0.388460	0.000023
 687	6.8257e+01	6.8230	5.676318	0.000307	3.071106	0.520259	0.000031
 688	6.8356e+01	6.8328	5.708906	0.000328	3.275846	0.554943	0.000033
 689	6.8456e+01	6.8426	5.735383	0.000266	2.661625	0.450892	0.000027
 690	6.8555e+01	6.8511	5.759824	0.000246	2.456885	0.416208	0.000025
 691	6.8655e+01	6.8610	5.791596	0.000319	3.193950	0.541070	0.000032
 692	6.8754e+01	6.8718	5.824591	0.000332	3.316794	0.561880	0.000033
 693	6.8854e+01	6.8839	5.851883	0.000274	2.743521	0.464765	0.000027
 694	6.8954e+01	6.8925	5.882026	0.000303	3.030158	0.513323	0.000030
 695	6.9053e+01	6.9009	5.912170	0.000303	3.030158	0.513323	0.000030
 696	6.9153e+01	6.9130	5.943128	0.000311	3.112054	0.527196	0.000031
 697	6.9252e+01	6.9213	5.971642	0.000287	2.866366	0.485575	0.000029
 698	6.9352e+01	6.9280	5.995675	0.000242	2.415937	0.409271	0.000024
 699	6.9451e+01	6.9425	6.028670	0.000332	3.316794	0.561880	0.000033
 700	6.9550e+01	6.9540	6.055962	0.000274	2.743521	0.464765	0.000027
 701	6.9650e+01	6.9604	6.086105	0.000303	3.030158	0.513323	0.000030
 702	6.9749e+01	6.9704	6.114212	0.000283	2.825418	0.478639	0.000028
 703	6.9849e+01	6.9805	6.145984	0.000319	3.193950	0.541070	0.000032
 704	6.9948e+01	6.9914	6.169610	0.000237	2.374989	0.402334	0.000024
 705	7.0048e+01	6.9988	6.196495	0.000270	2.702573	0.457828	0.000027
 706	7.0147e+01	7.0123	6.228675	0.000323	3.234898	0.548007	0.000032
 707	7.0247e+01	7.0206	6.260448	0.000319	3.193950	0.541070	0.000032
 708	7.0347e+01	7.0303	6.286518	0.000262	2.620677	0.443955	0.000026
 709	7.0446e+01	7.0404	6.311773	0.000254	2.538781	0.430081	0.000025
 710	7.0546e+01	7.0522	6.342731	0.000311	3.112054	0.527196	0.000031
 711	7.0645e+01	7.0602	6.370838	0.000283	2.825418	0.478639	0.000028
 712	7.0745e+01	7.0721	6.396907	0.000262	2.620677	0.443955	0.000026
 713	7.0844e+01	7.0818	6.426643	0.000299	2.989210	0.506386	0.000030
 714	7.0944e+01	7.0874	6.453935	0.000274	2.743521	0.464765	0.000027
 715	7.1043e+01	7.1013	6.481227	0.000274	2.743521	0.464765	0.000027
 716	7.1142e+01	7.1100	6.505668	0.000246	2.456885	0.416208	0.000025
 717	7.1242e+01	7.1221	6.532552	0.000270	2.702573	0.457828	0.000027
 718	7.1341e+01	7.1304	6.558215	0.000258	2.579729	0.437018	0.000026
 719	7.1441e+01	7.1387	6.583878	0.000258	2.579729	0.437018	0.000026
 720	7.1540e+01	7.1493	6.610355	0.000266	2.661625	0.450892	0.000027
 721	7.1640e+01	7.1609	6.635610	0.000254	2.538781	0.430081	0.000025
 722	7.1740e+01	7.1729	6.664939	0.000295	2.948262	0.499449	0.000029
 723	7.1839e+01	7.1822	6.691823	0.000270	2.702573	0.457828	0.000027
 724	7.1939e+01	7.1902	6.716264	0.000246	2.456885	0.416208	0.000025
 725	7.2038e+01	7.1998	6.743556	0.000274	2.743521	0.464765	0.000027
 726	7.2138e+01	7.2108	6.768404	0.000250	2.497833	0.423144	0.000025
 727	7.2237e+01	7.2194	6.798955	0.000307	3.071106	0.520259	0.000031
 728	7.2337e+01	7.2320	6.825839	0.000270	2.702573	0.457828	0.000027
 729	7.2436e+01	7.2387	6.853538	0.000278	2.784469	0.471702	0.000028
 730	7.2535e+01	7.2518	6.875535	0.000221	2.211196	0.374587	0.000022
 731	7.2635e+01	7.2613	6.905271	0.000299	2.989210	0.506386	0.000030
 732	7.2734e+01	7.2684	6.930119	0.000250	2.497833	0.423144	0.000025
 733	7.2834e+01	7.2784	6.958633	0.000287	2.866366	0.485575	0.000029
 734	7.2933e+01	7.2884	6.982666	0.000242	2.415937	0.409271	0.000024
 735	7.3033e+01	7.2984	7.011995	0.000295	2.948262	0.499449	0.000029
 736	7.3132e+01	7.3106	7.032769	0.000209	2.088352	0.353776	0.000021
 737	7.3232e+01	7.3196	7.062098	0.000295	2.948262	0.499449	0.000029
 738	7.3332e+01	7.3287	7.090204	0.000283	2.825418	0.478639	0.000028
 739	7.3431e+01	7.3391	7.115867	0.000258	2.579729	0.437018	0.000026
 740	7.3531e+01	7.3507	7.142344	0.000266	2.661625	0.450892	0.000027
 741	7.3630e+01	7.3612	7.169636	0.000274	2.743521	0.464765	0.000027
 742	7.3730e+01	7.3702	7.195706	0.000262	2.620677	0.443955	0.000026
 743	7.3829e+01	7.3809	7.223813	0.000283	2.825418	0.478639	0.000028
 744	7.3928e+01	7.3888	7.249883	0.000262	2.620677	0.443955	0.000026
 745	7.4028e+01	7.3986	7.273509	0.000237	2.374989	0.402334	0.000024
 746	7.4127e+01	7.4078	7.297949	0.000246	2.456885	0.416208	0.000025
 747	7.4227e+01	7.4194	7.319946	0.000221	2.211196	0.374587	0.000022
 748	7.4326e+01	7.4290	7.346016	0.000262	2.620677	0.443955	0.000026
 749	7.4426e+01	7.4385	7.371678	0.000258	2.579729	0.437018	0.000026
 750	7.4525e+01	7.4503	7.394489	0.000229	2.293092	0.388460	0.000023
 751	7.4625e+01	7.4572	7.419745	0.000254	2.538781	0.430081	0.000025
 752	7.4725e+01	7.4700	7.444185	0.000246	2.456885	0.416208	0.000025
 753	7.4824e+01	7.4778	7.471477	0.000274	2.743521	0.464765	0.000027
 754	7.4924e+01	7.4895	7.495918	0.000246	2.456885	0.416208	0.000025
 755	7.5023e+01	7.4998	7.523617	0.000278	2.784469	0.471702	0.000028
 756	7.5123e+01	7.5100	7.546021	0.000225	2.252144	0.381524	0.000023
 757	7.5222e+01	7.5179	7.574127	0.000283	2.825418	0.478639	0.000028
 758	7.5322e+01	7.5271	7.600197	0.000262	2.620677	0.443955	0.000026
 759	7.5421e+01	7.5378	7.622601	0.000225	2.252144	0.381524	0.000023
 760	7.5520e+01	7.5466	7.647449	0.000250	2.497833	0.423144	0.000025
 761	7.5620e+01	7.5587	7.672297	0.000250	2.497833	0.423144	0.000025
 762	7.5719e+01	7.5684	7.696738	0.000246	2.456885	0.416208	0.000025
 763	7.5819e+01	7.5793	7.724029	0.000274	2.743521	0.464765	0.000027
 764	7.5918e+01	7.5854	7.750099	0.000262	2.620677	0.443955	0.000026
 765	7.6018e+01	7.5954	7.774947	0.000250	2.497833	0.423144	0.000025
 766	7.6118e+01	7.6087	7.801017	0.000262	2.620677	0.443955	0.000026
 767	7.6217e+01	7.6191	7.830753	0.000299	2.989210	0.506386	0.000030
 768	7.6317e+01	7.6277	7.853157	0.000225	2.252144	0.381524	0.000023
 769	7.6416e+01	7.6360	7.883708	0.000307	3.071106	0.520259	0.000031
 770	7.6516e+01	7.6468	7.908963	0.000254	2.538781	0.430081	0.000025
 771	7.6615e+01	7.6579	7.937070	0.000283	2.825418	0.478639	0.000028
 772	7.6715e+01	7.6665	7.962325	0.000254	2.538781	0.430081	0.000025
 773	7.6814e+01	7.6782	7.991654	0.000295	2.948262	0.499449	0.000029
 774	7.6913e+01	7.6859	8.012428	0.000209	2.088352	0.353776	0.000021
 775	7.7013e+01	7.6982	8.041349	0.000291	2.907314	0.492512	0.000029
 776	7.7112e+01	7.7051	8.069456	0.000283	2.825418	0.478639	0.000028
 777	7.7212e+01	7.7187	8.093082	0.000237	2.374989	0.402334	0.000024
 778	7.7311e+01	7.7285	8.119966	0.000270	2.702573	0.457828	0.000027
 779	7.7411e+01	7.7364	8.148480	0.000287	2.866366	0.485575	0.000029
 780	7.7510e+01	7.7477	8.170477	0.000221	2.211196	0.374587	0.000022
 781	7.7610e+01	7.7563	8.199398	0.000291	2.907314	0.492512	0.000029
 782	7.7710e+01	7.7655	8.227912	0.000287	2.866366	0.485575	0.000029
 783	7.7809e+01	7.7757	8.252353	0.000246	2.456885	0.416208	0.000025
 784	7.7909e+01	7.7832	8.280459	0.000283	2.825418	0.478639	0.000028
 785	7.8008e+01	7.7967	8.306937	0.000266	2.661625	0.450892	0.000027
 786	7.8108e+01	7.8070	8.332192	0.000254	2.538781	0.430081	0.000025
 787	7.8207e+01	7.8158	8.360706	0.000287	2.866366	0.485575	0.000029
 788	7.8306e+01	7.8274	8.385146	0.000246	2.456885	0.416208	0.000025
 789	7.8406e+01	7.8367	8.411624	0.000266	2.661625	0.450892	0.000027
 790	7.8505e+01	7.8467	8.437694	0.000262	2.620677	0.443955	0.000026
 791	7.8605e+01	7.8564	8.466208	0.000287	2.866366	0.485575	0.000029
 792	7.8704e+01	7.8701	8.492685	0.000266	2.661625	0.450892	0.000027
 793	7.8804e+01	7.8784	8.522014	0.000295	2.948262	0.499449	0.000029
 794	7.8903e+01	7.8849	8.548083	0.000262	2.620677	0.443955	0.000026
 795	7.9003e+01	7.8963	8.580671	0.000328	3.275846	0.554943	0.000033
 796	7.9103e+01	7.9042	8.607148	0.000266	2.661625	0.450892	0.000027
 797	7.9202e+01	7.9140	8.637699	0.000307	3.071106	0.520259	0.000031
 798	7.9302e+01	7.9250	8.666213	0.000287	2.866366	0.485575	0.000029
 799	7.9401e+01	7.9346	8.691875	0.000258	2.579729	0.437018	0.000026
 800	7.9501e+01	7.9424	8.725685	0.000340	3.398691	0.575754	0.000034
 801	7.9600e+01	7.9556	8.753384	0.000278	2.784469	0.471702	0.000028
 802	7.9700e+01	7.9661	8.782713	0.000295	2.948262	0.499449	0.000029
 803	7.9799e+01	7.9775	8.813263	0.000307	3.071106	0.520259	0.000031
 804	7.9898e+01	7.9845	8.843407	0.000303	3.030158	0.513323	0.000030
 805	7.9998e+01	7.9972	8.871921	0.000287	2.866366	0.485575	0.000029
 806	8.0097e+01	8.0043	8.901657	0.000299	2.989210	0.506386	0.000030
 807	8.0197e+01	8.0136	8.933022	0.000315	3.153002	0.534133	0.000032
 808	8.0296e+01	8.0245	8.962758	0.000299	2.989210	0.506386	0.000030
 809	8.0396e+01	8.0344	8.991272	0.000287	2.866366	0.485575	0.000029
 810	8.0496e+01	8.0451	9.022638	0.000315	3.153002	0.534133	0.000032
 811	8.0595e+01	8.0593	9.049522	0.000270	2.702573	0.457828	0.000027
 812	8.0695e+01	8.0647	9.084554	0.000352	3.521535	0.596564	0.000035
 813	8.0794e+01	8.0762	9.113068	0.000287	2.866366	0.485575	0.000029
 814	8.0894e+01	8.0872	9.146062	0.000332	3.316794	0.561880	0.000033
 815	8.0993e+01	8.0951	9.176206	0.000303	3.030158	0.513323	0.000030
 816	8.1093e+01	8.1074	9.205942	0.000299	2.989210	0.506386	0.000030
 817	8.1192e+01	8.1152	9.234863	0.000291	2.907314	0.492512	0.000029
 818	8.1291e+01	8.1268	9.265821	0.000311	3.112054	0.527196	0.000031
 819	8.1391e+01	8.1334	9.298816	0.000332	3.316794	0.561880	0.000033
 820	8.1490e+01	8.1445	9.323664	0.000250	2.497833	0.423144	0.000025
 821	8.1590e+01	8.1544	9.357066	0.000336	3.357743	0.568817	0.000034
 822	8.1689e+01	8.1647	9.388838	0.000319	3.193950	0.541070	0.000032
 823	8.1789e+01	8.1747	9.418574	0.000299	2.989210	0.506386	0.000030
 824	8.1888e+01	8.1872	9.451569	0.000332	3.316794	0.561880	0.000033
 825	8.1988e+01	8.1939	9.484157	0.000328	3.275846	0.554943	0.000033
 826	8.2088e+01	8.2047	9.512263	0.000283	2.825418	0.478639	0.000028
 827	8.2187e+01	8.2168	9.545665	0.000336	3.357743	0.568817	0.000034
 828	8.2287e+01	8.2240	9.576623	0.000311	3.112054	0.527196	0.000031
 829	8.2386e+01	8.2342	9.607989	0.000315	3.153002	0.534133	0.000032
 830	8.2486e+01	8.2457	9.642206	0.000344	3.439639	0.582691	0.000034
 831	8.2585e+01	8.2548	9.675200	0.000332	3.316794	0.561880	0.000033
 832	8.2684e+01	8.2613	9.711454	0.000364	3.644379	0.617375	0.000036
 833	8.2784e+01	8.2742	9.742412	0.000311	3.112054	0.527196	0.000031
 834	8.2883e+01	8.2838	9.775814	0.000336	3.357743	0.568817	0.000034
 835	8.2983e+01	8.2959	9.807179	0.000315	3.153002	0.534133	0.000032
 836	8.3082e+01	8.3039	9.841396	0.000344	3.439639	0.582691	0.000034
 837	8.3182e+01	8.3139	9.876428	0.000352	3.521535	0.596564	0.000035
 838	8.3281e+01	8.3234	9.911459	0.000352	3.521535	0.596564	0.000035
 839	8.3381e+01	8.3366	9.943232	0.000319	3.193950	0.541070	0.000032
 840	8.3481e+01	8.3437	9.975004	0.000319	3.193950	0.541070	0.000032
 841	8.3580e+01	8.3546	10.007592	0.000328	3.275846	0.554943	0.000033
 842	8.3680e+01	8.3635	10.041401	0.000340	3.398691	0.575754	0.000034
 843	8.3779e+01	8.3752	10.076025	0.000348	3.480587	0.589627	0.000035
 844	8.3879e+01	8.3849	10.110242	0.000344	3.439639	0.582691	0.000034
 845	8.3978e+01	8.3915	10.144052	0.000340	3.398691	0.575754	0.000034
 846	8.4078e+01	8.4020	10.181934	0.000381	3.808171	0.645122	0.000038
 847	8.4177e+01	8.4135	10.214522	0.000328	3.275846	0.554943	0.000033
 848	8.4276e+01	8.4229	10.247109	0.000328	3.275846	0.554943	0.000033
 849	8.4376e+01	8.4345	10.278882	0.000319	3.193950	0.541070	0.000032
 850	8.4475e+01	8.4441	10.310655	0.000319	3.193950	0.541070	0.000032
 851	8.4575e+01	8.4518	10.344057	0.000336	3.357743	0.568817	0.000034
 852	8.4674e+01	8.4619	10.375829	0.000319	3.193950	0.541070	0.000032
 853	8.4774e+01	8.4732	10.407195	0.000315	3.153002	0.534133	0.000032
 854	8.4874e+01	8.4826	10.437746	0.000307	3.071106	0.520259	0.000031
 855	8.4973e+01	8.4906	10.470740	0.000332	3.316794	0.561880	0.000033
 856	8.5073e+01	8.5036	10.503735	0.000332	3.316794	0.561880	0.000033
 857	8.5172e+01	8.5128	10.539174	0.000356	3.562483	0.603501	0.000036
 858	8.5272e+01	8.5221	10.570947	0.000319	3.193950	0.541070	0.000032
 859	8.5371e+01	8.5340	10.605571	0.000348	3.480587	0.589627	0.000035
 860	8.5471e+01	8.5438	10.641009	0.000356	3.562483	0.603501	0.000036
 861	8.5570e+01	8.5535	10.677263	0.000364	3.644379	0.617375	0.000036
 862	8.5669e+01	8.5645	10.710665	0.000336	3.357743	0.568817	0.000034
 863	8.5769e+01	8.5727	10.748141	0.000377	3.767223	0.638185	0.000038
 864	8.5868e+01	8.5854	10.781543	0.000336	3.357743	0.568817	0.000034
 865	8.5968e+01	8.5943	10.814130	0.000328	3.275846	0.554943	0.000033
 866	8.6067e+01	8.6038	10.846717	0.000328	3.275846	0.554943	0.000033
 867	8.6167e+01	8.6151	10.881342	0.000348	3.480587	0.589627	0.000035
 868	8.6266e+01	8.6241	10.915151	0.000340	3.398691	0.575754	0.000034
 869	8.6366e+01	8.6311	10.951404	0.000364	3.644379	0.617375	0.000036
 870	8.6466e+01	8.6426	10.987251	0.000360	3.603431	0.610438	0.000036
 871	8.6565e+01	8.6541	11.019838	0.000328	3.275846	0.554943	0.000033
 872	8.6665e+01	8.6663	11.055277	0.000356	3.562483	0.603501	0.000036
 873	8.6764e+01	8.6726	11.087050	0.000319	3.193950	0.541070	0.000032
 874	8.6864e+01	8.6842	11.122488	0.000356	3.562483	0.603501	0.000036
 875	8.6963e+01	8.6930	11.163223	0.000409	4.094808	0.693679	0.000041
 876	8.7063e+01	8.7006	11.196217	0.000332	3.316794	0.561880	0.000033
 877	8.7162e+01	8.7104	11.228805	0.000328	3.275846	0.554943	0.000033
 878	8.7261e+01	8.7228	11.260577	0.000319	3.193950	0.541070	0.000032
 879	8.7361e+01	8.7325	11.296424	0.000360	3.603431	0.610438	0.000036
 880	8.7460e+01	8.7427	11.329826	0.000336	3.357743	0.568817	0.000034
 881	8.7560e+01	8.7510	11.361598	0.000319	3.193950	0.541070	0.000032
 882	8.7659e+01	8.7616	11.396630	0.000352	3.521535	0.596564	0.000035
 883	8.7759e+01	8.7714	11.427181	0.000307	3.071106	0.520259	0.000031
 884	8.7859e+01	8.7769	11.461397	0.000344	3.439639	0.582691	0.000034
 885	8.7958e+01	8.7931	11.493577	0.000323	3.234898	0.548007	0.000032
 886	8.8058e+01	8.8029	11.528609	0.000352	3.521535	0.596564	0.000035
 887	8.8157e+01	8.8097	11.559567	0.000311	3.112054	0.527196	0.000031
 888	8.8257e+01	8.8227	11.596228	0.000369	3.685327	0.624311	0.000037
 889	8.8356e+01	8.8303	11.629223	0.000332	3.316794	0.561880	0.000033
 890	8.8456e+01	8.8403	11.661403	0.000323	3.234898	0.548007	0.000032
 891	8.8555e+01	8.8499	11.693990	0.000328	3.275846	0.554943	0.000033
 892	8.8654e+01	8.8616	11.731058	0.000373	3.726275	0.631248	0.000037
 893	8.8754e+01	8.8731	11.762424	0.000315	3.153002	0.534133	0.000032
 894	8.8853e+01	8.8799	11.796640	0.000344	3.439639	0.582691	0.000034
 895	8.8953e+01	8.8924	11.832894	0.000364	3.644379	0.617375	0.000036
 896	8.9052e+01	8.9005	11.862222	0.000295	2.948262	0.499449	0.000029
 897	8.9152e+01	8.9100	11.896847	0.000348	3.480587	0.589627	0.000035
 898	8.9251e+01	8.9198	11.930249	0.000336	3.357743	0.568817	0.000034
 899	8.9351e+01	8.9336	11.965687	0.000356	3.562483	0.603501	0.000036
 900	8.9451e+01	8.9396	11.998682	0.000332	3.316794	0.561880	0.000033
 901	8.9550e+01	8.9520	12.034936	0.000364	3.644379	0.617375	0.000036
 902	8.9650e+01	8.9579	12.067523	0.000328	3.275846	0.554943	0.000033
 903	8.9749e+01	8.9682	12.103777	0.000364	3.644379	0.617375	0.000036
 904	8.9849e+01	8.9810	12.139215	0.000356	3.562483	0.603501	0.000036
 905	8.9948e+01	8.9886	12.173839	0.000348	3.480587	0.589627	0.000035
 906	9.0047e+01	9.0008	12.210500	0.000369	3.685327	0.624311	0.000037
 907	9.0147e+01	9.0094	12.243495	0.000332	3.316794	0.561880	0.000033
 908	9.0246e+01	9.0202	12.277305	0.000340	3.398691	0.575754	0.000034
 909	9.0346e+01	9.0308	12.315187	0.000381	3.808171	0.645122	0.000038
 910	9.0445e+01	9.0413	12.350219	0.000352	3.521535	0.596564	0.000035
 911	9.0545e+01	9.0485	12.382399	0.000323	3.234898	0.548007	0.000032
 912	9.0644e+01	9.0589	12.415801	0.000336	3.357743	0.568817	0.000034
 913	9.0744e+01	9.0710	12.454091	0.000385	3.849119	0.652058	0.000038
 914	9.0844e+01	9.0820	12.485049	0.000311	3.112054	0.527196	0.000031
 915	9.0943e+01	9.0896	12.519266	0.000344	3.439639	0.582691	0.000034
 916	9.1043e+01	9.0979	12.549409	0.000303	3.030158	0.513323	0.000030
 917	9.1142e+01	9.1113	12.584441	0.000352	3.521535	0.596564	0.000035
 918	9.1242e+01	9.1199	12.615806	0.000315	3.153002	0.534133	0.000032
 919	9.1341e+01	9.1284	12.652060	0.000364	3.644379	0.617375	0.000036
 920	9.1441e+01	9.1377	12.687091	0.000352	3.521535	0.596564	0.000035
 921	9.1540e+01	9.1505	12.720901	0.000340	3.398691	0.575754	0.000034
 922	9.1639e+01	9.1611	12.759598	0.000389	3.890068	0.658995	0.000039
 923	9.1739e+01	9.1697	12.792593	0.000332	3.316794	0.561880	0.000033
 924	9.1838e+01	9.1785	12.827624	0.000352	3.521535	0.596564	0.000035
 925	9.1938e+01	9.1891	12.865507	0.000381	3.808171	0.645122	0.000038
 926	9.2037e+01	9.1994	12.900131	0.000348	3.480587	0.589627	0.000035
 927	9.2137e+01	9.2085	12.933533	0.000336	3.357743	0.568817	0.000034
 928	9.2237e+01	9.2202	12.964899	0.000315	3.153002	0.534133	0.000032
 929	9.2336e+01	9.2286	13.003189	0.000385	3.849119	0.652058	0.000038
 930	9.2436e+01	9.2383	13.038628	0.000356	3.562483	0.603501	0.000036
 931	9.2535e+01	9.2509	13.072437	0.000340	3.398691	0.575754	0.000034
 932	9.2635e+01	9.2599	13.107061	0.000348	3.480587	0.589627	0.000035
 933	9.2734e+01	9.2652	13.147388	0.000405	4.053860	0.686742	0.000041
 934	9.2834e+01	9.2819	13.182420	0.000352	3.521535	0.596564	0.000035
 935	9.2933e+01	9.2886	13.221117	0.000389	3.890068	0.658995	0.000039
 936	9.3032e+01	9.3005	13.258593	0.000377	3.767223	0.638185	0.000038
 937	9.3132e+01	9.3100	13.296476	0.000381	3.808171	0.645122	0.000038
 938	9.3231e+01	9.3171	13.335580	0.000393	3.931016	0.665932	0.000039
 939	9.3331e+01	9.3311	13.374278	0.000389	3.890068	0.658995	0.000039
 940	9.3430e+01	9.3372	13.410531	0.000364	3.644379	0.617375	0.000036
 941	9.3530e+01	9.3485	13.448007	0.000377	3.767223	0.638185	0.000038
 942	9.3629e+01	9.3597	13.488334	0.000405	4.053860	0.686742	0.000041
 943	9.3729e+01	9.3677	13.520921	0.000328	3.275846	0.554943	0.000033
 944	9.3829e+01	9.3799	13.560841	0.000401	4.012912	0.679806	0.000040
 945	9.3928e+01	9.3887	13.596687	0.000360	3.603431	0.610438	0.000036
 946	9.4028e+01	9.3970	13.636199	0.000397	3.971964	0.672869	0.000040
 947	9.4127e+01	9.4093	13.672860	0.000369	3.685327	0.624311	0.000037
 948	9.4227e+01	9.4166	13.711558	0.000389	3.890068	0.658995	0.000039
 949	9.4326e+01	9.4267	13.746996	0.000356	3.562483	0.603501	0.000036
 950	9.4425e+01	9.4393	13.790582	0.000438	4.381445	0.742237	0.000044
 951	9.4525e+01	9.4463	13.828872	0.000385	3.849119	0.652058	0.000038
 952	9.4624e+01	9.4562	13.865126	0.000364	3.644379	0.617375	0.000036
 953	9.4724e+01	9.4671	13.906267	0.000414	4.135756	0.700616	0.000041
 954	9.4823e+01	9.4767	13.942521	0.000364	3.644379	0.617375	0.000036
 955	9.4923e+01	9.4885	13.980811	0.000385	3.849119	0.652058	0.000038
 956	9.5022e+01	9.4971	14.021545	0.000409	4.094808	0.693679	0.000041
 957	9.5122e+01	9.5078	14.059836	0.000385	3.849119	0.652058	0.000038
 958	9.5222e+01	9.5181	14.098940	0.000393	3.931016	0.665932	0.000039
 959	9.5321e+01	9.5264	14.139267	0.000405	4.053860	0.686742	0.000041
 960	9.5421e+01	9.5380	14.183260	0.000442	4.422393	0.749174	0.000044
 961	9.5520e+01	9.5468	14.223180	0.000401	4.012912	0.679806	0.000040
 962	9.5620e+01	9.5578	14.260248	0.000373	3.726275	0.631248	0.000037
 963	9.5719e+01	9.5663	14.305870	0.000459	4.586185	0.776921	0.000046
 964	9.5819e+01	9.5734	14.347419	0.000418	4.176704	0.707553	0.000042
 965	9.5918e+01	9.5868	14.391820	0.000446	4.463341	0.756110	0.000045
 966	9.6017e+01	9.5986	14.431332	0.000397	3.971964	0.672869	0.000040
 967	9.6117e+01	9.6071	14.474510	0.000434	4.340496	0.735300	0.000043
 968	9.6216e+01	9.6159	14.521762	0.000475	4.749977	0.804668	0.000047
 969	9.6316e+01	9.6270	14.562089	0.000405	4.053860	0.686742	0.000041
 970	9.6415e+01	9.6371	14.608933	0.000471	4.709029	0.797731	0.000047
 971	9.6515e+01	9.6470	14.650890	0.000422	4.217652	0.714490	0.000042
 972	9.6615e+01	9.6583	14.694475	0.000438	4.381445	0.742237	0.000044
 973	9.6714e+01	9.6650	14.735617	0.000414	4.135756	0.700616	0.000041
 974	9.6814e+01	9.6760	14.783276	0.000479	4.790925	0.811605	0.000048
 975	9.6913e+01	9.6859	14.826862	0.000438	4.381445	0.742237	0.000044
 976	9.7013e+01	9.6973	14.871669	0.000450	4.504289	0.763047	0.000045
 977	9.7112e+01	9.7059	14.912403	0.000409	4.094808	0.693679	0.000041
 978	9.7212e+01	9.7146	14.953952	0.000418	4.176704	0.707553	0.000042
 979	9.7311e+01	9.7287	15.004463	0.000508	5.077562	0.860162	0.000051
 980	9.7410e+01	9.7369	15.050085	0.000459	4.586185	0.776921	0.000046
 981	9.7510e+01	9.7437	15.098152	0.000483	4.831873	0.818542	0.000048
 982	9.7609e+01	9.7572	15.139701	0.000418	4.176704	0.707553	0.000042
 983	9.7709e+01	9.7636	15.187767	0.000483	4.831873	0.818542	0.000048
 984	9.7808e+01	9.7774	15.234204	0.000467	4.668081	0.790794	0.000047
 985	9.7908e+01	9.7852	15.279826	0.000459	4.586185	0.776921	0.000046
 986	9.8007e+01	9.7965	15.327078	0.000475	4.749977	0.804668	0.000047
 987	9.8107e+01	9.8059	15.370664	0.000438	4.381445	0.742237	0.000044
 988	9.8207e+01	9.8147	15.419545	0.000491	4.913770	0.832415	0.000049
 989	9.8306e+01	9.8232	15.466797	0.000475	4.749977	0.804668	0.000047
 990	9.8406e+01	9.8358	15.506716	0.000401	4.012912	0.679806	0.000040
 991	9.8505e+01	9.8457	15.556005	0.000495	4.954718	0.839352	0.000050
 992	9.8605e+01	9.8537	15.604478	0.000487	4.872821	0.825478	0.000049
 993	9.8704e+01	9.8657	15.654174	0.000500	4.995666	0.846289	0.000050
 994	9.8803e+01	9.8780	15.703055	0.000491	4.913770	0.832415	0.000049
 995	9.8903e+01	9.8866	15.751122	0.000483	4.831873	0.818542	0.000048
 996	9.9002e+01	9.8959	15.797559	0.000467	4.668081	0.790794	0.000047
 997	9.9102e+01	9.9079	15.848884	0.000516	5.159458	0.874036	0.000052
 998	9.9201e+01	9.9152	15.899394	0.000508	5.077562	0.860162	0.000051
 999	9.9301e+01	9.9230	15.950312	0.000512	5.118510	0.867099	0.000051
1000	9.9400e+01	9.9353	15.998786	0.000487	4.872821	0.825478	0.000049
1001	9.9500e+01	9.9464	16.049704	0.000512	5.118510	0.867099	0.000051
1002	9.9600e+01	9.9536	16.100214	0.000508	5.077562	0.860162	0.000051
1003	9.9699e+01	9.9648	16.153169	0.000532	5.323250	0.901783	0.000053
1004	9.9799e+01	9.9768	16.202050	0.000491	4.913770	0.832415	0.000049
1005	9.9898e+01	9.9854	16.253782	0.000520	5.200406	0.880973	0.000052
1006	9.9998e+01	9.9937	16.304293	0.000508	5.077562	0.860162	0.000051
1007	1.0010e+02	9.9831	16.318550	-0.000143	-1.433183	-0.242788	0.000014
1008	1.0020e+02	9.9738	16.323845	-0.000053	-0.532325	-0.090178	0.000005
1009	1.0030e+02	9.9639	16.341361	-0.000176	-1.760767	-0.298282	0.000018
1010	1.0040e+02	9.9567	16.352767	-0.000115	-1.146546	-0.194230	0.000011
1011	1.0050e+02	9.9441	16.360914	-0.000082	-0.818962	-0.138736	0.000008
1012	1.0059e+02	9.9358	16.370690	-0.000098	-0.982754	-0.166483	0.000010
1013	1.0069e+02	9.9235	16.383317	-0.000127	-1.269390	-0.215041	0.000013
1014	1.0079e+02	9.9177	16.388613	-0.000053	-0.532325	-0.090178	0.000005
1015	1.0089e+02	9.9060	16.401240	-0.000127	-1.269390	-0.215041	0.000013
1016	1.0099e+02	9.8984	16.405314	-0.000041	-0.409481	-0.069368	0.000004
1017	1.0109e+02	9.8844	16.408165	-0.000029	-0.286637	-0.048558	0.000003
1018	1.0119e+02	9.8743	16.416720	-0.000086	-0.859910	-0.145673	0.000009
1019	1.0129e+02	9.8682	16.421608	-0.000049	-0.491377	-0.083242	0.000005
1020	1.0139e+02	9.8552	16.425274	-0.000037	-0.368533	-0.062431	0.000004
1021	1.0149e+02	9.8455	16.424866	0.000004	0.040948	0.006937	-0.000000
1022	1.0159e+02	9.8383	16.428532	-0.000037	-0.368533	-0.062431	0.000004
1023	1.0169e+02	9.8254	16.434235	-0.000057	-0.573273	-0.097115	0.000006
1024	1.0179e+02	9.8151	16.434643	-0.000004	-0.040948	-0.006937	0.000000
1025	1.0189e+02	9.8054	16.435865	-0.000012	-0.122844	-0.020810	0.000001
1026	1.0199e+02	9.7976	16.440345	-0.000045	-0.450429	-0.076305	0.000005
1027	1.0209e+02	9.7864	16.445641	-0.000053	-0.532325	-0.090178	0.000005
1028	1.0219e+02	9.7764	16.449307	-0.000037	-0.368533	-0.062431	0.000004
1029	1.0229e+02	9.7668	16.449307	-0.000000	-0.000000	-0.000000	0.000000
1030	1.0239e+02	9.7572	16.449714	-0.000004	-0.040948	-0.006937	0.000000
1031	1.0248e+02	9.7461	16.455417	-0.000057	-0.573273	-0.097115	0.000006
1032	1.0258e+02	9.7370	16.454602	0.000008	0.081896	0.013874	-0.000001
1033	1.0268e+02	9.7243	16.454195	0.000004	0.040948	0.006937	-0.000000
1034	1.0278e+02	9.7158	16.453788	0.000004	0.040948	0.006937	-0.000000
1035	1.0288e+02	9.7046	16.451344	0.000025	0.245688	0.041621	-0.000002
1036	1.0298e+02	9.6951	16.449307	0.000020	0.204740	0.034684	-0.000002
1037	1.0308e+02	9.6865	16.453380	-0.000041	-0.409481	-0.069368	0.000004
1038	1.0318e+02	9.6751	16.450122	0.000033	0.327585	0.055494	-0.000003
1039	1.0328e+02	9.6680	16.452158	-0.000020	-0.204740	-0.034684	0.000002
1040	1.0338e+02	9.6564	16.447678	0.000045	0.450429	0.076305	-0.000005
1041	1.0348e+02	9.6488	16.451751	-0.000041	-0.409481	-0.069368	0.000004
1042	1.0358e+02	9.6378	16.445233	0.000066	0.655169	0.110989	-0.000007
1043	1.0368e+02	9.6256	16.444011	0.000012	0.122844	0.020810	-0.000001
1044	1.0378e+02	9.6168	16.438309	0.000057	0.573273	0.097115	-0.000006
1045	1.0388e+02	9.6072	16.436679	0.000016	0.163792	0.027747	-0.000002
1046	1.0398e+02	9.5963	16.430569	0.000061	0.614221	0.104052	-0.000006
1047	1.0408e+02	9.5855	16.428532	0.000020	0.204740	0.034684	-0.000002
1048	1.0418e+02	9.5776	16.421200	0.000074	0.737065	0.124862	-0.000007
1049	1.0428e+02	9.5667	16.414275	0.000070	0.696117	0.117925	-0.000007
1050	1.0438e+02	9.5559	16.408165	0.000061	0.614221	0.104052	-0.000006
1051	1.0447e+02	9.5473	16.404499	0.000037	0.368533	0.062431	-0.000004
1052	1.0457e+02	9.5380	16.397574	0.000070	0.696117	0.117925	-0.000007
1053	1.0467e+02	9.5251	16.388613	0.000090	0.900858	0.152609	-0.000009
1054	1.0477e+02	9.5142	16.385354	0.000033	0.327585	0.055494	-0.000003
1055	1.0487e+02	9.5068	16.377207	0.000082	0.818962	0.138736	-0.000008
1056	1.0497e+02	9.4983	16.370282	0.000070	0.696117	0.117925	-0.000007
1057	1.0507e+02	9.4880	16.362950	0.000074	0.737065	0.124862	-0.000007
1058	1.0517e+02	9.4785	16.353581	0.000094	0.941806	0.159546	-0.000009
1059	1.0527e+02	9.4672	16.342991	0.000106	1.064650	0.180357	-0.000011
1060	1.0537e+02	9.4588	16.337695	0.000053	0.532325	0.090178	-0.000005
1061	1.0547e+02	9.4468	16.329956	0.000078	0.778014	0.131799	-0.000008
1062	1.0557e+02	9.4366	16.320994	0.000090	0.900858	0.152609	-0.000009
1063	1.0567e+02	9.4276	16.314069	0.000070	0.696117	0.117925	-0.000007
1064	1.0577e+02	9.4173	16.305922	0.000082	0.818962	0.138736	-0.000008
1065	1.0587e+02	9.4052	16.296553	0.000094	0.941806	0.159546	-0.000009
1066	1.0597e+02	9.3985	16.284741	0.000119	1.187494	0.201167	-0.000012
1067	1.0607e+02	9.3896	16.278223	0.000066	0.655169	0.110989	-0.000007
1068	1.0617e+02	9.3766	16.268447	0.000098	0.982754	0.166483	-0.000010
1069	1.0627e+02	9.3684	16.257041	0.000115	1.146546	0.194230	-0.000011
1070	1.0637e+02	9.3594	16.246450	0.000106	1.064650	0.180357	-0.000011
1071	1.0647e+02	9.3496	16.237896	0.000086	0.859910	0.145673	-0.000009
1072	1.0656e+02	9.3390	16.224454	0.000135	1.351287	0.228914	-0.000014
1073	1.0666e+02	9.3286	16.215085	0.000094	0.941806	0.159546	-0.000009
1074	1.0676e+02	9.3176	16.205309	0.000098	0.982754	0.166483	-0.000010
1075	1.0686e+02	9.3105	16.197162	0.000082	0.818962	0.138736	-0.000008
1076	1.0696e+02	9.2976	16.184534	0.000127	1.269390	0.215041	-0.000013
1077	1.0706e+02	9.2878	16.175573	0.000090	0.900858	0.152609	-0.000009
1078	1.0716e+02	9.2781	16.165389	0.000102	1.023702	0.173420	-0.000010
1079	1.0726e+02	9.2677	16.150725	0.000147	1.474131	0.249725	-0.000015
1080	1.0736e+02	9.2591	16.138912	0.000119	1.187494	0.201167	-0.000012
1081	1.0746e+02	9.2509	16.122211	0.000168	1.678871	0.284408	-0.000017
1082	1.0756e+02	9.2432	16.110398	0.000119	1.187494	0.201167	-0.000012
1083	1.0766e+02	9.2297	16.098585	0.000119	1.187494	0.201167	-0.000012
1084	1.0776e+02	9.2178	16.082699	0.000160	1.596975	0.270535	-0.000016
1085	1.0786e+02	9.2092	16.066812	0.000160	1.596975	0.270535	-0.000016
1086	1.0796e+02	9.1997	16.055814	0.000111	1.105598	0.187293	-0.000011
1087	1.0806e+02	9.1895	16.040742	0.000152	1.515079	0.256661	-0.000015
1088	1.0816e+02	9.1806	16.025263	0.000156	1.556027	0.263598	-0.000016
1089	1.0826e+02	9.1688	16.014672	0.000106	1.064650	0.180357	-0.000011
1090	1.0836e+02	9.1572	16.003267	0.000115	1.146546	0.194230	-0.000011
1091	1.0845e+02	9.1492	15.986566	0.000168	1.678871	0.284408	-0.000017
1092	1.0855e+02	9.1384	15.969050	0.000176	1.760767	0.298282	-0.000018
1093	1.0865e+02	9.1318	15.952756	0.000164	1.637923	0.277472	-0.000016
1094	1.0875e+02	9.1211	15.938499	0.000143	1.433183	0.242788	-0.000014
1095	1.0885e+02	9.1106	15.925057	0.000135	1.351287	0.228914	-0.000014
1096	1.0895e+02	9.1003	15.909171	0.000160	1.596975	0.270535	-0.000016
1097	1.0905e+02	9.0887	15.894506	0.000147	1.474131	0.249725	-0.000015
1098	1.0915e+02	9.0809	15.879435	0.000152	1.515079	0.256661	-0.000015
1099	1.0925e+02	9.0696	15.863956	0.000156	1.556027	0.263598	-0.000016
1100	1.0935e+02	9.0583	15.851735	0.000123	1.228442	0.208104	-0.000012
1101	1.0945e+02	9.0492	15.836256	0.000156	1.556027	0.263598	-0.000016
1102	1.0955e+02	9.0421	15.822407	0.000139	1.392235	0.235851	-0.000014
1103	1.0965e+02	9.0292	15.811001	0.000115	1.146546	0.194230	-0.000011
1104	1.0975e+02	9.0189	15.792263	0.000188	1.883612	0.319092	-0.000019
1105	1.0985e+02	9.0100	15.778821	0.000135	1.351287	0.228914	-0.000014
1106	1.0995e+02	8.9999	15.763342	0.000156	1.556027	0.263598	-0.000016
1107	1.1005e+02	8.9913	15.746234	0.000172	1.719819	0.291345	-0.000017
1108	1.1015e+02	8.9807	15.730755	0.000156	1.556027	0.263598	-0.000016
1109	1.1025e+02	8.9737	15.718127	0.000127	1.269390	0.215041	-0.000013
1110	1.1035e+02	8.9600	15.705092	0.000131	1.310339	0.221977	-0.000013
1111	1.1044e+02	8.9494	15.688798	0.000164	1.637923	0.277472	-0.000016
1112	1.1054e+02	8.9404	15.668431	0.000205	2.047404	0.346840	-0.000020
1113	1.1064e+02	8.9285	15.654989	0.000135	1.351287	0.228914	-0.000014
1114	1.1074e+02	8.9185	15.638288	0.000168	1.678871	0.284408	-0.000017
1115	1.1084e+02	8.9111	15.621180	0.000172	1.719819	0.291345	-0.000017
1116	1.1094e+02	8.9005	15.605293	0.000160	1.596975	0.270535	-0.000016
1117	1.1104e+02	8.8919	15.590629	0.000147	1.474131	0.249725	-0.000015
1118	1.1114e+02	8.8803	15.573928	0.000168	1.678871	0.284408	-0.000017
1119	1.1124e+02	8.8697	15.559671	0.000143	1.433183	0.242788	-0.000014
1120	1.1134e+02	8.8599	15.540118	0.000197	1.965508	0.332966	-0.000020
1121	1.1144e+02	8.8490	15.527083	0.000131	1.310339	0.221977	-0.000013
1122	1.1154e+02	8.8403	15.508346	0.000188	1.883612	0.319092	-0.000019
1123	1.1164e+02	8.8330	15.491645	0.000168	1.678871	0.284408	-0.000017
1124	1.1174e+02	8.8226	15.481054	0.000106	1.064650	0.180357	-0.000011
1125	1.1184e+02	8.8123	15.460687	0.000205	2.047404	0.346840	-0.000020
1126	1.1194e+02	8.8028	15.443578	0.000172	1.719819	0.291345	-0.000017
1127	1.1204e+02	8.7922	15.427284	0.000164	1.637923	0.277472	-0.000016
1128	1.1214e+02	8.7796	15.413435	0.000139	1.392235	0.235851	-0.000014
1129	1.1224e+02	8.7724	15.395104	0.000184	1.842664	0.312156	-0.000018
1130	1.1234e+02	8.7624	15.378811	0.000164	1.637923	0.277472	-0.000016
1131	1.1244e+02	8.7524	15.366183	0.000127	1.269390	0.215041	-0.000013
1132	1.1253e+02	8.7421	15.349889	0.000164	1.637923	0.277472	-0.000016
1133	1.1263e+02	8.7332	15.335225	0.000147	1.474131	0.249725	-0.000015
1134	1.1273e+02	8.7217	15.320561	0.000147	1.474131	0.249725	-0.000015
1135	1.1283e+02	8.7113	15.303452	0.000172	1.719819	0.291345	-0.000017
1136	1.1293e+02	8.7026	15.287566	0.000160	1.596975	0.270535	-0.000016
1137	1.1303e+02	8.6939	15.278197	0.000094	0.941806	0.159546	-0.000009
1138	1.1313e+02	8.6810	15.258645	0.000197	1.965508	0.332966	-0.000020
1139	1.1323e+02	8.6745	15.240722	0.000180	1.801716	0.305219	-0.000018
1140	1.1333e+02	8.6605	15.225650	0.000152	1.515079	0.256661	-0.000015
1141	1.1343e+02	8.6500	15.212208	0.000135	1.351287	0.228914	-0.000014
1142	1.1353e+02	8.6428	15.198358	0.000139	1.392235	0.235851	-0.000014
1143	1.1363e+02	8.6310	15.181657	0.000168	1.678871	0.284408	-0.000017
1144	1.1373e+02	8.6201	15.166585	0.000152	1.515079	0.256661	-0.000015
1145	1.1383e+02	8.6134	15.152328	0.000143	1.433183	0.242788	-0.000014
1146	1.1393e+02	8.6011	15.138479	0.000139	1.392235	0.235851	-0.000014
1147	1.1403e+02	8.5931	15.118926	0.000197	1.965508	0.332966	-0.000020
1148	1.1413e+02	8.5813	15.099781	0.000192	1.924560	0.326029	-0.000019
1149	1.1423e+02	8.5729	15.086339	0.000135	1.351287	0.228914	-0.000014
1150	1.1433e+02	8.5638	15.068008	0.000184	1.842664	0.312156	-0.000018
1151	1.1442e+02	8.5538	15.054973	0.000131	1.310339	0.221977	-0.000013
1152	1.1452e+02	8.5421	15.034606	0.000205	2.047404	0.346840	-0.000020
1153	1.1462e+02	8.5321	15.021979	0.000127	1.269390	0.215041	-0.000013
1154	1.1472e+02	8.5246	15.006500	0.000156	1.556027	0.263598	-0.000016
1155	1.1482e+02	8.5152	14.993872	0.000127	1.269390	0.215041	-0.000013
1156	1.1492e+02	8.4998	14.973098	0.000209	2.088352	0.353776	-0.000021
1157	1.1502e+02	8.4922	14.958841	0.000143	1.433183	0.242788	-0.000014
1158	1.1512e+02	8.4839	14.941732	0.000172	1.719819	0.291345	-0.000017
1159	1.1522e+02	8.4723	14.925438	0.000164	1.637923	0.277472	-0.000016
1160	1.1532e+02	8.4633	14.907515	0.000180	1.801716	0.305219	-0.000018
1161	1.1542e+02	8.4533	14.891629	0.000160	1.596975	0.270535	-0.000016
1162	1.1552e+02	8.4434	14.876965	0.000147	1.474131	0.249725	-0.000015
1163	1.1562e+02	8.4375	14.863930	0.000131	1.310339	0.221977	-0.000013
1164	1.1572e+02	8.4240	14.848451	0.000156	1.556027	0.263598	-0.000016
1165	1.1582e+02	8.4149	14.832972	0.000156	1.556027	0.263598	-0.000016
1166	1.1592e+02	8.4055	14.820344	0.000127	1.269390	0.215041	-0.000013
1167	1.1602e+02	8.3930	14.804050	0.000164	1.637923	0.277472	-0.000016
1168	1.1612e+02	8.3849	14.791423	0.000127	1.269390	0.215041	-0.000013
1169	1.1622e+02	8.3732	14.773500	0.000180	1.801716	0.305219	-0.000018
1170	1.1632e+02	8.3636	14.759243	0.000143	1.433183	0.242788	-0.000014
1171	1.1642e+02	8.3545	14.743764	0.000156	1.556027	0.263598	-0.000016
1172	1.1651e+02	8.3463	14.729507	0.000143	1.433183	0.242788	-0.000014
1173	1.1661e+02	8.3318	14.711991	0.000176	1.760767	0.298282	-0.000018
1174	1.1671e+02	8.3252	14.697327	0.000147	1.474131	0.249725	-0.000015
1175	1.1681e+02	8.3140	14.682255	0.000152	1.515079	0.256661	-0.000015
1176	1.1691e+02	8.3045	14.664739	0.000176	1.760767	0.298282	-0.000018
1177	1.1701e+02	8.2934	14.652519	0.000123	1.228442	0.208104	-0.000012
1178	1.1711e+02	8.2841	14.636225	0.000164	1.637923	0.277472	-0.000016
1179	1.1721e+02	8.2764	14.623598	0.000127	1.269390	0.215041	-0.000013
1180	1.1731e+02	8.2629	14.606489	0.000172	1.719819	0.291345	-0.000017
1181	1.1741e+02	8.2520	14.592640	0.000139	1.392235	0.235851	-0.000014
1182	1.1751e+02	8.2467	14.569828	0.000229	2.293092	0.388460	-0.000023
1183	1.1761e+02	8.2361	14.556793	0.000131	1.310339	0.221977	-0.000013
1184	1.1771e+02	8.2249	14.538463	0.000184	1.842664	0.312156	-0.000018
1185	1.1781e+02	8.2151	14.522984	0.000156	1.556027	0.263598	-0.000016
1186	1.1791e+02	8.2062	14.507505	0.000156	1.556027	0.263598	-0.000016
1187	1.1801e+02	8.1935	14.487953	0.000197	1.965508	0.332966	-0.000020
1188	1.1811e+02	8.1847	14.468807	0.000192	1.924560	0.326029	-0.000019
1189	1.1821e+02	8.1742	14.450477	0.000184	1.842664	0.312156	-0.000018
1190	1.1831e+02	8.1669	14.432554	0.000180	1.801716	0.305219	-0.000018
1191	1.1841e+02	8.1528	14.413001	0.000197	1.965508	0.332966	-0.000020
1192	1.1850e+02	8.1435	14.400374	0.000127	1.269390	0.215041	-0.000013
1193	1.1860e+02	8.1351	14.383265	0.000172	1.719819	0.291345	-0.000017
1194	1.1870e+02	8.1225	14.365342	0.000180	1.801716	0.305219	-0.000018
1195	1.1880e+02	8.1162	14.352307	0.000131	1.310339	0.221977	-0.000013
1196	1.1890e+02	8.1046	14.335199	0.000172	1.719819	0.291345	-0.000017
1197	1.1900e+02	8.0949	14.319720	0.000156	1.556027	0.263598	-0.000016
1198	1.1910e+02	8.0862	14.302612	0.000172	1.719819	0.291345	-0.000017
1199	1.1920e+02	8.0759	14.285503	0.000172	1.719819	0.291345	-0.000017
1200	1.1930e+02	8.0694	14.265543	0.000201	2.006456	0.339903	-0.000020
1201	1.1940e+02	8.0566	14.248028	0.000176	1.760767	0.298282	-0.000018
1202	1.1950e+02	8.0478	14.229697	0.000184	1.842664	0.312156	-0.000018
1203	1.1960e+02	8.0340	14.211367	0.000184	1.842664	0.312156	-0.000018
1204	1.1970e+02	8.0238	14.197110	0.000143	1.433183	0.242788	-0.000014
1205	1.1980e+02	8.0154	14.180409	0.000168	1.678871	0.284408	-0.000017
1206	1.1990e+02	8.0059	14.161264	0.000192	1.924560	0.326029	-0.000019
1207	1.2000e+02	7.9947	14.144155	0.000172	1.719819	0.291345	-0.000017
1208	1.2010e+02	7.9855	14.128676	0.000156	1.556027	0.263598	-0.000016
1209	1.2020e+02	7.9759	14.108717	0.000201	2.006456	0.339903	-0.000020
1210	1.2030e+02	7.9697	14.092830	0.000160	1.596975	0.270535	-0.000016
1211	1.2039e+02	7.9563	14.073278	0.000197	1.965508	0.332966	-0.000020
1212	1.2049e+02	7.9462	14.054947	0.000184	1.842664	0.312156	-0.000018
1213	1.2059e+02	7.9338	14.033358	0.000217	2.170248	0.367650	-0.000022
1214	1.2069e+02	7.9243	14.018694	0.000147	1.474131	0.249725	-0.000015
1215	1.2079e+02	7.9140	13.997919	0.000209	2.088352	0.353776	-0.000021
1216	1.2089e+02	7.9064	13.977960	0.000201	2.006456	0.339903	-0.000020
1217	1.2099e+02	7.8970	13.957593	0.000205	2.047404	0.346840	-0.000020
1218	1.2109e+02	7.8876	13.936003	0.000217	2.170248	0.367650	-0.000022
1219	1.2119e+02	7.8742	13.917673	0.000184	1.842664	0.312156	-0.000018
1220	1.2129e+02	7.8664	13.893232	0.000246	2.456885	0.416208	-0.000025
1221	1.2139e+02	7.8548	13.874087	0.000192	1.924560	0.326029	-0.000019
1222	1.2149e+02	7.8457	13.853720	0.000205	2.047404	0.346840	-0.000020
1223	1.2159e+02	7.8371	13.835390	0.000184	1.842664	0.312156	-0.000018
1224	1.2169e+02	7.8247	13.818689	0.000168	1.678871	0.284408	-0.000017
1225	1.2179e+02	7.8179	13.795470	0.000233	2.334041	0.395397	-0.000023
1226	1.2189e+02	7.8063	13.772252	0.000233	2.334041	0.395397	-0.000023
1227	1.2199e+02	7.7980	13.751070	0.000213	2.129300	0.360713	-0.000021
1228	1.2209e+02	7.7859	13.730703	0.000205	2.047404	0.346840	-0.000020
1229	1.2219e+02	7.7771	13.711558	0.000192	1.924560	0.326029	-0.000019
1230	1.2229e+02	7.7682	13.689968	0.000217	2.170248	0.367650	-0.000022
1231	1.2239e+02	7.7570	13.670416	0.000197	1.965508	0.332966	-0.000020
1232	1.2248e+02	7.7480	13.648012	0.000225	2.252144	0.381524	-0.000023
1233	1.2258e+02	7.7382	13.624386	0.000237	2.374989	0.402334	-0.000024
1234	1.2268e+02	7.7258	13.601575	0.000229	2.293092	0.388460	-0.000023
1235	1.2278e+02	7.7149	13.585689	0.000160	1.596975	0.270535	-0.000016
1236	1.2288e+02	7.7069	13.563692	0.000221	2.211196	0.374587	-0.000022
1237	1.2298e+02	7.6966	13.542103	0.000217	2.170248	0.367650	-0.000022
1238	1.2308e+02	7.6860	13.520921	0.000213	2.129300	0.360713	-0.000021
1239	1.2318e+02	7.6760	13.497703	0.000233	2.334041	0.395397	-0.000023
1240	1.2328e+02	7.6680	13.478558	0.000192	1.924560	0.326029	-0.000019
1241	1.2338e+02	7.6575	13.459820	0.000188	1.883612	0.319092	-0.000019
1242	1.2348e+02	7.6473	13.436194	0.000237	2.374989	0.402334	-0.000024
1243	1.2358e+02	7.6393	13.414198	0.000221	2.211196	0.374587	-0.000022
1244	1.2368e+02	7.6286	13.393830	0.000205	2.047404	0.346840	-0.000020
1245	1.2378e+02	7.6165	13.371834	0.000221	2.211196	0.374587	-0.000022
1246	1.2388e+02	7.6075	13.346986	0.000250	2.497833	0.423144	-0.000025
1247	1.2398e+02	7.5970	13.324582	0.000225	2.252144	0.381524	-0.000023
1248	1.2408e+02	7.5870	13.303808	0.000209	2.088352	0.353776	-0.000021
1249	1.2418e+02	7.5774	13.276923	0.000270	2.702573	0.457828	-0.000027
1250	1.2428e+02	7.5671	13.252890	0.000242	2.415937	0.409271	-0.000024
1251	1.2438e+02	7.5587	13.230079	0.000229	2.293092	0.388460	-0.000023
1252	1.2447e+02	7.5448	13.208490	0.000217	2.170248	0.367650	-0.000022
1253	1.2457e+02	7.5381	13.183642	0.000250	2.497833	0.423144	-0.000025
1254	1.2467e+02	7.5275	13.160016	0.000237	2.374989	0.402334	-0.000024
1255	1.2477e+02	7.5182	13.140056	0.000201	2.006456	0.339903	-0.000020
1256	1.2487e+02	7.5085	13.112357	0.000278	2.784469	0.471702	-0.000028
1257	1.2497e+02	7.4993	13.093212	0.000192	1.924560	0.326029	-0.000019
1258	1.2507e+02	7.4905	13.067142	0.000262	2.620677	0.443955	-0.000026
1259	1.2517e+02	7.4783	13.044738	0.000225	2.252144	0.381524	-0.000023
1260	1.2527e+02	7.4685	13.021927	0.000229	2.293092	0.388460	-0.000023
1261	1.2537e+02	7.4577	12.995857	0.000262	2.620677	0.443955	-0.000026
1262	1.2547e+02	7.4468	12.970602	0.000254	2.538781	0.430081	-0.000025
1263	1.2557e+02	7.4408	12.946976	0.000237	2.374989	0.402334	-0.000024
1264	1.2567e+02	7.4268	12.922942	0.000242	2.415937	0.409271	-0.000024
1265	1.2577e+02	7.4179	12.898909	0.000242	2.415937	0.409271	-0.000024
1266	1.2587e+02	7.4084	12.874469	0.000246	2.456885	0.416208	-0.000025
1267	1.2597e+02	7.3998	12.849621	0.000250	2.497833	0.423144	-0.000025
1268	1.2607e+02	7.3891	12.831698	0.000180	1.801716	0.305219	-0.000018
1269	1.2617e+02	7.3779	12.807665	0.000242	2.415937	0.409271	-0.000024
1270	1.2627e+02	7.3699	12.782817	0.000250	2.497833	0.423144	-0.000025
1271	1.2636e+02	7.3584	12.757969	0.000250	2.497833	0.423144	-0.000025
1272	1.2646e+02	7.3490	12.742490	0.000156	1.556027	0.263598	-0.000016
1273	1.2656e+02	7.3385	12.718049	0.000246	2.456885	0.416208	-0.000025
1274	1.2666e+02	7.3296	12.698089	0.000201	2.006456	0.339903	-0.000020
1275	1.2676e+02	7.3214	12.675278	0.000229	2.293092	0.388460	-0.000023
1276	1.2686e+02	7.3087	12.649208	0.000262	2.620677	0.443955	-0.000026
1277	1.2696e+02	7.3007	12.624768	0.000246	2.456885	0.416208	-0.000025
1278	1.2706e+02	7.2892	12.601549	0.000233	2.334041	0.395397	-0.000023
1279	1.2716e+02	7.2822	12.577923	0.000237	2.374989	0.402334	-0.000024
1280	1.2726e+02	7.2691	12.551446	0.000266	2.661625	0.450892	-0.000027
1281	1.2736e+02	7.2588	12.530264	0.000213	2.129300	0.360713	-0.000021
1282	1.2746e+02	7.2475	12.506231	0.000242	2.415937	0.409271	-0.000024
1283	1.2756e+02	7.2412	12.481790	0.000246	2.456885	0.416208	-0.000025
1284	1.2766e+02	7.2308	12.459387	0.000225	2.252144	0.381524	-0.000023
1285	1.2776e+02	7.2192	12.439019	0.000205	2.047404	0.346840	-0.000020
1286	1.2786e+02	7.2124	12.412950	0.000262	2.620677	0.443955	-0.000026
1287	1.2796e+02	7.1999	12.390138	0.000229	2.293092	0.388460	-0.000023
1288	1.2806e+02	7.1897	12.363661	0.000266	2.661625	0.450892	-0.000027
1289	1.2816e+02	7.1793	12.340035	0.000237	2.374989	0.402334	-0.000024
1290	1.2826e+02	7.1719	12.319261	0.000209	2.088352	0.353776	-0.000021
1291	1.2835e+02	7.1601	12.294820	0.000246	2.456885	0.416208	-0.000025
1292	1.2845e+02	7.1518	12.269565	0.000254	2.538781	0.430081	-0.000025
1293	1.2855e+02	7.1445	12.246346	0.000233	2.334041	0.395397	-0.000023
1294	1.2865e+02	7.1313	12.219869	0.000266	2.661625	0.450892	-0.000027
1295	1.2875e+02	7.1214	12.201946	0.000180	1.801716	0.305219	-0.000018
1296	1.2885e+02	7.1108	12.177098	0.000250	2.497833	0.423144	-0.000025
1297	1.2895e+02	7.0973	12.151843	0.000254	2.538781	0.430081	-0.000025
1298	1.2905e+02	7.0913	12.129846	0.000221	2.211196	0.374587	-0.000022
1299	1.2915e+02	7.0812	12.109479	0.000205	2.047404	0.346840	-0.000020
1300	1.2925e+02	7.0689	12.088298	0.000213	2.129300	0.360713	-0.000021
1301	1.2935e+02	7.0641	12.065894	0.000225	2.252144	0.381524	-0.000023
1302	1.2945e+02	7.0525	12.042675	0.000233	2.334041	0.395397	-0.000023
1303	1.2955e+02	7.0432	12.020679	0.000221	2.211196	0.374587	-0.000022
1304	1.2965e+02	7.0303	11.998682	0.000221	2.211196	0.374587	-0.000022
1305	1.2975e+02	7.0203	11.980759	0.000180	1.801716	0.305219	-0.000018
1306	1.2985e+02	7.0092	11.957541	0.000233	2.334041	0.395397	-0.000023
1307	1.2995e+02	7.0049	11.931878	0.000258	2.579729	0.437018	-0.000026
1308	1.3005e+02	6.9941	11.912733	0.000192	1.924560	0.326029	-0.000019
1309	1.3015e+02	6.9824	11.892366	0.000205	2.047404	0.346840	-0.000020
1310	1.3025e+02	6.9701	11.869962	0.000225	2.252144	0.381524	-0.000023
1311	1.3034e+02	6.9624	11.849187	0.000209	2.088352	0.353776	-0.000021
1312	1.3044e+02	6.9542	11.828006	0.000213	2.129300	0.360713	-0.000021
1313	1.3054e+02	6.9415	11.805194	0.000229	2.293092	0.388460	-0.000023
1314	1.3064e+02	6.9315	11.782383	0.000229	2.293092	0.388460	-0.000023
1315	1.3074e+02	6.9227	11.763646	0.000188	1.883612	0.319092	-0.000019
1316	1.3084e+02	6.9087	11.741242	0.000225	2.252144	0.381524	-0.000023
1317	1.3094e+02	6.9009	11.720060	0.000213	2.129300	0.360713	-0.000021
1318	1.3104e+02	6.8939	11.698063	0.000221	2.211196	0.374587	-0.000022
1319	1.3114e+02	6.8809	11.674030	0.000242	2.415937	0.409271	-0.000024
1320	1.3124e+02	6.8713	11.655700	0.000184	1.842664	0.312156	-0.000018
1321	1.3134e+02	6.8639	11.632481	0.000233	2.334041	0.395397	-0.000023
1322	1.3144e+02	6.8521	11.611707	0.000209	2.088352	0.353776	-0.000021
1323	1.3154e+02	6.8450	11.588488	0.000233	2.334041	0.395397	-0.000023
1324	1.3164e+02	6.8340	11.566492	0.000221	2.211196	0.374587	-0.000022
1325	1.3174e+02	6.8186	11.545310	0.000213	2.129300	0.360713	-0.000021
1326	1.3184e+02	6.8111	11.524128	0.000213	2.129300	0.360713	-0.000021
1327	1.3194e+02	6.8029	11.498466	0.000258	2.579729	0.437018	-0.000026
1328	1.3204e+02	6.7931	11.480135	0.000184	1.842664	0.312156	-0.000018
1329	1.3214e+02	6.7834	11.457731	0.000225	2.252144	0.381524	-0.000023
1330	1.3224e+02	6.7730	11.438179	0.000197	1.965508	0.332966	-0.000020
1331	1.3234e+02	6.7617	11.418626	0.000197	1.965508	0.332966	-0.000020
1332	1.3243e+02	6.7525	11.395001	0.000237	2.374989	0.402334	-0.000024
1333	1.3253e+02	6.7424	11.375448	0.000197	1.965508	0.332966	-0.000020
1334	1.3263e+02	6.7342	11.357118	0.000184	1.842664	0.312156	-0.000018
1335	1.3273e+02	6.7207	11.340009	0.000172	1.719819	0.291345	-0.000017
1336	1.3283e+02	6.7104	11.315569	0.000246	2.456885	0.416208	-0.000025
1337	1.3293e+02	6.7028	11.294794	0.000209	2.088352	0.353776	-0.000021
1338	1.3303e+02	6.6933	11.276871	0.000180	1.801716	0.305219	-0.000018
1339	1.3313e+02	6.6804	11.258541	0.000184	1.842664	0.312156	-0.000018
1340	1.3323e+02	6.6727	11.236137	0.000225	2.252144	0.381524	-0.000023
1341	1.3333e+02	6.6640	11.212104	0.000242	2.415937	0.409271	-0.000024
1342	1.3343e+02	6.6531	11.192144	0.000201	2.006456	0.339903	-0.000020
1343	1.3353e+02	6.6441	11.171369	0.000209	2.088352	0.353776	-0.000021
1344	1.3363e+02	6.6325	11.150188	0.000213	2.129300	0.360713	-0.000021
1345	1.3373e+02	6.6214	11.131043	0.000192	1.924560	0.326029	-0.000019
1346	1.3383e+02	6.6117	11.110268	0.000209	2.088352	0.353776	-0.000021
1347	1.3393e+02	6.6025	11.089086	0.000213	2.129300	0.360713	-0.000021
1348	1.3403e+02	6.5954	11.071163	0.000180	1.801716	0.305219	-0.000018
1349	1.3413e+02	6.5807	11.047130	0.000242	2.415937	0.409271	-0.000024
1350	1.3423e+02	6.5717	11.030429	0.000168	1.678871	0.284408	-0.000017
1351	1.3432e+02	6.5633	11.009654	0.000209	2.088352	0.353776	-0.000021
1352	1.3442e+02	6.5530	10.985214	0.000246	2.456885	0.416208	-0.000025
1353	1.3452e+02	6.5398	10.963217	0.000221	2.211196	0.374587	-0.000022
1354	1.3462e+02	6.5304	10.939999	0.000233	2.334041	0.395397	-0.000023
1355	1.3472e+02	6.5240	10.915966	0.000242	2.415937	0.409271	-0.000024
1356	1.3482e+02	6.5142	10.896006	0.000201	2.006456	0.339903	-0.000020
1357	1.3492e+02	6.5044	10.872380	0.000237	2.374989	0.402334	-0.000024
1358	1.3502e+02	6.4916	10.851198	0.000213	2.129300	0.360713	-0.000021
1359	1.3512e+02	6.4837	10.827165	0.000242	2.415937	0.409271	-0.000024
1360	1.3522e+02	6.4746	10.807613	0.000197	1.965508	0.332966	-0.000020
1361	1.3532e+02	6.4630	10.788467	0.000192	1.924560	0.326029	-0.000019
1362	1.3542e+02	6.4538	10.761583	0.000270	2.702573	0.457828	-0.000027
1363	1.3552e+02	6.4404	10.742030	0.000197	1.965508	0.332966	-0.000020
1364	1.3562e+02	6.4344	10.722071	0.000201	2.006456	0.339903	-0.000020
1365	1.3572e+02	6.4253	10.701296	0.000209	2.088352	0.353776	-0.000021
1366	1.3582e+02	6.4115	10.680114	0.000213	2.129300	0.360713	-0.000021
1367	1.3592e+02	6.4059	10.658525	0.000217	2.170248	0.367650	-0.000022
1368	1.3602e+02	6.3953	10.637751	0.000209	2.088352	0.353776	-0.000021
1369	1.3612e+02	6.3847	10.619013	0.000188	1.883612	0.319092	-0.000019
1370	1.3622e+02	6.3725	10.592943	0.000262	2.620677	0.443955	-0.000026
1371	1.3631e+02	6.3623	10.571761	0.000213	2.129300	0.360713	-0.000021
1372	1.3641e+02	6.3543	10.549357	0.000225	2.252144	0.381524	-0.000023
1373	1.3651e+02	6.3440	10.526139	0.000233	2.334041	0.395397	-0.000023
1374	1.3661e+02	6.3332	10.505364	0.000209	2.088352	0.353776	-0.000021
1375	1.3671e+02	6.3242	10.484183	0.000213	2.129300	0.360713	-0.000021
1376	1.3681e+02	6.3140	10.461371	0.000229	2.293092	0.388460	-0.000023
1377	1.3691e+02	6.3049	10.438560	0.000229	2.293092	0.388460	-0.000023
1378	1.3701e+02	6.2957	10.417378	0.000213	2.129300	0.360713	-0.000021
1379	1.3711e+02	6.2842	10.396604	0.000209	2.088352	0.353776	-0.000021
1380	1.3721e+02	6.2756	10.373793	0.000229	2.293092	0.388460	-0.000023
1381	1.3731e+02	6.2634	10.347723	0.000262	2.620677	0.443955	-0.000026
1382	1.3741e+02	6.2551	10.324504	0.000233	2.334041	0.395397	-0.000023
1383	1.3751e+02	6.2463	10.303322	0.000213	2.129300	0.360713	-0.000021
1384	1.3761e+02	6.2359	10.276438	0.000270	2.702573	0.457828	-0.000027
1385	1.3771e+02	6.2284	10.255256	0.000213	2.129300	0.360713	-0.000021
1386	1.3781e+02	6.2122	10.231223	0.000242	2.415937	0.409271	-0.000024
1387	1.3791e+02	6.2045	10.204338	0.000270	2.702573	0.457828	-0.000027
1388	1.3801e+02	6.1961	10.181527	0.000229	2.293092	0.388460	-0.000023
1389	1.3811e+02	6.1858	10.151791	0.000299	2.989210	0.506386	-0.000030
1390	1.3821e+02	6.1756	10.134683	0.000172	1.719819	0.291345	-0.000017
1391	1.3831e+02	6.1596	10.103725	0.000311	3.112054	0.527196	-0.000031
1392	1.3840e+02	6.1556	10.081321	0.000225	2.252144	0.381524	-0.000023
1393	1.3850e+02	6.1457	10.054436	0.000270	2.702573	0.457828	-0.000027
1394	1.3860e+02	6.1350	10.029588	0.000250	2.497833	0.423144	-0.000025
1395	1.3870e+02	6.1304	10.007592	0.000221	2.211196	0.374587	-0.000022
1396	1.3880e+02	6.1166	9.981115	0.000266	2.661625	0.450892	-0.000027
1397	1.3890e+02	6.1066	9.956674	0.000246	2.456885	0.416208	-0.000025
1398	1.3900e+02	6.0958	9.931826	0.000250	2.497833	0.423144	-0.000025
1399	1.3910e+02	6.0889	9.904127	0.000278	2.784469	0.471702	-0.000028
1400	1.3920e+02	6.0764	9.880501	0.000237	2.374989	0.402334	-0.000024
1401	1.3930e+02	6.0659	9.855246	0.000254	2.538781	0.430081	-0.000025
1402	1.3940e+02	6.0579	9.829990	0.000254	2.538781	0.430081	-0.000025
1403	1.3950e+02	6.0470	9.807179	0.000229	2.293092	0.388460	-0.000023
1404	1.3960e+02	6.0378	9.779073	0.000283	2.825418	0.478639	-0.000028
1405	1.3970e+02	6.0270	9.753817	0.000254	2.538781	0.430081	-0.000025
1406	1.3980e+02	6.0171	9.729377	0.000246	2.456885	0.416208	-0.000025
1407	1.3990e+02	6.0072	9.703714	0.000258	2.579729	0.437018	-0.000026
1408	1.4000e+02	5.9969	9.677237	0.000266	2.661625	0.450892	-0.000027
1409	1.4010e+02	5.9863	9.655240	0.000221	2.211196	0.374587	-0.000022
1410	1.4020e+02	5.9759	9.628356	0.000270	2.702573	0.457828	-0.000027
1411	1.4029e+02	5.9679	9.604730	0.000237	2.374989	0.402334	-0.000024
1412	1.4039e+02	5.9560	9.579475	0.000254	2.538781	0.430081	-0.000025
1413	1.4049e+02	5.9496	9.552998	0.000266	2.661625	0.450892	-0.000027
1414	1.4059e+02	5.9388	9.523669	0.000295	2.948262	0.499449	-0.000029
1415	1.4069e+02	5.9266	9.500450	0.000233	2.334041	0.395397	-0.000023
1416	1.4079e+02	5.9190	9.473158	0.000274	2.743521	0.464765	-0.000027
1417	1.4089e+02	5.9069	9.440571	0.000328	3.275846	0.554943	-0.000033
1418	1.4099e+02	5.8945	9.416538	0.000242	2.415937	0.409271	-0.000024
1419	1.4109e+02	5.8865	9.391283	0.000254	2.538781	0.430081	-0.000025
1420	1.4119e+02	5.8765	9.360732	0.000307	3.071106	0.520259	-0.000031
1421	1.4129e+02	5.8663	9.330588	0.000303	3.030158	0.513323	-0.000030
1422	1.4139e+02	5.8547	9.306148	0.000246	2.456885	0.416208	-0.000025
1423	1.4149e+02	5.8468	9.279671	0.000266	2.661625	0.450892	-0.000027
1424	1.4159e+02	5.8373	9.253601	0.000262	2.620677	0.443955	-0.000026
1425	1.4169e+02	5.8273	9.224679	0.000291	2.907314	0.492512	-0.000029
1426	1.4179e+02	5.8186	9.198202	0.000266	2.661625	0.450892	-0.000027
1427	1.4189e+02	5.8056	9.170910	0.000274	2.743521	0.464765	-0.000027
1428	1.4199e+02	5.7964	9.141989	0.000291	2.907314	0.492512	-0.000029
1429	1.4209e+02	5.7887	9.114697	0.000274	2.743521	0.464765	-0.000027
1430	1.4219e+02	5.7792	9.086590	0.000283	2.825418	0.478639	-0.000028
1431	1.4228e+02	5.7656	9.057262	0.000295	2.948262	0.499449	-0.000029
1432	1.4238e+02	5.7586	9.030377	0.000270	2.702573	0.457828	-0.000027
1433	1.4248e+02	5.7481	9.006344	0.000242	2.415937	0.409271	-0.000024
1434	1.4258e+02	5.7373	8.976200	0.000303	3.030158	0.513323	-0.000030
1435	1.4268e+02	5.7276	8.950538	0.000258	2.579729	0.437018	-0.000026
1436	1.4278e+02	5.7178	8.921617	0.000291	2.907314	0.492512	-0.000029
1437	1.4288e+02	5.7075	8.899620	0.000221	2.211196	0.374587	-0.000022
1438	1.4298e+02	5.6988	8.872735	0.000270	2.702573	0.457828	-0.000027
1439	1.4308e+02	5.6841	8.847888	0.000250	2.497833	0.423144	-0.000025
1440	1.4318e+02	5.6765	8.821818	0.000262	2.620677	0.443955	-0.000026
1441	1.4328e+02	5.6692	8.790452	0.000315	3.153002	0.534133	-0.000032
1442	1.4338e+02	5.6582	8.765604	0.000250	2.497833	0.423144	-0.000025
1443	1.4348e+02	5.6477	8.741164	0.000246	2.456885	0.416208	-0.000025
1444	1.4358e+02	5.6411	8.715501	0.000258	2.579729	0.437018	-0.000026
1445	1.4368e+02	5.6274	8.684136	0.000315	3.153002	0.534133	-0.000032
1446	1.4378e+02	5.6181	8.658066	0.000262	2.620677	0.443955	-0.000026
1447	1.4388e+02	5.6068	8.629145	0.000291	2.907314	0.492512	-0.000029
1448	1.4398e+02	5.5978	8.599001	0.000303	3.030158	0.513323	-0.000030
1449	1.4408e+02	5.5872	8.571709	0.000274	2.743521	0.464765	-0.000027
1450	1.4418e+02	5.5773	8.546454	0.000254	2.538781	0.430081	-0.000025
1451	1.4428e+02	5.5679	8.520791	0.000258	2.579729	0.437018	-0.000026
1452	1.4437e+02	5.5569	8.494722	0.000262	2.620677	0.443955	-0.000026
1453	1.4447e+02	5.5511	8.466208	0.000287	2.866366	0.485575	-0.000029
1454	1.4457e+02	5.5373	8.438508	0.000278	2.784469	0.471702	-0.000028
1455	1.4467e+02	5.5268	8.409994	0.000287	2.866366	0.485575	-0.000029
1456	1.4477e+02	5.5163	8.383924	0.000262	2.620677	0.443955	-0.000026
1457	1.4487e+02	5.5093	8.356225	0.000278	2.784469	0.471702	-0.000028
1458	1.4497e+02	5.4971	8.328526	0.000278	2.784469	0.471702	-0.000028
1459	1.4507e+02	5.4927	8.302456	0.000262	2.620677	0.443955	-0.000026
1460	1.4517e+02	5.4790	8.271091	0.000315	3.153002	0.534133	-0.000032
1461	1.4527e+02	5.4702	8.247057	0.000242	2.415937	0.409271	-0.000024
1462	1.4537e+02	5.4572	8.220987	0.000262	2.620677	0.443955	-0.000026
1463	1.4547e+02	5.4473	8.194510	0.000266	2.661625	0.450892	-0.000027
1464	1.4557e+02	5.4378	8.166811	0.000278	2.784469	0.471702	-0.000028
1465	1.4567e+02	5.4284	8.141556	0.000254	2.538781	0.430081	-0.000025
1466	1.4577e+02	5.4189	8.118337	0.000233	2.334041	0.395397	-0.000023
1467	1.4587e+02	5.4089	8.088194	0.000303	3.030158	0.513323	-0.000030
1468	1.4597e+02	5.3996	8.064160	0.000242	2.415937	0.409271	-0.000024
1469	1.4607e+02	5.3915	8.041349	0.000229	2.293092	0.388460	-0.000023
1470	1.4617e+02	5.3785	8.014872	0.000266	2.661625	0.450892	-0.000027
1471	1.4626e+02	5.3700	7.989617	0.000254	2.538781	0.430081	-0.000025
1472	1.4636e+02	5.3603	7.963547	0.000262	2.620677	0.443955	-0.000026
1473	1.4646e+02	5.3496	7.937070	0.000266	2.661625	0.450892	-0.000027
1474	1.4656e+02	5.3393	7.911000	0.000262	2.620677	0.443955	-0.000026
1475	1.4666e+02	5.3278	7.887781	0.000233	2.334041	0.395397	-0.000023
1476	1.4676e+02	5.3199	7.863748	0.000242	2.415937	0.409271	-0.000024
1477	1.4686e+02	5.3095	7.836049	0.000278	2.784469	0.471702	-0.000028
1478	1.4696e+02	5.2984	7.812830	0.000233	2.334041	0.395397	-0.000023
1479	1.4706e+02	5.2912	7.784316	0.000287	2.866366	0.485575	-0.000029
1480	1.4716e+02	5.2797	7.761098	0.000233	2.334041	0.395397	-0.000023
1481	1.4726e+02	5.2702	7.736250	0.000250	2.497833	0.423144	-0.000025
1482	1.4736e+02	5.2590	7.710180	0.000262	2.620677	0.443955	-0.000026
1483	1.4746e+02	5.2499	7.684110	0.000262	2.620677	0.443955	-0.000026
1484	1.4756e+02	5.2431	7.658855	0.000254	2.538781	0.430081	-0.000025
1485	1.4766e+02	5.2302	7.635229	0.000237	2.374989	0.402334	-0.000024
1486	1.4776e+02	5.2175	7.608752	0.000266	2.661625	0.450892	-0.000027
1487	1.4786e+02	5.2102	7.583904	0.000250	2.497833	0.423144	-0.000025
1488	1.4796e+02	5.1992	7.562314	0.000217	2.170248	0.367650	-0.000022
1489	1.4806e+02	5.1904	7.532986	0.000295	2.948262	0.499449	-0.000029
1490	1.4816e+02	5.1809	7.505287	0.000278	2.784469	0.471702	-0.000028
1491	1.4825e+02	5.1714	7.482883	0.000225	2.252144	0.381524	-0.000023
1492	1.4835e+02	5.1598	7.455183	0.000278	2.784469	0.471702	-0.000028
1493	1.4845e+02	5.1493	7.431150	0.000242	2.415937	0.409271	-0.000024
1494	1.4855e+02	5.1397	7.407117	0.000242	2.415937	0.409271	-0.000024
1495	1.4865e+02	5.1289	7.379825	0.000274	2.743521	0.464765	-0.000027
1496	1.4875e+02	5.1214	7.357421	0.000225	2.252144	0.381524	-0.000023
1497	1.4885e+02	5.1103	7.330537	0.000270	2.702573	0.457828	-0.000027
1498	1.4895e+02	5.0967	7.306503	0.000242	2.415937	0.409271	-0.000024
1499	1.4905e+02	5.0904	7.281655	0.000250	2.497833	0.423144	-0.000025
1500	1.4915e+02	5.0790	7.260881	0.000209	2.088352	0.353776	-0.000021
1501	1.4925e+02	5.0735	7.235626	0.000254	2.538781	0.430081	-0.000025
1502	1.4935e+02	5.0603	7.214444	0.000213	2.129300	0.360713	-0.000021
1503	1.4945e+02	5.0507	7.189596	0.000250	2.497833	0.423144	-0.000025
1504	1.4955e+02	5.0420	7.168822	0.000209	2.088352	0.353776	-0.000021
1505	1.4965e+02	5.0301	7.143566	0.000254	2.538781	0.430081	-0.000025
1506	1.4975e+02	5.0213	7.121977	0.000217	2.170248	0.367650	-0.000022
1507	1.4985e+02	5.0099	7.094278	0.000278	2.784469	0.471702	-0.000028
1508	1.4995e+02	5.0030	7.066986	0.000274	2.743521	0.464765	-0.000027
1509	1.5005e+02	4.9925	7.046211	0.000209	2.088352	0.353776	-0.000021
1510	1.5015e+02	4.9799	7.022993	0.000233	2.334041	0.395397	-0.000023
1511	1.5025e+02	4.9731	6.996923	0.000262	2.620677	0.443955	-0.000026
1512	1.5034e+02	4.9610	6.973297	0.000237	2.374989	0.402334	-0.000024
1513	1.5044e+02	4.9499	6.950893	0.000225	2.252144	0.381524	-0.000023
1514	1.5054e+02	4.9416	6.925638	0.000254	2.538781	0.430081	-0.000025
1515	1.5064e+02	4.9303	6.904864	0.000209	2.088352	0.353776	-0.000021
1516	1.5074e+02	4.9213	6.878386	0.000266	2.661625	0.450892	-0.000027
1517	1.5084e+02	4.9104	6.856797	0.000217	2.170248	0.367650	-0.000022
1518	1.5094e+02	4.8988	6.829098	0.000278	2.784469	0.471702	-0.000028
1519	1.5104e+02	4.8916	6.804250	0.000250	2.497833	0.423144	-0.000025
1520	1.5114e+02	4.8823	6.778995	0.000254	2.538781	0.430081	-0.000025
1521	1.5124e+02	4.8715	6.749259	0.000299	2.989210	0.506386	-0.000030
1522	1.5134e+02	4.8608	6.726040	0.000233	2.334041	0.395397	-0.000023
1523	1.5144e+02	4.8518	6.701192	0.000250	2.497833	0.423144	-0.000025
1524	1.5154e+02	4.8441	6.673086	0.000283	2.825418	0.478639	-0.000028
1525	1.5164e+02	4.8305	6.647830	0.000254	2.538781	0.430081	-0.000025
1526	1.5174e+02	4.8202	6.622168	0.000258	2.579729	0.437018	-0.000026
1527	1.5184e+02	4.8085	6.598542	0.000237	2.374989	0.402334	-0.000024
1528	1.5194e+02	4.8005	6.570843	0.000278	2.784469	0.471702	-0.000028
1529	1.5204e+02	4.7928	6.547624	0.000233	2.334041	0.395397	-0.000023
1530	1.5214e+02	4.7807	6.522776	0.000250	2.497833	0.423144	-0.000025
1531	1.5224e+02	4.7717	6.497928	0.000250	2.497833	0.423144	-0.000025
1532	1.5233e+02	4.7604	6.475932	0.000221	2.211196	0.374587	-0.000022
1533	1.5243e+02	4.7514	6.444974	0.000311	3.112054	0.527196	-0.000031
1534	1.5253e+02	4.7417	6.422570	0.000225	2.252144	0.381524	-0.000023
1535	1.5263e+02	4.7326	6.397315	0.000254	2.538781	0.430081	-0.000025
1536	1.5273e+02	4.7228	6.372467	0.000250	2.497833	0.423144	-0.000025
1537	1.5283e+02	4.7119	6.347212	0.000254	2.538781	0.430081	-0.000025
1538	1.5293e+02	4.7018	6.323178	0.000242	2.415937	0.409271	-0.000024
1539	1.5303e+02	4.6926	6.295072	0.000283	2.825418	0.478639	-0.000028
1540	1.5313e+02	4.6832	6.271446	0.000237	2.374989	0.402334	-0.000024
1541	1.5323e+02	4.6754	6.246598	0.000250	2.497833	0.423144	-0.000025
1542	1.5333e+02	4.6626	6.218899	0.000278	2.784469	0.471702	-0.000028
1543	1.5343e+02	4.6539	6.195680	0.000233	2.334041	0.395397	-0.000023
1544	1.5353e+02	4.6452	6.170832	0.000250	2.497833	0.423144	-0.000025
1545	1.5363e+02	4.6325	6.140282	0.000307	3.071106	0.520259	-0.000031
1546	1.5373e+02	4.6247	6.116656	0.000237	2.374989	0.402334	-0.000024
1547	1.5383e+02	4.6128	6.091401	0.000254	2.538781	0.430081	-0.000025
1548	1.5393e+02	4.6035	6.060442	0.000311	3.112054	0.527196	-0.000031
1549	1.5403e+02	4.5947	6.036817	0.000237	2.374989	0.402334	-0.000024
1550	1.5413e+02	4.5843	6.009525	0.000274	2.743521	0.464765	-0.000027
1551	1.5422e+02	4.5732	5.981011	0.000287	2.866366	0.485575	-0.000029
1552	1.5432e+02	4.5632	5.953719	0.000274	2.743521	0.464765	-0.000027
1553	1.5442e+02	4.5550	5.923983	0.000299	2.989210	0.506386	-0.000030
1554	1.5452e+02	4.5444	5.900357	0.000237	2.374989	0.402334	-0.000024
1555	1.5462e+02	4.5330	5.865325	0.000352	3.521535	0.596564	-0.000035
1556	1.5472e+02	4.5219	5.838033	0.000274	2.743521	0.464765	-0.000027
1557	1.5482e+02	4.5153	5.813186	0.000250	2.497833	0.423144	-0.000025
1558	1.5492e+02	4.5061	5.783450	0.000299	2.989210	0.506386	-0.000030
1559	1.5502e+02	4.4940	5.757380	0.000262	2.620677	0.443955	-0.000026
1560	1.5512e+02	4.4865	5.724792	0.000328	3.275846	0.554943	-0.000033
1561	1.5522e+02	4.4723	5.699537	0.000254	2.538781	0.430081	-0.000025
1562	1.5532e+02	4.4619	5.671430	0.000283	2.825418	0.478639	-0.000028
1563	1.5542e+02	4.4552	5.640880	0.000307	3.071106	0.520259	-0.000031
1564	1.5552e+02	4.4446	5.611958	0.000291	2.907314	0.492512	-0.000029
1565	1.5562e+02	4.4351	5.585074	0.000270	2.702573	0.457828	-0.000027
1566	1.5572e+02	4.4235	5.552486	0.000328	3.275846	0.554943	-0.000033
1567	1.5582e+02	4.4132	5.528453	0.000242	2.415937	0.409271	-0.000024
1568	1.5592e+02	4.4062	5.499124	0.000295	2.948262	0.499449	-0.000029
1569	1.5602e+02	4.3949	5.469796	0.000295	2.948262	0.499449	-0.000029
1570	1.5612e+02	4.3835	5.438430	0.000315	3.153002	0.534133	-0.000032
1571	1.5622e+02	4.3742	5.409509	0.000291	2.907314	0.492512	-0.000029
1572	1.5631e+02	4.3651	5.380995	0.000287	2.866366	0.485575	-0.000029
1573	1.5641e+02	4.3547	5.355333	0.000258	2.579729	0.437018	-0.000026
1574	1.5651e+02	4.3449	5.326004	0.000295	2.948262	0.499449	-0.000029
1575	1.5661e+02	4.3353	5.295453	0.000307	3.071106	0.520259	-0.000031
1576	1.5671e+02	4.3244	5.266125	0.000295	2.948262	0.499449	-0.000029
1577	1.5681e+02	4.3151	5.238425	0.000278	2.784469	0.471702	-0.000028
1578	1.5691e+02	4.3028	5.211133	0.000274	2.743521	0.464765	-0.000027
1579	1.5701e+02	4.2932	5.181805	0.000295	2.948262	0.499449	-0.000029
1580	1.5711e+02	4.2848	5.152883	0.000291	2.907314	0.492512	-0.000029
1581	1.5721e+02	4.2718	5.122333	0.000307	3.071106	0.520259	-0.000031
1582	1.5731e+02	4.2648	5.088930	0.000336	3.357743	0.568817	-0.000034
1583	1.5741e+02	4.2551	5.062046	0.000270	2.702573	0.457828	-0.000027
1584	1.5751e+02	4.2439	5.027422	0.000348	3.480587	0.589627	-0.000035
1585	1.5761e+02	4.2366	5.000537	0.000270	2.702573	0.457828	-0.000027
1586	1.5771e+02	4.2243	4.967950	0.000328	3.275846	0.554943	-0.000033
1587	1.5781e+02	4.2153	4.932104	0.000360	3.603431	0.610438	-0.000036
1588	1.5791e+02	4.2059	4.903182	0.000291	2.907314	0.492512	-0.000029
1589	1.5801e+02	4.1937	4.875076	0.000283	2.825418	0.478639	-0.000028
1590	1.5811e+02	4.1883	4.841266	0.000340	3.398691	0.575754	-0.000034
1591	1.5821e+02	4.1759	4.812345	0.000291	2.907314	0.492512	-0.000029
1592	1.5830e+02	4.1637	4.779757	0.000328	3.275846	0.554943	-0.000033
1593	1.5840e+02	4.1544	4.749614	0.000303	3.030158	0.513323	-0.000030
1594	1.5850e+02	4.1448	4.715805	0.000340	3.398691	0.575754	-0.000034
1595	1.5860e+02	4.1351	4.681588	0.000344	3.439639	0.582691	-0.000034
1596	1.5870e+02	4.1256	4.653889	0.000278	2.784469	0.471702	-0.000028
1597	1.5880e+02	4.1181	4.621709	0.000323	3.234898	0.548007	-0.000032
1598	1.5890e+02	4.1063	4.588714	0.000332	3.316794	0.561880	-0.000033
1599	1.5900e+02	4.0948	4.559793	0.000291	2.907314	0.492512	-0.000029
1600	1.5910e+02	4.0836	4.526798	0.000332	3.316794	0.561880	-0.000033
1601	1.5920e+02	4.0746	4.498691	0.000283	2.825418	0.478639	-0.000028
1602	1.5930e+02	4.0670	4.465696	0.000332	3.316794	0.561880	-0.000033
1603	1.5940e+02	4.0552	4.434738	0.000311	3.112054	0.527196	-0.000031
1604	1.5950e+02	4.0440	4.405410	0.000295	2.948262	0.499449	-0.000029
1605	1.5960e+02	4.0381	4.372822	0.000328	3.275846	0.554943	-0.000033
1606	1.5970e+02	4.0273	4.349604	0.000233	2.334041	0.395397	-0.000023
1607	1.5980e+02	4.0166	4.314980	0.000348	3.480587	0.589627	-0.000035
1608	1.5990e+02	4.0051	4.288095	0.000270	2.702573	0.457828	-0.000027
1609	1.6000e+02	3.9944	4.253878	0.000344	3.439639	0.582691	-0.000034
1610	1.6010e+02	3.9846	4.226994	0.000270	2.702573	0.457828	-0.000027
1611	1.6019e+02	3.9776	4.196850	0.000303	3.030158	0.513323	-0.000030
1612	1.6029e+02	3.9628	4.165078	0.000319	3.193950	0.541070	-0.000032
1613	1.6039e+02	3.9570	4.134120	0.000311	3.112054	0.527196	-0.000031
1614	1.6049e+02	3.9469	4.099495	0.000348	3.480587	0.589627	-0.000035
1615	1.6059e+02	3.9352	4.070981	0.000287	2.866366	0.485575	-0.000029
1616	1.6069e+02	3.9251	4.040838	0.000303	3.030158	0.513323	-0.000030
1617	1.6079e+02	3.9159	4.005807	0.000352	3.521535	0.596564	-0.000035
1618	1.6089e+02	3.9059	3.978107	0.000278	2.784469	0.471702	-0.000028
1619	1.6099e+02	3.8979	3.949593	0.000287	2.866366	0.485575	-0.000029
1620	1.6109e+02	3.8838	3.916599	0.000332	3.316794	0.561880	-0.000033
1621	1.6119e+02	3.8744	3.881567	0.000352	3.521535	0.596564	-0.000035
1622	1.6129e+02	3.8696	3.854275	0.000274	2.743521	0.464765	-0.000027
1623	1.6139e+02	3.8575	3.825354	0.000291	2.907314	0.492512	-0.000029
1624	1.6149e+02	3.8491	3.788286	0.000373	3.726275	0.631248	-0.000037
1625	1.6159e+02	3.8348	3.756513	0.000319	3.193950	0.541070	-0.000032
1626	1.6169e+02	3.8274	3.727184	0.000295	2.948262	0.499449	-0.000029
1627	1.6179e+02	3.8177	3.695004	0.000323	3.234898	0.548007	-0.000032
1628	1.6189e+02	3.8073	3.665268	0.000299	2.989210	0.506386	-0.000030
1629	1.6199e+02	3.7971	3.634310	0.000311	3.112054	0.527196	-0.000031
1630	1.6209e+02	3.7891	3.601723	0.000328	3.275846	0.554943	-0.000033
1631	1.6219e+02	3.7789	3.570765	0.000311	3.112054	0.527196	-0.000031
1632	1.6228e+02	3.7672	3.542658	0.000283	2.825418	0.478639	-0.000028
1633	1.6238e+02	3.7561	3.514552	0.000283	2.825418	0.478639	-0.000028
1634	1.6248e+02	3.7486	3.482371	0.000323	3.234898	0.548007	-0.000032
1635	1.6258e+02	3.7375	3.453857	0.000287	2.866366	0.485575	-0.000029
1636	1.6268e+02	3.7288	3.423307	0.000307	3.071106	0.520259	-0.000031
1637	1.6278e+02	3.7173	3.398052	0.000254	2.538781	0.430081	-0.000025
1638	1.6288e+02	3.7090	3.369538	0.000287	2.866366	0.485575	-0.000029
1639	1.6298e+02	3.6967	3.337765	0.000319	3.193950	0.541070	-0.000032
1640	1.6308e+02	3.6883	3.310473	0.000274	2.743521	0.464765	-0.000027
1641	1.6318e+02	3.6777	3.277071	0.000336	3.357743	0.568817	-0.000034
1642	1.6328e+02	3.6666	3.250186	0.000270	2.702573	0.457828	-0.000027
1643	1.6338e+02	3.6587	3.221672	0.000287	2.866366	0.485575	-0.000029
1644	1.6348e+02	3.6496	3.189492	0.000323	3.234898	0.548007	-0.000032
1645	1.6358e+02	3.6379	3.162608	0.000270	2.702573	0.457828	-0.000027
1646	1.6368e+02	3.6292	3.136130	0.000266	2.661625	0.450892	-0.000027
1647	1.6378e+02	3.6175	3.102728	0.000336	3.357743	0.568817	-0.000034
1648	1.6388e+02	3.6064	3.072992	0.000299	2.989210	0.506386	-0.000030
1649	1.6398e+02	3.5979	3.044071	0.000291	2.907314	0.492512	-0.000029
1650	1.6408e+02	3.5880	3.015557	0.000287	2.866366	0.485575	-0.000029
1651	1.6418e+02	3.5818	2.988672	0.000270	2.702573	0.457828	-0.000027
1652	1.6427e+02	3.5699	2.958936	0.000299	2.989210	0.506386	-0.000030
1653	1.6437e+02	3.5590	2.925534	0.000336	3.357743	0.568817	-0.000034
1654	1.6447e+02	3.5496	2.902723	0.000229	2.293092	0.388460	-0.000023
1655	1.6457e+02	3.5394	2.870136	0.000328	3.275846	0.554943	-0.000033
1656	1.6467e+02	3.5259	2.840400	0.000299	2.989210	0.506386	-0.000030
1657	1.6477e+02	3.5183	2.813922	0.000266	2.661625	0.450892	-0.000027
1658	1.6487e+02	3.5078	2.779706	0.000344	3.439639	0.582691	-0.000034
1659	1.6497e+02	3.4995	2.751192	0.000287	2.866366	0.485575	-0.000029
1660	1.6507e+02	3.4878	2.721863	0.000295	2.948262	0.499449	-0.000029
1661	1.6517e+02	3.4789	2.696200	0.000258	2.579729	0.437018	-0.000026
1662	1.6527e+02	3.4699	2.663613	0.000328	3.275846	0.554943	-0.000033
1663	1.6537e+02	3.4591	2.633877	0.000299	2.989210	0.506386	-0.000030
1664	1.6547e+02	3.4485	2.609029	0.000250	2.497833	0.423144	-0.000025
1665	1.6557e+02	3.4402	2.578478	0.000307	3.071106	0.520259	-0.000031
1666	1.6567e+02	3.4274	2.547520	0.000311	3.112054	0.527196	-0.000031
1667	1.6577e+02	3.4177	2.520636	0.000270	2.702573	0.457828	-0.000027
1668	1.6587e+02	3.4087	2.493751	0.000270	2.702573	0.457828	-0.000027
1669	1.6597e+02	3.3988	2.469718	0.000242	2.415937	0.409271	-0.000024
1670	1.6607e+02	3.3887	2.440797	0.000291	2.907314	0.492512	-0.000029
1671	1.6616e+02	3.3796	2.411061	0.000299	2.989210	0.506386	-0.000030
1672	1.6626e+02	3.3690	2.384991	0.000262	2.620677	0.443955	-0.000026
1673	1.6636e+02	3.3582	2.357699	0.000274	2.743521	0.464765	-0.000027
1674	1.6646e+02	3.3520	2.329999	0.000278	2.784469	0.471702	-0.000028
1675	1.6656e+02	3.3398	2.298634	0.000315	3.153002	0.534133	-0.000032
1676	1.6666e+02	3.3279	2.271342	0.000274	2.743521	0.464765	-0.000027
1677	1.6676e+02	3.3176	2.239977	0.000315	3.153002	0.534133	-0.000032
1678	1.6686e+02	3.3113	2.212277	0.000278	2.784469	0.471702	-0.000028
1679	1.6696e+02	3.2996	2.186615	0.000258	2.579729	0.437018	-0.000026
1680	1.6706e+02	3.2887	2.160952	0.000258	2.579729	0.437018	-0.000026
1681	1.6716e+02	3.2790	2.132438	0.000287	2.866366	0.485575	-0.000029
1682	1.6726e+02	3.2671	2.104332	0.000283	2.825418	0.478639	-0.000028
1683	1.6736e+02	3.2588	2.073781	0.000307	3.071106	0.520259	-0.000031
1684	1.6746e+02	3.2494	2.047711	0.000262	2.620677	0.443955	-0.000026
1685	1.6756e+02	3.2397	2.017160	0.000307	3.071106	0.520259	-0.000031
1686	1.6766e+02	3.2304	1.984573	0.000328	3.275846	0.554943	-0.000033
1687	1.6776e+02	3.2211	1.957688	0.000270	2.702573	0.457828	-0.000027
1688	1.6786e+02	3.2104	1.926323	0.000315	3.153002	0.534133	-0.000032
1689	1.6796e+02	3.1998	1.896587	0.000299	2.989210	0.506386	-0.000030
1690	1.6806e+02	3.1919	1.865629	0.000311	3.112054	0.527196	-0.000031
1691	1.6816e+02	3.1808	1.838744	0.000270	2.702573	0.457828	-0.000027
1692	1.6825e+02	3.1704	1.807786	0.000311	3.112054	0.527196	-0.000031
1693	1.6835e+02	3.1615	1.776828	0.000311	3.112054	0.527196	-0.000031
1694	1.6845e+02	3.1485	1.746685	0.000303	3.030158	0.513323	-0.000030
1695	1.6855e+02	3.1400	1.717764	0.000291	2.907314	0.492512	-0.000029
1696	1.6865e+02	3.1297	1.685991	0.000319	3.193950	0.541070	-0.000032
1697	1.6875e+02	3.1169	1.661550	0.000246	2.456885	0.416208	-0.000025
1698	1.6885e+02	3.1116	1.631407	0.000303	3.030158	0.513323	-0.000030
1699	1.6895e+02	3.0986	1.601264	0.000303	3.030158	0.513323	-0.000030
1700	1.6905e+02	3.0894	1.573157	0.000283	2.825418	0.478639	-0.000028
1701	1.6915e+02	3.0811	1.543421	0.000299	2.989210	0.506386	-0.000030
1702	1.6925e+02	3.0719	1.510834	0.000328	3.275846	0.554943	-0.000033
1703	1.6935e+02	3.0602	1.483542	0.000274	2.743521	0.464765	-0.000027
1704	1.6945e+02	3.0503	1.453806	0.000299	2.989210	0.506386	-0.000030
1705	1.6955e+02	3.0420	1.422848	0.000311	3.112054	0.527196	-0.000031
1706	1.6965e+02	3.0302	1.395556	0.000274	2.743521	0.464765	-0.000027
1707	1.6975e+02	3.0227	1.361746	0.000340	3.398691	0.575754	-0.000034
1708	1.6985e+02	3.0117	1.338120	0.000237	2.374989	0.402334	-0.000024
1709	1.6995e+02	3.0000	1.303089	0.000352	3.521535	0.596564	-0.000035
1710	1.7005e+02	2.9924	1.275390	0.000278	2.784469	0.471702	-0.000028
1711	1.7015e+02	2.9807	1.247690	0.000278	2.784469	0.471702	-0.000028
1712	1.7024e+02	2.9691	1.213881	0.000340	3.398691	0.575754	-0.000034
1713	1.7034e+02	2.9626	1.184959	0.000291	2.907314	0.492512	-0.000029
1714	1.7044e+02	2.9507	1.154409	0.000307	3.071106	0.520259	-0.000031
1715	1.7054e+02	2.9397	1.122229	0.000323	3.234898	0.548007	-0.000032
1716	1.7064e+02	2.9314	1.092085	0.000303	3.030158	0.513323	-0.000030
1717	1.7074e+02	2.9202	1.059498	0.000328	3.275846	0.554943	-0.000033
1718	1.7084e+02	2.9095	1.024874	0.000348	3.480587	0.589627	-0.000035
1719	1.7094e+02	2.9050	0.993101	0.000319	3.193950	0.541070	-0.000032
1720	1.7104e+02	2.8909	0.963772	0.000295	2.948262	0.499449	-0.000029
1721	1.7114e+02	2.8826	0.929148	0.000348	3.480587	0.589627	-0.000035
1722	1.7124e+02	2.8703	0.896968	0.000323	3.234898	0.548007	-0.000032
1723	1.7134e+02	2.8649	0.864381	0.000328	3.275846	0.554943	-0.000033
1724	1.7144e+02	2.8493	0.830571	0.000340	3.398691	0.575754	-0.000034
1725	1.7154e+02	2.8443	0.798799	0.000319	3.193950	0.541070	-0.000032
1726	1.7164e+02	2.8307	0.762953	0.000360	3.603431	0.610438	-0.000036
1727	1.7174e+02	2.8213	0.734031	0.000291	2.907314	0.492512	-0.000029
1728	1.7184e+02	2.8102	0.702259	0.000319	3.193950	0.541070	-0.000032
1729	1.7194e+02	2.8012	0.668856	0.000336	3.357743	0.568817	-0.000034
1730	1.7204e+02	2.7898	0.633825	0.000352	3.521535	0.596564	-0.000035
1731	1.7213e+02	2.7833	0.604496	0.000295	2.948262	0.499449	-0.000029
1732	1.7223e+02	2.7733	0.569872	0.000348	3.480587	0.589627	-0.000035
1733	1.7233e+02	2.7613	0.536470	0.000336	3.357743	0.568817	-0.000034
1734	1.7243e+02	2.7501	0.501031	0.000356	3.562483	0.603501	-0.000036
1735	1.7253e+02	2.7428	0.469259	0.000319	3.193950	0.541070	-0.000032
1736	1.7263e+02	2.7327	0.437893	0.000315	3.153002	0.534133	-0.000032
1737	1.7273e+02	2.7212	0.405713	0.000323	3.234898	0.548007	-0.000032
1738	1.7283e+02	2.7113	0.371089	0.000348	3.480587	0.589627	-0.000035
1739	1.7293e+02	2.7029	0.336465	0.000348	3.480587	0.589627	-0.000035
1740	1.7303e+02	2.6924	0.303878	0.000328	3.275846	0.554943	-0.000033
1741	1.7313e+02	2.6853	0.269253	0.000348	3.480587	0.589627	-0.000035
1742	1.7323e+02	2.6723	0.231371	0.000381	3.808171	0.645122	-0.000038
1743	1.7333e+02	2.6624	0.202042	0.000295	2.948262	0.499449	-0.000029
1744	1.7343e+02	2.6521	0.173528	0.000287	2.866366	0.485575	-0.000029
1745	1.7353e+02	2.6467	0.134423	0.000393	3.931016	0.665932	-0.000039
1746	1.7363e+02	2.6310	0.104687	0.000299	2.989210	0.506386	-0.000030
1747	1.7373e+02	2.6202	0.067212	0.000377	3.767223	0.638185	-0.000038
1748	1.7383e+02	2.6097	0.032587	0.000348	3.480587	0.589627	-0.000035
1749	1.7393e+02	2.6002	-0.004888	0.000377	3.767223	0.638185	-0.000038
1750	1.7403e+02	2.5932	-0.032995	0.000283	2.825418	0.478639	-0.000028
1751	1.7413e+02	2.5819	-0.075358	0.000426	4.258600	0.721426	-0.000043
1752	1.7422e+02	2.5720	-0.110797	0.000356	3.562483	0.603501	-0.000036
1753	1.7432e+02	2.5619	-0.143792	0.000332	3.316794	0.561880	-0.000033
1754	1.7442e+02	2.5524	-0.183711	0.000401	4.012912	0.679806	-0.000040
1755	1.7452e+02	2.5427	-0.218743	0.000352	3.521535	0.596564	-0.000035
1756	1.7462e+02	2.5356	-0.251330	0.000328	3.275846	0.554943	-0.000033
1757	1.7472e+02	2.5216	-0.288806	0.000377	3.767223	0.638185	-0.000038
1758	1.7482e+02	2.5125	-0.320986	0.000323	3.234898	0.548007	-0.000032
1759	1.7492e+02	2.5034	-0.359683	0.000389	3.890068	0.658995	-0.000039
1760	1.7502e+02	2.4940	-0.392271	0.000328	3.275846	0.554943	-0.000033
1761	1.7512e+02	2.4828	-0.428524	0.000364	3.644379	0.617375	-0.000036
1762	1.7522e+02	2.4763	-0.464371	0.000360	3.603431	0.610438	-0.000036
1763	1.7532e+02	2.4644	-0.499809	0.000356	3.562483	0.603501	-0.000036
1764	1.7542e+02	2.4556	-0.536877	0.000373	3.726275	0.631248	-0.000037
1765	1.7552e+02	2.4445	-0.574353	0.000377	3.767223	0.638185	-0.000038
1766	1.7562e+02	2.4317	-0.610199	0.000360	3.603431	0.610438	-0.000036
1767	1.7572e+02	2.4281	-0.648489	0.000385	3.849119	0.652058	-0.000038
1768	1.7582e+02	2.4133	-0.684335	0.000360	3.603431	0.610438	-0.000036
1769	1.7592e+02	2.4043	-0.717738	0.000336	3.357743	0.568817	-0.000034
1770	1.7602e+02	2.3936	-0.752769	0.000352	3.521535	0.596564	-0.000035
1771	1.7612e+02	2.3816	-0.787800	0.000352	3.521535	0.596564	-0.000035
1772	1.7621e+02	2.3737	-0.824869	0.000373	3.726275	0.631248	-0.000037
1773	1.7631e+02	2.3623	-0.859900	0.000352	3.521535	0.596564	-0.000035
1774	1.7641e+02	2.3531	-0.896561	0.000369	3.685327	0.624311	-0.000037
1775	1.7651e+02	2.3415	-0.927112	0.000307	3.071106	0.520259	-0.000031
1776	1.7661e+02	2.3325	-0.965402	0.000385	3.849119	0.652058	-0.000038
1777	1.7671e+02	2.3233	-0.997175	0.000319	3.193950	0.541070	-0.000032
1778	1.7681e+02	2.3125	-1.033021	0.000360	3.603431	0.610438	-0.000036
1779	1.7691e+02	2.3042	-1.068867	0.000360	3.603431	0.610438	-0.000036
1780	1.7701e+02	2.2951	-1.107157	0.000385	3.849119	0.652058	-0.000038
1781	1.7711e+02	2.2840	-1.141374	0.000344	3.439639	0.582691	-0.000034
1782	1.7721e+02	2.2738	-1.177627	0.000364	3.644379	0.617375	-0.000036
1783	1.7731e+02	2.2607	-1.211437	0.000340	3.398691	0.575754	-0.000034
1784	1.7741e+02	2.2549	-1.247283	0.000360	3.603431	0.610438	-0.000036
1785	1.7751e+02	2.2436	-1.286388	0.000393	3.931016	0.665932	-0.000039
1786	1.7761e+02	2.2348	-1.324271	0.000381	3.808171	0.645122	-0.000038
1787	1.7771e+02	2.2233	-1.360524	0.000364	3.644379	0.617375	-0.000036
1788	1.7781e+02	2.2150	-1.391889	0.000315	3.153002	0.534133	-0.000032
1789	1.7791e+02	2.2044	-1.428143	0.000364	3.644379	0.617375	-0.000036
1790	1.7801e+02	2.1959	-1.465619	0.000377	3.767223	0.638185	-0.000038
1791	1.7810e+02	2.1865	-1.501057	0.000356	3.562483	0.603501	-0.000036
1792	1.7820e+02	2.1767	-1.536496	0.000356	3.562483	0.603501	-0.000036
1793	1.7830e+02	2.1642	-1.571935	0.000356	3.562483	0.603501	-0.000036
1794	1.7840e+02	2.1535	-1.605744	0.000340	3.398691	0.575754	-0.000034
1795	1.7850e+02	2.1445	-1.646071	0.000405	4.053860	0.686742	-0.000041
1796	1.7860e+02	2.1349	-1.683139	0.000373	3.726275	0.631248	-0.000037
1797	1.7870e+02	2.1251	-1.716949	0.000340	3.398691	0.575754	-0.000034
1798	1.7880e+02	2.1140	-1.750758	0.000340	3.398691	0.575754	-0.000034
1799	1.7890e+02	2.1060	-1.786604	0.000360	3.603431	0.610438	-0.000036
1800	1.7900e+02	2.0971	-1.823265	0.000369	3.685327	0.624311	-0.000037
1801	1.7910e+02	2.0879	-1.857482	0.000344	3.439639	0.582691	-0.000034
1802	1.7920e+02	2.0776	-1.892513	0.000352	3.521535	0.596564	-0.000035
1803	1.7930e+02	2.0657	-1.926323	0.000340	3.398691	0.575754	-0.000034
1804	1.7940e+02	2.0568	-1.961354	0.000352	3.521535	0.596564	-0.000035
1805	1.7950e+02	2.0447	-1.994756	0.000336	3.357743	0.568817	-0.000034
1806	1.7960e+02	2.0356	-2.027751	0.000332	3.316794	0.561880	-0.000033
1807	1.7970e+02	2.0255	-2.061968	0.000344	3.439639	0.582691	-0.000034
1808	1.7980e+02	2.0155	-2.095370	0.000336	3.357743	0.568817	-0.000034
1809	1.7990e+02	2.0080	-2.130402	0.000352	3.521535	0.596564	-0.000035
1810	1.8000e+02	1.9968	-2.164211	0.000340	3.398691	0.575754	-0.000034
1811	1.8009e+02	1.9897	-2.200872	0.000369	3.685327	0.624311	-0.000037
1812	1.8019e+02	1.9785	-2.235903	0.000352	3.521535	0.596564	-0.000035
1813	1.8029e+02	1.9662	-2.269305	0.000336	3.357743	0.568817	-0.000034
1814	1.8039e+02	1.9555	-2.304337	0.000352	3.521535	0.596564	-0.000035
1815	1.8049e+02	1.9450	-2.336924	0.000328	3.275846	0.554943	-0.000033
1816	1.8059e+02	1.9360	-2.373992	0.000373	3.726275	0.631248	-0.000037
1817	1.8069e+02	1.9273	-2.409431	0.000356	3.562483	0.603501	-0.000036
1818	1.8079e+02	1.9141	-2.443648	0.000344	3.439639	0.582691	-0.000034
1819	1.8089e+02	1.9089	-2.473384	0.000299	2.989210	0.506386	-0.000030
1820	1.8099e+02	1.8961	-2.507601	0.000344	3.439639	0.582691	-0.000034
1821	1.8109e+02	1.8872	-2.544262	0.000369	3.685327	0.624311	-0.000037
1822	1.8119e+02	1.8758	-2.576849	0.000328	3.275846	0.554943	-0.000033
1823	1.8129e+02	1.8671	-2.610251	0.000336	3.357743	0.568817	-0.000034
1824	1.8139e+02	1.8565	-2.648134	0.000381	3.808171	0.645122	-0.000038
1825	1.8149e+02	1.8474	-2.681536	0.000336	3.357743	0.568817	-0.000034
1826	1.8159e+02	1.8372	-2.712901	0.000315	3.153002	0.534133	-0.000032
1827	1.8169e+02	1.8256	-2.750784	0.000381	3.808171	0.645122	-0.000038
1828	1.8179e+02	1.8181	-2.786223	0.000356	3.562483	0.603501	-0.000036
1829	1.8189e+02	1.8059	-2.818810	0.000328	3.275846	0.554943	-0.000033
1830	1.8199e+02	1.7966	-2.854249	0.000356	3.562483	0.603501	-0.000036
1831	1.8209e+02	1.7895	-2.886429	0.000323	3.234898	0.548007	-0.000032
1832	1.8218e+02	1.7785	-2.920646	0.000344	3.439639	0.582691	-0.000034
1833	1.8228e+02	1.7676	-2.952419	0.000319	3.193950	0.541070	-0.000032
1834	1.8238e+02	1.7558	-2.985821	0.000336	3.357743	0.568817	-0.000034
1835	1.8248e+02	1.7475	-3.020038	0.000344	3.439639	0.582691	-0.000034
1836	1.8258e+02	1.7372	-3.053032	0.000332	3.316794	0.561880	-0.000033
1837	1.8268e+02	1.7281	-3.084805	0.000319	3.193950	0.541070	-0.000032
1838	1.8278e+02	1.7193	-3.119429	0.000348	3.480587	0.589627	-0.000035
1839	1.8288e+02	1.7076	-3.150387	0.000311	3.112054	0.527196	-0.000031
1840	1.8298e+02	1.6961	-3.184604	0.000344	3.439639	0.582691	-0.000034
1841	1.8308e+02	1.6869	-3.218413	0.000340	3.398691	0.575754	-0.000034
1842	1.8318e+02	1.6788	-3.251408	0.000332	3.316794	0.561880	-0.000033
1843	1.8328e+02	1.6688	-3.287254	0.000360	3.603431	0.610438	-0.000036
1844	1.8338e+02	1.6564	-3.321064	0.000340	3.398691	0.575754	-0.000034
1845	1.8348e+02	1.6468	-3.356910	0.000360	3.603431	0.610438	-0.000036
1846	1.8358e+02	1.6380	-3.387053	0.000303	3.030158	0.513323	-0.000030
1847	1.8368e+02	1.6275	-3.420455	0.000336	3.357743	0.568817	-0.000034
1848	1.8378e+02	1.6180	-3.454265	0.000340	3.398691	0.575754	-0.000034
1849	1.8388e+02	1.6080	-3.489296	0.000352	3.521535	0.596564	-0.000035
1850	1.8398e+02	1.5969	-3.517810	0.000287	2.866366	0.485575	-0.000029
1851	1.8407e+02	1.5898	-3.552027	0.000344	3.439639	0.582691	-0.000034
1852	1.8417e+02	1.5759	-3.587873	0.000360	3.603431	0.610438	-0.000036
1853	1.8427e+02	1.5668	-3.623719	0.000360	3.603431	0.610438	-0.000036
1854	1.8437e+02	1.5588	-3.653048	0.000295	2.948262	0.499449	-0.000029
1855	1.8447e+02	1.5490	-3.691338	0.000385	3.849119	0.652058	-0.000038
1856	1.8457e+02	1.5367	-3.727592	0.000364	3.644379	0.617375	-0.000036
1857	1.8467e+02	1.5285	-3.763438	0.000360	3.603431	0.610438	-0.000036
1858	1.8477e+02	1.5166	-3.800913	0.000377	3.767223	0.638185	-0.000038
1859	1.8487e+02	1.5090	-3.837982	0.000373	3.726275	0.631248	-0.000037
1860	1.8497e+02	1.4964	-3.868532	0.000307	3.071106	0.520259	-0.000031
1861	1.8507e+02	1.4874	-3.906008	0.000377	3.767223	0.638185	-0.000038
1862	1.8517e+02	1.4805	-3.942261	0.000364	3.644379	0.617375	-0.000036
1863	1.8527e+02	1.4671	-3.974441	0.000323	3.234898	0.548007	-0.000032
1864	1.8537e+02	1.4583	-4.009880	0.000356	3.562483	0.603501	-0.000036
1865	1.8547e+02	1.4474	-4.043282	0.000336	3.357743	0.568817	-0.000034
1866	1.8557e+02	1.4389	-4.076684	0.000336	3.357743	0.568817	-0.000034
1867	1.8567e+02	1.4291	-4.109679	0.000332	3.316794	0.561880	-0.000033
1868	1.8577e+02	1.4198	-4.146747	0.000373	3.726275	0.631248	-0.000037
1869	1.8587e+02	1.4085	-4.183001	0.000364	3.644379	0.617375	-0.000036
1870	1.8597e+02	1.3976	-4.220069	0.000373	3.726275	0.631248	-0.000037
1871	1.8606e+02	1.3884	-4.253878	0.000340	3.398691	0.575754	-0.000034
1872	1.8616e+02	1.3785	-4.288910	0.000352	3.521535	0.596564	-0.000035
1873	1.8626e+02	1.3683	-4.326793	0.000381	3.808171	0.645122	-0.000038
1874	1.8636e+02	1.3617	-4.356529	0.000299	2.989210	0.506386	-0.000030
1875	1.8646e+02	1.3489	-4.393597	0.000373	3.726275	0.631248	-0.000037
1876	1.8656e+02	1.3385	-4.429850	0.000364	3.644379	0.617375	-0.000036
1877	1.8666e+02	1.3285	-4.464067	0.000344	3.439639	0.582691	-0.000034
1878	1.8676e+02	1.3189	-4.497062	0.000332	3.316794	0.561880	-0.000033
1879	1.8686e+02	1.3114	-4.535759	0.000389	3.890068	0.658995	-0.000039
1880	1.8696e+02	1.2990	-4.569976	0.000344	3.439639	0.582691	-0.000034
1881	1.8706e+02	1.2907	-4.606230	0.000364	3.644379	0.617375	-0.000036
1882	1.8716e+02	1.2793	-4.644520	0.000385	3.849119	0.652058	-0.000038
1883	1.8726e+02	1.2699	-4.678737	0.000344	3.439639	0.582691	-0.000034
1884	1.8736e+02	1.2631	-4.717434	0.000389	3.890068	0.658995	-0.000039
1885	1.8746e+02	1.2506	-4.750429	0.000332	3.316794	0.561880	-0.000033
1886	1.8756e+02	1.2415	-4.789534	0.000393	3.931016	0.665932	-0.000039
1887	1.8766e+02	1.2286	-4.824158	0.000348	3.480587	0.589627	-0.000035
1888	1.8776e+02	1.2179	-4.866114	0.000422	4.217652	0.714490	-0.000042
1889	1.8786e+02	1.2099	-4.903590	0.000377	3.767223	0.638185	-0.000038
1890	1.8796e+02	1.1984	-4.943917	0.000405	4.053860	0.686742	-0.000041
1891	1.8806e+02	1.1911	-4.978948	0.000352	3.521535	0.596564	-0.000035
1892	1.8815e+02	1.1801	-5.018868	0.000401	4.012912	0.679806	-0.000040
1893	1.8825e+02	1.1708	-5.057158	0.000385	3.849119	0.652058	-0.000038
1894	1.8835e+02	1.1607	-5.094633	0.000377	3.767223	0.638185	-0.000038
1895	1.8845e+02	1.1517	-5.135775	0.000414	4.135756	0.700616	-0.000041
1896	1.8855e+02	1.1413	-5.172843	0.000373	3.726275	0.631248	-0.000037
1897	1.8865e+02	1.1330	-5.213170	0.000405	4.053860	0.686742	-0.000041
1898	1.8875e+02	1.1202	-5.250238	0.000373	3.726275	0.631248	-0.000037
1899	1.8885e+02	1.1105	-5.288528	0.000385	3.849119	0.652058	-0.000038
1900	1.8895e+02	1.1021	-5.325597	0.000373	3.726275	0.631248	-0.000037
1901	1.8905e+02	1.0904	-5.364701	0.000393	3.931016	0.665932	-0.000039
1902	1.8915e+02	1.0810	-5.402584	0.000381	3.808171	0.645122	-0.000038
1903	1.8925e+02	1.0717	-5.443726	0.000414	4.135756	0.700616	-0.000041
1904	1.8935e+02	1.0603	-5.483238	0.000397	3.971964	0.672869	-0.000040
1905	1.8945e+02	1.0508	-5.523565	0.000405	4.053860	0.686742	-0.000041
1906	1.8955e+02	1.0403	-5.561448	0.000381	3.808171	0.645122	-0.000038
1907	1.8965e+02	1.0292	-5.599738	0.000385	3.849119	0.652058	-0.000038
1908	1.8975e+02	1.0242	-5.640065	0.000405	4.053860	0.686742	-0.000041
1909	1.8985e+02	1.0103	-5.678355	0.000385	3.849119	0.652058	-0.000038
1910	1.8995e+02	1.0043	-5.718275	0.000401	4.012912	0.679806	-0.000040
1911	1.9004e+02	0.9914	-5.754528	0.000364	3.644379	0.617375	-0.000036
1912	1.9014e+02	0.9798	-5.794448	0.000401	4.012912	0.679806	-0.000040
1913	1.9024e+02	0.9732	-5.832331	0.000381	3.808171	0.645122	-0.000038
1914	1.9034e+02	0.9585	-5.873065	0.000409	4.094808	0.693679	-0.000041
1915	1.9044e+02	0.9529	-5.910540	0.000377	3.767223	0.638185	-0.000038
1916	1.9054e+02	0.9420	-5.949645	0.000393	3.931016	0.665932	-0.000039
1917	1.9064e+02	0.9323	-5.992416	0.000430	4.299548	0.728363	-0.000043
1918	1.9074e+02	0.9188	-6.033965	0.000418	4.176704	0.707553	-0.000042
1919	1.9084e+02	0.9119	-6.075921	0.000422	4.217652	0.714490	-0.000042
1920	1.9094e+02	0.9019	-6.117878	0.000422	4.217652	0.714490	-0.000042
1921	1.9104e+02	0.8920	-6.161871	0.000442	4.422393	0.749174	-0.000044
1922	1.9114e+02	0.8811	-6.201790	0.000401	4.012912	0.679806	-0.000040
1923	1.9124e+02	0.8733	-6.243747	0.000422	4.217652	0.714490	-0.000042
1924	1.9134e+02	0.8597	-6.286110	0.000426	4.258600	0.721426	-0.000043
1925	1.9144e+02	0.8517	-6.324808	0.000389	3.890068	0.658995	-0.000039
1926	1.9154e+02	0.8404	-6.364727	0.000401	4.012912	0.679806	-0.000040
1927	1.9164e+02	0.8349	-6.402610	0.000381	3.808171	0.645122	-0.000038
1928	1.9174e+02	0.8205	-6.449455	0.000471	4.709029	0.797731	-0.000047
1929	1.9184e+02	0.8142	-6.489374	0.000401	4.012912	0.679806	-0.000040
1930	1.9194e+02	0.8032	-6.531738	0.000426	4.258600	0.721426	-0.000043
1931	1.9203e+02	0.7924	-6.574916	0.000434	4.340496	0.735300	-0.000043
1932	1.9213e+02	0.7805	-6.615650	0.000409	4.094808	0.693679	-0.000041
1933	1.9223e+02	0.7732	-6.660865	0.000455	4.545237	0.769984	-0.000045
1934	1.9233e+02	0.7614	-6.703229	0.000426	4.258600	0.721426	-0.000043
1935	1.9243e+02	0.7523	-6.741519	0.000385	3.849119	0.652058	-0.000038
1936	1.9253e+02	0.7423	-6.784290	0.000430	4.299548	0.728363	-0.000043
1937	1.9263e+02	0.7301	-6.824210	0.000401	4.012912	0.679806	-0.000040
1938	1.9273e+02	0.7211	-6.867388	0.000434	4.340496	0.735300	-0.000043
1939	1.9283e+02	0.7129	-6.904456	0.000373	3.726275	0.631248	-0.000037
1940	1.9293e+02	0.7011	-6.947227	0.000430	4.299548	0.728363	-0.000043
1941	1.9303e+02	0.6948	-6.988369	0.000414	4.135756	0.700616	-0.000041
1942	1.9313e+02	0.6812	-7.028696	0.000405	4.053860	0.686742	-0.000041
1943	1.9323e+02	0.6726	-7.071059	0.000426	4.258600	0.721426	-0.000043
1944	1.9333e+02	0.6625	-7.110572	0.000397	3.971964	0.672869	-0.000040
1945	1.9343e+02	0.6529	-7.154157	0.000438	4.381445	0.742237	-0.000044
1946	1.9353e+02	0.6440	-7.193262	0.000393	3.931016	0.665932	-0.000039
1947	1.9363e+02	0.6326	-7.236848	0.000438	4.381445	0.742237	-0.000044
1948	1.9373e+02	0.6258	-7.274323	0.000377	3.767223	0.638185	-0.000038
1949	1.9383e+02	0.6122	-7.317094	0.000430	4.299548	0.728363	-0.000043
1950	1.9393e+02	0.6037	-7.357829	0.000409	4.094808	0.693679	-0.000041
1951	1.9403e+02	0.5924	-7.400599	0.000430	4.299548	0.728363	-0.000043
1952	1.9412e+02	0.5821	-7.444185	0.000438	4.381445	0.742237	-0.000044
1953	1.9422e+02	0.5748	-7.482068	0.000381	3.808171	0.645122	-0.000038
1954	1.9432e+02	0.5645	-7.526468	0.000446	4.463341	0.756110	-0.000045
1955	1.9442e+02	0.5536	-7.566388	0.000401	4.012912	0.679806	-0.000040
1956	1.9452e+02	0.5405	-7.606307	0.000401	4.012912	0.679806	-0.000040
1957	1.9462e+02	0.5345	-7.648264	0.000422	4.217652	0.714490	-0.000042
1958	1.9472e+02	0.5227	-7.690627	0.000426	4.258600	0.721426	-0.000043
1959	1.9482e+02	0.5147	-7.738286	0.000479	4.790925	0.811605	-0.000048
1960	1.9492e+02	0.5035	-7.777391	0.000393	3.931016	0.665932	-0.000039
1961	1.9502e+02	0.4946	-7.814867	0.000377	3.767223	0.638185	-0.000038
1962	1.9512e+02	0.4842	-7.862119	0.000475	4.749977	0.804668	-0.000047
1963	1.9522e+02	0.4716	-7.900816	0.000389	3.890068	0.658995	-0.000039
1964	1.9532e+02	0.4639	-7.944402	0.000438	4.381445	0.742237	-0.000044
1965	1.9542e+02	0.4535	-7.987580	0.000434	4.340496	0.735300	-0.000043
1966	1.9552e+02	0.4449	-8.026685	0.000393	3.931016	0.665932	-0.000039
1967	1.9562e+02	0.4314	-8.065383	0.000389	3.890068	0.658995	-0.000039
1968	1.9572e+02	0.4245	-8.110598	0.000455	4.545237	0.769984	-0.000045
1969	1.9582e+02	0.4114	-8.148888	0.000385	3.849119	0.652058	-0.000038
1970	1.9592e+02	0.4038	-8.187585	0.000389	3.890068	0.658995	-0.000039
1971	1.9601e+02	0.3937	-8.225468	0.000381	3.808171	0.645122	-0.000038
1972	1.9611e+02	0.3828	-8.267832	0.000426	4.258600	0.721426	-0.000043
1973	1.9621e+02	0.3754	-8.307751	0.000401	4.012912	0.679806	-0.000040
1974	1.9631e+02	0.3634	-8.346449	0.000389	3.890068	0.658995	-0.000039
1975	1.9641e+02	0.3530	-8.386368	0.000401	4.012912	0.679806	-0.000040
1976	1.9651e+02	0.3450	-8.426695	0.000405	4.053860	0.686742	-0.000041
1977	1.9661e+02	0.3343	-8.463356	0.000369	3.685327	0.624311	-0.000037
1978	1.9671e+02	0.3242	-8.506942	0.000438	4.381445	0.742237	-0.000044
1979	1.9681e+02	0.3151	-8.548083	0.000414	4.135756	0.700616	-0.000041
1980	1.9691e+02	0.3056	-8.588410	0.000405	4.053860	0.686742	-0.000041
1981	1.9701e+02	0.2937	-8.628330	0.000401	4.012912	0.679806	-0.000040
1982	1.9711e+02	0.2869	-8.671101	0.000430	4.299548	0.728363	-0.000043
1983	1.9721e+02	0.2766	-8.706540	0.000356	3.562483	0.603501	-0.000036
1984	1.9731e+02	0.2644	-8.750533	0.000442	4.422393	0.749174	-0.000044
1985	1.9741e+02	0.2538	-8.793711	0.000434	4.340496	0.735300	-0.000043
1986	1.9751e+02	0.2445	-8.830372	0.000369	3.685327	0.624311	-0.000037
1987	1.9761e+02	0.2368	-8.869884	0.000397	3.971964	0.672869	-0.000040
1988	1.9771e+02	0.2243	-8.906952	0.000373	3.726275	0.631248	-0.000037
1989	1.9781e+02	0.2164	-8.948501	0.000418	4.176704	0.707553	-0.000042
1990	1.9791e+02	0.2057	-8.991272	0.000430	4.299548	0.728363	-0.000043
1991	1.9800e+02	0.1955	-9.028340	0.000373	3.726275	0.631248	-0.000037
1992	1.9810e+02	0.1832	-9.069889	0.000418	4.176704	0.707553	-0.000042
1993	1.9820e+02	0.1733	-9.112660	0.000430	4.299548	0.728363	-0.000043
1994	1.9830e+02	0.1675	-9.148099	0.000356	3.562483	0.603501	-0.000036
1995	1.9840e+02	0.1567	-9.190055	0.000422	4.217652	0.714490	-0.000042
1996	1.9850e+02	0.1461	-9.229975	0.000401	4.012912	0.679806	-0.000040
1997	1.9860e+02	0.1369	-9.271931	0.000422	4.217652	0.714490	-0.000042
1998	1.9870e+02	0.1254	-9.313887	0.000422	4.217652	0.714490	-0.000042
1999	1.9880e+02	0.1166	-9.349734	0.000360	3.603431	0.610438	-0.000036
2000	1.9890e+02	0.1069	-9.390060	0.000405	4.053860	0.686742	-0.000041
2001	1.9900e+02	0.0946	-9.428351	0.000385	3.849119	0.652058	-0.000038
2002	1.9910e+02	0.0854	-9.469900	0.000418	4.176704	0.707553	-0.000042
2003	1.9920e+02	0.0759	-9.509819	0.000401	4.012912	0.679806	-0.000040
2004	1.9930e+02	0.0632	-9.542814	0.000332	3.316794	0.561880	-0.000033
2005	1.9940e+02	0.0542	-9.585585	0.000430	4.299548	0.728363	-0.000043
2006	1.9950e+02	0.0454	-9.621024	0.000356	3.562483	0.603501	-0.000036
2007	1.9960e+02	0.0352	-9.662980	0.000422	4.217652	0.714490	-0.000042
2008	1.9970e+02	0.0253	-9.697197	0.000344	3.439639	0.582691	-0.000034
2009	1.9980e+02	0.0124	-9.739153	0.000422	4.217652	0.714490	-0.000042
2010	1.9990e+02	0.0053	-9.779887	0.000409	4.094808	0.693679	-0.000041
2011	2.0000e+02	-0.0023	-9.816548	0.000409	4.094808	0.693679	-0.000037

PMax (uC/cm2):	3.28e+01
Pr (uC/cm2):	6.66e+00
-Pr (uC/cm2):	0.00e+00
PLoss (uC/cm2):	0.00e+00
C (Max-Eff) (nF):	3.28e-01
K (Eff):	5.56e+02
Vert. (+/-Pr) Shift (uC/cm2):	3.33e+00
Offset (uC/cm2):	1.65e+01

A (Loop Area - uC/cm2·Volts):	-6.33e-02



Hysteresis Version: 5.48.1 - Radiant Technologies, Inc., 1999 - 9/12/24

