»»»»»»»»»»»»»»»»»»»»»»»»»»»»»»»»»»»» Hysteresis ««««««««««««««««««««««««««««««««««««
»»»  Executed Version:	5.48.1
»»»  Vision Version:	5.48.4 (R)
»»»  Vision Compiled:	9/18/24
»»»  Driver Version:	5.47.0
»»»  Windows Version:	Windows 8 or 8.1
»»»  Processor Information:	x86 (AMD or Intel) - 32 Processors
»»»  Tester Name:	PMF21124-494 (100V)
»»»  Tester S/N:	PMF21124-494
»»»  Internal Amp Type:	100V RevK 270k
»»»  Internal Amp S/N:	iAB2-596/K     
»»»  Execution Count:	1
»»»»»»»»»»»»»»»»»»»»»»»»»»»»»»»»»»»»»»»»»»««««««««««««««««««««««««««««««««««««««««««

Stored:	6/25/2025 - 14:25:57
Configured:	06/25/25 10:44:40 AM
Executed:	06/25/25 02:25:27 PM

»»»»»»»»»»»»»»»»»»»»»»»»»»»»»»»»»»» Sample Info ««««««««««««««««««««««««««««««««««««
Sample Name:	
Lot Name:	
Wafer Name:	
Die Row/Column:	0/0
Capacitor Number:	0
Sample Area (cm2):	1.00e-04
Sample Thickness (microns):	1.50e-01

Amplifier:	Internal

»»»»»»»»»»»»»»»»»»»»»»»»»»»»»»»»»»» Tester Info «««««««««««««««««««««««««««««««««««
Tester Name:	PMF21124-494 (100V)
Tester Serial Number:	PMF21124-494
Return Signal Amp. Level:	1.9 [Index: 2]

»»»»»»»»»»»»»»»»»»»»»»»»»»»»»»»» Hysteresis Info ««««««««««««««««««««««««««««««««««
Task Name:	Hyst-116
Volts:	10.00
Field:	666.67 (kV/cm)
DCBias:	0.00
DCField:	0.00 (kV/cm)
Hysteresis Period (ms):	2.00e+02
Preset:	Enabled
Preset Delay (ms):	1.00e+03
Profile:	Standard Monopolar

»»»»»»»»»»»»»»»»»»»»»»»»»»»»»»»»»»»»»» Data «««««««««««««««««««««««««««««««««««««««
Points:	2011

Valid Data

Point	Time (ms)	Drive Voltage	Measured Polarization (uC/cm2)	Capacitance (uF)	Normalized Capacitance (uF/cm2)	Dielectric Constant	Instantaneous Current (mA)
   1	0.0000e+00	-0.0047	-15.865178	0.000356	3.562306	0.603471	0.000036
   2	9.9500e-02	0.0065	-15.829739	0.000356	3.562306	0.603471	0.000036
   3	1.9900e-01	0.0140	-15.795522	0.000344	3.439468	0.582662	0.000034
   4	2.9850e-01	0.0259	-15.760083	0.000356	3.562306	0.603471	0.000036
   5	3.9800e-01	0.0364	-15.718942	0.000414	4.135551	0.700581	0.000041
   6	4.9750e-01	0.0431	-15.683910	0.000352	3.521360	0.596535	0.000035
   7	5.9700e-01	0.0551	-15.645620	0.000385	3.848929	0.652026	0.000038
   8	6.9650e-01	0.0649	-15.610996	0.000348	3.480414	0.589598	0.000035
   9	7.9600e-01	0.0747	-15.574742	0.000364	3.644198	0.617344	0.000036
  10	8.9550e-01	0.0853	-15.535638	0.000393	3.930821	0.665899	0.000039
  11	9.9500e-01	0.0934	-15.498569	0.000373	3.726090	0.631217	0.000037
  12	1.0945e+00	0.1009	-15.465167	0.000336	3.357576	0.568789	0.000034
  13	1.1940e+00	0.1141	-15.432580	0.000328	3.275684	0.554916	0.000033
  14	1.2935e+00	0.1209	-15.389809	0.000430	4.299335	0.728327	0.000043
  15	1.3930e+00	0.1343	-15.355592	0.000344	3.439468	0.582662	0.000034
  16	1.4925e+00	0.1441	-15.320968	0.000348	3.480414	0.589598	0.000035
  17	1.5920e+00	0.1551	-15.286751	0.000344	3.439468	0.582662	0.000034
  18	1.6915e+00	0.1646	-15.249683	0.000373	3.726090	0.631217	0.000037
  19	1.7910e+00	0.1743	-15.213837	0.000360	3.603252	0.610407	0.000036
  20	1.8905e+00	0.1839	-15.176769	0.000373	3.726090	0.631217	0.000037
  21	1.9900e+00	0.1938	-15.138479	0.000385	3.848929	0.652026	0.000038
  22	2.0895e+00	0.2031	-15.102632	0.000360	3.603252	0.610407	0.000036
  23	2.1890e+00	0.2171	-15.068008	0.000348	3.480414	0.589598	0.000035
  24	2.2885e+00	0.2254	-15.027274	0.000409	4.094605	0.693645	0.000041
  25	2.3880e+00	0.2338	-14.992243	0.000352	3.521360	0.596535	0.000035
  26	2.4875e+00	0.2459	-14.954767	0.000377	3.767036	0.638153	0.000038
  27	2.5870e+00	0.2546	-14.915662	0.000393	3.930821	0.665899	0.000039
  28	2.6865e+00	0.2650	-14.876557	0.000393	3.930821	0.665899	0.000039
  29	2.7860e+00	0.2728	-14.844785	0.000319	3.193792	0.541043	0.000032
  30	2.8855e+00	0.2859	-14.803643	0.000414	4.135551	0.700581	0.000041
  31	2.9850e+00	0.2972	-14.766575	0.000373	3.726090	0.631217	0.000037
  32	3.0845e+00	0.3042	-14.731951	0.000348	3.480414	0.589598	0.000035
  33	3.1840e+00	0.3149	-14.695290	0.000369	3.685144	0.624280	0.000037
  34	3.2835e+00	0.3230	-14.651704	0.000438	4.381227	0.742200	0.000044
  35	3.3830e+00	0.3349	-14.612192	0.000397	3.971767	0.672835	0.000040
  36	3.4825e+00	0.3414	-14.573087	0.000393	3.930821	0.665899	0.000039
  37	3.5820e+00	0.3542	-14.534797	0.000385	3.848929	0.652026	0.000038
  38	3.6815e+00	0.3654	-14.496914	0.000381	3.807983	0.645090	0.000038
  39	3.7810e+00	0.3734	-14.459846	0.000373	3.726090	0.631217	0.000037
  40	3.8805e+00	0.3845	-14.419519	0.000405	4.053659	0.686708	0.000041
  41	3.9800e+00	0.3961	-14.382043	0.000377	3.767036	0.638153	0.000038
  42	4.0795e+00	0.4053	-14.344161	0.000381	3.807983	0.645090	0.000038
  43	4.1790e+00	0.4140	-14.305870	0.000385	3.848929	0.652026	0.000038
  44	4.2785e+00	0.4218	-14.266358	0.000397	3.971767	0.672835	0.000040
  45	4.3780e+00	0.4346	-14.230919	0.000356	3.562306	0.603471	0.000036
  46	4.4775e+00	0.4411	-14.191407	0.000397	3.971767	0.672835	0.000040
  47	4.5770e+00	0.4566	-14.157190	0.000344	3.439468	0.582662	0.000034
  48	4.6765e+00	0.4625	-14.115234	0.000422	4.217443	0.714454	0.000042
  49	4.7760e+00	0.4740	-14.078981	0.000364	3.644198	0.617344	0.000036
  50	4.8755e+00	0.4840	-14.042727	0.000364	3.644198	0.617344	0.000036
  51	4.9750e+00	0.4909	-14.001993	0.000409	4.094605	0.693645	0.000041
  52	5.0745e+00	0.5045	-13.966147	0.000360	3.603252	0.610407	0.000036
  53	5.1740e+00	0.5123	-13.929079	0.000373	3.726090	0.631217	0.000037
  54	5.2735e+00	0.5219	-13.892418	0.000369	3.685144	0.624280	0.000037
  55	5.3730e+00	0.5320	-13.855350	0.000373	3.726090	0.631217	0.000037
  56	5.4725e+00	0.5422	-13.815837	0.000397	3.971767	0.672835	0.000040
  57	5.5720e+00	0.5535	-13.778362	0.000377	3.767036	0.638153	0.000038
  58	5.6715e+00	0.5645	-13.739664	0.000389	3.889875	0.658963	0.000039
  59	5.7710e+00	0.5739	-13.707077	0.000328	3.275684	0.554916	0.000033
  60	5.8705e+00	0.5837	-13.668787	0.000385	3.848929	0.652026	0.000038
  61	5.9700e+00	0.5927	-13.629682	0.000393	3.930821	0.665899	0.000039
  62	6.0695e+00	0.6023	-13.595872	0.000340	3.398522	0.575725	0.000034
  63	6.1690e+00	0.6108	-13.556767	0.000393	3.930821	0.665899	0.000039
  64	6.2685e+00	0.6223	-13.520107	0.000369	3.685144	0.624280	0.000037
  65	6.3680e+00	0.6338	-13.483038	0.000373	3.726090	0.631217	0.000037
  66	6.4675e+00	0.6434	-13.444341	0.000389	3.889875	0.658963	0.000039
  67	6.5670e+00	0.6541	-13.407680	0.000369	3.685144	0.624280	0.000037
  68	6.6665e+00	0.6624	-13.368983	0.000389	3.889875	0.658963	0.000039
  69	6.7660e+00	0.6722	-13.327434	0.000418	4.176497	0.707518	0.000042
  70	6.8655e+00	0.6828	-13.294846	0.000328	3.275684	0.554916	0.000033
  71	6.9650e+00	0.6966	-13.253297	0.000418	4.176497	0.707518	0.000042
  72	7.0645e+00	0.7018	-13.219488	0.000340	3.398522	0.575725	0.000034
  73	7.1640e+00	0.7146	-13.179976	0.000397	3.971767	0.672835	0.000040
  74	7.2635e+00	0.7223	-13.145351	0.000348	3.480414	0.589598	0.000035
  75	7.3630e+00	0.7314	-13.107469	0.000381	3.807983	0.645090	0.000038
  76	7.4625e+00	0.7409	-13.071622	0.000360	3.603252	0.610407	0.000036
  77	7.5620e+00	0.7534	-13.033332	0.000385	3.848929	0.652026	0.000038
  78	7.6615e+00	0.7629	-12.998708	0.000348	3.480414	0.589598	0.000035
  79	7.7610e+00	0.7714	-12.962862	0.000360	3.603252	0.610407	0.000036
  80	7.8605e+00	0.7830	-12.925387	0.000377	3.767036	0.638153	0.000038
  81	7.9600e+00	0.7936	-12.886282	0.000393	3.930821	0.665899	0.000039
  82	8.0595e+00	0.8004	-12.849621	0.000369	3.685144	0.624280	0.000037
  83	8.1590e+00	0.8138	-12.808887	0.000409	4.094605	0.693645	0.000041
  84	8.2585e+00	0.8233	-12.777114	0.000319	3.193792	0.541043	0.000032
  85	8.3580e+00	0.8295	-12.737602	0.000397	3.971767	0.672835	0.000040
  86	8.4575e+00	0.8418	-12.702163	0.000356	3.562306	0.603471	0.000036
  87	8.5570e+00	0.8490	-12.665095	0.000373	3.726090	0.631217	0.000037
  88	8.6565e+00	0.8630	-12.625582	0.000397	3.971767	0.672835	0.000040
  89	8.7560e+00	0.8715	-12.592995	0.000328	3.275684	0.554916	0.000033
  90	8.8555e+00	0.8804	-12.554705	0.000385	3.848929	0.652026	0.000038
  91	8.9550e+00	0.8925	-12.518859	0.000360	3.603252	0.610407	0.000036
  92	9.0545e+00	0.8994	-12.479346	0.000397	3.971767	0.672835	0.000040
  93	9.1540e+00	0.9117	-12.445537	0.000340	3.398522	0.575725	0.000034
  94	9.2535e+00	0.9219	-12.406025	0.000397	3.971767	0.672835	0.000040
  95	9.3530e+00	0.9312	-12.371808	0.000344	3.439468	0.582662	0.000034
  96	9.4525e+00	0.9407	-12.333518	0.000385	3.848929	0.652026	0.000038
  97	9.5520e+00	0.9523	-12.293191	0.000405	4.053659	0.686708	0.000041
  98	9.6515e+00	0.9583	-12.258974	0.000344	3.439468	0.582662	0.000034
  99	9.7510e+00	0.9722	-12.218240	0.000409	4.094605	0.693645	0.000041
 100	9.8505e+00	0.9811	-12.177506	0.000409	4.094605	0.693645	0.000041
 101	9.9500e+00	0.9928	-12.142474	0.000352	3.521360	0.596535	0.000035
 102	1.0050e+01	1.0014	-12.100110	0.000426	4.258389	0.721391	0.000043
 103	1.0149e+01	1.0110	-12.062635	0.000377	3.767036	0.638153	0.000038
 104	1.0248e+01	1.0195	-12.030048	0.000328	3.275684	0.554916	0.000033
 105	1.0348e+01	1.0294	-11.990943	0.000393	3.930821	0.665899	0.000039
 106	1.0447e+01	1.0418	-11.952652	0.000385	3.848929	0.652026	0.000038
 107	1.0547e+01	1.0533	-11.918436	0.000344	3.439468	0.582662	0.000034
 108	1.0646e+01	1.0609	-11.880553	0.000381	3.807983	0.645090	0.000038
 109	1.0746e+01	1.0710	-11.842670	0.000381	3.807983	0.645090	0.000038
 110	1.0845e+01	1.0773	-11.803565	0.000393	3.930821	0.665899	0.000039
 111	1.0945e+01	1.0912	-11.769348	0.000344	3.439468	0.582662	0.000034
 112	1.1044e+01	1.0992	-11.734317	0.000352	3.521360	0.596535	0.000035
 113	1.1144e+01	1.1092	-11.697249	0.000373	3.726090	0.631217	0.000037
 114	1.1243e+01	1.1192	-11.660588	0.000369	3.685144	0.624280	0.000037
 115	1.1343e+01	1.1292	-11.621890	0.000389	3.889875	0.658963	0.000039
 116	1.1443e+01	1.1407	-11.588896	0.000332	3.316630	0.561852	0.000033
 117	1.1542e+01	1.1504	-11.553049	0.000360	3.603252	0.610407	0.000036
 118	1.1642e+01	1.1586	-11.518018	0.000352	3.521360	0.596535	0.000035
 119	1.1741e+01	1.1713	-11.486245	0.000319	3.193792	0.541043	0.000032
 120	1.1841e+01	1.1808	-11.447955	0.000385	3.848929	0.652026	0.000038
 121	1.1940e+01	1.1889	-11.412109	0.000360	3.603252	0.610407	0.000036
 122	1.2040e+01	1.2009	-11.378299	0.000340	3.398522	0.575725	0.000034
 123	1.2139e+01	1.2090	-11.344083	0.000344	3.439468	0.582662	0.000034
 124	1.2239e+01	1.2197	-11.308237	0.000360	3.603252	0.610407	0.000036
 125	1.2338e+01	1.2313	-11.274427	0.000340	3.398522	0.575725	0.000034
 126	1.2438e+01	1.2389	-11.237359	0.000373	3.726090	0.631217	0.000037
 127	1.2537e+01	1.2502	-11.205586	0.000319	3.193792	0.541043	0.000032
 128	1.2636e+01	1.2609	-11.167296	0.000385	3.848929	0.652026	0.000038
 129	1.2736e+01	1.2691	-11.134301	0.000332	3.316630	0.561852	0.000033
 130	1.2835e+01	1.2788	-11.097640	0.000369	3.685144	0.624280	0.000037
 131	1.2935e+01	1.2904	-11.059350	0.000385	3.848929	0.652026	0.000038
 132	1.3034e+01	1.2994	-11.026356	0.000332	3.316630	0.561852	0.000033
 133	1.3134e+01	1.3075	-10.990102	0.000364	3.644198	0.617344	0.000036
 134	1.3233e+01	1.3200	-10.957107	0.000332	3.316630	0.561852	0.000033
 135	1.3333e+01	1.3283	-10.919224	0.000381	3.807983	0.645090	0.000038
 136	1.3432e+01	1.3380	-10.881749	0.000377	3.767036	0.638153	0.000038
 137	1.3532e+01	1.3482	-10.845495	0.000364	3.644198	0.617344	0.000036
 138	1.3632e+01	1.3586	-10.808427	0.000373	3.726090	0.631217	0.000037
 139	1.3731e+01	1.3670	-10.773803	0.000348	3.480414	0.589598	0.000035
 140	1.3831e+01	1.3794	-10.735513	0.000385	3.848929	0.652026	0.000038
 141	1.3930e+01	1.3876	-10.698445	0.000373	3.726090	0.631217	0.000037
 142	1.4030e+01	1.3992	-10.667079	0.000315	3.152846	0.534107	0.000032
 143	1.4129e+01	1.4084	-10.627567	0.000397	3.971767	0.672835	0.000040
 144	1.4229e+01	1.4201	-10.594165	0.000336	3.357576	0.568789	0.000034
 145	1.4328e+01	1.4274	-10.556690	0.000377	3.767036	0.638153	0.000038
 146	1.4428e+01	1.4384	-10.521658	0.000352	3.521360	0.596535	0.000035
 147	1.4527e+01	1.4480	-10.485812	0.000360	3.603252	0.610407	0.000036
 148	1.4627e+01	1.4587	-10.448744	0.000373	3.726090	0.631217	0.000037
 149	1.4726e+01	1.4681	-10.410861	0.000381	3.807983	0.645090	0.000038
 150	1.4825e+01	1.4799	-10.377051	0.000340	3.398522	0.575725	0.000034
 151	1.4925e+01	1.4866	-10.343649	0.000336	3.357576	0.568789	0.000034
 152	1.5024e+01	1.4953	-10.308211	0.000356	3.562306	0.603471	0.000036
 153	1.5124e+01	1.5097	-10.275623	0.000328	3.275684	0.554916	0.000033
 154	1.5223e+01	1.5189	-10.236926	0.000389	3.889875	0.658963	0.000039
 155	1.5323e+01	1.5266	-10.203931	0.000332	3.316630	0.561852	0.000033
 156	1.5422e+01	1.5377	-10.166863	0.000373	3.726090	0.631217	0.000037
 157	1.5522e+01	1.5472	-10.132646	0.000344	3.439468	0.582662	0.000034
 158	1.5621e+01	1.5563	-10.098837	0.000340	3.398522	0.575725	0.000034
 159	1.5721e+01	1.5683	-10.061361	0.000377	3.767036	0.638153	0.000038
 160	1.5820e+01	1.5774	-10.026330	0.000352	3.521360	0.596535	0.000035
 161	1.5920e+01	1.5864	-9.986410	0.000401	4.012713	0.679772	0.000040
 162	1.6020e+01	1.5983	-9.951379	0.000352	3.521360	0.596535	0.000035
 163	1.6119e+01	1.6081	-9.913496	0.000381	3.807983	0.645090	0.000038
 164	1.6218e+01	1.6194	-9.882130	0.000315	3.152846	0.534107	0.000032
 165	1.6318e+01	1.6268	-9.845469	0.000369	3.685144	0.624280	0.000037
 166	1.6418e+01	1.6363	-9.810438	0.000352	3.521360	0.596535	0.000035
 167	1.6517e+01	1.6483	-9.772555	0.000381	3.807983	0.645090	0.000038
 168	1.6616e+01	1.6566	-9.736709	0.000360	3.603252	0.610407	0.000036
 169	1.6716e+01	1.6647	-9.704936	0.000319	3.193792	0.541043	0.000032
 170	1.6816e+01	1.6776	-9.667053	0.000381	3.807983	0.645090	0.000038
 171	1.6915e+01	1.6898	-9.630800	0.000364	3.644198	0.617344	0.000036
 172	1.7015e+01	1.6946	-9.596583	0.000344	3.439468	0.582662	0.000034
 173	1.7114e+01	1.7063	-9.562366	0.000344	3.439468	0.582662	0.000034
 174	1.7213e+01	1.7168	-9.524484	0.000381	3.807983	0.645090	0.000038
 175	1.7313e+01	1.7255	-9.491081	0.000336	3.357576	0.568789	0.000034
 176	1.7413e+01	1.7367	-9.453199	0.000381	3.807983	0.645090	0.000038
 177	1.7512e+01	1.7471	-9.419797	0.000336	3.357576	0.568789	0.000034
 178	1.7611e+01	1.7558	-9.384765	0.000352	3.521360	0.596535	0.000035
 179	1.7711e+01	1.7669	-9.349734	0.000352	3.521360	0.596535	0.000035
 180	1.7811e+01	1.7797	-9.314295	0.000356	3.562306	0.603471	0.000036
 181	1.7910e+01	1.7852	-9.278041	0.000364	3.644198	0.617344	0.000036
 182	1.8009e+01	1.7953	-9.246676	0.000315	3.152846	0.534107	0.000032
 183	1.8109e+01	1.8084	-9.216940	0.000299	2.989062	0.506361	0.000030
 184	1.8209e+01	1.8181	-9.181094	0.000360	3.603252	0.610407	0.000036
 185	1.8308e+01	1.8252	-9.143211	0.000381	3.807983	0.645090	0.000038
 186	1.8407e+01	1.8362	-9.113068	0.000303	3.030008	0.513297	0.000030
 187	1.8507e+01	1.8478	-9.080073	0.000332	3.316630	0.561852	0.000033
 188	1.8607e+01	1.8566	-9.046263	0.000340	3.398522	0.575725	0.000034
 189	1.8706e+01	1.8661	-9.007566	0.000389	3.889875	0.658963	0.000039
 190	1.8805e+01	1.8758	-8.970905	0.000369	3.685144	0.624280	0.000037
 191	1.8905e+01	1.8833	-8.936281	0.000348	3.480414	0.589598	0.000035
 192	1.9005e+01	1.8961	-8.899620	0.000369	3.685144	0.624280	0.000037
 193	1.9104e+01	1.9078	-8.867847	0.000319	3.193792	0.541043	0.000032
 194	1.9203e+01	1.9171	-8.835667	0.000323	3.234738	0.547979	0.000032
 195	1.9303e+01	1.9262	-8.797784	0.000381	3.807983	0.645090	0.000038
 196	1.9402e+01	1.9377	-8.765197	0.000328	3.275684	0.554916	0.000033
 197	1.9502e+01	1.9447	-8.727722	0.000377	3.767036	0.638153	0.000038
 198	1.9602e+01	1.9547	-8.694319	0.000336	3.357576	0.568789	0.000034
 199	1.9701e+01	1.9637	-8.659695	0.000348	3.480414	0.589598	0.000035
 200	1.9800e+01	1.9780	-8.625071	0.000348	3.480414	0.589598	0.000035
 201	1.9900e+01	1.9852	-8.587596	0.000377	3.767036	0.638153	0.000038
 202	2.0000e+01	1.9951	-8.550935	0.000369	3.685144	0.624280	0.000037
 203	2.0099e+01	2.0066	-8.511423	0.000397	3.971767	0.672835	0.000040
 204	2.0198e+01	2.0137	-8.477613	0.000340	3.398522	0.575725	0.000034
 205	2.0298e+01	2.0240	-8.441360	0.000364	3.644198	0.617344	0.000036
 206	2.0398e+01	2.0358	-8.401440	0.000401	4.012713	0.679772	0.000040
 207	2.0497e+01	2.0473	-8.365187	0.000364	3.644198	0.617344	0.000036
 208	2.0596e+01	2.0550	-8.333007	0.000323	3.234738	0.547979	0.000032
 209	2.0696e+01	2.0644	-8.298382	0.000348	3.480414	0.589598	0.000035
 210	2.0796e+01	2.0756	-8.260500	0.000381	3.807983	0.645090	0.000038
 211	2.0895e+01	2.0837	-8.223431	0.000373	3.726090	0.631217	0.000037
 212	2.0994e+01	2.0977	-8.191659	0.000319	3.193792	0.541043	0.000032
 213	2.1094e+01	2.1020	-8.157849	0.000340	3.398522	0.575725	0.000034
 214	2.1194e+01	2.1169	-8.121596	0.000364	3.644198	0.617344	0.000036
 215	2.1293e+01	2.1247	-8.088194	0.000336	3.357576	0.568789	0.000034
 216	2.1392e+01	2.1338	-8.051126	0.000373	3.726090	0.631217	0.000037
 217	2.1492e+01	2.1429	-8.016501	0.000348	3.480414	0.589598	0.000035
 218	2.1591e+01	2.1551	-7.978619	0.000381	3.807983	0.645090	0.000038
 219	2.1691e+01	2.1656	-7.948068	0.000307	3.070954	0.520234	0.000031
 220	2.1791e+01	2.1757	-7.910592	0.000377	3.767036	0.638153	0.000038
 221	2.1890e+01	2.1838	-7.878820	0.000319	3.193792	0.541043	0.000032
 222	2.1989e+01	2.1951	-7.842159	0.000369	3.685144	0.624280	0.000037
 223	2.2089e+01	2.2049	-7.808757	0.000336	3.357576	0.568789	0.000034
 224	2.2189e+01	2.2163	-7.773318	0.000356	3.562306	0.603471	0.000036
 225	2.2288e+01	2.2240	-7.739916	0.000336	3.357576	0.568789	0.000034
 226	2.2387e+01	2.2346	-7.702848	0.000373	3.726090	0.631217	0.000037
 227	2.2487e+01	2.2417	-7.671890	0.000311	3.111900	0.527170	0.000031
 228	2.2587e+01	2.2525	-7.636043	0.000360	3.603252	0.610407	0.000036
 229	2.2686e+01	2.2650	-7.606715	0.000295	2.948116	0.499424	0.000029
 230	2.2785e+01	2.2738	-7.564351	0.000426	4.258389	0.721391	0.000043
 231	2.2885e+01	2.2846	-7.532171	0.000323	3.234738	0.547979	0.000032
 232	2.2985e+01	2.2923	-7.499584	0.000328	3.275684	0.554916	0.000033
 233	2.3084e+01	2.3031	-7.465367	0.000344	3.439468	0.582662	0.000034
 234	2.3183e+01	2.3189	-7.430335	0.000352	3.521360	0.596535	0.000035
 235	2.3283e+01	2.3229	-7.393675	0.000369	3.685144	0.624280	0.000037
 236	2.3383e+01	2.3344	-7.354977	0.000389	3.889875	0.658963	0.000039
 237	2.3482e+01	2.3454	-7.323204	0.000319	3.193792	0.541043	0.000032
 238	2.3581e+01	2.3531	-7.291024	0.000323	3.234738	0.547979	0.000032
 239	2.3681e+01	2.3637	-7.255178	0.000360	3.603252	0.610407	0.000036
 240	2.3780e+01	2.3737	-7.220554	0.000348	3.480414	0.589598	0.000035
 241	2.3880e+01	2.3856	-7.183079	0.000377	3.767036	0.638153	0.000038
 242	2.3980e+01	2.3917	-7.155379	0.000278	2.784331	0.471678	0.000028
 243	2.4079e+01	2.4035	-7.119940	0.000356	3.562306	0.603471	0.000036
 244	2.4178e+01	2.4133	-7.087760	0.000323	3.234738	0.547979	0.000032
 245	2.4278e+01	2.4210	-7.053544	0.000344	3.439468	0.582662	0.000034
 246	2.4378e+01	2.4303	-7.019734	0.000340	3.398522	0.575725	0.000034
 247	2.4477e+01	2.4448	-6.987554	0.000323	3.234738	0.547979	0.000032
 248	2.4576e+01	2.4529	-6.951301	0.000364	3.644198	0.617344	0.000036
 249	2.4676e+01	2.4636	-6.919528	0.000319	3.193792	0.541043	0.000032
 250	2.4776e+01	2.4743	-6.882052	0.000377	3.767036	0.638153	0.000038
 251	2.4875e+01	2.4819	-6.848243	0.000340	3.398522	0.575725	0.000034
 252	2.4974e+01	2.4953	-6.812397	0.000360	3.603252	0.610407	0.000036
 253	2.5074e+01	2.5024	-6.782253	0.000303	3.030008	0.513297	0.000030
 254	2.5174e+01	2.5127	-6.750073	0.000323	3.234738	0.547979	0.000032
 255	2.5273e+01	2.5224	-6.714227	0.000360	3.603252	0.610407	0.000036
 256	2.5372e+01	2.5333	-6.684084	0.000303	3.030008	0.513297	0.000030
 257	2.5472e+01	2.5424	-6.651497	0.000328	3.275684	0.554916	0.000033
 258	2.5572e+01	2.5532	-6.613206	0.000385	3.848929	0.652026	0.000038
 259	2.5671e+01	2.5633	-6.580212	0.000332	3.316630	0.561852	0.000033
 260	2.5770e+01	2.5730	-6.550068	0.000303	3.030008	0.513297	0.000030
 261	2.5870e+01	2.5826	-6.517073	0.000332	3.316630	0.561852	0.000033
 262	2.5970e+01	2.5910	-6.480005	0.000373	3.726090	0.631217	0.000037
 263	2.6069e+01	2.6025	-6.446196	0.000340	3.398522	0.575725	0.000034
 264	2.6169e+01	2.6110	-6.413201	0.000332	3.316630	0.561852	0.000033
 265	2.6268e+01	2.6252	-6.378984	0.000344	3.439468	0.582662	0.000034
 266	2.6367e+01	2.6337	-6.345990	0.000332	3.316630	0.561852	0.000033
 267	2.6467e+01	2.6423	-6.308514	0.000377	3.767036	0.638153	0.000038
 268	2.6567e+01	2.6530	-6.273483	0.000352	3.521360	0.596535	0.000035
 269	2.6666e+01	2.6620	-6.236822	0.000369	3.685144	0.624280	0.000037
 270	2.6765e+01	2.6723	-6.205049	0.000319	3.193792	0.541043	0.000032
 271	2.6865e+01	2.6798	-6.171647	0.000336	3.357576	0.568789	0.000034
 272	2.6965e+01	2.6913	-6.134579	0.000373	3.726090	0.631217	0.000037
 273	2.7064e+01	2.7036	-6.100769	0.000340	3.398522	0.575725	0.000034
 274	2.7163e+01	2.7122	-6.072255	0.000287	2.866223	0.485551	0.000029
 275	2.7263e+01	2.7210	-6.036002	0.000364	3.644198	0.617344	0.000036
 276	2.7363e+01	2.7312	-6.000156	0.000360	3.603252	0.610407	0.000036
 277	2.7462e+01	2.7419	-5.970420	0.000299	2.989062	0.506361	0.000030
 278	2.7561e+01	2.7521	-5.936610	0.000340	3.398522	0.575725	0.000034
 279	2.7661e+01	2.7630	-5.903616	0.000332	3.316630	0.561852	0.000033
 280	2.7761e+01	2.7731	-5.868991	0.000348	3.480414	0.589598	0.000035
 281	2.7860e+01	2.7803	-5.838848	0.000303	3.030008	0.513297	0.000030
 282	2.7959e+01	2.7905	-5.805446	0.000336	3.357576	0.568789	0.000034
 283	2.8059e+01	2.8016	-5.771229	0.000344	3.439468	0.582662	0.000034
 284	2.8159e+01	2.8111	-5.738235	0.000332	3.316630	0.561852	0.000033
 285	2.8258e+01	2.8193	-5.706054	0.000323	3.234738	0.547979	0.000032
 286	2.8358e+01	2.8320	-5.676726	0.000295	2.948116	0.499424	0.000029
 287	2.8457e+01	2.8413	-5.650249	0.000266	2.661493	0.450869	0.000027
 288	2.8556e+01	2.8503	-5.616032	0.000344	3.439468	0.582662	0.000034
 289	2.8656e+01	2.8619	-5.580186	0.000360	3.603252	0.610407	0.000036
 290	2.8756e+01	2.8761	-5.550450	0.000299	2.989062	0.506361	0.000030
 291	2.8855e+01	2.8798	-5.522750	0.000278	2.784331	0.471678	0.000028
 292	2.8954e+01	2.8918	-5.492200	0.000307	3.070954	0.520234	0.000031
 293	2.9054e+01	2.9017	-5.456353	0.000360	3.603252	0.610407	0.000036
 294	2.9154e+01	2.9099	-5.426210	0.000303	3.030008	0.513297	0.000030
 295	2.9253e+01	2.9232	-5.396881	0.000295	2.948116	0.499424	0.000029
 296	2.9352e+01	2.9305	-5.360628	0.000364	3.644198	0.617344	0.000036
 297	2.9452e+01	2.9394	-5.330077	0.000307	3.070954	0.520234	0.000031
 298	2.9552e+01	2.9516	-5.296675	0.000336	3.357576	0.568789	0.000034
 299	2.9651e+01	2.9613	-5.264902	0.000319	3.193792	0.541043	0.000032
 300	2.9750e+01	2.9699	-5.231908	0.000332	3.316630	0.561852	0.000033
 301	2.9850e+01	2.9807	-5.197691	0.000344	3.439468	0.582662	0.000034
 302	2.9950e+01	2.9900	-5.166326	0.000315	3.152846	0.534107	0.000032
 303	3.0049e+01	2.9991	-5.131294	0.000352	3.521360	0.596535	0.000035
 304	3.0148e+01	3.0074	-5.103595	0.000278	2.784331	0.471678	0.000028
 305	3.0248e+01	3.0200	-5.070600	0.000332	3.316630	0.561852	0.000033
 306	3.0348e+01	3.0302	-5.042086	0.000287	2.866223	0.485551	0.000029
 307	3.0447e+01	3.0389	-5.009499	0.000328	3.275684	0.554916	0.000033
 308	3.0547e+01	3.0490	-4.975282	0.000344	3.439468	0.582662	0.000034
 309	3.0646e+01	3.0616	-4.943102	0.000323	3.234738	0.547979	0.000032
 310	3.0745e+01	3.0697	-4.910514	0.000328	3.275684	0.554916	0.000033
 311	3.0845e+01	3.0791	-4.876705	0.000340	3.398522	0.575725	0.000034
 312	3.0945e+01	3.0889	-4.847784	0.000291	2.907169	0.492488	0.000029
 313	3.1044e+01	3.1026	-4.814382	0.000336	3.357576	0.568789	0.000034
 314	3.1143e+01	3.1103	-4.782202	0.000323	3.234738	0.547979	0.000032
 315	3.1243e+01	3.1200	-4.748799	0.000336	3.357576	0.568789	0.000034
 316	3.1343e+01	3.1304	-4.718249	0.000307	3.070954	0.520234	0.000031
 317	3.1442e+01	3.1419	-4.687698	0.000307	3.070954	0.520234	0.000031
 318	3.1541e+01	3.1478	-4.653481	0.000344	3.439468	0.582662	0.000034
 319	3.1641e+01	3.1605	-4.621709	0.000319	3.193792	0.541043	0.000032
 320	3.1741e+01	3.1692	-4.589529	0.000323	3.234738	0.547979	0.000032
 321	3.1840e+01	3.1799	-4.558570	0.000311	3.111900	0.527170	0.000031
 322	3.1939e+01	3.1879	-4.529242	0.000295	2.948116	0.499424	0.000029
 323	3.2039e+01	3.1995	-4.496654	0.000328	3.275684	0.554916	0.000033
 324	3.2139e+01	3.2088	-4.464882	0.000319	3.193792	0.541043	0.000032
 325	3.2238e+01	3.2162	-4.437182	0.000278	2.784331	0.471678	0.000028
 326	3.2337e+01	3.2304	-4.402966	0.000344	3.439468	0.582662	0.000034
 327	3.2437e+01	3.2410	-4.369564	0.000336	3.357576	0.568789	0.000034
 328	3.2536e+01	3.2494	-4.336976	0.000328	3.275684	0.554916	0.000033
 329	3.2636e+01	3.2603	-4.300315	0.000369	3.685144	0.624280	0.000037
 330	3.2736e+01	3.2684	-4.272209	0.000283	2.825277	0.478615	0.000028
 331	3.2835e+01	3.2800	-4.237585	0.000348	3.480414	0.589598	0.000035
 332	3.2934e+01	3.2888	-4.210700	0.000270	2.702439	0.457806	0.000027
 333	3.3034e+01	3.2984	-4.176891	0.000340	3.398522	0.575725	0.000034
 334	3.3133e+01	3.3096	-4.147969	0.000291	2.907169	0.492488	0.000029
 335	3.3233e+01	3.3164	-4.115382	0.000328	3.275684	0.554916	0.000033
 336	3.3333e+01	3.3286	-4.084016	0.000315	3.152846	0.534107	0.000032
 337	3.3432e+01	3.3384	-4.051022	0.000332	3.316630	0.561852	0.000033
 338	3.3532e+01	3.3474	-4.018027	0.000332	3.316630	0.561852	0.000033
 339	3.3631e+01	3.3581	-3.985440	0.000328	3.275684	0.554916	0.000033
 340	3.3730e+01	3.3686	-3.953259	0.000323	3.234738	0.547979	0.000032
 341	3.3830e+01	3.3813	-3.919450	0.000340	3.398522	0.575725	0.000034
 342	3.3929e+01	3.3921	-3.892973	0.000266	2.661493	0.450869	0.000027
 343	3.4029e+01	3.3991	-3.861607	0.000315	3.152846	0.534107	0.000032
 344	3.4129e+01	3.4089	-3.824539	0.000373	3.726090	0.631217	0.000037
 345	3.4228e+01	3.4166	-3.796025	0.000287	2.866223	0.485551	0.000029
 346	3.4328e+01	3.4289	-3.766289	0.000299	2.989062	0.506361	0.000030
 347	3.4427e+01	3.4383	-3.734109	0.000323	3.234738	0.547979	0.000032
 348	3.4526e+01	3.4454	-3.702744	0.000315	3.152846	0.534107	0.000032
 349	3.4626e+01	3.4572	-3.672193	0.000307	3.070954	0.520234	0.000031
 350	3.4725e+01	3.4669	-3.648160	0.000242	2.415817	0.409250	0.000024
 351	3.4825e+01	3.4809	-3.617202	0.000311	3.111900	0.527170	0.000031
 352	3.4925e+01	3.4881	-3.587466	0.000299	2.989062	0.506361	0.000030
 353	3.5024e+01	3.4981	-3.551620	0.000360	3.603252	0.610407	0.000036
 354	3.5123e+01	3.5078	-3.523106	0.000287	2.866223	0.485551	0.000029
 355	3.5223e+01	3.5183	-3.494592	0.000287	2.866223	0.485551	0.000029
 356	3.5322e+01	3.5276	-3.463226	0.000315	3.152846	0.534107	0.000032
 357	3.5422e+01	3.5375	-3.432676	0.000307	3.070954	0.520234	0.000031
 358	3.5522e+01	3.5470	-3.402532	0.000303	3.030008	0.513297	0.000030
 359	3.5621e+01	3.5586	-3.367908	0.000348	3.480414	0.589598	0.000035
 360	3.5721e+01	3.5693	-3.342246	0.000258	2.579601	0.436996	0.000026
 361	3.5820e+01	3.5775	-3.309251	0.000332	3.316630	0.561852	0.000033
 362	3.5919e+01	3.5857	-3.277478	0.000319	3.193792	0.541043	0.000032
 363	3.6019e+01	3.5977	-3.249372	0.000283	2.825277	0.478615	0.000028
 364	3.6118e+01	3.6086	-3.215562	0.000340	3.398522	0.575725	0.000034
 365	3.6218e+01	3.6201	-3.184197	0.000315	3.152846	0.534107	0.000032
 366	3.6318e+01	3.6276	-3.153239	0.000311	3.111900	0.527170	0.000031
 367	3.6417e+01	3.6343	-3.123095	0.000303	3.030008	0.513297	0.000030
 368	3.6517e+01	3.6483	-3.088879	0.000344	3.439468	0.582662	0.000034
 369	3.6616e+01	3.6571	-3.055476	0.000336	3.357576	0.568789	0.000034
 370	3.6715e+01	3.6689	-3.023296	0.000323	3.234738	0.547979	0.000032
 371	3.6815e+01	3.6797	-2.991116	0.000323	3.234738	0.547979	0.000032
 372	3.6914e+01	3.6888	-2.956492	0.000348	3.480414	0.589598	0.000035
 373	3.7014e+01	3.6954	-2.924720	0.000319	3.193792	0.541043	0.000032
 374	3.7114e+01	3.7068	-2.893354	0.000315	3.152846	0.534107	0.000032
 375	3.7213e+01	3.7170	-2.859137	0.000344	3.439468	0.582662	0.000034
 376	3.7313e+01	3.7286	-2.825735	0.000336	3.357576	0.568789	0.000034
 377	3.7412e+01	3.7394	-2.800480	0.000254	2.538655	0.430060	0.000025
 378	3.7511e+01	3.7479	-2.765856	0.000348	3.480414	0.589598	0.000035
 379	3.7611e+01	3.7585	-2.733269	0.000328	3.275684	0.554916	0.000033
 380	3.7711e+01	3.7666	-2.701903	0.000315	3.152846	0.534107	0.000032
 381	3.7810e+01	3.7749	-2.671352	0.000307	3.070954	0.520234	0.000031
 382	3.7910e+01	3.7848	-2.643653	0.000278	2.784331	0.471678	0.000028
 383	3.8009e+01	3.7975	-2.610251	0.000336	3.357576	0.568789	0.000034
 384	3.8108e+01	3.8054	-2.581737	0.000287	2.866223	0.485551	0.000029
 385	3.8208e+01	3.8171	-2.549150	0.000328	3.275684	0.554916	0.000033
 386	3.8307e+01	3.8220	-2.518192	0.000311	3.111900	0.527170	0.000031
 387	3.8407e+01	3.8375	-2.490492	0.000278	2.784331	0.471678	0.000028
 388	3.8507e+01	3.8470	-2.457090	0.000336	3.357576	0.568789	0.000034
 389	3.8606e+01	3.8583	-2.428169	0.000291	2.907169	0.492488	0.000029
 390	3.8706e+01	3.8657	-2.394767	0.000336	3.357576	0.568789	0.000034
 391	3.8805e+01	3.8763	-2.366253	0.000287	2.866223	0.485551	0.000029
 392	3.8904e+01	3.8854	-2.333665	0.000328	3.275684	0.554916	0.000033
 393	3.9004e+01	3.8974	-2.302707	0.000311	3.111900	0.527170	0.000031
 394	3.9103e+01	3.9053	-2.272157	0.000307	3.070954	0.520234	0.000031
 395	3.9203e+01	3.9156	-2.245679	0.000266	2.661493	0.450869	0.000027
 396	3.9303e+01	3.9272	-2.209833	0.000360	3.603252	0.610407	0.000036
 397	3.9402e+01	3.9349	-2.182949	0.000270	2.702439	0.457806	0.000027
 398	3.9502e+01	3.9451	-2.153213	0.000299	2.989062	0.506361	0.000030
 399	3.9601e+01	3.9568	-2.122662	0.000307	3.070954	0.520234	0.000031
 400	3.9700e+01	3.9652	-2.088853	0.000340	3.398522	0.575725	0.000034
 401	3.9800e+01	3.9768	-2.057895	0.000311	3.111900	0.527170	0.000031
 402	3.9900e+01	3.9864	-2.030603	0.000274	2.743385	0.464742	0.000027
 403	3.9999e+01	3.9956	-1.997608	0.000332	3.316630	0.561852	0.000033
 404	4.0099e+01	4.0044	-1.964206	0.000336	3.357576	0.568789	0.000034
 405	4.0198e+01	4.0160	-1.933248	0.000311	3.111900	0.527170	0.000031
 406	4.0297e+01	4.0246	-1.903104	0.000303	3.030008	0.513297	0.000030
 407	4.0397e+01	4.0347	-1.873368	0.000299	2.989062	0.506361	0.000030
 408	4.0496e+01	4.0431	-1.843225	0.000303	3.030008	0.513297	0.000030
 409	4.0596e+01	4.0553	-1.811860	0.000315	3.152846	0.534107	0.000032
 410	4.0696e+01	4.0628	-1.787012	0.000250	2.497709	0.423123	0.000025
 411	4.0795e+01	4.0737	-1.755239	0.000319	3.193792	0.541043	0.000032
 412	4.0895e+01	4.0839	-1.724688	0.000307	3.070954	0.520234	0.000031
 413	4.0994e+01	4.0958	-1.696582	0.000283	2.825277	0.478615	0.000028
 414	4.1093e+01	4.1069	-1.665216	0.000315	3.152846	0.534107	0.000032
 415	4.1193e+01	4.1190	-1.636295	0.000291	2.907169	0.492488	0.000029
 416	4.1292e+01	4.1248	-1.603300	0.000332	3.316630	0.561852	0.000033
 417	4.1392e+01	4.1337	-1.572750	0.000307	3.070954	0.520234	0.000031
 418	4.1492e+01	4.1433	-1.542199	0.000307	3.070954	0.520234	0.000031
 419	4.1591e+01	4.1555	-1.514092	0.000283	2.825277	0.478615	0.000028
 420	4.1691e+01	4.1647	-1.485578	0.000287	2.866223	0.485551	0.000029
 421	4.1790e+01	4.1758	-1.454213	0.000315	3.152846	0.534107	0.000032
 422	4.1889e+01	4.1824	-1.424477	0.000299	2.989062	0.506361	0.000030
 423	4.1989e+01	4.1930	-1.391482	0.000332	3.316630	0.561852	0.000033
 424	4.2089e+01	4.2057	-1.363783	0.000278	2.784331	0.471678	0.000028
 425	4.2188e+01	4.2139	-1.335269	0.000287	2.866223	0.485551	0.000029
 426	4.2288e+01	4.2254	-1.306348	0.000291	2.907169	0.492488	0.000029
 427	4.2387e+01	4.2345	-1.276204	0.000303	3.030008	0.513297	0.000030
 428	4.2486e+01	4.2446	-1.247690	0.000287	2.866223	0.485551	0.000029
 429	4.2586e+01	4.2550	-1.216732	0.000311	3.111900	0.527170	0.000031
 430	4.2685e+01	4.2630	-1.189440	0.000274	2.743385	0.464742	0.000027
 431	4.2785e+01	4.2725	-1.157668	0.000319	3.193792	0.541043	0.000032
 432	4.2885e+01	4.2861	-1.127932	0.000299	2.989062	0.506361	0.000030
 433	4.2984e+01	4.2903	-1.096566	0.000315	3.152846	0.534107	0.000032
 434	4.3084e+01	4.3035	-1.061942	0.000348	3.480414	0.589598	0.000035
 435	4.3183e+01	4.3156	-1.030984	0.000311	3.111900	0.527170	0.000031
 436	4.3282e+01	4.3252	-1.002063	0.000291	2.907169	0.492488	0.000029
 437	4.3382e+01	4.3409	-0.966217	0.000360	3.603252	0.610407	0.000036
 438	4.3481e+01	4.3449	-0.937295	0.000291	2.907169	0.492488	0.000029
 439	4.3581e+01	4.3533	-0.908374	0.000291	2.907169	0.492488	0.000029
 440	4.3681e+01	4.3665	-0.878638	0.000299	2.989062	0.506361	0.000030
 441	4.3780e+01	4.3716	-0.851753	0.000270	2.702439	0.457806	0.000027
 442	4.3880e+01	4.3842	-0.817944	0.000340	3.398522	0.575725	0.000034
 443	4.3979e+01	4.3917	-0.789430	0.000287	2.866223	0.485551	0.000029
 444	4.4078e+01	4.4044	-0.759694	0.000299	2.989062	0.506361	0.000030
 445	4.4178e+01	4.4122	-0.731995	0.000278	2.784331	0.471678	0.000028
 446	4.4278e+01	4.4244	-0.705110	0.000270	2.702439	0.457806	0.000027
 447	4.4377e+01	4.4314	-0.673745	0.000315	3.152846	0.534107	0.000032
 448	4.4477e+01	4.4416	-0.643601	0.000303	3.030008	0.513297	0.000030
 449	4.4576e+01	4.4549	-0.613051	0.000307	3.070954	0.520234	0.000031
 450	4.4675e+01	4.4658	-0.584944	0.000283	2.825277	0.478615	0.000028
 451	4.4775e+01	4.4744	-0.557245	0.000278	2.784331	0.471678	0.000028
 452	4.4874e+01	4.4820	-0.530360	0.000270	2.702439	0.457806	0.000027
 453	4.4974e+01	4.4930	-0.499402	0.000311	3.111900	0.527170	0.000031
 454	4.5074e+01	4.5034	-0.475776	0.000237	2.374871	0.402314	0.000024
 455	4.5173e+01	4.5113	-0.446855	0.000291	2.907169	0.492488	0.000029
 456	4.5273e+01	4.5219	-0.419563	0.000274	2.743385	0.464742	0.000027
 457	4.5372e+01	4.5321	-0.391456	0.000283	2.825277	0.478615	0.000028
 458	4.5471e+01	4.5414	-0.366201	0.000254	2.538655	0.430060	0.000025
 459	4.5571e+01	4.5549	-0.336872	0.000295	2.948116	0.499424	0.000029
 460	4.5670e+01	4.5634	-0.311210	0.000258	2.579601	0.436996	0.000026
 461	4.5770e+01	4.5728	-0.279844	0.000315	3.152846	0.534107	0.000032
 462	4.5870e+01	4.5826	-0.253367	0.000266	2.661493	0.450869	0.000027
 463	4.5969e+01	4.5937	-0.224853	0.000287	2.866223	0.485551	0.000029
 464	4.6069e+01	4.6030	-0.195117	0.000299	2.989062	0.506361	0.000030
 465	4.6168e+01	4.6118	-0.164974	0.000303	3.030008	0.513297	0.000030
 466	4.6267e+01	4.6235	-0.138904	0.000262	2.620547	0.443933	0.000026
 467	4.6367e+01	4.6318	-0.110390	0.000287	2.866223	0.485551	0.000029
 468	4.6467e+01	4.6453	-0.080246	0.000303	3.030008	0.513297	0.000030
 469	4.6566e+01	4.6520	-0.050918	0.000295	2.948116	0.499424	0.000029
 470	4.6666e+01	4.6616	-0.023219	0.000278	2.784331	0.471678	0.000028
 471	4.6765e+01	4.6719	0.006925	0.000303	3.030008	0.513297	0.000030
 472	4.6864e+01	4.6832	0.033809	0.000270	2.702439	0.457806	0.000027
 473	4.6964e+01	4.6949	0.060694	0.000270	2.702439	0.457806	0.000027
 474	4.7063e+01	4.7013	0.093689	0.000332	3.316630	0.561852	0.000033
 475	4.7163e+01	4.7144	0.120573	0.000270	2.702439	0.457806	0.000027
 476	4.7263e+01	4.7219	0.147051	0.000266	2.661493	0.450869	0.000027
 477	4.7362e+01	4.7315	0.176379	0.000295	2.948116	0.499424	0.000029
 478	4.7462e+01	4.7402	0.204079	0.000278	2.784331	0.471678	0.000028
 479	4.7561e+01	4.7529	0.234222	0.000303	3.030008	0.513297	0.000030
 480	4.7660e+01	4.7623	0.263143	0.000291	2.907169	0.492488	0.000029
 481	4.7760e+01	4.7729	0.293694	0.000307	3.070954	0.520234	0.000031
 482	4.7859e+01	4.7831	0.321393	0.000278	2.784331	0.471678	0.000028
 483	4.7959e+01	4.7906	0.347871	0.000266	2.661493	0.450869	0.000027
 484	4.8059e+01	4.8025	0.377199	0.000295	2.948116	0.499424	0.000029
 485	4.8158e+01	4.8119	0.406935	0.000299	2.989062	0.506361	0.000030
 486	4.8258e+01	4.8206	0.433820	0.000270	2.702439	0.457806	0.000027
 487	4.8357e+01	4.8332	0.459890	0.000262	2.620547	0.443933	0.000026
 488	4.8456e+01	4.8427	0.488404	0.000287	2.866223	0.485551	0.000029
 489	4.8556e+01	4.8493	0.516510	0.000283	2.825277	0.478615	0.000028
 490	4.8656e+01	4.8625	0.543802	0.000274	2.743385	0.464742	0.000027
 491	4.8755e+01	4.8696	0.571909	0.000283	2.825277	0.478615	0.000028
 492	4.8855e+01	4.8827	0.600016	0.000283	2.825277	0.478615	0.000028
 493	4.8954e+01	4.8928	0.630159	0.000303	3.030008	0.513297	0.000030
 494	4.9053e+01	4.9047	0.656229	0.000262	2.620547	0.443933	0.000026
 495	4.9153e+01	4.9133	0.685150	0.000291	2.907169	0.492488	0.000029
 496	4.9252e+01	4.9211	0.716923	0.000319	3.193792	0.541043	0.000032
 497	4.9352e+01	4.9307	0.747066	0.000303	3.030008	0.513297	0.000030
 498	4.9452e+01	4.9407	0.773544	0.000266	2.661493	0.450869	0.000027
 499	4.9551e+01	4.9496	0.802057	0.000287	2.866223	0.485551	0.000029
 500	4.9651e+01	4.9603	0.826905	0.000250	2.497709	0.423123	0.000025
 501	4.9750e+01	4.9725	0.856234	0.000295	2.948116	0.499424	0.000029
 502	4.9849e+01	4.9811	0.885563	0.000295	2.948116	0.499424	0.000029
 503	4.9949e+01	4.9899	0.915706	0.000303	3.030008	0.513297	0.000030
 504	5.0048e+01	4.9995	0.940961	0.000254	2.538655	0.430060	0.000025
 505	5.0148e+01	5.0079	0.969475	0.000287	2.866223	0.485551	0.000029
 506	5.0248e+01	5.0201	0.996767	0.000274	2.743385	0.464742	0.000027
 507	5.0347e+01	5.0314	1.024874	0.000283	2.825277	0.478615	0.000028
 508	5.0447e+01	5.0407	1.053388	0.000287	2.866223	0.485551	0.000029
 509	5.0546e+01	5.0494	1.083124	0.000299	2.989062	0.506361	0.000030
 510	5.0645e+01	5.0613	1.110008	0.000270	2.702439	0.457806	0.000027
 511	5.0745e+01	5.0703	1.138522	0.000287	2.866223	0.485551	0.000029
 512	5.0844e+01	5.0808	1.165000	0.000266	2.661493	0.450869	0.000027
 513	5.0944e+01	5.0893	1.193514	0.000287	2.866223	0.485551	0.000029
 514	5.1044e+01	5.0988	1.220398	0.000270	2.702439	0.457806	0.000027
 515	5.1143e+01	5.1110	1.244431	0.000242	2.415817	0.409250	0.000024
 516	5.1242e+01	5.1216	1.277019	0.000328	3.275684	0.554916	0.000033
 517	5.1342e+01	5.1308	1.300645	0.000237	2.374871	0.402314	0.000024
 518	5.1441e+01	5.1410	1.326307	0.000258	2.579601	0.436996	0.000026
 519	5.1541e+01	5.1470	1.354821	0.000287	2.866223	0.485551	0.000029
 520	5.1641e+01	5.1592	1.382928	0.000283	2.825277	0.478615	0.000028
 521	5.1740e+01	5.1707	1.407369	0.000246	2.456763	0.416187	0.000025
 522	5.1840e+01	5.1772	1.433031	0.000258	2.579601	0.436996	0.000026
 523	5.1939e+01	5.1885	1.458286	0.000254	2.538655	0.430060	0.000025
 524	5.2038e+01	5.2007	1.488430	0.000303	3.030008	0.513297	0.000030
 525	5.2138e+01	5.2106	1.516129	0.000278	2.784331	0.471678	0.000028
 526	5.2237e+01	5.2160	1.544643	0.000287	2.866223	0.485551	0.000029
 527	5.2337e+01	5.2311	1.574379	0.000299	2.989062	0.506361	0.000030
 528	5.2437e+01	5.2378	1.601264	0.000270	2.702439	0.457806	0.000027
 529	5.2536e+01	5.2507	1.626519	0.000254	2.538655	0.430060	0.000025
 530	5.2636e+01	5.2613	1.654218	0.000278	2.784331	0.471678	0.000028
 531	5.2735e+01	5.2679	1.685583	0.000315	3.152846	0.534107	0.000032
 532	5.2834e+01	5.2782	1.709617	0.000242	2.415817	0.409250	0.000024
 533	5.2934e+01	5.2867	1.738131	0.000287	2.866223	0.485551	0.000029
 534	5.3033e+01	5.2988	1.765423	0.000274	2.743385	0.464742	0.000027
 535	5.3133e+01	5.3091	1.795159	0.000299	2.989062	0.506361	0.000030
 536	5.3233e+01	5.3202	1.823673	0.000287	2.866223	0.485551	0.000029
 537	5.3332e+01	5.3268	1.850965	0.000274	2.743385	0.464742	0.000027
 538	5.3431e+01	5.3387	1.884367	0.000336	3.357576	0.568789	0.000034
 539	5.3531e+01	5.3477	1.914103	0.000299	2.989062	0.506361	0.000030
 540	5.3630e+01	5.3579	1.943431	0.000295	2.948116	0.499424	0.000029
 541	5.3730e+01	5.3628	1.972760	0.000295	2.948116	0.499424	0.000029
 542	5.3830e+01	5.3776	2.000867	0.000283	2.825277	0.478615	0.000028
 543	5.3929e+01	5.3872	2.031417	0.000307	3.070954	0.520234	0.000031
 544	5.4029e+01	5.3979	2.061968	0.000307	3.070954	0.520234	0.000031
 545	5.4128e+01	5.4090	2.083150	0.000213	2.129195	0.360695	0.000021
 546	5.4227e+01	5.4183	2.112071	0.000291	2.907169	0.492488	0.000029
 547	5.4327e+01	5.4275	2.142214	0.000303	3.030008	0.513297	0.000030
 548	5.4426e+01	5.4404	2.166655	0.000246	2.456763	0.416187	0.000025
 549	5.4526e+01	5.4482	2.197206	0.000307	3.070954	0.520234	0.000031
 550	5.4626e+01	5.4556	2.225312	0.000283	2.825277	0.478615	0.000028
 551	5.4725e+01	5.4674	2.252197	0.000270	2.702439	0.457806	0.000027
 552	5.4825e+01	5.4771	2.277860	0.000258	2.579601	0.436996	0.000026
 553	5.4924e+01	5.4871	2.308818	0.000311	3.111900	0.527170	0.000031
 554	5.5023e+01	5.5042	2.334480	0.000258	2.579601	0.436996	0.000026
 555	5.5123e+01	5.5093	2.362994	0.000287	2.866223	0.485551	0.000029
 556	5.5222e+01	5.5173	2.387027	0.000242	2.415817	0.409250	0.000024
 557	5.5322e+01	5.5292	2.418393	0.000315	3.152846	0.534107	0.000032
 558	5.5422e+01	5.5398	2.444463	0.000262	2.620547	0.443933	0.000026
 559	5.5521e+01	5.5473	2.473384	0.000291	2.907169	0.492488	0.000029
 560	5.5620e+01	5.5566	2.502713	0.000295	2.948116	0.499424	0.000029
 561	5.5720e+01	5.5687	2.526746	0.000242	2.415817	0.409250	0.000024
 562	5.5819e+01	5.5762	2.556889	0.000303	3.030008	0.513297	0.000030
 563	5.5919e+01	5.5884	2.584996	0.000283	2.825277	0.478615	0.000028
 564	5.6019e+01	5.5972	2.609029	0.000242	2.415817	0.409250	0.000024
 565	5.6118e+01	5.6104	2.637543	0.000287	2.866223	0.485551	0.000029
 566	5.6218e+01	5.6176	2.665650	0.000283	2.825277	0.478615	0.000028
 567	5.6317e+01	5.6277	2.689276	0.000237	2.374871	0.402314	0.000024
 568	5.6416e+01	5.6390	2.719012	0.000299	2.989062	0.506361	0.000030
 569	5.6516e+01	5.6483	2.746711	0.000278	2.784331	0.471678	0.000028
 570	5.6615e+01	5.6553	2.774817	0.000283	2.825277	0.478615	0.000028
 571	5.6715e+01	5.6658	2.802924	0.000283	2.825277	0.478615	0.000028
 572	5.6815e+01	5.6758	2.830216	0.000274	2.743385	0.464742	0.000027
 573	5.6914e+01	5.6870	2.855879	0.000258	2.579601	0.436996	0.000026
 574	5.7014e+01	5.6967	2.885207	0.000295	2.948116	0.499424	0.000029
 575	5.7113e+01	5.7061	2.910463	0.000254	2.538655	0.430060	0.000025
 576	5.7212e+01	5.7183	2.936940	0.000266	2.661493	0.450869	0.000027
 577	5.7312e+01	5.7289	2.965454	0.000287	2.866223	0.485551	0.000029
 578	5.7411e+01	5.7389	2.992746	0.000274	2.743385	0.464742	0.000027
 579	5.7511e+01	5.7481	3.018408	0.000258	2.579601	0.436996	0.000026
 580	5.7611e+01	5.7571	3.046108	0.000278	2.784331	0.471678	0.000028
 581	5.7710e+01	5.7678	3.070955	0.000250	2.497709	0.423123	0.000025
 582	5.7809e+01	5.7750	3.101099	0.000303	3.030008	0.513297	0.000030
 583	5.7909e+01	5.7867	3.127169	0.000262	2.620547	0.443933	0.000026
 584	5.8008e+01	5.7970	3.154461	0.000274	2.743385	0.464742	0.000027
 585	5.8108e+01	5.8089	3.179716	0.000254	2.538655	0.430060	0.000025
 586	5.8208e+01	5.8161	3.205786	0.000262	2.620547	0.443933	0.000026
 587	5.8307e+01	5.8256	3.237966	0.000323	3.234738	0.547979	0.000032
 588	5.8407e+01	5.8367	3.261184	0.000233	2.333925	0.395378	0.000023
 589	5.8506e+01	5.8465	3.290920	0.000299	2.989062	0.506361	0.000030
 590	5.8605e+01	5.8561	3.315768	0.000250	2.497709	0.423123	0.000025
 591	5.8705e+01	5.8666	3.345912	0.000303	3.030008	0.513297	0.000030
 592	5.8804e+01	5.8779	3.366686	0.000209	2.088248	0.353759	0.000021
 593	5.8904e+01	5.8851	3.391534	0.000250	2.497709	0.423123	0.000025
 594	5.9004e+01	5.8967	3.421677	0.000303	3.030008	0.513297	0.000030
 595	5.9103e+01	5.9071	3.447340	0.000258	2.579601	0.436996	0.000026
 596	5.9203e+01	5.9155	3.475447	0.000283	2.825277	0.478615	0.000028
 597	5.9302e+01	5.9261	3.499073	0.000237	2.374871	0.402314	0.000024
 598	5.9401e+01	5.9359	3.527994	0.000291	2.907169	0.492488	0.000029
 599	5.9501e+01	5.9433	3.557323	0.000295	2.948116	0.499424	0.000029
 600	5.9600e+01	5.9582	3.580541	0.000233	2.333925	0.395378	0.000023
 601	5.9700e+01	5.9673	3.609870	0.000295	2.948116	0.499424	0.000029
 602	5.9800e+01	5.9750	3.640013	0.000303	3.030008	0.513297	0.000030
 603	5.9899e+01	5.9884	3.666490	0.000266	2.661493	0.450869	0.000027
 604	5.9998e+01	5.9931	3.698670	0.000323	3.234738	0.547979	0.000032
 605	6.0098e+01	6.0066	3.725555	0.000270	2.702439	0.457806	0.000027
 606	6.0197e+01	6.0168	3.753254	0.000278	2.784331	0.471678	0.000028
 607	6.0297e+01	6.0266	3.782176	0.000291	2.907169	0.492488	0.000029
 608	6.0397e+01	6.0342	3.806209	0.000242	2.415817	0.409250	0.000024
 609	6.0496e+01	6.0484	3.834723	0.000287	2.866223	0.485551	0.000029
 610	6.0596e+01	6.0528	3.856719	0.000221	2.211087	0.374568	0.000022
 611	6.0695e+01	6.0659	3.884011	0.000274	2.743385	0.464742	0.000027
 612	6.0794e+01	6.0737	3.914155	0.000303	3.030008	0.513297	0.000030
 613	6.0894e+01	6.0848	3.934929	0.000209	2.088248	0.353759	0.000021
 614	6.0993e+01	6.0967	3.966294	0.000315	3.152846	0.534107	0.000032
 615	6.1093e+01	6.1045	3.992772	0.000266	2.661493	0.450869	0.000027
 616	6.1193e+01	6.1182	4.019656	0.000270	2.702439	0.457806	0.000027
 617	6.1292e+01	6.1257	4.044912	0.000254	2.538655	0.430060	0.000025
 618	6.1392e+01	6.1349	4.068130	0.000233	2.333925	0.395378	0.000023
 619	6.1491e+01	6.1465	4.097459	0.000295	2.948116	0.499424	0.000029
 620	6.1590e+01	6.1564	4.120270	0.000229	2.292979	0.388441	0.000023
 621	6.1690e+01	6.1651	4.143896	0.000237	2.374871	0.402314	0.000024
 622	6.1789e+01	6.1762	4.171188	0.000274	2.743385	0.464742	0.000027
 623	6.1889e+01	6.1870	4.192370	0.000213	2.129195	0.360695	0.000021
 624	6.1989e+01	6.1936	4.222513	0.000303	3.030008	0.513297	0.000030
 625	6.2088e+01	6.2069	4.242473	0.000201	2.006356	0.339886	0.000020
 626	6.2188e+01	6.2127	4.267321	0.000250	2.497709	0.423123	0.000025
 627	6.2287e+01	6.2260	4.297057	0.000299	2.989062	0.506361	0.000030
 628	6.2386e+01	6.2356	4.314980	0.000180	1.801626	0.305204	0.000018
 629	6.2486e+01	6.2431	4.346752	0.000319	3.193792	0.541043	0.000032
 630	6.2586e+01	6.2505	4.371193	0.000246	2.456763	0.416187	0.000025
 631	6.2685e+01	6.2655	4.397263	0.000262	2.620547	0.443933	0.000026
 632	6.2785e+01	6.2734	4.421703	0.000246	2.456763	0.416187	0.000025
 633	6.2884e+01	6.2824	4.448588	0.000270	2.702439	0.457806	0.000027
 634	6.2983e+01	6.2960	4.473436	0.000250	2.497709	0.423123	0.000025
 635	6.3083e+01	6.3030	4.499098	0.000258	2.579601	0.436996	0.000026
 636	6.3182e+01	6.3135	4.526390	0.000274	2.743385	0.464742	0.000027
 637	6.3282e+01	6.3247	4.552053	0.000258	2.579601	0.436996	0.000026
 638	6.3382e+01	6.3343	4.575679	0.000237	2.374871	0.402314	0.000024
 639	6.3481e+01	6.3445	4.601749	0.000262	2.620547	0.443933	0.000026
 640	6.3581e+01	6.3520	4.629855	0.000283	2.825277	0.478615	0.000028
 641	6.3680e+01	6.3634	4.654703	0.000250	2.497709	0.423123	0.000025
 642	6.3779e+01	6.3725	4.679551	0.000250	2.497709	0.423123	0.000025
 643	6.3879e+01	6.3827	4.704399	0.000250	2.497709	0.423123	0.000025
 644	6.3978e+01	6.3940	4.728840	0.000246	2.456763	0.416187	0.000025
 645	6.4078e+01	6.4067	4.755724	0.000270	2.702439	0.457806	0.000027
 646	6.4177e+01	6.4115	4.780980	0.000254	2.538655	0.430060	0.000025
 647	6.4277e+01	6.4232	4.804605	0.000237	2.374871	0.402314	0.000024
 648	6.4376e+01	6.4318	4.833119	0.000287	2.866223	0.485551	0.000029
 649	6.4476e+01	6.4421	4.861226	0.000283	2.825277	0.478615	0.000028
 650	6.4576e+01	6.4542	4.884445	0.000233	2.333925	0.395378	0.000023
 651	6.4675e+01	6.4625	4.913366	0.000291	2.907169	0.492488	0.000029
 652	6.4775e+01	6.4712	4.938621	0.000254	2.538655	0.430060	0.000025
 653	6.4874e+01	6.4818	4.962654	0.000242	2.415817	0.409250	0.000024
 654	6.4974e+01	6.4910	4.987502	0.000250	2.497709	0.423123	0.000025
 655	6.5073e+01	6.5008	5.013572	0.000262	2.620547	0.443933	0.000026
 656	6.5172e+01	6.5118	5.037198	0.000237	2.374871	0.402314	0.000024
 657	6.5272e+01	6.5228	5.067341	0.000303	3.030008	0.513297	0.000030
 658	6.5371e+01	6.5313	5.087708	0.000205	2.047302	0.346822	0.000020
 659	6.5471e+01	6.5420	5.118259	0.000307	3.070954	0.520234	0.000031
 660	6.5570e+01	6.5517	5.138626	0.000205	2.047302	0.346822	0.000020
 661	6.5670e+01	6.5636	5.169177	0.000307	3.070954	0.520234	0.000031
 662	6.5769e+01	6.5734	5.192396	0.000233	2.333925	0.395378	0.000023
 663	6.5869e+01	6.5837	5.220502	0.000283	2.825277	0.478615	0.000028
 664	6.5969e+01	6.5919	5.248201	0.000278	2.784331	0.471678	0.000028
 665	6.6068e+01	6.6032	5.273864	0.000258	2.579601	0.436996	0.000026
 666	6.6168e+01	6.6113	5.297897	0.000242	2.415817	0.409250	0.000024
 667	6.6267e+01	6.6211	5.323152	0.000254	2.538655	0.430060	0.000025
 668	6.6367e+01	6.6348	5.352074	0.000291	2.907169	0.492488	0.000029
 669	6.6466e+01	6.6418	5.372848	0.000209	2.088248	0.353759	0.000021
 670	6.6566e+01	6.6531	5.400955	0.000283	2.825277	0.478615	0.000028
 671	6.6665e+01	6.6622	5.424581	0.000237	2.374871	0.402314	0.000024
 672	6.6764e+01	6.6699	5.451058	0.000266	2.661493	0.450869	0.000027
 673	6.6864e+01	6.6836	5.479165	0.000283	2.825277	0.478615	0.000028
 674	6.6963e+01	6.6924	5.499532	0.000205	2.047302	0.346822	0.000020
 675	6.7063e+01	6.7014	5.528046	0.000287	2.866223	0.485551	0.000029
 676	6.7162e+01	6.7117	5.552486	0.000246	2.456763	0.416187	0.000025
 677	6.7262e+01	6.7209	5.581408	0.000291	2.907169	0.492488	0.000029
 678	6.7362e+01	6.7327	5.606663	0.000254	2.538655	0.430060	0.000025
 679	6.7461e+01	6.7416	5.632733	0.000262	2.620547	0.443933	0.000026
 680	6.7561e+01	6.7519	5.657988	0.000254	2.538655	0.430060	0.000025
 681	6.7660e+01	6.7593	5.681614	0.000237	2.374871	0.402314	0.000024
 682	6.7760e+01	6.7702	5.707684	0.000262	2.620547	0.443933	0.000026
 683	6.7859e+01	6.7806	5.732532	0.000250	2.497709	0.423123	0.000025
 684	6.7959e+01	6.7917	5.755750	0.000233	2.333925	0.395378	0.000023
 685	6.8058e+01	6.7995	5.779783	0.000242	2.415817	0.409250	0.000024
 686	6.8157e+01	6.8108	5.805039	0.000254	2.538655	0.430060	0.000025
 687	6.8257e+01	6.8218	5.828665	0.000237	2.374871	0.402314	0.000024
 688	6.8356e+01	6.8311	5.853920	0.000254	2.538655	0.430060	0.000025
 689	6.8456e+01	6.8413	5.878360	0.000246	2.456763	0.416187	0.000025
 690	6.8555e+01	6.8514	5.900357	0.000221	2.211087	0.374568	0.000022
 691	6.8655e+01	6.8598	5.928463	0.000283	2.825277	0.478615	0.000028
 692	6.8754e+01	6.8710	5.953719	0.000254	2.538655	0.430060	0.000025
 693	6.8854e+01	6.8804	5.978974	0.000254	2.538655	0.430060	0.000025
 694	6.8954e+01	6.8912	6.007488	0.000287	2.866223	0.485551	0.000029
 695	6.9053e+01	6.9015	6.031929	0.000246	2.456763	0.416187	0.000025
 696	6.9153e+01	6.9094	6.055962	0.000242	2.415817	0.409250	0.000024
 697	6.9252e+01	6.9209	6.083661	0.000278	2.784331	0.471678	0.000028
 698	6.9352e+01	6.9307	6.106880	0.000233	2.333925	0.395378	0.000023
 699	6.9451e+01	6.9424	6.132949	0.000262	2.620547	0.443933	0.000026
 700	6.9550e+01	6.9565	6.155761	0.000229	2.292979	0.388441	0.000023
 701	6.9650e+01	6.9592	6.184275	0.000287	2.866223	0.485551	0.000029
 702	6.9749e+01	6.9709	6.207900	0.000237	2.374871	0.402314	0.000024
 703	6.9849e+01	6.9833	6.233563	0.000258	2.579601	0.436996	0.000026
 704	6.9948e+01	6.9922	6.264114	0.000307	3.070954	0.520234	0.000031
 705	7.0048e+01	6.9974	6.290184	0.000262	2.620547	0.443933	0.000026
 706	7.0147e+01	7.0098	6.318698	0.000287	2.866223	0.485551	0.000029
 707	7.0247e+01	7.0202	6.343546	0.000250	2.497709	0.423123	0.000025
 708	7.0347e+01	7.0308	6.374504	0.000311	3.111900	0.527170	0.000031
 709	7.0446e+01	7.0390	6.402610	0.000283	2.825277	0.478615	0.000028
 710	7.0546e+01	7.0513	6.427865	0.000254	2.538655	0.430060	0.000025
 711	7.0645e+01	7.0574	6.453121	0.000254	2.538655	0.430060	0.000025
 712	7.0745e+01	7.0695	6.480820	0.000278	2.784331	0.471678	0.000028
 713	7.0844e+01	7.0794	6.508927	0.000283	2.825277	0.478615	0.000028
 714	7.0944e+01	7.0907	6.529294	0.000205	2.047302	0.346822	0.000020
 715	7.1043e+01	7.0989	6.559844	0.000307	3.070954	0.520234	0.000031
 716	7.1142e+01	7.1096	6.584285	0.000246	2.456763	0.416187	0.000025
 717	7.1242e+01	7.1225	6.608318	0.000242	2.415817	0.409250	0.000024
 718	7.1341e+01	7.1334	6.634388	0.000262	2.620547	0.443933	0.000026
 719	7.1441e+01	7.1388	6.659643	0.000254	2.538655	0.430060	0.000025
 720	7.1540e+01	7.1499	6.686528	0.000270	2.702439	0.457806	0.000027
 721	7.1640e+01	7.1597	6.713413	0.000270	2.702439	0.457806	0.000027
 722	7.1740e+01	7.1694	6.739075	0.000258	2.579601	0.436996	0.000026
 723	7.1839e+01	7.1806	6.764330	0.000254	2.538655	0.430060	0.000025
 724	7.1939e+01	7.1889	6.790808	0.000266	2.661493	0.450869	0.000027
 725	7.2038e+01	7.2018	6.816063	0.000254	2.538655	0.430060	0.000025
 726	7.2138e+01	7.2085	6.841318	0.000254	2.538655	0.430060	0.000025
 727	7.2237e+01	7.2198	6.867388	0.000262	2.620547	0.443933	0.000026
 728	7.2337e+01	7.2301	6.890199	0.000229	2.292979	0.388441	0.000023
 729	7.2436e+01	7.2385	6.917899	0.000278	2.784331	0.471678	0.000028
 730	7.2535e+01	7.2510	6.941932	0.000242	2.415817	0.409250	0.000024
 731	7.2635e+01	7.2572	6.966372	0.000246	2.456763	0.416187	0.000025
 732	7.2734e+01	7.2691	6.993257	0.000270	2.702439	0.457806	0.000027
 733	7.2834e+01	7.2781	7.021364	0.000283	2.825277	0.478615	0.000028
 734	7.2933e+01	7.2885	7.046619	0.000254	2.538655	0.430060	0.000025
 735	7.3033e+01	7.3000	7.072281	0.000258	2.579601	0.436996	0.000026
 736	7.3132e+01	7.3067	7.097944	0.000258	2.579601	0.436996	0.000026
 737	7.3232e+01	7.3177	7.125643	0.000278	2.784331	0.471678	0.000028
 738	7.3332e+01	7.3287	7.155787	0.000303	3.030008	0.513297	0.000030
 739	7.3431e+01	7.3413	7.175339	0.000197	1.965410	0.332950	0.000020
 740	7.3531e+01	7.3481	7.201002	0.000258	2.579601	0.436996	0.000026
 741	7.3630e+01	7.3600	7.231552	0.000307	3.070954	0.520234	0.000031
 742	7.3730e+01	7.3678	7.257622	0.000262	2.620547	0.443933	0.000026
 743	7.3829e+01	7.3775	7.281248	0.000237	2.374871	0.402314	0.000024
 744	7.3928e+01	7.3878	7.305689	0.000246	2.456763	0.416187	0.000025
 745	7.4028e+01	7.3951	7.332573	0.000270	2.702439	0.457806	0.000027
 746	7.4127e+01	7.4078	7.355792	0.000233	2.333925	0.395378	0.000023
 747	7.4227e+01	7.4178	7.384306	0.000287	2.866223	0.485551	0.000029
 748	7.4326e+01	7.4278	7.405080	0.000209	2.088248	0.353759	0.000021
 749	7.4426e+01	7.4384	7.429521	0.000246	2.456763	0.416187	0.000025
 750	7.4525e+01	7.4480	7.455183	0.000258	2.579601	0.436996	0.000026
 751	7.4625e+01	7.4572	7.481661	0.000266	2.661493	0.450869	0.000027
 752	7.4725e+01	7.4679	7.511397	0.000299	2.989062	0.506361	0.000030
 753	7.4824e+01	7.4810	7.533800	0.000225	2.252033	0.381505	0.000023
 754	7.4924e+01	7.4866	7.560278	0.000266	2.661493	0.450869	0.000027
 755	7.5023e+01	7.4972	7.583089	0.000229	2.292979	0.388441	0.000023
 756	7.5123e+01	7.5074	7.613232	0.000303	3.030008	0.513297	0.000030
 757	7.5222e+01	7.5188	7.638488	0.000254	2.538655	0.430060	0.000025
 758	7.5322e+01	7.5295	7.663743	0.000254	2.538655	0.430060	0.000025
 759	7.5421e+01	7.5368	7.690627	0.000270	2.702439	0.457806	0.000027
 760	7.5520e+01	7.5470	7.715883	0.000254	2.538655	0.430060	0.000025
 761	7.5620e+01	7.5585	7.740731	0.000250	2.497709	0.423123	0.000025
 762	7.5719e+01	7.5668	7.762727	0.000221	2.211087	0.374568	0.000022
 763	7.5819e+01	7.5787	7.787575	0.000250	2.497709	0.423123	0.000025
 764	7.5918e+01	7.5869	7.812830	0.000254	2.538655	0.430060	0.000025
 765	7.6018e+01	7.5980	7.839715	0.000270	2.702439	0.457806	0.000027
 766	7.6118e+01	7.6099	7.869043	0.000295	2.948116	0.499424	0.000029
 767	7.6217e+01	7.6172	7.893077	0.000242	2.415817	0.409250	0.000024
 768	7.6317e+01	7.6265	7.920369	0.000274	2.743385	0.464742	0.000027
 769	7.6416e+01	7.6367	7.949290	0.000291	2.907169	0.492488	0.000029
 770	7.6516e+01	7.6470	7.976989	0.000278	2.784331	0.471678	0.000028
 771	7.6615e+01	7.6565	8.004281	0.000274	2.743385	0.464742	0.000027
 772	7.6715e+01	7.6670	8.033202	0.000291	2.907169	0.492488	0.000029
 773	7.6814e+01	7.6772	8.057236	0.000242	2.415817	0.409250	0.000024
 774	7.6913e+01	7.6855	8.082491	0.000254	2.538655	0.430060	0.000025
 775	7.7013e+01	7.6965	8.108968	0.000266	2.661493	0.450869	0.000027
 776	7.7112e+01	7.7069	8.134223	0.000254	2.538655	0.430060	0.000025
 777	7.7212e+01	7.7181	8.160293	0.000262	2.620547	0.443933	0.000026
 778	7.7311e+01	7.7268	8.186363	0.000262	2.620547	0.443933	0.000026
 779	7.7411e+01	7.7356	8.214063	0.000278	2.784331	0.471678	0.000028
 780	7.7510e+01	7.7477	8.237688	0.000237	2.374871	0.402314	0.000024
 781	7.7610e+01	7.7547	8.264573	0.000270	2.702439	0.457806	0.000027
 782	7.7710e+01	7.7686	8.290643	0.000262	2.620547	0.443933	0.000026
 783	7.7809e+01	7.7738	8.316713	0.000262	2.620547	0.443933	0.000026
 784	7.7909e+01	7.7862	8.340339	0.000237	2.374871	0.402314	0.000024
 785	7.8008e+01	7.7996	8.367631	0.000274	2.743385	0.464742	0.000027
 786	7.8108e+01	7.8043	8.393701	0.000262	2.620547	0.443933	0.000026
 787	7.8207e+01	7.8160	8.416104	0.000225	2.252033	0.381505	0.000023
 788	7.8306e+01	7.8284	8.437286	0.000213	2.129195	0.360695	0.000021
 789	7.8406e+01	7.8358	8.465393	0.000283	2.825277	0.478615	0.000028
 790	7.8505e+01	7.8452	8.486982	0.000217	2.170141	0.367632	0.000022
 791	7.8605e+01	7.8568	8.510201	0.000233	2.333925	0.395378	0.000023
 792	7.8704e+01	7.8674	8.538715	0.000287	2.866223	0.485551	0.000029
 793	7.8804e+01	7.8764	8.561526	0.000229	2.292979	0.388441	0.000023
 794	7.8903e+01	7.8848	8.583115	0.000217	2.170141	0.367632	0.000022
 795	7.9003e+01	7.8974	8.608370	0.000254	2.538655	0.430060	0.000025
 796	7.9103e+01	7.9082	8.636477	0.000283	2.825277	0.478615	0.000028
 797	7.9202e+01	7.9156	8.660917	0.000246	2.456763	0.416187	0.000025
 798	7.9302e+01	7.9237	8.687395	0.000266	2.661493	0.450869	0.000027
 799	7.9401e+01	7.9333	8.711835	0.000246	2.456763	0.416187	0.000025
 800	7.9501e+01	7.9447	8.732610	0.000209	2.088248	0.353759	0.000021
 801	7.9600e+01	7.9552	8.763975	0.000315	3.152846	0.534107	0.000032
 802	7.9700e+01	7.9652	8.789638	0.000258	2.579601	0.436996	0.000026
 803	7.9799e+01	7.9763	8.815707	0.000262	2.620547	0.443933	0.000026
 804	7.9898e+01	7.9855	8.842185	0.000266	2.661493	0.450869	0.000027
 805	7.9998e+01	7.9957	8.864996	0.000229	2.292979	0.388441	0.000023
 806	8.0097e+01	8.0061	8.892288	0.000274	2.743385	0.464742	0.000027
 807	8.0197e+01	8.0122	8.915914	0.000237	2.374871	0.402314	0.000024
 808	8.0296e+01	8.0247	8.944020	0.000283	2.825277	0.478615	0.000028
 809	8.0396e+01	8.0351	8.970090	0.000262	2.620547	0.443933	0.000026
 810	8.0496e+01	8.0437	8.996975	0.000270	2.702439	0.457806	0.000027
 811	8.0595e+01	8.0535	9.021415	0.000246	2.456763	0.416187	0.000025
 812	8.0695e+01	8.0653	9.049522	0.000283	2.825277	0.478615	0.000028
 813	8.0794e+01	8.0766	9.074370	0.000250	2.497709	0.423123	0.000025
 814	8.0894e+01	8.0862	9.097589	0.000233	2.333925	0.395378	0.000023
 815	8.0993e+01	8.0912	9.123658	0.000262	2.620547	0.443933	0.000026
 816	8.1093e+01	8.1032	9.150543	0.000270	2.702439	0.457806	0.000027
 817	8.1192e+01	8.1128	9.177835	0.000274	2.743385	0.464742	0.000027
 818	8.1291e+01	8.1258	9.204720	0.000270	2.702439	0.457806	0.000027
 819	8.1391e+01	8.1362	9.230382	0.000258	2.579601	0.436996	0.000026
 820	8.1490e+01	8.1461	9.258489	0.000283	2.825277	0.478615	0.000028
 821	8.1590e+01	8.1537	9.282929	0.000246	2.456763	0.416187	0.000025
 822	8.1689e+01	8.1625	9.312258	0.000295	2.948116	0.499424	0.000029
 823	8.1789e+01	8.1718	9.338735	0.000266	2.661493	0.450869	0.000027
 824	8.1888e+01	8.1846	9.361954	0.000233	2.333925	0.395378	0.000023
 825	8.1988e+01	8.1958	9.388431	0.000266	2.661493	0.450869	0.000027
 826	8.2088e+01	8.2019	9.414501	0.000262	2.620547	0.443933	0.000026
 827	8.2187e+01	8.2156	9.441386	0.000270	2.702439	0.457806	0.000027
 828	8.2287e+01	8.2273	9.467456	0.000262	2.620547	0.443933	0.000026
 829	8.2386e+01	8.2328	9.492303	0.000250	2.497709	0.423123	0.000025
 830	8.2486e+01	8.2414	9.518781	0.000266	2.661493	0.450869	0.000027
 831	8.2585e+01	8.2533	9.544036	0.000254	2.538655	0.430060	0.000025
 832	8.2684e+01	8.2639	9.576216	0.000323	3.234738	0.547979	0.000032
 833	8.2784e+01	8.2764	9.602286	0.000262	2.620547	0.443933	0.000026
 834	8.2883e+01	8.2842	9.629578	0.000274	2.743385	0.464742	0.000027
 835	8.2983e+01	8.2926	9.656055	0.000266	2.661493	0.450869	0.000027
 836	8.3082e+01	8.3039	9.683347	0.000274	2.743385	0.464742	0.000027
 837	8.3182e+01	8.3155	9.707788	0.000246	2.456763	0.416187	0.000025
 838	8.3281e+01	8.3244	9.735894	0.000283	2.825277	0.478615	0.000028
 839	8.3381e+01	8.3340	9.766852	0.000311	3.111900	0.527170	0.000031
 840	8.3481e+01	8.3472	9.789664	0.000229	2.292979	0.388441	0.000023
 841	8.3580e+01	8.3521	9.818178	0.000287	2.866223	0.485551	0.000029
 842	8.3680e+01	8.3622	9.845469	0.000274	2.743385	0.464742	0.000027
 843	8.3779e+01	8.3740	9.873169	0.000278	2.784331	0.471678	0.000028
 844	8.3879e+01	8.3839	9.898831	0.000258	2.579601	0.436996	0.000026
 845	8.3978e+01	8.3924	9.928567	0.000299	2.989062	0.506361	0.000030
 846	8.4078e+01	8.4068	9.954230	0.000258	2.579601	0.436996	0.000026
 847	8.4177e+01	8.4148	9.984781	0.000307	3.070954	0.520234	0.000031
 848	8.4276e+01	8.4229	10.008406	0.000237	2.374871	0.402314	0.000024
 849	8.4376e+01	8.4348	10.036920	0.000287	2.866223	0.485551	0.000029
 850	8.4475e+01	8.4428	10.061768	0.000250	2.497709	0.423123	0.000025
 851	8.4575e+01	8.4524	10.093541	0.000319	3.193792	0.541043	0.000032
 852	8.4674e+01	8.4619	10.119204	0.000258	2.579601	0.436996	0.000026
 853	8.4774e+01	8.4727	10.139571	0.000205	2.047302	0.346822	0.000020
 854	8.4874e+01	8.4839	10.172566	0.000332	3.316630	0.561852	0.000033
 855	8.4973e+01	8.4928	10.194562	0.000221	2.211087	0.374568	0.000022
 856	8.5073e+01	8.5019	10.221447	0.000270	2.702439	0.457806	0.000027
 857	8.5172e+01	8.5123	10.248739	0.000274	2.743385	0.464742	0.000027
 858	8.5272e+01	8.5214	10.279289	0.000307	3.070954	0.520234	0.000031
 859	8.5371e+01	8.5295	10.304137	0.000250	2.497709	0.423123	0.000025
 860	8.5471e+01	8.5406	10.335503	0.000315	3.152846	0.534107	0.000032
 861	8.5570e+01	8.5513	10.362795	0.000274	2.743385	0.464742	0.000027
 862	8.5669e+01	8.5630	10.391308	0.000287	2.866223	0.485551	0.000029
 863	8.5769e+01	8.5725	10.419008	0.000278	2.784331	0.471678	0.000028
 864	8.5868e+01	8.5821	10.450373	0.000315	3.152846	0.534107	0.000032
 865	8.5968e+01	8.5926	10.476036	0.000258	2.579601	0.436996	0.000026
 866	8.6067e+01	8.6012	10.504957	0.000291	2.907169	0.492488	0.000029
 867	8.6167e+01	8.6108	10.534693	0.000299	2.989062	0.506361	0.000030
 868	8.6266e+01	8.6207	10.561985	0.000274	2.743385	0.464742	0.000027
 869	8.6366e+01	8.6281	10.590092	0.000283	2.825277	0.478615	0.000028
 870	8.6466e+01	8.6411	10.622272	0.000323	3.234738	0.547979	0.000032
 871	8.6565e+01	8.6523	10.650786	0.000287	2.866223	0.485551	0.000029
 872	8.6665e+01	8.6600	10.683780	0.000332	3.316630	0.561852	0.000033
 873	8.6764e+01	8.6727	10.713109	0.000295	2.948116	0.499424	0.000029
 874	8.6864e+01	8.6852	10.746511	0.000336	3.357576	0.568789	0.000034
 875	8.6963e+01	8.6923	10.776655	0.000303	3.030008	0.513297	0.000030
 876	8.7063e+01	8.7025	10.806391	0.000299	2.989062	0.506361	0.000030
 877	8.7162e+01	8.7115	10.838163	0.000319	3.193792	0.541043	0.000032
 878	8.7261e+01	8.7211	10.868307	0.000303	3.030008	0.513297	0.000030
 879	8.7361e+01	8.7318	10.898043	0.000299	2.989062	0.506361	0.000030
 880	8.7460e+01	8.7423	10.928593	0.000307	3.070954	0.520234	0.000031
 881	8.7560e+01	8.7525	10.960366	0.000319	3.193792	0.541043	0.000032
 882	8.7659e+01	8.7617	10.988065	0.000278	2.784331	0.471678	0.000028
 883	8.7759e+01	8.7695	11.020245	0.000323	3.234738	0.547979	0.000032
 884	8.7859e+01	8.7807	11.044686	0.000246	2.456763	0.416187	0.000025
 885	8.7958e+01	8.7931	11.078495	0.000340	3.398522	0.575725	0.000034
 886	8.8058e+01	8.8033	11.107009	0.000287	2.866223	0.485551	0.000029
 887	8.8157e+01	8.8089	11.140004	0.000332	3.316630	0.561852	0.000033
 888	8.8257e+01	8.8217	11.168925	0.000291	2.907169	0.492488	0.000029
 889	8.8356e+01	8.8300	11.197439	0.000287	2.866223	0.485551	0.000029
 890	8.8456e+01	8.8416	11.225139	0.000278	2.784331	0.471678	0.000028
 891	8.8555e+01	8.8535	11.257319	0.000323	3.234738	0.547979	0.000032
 892	8.8654e+01	8.8599	11.287055	0.000299	2.989062	0.506361	0.000030
 893	8.8754e+01	8.8680	11.320457	0.000336	3.357576	0.568789	0.000034
 894	8.8853e+01	8.8797	11.346119	0.000258	2.579601	0.436996	0.000026
 895	8.8953e+01	8.8908	11.378707	0.000328	3.275684	0.554916	0.000033
 896	8.9052e+01	8.8992	11.410072	0.000315	3.152846	0.534107	0.000032
 897	8.9152e+01	8.9077	11.439808	0.000299	2.989062	0.506361	0.000030
 898	8.9251e+01	8.9171	11.469952	0.000303	3.030008	0.513297	0.000030
 899	8.9351e+01	8.9297	11.503354	0.000336	3.357576	0.568789	0.000034
 900	8.9451e+01	8.9415	11.535534	0.000323	3.234738	0.547979	0.000032
 901	8.9550e+01	8.9482	11.567306	0.000319	3.193792	0.541043	0.000032
 902	8.9650e+01	8.9566	11.594598	0.000274	2.743385	0.464742	0.000027
 903	8.9749e+01	8.9691	11.628815	0.000344	3.439468	0.582662	0.000034
 904	8.9849e+01	8.9767	11.661403	0.000328	3.275684	0.554916	0.000033
 905	8.9948e+01	8.9885	11.693175	0.000319	3.193792	0.541043	0.000032
 906	9.0047e+01	9.0011	11.722504	0.000295	2.948116	0.499424	0.000029
 907	9.0147e+01	9.0093	11.755499	0.000332	3.316630	0.561852	0.000033
 908	9.0246e+01	9.0189	11.791752	0.000364	3.644198	0.617344	0.000036
 909	9.0346e+01	9.0292	11.823118	0.000315	3.152846	0.534107	0.000032
 910	9.0445e+01	9.0436	11.856927	0.000340	3.398522	0.575725	0.000034
 911	9.0545e+01	9.0504	11.885848	0.000291	2.907169	0.492488	0.000029
 912	9.0644e+01	9.0594	11.918028	0.000323	3.234738	0.547979	0.000032
 913	9.0744e+01	9.0683	11.952652	0.000348	3.480414	0.589598	0.000035
 914	9.0844e+01	9.0804	11.981981	0.000295	2.948116	0.499424	0.000029
 915	9.0943e+01	9.0873	12.011717	0.000299	2.989062	0.506361	0.000030
 916	9.1043e+01	9.0989	12.048378	0.000369	3.685144	0.624280	0.000037
 917	9.1142e+01	9.1093	12.081780	0.000336	3.357576	0.568789	0.000034
 918	9.1242e+01	9.1167	12.115590	0.000340	3.398522	0.575725	0.000034
 919	9.1341e+01	9.1312	12.148177	0.000328	3.275684	0.554916	0.000033
 920	9.1441e+01	9.1383	12.178728	0.000307	3.070954	0.520234	0.000031
 921	9.1540e+01	9.1480	12.217018	0.000385	3.848929	0.652026	0.000038
 922	9.1639e+01	9.1608	12.251642	0.000348	3.480414	0.589598	0.000035
 923	9.1739e+01	9.1690	12.284637	0.000332	3.316630	0.561852	0.000033
 924	9.1838e+01	9.1785	12.315595	0.000311	3.111900	0.527170	0.000031
 925	9.1938e+01	9.1888	12.351848	0.000364	3.644198	0.617344	0.000036
 926	9.2037e+01	9.1992	12.384028	0.000323	3.234738	0.547979	0.000032
 927	9.2137e+01	9.2090	12.420689	0.000369	3.685144	0.624280	0.000037
 928	9.2237e+01	9.2196	12.455721	0.000352	3.521360	0.596535	0.000035
 929	9.2336e+01	9.2286	12.492381	0.000369	3.685144	0.624280	0.000037
 930	9.2436e+01	9.2389	12.524561	0.000323	3.234738	0.547979	0.000032
 931	9.2535e+01	9.2490	12.562852	0.000385	3.848929	0.652026	0.000038
 932	9.2635e+01	9.2580	12.595032	0.000323	3.234738	0.547979	0.000032
 933	9.2734e+01	9.2686	12.635359	0.000405	4.053659	0.686708	0.000041
 934	9.2834e+01	9.2794	12.668761	0.000336	3.357576	0.568789	0.000034
 935	9.2933e+01	9.2878	12.704607	0.000360	3.603252	0.610407	0.000036
 936	9.3032e+01	9.2983	12.739231	0.000348	3.480414	0.589598	0.000035
 937	9.3132e+01	9.3102	12.782409	0.000434	4.340281	0.735264	0.000043
 938	9.3231e+01	9.3147	12.819477	0.000373	3.726090	0.631217	0.000037
 939	9.3331e+01	9.3256	12.861841	0.000426	4.258389	0.721391	0.000043
 940	9.3430e+01	9.3375	12.895243	0.000336	3.357576	0.568789	0.000034
 941	9.3530e+01	9.3495	12.931497	0.000364	3.644198	0.617344	0.000036
 942	9.3629e+01	9.3561	12.968157	0.000369	3.685144	0.624280	0.000037
 943	9.3729e+01	9.3667	13.003596	0.000356	3.562306	0.603471	0.000036
 944	9.3829e+01	9.3762	13.042701	0.000393	3.930821	0.665899	0.000039
 945	9.3928e+01	9.3879	13.076511	0.000340	3.398522	0.575725	0.000034
 946	9.4028e+01	9.3994	13.113986	0.000377	3.767036	0.638153	0.000038
 947	9.4127e+01	9.4073	13.152684	0.000389	3.889875	0.658963	0.000039
 948	9.4227e+01	9.4160	13.190567	0.000381	3.807983	0.645090	0.000038
 949	9.4326e+01	9.4275	13.226820	0.000364	3.644198	0.617344	0.000036
 950	9.4425e+01	9.4360	13.264703	0.000381	3.807983	0.645090	0.000038
 951	9.4525e+01	9.4488	13.303400	0.000389	3.889875	0.658963	0.000039
 952	9.4624e+01	9.4566	13.340061	0.000369	3.685144	0.624280	0.000037
 953	9.4724e+01	9.4667	13.379166	0.000393	3.930821	0.665899	0.000039
 954	9.4823e+01	9.4781	13.418271	0.000393	3.930821	0.665899	0.000039
 955	9.4923e+01	9.4879	13.454524	0.000364	3.644198	0.617344	0.000036
 956	9.5022e+01	9.4971	13.490778	0.000364	3.644198	0.617344	0.000036
 957	9.5122e+01	9.5068	13.527439	0.000369	3.685144	0.624280	0.000037
 958	9.5222e+01	9.5223	13.565322	0.000381	3.807983	0.645090	0.000038
 959	9.5321e+01	9.5254	13.601982	0.000369	3.685144	0.624280	0.000037
 960	9.5421e+01	9.5376	13.638643	0.000369	3.685144	0.624280	0.000037
 961	9.5520e+01	9.5461	13.675304	0.000369	3.685144	0.624280	0.000037
 962	9.5620e+01	9.5575	13.712780	0.000377	3.767036	0.638153	0.000038
 963	9.5719e+01	9.5672	13.753107	0.000405	4.053659	0.686708	0.000041
 964	9.5819e+01	9.5758	13.792619	0.000397	3.971767	0.672835	0.000040
 965	9.5918e+01	9.5870	13.832538	0.000401	4.012713	0.679772	0.000040
 966	9.6017e+01	9.5937	13.872051	0.000397	3.971767	0.672835	0.000040
 967	9.6117e+01	9.6094	13.913192	0.000414	4.135551	0.700581	0.000041
 968	9.6216e+01	9.6167	13.953519	0.000405	4.053659	0.686708	0.000041
 969	9.6316e+01	9.6293	13.995068	0.000418	4.176497	0.707518	0.000042
 970	9.6415e+01	9.6326	14.036617	0.000418	4.176497	0.707518	0.000042
 971	9.6515e+01	9.6442	14.078166	0.000418	4.176497	0.707518	0.000042
 972	9.6615e+01	9.6555	14.121344	0.000434	4.340281	0.735264	0.000043
 973	9.6714e+01	9.6667	14.159634	0.000385	3.848929	0.652026	0.000038
 974	9.6814e+01	9.6753	14.198739	0.000393	3.930821	0.665899	0.000039
 975	9.6913e+01	9.6861	14.245584	0.000471	4.708796	0.797692	0.000047
 976	9.7013e+01	9.6973	14.284281	0.000389	3.889875	0.658963	0.000039
 977	9.7112e+01	9.7052	14.327867	0.000438	4.381227	0.742200	0.000044
 978	9.7212e+01	9.7153	14.371045	0.000434	4.340281	0.735264	0.000043
 979	9.7311e+01	9.7266	14.420741	0.000500	4.995418	0.846247	0.000050
 980	9.7410e+01	9.7355	14.461883	0.000414	4.135551	0.700581	0.000041
 981	9.7510e+01	9.7443	14.504654	0.000430	4.299335	0.728327	0.000043
 982	9.7609e+01	9.7549	14.548647	0.000442	4.422173	0.749136	0.000044
 983	9.7709e+01	9.7668	14.589788	0.000414	4.135551	0.700581	0.000041
 984	9.7808e+01	9.7742	14.635818	0.000463	4.626903	0.783819	0.000046
 985	9.7908e+01	9.7852	14.677774	0.000422	4.217443	0.714454	0.000042
 986	9.8007e+01	9.7938	14.725841	0.000483	4.831634	0.818501	0.000048
 987	9.8107e+01	9.8074	14.768204	0.000426	4.258389	0.721391	0.000043
 988	9.8207e+01	9.8171	14.810568	0.000426	4.258389	0.721391	0.000043
 989	9.8306e+01	9.8267	14.855376	0.000450	4.504065	0.763009	0.000045
 990	9.8406e+01	9.8367	14.899369	0.000442	4.422173	0.749136	0.000044
 991	9.8505e+01	9.8457	14.947028	0.000479	4.790688	0.811564	0.000048
 992	9.8605e+01	9.8537	14.996316	0.000495	4.954472	0.839310	0.000050
 993	9.8704e+01	9.8664	15.040309	0.000442	4.422173	0.749136	0.000044
 994	9.8803e+01	9.8752	15.086746	0.000467	4.667850	0.790755	0.000047
 995	9.8903e+01	9.8830	15.134405	0.000479	4.790688	0.811564	0.000048
 996	9.9002e+01	9.8956	15.185323	0.000512	5.118256	0.867056	0.000051
 997	9.9102e+01	9.9055	15.234611	0.000495	4.954472	0.839310	0.000050
 998	9.9201e+01	9.9175	15.284307	0.000500	4.995418	0.846247	0.000050
 999	9.9301e+01	9.9249	15.335632	0.000516	5.159202	0.873993	0.000052
1000	9.9400e+01	9.9368	15.383291	0.000479	4.790688	0.811564	0.000048
1001	9.9500e+01	9.9438	15.431358	0.000483	4.831634	0.818501	0.000048
1002	9.9600e+01	9.9536	15.481054	0.000500	4.995418	0.846247	0.000050
1003	9.9699e+01	9.9648	15.534008	0.000532	5.322986	0.901738	0.000053
1004	9.9799e+01	9.9744	15.581667	0.000479	4.790688	0.811564	0.000048
1005	9.9898e+01	9.9866	15.632992	0.000516	5.159202	0.873993	0.000052
1006	9.9998e+01	9.9935	15.686762	0.000540	5.404878	0.915611	0.000054
1007	1.0010e+02	9.9856	15.695723	-0.000090	-0.900813	-0.152602	0.000009
1008	1.0020e+02	9.9723	15.707536	-0.000119	-1.187435	-0.201157	0.000012
1009	1.0030e+02	9.9649	15.715276	-0.000078	-0.777975	-0.131793	0.000008
1010	1.0040e+02	9.9541	15.734013	-0.000188	-1.883518	-0.319077	0.000019
1011	1.0050e+02	9.9445	15.741346	-0.000074	-0.737029	-0.124856	0.000007
1012	1.0059e+02	9.9367	15.749900	-0.000086	-0.859867	-0.145665	0.000009
1013	1.0069e+02	9.9244	15.760083	-0.000102	-1.023651	-0.173411	0.000010
1014	1.0079e+02	9.9132	15.770267	-0.000102	-1.023651	-0.173411	0.000010
1015	1.0089e+02	9.9052	15.778006	-0.000078	-0.777975	-0.131793	0.000008
1016	1.0099e+02	9.8928	15.786968	-0.000090	-0.900813	-0.152602	0.000009
1017	1.0109e+02	9.8844	15.790227	-0.000033	-0.327568	-0.055492	0.000003
1018	1.0119e+02	9.8737	15.794707	-0.000045	-0.450407	-0.076301	0.000005
1019	1.0129e+02	9.8616	15.802854	-0.000082	-0.818921	-0.138729	0.000008
1020	1.0139e+02	9.8548	15.806928	-0.000041	-0.409460	-0.069364	0.000004
1021	1.0149e+02	9.8441	15.809779	-0.000029	-0.286622	-0.048555	0.000003
1022	1.0159e+02	9.8340	15.814260	-0.000045	-0.450407	-0.076301	0.000005
1023	1.0169e+02	9.8251	15.818333	-0.000041	-0.409460	-0.069364	0.000004
1024	1.0179e+02	9.8148	15.822407	-0.000041	-0.409460	-0.069364	0.000004
1025	1.0189e+02	9.8060	15.830961	-0.000086	-0.859867	-0.145665	0.000009
1026	1.0199e+02	9.7949	15.834220	-0.000033	-0.327568	-0.055492	0.000003
1027	1.0209e+02	9.7845	15.839108	-0.000049	-0.491353	-0.083237	0.000005
1028	1.0219e+02	9.7754	15.840737	-0.000016	-0.163784	-0.027746	0.000002
1029	1.0229e+02	9.7645	15.846033	-0.000053	-0.532299	-0.090174	0.000005
1030	1.0239e+02	9.7575	15.847662	-0.000016	-0.163784	-0.027746	0.000002
1031	1.0248e+02	9.7453	15.847255	0.000004	0.040946	0.006936	-0.000000
1032	1.0258e+02	9.7334	15.849699	-0.000025	-0.245676	-0.041619	0.000002
1033	1.0268e+02	9.7255	15.853365	-0.000037	-0.368514	-0.062428	0.000004
1034	1.0278e+02	9.7169	15.857031	-0.000037	-0.368514	-0.062428	0.000004
1035	1.0288e+02	9.7044	15.854179	0.000029	0.286622	0.048555	-0.000003
1036	1.0298e+02	9.6973	15.852550	0.000016	0.163784	0.027746	-0.000002
1037	1.0308e+02	9.6836	15.851735	0.000008	0.081892	0.013873	-0.000001
1038	1.0318e+02	9.6754	15.853772	-0.000020	-0.204730	-0.034682	0.000002
1039	1.0328e+02	9.6680	15.857846	-0.000041	-0.409460	-0.069364	0.000004
1040	1.0338e+02	9.6548	15.861512	-0.000037	-0.368514	-0.062428	0.000004
1041	1.0348e+02	9.6460	15.863548	-0.000020	-0.204730	-0.034682	0.000002
1042	1.0358e+02	9.6344	15.865178	-0.000016	-0.163784	-0.027746	0.000002
1043	1.0368e+02	9.6265	15.859882	0.000053	0.532299	0.090174	-0.000005
1044	1.0378e+02	9.6167	15.862734	-0.000029	-0.286622	-0.048555	0.000003
1045	1.0388e+02	9.6059	15.858253	0.000045	0.450407	0.076301	-0.000005
1046	1.0398e+02	9.5954	15.857031	0.000012	0.122838	0.020809	-0.000001
1047	1.0408e+02	9.5865	15.854994	0.000020	0.204730	0.034682	-0.000002
1048	1.0418e+02	9.5765	15.854179	0.000008	0.081892	0.013873	-0.000001
1049	1.0428e+02	9.5643	15.850513	0.000037	0.368514	0.062428	-0.000004
1050	1.0438e+02	9.5557	15.846847	0.000037	0.368514	0.062428	-0.000004
1051	1.0447e+02	9.5450	15.843996	0.000029	0.286622	0.048555	-0.000003
1052	1.0457e+02	9.5361	15.838700	0.000053	0.532299	0.090174	-0.000005
1053	1.0467e+02	9.5280	15.835849	0.000029	0.286622	0.048555	-0.000003
1054	1.0477e+02	9.5146	15.824036	0.000119	1.187435	0.201157	-0.000012
1055	1.0487e+02	9.5047	15.824036	-0.000000	-0.000000	-0.000000	0.000000
1056	1.0497e+02	9.4971	15.816297	0.000078	0.777975	0.131793	-0.000008
1057	1.0507e+02	9.4855	15.813038	0.000033	0.327568	0.055492	-0.000003
1058	1.0517e+02	9.4793	15.809372	0.000037	0.368514	0.062428	-0.000004
1059	1.0527e+02	9.4678	15.804076	0.000053	0.532299	0.090174	-0.000005
1060	1.0537e+02	9.4568	15.795522	0.000086	0.859867	0.145665	-0.000009
1061	1.0547e+02	9.4458	15.789005	0.000066	0.655137	0.110983	-0.000007
1062	1.0557e+02	9.4357	15.781265	0.000078	0.777975	0.131793	-0.000008
1063	1.0567e+02	9.4306	15.772304	0.000090	0.900813	0.152602	-0.000009
1064	1.0577e+02	9.4165	15.766601	0.000057	0.573245	0.097110	-0.000006
1065	1.0587e+02	9.4073	15.756417	0.000102	1.023651	0.173411	-0.000010
1066	1.0597e+02	9.3960	15.750307	0.000061	0.614191	0.104047	-0.000006
1067	1.0607e+02	9.3857	15.743790	0.000066	0.655137	0.110983	-0.000007
1068	1.0617e+02	9.3777	15.731977	0.000119	1.187435	0.201157	-0.000012
1069	1.0627e+02	9.3662	15.725867	0.000061	0.614191	0.104047	-0.000006
1070	1.0637e+02	9.3592	15.713646	0.000123	1.228381	0.208093	-0.000012
1071	1.0647e+02	9.3475	15.705092	0.000086	0.859867	0.145665	-0.000009
1072	1.0656e+02	9.3378	15.699389	0.000057	0.573245	0.097110	-0.000006
1073	1.0666e+02	9.3280	15.691242	0.000082	0.818921	0.138729	-0.000008
1074	1.0676e+02	9.3173	15.681466	0.000098	0.982705	0.166475	-0.000010
1075	1.0686e+02	9.3085	15.671283	0.000102	1.023651	0.173411	-0.000010
1076	1.0696e+02	9.2960	15.660284	0.000111	1.105543	0.187284	-0.000011
1077	1.0706e+02	9.2908	15.652138	0.000082	0.818921	0.138729	-0.000008
1078	1.0716e+02	9.2811	15.642769	0.000094	0.941759	0.159538	-0.000009
1079	1.0726e+02	9.2700	15.630956	0.000119	1.187435	0.201157	-0.000012
1080	1.0736e+02	9.2561	15.618328	0.000127	1.269328	0.215030	-0.000013
1081	1.0746e+02	9.2480	15.608145	0.000102	1.023651	0.173411	-0.000010
1082	1.0756e+02	9.2371	15.595110	0.000131	1.310274	0.221966	-0.000013
1083	1.0766e+02	9.2285	15.584111	0.000111	1.105543	0.187284	-0.000011
1084	1.0776e+02	9.2188	15.571891	0.000123	1.228381	0.208093	-0.000012
1085	1.0786e+02	9.2097	15.561707	0.000102	1.023651	0.173411	-0.000010
1086	1.0796e+02	9.1980	15.553561	0.000082	0.818921	0.138729	-0.000008
1087	1.0806e+02	9.1872	15.538896	0.000147	1.474058	0.249712	-0.000015
1088	1.0816e+02	9.1804	15.527491	0.000115	1.146489	0.194221	-0.000011
1089	1.0826e+02	9.1699	15.516085	0.000115	1.146489	0.194221	-0.000011
1090	1.0836e+02	9.1568	15.505087	0.000111	1.105543	0.187284	-0.000011
1091	1.0845e+02	9.1504	15.490830	0.000143	1.433112	0.242776	-0.000014
1092	1.0855e+02	9.1406	15.481054	0.000098	0.982705	0.166475	-0.000010
1093	1.0865e+02	9.1303	15.465575	0.000156	1.555950	0.263585	-0.000016
1094	1.0875e+02	9.1193	15.452540	0.000131	1.310274	0.221966	-0.000013
1095	1.0885e+02	9.1101	15.442356	0.000102	1.023651	0.173411	-0.000010
1096	1.0895e+02	9.1019	15.426062	0.000164	1.637842	0.277458	-0.000016
1097	1.0905e+02	9.0875	15.412213	0.000139	1.392166	0.235839	-0.000014
1098	1.0915e+02	9.0794	15.397548	0.000147	1.474058	0.249712	-0.000015
1099	1.0925e+02	9.0698	15.389809	0.000078	0.777975	0.131793	-0.000008
1100	1.0935e+02	9.0598	15.369849	0.000201	2.006356	0.339886	-0.000020
1101	1.0945e+02	9.0486	15.355592	0.000143	1.433112	0.242776	-0.000014
1102	1.0955e+02	9.0371	15.346223	0.000094	0.941759	0.159538	-0.000009
1103	1.0965e+02	9.0287	15.332781	0.000135	1.351220	0.228903	-0.000014
1104	1.0975e+02	9.0177	15.318931	0.000139	1.392166	0.235839	-0.000014
1105	1.0985e+02	9.0088	15.311192	0.000078	0.777975	0.131793	-0.000008
1106	1.0995e+02	8.9991	15.296120	0.000152	1.515004	0.256649	-0.000015
1107	1.1005e+02	8.9900	15.282678	0.000135	1.351220	0.228903	-0.000014
1108	1.1015e+02	8.9798	15.266791	0.000160	1.596896	0.270521	-0.000016
1109	1.1025e+02	8.9688	15.257015	0.000098	0.982705	0.166475	-0.000010
1110	1.1035e+02	8.9567	15.239907	0.000172	1.719734	0.291331	-0.000017
1111	1.1044e+02	8.9536	15.226465	0.000135	1.351220	0.228903	-0.000014
1112	1.1054e+02	8.9381	15.208949	0.000176	1.760680	0.298267	-0.000018
1113	1.1064e+02	8.9298	15.195507	0.000135	1.351220	0.228903	-0.000014
1114	1.1074e+02	8.9192	15.178805	0.000168	1.678788	0.284394	-0.000017
1115	1.1084e+02	8.9088	15.165771	0.000131	1.310274	0.221966	-0.000013
1116	1.1094e+02	8.9030	15.149477	0.000164	1.637842	0.277458	-0.000016
1117	1.1104e+02	8.8892	15.136442	0.000131	1.310274	0.221966	-0.000013
1118	1.1114e+02	8.8818	15.118111	0.000184	1.842572	0.312140	-0.000018
1119	1.1124e+02	8.8687	15.106706	0.000115	1.146489	0.194221	-0.000011
1120	1.1134e+02	8.8599	15.087153	0.000197	1.965410	0.332950	-0.000020
1121	1.1144e+02	8.8488	15.072896	0.000143	1.433112	0.242776	-0.000014
1122	1.1154e+02	8.8415	15.052122	0.000209	2.088248	0.353759	-0.000021
1123	1.1164e+02	8.8317	15.036236	0.000160	1.596896	0.270521	-0.000016
1124	1.1174e+02	8.8208	15.018313	0.000180	1.801626	0.305204	-0.000018
1125	1.1184e+02	8.8126	14.998760	0.000197	1.965410	0.332950	-0.000020
1126	1.1194e+02	8.7995	14.980430	0.000184	1.842572	0.312140	-0.000018
1127	1.1204e+02	8.7922	14.963729	0.000168	1.678788	0.284394	-0.000017
1128	1.1214e+02	8.7823	14.942547	0.000213	2.129195	0.360695	-0.000021
1129	1.1224e+02	8.7720	14.925846	0.000168	1.678788	0.284394	-0.000017
1130	1.1234e+02	8.7622	14.909145	0.000168	1.678788	0.284394	-0.000017
1131	1.1244e+02	8.7521	14.892444	0.000168	1.678788	0.284394	-0.000017
1132	1.1253e+02	8.7421	14.875335	0.000172	1.719734	0.291331	-0.000017
1133	1.1263e+02	8.7321	14.857820	0.000176	1.760680	0.298267	-0.000018
1134	1.1273e+02	8.7233	14.842341	0.000156	1.555950	0.263585	-0.000016
1135	1.1283e+02	8.7122	14.825232	0.000172	1.719734	0.291331	-0.000017
1136	1.1293e+02	8.7019	14.805272	0.000201	2.006356	0.339886	-0.000020
1137	1.1303e+02	8.6919	14.795903	0.000094	0.941759	0.159538	-0.000009
1138	1.1313e+02	8.6798	14.771870	0.000242	2.415817	0.409250	-0.000024
1139	1.1323e+02	8.6725	14.756799	0.000152	1.515004	0.256649	-0.000015
1140	1.1333e+02	8.6607	14.736839	0.000201	2.006356	0.339886	-0.000020
1141	1.1343e+02	8.6539	14.722582	0.000143	1.433112	0.242776	-0.000014
1142	1.1353e+02	8.6422	14.705066	0.000176	1.760680	0.298267	-0.000018
1143	1.1363e+02	8.6344	14.682662	0.000225	2.252033	0.381505	-0.000023
1144	1.1373e+02	8.6225	14.668405	0.000143	1.433112	0.242776	-0.000014
1145	1.1383e+02	8.6108	14.649260	0.000192	1.924464	0.326013	-0.000019
1146	1.1393e+02	8.6019	14.631337	0.000180	1.801626	0.305204	-0.000018
1147	1.1403e+02	8.5947	14.614636	0.000168	1.678788	0.284394	-0.000017
1148	1.1413e+02	8.5815	14.593454	0.000213	2.129195	0.360695	-0.000021
1149	1.1423e+02	8.5742	14.578383	0.000152	1.515004	0.256649	-0.000015
1150	1.1433e+02	8.5627	14.558830	0.000197	1.965410	0.332950	-0.000020
1151	1.1442e+02	8.5525	14.540092	0.000188	1.883518	0.319077	-0.000019
1152	1.1452e+02	8.5413	14.520540	0.000197	1.965410	0.332950	-0.000020
1153	1.1462e+02	8.5344	14.504246	0.000164	1.637842	0.277458	-0.000016
1154	1.1472e+02	8.5214	14.488360	0.000160	1.596896	0.270521	-0.000016
1155	1.1482e+02	8.5135	14.471251	0.000172	1.719734	0.291331	-0.000017
1156	1.1492e+02	8.5025	14.447626	0.000237	2.374871	0.402314	-0.000024
1157	1.1502e+02	8.4939	14.429703	0.000180	1.801626	0.305204	-0.000018
1158	1.1512e+02	8.4829	14.409335	0.000205	2.047302	0.346822	-0.000020
1159	1.1522e+02	8.4736	14.392227	0.000172	1.719734	0.291331	-0.000017
1160	1.1532e+02	8.4632	14.377563	0.000147	1.474058	0.249712	-0.000015
1161	1.1542e+02	8.4541	14.355159	0.000225	2.252033	0.381505	-0.000023
1162	1.1552e+02	8.4437	14.338050	0.000172	1.719734	0.291331	-0.000017
1163	1.1562e+02	8.4328	14.318905	0.000192	1.924464	0.326013	-0.000019
1164	1.1572e+02	8.4247	14.300575	0.000184	1.842572	0.312140	-0.000018
1165	1.1582e+02	8.4133	14.282245	0.000184	1.842572	0.312140	-0.000018
1166	1.1592e+02	8.4011	14.261470	0.000209	2.088248	0.353759	-0.000021
1167	1.1602e+02	8.3892	14.245991	0.000156	1.555950	0.263585	-0.000016
1168	1.1612e+02	8.3839	14.223995	0.000221	2.211087	0.374568	-0.000022
1169	1.1622e+02	8.3730	14.206071	0.000180	1.801626	0.305204	-0.000018
1170	1.1632e+02	8.3632	14.184482	0.000217	2.170141	0.367632	-0.000022
1171	1.1642e+02	8.3557	14.168189	0.000164	1.637842	0.277458	-0.000016
1172	1.1651e+02	8.3436	14.150266	0.000180	1.801626	0.305204	-0.000018
1173	1.1661e+02	8.3331	14.128676	0.000217	2.170141	0.367632	-0.000022
1174	1.1671e+02	8.3261	14.111975	0.000168	1.678788	0.284394	-0.000017
1175	1.1681e+02	8.3132	14.090794	0.000213	2.129195	0.360695	-0.000021
1176	1.1691e+02	8.3032	14.068797	0.000221	2.211087	0.374568	-0.000022
1177	1.1701e+02	8.2933	14.049245	0.000197	1.965410	0.332950	-0.000020
1178	1.1711e+02	8.2815	14.035802	0.000135	1.351220	0.228903	-0.000014
1179	1.1721e+02	8.2766	14.016657	0.000192	1.924464	0.326013	-0.000019
1180	1.1731e+02	8.2659	13.996290	0.000205	2.047302	0.346822	-0.000020
1181	1.1741e+02	8.2530	13.976738	0.000197	1.965410	0.332950	-0.000020
1182	1.1751e+02	8.2429	13.955963	0.000209	2.088248	0.353759	-0.000021
1183	1.1761e+02	8.2349	13.936411	0.000197	1.965410	0.332950	-0.000020
1184	1.1771e+02	8.2230	13.914007	0.000225	2.252033	0.381505	-0.000023
1185	1.1781e+02	8.2139	13.896084	0.000180	1.801626	0.305204	-0.000018
1186	1.1791e+02	8.2068	13.878161	0.000180	1.801626	0.305204	-0.000018
1187	1.1801e+02	8.1948	13.854535	0.000237	2.374871	0.402314	-0.000024
1188	1.1811e+02	8.1820	13.834168	0.000205	2.047302	0.346822	-0.000020
1189	1.1821e+02	8.1733	13.810542	0.000237	2.374871	0.402314	-0.000024
1190	1.1831e+02	8.1651	13.788953	0.000217	2.170141	0.367632	-0.000022
1191	1.1841e+02	8.1535	13.769400	0.000197	1.965410	0.332950	-0.000020
1192	1.1850e+02	8.1429	13.749848	0.000197	1.965410	0.332950	-0.000020
1193	1.1860e+02	8.1348	13.728259	0.000217	2.170141	0.367632	-0.000022
1194	1.1870e+02	8.1253	13.707892	0.000205	2.047302	0.346822	-0.000020
1195	1.1880e+02	8.1131	13.685488	0.000225	2.252033	0.381505	-0.000023
1196	1.1890e+02	8.1066	13.667157	0.000184	1.842572	0.312140	-0.000018
1197	1.1900e+02	8.0950	13.649234	0.000180	1.801626	0.305204	-0.000018
1198	1.1910e+02	8.0831	13.628052	0.000213	2.129195	0.360695	-0.000021
1199	1.1920e+02	8.0751	13.606056	0.000221	2.211087	0.374568	-0.000022
1200	1.1930e+02	8.0661	13.587725	0.000184	1.842572	0.312140	-0.000018
1201	1.1940e+02	8.0550	13.566544	0.000213	2.129195	0.360695	-0.000021
1202	1.1950e+02	8.0447	13.545769	0.000209	2.088248	0.353759	-0.000021
1203	1.1960e+02	8.0375	13.522551	0.000233	2.333925	0.395378	-0.000023
1204	1.1970e+02	8.0254	13.504628	0.000180	1.801626	0.305204	-0.000018
1205	1.1980e+02	8.0137	13.482224	0.000225	2.252033	0.381505	-0.000023
1206	1.1990e+02	8.0045	13.467152	0.000152	1.515004	0.256649	-0.000015
1207	1.2000e+02	7.9951	13.449636	0.000176	1.760680	0.298267	-0.000018
1208	1.2010e+02	7.9862	13.429677	0.000201	2.006356	0.339886	-0.000020
1209	1.2020e+02	7.9752	13.407273	0.000225	2.252033	0.381505	-0.000023
1210	1.2030e+02	7.9667	13.392201	0.000152	1.515004	0.256649	-0.000015
1211	1.2039e+02	7.9575	13.375907	0.000164	1.637842	0.277458	-0.000016
1212	1.2049e+02	7.9450	13.354318	0.000217	2.170141	0.367632	-0.000022
1213	1.2059e+02	7.9331	13.334358	0.000201	2.006356	0.339886	-0.000020
1214	1.2069e+02	7.9252	13.316435	0.000180	1.801626	0.305204	-0.000018
1215	1.2079e+02	7.9142	13.296883	0.000197	1.965410	0.332950	-0.000020
1216	1.2089e+02	7.9050	13.274072	0.000229	2.292979	0.388441	-0.000023
1217	1.2099e+02	7.8950	13.254112	0.000201	2.006356	0.339886	-0.000020
1218	1.2109e+02	7.8834	13.237004	0.000172	1.719734	0.291331	-0.000017
1219	1.2119e+02	7.8760	13.210934	0.000262	2.620547	0.443933	-0.000026
1220	1.2129e+02	7.8647	13.192603	0.000184	1.842572	0.312140	-0.000018
1221	1.2139e+02	7.8549	13.174273	0.000184	1.842572	0.312140	-0.000018
1222	1.2149e+02	7.8477	13.149832	0.000246	2.456763	0.416187	-0.000025
1223	1.2159e+02	7.8349	13.131094	0.000188	1.883518	0.319077	-0.000019
1224	1.2169e+02	7.8259	13.113986	0.000172	1.719734	0.291331	-0.000017
1225	1.2179e+02	7.8188	13.091582	0.000225	2.252033	0.381505	-0.000023
1226	1.2189e+02	7.8079	13.071215	0.000205	2.047302	0.346822	-0.000020
1227	1.2199e+02	7.7944	13.050848	0.000205	2.047302	0.346822	-0.000020
1228	1.2209e+02	7.7881	13.028852	0.000221	2.211087	0.374568	-0.000022
1229	1.2219e+02	7.7743	13.006855	0.000221	2.211087	0.374568	-0.000022
1230	1.2229e+02	7.7640	12.990561	0.000164	1.637842	0.277458	-0.000016
1231	1.2239e+02	7.7577	12.966528	0.000242	2.415817	0.409250	-0.000024
1232	1.2248e+02	7.7460	12.940866	0.000258	2.579601	0.436996	-0.000026
1233	1.2258e+02	7.7368	12.926201	0.000147	1.474058	0.249712	-0.000015
1234	1.2268e+02	7.7277	12.902575	0.000237	2.374871	0.402314	-0.000024
1235	1.2278e+02	7.7160	12.885874	0.000168	1.678788	0.284394	-0.000017
1236	1.2288e+02	7.7058	12.858175	0.000278	2.784331	0.471678	-0.000028
1237	1.2298e+02	7.6989	12.840659	0.000176	1.760680	0.298267	-0.000018
1238	1.2308e+02	7.6876	12.818255	0.000225	2.252033	0.381505	-0.000023
1239	1.2318e+02	7.6758	12.795444	0.000229	2.292979	0.388441	-0.000023
1240	1.2328e+02	7.6688	12.778336	0.000172	1.719734	0.291331	-0.000017
1241	1.2338e+02	7.6575	12.758783	0.000197	1.965410	0.332950	-0.000020
1242	1.2348e+02	7.6479	12.736787	0.000221	2.211087	0.374568	-0.000022
1243	1.2358e+02	7.6368	12.716012	0.000209	2.088248	0.353759	-0.000021
1244	1.2368e+02	7.6263	12.695645	0.000205	2.047302	0.346822	-0.000020
1245	1.2378e+02	7.6184	12.672427	0.000233	2.333925	0.395378	-0.000023
1246	1.2388e+02	7.6066	12.649208	0.000233	2.333925	0.395378	-0.000023
1247	1.2398e+02	7.5977	12.634544	0.000147	1.474058	0.249712	-0.000015
1248	1.2408e+02	7.5864	12.608067	0.000266	2.661493	0.450869	-0.000027
1249	1.2418e+02	7.5771	12.584033	0.000242	2.415817	0.409250	-0.000024
1250	1.2428e+02	7.5684	12.565703	0.000184	1.842572	0.312140	-0.000018
1251	1.2438e+02	7.5571	12.544114	0.000217	2.170141	0.367632	-0.000022
1252	1.2447e+02	7.5470	12.522525	0.000217	2.170141	0.367632	-0.000022
1253	1.2457e+02	7.5371	12.501750	0.000209	2.088248	0.353759	-0.000021
1254	1.2467e+02	7.5278	12.480976	0.000209	2.088248	0.353759	-0.000021
1255	1.2477e+02	7.5168	12.457350	0.000237	2.374871	0.402314	-0.000024
1256	1.2487e+02	7.5057	12.436575	0.000209	2.088248	0.353759	-0.000021
1257	1.2497e+02	7.4951	12.414986	0.000217	2.170141	0.367632	-0.000022
1258	1.2507e+02	7.4863	12.396656	0.000184	1.842572	0.312140	-0.000018
1259	1.2517e+02	7.4786	12.373437	0.000233	2.333925	0.395378	-0.000023
1260	1.2527e+02	7.4659	12.349404	0.000242	2.415817	0.409250	-0.000024
1261	1.2537e+02	7.4593	12.327000	0.000225	2.252033	0.381505	-0.000023
1262	1.2547e+02	7.4488	12.306226	0.000209	2.088248	0.353759	-0.000021
1263	1.2557e+02	7.4376	12.283007	0.000233	2.333925	0.395378	-0.000023
1264	1.2567e+02	7.4307	12.262233	0.000209	2.088248	0.353759	-0.000021
1265	1.2577e+02	7.4191	12.242273	0.000201	2.006356	0.339886	-0.000020
1266	1.2587e+02	7.4094	12.214574	0.000278	2.784331	0.471678	-0.000028
1267	1.2597e+02	7.3960	12.196243	0.000184	1.842572	0.312140	-0.000018
1268	1.2607e+02	7.3905	12.176691	0.000197	1.965410	0.332950	-0.000020
1269	1.2617e+02	7.3780	12.154694	0.000221	2.211087	0.374568	-0.000022
1270	1.2627e+02	7.3696	12.135957	0.000188	1.883518	0.319077	-0.000019
1271	1.2636e+02	7.3602	12.115182	0.000209	2.088248	0.353759	-0.000021
1272	1.2646e+02	7.3513	12.095630	0.000197	1.965410	0.332950	-0.000020
1273	1.2656e+02	7.3396	12.074448	0.000213	2.129195	0.360695	-0.000021
1274	1.2666e+02	7.3280	12.053266	0.000213	2.129195	0.360695	-0.000021
1275	1.2676e+02	7.3181	12.033714	0.000197	1.965410	0.332950	-0.000020
1276	1.2686e+02	7.3096	12.012939	0.000209	2.088248	0.353759	-0.000021
1277	1.2696e+02	7.2980	11.988091	0.000250	2.497709	0.423123	-0.000025
1278	1.2706e+02	7.2886	11.970168	0.000180	1.801626	0.305204	-0.000018
1279	1.2716e+02	7.2781	11.945320	0.000250	2.497709	0.423123	-0.000025
1280	1.2726e+02	7.2678	11.921287	0.000242	2.415817	0.409250	-0.000024
1281	1.2736e+02	7.2565	11.900920	0.000205	2.047302	0.346822	-0.000020
1282	1.2746e+02	7.2488	11.880146	0.000209	2.088248	0.353759	-0.000021
1283	1.2756e+02	7.2392	11.856112	0.000242	2.415817	0.409250	-0.000024
1284	1.2766e+02	7.2288	11.833301	0.000229	2.292979	0.388441	-0.000023
1285	1.2776e+02	7.2195	11.814563	0.000188	1.883518	0.319077	-0.000019
1286	1.2786e+02	7.2082	11.788086	0.000266	2.661493	0.450869	-0.000027
1287	1.2796e+02	7.1981	11.764868	0.000233	2.333925	0.395378	-0.000023
1288	1.2806e+02	7.1883	11.744500	0.000205	2.047302	0.346822	-0.000020
1289	1.2816e+02	7.1786	11.722504	0.000221	2.211087	0.374568	-0.000022
1290	1.2826e+02	7.1684	11.698878	0.000237	2.374871	0.402314	-0.000024
1291	1.2835e+02	7.1608	11.673623	0.000254	2.538655	0.430060	-0.000025
1292	1.2845e+02	7.1516	11.651219	0.000225	2.252033	0.381505	-0.000023
1293	1.2855e+02	7.1404	11.623520	0.000278	2.784331	0.471678	-0.000028
1294	1.2865e+02	7.1289	11.600709	0.000229	2.292979	0.388441	-0.000023
1295	1.2875e+02	7.1200	11.580341	0.000205	2.047302	0.346822	-0.000020
1296	1.2885e+02	7.1094	11.548976	0.000315	3.152846	0.534107	-0.000032
1297	1.2895e+02	7.0987	11.527387	0.000217	2.170141	0.367632	-0.000022
1298	1.2905e+02	7.0863	11.505798	0.000217	2.170141	0.367632	-0.000022
1299	1.2915e+02	7.0810	11.482579	0.000233	2.333925	0.395378	-0.000023
1300	1.2925e+02	7.0683	11.460990	0.000217	2.170141	0.367632	-0.000022
1301	1.2935e+02	7.0657	11.436142	0.000250	2.497709	0.423123	-0.000025
1302	1.2945e+02	7.0496	11.417812	0.000184	1.842572	0.312140	-0.000018
1303	1.2955e+02	7.0410	11.390112	0.000278	2.784331	0.471678	-0.000028
1304	1.2965e+02	7.0274	11.368931	0.000213	2.129195	0.360695	-0.000021
1305	1.2975e+02	7.0193	11.345712	0.000233	2.333925	0.395378	-0.000023
1306	1.2985e+02	7.0113	11.324123	0.000217	2.170141	0.367632	-0.000022
1307	1.2995e+02	6.9997	11.297646	0.000266	2.661493	0.450869	-0.000027
1308	1.3005e+02	6.9891	11.274020	0.000237	2.374871	0.402314	-0.000024
1309	1.3015e+02	6.9814	11.252838	0.000213	2.129195	0.360695	-0.000021
1310	1.3025e+02	6.9707	11.230841	0.000221	2.211087	0.374568	-0.000022
1311	1.3034e+02	6.9625	11.205179	0.000258	2.579601	0.436996	-0.000026
1312	1.3044e+02	6.9500	11.183590	0.000217	2.170141	0.367632	-0.000022
1313	1.3054e+02	6.9426	11.158742	0.000250	2.497709	0.423123	-0.000025
1314	1.3064e+02	6.9299	11.139597	0.000192	1.924464	0.326013	-0.000019
1315	1.3074e+02	6.9225	11.113119	0.000266	2.661493	0.450869	-0.000027
1316	1.3084e+02	6.9097	11.093160	0.000201	2.006356	0.339886	-0.000020
1317	1.3094e+02	6.9009	11.069126	0.000242	2.415817	0.409250	-0.000024
1318	1.3104e+02	6.8890	11.045501	0.000237	2.374871	0.402314	-0.000024
1319	1.3114e+02	6.8821	11.021875	0.000237	2.374871	0.402314	-0.000024
1320	1.3124e+02	6.8718	11.000693	0.000213	2.129195	0.360695	-0.000021
1321	1.3134e+02	6.8639	10.977067	0.000237	2.374871	0.402314	-0.000024
1322	1.3144e+02	6.8522	10.952219	0.000250	2.497709	0.423123	-0.000025
1323	1.3154e+02	6.8417	10.928593	0.000237	2.374871	0.402314	-0.000024
1324	1.3164e+02	6.8311	10.904967	0.000237	2.374871	0.402314	-0.000024
1325	1.3174e+02	6.8220	10.884600	0.000205	2.047302	0.346822	-0.000020
1326	1.3184e+02	6.8110	10.860974	0.000237	2.374871	0.402314	-0.000024
1327	1.3194e+02	6.8002	10.834497	0.000266	2.661493	0.450869	-0.000027
1328	1.3204e+02	6.7898	10.810057	0.000246	2.456763	0.416187	-0.000025
1329	1.3214e+02	6.7802	10.790097	0.000201	2.006356	0.339886	-0.000020
1330	1.3224e+02	6.7710	10.766878	0.000233	2.333925	0.395378	-0.000023
1331	1.3234e+02	6.7597	10.741623	0.000254	2.538655	0.430060	-0.000025
1332	1.3243e+02	6.7507	10.721256	0.000205	2.047302	0.346822	-0.000020
1333	1.3253e+02	6.7456	10.698037	0.000233	2.333925	0.395378	-0.000023
1334	1.3263e+02	6.7281	10.672782	0.000254	2.538655	0.430060	-0.000025
1335	1.3273e+02	6.7232	10.650378	0.000225	2.252033	0.381505	-0.000023
1336	1.3283e+02	6.7139	10.627975	0.000225	2.252033	0.381505	-0.000023
1337	1.3293e+02	6.7019	10.602719	0.000254	2.538655	0.430060	-0.000025
1338	1.3303e+02	6.6901	10.581130	0.000217	2.170141	0.367632	-0.000022
1339	1.3313e+02	6.6822	10.559541	0.000217	2.170141	0.367632	-0.000022
1340	1.3323e+02	6.6688	10.533878	0.000258	2.579601	0.436996	-0.000026
1341	1.3333e+02	6.6669	10.511067	0.000229	2.292979	0.388441	-0.000023
1342	1.3343e+02	6.6512	10.489885	0.000213	2.129195	0.360695	-0.000021
1343	1.3353e+02	6.6442	10.463408	0.000266	2.661493	0.450869	-0.000027
1344	1.3363e+02	6.6305	10.436931	0.000266	2.661493	0.450869	-0.000027
1345	1.3373e+02	6.6223	10.418193	0.000188	1.883518	0.319077	-0.000019
1346	1.3383e+02	6.6114	10.393753	0.000246	2.456763	0.416187	-0.000025
1347	1.3393e+02	6.6011	10.370534	0.000233	2.333925	0.395378	-0.000023
1348	1.3403e+02	6.5927	10.345279	0.000254	2.538655	0.430060	-0.000025
1349	1.3413e+02	6.5809	10.322875	0.000225	2.252033	0.381505	-0.000023
1350	1.3423e+02	6.5737	10.299656	0.000233	2.333925	0.395378	-0.000023
1351	1.3432e+02	6.5594	10.272364	0.000274	2.743385	0.464742	-0.000027
1352	1.3442e+02	6.5513	10.249553	0.000229	2.292979	0.388441	-0.000023
1353	1.3452e+02	6.5444	10.226335	0.000233	2.333925	0.395378	-0.000023
1354	1.3462e+02	6.5340	10.199450	0.000270	2.702439	0.457806	-0.000027
1355	1.3472e+02	6.5236	10.174602	0.000250	2.497709	0.423123	-0.000025
1356	1.3482e+02	6.5126	10.150569	0.000242	2.415817	0.409250	-0.000024
1357	1.3492e+02	6.5035	10.122870	0.000278	2.784331	0.471678	-0.000028
1358	1.3502e+02	6.4925	10.100873	0.000221	2.211087	0.374568	-0.000022
1359	1.3512e+02	6.4812	10.075211	0.000258	2.579601	0.436996	-0.000026
1360	1.3522e+02	6.4715	10.049141	0.000262	2.620547	0.443933	-0.000026
1361	1.3532e+02	6.4617	10.029181	0.000201	2.006356	0.339886	-0.000020
1362	1.3542e+02	6.4527	10.001889	0.000274	2.743385	0.464742	-0.000027
1363	1.3552e+02	6.4440	9.978670	0.000233	2.333925	0.395378	-0.000023
1364	1.3562e+02	6.4300	9.955045	0.000237	2.374871	0.402314	-0.000024
1365	1.3572e+02	6.4223	9.933863	0.000213	2.129195	0.360695	-0.000021
1366	1.3582e+02	6.4130	9.909015	0.000250	2.497709	0.423123	-0.000025
1367	1.3592e+02	6.4040	9.883352	0.000258	2.579601	0.436996	-0.000026
1368	1.3602e+02	6.3939	9.860134	0.000233	2.333925	0.395378	-0.000023
1369	1.3612e+02	6.3837	9.836101	0.000242	2.415817	0.409250	-0.000024
1370	1.3622e+02	6.3747	9.812475	0.000237	2.374871	0.402314	-0.000024
1371	1.3631e+02	6.3659	9.786405	0.000262	2.620547	0.443933	-0.000026
1372	1.3641e+02	6.3532	9.764001	0.000225	2.252033	0.381505	-0.000023
1373	1.3651e+02	6.3424	9.742004	0.000221	2.211087	0.374568	-0.000022
1374	1.3661e+02	6.3337	9.717157	0.000250	2.497709	0.423123	-0.000025
1375	1.3671e+02	6.3233	9.700048	0.000172	1.719734	0.291331	-0.000017
1376	1.3681e+02	6.3149	9.672349	0.000278	2.784331	0.471678	-0.000028
1377	1.3691e+02	6.3030	9.653204	0.000192	1.924464	0.326013	-0.000019
1378	1.3701e+02	6.2938	9.633244	0.000201	2.006356	0.339886	-0.000020
1379	1.3711e+02	6.2842	9.609618	0.000237	2.374871	0.402314	-0.000024
1380	1.3721e+02	6.2742	9.587214	0.000225	2.252033	0.381505	-0.000023
1381	1.3731e+02	6.2638	9.565218	0.000221	2.211087	0.374568	-0.000022
1382	1.3741e+02	6.2531	9.541185	0.000242	2.415817	0.409250	-0.000024
1383	1.3751e+02	6.2432	9.513078	0.000283	2.825277	0.478615	-0.000028
1384	1.3761e+02	6.2354	9.493118	0.000201	2.006356	0.339886	-0.000020
1385	1.3771e+02	6.2246	9.466234	0.000270	2.702439	0.457806	-0.000027
1386	1.3781e+02	6.2144	9.444237	0.000221	2.211087	0.374568	-0.000022
1387	1.3791e+02	6.2048	9.421426	0.000229	2.292979	0.388441	-0.000023
1388	1.3801e+02	6.1956	9.394134	0.000274	2.743385	0.464742	-0.000027
1389	1.3811e+02	6.1828	9.371730	0.000225	2.252033	0.381505	-0.000023
1390	1.3821e+02	6.1758	9.344031	0.000278	2.784331	0.471678	-0.000028
1391	1.3831e+02	6.1633	9.322442	0.000217	2.170141	0.367632	-0.000022
1392	1.3840e+02	6.1559	9.297186	0.000254	2.538655	0.430060	-0.000025
1393	1.3850e+02	6.1440	9.272746	0.000246	2.456763	0.416187	-0.000025
1394	1.3860e+02	6.1364	9.247083	0.000258	2.579601	0.436996	-0.000026
1395	1.3870e+02	6.1288	9.228753	0.000184	1.842572	0.312140	-0.000018
1396	1.3880e+02	6.1143	9.199832	0.000291	2.907169	0.492488	-0.000029
1397	1.3890e+02	6.1031	9.176613	0.000233	2.333925	0.395378	-0.000023
1398	1.3900e+02	6.0964	9.154209	0.000225	2.252033	0.381505	-0.000023
1399	1.3910e+02	6.0886	9.133842	0.000205	2.047302	0.346822	-0.000020
1400	1.3920e+02	6.0735	9.108587	0.000254	2.538655	0.430060	-0.000025
1401	1.3930e+02	6.0661	9.082110	0.000266	2.661493	0.450869	-0.000027
1402	1.3940e+02	6.0574	9.057669	0.000246	2.456763	0.416187	-0.000025
1403	1.3950e+02	6.0458	9.037709	0.000201	2.006356	0.339886	-0.000020
1404	1.3960e+02	6.0365	9.009603	0.000283	2.825277	0.478615	-0.000028
1405	1.3970e+02	6.0266	8.985977	0.000237	2.374871	0.402314	-0.000024
1406	1.3980e+02	6.0141	8.963166	0.000229	2.292979	0.388441	-0.000023
1407	1.3990e+02	6.0052	8.935874	0.000274	2.743385	0.464742	-0.000027
1408	1.4000e+02	5.9933	8.911026	0.000250	2.497709	0.423123	-0.000025
1409	1.4010e+02	5.9861	8.888214	0.000229	2.292979	0.388441	-0.000023
1410	1.4020e+02	5.9780	8.866218	0.000221	2.211087	0.374568	-0.000022
1411	1.4029e+02	5.9657	8.840555	0.000258	2.579601	0.436996	-0.000026
1412	1.4039e+02	5.9557	8.816522	0.000242	2.415817	0.409250	-0.000024
1413	1.4049e+02	5.9455	8.792082	0.000246	2.456763	0.416187	-0.000025
1414	1.4059e+02	5.9356	8.765197	0.000270	2.702439	0.457806	-0.000027
1415	1.4069e+02	5.9295	8.741978	0.000233	2.333925	0.395378	-0.000023
1416	1.4079e+02	5.9145	8.714687	0.000274	2.743385	0.464742	-0.000027
1417	1.4089e+02	5.9044	8.691061	0.000237	2.374871	0.402314	-0.000024
1418	1.4099e+02	5.8965	8.664583	0.000266	2.661493	0.450869	-0.000027
1419	1.4109e+02	5.8861	8.636884	0.000278	2.784331	0.471678	-0.000028
1420	1.4119e+02	5.8759	8.618146	0.000188	1.883518	0.319077	-0.000019
1421	1.4129e+02	5.8668	8.586781	0.000315	3.152846	0.534107	-0.000032
1422	1.4139e+02	5.8564	8.563970	0.000229	2.292979	0.388441	-0.000023
1423	1.4149e+02	5.8440	8.538715	0.000254	2.538655	0.430060	-0.000025
1424	1.4159e+02	5.8370	8.516718	0.000221	2.211087	0.374568	-0.000022
1425	1.4169e+02	5.8250	8.489019	0.000278	2.784331	0.471678	-0.000028
1426	1.4179e+02	5.8186	8.466615	0.000225	2.252033	0.381505	-0.000023
1427	1.4189e+02	5.8083	8.442989	0.000237	2.374871	0.402314	-0.000024
1428	1.4199e+02	5.7964	8.416104	0.000270	2.702439	0.457806	-0.000027
1429	1.4209e+02	5.7874	8.390035	0.000262	2.620547	0.443933	-0.000026
1430	1.4219e+02	5.7796	8.364372	0.000258	2.579601	0.436996	-0.000026
1431	1.4228e+02	5.7659	8.339117	0.000254	2.538655	0.430060	-0.000025
1432	1.4238e+02	5.7555	8.312232	0.000270	2.702439	0.457806	-0.000027
1433	1.4248e+02	5.7483	8.290643	0.000217	2.170141	0.367632	-0.000022
1434	1.4258e+02	5.7330	8.264166	0.000266	2.661493	0.450869	-0.000027
1435	1.4268e+02	5.7290	8.238503	0.000258	2.579601	0.436996	-0.000026
1436	1.4278e+02	5.7166	8.216099	0.000225	2.252033	0.381505	-0.000023
1437	1.4288e+02	5.7062	8.191251	0.000250	2.497709	0.423123	-0.000025
1438	1.4298e+02	5.6960	8.170070	0.000213	2.129195	0.360695	-0.000021
1439	1.4308e+02	5.6882	8.145222	0.000250	2.497709	0.423123	-0.000025
1440	1.4318e+02	5.6793	8.124855	0.000205	2.047302	0.346822	-0.000020
1441	1.4328e+02	5.6693	8.097155	0.000278	2.784331	0.471678	-0.000028
1442	1.4338e+02	5.6556	8.073122	0.000242	2.415817	0.409250	-0.000024
1443	1.4348e+02	5.6483	8.049904	0.000233	2.333925	0.395378	-0.000023
1444	1.4358e+02	5.6356	8.027092	0.000229	2.292979	0.388441	-0.000023
1445	1.4368e+02	5.6302	7.998578	0.000287	2.866223	0.485551	-0.000029
1446	1.4378e+02	5.6191	7.974545	0.000242	2.415817	0.409250	-0.000024
1447	1.4388e+02	5.6065	7.948068	0.000266	2.661493	0.450869	-0.000027
1448	1.4398e+02	5.5967	7.921591	0.000266	2.661493	0.450869	-0.000027
1449	1.4408e+02	5.5874	7.898779	0.000229	2.292979	0.388441	-0.000023
1450	1.4418e+02	5.5755	7.874339	0.000246	2.456763	0.416187	-0.000025
1451	1.4428e+02	5.5652	7.846640	0.000278	2.784331	0.471678	-0.000028
1452	1.4437e+02	5.5573	7.820570	0.000262	2.620547	0.443933	-0.000026
1453	1.4447e+02	5.5450	7.795314	0.000254	2.538655	0.430060	-0.000025
1454	1.4457e+02	5.5389	7.769244	0.000262	2.620547	0.443933	-0.000026
1455	1.4467e+02	5.5267	7.743989	0.000254	2.538655	0.430060	-0.000025
1456	1.4477e+02	5.5184	7.721585	0.000225	2.252033	0.381505	-0.000023
1457	1.4487e+02	5.5072	7.691442	0.000303	3.030008	0.513297	-0.000030
1458	1.4497e+02	5.4959	7.662113	0.000295	2.948116	0.499424	-0.000029
1459	1.4507e+02	5.4863	7.632785	0.000295	2.948116	0.499424	-0.000029
1460	1.4517e+02	5.4783	7.608752	0.000242	2.415817	0.409250	-0.000024
1461	1.4527e+02	5.4709	7.581867	0.000270	2.702439	0.457806	-0.000027
1462	1.4537e+02	5.4600	7.554982	0.000270	2.702439	0.457806	-0.000027
1463	1.4547e+02	5.4490	7.527690	0.000274	2.743385	0.464742	-0.000027
1464	1.4557e+02	5.4382	7.499176	0.000287	2.866223	0.485551	-0.000029
1465	1.4567e+02	5.4276	7.475143	0.000242	2.415817	0.409250	-0.000024
1466	1.4577e+02	5.4180	7.449073	0.000262	2.620547	0.443933	-0.000026
1467	1.4587e+02	5.4082	7.419337	0.000299	2.989062	0.506361	-0.000030
1468	1.4597e+02	5.3979	7.395304	0.000242	2.415817	0.409250	-0.000024
1469	1.4607e+02	5.3861	7.365975	0.000295	2.948116	0.499424	-0.000029
1470	1.4617e+02	5.3805	7.339498	0.000266	2.661493	0.450869	-0.000027
1471	1.4626e+02	5.3686	7.316280	0.000233	2.333925	0.395378	-0.000023
1472	1.4636e+02	5.3570	7.288173	0.000283	2.825277	0.478615	-0.000028
1473	1.4646e+02	5.3481	7.265362	0.000229	2.292979	0.388441	-0.000023
1474	1.4656e+02	5.3390	7.240514	0.000250	2.497709	0.423123	-0.000025
1475	1.4666e+02	5.3330	7.210371	0.000303	3.030008	0.513297	-0.000030
1476	1.4676e+02	5.3176	7.182671	0.000278	2.784331	0.471678	-0.000028
1477	1.4686e+02	5.3091	7.154972	0.000278	2.784331	0.471678	-0.000028
1478	1.4696e+02	5.2990	7.131346	0.000237	2.374871	0.402314	-0.000024
1479	1.4706e+02	5.2869	7.105276	0.000262	2.620547	0.443933	-0.000026
1480	1.4716e+02	5.2805	7.079614	0.000258	2.579601	0.436996	-0.000026
1481	1.4726e+02	5.2682	7.050692	0.000291	2.907169	0.492488	-0.000029
1482	1.4736e+02	5.2613	7.027881	0.000229	2.292979	0.388441	-0.000023
1483	1.4746e+02	5.2462	6.998552	0.000295	2.948116	0.499424	-0.000029
1484	1.4756e+02	5.2413	6.974112	0.000246	2.456763	0.416187	-0.000025
1485	1.4766e+02	5.2293	6.947227	0.000270	2.702439	0.457806	-0.000027
1486	1.4776e+02	5.2232	6.921157	0.000262	2.620547	0.443933	-0.000026
1487	1.4786e+02	5.2090	6.894680	0.000266	2.661493	0.450869	-0.000027
1488	1.4796e+02	5.2002	6.869425	0.000254	2.538655	0.430060	-0.000025
1489	1.4806e+02	5.1891	6.842540	0.000270	2.702439	0.457806	-0.000027
1490	1.4816e+02	5.1782	6.812804	0.000299	2.989062	0.506361	-0.000030
1491	1.4825e+02	5.1707	6.784698	0.000283	2.825277	0.478615	-0.000028
1492	1.4835e+02	5.1587	6.763108	0.000217	2.170141	0.367632	-0.000022
1493	1.4845e+02	5.1508	6.728892	0.000344	3.439468	0.582662	-0.000034
1494	1.4855e+02	5.1392	6.705266	0.000237	2.374871	0.402314	-0.000024
1495	1.4865e+02	5.1289	6.679196	0.000262	2.620547	0.443933	-0.000026
1496	1.4875e+02	5.1199	6.651904	0.000274	2.743385	0.464742	-0.000027
1497	1.4885e+02	5.1101	6.623390	0.000287	2.866223	0.485551	-0.000029
1498	1.4895e+02	5.1000	6.597727	0.000258	2.579601	0.436996	-0.000026
1499	1.4905e+02	5.0887	6.576138	0.000217	2.170141	0.367632	-0.000022
1500	1.4915e+02	5.0784	6.548439	0.000278	2.784331	0.471678	-0.000028
1501	1.4925e+02	5.0726	6.521554	0.000270	2.702439	0.457806	-0.000027
1502	1.4935e+02	5.0597	6.498336	0.000233	2.333925	0.395378	-0.000023
1503	1.4945e+02	5.0497	6.469414	0.000291	2.907169	0.492488	-0.000029
1504	1.4955e+02	5.0426	6.442530	0.000270	2.702439	0.457806	-0.000027
1505	1.4965e+02	5.0321	6.414423	0.000283	2.825277	0.478615	-0.000028
1506	1.4975e+02	5.0210	6.387131	0.000274	2.743385	0.464742	-0.000027
1507	1.4985e+02	5.0089	6.363098	0.000242	2.415817	0.409250	-0.000024
1508	1.4995e+02	5.0018	6.330511	0.000328	3.275684	0.554916	-0.000033
1509	1.5005e+02	4.9918	6.309736	0.000209	2.088248	0.353759	-0.000021
1510	1.5015e+02	4.9802	6.279185	0.000307	3.070954	0.520234	-0.000031
1511	1.5025e+02	4.9728	6.254745	0.000246	2.456763	0.416187	-0.000025
1512	1.5034e+02	4.9633	6.226231	0.000287	2.866223	0.485551	-0.000029
1513	1.5044e+02	4.9532	6.198124	0.000283	2.825277	0.478615	-0.000028
1514	1.5054e+02	4.9445	6.174498	0.000237	2.374871	0.402314	-0.000024
1515	1.5064e+02	4.9323	6.149650	0.000250	2.497709	0.423123	-0.000025
1516	1.5074e+02	4.9216	6.121951	0.000278	2.784331	0.471678	-0.000028
1517	1.5084e+02	4.9117	6.092623	0.000295	2.948116	0.499424	-0.000029
1518	1.5094e+02	4.8983	6.064109	0.000287	2.866223	0.485551	-0.000029
1519	1.5104e+02	4.8923	6.038446	0.000258	2.579601	0.436996	-0.000026
1520	1.5114e+02	4.8808	6.012783	0.000258	2.579601	0.436996	-0.000026
1521	1.5124e+02	4.8714	5.983047	0.000299	2.989062	0.506361	-0.000030
1522	1.5134e+02	4.8595	5.952089	0.000311	3.111900	0.527170	-0.000031
1523	1.5144e+02	4.8505	5.924797	0.000274	2.743385	0.464742	-0.000027
1524	1.5154e+02	4.8412	5.893432	0.000315	3.152846	0.534107	-0.000032
1525	1.5164e+02	4.8336	5.865733	0.000278	2.784331	0.471678	-0.000028
1526	1.5174e+02	4.8199	5.838848	0.000270	2.702439	0.457806	-0.000027
1527	1.5184e+02	4.8135	5.810741	0.000283	2.825277	0.478615	-0.000028
1528	1.5194e+02	4.8013	5.785079	0.000258	2.579601	0.436996	-0.000026
1529	1.5204e+02	4.7903	5.757380	0.000278	2.784331	0.471678	-0.000028
1530	1.5214e+02	4.7832	5.726829	0.000307	3.070954	0.520234	-0.000031
1531	1.5224e+02	4.7722	5.700759	0.000262	2.620547	0.443933	-0.000026
1532	1.5233e+02	4.7599	5.674282	0.000266	2.661493	0.450869	-0.000027
1533	1.5243e+02	4.7534	5.649434	0.000250	2.497709	0.423123	-0.000025
1534	1.5253e+02	4.7384	5.616439	0.000332	3.316630	0.561852	-0.000033
1535	1.5263e+02	4.7339	5.593628	0.000229	2.292979	0.388441	-0.000023
1536	1.5273e+02	4.7215	5.565929	0.000278	2.784331	0.471678	-0.000028
1537	1.5283e+02	4.7129	5.536600	0.000295	2.948116	0.499424	-0.000029
1538	1.5293e+02	4.7027	5.512159	0.000246	2.456763	0.416187	-0.000025
1539	1.5303e+02	4.6937	5.482016	0.000303	3.030008	0.513297	-0.000030
1540	1.5313e+02	4.6832	5.455946	0.000262	2.620547	0.443933	-0.000026
1541	1.5323e+02	4.6720	5.430284	0.000258	2.579601	0.436996	-0.000026
1542	1.5333e+02	4.6604	5.405436	0.000250	2.497709	0.423123	-0.000025
1543	1.5343e+02	4.6505	5.383032	0.000225	2.252033	0.381505	-0.000023
1544	1.5353e+02	4.6434	5.353703	0.000295	2.948116	0.499424	-0.000029
1545	1.5363e+02	4.6333	5.327633	0.000262	2.620547	0.443933	-0.000026
1546	1.5373e+02	4.6230	5.302378	0.000254	2.538655	0.430060	-0.000025
1547	1.5383e+02	4.6129	5.275901	0.000266	2.661493	0.450869	-0.000027
1548	1.5393e+02	4.6035	5.250238	0.000258	2.579601	0.436996	-0.000026
1549	1.5403e+02	4.5934	5.220502	0.000299	2.989062	0.506361	-0.000030
1550	1.5413e+02	4.5856	5.195247	0.000254	2.538655	0.430060	-0.000025
1551	1.5422e+02	4.5716	5.165918	0.000295	2.948116	0.499424	-0.000029
1552	1.5432e+02	4.5618	5.140663	0.000254	2.538655	0.430060	-0.000025
1553	1.5442e+02	4.5533	5.112556	0.000283	2.825277	0.478615	-0.000028
1554	1.5452e+02	4.5415	5.087301	0.000254	2.538655	0.430060	-0.000025
1555	1.5462e+02	4.5361	5.059194	0.000283	2.825277	0.478615	-0.000028
1556	1.5472e+02	4.5215	5.031088	0.000283	2.825277	0.478615	-0.000028
1557	1.5482e+02	4.5135	5.005425	0.000258	2.579601	0.436996	-0.000026
1558	1.5492e+02	4.5026	4.978133	0.000274	2.743385	0.464742	-0.000027
1559	1.5502e+02	4.4916	4.951249	0.000270	2.702439	0.457806	-0.000027
1560	1.5512e+02	4.4838	4.921920	0.000295	2.948116	0.499424	-0.000029
1561	1.5522e+02	4.4714	4.894221	0.000278	2.784331	0.471678	-0.000028
1562	1.5532e+02	4.4641	4.866929	0.000274	2.743385	0.464742	-0.000027
1563	1.5542e+02	4.4540	4.838822	0.000283	2.825277	0.478615	-0.000028
1564	1.5552e+02	4.4415	4.811123	0.000278	2.784331	0.471678	-0.000028
1565	1.5562e+02	4.4326	4.783424	0.000278	2.784331	0.471678	-0.000028
1566	1.5572e+02	4.4247	4.753280	0.000303	3.030008	0.513297	-0.000030
1567	1.5582e+02	4.4140	4.725988	0.000274	2.743385	0.464742	-0.000027
1568	1.5592e+02	4.4031	4.699511	0.000266	2.661493	0.450869	-0.000027
1569	1.5602e+02	4.3926	4.669368	0.000303	3.030008	0.513297	-0.000030
1570	1.5612e+02	4.3821	4.642483	0.000270	2.702439	0.457806	-0.000027
1571	1.5622e+02	4.3752	4.613562	0.000291	2.907169	0.492488	-0.000029
1572	1.5631e+02	4.3645	4.587084	0.000266	2.661493	0.450869	-0.000027
1573	1.5641e+02	4.3543	4.559385	0.000278	2.784331	0.471678	-0.000028
1574	1.5651e+02	4.3455	4.531279	0.000283	2.825277	0.478615	-0.000028
1575	1.5661e+02	4.3346	4.503579	0.000278	2.784331	0.471678	-0.000028
1576	1.5671e+02	4.3261	4.475880	0.000278	2.784331	0.471678	-0.000028
1577	1.5681e+02	4.3126	4.452254	0.000237	2.374871	0.402314	-0.000024
1578	1.5691e+02	4.3054	4.425369	0.000270	2.702439	0.457806	-0.000027
1579	1.5701e+02	4.2946	4.391560	0.000340	3.398522	0.575725	-0.000034
1580	1.5711e+02	4.2847	4.363861	0.000278	2.784331	0.471678	-0.000028
1581	1.5721e+02	4.2736	4.336976	0.000270	2.702439	0.457806	-0.000027
1582	1.5731e+02	4.2635	4.310092	0.000270	2.702439	0.457806	-0.000027
1583	1.5741e+02	4.2522	4.281578	0.000287	2.866223	0.485551	-0.000029
1584	1.5751e+02	4.2422	4.252249	0.000295	2.948116	0.499424	-0.000029
1585	1.5761e+02	4.2312	4.222920	0.000295	2.948116	0.499424	-0.000029
1586	1.5771e+02	4.2246	4.192777	0.000303	3.030008	0.513297	-0.000030
1587	1.5781e+02	4.2125	4.162226	0.000307	3.070954	0.520234	-0.000031
1588	1.5791e+02	4.2052	4.138600	0.000237	2.374871	0.402314	-0.000024
1589	1.5801e+02	4.1949	4.106013	0.000328	3.275684	0.554916	-0.000033
1590	1.5811e+02	4.1830	4.076684	0.000295	2.948116	0.499424	-0.000029
1591	1.5821e+02	4.1729	4.051429	0.000254	2.538655	0.430060	-0.000025
1592	1.5830e+02	4.1676	4.019249	0.000323	3.234738	0.547979	-0.000032
1593	1.5840e+02	4.1540	3.993586	0.000258	2.579601	0.436996	-0.000026
1594	1.5850e+02	4.1441	3.966702	0.000270	2.702439	0.457806	-0.000027
1595	1.5860e+02	4.1344	3.938595	0.000283	2.825277	0.478615	-0.000028
1596	1.5870e+02	4.1267	3.906822	0.000319	3.193792	0.541043	-0.000032
1597	1.5880e+02	4.1149	3.878308	0.000287	2.866223	0.485551	-0.000029
1598	1.5890e+02	4.1050	3.849387	0.000291	2.907169	0.492488	-0.000029
1599	1.5900e+02	4.0967	3.818022	0.000315	3.152846	0.534107	-0.000032
1600	1.5910e+02	4.0855	3.791544	0.000266	2.661493	0.450869	-0.000027
1601	1.5920e+02	4.0737	3.760994	0.000307	3.070954	0.520234	-0.000031
1602	1.5930e+02	4.0635	3.730850	0.000303	3.030008	0.513297	-0.000030
1603	1.5940e+02	4.0554	3.703966	0.000270	2.702439	0.457806	-0.000027
1604	1.5950e+02	4.0465	3.677489	0.000266	2.661493	0.450869	-0.000027
1605	1.5960e+02	4.0375	3.649789	0.000278	2.784331	0.471678	-0.000028
1606	1.5970e+02	4.0244	3.624127	0.000258	2.579601	0.436996	-0.000026
1607	1.5980e+02	4.0144	3.595205	0.000291	2.907169	0.492488	-0.000029
1608	1.5990e+02	4.0062	3.568321	0.000270	2.702439	0.457806	-0.000027
1609	1.6000e+02	3.9931	3.541436	0.000270	2.702439	0.457806	-0.000027
1610	1.6010e+02	3.9862	3.512515	0.000291	2.907169	0.492488	-0.000029
1611	1.6019e+02	3.9761	3.485630	0.000270	2.702439	0.457806	-0.000027
1612	1.6029e+02	3.9652	3.454265	0.000315	3.152846	0.534107	-0.000032
1613	1.6039e+02	3.9555	3.429417	0.000250	2.497709	0.423123	-0.000025
1614	1.6049e+02	3.9456	3.400088	0.000295	2.948116	0.499424	-0.000029
1615	1.6059e+02	3.9349	3.369538	0.000307	3.070954	0.520234	-0.000031
1616	1.6069e+02	3.9259	3.339802	0.000299	2.989062	0.506361	-0.000030
1617	1.6079e+02	3.9141	3.308029	0.000319	3.193792	0.541043	-0.000032
1618	1.6089e+02	3.9050	3.284810	0.000233	2.333925	0.395378	-0.000023
1619	1.6099e+02	3.8963	3.252630	0.000323	3.234738	0.547979	-0.000032
1620	1.6109e+02	3.8879	3.223709	0.000291	2.907169	0.492488	-0.000029
1621	1.6119e+02	3.8799	3.193566	0.000303	3.030008	0.513297	-0.000030
1622	1.6129e+02	3.8660	3.163422	0.000303	3.030008	0.513297	-0.000030
1623	1.6139e+02	3.8563	3.136130	0.000274	2.743385	0.464742	-0.000027
1624	1.6149e+02	3.8467	3.102321	0.000340	3.398522	0.575725	-0.000034
1625	1.6159e+02	3.8375	3.072178	0.000303	3.030008	0.513297	-0.000030
1626	1.6169e+02	3.8274	3.043664	0.000287	2.866223	0.485551	-0.000029
1627	1.6179e+02	3.8167	3.010669	0.000332	3.316630	0.561852	-0.000033
1628	1.6189e+02	3.8064	2.976859	0.000340	3.398522	0.575725	-0.000034
1629	1.6199e+02	3.7965	2.946716	0.000303	3.030008	0.513297	-0.000030
1630	1.6209e+02	3.7875	2.915758	0.000311	3.111900	0.527170	-0.000031
1631	1.6219e+02	3.7766	2.883985	0.000319	3.193792	0.541043	-0.000032
1632	1.6228e+02	3.7663	2.855879	0.000283	2.825277	0.478615	-0.000028
1633	1.6238e+02	3.7544	2.826550	0.000295	2.948116	0.499424	-0.000029
1634	1.6248e+02	3.7492	2.792333	0.000344	3.439468	0.582662	-0.000034
1635	1.6258e+02	3.7381	2.761375	0.000311	3.111900	0.527170	-0.000031
1636	1.6268e+02	3.7276	2.732861	0.000287	2.866223	0.485551	-0.000029
1637	1.6278e+02	3.7168	2.704755	0.000283	2.825277	0.478615	-0.000028
1638	1.6288e+02	3.7061	2.673389	0.000315	3.152846	0.534107	-0.000032
1639	1.6298e+02	3.6991	2.644061	0.000295	2.948116	0.499424	-0.000029
1640	1.6308e+02	3.6883	2.614732	0.000295	2.948116	0.499424	-0.000029
1641	1.6318e+02	3.6779	2.581737	0.000332	3.316630	0.561852	-0.000033
1642	1.6328e+02	3.6664	2.552001	0.000299	2.989062	0.506361	-0.000030
1643	1.6338e+02	3.6584	2.524709	0.000274	2.743385	0.464742	-0.000027
1644	1.6348e+02	3.6475	2.493751	0.000311	3.111900	0.527170	-0.000031
1645	1.6358e+02	3.6381	2.463200	0.000307	3.070954	0.520234	-0.000031
1646	1.6368e+02	3.6279	2.434279	0.000291	2.907169	0.492488	-0.000029
1647	1.6378e+02	3.6185	2.400877	0.000336	3.357576	0.568789	-0.000034
1648	1.6388e+02	3.6147	2.376029	0.000250	2.497709	0.423123	-0.000025
1649	1.6398e+02	3.6008	2.344256	0.000319	3.193792	0.541043	-0.000032
1650	1.6408e+02	3.5882	2.313298	0.000311	3.111900	0.527170	-0.000031
1651	1.6418e+02	3.5772	2.281933	0.000315	3.152846	0.534107	-0.000032
1652	1.6427e+02	3.5668	2.251382	0.000307	3.070954	0.520234	-0.000031
1653	1.6437e+02	3.5609	2.221239	0.000303	3.030008	0.513297	-0.000030
1654	1.6447e+02	3.5502	2.189874	0.000315	3.152846	0.534107	-0.000032
1655	1.6457e+02	3.5378	2.162989	0.000270	2.702439	0.457806	-0.000027
1656	1.6467e+02	3.5287	2.131624	0.000315	3.152846	0.534107	-0.000032
1657	1.6477e+02	3.5180	2.098629	0.000332	3.316630	0.561852	-0.000033
1658	1.6487e+02	3.5076	2.070522	0.000283	2.825277	0.478615	-0.000028
1659	1.6497e+02	3.4996	2.037527	0.000332	3.316630	0.561852	-0.000033
1660	1.6507e+02	3.4878	2.004533	0.000332	3.316630	0.561852	-0.000033
1661	1.6517e+02	3.4805	1.974389	0.000303	3.030008	0.513297	-0.000030
1662	1.6527e+02	3.4686	1.943839	0.000307	3.070954	0.520234	-0.000031
1663	1.6537e+02	3.4606	1.914917	0.000291	2.907169	0.492488	-0.000029
1664	1.6547e+02	3.4473	1.882330	0.000328	3.275684	0.554916	-0.000033
1665	1.6557e+02	3.4393	1.850965	0.000315	3.152846	0.534107	-0.000032
1666	1.6567e+02	3.4301	1.821229	0.000299	2.989062	0.506361	-0.000030
1667	1.6577e+02	3.4203	1.791900	0.000295	2.948116	0.499424	-0.000029
1668	1.6587e+02	3.4106	1.763386	0.000287	2.866223	0.485551	-0.000029
1669	1.6597e+02	3.3989	1.731613	0.000319	3.193792	0.541043	-0.000032
1670	1.6607e+02	3.3866	1.701062	0.000307	3.070954	0.520234	-0.000031
1671	1.6616e+02	3.3779	1.672956	0.000283	2.825277	0.478615	-0.000028
1672	1.6626e+02	3.3698	1.641998	0.000311	3.111900	0.527170	-0.000031
1673	1.6636e+02	3.3566	1.609410	0.000328	3.275684	0.554916	-0.000033
1674	1.6646e+02	3.3514	1.578045	0.000315	3.152846	0.534107	-0.000032
1675	1.6656e+02	3.3396	1.550753	0.000274	2.743385	0.464742	-0.000027
1676	1.6666e+02	3.3293	1.517351	0.000336	3.357576	0.568789	-0.000034
1677	1.6676e+02	3.3208	1.483949	0.000336	3.357576	0.568789	-0.000034
1678	1.6686e+02	3.3108	1.455435	0.000287	2.866223	0.485551	-0.000029
1679	1.6696e+02	3.2983	1.424477	0.000311	3.111900	0.527170	-0.000031
1680	1.6706e+02	3.2868	1.391889	0.000328	3.275684	0.554916	-0.000033
1681	1.6716e+02	3.2831	1.362561	0.000295	2.948116	0.499424	-0.000029
1682	1.6726e+02	3.2689	1.329973	0.000328	3.275684	0.554916	-0.000033
1683	1.6736e+02	3.2643	1.299423	0.000307	3.070954	0.520234	-0.000031
1684	1.6746e+02	3.2487	1.275390	0.000242	2.415817	0.409250	-0.000024
1685	1.6756e+02	3.2386	1.237099	0.000385	3.848929	0.652026	-0.000038
1686	1.6766e+02	3.2307	1.205734	0.000315	3.152846	0.534107	-0.000032
1687	1.6776e+02	3.2191	1.180071	0.000258	2.579601	0.436996	-0.000026
1688	1.6786e+02	3.2093	1.144225	0.000360	3.603252	0.610407	-0.000036
1689	1.6796e+02	3.2004	1.110823	0.000336	3.357576	0.568789	-0.000034
1690	1.6806e+02	3.1895	1.079050	0.000319	3.193792	0.541043	-0.000032
1691	1.6816e+02	3.1798	1.046056	0.000332	3.316630	0.561852	-0.000033
1692	1.6825e+02	3.1675	1.010617	0.000356	3.562306	0.603471	-0.000036
1693	1.6835e+02	3.1596	0.977215	0.000336	3.357576	0.568789	-0.000034
1694	1.6845e+02	3.1496	0.950330	0.000270	2.702439	0.457806	-0.000027
1695	1.6855e+02	3.1401	0.911633	0.000389	3.889875	0.658963	-0.000039
1696	1.6865e+02	3.1304	0.881897	0.000299	2.989062	0.506361	-0.000030
1697	1.6875e+02	3.1198	0.852975	0.000291	2.907169	0.492488	-0.000029
1698	1.6885e+02	3.1117	0.822425	0.000307	3.070954	0.520234	-0.000031
1699	1.6895e+02	3.1007	0.790652	0.000319	3.193792	0.541043	-0.000032
1700	1.6905e+02	3.0866	0.755620	0.000352	3.521360	0.596535	-0.000035
1701	1.6915e+02	3.0796	0.725070	0.000307	3.070954	0.520234	-0.000031
1702	1.6925e+02	3.0716	0.692482	0.000328	3.275684	0.554916	-0.000033
1703	1.6935e+02	3.0608	0.662746	0.000299	2.989062	0.506361	-0.000030
1704	1.6945e+02	3.0528	0.627715	0.000352	3.521360	0.596535	-0.000035
1705	1.6955e+02	3.0422	0.600016	0.000278	2.784331	0.471678	-0.000028
1706	1.6965e+02	3.0275	0.567836	0.000323	3.234738	0.547979	-0.000032
1707	1.6975e+02	3.0190	0.537285	0.000307	3.070954	0.520234	-0.000031
1708	1.6985e+02	3.0108	0.505512	0.000319	3.193792	0.541043	-0.000032
1709	1.6995e+02	2.9994	0.479850	0.000258	2.579601	0.436996	-0.000026
1710	1.7005e+02	2.9919	0.447669	0.000323	3.234738	0.547979	-0.000032
1711	1.7015e+02	2.9784	0.419563	0.000283	2.825277	0.478615	-0.000028
1712	1.7024e+02	2.9705	0.387790	0.000319	3.193792	0.541043	-0.000032
1713	1.7034e+02	2.9601	0.360091	0.000278	2.784331	0.471678	-0.000028
1714	1.7044e+02	2.9501	0.327911	0.000323	3.234738	0.547979	-0.000032
1715	1.7054e+02	2.9397	0.296545	0.000315	3.152846	0.534107	-0.000032
1716	1.7064e+02	2.9282	0.268439	0.000283	2.825277	0.478615	-0.000028
1717	1.7074e+02	2.9246	0.234629	0.000340	3.398522	0.575725	-0.000034
1718	1.7084e+02	2.9098	0.200820	0.000340	3.398522	0.575725	-0.000034
1719	1.7094e+02	2.9023	0.171491	0.000295	2.948116	0.499424	-0.000029
1720	1.7104e+02	2.8932	0.139718	0.000319	3.193792	0.541043	-0.000032
1721	1.7114e+02	2.8798	0.110390	0.000295	2.948116	0.499424	-0.000029
1722	1.7124e+02	2.8696	0.077802	0.000328	3.275684	0.554916	-0.000033
1723	1.7134e+02	2.8632	0.047659	0.000303	3.030008	0.513297	-0.000030
1724	1.7144e+02	2.8524	0.015479	0.000323	3.234738	0.547979	-0.000032
1725	1.7154e+02	2.8400	-0.021182	0.000369	3.685144	0.624280	-0.000037
1726	1.7164e+02	2.8308	-0.051733	0.000307	3.070954	0.520234	-0.000031
1727	1.7174e+02	2.8216	-0.084727	0.000332	3.316630	0.561852	-0.000033
1728	1.7184e+02	2.8108	-0.117315	0.000328	3.275684	0.554916	-0.000033
1729	1.7194e+02	2.8008	-0.143792	0.000266	2.661493	0.450869	-0.000027
1730	1.7204e+02	2.7943	-0.175972	0.000323	3.234738	0.547979	-0.000032
1731	1.7213e+02	2.7815	-0.207745	0.000319	3.193792	0.541043	-0.000032
1732	1.7223e+02	2.7725	-0.239110	0.000315	3.152846	0.534107	-0.000032
1733	1.7233e+02	2.7639	-0.271290	0.000323	3.234738	0.547979	-0.000032
1734	1.7243e+02	2.7522	-0.307544	0.000364	3.644198	0.617344	-0.000036
1735	1.7253e+02	2.7418	-0.336465	0.000291	2.907169	0.492488	-0.000029
1736	1.7263e+02	2.7335	-0.369867	0.000336	3.357576	0.568789	-0.000034
1737	1.7273e+02	2.7220	-0.404491	0.000348	3.480414	0.589598	-0.000035
1738	1.7283e+02	2.7127	-0.437893	0.000336	3.357576	0.568789	-0.000034
1739	1.7293e+02	2.7042	-0.466815	0.000291	2.907169	0.492488	-0.000029
1740	1.7303e+02	2.6916	-0.498995	0.000323	3.234738	0.547979	-0.000032
1741	1.7313e+02	2.6817	-0.531582	0.000328	3.275684	0.554916	-0.000033
1742	1.7323e+02	2.6708	-0.566206	0.000348	3.480414	0.589598	-0.000035
1743	1.7333e+02	2.6631	-0.595942	0.000299	2.989062	0.506361	-0.000030
1744	1.7343e+02	2.6534	-0.627715	0.000319	3.193792	0.541043	-0.000032
1745	1.7353e+02	2.6434	-0.661117	0.000336	3.357576	0.568789	-0.000034
1746	1.7363e+02	2.6350	-0.692890	0.000319	3.193792	0.541043	-0.000032
1747	1.7373e+02	2.6237	-0.727106	0.000344	3.439468	0.582662	-0.000034
1748	1.7383e+02	2.6136	-0.757657	0.000307	3.070954	0.520234	-0.000031
1749	1.7393e+02	2.6030	-0.791467	0.000340	3.398522	0.575725	-0.000034
1750	1.7403e+02	2.5951	-0.824461	0.000332	3.316630	0.561852	-0.000033
1751	1.7413e+02	2.5835	-0.856641	0.000323	3.234738	0.547979	-0.000032
1752	1.7422e+02	2.5714	-0.890043	0.000336	3.357576	0.568789	-0.000034
1753	1.7432e+02	2.5642	-0.924260	0.000344	3.439468	0.582662	-0.000034
1754	1.7442e+02	2.5529	-0.956848	0.000328	3.275684	0.554916	-0.000033
1755	1.7452e+02	2.5433	-0.990250	0.000336	3.357576	0.568789	-0.000034
1756	1.7462e+02	2.5327	-1.022430	0.000323	3.234738	0.547979	-0.000032
1757	1.7472e+02	2.5235	-1.055425	0.000332	3.316630	0.561852	-0.000033
1758	1.7482e+02	2.5158	-1.087605	0.000323	3.234738	0.547979	-0.000032
1759	1.7492e+02	2.5027	-1.121414	0.000340	3.398522	0.575725	-0.000034
1760	1.7502e+02	2.4925	-1.152372	0.000311	3.111900	0.527170	-0.000031
1761	1.7512e+02	2.4827	-1.181701	0.000295	2.948116	0.499424	-0.000029
1762	1.7522e+02	2.4739	-1.222435	0.000409	4.094605	0.693645	-0.000041
1763	1.7532e+02	2.4628	-1.252578	0.000303	3.030008	0.513297	-0.000030
1764	1.7542e+02	2.4536	-1.287202	0.000348	3.480414	0.589598	-0.000035
1765	1.7552e+02	2.4426	-1.321012	0.000340	3.398522	0.575725	-0.000034
1766	1.7562e+02	2.4326	-1.356451	0.000356	3.562306	0.603471	-0.000036
1767	1.7572e+02	2.4249	-1.387001	0.000307	3.070954	0.520234	-0.000031
1768	1.7582e+02	2.4129	-1.423255	0.000364	3.644198	0.617344	-0.000036
1769	1.7592e+02	2.4036	-1.452991	0.000299	2.989062	0.506361	-0.000030
1770	1.7602e+02	2.3937	-1.484356	0.000315	3.152846	0.534107	-0.000032
1771	1.7612e+02	2.3837	-1.518166	0.000340	3.398522	0.575725	-0.000034
1772	1.7621e+02	2.3766	-1.550346	0.000323	3.234738	0.547979	-0.000032
1773	1.7631e+02	2.3625	-1.583340	0.000332	3.316630	0.561852	-0.000033
1774	1.7641e+02	2.3547	-1.609818	0.000266	2.661493	0.450869	-0.000027
1775	1.7651e+02	2.3462	-1.644035	0.000344	3.439468	0.582662	-0.000034
1776	1.7661e+02	2.3295	-1.674178	0.000303	3.030008	0.513297	-0.000030
1777	1.7671e+02	2.3244	-1.710839	0.000369	3.685144	0.624280	-0.000037
1778	1.7681e+02	2.3135	-1.741389	0.000307	3.070954	0.520234	-0.000031
1779	1.7691e+02	2.3028	-1.775606	0.000344	3.439468	0.582662	-0.000034
1780	1.7701e+02	2.2929	-1.809008	0.000336	3.357576	0.568789	-0.000034
1781	1.7711e+02	2.2834	-1.843225	0.000344	3.439468	0.582662	-0.000034
1782	1.7721e+02	2.2767	-1.876627	0.000336	3.357576	0.568789	-0.000034
1783	1.7731e+02	2.2634	-1.912473	0.000360	3.603252	0.610407	-0.000036
1784	1.7741e+02	2.2548	-1.944246	0.000319	3.193792	0.541043	-0.000032
1785	1.7751e+02	2.2445	-1.979277	0.000352	3.521360	0.596535	-0.000035
1786	1.7761e+02	2.2355	-2.011458	0.000323	3.234738	0.547979	-0.000032
1787	1.7771e+02	2.2250	-2.042416	0.000311	3.111900	0.527170	-0.000031
1788	1.7781e+02	2.2133	-2.079484	0.000373	3.726090	0.631217	-0.000037
1789	1.7791e+02	2.2052	-2.112886	0.000336	3.357576	0.568789	-0.000034
1790	1.7801e+02	2.1944	-2.145066	0.000323	3.234738	0.547979	-0.000032
1791	1.7810e+02	2.1855	-2.178875	0.000340	3.398522	0.575725	-0.000034
1792	1.7820e+02	2.1751	-2.213499	0.000348	3.480414	0.589598	-0.000035
1793	1.7830e+02	2.1642	-2.254641	0.000414	4.135551	0.700581	-0.000041
1794	1.7840e+02	2.1520	-2.289265	0.000348	3.480414	0.589598	-0.000035
1795	1.7850e+02	2.1471	-2.324704	0.000356	3.562306	0.603471	-0.000036
1796	1.7860e+02	2.1356	-2.359328	0.000348	3.480414	0.589598	-0.000035
1797	1.7870e+02	2.1277	-2.396396	0.000373	3.726090	0.631217	-0.000037
1798	1.7880e+02	2.1170	-2.431835	0.000356	3.562306	0.603471	-0.000036
1799	1.7890e+02	2.1035	-2.466052	0.000344	3.439468	0.582662	-0.000034
1800	1.7900e+02	2.0970	-2.503935	0.000381	3.807983	0.645090	-0.000038
1801	1.7910e+02	2.0851	-2.533263	0.000295	2.948116	0.499424	-0.000029
1802	1.7920e+02	2.0754	-2.571961	0.000389	3.889875	0.658963	-0.000039
1803	1.7930e+02	2.0630	-2.609029	0.000373	3.726090	0.631217	-0.000037
1804	1.7940e+02	2.0552	-2.642431	0.000336	3.357576	0.568789	-0.000034
1805	1.7950e+02	2.0473	-2.678685	0.000364	3.644198	0.617344	-0.000036
1806	1.7960e+02	2.0348	-2.709643	0.000311	3.111900	0.527170	-0.000031
1807	1.7970e+02	2.0222	-2.746711	0.000373	3.726090	0.631217	-0.000037
1808	1.7980e+02	2.0144	-2.780520	0.000340	3.398522	0.575725	-0.000034
1809	1.7990e+02	2.0056	-2.814330	0.000340	3.398522	0.575725	-0.000034
1810	1.8000e+02	1.9945	-2.849361	0.000352	3.521360	0.596535	-0.000035
1811	1.8009e+02	1.9863	-2.884800	0.000356	3.562306	0.603471	-0.000036
1812	1.8019e+02	1.9751	-2.921053	0.000364	3.644198	0.617344	-0.000036
1813	1.8029e+02	1.9664	-2.956492	0.000356	3.562306	0.603471	-0.000036
1814	1.8039e+02	1.9558	-2.988265	0.000319	3.193792	0.541043	-0.000032
1815	1.8049e+02	1.9456	-3.022074	0.000340	3.398522	0.575725	-0.000034
1816	1.8059e+02	1.9338	-3.059143	0.000373	3.726090	0.631217	-0.000037
1817	1.8069e+02	1.9273	-3.093359	0.000344	3.439468	0.582662	-0.000034
1818	1.8079e+02	1.9157	-3.130428	0.000373	3.726090	0.631217	-0.000037
1819	1.8089e+02	1.9064	-3.163422	0.000332	3.316630	0.561852	-0.000033
1820	1.8099e+02	1.8958	-3.196010	0.000328	3.275684	0.554916	-0.000033
1821	1.8109e+02	1.8851	-3.232263	0.000364	3.644198	0.617344	-0.000036
1822	1.8119e+02	1.8777	-3.265665	0.000336	3.357576	0.568789	-0.000034
1823	1.8129e+02	1.8667	-3.303548	0.000381	3.807983	0.645090	-0.000038
1824	1.8139e+02	1.8559	-3.338580	0.000352	3.521360	0.596535	-0.000035
1825	1.8149e+02	1.8447	-3.375648	0.000373	3.726090	0.631217	-0.000037
1826	1.8159e+02	1.8363	-3.404162	0.000287	2.866223	0.485551	-0.000029
1827	1.8169e+02	1.8273	-3.444896	0.000409	4.094605	0.693645	-0.000041
1828	1.8179e+02	1.8174	-3.480742	0.000360	3.603252	0.610407	-0.000036
1829	1.8189e+02	1.8063	-3.515774	0.000352	3.521360	0.596535	-0.000035
1830	1.8199e+02	1.7940	-3.550805	0.000352	3.521360	0.596535	-0.000035
1831	1.8209e+02	1.7882	-3.586244	0.000356	3.562306	0.603471	-0.000036
1832	1.8218e+02	1.7762	-3.625349	0.000393	3.930821	0.665899	-0.000039
1833	1.8228e+02	1.7666	-3.655899	0.000307	3.070954	0.520234	-0.000031
1834	1.8238e+02	1.7554	-3.691338	0.000356	3.562306	0.603471	-0.000036
1835	1.8248e+02	1.7460	-3.726370	0.000352	3.521360	0.596535	-0.000035
1836	1.8258e+02	1.7365	-3.762623	0.000364	3.644198	0.617344	-0.000036
1837	1.8268e+02	1.7276	-3.796025	0.000336	3.357576	0.568789	-0.000034
1838	1.8278e+02	1.7178	-3.832279	0.000364	3.644198	0.617344	-0.000036
1839	1.8288e+02	1.7068	-3.868125	0.000360	3.603252	0.610407	-0.000036
1840	1.8298e+02	1.6980	-3.898676	0.000307	3.070954	0.520234	-0.000031
1841	1.8308e+02	1.6876	-3.940225	0.000418	4.176497	0.707518	-0.000042
1842	1.8318e+02	1.6785	-3.974441	0.000344	3.439468	0.582662	-0.000034
1843	1.8328e+02	1.6686	-4.008251	0.000340	3.398522	0.575725	-0.000034
1844	1.8338e+02	1.6564	-4.044097	0.000360	3.603252	0.610407	-0.000036
1845	1.8348e+02	1.6487	-4.081980	0.000381	3.807983	0.645090	-0.000038
1846	1.8358e+02	1.6354	-4.117011	0.000352	3.521360	0.596535	-0.000035
1847	1.8368e+02	1.6282	-4.153672	0.000369	3.685144	0.624280	-0.000037
1848	1.8378e+02	1.6154	-4.190740	0.000373	3.726090	0.631217	-0.000037
1849	1.8388e+02	1.6061	-4.222920	0.000323	3.234738	0.547979	-0.000032
1850	1.8398e+02	1.5961	-4.257544	0.000348	3.480414	0.589598	-0.000035
1851	1.8407e+02	1.5882	-4.292168	0.000348	3.480414	0.589598	-0.000035
1852	1.8417e+02	1.5763	-4.329644	0.000377	3.767036	0.638153	-0.000038
1853	1.8427e+02	1.5662	-4.366712	0.000373	3.726090	0.631217	-0.000037
1854	1.8437e+02	1.5566	-4.403373	0.000369	3.685144	0.624280	-0.000037
1855	1.8447e+02	1.5462	-4.441256	0.000381	3.807983	0.645090	-0.000038
1856	1.8457e+02	1.5357	-4.477509	0.000364	3.644198	0.617344	-0.000036
1857	1.8467e+02	1.5277	-4.516207	0.000389	3.889875	0.658963	-0.000039
1858	1.8477e+02	1.5176	-4.554497	0.000385	3.848929	0.652026	-0.000038
1859	1.8487e+02	1.5078	-4.590751	0.000364	3.644198	0.617344	-0.000036
1860	1.8497e+02	1.4979	-4.623745	0.000332	3.316630	0.561852	-0.000033
1861	1.8507e+02	1.4889	-4.666924	0.000434	4.340281	0.735264	-0.000043
1862	1.8517e+02	1.4782	-4.701140	0.000344	3.439468	0.582662	-0.000034
1863	1.8527e+02	1.4687	-4.736987	0.000360	3.603252	0.610407	-0.000036
1864	1.8537e+02	1.4576	-4.771611	0.000348	3.480414	0.589598	-0.000035
1865	1.8547e+02	1.4476	-4.809494	0.000381	3.807983	0.645090	-0.000038
1866	1.8557e+02	1.4348	-4.842081	0.000328	3.275684	0.554916	-0.000033
1867	1.8567e+02	1.4281	-4.882815	0.000409	4.094605	0.693645	-0.000041
1868	1.8577e+02	1.4204	-4.918661	0.000360	3.603252	0.610407	-0.000036
1869	1.8587e+02	1.4078	-4.954507	0.000360	3.603252	0.610407	-0.000036
1870	1.8597e+02	1.3992	-4.989132	0.000348	3.480414	0.589598	-0.000035
1871	1.8606e+02	1.3876	-5.024978	0.000360	3.603252	0.610407	-0.000036
1872	1.8616e+02	1.3795	-5.062861	0.000381	3.807983	0.645090	-0.000038
1873	1.8626e+02	1.3662	-5.099521	0.000369	3.685144	0.624280	-0.000037
1874	1.8636e+02	1.3573	-5.135368	0.000360	3.603252	0.610407	-0.000036
1875	1.8646e+02	1.3501	-5.174880	0.000397	3.971767	0.672835	-0.000040
1876	1.8656e+02	1.3369	-5.206652	0.000319	3.193792	0.541043	-0.000032
1877	1.8666e+02	1.3312	-5.237611	0.000311	3.111900	0.527170	-0.000031
1878	1.8676e+02	1.3177	-5.274679	0.000373	3.726090	0.631217	-0.000037
1879	1.8686e+02	1.3090	-5.309303	0.000348	3.480414	0.589598	-0.000035
1880	1.8696e+02	1.3002	-5.348408	0.000393	3.930821	0.665899	-0.000039
1881	1.8706e+02	1.2884	-5.380180	0.000319	3.193792	0.541043	-0.000032
1882	1.8716e+02	1.2801	-5.413175	0.000332	3.316630	0.561852	-0.000033
1883	1.8726e+02	1.2699	-5.449836	0.000369	3.685144	0.624280	-0.000037
1884	1.8736e+02	1.2598	-5.484867	0.000352	3.521360	0.596535	-0.000035
1885	1.8746e+02	1.2505	-5.517862	0.000332	3.316630	0.561852	-0.000033
1886	1.8756e+02	1.2398	-5.555338	0.000377	3.767036	0.638153	-0.000038
1887	1.8766e+02	1.2289	-5.591999	0.000369	3.685144	0.624280	-0.000037
1888	1.8776e+02	1.2177	-5.629067	0.000373	3.726090	0.631217	-0.000037
1889	1.8786e+02	1.2087	-5.662876	0.000340	3.398522	0.575725	-0.000034
1890	1.8796e+02	1.2008	-5.700759	0.000381	3.807983	0.645090	-0.000038
1891	1.8806e+02	1.1901	-5.739049	0.000385	3.848929	0.652026	-0.000038
1892	1.8815e+02	1.1803	-5.777339	0.000385	3.848929	0.652026	-0.000038
1893	1.8825e+02	1.1707	-5.813186	0.000360	3.603252	0.610407	-0.000036
1894	1.8835e+02	1.1599	-5.846995	0.000340	3.398522	0.575725	-0.000034
1895	1.8845e+02	1.1517	-5.883656	0.000369	3.685144	0.624280	-0.000037
1896	1.8855e+02	1.1406	-5.921539	0.000381	3.807983	0.645090	-0.000038
1897	1.8865e+02	1.1308	-5.959014	0.000377	3.767036	0.638153	-0.000038
1898	1.8875e+02	1.1221	-5.994453	0.000356	3.562306	0.603471	-0.000036
1899	1.8885e+02	1.1103	-6.030706	0.000364	3.644198	0.617344	-0.000036
1900	1.8895e+02	1.1008	-6.068589	0.000381	3.807983	0.645090	-0.000038
1901	1.8905e+02	1.0904	-6.104028	0.000356	3.562306	0.603471	-0.000036
1902	1.8915e+02	1.0828	-6.145170	0.000414	4.135551	0.700581	-0.000041
1903	1.8925e+02	1.0700	-6.181016	0.000360	3.603252	0.610407	-0.000036
1904	1.8935e+02	1.0600	-6.218084	0.000373	3.726090	0.631217	-0.000037
1905	1.8945e+02	1.0496	-6.253116	0.000352	3.521360	0.596535	-0.000035
1906	1.8955e+02	1.0423	-6.291406	0.000385	3.848929	0.652026	-0.000038
1907	1.8965e+02	1.0295	-6.328067	0.000369	3.685144	0.624280	-0.000037
1908	1.8975e+02	1.0220	-6.364727	0.000369	3.685144	0.624280	-0.000037
1909	1.8985e+02	1.0116	-6.401796	0.000373	3.726090	0.631217	-0.000037
1910	1.8995e+02	0.9995	-6.440493	0.000389	3.889875	0.658963	-0.000039
1911	1.9004e+02	0.9902	-6.474710	0.000344	3.439468	0.582662	-0.000034
1912	1.9014e+02	0.9791	-6.514629	0.000401	4.012713	0.679772	-0.000040
1913	1.9024e+02	0.9725	-6.549254	0.000348	3.480414	0.589598	-0.000035
1914	1.9034e+02	0.9604	-6.584692	0.000356	3.562306	0.603471	-0.000036
1915	1.9044e+02	0.9520	-6.623797	0.000393	3.930821	0.665899	-0.000039
1916	1.9054e+02	0.9396	-6.659643	0.000360	3.603252	0.610407	-0.000036
1917	1.9064e+02	0.9324	-6.697526	0.000381	3.807983	0.645090	-0.000038
1918	1.9074e+02	0.9195	-6.734187	0.000369	3.685144	0.624280	-0.000037
1919	1.9084e+02	0.9110	-6.774921	0.000409	4.094605	0.693645	-0.000041
1920	1.9094e+02	0.9006	-6.815248	0.000405	4.053659	0.686708	-0.000041
1921	1.9104e+02	0.8907	-6.855982	0.000409	4.094605	0.693645	-0.000041
1922	1.9114e+02	0.8762	-6.889385	0.000336	3.357576	0.568789	-0.000034
1923	1.9124e+02	0.8702	-6.928082	0.000389	3.889875	0.658963	-0.000039
1924	1.9134e+02	0.8646	-6.963114	0.000352	3.521360	0.596535	-0.000035
1925	1.9144e+02	0.8502	-6.999774	0.000369	3.685144	0.624280	-0.000037
1926	1.9154e+02	0.8406	-7.033991	0.000344	3.439468	0.582662	-0.000034
1927	1.9164e+02	0.8326	-7.075540	0.000418	4.176497	0.707518	-0.000042
1928	1.9174e+02	0.8237	-7.113830	0.000385	3.848929	0.652026	-0.000038
1929	1.9184e+02	0.8125	-7.150084	0.000364	3.644198	0.617344	-0.000036
1930	1.9194e+02	0.7993	-7.187152	0.000373	3.726090	0.631217	-0.000037
1931	1.9203e+02	0.7915	-7.225442	0.000385	3.848929	0.652026	-0.000038
1932	1.9213e+02	0.7812	-7.267398	0.000422	4.217443	0.714454	-0.000042
1933	1.9223e+02	0.7748	-7.302837	0.000356	3.562306	0.603471	-0.000036
1934	1.9233e+02	0.7590	-7.339498	0.000369	3.685144	0.624280	-0.000037
1935	1.9243e+02	0.7524	-7.380640	0.000414	4.135551	0.700581	-0.000041
1936	1.9253e+02	0.7430	-7.415671	0.000352	3.521360	0.596535	-0.000035
1937	1.9263e+02	0.7300	-7.456405	0.000409	4.094605	0.693645	-0.000041
1938	1.9273e+02	0.7204	-7.491030	0.000348	3.480414	0.589598	-0.000035
1939	1.9283e+02	0.7130	-7.528098	0.000373	3.726090	0.631217	-0.000037
1940	1.9293e+02	0.7031	-7.568832	0.000409	4.094605	0.693645	-0.000041
1941	1.9303e+02	0.6919	-7.599383	0.000307	3.070954	0.520234	-0.000031
1942	1.9313e+02	0.6810	-7.634414	0.000352	3.521360	0.596535	-0.000035
1943	1.9323e+02	0.6739	-7.673926	0.000397	3.971767	0.672835	-0.000040
1944	1.9333e+02	0.6615	-7.710994	0.000373	3.726090	0.631217	-0.000037
1945	1.9343e+02	0.6517	-7.748877	0.000381	3.807983	0.645090	-0.000038
1946	1.9353e+02	0.6434	-7.783501	0.000348	3.480414	0.589598	-0.000035
1947	1.9363e+02	0.6332	-7.823014	0.000397	3.971767	0.672835	-0.000040
1948	1.9373e+02	0.6228	-7.858453	0.000356	3.562306	0.603471	-0.000036
1949	1.9383e+02	0.6148	-7.900816	0.000426	4.258389	0.721391	-0.000043
1950	1.9393e+02	0.6004	-7.941550	0.000409	4.094605	0.693645	-0.000041
1951	1.9403e+02	0.5939	-7.974138	0.000328	3.275684	0.554916	-0.000033
1952	1.9412e+02	0.5816	-8.016094	0.000422	4.217443	0.714454	-0.000042
1953	1.9422e+02	0.5750	-8.056421	0.000405	4.053659	0.686708	-0.000041
1954	1.9432e+02	0.5640	-8.091452	0.000352	3.521360	0.596535	-0.000035
1955	1.9442e+02	0.5527	-8.132187	0.000409	4.094605	0.693645	-0.000041
1956	1.9452e+02	0.5416	-8.167625	0.000356	3.562306	0.603471	-0.000036
1957	1.9462e+02	0.5339	-8.207138	0.000397	3.971767	0.672835	-0.000040
1958	1.9472e+02	0.5231	-8.245835	0.000389	3.889875	0.658963	-0.000039
1959	1.9482e+02	0.5110	-8.283718	0.000381	3.807983	0.645090	-0.000038
1960	1.9492e+02	0.5024	-8.325674	0.000422	4.217443	0.714454	-0.000042
1961	1.9502e+02	0.4956	-8.366001	0.000405	4.053659	0.686708	-0.000041
1962	1.9512e+02	0.4832	-8.408365	0.000426	4.258389	0.721391	-0.000043
1963	1.9522e+02	0.4726	-8.445840	0.000377	3.767036	0.638153	-0.000038
1964	1.9532e+02	0.4628	-8.484131	0.000385	3.848929	0.652026	-0.000038
1965	1.9542e+02	0.4515	-8.530160	0.000463	4.626903	0.783819	-0.000046
1966	1.9552e+02	0.4420	-8.568451	0.000385	3.848929	0.652026	-0.000038
1967	1.9562e+02	0.4337	-8.605926	0.000377	3.767036	0.638153	-0.000038
1968	1.9572e+02	0.4227	-8.645846	0.000401	4.012713	0.679772	-0.000040
1969	1.9582e+02	0.4153	-8.686580	0.000409	4.094605	0.693645	-0.000041
1970	1.9592e+02	0.4030	-8.724463	0.000381	3.807983	0.645090	-0.000038
1971	1.9601e+02	0.3944	-8.763160	0.000389	3.889875	0.658963	-0.000039
1972	1.9611e+02	0.3826	-8.803895	0.000409	4.094605	0.693645	-0.000041
1973	1.9621e+02	0.3732	-8.849110	0.000455	4.545011	0.769946	-0.000045
1974	1.9631e+02	0.3638	-8.882919	0.000340	3.398522	0.575725	-0.000034
1975	1.9641e+02	0.3545	-8.921209	0.000385	3.848929	0.652026	-0.000038
1976	1.9651e+02	0.3441	-8.960314	0.000393	3.930821	0.665899	-0.000039
1977	1.9661e+02	0.3329	-8.995753	0.000356	3.562306	0.603471	-0.000036
1978	1.9671e+02	0.3240	-9.039339	0.000438	4.381227	0.742200	-0.000044
1979	1.9681e+02	0.3130	-9.076814	0.000377	3.767036	0.638153	-0.000038
1980	1.9691e+02	0.3033	-9.118770	0.000422	4.217443	0.714454	-0.000042
1981	1.9701e+02	0.2924	-9.155024	0.000364	3.644198	0.617344	-0.000036
1982	1.9711e+02	0.2840	-9.195758	0.000409	4.094605	0.693645	-0.000041
1983	1.9721e+02	0.2746	-9.238936	0.000434	4.340281	0.735264	-0.000043
1984	1.9731e+02	0.2650	-9.275190	0.000364	3.644198	0.617344	-0.000036
1985	1.9741e+02	0.2531	-9.313480	0.000385	3.848929	0.652026	-0.000038
1986	1.9751e+02	0.2452	-9.353400	0.000401	4.012713	0.679772	-0.000040
1987	1.9761e+02	0.2346	-9.389653	0.000364	3.644198	0.617344	-0.000036
1988	1.9771e+02	0.2245	-9.431609	0.000422	4.217443	0.714454	-0.000042
1989	1.9781e+02	0.2141	-9.472344	0.000409	4.094605	0.693645	-0.000041
1990	1.9791e+02	0.2032	-9.511856	0.000397	3.971767	0.672835	-0.000040
1991	1.9800e+02	0.1944	-9.546480	0.000348	3.480414	0.589598	-0.000035
1992	1.9810e+02	0.1849	-9.592102	0.000459	4.585957	0.776882	-0.000046
1993	1.9820e+02	0.1754	-9.627949	0.000360	3.603252	0.610407	-0.000036
1994	1.9830e+02	0.1660	-9.668275	0.000405	4.053659	0.686708	-0.000041
1995	1.9840e+02	0.1526	-9.706566	0.000385	3.848929	0.652026	-0.000038
1996	1.9850e+02	0.1458	-9.746485	0.000401	4.012713	0.679772	-0.000040
1997	1.9860e+02	0.1353	-9.791293	0.000450	4.504065	0.763009	-0.000045
1998	1.9870e+02	0.1281	-9.829176	0.000381	3.807983	0.645090	-0.000038
1999	1.9880e+02	0.1159	-9.870317	0.000414	4.135551	0.700581	-0.000041
2000	1.9890e+02	0.1077	-9.906978	0.000369	3.685144	0.624280	-0.000037
2001	1.9900e+02	0.0954	-9.944454	0.000377	3.767036	0.638153	-0.000038
2002	1.9910e+02	0.0874	-9.987225	0.000430	4.299335	0.728327	-0.000043
2003	1.9920e+02	0.0755	-10.026330	0.000393	3.930821	0.665899	-0.000039
2004	1.9930e+02	0.0642	-10.064212	0.000381	3.807983	0.645090	-0.000038
2005	1.9940e+02	0.0551	-10.102095	0.000381	3.807983	0.645090	-0.000038
2006	1.9950e+02	0.0462	-10.141608	0.000397	3.971767	0.672835	-0.000040
2007	1.9960e+02	0.0358	-10.183156	0.000418	4.176497	0.707518	-0.000042
2008	1.9970e+02	0.0246	-10.222669	0.000397	3.971767	0.672835	-0.000040
2009	1.9980e+02	0.0172	-10.261774	0.000393	3.930821	0.665899	-0.000039
2010	1.9990e+02	0.0058	-10.304137	0.000426	4.258389	0.721391	-0.000043
2011	2.0000e+02	-0.0043	-10.343242	0.000426	4.258389	0.721391	-0.000039

PMax (uC/cm2):	3.16e+01
Pr (uC/cm2):	5.52e+00
-Pr (uC/cm2):	0.00e+00
PLoss (uC/cm2):	0.00e+00
C (Max-Eff) (nF):	3.16e-01
K (Eff):	5.35e+02
Vert. (+/-Pr) Shift (uC/cm2):	2.76e+00
Offset (uC/cm2):	1.59e+01

A (Loop Area - uC/cm2·Volts):	-5.10e-02



Hysteresis Version: 5.48.1 - Radiant Technologies, Inc., 1999 - 9/12/24

