»»»»»»»»»»»»»»»»»»»»»»»»»»»»»»»»»»»» Hysteresis ««««««««««««««««««««««««««««««««««««
»»»  Executed Version:	5.48.1
»»»  Vision Version:	5.48.4 (R)
»»»  Vision Compiled:	9/18/24
»»»  Driver Version:	5.47.0
»»»  Windows Version:	Windows 8 or 8.1
»»»  Processor Information:	x86 (AMD or Intel) - 32 Processors
»»»  Tester Name:	PMF21124-494 (100V)
»»»  Tester S/N:	PMF21124-494
»»»  Internal Amp Type:	100V RevK 270k
»»»  Internal Amp S/N:	iAB2-596/K     
»»»  Execution Count:	1
»»»»»»»»»»»»»»»»»»»»»»»»»»»»»»»»»»»»»»»»»»««««««««««««««««««««««««««««««««««««««««««

Stored:	6/25/2025 - 14:30:30
Configured:	06/25/25 10:44:40 AM
Executed:	06/25/25 02:29:35 PM

»»»»»»»»»»»»»»»»»»»»»»»»»»»»»»»»»»» Sample Info ««««««««««««««««««««««««««««««««««««
Sample Name:	
Lot Name:	
Wafer Name:	
Die Row/Column:	0/0
Capacitor Number:	0
Sample Area (cm2):	1.00e-04
Sample Thickness (microns):	1.50e-01

Amplifier:	Internal

»»»»»»»»»»»»»»»»»»»»»»»»»»»»»»»»»»» Tester Info «««««««««««««««««««««««««««««««««««
Tester Name:	PMF21124-494 (100V)
Tester Serial Number:	PMF21124-494
Return Signal Amp. Level:	1.9 [Index: 2]

»»»»»»»»»»»»»»»»»»»»»»»»»»»»»»»» Hysteresis Info ««««««««««««««««««««««««««««««««««
Task Name:	Hyst-116
Volts:	10.00
Field:	666.67 (kV/cm)
DCBias:	0.00
DCField:	0.00 (kV/cm)
Hysteresis Period (ms):	2.00e+02
Preset:	Enabled
Preset Delay (ms):	1.00e+03
Profile:	Standard Monopolar

»»»»»»»»»»»»»»»»»»»»»»»»»»»»»»»»»»»»»» Data «««««««««««««««««««««««««««««««««««««««
Points:	2011

Valid Data

Point	Time (ms)	Drive Voltage	Measured Polarization (uC/cm2)	Capacitance (uF)	Normalized Capacitance (uF/cm2)	Dielectric Constant	Instantaneous Current (mA)
   1	0.0000e+00	-0.0012	-16.271095	0.000356	3.563394	0.603655	0.000036
   2	9.9500e-02	0.0067	-16.235656	0.000356	3.563394	0.603655	0.000036
   3	1.9900e-01	0.0165	-16.194921	0.000410	4.095855	0.693857	0.000041
   4	2.9850e-01	0.0257	-16.153780	0.000414	4.136814	0.700795	0.000041
   5	3.9800e-01	0.0359	-16.117119	0.000369	3.686270	0.624471	0.000037
   6	4.9750e-01	0.0451	-16.075977	0.000414	4.136814	0.700795	0.000041
   7	5.9700e-01	0.0523	-16.038095	0.000381	3.809145	0.645287	0.000038
   8	6.9650e-01	0.0661	-15.998990	0.000393	3.932021	0.666102	0.000039
   9	7.9600e-01	0.0725	-15.958255	0.000410	4.095855	0.693857	0.000041
  10	8.9550e-01	0.0841	-15.920780	0.000377	3.768187	0.638348	0.000038
  11	9.9500e-01	0.0966	-15.882897	0.000381	3.809145	0.645287	0.000038
  12	1.0945e+00	0.1027	-15.846644	0.000365	3.645311	0.617532	0.000036
  13	1.1940e+00	0.1138	-15.808353	0.000385	3.850104	0.652225	0.000038
  14	1.2935e+00	0.1240	-15.768434	0.000401	4.013938	0.679979	0.000040
  15	1.3930e+00	0.1358	-15.732588	0.000360	3.604352	0.610594	0.000036
  16	1.4925e+00	0.1437	-15.690224	0.000426	4.259689	0.721611	0.000043
  17	1.5920e+00	0.1550	-15.651527	0.000389	3.891062	0.659164	0.000039
  18	1.6915e+00	0.1644	-15.611607	0.000401	4.013938	0.679979	0.000040
  19	1.7910e+00	0.1723	-15.577798	0.000340	3.399560	0.575901	0.000034
  20	1.8905e+00	0.1863	-15.537471	0.000405	4.054897	0.686918	0.000041
  21	1.9900e+00	0.1962	-15.498366	0.000393	3.932021	0.666102	0.000039
  22	2.0895e+00	0.2059	-15.460076	0.000385	3.850104	0.652225	0.000038
  23	2.1890e+00	0.2139	-15.427488	0.000328	3.276684	0.555085	0.000033
  24	2.2885e+00	0.2242	-15.384717	0.000430	4.300648	0.728549	0.000043
  25	2.3880e+00	0.2354	-15.348871	0.000360	3.604352	0.610594	0.000036
  26	2.4875e+00	0.2431	-15.309766	0.000393	3.932021	0.666102	0.000039
  27	2.5870e+00	0.2544	-15.274735	0.000352	3.522435	0.596717	0.000035
  28	2.6865e+00	0.2654	-15.237666	0.000373	3.727228	0.631410	0.000037
  29	2.7860e+00	0.2774	-15.197340	0.000405	4.054897	0.686918	0.000041
  30	2.8855e+00	0.2845	-15.159864	0.000377	3.768187	0.638348	0.000038
  31	2.9850e+00	0.2937	-15.117908	0.000422	4.218731	0.714672	0.000042
  32	3.0845e+00	0.3011	-15.085320	0.000328	3.276684	0.555085	0.000033
  33	3.1840e+00	0.3127	-15.045808	0.000397	3.972979	0.673041	0.000040
  34	3.2835e+00	0.3233	-15.006703	0.000393	3.932021	0.666102	0.000039
  35	3.3830e+00	0.3370	-14.969228	0.000377	3.768187	0.638348	0.000038
  36	3.4825e+00	0.3444	-14.930938	0.000385	3.850104	0.652225	0.000038
  37	3.5820e+00	0.3531	-14.895906	0.000352	3.522435	0.596717	0.000035
  38	3.6815e+00	0.3631	-14.855579	0.000405	4.054897	0.686918	0.000041
  39	3.7810e+00	0.3738	-14.819326	0.000365	3.645311	0.617532	0.000036
  40	3.8805e+00	0.3822	-14.786331	0.000332	3.317643	0.562024	0.000033
  41	3.9800e+00	0.3917	-14.743967	0.000426	4.259689	0.721611	0.000043
  42	4.0795e+00	0.4032	-14.708529	0.000356	3.563394	0.603655	0.000036
  43	4.1790e+00	0.4129	-14.668202	0.000405	4.054897	0.686918	0.000041
  44	4.2785e+00	0.4179	-14.631541	0.000369	3.686270	0.624471	0.000037
  45	4.3780e+00	0.4333	-14.591214	0.000405	4.054897	0.686918	0.000041
  46	4.4775e+00	0.4440	-14.555368	0.000360	3.604352	0.610594	0.000036
  47	4.5770e+00	0.4514	-14.517485	0.000381	3.809145	0.645287	0.000038
  48	4.6765e+00	0.4659	-14.480824	0.000369	3.686270	0.624471	0.000037
  49	4.7760e+00	0.4711	-14.441719	0.000393	3.932021	0.666102	0.000039
  50	4.8755e+00	0.4822	-14.401392	0.000405	4.054897	0.686918	0.000041
  51	4.9750e+00	0.4952	-14.370434	0.000311	3.112850	0.527331	0.000031
  52	5.0745e+00	0.5009	-14.333773	0.000369	3.686270	0.624471	0.000037
  53	5.1740e+00	0.5145	-14.292224	0.000418	4.177772	0.707734	0.000042
  54	5.2735e+00	0.5224	-14.260044	0.000324	3.235726	0.548147	0.000032
  55	5.3730e+00	0.5339	-14.224606	0.000356	3.563394	0.603655	0.000036
  56	5.4725e+00	0.5424	-14.189574	0.000352	3.522435	0.596717	0.000035
  57	5.5720e+00	0.5506	-14.155357	0.000344	3.440518	0.582840	0.000034
  58	5.6715e+00	0.5637	-14.117474	0.000381	3.809145	0.645287	0.000038
  59	5.7710e+00	0.5726	-14.080814	0.000369	3.686270	0.624471	0.000037
  60	5.8705e+00	0.5831	-14.047004	0.000340	3.399560	0.575901	0.000034
  61	5.9700e+00	0.5946	-14.006270	0.000410	4.095855	0.693857	0.000041
  62	6.0695e+00	0.6013	-13.968387	0.000381	3.809145	0.645287	0.000038
  63	6.1690e+00	0.6142	-13.933356	0.000352	3.522435	0.596717	0.000035
  64	6.2685e+00	0.6238	-13.903620	0.000299	2.989974	0.506515	0.000030
  65	6.3680e+00	0.6332	-13.864515	0.000393	3.932021	0.666102	0.000039
  66	6.4675e+00	0.6435	-13.830705	0.000340	3.399560	0.575901	0.000034
  67	6.5670e+00	0.6538	-13.795674	0.000352	3.522435	0.596717	0.000035
  68	6.6665e+00	0.6651	-13.758606	0.000373	3.727228	0.631410	0.000037
  69	6.7660e+00	0.6721	-13.722352	0.000365	3.645311	0.617532	0.000036
  70	6.8655e+00	0.6826	-13.686913	0.000356	3.563394	0.603655	0.000036
  71	6.9650e+00	0.6918	-13.653919	0.000332	3.317643	0.562024	0.000033
  72	7.0645e+00	0.7009	-13.619295	0.000348	3.481477	0.589778	0.000035
  73	7.1640e+00	0.7125	-13.578968	0.000405	4.054897	0.686918	0.000041
  74	7.2635e+00	0.7214	-13.547602	0.000315	3.153808	0.534270	0.000032
  75	7.3630e+00	0.7307	-13.513385	0.000344	3.440518	0.582840	0.000034
  76	7.4625e+00	0.7420	-13.472244	0.000414	4.136814	0.700795	0.000041
  77	7.5620e+00	0.7522	-13.435583	0.000369	3.686270	0.624471	0.000037
  78	7.6615e+00	0.7620	-13.398922	0.000369	3.686270	0.624471	0.000037
  79	7.7610e+00	0.7713	-13.360225	0.000389	3.891062	0.659164	0.000039
  80	7.8605e+00	0.7838	-13.322749	0.000377	3.768187	0.638348	0.000038
  81	7.9600e+00	0.7912	-13.291791	0.000311	3.112850	0.527331	0.000031
  82	8.0595e+00	0.7999	-13.256352	0.000356	3.563394	0.603655	0.000036
  83	8.1590e+00	0.8140	-13.218877	0.000377	3.768187	0.638348	0.000038
  84	8.2585e+00	0.8227	-13.181401	0.000377	3.768187	0.638348	0.000038
  85	8.3580e+00	0.8315	-13.146370	0.000352	3.522435	0.596717	0.000035
  86	8.4575e+00	0.8405	-13.105636	0.000410	4.095855	0.693857	0.000041
  87	8.5570e+00	0.8543	-13.072233	0.000336	3.358601	0.568962	0.000034
  88	8.6565e+00	0.8634	-13.033536	0.000389	3.891062	0.659164	0.000039
  89	8.7560e+00	0.8700	-12.993209	0.000405	4.054897	0.686918	0.000041
  90	8.8555e+00	0.8820	-12.960214	0.000332	3.317643	0.562024	0.000033
  91	8.9550e+00	0.8911	-12.921517	0.000389	3.891062	0.659164	0.000039
  92	9.0545e+00	0.9014	-12.881190	0.000405	4.054897	0.686918	0.000041
  93	9.1540e+00	0.9106	-12.840863	0.000405	4.054897	0.686918	0.000041
  94	9.2535e+00	0.9225	-12.801351	0.000397	3.972979	0.673041	0.000040
  95	9.3530e+00	0.9309	-12.764690	0.000369	3.686270	0.624471	0.000037
  96	9.4525e+00	0.9383	-12.729658	0.000352	3.522435	0.596717	0.000035
  97	9.5520e+00	0.9533	-12.689331	0.000405	4.054897	0.686918	0.000041
  98	9.6515e+00	0.9579	-12.651856	0.000377	3.768187	0.638348	0.000038
  99	9.7510e+00	0.9698	-12.613158	0.000389	3.891062	0.659164	0.000039
 100	9.8505e+00	0.9826	-12.574054	0.000393	3.932021	0.666102	0.000039
 101	9.9500e+00	0.9912	-12.537393	0.000369	3.686270	0.624471	0.000037
 102	1.0050e+01	0.9985	-12.499103	0.000385	3.850104	0.652225	0.000038
 103	1.0149e+01	1.0091	-12.457146	0.000422	4.218731	0.714672	0.000042
 104	1.0248e+01	1.0192	-12.422929	0.000344	3.440518	0.582840	0.000034
 105	1.0348e+01	1.0292	-12.379751	0.000434	4.341606	0.735488	0.000043
 106	1.0447e+01	1.0384	-12.340646	0.000393	3.932021	0.666102	0.000039
 107	1.0547e+01	1.0505	-12.302763	0.000381	3.809145	0.645287	0.000038
 108	1.0646e+01	1.0602	-12.261214	0.000418	4.177772	0.707734	0.000042
 109	1.0746e+01	1.0695	-12.227405	0.000340	3.399560	0.575901	0.000034
 110	1.0845e+01	1.0822	-12.187485	0.000401	4.013938	0.679979	0.000040
 111	1.0945e+01	1.0892	-12.144307	0.000434	4.341606	0.735488	0.000043
 112	1.1044e+01	1.1012	-12.110090	0.000344	3.440518	0.582840	0.000034
 113	1.1144e+01	1.1127	-12.068541	0.000418	4.177772	0.707734	0.000042
 114	1.1243e+01	1.1201	-12.029029	0.000397	3.972979	0.673041	0.000040
 115	1.1343e+01	1.1300	-11.991554	0.000377	3.768187	0.638348	0.000038
 116	1.1443e+01	1.1401	-11.951227	0.000405	4.054897	0.686918	0.000041
 117	1.1542e+01	1.1486	-11.911715	0.000397	3.972979	0.673041	0.000040
 118	1.1642e+01	1.1592	-11.875461	0.000365	3.645311	0.617532	0.000036
 119	1.1741e+01	1.1703	-11.835542	0.000401	4.013938	0.679979	0.000040
 120	1.1841e+01	1.1787	-11.794807	0.000410	4.095855	0.693857	0.000041
 121	1.1940e+01	1.1894	-11.755295	0.000397	3.972979	0.673041	0.000040
 122	1.2040e+01	1.2009	-11.716597	0.000389	3.891062	0.659164	0.000039
 123	1.2139e+01	1.2106	-11.677085	0.000397	3.972979	0.673041	0.000040
 124	1.2239e+01	1.2164	-11.640424	0.000369	3.686270	0.624471	0.000037
 125	1.2338e+01	1.2312	-11.596839	0.000438	4.382565	0.742427	0.000044
 126	1.2438e+01	1.2394	-11.557327	0.000397	3.972979	0.673041	0.000040
 127	1.2537e+01	1.2495	-11.520258	0.000373	3.727228	0.631410	0.000037
 128	1.2636e+01	1.2592	-11.481561	0.000389	3.891062	0.659164	0.000039
 129	1.2736e+01	1.2708	-11.444493	0.000373	3.727228	0.631410	0.000037
 130	1.2835e+01	1.2781	-11.406202	0.000385	3.850104	0.652225	0.000038
 131	1.2935e+01	1.2868	-11.369542	0.000369	3.686270	0.624471	0.000037
 132	1.3034e+01	1.3024	-11.330437	0.000393	3.932021	0.666102	0.000039
 133	1.3134e+01	1.3101	-11.290517	0.000401	4.013938	0.679979	0.000040
 134	1.3233e+01	1.3175	-11.252227	0.000385	3.850104	0.652225	0.000038
 135	1.3333e+01	1.3289	-11.209049	0.000434	4.341606	0.735488	0.000043
 136	1.3432e+01	1.3377	-11.170351	0.000389	3.891062	0.659164	0.000039
 137	1.3532e+01	1.3499	-11.132468	0.000381	3.809145	0.645287	0.000038
 138	1.3632e+01	1.3600	-11.087253	0.000455	4.546399	0.770181	0.000045
 139	1.3731e+01	1.3697	-11.047334	0.000401	4.013938	0.679979	0.000040
 140	1.3831e+01	1.3763	-11.006599	0.000410	4.095855	0.693857	0.000041
 141	1.3930e+01	1.3914	-10.965458	0.000414	4.136814	0.700795	0.000041
 142	1.4030e+01	1.3995	-10.925131	0.000405	4.054897	0.686918	0.000041
 143	1.4129e+01	1.4100	-10.885211	0.000401	4.013938	0.679979	0.000040
 144	1.4229e+01	1.4182	-10.849773	0.000356	3.563394	0.603655	0.000036
 145	1.4328e+01	1.4285	-10.809038	0.000410	4.095855	0.693857	0.000041
 146	1.4428e+01	1.4358	-10.769933	0.000393	3.932021	0.666102	0.000039
 147	1.4527e+01	1.4490	-10.731236	0.000389	3.891062	0.659164	0.000039
 148	1.4627e+01	1.4577	-10.688058	0.000434	4.341606	0.735488	0.000043
 149	1.4726e+01	1.4684	-10.648138	0.000401	4.013938	0.679979	0.000040
 150	1.4825e+01	1.4788	-10.604960	0.000434	4.341606	0.735488	0.000043
 151	1.4925e+01	1.4890	-10.565855	0.000393	3.932021	0.666102	0.000039
 152	1.5024e+01	1.4974	-10.527972	0.000381	3.809145	0.645287	0.000038
 153	1.5124e+01	1.5084	-10.481535	0.000467	4.669275	0.790997	0.000047
 154	1.5223e+01	1.5178	-10.441208	0.000405	4.054897	0.686918	0.000041
 155	1.5323e+01	1.5269	-10.400881	0.000405	4.054897	0.686918	0.000041
 156	1.5422e+01	1.5356	-10.362591	0.000385	3.850104	0.652225	0.000038
 157	1.5522e+01	1.5469	-10.321449	0.000414	4.136814	0.700795	0.000041
 158	1.5621e+01	1.5569	-10.283159	0.000385	3.850104	0.652225	0.000038
 159	1.5721e+01	1.5697	-10.243239	0.000401	4.013938	0.679979	0.000040
 160	1.5820e+01	1.5765	-10.204949	0.000385	3.850104	0.652225	0.000038
 161	1.5920e+01	1.5872	-10.167474	0.000377	3.768187	0.638348	0.000038
 162	1.6020e+01	1.5961	-10.126740	0.000410	4.095855	0.693857	0.000041
 163	1.6119e+01	1.6070	-10.089264	0.000377	3.768187	0.638348	0.000038
 164	1.6218e+01	1.6153	-10.049752	0.000397	3.972979	0.673041	0.000040
 165	1.6318e+01	1.6274	-10.006166	0.000438	4.382565	0.742427	0.000044
 166	1.6418e+01	1.6374	-9.966247	0.000401	4.013938	0.679979	0.000040
 167	1.6517e+01	1.6491	-9.929993	0.000365	3.645311	0.617532	0.000036
 168	1.6616e+01	1.6578	-9.886000	0.000442	4.423523	0.749365	0.000044
 169	1.6716e+01	1.6645	-9.853005	0.000332	3.317643	0.562024	0.000033
 170	1.6816e+01	1.6787	-9.808605	0.000446	4.464482	0.756304	0.000045
 171	1.6915e+01	1.6879	-9.772351	0.000365	3.645311	0.617532	0.000036
 172	1.7015e+01	1.6949	-9.731617	0.000410	4.095855	0.693857	0.000041
 173	1.7114e+01	1.7070	-9.696993	0.000348	3.481477	0.589778	0.000035
 174	1.7213e+01	1.7156	-9.657481	0.000397	3.972979	0.673041	0.000040
 175	1.7313e+01	1.7272	-9.624486	0.000332	3.317643	0.562024	0.000033
 176	1.7413e+01	1.7364	-9.581308	0.000434	4.341606	0.735488	0.000043
 177	1.7512e+01	1.7456	-9.547091	0.000344	3.440518	0.582840	0.000034
 178	1.7611e+01	1.7556	-9.507171	0.000401	4.013938	0.679979	0.000040
 179	1.7711e+01	1.7677	-9.472140	0.000352	3.522435	0.596717	0.000035
 180	1.7811e+01	1.7745	-9.436701	0.000356	3.563394	0.603655	0.000036
 181	1.7910e+01	1.7859	-9.399633	0.000373	3.727228	0.631410	0.000037
 182	1.8009e+01	1.7974	-9.365416	0.000344	3.440518	0.582840	0.000034
 183	1.8109e+01	1.8113	-9.325904	0.000397	3.972979	0.673041	0.000040
 184	1.8209e+01	1.8176	-9.295353	0.000307	3.071891	0.520392	0.000031
 185	1.8308e+01	1.8249	-9.256248	0.000393	3.932021	0.666102	0.000039
 186	1.8407e+01	1.8358	-9.217958	0.000385	3.850104	0.652225	0.000038
 187	1.8507e+01	1.8452	-9.180890	0.000373	3.727228	0.631410	0.000037
 188	1.8607e+01	1.8559	-9.145859	0.000352	3.522435	0.596717	0.000035
 189	1.8706e+01	1.8693	-9.110012	0.000360	3.604352	0.610594	0.000036
 190	1.8805e+01	1.8747	-9.073352	0.000369	3.686270	0.624471	0.000037
 191	1.8905e+01	1.8865	-9.042801	0.000307	3.071891	0.520392	0.000031
 192	1.9005e+01	1.8928	-9.003289	0.000397	3.972979	0.673041	0.000040
 193	1.9104e+01	1.9093	-8.970294	0.000332	3.317643	0.562024	0.000033
 194	1.9203e+01	1.9150	-8.934041	0.000365	3.645311	0.617532	0.000036
 195	1.9303e+01	1.9287	-8.896158	0.000381	3.809145	0.645287	0.000038
 196	1.9402e+01	1.9361	-8.859497	0.000369	3.686270	0.624471	0.000037
 197	1.9502e+01	1.9467	-8.825280	0.000344	3.440518	0.582840	0.000034
 198	1.9602e+01	1.9557	-8.788619	0.000369	3.686270	0.624471	0.000037
 199	1.9701e+01	1.9646	-8.755624	0.000332	3.317643	0.562024	0.000033
 200	1.9800e+01	1.9754	-8.716112	0.000397	3.972979	0.673041	0.000040
 201	1.9900e+01	1.9872	-8.682303	0.000340	3.399560	0.575901	0.000034
 202	2.0000e+01	1.9968	-8.651752	0.000307	3.071891	0.520392	0.000031
 203	2.0099e+01	2.0071	-8.612240	0.000397	3.972979	0.673041	0.000040
 204	2.0198e+01	2.0139	-8.576394	0.000360	3.604352	0.610594	0.000036
 205	2.0298e+01	2.0242	-8.539733	0.000369	3.686270	0.624471	0.000037
 206	2.0398e+01	2.0344	-8.507960	0.000319	3.194767	0.541208	0.000032
 207	2.0497e+01	2.0465	-8.469670	0.000385	3.850104	0.652225	0.000038
 208	2.0596e+01	2.0549	-8.440341	0.000295	2.949016	0.499577	0.000029
 209	2.0696e+01	2.0641	-8.404903	0.000356	3.563394	0.603655	0.000036
 210	2.0796e+01	2.0754	-8.364983	0.000401	4.013938	0.679979	0.000040
 211	2.0895e+01	2.0868	-8.329952	0.000352	3.522435	0.596717	0.000035
 212	2.0994e+01	2.0947	-8.298179	0.000319	3.194767	0.541208	0.000032
 213	2.1094e+01	2.1037	-8.261518	0.000369	3.686270	0.624471	0.000037
 214	2.1194e+01	2.1132	-8.227709	0.000340	3.399560	0.575901	0.000034
 215	2.1293e+01	2.1239	-8.193492	0.000344	3.440518	0.582840	0.000034
 216	2.1392e+01	2.1339	-8.158460	0.000352	3.522435	0.596717	0.000035
 217	2.1492e+01	2.1464	-8.122207	0.000365	3.645311	0.617532	0.000036
 218	2.1591e+01	2.1532	-8.091249	0.000311	3.112850	0.527331	0.000031
 219	2.1691e+01	2.1639	-8.056217	0.000352	3.522435	0.596717	0.000035
 220	2.1791e+01	2.1766	-8.024037	0.000324	3.235726	0.548147	0.000032
 221	2.1890e+01	2.1865	-7.990635	0.000336	3.358601	0.568962	0.000034
 222	2.1989e+01	2.1946	-7.958455	0.000324	3.235726	0.548147	0.000032
 223	2.2089e+01	2.2047	-7.924238	0.000344	3.440518	0.582840	0.000034
 224	2.2189e+01	2.2142	-7.892058	0.000324	3.235726	0.548147	0.000032
 225	2.2288e+01	2.2237	-7.857434	0.000348	3.481477	0.589778	0.000035
 226	2.2387e+01	2.2339	-7.821995	0.000356	3.563394	0.603655	0.000036
 227	2.2487e+01	2.2433	-7.792667	0.000295	2.949016	0.499577	0.000029
 228	2.2587e+01	2.2546	-7.754784	0.000381	3.809145	0.645287	0.000038
 229	2.2686e+01	2.2659	-7.723011	0.000319	3.194767	0.541208	0.000032
 230	2.2785e+01	2.2752	-7.692053	0.000311	3.112850	0.527331	0.000031
 231	2.2885e+01	2.2851	-7.661502	0.000307	3.071891	0.520392	0.000031
 232	2.2985e+01	2.2935	-7.625249	0.000365	3.645311	0.617532	0.000036
 233	2.3084e+01	2.3017	-7.592254	0.000332	3.317643	0.562024	0.000033
 234	2.3183e+01	2.3114	-7.562518	0.000299	2.989974	0.506515	0.000030
 235	2.3283e+01	2.3248	-7.529116	0.000336	3.358601	0.568962	0.000034
 236	2.3383e+01	2.3304	-7.498565	0.000307	3.071891	0.520392	0.000031
 237	2.3482e+01	2.3418	-7.464349	0.000344	3.440518	0.582840	0.000034
 238	2.3581e+01	2.3516	-7.432983	0.000315	3.153808	0.534270	0.000032
 239	2.3681e+01	2.3617	-7.400803	0.000324	3.235726	0.548147	0.000032
 240	2.3780e+01	2.3749	-7.369845	0.000311	3.112850	0.527331	0.000031
 241	2.3880e+01	2.3840	-7.331555	0.000385	3.850104	0.652225	0.000038
 242	2.3980e+01	2.3922	-7.304670	0.000270	2.703264	0.457945	0.000027
 243	2.4079e+01	2.4042	-7.270046	0.000348	3.481477	0.589778	0.000035
 244	2.4178e+01	2.4140	-7.235829	0.000344	3.440518	0.582840	0.000034
 245	2.4278e+01	2.4220	-7.200798	0.000352	3.522435	0.596717	0.000035
 246	2.4378e+01	2.4320	-7.170655	0.000303	3.030933	0.513454	0.000030
 247	2.4477e+01	2.4416	-7.137660	0.000332	3.317643	0.562024	0.000033
 248	2.4576e+01	2.4545	-7.104665	0.000332	3.317643	0.562024	0.000033
 249	2.4676e+01	2.4604	-7.076151	0.000287	2.867099	0.485700	0.000029
 250	2.4776e+01	2.4722	-7.041527	0.000348	3.481477	0.589778	0.000035
 251	2.4875e+01	2.4825	-7.004866	0.000369	3.686270	0.624471	0.000037
 252	2.4974e+01	2.4930	-6.969427	0.000356	3.563394	0.603655	0.000036
 253	2.5074e+01	2.5026	-6.938062	0.000315	3.153808	0.534270	0.000032
 254	2.5174e+01	2.5127	-6.907919	0.000303	3.030933	0.513454	0.000030
 255	2.5273e+01	2.5233	-6.873702	0.000344	3.440518	0.582840	0.000034
 256	2.5372e+01	2.5307	-6.840707	0.000332	3.317643	0.562024	0.000033
 257	2.5472e+01	2.5410	-6.805268	0.000356	3.563394	0.603655	0.000036
 258	2.5572e+01	2.5533	-6.768200	0.000373	3.727228	0.631410	0.000037
 259	2.5671e+01	2.5626	-6.736020	0.000324	3.235726	0.548147	0.000032
 260	2.5770e+01	2.5722	-6.701803	0.000344	3.440518	0.582840	0.000034
 261	2.5870e+01	2.5826	-6.665957	0.000360	3.604352	0.610594	0.000036
 262	2.5970e+01	2.5938	-6.630111	0.000360	3.604352	0.610594	0.000036
 263	2.6069e+01	2.6013	-6.597524	0.000328	3.276684	0.555085	0.000033
 264	2.6169e+01	2.6126	-6.559641	0.000381	3.809145	0.645287	0.000038
 265	2.6268e+01	2.6218	-6.524202	0.000356	3.563394	0.603655	0.000036
 266	2.6367e+01	2.6315	-6.489171	0.000352	3.522435	0.596717	0.000035
 267	2.6467e+01	2.6434	-6.454139	0.000352	3.522435	0.596717	0.000035
 268	2.6567e+01	2.6502	-6.423181	0.000311	3.112850	0.527331	0.000031
 269	2.6666e+01	2.6605	-6.388557	0.000348	3.481477	0.589778	0.000035
 270	2.6765e+01	2.6760	-6.355562	0.000332	3.317643	0.562024	0.000033
 271	2.6865e+01	2.6823	-6.316050	0.000397	3.972979	0.673041	0.000040
 272	2.6965e+01	2.6926	-6.279796	0.000365	3.645311	0.617532	0.000036
 273	2.7064e+01	2.7058	-6.245987	0.000340	3.399560	0.575901	0.000034
 274	2.7163e+01	2.7112	-6.210956	0.000352	3.522435	0.596717	0.000035
 275	2.7263e+01	2.7209	-6.175517	0.000356	3.563394	0.603655	0.000036
 276	2.7363e+01	2.7328	-6.137227	0.000385	3.850104	0.652225	0.000038
 277	2.7462e+01	2.7425	-6.107898	0.000295	2.949016	0.499577	0.000029
 278	2.7561e+01	2.7534	-6.068793	0.000393	3.932021	0.666102	0.000039
 279	2.7661e+01	2.7615	-6.036613	0.000324	3.235726	0.548147	0.000032
 280	2.7761e+01	2.7731	-6.001989	0.000348	3.481477	0.589778	0.000035
 281	2.7860e+01	2.7766	-5.963291	0.000389	3.891062	0.659164	0.000039
 282	2.7959e+01	2.7894	-5.931926	0.000315	3.153808	0.534270	0.000032
 283	2.8059e+01	2.8021	-5.895672	0.000365	3.645311	0.617532	0.000036
 284	2.8159e+01	2.8123	-5.859419	0.000365	3.645311	0.617532	0.000036
 285	2.8258e+01	2.8238	-5.820721	0.000389	3.891062	0.659164	0.000039
 286	2.8358e+01	2.8344	-5.790171	0.000307	3.071891	0.520392	0.000031
 287	2.8457e+01	2.8423	-5.753917	0.000365	3.645311	0.617532	0.000036
 288	2.8556e+01	2.8475	-5.720108	0.000340	3.399560	0.575901	0.000034
 289	2.8656e+01	2.8587	-5.681003	0.000393	3.932021	0.666102	0.000039
 290	2.8756e+01	2.8699	-5.647601	0.000336	3.358601	0.568962	0.000034
 291	2.8855e+01	2.8796	-5.613791	0.000340	3.399560	0.575901	0.000034
 292	2.8954e+01	2.8918	-5.574279	0.000397	3.972979	0.673041	0.000040
 293	2.9054e+01	2.9005	-5.538840	0.000356	3.563394	0.603655	0.000036
 294	2.9154e+01	2.9088	-5.505846	0.000332	3.317643	0.562024	0.000033
 295	2.9253e+01	2.9224	-5.467963	0.000381	3.809145	0.645287	0.000038
 296	2.9352e+01	2.9305	-5.434153	0.000340	3.399560	0.575901	0.000034
 297	2.9452e+01	2.9423	-5.399937	0.000344	3.440518	0.582840	0.000034
 298	2.9552e+01	2.9517	-5.366127	0.000340	3.399560	0.575901	0.000034
 299	2.9651e+01	2.9610	-5.327837	0.000385	3.850104	0.652225	0.000038
 300	2.9750e+01	2.9707	-5.293213	0.000348	3.481477	0.589778	0.000035
 301	2.9850e+01	2.9814	-5.259403	0.000340	3.399560	0.575901	0.000034
 302	2.9950e+01	2.9893	-5.221928	0.000377	3.768187	0.638348	0.000038
 303	3.0049e+01	3.0007	-5.188933	0.000332	3.317643	0.562024	0.000033
 304	3.0148e+01	3.0100	-5.151050	0.000381	3.809145	0.645287	0.000038
 305	3.0248e+01	3.0199	-5.111945	0.000393	3.932021	0.666102	0.000039
 306	3.0348e+01	3.0309	-5.076914	0.000352	3.522435	0.596717	0.000035
 307	3.0447e+01	3.0392	-5.040660	0.000365	3.645311	0.617532	0.000036
 308	3.0547e+01	3.0508	-5.004407	0.000365	3.645311	0.617532	0.000036
 309	3.0646e+01	3.0605	-4.970597	0.000340	3.399560	0.575901	0.000034
 310	3.0745e+01	3.0717	-4.931900	0.000389	3.891062	0.659164	0.000039
 311	3.0845e+01	3.0817	-4.894832	0.000373	3.727228	0.631410	0.000037
 312	3.0945e+01	3.0898	-4.863059	0.000319	3.194767	0.541208	0.000032
 313	3.1044e+01	3.1008	-4.828842	0.000344	3.440518	0.582840	0.000034
 314	3.1143e+01	3.1139	-4.785257	0.000438	4.382565	0.742427	0.000044
 315	3.1243e+01	3.1216	-4.753484	0.000319	3.194767	0.541208	0.000032
 316	3.1343e+01	3.1302	-4.713972	0.000397	3.972979	0.673041	0.000040
 317	3.1442e+01	3.1419	-4.677718	0.000365	3.645311	0.617532	0.000036
 318	3.1541e+01	3.1498	-4.642279	0.000356	3.563394	0.603655	0.000036
 319	3.1641e+01	3.1621	-4.605619	0.000369	3.686270	0.624471	0.000037
 320	3.1741e+01	3.1693	-4.570994	0.000348	3.481477	0.589778	0.000035
 321	3.1840e+01	3.1794	-4.529446	0.000418	4.177772	0.707734	0.000042
 322	3.1939e+01	3.1913	-4.495229	0.000344	3.440518	0.582840	0.000034
 323	3.2039e+01	3.2018	-4.458161	0.000373	3.727228	0.631410	0.000037
 324	3.2139e+01	3.2113	-4.419870	0.000385	3.850104	0.652225	0.000038
 325	3.2238e+01	3.2185	-4.386876	0.000332	3.317643	0.562024	0.000033
 326	3.2337e+01	3.2314	-4.351029	0.000360	3.604352	0.610594	0.000036
 327	3.2437e+01	3.2389	-4.316813	0.000344	3.440518	0.582840	0.000034
 328	3.2536e+01	3.2471	-4.283003	0.000340	3.399560	0.575901	0.000034
 329	3.2636e+01	3.2584	-4.245528	0.000377	3.768187	0.638348	0.000038
 330	3.2736e+01	3.2679	-4.209274	0.000365	3.645311	0.617532	0.000036
 331	3.2835e+01	3.2813	-4.175872	0.000336	3.358601	0.568962	0.000034
 332	3.2934e+01	3.2887	-4.140841	0.000352	3.522435	0.596717	0.000035
 333	3.3034e+01	3.2984	-4.103773	0.000373	3.727228	0.631410	0.000037
 334	3.3133e+01	3.3111	-4.067112	0.000369	3.686270	0.624471	0.000037
 335	3.3233e+01	3.3193	-4.034524	0.000328	3.276684	0.555085	0.000033
 336	3.3333e+01	3.3295	-3.999493	0.000352	3.522435	0.596717	0.000035
 337	3.3432e+01	3.3382	-3.964054	0.000356	3.563394	0.603655	0.000036
 338	3.3532e+01	3.3483	-3.931874	0.000324	3.235726	0.548147	0.000032
 339	3.3631e+01	3.3607	-3.896028	0.000360	3.604352	0.610594	0.000036
 340	3.3730e+01	3.3694	-3.863033	0.000332	3.317643	0.562024	0.000033
 341	3.3830e+01	3.3788	-3.825965	0.000373	3.727228	0.631410	0.000037
 342	3.3929e+01	3.3891	-3.792970	0.000332	3.317643	0.562024	0.000033
 343	3.4029e+01	3.3981	-3.762012	0.000311	3.112850	0.527331	0.000031
 344	3.4129e+01	3.4119	-3.724944	0.000373	3.727228	0.631410	0.000037
 345	3.4228e+01	3.4182	-3.693579	0.000315	3.153808	0.534270	0.000032
 346	3.4328e+01	3.4301	-3.660584	0.000332	3.317643	0.562024	0.000033
 347	3.4427e+01	3.4380	-3.628404	0.000324	3.235726	0.548147	0.000032
 348	3.4526e+01	3.4476	-3.594594	0.000340	3.399560	0.575901	0.000034
 349	3.4626e+01	3.4577	-3.564451	0.000303	3.030933	0.513454	0.000030
 350	3.4725e+01	3.4693	-3.530642	0.000340	3.399560	0.575901	0.000034
 351	3.4825e+01	3.4772	-3.500091	0.000307	3.071891	0.520392	0.000031
 352	3.4925e+01	3.4876	-3.468318	0.000319	3.194767	0.541208	0.000032
 353	3.5024e+01	3.4972	-3.432879	0.000356	3.563394	0.603655	0.000036
 354	3.5123e+01	3.5088	-3.401107	0.000319	3.194767	0.541208	0.000032
 355	3.5223e+01	3.5180	-3.370556	0.000307	3.071891	0.520392	0.000031
 356	3.5322e+01	3.5275	-3.338376	0.000324	3.235726	0.548147	0.000032
 357	3.5422e+01	3.5374	-3.306603	0.000319	3.194767	0.541208	0.000032
 358	3.5522e+01	3.5467	-3.273201	0.000336	3.358601	0.568962	0.000034
 359	3.5621e+01	3.5586	-3.243872	0.000295	2.949016	0.499577	0.000029
 360	3.5721e+01	3.5670	-3.216173	0.000279	2.785181	0.471823	0.000028
 361	3.5820e+01	3.5759	-3.181142	0.000352	3.522435	0.596717	0.000035
 362	3.5919e+01	3.5874	-3.150591	0.000307	3.071891	0.520392	0.000031
 363	3.6019e+01	3.5996	-3.120855	0.000299	2.989974	0.506515	0.000030
 364	3.6118e+01	3.6078	-3.085009	0.000360	3.604352	0.610594	0.000036
 365	3.6218e+01	3.6141	-3.055273	0.000299	2.989974	0.506515	0.000030
 366	3.6318e+01	3.6285	-3.020649	0.000348	3.481477	0.589778	0.000035
 367	3.6417e+01	3.6369	-2.992949	0.000279	2.785181	0.471823	0.000028
 368	3.6517e+01	3.6439	-2.959955	0.000332	3.317643	0.562024	0.000033
 369	3.6616e+01	3.6600	-2.927775	0.000324	3.235726	0.548147	0.000032
 370	3.6715e+01	3.6660	-2.898039	0.000299	2.989974	0.506515	0.000030
 371	3.6815e+01	3.6764	-2.866266	0.000319	3.194767	0.541208	0.000032
 372	3.6914e+01	3.6877	-2.837345	0.000291	2.908057	0.492638	0.000029
 373	3.7014e+01	3.6961	-2.806794	0.000307	3.071891	0.520392	0.000031
 374	3.7114e+01	3.7081	-2.774206	0.000328	3.276684	0.555085	0.000033
 375	3.7213e+01	3.7160	-2.742434	0.000319	3.194767	0.541208	0.000032
 376	3.7313e+01	3.7283	-2.710661	0.000319	3.194767	0.541208	0.000032
 377	3.7412e+01	3.7316	-2.684184	0.000266	2.662306	0.451007	0.000027
 378	3.7511e+01	3.7476	-2.649560	0.000348	3.481477	0.589778	0.000035
 379	3.7611e+01	3.7550	-2.619824	0.000299	2.989974	0.506515	0.000030
 380	3.7711e+01	3.7674	-2.591717	0.000283	2.826140	0.478761	0.000028
 381	3.7810e+01	3.7762	-2.559130	0.000328	3.276684	0.555085	0.000033
 382	3.7910e+01	3.7865	-2.527357	0.000319	3.194767	0.541208	0.000032
 383	3.8009e+01	3.7978	-2.495991	0.000315	3.153808	0.534270	0.000032
 384	3.8108e+01	3.8052	-2.468292	0.000279	2.785181	0.471823	0.000028
 385	3.8208e+01	3.8169	-2.436519	0.000319	3.194767	0.541208	0.000032
 386	3.8307e+01	3.8248	-2.405969	0.000307	3.071891	0.520392	0.000031
 387	3.8407e+01	3.8361	-2.379084	0.000270	2.703264	0.457945	0.000027
 388	3.8507e+01	3.8451	-2.349756	0.000295	2.949016	0.499577	0.000029
 389	3.8606e+01	3.8558	-2.318797	0.000311	3.112850	0.527331	0.000031
 390	3.8706e+01	3.8648	-2.293542	0.000254	2.539430	0.430191	0.000025
 391	3.8805e+01	3.8738	-2.266250	0.000274	2.744223	0.464884	0.000027
 392	3.8904e+01	3.8853	-2.234070	0.000324	3.235726	0.548147	0.000032
 393	3.9004e+01	3.8929	-2.204742	0.000295	2.949016	0.499577	0.000029
 394	3.9103e+01	3.9056	-2.176228	0.000287	2.867099	0.485700	0.000029
 395	3.9203e+01	3.9173	-2.146492	0.000299	2.989974	0.506515	0.000030
 396	3.9303e+01	3.9273	-2.115941	0.000307	3.071891	0.520392	0.000031
 397	3.9402e+01	3.9352	-2.083353	0.000328	3.276684	0.555085	0.000033
 398	3.9502e+01	3.9464	-2.059320	0.000242	2.416554	0.409375	0.000024
 399	3.9601e+01	3.9559	-2.026733	0.000328	3.276684	0.555085	0.000033
 400	3.9700e+01	3.9680	-2.000256	0.000266	2.662306	0.451007	0.000027
 401	3.9800e+01	3.9778	-1.969705	0.000307	3.071891	0.520392	0.000031
 402	3.9900e+01	3.9840	-1.945672	0.000242	2.416554	0.409375	0.000024
 403	3.9999e+01	3.9976	-1.913899	0.000319	3.194767	0.541208	0.000032
 404	4.0099e+01	4.0068	-1.891088	0.000229	2.293679	0.388560	0.000023
 405	4.0198e+01	4.0157	-1.860537	0.000307	3.071891	0.520392	0.000031
 406	4.0297e+01	4.0261	-1.836504	0.000242	2.416554	0.409375	0.000024
 407	4.0397e+01	4.0362	-1.806361	0.000303	3.030933	0.513454	0.000030
 408	4.0496e+01	4.0450	-1.777032	0.000295	2.949016	0.499577	0.000029
 409	4.0596e+01	4.0553	-1.747296	0.000299	2.989974	0.506515	0.000030
 410	4.0696e+01	4.0652	-1.721226	0.000262	2.621347	0.444068	0.000026
 411	4.0795e+01	4.0743	-1.690675	0.000307	3.071891	0.520392	0.000031
 412	4.0895e+01	4.0832	-1.662161	0.000287	2.867099	0.485700	0.000029
 413	4.0994e+01	4.0963	-1.629981	0.000324	3.235726	0.548147	0.000032
 414	4.1093e+01	4.1058	-1.599431	0.000307	3.071891	0.520392	0.000031
 415	4.1193e+01	4.1137	-1.574175	0.000254	2.539430	0.430191	0.000025
 416	4.1292e+01	4.1250	-1.547698	0.000266	2.662306	0.451007	0.000027
 417	4.1392e+01	4.1356	-1.514703	0.000332	3.317643	0.562024	0.000033
 418	4.1492e+01	4.1455	-1.488226	0.000266	2.662306	0.451007	0.000027
 419	4.1591e+01	4.1576	-1.458897	0.000295	2.949016	0.499577	0.000029
 420	4.1691e+01	4.1665	-1.430383	0.000287	2.867099	0.485700	0.000029
 421	4.1790e+01	4.1754	-1.401869	0.000287	2.867099	0.485700	0.000029
 422	4.1889e+01	4.1878	-1.370097	0.000319	3.194767	0.541208	0.000032
 423	4.1989e+01	4.1953	-1.340361	0.000299	2.989974	0.506515	0.000030
 424	4.2089e+01	4.2062	-1.308588	0.000319	3.194767	0.541208	0.000032
 425	4.2188e+01	4.2139	-1.278445	0.000303	3.030933	0.513454	0.000030
 426	4.2288e+01	4.2266	-1.249931	0.000287	2.867099	0.485700	0.000029
 427	4.2387e+01	4.2334	-1.219787	0.000303	3.030933	0.513454	0.000030
 428	4.2486e+01	4.2434	-1.185163	0.000348	3.481477	0.589778	0.000035
 429	4.2586e+01	4.2554	-1.154205	0.000311	3.112850	0.527331	0.000031
 430	4.2685e+01	4.2627	-1.127321	0.000270	2.703264	0.457945	0.000027
 431	4.2785e+01	4.2769	-1.093918	0.000336	3.358601	0.568962	0.000034
 432	4.2885e+01	4.2846	-1.067848	0.000262	2.621347	0.444068	0.000026
 433	4.2984e+01	4.2947	-1.032002	0.000360	3.604352	0.610594	0.000036
 434	4.3084e+01	4.3056	-1.001452	0.000307	3.071891	0.520392	0.000031
 435	4.3183e+01	4.3133	-0.973752	0.000279	2.785181	0.471823	0.000028
 436	4.3282e+01	4.3240	-0.940350	0.000336	3.358601	0.568962	0.000034
 437	4.3382e+01	4.3328	-0.907763	0.000328	3.276684	0.555085	0.000033
 438	4.3481e+01	4.3435	-0.876397	0.000315	3.153808	0.534270	0.000032
 439	4.3581e+01	4.3551	-0.851142	0.000254	2.539430	0.430191	0.000025
 440	4.3681e+01	4.3641	-0.814481	0.000369	3.686270	0.624471	0.000037
 441	4.3780e+01	4.3764	-0.785560	0.000291	2.908057	0.492638	0.000029
 442	4.3880e+01	4.3848	-0.754602	0.000311	3.112850	0.527331	0.000031
 443	4.3979e+01	4.3954	-0.723644	0.000311	3.112850	0.527331	0.000031
 444	4.4078e+01	4.4066	-0.689427	0.000344	3.440518	0.582840	0.000034
 445	4.4178e+01	4.4180	-0.659691	0.000299	2.989974	0.506515	0.000030
 446	4.4278e+01	4.4221	-0.629141	0.000307	3.071891	0.520392	0.000031
 447	4.4377e+01	4.4313	-0.601034	0.000283	2.826140	0.478761	0.000028
 448	4.4477e+01	4.4424	-0.566410	0.000348	3.481477	0.589778	0.000035
 449	4.4576e+01	4.4531	-0.535452	0.000311	3.112850	0.527331	0.000031
 450	4.4675e+01	4.4634	-0.505308	0.000303	3.030933	0.513454	0.000030
 451	4.4775e+01	4.4738	-0.472721	0.000328	3.276684	0.555085	0.000033
 452	4.4874e+01	4.4825	-0.443800	0.000291	2.908057	0.492638	0.000029
 453	4.4974e+01	4.4921	-0.412434	0.000315	3.153808	0.534270	0.000032
 454	4.5074e+01	4.5027	-0.377810	0.000348	3.481477	0.589778	0.000035
 455	4.5173e+01	4.5118	-0.346852	0.000311	3.112850	0.527331	0.000031
 456	4.5273e+01	4.5271	-0.317116	0.000299	2.989974	0.506515	0.000030
 457	4.5372e+01	4.5296	-0.283714	0.000336	3.358601	0.568962	0.000034
 458	4.5471e+01	4.5425	-0.251941	0.000319	3.194767	0.541208	0.000032
 459	4.5571e+01	4.5533	-0.216503	0.000356	3.563394	0.603655	0.000036
 460	4.5670e+01	4.5631	-0.189618	0.000270	2.703264	0.457945	0.000027
 461	4.5770e+01	4.5762	-0.156216	0.000336	3.358601	0.568962	0.000034
 462	4.5870e+01	4.5858	-0.125665	0.000307	3.071891	0.520392	0.000031
 463	4.5969e+01	4.5939	-0.095929	0.000299	2.989974	0.506515	0.000030
 464	4.6069e+01	4.6026	-0.064156	0.000319	3.194767	0.541208	0.000032
 465	4.6168e+01	4.6158	-0.031569	0.000328	3.276684	0.555085	0.000033
 466	4.6267e+01	4.6231	-0.000611	0.000311	3.112850	0.527331	0.000031
 467	4.6367e+01	4.6308	0.029940	0.000307	3.071891	0.520392	0.000031
 468	4.6467e+01	4.6392	0.062527	0.000328	3.276684	0.555085	0.000033
 469	4.6566e+01	4.6526	0.095114	0.000328	3.276684	0.555085	0.000033
 470	4.6666e+01	4.6630	0.124850	0.000299	2.989974	0.506515	0.000030
 471	4.6765e+01	4.6728	0.157438	0.000328	3.276684	0.555085	0.000033
 472	4.6864e+01	4.6825	0.189618	0.000324	3.235726	0.548147	0.000032
 473	4.6964e+01	4.6912	0.224242	0.000348	3.481477	0.589778	0.000035
 474	4.7063e+01	4.7005	0.256422	0.000324	3.235726	0.548147	0.000032
 475	4.7163e+01	4.7106	0.287788	0.000315	3.153808	0.534270	0.000032
 476	4.7263e+01	4.7224	0.321597	0.000340	3.399560	0.575901	0.000034
 477	4.7362e+01	4.7309	0.352555	0.000311	3.112850	0.527331	0.000031
 478	4.7462e+01	4.7407	0.385550	0.000332	3.317643	0.562024	0.000033
 479	4.7561e+01	4.7511	0.418544	0.000332	3.317643	0.562024	0.000033
 480	4.7660e+01	4.7632	0.449095	0.000307	3.071891	0.520392	0.000031
 481	4.7760e+01	4.7723	0.480868	0.000319	3.194767	0.541208	0.000032
 482	4.7859e+01	4.7804	0.512233	0.000315	3.153808	0.534270	0.000032
 483	4.7959e+01	4.7912	0.546857	0.000348	3.481477	0.589778	0.000035
 484	4.8059e+01	4.8009	0.576593	0.000299	2.989974	0.506515	0.000030
 485	4.8158e+01	4.8098	0.614476	0.000381	3.809145	0.645287	0.000038
 486	4.8258e+01	4.8206	0.645842	0.000315	3.153808	0.534270	0.000032
 487	4.8357e+01	4.8318	0.676800	0.000311	3.112850	0.527331	0.000031
 488	4.8456e+01	4.8416	0.710202	0.000336	3.358601	0.568962	0.000034
 489	4.8556e+01	4.8524	0.744826	0.000348	3.481477	0.589778	0.000035
 490	4.8656e+01	4.8594	0.777821	0.000332	3.317643	0.562024	0.000033
 491	4.8755e+01	4.8728	0.810815	0.000332	3.317643	0.562024	0.000033
 492	4.8855e+01	4.8826	0.842588	0.000319	3.194767	0.541208	0.000032
 493	4.8954e+01	4.8933	0.870287	0.000279	2.785181	0.471823	0.000028
 494	4.9053e+01	4.9032	0.907356	0.000373	3.727228	0.631410	0.000037
 495	4.9153e+01	4.9104	0.935462	0.000283	2.826140	0.478761	0.000028
 496	4.9252e+01	4.9230	0.967235	0.000319	3.194767	0.541208	0.000032
 497	4.9352e+01	4.9307	1.000637	0.000336	3.358601	0.568962	0.000034
 498	4.9452e+01	4.9421	1.032410	0.000319	3.194767	0.541208	0.000032
 499	4.9551e+01	4.9517	1.064182	0.000319	3.194767	0.541208	0.000032
 500	4.9651e+01	4.9596	1.092696	0.000287	2.867099	0.485700	0.000029
 501	4.9750e+01	4.9702	1.129357	0.000369	3.686270	0.624471	0.000037
 502	4.9849e+01	4.9809	1.157871	0.000287	2.867099	0.485700	0.000029
 503	4.9949e+01	4.9905	1.191681	0.000340	3.399560	0.575901	0.000034
 504	5.0048e+01	4.9987	1.219787	0.000283	2.826140	0.478761	0.000028
 505	5.0148e+01	5.0095	1.255226	0.000356	3.563394	0.603655	0.000036
 506	5.0248e+01	5.0172	1.283740	0.000287	2.867099	0.485700	0.000029
 507	5.0347e+01	5.0310	1.313883	0.000303	3.030933	0.513454	0.000030
 508	5.0447e+01	5.0426	1.341990	0.000283	2.826140	0.478761	0.000028
 509	5.0546e+01	5.0462	1.373763	0.000319	3.194767	0.541208	0.000032
 510	5.0645e+01	5.0581	1.400647	0.000270	2.703264	0.457945	0.000027
 511	5.0745e+01	5.0670	1.430791	0.000303	3.030933	0.513454	0.000030
 512	5.0844e+01	5.0784	1.459305	0.000287	2.867099	0.485700	0.000029
 513	5.0944e+01	5.0893	1.490263	0.000311	3.112850	0.527331	0.000031
 514	5.1044e+01	5.0999	1.515518	0.000254	2.539430	0.430191	0.000025
 515	5.1143e+01	5.1120	1.546476	0.000311	3.112850	0.527331	0.000031
 516	5.1242e+01	5.1191	1.580285	0.000340	3.399560	0.575901	0.000034
 517	5.1342e+01	5.1275	1.607170	0.000270	2.703264	0.457945	0.000027
 518	5.1441e+01	5.1385	1.631203	0.000242	2.416554	0.409375	0.000024
 519	5.1541e+01	5.1498	1.660532	0.000295	2.949016	0.499577	0.000029
 520	5.1641e+01	5.1589	1.692305	0.000319	3.194767	0.541208	0.000032
 521	5.1740e+01	5.1708	1.720411	0.000283	2.826140	0.478761	0.000028
 522	5.1840e+01	5.1768	1.750962	0.000307	3.071891	0.520392	0.000031
 523	5.1939e+01	5.1916	1.777439	0.000266	2.662306	0.451007	0.000027
 524	5.2038e+01	5.1997	1.807990	0.000307	3.071891	0.520392	0.000031
 525	5.2138e+01	5.2082	1.833652	0.000258	2.580389	0.437130	0.000026
 526	5.2237e+01	5.2174	1.862574	0.000291	2.908057	0.492638	0.000029
 527	5.2337e+01	5.2288	1.889458	0.000270	2.703264	0.457945	0.000027
 528	5.2437e+01	5.2387	1.915121	0.000258	2.580389	0.437130	0.000026
 529	5.2536e+01	5.2499	1.945264	0.000303	3.030933	0.513454	0.000030
 530	5.2636e+01	5.2589	1.974186	0.000291	2.908057	0.492638	0.000029
 531	5.2735e+01	5.2708	2.001478	0.000274	2.744223	0.464884	0.000027
 532	5.2834e+01	5.2764	2.028770	0.000274	2.744223	0.464884	0.000027
 533	5.2934e+01	5.2872	2.058098	0.000295	2.949016	0.499577	0.000029
 534	5.3033e+01	5.2981	2.086205	0.000283	2.826140	0.478761	0.000028
 535	5.3133e+01	5.3082	2.111460	0.000254	2.539430	0.430191	0.000025
 536	5.3233e+01	5.3172	2.140381	0.000291	2.908057	0.492638	0.000029
 537	5.3332e+01	5.3315	2.168081	0.000279	2.785181	0.471823	0.000028
 538	5.3431e+01	5.3384	2.194558	0.000266	2.662306	0.451007	0.000027
 539	5.3531e+01	5.3487	2.221850	0.000274	2.744223	0.464884	0.000027
 540	5.3630e+01	5.3584	2.251586	0.000299	2.989974	0.506515	0.000030
 541	5.3730e+01	5.3689	2.278878	0.000274	2.744223	0.464884	0.000027
 542	5.3830e+01	5.3785	2.303726	0.000250	2.498472	0.423253	0.000025
 543	5.3929e+01	5.3905	2.329796	0.000262	2.621347	0.444068	0.000026
 544	5.4029e+01	5.3967	2.359939	0.000303	3.030933	0.513454	0.000030
 545	5.4128e+01	5.4082	2.386009	0.000262	2.621347	0.444068	0.000026
 546	5.4227e+01	5.4194	2.412894	0.000270	2.703264	0.457945	0.000027
 547	5.4327e+01	5.4272	2.440593	0.000279	2.785181	0.471823	0.000028
 548	5.4426e+01	5.4360	2.471144	0.000307	3.071891	0.520392	0.000031
 549	5.4526e+01	5.4509	2.495584	0.000246	2.457513	0.416314	0.000025
 550	5.4626e+01	5.4606	2.522061	0.000266	2.662306	0.451007	0.000027
 551	5.4725e+01	5.4716	2.552612	0.000307	3.071891	0.520392	0.000031
 552	5.4825e+01	5.4783	2.577460	0.000250	2.498472	0.423253	0.000025
 553	5.4924e+01	5.4893	2.603937	0.000266	2.662306	0.451007	0.000027
 554	5.5023e+01	5.4992	2.632451	0.000287	2.867099	0.485700	0.000029
 555	5.5123e+01	5.5083	2.656892	0.000246	2.457513	0.416314	0.000025
 556	5.5222e+01	5.5180	2.684998	0.000283	2.826140	0.478761	0.000028
 557	5.5322e+01	5.5282	2.709439	0.000246	2.457513	0.416314	0.000025
 558	5.5422e+01	5.5380	2.733880	0.000246	2.457513	0.416314	0.000025
 559	5.5521e+01	5.5477	2.757913	0.000242	2.416554	0.409375	0.000024
 560	5.5620e+01	5.5578	2.782761	0.000250	2.498472	0.423253	0.000025
 561	5.5720e+01	5.5701	2.810867	0.000283	2.826140	0.478761	0.000028
 562	5.5819e+01	5.5755	2.838567	0.000279	2.785181	0.471823	0.000028
 563	5.5919e+01	5.5894	2.860563	0.000221	2.211762	0.374683	0.000022
 564	5.6019e+01	5.5950	2.889892	0.000295	2.949016	0.499577	0.000029
 565	5.6118e+01	5.6068	2.916369	0.000266	2.662306	0.451007	0.000027
 566	5.6218e+01	5.6166	2.937958	0.000217	2.170803	0.367744	0.000022
 567	5.6317e+01	5.6272	2.963621	0.000258	2.580389	0.437130	0.000026
 568	5.6416e+01	5.6394	2.989283	0.000258	2.580389	0.437130	0.000026
 569	5.6516e+01	5.6472	3.016168	0.000270	2.703264	0.457945	0.000027
 570	5.6615e+01	5.6570	3.041016	0.000250	2.498472	0.423253	0.000025
 571	5.6715e+01	5.6672	3.065864	0.000250	2.498472	0.423253	0.000025
 572	5.6815e+01	5.6787	3.091526	0.000258	2.580389	0.437130	0.000026
 573	5.6914e+01	5.6866	3.112708	0.000213	2.129845	0.360805	0.000021
 574	5.7014e+01	5.6962	3.135519	0.000229	2.293679	0.388560	0.000023
 575	5.7113e+01	5.7053	3.160367	0.000250	2.498472	0.423253	0.000025
 576	5.7212e+01	5.7167	3.186437	0.000262	2.621347	0.444068	0.000026
 577	5.7312e+01	5.7270	3.213729	0.000274	2.744223	0.464884	0.000027
 578	5.7411e+01	5.7363	3.238577	0.000250	2.498472	0.423253	0.000025
 579	5.7511e+01	5.7500	3.263018	0.000246	2.457513	0.416314	0.000025
 580	5.7611e+01	5.7555	3.292754	0.000299	2.989974	0.506515	0.000030
 581	5.7710e+01	5.7668	3.315972	0.000233	2.334637	0.395498	0.000023
 582	5.7809e+01	5.7774	3.344079	0.000283	2.826140	0.478761	0.000028
 583	5.7909e+01	5.7856	3.370149	0.000262	2.621347	0.444068	0.000026
 584	5.8008e+01	5.7983	3.394589	0.000246	2.457513	0.416314	0.000025
 585	5.8108e+01	5.8074	3.418215	0.000238	2.375596	0.402437	0.000024
 586	5.8208e+01	5.8147	3.445100	0.000270	2.703264	0.457945	0.000027
 587	5.8307e+01	5.8239	3.467503	0.000225	2.252720	0.381621	0.000023
 588	5.8407e+01	5.8356	3.500906	0.000336	3.358601	0.568962	0.000034
 589	5.8506e+01	5.8463	3.522902	0.000221	2.211762	0.374683	0.000022
 590	5.8605e+01	5.8566	3.550601	0.000279	2.785181	0.471823	0.000028
 591	5.8705e+01	5.8659	3.573413	0.000229	2.293679	0.388560	0.000023
 592	5.8804e+01	5.8761	3.603149	0.000299	2.989974	0.506515	0.000030
 593	5.8904e+01	5.8891	3.631255	0.000283	2.826140	0.478761	0.000028
 594	5.9004e+01	5.8932	3.656918	0.000258	2.580389	0.437130	0.000026
 595	5.9103e+01	5.9062	3.682988	0.000262	2.621347	0.444068	0.000026
 596	5.9203e+01	5.9151	3.709872	0.000270	2.703264	0.457945	0.000027
 597	5.9302e+01	5.9246	3.738386	0.000287	2.867099	0.485700	0.000029
 598	5.9401e+01	5.9351	3.769344	0.000311	3.112850	0.527331	0.000031
 599	5.9501e+01	5.9455	3.799080	0.000299	2.989974	0.506515	0.000030
 600	5.9600e+01	5.9576	3.824336	0.000254	2.539430	0.430191	0.000025
 601	5.9700e+01	5.9686	3.850813	0.000266	2.662306	0.451007	0.000027
 602	5.9800e+01	5.9753	3.878105	0.000274	2.744223	0.464884	0.000027
 603	5.9899e+01	5.9861	3.908655	0.000307	3.071891	0.520392	0.000031
 604	5.9998e+01	5.9942	3.933503	0.000250	2.498472	0.423253	0.000025
 605	6.0098e+01	6.0046	3.958759	0.000254	2.539430	0.430191	0.000025
 606	6.0197e+01	6.0171	3.990531	0.000319	3.194767	0.541208	0.000032
 607	6.0297e+01	6.0249	4.019860	0.000295	2.949016	0.499577	0.000029
 608	6.0397e+01	6.0345	4.044708	0.000250	2.498472	0.423253	0.000025
 609	6.0496e+01	6.0432	4.073629	0.000291	2.908057	0.492638	0.000029
 610	6.0596e+01	6.0543	4.100514	0.000270	2.703264	0.457945	0.000027
 611	6.0695e+01	6.0659	4.133509	0.000332	3.317643	0.562024	0.000033
 612	6.0794e+01	6.0757	4.159578	0.000262	2.621347	0.444068	0.000026
 613	6.0894e+01	6.0862	4.186056	0.000266	2.662306	0.451007	0.000027
 614	6.0993e+01	6.0964	4.218643	0.000328	3.276684	0.555085	0.000033
 615	6.1093e+01	6.1047	4.245935	0.000274	2.744223	0.464884	0.000027
 616	6.1193e+01	6.1190	4.274042	0.000283	2.826140	0.478761	0.000028
 617	6.1292e+01	6.1274	4.303370	0.000295	2.949016	0.499577	0.000029
 618	6.1392e+01	6.1333	4.326589	0.000233	2.334637	0.395498	0.000023
 619	6.1491e+01	6.1431	4.357954	0.000315	3.153808	0.534270	0.000032
 620	6.1590e+01	6.1559	4.384432	0.000266	2.662306	0.451007	0.000027
 621	6.1690e+01	6.1640	4.414575	0.000303	3.030933	0.513454	0.000030
 622	6.1789e+01	6.1736	4.439830	0.000254	2.539430	0.430191	0.000025
 623	6.1889e+01	6.1857	4.470381	0.000307	3.071891	0.520392	0.000031
 624	6.1989e+01	6.1936	4.502968	0.000328	3.276684	0.555085	0.000033
 625	6.2088e+01	6.2040	4.527816	0.000250	2.498472	0.423253	0.000025
 626	6.2188e+01	6.2136	4.558367	0.000307	3.071891	0.520392	0.000031
 627	6.2287e+01	6.2231	4.587695	0.000295	2.949016	0.499577	0.000029
 628	6.2386e+01	6.2322	4.617431	0.000299	2.989974	0.506515	0.000030
 629	6.2486e+01	6.2435	4.643501	0.000262	2.621347	0.444068	0.000026
 630	6.2586e+01	6.2549	4.670793	0.000274	2.744223	0.464884	0.000027
 631	6.2685e+01	6.2656	4.699307	0.000287	2.867099	0.485700	0.000029
 632	6.2785e+01	6.2749	4.726192	0.000270	2.703264	0.457945	0.000027
 633	6.2884e+01	6.2849	4.752262	0.000262	2.621347	0.444068	0.000026
 634	6.2983e+01	6.2942	4.784442	0.000324	3.235726	0.548147	0.000032
 635	6.3083e+01	6.3055	4.811734	0.000274	2.744223	0.464884	0.000027
 636	6.3182e+01	6.3165	4.838211	0.000266	2.662306	0.451007	0.000027
 637	6.3282e+01	6.3248	4.869984	0.000319	3.194767	0.541208	0.000032
 638	6.3382e+01	6.3331	4.898091	0.000283	2.826140	0.478761	0.000028
 639	6.3481e+01	6.3422	4.927827	0.000299	2.989974	0.506515	0.000030
 640	6.3581e+01	6.3564	4.957155	0.000295	2.949016	0.499577	0.000029
 641	6.3680e+01	6.3618	4.987706	0.000307	3.071891	0.520392	0.000031
 642	6.3779e+01	6.3725	5.017849	0.000303	3.030933	0.513454	0.000030
 643	6.3879e+01	6.3848	5.045956	0.000283	2.826140	0.478761	0.000028
 644	6.3978e+01	6.3941	5.076099	0.000303	3.030933	0.513454	0.000030
 645	6.4078e+01	6.4022	5.107465	0.000315	3.153808	0.534270	0.000032
 646	6.4177e+01	6.4123	5.135164	0.000279	2.785181	0.471823	0.000028
 647	6.4277e+01	6.4228	5.166122	0.000311	3.112850	0.527331	0.000031
 648	6.4376e+01	6.4352	5.193007	0.000270	2.703264	0.457945	0.000027
 649	6.4476e+01	6.4417	5.223965	0.000311	3.112850	0.527331	0.000031
 650	6.4576e+01	6.4547	5.254108	0.000303	3.030933	0.513454	0.000030
 651	6.4675e+01	6.4603	5.284659	0.000307	3.071891	0.520392	0.000031
 652	6.4775e+01	6.4725	5.312358	0.000279	2.785181	0.471823	0.000028
 653	6.4874e+01	6.4832	5.342909	0.000307	3.071891	0.520392	0.000031
 654	6.4974e+01	6.4910	5.373459	0.000307	3.071891	0.520392	0.000031
 655	6.5073e+01	6.5020	5.403195	0.000299	2.989974	0.506515	0.000030
 656	6.5172e+01	6.5110	5.435375	0.000324	3.235726	0.548147	0.000032
 657	6.5272e+01	6.5224	5.463889	0.000287	2.867099	0.485700	0.000029
 658	6.5371e+01	6.5322	5.496884	0.000332	3.317643	0.562024	0.000033
 659	6.5471e+01	6.5444	5.521325	0.000246	2.457513	0.416314	0.000025
 660	6.5570e+01	6.5502	5.551468	0.000303	3.030933	0.513454	0.000030
 661	6.5670e+01	6.5630	5.583241	0.000319	3.194767	0.541208	0.000032
 662	6.5769e+01	6.5734	5.612569	0.000295	2.949016	0.499577	0.000029
 663	6.5869e+01	6.5834	5.640269	0.000279	2.785181	0.471823	0.000028
 664	6.5969e+01	6.5932	5.670819	0.000307	3.071891	0.520392	0.000031
 665	6.6068e+01	6.6024	5.697297	0.000266	2.662306	0.451007	0.000027
 666	6.6168e+01	6.6106	5.729069	0.000319	3.194767	0.541208	0.000032
 667	6.6267e+01	6.6215	5.754732	0.000258	2.580389	0.437130	0.000026
 668	6.6367e+01	6.6326	5.787319	0.000328	3.276684	0.555085	0.000033
 669	6.6466e+01	6.6424	5.817870	0.000307	3.071891	0.520392	0.000031
 670	6.6566e+01	6.6503	5.845162	0.000274	2.744223	0.464884	0.000027
 671	6.6665e+01	6.6613	5.873676	0.000287	2.867099	0.485700	0.000029
 672	6.6764e+01	6.6683	5.903005	0.000295	2.949016	0.499577	0.000029
 673	6.6864e+01	6.6827	5.930704	0.000279	2.785181	0.471823	0.000028
 674	6.6963e+01	6.6895	5.955959	0.000254	2.539430	0.430191	0.000025
 675	6.7063e+01	6.7022	5.989769	0.000340	3.399560	0.575901	0.000034
 676	6.7162e+01	6.7115	6.015024	0.000254	2.539430	0.430191	0.000025
 677	6.7262e+01	6.7220	6.043538	0.000287	2.867099	0.485700	0.000029
 678	6.7362e+01	6.7330	6.067978	0.000246	2.457513	0.416314	0.000025
 679	6.7461e+01	6.7400	6.099751	0.000319	3.194767	0.541208	0.000032
 680	6.7561e+01	6.7509	6.122155	0.000225	2.252720	0.381621	0.000023
 681	6.7660e+01	6.7631	6.148632	0.000266	2.662306	0.451007	0.000027
 682	6.7760e+01	6.7718	6.175924	0.000274	2.744223	0.464884	0.000027
 683	6.7859e+01	6.7820	6.197921	0.000221	2.211762	0.374683	0.000022
 684	6.7959e+01	6.7931	6.225620	0.000279	2.785181	0.471823	0.000028
 685	6.8058e+01	6.8015	6.254134	0.000287	2.867099	0.485700	0.000029
 686	6.8157e+01	6.8111	6.282648	0.000287	2.867099	0.485700	0.000029
 687	6.8257e+01	6.8224	6.307496	0.000250	2.498472	0.423253	0.000025
 688	6.8356e+01	6.8316	6.333566	0.000262	2.621347	0.444068	0.000026
 689	6.8456e+01	6.8412	6.360450	0.000270	2.703264	0.457945	0.000027
 690	6.8555e+01	6.8485	6.384076	0.000238	2.375596	0.402437	0.000024
 691	6.8655e+01	6.8600	6.414219	0.000303	3.030933	0.513454	0.000030
 692	6.8754e+01	6.8731	6.440697	0.000266	2.662306	0.451007	0.000027
 693	6.8854e+01	6.8816	6.461879	0.000213	2.129845	0.360805	0.000021
 694	6.8954e+01	6.8913	6.491615	0.000299	2.989974	0.506515	0.000030
 695	6.9053e+01	6.9004	6.516462	0.000250	2.498472	0.423253	0.000025
 696	6.9153e+01	6.9082	6.542532	0.000262	2.621347	0.444068	0.000026
 697	6.9252e+01	6.9231	6.568195	0.000258	2.580389	0.437130	0.000026
 698	6.9352e+01	6.9313	6.594265	0.000262	2.621347	0.444068	0.000026
 699	6.9451e+01	6.9405	6.615447	0.000213	2.129845	0.360805	0.000021
 700	6.9550e+01	6.9482	6.645590	0.000303	3.030933	0.513454	0.000030
 701	6.9650e+01	6.9594	6.669623	0.000242	2.416554	0.409375	0.000024
 702	6.9749e+01	6.9704	6.694879	0.000254	2.539430	0.430191	0.000025
 703	6.9849e+01	6.9790	6.718912	0.000242	2.416554	0.409375	0.000024
 704	6.9948e+01	6.9922	6.746204	0.000274	2.744223	0.464884	0.000027
 705	7.0048e+01	7.0002	6.774310	0.000283	2.826140	0.478761	0.000028
 706	7.0147e+01	7.0103	6.800380	0.000262	2.621347	0.444068	0.000026
 707	7.0247e+01	7.0187	6.828487	0.000283	2.826140	0.478761	0.000028
 708	7.0347e+01	7.0293	6.850076	0.000217	2.170803	0.367744	0.000022
 709	7.0446e+01	7.0406	6.872887	0.000229	2.293679	0.388560	0.000023
 710	7.0546e+01	7.0475	6.900586	0.000279	2.785181	0.471823	0.000028
 711	7.0645e+01	7.0591	6.922990	0.000225	2.252720	0.381621	0.000023
 712	7.0745e+01	7.0711	6.950690	0.000279	2.785181	0.471823	0.000028
 713	7.0844e+01	7.0798	6.975945	0.000254	2.539430	0.430191	0.000025
 714	7.0944e+01	7.0913	6.998756	0.000229	2.293679	0.388560	0.000023
 715	7.1043e+01	7.0992	7.022789	0.000242	2.416554	0.409375	0.000024
 716	7.1142e+01	7.1096	7.055377	0.000328	3.276684	0.555085	0.000033
 717	7.1242e+01	7.1217	7.076966	0.000217	2.170803	0.367744	0.000022
 718	7.1341e+01	7.1291	7.100184	0.000233	2.334637	0.395498	0.000023
 719	7.1441e+01	7.1384	7.131550	0.000315	3.153808	0.534270	0.000032
 720	7.1540e+01	7.1476	7.153546	0.000221	2.211762	0.374683	0.000022
 721	7.1640e+01	7.1593	7.175543	0.000221	2.211762	0.374683	0.000022
 722	7.1740e+01	7.1700	7.202835	0.000274	2.744223	0.464884	0.000027
 723	7.1839e+01	7.1793	7.229312	0.000266	2.662306	0.451007	0.000027
 724	7.1939e+01	7.1906	7.248864	0.000197	1.966010	0.333051	0.000020
 725	7.2038e+01	7.1978	7.271676	0.000229	2.293679	0.388560	0.000023
 726	7.2138e+01	7.2100	7.299782	0.000283	2.826140	0.478761	0.000028
 727	7.2237e+01	7.2182	7.322186	0.000225	2.252720	0.381621	0.000023
 728	7.2337e+01	7.2289	7.342961	0.000209	2.088886	0.353867	0.000021
 729	7.2436e+01	7.2405	7.373511	0.000307	3.071891	0.520392	0.000031
 730	7.2535e+01	7.2485	7.393471	0.000201	2.006969	0.339990	0.000020
 731	7.2635e+01	7.2596	7.418726	0.000254	2.539430	0.430191	0.000025
 732	7.2734e+01	7.2695	7.443981	0.000254	2.539430	0.430191	0.000025
 733	7.2834e+01	7.2765	7.468829	0.000250	2.498472	0.423253	0.000025
 734	7.2933e+01	7.2900	7.487160	0.000184	1.843135	0.312235	0.000018
 735	7.3033e+01	7.3028	7.510378	0.000233	2.334637	0.395498	0.000023
 736	7.3132e+01	7.3073	7.532782	0.000225	2.252720	0.381621	0.000023
 737	7.3232e+01	7.3194	7.560889	0.000283	2.826140	0.478761	0.000028
 738	7.3332e+01	7.3293	7.580034	0.000193	1.925052	0.326113	0.000019
 739	7.3431e+01	7.3380	7.603252	0.000233	2.334637	0.395498	0.000023
 740	7.3531e+01	7.3454	7.630544	0.000274	2.744223	0.464884	0.000027
 741	7.3630e+01	7.3573	7.649282	0.000188	1.884093	0.319174	0.000019
 742	7.3730e+01	7.3692	7.673315	0.000242	2.416554	0.409375	0.000024
 743	7.3829e+01	7.3774	7.698163	0.000250	2.498472	0.423253	0.000025
 744	7.3928e+01	7.3869	7.719752	0.000217	2.170803	0.367744	0.000022
 745	7.4028e+01	7.3985	7.745415	0.000258	2.580389	0.437130	0.000026
 746	7.4127e+01	7.4084	7.770263	0.000250	2.498472	0.423253	0.000025
 747	7.4227e+01	7.4165	7.792259	0.000221	2.211762	0.374683	0.000022
 748	7.4326e+01	7.4281	7.819144	0.000270	2.703264	0.457945	0.000027
 749	7.4426e+01	7.4368	7.842362	0.000233	2.334637	0.395498	0.000023
 750	7.4525e+01	7.4498	7.870469	0.000283	2.826140	0.478761	0.000028
 751	7.4625e+01	7.4586	7.893688	0.000233	2.334637	0.395498	0.000023
 752	7.4725e+01	7.4690	7.914055	0.000205	2.047928	0.346928	0.000020
 753	7.4824e+01	7.4767	7.942569	0.000287	2.867099	0.485700	0.000029
 754	7.4924e+01	7.4874	7.968231	0.000258	2.580389	0.437130	0.000026
 755	7.5023e+01	7.4970	7.988191	0.000201	2.006969	0.339990	0.000020
 756	7.5123e+01	7.5086	8.013854	0.000258	2.580389	0.437130	0.000026
 757	7.5222e+01	7.5188	8.039924	0.000262	2.621347	0.444068	0.000026
 758	7.5322e+01	7.5298	8.065586	0.000258	2.580389	0.437130	0.000026
 759	7.5421e+01	7.5368	8.088397	0.000229	2.293679	0.388560	0.000023
 760	7.5520e+01	7.5476	8.118133	0.000299	2.989974	0.506515	0.000030
 761	7.5620e+01	7.5576	8.146647	0.000287	2.867099	0.485700	0.000029
 762	7.5719e+01	7.5677	8.171088	0.000246	2.457513	0.416314	0.000025
 763	7.5819e+01	7.5787	8.194714	0.000238	2.375596	0.402437	0.000024
 764	7.5918e+01	7.5879	8.219969	0.000254	2.539430	0.430191	0.000025
 765	7.6018e+01	7.5977	8.248483	0.000287	2.867099	0.485700	0.000029
 766	7.6118e+01	7.6064	8.276590	0.000283	2.826140	0.478761	0.000028
 767	7.6217e+01	7.6184	8.297771	0.000213	2.129845	0.360805	0.000021
 768	7.6317e+01	7.6260	8.333618	0.000360	3.604352	0.610594	0.000036
 769	7.6416e+01	7.6350	8.356021	0.000225	2.252720	0.381621	0.000023
 770	7.6516e+01	7.6478	8.382499	0.000266	2.662306	0.451007	0.000027
 771	7.6615e+01	7.6575	8.410198	0.000279	2.785181	0.471823	0.000028
 772	7.6715e+01	7.6670	8.437490	0.000274	2.744223	0.464884	0.000027
 773	7.6814e+01	7.6762	8.462338	0.000250	2.498472	0.423253	0.000025
 774	7.6913e+01	7.6885	8.489630	0.000274	2.744223	0.464884	0.000027
 775	7.7013e+01	7.6975	8.519773	0.000303	3.030933	0.513454	0.000030
 776	7.7112e+01	7.7070	8.546250	0.000266	2.662306	0.451007	0.000027
 777	7.7212e+01	7.7172	8.573135	0.000270	2.703264	0.457945	0.000027
 778	7.7311e+01	7.7259	8.604500	0.000315	3.153808	0.534270	0.000032
 779	7.7411e+01	7.7341	8.628534	0.000242	2.416554	0.409375	0.000024
 780	7.7510e+01	7.7442	8.655826	0.000274	2.744223	0.464884	0.000027
 781	7.7610e+01	7.7547	8.684747	0.000291	2.908057	0.492638	0.000029
 782	7.7710e+01	7.7670	8.713261	0.000287	2.867099	0.485700	0.000029
 783	7.7809e+01	7.7748	8.739738	0.000266	2.662306	0.451007	0.000027
 784	7.7909e+01	7.7862	8.768659	0.000291	2.908057	0.492638	0.000029
 785	7.8008e+01	7.7966	8.794729	0.000262	2.621347	0.444068	0.000026
 786	7.8108e+01	7.8056	8.824058	0.000295	2.949016	0.499577	0.000029
 787	7.8207e+01	7.8133	8.853387	0.000295	2.949016	0.499577	0.000029
 788	7.8306e+01	7.8236	8.877827	0.000246	2.457513	0.416314	0.000025
 789	7.8406e+01	7.8381	8.907156	0.000295	2.949016	0.499577	0.000029
 790	7.8505e+01	7.8482	8.936485	0.000295	2.949016	0.499577	0.000029
 791	7.8605e+01	7.8580	8.966628	0.000303	3.030933	0.513454	0.000030
 792	7.8704e+01	7.8642	8.992698	0.000262	2.621347	0.444068	0.000026
 793	7.8804e+01	7.8739	9.020397	0.000279	2.785181	0.471823	0.000028
 794	7.8903e+01	7.8860	9.052170	0.000319	3.194767	0.541208	0.000032
 795	7.9003e+01	7.8941	9.077832	0.000258	2.580389	0.437130	0.000026
 796	7.9103e+01	7.9043	9.105124	0.000274	2.744223	0.464884	0.000027
 797	7.9202e+01	7.9159	9.133231	0.000283	2.826140	0.478761	0.000028
 798	7.9302e+01	7.9265	9.159708	0.000266	2.662306	0.451007	0.000027
 799	7.9401e+01	7.9360	9.189037	0.000295	2.949016	0.499577	0.000029
 800	7.9501e+01	7.9469	9.217551	0.000287	2.867099	0.485700	0.000029
 801	7.9600e+01	7.9572	9.248102	0.000307	3.071891	0.520392	0.000031
 802	7.9700e+01	7.9662	9.274986	0.000270	2.703264	0.457945	0.000027
 803	7.9799e+01	7.9794	9.299427	0.000246	2.457513	0.416314	0.000025
 804	7.9898e+01	7.9842	9.333644	0.000344	3.440518	0.582840	0.000034
 805	7.9998e+01	7.9945	9.364194	0.000307	3.071891	0.520392	0.000031
 806	8.0097e+01	8.0051	9.391894	0.000279	2.785181	0.471823	0.000028
 807	8.0197e+01	8.0151	9.422852	0.000311	3.112850	0.527331	0.000031
 808	8.0296e+01	8.0247	9.456254	0.000336	3.358601	0.568962	0.000034
 809	8.0396e+01	8.0356	9.478658	0.000225	2.252720	0.381621	0.000023
 810	8.0496e+01	8.0449	9.512467	0.000340	3.399560	0.575901	0.000034
 811	8.0595e+01	8.0527	9.540574	0.000283	2.826140	0.478761	0.000028
 812	8.0695e+01	8.0678	9.574790	0.000344	3.440518	0.582840	0.000034
 813	8.0794e+01	8.0730	9.605341	0.000307	3.071891	0.520392	0.000031
 814	8.0894e+01	8.0863	9.631411	0.000262	2.621347	0.444068	0.000026
 815	8.0993e+01	8.0919	9.660740	0.000295	2.949016	0.499577	0.000029
 816	8.1093e+01	8.1055	9.691698	0.000311	3.112850	0.527331	0.000031
 817	8.1192e+01	8.1174	9.723878	0.000324	3.235726	0.548147	0.000032
 818	8.1291e+01	8.1241	9.754021	0.000303	3.030933	0.513454	0.000030
 819	8.1391e+01	8.1336	9.782535	0.000287	2.867099	0.485700	0.000029
 820	8.1490e+01	8.1438	9.811049	0.000287	2.867099	0.485700	0.000029
 821	8.1590e+01	8.1551	9.848117	0.000373	3.727228	0.631410	0.000037
 822	8.1689e+01	8.1646	9.877039	0.000291	2.908057	0.492638	0.000029
 823	8.1789e+01	8.1746	9.908811	0.000319	3.194767	0.541208	0.000032
 824	8.1888e+01	8.1841	9.939769	0.000311	3.112850	0.527331	0.000031
 825	8.1988e+01	8.1971	9.972357	0.000328	3.276684	0.555085	0.000033
 826	8.2088e+01	8.2038	10.003722	0.000315	3.153808	0.534270	0.000032
 827	8.2187e+01	8.2163	10.035902	0.000324	3.235726	0.548147	0.000032
 828	8.2287e+01	8.2251	10.065638	0.000299	2.989974	0.506515	0.000030
 829	8.2386e+01	8.2331	10.099040	0.000336	3.358601	0.568962	0.000034
 830	8.2486e+01	8.2422	10.121444	0.000225	2.252720	0.381621	0.000023
 831	8.2585e+01	8.2520	10.156476	0.000352	3.522435	0.596717	0.000035
 832	8.2684e+01	8.2625	10.182953	0.000266	2.662306	0.451007	0.000027
 833	8.2784e+01	8.2740	10.213503	0.000307	3.071891	0.520392	0.000031
 834	8.2883e+01	8.2846	10.248942	0.000356	3.563394	0.603655	0.000036
 835	8.2983e+01	8.2901	10.274605	0.000258	2.580389	0.437130	0.000026
 836	8.3082e+01	8.3061	10.309229	0.000348	3.481477	0.589778	0.000035
 837	8.3182e+01	8.3163	10.340187	0.000311	3.112850	0.527331	0.000031
 838	8.3281e+01	8.3219	10.365442	0.000254	2.539430	0.430191	0.000025
 839	8.3381e+01	8.3306	10.400066	0.000348	3.481477	0.589778	0.000035
 840	8.3481e+01	8.3434	10.429395	0.000295	2.949016	0.499577	0.000029
 841	8.3580e+01	8.3521	10.461982	0.000328	3.276684	0.555085	0.000033
 842	8.3680e+01	8.3646	10.489682	0.000279	2.785181	0.471823	0.000028
 843	8.3779e+01	8.3725	10.523491	0.000340	3.399560	0.575901	0.000034
 844	8.3879e+01	8.3819	10.549561	0.000262	2.621347	0.444068	0.000026
 845	8.3978e+01	8.3926	10.579704	0.000303	3.030933	0.513454	0.000030
 846	8.4078e+01	8.4040	10.604960	0.000254	2.539430	0.430191	0.000025
 847	8.4177e+01	8.4153	10.637954	0.000332	3.317643	0.562024	0.000033
 848	8.4276e+01	8.4229	10.666061	0.000283	2.826140	0.478761	0.000028
 849	8.4376e+01	8.4322	10.692946	0.000270	2.703264	0.457945	0.000027
 850	8.4475e+01	8.4438	10.722274	0.000295	2.949016	0.499577	0.000029
 851	8.4575e+01	8.4525	10.750788	0.000287	2.867099	0.485700	0.000029
 852	8.4674e+01	8.4632	10.782154	0.000315	3.153808	0.534270	0.000032
 853	8.4774e+01	8.4756	10.807816	0.000258	2.580389	0.437130	0.000026
 854	8.4874e+01	8.4803	10.838774	0.000311	3.112850	0.527331	0.000031
 855	8.4973e+01	8.4946	10.869325	0.000307	3.071891	0.520392	0.000031
 856	8.5073e+01	8.5011	10.897839	0.000287	2.867099	0.485700	0.000029
 857	8.5172e+01	8.5123	10.930426	0.000328	3.276684	0.555085	0.000033
 858	8.5272e+01	8.5222	10.954460	0.000242	2.416554	0.409375	0.000024
 859	8.5371e+01	8.5329	10.985825	0.000315	3.153808	0.534270	0.000032
 860	8.5471e+01	8.5396	11.012302	0.000266	2.662306	0.451007	0.000027
 861	8.5570e+01	8.5522	11.039187	0.000270	2.703264	0.457945	0.000027
 862	8.5669e+01	8.5632	11.066071	0.000270	2.703264	0.457945	0.000027
 863	8.5769e+01	8.5712	11.098251	0.000324	3.235726	0.548147	0.000032
 864	8.5868e+01	8.5809	11.128395	0.000303	3.030933	0.513454	0.000030
 865	8.5968e+01	8.5929	11.156501	0.000283	2.826140	0.478761	0.000028
 866	8.6067e+01	8.6012	11.184201	0.000279	2.785181	0.471823	0.000028
 867	8.6167e+01	8.6114	11.213122	0.000291	2.908057	0.492638	0.000029
 868	8.6266e+01	8.6182	11.243673	0.000307	3.071891	0.520392	0.000031
 869	8.6366e+01	8.6314	11.270150	0.000266	2.662306	0.451007	0.000027
 870	8.6466e+01	8.6430	11.299071	0.000291	2.908057	0.492638	0.000029
 871	8.6565e+01	8.6517	11.329622	0.000307	3.071891	0.520392	0.000031
 872	8.6665e+01	8.6626	11.356507	0.000270	2.703264	0.457945	0.000027
 873	8.6764e+01	8.6734	11.387872	0.000315	3.153808	0.534270	0.000032
 874	8.6864e+01	8.6830	11.413127	0.000254	2.539430	0.430191	0.000025
 875	8.6963e+01	8.6899	11.440419	0.000274	2.744223	0.464884	0.000027
 876	8.7063e+01	8.6996	11.474229	0.000340	3.399560	0.575901	0.000034
 877	8.7162e+01	8.7125	11.498262	0.000242	2.416554	0.409375	0.000024
 878	8.7261e+01	8.7223	11.532479	0.000344	3.440518	0.582840	0.000034
 879	8.7361e+01	8.7289	11.563029	0.000307	3.071891	0.520392	0.000031
 880	8.7460e+01	8.7442	11.588285	0.000254	2.539430	0.430191	0.000025
 881	8.7560e+01	8.7524	11.618835	0.000307	3.071891	0.520392	0.000031
 882	8.7659e+01	8.7632	11.651830	0.000332	3.317643	0.562024	0.000033
 883	8.7759e+01	8.7714	11.684010	0.000324	3.235726	0.548147	0.000032
 884	8.7859e+01	8.7788	11.706414	0.000225	2.252720	0.381621	0.000023
 885	8.7958e+01	8.7906	11.738187	0.000319	3.194767	0.541208	0.000032
 886	8.8058e+01	8.8000	11.768330	0.000303	3.030933	0.513454	0.000030
 887	8.8157e+01	8.8100	11.798066	0.000299	2.989974	0.506515	0.000030
 888	8.8257e+01	8.8212	11.826173	0.000283	2.826140	0.478761	0.000028
 889	8.8356e+01	8.8330	11.853057	0.000270	2.703264	0.457945	0.000027
 890	8.8456e+01	8.8391	11.884830	0.000319	3.194767	0.541208	0.000032
 891	8.8555e+01	8.8504	11.912122	0.000274	2.744223	0.464884	0.000027
 892	8.8654e+01	8.8624	11.942265	0.000303	3.030933	0.513454	0.000030
 893	8.8754e+01	8.8691	11.970372	0.000283	2.826140	0.478761	0.000028
 894	8.8853e+01	8.8771	11.998479	0.000283	2.826140	0.478761	0.000028
 895	8.8953e+01	8.8889	12.027807	0.000295	2.949016	0.499577	0.000029
 896	8.9052e+01	8.8993	12.055914	0.000283	2.826140	0.478761	0.000028
 897	8.9152e+01	8.9076	12.083613	0.000279	2.785181	0.471823	0.000028
 898	8.9251e+01	8.9185	12.112127	0.000287	2.867099	0.485700	0.000029
 899	8.9351e+01	8.9312	12.141456	0.000295	2.949016	0.499577	0.000029
 900	8.9451e+01	8.9405	12.172821	0.000315	3.153808	0.534270	0.000032
 901	8.9550e+01	8.9518	12.200520	0.000279	2.785181	0.471823	0.000028
 902	8.9650e+01	8.9603	12.225368	0.000250	2.498472	0.423253	0.000025
 903	8.9749e+01	8.9674	12.254697	0.000295	2.949016	0.499577	0.000029
 904	8.9849e+01	8.9777	12.287692	0.000332	3.317643	0.562024	0.000033
 905	8.9948e+01	8.9899	12.315798	0.000283	2.826140	0.478761	0.000028
 906	9.0047e+01	9.0019	12.341868	0.000262	2.621347	0.444068	0.000026
 907	9.0147e+01	9.0082	12.373234	0.000315	3.153808	0.534270	0.000032
 908	9.0246e+01	9.0205	12.399304	0.000262	2.621347	0.444068	0.000026
 909	9.0346e+01	9.0272	12.431484	0.000324	3.235726	0.548147	0.000032
 910	9.0445e+01	9.0405	12.464478	0.000332	3.317643	0.562024	0.000033
 911	9.0545e+01	9.0497	12.490548	0.000262	2.621347	0.444068	0.000026
 912	9.0644e+01	9.0593	12.519062	0.000287	2.867099	0.485700	0.000029
 913	9.0744e+01	9.0710	12.546354	0.000274	2.744223	0.464884	0.000027
 914	9.0844e+01	9.0771	12.580978	0.000348	3.481477	0.589778	0.000035
 915	9.0943e+01	9.0909	12.610307	0.000295	2.949016	0.499577	0.000029
 916	9.1043e+01	9.1010	12.642487	0.000324	3.235726	0.548147	0.000032
 917	9.1142e+01	9.1135	12.676297	0.000340	3.399560	0.575901	0.000034
 918	9.1242e+01	9.1162	12.701552	0.000254	2.539430	0.430191	0.000025
 919	9.1341e+01	9.1290	12.730880	0.000295	2.949016	0.499577	0.000029
 920	9.1441e+01	9.1369	12.763468	0.000328	3.276684	0.555085	0.000033
 921	9.1540e+01	9.1482	12.796870	0.000336	3.358601	0.568962	0.000034
 922	9.1639e+01	9.1582	12.828643	0.000319	3.194767	0.541208	0.000032
 923	9.1739e+01	9.1703	12.858379	0.000299	2.989974	0.506515	0.000030
 924	9.1838e+01	9.1813	12.890151	0.000319	3.194767	0.541208	0.000032
 925	9.1938e+01	9.1889	12.922331	0.000324	3.235726	0.548147	0.000032
 926	9.2037e+01	9.1984	12.954919	0.000328	3.276684	0.555085	0.000033
 927	9.2137e+01	9.2114	12.991172	0.000365	3.645311	0.617532	0.000036
 928	9.2237e+01	9.2200	13.025389	0.000344	3.440518	0.582840	0.000034
 929	9.2336e+01	9.2280	13.053496	0.000283	2.826140	0.478761	0.000028
 930	9.2436e+01	9.2388	13.089749	0.000365	3.645311	0.617532	0.000036
 931	9.2535e+01	9.2466	13.123966	0.000344	3.440518	0.582840	0.000034
 932	9.2635e+01	9.2570	13.158183	0.000344	3.440518	0.582840	0.000034
 933	9.2734e+01	9.2663	13.194436	0.000365	3.645311	0.617532	0.000036
 934	9.2834e+01	9.2782	13.228653	0.000344	3.440518	0.582840	0.000034
 935	9.2933e+01	9.2887	13.264499	0.000360	3.604352	0.610594	0.000036
 936	9.3032e+01	9.2958	13.296679	0.000324	3.235726	0.548147	0.000032
 937	9.3132e+01	9.3082	13.332525	0.000360	3.604352	0.610594	0.000036
 938	9.3231e+01	9.3197	13.367149	0.000348	3.481477	0.589778	0.000035
 939	9.3331e+01	9.3311	13.402588	0.000356	3.563394	0.603655	0.000036
 940	9.3430e+01	9.3389	13.438842	0.000365	3.645311	0.617532	0.000036
 941	9.3530e+01	9.3510	13.470207	0.000315	3.153808	0.534270	0.000032
 942	9.3629e+01	9.3579	13.509719	0.000397	3.972979	0.673041	0.000040
 943	9.3729e+01	9.3677	13.546788	0.000373	3.727228	0.631410	0.000037
 944	9.3829e+01	9.3820	13.579375	0.000328	3.276684	0.555085	0.000033
 945	9.3928e+01	9.3861	13.618480	0.000393	3.932021	0.666102	0.000039
 946	9.4028e+01	9.3948	13.655548	0.000373	3.727228	0.631410	0.000037
 947	9.4127e+01	9.4086	13.690579	0.000352	3.522435	0.596717	0.000035
 948	9.4227e+01	9.4163	13.726018	0.000356	3.563394	0.603655	0.000036
 949	9.4326e+01	9.4281	13.763494	0.000377	3.768187	0.638348	0.000038
 950	9.4425e+01	9.4364	13.800969	0.000377	3.768187	0.638348	0.000038
 951	9.4525e+01	9.4460	13.842111	0.000414	4.136814	0.700795	0.000041
 952	9.4624e+01	9.4540	13.877957	0.000360	3.604352	0.610594	0.000036
 953	9.4724e+01	9.4659	13.913396	0.000356	3.563394	0.603655	0.000036
 954	9.4823e+01	9.4755	13.954130	0.000410	4.095855	0.693857	0.000041
 955	9.4923e+01	9.4904	13.991606	0.000377	3.768187	0.638348	0.000038
 956	9.5022e+01	9.4971	14.030711	0.000393	3.932021	0.666102	0.000039
 957	9.5122e+01	9.5070	14.068186	0.000377	3.768187	0.638348	0.000038
 958	9.5222e+01	9.5166	14.107291	0.000393	3.932021	0.666102	0.000039
 959	9.5321e+01	9.5239	14.146803	0.000397	3.972979	0.673041	0.000040
 960	9.5421e+01	9.5344	14.185908	0.000393	3.932021	0.666102	0.000039
 961	9.5520e+01	9.5449	14.225828	0.000401	4.013938	0.679979	0.000040
 962	9.5620e+01	9.5564	14.264525	0.000389	3.891062	0.659164	0.000039
 963	9.5719e+01	9.5654	14.305259	0.000410	4.095855	0.693857	0.000041
 964	9.5819e+01	9.5768	14.346401	0.000414	4.136814	0.700795	0.000041
 965	9.5918e+01	9.5874	14.387950	0.000418	4.177772	0.707734	0.000042
 966	9.6017e+01	9.5967	14.423796	0.000360	3.604352	0.610594	0.000036
 967	9.6117e+01	9.6100	14.468196	0.000446	4.464482	0.756304	0.000045
 968	9.6216e+01	9.6118	14.502006	0.000340	3.399560	0.575901	0.000034
 969	9.6316e+01	9.6251	14.543962	0.000422	4.218731	0.714672	0.000042
 970	9.6415e+01	9.6366	14.587548	0.000438	4.382565	0.742427	0.000044
 971	9.6515e+01	9.6456	14.628689	0.000414	4.136814	0.700795	0.000041
 972	9.6615e+01	9.6577	14.670646	0.000422	4.218731	0.714672	0.000042
 973	9.6714e+01	9.6631	14.711380	0.000410	4.095855	0.693857	0.000041
 974	9.6814e+01	9.6760	14.752114	0.000410	4.095855	0.693857	0.000041
 975	9.6913e+01	9.6835	14.795292	0.000434	4.341606	0.735488	0.000043
 976	9.7013e+01	9.6952	14.841322	0.000463	4.628316	0.784058	0.000046
 977	9.7112e+01	9.7064	14.886945	0.000459	4.587358	0.777119	0.000046
 978	9.7212e+01	9.7149	14.929308	0.000426	4.259689	0.721611	0.000043
 979	9.7311e+01	9.7255	14.974931	0.000459	4.587358	0.777119	0.000046
 980	9.7410e+01	9.7358	15.016887	0.000422	4.218731	0.714672	0.000042
 981	9.7510e+01	9.7462	15.057621	0.000410	4.095855	0.693857	0.000041
 982	9.7609e+01	9.7543	15.104058	0.000467	4.669275	0.790997	0.000047
 983	9.7709e+01	9.7684	15.144792	0.000410	4.095855	0.693857	0.000041
 984	9.7808e+01	9.7772	15.184305	0.000397	3.972979	0.673041	0.000040
 985	9.7908e+01	9.7842	15.232371	0.000483	4.833109	0.818751	0.000048
 986	9.8007e+01	9.7964	15.276364	0.000442	4.423523	0.749365	0.000044
 987	9.8107e+01	9.8054	15.324430	0.000483	4.833109	0.818751	0.000048
 988	9.8207e+01	9.8157	15.370053	0.000459	4.587358	0.777119	0.000046
 989	9.8306e+01	9.8246	15.416897	0.000471	4.710233	0.797935	0.000047
 990	9.8406e+01	9.8371	15.464556	0.000479	4.792150	0.811812	0.000048
 991	9.8505e+01	9.8415	15.506920	0.000426	4.259689	0.721611	0.000043
 992	9.8605e+01	9.8550	15.557430	0.000508	5.078860	0.860382	0.000051
 993	9.8704e+01	9.8638	15.602238	0.000451	4.505441	0.763242	0.000045
 994	9.8803e+01	9.8749	15.653156	0.000512	5.119819	0.867321	0.000051
 995	9.8903e+01	9.8870	15.699186	0.000463	4.628316	0.784058	0.000046
 996	9.9002e+01	9.8935	15.746030	0.000471	4.710233	0.797935	0.000047
 997	9.9102e+01	9.9039	15.794096	0.000483	4.833109	0.818751	0.000048
 998	9.9201e+01	9.9160	15.841755	0.000479	4.792150	0.811812	0.000048
 999	9.9301e+01	9.9220	15.883304	0.000418	4.177772	0.707734	0.000042
1000	9.9400e+01	9.9365	15.930556	0.000475	4.751192	0.804874	0.000047
1001	9.9500e+01	9.9439	15.976179	0.000459	4.587358	0.777119	0.000046
1002	9.9600e+01	9.9561	16.029948	0.000541	5.406529	0.915891	0.000054
1003	9.9699e+01	9.9644	16.076792	0.000471	4.710233	0.797935	0.000047
1004	9.9799e+01	9.9731	16.122007	0.000455	4.546399	0.770181	0.000045
1005	9.9898e+01	9.9854	16.169666	0.000479	4.792150	0.811812	0.000048
1006	9.9998e+01	9.9928	16.216103	0.000467	4.669275	0.790997	0.000047
1007	1.0010e+02	9.9817	16.226694	-0.000106	-1.064922	-0.180403	0.000011
1008	1.0020e+02	9.9734	16.237285	-0.000106	-1.064922	-0.180403	0.000011
1009	1.0030e+02	9.9645	16.238507	-0.000012	-0.122876	-0.020816	0.000001
1010	1.0040e+02	9.9561	16.245025	-0.000066	-0.655337	-0.111017	0.000007
1011	1.0050e+02	9.9453	16.251542	-0.000066	-0.655337	-0.111017	0.000007
1012	1.0059e+02	9.9353	16.257652	-0.000061	-0.614378	-0.104078	0.000006
1013	1.0069e+02	9.9251	16.260096	-0.000025	-0.245751	-0.041631	0.000002
1014	1.0079e+02	9.9158	16.262948	-0.000029	-0.286710	-0.048570	0.000003
1015	1.0089e+02	9.9023	16.265392	-0.000025	-0.245751	-0.041631	0.000002
1016	1.0099e+02	9.8952	16.266614	-0.000012	-0.122876	-0.020816	0.000001
1017	1.0109e+02	9.8828	16.271095	-0.000045	-0.450544	-0.076324	0.000005
1018	1.0119e+02	9.8750	16.270687	0.000004	0.040959	0.006939	-0.000000
1019	1.0129e+02	9.8655	16.265392	0.000053	0.532461	0.090201	-0.000005
1020	1.0139e+02	9.8560	16.267836	-0.000025	-0.245751	-0.041631	0.000002
1021	1.0149e+02	9.8451	16.264577	0.000033	0.327668	0.055509	-0.000003
1022	1.0159e+02	9.8351	16.264577	-0.000000	-0.000000	-0.000000	0.000000
1023	1.0169e+02	9.8267	16.260911	0.000037	0.368627	0.062447	-0.000004
1024	1.0179e+02	9.8153	16.261726	-0.000008	-0.081917	-0.013877	0.000001
1025	1.0189e+02	9.8047	16.255616	0.000061	0.614378	0.104078	-0.000006
1026	1.0199e+02	9.7952	16.256430	-0.000008	-0.081917	-0.013877	0.000001
1027	1.0209e+02	9.7926	16.251135	0.000053	0.532461	0.090201	-0.000005
1028	1.0219e+02	9.7733	16.246654	0.000045	0.450544	0.076324	-0.000005
1029	1.0229e+02	9.7645	16.243803	0.000029	0.286710	0.048570	-0.000003
1030	1.0239e+02	9.7552	16.234434	0.000094	0.942047	0.159587	-0.000009
1031	1.0248e+02	9.7425	16.227102	0.000074	0.737254	0.124894	-0.000007
1032	1.0258e+02	9.7366	16.218955	0.000082	0.819171	0.138771	-0.000008
1033	1.0268e+02	9.7266	16.218955	-0.000000	-0.000000	-0.000000	0.000000
1034	1.0278e+02	9.7147	16.209993	0.000090	0.901088	0.152648	-0.000009
1035	1.0288e+02	9.7070	16.204290	0.000057	0.573420	0.097140	-0.000006
1036	1.0298e+02	9.6952	16.197366	0.000070	0.696295	0.117956	-0.000007
1037	1.0308e+02	9.6842	16.189626	0.000078	0.778212	0.131833	-0.000008
1038	1.0318e+02	9.6763	16.183923	0.000057	0.573420	0.097140	-0.000006
1039	1.0328e+02	9.6671	16.175776	0.000082	0.819171	0.138771	-0.000008
1040	1.0338e+02	9.6564	16.171296	0.000045	0.450544	0.076324	-0.000005
1041	1.0348e+02	9.6479	16.163963	0.000074	0.737254	0.124894	-0.000007
1042	1.0358e+02	9.6346	16.152965	0.000111	1.105881	0.187341	-0.000011
1043	1.0368e+02	9.6267	16.143596	0.000094	0.942047	0.159587	-0.000009
1044	1.0378e+02	9.6162	16.135042	0.000086	0.860130	0.145710	-0.000009
1045	1.0388e+02	9.6055	16.126895	0.000082	0.819171	0.138771	-0.000008
1046	1.0398e+02	9.5975	16.114675	0.000123	1.228757	0.208157	-0.000012
1047	1.0408e+02	9.5869	16.106121	0.000086	0.860130	0.145710	-0.000009
1048	1.0418e+02	9.5781	16.092271	0.000139	1.392591	0.235911	-0.000014
1049	1.0428e+02	9.5686	16.087383	0.000049	0.491503	0.083263	-0.000005
1050	1.0438e+02	9.5557	16.076385	0.000111	1.105881	0.187341	-0.000011
1051	1.0447e+02	9.5484	16.066201	0.000102	1.023964	0.173464	-0.000010
1052	1.0457e+02	9.5338	16.061313	0.000049	0.491503	0.083263	-0.000005
1053	1.0467e+02	9.5277	16.049500	0.000119	1.187798	0.201218	-0.000012
1054	1.0477e+02	9.5166	16.036465	0.000131	1.310674	0.222034	-0.000013
1055	1.0487e+02	9.5078	16.022208	0.000143	1.433549	0.242850	-0.000014
1056	1.0497e+02	9.4996	16.014061	0.000082	0.819171	0.138771	-0.000008
1057	1.0507e+02	9.4839	16.000619	0.000135	1.351632	0.228973	-0.000014
1058	1.0517e+02	9.4775	15.985547	0.000152	1.515466	0.256727	-0.000015
1059	1.0527e+02	9.4662	15.967624	0.000180	1.802176	0.305297	-0.000018
1060	1.0537e+02	9.4580	15.954997	0.000127	1.269715	0.215096	-0.000013
1061	1.0547e+02	9.4462	15.945628	0.000094	0.942047	0.159587	-0.000009
1062	1.0557e+02	9.4375	15.931371	0.000143	1.433549	0.242850	-0.000014
1063	1.0567e+02	9.4271	15.913448	0.000180	1.802176	0.305297	-0.000018
1064	1.0577e+02	9.4168	15.902450	0.000111	1.105881	0.187341	-0.000011
1065	1.0587e+02	9.4074	15.889007	0.000135	1.351632	0.228973	-0.000014
1066	1.0597e+02	9.3967	15.878824	0.000102	1.023964	0.173464	-0.000010
1067	1.0607e+02	9.3880	15.863345	0.000156	1.556425	0.263666	-0.000016
1068	1.0617e+02	9.3760	15.850310	0.000131	1.310674	0.222034	-0.000013
1069	1.0627e+02	9.3692	15.836053	0.000143	1.433549	0.242850	-0.000014
1070	1.0637e+02	9.3597	15.818130	0.000180	1.802176	0.305297	-0.000018
1071	1.0647e+02	9.3469	15.803465	0.000147	1.474508	0.249788	-0.000015
1072	1.0656e+02	9.3359	15.785135	0.000184	1.843135	0.312235	-0.000018
1073	1.0666e+02	9.3275	15.768026	0.000172	1.720259	0.291420	-0.000017
1074	1.0676e+02	9.3164	15.753362	0.000147	1.474508	0.249788	-0.000015
1075	1.0686e+02	9.3051	15.732995	0.000205	2.047928	0.346928	-0.000020
1076	1.0696e+02	9.2985	15.719553	0.000135	1.351632	0.228973	-0.000014
1077	1.0706e+02	9.2885	15.705703	0.000139	1.392591	0.235911	-0.000014
1078	1.0716e+02	9.2779	15.687780	0.000180	1.802176	0.305297	-0.000018
1079	1.0726e+02	9.2688	15.671894	0.000160	1.597383	0.270604	-0.000016
1080	1.0736e+02	9.2581	15.654785	0.000172	1.720259	0.291420	-0.000017
1081	1.0746e+02	9.2460	15.640121	0.000147	1.474508	0.249788	-0.000015
1082	1.0756e+02	9.2383	15.625049	0.000152	1.515466	0.256727	-0.000015
1083	1.0766e+02	9.2286	15.608348	0.000168	1.679301	0.284481	-0.000017
1084	1.0776e+02	9.2194	15.594906	0.000135	1.351632	0.228973	-0.000014
1085	1.0786e+02	9.2091	15.576575	0.000184	1.843135	0.312235	-0.000018
1086	1.0796e+02	9.2001	15.559467	0.000172	1.720259	0.291420	-0.000017
1087	1.0806e+02	9.1878	15.544395	0.000152	1.515466	0.256727	-0.000015
1088	1.0816e+02	9.1782	15.526065	0.000184	1.843135	0.312235	-0.000018
1089	1.0826e+02	9.1705	15.508549	0.000176	1.761218	0.298358	-0.000018
1090	1.0836e+02	9.1610	15.493885	0.000147	1.474508	0.249788	-0.000015
1091	1.0845e+02	9.1486	15.477999	0.000160	1.597383	0.270604	-0.000016
1092	1.0855e+02	9.1395	15.459668	0.000184	1.843135	0.312235	-0.000018
1093	1.0865e+02	9.1288	15.445411	0.000143	1.433549	0.242850	-0.000014
1094	1.0875e+02	9.1196	15.427895	0.000176	1.761218	0.298358	-0.000018
1095	1.0885e+02	9.1105	15.417712	0.000102	1.023964	0.173464	-0.000010
1096	1.0895e+02	9.0988	15.397752	0.000201	2.006969	0.339990	-0.000020
1097	1.0905e+02	9.0895	15.384717	0.000131	1.310674	0.222034	-0.000013
1098	1.0915e+02	9.0778	15.368423	0.000164	1.638342	0.277543	-0.000016
1099	1.0925e+02	9.0691	15.350908	0.000176	1.761218	0.298358	-0.000018
1100	1.0935e+02	9.0613	15.336651	0.000143	1.433549	0.242850	-0.000014
1101	1.0945e+02	9.0496	15.320764	0.000160	1.597383	0.270604	-0.000016
1102	1.0955e+02	9.0398	15.306915	0.000139	1.392591	0.235911	-0.000014
1103	1.0965e+02	9.0311	15.289806	0.000172	1.720259	0.291420	-0.000017
1104	1.0975e+02	9.0172	15.272698	0.000172	1.720259	0.291420	-0.000017
1105	1.0985e+02	9.0083	15.260478	0.000123	1.228757	0.208157	-0.000012
1106	1.0995e+02	8.9996	15.245406	0.000152	1.515466	0.256727	-0.000015
1107	1.1005e+02	8.9894	15.229520	0.000160	1.597383	0.270604	-0.000016
1108	1.1015e+02	8.9783	15.210375	0.000193	1.925052	0.326113	-0.000019
1109	1.1025e+02	8.9688	15.197340	0.000131	1.310674	0.222034	-0.000013
1110	1.1035e+02	8.9588	15.181861	0.000156	1.556425	0.263666	-0.000016
1111	1.1044e+02	8.9502	15.165160	0.000168	1.679301	0.284481	-0.000017
1112	1.1054e+02	8.9394	15.151717	0.000135	1.351632	0.228973	-0.000014
1113	1.1064e+02	8.9286	15.136238	0.000156	1.556425	0.263666	-0.000016
1114	1.1074e+02	8.9233	15.118315	0.000180	1.802176	0.305297	-0.000018
1115	1.1084e+02	8.9111	15.102836	0.000156	1.556425	0.263666	-0.000016
1116	1.1094e+02	8.8981	15.087357	0.000156	1.556425	0.263666	-0.000016
1117	1.1104e+02	8.8926	15.071471	0.000160	1.597383	0.270604	-0.000016
1118	1.1114e+02	8.8778	15.055992	0.000156	1.556425	0.263666	-0.000016
1119	1.1124e+02	8.8679	15.040513	0.000156	1.556425	0.263666	-0.000016
1120	1.1134e+02	8.8624	15.020960	0.000197	1.966010	0.333051	-0.000020
1121	1.1144e+02	8.8498	15.005481	0.000156	1.556425	0.263666	-0.000016
1122	1.1154e+02	8.8401	14.990410	0.000152	1.515466	0.256727	-0.000015
1123	1.1164e+02	8.8299	14.971672	0.000188	1.884093	0.319174	-0.000019
1124	1.1174e+02	8.8217	14.959859	0.000119	1.187798	0.201218	-0.000012
1125	1.1184e+02	8.8100	14.940714	0.000193	1.925052	0.326113	-0.000019
1126	1.1194e+02	8.8010	14.927271	0.000135	1.351632	0.228973	-0.000014
1127	1.1204e+02	8.7920	14.909348	0.000180	1.802176	0.305297	-0.000018
1128	1.1214e+02	8.7833	14.893869	0.000156	1.556425	0.263666	-0.000016
1129	1.1224e+02	8.7717	14.876761	0.000172	1.720259	0.291420	-0.000017
1130	1.1234e+02	8.7595	14.863319	0.000135	1.351632	0.228973	-0.000014
1131	1.1244e+02	8.7509	14.844581	0.000188	1.884093	0.319174	-0.000019
1132	1.1253e+02	8.7430	14.829509	0.000152	1.515466	0.256727	-0.000015
1133	1.1263e+02	8.7307	14.814438	0.000152	1.515466	0.256727	-0.000015
1134	1.1273e+02	8.7220	14.796107	0.000184	1.843135	0.312235	-0.000018
1135	1.1283e+02	8.7101	14.781850	0.000143	1.433549	0.242850	-0.000014
1136	1.1293e+02	8.7038	14.763520	0.000184	1.843135	0.312235	-0.000018
1137	1.1303e+02	8.6944	14.746819	0.000168	1.679301	0.284481	-0.000017
1138	1.1313e+02	8.6838	14.730525	0.000164	1.638342	0.277543	-0.000016
1139	1.1323e+02	8.6751	14.714639	0.000160	1.597383	0.270604	-0.000016
1140	1.1333e+02	8.6604	14.698345	0.000164	1.638342	0.277543	-0.000016
1141	1.1343e+02	8.6510	14.681237	0.000172	1.720259	0.291420	-0.000017
1142	1.1353e+02	8.6427	14.660055	0.000213	2.129845	0.360805	-0.000021
1143	1.1363e+02	8.6329	14.649871	0.000102	1.023964	0.173464	-0.000010
1144	1.1373e+02	8.6234	14.634392	0.000156	1.556425	0.263666	-0.000016
1145	1.1383e+02	8.6121	14.618913	0.000156	1.556425	0.263666	-0.000016
1146	1.1393e+02	8.6004	14.607100	0.000119	1.187798	0.201218	-0.000012
1147	1.1403e+02	8.5908	14.590399	0.000168	1.679301	0.284481	-0.000017
1148	1.1413e+02	8.5822	14.568403	0.000221	2.211762	0.374683	-0.000022
1149	1.1423e+02	8.5715	14.551294	0.000172	1.720259	0.291420	-0.000017
1150	1.1433e+02	8.5623	14.535815	0.000156	1.556425	0.263666	-0.000016
1151	1.1442e+02	8.5525	14.517485	0.000184	1.843135	0.312235	-0.000018
1152	1.1452e+02	8.5416	14.504857	0.000127	1.269715	0.215096	-0.000013
1153	1.1462e+02	8.5323	14.490600	0.000143	1.433549	0.242850	-0.000014
1154	1.1472e+02	8.5220	14.473492	0.000172	1.720259	0.291420	-0.000017
1155	1.1482e+02	8.5146	14.457606	0.000160	1.597383	0.270604	-0.000016
1156	1.1492e+02	8.5025	14.443349	0.000143	1.433549	0.242850	-0.000014
1157	1.1502e+02	8.4933	14.427870	0.000156	1.556425	0.263666	-0.000016
1158	1.1512e+02	8.4808	14.411983	0.000160	1.597383	0.270604	-0.000016
1159	1.1522e+02	8.4743	14.392838	0.000193	1.925052	0.326113	-0.000019
1160	1.1532e+02	8.4637	14.378581	0.000143	1.433549	0.242850	-0.000014
1161	1.1542e+02	8.4557	14.361880	0.000168	1.679301	0.284481	-0.000017
1162	1.1552e+02	8.4418	14.349660	0.000123	1.228757	0.208157	-0.000012
1163	1.1562e+02	8.4316	14.328071	0.000217	2.170803	0.367744	-0.000022
1164	1.1572e+02	8.4235	14.315850	0.000123	1.228757	0.208157	-0.000012
1165	1.1582e+02	8.4116	14.295483	0.000205	2.047928	0.346928	-0.000020
1166	1.1592e+02	8.4027	14.278375	0.000172	1.720259	0.291420	-0.000017
1167	1.1602e+02	8.3951	14.261266	0.000172	1.720259	0.291420	-0.000017
1168	1.1612e+02	8.3838	14.242936	0.000184	1.843135	0.312235	-0.000018
1169	1.1622e+02	8.3716	14.227050	0.000160	1.597383	0.270604	-0.000016
1170	1.1632e+02	8.3629	14.210349	0.000168	1.679301	0.284481	-0.000017
1171	1.1642e+02	8.3548	14.194055	0.000164	1.638342	0.277543	-0.000016
1172	1.1651e+02	8.3398	14.176132	0.000180	1.802176	0.305297	-0.000018
1173	1.1661e+02	8.3341	14.159431	0.000168	1.679301	0.284481	-0.000017
1174	1.1671e+02	8.3210	14.136212	0.000233	2.334637	0.395498	-0.000023
1175	1.1681e+02	8.3141	14.123177	0.000131	1.310674	0.222034	-0.000013
1176	1.1691e+02	8.3047	14.100773	0.000225	2.252720	0.381621	-0.000023
1177	1.1701e+02	8.2948	14.084887	0.000160	1.597383	0.270604	-0.000016
1178	1.1711e+02	8.2858	14.065742	0.000193	1.925052	0.326113	-0.000019
1179	1.1721e+02	8.2725	14.047819	0.000180	1.802176	0.305297	-0.000018
1180	1.1731e+02	8.2658	14.026230	0.000217	2.170803	0.367744	-0.000022
1181	1.1741e+02	8.2521	14.009936	0.000164	1.638342	0.277543	-0.000016
1182	1.1751e+02	8.2425	13.987940	0.000221	2.211762	0.374683	-0.000022
1183	1.1761e+02	8.2349	13.970016	0.000180	1.802176	0.305297	-0.000018
1184	1.1771e+02	8.2256	13.948427	0.000217	2.170803	0.367744	-0.000022
1185	1.1781e+02	8.2129	13.925616	0.000229	2.293679	0.388560	-0.000023
1186	1.1791e+02	8.2031	13.904027	0.000217	2.170803	0.367744	-0.000022
1187	1.1801e+02	8.1956	13.885697	0.000184	1.843135	0.312235	-0.000018
1188	1.1811e+02	8.1890	13.868996	0.000168	1.679301	0.284481	-0.000017
1189	1.1821e+02	8.1715	13.844962	0.000242	2.416554	0.409375	-0.000024
1190	1.1831e+02	8.1631	13.825817	0.000193	1.925052	0.326113	-0.000019
1191	1.1841e+02	8.1551	13.806265	0.000197	1.966010	0.333051	-0.000020
1192	1.1850e+02	8.1445	13.783861	0.000225	2.252720	0.381621	-0.000023
1193	1.1860e+02	8.1303	13.765938	0.000180	1.802176	0.305297	-0.000018
1194	1.1870e+02	8.1255	13.740683	0.000254	2.539430	0.430191	-0.000025
1195	1.1880e+02	8.1135	13.719093	0.000217	2.170803	0.367744	-0.000022
1196	1.1890e+02	8.1031	13.701578	0.000176	1.761218	0.298358	-0.000018
1197	1.1900e+02	8.0922	13.676322	0.000254	2.539430	0.430191	-0.000025
1198	1.1910e+02	8.0859	13.656770	0.000197	1.966010	0.333051	-0.000020
1199	1.1920e+02	8.0756	13.632737	0.000242	2.416554	0.409375	-0.000024
1200	1.1930e+02	8.0645	13.614814	0.000180	1.802176	0.305297	-0.000018
1201	1.1940e+02	8.0520	13.589151	0.000258	2.580389	0.437130	-0.000026
1202	1.1950e+02	8.0450	13.570413	0.000188	1.884093	0.319174	-0.000019
1203	1.1960e+02	8.0368	13.550046	0.000205	2.047928	0.346928	-0.000020
1204	1.1970e+02	8.0274	13.528864	0.000213	2.129845	0.360805	-0.000021
1205	1.1980e+02	8.0177	13.508090	0.000209	2.088886	0.353867	-0.000021
1206	1.1990e+02	8.0052	13.481205	0.000270	2.703264	0.457945	-0.000027
1207	1.2000e+02	7.9925	13.464097	0.000172	1.720259	0.291420	-0.000017
1208	1.2010e+02	7.9834	13.439656	0.000246	2.457513	0.416314	-0.000025
1209	1.2020e+02	7.9758	13.420104	0.000197	1.966010	0.333051	-0.000020
1210	1.2030e+02	7.9652	13.397700	0.000225	2.252720	0.381621	-0.000023
1211	1.2039e+02	7.9492	13.374889	0.000229	2.293679	0.388560	-0.000023
1212	1.2049e+02	7.9443	13.350041	0.000250	2.498472	0.423253	-0.000025
1213	1.2059e+02	7.9322	13.328452	0.000217	2.170803	0.367744	-0.000022
1214	1.2069e+02	7.9278	13.306455	0.000221	2.211762	0.374683	-0.000022
1215	1.2079e+02	7.9148	13.284866	0.000217	2.170803	0.367744	-0.000022
1216	1.2089e+02	7.9037	13.260426	0.000246	2.457513	0.416314	-0.000025
1217	1.2099e+02	7.8907	13.241281	0.000193	1.925052	0.326113	-0.000019
1218	1.2109e+02	7.8860	13.216840	0.000246	2.457513	0.416314	-0.000025
1219	1.2119e+02	7.8780	13.194436	0.000225	2.252720	0.381621	-0.000023
1220	1.2129e+02	7.8680	13.172847	0.000217	2.170803	0.367744	-0.000022
1221	1.2139e+02	7.8561	13.150443	0.000225	2.252720	0.381621	-0.000023
1222	1.2149e+02	7.8452	13.127632	0.000229	2.293679	0.388560	-0.000023
1223	1.2159e+02	7.8369	13.102784	0.000250	2.498472	0.423253	-0.000025
1224	1.2169e+02	7.8259	13.080380	0.000225	2.252720	0.381621	-0.000023
1225	1.2179e+02	7.8152	13.060828	0.000197	1.966010	0.333051	-0.000020
1226	1.2189e+02	7.8068	13.034758	0.000262	2.621347	0.444068	-0.000026
1227	1.2199e+02	7.7947	13.010317	0.000246	2.457513	0.416314	-0.000025
1228	1.2209e+02	7.7866	12.985062	0.000254	2.539430	0.430191	-0.000025
1229	1.2219e+02	7.7775	12.960214	0.000250	2.498472	0.423253	-0.000025
1230	1.2229e+02	7.7665	12.935774	0.000246	2.457513	0.416314	-0.000025
1231	1.2239e+02	7.7566	12.912148	0.000238	2.375596	0.402437	-0.000024
1232	1.2248e+02	7.7467	12.888115	0.000242	2.416554	0.409375	-0.000024
1233	1.2258e+02	7.7372	12.865711	0.000225	2.252720	0.381621	-0.000023
1234	1.2268e+02	7.7262	12.841270	0.000246	2.457513	0.416314	-0.000025
1235	1.2278e+02	7.7135	12.818459	0.000229	2.293679	0.388560	-0.000023
1236	1.2288e+02	7.7043	12.791167	0.000274	2.744223	0.464884	-0.000027
1237	1.2298e+02	7.6955	12.768763	0.000225	2.252720	0.381621	-0.000023
1238	1.2308e+02	7.6842	12.741064	0.000279	2.785181	0.471823	-0.000028
1239	1.2318e+02	7.6758	12.719475	0.000217	2.170803	0.367744	-0.000022
1240	1.2328e+02	7.6655	12.692590	0.000270	2.703264	0.457945	-0.000027
1241	1.2338e+02	7.6586	12.666520	0.000262	2.621347	0.444068	-0.000026
1242	1.2348e+02	7.6460	12.641265	0.000254	2.539430	0.430191	-0.000025
1243	1.2358e+02	7.6356	12.615195	0.000262	2.621347	0.444068	-0.000026
1244	1.2368e+02	7.6237	12.590347	0.000250	2.498472	0.423253	-0.000025
1245	1.2378e+02	7.6157	12.567536	0.000229	2.293679	0.388560	-0.000023
1246	1.2388e+02	7.6074	12.539022	0.000287	2.867099	0.485700	-0.000029
1247	1.2398e+02	7.5991	12.517026	0.000221	2.211762	0.374683	-0.000022
1248	1.2408e+02	7.5879	12.493400	0.000238	2.375596	0.402437	-0.000024
1249	1.2418e+02	7.5791	12.470996	0.000225	2.252720	0.381621	-0.000023
1250	1.2428e+02	7.5669	12.444111	0.000270	2.703264	0.457945	-0.000027
1251	1.2438e+02	7.5603	12.424966	0.000193	1.925052	0.326113	-0.000019
1252	1.2447e+02	7.5457	12.398489	0.000266	2.662306	0.451007	-0.000027
1253	1.2457e+02	7.5383	12.376085	0.000225	2.252720	0.381621	-0.000023
1254	1.2467e+02	7.5272	12.350015	0.000262	2.621347	0.444068	-0.000026
1255	1.2477e+02	7.5196	12.325167	0.000250	2.498472	0.423253	-0.000025
1256	1.2487e+02	7.5063	12.301949	0.000233	2.334637	0.395498	-0.000023
1257	1.2497e+02	7.4970	12.276286	0.000258	2.580389	0.437130	-0.000026
1258	1.2507e+02	7.4862	12.251438	0.000250	2.498472	0.423253	-0.000025
1259	1.2517e+02	7.4786	12.223739	0.000279	2.785181	0.471823	-0.000028
1260	1.2527e+02	7.4666	12.198891	0.000250	2.498472	0.423253	-0.000025
1261	1.2537e+02	7.4563	12.178117	0.000209	2.088886	0.353867	-0.000021
1262	1.2547e+02	7.4471	12.155713	0.000225	2.252720	0.381621	-0.000023
1263	1.2557e+02	7.4377	12.136975	0.000188	1.884093	0.319174	-0.000019
1264	1.2567e+02	7.4287	12.108461	0.000287	2.867099	0.485700	-0.000029
1265	1.2577e+02	7.4177	12.086872	0.000217	2.170803	0.367744	-0.000022
1266	1.2587e+02	7.4081	12.064875	0.000221	2.211762	0.374683	-0.000022
1267	1.2597e+02	7.3990	12.042879	0.000221	2.211762	0.374683	-0.000022
1268	1.2607e+02	7.3941	12.017624	0.000254	2.539430	0.430191	-0.000025
1269	1.2617e+02	7.3779	12.000515	0.000172	1.720259	0.291420	-0.000017
1270	1.2627e+02	7.3689	11.976482	0.000242	2.416554	0.409375	-0.000024
1271	1.2636e+02	7.3598	11.956115	0.000205	2.047928	0.346928	-0.000020
1272	1.2646e+02	7.3486	11.932896	0.000233	2.334637	0.395498	-0.000023
1273	1.2656e+02	7.3358	11.909271	0.000238	2.375596	0.402437	-0.000024
1274	1.2666e+02	7.3299	11.885645	0.000238	2.375596	0.402437	-0.000024
1275	1.2676e+02	7.3180	11.864870	0.000209	2.088886	0.353867	-0.000021
1276	1.2686e+02	7.3092	11.842059	0.000229	2.293679	0.388560	-0.000023
1277	1.2696e+02	7.2969	11.818433	0.000238	2.375596	0.402437	-0.000024
1278	1.2706e+02	7.2878	11.797251	0.000213	2.129845	0.360805	-0.000021
1279	1.2716e+02	7.2800	11.774033	0.000233	2.334637	0.395498	-0.000023
1280	1.2726e+02	7.2695	11.753258	0.000209	2.088886	0.353867	-0.000021
1281	1.2736e+02	7.2593	11.730447	0.000229	2.293679	0.388560	-0.000023
1282	1.2746e+02	7.2485	11.706821	0.000238	2.375596	0.402437	-0.000024
1283	1.2756e+02	7.2393	11.686861	0.000201	2.006969	0.339990	-0.000020
1284	1.2766e+02	7.2295	11.667716	0.000193	1.925052	0.326113	-0.000019
1285	1.2776e+02	7.2189	11.649793	0.000180	1.802176	0.305297	-0.000018
1286	1.2786e+02	7.2056	11.625760	0.000242	2.416554	0.409375	-0.000024
1287	1.2796e+02	7.1983	11.598875	0.000270	2.703264	0.457945	-0.000027
1288	1.2806e+02	7.1886	11.578508	0.000205	2.047928	0.346928	-0.000020
1289	1.2816e+02	7.1803	11.552846	0.000258	2.580389	0.437130	-0.000026
1290	1.2826e+02	7.1700	11.534108	0.000188	1.884093	0.319174	-0.000019
1291	1.2835e+02	7.1590	11.509260	0.000250	2.498472	0.423253	-0.000025
1292	1.2845e+02	7.1487	11.490115	0.000193	1.925052	0.326113	-0.000019
1293	1.2855e+02	7.1397	11.464860	0.000254	2.539430	0.430191	-0.000025
1294	1.2865e+02	7.1281	11.445307	0.000197	1.966010	0.333051	-0.000020
1295	1.2875e+02	7.1200	11.422904	0.000225	2.252720	0.381621	-0.000023
1296	1.2885e+02	7.1087	11.402536	0.000205	2.047928	0.346928	-0.000020
1297	1.2895e+02	7.0966	11.382169	0.000205	2.047928	0.346928	-0.000020
1298	1.2905e+02	7.0890	11.358136	0.000242	2.416554	0.409375	-0.000024
1299	1.2915e+02	7.0837	11.339806	0.000184	1.843135	0.312235	-0.000018
1300	1.2925e+02	7.0687	11.321068	0.000188	1.884093	0.319174	-0.000019
1301	1.2935e+02	7.0596	11.294998	0.000262	2.621347	0.444068	-0.000026
1302	1.2945e+02	7.0493	11.271372	0.000238	2.375596	0.402437	-0.000024
1303	1.2955e+02	7.0400	11.252227	0.000193	1.925052	0.326113	-0.000019
1304	1.2965e+02	7.0306	11.227379	0.000250	2.498472	0.423253	-0.000025
1305	1.2975e+02	7.0194	11.207827	0.000197	1.966010	0.333051	-0.000020
1306	1.2985e+02	7.0107	11.185423	0.000225	2.252720	0.381621	-0.000023
1307	1.2995e+02	6.9991	11.162612	0.000229	2.293679	0.388560	-0.000023
1308	1.3005e+02	6.9884	11.143874	0.000188	1.884093	0.319174	-0.000019
1309	1.3015e+02	6.9804	11.121470	0.000225	2.252720	0.381621	-0.000023
1310	1.3025e+02	6.9728	11.098659	0.000229	2.293679	0.388560	-0.000023
1311	1.3034e+02	6.9590	11.079514	0.000193	1.925052	0.326113	-0.000019
1312	1.3044e+02	6.9514	11.060369	0.000193	1.925052	0.326113	-0.000019
1313	1.3054e+02	6.9439	11.038779	0.000217	2.170803	0.367744	-0.000022
1314	1.3064e+02	6.9302	11.018005	0.000209	2.088886	0.353867	-0.000021
1315	1.3074e+02	6.9231	10.998045	0.000201	2.006969	0.339990	-0.000020
1316	1.3084e+02	6.9130	10.973197	0.000250	2.498472	0.423253	-0.000025
1317	1.3094e+02	6.8994	10.954052	0.000193	1.925052	0.326113	-0.000019
1318	1.3104e+02	6.8887	10.932870	0.000213	2.129845	0.360805	-0.000021
1319	1.3114e+02	6.8800	10.908023	0.000250	2.498472	0.423253	-0.000025
1320	1.3124e+02	6.8713	10.890507	0.000176	1.761218	0.298358	-0.000018
1321	1.3134e+02	6.8594	10.868103	0.000225	2.252720	0.381621	-0.000023
1322	1.3144e+02	6.8507	10.846106	0.000221	2.211762	0.374683	-0.000022
1323	1.3154e+02	6.8402	10.828998	0.000172	1.720259	0.291420	-0.000017
1324	1.3164e+02	6.8301	10.809038	0.000201	2.006969	0.339990	-0.000020
1325	1.3174e+02	6.8224	10.787449	0.000217	2.170803	0.367744	-0.000022
1326	1.3184e+02	6.8099	10.765860	0.000217	2.170803	0.367744	-0.000022
1327	1.3194e+02	6.8008	10.749159	0.000168	1.679301	0.284481	-0.000017
1328	1.3204e+02	6.7889	10.727977	0.000213	2.129845	0.360805	-0.000021
1329	1.3214e+02	6.7840	10.705981	0.000221	2.211762	0.374683	-0.000022
1330	1.3224e+02	6.7715	10.685613	0.000205	2.047928	0.346928	-0.000020
1331	1.3234e+02	6.7635	10.664024	0.000217	2.170803	0.367744	-0.000022
1332	1.3243e+02	6.7513	10.642435	0.000217	2.170803	0.367744	-0.000022
1333	1.3253e+02	6.7400	10.620439	0.000221	2.211762	0.374683	-0.000022
1334	1.3263e+02	6.7310	10.598035	0.000225	2.252720	0.381621	-0.000023
1335	1.3273e+02	6.7222	10.578482	0.000197	1.966010	0.333051	-0.000020
1336	1.3283e+02	6.7114	10.556893	0.000217	2.170803	0.367744	-0.000022
1337	1.3293e+02	6.7036	10.534897	0.000221	2.211762	0.374683	-0.000022
1338	1.3303e+02	6.6904	10.509641	0.000254	2.539430	0.430191	-0.000025
1339	1.3313e+02	6.6828	10.488867	0.000209	2.088886	0.353867	-0.000021
1340	1.3323e+02	6.6749	10.468907	0.000201	2.006969	0.339990	-0.000020
1341	1.3333e+02	6.6593	10.448133	0.000209	2.088886	0.353867	-0.000021
1342	1.3343e+02	6.6558	10.426544	0.000217	2.170803	0.367744	-0.000022
1343	1.3353e+02	6.6404	10.404140	0.000225	2.252720	0.381621	-0.000023
1344	1.3363e+02	6.6319	10.377255	0.000270	2.703264	0.457945	-0.000027
1345	1.3373e+02	6.6207	10.357295	0.000201	2.006969	0.339990	-0.000020
1346	1.3383e+02	6.6135	10.332040	0.000254	2.539430	0.430191	-0.000025
1347	1.3393e+02	6.6068	10.311673	0.000205	2.047928	0.346928	-0.000020
1348	1.3403e+02	6.5899	10.284788	0.000270	2.703264	0.457945	-0.000027
1349	1.3413e+02	6.5810	10.262792	0.000221	2.211762	0.374683	-0.000022
1350	1.3423e+02	6.5705	10.243647	0.000193	1.925052	0.326113	-0.000019
1351	1.3432e+02	6.5625	10.215948	0.000279	2.785181	0.471823	-0.000028
1352	1.3442e+02	6.5532	10.188248	0.000279	2.785181	0.471823	-0.000028
1353	1.3452e+02	6.5405	10.164622	0.000238	2.375596	0.402437	-0.000024
1354	1.3462e+02	6.5324	10.141811	0.000229	2.293679	0.388560	-0.000023
1355	1.3472e+02	6.5211	10.116963	0.000250	2.498472	0.423253	-0.000025
1356	1.3482e+02	6.5124	10.094152	0.000229	2.293679	0.388560	-0.000023
1357	1.3492e+02	6.5009	10.067267	0.000270	2.703264	0.457945	-0.000027
1358	1.3502e+02	6.4928	10.044456	0.000229	2.293679	0.388560	-0.000023
1359	1.3512e+02	6.4823	10.018386	0.000262	2.621347	0.444068	-0.000026
1360	1.3522e+02	6.4733	9.993946	0.000246	2.457513	0.416314	-0.000025
1361	1.3532e+02	6.4626	9.968283	0.000258	2.580389	0.437130	-0.000026
1362	1.3542e+02	6.4523	9.940177	0.000283	2.826140	0.478761	-0.000028
1363	1.3552e+02	6.4428	9.916958	0.000233	2.334637	0.395498	-0.000023
1364	1.3562e+02	6.4349	9.896591	0.000205	2.047928	0.346928	-0.000020
1365	1.3572e+02	6.4220	9.869706	0.000270	2.703264	0.457945	-0.000027
1366	1.3582e+02	6.4103	9.841600	0.000283	2.826140	0.478761	-0.000028
1367	1.3592e+02	6.4027	9.818789	0.000229	2.293679	0.388560	-0.000023
1368	1.3602e+02	6.3931	9.790682	0.000283	2.826140	0.478761	-0.000028
1369	1.3612e+02	6.3833	9.768685	0.000221	2.211762	0.374683	-0.000022
1370	1.3622e+02	6.3727	9.738542	0.000303	3.030933	0.513454	-0.000030
1371	1.3631e+02	6.3644	9.714916	0.000238	2.375596	0.402437	-0.000024
1372	1.3641e+02	6.3526	9.688846	0.000262	2.621347	0.444068	-0.000026
1373	1.3651e+02	6.3428	9.663184	0.000258	2.580389	0.437130	-0.000026
1374	1.3661e+02	6.3342	9.641595	0.000217	2.170803	0.367744	-0.000022
1375	1.3671e+02	6.3233	9.616747	0.000250	2.498472	0.423253	-0.000025
1376	1.3681e+02	6.3122	9.589862	0.000270	2.703264	0.457945	-0.000027
1377	1.3691e+02	6.3032	9.563385	0.000266	2.662306	0.451007	-0.000027
1378	1.3701e+02	6.2923	9.541388	0.000221	2.211762	0.374683	-0.000022
1379	1.3711e+02	6.2865	9.509616	0.000319	3.194767	0.541208	-0.000032
1380	1.3721e+02	6.2730	9.486397	0.000233	2.334637	0.395498	-0.000023
1381	1.3731e+02	6.2627	9.456254	0.000303	3.030933	0.513454	-0.000030
1382	1.3741e+02	6.2533	9.432628	0.000238	2.375596	0.402437	-0.000024
1383	1.3751e+02	6.2447	9.407373	0.000254	2.539430	0.430191	-0.000025
1384	1.3761e+02	6.2334	9.383747	0.000238	2.375596	0.402437	-0.000024
1385	1.3771e+02	6.2258	9.353196	0.000307	3.071891	0.520392	-0.000031
1386	1.3781e+02	6.2126	9.330792	0.000225	2.252720	0.381621	-0.000023
1387	1.3791e+02	6.2063	9.302686	0.000283	2.826140	0.478761	-0.000028
1388	1.3801e+02	6.1965	9.280689	0.000221	2.211762	0.374683	-0.000022
1389	1.3811e+02	6.1861	9.250138	0.000307	3.071891	0.520392	-0.000031
1390	1.3821e+02	6.1745	9.225698	0.000246	2.457513	0.416314	-0.000025
1391	1.3831e+02	6.1648	9.200035	0.000258	2.580389	0.437130	-0.000026
1392	1.3840e+02	6.1573	9.171521	0.000287	2.867099	0.485700	-0.000029
1393	1.3850e+02	6.1443	9.145859	0.000258	2.580389	0.437130	-0.000026
1394	1.3860e+02	6.1349	9.115715	0.000303	3.030933	0.513454	-0.000030
1395	1.3870e+02	6.1239	9.088016	0.000279	2.785181	0.471823	-0.000028
1396	1.3880e+02	6.1133	9.061539	0.000266	2.662306	0.451007	-0.000027
1397	1.3890e+02	6.1076	9.029359	0.000324	3.235726	0.548147	-0.000032
1398	1.3900e+02	6.0941	9.004103	0.000254	2.539430	0.430191	-0.000025
1399	1.3910e+02	6.0833	8.974775	0.000295	2.949016	0.499577	-0.000029
1400	1.3920e+02	6.0757	8.948705	0.000262	2.621347	0.444068	-0.000026
1401	1.3930e+02	6.0669	8.920598	0.000283	2.826140	0.478761	-0.000028
1402	1.3940e+02	6.0543	8.896158	0.000246	2.457513	0.416314	-0.000025
1403	1.3950e+02	6.0461	8.865607	0.000307	3.071891	0.520392	-0.000031
1404	1.3960e+02	6.0329	8.836278	0.000295	2.949016	0.499577	-0.000029
1405	1.3970e+02	6.0264	8.810208	0.000262	2.621347	0.444068	-0.000026
1406	1.3980e+02	6.0156	8.786175	0.000242	2.416554	0.409375	-0.000024
1407	1.3990e+02	6.0038	8.752366	0.000340	3.399560	0.575901	-0.000034
1408	1.4000e+02	5.9948	8.723852	0.000287	2.867099	0.485700	-0.000029
1409	1.4010e+02	5.9851	8.693708	0.000303	3.030933	0.513454	-0.000030
1410	1.4020e+02	5.9783	8.667231	0.000266	2.662306	0.451007	-0.000027
1411	1.4029e+02	5.9670	8.639532	0.000279	2.785181	0.471823	-0.000028
1412	1.4039e+02	5.9558	8.605315	0.000344	3.440518	0.582840	-0.000034
1413	1.4049e+02	5.9481	8.576801	0.000287	2.867099	0.485700	-0.000029
1414	1.4059e+02	5.9357	8.552361	0.000246	2.457513	0.416314	-0.000025
1415	1.4069e+02	5.9280	8.525476	0.000270	2.703264	0.457945	-0.000027
1416	1.4079e+02	5.9164	8.497369	0.000283	2.826140	0.478761	-0.000028
1417	1.4089e+02	5.9063	8.467633	0.000299	2.989974	0.506515	-0.000030
1418	1.4099e+02	5.8978	8.440341	0.000274	2.744223	0.464884	-0.000027
1419	1.4109e+02	5.8880	8.414271	0.000262	2.621347	0.444068	-0.000026
1420	1.4119e+02	5.8761	8.388609	0.000258	2.580389	0.437130	-0.000026
1421	1.4129e+02	5.8633	8.357651	0.000311	3.112850	0.527331	-0.000031
1422	1.4139e+02	5.8588	8.329544	0.000283	2.826140	0.478761	-0.000028
1423	1.4149e+02	5.8451	8.302252	0.000274	2.744223	0.464884	-0.000027
1424	1.4159e+02	5.8364	8.274553	0.000279	2.785181	0.471823	-0.000028
1425	1.4169e+02	5.8274	8.249298	0.000254	2.539430	0.430191	-0.000025
1426	1.4179e+02	5.8160	8.221191	0.000283	2.826140	0.478761	-0.000028
1427	1.4189e+02	5.8050	8.194306	0.000270	2.703264	0.457945	-0.000027
1428	1.4199e+02	5.7961	8.166200	0.000283	2.826140	0.478761	-0.000028
1429	1.4209e+02	5.7842	8.137686	0.000287	2.867099	0.485700	-0.000029
1430	1.4219e+02	5.7776	8.114875	0.000229	2.293679	0.388560	-0.000023
1431	1.4228e+02	5.7684	8.087583	0.000274	2.744223	0.464884	-0.000027
1432	1.4238e+02	5.7582	8.057439	0.000303	3.030933	0.513454	-0.000030
1433	1.4248e+02	5.7468	8.034628	0.000229	2.293679	0.388560	-0.000023
1434	1.4258e+02	5.7368	8.006114	0.000287	2.867099	0.485700	-0.000029
1435	1.4268e+02	5.7282	7.983303	0.000229	2.293679	0.388560	-0.000023
1436	1.4278e+02	5.7183	7.956011	0.000274	2.744223	0.464884	-0.000027
1437	1.4288e+02	5.7059	7.927904	0.000283	2.826140	0.478761	-0.000028
1438	1.4298e+02	5.6928	7.903871	0.000242	2.416554	0.409375	-0.000024
1439	1.4308e+02	5.6881	7.876579	0.000274	2.744223	0.464884	-0.000027
1440	1.4318e+02	5.6753	7.854175	0.000225	2.252720	0.381621	-0.000023
1441	1.4328e+02	5.6693	7.825661	0.000287	2.867099	0.485700	-0.000029
1442	1.4338e+02	5.6578	7.801221	0.000246	2.457513	0.416314	-0.000025
1443	1.4348e+02	5.6455	7.775966	0.000254	2.539430	0.430191	-0.000025
1444	1.4358e+02	5.6372	7.749896	0.000262	2.621347	0.444068	-0.000026
1445	1.4368e+02	5.6313	7.725455	0.000246	2.457513	0.416314	-0.000025
1446	1.4378e+02	5.6182	7.698571	0.000270	2.703264	0.457945	-0.000027
1447	1.4388e+02	5.6083	7.673315	0.000254	2.539430	0.430191	-0.000025
1448	1.4398e+02	5.5962	7.644801	0.000287	2.867099	0.485700	-0.000029
1449	1.4408e+02	5.5898	7.622397	0.000225	2.252720	0.381621	-0.000023
1450	1.4418e+02	5.5764	7.596328	0.000262	2.621347	0.444068	-0.000026
1451	1.4428e+02	5.5672	7.573109	0.000233	2.334637	0.395498	-0.000023
1452	1.4437e+02	5.5600	7.547446	0.000258	2.580389	0.437130	-0.000026
1453	1.4447e+02	5.5473	7.521377	0.000262	2.621347	0.444068	-0.000026
1454	1.4457e+02	5.5407	7.495714	0.000258	2.580389	0.437130	-0.000026
1455	1.4467e+02	5.5289	7.468422	0.000274	2.744223	0.464884	-0.000027
1456	1.4477e+02	5.5169	7.447240	0.000213	2.129845	0.360805	-0.000021
1457	1.4487e+02	5.5090	7.419134	0.000283	2.826140	0.478761	-0.000028
1458	1.4497e+02	5.5007	7.390620	0.000287	2.867099	0.485700	-0.000029
1459	1.4507e+02	5.4898	7.367808	0.000229	2.293679	0.388560	-0.000023
1460	1.4517e+02	5.4786	7.341331	0.000266	2.662306	0.451007	-0.000027
1461	1.4527e+02	5.4674	7.320149	0.000213	2.129845	0.360805	-0.000021
1462	1.4537e+02	5.4600	7.292450	0.000279	2.785181	0.471823	-0.000028
1463	1.4547e+02	5.4490	7.269232	0.000233	2.334637	0.395498	-0.000023
1464	1.4557e+02	5.4400	7.245198	0.000242	2.416554	0.409375	-0.000024
1465	1.4567e+02	5.4284	7.217092	0.000283	2.826140	0.478761	-0.000028
1466	1.4577e+02	5.4183	7.191022	0.000262	2.621347	0.444068	-0.000026
1467	1.4587e+02	5.4086	7.166174	0.000250	2.498472	0.423253	-0.000025
1468	1.4597e+02	5.3973	7.145807	0.000205	2.047928	0.346928	-0.000020
1469	1.4607e+02	5.3892	7.117293	0.000287	2.867099	0.485700	-0.000029
1470	1.4617e+02	5.3777	7.086335	0.000311	3.112850	0.527331	-0.000031
1471	1.4626e+02	5.3695	7.067190	0.000193	1.925052	0.326113	-0.000019
1472	1.4636e+02	5.3608	7.037861	0.000295	2.949016	0.499577	-0.000029
1473	1.4646e+02	5.3503	7.012198	0.000258	2.580389	0.437130	-0.000026
1474	1.4656e+02	5.3387	6.984906	0.000274	2.744223	0.464884	-0.000027
1475	1.4666e+02	5.3300	6.964132	0.000209	2.088886	0.353867	-0.000021
1476	1.4676e+02	5.3205	6.934803	0.000295	2.949016	0.499577	-0.000029
1477	1.4686e+02	5.3097	6.914843	0.000201	2.006969	0.339990	-0.000020
1478	1.4696e+02	5.2993	6.890810	0.000242	2.416554	0.409375	-0.000024
1479	1.4706e+02	5.2923	6.869628	0.000213	2.129845	0.360805	-0.000021
1480	1.4716e+02	5.2800	6.839892	0.000299	2.989974	0.506515	-0.000030
1481	1.4726e+02	5.2717	6.819525	0.000205	2.047928	0.346928	-0.000020
1482	1.4736e+02	5.2595	6.795899	0.000238	2.375596	0.402437	-0.000024
1483	1.4746e+02	5.2489	6.771052	0.000250	2.498472	0.423253	-0.000025
1484	1.4756e+02	5.2383	6.742538	0.000287	2.867099	0.485700	-0.000029
1485	1.4766e+02	5.2282	6.718912	0.000238	2.375596	0.402437	-0.000024
1486	1.4776e+02	5.2192	6.692434	0.000266	2.662306	0.451007	-0.000027
1487	1.4786e+02	5.2094	6.670031	0.000225	2.252720	0.381621	-0.000023
1488	1.4796e+02	5.1986	6.643961	0.000262	2.621347	0.444068	-0.000026
1489	1.4806e+02	5.1900	6.625223	0.000188	1.884093	0.319174	-0.000019
1490	1.4816e+02	5.1782	6.602004	0.000233	2.334637	0.395498	-0.000023
1491	1.4825e+02	5.1733	6.573083	0.000291	2.908057	0.492638	-0.000029
1492	1.4835e+02	5.1630	6.549865	0.000233	2.334637	0.395498	-0.000023
1493	1.4845e+02	5.1528	6.526646	0.000233	2.334637	0.395498	-0.000023
1494	1.4855e+02	5.1377	6.501798	0.000250	2.498472	0.423253	-0.000025
1495	1.4865e+02	5.1287	6.478580	0.000233	2.334637	0.395498	-0.000023
1496	1.4875e+02	5.1174	6.457805	0.000209	2.088886	0.353867	-0.000021
1497	1.4885e+02	5.1101	6.433772	0.000242	2.416554	0.409375	-0.000024
1498	1.4895e+02	5.0993	6.407295	0.000266	2.662306	0.451007	-0.000027
1499	1.4905e+02	5.0927	6.382447	0.000250	2.498472	0.423253	-0.000025
1500	1.4915e+02	5.0777	6.355970	0.000266	2.662306	0.451007	-0.000027
1501	1.4925e+02	5.0675	6.330714	0.000254	2.539430	0.430191	-0.000025
1502	1.4935e+02	5.0610	6.307496	0.000233	2.334637	0.395498	-0.000023
1503	1.4945e+02	5.0517	6.279796	0.000279	2.785181	0.471823	-0.000028
1504	1.4955e+02	5.0451	6.255763	0.000242	2.416554	0.409375	-0.000024
1505	1.4965e+02	5.0319	6.232137	0.000238	2.375596	0.402437	-0.000024
1506	1.4975e+02	5.0204	6.206475	0.000258	2.580389	0.437130	-0.000026
1507	1.4985e+02	5.0095	6.181627	0.000250	2.498472	0.423253	-0.000025
1508	1.4995e+02	5.0007	6.155557	0.000262	2.621347	0.444068	-0.000026
1509	1.5005e+02	4.9940	6.128672	0.000270	2.703264	0.457945	-0.000027
1510	1.5015e+02	4.9802	6.100973	0.000279	2.785181	0.471823	-0.000028
1511	1.5025e+02	4.9723	6.078162	0.000229	2.293679	0.388560	-0.000023
1512	1.5034e+02	4.9577	6.054129	0.000242	2.416554	0.409375	-0.000024
1513	1.5044e+02	4.9506	6.029688	0.000246	2.457513	0.416314	-0.000025
1514	1.5054e+02	4.9409	6.001174	0.000287	2.867099	0.485700	-0.000029
1515	1.5064e+02	4.9315	5.971438	0.000299	2.989974	0.506515	-0.000030
1516	1.5074e+02	4.9210	5.945368	0.000262	2.621347	0.444068	-0.000026
1517	1.5084e+02	4.9120	5.917669	0.000279	2.785181	0.471823	-0.000028
1518	1.5094e+02	4.9032	5.887526	0.000303	3.030933	0.513454	-0.000030
1519	1.5104e+02	4.8920	5.863900	0.000238	2.375596	0.402437	-0.000024
1520	1.5114e+02	4.8780	5.837422	0.000266	2.662306	0.451007	-0.000027
1521	1.5124e+02	4.8699	5.807686	0.000299	2.989974	0.506515	-0.000030
1522	1.5134e+02	4.8611	5.780394	0.000274	2.744223	0.464884	-0.000027
1523	1.5144e+02	4.8492	5.753510	0.000270	2.703264	0.457945	-0.000027
1524	1.5154e+02	4.8431	5.723367	0.000303	3.030933	0.513454	-0.000030
1525	1.5164e+02	4.8304	5.691594	0.000319	3.194767	0.541208	-0.000032
1526	1.5174e+02	4.8225	5.666746	0.000250	2.498472	0.423253	-0.000025
1527	1.5184e+02	4.8104	5.637825	0.000291	2.908057	0.492638	-0.000029
1528	1.5194e+02	4.8025	5.611347	0.000266	2.662306	0.451007	-0.000027
1529	1.5204e+02	4.7900	5.582019	0.000295	2.949016	0.499577	-0.000029
1530	1.5214e+02	4.7811	5.552283	0.000299	2.989974	0.506515	-0.000030
1531	1.5224e+02	4.7713	5.523769	0.000287	2.867099	0.485700	-0.000029
1532	1.5233e+02	4.7591	5.493625	0.000303	3.030933	0.513454	-0.000030
1533	1.5243e+02	4.7497	5.464297	0.000295	2.949016	0.499577	-0.000029
1534	1.5253e+02	4.7442	5.434561	0.000299	2.989974	0.506515	-0.000030
1535	1.5263e+02	4.7335	5.408491	0.000262	2.621347	0.444068	-0.000026
1536	1.5273e+02	4.7224	5.378347	0.000303	3.030933	0.513454	-0.000030
1537	1.5283e+02	4.7106	5.349019	0.000295	2.949016	0.499577	-0.000029
1538	1.5293e+02	4.7036	5.321727	0.000274	2.744223	0.464884	-0.000027
1539	1.5303e+02	4.6922	5.292398	0.000295	2.949016	0.499577	-0.000029
1540	1.5313e+02	4.6801	5.261033	0.000315	3.153808	0.534270	-0.000032
1541	1.5323e+02	4.6751	5.233333	0.000279	2.785181	0.471823	-0.000028
1542	1.5333e+02	4.6624	5.203597	0.000299	2.989974	0.506515	-0.000030
1543	1.5343e+02	4.6519	5.175491	0.000283	2.826140	0.478761	-0.000028
1544	1.5353e+02	4.6426	5.144533	0.000311	3.112850	0.527331	-0.000031
1545	1.5363e+02	4.6331	5.118870	0.000258	2.580389	0.437130	-0.000026
1546	1.5373e+02	4.6223	5.085061	0.000340	3.399560	0.575901	-0.000034
1547	1.5383e+02	4.6128	5.057361	0.000279	2.785181	0.471823	-0.000028
1548	1.5393e+02	4.6003	5.029662	0.000279	2.785181	0.471823	-0.000028
1549	1.5403e+02	4.5928	5.001148	0.000287	2.867099	0.485700	-0.000029
1550	1.5413e+02	4.5850	4.968153	0.000332	3.317643	0.562024	-0.000033
1551	1.5422e+02	4.5734	4.937603	0.000307	3.071891	0.520392	-0.000031
1552	1.5432e+02	4.5614	4.910718	0.000270	2.703264	0.457945	-0.000027
1553	1.5442e+02	4.5509	4.879353	0.000315	3.153808	0.534270	-0.000032
1554	1.5452e+02	4.5417	4.850431	0.000291	2.908057	0.492638	-0.000029
1555	1.5462e+02	4.5321	4.819066	0.000315	3.153808	0.534270	-0.000032
1556	1.5472e+02	4.5255	4.792996	0.000262	2.621347	0.444068	-0.000026
1557	1.5482e+02	4.5103	4.760409	0.000328	3.276684	0.555085	-0.000033
1558	1.5492e+02	4.5037	4.729043	0.000315	3.153808	0.534270	-0.000032
1559	1.5502e+02	4.4945	4.698085	0.000311	3.112850	0.527331	-0.000031
1560	1.5512e+02	4.4834	4.669571	0.000287	2.867099	0.485700	-0.000029
1561	1.5522e+02	4.4733	4.636577	0.000332	3.317643	0.562024	-0.000033
1562	1.5532e+02	4.4625	4.608063	0.000287	2.867099	0.485700	-0.000029
1563	1.5542e+02	4.4534	4.572624	0.000356	3.563394	0.603655	-0.000036
1564	1.5552e+02	4.4421	4.542480	0.000303	3.030933	0.513454	-0.000030
1565	1.5562e+02	4.4320	4.511115	0.000315	3.153808	0.534270	-0.000032
1566	1.5572e+02	4.4229	4.480972	0.000303	3.030933	0.513454	-0.000030
1567	1.5582e+02	4.4141	4.446755	0.000344	3.440518	0.582840	-0.000034
1568	1.5592e+02	4.4022	4.419056	0.000279	2.785181	0.471823	-0.000028
1569	1.5602e+02	4.3932	4.387283	0.000319	3.194767	0.541208	-0.000032
1570	1.5612e+02	4.3858	4.354288	0.000332	3.317643	0.562024	-0.000033
1571	1.5622e+02	4.3758	4.324960	0.000295	2.949016	0.499577	-0.000029
1572	1.5631e+02	4.3653	4.288706	0.000365	3.645311	0.617532	-0.000036
1573	1.5641e+02	4.3540	4.261821	0.000270	2.703264	0.457945	-0.000027
1574	1.5651e+02	4.3415	4.227197	0.000348	3.481477	0.589778	-0.000035
1575	1.5661e+02	4.3346	4.195425	0.000319	3.194767	0.541208	-0.000032
1576	1.5671e+02	4.3255	4.159986	0.000356	3.563394	0.603655	-0.000036
1577	1.5681e+02	4.3129	4.128620	0.000315	3.153808	0.534270	-0.000032
1578	1.5691e+02	4.3047	4.098477	0.000303	3.030933	0.513454	-0.000030
1579	1.5701e+02	4.2939	4.063446	0.000352	3.522435	0.596717	-0.000035
1580	1.5711e+02	4.2814	4.033710	0.000299	2.989974	0.506515	-0.000030
1581	1.5721e+02	4.2751	4.001122	0.000328	3.276684	0.555085	-0.000033
1582	1.5731e+02	4.2659	3.969349	0.000319	3.194767	0.541208	-0.000032
1583	1.5741e+02	4.2536	3.937984	0.000315	3.153808	0.534270	-0.000032
1584	1.5751e+02	4.2489	3.903360	0.000348	3.481477	0.589778	-0.000035
1585	1.5761e+02	4.2316	3.876475	0.000270	2.703264	0.457945	-0.000027
1586	1.5771e+02	4.2249	3.841037	0.000356	3.563394	0.603655	-0.000036
1587	1.5781e+02	4.2124	3.809264	0.000319	3.194767	0.541208	-0.000032
1588	1.5791e+02	4.2034	3.779528	0.000299	2.989974	0.506515	-0.000030
1589	1.5801e+02	4.1911	3.749385	0.000303	3.030933	0.513454	-0.000030
1590	1.5811e+02	4.1837	3.712316	0.000373	3.727228	0.631410	-0.000037
1591	1.5821e+02	4.1741	3.684210	0.000283	2.826140	0.478761	-0.000028
1592	1.5830e+02	4.1647	3.651215	0.000332	3.317643	0.562024	-0.000033
1593	1.5840e+02	4.1547	3.618628	0.000328	3.276684	0.555085	-0.000033
1594	1.5850e+02	4.1433	3.589706	0.000291	2.908057	0.492638	-0.000029
1595	1.5860e+02	4.1373	3.553860	0.000360	3.604352	0.610594	-0.000036
1596	1.5870e+02	4.1248	3.527790	0.000262	2.621347	0.444068	-0.000026
1597	1.5880e+02	4.1135	3.498869	0.000291	2.908057	0.492638	-0.000029
1598	1.5890e+02	4.1048	3.465467	0.000336	3.358601	0.568962	-0.000034
1599	1.5900e+02	4.0961	3.436138	0.000295	2.949016	0.499577	-0.000029
1600	1.5910e+02	4.0865	3.408846	0.000274	2.744223	0.464884	-0.000027
1601	1.5920e+02	4.0766	3.379517	0.000295	2.949016	0.499577	-0.000029
1602	1.5930e+02	4.0651	3.351003	0.000287	2.867099	0.485700	-0.000029
1603	1.5940e+02	4.0534	3.318009	0.000332	3.317643	0.562024	-0.000033
1604	1.5950e+02	4.0430	3.290717	0.000274	2.744223	0.464884	-0.000027
1605	1.5960e+02	4.0354	3.257315	0.000336	3.358601	0.568962	-0.000034
1606	1.5970e+02	4.0250	3.229615	0.000279	2.785181	0.471823	-0.000028
1607	1.5980e+02	4.0163	3.197843	0.000319	3.194767	0.541208	-0.000032
1608	1.5990e+02	4.0043	3.169736	0.000283	2.826140	0.478761	-0.000028
1609	1.6000e+02	3.9999	3.139185	0.000307	3.071891	0.520392	-0.000031
1610	1.6010e+02	3.9855	3.110671	0.000287	2.867099	0.485700	-0.000029
1611	1.6019e+02	3.9774	3.079713	0.000311	3.112850	0.527331	-0.000031
1612	1.6029e+02	3.9651	3.051199	0.000287	2.867099	0.485700	-0.000029
1613	1.6039e+02	3.9573	3.019427	0.000319	3.194767	0.541208	-0.000032
1614	1.6049e+02	3.9450	2.987654	0.000319	3.194767	0.541208	-0.000032
1615	1.6059e+02	3.9342	2.960769	0.000270	2.703264	0.457945	-0.000027
1616	1.6069e+02	3.9251	2.932255	0.000287	2.867099	0.485700	-0.000029
1617	1.6079e+02	3.9144	2.904556	0.000279	2.785181	0.471823	-0.000028
1618	1.6089e+02	3.9039	2.872376	0.000324	3.235726	0.548147	-0.000032
1619	1.6099e+02	3.8982	2.845491	0.000270	2.703264	0.457945	-0.000027
1620	1.6109e+02	3.8882	2.817385	0.000283	2.826140	0.478761	-0.000028
1621	1.6119e+02	3.8763	2.789278	0.000283	2.826140	0.478761	-0.000028
1622	1.6129e+02	3.8655	2.759949	0.000295	2.949016	0.499577	-0.000029
1623	1.6139e+02	3.8557	2.729806	0.000303	3.030933	0.513454	-0.000030
1624	1.6149e+02	3.8457	2.698033	0.000319	3.194767	0.541208	-0.000032
1625	1.6159e+02	3.8339	2.668297	0.000299	2.989974	0.506515	-0.000030
1626	1.6169e+02	3.8249	2.641005	0.000274	2.744223	0.464884	-0.000027
1627	1.6179e+02	3.8201	2.609233	0.000319	3.194767	0.541208	-0.000032
1628	1.6189e+02	3.8055	2.583163	0.000262	2.621347	0.444068	-0.000026
1629	1.6199e+02	3.7952	2.551390	0.000319	3.194767	0.541208	-0.000032
1630	1.6209e+02	3.7850	2.521247	0.000303	3.030933	0.513454	-0.000030
1631	1.6219e+02	3.7762	2.491918	0.000295	2.949016	0.499577	-0.000029
1632	1.6228e+02	3.7656	2.464219	0.000279	2.785181	0.471823	-0.000028
1633	1.6238e+02	3.7572	2.436927	0.000274	2.744223	0.464884	-0.000027
1634	1.6248e+02	3.7470	2.407598	0.000295	2.949016	0.499577	-0.000029
1635	1.6258e+02	3.7359	2.376640	0.000311	3.112850	0.527331	-0.000031
1636	1.6268e+02	3.7261	2.351792	0.000250	2.498472	0.423253	-0.000025
1637	1.6278e+02	3.7168	2.320834	0.000311	3.112850	0.527331	-0.000031
1638	1.6288e+02	3.7041	2.288654	0.000324	3.235726	0.548147	-0.000032
1639	1.6298e+02	3.6950	2.265436	0.000233	2.334637	0.395498	-0.000023
1640	1.6308e+02	3.6858	2.228367	0.000373	3.727228	0.631410	-0.000037
1641	1.6318e+02	3.6782	2.198631	0.000299	2.989974	0.506515	-0.000030
1642	1.6328e+02	3.6675	2.174191	0.000246	2.457513	0.416314	-0.000025
1643	1.6338e+02	3.6568	2.144048	0.000303	3.030933	0.513454	-0.000030
1644	1.6348e+02	3.6492	2.113497	0.000307	3.071891	0.520392	-0.000031
1645	1.6358e+02	3.6382	2.082946	0.000307	3.071891	0.520392	-0.000031
1646	1.6368e+02	3.6280	2.058913	0.000242	2.416554	0.409375	-0.000024
1647	1.6378e+02	3.6182	2.033250	0.000258	2.580389	0.437130	-0.000026
1648	1.6388e+02	3.6113	2.004329	0.000291	2.908057	0.492638	-0.000029
1649	1.6398e+02	3.5963	1.976222	0.000283	2.826140	0.478761	-0.000028
1650	1.6408e+02	3.5857	1.947708	0.000287	2.867099	0.485700	-0.000029
1651	1.6418e+02	3.5784	1.917972	0.000299	2.989974	0.506515	-0.000030
1652	1.6427e+02	3.5651	1.887014	0.000311	3.112850	0.527331	-0.000031
1653	1.6437e+02	3.5574	1.858093	0.000291	2.908057	0.492638	-0.000029
1654	1.6447e+02	3.5482	1.829172	0.000291	2.908057	0.492638	-0.000029
1655	1.6457e+02	3.5380	1.797806	0.000315	3.153808	0.534270	-0.000032
1656	1.6467e+02	3.5294	1.772144	0.000258	2.580389	0.437130	-0.000026
1657	1.6477e+02	3.5187	1.745667	0.000266	2.662306	0.451007	-0.000027
1658	1.6487e+02	3.5079	1.717560	0.000283	2.826140	0.478761	-0.000028
1659	1.6497e+02	3.4960	1.689046	0.000287	2.867099	0.485700	-0.000029
1660	1.6507e+02	3.4866	1.659310	0.000299	2.989974	0.506515	-0.000030
1661	1.6517e+02	3.4807	1.629167	0.000303	3.030933	0.513454	-0.000030
1662	1.6527e+02	3.4690	1.603911	0.000254	2.539430	0.430191	-0.000025
1663	1.6537e+02	3.4576	1.577841	0.000262	2.621347	0.444068	-0.000026
1664	1.6547e+02	3.4481	1.551771	0.000262	2.621347	0.444068	-0.000026
1665	1.6557e+02	3.4380	1.522443	0.000295	2.949016	0.499577	-0.000029
1666	1.6567e+02	3.4301	1.491485	0.000311	3.112850	0.527331	-0.000031
1667	1.6577e+02	3.4195	1.459305	0.000324	3.235726	0.548147	-0.000032
1668	1.6587e+02	3.4121	1.433642	0.000258	2.580389	0.437130	-0.000026
1669	1.6597e+02	3.4003	1.401869	0.000319	3.194767	0.541208	-0.000032
1670	1.6607e+02	3.3895	1.372541	0.000295	2.949016	0.499577	-0.000029
1671	1.6616e+02	3.3776	1.342397	0.000303	3.030933	0.513454	-0.000030
1672	1.6626e+02	3.3681	1.313476	0.000291	2.908057	0.492638	-0.000029
1673	1.6636e+02	3.3592	1.288628	0.000250	2.498472	0.423253	-0.000025
1674	1.6646e+02	3.3490	1.259299	0.000295	2.949016	0.499577	-0.000029
1675	1.6656e+02	3.3398	1.225083	0.000344	3.440518	0.582840	-0.000034
1676	1.6666e+02	3.3306	1.197383	0.000279	2.785181	0.471823	-0.000028
1677	1.6676e+02	3.3183	1.167647	0.000299	2.989974	0.506515	-0.000030
1678	1.6686e+02	3.3108	1.138726	0.000291	2.908057	0.492638	-0.000029
1679	1.6696e+02	3.3014	1.111027	0.000279	2.785181	0.471823	-0.000028
1680	1.6706e+02	3.2911	1.078439	0.000328	3.276684	0.555085	-0.000033
1681	1.6716e+02	3.2800	1.047481	0.000311	3.112850	0.527331	-0.000031
1682	1.6726e+02	3.2684	1.014079	0.000336	3.358601	0.568962	-0.000034
1683	1.6736e+02	3.2581	0.985158	0.000291	2.908057	0.492638	-0.000029
1684	1.6746e+02	3.2501	0.953385	0.000319	3.194767	0.541208	-0.000032
1685	1.6756e+02	3.2396	0.919983	0.000336	3.358601	0.568962	-0.000034
1686	1.6766e+02	3.2307	0.889025	0.000311	3.112850	0.527331	-0.000031
1687	1.6776e+02	3.2199	0.856030	0.000332	3.317643	0.562024	-0.000033
1688	1.6786e+02	3.2071	0.825480	0.000307	3.071891	0.520392	-0.000031
1689	1.6796e+02	3.2004	0.788412	0.000373	3.727228	0.631410	-0.000037
1690	1.6806e+02	3.1873	0.757861	0.000307	3.071891	0.520392	-0.000031
1691	1.6816e+02	3.1817	0.725681	0.000324	3.235726	0.548147	-0.000032
1692	1.6825e+02	3.1707	0.693093	0.000328	3.276684	0.555085	-0.000033
1693	1.6835e+02	3.1583	0.663765	0.000295	2.949016	0.499577	-0.000029
1694	1.6845e+02	3.1524	0.629141	0.000348	3.481477	0.589778	-0.000035
1695	1.6855e+02	3.1402	0.598590	0.000307	3.071891	0.520392	-0.000031
1696	1.6865e+02	3.1268	0.565595	0.000332	3.317643	0.562024	-0.000033
1697	1.6875e+02	3.1191	0.531378	0.000344	3.440518	0.582840	-0.000034
1698	1.6885e+02	3.1087	0.498384	0.000332	3.317643	0.562024	-0.000033
1699	1.6895e+02	3.0975	0.467426	0.000311	3.112850	0.527331	-0.000031
1700	1.6905e+02	3.0908	0.435653	0.000319	3.194767	0.541208	-0.000032
1701	1.6915e+02	3.0798	0.400621	0.000352	3.522435	0.596717	-0.000035
1702	1.6925e+02	3.0711	0.365590	0.000352	3.522435	0.596717	-0.000035
1703	1.6935e+02	3.0601	0.333003	0.000328	3.276684	0.555085	-0.000033
1704	1.6945e+02	3.0489	0.299600	0.000336	3.358601	0.568962	-0.000034
1705	1.6955e+02	3.0402	0.265791	0.000340	3.399560	0.575901	-0.000034
1706	1.6965e+02	3.0299	0.231574	0.000344	3.440518	0.582840	-0.000034
1707	1.6975e+02	3.0212	0.198579	0.000332	3.317643	0.562024	-0.000033
1708	1.6985e+02	3.0105	0.164770	0.000340	3.399560	0.575901	-0.000034
1709	1.6995e+02	2.9984	0.132997	0.000319	3.194767	0.541208	-0.000032
1710	1.7005e+02	2.9865	0.096744	0.000365	3.645311	0.617532	-0.000036
1711	1.7015e+02	2.9800	0.064564	0.000324	3.235726	0.548147	-0.000032
1712	1.7024e+02	2.9713	0.029532	0.000352	3.522435	0.596717	-0.000035
1713	1.7034e+02	2.9608	-0.005092	0.000348	3.481477	0.589778	-0.000035
1714	1.7044e+02	2.9523	-0.036050	0.000311	3.112850	0.527331	-0.000031
1715	1.7054e+02	2.9405	-0.073933	0.000381	3.809145	0.645287	-0.000038
1716	1.7064e+02	2.9311	-0.105298	0.000315	3.153808	0.534270	-0.000032
1717	1.7074e+02	2.9208	-0.141959	0.000369	3.686270	0.624471	-0.000037
1718	1.7084e+02	2.9128	-0.177398	0.000356	3.563394	0.603655	-0.000036
1719	1.7094e+02	2.8992	-0.207541	0.000303	3.030933	0.513454	-0.000030
1720	1.7104e+02	2.8908	-0.240536	0.000332	3.317643	0.562024	-0.000033
1721	1.7114e+02	2.8802	-0.279641	0.000393	3.932021	0.666102	-0.000039
1722	1.7124e+02	2.8701	-0.313043	0.000336	3.358601	0.568962	-0.000034
1723	1.7134e+02	2.8600	-0.341964	0.000291	2.908057	0.492638	-0.000029
1724	1.7144e+02	2.8511	-0.379032	0.000373	3.727228	0.631410	-0.000037
1725	1.7154e+02	2.8418	-0.412842	0.000340	3.399560	0.575901	-0.000034
1726	1.7164e+02	2.8323	-0.446244	0.000336	3.358601	0.568962	-0.000034
1727	1.7174e+02	2.8193	-0.482090	0.000360	3.604352	0.610594	-0.000036
1728	1.7184e+02	2.8120	-0.518751	0.000369	3.686270	0.624471	-0.000037
1729	1.7194e+02	2.8039	-0.555412	0.000369	3.686270	0.624471	-0.000037
1730	1.7204e+02	2.7919	-0.593294	0.000381	3.809145	0.645287	-0.000038
1731	1.7213e+02	2.7802	-0.629548	0.000365	3.645311	0.617532	-0.000036
1732	1.7223e+02	2.7708	-0.665801	0.000365	3.645311	0.617532	-0.000036
1733	1.7233e+02	2.7641	-0.700426	0.000348	3.481477	0.589778	-0.000035
1734	1.7243e+02	2.7515	-0.735457	0.000352	3.522435	0.596717	-0.000035
1735	1.7253e+02	2.7414	-0.775377	0.000401	4.013938	0.679979	-0.000040
1736	1.7263e+02	2.7351	-0.807964	0.000328	3.276684	0.555085	-0.000033
1737	1.7273e+02	2.7202	-0.844217	0.000365	3.645311	0.617532	-0.000036
1738	1.7283e+02	2.7122	-0.880878	0.000369	3.686270	0.624471	-0.000037
1739	1.7293e+02	2.7016	-0.913873	0.000332	3.317643	0.562024	-0.000033
1740	1.7303e+02	2.6926	-0.951349	0.000377	3.768187	0.638348	-0.000038
1741	1.7313e+02	2.6812	-0.990453	0.000393	3.932021	0.666102	-0.000039
1742	1.7323e+02	2.6749	-1.027929	0.000377	3.768187	0.638348	-0.000038
1743	1.7333e+02	2.6616	-1.064997	0.000373	3.727228	0.631410	-0.000037
1744	1.7343e+02	2.6524	-1.099621	0.000348	3.481477	0.589778	-0.000035
1745	1.7353e+02	2.6439	-1.135875	0.000365	3.645311	0.617532	-0.000036
1746	1.7363e+02	2.6332	-1.175794	0.000401	4.013938	0.679979	-0.000040
1747	1.7373e+02	2.6254	-1.213677	0.000381	3.809145	0.645287	-0.000038
1748	1.7383e+02	2.6138	-1.251967	0.000385	3.850104	0.652225	-0.000038
1749	1.7393e+02	2.6002	-1.288628	0.000369	3.686270	0.624471	-0.000037
1750	1.7403e+02	2.5931	-1.322845	0.000344	3.440518	0.582840	-0.000034
1751	1.7413e+02	2.5818	-1.360320	0.000377	3.768187	0.638348	-0.000038
1752	1.7422e+02	2.5731	-1.396574	0.000365	3.645311	0.617532	-0.000036
1753	1.7432e+02	2.5636	-1.434457	0.000381	3.809145	0.645287	-0.000038
1754	1.7442e+02	2.5537	-1.466637	0.000324	3.235726	0.548147	-0.000032
1755	1.7452e+02	2.5437	-1.502890	0.000365	3.645311	0.617532	-0.000036
1756	1.7462e+02	2.5356	-1.539551	0.000369	3.686270	0.624471	-0.000037
1757	1.7472e+02	2.5231	-1.576212	0.000369	3.686270	0.624471	-0.000037
1758	1.7482e+02	2.5124	-1.612465	0.000365	3.645311	0.617532	-0.000036
1759	1.7492e+02	2.5043	-1.645868	0.000336	3.358601	0.568962	-0.000034
1760	1.7502e+02	2.4931	-1.684972	0.000393	3.932021	0.666102	-0.000039
1761	1.7512e+02	2.4830	-1.722855	0.000381	3.809145	0.645287	-0.000038
1762	1.7522e+02	2.4718	-1.756665	0.000340	3.399560	0.575901	-0.000034
1763	1.7532e+02	2.4651	-1.790067	0.000336	3.358601	0.568962	-0.000034
1764	1.7542e+02	2.4551	-1.825913	0.000360	3.604352	0.610594	-0.000036
1765	1.7552e+02	2.4442	-1.862574	0.000369	3.686270	0.624471	-0.000037
1766	1.7562e+02	2.4339	-1.899235	0.000369	3.686270	0.624471	-0.000037
1767	1.7572e+02	2.4223	-1.931415	0.000324	3.235726	0.548147	-0.000032
1768	1.7582e+02	2.4124	-1.966446	0.000352	3.522435	0.596717	-0.000035
1769	1.7592e+02	2.4027	-1.999848	0.000336	3.358601	0.568962	-0.000034
1770	1.7602e+02	2.3952	-2.034472	0.000348	3.481477	0.589778	-0.000035
1771	1.7612e+02	2.3840	-2.069096	0.000348	3.481477	0.589778	-0.000035
1772	1.7621e+02	2.3721	-2.106572	0.000377	3.768187	0.638348	-0.000038
1773	1.7631e+02	2.3604	-2.141196	0.000348	3.481477	0.589778	-0.000035
1774	1.7641e+02	2.3556	-2.173376	0.000324	3.235726	0.548147	-0.000032
1775	1.7651e+02	2.3449	-2.208815	0.000356	3.563394	0.603655	-0.000036
1776	1.7661e+02	2.3327	-2.244254	0.000356	3.563394	0.603655	-0.000036
1777	1.7671e+02	2.3239	-2.279693	0.000356	3.563394	0.603655	-0.000036
1778	1.7681e+02	2.3145	-2.313909	0.000344	3.440518	0.582840	-0.000034
1779	1.7691e+02	2.3015	-2.344053	0.000303	3.030933	0.513454	-0.000030
1780	1.7701e+02	2.2907	-2.386009	0.000422	4.218731	0.714672	-0.000042
1781	1.7711e+02	2.2831	-2.413708	0.000279	2.785181	0.471823	-0.000028
1782	1.7721e+02	2.2743	-2.453221	0.000397	3.972979	0.673041	-0.000040
1783	1.7731e+02	2.2633	-2.485808	0.000328	3.276684	0.555085	-0.000033
1784	1.7741e+02	2.2538	-2.515544	0.000299	2.989974	0.506515	-0.000030
1785	1.7751e+02	2.2435	-2.552205	0.000369	3.686270	0.624471	-0.000037
1786	1.7761e+02	2.2385	-2.582348	0.000303	3.030933	0.513454	-0.000030
1787	1.7771e+02	2.2262	-2.623082	0.000410	4.095855	0.693857	-0.000041
1788	1.7781e+02	2.2146	-2.657299	0.000344	3.440518	0.582840	-0.000034
1789	1.7791e+02	2.2041	-2.688665	0.000315	3.153808	0.534270	-0.000032
1790	1.7801e+02	2.1923	-2.724918	0.000365	3.645311	0.617532	-0.000036
1791	1.7810e+02	2.1824	-2.757098	0.000324	3.235726	0.548147	-0.000032
1792	1.7820e+02	2.1780	-2.791722	0.000348	3.481477	0.589778	-0.000035
1793	1.7830e+02	2.1663	-2.828383	0.000369	3.686270	0.624471	-0.000037
1794	1.7840e+02	2.1525	-2.864229	0.000360	3.604352	0.610594	-0.000036
1795	1.7850e+02	2.1456	-2.895187	0.000311	3.112850	0.527331	-0.000031
1796	1.7860e+02	2.1347	-2.928589	0.000336	3.358601	0.568962	-0.000034
1797	1.7870e+02	2.1259	-2.963621	0.000352	3.522435	0.596717	-0.000035
1798	1.7880e+02	2.1165	-2.998652	0.000352	3.522435	0.596717	-0.000035
1799	1.7890e+02	2.1057	-3.031647	0.000332	3.317643	0.562024	-0.000033
1800	1.7900e+02	2.0940	-3.065456	0.000340	3.399560	0.575901	-0.000034
1801	1.7910e+02	2.0855	-3.093970	0.000287	2.867099	0.485700	-0.000029
1802	1.7920e+02	2.0760	-3.134705	0.000410	4.095855	0.693857	-0.000041
1803	1.7930e+02	2.0632	-3.169736	0.000352	3.522435	0.596717	-0.000035
1804	1.7940e+02	2.0541	-3.203138	0.000336	3.358601	0.568962	-0.000034
1805	1.7950e+02	2.0461	-3.242243	0.000393	3.932021	0.666102	-0.000039
1806	1.7960e+02	2.0353	-3.270350	0.000283	2.826140	0.478761	-0.000028
1807	1.7970e+02	2.0249	-3.308233	0.000381	3.809145	0.645287	-0.000038
1808	1.7980e+02	2.0138	-3.341227	0.000332	3.317643	0.562024	-0.000033
1809	1.7990e+02	2.0055	-3.376666	0.000356	3.563394	0.603655	-0.000036
1810	1.8000e+02	1.9978	-3.410476	0.000340	3.399560	0.575901	-0.000034
1811	1.8009e+02	1.9834	-3.443878	0.000336	3.358601	0.568962	-0.000034
1812	1.8019e+02	1.9759	-3.477280	0.000336	3.358601	0.568962	-0.000034
1813	1.8029e+02	1.9646	-3.507830	0.000307	3.071891	0.520392	-0.000031
1814	1.8039e+02	1.9567	-3.544899	0.000373	3.727228	0.631410	-0.000037
1815	1.8049e+02	1.9457	-3.575857	0.000311	3.112850	0.527331	-0.000031
1816	1.8059e+02	1.9364	-3.612517	0.000369	3.686270	0.624471	-0.000037
1817	1.8069e+02	1.9250	-3.643068	0.000307	3.071891	0.520392	-0.000031
1818	1.8079e+02	1.9120	-3.677692	0.000348	3.481477	0.589778	-0.000035
1819	1.8089e+02	1.9071	-3.710687	0.000332	3.317643	0.562024	-0.000033
1820	1.8099e+02	1.8984	-3.747348	0.000369	3.686270	0.624471	-0.000037
1821	1.8109e+02	1.8841	-3.778713	0.000315	3.153808	0.534270	-0.000032
1822	1.8119e+02	1.8754	-3.814152	0.000356	3.563394	0.603655	-0.000036
1823	1.8129e+02	1.8639	-3.848369	0.000344	3.440518	0.582840	-0.000034
1824	1.8139e+02	1.8550	-3.878919	0.000307	3.071891	0.520392	-0.000031
1825	1.8149e+02	1.8472	-3.912729	0.000340	3.399560	0.575901	-0.000034
1826	1.8159e+02	1.8365	-3.944909	0.000324	3.235726	0.548147	-0.000032
1827	1.8169e+02	1.8284	-3.981162	0.000365	3.645311	0.617532	-0.000036
1828	1.8179e+02	1.8153	-4.013342	0.000324	3.235726	0.548147	-0.000032
1829	1.8189e+02	1.8079	-4.047967	0.000348	3.481477	0.589778	-0.000035
1830	1.8199e+02	1.7974	-4.077703	0.000299	2.989974	0.506515	-0.000030
1831	1.8209e+02	1.7863	-4.111512	0.000340	3.399560	0.575901	-0.000034
1832	1.8218e+02	1.7757	-4.141248	0.000299	2.989974	0.506515	-0.000030
1833	1.8228e+02	1.7661	-4.177502	0.000365	3.645311	0.617532	-0.000036
1834	1.8238e+02	1.7589	-4.214570	0.000373	3.727228	0.631410	-0.000037
1835	1.8248e+02	1.7451	-4.251231	0.000369	3.686270	0.624471	-0.000037
1836	1.8258e+02	1.7365	-4.282189	0.000311	3.112850	0.527331	-0.000031
1837	1.8268e+02	1.7266	-4.315998	0.000340	3.399560	0.575901	-0.000034
1838	1.8278e+02	1.7176	-4.355103	0.000393	3.932021	0.666102	-0.000039
1839	1.8288e+02	1.7057	-4.384432	0.000295	2.949016	0.499577	-0.000029
1840	1.8298e+02	1.6962	-4.419870	0.000356	3.563394	0.603655	-0.000036
1841	1.8308e+02	1.6872	-4.456531	0.000369	3.686270	0.624471	-0.000037
1842	1.8318e+02	1.6778	-4.489933	0.000336	3.358601	0.568962	-0.000034
1843	1.8328e+02	1.6666	-4.524150	0.000344	3.440518	0.582840	-0.000034
1844	1.8338e+02	1.6596	-4.558774	0.000348	3.481477	0.589778	-0.000035
1845	1.8348e+02	1.6457	-4.596250	0.000377	3.768187	0.638348	-0.000038
1846	1.8358e+02	1.6363	-4.630874	0.000348	3.481477	0.589778	-0.000035
1847	1.8368e+02	1.6283	-4.666313	0.000356	3.563394	0.603655	-0.000036
1848	1.8378e+02	1.6153	-4.702159	0.000360	3.604352	0.610594	-0.000036
1849	1.8388e+02	1.6075	-4.738412	0.000365	3.645311	0.617532	-0.000036
1850	1.8398e+02	1.6008	-4.773036	0.000348	3.481477	0.589778	-0.000035
1851	1.8407e+02	1.5876	-4.810105	0.000373	3.727228	0.631410	-0.000037
1852	1.8417e+02	1.5795	-4.849209	0.000393	3.932021	0.666102	-0.000039
1853	1.8427e+02	1.5679	-4.887907	0.000389	3.891062	0.659164	-0.000039
1854	1.8437e+02	1.5575	-4.920087	0.000324	3.235726	0.548147	-0.000032
1855	1.8447e+02	1.5502	-4.958377	0.000385	3.850104	0.652225	-0.000038
1856	1.8457e+02	1.5379	-4.997075	0.000389	3.891062	0.659164	-0.000039
1857	1.8467e+02	1.5301	-5.038216	0.000414	4.136814	0.700795	-0.000041
1858	1.8477e+02	1.5158	-5.072433	0.000344	3.440518	0.582840	-0.000034
1859	1.8487e+02	1.5093	-5.109501	0.000373	3.727228	0.631410	-0.000037
1860	1.8497e+02	1.5002	-5.149014	0.000397	3.972979	0.673041	-0.000040
1861	1.8507e+02	1.4893	-5.183230	0.000344	3.440518	0.582840	-0.000034
1862	1.8517e+02	1.4777	-5.224779	0.000418	4.177772	0.707734	-0.000042
1863	1.8527e+02	1.4675	-5.261440	0.000369	3.686270	0.624471	-0.000037
1864	1.8537e+02	1.4588	-5.300952	0.000397	3.972979	0.673041	-0.000040
1865	1.8547e+02	1.4494	-5.338020	0.000373	3.727228	0.631410	-0.000037
1866	1.8557e+02	1.4385	-5.378347	0.000405	4.054897	0.686918	-0.000041
1867	1.8567e+02	1.4301	-5.416638	0.000385	3.850104	0.652225	-0.000038
1868	1.8577e+02	1.4177	-5.454520	0.000381	3.809145	0.645287	-0.000038
1869	1.8587e+02	1.4088	-5.496477	0.000422	4.218731	0.714672	-0.000042
1870	1.8597e+02	1.3991	-5.530286	0.000340	3.399560	0.575901	-0.000034
1871	1.8606e+02	1.3873	-5.573057	0.000430	4.300648	0.728549	-0.000043
1872	1.8616e+02	1.3793	-5.607681	0.000348	3.481477	0.589778	-0.000035
1873	1.8626e+02	1.3663	-5.648008	0.000405	4.054897	0.686918	-0.000041
1874	1.8636e+02	1.3605	-5.687113	0.000393	3.932021	0.666102	-0.000039
1875	1.8646e+02	1.3480	-5.725403	0.000385	3.850104	0.652225	-0.000038
1876	1.8656e+02	1.3376	-5.765323	0.000401	4.013938	0.679979	-0.000040
1877	1.8666e+02	1.3298	-5.801984	0.000369	3.686270	0.624471	-0.000037
1878	1.8676e+02	1.3168	-5.840681	0.000389	3.891062	0.659164	-0.000039
1879	1.8686e+02	1.3077	-5.880601	0.000401	4.013938	0.679979	-0.000040
1880	1.8696e+02	1.2970	-5.920520	0.000401	4.013938	0.679979	-0.000040
1881	1.8706e+02	1.2891	-5.957996	0.000377	3.768187	0.638348	-0.000038
1882	1.8716e+02	1.2806	-5.998730	0.000410	4.095855	0.693857	-0.000041
1883	1.8726e+02	1.2687	-6.039057	0.000405	4.054897	0.686918	-0.000041
1884	1.8736e+02	1.2584	-6.075310	0.000365	3.645311	0.617532	-0.000036
1885	1.8746e+02	1.2475	-6.118489	0.000434	4.341606	0.735488	-0.000043
1886	1.8756e+02	1.2402	-6.155964	0.000377	3.768187	0.638348	-0.000038
1887	1.8766e+02	1.2309	-6.196699	0.000410	4.095855	0.693857	-0.000041
1888	1.8776e+02	1.2200	-6.237025	0.000405	4.054897	0.686918	-0.000041
1889	1.8786e+02	1.2089	-6.272872	0.000360	3.604352	0.610594	-0.000036
1890	1.8796e+02	1.1996	-6.314421	0.000418	4.177772	0.707734	-0.000042
1891	1.8806e+02	1.1916	-6.352711	0.000385	3.850104	0.652225	-0.000038
1892	1.8815e+02	1.1804	-6.393445	0.000410	4.095855	0.693857	-0.000041
1893	1.8825e+02	1.1699	-6.434179	0.000410	4.095855	0.693857	-0.000041
1894	1.8835e+02	1.1559	-6.474914	0.000410	4.095855	0.693857	-0.000041
1895	1.8845e+02	1.1535	-6.513611	0.000389	3.891062	0.659164	-0.000039
1896	1.8855e+02	1.1423	-6.555567	0.000422	4.218731	0.714672	-0.000042
1897	1.8865e+02	1.1304	-6.599560	0.000442	4.423523	0.749365	-0.000044
1898	1.8875e+02	1.1204	-6.640295	0.000410	4.095855	0.693857	-0.000041
1899	1.8885e+02	1.1102	-6.678177	0.000381	3.809145	0.645287	-0.000038
1900	1.8895e+02	1.1005	-6.725429	0.000475	4.751192	0.804874	-0.000047
1901	1.8905e+02	1.0924	-6.759646	0.000344	3.440518	0.582840	-0.000034
1902	1.8915e+02	1.0789	-6.804861	0.000455	4.546399	0.770181	-0.000045
1903	1.8925e+02	1.0704	-6.845188	0.000405	4.054897	0.686918	-0.000041
1904	1.8935e+02	1.0564	-6.887144	0.000422	4.218731	0.714672	-0.000042
1905	1.8945e+02	1.0510	-6.927471	0.000405	4.054897	0.686918	-0.000041
1906	1.8955e+02	1.0404	-6.972686	0.000455	4.546399	0.770181	-0.000045
1907	1.8965e+02	1.0326	-7.012198	0.000397	3.972979	0.673041	-0.000040
1908	1.8975e+02	1.0204	-7.055784	0.000438	4.382565	0.742427	-0.000044
1909	1.8985e+02	1.0123	-7.098555	0.000430	4.300648	0.728549	-0.000043
1910	1.8995e+02	0.9988	-7.141326	0.000430	4.300648	0.728549	-0.000043
1911	1.9004e+02	0.9905	-7.182875	0.000418	4.177772	0.707734	-0.000042
1912	1.9014e+02	0.9774	-7.222794	0.000401	4.013938	0.679979	-0.000040
1913	1.9024e+02	0.9706	-7.269639	0.000471	4.710233	0.797935	-0.000047
1914	1.9034e+02	0.9621	-7.312817	0.000434	4.341606	0.735488	-0.000043
1915	1.9044e+02	0.9521	-7.351107	0.000385	3.850104	0.652225	-0.000038
1916	1.9054e+02	0.9389	-7.393878	0.000430	4.300648	0.728549	-0.000043
1917	1.9064e+02	0.9307	-7.438279	0.000446	4.464482	0.756304	-0.000045
1918	1.9074e+02	0.9193	-7.477791	0.000397	3.972979	0.673041	-0.000040
1919	1.9084e+02	0.9103	-7.519747	0.000422	4.218731	0.714672	-0.000042
1920	1.9094e+02	0.9022	-7.562518	0.000430	4.300648	0.728549	-0.000043
1921	1.9104e+02	0.8925	-7.600808	0.000385	3.850104	0.652225	-0.000038
1922	1.9114e+02	0.8830	-7.646023	0.000455	4.546399	0.770181	-0.000045
1923	1.9124e+02	0.8683	-7.685536	0.000397	3.972979	0.673041	-0.000040
1924	1.9134e+02	0.8611	-7.728714	0.000434	4.341606	0.735488	-0.000043
1925	1.9144e+02	0.8498	-7.771078	0.000426	4.259689	0.721611	-0.000043
1926	1.9154e+02	0.8413	-7.809368	0.000385	3.850104	0.652225	-0.000038
1927	1.9164e+02	0.8321	-7.851731	0.000426	4.259689	0.721611	-0.000043
1928	1.9174e+02	0.8230	-7.896946	0.000455	4.546399	0.770181	-0.000045
1929	1.9184e+02	0.8096	-7.936051	0.000393	3.932021	0.666102	-0.000039
1930	1.9194e+02	0.8024	-7.976378	0.000405	4.054897	0.686918	-0.000041
1931	1.9203e+02	0.7947	-8.016298	0.000401	4.013938	0.679979	-0.000040
1932	1.9213e+02	0.7821	-8.059476	0.000434	4.341606	0.735488	-0.000043
1933	1.9223e+02	0.7711	-8.100210	0.000410	4.095855	0.693857	-0.000041
1934	1.9233e+02	0.7612	-8.141352	0.000414	4.136814	0.700795	-0.000041
1935	1.9243e+02	0.7523	-8.183716	0.000426	4.259689	0.721611	-0.000043
1936	1.9253e+02	0.7423	-8.221598	0.000381	3.809145	0.645287	-0.000038
1937	1.9263e+02	0.7305	-8.260703	0.000393	3.932021	0.666102	-0.000039
1938	1.9273e+02	0.7191	-8.299401	0.000389	3.891062	0.659164	-0.000039
1939	1.9283e+02	0.7127	-8.341357	0.000422	4.218731	0.714672	-0.000042
1940	1.9293e+02	0.7010	-8.382499	0.000414	4.136814	0.700795	-0.000041
1941	1.9303e+02	0.6919	-8.420382	0.000381	3.809145	0.645287	-0.000038
1942	1.9313e+02	0.6821	-8.459079	0.000389	3.891062	0.659164	-0.000039
1943	1.9323e+02	0.6690	-8.502665	0.000438	4.382565	0.742427	-0.000044
1944	1.9333e+02	0.6627	-8.542177	0.000397	3.972979	0.673041	-0.000040
1945	1.9343e+02	0.6523	-8.578430	0.000365	3.645311	0.617532	-0.000036
1946	1.9353e+02	0.6441	-8.624053	0.000459	4.587358	0.777119	-0.000046
1947	1.9363e+02	0.6311	-8.663158	0.000393	3.932021	0.666102	-0.000039
1948	1.9373e+02	0.6222	-8.700226	0.000373	3.727228	0.631410	-0.000037
1949	1.9383e+02	0.6147	-8.736479	0.000365	3.645311	0.617532	-0.000036
1950	1.9393e+02	0.6015	-8.780472	0.000442	4.423523	0.749365	-0.000044
1951	1.9403e+02	0.5960	-8.820392	0.000401	4.013938	0.679979	-0.000040
1952	1.9412e+02	0.5861	-8.860719	0.000405	4.054897	0.686918	-0.000041
1953	1.9422e+02	0.5746	-8.899009	0.000385	3.850104	0.652225	-0.000038
1954	1.9432e+02	0.5624	-8.934041	0.000352	3.522435	0.596717	-0.000035
1955	1.9442e+02	0.5512	-8.978441	0.000446	4.464482	0.756304	-0.000045
1956	1.9452e+02	0.5411	-9.016731	0.000385	3.850104	0.652225	-0.000038
1957	1.9462e+02	0.5328	-9.055021	0.000385	3.850104	0.652225	-0.000038
1958	1.9472e+02	0.5214	-9.094941	0.000401	4.013938	0.679979	-0.000040
1959	1.9482e+02	0.5125	-9.134453	0.000397	3.972979	0.673041	-0.000040
1960	1.9492e+02	0.5029	-9.176409	0.000422	4.218731	0.714672	-0.000042
1961	1.9502e+02	0.4934	-9.214700	0.000385	3.850104	0.652225	-0.000038
1962	1.9512e+02	0.4836	-9.255841	0.000414	4.136814	0.700795	-0.000041
1963	1.9522e+02	0.4714	-9.294946	0.000393	3.932021	0.666102	-0.000039
1964	1.9532e+02	0.4629	-9.335273	0.000405	4.054897	0.686918	-0.000041
1965	1.9542e+02	0.4511	-9.377229	0.000422	4.218731	0.714672	-0.000042
1966	1.9552e+02	0.4426	-9.413890	0.000369	3.686270	0.624471	-0.000037
1967	1.9562e+02	0.4300	-9.453402	0.000397	3.972979	0.673041	-0.000040
1968	1.9572e+02	0.4238	-9.493322	0.000401	4.013938	0.679979	-0.000040
1969	1.9582e+02	0.4127	-9.532019	0.000389	3.891062	0.659164	-0.000039
1970	1.9592e+02	0.4044	-9.573161	0.000414	4.136814	0.700795	-0.000041
1971	1.9601e+02	0.3958	-9.611451	0.000385	3.850104	0.652225	-0.000038
1972	1.9611e+02	0.3835	-9.648112	0.000369	3.686270	0.624471	-0.000037
1973	1.9621e+02	0.3732	-9.694142	0.000463	4.628316	0.784058	-0.000046
1974	1.9631e+02	0.3611	-9.731210	0.000373	3.727228	0.631410	-0.000037
1975	1.9641e+02	0.3537	-9.769500	0.000385	3.850104	0.652225	-0.000038
1976	1.9651e+02	0.3436	-9.809827	0.000405	4.054897	0.686918	-0.000041
1977	1.9661e+02	0.3326	-9.852191	0.000426	4.259689	0.721611	-0.000043
1978	1.9671e+02	0.3212	-9.890888	0.000389	3.891062	0.659164	-0.000039
1979	1.9681e+02	0.3146	-9.932437	0.000418	4.177772	0.707734	-0.000042
1980	1.9691e+02	0.3065	-9.969913	0.000377	3.768187	0.638348	-0.000038
1981	1.9701e+02	0.2963	-10.007388	0.000377	3.768187	0.638348	-0.000038
1982	1.9711e+02	0.2843	-10.046086	0.000389	3.891062	0.659164	-0.000039
1983	1.9721e+02	0.2751	-10.084376	0.000385	3.850104	0.652225	-0.000038
1984	1.9731e+02	0.2678	-10.120222	0.000360	3.604352	0.610594	-0.000036
1985	1.9741e+02	0.2526	-10.161364	0.000414	4.136814	0.700795	-0.000041
1986	1.9751e+02	0.2440	-10.199654	0.000385	3.850104	0.652225	-0.000038
1987	1.9761e+02	0.2344	-10.234278	0.000348	3.481477	0.589778	-0.000035
1988	1.9771e+02	0.2248	-10.278678	0.000446	4.464482	0.756304	-0.000045
1989	1.9781e+02	0.2139	-10.316154	0.000377	3.768187	0.638348	-0.000038
1990	1.9791e+02	0.2032	-10.358110	0.000422	4.218731	0.714672	-0.000042
1991	1.9800e+02	0.1967	-10.395993	0.000381	3.809145	0.645287	-0.000038
1992	1.9810e+02	0.1834	-10.434283	0.000385	3.850104	0.652225	-0.000038
1993	1.9820e+02	0.1725	-10.472166	0.000381	3.809145	0.645287	-0.000038
1994	1.9830e+02	0.1632	-10.510049	0.000381	3.809145	0.645287	-0.000038
1995	1.9840e+02	0.1538	-10.546302	0.000365	3.645311	0.617532	-0.000036
1996	1.9850e+02	0.1434	-10.589888	0.000438	4.382565	0.742427	-0.000044
1997	1.9860e+02	0.1334	-10.626141	0.000365	3.645311	0.617532	-0.000036
1998	1.9870e+02	0.1240	-10.666061	0.000401	4.013938	0.679979	-0.000040
1999	1.9880e+02	0.1151	-10.702722	0.000369	3.686270	0.624471	-0.000037
2000	1.9890e+02	0.1065	-10.739383	0.000369	3.686270	0.624471	-0.000037
2001	1.9900e+02	0.0945	-10.781339	0.000422	4.218731	0.714672	-0.000042
2002	1.9910e+02	0.0814	-10.818814	0.000377	3.768187	0.638348	-0.000038
2003	1.9920e+02	0.0747	-10.858734	0.000401	4.013938	0.679979	-0.000040
2004	1.9930e+02	0.0629	-10.903542	0.000451	4.505441	0.763242	-0.000045
2005	1.9940e+02	0.0563	-10.939795	0.000365	3.645311	0.617532	-0.000036
2006	1.9950e+02	0.0449	-10.978900	0.000393	3.932021	0.666102	-0.000039
2007	1.9960e+02	0.0376	-11.020856	0.000422	4.218731	0.714672	-0.000042
2008	1.9970e+02	0.0246	-11.060369	0.000397	3.972979	0.673041	-0.000040
2009	1.9980e+02	0.0162	-11.097029	0.000369	3.686270	0.624471	-0.000037
2010	1.9990e+02	0.0064	-11.134912	0.000381	3.809145	0.645287	-0.000038
2011	2.0000e+02	-0.0032	-11.174832	0.000381	3.809145	0.645287	-0.000040

PMax (uC/cm2):	3.25e+01
Pr (uC/cm2):	5.11e+00
-Pr (uC/cm2):	0.00e+00
PLoss (uC/cm2):	0.00e+00
C (Max-Eff) (nF):	3.25e-01
K (Eff):	5.51e+02
Vert. (+/-Pr) Shift (uC/cm2):	2.56e+00
Offset (uC/cm2):	1.63e+01

A (Loop Area - uC/cm2·Volts):	-5.00e-02



Hysteresis Version: 5.48.1 - Radiant Technologies, Inc., 1999 - 9/12/24

