»»»»»»»»»»»»»»»»»»»»»»»»»»»»»»»»»»»» Hysteresis ««««««««««««««««««««««««««««««««««««
»»»  Executed Version:	5.48.1
»»»  Vision Version:	5.48.4 (R)
»»»  Vision Compiled:	9/18/24
»»»  Driver Version:	5.47.0
»»»  Windows Version:	Windows 8 or 8.1
»»»  Processor Information:	x86 (AMD or Intel) - 32 Processors
»»»  Tester Name:	PMF21124-494 (100V)
»»»  Tester S/N:	PMF21124-494
»»»  Internal Amp Type:	100V RevK 270k
»»»  Internal Amp S/N:	iAB2-596/K     
»»»  Execution Count:	1
»»»»»»»»»»»»»»»»»»»»»»»»»»»»»»»»»»»»»»»»»»««««««««««««««««««««««««««««««««««««««««««

Stored:	6/25/2025 - 14:36:8
Configured:	06/25/25 10:44:40 AM
Executed:	06/25/25 02:35:34 PM

»»»»»»»»»»»»»»»»»»»»»»»»»»»»»»»»»»» Sample Info ««««««««««««««««««««««««««««««««««««
Sample Name:	
Lot Name:	
Wafer Name:	
Die Row/Column:	0/0
Capacitor Number:	0
Sample Area (cm2):	1.00e-04
Sample Thickness (microns):	1.50e-01

Amplifier:	Internal

»»»»»»»»»»»»»»»»»»»»»»»»»»»»»»»»»»» Tester Info «««««««««««««««««««««««««««««««««««
Tester Name:	PMF21124-494 (100V)
Tester Serial Number:	PMF21124-494
Return Signal Amp. Level:	1.9 [Index: 2]

»»»»»»»»»»»»»»»»»»»»»»»»»»»»»»»» Hysteresis Info ««««««««««««««««««««««««««««««««««
Task Name:	Hyst-116
Volts:	10.00
Field:	666.67 (kV/cm)
DCBias:	0.00
DCField:	0.00 (kV/cm)
Hysteresis Period (ms):	2.00e+02
Preset:	Enabled
Preset Delay (ms):	1.00e+03
Profile:	Standard Monopolar

»»»»»»»»»»»»»»»»»»»»»»»»»»»»»»»»»»»»»» Data «««««««««««««««««««««««««««««««««««««««
Points:	2011

Valid Data

Point	Time (ms)	Drive Voltage	Measured Polarization (uC/cm2)	Capacitance (uF)	Normalized Capacitance (uF/cm2)	Dielectric Constant	Instantaneous Current (mA)
   1	0.0000e+00	-0.0074	-16.857464	0.000307	3.070040	0.520079	0.000031
   2	9.9500e-02	0.0058	-16.826913	0.000307	3.070040	0.520079	0.000031
   3	1.9900e-01	0.0173	-16.782920	0.000442	4.420858	0.748914	0.000044
   4	2.9850e-01	0.0243	-16.747889	0.000352	3.520313	0.596357	0.000035
   5	3.9800e-01	0.0378	-16.707562	0.000405	4.052453	0.686504	0.000041
   6	4.9750e-01	0.0440	-16.672123	0.000356	3.561246	0.603291	0.000036
   7	5.9700e-01	0.0566	-16.633426	0.000389	3.888717	0.658767	0.000039
   8	6.9650e-01	0.0645	-16.594728	0.000389	3.888717	0.658767	0.000039
   9	7.9600e-01	0.0730	-16.562141	0.000327	3.274709	0.554751	0.000033
  10	8.9550e-01	0.0860	-16.519777	0.000426	4.257122	0.721176	0.000043
  11	9.9500e-01	0.0945	-16.477414	0.000426	4.257122	0.721176	0.000043
  12	1.0945e+00	0.1054	-16.437901	0.000397	3.970585	0.672635	0.000040
  13	1.1940e+00	0.1152	-16.399204	0.000389	3.888717	0.658767	0.000039
  14	1.2935e+00	0.1229	-16.359284	0.000401	4.011519	0.679570	0.000040
  15	1.3930e+00	0.1362	-16.319365	0.000401	4.011519	0.679570	0.000040
  16	1.4925e+00	0.1412	-16.282296	0.000372	3.724982	0.631029	0.000037
  17	1.5920e+00	0.1553	-16.239526	0.000430	4.298056	0.728110	0.000043
  18	1.6915e+00	0.1691	-16.203679	0.000360	3.602180	0.610226	0.000036
  19	1.7910e+00	0.1752	-16.165796	0.000381	3.806850	0.644898	0.000038
  20	1.8905e+00	0.1901	-16.125062	0.000409	4.093387	0.693438	0.000041
  21	1.9900e+00	0.1949	-16.086772	0.000385	3.847783	0.651832	0.000038
  22	2.0895e+00	0.2058	-16.048889	0.000381	3.806850	0.644898	0.000038
  23	2.1890e+00	0.2168	-16.010192	0.000389	3.888717	0.658767	0.000039
  24	2.2885e+00	0.2232	-15.973938	0.000364	3.643114	0.617160	0.000036
  25	2.3880e+00	0.2354	-15.928316	0.000458	4.584593	0.776651	0.000046
  26	2.4875e+00	0.2427	-15.887582	0.000409	4.093387	0.693438	0.000041
  27	2.5870e+00	0.2544	-15.850921	0.000368	3.684048	0.624095	0.000037
  28	2.6865e+00	0.2637	-15.803669	0.000475	4.748329	0.804389	0.000047
  29	2.7860e+00	0.2721	-15.766601	0.000372	3.724982	0.631029	0.000037
  30	2.8855e+00	0.2859	-15.723830	0.000430	4.298056	0.728110	0.000043
  31	2.9850e+00	0.2939	-15.685947	0.000381	3.806850	0.644898	0.000038
  32	3.0845e+00	0.3058	-15.640325	0.000458	4.584593	0.776651	0.000046
  33	3.1840e+00	0.3114	-15.602849	0.000377	3.765916	0.637963	0.000038
  34	3.2835e+00	0.3263	-15.564559	0.000385	3.847783	0.651832	0.000038
  35	3.3830e+00	0.3364	-15.519751	0.000450	4.502725	0.762782	0.000045
  36	3.4825e+00	0.3458	-15.483090	0.000368	3.684048	0.624095	0.000037
  37	3.5820e+00	0.3555	-15.446430	0.000368	3.684048	0.624095	0.000037
  38	3.6815e+00	0.3650	-15.404473	0.000422	4.216188	0.714242	0.000042
  39	3.7810e+00	0.3742	-15.365368	0.000393	3.929651	0.665701	0.000039
  40	3.8805e+00	0.3835	-15.325041	0.000405	4.052453	0.686504	0.000041
  41	3.9800e+00	0.3943	-15.287973	0.000372	3.724982	0.631029	0.000037
  42	4.0795e+00	0.4036	-15.248868	0.000393	3.929651	0.665701	0.000039
  43	4.1790e+00	0.4140	-15.208134	0.000409	4.093387	0.693438	0.000041
  44	4.2785e+00	0.4236	-15.167807	0.000405	4.052453	0.686504	0.000041
  45	4.3780e+00	0.4340	-15.131554	0.000364	3.643114	0.617160	0.000036
  46	4.4775e+00	0.4443	-15.091634	0.000401	4.011519	0.679570	0.000040
  47	4.5770e+00	0.4547	-15.054566	0.000372	3.724982	0.631029	0.000037
  48	4.6765e+00	0.4649	-15.021571	0.000332	3.315643	0.561685	0.000033
  49	4.7760e+00	0.4729	-14.978800	0.000430	4.298056	0.728110	0.000043
  50	4.8755e+00	0.4820	-14.941325	0.000377	3.765916	0.637963	0.000038
  51	4.9750e+00	0.4962	-14.907515	0.000340	3.397511	0.575554	0.000034
  52	5.0745e+00	0.5051	-14.862300	0.000454	4.543659	0.769717	0.000045
  53	5.1740e+00	0.5125	-14.826454	0.000360	3.602180	0.610226	0.000036
  54	5.2735e+00	0.5246	-14.792645	0.000340	3.397511	0.575554	0.000034
  55	5.3730e+00	0.5341	-14.752725	0.000401	4.011519	0.679570	0.000040
  56	5.4725e+00	0.5454	-14.713620	0.000393	3.929651	0.665701	0.000039
  57	5.5720e+00	0.5528	-14.677367	0.000364	3.643114	0.617160	0.000036
  58	5.6715e+00	0.5625	-14.636225	0.000413	4.134321	0.700373	0.000041
  59	5.7710e+00	0.5744	-14.598750	0.000377	3.765916	0.637963	0.000038
  60	5.8705e+00	0.5829	-14.560460	0.000385	3.847783	0.651832	0.000038
  61	5.9700e+00	0.5941	-14.521355	0.000393	3.929651	0.665701	0.000039
  62	6.0695e+00	0.6034	-14.477769	0.000438	4.379924	0.741979	0.000044
  63	6.1690e+00	0.6131	-14.442330	0.000356	3.561246	0.603291	0.000036
  64	6.2685e+00	0.6208	-14.399967	0.000426	4.257122	0.721176	0.000043
  65	6.3680e+00	0.6323	-14.366157	0.000340	3.397511	0.575554	0.000034
  66	6.4675e+00	0.6442	-14.327867	0.000385	3.847783	0.651832	0.000038
  67	6.5670e+00	0.6550	-14.285911	0.000422	4.216188	0.714242	0.000042
  68	6.6665e+00	0.6644	-14.247213	0.000389	3.888717	0.658767	0.000039
  69	6.7660e+00	0.6707	-14.212996	0.000344	3.438445	0.582488	0.000034
  70	6.8655e+00	0.6827	-14.173077	0.000401	4.011519	0.679570	0.000040
  71	6.9650e+00	0.6925	-14.132750	0.000405	4.052453	0.686504	0.000041
  72	7.0645e+00	0.7043	-14.092016	0.000409	4.093387	0.693438	0.000041
  73	7.1640e+00	0.7155	-14.054133	0.000381	3.806850	0.644898	0.000038
  74	7.2635e+00	0.7229	-14.017879	0.000364	3.643114	0.617160	0.000036
  75	7.3630e+00	0.7327	-13.978367	0.000397	3.970585	0.672635	0.000040
  76	7.4625e+00	0.7401	-13.941706	0.000368	3.684048	0.624095	0.000037
  77	7.5620e+00	0.7484	-13.898121	0.000438	4.379924	0.741979	0.000044
  78	7.6615e+00	0.7625	-13.859830	0.000385	3.847783	0.651832	0.000038
  79	7.7610e+00	0.7742	-13.823169	0.000368	3.684048	0.624095	0.000037
  80	7.8605e+00	0.7833	-13.784065	0.000393	3.929651	0.665701	0.000039
  81	7.9600e+00	0.7909	-13.745367	0.000389	3.888717	0.658767	0.000039
  82	8.0595e+00	0.8031	-13.709521	0.000360	3.602180	0.610226	0.000036
  83	8.1590e+00	0.8137	-13.672453	0.000372	3.724982	0.631029	0.000037
  84	8.2585e+00	0.8208	-13.629682	0.000430	4.298056	0.728110	0.000043
  85	8.3580e+00	0.8318	-13.591392	0.000385	3.847783	0.651832	0.000038
  86	8.4575e+00	0.8410	-13.556360	0.000352	3.520313	0.596357	0.000035
  87	8.5570e+00	0.8500	-13.514404	0.000422	4.216188	0.714242	0.000042
  88	8.6565e+00	0.8616	-13.476928	0.000377	3.765916	0.637963	0.000038
  89	8.7560e+00	0.8697	-13.438638	0.000385	3.847783	0.651832	0.000038
  90	8.8555e+00	0.8838	-13.396274	0.000426	4.257122	0.721176	0.000043
  91	8.9550e+00	0.8872	-13.353504	0.000430	4.298056	0.728110	0.000043
  92	9.0545e+00	0.8994	-13.322138	0.000315	3.151908	0.533948	0.000032
  93	9.1540e+00	0.9131	-13.277738	0.000446	4.461791	0.755848	0.000045
  94	9.2535e+00	0.9211	-13.245150	0.000327	3.274709	0.554751	0.000033
  95	9.3530e+00	0.9312	-13.205638	0.000397	3.970585	0.672635	0.000040
  96	9.4525e+00	0.9415	-13.166941	0.000389	3.888717	0.658767	0.000039
  97	9.5520e+00	0.9525	-13.123762	0.000434	4.338990	0.735045	0.000043
  98	9.6515e+00	0.9614	-13.087916	0.000360	3.602180	0.610226	0.000036
  99	9.7510e+00	0.9718	-13.050441	0.000377	3.765916	0.637963	0.000038
 100	9.8505e+00	0.9816	-13.011336	0.000393	3.929651	0.665701	0.000039
 101	9.9500e+00	0.9898	-12.970602	0.000409	4.093387	0.693438	0.000041
 102	1.0050e+01	0.9991	-12.930682	0.000401	4.011519	0.679570	0.000040
 103	1.0149e+01	1.0107	-12.894021	0.000368	3.684048	0.624095	0.000037
 104	1.0248e+01	1.0217	-12.853694	0.000405	4.052453	0.686504	0.000041
 105	1.0348e+01	1.0306	-12.819885	0.000340	3.397511	0.575554	0.000034
 106	1.0447e+01	1.0395	-12.776299	0.000438	4.379924	0.741979	0.000044
 107	1.0547e+01	1.0499	-12.741268	0.000352	3.520313	0.596357	0.000035
 108	1.0646e+01	1.0589	-12.704199	0.000372	3.724982	0.631029	0.000037
 109	1.0746e+01	1.0710	-12.663465	0.000409	4.093387	0.693438	0.000041
 110	1.0845e+01	1.0775	-12.627212	0.000364	3.643114	0.617160	0.000036
 111	1.0945e+01	1.0928	-12.593402	0.000340	3.397511	0.575554	0.000034
 112	1.1044e+01	1.1016	-12.555112	0.000385	3.847783	0.651832	0.000038
 113	1.1144e+01	1.1098	-12.517637	0.000377	3.765916	0.637963	0.000038
 114	1.1243e+01	1.1195	-12.480976	0.000368	3.684048	0.624095	0.000037
 115	1.1343e+01	1.1314	-12.443500	0.000377	3.765916	0.637963	0.000038
 116	1.1443e+01	1.1420	-12.406432	0.000372	3.724982	0.631029	0.000037
 117	1.1542e+01	1.1497	-12.368142	0.000385	3.847783	0.651832	0.000038
 118	1.1642e+01	1.1623	-12.328222	0.000401	4.011519	0.679570	0.000040
 119	1.1741e+01	1.1715	-12.289525	0.000389	3.888717	0.658767	0.000039
 120	1.1841e+01	1.1801	-12.254901	0.000348	3.479379	0.589423	0.000035
 121	1.1940e+01	1.1910	-12.215388	0.000397	3.970585	0.672635	0.000040
 122	1.2040e+01	1.2012	-12.171803	0.000438	4.379924	0.741979	0.000044
 123	1.2139e+01	1.2141	-12.134327	0.000377	3.765916	0.637963	0.000038
 124	1.2239e+01	1.2182	-12.102147	0.000323	3.233775	0.547816	0.000032
 125	1.2338e+01	1.2314	-12.061006	0.000413	4.134321	0.700373	0.000041
 126	1.2438e+01	1.2386	-12.021493	0.000397	3.970585	0.672635	0.000040
 127	1.2537e+01	1.2480	-11.982388	0.000393	3.929651	0.665701	0.000039
 128	1.2636e+01	1.2601	-11.946135	0.000364	3.643114	0.617160	0.000036
 129	1.2736e+01	1.2704	-11.909067	0.000372	3.724982	0.631029	0.000037
 130	1.2835e+01	1.2777	-11.874035	0.000352	3.520313	0.596357	0.000035
 131	1.2935e+01	1.2905	-11.828006	0.000463	4.625527	0.783585	0.000046
 132	1.3034e+01	1.2975	-11.788493	0.000397	3.970585	0.672635	0.000040
 133	1.3134e+01	1.3078	-11.748574	0.000401	4.011519	0.679570	0.000040
 134	1.3233e+01	1.3209	-11.710284	0.000385	3.847783	0.651832	0.000038
 135	1.3333e+01	1.3283	-11.669549	0.000409	4.093387	0.693438	0.000041
 136	1.3432e+01	1.3363	-11.628408	0.000413	4.134321	0.700373	0.000041
 137	1.3532e+01	1.3504	-11.591747	0.000368	3.684048	0.624095	0.000037
 138	1.3632e+01	1.3593	-11.551013	0.000409	4.093387	0.693438	0.000041
 139	1.3731e+01	1.3705	-11.513537	0.000377	3.765916	0.637963	0.000038
 140	1.3831e+01	1.3790	-11.471988	0.000418	4.175254	0.707307	0.000042
 141	1.3930e+01	1.3878	-11.434920	0.000372	3.724982	0.631029	0.000037
 142	1.4030e+01	1.3992	-11.397445	0.000377	3.765916	0.637963	0.000038
 143	1.4129e+01	1.4089	-11.359562	0.000381	3.806850	0.644898	0.000038
 144	1.4229e+01	1.4201	-11.320050	0.000397	3.970585	0.672635	0.000040
 145	1.4328e+01	1.4309	-11.280130	0.000401	4.011519	0.679570	0.000040
 146	1.4428e+01	1.4397	-11.242654	0.000377	3.765916	0.637963	0.000038
 147	1.4527e+01	1.4482	-11.207623	0.000352	3.520313	0.596357	0.000035
 148	1.4627e+01	1.4574	-11.164852	0.000430	4.298056	0.728110	0.000043
 149	1.4726e+01	1.4663	-11.129006	0.000360	3.602180	0.610226	0.000036
 150	1.4825e+01	1.4774	-11.090308	0.000389	3.888717	0.658767	0.000039
 151	1.4925e+01	1.4891	-11.052833	0.000377	3.765916	0.637963	0.000038
 152	1.5024e+01	1.4987	-11.019431	0.000336	3.356577	0.568620	0.000034
 153	1.5124e+01	1.5073	-10.979104	0.000405	4.052453	0.686504	0.000041
 154	1.5223e+01	1.5164	-10.940406	0.000389	3.888717	0.658767	0.000039
 155	1.5323e+01	1.5288	-10.903338	0.000372	3.724982	0.631029	0.000037
 156	1.5422e+01	1.5362	-10.867492	0.000360	3.602180	0.610226	0.000036
 157	1.5522e+01	1.5471	-10.831646	0.000360	3.602180	0.610226	0.000036
 158	1.5621e+01	1.5585	-10.790912	0.000409	4.093387	0.693438	0.000041
 159	1.5721e+01	1.5678	-10.755065	0.000360	3.602180	0.610226	0.000036
 160	1.5820e+01	1.5758	-10.714331	0.000409	4.093387	0.693438	0.000041
 161	1.5920e+01	1.5873	-10.677670	0.000368	3.684048	0.624095	0.000037
 162	1.6020e+01	1.5948	-10.641824	0.000360	3.602180	0.610226	0.000036
 163	1.6119e+01	1.6080	-10.600275	0.000418	4.175254	0.707307	0.000042
 164	1.6218e+01	1.6172	-10.566873	0.000336	3.356577	0.568620	0.000034
 165	1.6318e+01	1.6294	-10.528990	0.000381	3.806850	0.644898	0.000038
 166	1.6418e+01	1.6404	-10.489071	0.000401	4.011519	0.679570	0.000040
 167	1.6517e+01	1.6471	-10.447929	0.000413	4.134321	0.700373	0.000041
 168	1.6616e+01	1.6587	-10.414934	0.000332	3.315643	0.561685	0.000033
 169	1.6716e+01	1.6676	-10.374200	0.000409	4.093387	0.693438	0.000041
 170	1.6816e+01	1.6785	-10.337132	0.000372	3.724982	0.631029	0.000037
 171	1.6915e+01	1.6853	-10.300471	0.000368	3.684048	0.624095	0.000037
 172	1.7015e+01	1.6953	-10.263810	0.000368	3.684048	0.624095	0.000037
 173	1.7114e+01	1.7049	-10.227149	0.000368	3.684048	0.624095	0.000037
 174	1.7213e+01	1.7136	-10.191711	0.000356	3.561246	0.603291	0.000036
 175	1.7313e+01	1.7267	-10.153828	0.000381	3.806850	0.644898	0.000038
 176	1.7413e+01	1.7365	-10.117167	0.000368	3.684048	0.624095	0.000037
 177	1.7512e+01	1.7475	-10.078877	0.000385	3.847783	0.651832	0.000038
 178	1.7611e+01	1.7580	-10.040994	0.000381	3.806850	0.644898	0.000038
 179	1.7711e+01	1.7683	-10.002704	0.000385	3.847783	0.651832	0.000038
 180	1.7811e+01	1.7770	-9.968080	0.000348	3.479379	0.589423	0.000035
 181	1.7910e+01	1.7857	-9.928975	0.000393	3.929651	0.665701	0.000039
 182	1.8009e+01	1.7956	-9.891092	0.000381	3.806850	0.644898	0.000038
 183	1.8109e+01	1.8075	-9.854838	0.000364	3.643114	0.617160	0.000036
 184	1.8209e+01	1.8143	-9.818585	0.000364	3.643114	0.617160	0.000036
 185	1.8308e+01	1.8279	-9.781924	0.000368	3.684048	0.624095	0.000037
 186	1.8407e+01	1.8359	-9.747300	0.000348	3.479379	0.589423	0.000035
 187	1.8507e+01	1.8436	-9.711861	0.000356	3.561246	0.603291	0.000036
 188	1.8607e+01	1.8565	-9.673164	0.000389	3.888717	0.658767	0.000039
 189	1.8706e+01	1.8642	-9.637725	0.000356	3.561246	0.603291	0.000036
 190	1.8805e+01	1.8755	-9.597398	0.000405	4.052453	0.686504	0.000041
 191	1.8905e+01	1.8860	-9.561144	0.000364	3.643114	0.617160	0.000036
 192	1.9005e+01	1.8957	-9.526113	0.000352	3.520313	0.596357	0.000035
 193	1.9104e+01	1.9074	-9.487823	0.000385	3.847783	0.651832	0.000038
 194	1.9203e+01	1.9166	-9.449125	0.000389	3.888717	0.658767	0.000039
 195	1.9303e+01	1.9263	-9.409613	0.000397	3.970585	0.672635	0.000040
 196	1.9402e+01	1.9376	-9.371323	0.000385	3.847783	0.651832	0.000038
 197	1.9502e+01	1.9471	-9.332625	0.000389	3.888717	0.658767	0.000039
 198	1.9602e+01	1.9552	-9.292298	0.000405	4.052453	0.686504	0.000041
 199	1.9701e+01	1.9650	-9.256452	0.000360	3.602180	0.610226	0.000036
 200	1.9800e+01	1.9761	-9.220199	0.000364	3.643114	0.617160	0.000036
 201	1.9900e+01	1.9833	-9.179872	0.000405	4.052453	0.686504	0.000041
 202	2.0000e+01	1.9951	-9.142396	0.000377	3.765916	0.637963	0.000038
 203	2.0099e+01	2.0052	-9.109401	0.000332	3.315643	0.561685	0.000033
 204	2.0198e+01	2.0126	-9.067445	0.000422	4.216188	0.714242	0.000042
 205	2.0298e+01	2.0272	-9.034450	0.000332	3.315643	0.561685	0.000033
 206	2.0398e+01	2.0370	-8.998197	0.000364	3.643114	0.617160	0.000036
 207	2.0497e+01	2.0444	-8.960721	0.000377	3.765916	0.637963	0.000038
 208	2.0596e+01	2.0556	-8.924875	0.000360	3.602180	0.610226	0.000036
 209	2.0696e+01	2.0626	-8.888622	0.000364	3.643114	0.617160	0.000036
 210	2.0796e+01	2.0770	-8.851554	0.000372	3.724982	0.631029	0.000037
 211	2.0895e+01	2.0884	-8.815300	0.000364	3.643114	0.617160	0.000036
 212	2.0994e+01	2.0925	-8.781491	0.000340	3.397511	0.575554	0.000034
 213	2.1094e+01	2.1042	-8.742386	0.000393	3.929651	0.665701	0.000039
 214	2.1194e+01	2.1151	-8.711020	0.000315	3.151908	0.533948	0.000032
 215	2.1293e+01	2.1238	-8.675174	0.000360	3.602180	0.610226	0.000036
 216	2.1392e+01	2.1342	-8.640550	0.000348	3.479379	0.589423	0.000035
 217	2.1492e+01	2.1474	-8.609592	0.000311	3.110974	0.527013	0.000031
 218	2.1591e+01	2.1527	-8.573746	0.000360	3.602180	0.610226	0.000036
 219	2.1691e+01	2.1661	-8.536271	0.000377	3.765916	0.637963	0.000038
 220	2.1791e+01	2.1752	-8.504905	0.000315	3.151908	0.533948	0.000032
 221	2.1890e+01	2.1861	-8.466615	0.000385	3.847783	0.651832	0.000038
 222	2.1989e+01	2.1939	-8.434435	0.000323	3.233775	0.547816	0.000032
 223	2.2089e+01	2.2055	-8.397774	0.000368	3.684048	0.624095	0.000037
 224	2.2189e+01	2.2124	-8.359891	0.000381	3.806850	0.644898	0.000038
 225	2.2288e+01	2.2261	-8.330970	0.000291	2.906305	0.492341	0.000029
 226	2.2387e+01	2.2352	-8.293087	0.000381	3.806850	0.644898	0.000038
 227	2.2487e+01	2.2463	-8.257241	0.000360	3.602180	0.610226	0.000036
 228	2.2587e+01	2.2572	-8.222209	0.000352	3.520313	0.596357	0.000035
 229	2.2686e+01	2.2639	-8.188400	0.000340	3.397511	0.575554	0.000034
 230	2.2785e+01	2.2733	-8.150924	0.000377	3.765916	0.637963	0.000038
 231	2.2885e+01	2.2858	-8.116708	0.000344	3.438445	0.582488	0.000034
 232	2.2985e+01	2.2955	-8.080047	0.000368	3.684048	0.624095	0.000037
 233	2.3084e+01	2.3045	-8.045015	0.000352	3.520313	0.596357	0.000035
 234	2.3183e+01	2.3145	-8.008355	0.000368	3.684048	0.624095	0.000037
 235	2.3283e+01	2.3281	-7.972916	0.000356	3.561246	0.603291	0.000036
 236	2.3383e+01	2.3331	-7.940328	0.000327	3.274709	0.554751	0.000033
 237	2.3482e+01	2.3467	-7.902853	0.000377	3.765916	0.637963	0.000038
 238	2.3581e+01	2.3550	-7.864563	0.000385	3.847783	0.651832	0.000038
 239	2.3681e+01	2.3616	-7.832790	0.000319	3.192842	0.540882	0.000032
 240	2.3780e+01	2.3763	-7.791648	0.000413	4.134321	0.700373	0.000041
 241	2.3880e+01	2.3846	-7.763949	0.000278	2.783503	0.471538	0.000028
 242	2.3980e+01	2.3948	-7.726066	0.000381	3.806850	0.644898	0.000038
 243	2.4079e+01	2.4029	-7.688183	0.000381	3.806850	0.644898	0.000038
 244	2.4178e+01	2.4146	-7.654781	0.000336	3.356577	0.568620	0.000034
 245	2.4278e+01	2.4261	-7.623823	0.000311	3.110974	0.527013	0.000031
 246	2.4378e+01	2.4325	-7.584311	0.000397	3.970585	0.672635	0.000040
 247	2.4477e+01	2.4437	-7.546835	0.000377	3.765916	0.637963	0.000038
 248	2.4576e+01	2.4534	-7.514248	0.000327	3.274709	0.554751	0.000033
 249	2.4676e+01	2.4657	-7.479217	0.000352	3.520313	0.596357	0.000035
 250	2.4776e+01	2.4746	-7.443778	0.000356	3.561246	0.603291	0.000036
 251	2.4875e+01	2.4830	-7.408746	0.000352	3.520313	0.596357	0.000035
 252	2.4974e+01	2.4941	-7.374937	0.000340	3.397511	0.575554	0.000034
 253	2.5074e+01	2.5050	-7.344794	0.000303	3.029106	0.513144	0.000030
 254	2.5174e+01	2.5128	-7.307725	0.000372	3.724982	0.631029	0.000037
 255	2.5273e+01	2.5227	-7.271879	0.000360	3.602180	0.610226	0.000036
 256	2.5372e+01	2.5326	-7.238070	0.000340	3.397511	0.575554	0.000034
 257	2.5472e+01	2.5423	-7.202631	0.000356	3.561246	0.603291	0.000036
 258	2.5572e+01	2.5526	-7.168007	0.000348	3.479379	0.589423	0.000035
 259	2.5671e+01	2.5623	-7.132161	0.000360	3.602180	0.610226	0.000036
 260	2.5770e+01	2.5736	-7.093056	0.000393	3.929651	0.665701	0.000039
 261	2.5870e+01	2.5835	-7.058839	0.000344	3.438445	0.582488	0.000034
 262	2.5970e+01	2.5916	-7.026659	0.000323	3.233775	0.547816	0.000032
 263	2.6069e+01	2.6035	-6.992442	0.000344	3.438445	0.582488	0.000034
 264	2.6169e+01	2.6087	-6.956596	0.000360	3.602180	0.610226	0.000036
 265	2.6268e+01	2.6211	-6.919528	0.000372	3.724982	0.631029	0.000037
 266	2.6367e+01	2.6364	-6.889385	0.000303	3.029106	0.513144	0.000030
 267	2.6467e+01	2.6421	-6.856797	0.000327	3.274709	0.554751	0.000033
 268	2.6567e+01	2.6516	-6.820544	0.000364	3.643114	0.617160	0.000036
 269	2.6666e+01	2.6629	-6.779809	0.000409	4.093387	0.693438	0.000041
 270	2.6765e+01	2.6693	-6.747629	0.000323	3.233775	0.547816	0.000032
 271	2.6865e+01	2.6853	-6.713413	0.000344	3.438445	0.582488	0.000034
 272	2.6965e+01	2.6910	-6.678788	0.000348	3.479379	0.589423	0.000035
 273	2.7064e+01	2.6994	-6.638869	0.000401	4.011519	0.679570	0.000040
 274	2.7163e+01	2.7130	-6.608726	0.000303	3.029106	0.513144	0.000030
 275	2.7263e+01	2.7242	-6.570435	0.000385	3.847783	0.651832	0.000038
 276	2.7363e+01	2.7303	-6.539477	0.000311	3.110974	0.527013	0.000031
 277	2.7462e+01	2.7431	-6.505261	0.000344	3.438445	0.582488	0.000034
 278	2.7561e+01	2.7509	-6.473895	0.000315	3.151908	0.533948	0.000032
 279	2.7661e+01	2.7624	-6.440493	0.000336	3.356577	0.568620	0.000034
 280	2.7761e+01	2.7737	-6.408720	0.000319	3.192842	0.540882	0.000032
 281	2.7860e+01	2.7818	-6.371245	0.000377	3.765916	0.637963	0.000038
 282	2.7959e+01	2.7938	-6.339879	0.000315	3.151908	0.533948	0.000032
 283	2.8059e+01	2.8033	-6.304848	0.000352	3.520313	0.596357	0.000035
 284	2.8159e+01	2.8123	-6.277149	0.000278	2.783503	0.471538	0.000028
 285	2.8258e+01	2.8210	-6.240488	0.000368	3.684048	0.624095	0.000037
 286	2.8358e+01	2.8310	-6.205049	0.000356	3.561246	0.603291	0.000036
 287	2.8457e+01	2.8413	-6.171240	0.000340	3.397511	0.575554	0.000034
 288	2.8556e+01	2.8509	-6.139060	0.000323	3.233775	0.547816	0.000032
 289	2.8656e+01	2.8611	-6.102806	0.000364	3.643114	0.617160	0.000036
 290	2.8756e+01	2.8711	-6.068589	0.000344	3.438445	0.582488	0.000034
 291	2.8855e+01	2.8844	-6.037224	0.000315	3.151908	0.533948	0.000032
 292	2.8954e+01	2.8915	-6.000563	0.000368	3.684048	0.624095	0.000037
 293	2.9054e+01	2.9024	-5.964717	0.000360	3.602180	0.610226	0.000036
 294	2.9154e+01	2.9110	-5.932130	0.000327	3.274709	0.554751	0.000033
 295	2.9253e+01	2.9176	-5.895061	0.000372	3.724982	0.631029	0.000037
 296	2.9352e+01	2.9321	-5.862067	0.000332	3.315643	0.561685	0.000033
 297	2.9452e+01	2.9386	-5.828665	0.000336	3.356577	0.568620	0.000034
 298	2.9552e+01	2.9513	-5.796892	0.000319	3.192842	0.540882	0.000032
 299	2.9651e+01	2.9626	-5.754936	0.000422	4.216188	0.714242	0.000042
 300	2.9750e+01	2.9716	-5.717460	0.000377	3.765916	0.637963	0.000038
 301	2.9850e+01	2.9801	-5.686502	0.000311	3.110974	0.527013	0.000031
 302	2.9950e+01	2.9903	-5.646175	0.000405	4.052453	0.686504	0.000041
 303	3.0049e+01	2.9987	-5.612773	0.000336	3.356577	0.568620	0.000034
 304	3.0148e+01	3.0131	-5.574483	0.000385	3.847783	0.651832	0.000038
 305	3.0248e+01	3.0199	-5.542303	0.000323	3.233775	0.547816	0.000032
 306	3.0348e+01	3.0331	-5.508086	0.000344	3.438445	0.582488	0.000034
 307	3.0447e+01	3.0379	-5.470610	0.000377	3.765916	0.637963	0.000038
 308	3.0547e+01	3.0531	-5.438430	0.000323	3.233775	0.547816	0.000032
 309	3.0646e+01	3.0618	-5.403399	0.000352	3.520313	0.596357	0.000035
 310	3.0745e+01	3.0711	-5.367553	0.000360	3.602180	0.610226	0.000036
 311	3.0845e+01	3.0790	-5.334151	0.000336	3.356577	0.568620	0.000034
 312	3.0945e+01	3.0920	-5.299119	0.000352	3.520313	0.596357	0.000035
 313	3.1044e+01	3.1040	-5.266125	0.000332	3.315643	0.561685	0.000033
 314	3.1143e+01	3.1109	-5.233944	0.000323	3.233775	0.547816	0.000032
 315	3.1243e+01	3.1213	-5.198506	0.000356	3.561246	0.603291	0.000036
 316	3.1343e+01	3.1304	-5.162659	0.000360	3.602180	0.610226	0.000036
 317	3.1442e+01	3.1390	-5.131294	0.000315	3.151908	0.533948	0.000032
 318	3.1541e+01	3.1493	-5.097892	0.000336	3.356577	0.568620	0.000034
 319	3.1641e+01	3.1606	-5.065712	0.000323	3.233775	0.547816	0.000032
 320	3.1741e+01	3.1692	-5.031088	0.000348	3.479379	0.589423	0.000035
 321	3.1840e+01	3.1820	-4.998500	0.000327	3.274709	0.554751	0.000033
 322	3.1939e+01	3.1907	-4.964691	0.000340	3.397511	0.575554	0.000034
 323	3.2039e+01	3.2005	-4.928845	0.000360	3.602180	0.610226	0.000036
 324	3.2139e+01	3.2088	-4.897072	0.000319	3.192842	0.540882	0.000032
 325	3.2238e+01	3.2185	-4.863670	0.000336	3.356577	0.568620	0.000034
 326	3.2337e+01	3.2296	-4.825787	0.000381	3.806850	0.644898	0.000038
 327	3.2437e+01	3.2388	-4.789534	0.000364	3.643114	0.617160	0.000036
 328	3.2536e+01	3.2504	-4.760612	0.000291	2.906305	0.492341	0.000029
 329	3.2636e+01	3.2594	-4.724766	0.000360	3.602180	0.610226	0.000036
 330	3.2736e+01	3.2704	-4.695845	0.000291	2.906305	0.492341	0.000029
 331	3.2835e+01	3.2804	-4.660813	0.000352	3.520313	0.596357	0.000035
 332	3.2934e+01	3.2871	-4.628633	0.000323	3.233775	0.547816	0.000032
 333	3.3034e+01	3.2998	-4.595231	0.000336	3.356577	0.568620	0.000034
 334	3.3133e+01	3.3109	-4.556941	0.000385	3.847783	0.651832	0.000038
 335	3.3233e+01	3.3184	-4.523132	0.000340	3.397511	0.575554	0.000034
 336	3.3333e+01	3.3300	-4.493396	0.000299	2.988172	0.506210	0.000030
 337	3.3432e+01	3.3411	-4.456735	0.000368	3.684048	0.624095	0.000037
 338	3.3532e+01	3.3492	-4.419667	0.000372	3.724982	0.631029	0.000037
 339	3.3631e+01	3.3581	-4.392782	0.000270	2.701635	0.457669	0.000027
 340	3.3730e+01	3.3669	-4.358973	0.000340	3.397511	0.575554	0.000034
 341	3.3830e+01	3.3820	-4.324349	0.000348	3.479379	0.589423	0.000035
 342	3.3929e+01	3.3897	-4.293390	0.000311	3.110974	0.527013	0.000031
 343	3.4029e+01	3.3956	-4.260803	0.000327	3.274709	0.554751	0.000033
 344	3.4129e+01	3.4084	-4.225364	0.000356	3.561246	0.603291	0.000036
 345	3.4228e+01	3.4193	-4.191555	0.000340	3.397511	0.575554	0.000034
 346	3.4328e+01	3.4267	-4.164670	0.000270	2.701635	0.457669	0.000027
 347	3.4427e+01	3.4370	-4.126787	0.000381	3.806850	0.644898	0.000038
 348	3.4526e+01	3.4490	-4.095829	0.000311	3.110974	0.527013	0.000031
 349	3.4626e+01	3.4591	-4.062427	0.000336	3.356577	0.568620	0.000034
 350	3.4725e+01	3.4678	-4.031062	0.000315	3.151908	0.533948	0.000032
 351	3.4825e+01	3.4792	-3.995623	0.000356	3.561246	0.603291	0.000036
 352	3.4925e+01	3.4878	-3.963036	0.000327	3.274709	0.554751	0.000033
 353	3.5024e+01	3.4995	-3.932892	0.000303	3.029106	0.513144	0.000030
 354	3.5123e+01	3.5096	-3.897454	0.000356	3.561246	0.603291	0.000036
 355	3.5223e+01	3.5194	-3.866495	0.000311	3.110974	0.527013	0.000031
 356	3.5322e+01	3.5278	-3.831464	0.000352	3.520313	0.596357	0.000035
 357	3.5422e+01	3.5386	-3.799284	0.000323	3.233775	0.547816	0.000032
 358	3.5522e+01	3.5496	-3.767919	0.000315	3.151908	0.533948	0.000032
 359	3.5621e+01	3.5584	-3.731665	0.000364	3.643114	0.617160	0.000036
 360	3.5721e+01	3.5670	-3.701114	0.000307	3.070040	0.520079	0.000031
 361	3.5820e+01	3.5787	-3.668934	0.000323	3.233775	0.547816	0.000032
 362	3.5919e+01	3.5870	-3.633088	0.000360	3.602180	0.610226	0.000036
 363	3.6019e+01	3.5978	-3.598057	0.000352	3.520313	0.596357	0.000035
 364	3.6118e+01	3.6086	-3.563025	0.000352	3.520313	0.596357	0.000035
 365	3.6218e+01	3.6195	-3.531660	0.000315	3.151908	0.533948	0.000032
 366	3.6318e+01	3.6309	-3.495814	0.000360	3.602180	0.610226	0.000036
 367	3.6417e+01	3.6353	-3.459560	0.000364	3.643114	0.617160	0.000036
 368	3.6517e+01	3.6469	-3.428602	0.000311	3.110974	0.527013	0.000031
 369	3.6616e+01	3.6565	-3.394793	0.000340	3.397511	0.575554	0.000034
 370	3.6715e+01	3.6689	-3.363020	0.000319	3.192842	0.540882	0.000032
 371	3.6815e+01	3.6764	-3.327581	0.000356	3.561246	0.603291	0.000036
 372	3.6914e+01	3.6893	-3.299067	0.000287	2.865371	0.485407	0.000029
 373	3.7014e+01	3.7012	-3.266887	0.000323	3.233775	0.547816	0.000032
 374	3.7114e+01	3.7091	-3.235115	0.000319	3.192842	0.540882	0.000032
 375	3.7213e+01	3.7176	-3.198861	0.000364	3.643114	0.617160	0.000036
 376	3.7313e+01	3.7273	-3.168718	0.000303	3.029106	0.513144	0.000030
 377	3.7412e+01	3.7378	-3.136130	0.000327	3.274709	0.554751	0.000033
 378	3.7511e+01	3.7476	-3.104765	0.000315	3.151908	0.533948	0.000032
 379	3.7611e+01	3.7563	-3.075029	0.000299	2.988172	0.506210	0.000030
 380	3.7711e+01	3.7661	-3.041219	0.000340	3.397511	0.575554	0.000034
 381	3.7810e+01	3.7756	-3.008225	0.000332	3.315643	0.561685	0.000033
 382	3.7910e+01	3.7845	-2.982970	0.000254	2.537900	0.429932	0.000025
 383	3.8009e+01	3.7977	-2.947123	0.000360	3.602180	0.610226	0.000036
 384	3.8108e+01	3.8055	-2.919831	0.000274	2.742569	0.464604	0.000027
 385	3.8208e+01	3.8128	-2.891725	0.000282	2.824437	0.478473	0.000028
 386	3.8307e+01	3.8265	-2.859952	0.000319	3.192842	0.540882	0.000032
 387	3.8407e+01	3.8388	-2.828179	0.000319	3.192842	0.540882	0.000032
 388	3.8507e+01	3.8456	-2.798036	0.000303	3.029106	0.513144	0.000030
 389	3.8606e+01	3.8575	-2.767893	0.000303	3.029106	0.513144	0.000030
 390	3.8706e+01	3.8685	-2.736120	0.000319	3.192842	0.540882	0.000032
 391	3.8805e+01	3.8764	-2.708013	0.000282	2.824437	0.478473	0.000028
 392	3.8904e+01	3.8839	-2.672982	0.000352	3.520313	0.596357	0.000035
 393	3.9004e+01	3.8955	-2.642431	0.000307	3.070040	0.520079	0.000031
 394	3.9103e+01	3.9056	-2.611880	0.000307	3.070040	0.520079	0.000031
 395	3.9203e+01	3.9157	-2.580922	0.000311	3.110974	0.527013	0.000031
 396	3.9303e+01	3.9281	-2.547520	0.000336	3.356577	0.568620	0.000034
 397	3.9402e+01	3.9356	-2.518599	0.000291	2.906305	0.492341	0.000029
 398	3.9502e+01	3.9462	-2.487234	0.000315	3.151908	0.533948	0.000032
 399	3.9601e+01	3.9545	-2.455461	0.000319	3.192842	0.540882	0.000032
 400	3.9700e+01	3.9674	-2.424096	0.000315	3.151908	0.533948	0.000032
 401	3.9800e+01	3.9748	-2.393952	0.000303	3.029106	0.513144	0.000030
 402	3.9900e+01	3.9843	-2.359735	0.000344	3.438445	0.582488	0.000034
 403	3.9999e+01	3.9950	-2.328777	0.000311	3.110974	0.527013	0.000031
 404	4.0099e+01	4.0075	-2.297819	0.000311	3.110974	0.527013	0.000031
 405	4.0198e+01	4.0170	-2.266454	0.000315	3.151908	0.533948	0.000032
 406	4.0297e+01	4.0233	-2.237940	0.000287	2.865371	0.485407	0.000029
 407	4.0397e+01	4.0326	-2.204945	0.000332	3.315643	0.561685	0.000033
 408	4.0496e+01	4.0455	-2.171136	0.000340	3.397511	0.575554	0.000034
 409	4.0596e+01	4.0562	-2.140585	0.000307	3.070040	0.520079	0.000031
 410	4.0696e+01	4.0675	-2.111256	0.000295	2.947238	0.499276	0.000029
 411	4.0795e+01	4.0750	-2.079484	0.000319	3.192842	0.540882	0.000032
 412	4.0895e+01	4.0842	-2.050562	0.000291	2.906305	0.492341	0.000029
 413	4.0994e+01	4.0954	-2.017568	0.000332	3.315643	0.561685	0.000033
 414	4.1093e+01	4.1044	-1.988646	0.000291	2.906305	0.492341	0.000029
 415	4.1193e+01	4.1139	-1.956059	0.000327	3.274709	0.554751	0.000033
 416	4.1292e+01	4.1242	-1.929989	0.000262	2.619767	0.443801	0.000026
 417	4.1392e+01	4.1355	-1.895365	0.000348	3.479379	0.589423	0.000035
 418	4.1492e+01	4.1439	-1.865629	0.000299	2.988172	0.506210	0.000030
 419	4.1591e+01	4.1594	-1.835893	0.000299	2.988172	0.506210	0.000030
 420	4.1691e+01	4.1653	-1.802491	0.000336	3.356577	0.568620	0.000034
 421	4.1790e+01	4.1755	-1.776014	0.000266	2.660701	0.450735	0.000027
 422	4.1889e+01	4.1819	-1.745055	0.000311	3.110974	0.527013	0.000031
 423	4.1989e+01	4.1953	-1.713690	0.000315	3.151908	0.533948	0.000032
 424	4.2089e+01	4.2046	-1.681917	0.000319	3.192842	0.540882	0.000032
 425	4.2188e+01	4.2141	-1.646071	0.000360	3.602180	0.610226	0.000036
 426	4.2288e+01	4.2266	-1.615521	0.000307	3.070040	0.520079	0.000031
 427	4.2387e+01	4.2330	-1.587007	0.000287	2.865371	0.485407	0.000029
 428	4.2486e+01	4.2416	-1.556456	0.000307	3.070040	0.520079	0.000031
 429	4.2586e+01	4.2568	-1.525091	0.000315	3.151908	0.533948	0.000032
 430	4.2685e+01	4.2647	-1.496577	0.000287	2.865371	0.485407	0.000029
 431	4.2785e+01	4.2721	-1.463174	0.000336	3.356577	0.568620	0.000034
 432	4.2885e+01	4.2850	-1.432624	0.000307	3.070040	0.520079	0.000031
 433	4.2984e+01	4.2936	-1.403702	0.000291	2.906305	0.492341	0.000029
 434	4.3084e+01	4.3041	-1.373966	0.000299	2.988172	0.506210	0.000030
 435	4.3183e+01	4.3142	-1.344230	0.000299	2.988172	0.506210	0.000030
 436	4.3282e+01	4.3226	-1.320605	0.000237	2.374164	0.402194	0.000024
 437	4.3382e+01	4.3339	-1.286388	0.000344	3.438445	0.582488	0.000034
 438	4.3481e+01	4.3456	-1.255022	0.000315	3.151908	0.533948	0.000032
 439	4.3581e+01	4.3534	-1.226916	0.000282	2.824437	0.478473	0.000028
 440	4.3681e+01	4.3623	-1.194328	0.000327	3.274709	0.554751	0.000033
 441	4.3780e+01	4.3741	-1.171110	0.000233	2.333230	0.395260	0.000023
 442	4.3880e+01	4.3855	-1.137708	0.000336	3.356577	0.568620	0.000034
 443	4.3979e+01	4.3925	-1.108379	0.000295	2.947238	0.499276	0.000029
 444	4.4078e+01	4.4054	-1.081494	0.000270	2.701635	0.457669	0.000027
 445	4.4178e+01	4.4150	-1.050536	0.000311	3.110974	0.527013	0.000031
 446	4.4278e+01	4.4225	-1.026096	0.000246	2.456032	0.416063	0.000025
 447	4.4377e+01	4.4306	-0.998397	0.000278	2.783503	0.471538	0.000028
 448	4.4477e+01	4.4429	-0.972734	0.000258	2.578834	0.436866	0.000026
 449	4.4576e+01	4.4520	-0.944220	0.000287	2.865371	0.485407	0.000029
 450	4.4675e+01	4.4666	-0.917743	0.000266	2.660701	0.450735	0.000027
 451	4.4775e+01	4.4732	-0.885970	0.000319	3.192842	0.540882	0.000032
 452	4.4874e+01	4.4823	-0.853790	0.000323	3.233775	0.547816	0.000032
 453	4.4974e+01	4.4968	-0.822832	0.000311	3.110974	0.527013	0.000031
 454	4.5074e+01	4.5017	-0.798799	0.000242	2.415098	0.409129	0.000024
 455	4.5173e+01	4.5105	-0.767433	0.000315	3.151908	0.533948	0.000032
 456	4.5273e+01	4.5246	-0.744215	0.000233	2.333230	0.395260	0.000023
 457	4.5372e+01	4.5321	-0.725070	0.000192	1.923892	0.325916	0.000019
 458	4.5471e+01	4.5410	-0.707961	0.000172	1.719222	0.291244	0.000017
 459	4.5571e+01	4.5536	-0.676596	0.000315	3.151908	0.533948	0.000032
 460	4.5670e+01	4.5619	-0.650526	0.000262	2.619767	0.443801	0.000026
 461	4.5770e+01	4.5741	-0.624456	0.000262	2.619767	0.443801	0.000026
 462	4.5870e+01	4.5839	-0.597979	0.000266	2.660701	0.450735	0.000027
 463	4.5969e+01	4.5913	-0.566613	0.000315	3.151908	0.533948	0.000032
 464	4.6069e+01	4.6043	-0.524657	0.000422	4.216188	0.714242	0.000042
 465	4.6168e+01	4.6151	-0.490033	0.000348	3.479379	0.589423	0.000035
 466	4.6267e+01	4.6216	-0.458668	0.000315	3.151908	0.533948	0.000032
 467	4.6367e+01	4.6340	-0.411009	0.000479	4.789262	0.811323	0.000048
 468	4.6467e+01	4.6404	-0.377607	0.000336	3.356577	0.568620	0.000034
 469	4.6566e+01	4.6529	-0.309580	0.000684	6.835956	1.158042	0.000068
 470	4.6666e+01	4.6621	-0.278622	0.000311	3.110974	0.527013	0.000031
 471	4.6765e+01	4.6709	-0.246035	0.000327	3.274709	0.554751	0.000033
 472	4.6864e+01	4.6821	-0.224853	0.000213	2.128561	0.360588	0.000021
 473	4.6964e+01	4.6931	-0.191451	0.000336	3.356577	0.568620	0.000034
 474	4.7063e+01	4.7047	-0.149495	0.000422	4.216188	0.714242	0.000042
 475	4.7163e+01	4.7117	-0.120981	0.000287	2.865371	0.485407	0.000029
 476	4.7263e+01	4.7249	-0.085135	0.000360	3.602180	0.610226	0.000036
 477	4.7362e+01	4.7303	-0.054177	0.000311	3.110974	0.527013	0.000031
 478	4.7462e+01	4.7430	-0.024848	0.000295	2.947238	0.499276	0.000029
 479	4.7561e+01	4.7524	0.008554	0.000336	3.356577	0.568620	0.000034
 480	4.7660e+01	4.7637	0.038698	0.000303	3.029106	0.513144	0.000030
 481	4.7760e+01	4.7713	0.070063	0.000315	3.151908	0.533948	0.000032
 482	4.7859e+01	4.7832	0.100206	0.000303	3.029106	0.513144	0.000030
 483	4.7959e+01	4.7930	0.129535	0.000295	2.947238	0.499276	0.000029
 484	4.8059e+01	4.8030	0.156012	0.000266	2.660701	0.450735	0.000027
 485	4.8158e+01	4.8101	0.189822	0.000340	3.397511	0.575554	0.000034
 486	4.8258e+01	4.8217	0.219558	0.000299	2.988172	0.506210	0.000030
 487	4.8357e+01	4.8312	0.251738	0.000323	3.233775	0.547816	0.000032
 488	4.8456e+01	4.8394	0.280252	0.000287	2.865371	0.485407	0.000029
 489	4.8556e+01	4.8500	0.305914	0.000258	2.578834	0.436866	0.000026
 490	4.8656e+01	4.8621	0.338502	0.000327	3.274709	0.554751	0.000033
 491	4.8755e+01	4.8718	0.369460	0.000311	3.110974	0.527013	0.000031
 492	4.8855e+01	4.8797	0.400418	0.000311	3.110974	0.527013	0.000031
 493	4.8954e+01	4.8905	0.429339	0.000291	2.906305	0.492341	0.000029
 494	4.9053e+01	4.9029	0.459890	0.000307	3.070040	0.520079	0.000031
 495	4.9153e+01	4.9136	0.490033	0.000303	3.029106	0.513144	0.000030
 496	4.9252e+01	4.9203	0.520176	0.000303	3.029106	0.513144	0.000030
 497	4.9352e+01	4.9317	0.549098	0.000291	2.906305	0.492341	0.000029
 498	4.9452e+01	4.9410	0.580056	0.000311	3.110974	0.527013	0.000031
 499	4.9551e+01	4.9545	0.610606	0.000307	3.070040	0.520079	0.000031
 500	4.9651e+01	4.9599	0.642787	0.000323	3.233775	0.547816	0.000032
 501	4.9750e+01	4.9722	0.671708	0.000291	2.906305	0.492341	0.000029
 502	4.9849e+01	4.9816	0.701037	0.000295	2.947238	0.499276	0.000029
 503	4.9949e+01	4.9909	0.731587	0.000307	3.070040	0.520079	0.000031
 504	5.0048e+01	5.0033	0.763360	0.000319	3.192842	0.540882	0.000032
 505	5.0148e+01	5.0088	0.791467	0.000282	2.824437	0.478473	0.000028
 506	5.0248e+01	5.0222	0.823239	0.000319	3.192842	0.540882	0.000032
 507	5.0347e+01	5.0282	0.850939	0.000278	2.783503	0.471538	0.000028
 508	5.0447e+01	5.0393	0.878638	0.000278	2.783503	0.471538	0.000028
 509	5.0546e+01	5.0509	0.906745	0.000282	2.824437	0.478473	0.000028
 510	5.0645e+01	5.0582	0.934851	0.000282	2.824437	0.478473	0.000028
 511	5.0745e+01	5.0698	0.965402	0.000307	3.070040	0.520079	0.000031
 512	5.0844e+01	5.0800	0.996767	0.000315	3.151908	0.533948	0.000032
 513	5.0944e+01	5.0907	1.024467	0.000278	2.783503	0.471538	0.000028
 514	5.1044e+01	5.1006	1.053388	0.000291	2.906305	0.492341	0.000029
 515	5.1143e+01	5.1087	1.084346	0.000311	3.110974	0.527013	0.000031
 516	5.1242e+01	5.1195	1.113267	0.000291	2.906305	0.492341	0.000029
 517	5.1342e+01	5.1308	1.145040	0.000319	3.192842	0.540882	0.000032
 518	5.1441e+01	5.1391	1.174776	0.000299	2.988172	0.506210	0.000030
 519	5.1541e+01	5.1505	1.198402	0.000237	2.374164	0.402194	0.000024
 520	5.1641e+01	5.1604	1.230175	0.000319	3.192842	0.540882	0.000032
 521	5.1740e+01	5.1720	1.260725	0.000307	3.070040	0.520079	0.000031
 522	5.1840e+01	5.1801	1.289647	0.000291	2.906305	0.492341	0.000029
 523	5.1939e+01	5.1872	1.321012	0.000315	3.151908	0.533948	0.000032
 524	5.2038e+01	5.2004	1.345452	0.000246	2.456032	0.416063	0.000025
 525	5.2138e+01	5.2102	1.373559	0.000282	2.824437	0.478473	0.000028
 526	5.2237e+01	5.2199	1.406961	0.000336	3.356577	0.568620	0.000034
 527	5.2337e+01	5.2316	1.430994	0.000242	2.415098	0.409129	0.000024
 528	5.2437e+01	5.2404	1.464396	0.000336	3.356577	0.568620	0.000034
 529	5.2536e+01	5.2500	1.492910	0.000287	2.865371	0.485407	0.000029
 530	5.2636e+01	5.2571	1.528757	0.000360	3.602180	0.610226	0.000036
 531	5.2735e+01	5.2677	1.559715	0.000311	3.110974	0.527013	0.000031
 532	5.2834e+01	5.2772	1.590265	0.000307	3.070040	0.520079	0.000031
 533	5.2934e+01	5.2883	1.621223	0.000311	3.110974	0.527013	0.000031
 534	5.3033e+01	5.2997	1.652181	0.000311	3.110974	0.527013	0.000031
 535	5.3133e+01	5.3103	1.680695	0.000287	2.865371	0.485407	0.000029
 536	5.3233e+01	5.3193	1.709209	0.000287	2.865371	0.485407	0.000029
 537	5.3332e+01	5.3298	1.739760	0.000307	3.070040	0.520079	0.000031
 538	5.3431e+01	5.3368	1.769903	0.000303	3.029106	0.513144	0.000030
 539	5.3531e+01	5.3474	1.796381	0.000266	2.660701	0.450735	0.000027
 540	5.3630e+01	5.3586	1.829375	0.000332	3.315643	0.561685	0.000033
 541	5.3730e+01	5.3666	1.858704	0.000295	2.947238	0.499276	0.000029
 542	5.3830e+01	5.3776	1.887218	0.000287	2.865371	0.485407	0.000029
 543	5.3929e+01	5.3909	1.912881	0.000258	2.578834	0.436866	0.000026
 544	5.4029e+01	5.3955	1.943839	0.000311	3.110974	0.527013	0.000031
 545	5.4128e+01	5.4101	1.975611	0.000319	3.192842	0.540882	0.000032
 546	5.4227e+01	5.4211	2.002496	0.000270	2.701635	0.457669	0.000027
 547	5.4327e+01	5.4290	2.029381	0.000270	2.701635	0.457669	0.000027
 548	5.4426e+01	5.4403	2.057080	0.000278	2.783503	0.471538	0.000028
 549	5.4526e+01	5.4502	2.086001	0.000291	2.906305	0.492341	0.000029
 550	5.4626e+01	5.4554	2.110034	0.000242	2.415098	0.409129	0.000024
 551	5.4725e+01	5.4684	2.135290	0.000254	2.537900	0.429932	0.000025
 552	5.4825e+01	5.4762	2.163804	0.000287	2.865371	0.485407	0.000029
 553	5.4924e+01	5.4861	2.194762	0.000311	3.110974	0.527013	0.000031
 554	5.5023e+01	5.4977	2.221646	0.000270	2.701635	0.457669	0.000027
 555	5.5123e+01	5.5102	2.248938	0.000274	2.742569	0.464604	0.000027
 556	5.5222e+01	5.5177	2.275008	0.000262	2.619767	0.443801	0.000026
 557	5.5322e+01	5.5271	2.297412	0.000225	2.251363	0.381391	0.000023
 558	5.5422e+01	5.5383	2.328777	0.000315	3.151908	0.533948	0.000032
 559	5.5521e+01	5.5476	2.357699	0.000291	2.906305	0.492341	0.000029
 560	5.5620e+01	5.5595	2.385805	0.000282	2.824437	0.478473	0.000028
 561	5.5720e+01	5.5691	2.413912	0.000282	2.824437	0.478473	0.000028
 562	5.5819e+01	5.5801	2.443241	0.000295	2.947238	0.499276	0.000029
 563	5.5919e+01	5.5875	2.471347	0.000282	2.824437	0.478473	0.000028
 564	5.6019e+01	5.5985	2.500676	0.000295	2.947238	0.499276	0.000029
 565	5.6118e+01	5.6055	2.525931	0.000254	2.537900	0.429932	0.000025
 566	5.6218e+01	5.6191	2.556075	0.000303	3.029106	0.513144	0.000030
 567	5.6317e+01	5.6312	2.583366	0.000274	2.742569	0.464604	0.000027
 568	5.6416e+01	5.6393	2.611880	0.000287	2.865371	0.485407	0.000029
 569	5.6516e+01	5.6493	2.641616	0.000299	2.988172	0.506210	0.000030
 570	5.6615e+01	5.6597	2.669723	0.000282	2.824437	0.478473	0.000028
 571	5.6715e+01	5.6664	2.696200	0.000266	2.660701	0.450735	0.000027
 572	5.6815e+01	5.6792	2.727158	0.000311	3.110974	0.527013	0.000031
 573	5.6914e+01	5.6853	2.748748	0.000217	2.169495	0.367522	0.000022
 574	5.7014e+01	5.6971	2.782964	0.000344	3.438445	0.582488	0.000034
 575	5.7113e+01	5.7055	2.806998	0.000242	2.415098	0.409129	0.000024
 576	5.7212e+01	5.7171	2.839992	0.000332	3.315643	0.561685	0.000033
 577	5.7312e+01	5.7269	2.864025	0.000242	2.415098	0.409129	0.000024
 578	5.7411e+01	5.7348	2.894169	0.000303	3.029106	0.513144	0.000030
 579	5.7511e+01	5.7488	2.924312	0.000303	3.029106	0.513144	0.000030
 580	5.7611e+01	5.7558	2.949975	0.000258	2.578834	0.436866	0.000026
 581	5.7710e+01	5.7671	2.976859	0.000270	2.701635	0.457669	0.000027
 582	5.7809e+01	5.7761	3.006188	0.000295	2.947238	0.499276	0.000029
 583	5.7909e+01	5.7877	3.035109	0.000291	2.906305	0.492341	0.000029
 584	5.8008e+01	5.7978	3.060772	0.000258	2.578834	0.436866	0.000026
 585	5.8108e+01	5.8065	3.087657	0.000270	2.701635	0.457669	0.000027
 586	5.8208e+01	5.8176	3.118207	0.000307	3.070040	0.520079	0.000031
 587	5.8307e+01	5.8253	3.147943	0.000299	2.988172	0.506210	0.000030
 588	5.8407e+01	5.8356	3.172384	0.000246	2.456032	0.416063	0.000025
 589	5.8506e+01	5.8475	3.200083	0.000278	2.783503	0.471538	0.000028
 590	5.8605e+01	5.8562	3.226560	0.000266	2.660701	0.450735	0.000027
 591	5.8705e+01	5.8683	3.259555	0.000332	3.315643	0.561685	0.000033
 592	5.8804e+01	5.8772	3.286032	0.000266	2.660701	0.450735	0.000027
 593	5.8904e+01	5.8852	3.315768	0.000299	2.988172	0.506210	0.000030
 594	5.9004e+01	5.8991	3.339802	0.000242	2.415098	0.409129	0.000024
 595	5.9103e+01	5.9042	3.371982	0.000323	3.233775	0.547816	0.000032
 596	5.9203e+01	5.9155	3.396830	0.000250	2.496966	0.422997	0.000025
 597	5.9302e+01	5.9270	3.426973	0.000303	3.029106	0.513144	0.000030
 598	5.9401e+01	5.9364	3.453857	0.000270	2.701635	0.457669	0.000027
 599	5.9501e+01	5.9480	3.482371	0.000287	2.865371	0.485407	0.000029
 600	5.9600e+01	5.9551	3.509256	0.000270	2.701635	0.457669	0.000027
 601	5.9700e+01	5.9655	3.537363	0.000282	2.824437	0.478473	0.000028
 602	5.9800e+01	5.9782	3.566284	0.000291	2.906305	0.492341	0.000029
 603	5.9899e+01	5.9875	3.598871	0.000327	3.274709	0.554751	0.000033
 604	5.9998e+01	5.9963	3.624127	0.000254	2.537900	0.429932	0.000025
 605	6.0098e+01	6.0055	3.651826	0.000278	2.783503	0.471538	0.000028
 606	6.0197e+01	6.0162	3.678711	0.000270	2.701635	0.457669	0.000027
 607	6.0297e+01	6.0268	3.707632	0.000291	2.906305	0.492341	0.000029
 608	6.0397e+01	6.0357	3.732887	0.000254	2.537900	0.429932	0.000025
 609	6.0496e+01	6.0471	3.763845	0.000311	3.110974	0.527013	0.000031
 610	6.0596e+01	6.0596	3.790322	0.000266	2.660701	0.450735	0.000027
 611	6.0695e+01	6.0682	3.816800	0.000266	2.660701	0.450735	0.000027
 612	6.0794e+01	6.0753	3.848165	0.000315	3.151908	0.533948	0.000032
 613	6.0894e+01	6.0847	3.871384	0.000233	2.333230	0.395260	0.000023
 614	6.0993e+01	6.0937	3.893380	0.000221	2.210429	0.374457	0.000022
 615	6.1093e+01	6.1037	3.923931	0.000307	3.070040	0.520079	0.000031
 616	6.1193e+01	6.1156	3.945927	0.000221	2.210429	0.374457	0.000022
 617	6.1292e+01	6.1251	3.976071	0.000303	3.029106	0.513144	0.000030
 618	6.1392e+01	6.1338	4.001733	0.000258	2.578834	0.436866	0.000026
 619	6.1491e+01	6.1443	4.031062	0.000295	2.947238	0.499276	0.000029
 620	6.1590e+01	6.1539	4.056724	0.000258	2.578834	0.436866	0.000026
 621	6.1690e+01	6.1646	4.086053	0.000295	2.947238	0.499276	0.000029
 622	6.1789e+01	6.1750	4.111716	0.000258	2.578834	0.436866	0.000026
 623	6.1889e+01	6.1886	4.140637	0.000291	2.906305	0.492341	0.000029
 624	6.1989e+01	6.1945	4.170373	0.000299	2.988172	0.506210	0.000030
 625	6.2088e+01	6.2037	4.196443	0.000262	2.619767	0.443801	0.000026
 626	6.2188e+01	6.2127	4.224142	0.000278	2.783503	0.471538	0.000028
 627	6.2287e+01	6.2286	4.248175	0.000242	2.415098	0.409129	0.000024
 628	6.2386e+01	6.2337	4.270172	0.000221	2.210429	0.374457	0.000022
 629	6.2486e+01	6.2438	4.295427	0.000254	2.537900	0.429932	0.000025
 630	6.2586e+01	6.2534	4.321090	0.000258	2.578834	0.436866	0.000026
 631	6.2685e+01	6.2647	4.352048	0.000311	3.110974	0.527013	0.000031
 632	6.2785e+01	6.2771	4.385043	0.000332	3.315643	0.561685	0.000033
 633	6.2884e+01	6.2842	4.415593	0.000307	3.070040	0.520079	0.000031
 634	6.2983e+01	6.2948	4.444922	0.000295	2.947238	0.499276	0.000029
 635	6.3083e+01	6.3046	4.479953	0.000352	3.520313	0.596357	0.000035
 636	6.3182e+01	6.3135	4.503172	0.000233	2.333230	0.395260	0.000023
 637	6.3282e+01	6.3244	4.531279	0.000282	2.824437	0.478473	0.000028
 638	6.3382e+01	6.3332	4.567125	0.000360	3.602180	0.610226	0.000036
 639	6.3481e+01	6.3428	4.595639	0.000287	2.865371	0.485407	0.000029
 640	6.3581e+01	6.3552	4.622116	0.000266	2.660701	0.450735	0.000027
 641	6.3680e+01	6.3647	4.651037	0.000291	2.906305	0.492341	0.000029
 642	6.3779e+01	6.3734	4.678329	0.000274	2.742569	0.464604	0.000027
 643	6.3879e+01	6.3859	4.701955	0.000237	2.374164	0.402194	0.000024
 644	6.3978e+01	6.3941	4.733320	0.000315	3.151908	0.533948	0.000032
 645	6.4078e+01	6.4021	4.759390	0.000262	2.619767	0.443801	0.000026
 646	6.4177e+01	6.4137	4.780572	0.000213	2.128561	0.360588	0.000021
 647	6.4277e+01	6.4239	4.818455	0.000381	3.806850	0.644898	0.000038
 648	6.4376e+01	6.4333	4.844932	0.000266	2.660701	0.450735	0.000027
 649	6.4476e+01	6.4430	4.867743	0.000229	2.292297	0.388326	0.000023
 650	6.4576e+01	6.4516	4.903182	0.000356	3.561246	0.603291	0.000036
 651	6.4675e+01	6.4617	4.930882	0.000278	2.783503	0.471538	0.000028
 652	6.4775e+01	6.4733	4.951249	0.000205	2.046693	0.346719	0.000020
 653	6.4874e+01	6.4822	4.981392	0.000303	3.029106	0.513144	0.000030
 654	6.4974e+01	6.4937	5.009499	0.000282	2.824437	0.478473	0.000028
 655	6.5073e+01	6.5026	5.036791	0.000274	2.742569	0.464604	0.000027
 656	6.5172e+01	6.5124	5.070193	0.000336	3.356577	0.568620	0.000034
 657	6.5272e+01	6.5221	5.097485	0.000274	2.742569	0.464604	0.000027
 658	6.5371e+01	6.5356	5.122740	0.000254	2.537900	0.429932	0.000025
 659	6.5471e+01	6.5430	5.149625	0.000270	2.701635	0.457669	0.000027
 660	6.5570e+01	6.5527	5.178139	0.000287	2.865371	0.485407	0.000029
 661	6.5670e+01	6.5620	5.205838	0.000278	2.783503	0.471538	0.000028
 662	6.5769e+01	6.5722	5.233130	0.000274	2.742569	0.464604	0.000027
 663	6.5869e+01	6.5826	5.261644	0.000287	2.865371	0.485407	0.000029
 664	6.5969e+01	6.5911	5.288121	0.000266	2.660701	0.450735	0.000027
 665	6.6068e+01	6.6015	5.316635	0.000287	2.865371	0.485407	0.000029
 666	6.6168e+01	6.6109	5.344334	0.000278	2.783503	0.471538	0.000028
 667	6.6267e+01	6.6244	5.372848	0.000287	2.865371	0.485407	0.000029
 668	6.6367e+01	6.6327	5.402584	0.000299	2.988172	0.506210	0.000030
 669	6.6466e+01	6.6422	5.432728	0.000303	3.029106	0.513144	0.000030
 670	6.6566e+01	6.6530	5.459612	0.000270	2.701635	0.457669	0.000027
 671	6.6665e+01	6.6619	5.490570	0.000311	3.110974	0.527013	0.000031
 672	6.6764e+01	6.6717	5.519492	0.000291	2.906305	0.492341	0.000029
 673	6.6864e+01	6.6809	5.545969	0.000266	2.660701	0.450735	0.000027
 674	6.6963e+01	6.6904	5.575705	0.000299	2.988172	0.506210	0.000030
 675	6.7063e+01	6.7020	5.600960	0.000254	2.537900	0.429932	0.000025
 676	6.7162e+01	6.7139	5.628252	0.000274	2.742569	0.464604	0.000027
 677	6.7262e+01	6.7214	5.655544	0.000274	2.742569	0.464604	0.000027
 678	6.7362e+01	6.7300	5.683651	0.000282	2.824437	0.478473	0.000028
 679	6.7461e+01	6.7440	5.712165	0.000287	2.865371	0.485407	0.000029
 680	6.7561e+01	6.7497	5.738642	0.000266	2.660701	0.450735	0.000027
 681	6.7660e+01	6.7603	5.765934	0.000274	2.742569	0.464604	0.000027
 682	6.7760e+01	6.7699	5.791189	0.000254	2.537900	0.429932	0.000025
 683	6.7859e+01	6.7800	5.820925	0.000299	2.988172	0.506210	0.000030
 684	6.7959e+01	6.7910	5.846180	0.000254	2.537900	0.429932	0.000025
 685	6.8058e+01	6.8013	5.873472	0.000274	2.742569	0.464604	0.000027
 686	6.8157e+01	6.8096	5.907689	0.000344	3.438445	0.582488	0.000034
 687	6.8257e+01	6.8221	5.929686	0.000221	2.210429	0.374457	0.000022
 688	6.8356e+01	6.8319	5.957792	0.000282	2.824437	0.478473	0.000028
 689	6.8456e+01	6.8423	5.987936	0.000303	3.029106	0.513144	0.000030
 690	6.8555e+01	6.8507	6.013191	0.000254	2.537900	0.429932	0.000025
 691	6.8655e+01	6.8612	6.042927	0.000299	2.988172	0.506210	0.000030
 692	6.8754e+01	6.8732	6.067367	0.000246	2.456032	0.416063	0.000025
 693	6.8854e+01	6.8783	6.097103	0.000299	2.988172	0.506210	0.000030
 694	6.8954e+01	6.8914	6.124803	0.000278	2.783503	0.471538	0.000028
 695	6.9053e+01	6.9033	6.151280	0.000266	2.660701	0.450735	0.000027
 696	6.9153e+01	6.9134	6.182238	0.000311	3.110974	0.527013	0.000031
 697	6.9252e+01	6.9198	6.214825	0.000327	3.274709	0.554751	0.000033
 698	6.9352e+01	6.9289	6.241303	0.000266	2.660701	0.450735	0.000027
 699	6.9451e+01	6.9415	6.273075	0.000319	3.192842	0.540882	0.000032
 700	6.9550e+01	6.9507	6.302404	0.000295	2.947238	0.499276	0.000029
 701	6.9650e+01	6.9598	6.329696	0.000274	2.742569	0.464604	0.000027
 702	6.9749e+01	6.9682	6.360654	0.000311	3.110974	0.527013	0.000031
 703	6.9849e+01	6.9792	6.386724	0.000262	2.619767	0.443801	0.000026
 704	6.9948e+01	6.9924	6.413608	0.000270	2.701635	0.457669	0.000027
 705	7.0048e+01	7.0004	6.441715	0.000282	2.824437	0.478473	0.000028
 706	7.0147e+01	7.0103	6.471858	0.000303	3.029106	0.513144	0.000030
 707	7.0247e+01	7.0196	6.497928	0.000262	2.619767	0.443801	0.000026
 708	7.0347e+01	7.0280	6.527257	0.000295	2.947238	0.499276	0.000029
 709	7.0446e+01	7.0394	6.556178	0.000291	2.906305	0.492341	0.000029
 710	7.0546e+01	7.0477	6.582248	0.000262	2.619767	0.443801	0.000026
 711	7.0645e+01	7.0586	6.609540	0.000274	2.742569	0.464604	0.000027
 712	7.0745e+01	7.0663	6.638869	0.000295	2.947238	0.499276	0.000029
 713	7.0844e+01	7.0797	6.665754	0.000270	2.701635	0.457669	0.000027
 714	7.0944e+01	7.0879	6.690601	0.000250	2.496966	0.422997	0.000025
 715	7.1043e+01	7.0992	6.717893	0.000274	2.742569	0.464604	0.000027
 716	7.1142e+01	7.1099	6.746000	0.000282	2.824437	0.478473	0.000028
 717	7.1242e+01	7.1191	6.774921	0.000291	2.906305	0.492341	0.000029
 718	7.1341e+01	7.1301	6.797325	0.000225	2.251363	0.381391	0.000023
 719	7.1441e+01	7.1404	6.823802	0.000266	2.660701	0.450735	0.000027
 720	7.1540e+01	7.1523	6.848243	0.000246	2.456032	0.416063	0.000025
 721	7.1640e+01	7.1603	6.875128	0.000270	2.701635	0.457669	0.000027
 722	7.1740e+01	7.1677	6.903234	0.000282	2.824437	0.478473	0.000028
 723	7.1839e+01	7.1798	6.926453	0.000233	2.333230	0.395260	0.000023
 724	7.1939e+01	7.1899	6.955374	0.000291	2.906305	0.492341	0.000029
 725	7.2038e+01	7.1989	6.983481	0.000282	2.824437	0.478473	0.000028
 726	7.2138e+01	7.2100	7.008329	0.000250	2.496966	0.422997	0.000025
 727	7.2237e+01	7.2182	7.037657	0.000295	2.947238	0.499276	0.000029
 728	7.2337e+01	7.2274	7.064949	0.000274	2.742569	0.464604	0.000027
 729	7.2436e+01	7.2389	7.093871	0.000291	2.906305	0.492341	0.000029
 730	7.2535e+01	7.2490	7.119940	0.000262	2.619767	0.443801	0.000026
 731	7.2635e+01	7.2607	7.146825	0.000270	2.701635	0.457669	0.000027
 732	7.2734e+01	7.2707	7.174932	0.000282	2.824437	0.478473	0.000028
 733	7.2834e+01	7.2759	7.198558	0.000237	2.374164	0.402194	0.000024
 734	7.2933e+01	7.2857	7.228294	0.000299	2.988172	0.506210	0.000030
 735	7.3033e+01	7.2981	7.255993	0.000278	2.783503	0.471538	0.000028
 736	7.3132e+01	7.3073	7.285322	0.000295	2.947238	0.499276	0.000029
 737	7.3232e+01	7.3197	7.314650	0.000295	2.947238	0.499276	0.000029
 738	7.3332e+01	7.3257	7.339091	0.000246	2.456032	0.416063	0.000025
 739	7.3431e+01	7.3409	7.368827	0.000299	2.988172	0.506210	0.000030
 740	7.3531e+01	7.3479	7.392860	0.000242	2.415098	0.409129	0.000024
 741	7.3630e+01	7.3608	7.424225	0.000315	3.151908	0.533948	0.000032
 742	7.3730e+01	7.3684	7.448666	0.000246	2.456032	0.416063	0.000025
 743	7.3829e+01	7.3782	7.475958	0.000274	2.742569	0.464604	0.000027
 744	7.3928e+01	7.3888	7.509767	0.000340	3.397511	0.575554	0.000034
 745	7.4028e+01	7.4004	7.535430	0.000258	2.578834	0.436866	0.000026
 746	7.4127e+01	7.4090	7.559870	0.000246	2.456032	0.416063	0.000025
 747	7.4227e+01	7.4203	7.589199	0.000295	2.947238	0.499276	0.000029
 748	7.4326e+01	7.4276	7.616491	0.000274	2.742569	0.464604	0.000027
 749	7.4426e+01	7.4393	7.644598	0.000282	2.824437	0.478473	0.000028
 750	7.4525e+01	7.4483	7.672704	0.000282	2.824437	0.478473	0.000028
 751	7.4625e+01	7.4607	7.697145	0.000246	2.456032	0.416063	0.000025
 752	7.4725e+01	7.4679	7.726881	0.000299	2.988172	0.506210	0.000030
 753	7.4824e+01	7.4785	7.754987	0.000282	2.824437	0.478473	0.000028
 754	7.4924e+01	7.4867	7.783094	0.000282	2.824437	0.478473	0.000028
 755	7.5023e+01	7.4970	7.805905	0.000229	2.292297	0.388326	0.000023
 756	7.5123e+01	7.5082	7.840937	0.000352	3.520313	0.596357	0.000035
 757	7.5222e+01	7.5171	7.867414	0.000266	2.660701	0.450735	0.000027
 758	7.5322e+01	7.5255	7.894706	0.000274	2.742569	0.464604	0.000027
 759	7.5421e+01	7.5352	7.922405	0.000278	2.783503	0.471538	0.000028
 760	7.5520e+01	7.5460	7.949697	0.000274	2.742569	0.464604	0.000027
 761	7.5620e+01	7.5582	7.979026	0.000295	2.947238	0.499276	0.000029
 762	7.5719e+01	7.5636	8.006725	0.000278	2.783503	0.471538	0.000028
 763	7.5819e+01	7.5777	8.036054	0.000295	2.947238	0.499276	0.000029
 764	7.5918e+01	7.5890	8.064568	0.000287	2.865371	0.485407	0.000029
 765	7.6018e+01	7.5990	8.093896	0.000295	2.947238	0.499276	0.000029
 766	7.6118e+01	7.6083	8.122003	0.000282	2.824437	0.478473	0.000028
 767	7.6217e+01	7.6158	8.149702	0.000278	2.783503	0.471538	0.000028
 768	7.6317e+01	7.6281	8.176994	0.000274	2.742569	0.464604	0.000027
 769	7.6416e+01	7.6376	8.205101	0.000282	2.824437	0.478473	0.000028
 770	7.6516e+01	7.6466	8.231578	0.000266	2.660701	0.450735	0.000027
 771	7.6615e+01	7.6573	8.265388	0.000340	3.397511	0.575554	0.000034
 772	7.6715e+01	7.6658	8.292680	0.000274	2.742569	0.464604	0.000027
 773	7.6814e+01	7.6759	8.319157	0.000266	2.660701	0.450735	0.000027
 774	7.6913e+01	7.6846	8.347264	0.000282	2.824437	0.478473	0.000028
 775	7.7013e+01	7.6968	8.377000	0.000299	2.988172	0.506210	0.000030
 776	7.7112e+01	7.7047	8.407958	0.000311	3.110974	0.527013	0.000031
 777	7.7212e+01	7.7166	8.436879	0.000291	2.906305	0.492341	0.000029
 778	7.7311e+01	7.7274	8.462949	0.000262	2.619767	0.443801	0.000026
 779	7.7411e+01	7.7376	8.488204	0.000254	2.537900	0.429932	0.000025
 780	7.7510e+01	7.7467	8.515089	0.000270	2.701635	0.457669	0.000027
 781	7.7610e+01	7.7569	8.544010	0.000291	2.906305	0.492341	0.000029
 782	7.7710e+01	7.7664	8.574968	0.000311	3.110974	0.527013	0.000031
 783	7.7809e+01	7.7776	8.598187	0.000233	2.333230	0.395260	0.000023
 784	7.7909e+01	7.7894	8.626293	0.000282	2.824437	0.478473	0.000028
 785	7.8008e+01	7.8010	8.652770	0.000266	2.660701	0.450735	0.000027
 786	7.8108e+01	7.8051	8.681692	0.000291	2.906305	0.492341	0.000029
 787	7.8207e+01	7.8153	8.712650	0.000311	3.110974	0.527013	0.000031
 788	7.8306e+01	7.8290	8.739942	0.000274	2.742569	0.464604	0.000027
 789	7.8406e+01	7.8416	8.770900	0.000311	3.110974	0.527013	0.000031
 790	7.8505e+01	7.8467	8.797377	0.000266	2.660701	0.450735	0.000027
 791	7.8605e+01	7.8573	8.827520	0.000303	3.029106	0.513144	0.000030
 792	7.8704e+01	7.8642	8.857664	0.000303	3.029106	0.513144	0.000030
 793	7.8804e+01	7.8745	8.885363	0.000278	2.783503	0.471538	0.000028
 794	7.8903e+01	7.8870	8.912655	0.000274	2.742569	0.464604	0.000027
 795	7.9003e+01	7.8952	8.939540	0.000270	2.701635	0.457669	0.000027
 796	7.9103e+01	7.9045	8.972534	0.000332	3.315643	0.561685	0.000033
 797	7.9202e+01	7.9131	9.002270	0.000299	2.988172	0.506210	0.000030
 798	7.9302e+01	7.9234	9.029155	0.000270	2.701635	0.457669	0.000027
 799	7.9401e+01	7.9360	9.058076	0.000291	2.906305	0.492341	0.000029
 800	7.9501e+01	7.9449	9.092700	0.000348	3.479379	0.589423	0.000035
 801	7.9600e+01	7.9533	9.122029	0.000295	2.947238	0.499276	0.000029
 802	7.9700e+01	7.9655	9.155431	0.000336	3.356577	0.568620	0.000034
 803	7.9799e+01	7.9751	9.183945	0.000287	2.865371	0.485407	0.000029
 804	7.9898e+01	7.9874	9.214089	0.000303	3.029106	0.513144	0.000030
 805	7.9998e+01	7.9975	9.246269	0.000323	3.233775	0.547816	0.000032
 806	8.0097e+01	8.0064	9.278856	0.000327	3.274709	0.554751	0.000033
 807	8.0197e+01	8.0132	9.309407	0.000307	3.070040	0.520079	0.000031
 808	8.0296e+01	8.0276	9.339957	0.000307	3.070040	0.520079	0.000031
 809	8.0396e+01	8.0347	9.370101	0.000303	3.029106	0.513144	0.000030
 810	8.0496e+01	8.0450	9.401873	0.000319	3.192842	0.540882	0.000032
 811	8.0595e+01	8.0540	9.429165	0.000274	2.742569	0.464604	0.000027
 812	8.0695e+01	8.0659	9.464197	0.000352	3.520313	0.596357	0.000035
 813	8.0794e+01	8.0746	9.492711	0.000287	2.865371	0.485407	0.000029
 814	8.0894e+01	8.0838	9.522039	0.000295	2.947238	0.499276	0.000029
 815	8.0993e+01	8.0953	9.552998	0.000311	3.110974	0.527013	0.000031
 816	8.1093e+01	8.1042	9.585585	0.000327	3.274709	0.554751	0.000033
 817	8.1192e+01	8.1158	9.615321	0.000299	2.988172	0.506210	0.000030
 818	8.1291e+01	8.1239	9.643428	0.000282	2.824437	0.478473	0.000028
 819	8.1391e+01	8.1363	9.678866	0.000356	3.561246	0.603291	0.000036
 820	8.1490e+01	8.1439	9.702492	0.000237	2.374164	0.402194	0.000024
 821	8.1590e+01	8.1525	9.734265	0.000319	3.192842	0.540882	0.000032
 822	8.1689e+01	8.1644	9.767667	0.000336	3.356577	0.568620	0.000034
 823	8.1789e+01	8.1742	9.794959	0.000274	2.742569	0.464604	0.000027
 824	8.1888e+01	8.1838	9.827546	0.000327	3.274709	0.554751	0.000033
 825	8.1988e+01	8.1971	9.858912	0.000315	3.151908	0.533948	0.000032
 826	8.2088e+01	8.2040	9.889462	0.000307	3.070040	0.520079	0.000031
 827	8.2187e+01	8.2143	9.920420	0.000311	3.110974	0.527013	0.000031
 828	8.2287e+01	8.2243	9.948527	0.000282	2.824437	0.478473	0.000028
 829	8.2386e+01	8.2342	9.979078	0.000307	3.070040	0.520079	0.000031
 830	8.2486e+01	8.2438	10.012887	0.000340	3.397511	0.575554	0.000034
 831	8.2585e+01	8.2540	10.042216	0.000295	2.947238	0.499276	0.000029
 832	8.2684e+01	8.2635	10.073174	0.000311	3.110974	0.527013	0.000031
 833	8.2784e+01	8.2720	10.103317	0.000303	3.029106	0.513144	0.000030
 834	8.2883e+01	8.2837	10.135905	0.000327	3.274709	0.554751	0.000033
 835	8.2983e+01	8.2932	10.170121	0.000344	3.438445	0.582488	0.000034
 836	8.3082e+01	8.3040	10.199043	0.000291	2.906305	0.492341	0.000029
 837	8.3182e+01	8.3119	10.228779	0.000299	2.988172	0.506210	0.000030
 838	8.3281e+01	8.3224	10.265440	0.000368	3.684048	0.624095	0.000037
 839	8.3381e+01	8.3350	10.295583	0.000303	3.029106	0.513144	0.000030
 840	8.3481e+01	8.3443	10.327763	0.000323	3.233775	0.547816	0.000032
 841	8.3580e+01	8.3521	10.357092	0.000295	2.947238	0.499276	0.000029
 842	8.3680e+01	8.3633	10.389272	0.000323	3.233775	0.547816	0.000032
 843	8.3779e+01	8.3731	10.415342	0.000262	2.619767	0.443801	0.000026
 844	8.3879e+01	8.3842	10.449966	0.000348	3.479379	0.589423	0.000035
 845	8.3978e+01	8.3934	10.478480	0.000287	2.865371	0.485407	0.000029
 846	8.4078e+01	8.4037	10.512697	0.000344	3.438445	0.582488	0.000034
 847	8.4177e+01	8.4132	10.542433	0.000299	2.988172	0.506210	0.000030
 848	8.4276e+01	8.4231	10.578279	0.000360	3.602180	0.610226	0.000036
 849	8.4376e+01	8.4330	10.605978	0.000278	2.783503	0.471538	0.000028
 850	8.4475e+01	8.4424	10.638973	0.000332	3.315643	0.561685	0.000033
 851	8.4575e+01	8.4513	10.672375	0.000336	3.356577	0.568620	0.000034
 852	8.4674e+01	8.4631	10.703740	0.000315	3.151908	0.533948	0.000032
 853	8.4774e+01	8.4732	10.736328	0.000327	3.274709	0.554751	0.000033
 854	8.4874e+01	8.4824	10.768100	0.000319	3.192842	0.540882	0.000032
 855	8.4973e+01	8.4923	10.802317	0.000344	3.438445	0.582488	0.000034
 856	8.5073e+01	8.5020	10.830831	0.000287	2.865371	0.485407	0.000029
 857	8.5172e+01	8.5136	10.863826	0.000332	3.315643	0.561685	0.000033
 858	8.5272e+01	8.5244	10.894784	0.000311	3.110974	0.527013	0.000031
 859	8.5371e+01	8.5294	10.926964	0.000323	3.233775	0.547816	0.000032
 860	8.5471e+01	8.5413	10.963217	0.000364	3.643114	0.617160	0.000036
 861	8.5570e+01	8.5526	10.990917	0.000278	2.783503	0.471538	0.000028
 862	8.5669e+01	8.5653	11.027578	0.000368	3.684048	0.624095	0.000037
 863	8.5769e+01	8.5736	11.056499	0.000291	2.906305	0.492341	0.000029
 864	8.5868e+01	8.5812	11.091938	0.000356	3.561246	0.603291	0.000036
 865	8.5968e+01	8.5914	11.129006	0.000372	3.724982	0.631029	0.000037
 866	8.6067e+01	8.6035	11.162408	0.000336	3.356577	0.568620	0.000034
 867	8.6167e+01	8.6094	11.196625	0.000344	3.438445	0.582488	0.000034
 868	8.6266e+01	8.6195	11.227175	0.000307	3.070040	0.520079	0.000031
 869	8.6366e+01	8.6324	11.265466	0.000385	3.847783	0.651832	0.000038
 870	8.6466e+01	8.6420	11.304163	0.000389	3.888717	0.658767	0.000039
 871	8.6565e+01	8.6533	11.331862	0.000278	2.783503	0.471538	0.000028
 872	8.6665e+01	8.6625	11.368116	0.000364	3.643114	0.617160	0.000036
 873	8.6764e+01	8.6701	11.406813	0.000389	3.888717	0.658767	0.000039
 874	8.6864e+01	8.6848	11.432883	0.000262	2.619767	0.443801	0.000026
 875	8.6963e+01	8.6884	11.473618	0.000409	4.093387	0.693438	0.000041
 876	8.7063e+01	8.7016	11.504576	0.000311	3.110974	0.527013	0.000031
 877	8.7162e+01	8.7067	11.535534	0.000311	3.110974	0.527013	0.000031
 878	8.7261e+01	8.7205	11.570565	0.000352	3.520313	0.596357	0.000035
 879	8.7361e+01	8.7305	11.604375	0.000340	3.397511	0.575554	0.000034
 880	8.7460e+01	8.7438	11.639406	0.000352	3.520313	0.596357	0.000035
 881	8.7560e+01	8.7494	11.672808	0.000336	3.356577	0.568620	0.000034
 882	8.7659e+01	8.7619	11.704174	0.000315	3.151908	0.533948	0.000032
 883	8.7759e+01	8.7723	11.737576	0.000336	3.356577	0.568620	0.000034
 884	8.7859e+01	8.7811	11.772200	0.000348	3.479379	0.589423	0.000035
 885	8.7958e+01	8.7911	11.803158	0.000311	3.110974	0.527013	0.000031
 886	8.8058e+01	8.7992	11.834523	0.000315	3.151908	0.533948	0.000032
 887	8.8157e+01	8.8112	11.869147	0.000348	3.479379	0.589423	0.000035
 888	8.8257e+01	8.8209	11.899698	0.000307	3.070040	0.520079	0.000031
 889	8.8356e+01	8.8306	11.934729	0.000352	3.520313	0.596357	0.000035
 890	8.8456e+01	8.8448	11.964465	0.000299	2.988172	0.506210	0.000030
 891	8.8555e+01	8.8501	11.999090	0.000348	3.479379	0.589423	0.000035
 892	8.8654e+01	8.8599	12.031677	0.000327	3.274709	0.554751	0.000033
 893	8.8754e+01	8.8679	12.065079	0.000336	3.356577	0.568620	0.000034
 894	8.8853e+01	8.8796	12.100110	0.000352	3.520313	0.596357	0.000035
 895	8.8953e+01	8.8894	12.137993	0.000381	3.806850	0.644898	0.000038
 896	8.9052e+01	8.9014	12.170173	0.000323	3.233775	0.547816	0.000032
 897	8.9152e+01	8.9105	12.206020	0.000360	3.602180	0.610226	0.000036
 898	8.9251e+01	8.9197	12.240644	0.000348	3.479379	0.589423	0.000035
 899	8.9351e+01	8.9277	12.275675	0.000352	3.520313	0.596357	0.000035
 900	8.9451e+01	8.9382	12.305004	0.000295	2.947238	0.499276	0.000029
 901	8.9550e+01	8.9503	12.346145	0.000413	4.134321	0.700373	0.000041
 902	8.9650e+01	8.9587	12.381177	0.000352	3.520313	0.596357	0.000035
 903	8.9749e+01	8.9697	12.418652	0.000377	3.765916	0.637963	0.000038
 904	8.9849e+01	8.9799	12.450425	0.000319	3.192842	0.540882	0.000032
 905	8.9948e+01	8.9893	12.487901	0.000377	3.765916	0.637963	0.000038
 906	9.0047e+01	8.9995	12.521710	0.000340	3.397511	0.575554	0.000034
 907	9.0147e+01	9.0089	12.556334	0.000348	3.479379	0.589423	0.000035
 908	9.0246e+01	9.0215	12.594217	0.000381	3.806850	0.644898	0.000038
 909	9.0346e+01	9.0298	12.630878	0.000368	3.684048	0.624095	0.000037
 910	9.0445e+01	9.0396	12.668353	0.000377	3.765916	0.637963	0.000038
 911	9.0545e+01	9.0482	12.701755	0.000336	3.356577	0.568620	0.000034
 912	9.0644e+01	9.0592	12.740860	0.000393	3.929651	0.665701	0.000039
 913	9.0744e+01	9.0707	12.776706	0.000360	3.602180	0.610226	0.000036
 914	9.0844e+01	9.0805	12.812553	0.000360	3.602180	0.610226	0.000036
 915	9.0943e+01	9.0894	12.850028	0.000377	3.765916	0.637963	0.000038
 916	9.1043e+01	9.0973	12.886689	0.000368	3.684048	0.624095	0.000037
 917	9.1142e+01	9.1100	12.925387	0.000389	3.888717	0.658767	0.000039
 918	9.1242e+01	9.1211	12.957567	0.000323	3.233775	0.547816	0.000032
 919	9.1341e+01	9.1286	12.997079	0.000397	3.970585	0.672635	0.000040
 920	9.1441e+01	9.1395	13.032110	0.000352	3.520313	0.596357	0.000035
 921	9.1540e+01	9.1476	13.072030	0.000401	4.011519	0.679570	0.000040
 922	9.1639e+01	9.1589	13.108691	0.000368	3.684048	0.624095	0.000037
 923	9.1739e+01	9.1669	13.144537	0.000360	3.602180	0.610226	0.000036
 924	9.1838e+01	9.1773	13.185271	0.000409	4.093387	0.693438	0.000041
 925	9.1938e+01	9.1870	13.222747	0.000377	3.765916	0.637963	0.000038
 926	9.2037e+01	9.1994	13.257371	0.000348	3.479379	0.589423	0.000035
 927	9.2137e+01	9.2094	13.298105	0.000409	4.093387	0.693438	0.000041
 928	9.2237e+01	9.2173	13.336395	0.000385	3.847783	0.651832	0.000038
 929	9.2336e+01	9.2271	13.375500	0.000393	3.929651	0.665701	0.000039
 930	9.2436e+01	9.2362	13.413383	0.000381	3.806850	0.644898	0.000038
 931	9.2535e+01	9.2495	13.452080	0.000389	3.888717	0.658767	0.000039
 932	9.2635e+01	9.2554	13.491593	0.000397	3.970585	0.672635	0.000040
 933	9.2734e+01	9.2664	13.528661	0.000372	3.724982	0.631029	0.000037
 934	9.2834e+01	9.2783	13.571839	0.000434	4.338990	0.735045	0.000043
 935	9.2933e+01	9.2883	13.608500	0.000368	3.684048	0.624095	0.000037
 936	9.3032e+01	9.2979	13.646790	0.000385	3.847783	0.651832	0.000038
 937	9.3132e+01	9.3070	13.685895	0.000393	3.929651	0.665701	0.000039
 938	9.3231e+01	9.3171	13.727851	0.000422	4.216188	0.714242	0.000042
 939	9.3331e+01	9.3283	13.767771	0.000401	4.011519	0.679570	0.000040
 940	9.3430e+01	9.3363	13.803617	0.000360	3.602180	0.610226	0.000036
 941	9.3530e+01	9.3481	13.845573	0.000422	4.216188	0.714242	0.000042
 942	9.3629e+01	9.3555	13.886715	0.000413	4.134321	0.700373	0.000041
 943	9.3729e+01	9.3708	13.927449	0.000409	4.093387	0.693438	0.000041
 944	9.3829e+01	9.3771	13.966961	0.000397	3.970585	0.672635	0.000040
 945	9.3928e+01	9.3866	14.007696	0.000409	4.093387	0.693438	0.000041
 946	9.4028e+01	9.3970	14.043949	0.000364	3.643114	0.617160	0.000036
 947	9.4127e+01	9.4060	14.088349	0.000446	4.461791	0.755848	0.000045
 948	9.4227e+01	9.4165	14.127047	0.000389	3.888717	0.658767	0.000039
 949	9.4326e+01	9.4263	14.166967	0.000401	4.011519	0.679570	0.000040
 950	9.4425e+01	9.4349	14.203627	0.000368	3.684048	0.624095	0.000037
 951	9.4525e+01	9.4476	14.242732	0.000393	3.929651	0.665701	0.000039
 952	9.4624e+01	9.4557	14.280208	0.000377	3.765916	0.637963	0.000038
 953	9.4724e+01	9.4691	14.326645	0.000467	4.666461	0.790520	0.000047
 954	9.4823e+01	9.4739	14.364528	0.000381	3.806850	0.644898	0.000038
 955	9.4923e+01	9.4885	14.404447	0.000401	4.011519	0.679570	0.000040
 956	9.5022e+01	9.4960	14.446404	0.000422	4.216188	0.714242	0.000042
 957	9.5122e+01	9.5071	14.486323	0.000401	4.011519	0.679570	0.000040
 958	9.5222e+01	9.5179	14.525021	0.000389	3.888717	0.658767	0.000039
 959	9.5321e+01	9.5237	14.570236	0.000454	4.543659	0.769717	0.000045
 960	9.5421e+01	9.5364	14.609341	0.000393	3.929651	0.665701	0.000039
 961	9.5520e+01	9.5483	14.655370	0.000463	4.625527	0.783585	0.000046
 962	9.5620e+01	9.5581	14.698549	0.000434	4.338990	0.735045	0.000043
 963	9.5719e+01	9.5658	14.737654	0.000393	3.929651	0.665701	0.000039
 964	9.5819e+01	9.5737	14.784091	0.000467	4.666461	0.790520	0.000047
 965	9.5918e+01	9.5866	14.829306	0.000454	4.543659	0.769717	0.000045
 966	9.6017e+01	9.5956	14.871669	0.000426	4.257122	0.721176	0.000043
 967	9.6117e+01	9.6059	14.913625	0.000422	4.216188	0.714242	0.000042
 968	9.6216e+01	9.6143	14.960063	0.000467	4.666461	0.790520	0.000047
 969	9.6316e+01	9.6277	15.004056	0.000442	4.420858	0.748914	0.000044
 970	9.6415e+01	9.6382	15.050085	0.000463	4.625527	0.783585	0.000046
 971	9.6515e+01	9.6493	15.096522	0.000467	4.666461	0.790520	0.000047
 972	9.6615e+01	9.6548	15.144589	0.000483	4.830196	0.818257	0.000048
 973	9.6714e+01	9.6643	15.187360	0.000430	4.298056	0.728110	0.000043
 974	9.6814e+01	9.6747	15.236241	0.000491	4.912064	0.832126	0.000049
 975	9.6913e+01	9.6845	15.282678	0.000467	4.666461	0.790520	0.000047
 976	9.7013e+01	9.6983	15.326263	0.000438	4.379924	0.741979	0.000044
 977	9.7112e+01	9.7058	15.374737	0.000487	4.871130	0.825192	0.000049
 978	9.7212e+01	9.7138	15.416694	0.000422	4.216188	0.714242	0.000042
 979	9.7311e+01	9.7268	15.465167	0.000487	4.871130	0.825192	0.000049
 980	9.7410e+01	9.7339	15.507938	0.000430	4.298056	0.728110	0.000043
 981	9.7510e+01	9.7462	15.554783	0.000471	4.707395	0.797454	0.000047
 982	9.7609e+01	9.7540	15.603256	0.000487	4.871130	0.825192	0.000049
 983	9.7709e+01	9.7659	15.650101	0.000471	4.707395	0.797454	0.000047
 984	9.7808e+01	9.7742	15.694094	0.000442	4.420858	0.748914	0.000044
 985	9.7908e+01	9.7852	15.741753	0.000479	4.789262	0.811323	0.000048
 986	9.8007e+01	9.7949	15.788190	0.000467	4.666461	0.790520	0.000047
 987	9.8107e+01	9.8066	15.837071	0.000491	4.912064	0.832126	0.000049
 988	9.8207e+01	9.8129	15.875769	0.000389	3.888717	0.658767	0.000039
 989	9.8306e+01	9.8236	15.927094	0.000516	5.157667	0.873732	0.000052
 990	9.8406e+01	9.8328	15.974345	0.000475	4.748329	0.804389	0.000047
 991	9.8505e+01	9.8446	16.025671	0.000516	5.157667	0.873732	0.000052
 992	9.8605e+01	9.8550	16.071700	0.000463	4.625527	0.783585	0.000046
 993	9.8704e+01	9.8669	16.118137	0.000467	4.666461	0.790520	0.000047
 994	9.8803e+01	9.8743	16.167426	0.000495	4.952998	0.839061	0.000050
 995	9.8903e+01	9.8853	16.217529	0.000503	5.034866	0.852929	0.000050
 996	9.9002e+01	9.8939	16.263559	0.000463	4.625527	0.783585	0.000046
 997	9.9102e+01	9.9065	16.311218	0.000479	4.789262	0.811323	0.000048
 998	9.9201e+01	9.9158	16.359284	0.000483	4.830196	0.818257	0.000048
 999	9.9301e+01	9.9232	16.408573	0.000495	4.952998	0.839061	0.000050
1000	9.9400e+01	9.9327	16.456639	0.000483	4.830196	0.818257	0.000048
1001	9.9500e+01	9.9414	16.504298	0.000479	4.789262	0.811323	0.000048
1002	9.9600e+01	9.9549	16.553587	0.000495	4.952998	0.839061	0.000050
1003	9.9699e+01	9.9669	16.608171	0.000549	5.485138	0.929208	0.000055
1004	9.9799e+01	9.9756	16.660310	0.000524	5.239535	0.887601	0.000052
1005	9.9898e+01	9.9854	16.708377	0.000483	4.830196	0.818257	0.000048
1006	9.9998e+01	9.9951	16.762146	0.000540	5.403270	0.915339	0.000054
1007	1.0010e+02	9.9836	16.771922	-0.000098	-0.982413	-0.166425	0.000010
1008	1.0020e+02	9.9765	16.781291	-0.000094	-0.941479	-0.159491	0.000009
1009	1.0030e+02	9.9653	16.786179	-0.000049	-0.491206	-0.083213	0.000005
1010	1.0040e+02	9.9561	16.795548	-0.000094	-0.941479	-0.159491	0.000009
1011	1.0050e+02	9.9470	16.800844	-0.000053	-0.532140	-0.090147	0.000005
1012	1.0059e+02	9.9325	16.811027	-0.000102	-1.023347	-0.173360	0.000010
1013	1.0069e+02	9.9257	16.817952	-0.000070	-0.695876	-0.117885	0.000007
1014	1.0079e+02	9.9158	16.817952	-0.000000	-0.000000	-0.000000	0.000000
1015	1.0089e+02	9.9032	16.825691	-0.000078	-0.777743	-0.131753	0.000008
1016	1.0099e+02	9.8940	16.830172	-0.000045	-0.450273	-0.076278	0.000005
1017	1.0109e+02	9.8877	16.837504	-0.000074	-0.736810	-0.124819	0.000007
1018	1.0119e+02	9.8746	16.837912	-0.000004	-0.040934	-0.006934	0.000000
1019	1.0129e+02	9.8663	16.842392	-0.000045	-0.450273	-0.076278	0.000005
1020	1.0139e+02	9.8560	16.850132	-0.000078	-0.777743	-0.131753	0.000008
1021	1.0149e+02	9.8441	16.851761	-0.000016	-0.163735	-0.027738	0.000002
1022	1.0159e+02	9.8344	16.855427	-0.000037	-0.368405	-0.062409	0.000004
1023	1.0169e+02	9.8255	16.852983	0.000025	0.245603	0.041606	-0.000002
1024	1.0179e+02	9.8145	16.856242	-0.000033	-0.327471	-0.055475	0.000003
1025	1.0189e+02	9.8031	16.857464	-0.000012	-0.122802	-0.020803	0.000001
1026	1.0199e+02	9.7956	16.856242	0.000012	0.122802	0.020803	-0.000001
1027	1.0209e+02	9.7865	16.852576	0.000037	0.368405	0.062409	-0.000004
1028	1.0219e+02	9.7732	16.854205	-0.000016	-0.163735	-0.027738	0.000002
1029	1.0229e+02	9.7662	16.854613	-0.000004	-0.040934	-0.006934	0.000000
1030	1.0239e+02	9.7559	16.857057	-0.000025	-0.245603	-0.041606	0.000002
1031	1.0248e+02	9.7449	16.852983	0.000041	0.409339	0.069344	-0.000004
1032	1.0258e+02	9.7347	16.851761	0.000012	0.122802	0.020803	-0.000001
1033	1.0268e+02	9.7279	16.855835	-0.000041	-0.409339	-0.069344	0.000004
1034	1.0278e+02	9.7154	16.853798	0.000020	0.204669	0.034672	-0.000002
1035	1.0288e+02	9.7106	16.853798	-0.000000	-0.000000	-0.000000	0.000000
1036	1.0298e+02	9.6973	16.851354	0.000025	0.245603	0.041606	-0.000002
1037	1.0308e+02	9.6857	16.848095	0.000033	0.327471	0.055475	-0.000003
1038	1.0318e+02	9.6751	16.846466	0.000016	0.163735	0.027738	-0.000002
1039	1.0328e+02	9.6680	16.846873	-0.000004	-0.040934	-0.006934	0.000000
1040	1.0338e+02	9.6554	16.840763	0.000061	0.614008	0.104016	-0.000006
1041	1.0348e+02	9.6471	16.836282	0.000045	0.450273	0.076278	-0.000005
1042	1.0358e+02	9.6363	16.832616	0.000037	0.368405	0.062409	-0.000004
1043	1.0368e+02	9.6250	16.830580	0.000020	0.204669	0.034672	-0.000002
1044	1.0378e+02	9.6167	16.824469	0.000061	0.614008	0.104016	-0.000006
1045	1.0388e+02	9.6094	16.819174	0.000053	0.532140	0.090147	-0.000005
1046	1.0398e+02	9.5950	16.812656	0.000065	0.654942	0.110950	-0.000007
1047	1.0408e+02	9.5881	16.811434	0.000012	0.122802	0.020803	-0.000001
1048	1.0418e+02	9.5749	16.803288	0.000082	0.818677	0.138688	-0.000008
1049	1.0428e+02	9.5670	16.794326	0.000090	0.900545	0.152556	-0.000009
1050	1.0438e+02	9.5569	16.788216	0.000061	0.614008	0.104016	-0.000006
1051	1.0447e+02	9.5467	16.782920	0.000053	0.532140	0.090147	-0.000005
1052	1.0457e+02	9.5356	16.771922	0.000111	1.105214	0.187228	-0.000011
1053	1.0467e+02	9.5247	16.766219	0.000057	0.573074	0.097081	-0.000006
1054	1.0477e+02	9.5178	16.759702	0.000065	0.654942	0.110950	-0.000007
1055	1.0487e+02	9.5061	16.751555	0.000082	0.818677	0.138688	-0.000008
1056	1.0497e+02	9.4971	16.740149	0.000115	1.146148	0.194163	-0.000011
1057	1.0507e+02	9.4863	16.731188	0.000090	0.900545	0.152556	-0.000009
1058	1.0517e+02	9.4757	16.722226	0.000090	0.900545	0.152556	-0.000009
1059	1.0527e+02	9.4662	16.710821	0.000115	1.146148	0.194163	-0.000011
1060	1.0537e+02	9.4559	16.703489	0.000074	0.736810	0.124819	-0.000007
1061	1.0547e+02	9.4473	16.690454	0.000131	1.309884	0.221900	-0.000013
1062	1.0557e+02	9.4397	16.683529	0.000070	0.695876	0.117885	-0.000007
1063	1.0567e+02	9.4260	16.674160	0.000094	0.941479	0.159491	-0.000009
1064	1.0577e+02	9.4189	16.663162	0.000111	1.105214	0.187228	-0.000011
1065	1.0587e+02	9.4070	16.655015	0.000082	0.818677	0.138688	-0.000008
1066	1.0597e+02	9.3958	16.646053	0.000090	0.900545	0.152556	-0.000009
1067	1.0607e+02	9.3875	16.634240	0.000119	1.187082	0.201097	-0.000012
1068	1.0617e+02	9.3807	16.627316	0.000070	0.695876	0.117885	-0.000007
1069	1.0627e+02	9.3690	16.615095	0.000123	1.228016	0.208032	-0.000012
1070	1.0637e+02	9.3597	16.603690	0.000115	1.146148	0.194163	-0.000011
1071	1.0647e+02	9.3466	16.596358	0.000074	0.736810	0.124819	-0.000007
1072	1.0656e+02	9.3378	16.588618	0.000078	0.777743	0.131753	-0.000008
1073	1.0666e+02	9.3296	16.575176	0.000135	1.350818	0.228835	-0.000014
1074	1.0676e+02	9.3213	16.562141	0.000131	1.309884	0.221900	-0.000013
1075	1.0686e+02	9.3079	16.552365	0.000098	0.982413	0.166425	-0.000010
1076	1.0696e+02	9.2984	16.545032	0.000074	0.736810	0.124819	-0.000007
1077	1.0706e+02	9.2875	16.531590	0.000135	1.350818	0.228835	-0.000014
1078	1.0716e+02	9.2775	16.523036	0.000086	0.859611	0.145622	-0.000009
1079	1.0726e+02	9.2692	16.512038	0.000111	1.105214	0.187228	-0.000011
1080	1.0736e+02	9.2596	16.499003	0.000131	1.309884	0.221900	-0.000013
1081	1.0746e+02	9.2480	16.485153	0.000139	1.391751	0.235769	-0.000014
1082	1.0756e+02	9.2384	16.476192	0.000090	0.900545	0.152556	-0.000009
1083	1.0766e+02	9.2269	16.463971	0.000123	1.228016	0.208032	-0.000012
1084	1.0776e+02	9.2181	16.452973	0.000111	1.105214	0.187228	-0.000011
1085	1.0786e+02	9.2090	16.442382	0.000106	1.064281	0.180294	-0.000011
1086	1.0796e+02	9.1962	16.428125	0.000143	1.432685	0.242703	-0.000014
1087	1.0806e+02	9.1895	16.413868	0.000143	1.432685	0.242703	-0.000014
1088	1.0816e+02	9.1788	16.400833	0.000131	1.309884	0.221900	-0.000013
1089	1.0826e+02	9.1672	16.388613	0.000123	1.228016	0.208032	-0.000012
1090	1.0836e+02	9.1592	16.375985	0.000127	1.268950	0.214966	-0.000013
1091	1.0845e+02	9.1494	16.364580	0.000115	1.146148	0.194163	-0.000011
1092	1.0855e+02	9.1410	16.349508	0.000151	1.514553	0.256572	-0.000015
1093	1.0865e+02	9.1278	16.335251	0.000143	1.432685	0.242703	-0.000014
1094	1.0875e+02	9.1196	16.319772	0.000156	1.555487	0.263507	-0.000016
1095	1.0885e+02	9.1091	16.311218	0.000086	0.859611	0.145622	-0.000009
1096	1.0895e+02	9.0993	16.297368	0.000139	1.391751	0.235769	-0.000014
1097	1.0905e+02	9.0897	16.284741	0.000127	1.268950	0.214966	-0.000013
1098	1.0915e+02	9.0771	16.276186	0.000086	0.859611	0.145622	-0.000009
1099	1.0925e+02	9.0704	16.258671	0.000176	1.760156	0.298179	-0.000018
1100	1.0935e+02	9.0573	16.245228	0.000135	1.350818	0.228835	-0.000014
1101	1.0945e+02	9.0491	16.227713	0.000176	1.760156	0.298179	-0.000018
1102	1.0955e+02	9.0394	16.214678	0.000131	1.309884	0.221900	-0.000013
1103	1.0965e+02	9.0298	16.204087	0.000106	1.064281	0.180294	-0.000011
1104	1.0975e+02	9.0186	16.189830	0.000143	1.432685	0.242703	-0.000014
1105	1.0985e+02	9.0100	16.172721	0.000172	1.719222	0.291244	-0.000017
1106	1.0995e+02	8.9996	16.157650	0.000151	1.514553	0.256572	-0.000015
1107	1.1005e+02	8.9884	16.148281	0.000094	0.941479	0.159491	-0.000009
1108	1.1015e+02	8.9785	16.133209	0.000151	1.514553	0.256572	-0.000015
1109	1.1025e+02	8.9697	16.118952	0.000143	1.432685	0.242703	-0.000014
1110	1.1035e+02	8.9614	16.105917	0.000131	1.309884	0.221900	-0.000013
1111	1.1044e+02	8.9471	16.090845	0.000151	1.514553	0.256572	-0.000015
1112	1.1054e+02	8.9407	16.072922	0.000180	1.801090	0.305113	-0.000018
1113	1.1064e+02	8.9285	16.057443	0.000156	1.555487	0.263507	-0.000016
1114	1.1074e+02	8.9185	16.042372	0.000151	1.514553	0.256572	-0.000015
1115	1.1084e+02	8.9098	16.028115	0.000143	1.432685	0.242703	-0.000014
1116	1.1094e+02	8.9014	16.010192	0.000180	1.801090	0.305113	-0.000018
1117	1.1104e+02	8.8918	15.994305	0.000160	1.596421	0.270441	-0.000016
1118	1.1114e+02	8.8808	15.977604	0.000168	1.678289	0.284310	-0.000017
1119	1.1124e+02	8.8700	15.958866	0.000188	1.882958	0.318982	-0.000019
1120	1.1134e+02	8.8578	15.943795	0.000151	1.514553	0.256572	-0.000015
1121	1.1144e+02	8.8511	15.927908	0.000160	1.596421	0.270441	-0.000016
1122	1.1154e+02	8.8406	15.909171	0.000188	1.882958	0.318982	-0.000019
1123	1.1164e+02	8.8306	15.893284	0.000160	1.596421	0.270441	-0.000016
1124	1.1174e+02	8.8232	15.878213	0.000151	1.514553	0.256572	-0.000015
1125	1.1184e+02	8.8135	15.862326	0.000160	1.596421	0.270441	-0.000016
1126	1.1194e+02	8.8026	15.849291	0.000131	1.309884	0.221900	-0.000013
1127	1.1204e+02	8.7971	15.831776	0.000176	1.760156	0.298179	-0.000018
1128	1.1214e+02	8.7811	15.817111	0.000147	1.473619	0.249638	-0.000015
1129	1.1224e+02	8.7705	15.798781	0.000184	1.842024	0.312047	-0.000018
1130	1.1234e+02	8.7603	15.783709	0.000151	1.514553	0.256572	-0.000015
1131	1.1244e+02	8.7482	15.767823	0.000160	1.596421	0.270441	-0.000016
1132	1.1253e+02	8.7394	15.754788	0.000131	1.309884	0.221900	-0.000013
1133	1.1263e+02	8.7326	15.737272	0.000176	1.760156	0.298179	-0.000018
1134	1.1273e+02	8.7232	15.719349	0.000180	1.801090	0.305113	-0.000018
1135	1.1283e+02	8.7134	15.704685	0.000147	1.473619	0.249638	-0.000015
1136	1.1293e+02	8.6981	15.689613	0.000151	1.514553	0.256572	-0.000015
1137	1.1303e+02	8.6927	15.673727	0.000160	1.596421	0.270441	-0.000016
1138	1.1313e+02	8.6817	15.663543	0.000102	1.023347	0.173360	-0.000010
1139	1.1323e+02	8.6745	15.648064	0.000156	1.555487	0.263507	-0.000016
1140	1.1333e+02	8.6625	15.632178	0.000160	1.596421	0.270441	-0.000016
1141	1.1343e+02	8.6491	15.618735	0.000135	1.350818	0.228835	-0.000014
1142	1.1353e+02	8.6439	15.601627	0.000172	1.719222	0.291244	-0.000017
1143	1.1363e+02	8.6333	15.581260	0.000205	2.046693	0.346719	-0.000020
1144	1.1373e+02	8.6237	15.568225	0.000131	1.309884	0.221900	-0.000013
1145	1.1383e+02	8.6108	15.551117	0.000172	1.719222	0.291244	-0.000017
1146	1.1393e+02	8.6015	15.535638	0.000156	1.555487	0.263507	-0.000016
1147	1.1403e+02	8.5934	15.519751	0.000160	1.596421	0.270441	-0.000016
1148	1.1413e+02	8.5855	15.501828	0.000180	1.801090	0.305113	-0.000018
1149	1.1423e+02	8.5722	15.485534	0.000164	1.637355	0.277375	-0.000016
1150	1.1433e+02	8.5658	15.470870	0.000147	1.473619	0.249638	-0.000015
1151	1.1442e+02	8.5534	15.450096	0.000209	2.087627	0.353654	-0.000021
1152	1.1452e+02	8.5407	15.434617	0.000156	1.555487	0.263507	-0.000016
1153	1.1462e+02	8.5326	15.418323	0.000164	1.637355	0.277375	-0.000016
1154	1.1472e+02	8.5216	15.399178	0.000192	1.923892	0.325916	-0.000019
1155	1.1482e+02	8.5123	15.379625	0.000196	1.964826	0.332850	-0.000020
1156	1.1492e+02	8.5011	15.363332	0.000164	1.637355	0.277375	-0.000016
1157	1.1502e+02	8.4907	15.348260	0.000151	1.514553	0.256572	-0.000015
1158	1.1512e+02	8.4821	15.327078	0.000213	2.128561	0.360588	-0.000021
1159	1.1522e+02	8.4731	15.307933	0.000192	1.923892	0.325916	-0.000019
1160	1.1532e+02	8.4622	15.291639	0.000164	1.637355	0.277375	-0.000016
1161	1.1542e+02	8.4538	15.275346	0.000164	1.637355	0.277375	-0.000016
1162	1.1552e+02	8.4434	15.259052	0.000164	1.637355	0.277375	-0.000016
1163	1.1562e+02	8.4339	15.241944	0.000172	1.719222	0.291244	-0.000017
1164	1.1572e+02	8.4218	15.219540	0.000225	2.251363	0.381391	-0.000023
1165	1.1582e+02	8.4131	15.206097	0.000135	1.350818	0.228835	-0.000014
1166	1.1592e+02	8.4028	15.186952	0.000192	1.923892	0.325916	-0.000019
1167	1.1602e+02	8.3929	15.169029	0.000180	1.801090	0.305113	-0.000018
1168	1.1612e+02	8.3838	15.150292	0.000188	1.882958	0.318982	-0.000019
1169	1.1622e+02	8.3727	15.136442	0.000139	1.391751	0.235769	-0.000014
1170	1.1632e+02	8.3606	15.115667	0.000209	2.087627	0.353654	-0.000021
1171	1.1642e+02	8.3546	15.097744	0.000180	1.801090	0.305113	-0.000018
1172	1.1651e+02	8.3430	15.076970	0.000209	2.087627	0.353654	-0.000021
1173	1.1661e+02	8.3347	15.059454	0.000176	1.760156	0.298179	-0.000018
1174	1.1671e+02	8.3237	15.042346	0.000172	1.719222	0.291244	-0.000017
1175	1.1681e+02	8.3161	15.024015	0.000184	1.842024	0.312047	-0.000018
1176	1.1691e+02	8.3057	15.008944	0.000151	1.514553	0.256572	-0.000015
1177	1.1701e+02	8.2935	14.986947	0.000221	2.210429	0.374457	-0.000022
1178	1.1711e+02	8.2831	14.968209	0.000188	1.882958	0.318982	-0.000019
1179	1.1721e+02	8.2742	14.948250	0.000201	2.005759	0.339785	-0.000020
1180	1.1731e+02	8.2630	14.929919	0.000184	1.842024	0.312047	-0.000018
1181	1.1741e+02	8.2520	14.910367	0.000196	1.964826	0.332850	-0.000020
1182	1.1751e+02	8.2449	14.890000	0.000205	2.046693	0.346719	-0.000020
1183	1.1761e+02	8.2344	14.873706	0.000164	1.637355	0.277375	-0.000016
1184	1.1771e+02	8.2251	14.852117	0.000217	2.169495	0.367522	-0.000022
1185	1.1781e+02	8.2164	14.834194	0.000180	1.801090	0.305113	-0.000018
1186	1.1791e+02	8.2024	14.817900	0.000164	1.637355	0.277375	-0.000016
1187	1.1801e+02	8.1934	14.794274	0.000237	2.374164	0.402194	-0.000024
1188	1.1811e+02	8.1836	14.780832	0.000135	1.350818	0.228835	-0.000014
1189	1.1821e+02	8.1753	14.759243	0.000217	2.169495	0.367522	-0.000022
1190	1.1831e+02	8.1663	14.738876	0.000205	2.046693	0.346719	-0.000020
1191	1.1841e+02	8.1525	14.718916	0.000201	2.005759	0.339785	-0.000020
1192	1.1850e+02	8.1409	14.696919	0.000221	2.210429	0.374457	-0.000022
1193	1.1860e+02	8.1345	14.676959	0.000201	2.005759	0.339785	-0.000020
1194	1.1870e+02	8.1247	14.658629	0.000184	1.842024	0.312047	-0.000018
1195	1.1880e+02	8.1180	14.637040	0.000217	2.169495	0.367522	-0.000022
1196	1.1890e+02	8.1019	14.620339	0.000168	1.678289	0.284310	-0.000017
1197	1.1900e+02	8.0950	14.604452	0.000160	1.596421	0.270441	-0.000016
1198	1.1910e+02	8.0865	14.579197	0.000254	2.537900	0.429932	-0.000025
1199	1.1920e+02	8.0717	14.560867	0.000184	1.842024	0.312047	-0.000018
1200	1.1930e+02	8.0648	14.548647	0.000123	1.228016	0.208032	-0.000012
1201	1.1940e+02	8.0537	14.529501	0.000192	1.923892	0.325916	-0.000019
1202	1.1950e+02	8.0437	14.511171	0.000184	1.842024	0.312047	-0.000018
1203	1.1960e+02	8.0344	14.493248	0.000180	1.801090	0.305113	-0.000018
1204	1.1970e+02	8.0275	14.474103	0.000192	1.923892	0.325916	-0.000019
1205	1.1980e+02	8.0161	14.452921	0.000213	2.128561	0.360588	-0.000021
1206	1.1990e+02	8.0045	14.434183	0.000188	1.882958	0.318982	-0.000019
1207	1.2000e+02	7.9932	14.416668	0.000176	1.760156	0.298179	-0.000018
1208	1.2010e+02	7.9843	14.397930	0.000188	1.882958	0.318982	-0.000019
1209	1.2020e+02	7.9746	14.379192	0.000188	1.882958	0.318982	-0.000019
1210	1.2030e+02	7.9661	14.361269	0.000180	1.801090	0.305113	-0.000018
1211	1.2039e+02	7.9541	14.337236	0.000242	2.415098	0.409129	-0.000024
1212	1.2049e+02	7.9436	14.318091	0.000192	1.923892	0.325916	-0.000019
1213	1.2059e+02	7.9311	14.298131	0.000201	2.005759	0.339785	-0.000020
1214	1.2069e+02	7.9248	14.275727	0.000225	2.251363	0.381391	-0.000023
1215	1.2079e+02	7.9177	14.254545	0.000213	2.128561	0.360588	-0.000021
1216	1.2089e+02	7.9056	14.233363	0.000213	2.128561	0.360588	-0.000021
1217	1.2099e+02	7.8949	14.210960	0.000225	2.251363	0.381391	-0.000023
1218	1.2109e+02	7.8843	14.193037	0.000180	1.801090	0.305113	-0.000018
1219	1.2119e+02	7.8767	14.172669	0.000205	2.046693	0.346719	-0.000020
1220	1.2129e+02	7.8706	14.152302	0.000205	2.046693	0.346719	-0.000020
1221	1.2139e+02	7.8568	14.127862	0.000246	2.456032	0.416063	-0.000025
1222	1.2149e+02	7.8459	14.102199	0.000258	2.578834	0.436866	-0.000026
1223	1.2159e+02	7.8355	14.079795	0.000225	2.251363	0.381391	-0.000023
1224	1.2169e+02	7.8277	14.059836	0.000201	2.005759	0.339785	-0.000020
1225	1.2179e+02	7.8174	14.036617	0.000233	2.333230	0.395260	-0.000023
1226	1.2189e+02	7.8055	14.018287	0.000184	1.842024	0.312047	-0.000018
1227	1.2199e+02	7.7984	13.993439	0.000250	2.496966	0.422997	-0.000025
1228	1.2209e+02	7.7871	13.973479	0.000201	2.005759	0.339785	-0.000020
1229	1.2219e+02	7.7735	13.951075	0.000225	2.251363	0.381391	-0.000023
1230	1.2229e+02	7.7679	13.925412	0.000258	2.578834	0.436866	-0.000026
1231	1.2239e+02	7.7557	13.905453	0.000201	2.005759	0.339785	-0.000020
1232	1.2248e+02	7.7473	13.885493	0.000201	2.005759	0.339785	-0.000020
1233	1.2258e+02	7.7371	13.861460	0.000242	2.415098	0.409129	-0.000024
1234	1.2268e+02	7.7264	13.841093	0.000205	2.046693	0.346719	-0.000020
1235	1.2278e+02	7.7155	13.818689	0.000225	2.251363	0.381391	-0.000023
1236	1.2288e+02	7.7061	13.802802	0.000160	1.596421	0.270441	-0.000016
1237	1.2298e+02	7.6963	13.781621	0.000213	2.128561	0.360588	-0.000021
1238	1.2308e+02	7.6854	13.755958	0.000258	2.578834	0.436866	-0.000026
1239	1.2318e+02	7.6781	13.735591	0.000205	2.046693	0.346719	-0.000020
1240	1.2328e+02	7.6678	13.718075	0.000176	1.760156	0.298179	-0.000018
1241	1.2338e+02	7.6572	13.693635	0.000246	2.456032	0.416063	-0.000025
1242	1.2348e+02	7.6475	13.666343	0.000274	2.742569	0.464604	-0.000027
1243	1.2358e+02	7.6336	13.648420	0.000180	1.801090	0.305113	-0.000018
1244	1.2368e+02	7.6268	13.627645	0.000209	2.087627	0.353654	-0.000021
1245	1.2378e+02	7.6160	13.606463	0.000213	2.128561	0.360588	-0.000021
1246	1.2388e+02	7.6074	13.581615	0.000250	2.496966	0.422997	-0.000025
1247	1.2398e+02	7.5967	13.564507	0.000172	1.719222	0.291244	-0.000017
1248	1.2408e+02	7.5866	13.541696	0.000229	2.292297	0.388326	-0.000023
1249	1.2418e+02	7.5767	13.519699	0.000221	2.210429	0.374457	-0.000022
1250	1.2428e+02	7.5652	13.498925	0.000209	2.087627	0.353654	-0.000021
1251	1.2438e+02	7.5582	13.477743	0.000213	2.128561	0.360588	-0.000021
1252	1.2447e+02	7.5484	13.455747	0.000221	2.210429	0.374457	-0.000022
1253	1.2457e+02	7.5375	13.434565	0.000213	2.128561	0.360588	-0.000021
1254	1.2467e+02	7.5277	13.413383	0.000213	2.128561	0.360588	-0.000021
1255	1.2477e+02	7.5182	13.387720	0.000258	2.578834	0.436866	-0.000026
1256	1.2487e+02	7.5082	13.368168	0.000196	1.964826	0.332850	-0.000020
1257	1.2497e+02	7.4953	13.344135	0.000242	2.415098	0.409129	-0.000024
1258	1.2507e+02	7.4877	13.323360	0.000209	2.087627	0.353654	-0.000021
1259	1.2517e+02	7.4792	13.301364	0.000221	2.210429	0.374457	-0.000022
1260	1.2527e+02	7.4699	13.278552	0.000229	2.292297	0.388326	-0.000023
1261	1.2537e+02	7.4561	13.259815	0.000188	1.882958	0.318982	-0.000019
1262	1.2547e+02	7.4483	13.236189	0.000237	2.374164	0.402194	-0.000024
1263	1.2557e+02	7.4374	13.217044	0.000192	1.923892	0.325916	-0.000019
1264	1.2567e+02	7.4261	13.195455	0.000217	2.169495	0.367522	-0.000022
1265	1.2577e+02	7.4184	13.172643	0.000229	2.292297	0.388326	-0.000023
1266	1.2587e+02	7.4087	13.149832	0.000229	2.292297	0.388326	-0.000023
1267	1.2597e+02	7.3985	13.126614	0.000233	2.333230	0.395260	-0.000023
1268	1.2607e+02	7.3871	13.105025	0.000217	2.169495	0.367522	-0.000022
1269	1.2617e+02	7.3772	13.083435	0.000217	2.169495	0.367522	-0.000022
1270	1.2627e+02	7.3693	13.061846	0.000217	2.169495	0.367522	-0.000022
1271	1.2636e+02	7.3562	13.037813	0.000242	2.415098	0.409129	-0.000024
1272	1.2646e+02	7.3512	13.015817	0.000221	2.210429	0.374457	-0.000022
1273	1.2656e+02	7.3398	12.994635	0.000213	2.128561	0.360588	-0.000021
1274	1.2666e+02	7.3293	12.973453	0.000213	2.128561	0.360588	-0.000021
1275	1.2676e+02	7.3189	12.951864	0.000217	2.169495	0.367522	-0.000022
1276	1.2686e+02	7.3087	12.927831	0.000242	2.415098	0.409129	-0.000024
1277	1.2696e+02	7.2998	12.907463	0.000205	2.046693	0.346719	-0.000020
1278	1.2706e+02	7.2869	12.886689	0.000209	2.087627	0.353654	-0.000021
1279	1.2716e+02	7.2791	12.861434	0.000254	2.537900	0.429932	-0.000025
1280	1.2726e+02	7.2695	12.840659	0.000209	2.087627	0.353654	-0.000021
1281	1.2736e+02	7.2594	12.819070	0.000217	2.169495	0.367522	-0.000022
1282	1.2746e+02	7.2514	12.795037	0.000242	2.415098	0.409129	-0.000024
1283	1.2756e+02	7.2375	12.770596	0.000246	2.456032	0.416063	-0.000025
1284	1.2766e+02	7.2311	12.746156	0.000246	2.456032	0.416063	-0.000025
1285	1.2776e+02	7.2201	12.720493	0.000258	2.578834	0.436866	-0.000026
1286	1.2786e+02	7.2085	12.696053	0.000246	2.456032	0.416063	-0.000025
1287	1.2796e+02	7.2012	12.676093	0.000201	2.005759	0.339785	-0.000020
1288	1.2806e+02	7.1886	12.654096	0.000221	2.210429	0.374457	-0.000022
1289	1.2816e+02	7.1795	12.629248	0.000250	2.496966	0.422997	-0.000025
1290	1.2826e+02	7.1718	12.606030	0.000233	2.333230	0.395260	-0.000023
1291	1.2835e+02	7.1568	12.583219	0.000229	2.292297	0.388326	-0.000023
1292	1.2845e+02	7.1489	12.560408	0.000229	2.292297	0.388326	-0.000023
1293	1.2855e+02	7.1409	12.537596	0.000229	2.292297	0.388326	-0.000023
1294	1.2865e+02	7.1282	12.511934	0.000258	2.578834	0.436866	-0.000026
1295	1.2875e+02	7.1207	12.495640	0.000164	1.637355	0.277375	-0.000016
1296	1.2885e+02	7.1102	12.468348	0.000274	2.742569	0.464604	-0.000027
1297	1.2895e+02	7.1007	12.445537	0.000229	2.292297	0.388326	-0.000023
1298	1.2905e+02	7.0895	12.422318	0.000233	2.333230	0.395260	-0.000023
1299	1.2915e+02	7.0790	12.400729	0.000217	2.169495	0.367522	-0.000022
1300	1.2925e+02	7.0687	12.379547	0.000213	2.128561	0.360588	-0.000021
1301	1.2935e+02	7.0592	12.357958	0.000217	2.169495	0.367522	-0.000022
1302	1.2945e+02	7.0513	12.333925	0.000242	2.415098	0.409129	-0.000024
1303	1.2955e+02	7.0433	12.313965	0.000201	2.005759	0.339785	-0.000020
1304	1.2965e+02	7.0301	12.293191	0.000209	2.087627	0.353654	-0.000021
1305	1.2975e+02	7.0213	12.270787	0.000225	2.251363	0.381391	-0.000023
1306	1.2985e+02	7.0086	12.248791	0.000221	2.210429	0.374457	-0.000022
1307	1.2995e+02	6.9980	12.230053	0.000188	1.882958	0.318982	-0.000019
1308	1.3005e+02	6.9897	12.206834	0.000233	2.333230	0.395260	-0.000023
1309	1.3015e+02	6.9817	12.187282	0.000196	1.964826	0.332850	-0.000020
1310	1.3025e+02	6.9706	12.166507	0.000209	2.087627	0.353654	-0.000021
1311	1.3034e+02	6.9609	12.141659	0.000250	2.496966	0.422997	-0.000025
1312	1.3044e+02	6.9500	12.120478	0.000213	2.128561	0.360588	-0.000021
1313	1.3054e+02	6.9418	12.098888	0.000217	2.169495	0.367522	-0.000022
1314	1.3064e+02	6.9312	12.075263	0.000237	2.374164	0.402194	-0.000024
1315	1.3074e+02	6.9201	12.052451	0.000229	2.292297	0.388326	-0.000023
1316	1.3084e+02	6.9099	12.029233	0.000233	2.333230	0.395260	-0.000023
1317	1.3094e+02	6.9003	12.009273	0.000201	2.005759	0.339785	-0.000020
1318	1.3104e+02	6.8907	11.983611	0.000258	2.578834	0.436866	-0.000026
1319	1.3114e+02	6.8801	11.963243	0.000205	2.046693	0.346719	-0.000020
1320	1.3124e+02	6.8716	11.937988	0.000254	2.537900	0.429932	-0.000025
1321	1.3134e+02	6.8644	11.915584	0.000225	2.251363	0.381391	-0.000023
1322	1.3144e+02	6.8526	11.893588	0.000221	2.210429	0.374457	-0.000022
1323	1.3154e+02	6.8417	11.871184	0.000225	2.251363	0.381391	-0.000023
1324	1.3164e+02	6.8298	11.846743	0.000246	2.456032	0.416063	-0.000025
1325	1.3174e+02	6.8229	11.829228	0.000176	1.760156	0.298179	-0.000018
1326	1.3184e+02	6.8110	11.802750	0.000266	2.660701	0.450735	-0.000027
1327	1.3194e+02	6.8009	11.777088	0.000258	2.578834	0.436866	-0.000026
1328	1.3204e+02	6.7927	11.755091	0.000221	2.210429	0.374457	-0.000022
1329	1.3214e+02	6.7812	11.729429	0.000258	2.578834	0.436866	-0.000026
1330	1.3224e+02	6.7689	11.708247	0.000213	2.128561	0.360588	-0.000021
1331	1.3234e+02	6.7608	11.682584	0.000258	2.578834	0.436866	-0.000026
1332	1.3243e+02	6.7532	11.660588	0.000221	2.210429	0.374457	-0.000022
1333	1.3253e+02	6.7440	11.637369	0.000233	2.333230	0.395260	-0.000023
1334	1.3263e+02	6.7294	11.614966	0.000225	2.251363	0.381391	-0.000023
1335	1.3273e+02	6.7212	11.594191	0.000209	2.087627	0.353654	-0.000021
1336	1.3283e+02	6.7149	11.569343	0.000250	2.496966	0.422997	-0.000025
1337	1.3293e+02	6.7013	11.544088	0.000254	2.537900	0.429932	-0.000025
1338	1.3303e+02	6.6949	11.522906	0.000213	2.128561	0.360588	-0.000021
1339	1.3313e+02	6.6839	11.500095	0.000229	2.292297	0.388326	-0.000023
1340	1.3323e+02	6.6711	11.477691	0.000225	2.251363	0.381391	-0.000023
1341	1.3333e+02	6.6637	11.454473	0.000233	2.333230	0.395260	-0.000023
1342	1.3343e+02	6.6530	11.430032	0.000246	2.456032	0.416063	-0.000025
1343	1.3353e+02	6.6415	11.410072	0.000201	2.005759	0.339785	-0.000020
1344	1.3363e+02	6.6341	11.380336	0.000299	2.988172	0.506210	-0.000030
1345	1.3373e+02	6.6228	11.357525	0.000229	2.292297	0.388326	-0.000023
1346	1.3383e+02	6.6131	11.331862	0.000258	2.578834	0.436866	-0.000026
1347	1.3393e+02	6.5987	11.306200	0.000258	2.578834	0.436866	-0.000026
1348	1.3403e+02	6.5923	11.286647	0.000196	1.964826	0.332850	-0.000020
1349	1.3413e+02	6.5804	11.260985	0.000258	2.578834	0.436866	-0.000026
1350	1.3423e+02	6.5728	11.237766	0.000233	2.333230	0.395260	-0.000023
1351	1.3432e+02	6.5601	11.215770	0.000221	2.210429	0.374457	-0.000022
1352	1.3442e+02	6.5546	11.189700	0.000262	2.619767	0.443801	-0.000026
1353	1.3452e+02	6.5421	11.166889	0.000229	2.292297	0.388326	-0.000023
1354	1.3462e+02	6.5337	11.142855	0.000242	2.415098	0.409129	-0.000024
1355	1.3472e+02	6.5262	11.119230	0.000237	2.374164	0.402194	-0.000024
1356	1.3482e+02	6.5137	11.097233	0.000221	2.210429	0.374457	-0.000022
1357	1.3492e+02	6.5028	11.069126	0.000282	2.824437	0.478473	-0.000028
1358	1.3502e+02	6.4930	11.050389	0.000188	1.882958	0.318982	-0.000019
1359	1.3512e+02	6.4854	11.023911	0.000266	2.660701	0.450735	-0.000027
1360	1.3522e+02	6.4723	10.997842	0.000262	2.619767	0.443801	-0.000026
1361	1.3532e+02	6.4639	10.976660	0.000213	2.128561	0.360588	-0.000021
1362	1.3542e+02	6.4529	10.951404	0.000254	2.537900	0.429932	-0.000025
1363	1.3552e+02	6.4437	10.924520	0.000270	2.701635	0.457669	-0.000027
1364	1.3562e+02	6.4336	10.900894	0.000237	2.374164	0.402194	-0.000024
1365	1.3572e+02	6.4225	10.878490	0.000225	2.251363	0.381391	-0.000023
1366	1.3582e+02	6.4135	10.852013	0.000266	2.660701	0.450735	-0.000027
1367	1.3592e+02	6.4022	10.832053	0.000201	2.005759	0.339785	-0.000020
1368	1.3602e+02	6.3946	10.812093	0.000201	2.005759	0.339785	-0.000020
1369	1.3612e+02	6.3839	10.787245	0.000250	2.496966	0.422997	-0.000025
1370	1.3622e+02	6.3747	10.766471	0.000209	2.087627	0.353654	-0.000021
1371	1.3631e+02	6.3647	10.747326	0.000192	1.923892	0.325916	-0.000019
1372	1.3641e+02	6.3509	10.722478	0.000250	2.496966	0.422997	-0.000025
1373	1.3651e+02	6.3424	10.695593	0.000270	2.701635	0.457669	-0.000027
1374	1.3661e+02	6.3317	10.673190	0.000225	2.251363	0.381391	-0.000023
1375	1.3671e+02	6.3237	10.649156	0.000242	2.415098	0.409129	-0.000024
1376	1.3681e+02	6.3146	10.621864	0.000274	2.742569	0.464604	-0.000027
1377	1.3691e+02	6.3030	10.601497	0.000205	2.046693	0.346719	-0.000020
1378	1.3701e+02	6.2939	10.581537	0.000201	2.005759	0.339785	-0.000020
1379	1.3711e+02	6.2841	10.553431	0.000282	2.824437	0.478473	-0.000028
1380	1.3721e+02	6.2762	10.526139	0.000274	2.742569	0.464604	-0.000027
1381	1.3731e+02	6.2660	10.502513	0.000237	2.374164	0.402194	-0.000024
1382	1.3741e+02	6.2539	10.482553	0.000201	2.005759	0.339785	-0.000020
1383	1.3751e+02	6.2441	10.456483	0.000262	2.619767	0.443801	-0.000026
1384	1.3761e+02	6.2377	10.433265	0.000233	2.333230	0.395260	-0.000023
1385	1.3771e+02	6.2241	10.407602	0.000258	2.578834	0.436866	-0.000026
1386	1.3781e+02	6.2151	10.380310	0.000274	2.742569	0.464604	-0.000027
1387	1.3791e+02	6.2040	10.354240	0.000262	2.619767	0.443801	-0.000026
1388	1.3801e+02	6.1956	10.329392	0.000250	2.496966	0.422997	-0.000025
1389	1.3811e+02	6.1822	10.299249	0.000303	3.029106	0.513144	-0.000030
1390	1.3821e+02	6.1790	10.273586	0.000258	2.578834	0.436866	-0.000026
1391	1.3831e+02	6.1660	10.248331	0.000254	2.537900	0.429932	-0.000025
1392	1.3840e+02	6.1544	10.223891	0.000246	2.456032	0.416063	-0.000025
1393	1.3850e+02	6.1410	10.195784	0.000282	2.824437	0.478473	-0.000028
1394	1.3860e+02	6.1353	10.168899	0.000270	2.701635	0.457669	-0.000027
1395	1.3870e+02	6.1263	10.141200	0.000278	2.783503	0.471538	-0.000028
1396	1.3880e+02	6.1196	10.116352	0.000250	2.496966	0.422997	-0.000025
1397	1.3890e+02	6.1040	10.088653	0.000278	2.783503	0.471538	-0.000028
1398	1.3900e+02	6.0925	10.065842	0.000229	2.292297	0.388326	-0.000023
1399	1.3910e+02	6.0876	10.037328	0.000287	2.865371	0.485407	-0.000029
1400	1.3920e+02	6.0747	10.015739	0.000217	2.169495	0.367522	-0.000022
1401	1.3930e+02	6.0648	9.989261	0.000266	2.660701	0.450735	-0.000027
1402	1.3940e+02	6.0564	9.964413	0.000250	2.496966	0.422997	-0.000025
1403	1.3950e+02	6.0419	9.940788	0.000237	2.374164	0.402194	-0.000024
1404	1.3960e+02	6.0375	9.913903	0.000270	2.701635	0.457669	-0.000027
1405	1.3970e+02	6.0281	9.890684	0.000233	2.333230	0.395260	-0.000023
1406	1.3980e+02	6.0145	9.859726	0.000311	3.110974	0.527013	-0.000031
1407	1.3990e+02	6.0061	9.837730	0.000221	2.210429	0.374457	-0.000022
1408	1.4000e+02	5.9961	9.813697	0.000242	2.415098	0.409129	-0.000024
1409	1.4010e+02	5.9875	9.788034	0.000258	2.578834	0.436866	-0.000026
1410	1.4020e+02	5.9747	9.761964	0.000262	2.619767	0.443801	-0.000026
1411	1.4029e+02	5.9660	9.736302	0.000258	2.578834	0.436866	-0.000026
1412	1.4039e+02	5.9588	9.709010	0.000274	2.742569	0.464604	-0.000027
1413	1.4049e+02	5.9451	9.681718	0.000274	2.742569	0.464604	-0.000027
1414	1.4059e+02	5.9354	9.662165	0.000196	1.964826	0.332850	-0.000020
1415	1.4069e+02	5.9249	9.633651	0.000287	2.865371	0.485407	-0.000029
1416	1.4079e+02	5.9170	9.607174	0.000266	2.660701	0.450735	-0.000027
1417	1.4089e+02	5.9072	9.582734	0.000246	2.456032	0.416063	-0.000025
1418	1.4099e+02	5.8980	9.557478	0.000254	2.537900	0.429932	-0.000025
1419	1.4109e+02	5.8845	9.531408	0.000262	2.619767	0.443801	-0.000026
1420	1.4119e+02	5.8764	9.506560	0.000250	2.496966	0.422997	-0.000025
1421	1.4129e+02	5.8675	9.477232	0.000295	2.947238	0.499276	-0.000029
1422	1.4139e+02	5.8575	9.454421	0.000229	2.292297	0.388326	-0.000023
1423	1.4149e+02	5.8485	9.427536	0.000270	2.701635	0.457669	-0.000027
1424	1.4159e+02	5.8369	9.398615	0.000291	2.906305	0.492341	-0.000029
1425	1.4169e+02	5.8282	9.375396	0.000233	2.333230	0.395260	-0.000023
1426	1.4179e+02	5.8155	9.350141	0.000254	2.537900	0.429932	-0.000025
1427	1.4189e+02	5.8044	9.323256	0.000270	2.701635	0.457669	-0.000027
1428	1.4199e+02	5.7973	9.298816	0.000246	2.456032	0.416063	-0.000025
1429	1.4209e+02	5.7847	9.272746	0.000262	2.619767	0.443801	-0.000026
1430	1.4219e+02	5.7766	9.245454	0.000274	2.742569	0.464604	-0.000027
1431	1.4228e+02	5.7647	9.221828	0.000237	2.374164	0.402194	-0.000024
1432	1.4238e+02	5.7603	9.194943	0.000270	2.701635	0.457669	-0.000027
1433	1.4248e+02	5.7465	9.171318	0.000237	2.374164	0.402194	-0.000024
1434	1.4258e+02	5.7391	9.144026	0.000274	2.742569	0.464604	-0.000027
1435	1.4268e+02	5.7261	9.118363	0.000258	2.578834	0.436866	-0.000026
1436	1.4278e+02	5.7172	9.090256	0.000282	2.824437	0.478473	-0.000028
1437	1.4288e+02	5.7063	9.068260	0.000221	2.210429	0.374457	-0.000022
1438	1.4298e+02	5.6956	9.043005	0.000254	2.537900	0.429932	-0.000025
1439	1.4308e+02	5.6864	9.017749	0.000254	2.537900	0.429932	-0.000025
1440	1.4318e+02	5.6774	8.987606	0.000303	3.029106	0.513144	-0.000030
1441	1.4328e+02	5.6686	8.963166	0.000246	2.456032	0.416063	-0.000025
1442	1.4338e+02	5.6615	8.935466	0.000278	2.783503	0.471538	-0.000028
1443	1.4348e+02	5.6487	8.911840	0.000237	2.374164	0.402194	-0.000024
1444	1.4358e+02	5.6356	8.887807	0.000242	2.415098	0.409129	-0.000024
1445	1.4368e+02	5.6277	8.864589	0.000233	2.333230	0.395260	-0.000023
1446	1.4378e+02	5.6174	8.834038	0.000307	3.070040	0.520079	-0.000031
1447	1.4388e+02	5.6070	8.809597	0.000246	2.456032	0.416063	-0.000025
1448	1.4398e+02	5.5968	8.782713	0.000270	2.701635	0.457669	-0.000027
1449	1.4408e+02	5.5880	8.756643	0.000262	2.619767	0.443801	-0.000026
1450	1.4418e+02	5.5791	8.729351	0.000274	2.742569	0.464604	-0.000027
1451	1.4428e+02	5.5682	8.698393	0.000311	3.110974	0.527013	-0.000031
1452	1.4437e+02	5.5592	8.671101	0.000274	2.742569	0.464604	-0.000027
1453	1.4447e+02	5.5492	8.645031	0.000262	2.619767	0.443801	-0.000026
1454	1.4457e+02	5.5372	8.618554	0.000266	2.660701	0.450735	-0.000027
1455	1.4467e+02	5.5264	8.592076	0.000266	2.660701	0.450735	-0.000027
1456	1.4477e+02	5.5180	8.563970	0.000282	2.824437	0.478473	-0.000028
1457	1.4487e+02	5.5088	8.537493	0.000266	2.660701	0.450735	-0.000027
1458	1.4497e+02	5.5001	8.506535	0.000311	3.110974	0.527013	-0.000031
1459	1.4507e+02	5.4864	8.481687	0.000250	2.496966	0.422997	-0.000025
1460	1.4517e+02	5.4781	8.458468	0.000233	2.333230	0.395260	-0.000023
1461	1.4527e+02	5.4699	8.429547	0.000291	2.906305	0.492341	-0.000029
1462	1.4537e+02	5.4590	8.404699	0.000250	2.496966	0.422997	-0.000025
1463	1.4547e+02	5.4490	8.381480	0.000233	2.333230	0.395260	-0.000023
1464	1.4557e+02	5.4383	8.354188	0.000274	2.742569	0.464604	-0.000027
1465	1.4567e+02	5.4279	8.322416	0.000319	3.192842	0.540882	-0.000032
1466	1.4577e+02	5.4189	8.297975	0.000246	2.456032	0.416063	-0.000025
1467	1.4587e+02	5.4104	8.273127	0.000250	2.496966	0.422997	-0.000025
1468	1.4597e+02	5.3979	8.242577	0.000307	3.070040	0.520079	-0.000031
1469	1.4607e+02	5.3899	8.220173	0.000225	2.251363	0.381391	-0.000023
1470	1.4617e+02	5.3779	8.190844	0.000295	2.947238	0.499276	-0.000029
1471	1.4626e+02	5.3689	8.167218	0.000237	2.374164	0.402194	-0.000024
1472	1.4636e+02	5.3596	8.141963	0.000254	2.537900	0.429932	-0.000025
1473	1.4646e+02	5.3482	8.118337	0.000237	2.374164	0.402194	-0.000024
1474	1.4656e+02	5.3374	8.097155	0.000213	2.128561	0.360588	-0.000021
1475	1.4666e+02	5.3307	8.073937	0.000233	2.333230	0.395260	-0.000023
1476	1.4676e+02	5.3175	8.047867	0.000262	2.619767	0.443801	-0.000026
1477	1.4686e+02	5.3094	8.020167	0.000278	2.783503	0.471538	-0.000028
1478	1.4696e+02	5.3008	7.997356	0.000229	2.292297	0.388326	-0.000023
1479	1.4706e+02	5.2901	7.970472	0.000270	2.701635	0.457669	-0.000027
1480	1.4716e+02	5.2802	7.943180	0.000274	2.742569	0.464604	-0.000027
1481	1.4726e+02	5.2673	7.917925	0.000254	2.537900	0.429932	-0.000025
1482	1.4736e+02	5.2572	7.890225	0.000278	2.783503	0.471538	-0.000028
1483	1.4746e+02	5.2476	7.871487	0.000188	1.882958	0.318982	-0.000019
1484	1.4756e+02	5.2377	7.839307	0.000323	3.233775	0.547816	-0.000032
1485	1.4766e+02	5.2286	7.810386	0.000291	2.906305	0.492341	-0.000029
1486	1.4776e+02	5.2163	7.785538	0.000250	2.496966	0.422997	-0.000025
1487	1.4786e+02	5.2110	7.756210	0.000295	2.947238	0.499276	-0.000029
1488	1.4796e+02	5.2007	7.731362	0.000250	2.496966	0.422997	-0.000025
1489	1.4806e+02	5.1919	7.705292	0.000262	2.619767	0.443801	-0.000026
1490	1.4816e+02	5.1801	7.680036	0.000254	2.537900	0.429932	-0.000025
1491	1.4825e+02	5.1696	7.651930	0.000282	2.824437	0.478473	-0.000028
1492	1.4835e+02	5.1594	7.626267	0.000258	2.578834	0.436866	-0.000026
1493	1.4845e+02	5.1495	7.599790	0.000266	2.660701	0.450735	-0.000027
1494	1.4855e+02	5.1379	7.570869	0.000291	2.906305	0.492341	-0.000029
1495	1.4865e+02	5.1318	7.547243	0.000237	2.374164	0.402194	-0.000024
1496	1.4875e+02	5.1197	7.519136	0.000282	2.824437	0.478473	-0.000028
1497	1.4885e+02	5.1099	7.491030	0.000282	2.824437	0.478473	-0.000028
1498	1.4895e+02	5.0985	7.464552	0.000266	2.660701	0.450735	-0.000027
1499	1.4905e+02	5.0918	7.438890	0.000258	2.578834	0.436866	-0.000026
1500	1.4915e+02	5.0811	7.407932	0.000311	3.110974	0.527013	-0.000031
1501	1.4925e+02	5.0713	7.384713	0.000233	2.333230	0.395260	-0.000023
1502	1.4935e+02	5.0601	7.358236	0.000266	2.660701	0.450735	-0.000027
1503	1.4945e+02	5.0492	7.331759	0.000266	2.660701	0.450735	-0.000027
1504	1.4955e+02	5.0407	7.306503	0.000254	2.537900	0.429932	-0.000025
1505	1.4965e+02	5.0312	7.277989	0.000287	2.865371	0.485407	-0.000029
1506	1.4975e+02	5.0240	7.253549	0.000246	2.456032	0.416063	-0.000025
1507	1.4985e+02	5.0091	7.224627	0.000291	2.906305	0.492341	-0.000029
1508	1.4995e+02	4.9986	7.196928	0.000278	2.783503	0.471538	-0.000028
1509	1.5005e+02	4.9932	7.170858	0.000262	2.619767	0.443801	-0.000026
1510	1.5015e+02	4.9793	7.141530	0.000295	2.947238	0.499276	-0.000029
1511	1.5025e+02	4.9726	7.113423	0.000282	2.824437	0.478473	-0.000028
1512	1.5034e+02	4.9604	7.087353	0.000262	2.619767	0.443801	-0.000026
1513	1.5044e+02	4.9532	7.059246	0.000282	2.824437	0.478473	-0.000028
1514	1.5054e+02	4.9403	7.033584	0.000258	2.578834	0.436866	-0.000026
1515	1.5064e+02	4.9320	7.004663	0.000291	2.906305	0.492341	-0.000029
1516	1.5074e+02	4.9220	6.975741	0.000291	2.906305	0.492341	-0.000029
1517	1.5084e+02	4.9105	6.949264	0.000266	2.660701	0.450735	-0.000027
1518	1.5094e+02	4.9007	6.923601	0.000258	2.578834	0.436866	-0.000026
1519	1.5104e+02	4.8925	6.895902	0.000278	2.783503	0.471538	-0.000028
1520	1.5114e+02	4.8812	6.866981	0.000291	2.906305	0.492341	-0.000029
1521	1.5124e+02	4.8724	6.838059	0.000291	2.906305	0.492341	-0.000029
1522	1.5134e+02	4.8624	6.810767	0.000274	2.742569	0.464604	-0.000027
1523	1.5144e+02	4.8527	6.785512	0.000254	2.537900	0.429932	-0.000025
1524	1.5154e+02	4.8418	6.756184	0.000295	2.947238	0.499276	-0.000029
1525	1.5164e+02	4.8309	6.728077	0.000282	2.824437	0.478473	-0.000028
1526	1.5174e+02	4.8208	6.700378	0.000278	2.783503	0.471538	-0.000028
1527	1.5184e+02	4.8150	6.669827	0.000307	3.070040	0.520079	-0.000031
1528	1.5194e+02	4.8031	6.646201	0.000237	2.374164	0.402194	-0.000024
1529	1.5204e+02	4.7940	6.614836	0.000315	3.151908	0.533948	-0.000032
1530	1.5214e+02	4.7828	6.589173	0.000258	2.578834	0.436866	-0.000026
1531	1.5224e+02	4.7705	6.562289	0.000270	2.701635	0.457669	-0.000027
1532	1.5233e+02	4.7631	6.534589	0.000278	2.783503	0.471538	-0.000028
1533	1.5243e+02	4.7518	6.504446	0.000303	3.029106	0.513144	-0.000030
1534	1.5253e+02	4.7401	6.480005	0.000246	2.456032	0.416063	-0.000025
1535	1.5263e+02	4.7337	6.453528	0.000266	2.660701	0.450735	-0.000027
1536	1.5273e+02	4.7243	6.427865	0.000258	2.578834	0.436866	-0.000026
1537	1.5283e+02	4.7124	6.402610	0.000254	2.537900	0.429932	-0.000025
1538	1.5293e+02	4.7023	6.372874	0.000299	2.988172	0.506210	-0.000030
1539	1.5303e+02	4.6917	6.347619	0.000254	2.537900	0.429932	-0.000025
1540	1.5313e+02	4.6814	6.320327	0.000274	2.742569	0.464604	-0.000027
1541	1.5323e+02	4.6711	6.297109	0.000233	2.333230	0.395260	-0.000023
1542	1.5333e+02	4.6639	6.266150	0.000311	3.110974	0.527013	-0.000031
1543	1.5343e+02	4.6503	6.240081	0.000262	2.619767	0.443801	-0.000026
1544	1.5353e+02	4.6421	6.211567	0.000287	2.865371	0.485407	-0.000029
1545	1.5363e+02	4.6341	6.184682	0.000270	2.701635	0.457669	-0.000027
1546	1.5373e+02	4.6220	6.153724	0.000311	3.110974	0.527013	-0.000031
1547	1.5383e+02	4.6127	6.127654	0.000262	2.619767	0.443801	-0.000026
1548	1.5393e+02	4.6009	6.099140	0.000287	2.865371	0.485407	-0.000029
1549	1.5403e+02	4.5928	6.071441	0.000278	2.783503	0.471538	-0.000028
1550	1.5413e+02	4.5802	6.040075	0.000315	3.151908	0.533948	-0.000032
1551	1.5422e+02	4.5692	6.015635	0.000246	2.456032	0.416063	-0.000025
1552	1.5432e+02	4.5631	5.985491	0.000303	3.029106	0.513144	-0.000030
1553	1.5442e+02	4.5507	5.953719	0.000319	3.192842	0.540882	-0.000032
1554	1.5452e+02	4.5423	5.924797	0.000291	2.906305	0.492341	-0.000029
1555	1.5462e+02	4.5325	5.895061	0.000299	2.988172	0.506210	-0.000030
1556	1.5472e+02	4.5240	5.863696	0.000315	3.151908	0.533948	-0.000032
1557	1.5482e+02	4.5110	5.836404	0.000274	2.742569	0.464604	-0.000027
1558	1.5492e+02	4.5038	5.801373	0.000352	3.520313	0.596357	-0.000035
1559	1.5502e+02	4.4926	5.774488	0.000270	2.701635	0.457669	-0.000027
1560	1.5512e+02	4.4837	5.746381	0.000282	2.824437	0.478473	-0.000028
1561	1.5522e+02	4.4730	5.713387	0.000332	3.315643	0.561685	-0.000033
1562	1.5532e+02	4.4647	5.684058	0.000295	2.947238	0.499276	-0.000029
1563	1.5542e+02	4.4546	5.651471	0.000327	3.274709	0.554751	-0.000033
1564	1.5552e+02	4.4411	5.625401	0.000262	2.619767	0.443801	-0.000026
1565	1.5562e+02	4.4327	5.594850	0.000307	3.070040	0.520079	-0.000031
1566	1.5572e+02	4.4256	5.568780	0.000262	2.619767	0.443801	-0.000026
1567	1.5582e+02	4.4149	5.539044	0.000299	2.988172	0.506210	-0.000030
1568	1.5592e+02	4.4061	5.511345	0.000278	2.783503	0.471538	-0.000028
1569	1.5602e+02	4.3941	5.480794	0.000307	3.070040	0.520079	-0.000031
1570	1.5612e+02	4.3798	5.449021	0.000319	3.192842	0.540882	-0.000032
1571	1.5622e+02	4.3729	5.422951	0.000262	2.619767	0.443801	-0.000026
1572	1.5631e+02	4.3645	5.392401	0.000307	3.070040	0.520079	-0.000031
1573	1.5641e+02	4.3557	5.362665	0.000299	2.988172	0.506210	-0.000030
1574	1.5651e+02	4.3440	5.332521	0.000303	3.029106	0.513144	-0.000030
1575	1.5661e+02	4.3374	5.303193	0.000295	2.947238	0.499276	-0.000029
1576	1.5671e+02	4.3221	5.273049	0.000303	3.029106	0.513144	-0.000030
1577	1.5681e+02	4.3142	5.248609	0.000246	2.456032	0.416063	-0.000025
1578	1.5691e+02	4.3041	5.213170	0.000356	3.561246	0.603291	-0.000036
1579	1.5701e+02	4.2950	5.186285	0.000270	2.701635	0.457669	-0.000027
1580	1.5711e+02	4.2850	5.157771	0.000287	2.865371	0.485407	-0.000029
1581	1.5721e+02	4.2727	5.129665	0.000282	2.824437	0.478473	-0.000028
1582	1.5731e+02	4.2678	5.100336	0.000295	2.947238	0.499276	-0.000029
1583	1.5741e+02	4.2561	5.070600	0.000299	2.988172	0.506210	-0.000030
1584	1.5751e+02	4.2443	5.040049	0.000307	3.070040	0.520079	-0.000031
1585	1.5761e+02	4.2355	5.009906	0.000303	3.029106	0.513144	-0.000030
1586	1.5771e+02	4.2294	4.978948	0.000311	3.110974	0.527013	-0.000031
1587	1.5781e+02	4.2124	4.954100	0.000250	2.496966	0.422997	-0.000025
1588	1.5791e+02	4.2039	4.920698	0.000336	3.356577	0.568620	-0.000034
1589	1.5801e+02	4.1932	4.893406	0.000274	2.742569	0.464604	-0.000027
1590	1.5811e+02	4.1862	4.865299	0.000282	2.824437	0.478473	-0.000028
1591	1.5821e+02	4.1766	4.835156	0.000303	3.029106	0.513144	-0.000030
1592	1.5830e+02	4.1644	4.798088	0.000372	3.724982	0.631029	-0.000037
1593	1.5840e+02	4.1566	4.771611	0.000266	2.660701	0.450735	-0.000027
1594	1.5850e+02	4.1451	4.741875	0.000299	2.988172	0.506210	-0.000030
1595	1.5860e+02	4.1354	4.710509	0.000315	3.151908	0.533948	-0.000032
1596	1.5870e+02	4.1255	4.683625	0.000270	2.701635	0.457669	-0.000027
1597	1.5880e+02	4.1132	4.651037	0.000327	3.274709	0.554751	-0.000033
1598	1.5890e+02	4.1071	4.624560	0.000266	2.660701	0.450735	-0.000027
1599	1.5900e+02	4.0929	4.595231	0.000295	2.947238	0.499276	-0.000029
1600	1.5910e+02	4.0852	4.563051	0.000323	3.233775	0.547816	-0.000032
1601	1.5920e+02	4.0711	4.537796	0.000254	2.537900	0.429932	-0.000025
1602	1.5930e+02	4.0674	4.510911	0.000270	2.701635	0.457669	-0.000027
1603	1.5940e+02	4.0551	4.476287	0.000348	3.479379	0.589423	-0.000035
1604	1.5950e+02	4.0455	4.448181	0.000282	2.824437	0.478473	-0.000028
1605	1.5960e+02	4.0361	4.416815	0.000315	3.151908	0.533948	-0.000032
1606	1.5970e+02	4.0235	4.386265	0.000307	3.070040	0.520079	-0.000031
1607	1.5980e+02	4.0157	4.354492	0.000319	3.192842	0.540882	-0.000032
1608	1.5990e+02	4.0044	4.325571	0.000291	2.906305	0.492341	-0.000029
1609	1.6000e+02	3.9958	4.296649	0.000291	2.906305	0.492341	-0.000029
1610	1.6010e+02	3.9866	4.266913	0.000299	2.988172	0.506210	-0.000030
1611	1.6019e+02	3.9750	4.237992	0.000291	2.906305	0.492341	-0.000029
1612	1.6029e+02	3.9674	4.207034	0.000311	3.110974	0.527013	-0.000031
1613	1.6039e+02	3.9587	4.178113	0.000291	2.906305	0.492341	-0.000029
1614	1.6049e+02	3.9445	4.145118	0.000332	3.315643	0.561685	-0.000033
1615	1.6059e+02	3.9376	4.119048	0.000262	2.619767	0.443801	-0.000026
1616	1.6069e+02	3.9269	4.089312	0.000299	2.988172	0.506210	-0.000030
1617	1.6079e+02	3.9162	4.054688	0.000348	3.479379	0.589423	-0.000035
1618	1.6089e+02	3.9063	4.026581	0.000282	2.824437	0.478473	-0.000028
1619	1.6099e+02	3.8959	3.992772	0.000340	3.397511	0.575554	-0.000034
1620	1.6109e+02	3.8869	3.960592	0.000323	3.233775	0.547816	-0.000032
1621	1.6119e+02	3.8757	3.924745	0.000360	3.602180	0.610226	-0.000036
1622	1.6129e+02	3.8692	3.897454	0.000274	2.742569	0.464604	-0.000027
1623	1.6139e+02	3.8551	3.862015	0.000356	3.561246	0.603291	-0.000036
1624	1.6149e+02	3.8459	3.834723	0.000274	2.742569	0.464604	-0.000027
1625	1.6159e+02	3.8355	3.802135	0.000327	3.274709	0.554751	-0.000033
1626	1.6169e+02	3.8282	3.773214	0.000291	2.906305	0.492341	-0.000029
1627	1.6179e+02	3.8177	3.741441	0.000319	3.192842	0.540882	-0.000032
1628	1.6189e+02	3.8059	3.711298	0.000303	3.029106	0.513144	-0.000030
1629	1.6199e+02	3.7968	3.685228	0.000262	2.619767	0.443801	-0.000026
1630	1.6209e+02	3.7856	3.649789	0.000356	3.561246	0.603291	-0.000036
1631	1.6219e+02	3.7743	3.624534	0.000254	2.537900	0.429932	-0.000025
1632	1.6228e+02	3.7662	3.589910	0.000348	3.479379	0.589423	-0.000035
1633	1.6238e+02	3.7562	3.563433	0.000266	2.660701	0.450735	-0.000027
1634	1.6248e+02	3.7446	3.530031	0.000336	3.356577	0.568620	-0.000034
1635	1.6258e+02	3.7371	3.498665	0.000315	3.151908	0.533948	-0.000032
1636	1.6268e+02	3.7289	3.470151	0.000287	2.865371	0.485407	-0.000029
1637	1.6278e+02	3.7187	3.441230	0.000291	2.906305	0.492341	-0.000029
1638	1.6288e+02	3.7095	3.412309	0.000291	2.906305	0.492341	-0.000029
1639	1.6298e+02	3.6973	3.380536	0.000319	3.192842	0.540882	-0.000032
1640	1.6308e+02	3.6868	3.350800	0.000299	2.988172	0.506210	-0.000030
1641	1.6318e+02	3.6737	3.324730	0.000262	2.619767	0.443801	-0.000026
1642	1.6328e+02	3.6681	3.297438	0.000274	2.742569	0.464604	-0.000027
1643	1.6338e+02	3.6574	3.268517	0.000291	2.906305	0.492341	-0.000029
1644	1.6348e+02	3.6456	3.239188	0.000295	2.947238	0.499276	-0.000029
1645	1.6358e+02	3.6364	3.209045	0.000303	3.029106	0.513144	-0.000030
1646	1.6368e+02	3.6266	3.181345	0.000278	2.783503	0.471538	-0.000028
1647	1.6378e+02	3.6152	3.147536	0.000340	3.397511	0.575554	-0.000034
1648	1.6388e+02	3.6102	3.116171	0.000315	3.151908	0.533948	-0.000032
1649	1.6398e+02	3.5954	3.089693	0.000266	2.660701	0.450735	-0.000027
1650	1.6408e+02	3.5881	3.056699	0.000332	3.315643	0.561685	-0.000033
1651	1.6418e+02	3.5796	3.028185	0.000287	2.865371	0.485407	-0.000029
1652	1.6427e+02	3.5694	2.996412	0.000319	3.192842	0.540882	-0.000032
1653	1.6437e+02	3.5605	2.969935	0.000266	2.660701	0.450735	-0.000027
1654	1.6447e+02	3.5487	2.936940	0.000332	3.315643	0.561685	-0.000033
1655	1.6457e+02	3.5372	2.904352	0.000327	3.274709	0.554751	-0.000033
1656	1.6467e+02	3.5274	2.874209	0.000303	3.029106	0.513144	-0.000030
1657	1.6477e+02	3.5162	2.840400	0.000340	3.397511	0.575554	-0.000034
1658	1.6487e+02	3.5085	2.812700	0.000278	2.783503	0.471538	-0.000028
1659	1.6497e+02	3.4988	2.778076	0.000348	3.479379	0.589423	-0.000035
1660	1.6507e+02	3.4880	2.746711	0.000315	3.151908	0.533948	-0.000032
1661	1.6517e+02	3.4795	2.719419	0.000274	2.742569	0.464604	-0.000027
1662	1.6527e+02	3.4683	2.685609	0.000340	3.397511	0.575554	-0.000034
1663	1.6537e+02	3.4586	2.655059	0.000307	3.070040	0.520079	-0.000031
1664	1.6547e+02	3.4495	2.626952	0.000282	2.824437	0.478473	-0.000028
1665	1.6557e+02	3.4399	2.593550	0.000336	3.356577	0.568620	-0.000034
1666	1.6567e+02	3.4280	2.561370	0.000323	3.233775	0.547816	-0.000032
1667	1.6577e+02	3.4188	2.530412	0.000311	3.110974	0.527013	-0.000031
1668	1.6587e+02	3.4081	2.500269	0.000303	3.029106	0.513144	-0.000030
1669	1.6597e+02	3.3978	2.469718	0.000307	3.070040	0.520079	-0.000031
1670	1.6607e+02	3.3871	2.432650	0.000372	3.724982	0.631029	-0.000037
1671	1.6616e+02	3.3773	2.405765	0.000270	2.701635	0.457669	-0.000027
1672	1.6626e+02	3.3683	2.375214	0.000307	3.070040	0.520079	-0.000031
1673	1.6636e+02	3.3600	2.342220	0.000332	3.315643	0.561685	-0.000033
1674	1.6646e+02	3.3489	2.314113	0.000282	2.824437	0.478473	-0.000028
1675	1.6656e+02	3.3372	2.280711	0.000336	3.356577	0.568620	-0.000034
1676	1.6666e+02	3.3264	2.251382	0.000295	2.947238	0.499276	-0.000029
1677	1.6676e+02	3.3190	2.220832	0.000307	3.070040	0.520079	-0.000031
1678	1.6686e+02	3.3067	2.191503	0.000295	2.947238	0.499276	-0.000029
1679	1.6696e+02	3.2995	2.155657	0.000360	3.602180	0.610226	-0.000036
1680	1.6706e+02	3.2896	2.123884	0.000319	3.192842	0.540882	-0.000032
1681	1.6716e+02	3.2787	2.091297	0.000327	3.274709	0.554751	-0.000033
1682	1.6726e+02	3.2722	2.058709	0.000327	3.274709	0.554751	-0.000033
1683	1.6736e+02	3.2603	2.027344	0.000315	3.151908	0.533948	-0.000032
1684	1.6746e+02	3.2497	1.993942	0.000336	3.356577	0.568620	-0.000034
1685	1.6756e+02	3.2391	1.961354	0.000327	3.274709	0.554751	-0.000033
1686	1.6766e+02	3.2279	1.931211	0.000303	3.029106	0.513144	-0.000030
1687	1.6776e+02	3.2185	1.901068	0.000303	3.029106	0.513144	-0.000030
1688	1.6786e+02	3.2136	1.869295	0.000319	3.192842	0.540882	-0.000032
1689	1.6796e+02	3.1992	1.837115	0.000323	3.233775	0.547816	-0.000032
1690	1.6806e+02	3.1896	1.802898	0.000344	3.438445	0.582488	-0.000034
1691	1.6816e+02	3.1792	1.770311	0.000327	3.274709	0.554751	-0.000033
1692	1.6825e+02	3.1712	1.736909	0.000336	3.356577	0.568620	-0.000034
1693	1.6835e+02	3.1585	1.704729	0.000323	3.233775	0.547816	-0.000032
1694	1.6845e+02	3.1533	1.675400	0.000295	2.947238	0.499276	-0.000029
1695	1.6855e+02	3.1385	1.639961	0.000356	3.561246	0.603291	-0.000036
1696	1.6865e+02	3.1303	1.606966	0.000332	3.315643	0.561685	-0.000033
1697	1.6875e+02	3.1175	1.573972	0.000332	3.315643	0.561685	-0.000033
1698	1.6885e+02	3.1074	1.543014	0.000311	3.110974	0.527013	-0.000031
1699	1.6895e+02	3.0988	1.512870	0.000303	3.029106	0.513144	-0.000030
1700	1.6905e+02	3.0903	1.481098	0.000319	3.192842	0.540882	-0.000032
1701	1.6915e+02	3.0803	1.447695	0.000336	3.356577	0.568620	-0.000034
1702	1.6925e+02	3.0702	1.419181	0.000287	2.865371	0.485407	-0.000029
1703	1.6935e+02	3.0606	1.388631	0.000307	3.070040	0.520079	-0.000031
1704	1.6945e+02	3.0499	1.356043	0.000327	3.274709	0.554751	-0.000033
1705	1.6955e+02	3.0413	1.327937	0.000282	2.824437	0.478473	-0.000028
1706	1.6965e+02	3.0359	1.296164	0.000319	3.192842	0.540882	-0.000032
1707	1.6975e+02	3.0202	1.267243	0.000291	2.906305	0.492341	-0.000029
1708	1.6985e+02	3.0096	1.233841	0.000336	3.356577	0.568620	-0.000034
1709	1.6995e+02	3.0005	1.200846	0.000332	3.315643	0.561685	-0.000033
1710	1.7005e+02	2.9913	1.167851	0.000332	3.315643	0.561685	-0.000033
1711	1.7015e+02	2.9803	1.137300	0.000307	3.070040	0.520079	-0.000031
1712	1.7024e+02	2.9711	1.102269	0.000352	3.520313	0.596357	-0.000035
1713	1.7034e+02	2.9589	1.072126	0.000303	3.029106	0.513144	-0.000030
1714	1.7044e+02	2.9508	1.035057	0.000372	3.724982	0.631029	-0.000037
1715	1.7054e+02	2.9402	1.004507	0.000307	3.070040	0.520079	-0.000031
1716	1.7064e+02	2.9311	0.971512	0.000332	3.315643	0.561685	-0.000033
1717	1.7074e+02	2.9216	0.934444	0.000372	3.724982	0.631029	-0.000037
1718	1.7084e+02	2.9118	0.906337	0.000282	2.824437	0.478473	-0.000028
1719	1.7094e+02	2.9020	0.869676	0.000368	3.684048	0.624095	-0.000037
1720	1.7104e+02	2.8962	0.837904	0.000319	3.192842	0.540882	-0.000032
1721	1.7114e+02	2.8777	0.803280	0.000348	3.479379	0.589423	-0.000035
1722	1.7124e+02	2.8716	0.769470	0.000340	3.397511	0.575554	-0.000034
1723	1.7134e+02	2.8625	0.734846	0.000348	3.479379	0.589423	-0.000035
1724	1.7144e+02	2.8522	0.698185	0.000368	3.684048	0.624095	-0.000037
1725	1.7154e+02	2.8394	0.666005	0.000323	3.233775	0.547816	-0.000032
1726	1.7164e+02	2.8320	0.630566	0.000356	3.561246	0.603291	-0.000036
1727	1.7174e+02	2.8237	0.595535	0.000352	3.520313	0.596357	-0.000035
1728	1.7184e+02	2.8115	0.564169	0.000315	3.151908	0.533948	-0.000032
1729	1.7194e+02	2.8040	0.527509	0.000368	3.684048	0.624095	-0.000037
1730	1.7204e+02	2.7937	0.490440	0.000372	3.724982	0.631029	-0.000037
1731	1.7213e+02	2.7825	0.456631	0.000340	3.397511	0.575554	-0.000034
1732	1.7223e+02	2.7721	0.423229	0.000336	3.356577	0.568620	-0.000034
1733	1.7233e+02	2.7612	0.391456	0.000319	3.192842	0.540882	-0.000032
1734	1.7243e+02	2.7512	0.351129	0.000405	4.052453	0.686504	-0.000041
1735	1.7253e+02	2.7418	0.322615	0.000287	2.865371	0.485407	-0.000029
1736	1.7263e+02	2.7305	0.287176	0.000356	3.561246	0.603291	-0.000036
1737	1.7273e+02	2.7242	0.252145	0.000352	3.520313	0.596357	-0.000035
1738	1.7283e+02	2.7110	0.214670	0.000377	3.765916	0.637963	-0.000038
1739	1.7293e+02	2.7028	0.186970	0.000278	2.783503	0.471538	-0.000028
1740	1.7303e+02	2.6900	0.151939	0.000352	3.520313	0.596357	-0.000035
1741	1.7313e+02	2.6826	0.118944	0.000332	3.315643	0.561685	-0.000033
1742	1.7323e+02	2.6723	0.081876	0.000372	3.724982	0.631029	-0.000037
1743	1.7333e+02	2.6617	0.048881	0.000332	3.315643	0.561685	-0.000033
1744	1.7343e+02	2.6495	0.014664	0.000344	3.438445	0.582488	-0.000034
1745	1.7353e+02	2.6419	-0.020774	0.000356	3.561246	0.603291	-0.000036
1746	1.7363e+02	2.6287	-0.050918	0.000303	3.029106	0.513144	-0.000030
1747	1.7373e+02	2.6244	-0.088393	0.000377	3.765916	0.637963	-0.000038
1748	1.7383e+02	2.6109	-0.122203	0.000340	3.397511	0.575554	-0.000034
1749	1.7393e+02	2.6023	-0.156420	0.000344	3.438445	0.582488	-0.000034
1750	1.7403e+02	2.5916	-0.189414	0.000332	3.315643	0.561685	-0.000033
1751	1.7413e+02	2.5816	-0.223631	0.000344	3.438445	0.582488	-0.000034
1752	1.7422e+02	2.5700	-0.255404	0.000319	3.192842	0.540882	-0.000032
1753	1.7432e+02	2.5610	-0.295323	0.000401	4.011519	0.679570	-0.000040
1754	1.7442e+02	2.5542	-0.329133	0.000340	3.397511	0.575554	-0.000034
1755	1.7452e+02	2.5411	-0.364572	0.000356	3.561246	0.603291	-0.000036
1756	1.7462e+02	2.5365	-0.395937	0.000315	3.151908	0.533948	-0.000032
1757	1.7472e+02	2.5231	-0.428117	0.000323	3.233775	0.547816	-0.000032
1758	1.7482e+02	2.5131	-0.470481	0.000426	4.257122	0.721176	-0.000043
1759	1.7492e+02	2.5040	-0.501031	0.000307	3.070040	0.520079	-0.000031
1760	1.7502e+02	2.4921	-0.531989	0.000311	3.110974	0.527013	-0.000031
1761	1.7512e+02	2.4843	-0.571502	0.000397	3.970585	0.672635	-0.000040
1762	1.7522e+02	2.4709	-0.604089	0.000327	3.274709	0.554751	-0.000033
1763	1.7532e+02	2.4656	-0.639528	0.000356	3.561246	0.603291	-0.000036
1764	1.7542e+02	2.4526	-0.673337	0.000340	3.397511	0.575554	-0.000034
1765	1.7552e+02	2.4419	-0.708776	0.000356	3.561246	0.603291	-0.000036
1766	1.7562e+02	2.4337	-0.740549	0.000319	3.192842	0.540882	-0.000032
1767	1.7572e+02	2.4227	-0.775580	0.000352	3.520313	0.596357	-0.000035
1768	1.7582e+02	2.4135	-0.809797	0.000344	3.438445	0.582488	-0.000034
1769	1.7592e+02	2.4050	-0.847273	0.000377	3.765916	0.637963	-0.000038
1770	1.7602e+02	2.3997	-0.877416	0.000303	3.029106	0.513144	-0.000030
1771	1.7612e+02	2.3817	-0.915299	0.000381	3.806850	0.644898	-0.000038
1772	1.7621e+02	2.3721	-0.947886	0.000327	3.274709	0.554751	-0.000033
1773	1.7631e+02	2.3591	-0.986176	0.000385	3.847783	0.651832	-0.000038
1774	1.7641e+02	2.3556	-1.020800	0.000348	3.479379	0.589423	-0.000035
1775	1.7651e+02	2.3410	-1.055425	0.000348	3.479379	0.589423	-0.000035
1776	1.7661e+02	2.3348	-1.089641	0.000344	3.438445	0.582488	-0.000034
1777	1.7671e+02	2.3225	-1.125487	0.000360	3.602180	0.610226	-0.000036
1778	1.7681e+02	2.3170	-1.161334	0.000360	3.602180	0.610226	-0.000036
1779	1.7691e+02	2.3056	-1.193106	0.000319	3.192842	0.540882	-0.000032
1780	1.7701e+02	2.2937	-1.228952	0.000360	3.602180	0.610226	-0.000036
1781	1.7711e+02	2.2841	-1.259911	0.000311	3.110974	0.527013	-0.000031
1782	1.7721e+02	2.2736	-1.301867	0.000422	4.216188	0.714242	-0.000042
1783	1.7731e+02	2.2607	-1.335269	0.000336	3.356577	0.568620	-0.000034
1784	1.7741e+02	2.2525	-1.370300	0.000352	3.520313	0.596357	-0.000035
1785	1.7751e+02	2.2449	-1.405332	0.000352	3.520313	0.596357	-0.000035
1786	1.7761e+02	2.2375	-1.443622	0.000385	3.847783	0.651832	-0.000038
1787	1.7771e+02	2.2234	-1.479061	0.000356	3.561246	0.603291	-0.000036
1788	1.7781e+02	2.2134	-1.516944	0.000381	3.806850	0.644898	-0.000038
1789	1.7791e+02	2.2068	-1.552790	0.000360	3.602180	0.610226	-0.000036
1790	1.7801e+02	2.1940	-1.593524	0.000409	4.093387	0.693438	-0.000041
1791	1.7810e+02	2.1852	-1.628556	0.000352	3.520313	0.596357	-0.000035
1792	1.7820e+02	2.1766	-1.665624	0.000372	3.724982	0.631029	-0.000037
1793	1.7830e+02	2.1645	-1.702692	0.000372	3.724982	0.631029	-0.000037
1794	1.7840e+02	2.1539	-1.734057	0.000315	3.151908	0.533948	-0.000032
1795	1.7850e+02	2.1429	-1.771940	0.000381	3.806850	0.644898	-0.000038
1796	1.7860e+02	2.1373	-1.805750	0.000340	3.397511	0.575554	-0.000034
1797	1.7870e+02	2.1254	-1.839966	0.000344	3.438445	0.582488	-0.000034
1798	1.7880e+02	2.1130	-1.879071	0.000393	3.929651	0.665701	-0.000039
1799	1.7890e+02	2.1057	-1.914510	0.000356	3.561246	0.603291	-0.000036
1800	1.7900e+02	2.0944	-1.953208	0.000389	3.888717	0.658767	-0.000039
1801	1.7910e+02	2.0879	-1.985388	0.000323	3.233775	0.547816	-0.000032
1802	1.7920e+02	2.0730	-2.019197	0.000340	3.397511	0.575554	-0.000034
1803	1.7930e+02	2.0625	-2.057895	0.000389	3.888717	0.658767	-0.000039
1804	1.7940e+02	2.0560	-2.088445	0.000307	3.070040	0.520079	-0.000031
1805	1.7950e+02	2.0452	-2.126328	0.000381	3.806850	0.644898	-0.000038
1806	1.7960e+02	2.0387	-2.158508	0.000323	3.233775	0.547816	-0.000032
1807	1.7970e+02	2.0232	-2.195984	0.000377	3.765916	0.637963	-0.000038
1808	1.7980e+02	2.0129	-2.228978	0.000332	3.315643	0.561685	-0.000033
1809	1.7990e+02	2.0042	-2.263195	0.000344	3.438445	0.582488	-0.000034
1810	1.8000e+02	1.9937	-2.296190	0.000332	3.315643	0.561685	-0.000033
1811	1.8009e+02	1.9866	-2.332036	0.000360	3.602180	0.610226	-0.000036
1812	1.8019e+02	1.9783	-2.364624	0.000327	3.274709	0.554751	-0.000033
1813	1.8029e+02	1.9633	-2.397211	0.000327	3.274709	0.554751	-0.000033
1814	1.8039e+02	1.9566	-2.438353	0.000413	4.134321	0.700373	-0.000041
1815	1.8049e+02	1.9448	-2.470125	0.000319	3.192842	0.540882	-0.000032
1816	1.8059e+02	1.9332	-2.507601	0.000377	3.765916	0.637963	-0.000038
1817	1.8069e+02	1.9241	-2.543854	0.000364	3.643114	0.617160	-0.000036
1818	1.8079e+02	1.9150	-2.579293	0.000356	3.561246	0.603291	-0.000036
1819	1.8089e+02	1.9073	-2.615139	0.000360	3.602180	0.610226	-0.000036
1820	1.8099e+02	1.8983	-2.650171	0.000352	3.520313	0.596357	-0.000035
1821	1.8109e+02	1.8868	-2.687646	0.000377	3.765916	0.637963	-0.000038
1822	1.8119e+02	1.8786	-2.722270	0.000348	3.479379	0.589423	-0.000035
1823	1.8129e+02	1.8650	-2.760560	0.000385	3.847783	0.651832	-0.000038
1824	1.8139e+02	1.8551	-2.795592	0.000352	3.520313	0.596357	-0.000035
1825	1.8149e+02	1.8464	-2.835104	0.000397	3.970585	0.672635	-0.000040
1826	1.8159e+02	1.8353	-2.868506	0.000336	3.356577	0.568620	-0.000034
1827	1.8169e+02	1.8266	-2.905167	0.000368	3.684048	0.624095	-0.000037
1828	1.8179e+02	1.8180	-2.946716	0.000418	4.175254	0.707307	-0.000042
1829	1.8189e+02	1.8069	-2.976452	0.000299	2.988172	0.506210	-0.000030
1830	1.8199e+02	1.7971	-3.013520	0.000372	3.724982	0.631029	-0.000037
1831	1.8209e+02	1.7876	-3.050588	0.000372	3.724982	0.631029	-0.000037
1832	1.8218e+02	1.7779	-3.084398	0.000340	3.397511	0.575554	-0.000034
1833	1.8228e+02	1.7664	-3.125947	0.000418	4.175254	0.707307	-0.000042
1834	1.8238e+02	1.7570	-3.161386	0.000356	3.561246	0.603291	-0.000036
1835	1.8248e+02	1.7479	-3.200490	0.000393	3.929651	0.665701	-0.000039
1836	1.8258e+02	1.7410	-3.235115	0.000348	3.479379	0.589423	-0.000035
1837	1.8268e+02	1.7265	-3.270553	0.000356	3.561246	0.603291	-0.000036
1838	1.8278e+02	1.7152	-3.308844	0.000385	3.847783	0.651832	-0.000038
1839	1.8288e+02	1.7066	-3.341431	0.000327	3.274709	0.554751	-0.000033
1840	1.8298e+02	1.6979	-3.381351	0.000401	4.011519	0.679570	-0.000040
1841	1.8308e+02	1.6871	-3.414753	0.000336	3.356577	0.568620	-0.000034
1842	1.8318e+02	1.6791	-3.453450	0.000389	3.888717	0.658767	-0.000039
1843	1.8328e+02	1.6686	-3.488889	0.000356	3.561246	0.603291	-0.000036
1844	1.8338e+02	1.6561	-3.526364	0.000377	3.765916	0.637963	-0.000038
1845	1.8348e+02	1.6471	-3.560581	0.000344	3.438445	0.582488	-0.000034
1846	1.8358e+02	1.6380	-3.599686	0.000393	3.929651	0.665701	-0.000039
1847	1.8368e+02	1.6257	-3.639606	0.000401	4.011519	0.679570	-0.000040
1848	1.8378e+02	1.6170	-3.677489	0.000381	3.806850	0.644898	-0.000038
1849	1.8388e+02	1.6075	-3.715371	0.000381	3.806850	0.644898	-0.000038
1850	1.8398e+02	1.5984	-3.752032	0.000368	3.684048	0.624095	-0.000037
1851	1.8407e+02	1.5878	-3.789508	0.000377	3.765916	0.637963	-0.000038
1852	1.8417e+02	1.5771	-3.825761	0.000364	3.643114	0.617160	-0.000036
1853	1.8427e+02	1.5673	-3.866088	0.000405	4.052453	0.686504	-0.000041
1854	1.8437e+02	1.5574	-3.901120	0.000352	3.520313	0.596357	-0.000035
1855	1.8447e+02	1.5472	-3.940632	0.000397	3.970585	0.672635	-0.000040
1856	1.8457e+02	1.5350	-3.979329	0.000389	3.888717	0.658767	-0.000039
1857	1.8467e+02	1.5287	-4.012324	0.000332	3.315643	0.561685	-0.000033
1858	1.8477e+02	1.5163	-4.052651	0.000405	4.052453	0.686504	-0.000041
1859	1.8487e+02	1.5067	-4.092571	0.000401	4.011519	0.679570	-0.000040
1860	1.8497e+02	1.4985	-4.127602	0.000352	3.520313	0.596357	-0.000035
1861	1.8507e+02	1.4871	-4.167929	0.000405	4.052453	0.686504	-0.000041
1862	1.8517e+02	1.4772	-4.203775	0.000360	3.602180	0.610226	-0.000036
1863	1.8527e+02	1.4681	-4.241251	0.000377	3.765916	0.637963	-0.000038
1864	1.8537e+02	1.4594	-4.280763	0.000397	3.970585	0.672635	-0.000040
1865	1.8547e+02	1.4520	-4.319868	0.000393	3.929651	0.665701	-0.000039
1866	1.8557e+02	1.4345	-4.356936	0.000372	3.724982	0.631029	-0.000037
1867	1.8567e+02	1.4278	-4.395226	0.000385	3.847783	0.651832	-0.000038
1868	1.8577e+02	1.4187	-4.435146	0.000401	4.011519	0.679570	-0.000040
1869	1.8587e+02	1.4104	-4.471807	0.000368	3.684048	0.624095	-0.000037
1870	1.8597e+02	1.3978	-4.504801	0.000332	3.315643	0.561685	-0.000033
1871	1.8606e+02	1.3885	-4.540240	0.000356	3.561246	0.603291	-0.000036
1872	1.8616e+02	1.3788	-4.578530	0.000385	3.847783	0.651832	-0.000038
1873	1.8626e+02	1.3698	-4.610710	0.000323	3.233775	0.547816	-0.000032
1874	1.8636e+02	1.3566	-4.652667	0.000422	4.216188	0.714242	-0.000042
1875	1.8646e+02	1.3494	-4.688920	0.000364	3.643114	0.617160	-0.000036
1876	1.8656e+02	1.3368	-4.725988	0.000372	3.724982	0.631029	-0.000037
1877	1.8666e+02	1.3271	-4.764278	0.000385	3.847783	0.651832	-0.000038
1878	1.8676e+02	1.3180	-4.799310	0.000352	3.520313	0.596357	-0.000035
1879	1.8686e+02	1.3090	-4.838415	0.000393	3.929651	0.665701	-0.000039
1880	1.8696e+02	1.2979	-4.878334	0.000401	4.011519	0.679570	-0.000040
1881	1.8706e+02	1.2868	-4.915810	0.000377	3.765916	0.637963	-0.000038
1882	1.8716e+02	1.2780	-4.956544	0.000409	4.093387	0.693438	-0.000041
1883	1.8726e+02	1.2673	-4.996056	0.000397	3.970585	0.672635	-0.000040
1884	1.8736e+02	1.2572	-5.031495	0.000356	3.561246	0.603291	-0.000036
1885	1.8746e+02	1.2469	-5.070600	0.000393	3.929651	0.665701	-0.000039
1886	1.8756e+02	1.2395	-5.108890	0.000385	3.847783	0.651832	-0.000038
1887	1.8766e+02	1.2288	-5.147180	0.000385	3.847783	0.651832	-0.000038
1888	1.8776e+02	1.2189	-5.185878	0.000389	3.888717	0.658767	-0.000039
1889	1.8786e+02	1.2087	-5.225798	0.000401	4.011519	0.679570	-0.000040
1890	1.8796e+02	1.2022	-5.267347	0.000418	4.175254	0.707307	-0.000042
1891	1.8806e+02	1.1890	-5.306044	0.000389	3.888717	0.658767	-0.000039
1892	1.8815e+02	1.1810	-5.348000	0.000422	4.216188	0.714242	-0.000042
1893	1.8825e+02	1.1723	-5.386698	0.000389	3.888717	0.658767	-0.000039
1894	1.8835e+02	1.1594	-5.426210	0.000397	3.970585	0.672635	-0.000040
1895	1.8845e+02	1.1492	-5.471832	0.000458	4.584593	0.776651	-0.000046
1896	1.8855e+02	1.1385	-5.513381	0.000418	4.175254	0.707307	-0.000042
1897	1.8865e+02	1.1308	-5.551264	0.000381	3.806850	0.644898	-0.000038
1898	1.8875e+02	1.1193	-5.592406	0.000413	4.134321	0.700373	-0.000041
1899	1.8885e+02	1.1102	-5.632733	0.000405	4.052453	0.686504	-0.000041
1900	1.8895e+02	1.0996	-5.671838	0.000393	3.929651	0.665701	-0.000039
1901	1.8905e+02	1.0909	-5.712572	0.000409	4.093387	0.693438	-0.000041
1902	1.8915e+02	1.0777	-5.750455	0.000381	3.806850	0.644898	-0.000038
1903	1.8925e+02	1.0703	-5.789560	0.000393	3.929651	0.665701	-0.000039
1904	1.8935e+02	1.0625	-5.828665	0.000393	3.929651	0.665701	-0.000039
1905	1.8945e+02	1.0515	-5.871843	0.000434	4.338990	0.735045	-0.000043
1906	1.8955e+02	1.0410	-5.910948	0.000393	3.929651	0.665701	-0.000039
1907	1.8965e+02	1.0339	-5.947609	0.000368	3.684048	0.624095	-0.000037
1908	1.8975e+02	1.0220	-5.991194	0.000438	4.379924	0.741979	-0.000044
1909	1.8985e+02	1.0068	-6.028262	0.000372	3.724982	0.631029	-0.000037
1910	1.8995e+02	1.0020	-6.068589	0.000405	4.052453	0.686504	-0.000041
1911	1.9004e+02	0.9924	-6.107694	0.000393	3.929651	0.665701	-0.000039
1912	1.9014e+02	0.9830	-6.151687	0.000442	4.420858	0.748914	-0.000044
1913	1.9024e+02	0.9710	-6.187941	0.000364	3.643114	0.617160	-0.000036
1914	1.9034e+02	0.9598	-6.229897	0.000422	4.216188	0.714242	-0.000042
1915	1.9044e+02	0.9511	-6.265743	0.000360	3.602180	0.610226	-0.000036
1916	1.9054e+02	0.9417	-6.308107	0.000426	4.257122	0.721176	-0.000043
1917	1.9064e+02	0.9324	-6.350063	0.000422	4.216188	0.714242	-0.000042
1918	1.9074e+02	0.9237	-6.390390	0.000405	4.052453	0.686504	-0.000041
1919	1.9084e+02	0.9138	-6.429902	0.000397	3.970585	0.672635	-0.000040
1920	1.9094e+02	0.8973	-6.470229	0.000405	4.052453	0.686504	-0.000041
1921	1.9104e+02	0.8907	-6.510963	0.000409	4.093387	0.693438	-0.000041
1922	1.9114e+02	0.8839	-6.545587	0.000348	3.479379	0.589423	-0.000035
1923	1.9124e+02	0.8693	-6.592432	0.000471	4.707395	0.797454	-0.000047
1924	1.9134e+02	0.8615	-6.632351	0.000401	4.011519	0.679570	-0.000040
1925	1.9144e+02	0.8518	-6.673493	0.000413	4.134321	0.700373	-0.000041
1926	1.9154e+02	0.8434	-6.710561	0.000372	3.724982	0.631029	-0.000037
1927	1.9164e+02	0.8302	-6.754147	0.000438	4.379924	0.741979	-0.000044
1928	1.9174e+02	0.8218	-6.792437	0.000385	3.847783	0.651832	-0.000038
1929	1.9184e+02	0.8100	-6.835208	0.000430	4.298056	0.728110	-0.000043
1930	1.9194e+02	0.8027	-6.873498	0.000385	3.847783	0.651832	-0.000038
1931	1.9203e+02	0.7904	-6.916269	0.000430	4.298056	0.728110	-0.000043
1932	1.9213e+02	0.7805	-6.956189	0.000401	4.011519	0.679570	-0.000040
1933	1.9223e+02	0.7714	-6.996516	0.000405	4.052453	0.686504	-0.000041
1934	1.9233e+02	0.7600	-7.036843	0.000405	4.052453	0.686504	-0.000041
1935	1.9243e+02	0.7536	-7.077984	0.000413	4.134321	0.700373	-0.000041
1936	1.9253e+02	0.7422	-7.121570	0.000438	4.379924	0.741979	-0.000044
1937	1.9263e+02	0.7315	-7.157416	0.000360	3.602180	0.610226	-0.000036
1938	1.9273e+02	0.7214	-7.201409	0.000442	4.420858	0.748914	-0.000044
1939	1.9283e+02	0.7124	-7.237255	0.000360	3.602180	0.610226	-0.000036
1940	1.9293e+02	0.7041	-7.282063	0.000450	4.502725	0.762782	-0.000045
1941	1.9303e+02	0.6908	-7.323612	0.000418	4.175254	0.707307	-0.000042
1942	1.9313e+02	0.6818	-7.361087	0.000377	3.765916	0.637963	-0.000038
1943	1.9323e+02	0.6722	-7.403858	0.000430	4.298056	0.728110	-0.000043
1944	1.9333e+02	0.6622	-7.442148	0.000385	3.847783	0.651832	-0.000038
1945	1.9343e+02	0.6542	-7.488585	0.000467	4.666461	0.790520	-0.000047
1946	1.9353e+02	0.6435	-7.523617	0.000352	3.520313	0.596357	-0.000035
1947	1.9363e+02	0.6322	-7.567203	0.000438	4.379924	0.741979	-0.000044
1948	1.9373e+02	0.6192	-7.607529	0.000405	4.052453	0.686504	-0.000041
1949	1.9383e+02	0.6107	-7.650300	0.000430	4.298056	0.728110	-0.000043
1950	1.9393e+02	0.6036	-7.688183	0.000381	3.806850	0.644898	-0.000038
1951	1.9403e+02	0.5938	-7.730954	0.000430	4.298056	0.728110	-0.000043
1952	1.9412e+02	0.5833	-7.770874	0.000401	4.011519	0.679570	-0.000040
1953	1.9422e+02	0.5719	-7.813237	0.000426	4.257122	0.721176	-0.000043
1954	1.9432e+02	0.5624	-7.858453	0.000454	4.543659	0.769717	-0.000045
1955	1.9442e+02	0.5527	-7.900409	0.000422	4.216188	0.714242	-0.000042
1956	1.9452e+02	0.5409	-7.940736	0.000405	4.052453	0.686504	-0.000041
1957	1.9462e+02	0.5367	-7.990024	0.000495	4.952998	0.839061	-0.000050
1958	1.9472e+02	0.5244	-8.031980	0.000422	4.216188	0.714242	-0.000042
1959	1.9482e+02	0.5173	-8.071085	0.000393	3.929651	0.665701	-0.000039
1960	1.9492e+02	0.5007	-8.116300	0.000454	4.543659	0.769717	-0.000045
1961	1.9502e+02	0.4947	-8.153369	0.000372	3.724982	0.631029	-0.000037
1962	1.9512e+02	0.4839	-8.201435	0.000483	4.830196	0.818257	-0.000048
1963	1.9522e+02	0.4747	-8.241355	0.000401	4.011519	0.679570	-0.000040
1964	1.9532e+02	0.4645	-8.281681	0.000405	4.052453	0.686504	-0.000041
1965	1.9542e+02	0.4573	-8.319564	0.000381	3.806850	0.644898	-0.000038
1966	1.9552e+02	0.4426	-8.363557	0.000442	4.420858	0.748914	-0.000044
1967	1.9562e+02	0.4314	-8.403477	0.000401	4.011519	0.679570	-0.000040
1968	1.9572e+02	0.4235	-8.446248	0.000430	4.298056	0.728110	-0.000043
1969	1.9582e+02	0.4134	-8.491463	0.000454	4.543659	0.769717	-0.000045
1970	1.9592e+02	0.4041	-8.530975	0.000397	3.970585	0.672635	-0.000040
1971	1.9601e+02	0.3941	-8.571302	0.000405	4.052453	0.686504	-0.000041
1972	1.9611e+02	0.3832	-8.612444	0.000413	4.134321	0.700373	-0.000041
1973	1.9621e+02	0.3748	-8.655215	0.000430	4.298056	0.728110	-0.000043
1974	1.9631e+02	0.3629	-8.695541	0.000405	4.052453	0.686504	-0.000041
1975	1.9641e+02	0.3527	-8.735461	0.000401	4.011519	0.679570	-0.000040
1976	1.9651e+02	0.3434	-8.771715	0.000364	3.643114	0.617160	-0.000036
1977	1.9661e+02	0.3321	-8.813263	0.000418	4.175254	0.707307	-0.000042
1978	1.9671e+02	0.3249	-8.854812	0.000418	4.175254	0.707307	-0.000042
1979	1.9681e+02	0.3158	-8.895139	0.000405	4.052453	0.686504	-0.000041
1980	1.9691e+02	0.3036	-8.938318	0.000434	4.338990	0.735045	-0.000043
1981	1.9701e+02	0.2959	-8.974164	0.000360	3.602180	0.610226	-0.000036
1982	1.9711e+02	0.2848	-9.015713	0.000418	4.175254	0.707307	-0.000042
1983	1.9721e+02	0.2750	-9.059298	0.000438	4.379924	0.741979	-0.000044
1984	1.9731e+02	0.2650	-9.103291	0.000442	4.420858	0.748914	-0.000044
1985	1.9741e+02	0.2541	-9.140767	0.000377	3.765916	0.637963	-0.000038
1986	1.9751e+02	0.2460	-9.181908	0.000413	4.134321	0.700373	-0.000041
1987	1.9761e+02	0.2367	-9.225087	0.000434	4.338990	0.735045	-0.000043
1988	1.9771e+02	0.2224	-9.265006	0.000401	4.011519	0.679570	-0.000040
1989	1.9781e+02	0.2137	-9.307777	0.000430	4.298056	0.728110	-0.000043
1990	1.9791e+02	0.2053	-9.352178	0.000446	4.461791	0.755848	-0.000045
1991	1.9800e+02	0.1956	-9.392505	0.000405	4.052453	0.686504	-0.000041
1992	1.9810e+02	0.1837	-9.435683	0.000434	4.338990	0.735045	-0.000043
1993	1.9820e+02	0.1730	-9.481713	0.000463	4.625527	0.783585	-0.000046
1994	1.9830e+02	0.1638	-9.520410	0.000389	3.888717	0.658767	-0.000039
1995	1.9840e+02	0.1547	-9.562774	0.000426	4.257122	0.721176	-0.000043
1996	1.9850e+02	0.1466	-9.604730	0.000422	4.216188	0.714242	-0.000042
1997	1.9860e+02	0.1351	-9.647908	0.000434	4.338990	0.735045	-0.000043
1998	1.9870e+02	0.1246	-9.692309	0.000446	4.461791	0.755848	-0.000045
1999	1.9880e+02	0.1162	-9.728562	0.000364	3.643114	0.617160	-0.000036
2000	1.9890e+02	0.1074	-9.776221	0.000479	4.789262	0.811323	-0.000048
2001	1.9900e+02	0.0955	-9.818585	0.000426	4.257122	0.721176	-0.000043
2002	1.9910e+02	0.0836	-9.860541	0.000422	4.216188	0.714242	-0.000042
2003	1.9920e+02	0.0733	-9.902090	0.000418	4.175254	0.707307	-0.000042
2004	1.9930e+02	0.0668	-9.948120	0.000463	4.625527	0.783585	-0.000046
2005	1.9940e+02	0.0560	-9.987225	0.000393	3.929651	0.665701	-0.000039
2006	1.9950e+02	0.0459	-10.027552	0.000405	4.052453	0.686504	-0.000041
2007	1.9960e+02	0.0391	-10.073989	0.000467	4.666461	0.790520	-0.000047
2008	1.9970e+02	0.0235	-10.118389	0.000446	4.461791	0.755848	-0.000045
2009	1.9980e+02	0.0155	-10.150976	0.000327	3.274709	0.554751	-0.000033
2010	1.9990e+02	0.0040	-10.196191	0.000454	4.543659	0.769717	-0.000045
2011	2.0000e+02	-0.0043	-10.244258	0.000454	4.543659	0.769717	-0.000048

PMax (uC/cm2):	3.36e+01
Pr (uC/cm2):	6.62e+00
-Pr (uC/cm2):	0.00e+00
PLoss (uC/cm2):	0.00e+00
C (Max-Eff) (nF):	3.36e-01
K (Eff):	5.70e+02
Vert. (+/-Pr) Shift (uC/cm2):	3.31e+00
Offset (uC/cm2):	1.69e+01

A (Loop Area - uC/cm2·Volts):	-6.40e-02



Hysteresis Version: 5.48.1 - Radiant Technologies, Inc., 1999 - 9/12/24

