»»»»»»»»»»»»»»»»»»»»»»»»»»»»»»»»»»»» Hysteresis ««««««««««««««««««««««««««««««««««««
»»»  Executed Version:	5.48.1
»»»  Vision Version:	5.48.4 (R)
»»»  Vision Compiled:	9/18/24
»»»  Driver Version:	5.47.0
»»»  Windows Version:	Windows 8 or 8.1
»»»  Processor Information:	x86 (AMD or Intel) - 32 Processors
»»»  Tester Name:	PMF21124-494 (100V)
»»»  Tester S/N:	PMF21124-494
»»»  Internal Amp Type:	100V RevK 270k
»»»  Internal Amp S/N:	iAB2-596/K     
»»»  Execution Count:	1
»»»»»»»»»»»»»»»»»»»»»»»»»»»»»»»»»»»»»»»»»»««««««««««««««««««««««««««««««««««««««««««

Stored:	6/25/2025 - 14:10:44
Configured:	06/25/25 10:44:40 AM
Executed:	06/25/25 02:10:04 PM

»»»»»»»»»»»»»»»»»»»»»»»»»»»»»»»»»»» Sample Info ««««««««««««««««««««««««««««««««««««
Sample Name:	
Lot Name:	
Wafer Name:	
Die Row/Column:	0/0
Capacitor Number:	0
Sample Area (cm2):	1.00e-04
Sample Thickness (microns):	1.50e-01

Amplifier:	Internal

»»»»»»»»»»»»»»»»»»»»»»»»»»»»»»»»»»» Tester Info «««««««««««««««««««««««««««««««««««
Tester Name:	PMF21124-494 (100V)
Tester Serial Number:	PMF21124-494
Return Signal Amp. Level:	1.9 [Index: 2]

»»»»»»»»»»»»»»»»»»»»»»»»»»»»»»»» Hysteresis Info ««««««««««««««««««««««««««««««««««
Task Name:	Hyst-116
Volts:	10.00
Field:	666.67 (kV/cm)
DCBias:	0.00
DCField:	0.00 (kV/cm)
Hysteresis Period (ms):	2.00e+02
Preset:	Enabled
Preset Delay (ms):	1.00e+03
Profile:	Standard Monopolar

»»»»»»»»»»»»»»»»»»»»»»»»»»»»»»»»»»»»»» Data «««««««««««««««««««««««««««««««««««««««
Points:	2011

Valid Data

Point	Time (ms)	Drive Voltage	Measured Polarization (uC/cm2)	Capacitance (uF)	Normalized Capacitance (uF/cm2)	Dielectric Constant	Instantaneous Current (mA)
   1	0.0000e+00	-0.0014	-14.980226	0.000389	3.890602	0.659086	0.000039
   2	9.9500e-02	0.0052	-14.941528	0.000389	3.890602	0.659086	0.000039
   3	1.9900e-01	0.0153	-14.900794	0.000410	4.095371	0.693775	0.000041
   4	2.9850e-01	0.0249	-14.865763	0.000352	3.522019	0.596646	0.000035
   5	3.9800e-01	0.0375	-14.830324	0.000356	3.562972	0.603584	0.000036
   6	4.9750e-01	0.0452	-14.792441	0.000381	3.808695	0.645210	0.000038
   7	5.9700e-01	0.0549	-14.753336	0.000393	3.931556	0.666024	0.000039
   8	6.9650e-01	0.0639	-14.715861	0.000377	3.767741	0.638273	0.000038
   9	7.9600e-01	0.0748	-14.682459	0.000336	3.358204	0.568895	0.000034
  10	8.9550e-01	0.0851	-14.639280	0.000434	4.341093	0.735401	0.000043
  11	9.9500e-01	0.0943	-14.600175	0.000393	3.931556	0.666024	0.000039
  12	1.0945e+00	0.1046	-14.568403	0.000319	3.194389	0.541144	0.000032
  13	1.1940e+00	0.1159	-14.523188	0.000455	4.545861	0.770090	0.000045
  14	1.2935e+00	0.1238	-14.490600	0.000328	3.276296	0.555020	0.000033
  15	1.3930e+00	0.1373	-14.454347	0.000364	3.644880	0.617459	0.000036
  16	1.4925e+00	0.1455	-14.413613	0.000410	4.095371	0.693775	0.000041
  17	1.5920e+00	0.1537	-14.374508	0.000393	3.931556	0.666024	0.000039
  18	1.6915e+00	0.1640	-14.334995	0.000397	3.972509	0.672961	0.000040
  19	1.7910e+00	0.1743	-14.298742	0.000364	3.644880	0.617459	0.000036
  20	1.8905e+00	0.1843	-14.263303	0.000356	3.562972	0.603584	0.000036
  21	1.9900e+00	0.1929	-14.220125	0.000434	4.341093	0.735401	0.000043
  22	2.0895e+00	0.2039	-14.183057	0.000373	3.726787	0.631335	0.000037
  23	2.1890e+00	0.2152	-14.146803	0.000364	3.644880	0.617459	0.000036
  24	2.2885e+00	0.2253	-14.108920	0.000381	3.808695	0.645210	0.000038
  25	2.3880e+00	0.2364	-14.068186	0.000410	4.095371	0.693775	0.000041
  26	2.4875e+00	0.2456	-14.031525	0.000369	3.685833	0.624397	0.000037
  27	2.5870e+00	0.2553	-13.992420	0.000393	3.931556	0.666024	0.000039
  28	2.6865e+00	0.2625	-13.954537	0.000381	3.808695	0.645210	0.000038
  29	2.7860e+00	0.2746	-13.917877	0.000369	3.685833	0.624397	0.000037
  30	2.8855e+00	0.2836	-13.881623	0.000364	3.644880	0.617459	0.000036
  31	2.9850e+00	0.2911	-13.840889	0.000410	4.095371	0.693775	0.000041
  32	3.0845e+00	0.3068	-13.803006	0.000381	3.808695	0.645210	0.000038
  33	3.1840e+00	0.3133	-13.764308	0.000389	3.890602	0.659086	0.000039
  34	3.2835e+00	0.3242	-13.726833	0.000377	3.767741	0.638273	0.000038
  35	3.3830e+00	0.3342	-13.685691	0.000414	4.136324	0.700712	0.000041
  36	3.4825e+00	0.3416	-13.645772	0.000401	4.013463	0.679899	0.000040
  37	3.5820e+00	0.3523	-13.611962	0.000340	3.399158	0.575833	0.000034
  38	3.6815e+00	0.3642	-13.570821	0.000414	4.136324	0.700712	0.000041
  39	3.7810e+00	0.3737	-13.533753	0.000373	3.726787	0.631335	0.000037
  40	3.8805e+00	0.3836	-13.493833	0.000401	4.013463	0.679899	0.000040
  41	3.9800e+00	0.3928	-13.451469	0.000426	4.259185	0.721526	0.000043
  42	4.0795e+00	0.4026	-13.411142	0.000405	4.054417	0.686837	0.000041
  43	4.1790e+00	0.4160	-13.372038	0.000393	3.931556	0.666024	0.000039
  44	4.2785e+00	0.4235	-13.334155	0.000381	3.808695	0.645210	0.000038
  45	4.3780e+00	0.4347	-13.291384	0.000430	4.300139	0.728463	0.000043
  46	4.4775e+00	0.4454	-13.255130	0.000364	3.644880	0.617459	0.000036
  47	4.5770e+00	0.4514	-13.212359	0.000430	4.300139	0.728463	0.000043
  48	4.6765e+00	0.4613	-13.172032	0.000405	4.054417	0.686837	0.000041
  49	4.7760e+00	0.4736	-13.130483	0.000418	4.177278	0.707650	0.000042
  50	4.8755e+00	0.4855	-13.091786	0.000389	3.890602	0.659086	0.000039
  51	4.9750e+00	0.4944	-13.044942	0.000471	4.709676	0.797841	0.000047
  52	5.0745e+00	0.5029	-13.005429	0.000397	3.972509	0.672961	0.000040
  53	5.1740e+00	0.5105	-12.965102	0.000405	4.054417	0.686837	0.000041
  54	5.2735e+00	0.5243	-12.924775	0.000405	4.054417	0.686837	0.000041
  55	5.3730e+00	0.5306	-12.884856	0.000401	4.013463	0.679899	0.000040
  56	5.4725e+00	0.5420	-12.844936	0.000401	4.013463	0.679899	0.000040
  57	5.5720e+00	0.5545	-12.804202	0.000410	4.095371	0.693775	0.000041
  58	5.6715e+00	0.5641	-12.767541	0.000369	3.685833	0.624397	0.000037
  59	5.7710e+00	0.5741	-12.723141	0.000446	4.463954	0.756214	0.000045
  60	5.8705e+00	0.5829	-12.688109	0.000352	3.522019	0.596646	0.000035
  61	5.9700e+00	0.5930	-12.643302	0.000450	4.504908	0.763152	0.000045
  62	6.0695e+00	0.6020	-12.606234	0.000373	3.726787	0.631335	0.000037
  63	6.1690e+00	0.6113	-12.566314	0.000401	4.013463	0.679899	0.000040
  64	6.2685e+00	0.6216	-12.530061	0.000364	3.644880	0.617459	0.000036
  65	6.3680e+00	0.6326	-12.489734	0.000405	4.054417	0.686837	0.000041
  66	6.4675e+00	0.6440	-12.450221	0.000397	3.972509	0.672961	0.000040
  67	6.5670e+00	0.6519	-12.414375	0.000360	3.603926	0.610522	0.000036
  68	6.6665e+00	0.6636	-12.375678	0.000389	3.890602	0.659086	0.000039
  69	6.7660e+00	0.6721	-12.339017	0.000369	3.685833	0.624397	0.000037
  70	6.8655e+00	0.6811	-12.306022	0.000332	3.317250	0.561957	0.000033
  71	6.9650e+00	0.6917	-12.264881	0.000414	4.136324	0.700712	0.000041
  72	7.0645e+00	0.7033	-12.229034	0.000360	3.603926	0.610522	0.000036
  73	7.1640e+00	0.7130	-12.190337	0.000389	3.890602	0.659086	0.000039
  74	7.2635e+00	0.7235	-12.157342	0.000332	3.317250	0.561957	0.000033
  75	7.3630e+00	0.7330	-12.115793	0.000418	4.177278	0.707650	0.000042
  76	7.4625e+00	0.7426	-12.081984	0.000340	3.399158	0.575833	0.000034
  77	7.5620e+00	0.7522	-12.042879	0.000393	3.931556	0.666024	0.000039
  78	7.6615e+00	0.7623	-12.009884	0.000332	3.317250	0.561957	0.000033
  79	7.7610e+00	0.7720	-11.970779	0.000393	3.931556	0.666024	0.000039
  80	7.8605e+00	0.7842	-11.933304	0.000377	3.767741	0.638273	0.000038
  81	7.9600e+00	0.7917	-11.903160	0.000303	3.030574	0.513393	0.000030
  82	8.0595e+00	0.8028	-11.860389	0.000430	4.300139	0.728463	0.000043
  83	8.1590e+00	0.8144	-11.824136	0.000364	3.644880	0.617459	0.000036
  84	8.2585e+00	0.8211	-11.790326	0.000340	3.399158	0.575833	0.000034
  85	8.3580e+00	0.8297	-11.751629	0.000389	3.890602	0.659086	0.000039
  86	8.4575e+00	0.8416	-11.719856	0.000319	3.194389	0.541144	0.000032
  87	8.5570e+00	0.8546	-11.681159	0.000389	3.890602	0.659086	0.000039
  88	8.6565e+00	0.8633	-11.644091	0.000373	3.726787	0.631335	0.000037
  89	8.7560e+00	0.8760	-11.611096	0.000332	3.317250	0.561957	0.000033
  90	8.8555e+00	0.8813	-11.574842	0.000364	3.644880	0.617459	0.000036
  91	8.9550e+00	0.8923	-11.536959	0.000381	3.808695	0.645210	0.000038
  92	9.0545e+00	0.9002	-11.502335	0.000348	3.481065	0.589708	0.000035
  93	9.1540e+00	0.9135	-11.465267	0.000373	3.726787	0.631335	0.000037
  94	9.2535e+00	0.9203	-11.431458	0.000340	3.399158	0.575833	0.000034
  95	9.3530e+00	0.9316	-11.398463	0.000332	3.317250	0.561957	0.000033
  96	9.4525e+00	0.9411	-11.362617	0.000360	3.603926	0.610522	0.000036
  97	9.5520e+00	0.9505	-11.322697	0.000401	4.013463	0.679899	0.000040
  98	9.6515e+00	0.9615	-11.291739	0.000311	3.112482	0.527269	0.000031
  99	9.7510e+00	0.9713	-11.257930	0.000340	3.399158	0.575833	0.000034
 100	9.8505e+00	0.9805	-11.220047	0.000381	3.808695	0.645210	0.000038
 101	9.9500e+00	0.9919	-11.185015	0.000352	3.522019	0.596646	0.000035
 102	1.0050e+01	1.0010	-11.151206	0.000340	3.399158	0.575833	0.000034
 103	1.0149e+01	1.0124	-11.110472	0.000410	4.095371	0.693775	0.000041
 104	1.0248e+01	1.0213	-11.079514	0.000311	3.112482	0.527269	0.000031
 105	1.0348e+01	1.0284	-11.044890	0.000348	3.481065	0.589708	0.000035
 106	1.0447e+01	1.0395	-11.012302	0.000328	3.276296	0.555020	0.000033
 107	1.0547e+01	1.0501	-10.975641	0.000369	3.685833	0.624397	0.000037
 108	1.0646e+01	1.0580	-10.941017	0.000348	3.481065	0.589708	0.000035
 109	1.0746e+01	1.0719	-10.907208	0.000340	3.399158	0.575833	0.000034
 110	1.0845e+01	1.0797	-10.870954	0.000364	3.644880	0.617459	0.000036
 111	1.0945e+01	1.0953	-10.834701	0.000364	3.644880	0.617459	0.000036
 112	1.1044e+01	1.1012	-10.802928	0.000319	3.194389	0.541144	0.000032
 113	1.1144e+01	1.1112	-10.765453	0.000377	3.767741	0.638273	0.000038
 114	1.1243e+01	1.1190	-10.733680	0.000319	3.194389	0.541144	0.000032
 115	1.1343e+01	1.1288	-10.696612	0.000373	3.726787	0.631335	0.000037
 116	1.1443e+01	1.1413	-10.661580	0.000352	3.522019	0.596646	0.000035
 117	1.1542e+01	1.1494	-10.628993	0.000328	3.276296	0.555020	0.000033
 118	1.1642e+01	1.1575	-10.591110	0.000381	3.808695	0.645210	0.000038
 119	1.1741e+01	1.1692	-10.556486	0.000348	3.481065	0.589708	0.000035
 120	1.1841e+01	1.1803	-10.524306	0.000324	3.235343	0.548082	0.000032
 121	1.1940e+01	1.1900	-10.488460	0.000360	3.603926	0.610522	0.000036
 122	1.2040e+01	1.2021	-10.457094	0.000315	3.153435	0.534206	0.000032
 123	1.2139e+01	1.2121	-10.422470	0.000348	3.481065	0.589708	0.000035
 124	1.2239e+01	1.2194	-10.390697	0.000319	3.194389	0.541144	0.000032
 125	1.2338e+01	1.2315	-10.356888	0.000340	3.399158	0.575833	0.000034
 126	1.2438e+01	1.2403	-10.321857	0.000352	3.522019	0.596646	0.000035
 127	1.2537e+01	1.2492	-10.288862	0.000332	3.317250	0.561957	0.000033
 128	1.2636e+01	1.2587	-10.261570	0.000274	2.743898	0.464829	0.000027
 129	1.2736e+01	1.2692	-10.229797	0.000319	3.194389	0.541144	0.000032
 130	1.2835e+01	1.2784	-10.191507	0.000385	3.849648	0.652148	0.000038
 131	1.2935e+01	1.2890	-10.159327	0.000324	3.235343	0.548082	0.000032
 132	1.3034e+01	1.2989	-10.128776	0.000307	3.071528	0.520331	0.000031
 133	1.3134e+01	1.3101	-10.103114	0.000258	2.580083	0.437078	0.000026
 134	1.3233e+01	1.3175	-10.065638	0.000377	3.767741	0.638273	0.000038
 135	1.3333e+01	1.3278	-10.030607	0.000352	3.522019	0.596646	0.000035
 136	1.3432e+01	1.3393	-10.000871	0.000299	2.989620	0.506455	0.000030
 137	1.3532e+01	1.3496	-9.970727	0.000303	3.030574	0.513393	0.000030
 138	1.3632e+01	1.3571	-9.940177	0.000307	3.071528	0.520331	0.000031
 139	1.3731e+01	1.3699	-9.910848	0.000295	2.948667	0.499518	0.000029
 140	1.3831e+01	1.3782	-9.873780	0.000373	3.726787	0.631335	0.000037
 141	1.3930e+01	1.3877	-9.843229	0.000307	3.071528	0.520331	0.000031
 142	1.4030e+01	1.4014	-9.815122	0.000283	2.825806	0.478704	0.000028
 143	1.4129e+01	1.4079	-9.778869	0.000364	3.644880	0.617459	0.000036
 144	1.4229e+01	1.4177	-9.745060	0.000340	3.399158	0.575833	0.000034
 145	1.4328e+01	1.4279	-9.711250	0.000340	3.399158	0.575833	0.000034
 146	1.4428e+01	1.4372	-9.679070	0.000324	3.235343	0.548082	0.000032
 147	1.4527e+01	1.4508	-9.647705	0.000315	3.153435	0.534206	0.000032
 148	1.4627e+01	1.4600	-9.611451	0.000364	3.644880	0.617459	0.000036
 149	1.4726e+01	1.4687	-9.583345	0.000283	2.825806	0.478704	0.000028
 150	1.4825e+01	1.4809	-9.546684	0.000369	3.685833	0.624397	0.000037
 151	1.4925e+01	1.4895	-9.512467	0.000344	3.440111	0.582771	0.000034
 152	1.5024e+01	1.4986	-9.477843	0.000348	3.481065	0.589708	0.000035
 153	1.5124e+01	1.5066	-9.442404	0.000356	3.562972	0.603584	0.000036
 154	1.5223e+01	1.5170	-9.411853	0.000307	3.071528	0.520331	0.000031
 155	1.5323e+01	1.5276	-9.372748	0.000393	3.931556	0.666024	0.000039
 156	1.5422e+01	1.5359	-9.341790	0.000311	3.112482	0.527269	0.000031
 157	1.5522e+01	1.5467	-9.303500	0.000385	3.849648	0.652148	0.000038
 158	1.5621e+01	1.5579	-9.266839	0.000369	3.685833	0.624397	0.000037
 159	1.5721e+01	1.5667	-9.233030	0.000340	3.399158	0.575833	0.000034
 160	1.5820e+01	1.5786	-9.198406	0.000348	3.481065	0.589708	0.000035
 161	1.5920e+01	1.5878	-9.164596	0.000340	3.399158	0.575833	0.000034
 162	1.6020e+01	1.5963	-9.123455	0.000414	4.136324	0.700712	0.000041
 163	1.6119e+01	1.6075	-9.090460	0.000332	3.317250	0.561957	0.000033
 164	1.6218e+01	1.6180	-9.062353	0.000283	2.825806	0.478704	0.000028
 165	1.6318e+01	1.6248	-9.019175	0.000434	4.341093	0.735401	0.000043
 166	1.6418e+01	1.6360	-8.985773	0.000336	3.358204	0.568895	0.000034
 167	1.6517e+01	1.6474	-8.950334	0.000356	3.562972	0.603584	0.000036
 168	1.6616e+01	1.6607	-8.914488	0.000360	3.603926	0.610522	0.000036
 169	1.6716e+01	1.6674	-8.881901	0.000328	3.276296	0.555020	0.000033
 170	1.6816e+01	1.6766	-8.846055	0.000360	3.603926	0.610522	0.000036
 171	1.6915e+01	1.6904	-8.809801	0.000364	3.644880	0.617459	0.000036
 172	1.7015e+01	1.6989	-8.775992	0.000340	3.399158	0.575833	0.000034
 173	1.7114e+01	1.7085	-8.737701	0.000385	3.849648	0.652148	0.000038
 174	1.7213e+01	1.7160	-8.703485	0.000344	3.440111	0.582771	0.000034
 175	1.7313e+01	1.7267	-8.670490	0.000332	3.317250	0.561957	0.000033
 176	1.7413e+01	1.7366	-8.629756	0.000410	4.095371	0.693775	0.000041
 177	1.7512e+01	1.7480	-8.596761	0.000332	3.317250	0.561957	0.000033
 178	1.7611e+01	1.7574	-8.559693	0.000373	3.726787	0.631335	0.000037
 179	1.7711e+01	1.7691	-8.525476	0.000344	3.440111	0.582771	0.000034
 180	1.7811e+01	1.7764	-8.488815	0.000369	3.685833	0.624397	0.000037
 181	1.7910e+01	1.7884	-8.452969	0.000360	3.603926	0.610522	0.000036
 182	1.8009e+01	1.7982	-8.418752	0.000344	3.440111	0.582771	0.000034
 183	1.8109e+01	1.8085	-8.380869	0.000381	3.808695	0.645210	0.000038
 184	1.8209e+01	1.8166	-8.342172	0.000389	3.890602	0.659086	0.000039
 185	1.8308e+01	1.8243	-8.308770	0.000336	3.358204	0.568895	0.000034
 186	1.8407e+01	1.8379	-8.275368	0.000336	3.358204	0.568895	0.000034
 187	1.8507e+01	1.8449	-8.239521	0.000360	3.603926	0.610522	0.000036
 188	1.8607e+01	1.8565	-8.203268	0.000364	3.644880	0.617459	0.000036
 189	1.8706e+01	1.8674	-8.164978	0.000385	3.849648	0.652148	0.000038
 190	1.8805e+01	1.8739	-8.130761	0.000344	3.440111	0.582771	0.000034
 191	1.8905e+01	1.8860	-8.092471	0.000385	3.849648	0.652148	0.000038
 192	1.9005e+01	1.8961	-8.057439	0.000352	3.522019	0.596646	0.000035
 193	1.9104e+01	1.9054	-8.025259	0.000324	3.235343	0.548082	0.000032
 194	1.9203e+01	1.9160	-7.986562	0.000389	3.890602	0.659086	0.000039
 195	1.9303e+01	1.9263	-7.951938	0.000348	3.481065	0.589708	0.000035
 196	1.9402e+01	1.9357	-7.915277	0.000369	3.685833	0.624397	0.000037
 197	1.9502e+01	1.9447	-7.878616	0.000369	3.685833	0.624397	0.000037
 198	1.9602e+01	1.9559	-7.845621	0.000332	3.317250	0.561957	0.000033
 199	1.9701e+01	1.9640	-7.809368	0.000364	3.644880	0.617459	0.000036
 200	1.9800e+01	1.9759	-7.773929	0.000356	3.562972	0.603584	0.000036
 201	1.9900e+01	1.9886	-7.739305	0.000348	3.481065	0.589708	0.000035
 202	2.0000e+01	1.9970	-7.703051	0.000364	3.644880	0.617459	0.000036
 203	2.0099e+01	2.0046	-7.665168	0.000381	3.808695	0.645210	0.000038
 204	2.0198e+01	2.0171	-7.629322	0.000360	3.603926	0.610522	0.000036
 205	2.0298e+01	2.0263	-7.595920	0.000336	3.358204	0.568895	0.000034
 206	2.0398e+01	2.0385	-7.562518	0.000336	3.358204	0.568895	0.000034
 207	2.0497e+01	2.0484	-7.525043	0.000377	3.767741	0.638273	0.000038
 208	2.0596e+01	2.0548	-7.485123	0.000401	4.013463	0.679899	0.000040
 209	2.0696e+01	2.0662	-7.448462	0.000369	3.685833	0.624397	0.000037
 210	2.0796e+01	2.0757	-7.408543	0.000401	4.013463	0.679899	0.000040
 211	2.0895e+01	2.0905	-7.372289	0.000364	3.644880	0.617459	0.000036
 212	2.0994e+01	2.0948	-7.336443	0.000360	3.603926	0.610522	0.000036
 213	2.1094e+01	2.1044	-7.300597	0.000360	3.603926	0.610522	0.000036
 214	2.1194e+01	2.1136	-7.263936	0.000369	3.685833	0.624397	0.000037
 215	2.1293e+01	2.1227	-7.227275	0.000369	3.685833	0.624397	0.000037
 216	2.1392e+01	2.1342	-7.189392	0.000381	3.808695	0.645210	0.000038
 217	2.1492e+01	2.1476	-7.147843	0.000418	4.177278	0.707650	0.000042
 218	2.1591e+01	2.1559	-7.109961	0.000381	3.808695	0.645210	0.000038
 219	2.1691e+01	2.1651	-7.074522	0.000356	3.562972	0.603584	0.000036
 220	2.1791e+01	2.1735	-7.031751	0.000430	4.300139	0.728463	0.000043
 221	2.1890e+01	2.1847	-6.997534	0.000344	3.440111	0.582771	0.000034
 222	2.1989e+01	2.1957	-6.961688	0.000360	3.603926	0.610522	0.000036
 223	2.2089e+01	2.2045	-6.922583	0.000393	3.931556	0.666024	0.000039
 224	2.2189e+01	2.2144	-6.886737	0.000360	3.603926	0.610522	0.000036
 225	2.2288e+01	2.2243	-6.847225	0.000397	3.972509	0.672961	0.000040
 226	2.2387e+01	2.2363	-6.816267	0.000311	3.112482	0.527269	0.000031
 227	2.2487e+01	2.2438	-6.777569	0.000389	3.890602	0.659086	0.000039
 228	2.2587e+01	2.2538	-6.738057	0.000397	3.972509	0.672961	0.000040
 229	2.2686e+01	2.2614	-6.700581	0.000377	3.767741	0.638273	0.000038
 230	2.2785e+01	2.2752	-6.667587	0.000332	3.317250	0.561957	0.000033
 231	2.2885e+01	2.2849	-6.628482	0.000393	3.931556	0.666024	0.000039
 232	2.2985e+01	2.2947	-6.594265	0.000344	3.440111	0.582771	0.000034
 233	2.3084e+01	2.3033	-6.561677	0.000328	3.276296	0.555020	0.000033
 234	2.3183e+01	2.3140	-6.525017	0.000369	3.685833	0.624397	0.000037
 235	2.3283e+01	2.3250	-6.489985	0.000352	3.522019	0.596646	0.000035
 236	2.3383e+01	2.3322	-6.456990	0.000332	3.317250	0.561957	0.000033
 237	2.3482e+01	2.3486	-6.423181	0.000340	3.399158	0.575833	0.000034
 238	2.3581e+01	2.3547	-6.389372	0.000340	3.399158	0.575833	0.000034
 239	2.3681e+01	2.3634	-6.356784	0.000328	3.276296	0.555020	0.000033
 240	2.3780e+01	2.3730	-6.321345	0.000356	3.562972	0.603584	0.000036
 241	2.3880e+01	2.3837	-6.287129	0.000344	3.440111	0.582771	0.000034
 242	2.3980e+01	2.3941	-6.253727	0.000336	3.358204	0.568895	0.000034
 243	2.4079e+01	2.4050	-6.220324	0.000336	3.358204	0.568895	0.000034
 244	2.4178e+01	2.4135	-6.190996	0.000295	2.948667	0.499518	0.000029
 245	2.4278e+01	2.4238	-6.153928	0.000373	3.726787	0.631335	0.000037
 246	2.4378e+01	2.4347	-6.123377	0.000307	3.071528	0.520331	0.000031
 247	2.4477e+01	2.4444	-6.087531	0.000360	3.603926	0.610522	0.000036
 248	2.4576e+01	2.4560	-6.054129	0.000336	3.358204	0.568895	0.000034
 249	2.4676e+01	2.4644	-6.020727	0.000336	3.358204	0.568895	0.000034
 250	2.4776e+01	2.4757	-5.988547	0.000324	3.235343	0.548082	0.000032
 251	2.4875e+01	2.4845	-5.954737	0.000340	3.399158	0.575833	0.000034
 252	2.4974e+01	2.4931	-5.922557	0.000324	3.235343	0.548082	0.000032
 253	2.5074e+01	2.5043	-5.888748	0.000340	3.399158	0.575833	0.000034
 254	2.5174e+01	2.5153	-5.859012	0.000299	2.989620	0.506455	0.000030
 255	2.5273e+01	2.5234	-5.827239	0.000319	3.194389	0.541144	0.000032
 256	2.5372e+01	2.5330	-5.795466	0.000319	3.194389	0.541144	0.000032
 257	2.5472e+01	2.5437	-5.760435	0.000352	3.522019	0.596646	0.000035
 258	2.5572e+01	2.5517	-5.728662	0.000319	3.194389	0.541144	0.000032
 259	2.5671e+01	2.5661	-5.699333	0.000295	2.948667	0.499518	0.000029
 260	2.5770e+01	2.5696	-5.666339	0.000332	3.317250	0.561957	0.000033
 261	2.5870e+01	2.5813	-5.633751	0.000328	3.276296	0.555020	0.000033
 262	2.5970e+01	2.5924	-5.605237	0.000287	2.866759	0.485642	0.000029
 263	2.6069e+01	2.6052	-5.571835	0.000336	3.358204	0.568895	0.000034
 264	2.6169e+01	2.6129	-5.539655	0.000324	3.235343	0.548082	0.000032
 265	2.6268e+01	2.6213	-5.507475	0.000324	3.235343	0.548082	0.000032
 266	2.6367e+01	2.6342	-5.470814	0.000369	3.685833	0.624397	0.000037
 267	2.6467e+01	2.6427	-5.445966	0.000250	2.498176	0.423202	0.000025
 268	2.6567e+01	2.6510	-5.408491	0.000377	3.767741	0.638273	0.000038
 269	2.6666e+01	2.6620	-5.380791	0.000278	2.784852	0.471767	0.000028
 270	2.6765e+01	2.6717	-5.349426	0.000315	3.153435	0.534206	0.000032
 271	2.6865e+01	2.6820	-5.316431	0.000332	3.317250	0.561957	0.000033
 272	2.6965e+01	2.6922	-5.285881	0.000307	3.071528	0.520331	0.000031
 273	2.7064e+01	2.7014	-5.254515	0.000315	3.153435	0.534206	0.000032
 274	2.7163e+01	2.7087	-5.225594	0.000291	2.907713	0.492580	0.000029
 275	2.7263e+01	2.7212	-5.190970	0.000348	3.481065	0.589708	0.000035
 276	2.7363e+01	2.7345	-5.159197	0.000319	3.194389	0.541144	0.000032
 277	2.7462e+01	2.7437	-5.131498	0.000278	2.784852	0.471767	0.000028
 278	2.7561e+01	2.7502	-5.100947	0.000307	3.071528	0.520331	0.000031
 279	2.7661e+01	2.7634	-5.065101	0.000360	3.603926	0.610522	0.000036
 280	2.7761e+01	2.7738	-5.034958	0.000303	3.030574	0.513393	0.000030
 281	2.7860e+01	2.7843	-5.006851	0.000283	2.825806	0.478704	0.000028
 282	2.7959e+01	2.7894	-4.973856	0.000332	3.317250	0.561957	0.000033
 283	2.8059e+01	2.7979	-4.944120	0.000299	2.989620	0.506455	0.000030
 284	2.8159e+01	2.8113	-4.910718	0.000336	3.358204	0.568895	0.000034
 285	2.8258e+01	2.8220	-4.882204	0.000287	2.866759	0.485642	0.000029
 286	2.8358e+01	2.8308	-4.849617	0.000328	3.276296	0.555020	0.000033
 287	2.8457e+01	2.8404	-4.817844	0.000319	3.194389	0.541144	0.000032
 288	2.8556e+01	2.8512	-4.786071	0.000319	3.194389	0.541144	0.000032
 289	2.8656e+01	2.8648	-4.757557	0.000287	2.866759	0.485642	0.000029
 290	2.8756e+01	2.8707	-4.729043	0.000287	2.866759	0.485642	0.000029
 291	2.8855e+01	2.8810	-4.696049	0.000332	3.317250	0.561957	0.000033
 292	2.8954e+01	2.8933	-4.667535	0.000287	2.866759	0.485642	0.000029
 293	2.9054e+01	2.9014	-4.641465	0.000262	2.621037	0.444016	0.000026
 294	2.9154e+01	2.9145	-4.609285	0.000324	3.235343	0.548082	0.000032
 295	2.9253e+01	2.9196	-4.582400	0.000270	2.702945	0.457891	0.000027
 296	2.9352e+01	2.9321	-4.548998	0.000336	3.358204	0.568895	0.000034
 297	2.9452e+01	2.9435	-4.520484	0.000287	2.866759	0.485642	0.000029
 298	2.9552e+01	2.9494	-4.489933	0.000307	3.071528	0.520331	0.000031
 299	2.9651e+01	2.9618	-4.461827	0.000283	2.825806	0.478704	0.000028
 300	2.9750e+01	2.9705	-4.433720	0.000283	2.825806	0.478704	0.000028
 301	2.9850e+01	2.9809	-4.405613	0.000283	2.825806	0.478704	0.000028
 302	2.9950e+01	2.9900	-4.379543	0.000262	2.621037	0.444016	0.000026
 303	3.0049e+01	2.9984	-4.352659	0.000270	2.702945	0.457891	0.000027
 304	3.0148e+01	3.0132	-4.328218	0.000246	2.457222	0.416265	0.000025
 305	3.0248e+01	3.0231	-4.298482	0.000299	2.989620	0.506455	0.000030
 306	3.0348e+01	3.0330	-4.270783	0.000278	2.784852	0.471767	0.000028
 307	3.0447e+01	3.0403	-4.240640	0.000303	3.030574	0.513393	0.000030
 308	3.0547e+01	3.0506	-4.212533	0.000283	2.825806	0.478704	0.000028
 309	3.0646e+01	3.0585	-4.182390	0.000303	3.030574	0.513393	0.000030
 310	3.0745e+01	3.0695	-4.156320	0.000262	2.621037	0.444016	0.000026
 311	3.0845e+01	3.0792	-4.125362	0.000311	3.112482	0.527269	0.000031
 312	3.0945e+01	3.0900	-4.097255	0.000283	2.825806	0.478704	0.000028
 313	3.1044e+01	3.1020	-4.064668	0.000328	3.276296	0.555020	0.000033
 314	3.1143e+01	3.1130	-4.037783	0.000270	2.702945	0.457891	0.000027
 315	3.1243e+01	3.1216	-4.011306	0.000266	2.661991	0.450953	0.000027
 316	3.1343e+01	3.1310	-3.980348	0.000311	3.112482	0.527269	0.000031
 317	3.1442e+01	3.1435	-3.948168	0.000324	3.235343	0.548082	0.000032
 318	3.1541e+01	3.1498	-3.921690	0.000266	2.661991	0.450953	0.000027
 319	3.1641e+01	3.1584	-3.887066	0.000348	3.481065	0.589708	0.000035
 320	3.1741e+01	3.1689	-3.861811	0.000254	2.539130	0.430140	0.000025
 321	3.1840e+01	3.1813	-3.828002	0.000340	3.399158	0.575833	0.000034
 322	3.1939e+01	3.1894	-3.797044	0.000311	3.112482	0.527269	0.000031
 323	3.2039e+01	3.1986	-3.769752	0.000274	2.743898	0.464829	0.000027
 324	3.2139e+01	3.2105	-3.733498	0.000364	3.644880	0.617459	0.000036
 325	3.2238e+01	3.2230	-3.704984	0.000287	2.866759	0.485642	0.000029
 326	3.2337e+01	3.2307	-3.674433	0.000307	3.071528	0.520331	0.000031
 327	3.2437e+01	3.2394	-3.645105	0.000295	2.948667	0.499518	0.000029
 328	3.2536e+01	3.2497	-3.610073	0.000352	3.522019	0.596646	0.000035
 329	3.2636e+01	3.2574	-3.577079	0.000332	3.317250	0.561957	0.000033
 330	3.2736e+01	3.2675	-3.548972	0.000283	2.825806	0.478704	0.000028
 331	3.2835e+01	3.2790	-3.515977	0.000332	3.317250	0.561957	0.000033
 332	3.2934e+01	3.2913	-3.486241	0.000299	2.989620	0.506455	0.000030
 333	3.3034e+01	3.2980	-3.454061	0.000324	3.235343	0.548082	0.000032
 334	3.3133e+01	3.3062	-3.423103	0.000311	3.112482	0.527269	0.000031
 335	3.3233e+01	3.3190	-3.393774	0.000295	2.948667	0.499518	0.000029
 336	3.3333e+01	3.3279	-3.359965	0.000340	3.399158	0.575833	0.000034
 337	3.3432e+01	3.3398	-3.327378	0.000328	3.276296	0.555020	0.000033
 338	3.3532e+01	3.3506	-3.294790	0.000328	3.276296	0.555020	0.000033
 339	3.3631e+01	3.3585	-3.267906	0.000270	2.702945	0.457891	0.000027
 340	3.3730e+01	3.3700	-3.236948	0.000311	3.112482	0.527269	0.000031
 341	3.3830e+01	3.3779	-3.199472	0.000377	3.767741	0.638273	0.000038
 342	3.3929e+01	3.3891	-3.169329	0.000303	3.030574	0.513393	0.000030
 343	3.4029e+01	3.3996	-3.136741	0.000328	3.276296	0.555020	0.000033
 344	3.4129e+01	3.4093	-3.103339	0.000336	3.358204	0.568895	0.000034
 345	3.4228e+01	3.4216	-3.076047	0.000274	2.743898	0.464829	0.000027
 346	3.4328e+01	3.4308	-3.041831	0.000344	3.440111	0.582771	0.000034
 347	3.4427e+01	3.4411	-3.008836	0.000332	3.317250	0.561957	0.000033
 348	3.4526e+01	3.4473	-2.977063	0.000319	3.194389	0.541144	0.000032
 349	3.4626e+01	3.4591	-2.946920	0.000303	3.030574	0.513393	0.000030
 350	3.4725e+01	3.4656	-2.914332	0.000328	3.276296	0.555020	0.000033
 351	3.4825e+01	3.4782	-2.883374	0.000311	3.112482	0.527269	0.000031
 352	3.4925e+01	3.4888	-2.851602	0.000319	3.194389	0.541144	0.000032
 353	3.5024e+01	3.5000	-2.818199	0.000336	3.358204	0.568895	0.000034
 354	3.5123e+01	3.5077	-2.785612	0.000328	3.276296	0.555020	0.000033
 355	3.5223e+01	3.5198	-2.752617	0.000332	3.317250	0.561957	0.000033
 356	3.5322e+01	3.5280	-2.722067	0.000307	3.071528	0.520331	0.000031
 357	3.5422e+01	3.5378	-2.689072	0.000332	3.317250	0.561957	0.000033
 358	3.5522e+01	3.5488	-2.658114	0.000311	3.112482	0.527269	0.000031
 359	3.5621e+01	3.5571	-2.622675	0.000356	3.562972	0.603584	0.000036
 360	3.5721e+01	3.5673	-2.598234	0.000246	2.457222	0.416265	0.000025
 361	3.5820e+01	3.5777	-2.565240	0.000332	3.317250	0.561957	0.000033
 362	3.5919e+01	3.5897	-2.533467	0.000319	3.194389	0.541144	0.000032
 363	3.6019e+01	3.5952	-2.498436	0.000352	3.522019	0.596646	0.000035
 364	3.6118e+01	3.6078	-2.465848	0.000328	3.276296	0.555020	0.000033
 365	3.6218e+01	3.6163	-2.435705	0.000303	3.030574	0.513393	0.000030
 366	3.6318e+01	3.6261	-2.404747	0.000311	3.112482	0.527269	0.000031
 367	3.6417e+01	3.6390	-2.375418	0.000295	2.948667	0.499518	0.000029
 368	3.6517e+01	3.6452	-2.340794	0.000348	3.481065	0.589708	0.000035
 369	3.6616e+01	3.6584	-2.309429	0.000315	3.153435	0.534206	0.000032
 370	3.6715e+01	3.6675	-2.282137	0.000274	2.743898	0.464829	0.000027
 371	3.6815e+01	3.6776	-2.245476	0.000369	3.685833	0.624397	0.000037
 372	3.6914e+01	3.6905	-2.212074	0.000336	3.358204	0.568895	0.000034
 373	3.7014e+01	3.6965	-2.184374	0.000278	2.784852	0.471767	0.000028
 374	3.7114e+01	3.7081	-2.149343	0.000352	3.522019	0.596646	0.000035
 375	3.7213e+01	3.7183	-2.115941	0.000336	3.358204	0.568895	0.000034
 376	3.7313e+01	3.7271	-2.084168	0.000319	3.194389	0.541144	0.000032
 377	3.7412e+01	3.7365	-2.050766	0.000336	3.358204	0.568895	0.000034
 378	3.7511e+01	3.7468	-2.017364	0.000336	3.358204	0.568895	0.000034
 379	3.7611e+01	3.7570	-1.982740	0.000348	3.481065	0.589708	0.000035
 380	3.7711e+01	3.7666	-1.950967	0.000319	3.194389	0.541144	0.000032
 381	3.7810e+01	3.7756	-1.917565	0.000336	3.358204	0.568895	0.000034
 382	3.7910e+01	3.7856	-1.887829	0.000299	2.989620	0.506455	0.000030
 383	3.8009e+01	3.7975	-1.852798	0.000352	3.522019	0.596646	0.000035
 384	3.8108e+01	3.8059	-1.818173	0.000348	3.481065	0.589708	0.000035
 385	3.8208e+01	3.8165	-1.781513	0.000369	3.685833	0.624397	0.000037
 386	3.8307e+01	3.8246	-1.748925	0.000328	3.276296	0.555020	0.000033
 387	3.8407e+01	3.8367	-1.714708	0.000344	3.440111	0.582771	0.000034
 388	3.8507e+01	3.8470	-1.680899	0.000340	3.399158	0.575833	0.000034
 389	3.8606e+01	3.8555	-1.645460	0.000356	3.562972	0.603584	0.000036
 390	3.8706e+01	3.8677	-1.614502	0.000311	3.112482	0.527269	0.000031
 391	3.8805e+01	3.8769	-1.580693	0.000340	3.399158	0.575833	0.000034
 392	3.8904e+01	3.8873	-1.546883	0.000340	3.399158	0.575833	0.000034
 393	3.9004e+01	3.8943	-1.511445	0.000356	3.562972	0.603584	0.000036
 394	3.9103e+01	3.9046	-1.484560	0.000270	2.702945	0.457891	0.000027
 395	3.9203e+01	3.9162	-1.450343	0.000344	3.440111	0.582771	0.000034
 396	3.9303e+01	3.9263	-1.417348	0.000332	3.317250	0.561957	0.000033
 397	3.9402e+01	3.9380	-1.383946	0.000336	3.358204	0.568895	0.000034
 398	3.9502e+01	3.9460	-1.350952	0.000332	3.317250	0.561957	0.000033
 399	3.9601e+01	3.9577	-1.318364	0.000328	3.276296	0.555020	0.000033
 400	3.9700e+01	3.9627	-1.287406	0.000311	3.112482	0.527269	0.000031
 401	3.9800e+01	3.9764	-1.260929	0.000266	2.661991	0.450953	0.000027
 402	3.9900e+01	3.9843	-1.225083	0.000360	3.603926	0.610522	0.000036
 403	3.9999e+01	3.9959	-1.198198	0.000270	2.702945	0.457891	0.000027
 404	4.0099e+01	4.0038	-1.163981	0.000344	3.440111	0.582771	0.000034
 405	4.0198e+01	4.0150	-1.139948	0.000242	2.416269	0.409327	0.000024
 406	4.0297e+01	4.0264	-1.107361	0.000328	3.276296	0.555020	0.000033
 407	4.0397e+01	4.0363	-1.075588	0.000319	3.194389	0.541144	0.000032
 408	4.0496e+01	4.0449	-1.045445	0.000303	3.030574	0.513393	0.000030
 409	4.0596e+01	4.0579	-1.018153	0.000274	2.743898	0.464829	0.000027
 410	4.0696e+01	4.0674	-0.988824	0.000295	2.948667	0.499518	0.000029
 411	4.0795e+01	4.0745	-0.960717	0.000283	2.825806	0.478704	0.000028
 412	4.0895e+01	4.0841	-0.930981	0.000299	2.989620	0.506455	0.000030
 413	4.0994e+01	4.0960	-0.897987	0.000332	3.317250	0.561957	0.000033
 414	4.1093e+01	4.1049	-0.868251	0.000299	2.989620	0.506455	0.000030
 415	4.1193e+01	4.1172	-0.840959	0.000274	2.743898	0.464829	0.000027
 416	4.1292e+01	4.1273	-0.812445	0.000287	2.866759	0.485642	0.000029
 417	4.1392e+01	4.1338	-0.778228	0.000344	3.440111	0.582771	0.000034
 418	4.1492e+01	4.1439	-0.757046	0.000213	2.129593	0.360763	0.000021
 419	4.1591e+01	4.1564	-0.722015	0.000352	3.522019	0.596646	0.000035
 420	4.1691e+01	4.1638	-0.698389	0.000238	2.375315	0.402389	0.000024
 421	4.1790e+01	4.1760	-0.668245	0.000303	3.030574	0.513393	0.000030
 422	4.1889e+01	4.1854	-0.639324	0.000291	2.907713	0.492580	0.000029
 423	4.1989e+01	4.1950	-0.609995	0.000295	2.948667	0.499518	0.000029
 424	4.2089e+01	4.2052	-0.579852	0.000303	3.030574	0.513393	0.000030
 425	4.2188e+01	4.2133	-0.550523	0.000295	2.948667	0.499518	0.000029
 426	4.2288e+01	4.2250	-0.525268	0.000254	2.539130	0.430140	0.000025
 427	4.2387e+01	4.2366	-0.496754	0.000287	2.866759	0.485642	0.000029
 428	4.2486e+01	4.2441	-0.467833	0.000291	2.907713	0.492580	0.000029
 429	4.2586e+01	4.2542	-0.440948	0.000270	2.702945	0.457891	0.000027
 430	4.2685e+01	4.2641	-0.411212	0.000299	2.989620	0.506455	0.000030
 431	4.2785e+01	4.2742	-0.383513	0.000278	2.784852	0.471767	0.000028
 432	4.2885e+01	4.2854	-0.355406	0.000283	2.825806	0.478704	0.000028
 433	4.2984e+01	4.2991	-0.327707	0.000278	2.784852	0.471767	0.000028
 434	4.3084e+01	4.3063	-0.297564	0.000303	3.030574	0.513393	0.000030
 435	4.3183e+01	4.3174	-0.272308	0.000254	2.539130	0.430140	0.000025
 436	4.3282e+01	4.3256	-0.242980	0.000295	2.948667	0.499518	0.000029
 437	4.3382e+01	4.3336	-0.218539	0.000246	2.457222	0.416265	0.000025
 438	4.3481e+01	4.3432	-0.187174	0.000315	3.153435	0.534206	0.000032
 439	4.3581e+01	4.3521	-0.160697	0.000266	2.661991	0.450953	0.000027
 440	4.3681e+01	4.3627	-0.134627	0.000262	2.621037	0.444016	0.000026
 441	4.3780e+01	4.3732	-0.105298	0.000295	2.948667	0.499518	0.000029
 442	4.3880e+01	4.3852	-0.079228	0.000262	2.621037	0.444016	0.000026
 443	4.3979e+01	4.3952	-0.047863	0.000315	3.153435	0.534206	0.000032
 444	4.4078e+01	4.4044	-0.025459	0.000225	2.252454	0.381576	0.000023
 445	4.4178e+01	4.4166	0.004277	0.000299	2.989620	0.506455	0.000030
 446	4.4278e+01	4.4247	0.031569	0.000274	2.743898	0.464829	0.000027
 447	4.4377e+01	4.4357	0.058861	0.000274	2.743898	0.464829	0.000027
 448	4.4477e+01	4.4444	0.085338	0.000266	2.661991	0.450953	0.000027
 449	4.4576e+01	4.4529	0.113445	0.000283	2.825806	0.478704	0.000028
 450	4.4675e+01	4.4676	0.141552	0.000283	2.825806	0.478704	0.000028
 451	4.4775e+01	4.4754	0.169658	0.000283	2.825806	0.478704	0.000028
 452	4.4874e+01	4.4833	0.195321	0.000258	2.580083	0.437078	0.000026
 453	4.4974e+01	4.4933	0.221798	0.000266	2.661991	0.450953	0.000027
 454	4.5074e+01	4.5033	0.250312	0.000287	2.866759	0.485642	0.000029
 455	4.5173e+01	4.5124	0.277604	0.000274	2.743898	0.464829	0.000027
 456	4.5273e+01	4.5222	0.303267	0.000258	2.580083	0.437078	0.000026
 457	4.5372e+01	4.5324	0.327707	0.000246	2.457222	0.416265	0.000025
 458	4.5471e+01	4.5435	0.354999	0.000274	2.743898	0.464829	0.000027
 459	4.5571e+01	4.5551	0.384328	0.000295	2.948667	0.499518	0.000029
 460	4.5670e+01	4.5632	0.408768	0.000246	2.457222	0.416265	0.000025
 461	4.5770e+01	4.5736	0.434023	0.000254	2.539130	0.430140	0.000025
 462	4.5870e+01	4.5822	0.462537	0.000287	2.866759	0.485642	0.000029
 463	4.5969e+01	4.5930	0.486571	0.000242	2.416269	0.409327	0.000024
 464	4.6069e+01	4.6033	0.507752	0.000213	2.129593	0.360763	0.000021
 465	4.6168e+01	4.6137	0.536674	0.000291	2.907713	0.492580	0.000029
 466	4.6267e+01	4.6210	0.562336	0.000258	2.580083	0.437078	0.000026
 467	4.6367e+01	4.6334	0.585148	0.000229	2.293407	0.388514	0.000023
 468	4.6467e+01	4.6450	0.610403	0.000254	2.539130	0.430140	0.000025
 469	4.6566e+01	4.6529	0.634029	0.000238	2.375315	0.402389	0.000024
 470	4.6666e+01	4.6615	0.656433	0.000225	2.252454	0.381576	0.000023
 471	4.6765e+01	4.6712	0.678022	0.000217	2.170546	0.367701	0.000022
 472	4.6864e+01	4.6826	0.704906	0.000270	2.702945	0.457891	0.000027
 473	4.6964e+01	4.6937	0.726903	0.000221	2.211500	0.374638	0.000022
 474	4.7063e+01	4.7048	0.755417	0.000287	2.866759	0.485642	0.000029
 475	4.7163e+01	4.7129	0.777821	0.000225	2.252454	0.381576	0.000023
 476	4.7263e+01	4.7217	0.804705	0.000270	2.702945	0.457891	0.000027
 477	4.7362e+01	4.7347	0.824665	0.000201	2.006732	0.339950	0.000020
 478	4.7462e+01	4.7442	0.854808	0.000303	3.030574	0.513393	0.000030
 479	4.7561e+01	4.7526	0.880471	0.000258	2.580083	0.437078	0.000026
 480	4.7660e+01	4.7639	0.903689	0.000233	2.334361	0.395451	0.000023
 481	4.7760e+01	4.7733	0.926501	0.000229	2.293407	0.388514	0.000023
 482	4.7859e+01	4.7845	0.955829	0.000295	2.948667	0.499518	0.000029
 483	4.7959e+01	4.7923	0.982714	0.000270	2.702945	0.457891	0.000027
 484	4.8059e+01	4.8016	1.007969	0.000254	2.539130	0.430140	0.000025
 485	4.8158e+01	4.8109	1.033632	0.000258	2.580083	0.437078	0.000026
 486	4.8258e+01	4.8214	1.064182	0.000307	3.071528	0.520331	0.000031
 487	4.8357e+01	4.8309	1.086994	0.000229	2.293407	0.388514	0.000023
 488	4.8456e+01	4.8418	1.115100	0.000283	2.825806	0.478704	0.000028
 489	4.8556e+01	4.8508	1.140763	0.000258	2.580083	0.437078	0.000026
 490	4.8656e+01	4.8627	1.170906	0.000303	3.030574	0.513393	0.000030
 491	4.8755e+01	4.8695	1.199420	0.000287	2.866759	0.485642	0.000029
 492	4.8855e+01	4.8817	1.227527	0.000283	2.825806	0.478704	0.000028
 493	4.8954e+01	4.8904	1.256855	0.000295	2.948667	0.499518	0.000029
 494	4.9053e+01	4.9017	1.279667	0.000229	2.293407	0.388514	0.000023
 495	4.9153e+01	4.9142	1.307366	0.000278	2.784852	0.471767	0.000028
 496	4.9252e+01	4.9249	1.332214	0.000250	2.498176	0.423202	0.000025
 497	4.9352e+01	4.9309	1.362765	0.000307	3.071528	0.520331	0.000031
 498	4.9452e+01	4.9418	1.391278	0.000287	2.866759	0.485642	0.000029
 499	4.9551e+01	4.9541	1.420200	0.000291	2.907713	0.492580	0.000029
 500	4.9651e+01	4.9627	1.446270	0.000262	2.621037	0.444016	0.000026
 501	4.9750e+01	4.9718	1.473969	0.000278	2.784852	0.471767	0.000028
 502	4.9849e+01	4.9803	1.502890	0.000291	2.907713	0.492580	0.000029
 503	4.9949e+01	4.9911	1.534256	0.000315	3.153435	0.534206	0.000032
 504	5.0048e+01	4.9999	1.561140	0.000270	2.702945	0.457891	0.000027
 505	5.0148e+01	5.0108	1.588432	0.000274	2.743898	0.464829	0.000027
 506	5.0248e+01	5.0195	1.616132	0.000278	2.784852	0.471767	0.000028
 507	5.0347e+01	5.0298	1.643831	0.000278	2.784852	0.471767	0.000028
 508	5.0447e+01	5.0433	1.670715	0.000270	2.702945	0.457891	0.000027
 509	5.0546e+01	5.0516	1.695971	0.000254	2.539130	0.430140	0.000025
 510	5.0645e+01	5.0597	1.724892	0.000291	2.907713	0.492580	0.000029
 511	5.0745e+01	5.0704	1.755850	0.000311	3.112482	0.527269	0.000031
 512	5.0844e+01	5.0795	1.784364	0.000287	2.866759	0.485642	0.000029
 513	5.0944e+01	5.0909	1.810434	0.000262	2.621037	0.444016	0.000026
 514	5.1044e+01	5.1006	1.841799	0.000315	3.153435	0.534206	0.000032
 515	5.1143e+01	5.1119	1.868684	0.000270	2.702945	0.457891	0.000027
 516	5.1242e+01	5.1215	1.896383	0.000278	2.784852	0.471767	0.000028
 517	5.1342e+01	5.1295	1.924083	0.000278	2.784852	0.471767	0.000028
 518	5.1441e+01	5.1389	1.952597	0.000287	2.866759	0.485642	0.000029
 519	5.1541e+01	5.1467	1.983555	0.000311	3.112482	0.527269	0.000031
 520	5.1641e+01	5.1604	2.011254	0.000278	2.784852	0.471767	0.000028
 521	5.1740e+01	5.1693	2.042619	0.000315	3.153435	0.534206	0.000032
 522	5.1840e+01	5.1788	2.065430	0.000229	2.293407	0.388514	0.000023
 523	5.1939e+01	5.1898	2.098832	0.000336	3.358204	0.568895	0.000034
 524	5.2038e+01	5.2025	2.125310	0.000266	2.661991	0.450953	0.000027
 525	5.2138e+01	5.2091	2.152194	0.000270	2.702945	0.457891	0.000027
 526	5.2237e+01	5.2198	2.183967	0.000319	3.194389	0.541144	0.000032
 527	5.2337e+01	5.2314	2.209630	0.000258	2.580083	0.437078	0.000026
 528	5.2437e+01	5.2404	2.238144	0.000287	2.866759	0.485642	0.000029
 529	5.2536e+01	5.2497	2.267880	0.000299	2.989620	0.506455	0.000030
 530	5.2636e+01	5.2564	2.298838	0.000311	3.112482	0.527269	0.000031
 531	5.2735e+01	5.2708	2.324908	0.000262	2.621037	0.444016	0.000026
 532	5.2834e+01	5.2789	2.353422	0.000287	2.866759	0.485642	0.000029
 533	5.2934e+01	5.2907	2.379084	0.000258	2.580083	0.437078	0.000026
 534	5.3033e+01	5.2973	2.408005	0.000291	2.907713	0.492580	0.000029
 535	5.3133e+01	5.3098	2.435705	0.000278	2.784852	0.471767	0.000028
 536	5.3233e+01	5.3201	2.465848	0.000303	3.030574	0.513393	0.000030
 537	5.3332e+01	5.3277	2.490696	0.000250	2.498176	0.423202	0.000025
 538	5.3431e+01	5.3376	2.521247	0.000307	3.071528	0.520331	0.000031
 539	5.3531e+01	5.3493	2.551797	0.000307	3.071528	0.520331	0.000031
 540	5.3630e+01	5.3600	2.577053	0.000254	2.539130	0.430140	0.000025
 541	5.3730e+01	5.3659	2.610047	0.000332	3.317250	0.561957	0.000033
 542	5.3830e+01	5.3786	2.636117	0.000262	2.621037	0.444016	0.000026
 543	5.3929e+01	5.3887	2.667483	0.000315	3.153435	0.534206	0.000032
 544	5.4029e+01	5.3980	2.696811	0.000295	2.948667	0.499518	0.000029
 545	5.4128e+01	5.4075	2.728584	0.000319	3.194389	0.541144	0.000032
 546	5.4227e+01	5.4208	2.756283	0.000278	2.784852	0.471767	0.000028
 547	5.4327e+01	5.4299	2.783575	0.000274	2.743898	0.464829	0.000027
 548	5.4426e+01	5.4389	2.813311	0.000299	2.989620	0.506455	0.000030
 549	5.4526e+01	5.4510	2.846306	0.000332	3.317250	0.561957	0.000033
 550	5.4626e+01	5.4572	2.875635	0.000295	2.948667	0.499518	0.000029
 551	5.4725e+01	5.4699	2.905778	0.000303	3.030574	0.513393	0.000030
 552	5.4825e+01	5.4785	2.938773	0.000332	3.317250	0.561957	0.000033
 553	5.4924e+01	5.4884	2.967694	0.000291	2.907713	0.492580	0.000029
 554	5.5023e+01	5.4967	2.999467	0.000319	3.194389	0.541144	0.000032
 555	5.5123e+01	5.5099	3.032462	0.000332	3.317250	0.561957	0.000033
 556	5.5222e+01	5.5176	3.061383	0.000291	2.907713	0.492580	0.000029
 557	5.5322e+01	5.5312	3.091934	0.000307	3.071528	0.520331	0.000031
 558	5.5422e+01	5.5412	3.120040	0.000283	2.825806	0.478704	0.000028
 559	5.5521e+01	5.5490	3.149776	0.000299	2.989620	0.506455	0.000030
 560	5.5620e+01	5.5589	3.177883	0.000283	2.825806	0.478704	0.000028
 561	5.5720e+01	5.5692	3.213729	0.000360	3.603926	0.610522	0.000036
 562	5.5819e+01	5.5796	3.239799	0.000262	2.621037	0.444016	0.000026
 563	5.5919e+01	5.5897	3.267906	0.000283	2.825806	0.478704	0.000028
 564	5.6019e+01	5.6011	3.300493	0.000328	3.276296	0.555020	0.000033
 565	5.6118e+01	5.6075	3.329822	0.000295	2.948667	0.499518	0.000029
 566	5.6218e+01	5.6178	3.359965	0.000303	3.030574	0.513393	0.000030
 567	5.6317e+01	5.6280	3.388886	0.000291	2.907713	0.492580	0.000029
 568	5.6416e+01	5.6374	3.411290	0.000225	2.252454	0.381576	0.000023
 569	5.6516e+01	5.6484	3.440212	0.000291	2.907713	0.492580	0.000029
 570	5.6615e+01	5.6570	3.469133	0.000291	2.907713	0.492580	0.000029
 571	5.6715e+01	5.6679	3.497647	0.000287	2.866759	0.485642	0.000029
 572	5.6815e+01	5.6768	3.523309	0.000258	2.580083	0.437078	0.000026
 573	5.6914e+01	5.6860	3.546935	0.000238	2.375315	0.402389	0.000024
 574	5.7014e+01	5.7000	3.576264	0.000295	2.948667	0.499518	0.000029
 575	5.7113e+01	5.7073	3.601519	0.000254	2.539130	0.430140	0.000025
 576	5.7212e+01	5.7175	3.628404	0.000270	2.702945	0.457891	0.000027
 577	5.7312e+01	5.7275	3.654881	0.000266	2.661991	0.450953	0.000027
 578	5.7411e+01	5.7368	3.679729	0.000250	2.498176	0.423202	0.000025
 579	5.7511e+01	5.7477	3.707836	0.000283	2.825806	0.478704	0.000028
 580	5.7611e+01	5.7542	3.734313	0.000266	2.661991	0.450953	0.000027
 581	5.7710e+01	5.7685	3.762827	0.000287	2.866759	0.485642	0.000029
 582	5.7809e+01	5.7793	3.788897	0.000262	2.621037	0.444016	0.000026
 583	5.7909e+01	5.7864	3.814559	0.000258	2.580083	0.437078	0.000026
 584	5.8008e+01	5.7952	3.840222	0.000258	2.580083	0.437078	0.000026
 585	5.8108e+01	5.8086	3.863440	0.000233	2.334361	0.395451	0.000023
 586	5.8208e+01	5.8195	3.890325	0.000270	2.702945	0.457891	0.000027
 587	5.8307e+01	5.8276	3.917617	0.000274	2.743898	0.464829	0.000027
 588	5.8407e+01	5.8350	3.942872	0.000254	2.539130	0.430140	0.000025
 589	5.8506e+01	5.8491	3.967720	0.000250	2.498176	0.423202	0.000025
 590	5.8605e+01	5.8564	3.992568	0.000250	2.498176	0.423202	0.000025
 591	5.8705e+01	5.8681	4.020267	0.000278	2.784852	0.471767	0.000028
 592	5.8804e+01	5.8759	4.046745	0.000266	2.661991	0.450953	0.000027
 593	5.8904e+01	5.8891	4.069963	0.000233	2.334361	0.395451	0.000023
 594	5.9004e+01	5.8976	4.095626	0.000258	2.580083	0.437078	0.000026
 595	5.9103e+01	5.9055	4.120881	0.000254	2.539130	0.430140	0.000025
 596	5.9203e+01	5.9151	4.146544	0.000258	2.580083	0.437078	0.000026
 597	5.9302e+01	5.9254	4.173021	0.000266	2.661991	0.450953	0.000027
 598	5.9401e+01	5.9357	4.193795	0.000209	2.088639	0.353825	0.000021
 599	5.9501e+01	5.9462	4.222717	0.000291	2.907713	0.492580	0.000029
 600	5.9600e+01	5.9567	4.246342	0.000238	2.375315	0.402389	0.000024
 601	5.9700e+01	5.9640	4.273634	0.000274	2.743898	0.464829	0.000027
 602	5.9800e+01	5.9755	4.296038	0.000225	2.252454	0.381576	0.000023
 603	5.9899e+01	5.9864	4.318442	0.000225	2.252454	0.381576	0.000023
 604	5.9998e+01	5.9972	4.344512	0.000262	2.621037	0.444016	0.000026
 605	6.0098e+01	6.0052	4.367731	0.000233	2.334361	0.395451	0.000023
 606	6.0197e+01	6.0152	4.392171	0.000246	2.457222	0.416265	0.000025
 607	6.0297e+01	6.0262	4.420278	0.000283	2.825806	0.478704	0.000028
 608	6.0397e+01	6.0352	4.441460	0.000213	2.129593	0.360763	0.000021
 609	6.0496e+01	6.0468	4.465493	0.000242	2.416269	0.409327	0.000024
 610	6.0596e+01	6.0584	4.490341	0.000250	2.498176	0.423202	0.000025
 611	6.0695e+01	6.0665	4.512744	0.000225	2.252454	0.381576	0.000023
 612	6.0794e+01	6.0760	4.538814	0.000262	2.621037	0.444016	0.000026
 613	6.0894e+01	6.0835	4.564884	0.000262	2.621037	0.444016	0.000026
 614	6.0993e+01	6.0987	4.591362	0.000266	2.661991	0.450953	0.000027
 615	6.1093e+01	6.1053	4.614173	0.000229	2.293407	0.388514	0.000023
 616	6.1193e+01	6.1166	4.640243	0.000262	2.621037	0.444016	0.000026
 617	6.1292e+01	6.1243	4.662647	0.000225	2.252454	0.381576	0.000023
 618	6.1392e+01	6.1361	4.686680	0.000242	2.416269	0.409327	0.000024
 619	6.1491e+01	6.1478	4.712750	0.000262	2.621037	0.444016	0.000026
 620	6.1590e+01	6.1530	4.736376	0.000238	2.375315	0.402389	0.000024
 621	6.1690e+01	6.1670	4.759594	0.000233	2.334361	0.395451	0.000023
 622	6.1789e+01	6.1752	4.784849	0.000254	2.539130	0.430140	0.000025
 623	6.1889e+01	6.1855	4.809290	0.000246	2.457222	0.416265	0.000025
 624	6.1989e+01	6.1958	4.834545	0.000254	2.539130	0.430140	0.000025
 625	6.2088e+01	6.2027	4.858171	0.000238	2.375315	0.402389	0.000024
 626	6.2188e+01	6.2159	4.880982	0.000229	2.293407	0.388514	0.000023
 627	6.2287e+01	6.2264	4.901349	0.000205	2.047685	0.346887	0.000020
 628	6.2386e+01	6.2336	4.925382	0.000242	2.416269	0.409327	0.000024
 629	6.2486e+01	6.2451	4.946972	0.000217	2.170546	0.367701	0.000022
 630	6.2586e+01	6.2533	4.971005	0.000242	2.416269	0.409327	0.000024
 631	6.2685e+01	6.2659	4.995853	0.000250	2.498176	0.423202	0.000025
 632	6.2785e+01	6.2731	5.013776	0.000180	1.801963	0.305261	0.000018
 633	6.2884e+01	6.2831	5.039438	0.000258	2.580083	0.437078	0.000026
 634	6.2983e+01	6.2939	5.061028	0.000217	2.170546	0.367701	0.000022
 635	6.3083e+01	6.3030	5.080987	0.000201	2.006732	0.339950	0.000020
 636	6.3182e+01	6.3136	5.101354	0.000205	2.047685	0.346887	0.000020
 637	6.3282e+01	6.3240	5.122536	0.000213	2.129593	0.360763	0.000021
 638	6.3382e+01	6.3349	5.146162	0.000238	2.375315	0.402389	0.000024
 639	6.3481e+01	6.3445	5.164085	0.000180	1.801963	0.305261	0.000018
 640	6.3581e+01	6.3543	5.186082	0.000221	2.211500	0.374638	0.000022
 641	6.3680e+01	6.3650	5.205634	0.000197	1.965778	0.333012	0.000020
 642	6.3779e+01	6.3743	5.230889	0.000254	2.539130	0.430140	0.000025
 643	6.3879e+01	6.3845	5.251664	0.000209	2.088639	0.353825	0.000021
 644	6.3978e+01	6.3927	5.277326	0.000258	2.580083	0.437078	0.000026
 645	6.4078e+01	6.4031	5.299323	0.000221	2.211500	0.374638	0.000022
 646	6.4177e+01	6.4134	5.316839	0.000176	1.761009	0.298323	0.000018
 647	6.4277e+01	6.4234	5.339242	0.000225	2.252454	0.381576	0.000023
 648	6.4376e+01	6.4332	5.359202	0.000201	2.006732	0.339950	0.000020
 649	6.4476e+01	6.4429	5.386087	0.000270	2.702945	0.457891	0.000027
 650	6.4576e+01	6.4534	5.408898	0.000229	2.293407	0.388514	0.000023
 651	6.4675e+01	6.4635	5.431709	0.000229	2.293407	0.388514	0.000023
 652	6.4775e+01	6.4722	5.456964	0.000254	2.539130	0.430140	0.000025
 653	6.4874e+01	6.4832	5.480183	0.000233	2.334361	0.395451	0.000023
 654	6.4974e+01	6.4917	5.504216	0.000242	2.416269	0.409327	0.000024
 655	6.5073e+01	6.5044	5.529879	0.000258	2.580083	0.437078	0.000026
 656	6.5172e+01	6.5125	5.553505	0.000238	2.375315	0.402389	0.000024
 657	6.5272e+01	6.5237	5.577538	0.000242	2.416269	0.409327	0.000024
 658	6.5371e+01	6.5343	5.603608	0.000262	2.621037	0.444016	0.000026
 659	6.5471e+01	6.5423	5.622753	0.000192	1.924824	0.326074	0.000019
 660	6.5570e+01	6.5540	5.651267	0.000287	2.866759	0.485642	0.000029
 661	6.5670e+01	6.5649	5.677337	0.000262	2.621037	0.444016	0.000026
 662	6.5769e+01	6.5734	5.700555	0.000233	2.334361	0.395451	0.000023
 663	6.5869e+01	6.5824	5.728662	0.000283	2.825806	0.478704	0.000028
 664	6.5969e+01	6.5923	5.752695	0.000242	2.416269	0.409327	0.000024
 665	6.6068e+01	6.6032	5.777136	0.000246	2.457222	0.416265	0.000025
 666	6.6168e+01	6.6129	5.804020	0.000270	2.702945	0.457891	0.000027
 667	6.6267e+01	6.6216	5.827239	0.000233	2.334361	0.395451	0.000023
 668	6.6367e+01	6.6316	5.854123	0.000270	2.702945	0.457891	0.000027
 669	6.6466e+01	6.6422	5.878564	0.000246	2.457222	0.416265	0.000025
 670	6.6566e+01	6.6525	5.900968	0.000225	2.252454	0.381576	0.000023
 671	6.6665e+01	6.6627	5.930704	0.000299	2.989620	0.506455	0.000030
 672	6.6764e+01	6.6749	5.953108	0.000225	2.252454	0.381576	0.000023
 673	6.6864e+01	6.6830	5.977548	0.000246	2.457222	0.416265	0.000025
 674	6.6963e+01	6.6936	6.000767	0.000233	2.334361	0.395451	0.000023
 675	6.7063e+01	6.7013	6.030095	0.000295	2.948667	0.499518	0.000029
 676	6.7162e+01	6.7118	6.055351	0.000254	2.539130	0.430140	0.000025
 677	6.7262e+01	6.7240	6.083457	0.000283	2.825806	0.478704	0.000028
 678	6.7362e+01	6.7321	6.108713	0.000254	2.539130	0.430140	0.000025
 679	6.7461e+01	6.7439	6.137634	0.000291	2.907713	0.492580	0.000029
 680	6.7561e+01	6.7547	6.158816	0.000213	2.129593	0.360763	0.000021
 681	6.7660e+01	6.7583	6.185700	0.000270	2.702945	0.457891	0.000027
 682	6.7760e+01	6.7713	6.215029	0.000295	2.948667	0.499518	0.000029
 683	6.7859e+01	6.7811	6.239062	0.000242	2.416269	0.409327	0.000024
 684	6.7959e+01	6.7905	6.262688	0.000238	2.375315	0.402389	0.000024
 685	6.8058e+01	6.8004	6.290387	0.000278	2.784852	0.471767	0.000028
 686	6.8157e+01	6.8120	6.315643	0.000254	2.539130	0.430140	0.000025
 687	6.8257e+01	6.8200	6.340898	0.000254	2.539130	0.430140	0.000025
 688	6.8356e+01	6.8316	6.368190	0.000274	2.743898	0.464829	0.000027
 689	6.8456e+01	6.8429	6.396704	0.000287	2.866759	0.485642	0.000029
 690	6.8555e+01	6.8520	6.417886	0.000213	2.129593	0.360763	0.000021
 691	6.8655e+01	6.8624	6.443955	0.000262	2.621037	0.444016	0.000026
 692	6.8754e+01	6.8742	6.471655	0.000278	2.784852	0.471767	0.000028
 693	6.8854e+01	6.8793	6.498539	0.000270	2.702945	0.457891	0.000027
 694	6.8954e+01	6.8906	6.524202	0.000258	2.580083	0.437078	0.000026
 695	6.9053e+01	6.9011	6.550272	0.000262	2.621037	0.444016	0.000026
 696	6.9153e+01	6.9118	6.575527	0.000254	2.539130	0.430140	0.000025
 697	6.9252e+01	6.9199	6.600782	0.000254	2.539130	0.430140	0.000025
 698	6.9352e+01	6.9305	6.626852	0.000262	2.621037	0.444016	0.000026
 699	6.9451e+01	6.9408	6.652515	0.000258	2.580083	0.437078	0.000026
 700	6.9550e+01	6.9516	6.678585	0.000262	2.621037	0.444016	0.000026
 701	6.9650e+01	6.9617	6.704655	0.000262	2.621037	0.444016	0.000026
 702	6.9749e+01	6.9701	6.727873	0.000233	2.334361	0.395451	0.000023
 703	6.9849e+01	6.9830	6.753536	0.000258	2.580083	0.437078	0.000026
 704	6.9948e+01	6.9885	6.779606	0.000262	2.621037	0.444016	0.000026
 705	7.0048e+01	7.0011	6.808120	0.000287	2.866759	0.485642	0.000029
 706	7.0147e+01	7.0110	6.832968	0.000250	2.498176	0.423202	0.000025
 707	7.0247e+01	7.0218	6.863111	0.000303	3.030574	0.513393	0.000030
 708	7.0347e+01	7.0284	6.883885	0.000209	2.088639	0.353825	0.000021
 709	7.0446e+01	7.0428	6.914029	0.000303	3.030574	0.513393	0.000030
 710	7.0546e+01	7.0481	6.937655	0.000238	2.375315	0.402389	0.000024
 711	7.0645e+01	7.0602	6.966983	0.000295	2.948667	0.499518	0.000029
 712	7.0745e+01	7.0724	6.994275	0.000274	2.743898	0.464829	0.000027
 713	7.0844e+01	7.0803	7.024419	0.000303	3.030574	0.513393	0.000030
 714	7.0944e+01	7.0922	7.052933	0.000287	2.866759	0.485642	0.000029
 715	7.1043e+01	7.1016	7.079003	0.000262	2.621037	0.444016	0.000026
 716	7.1142e+01	7.1087	7.104665	0.000258	2.580083	0.437078	0.000026
 717	7.1242e+01	7.1210	7.133179	0.000287	2.866759	0.485642	0.000029
 718	7.1341e+01	7.1291	7.157620	0.000246	2.457222	0.416265	0.000025
 719	7.1441e+01	7.1395	7.188170	0.000307	3.071528	0.520331	0.000031
 720	7.1540e+01	7.1494	7.217499	0.000295	2.948667	0.499518	0.000029
 721	7.1640e+01	7.1593	7.246420	0.000291	2.907713	0.492580	0.000029
 722	7.1740e+01	7.1716	7.276971	0.000307	3.071528	0.520331	0.000031
 723	7.1839e+01	7.1799	7.304670	0.000278	2.784852	0.471767	0.000028
 724	7.1939e+01	7.1905	7.336036	0.000315	3.153435	0.534206	0.000032
 725	7.2038e+01	7.1973	7.364550	0.000287	2.866759	0.485642	0.000029
 726	7.2138e+01	7.2082	7.388583	0.000242	2.416269	0.409327	0.000024
 727	7.2237e+01	7.2201	7.414245	0.000258	2.580083	0.437078	0.000026
 728	7.2337e+01	7.2314	7.442759	0.000287	2.866759	0.485642	0.000029
 729	7.2436e+01	7.2401	7.468829	0.000262	2.621037	0.444016	0.000026
 730	7.2535e+01	7.2498	7.499787	0.000311	3.112482	0.527269	0.000031
 731	7.2635e+01	7.2573	7.526265	0.000266	2.661991	0.450953	0.000027
 732	7.2734e+01	7.2707	7.552742	0.000266	2.661991	0.450953	0.000027
 733	7.2834e+01	7.2776	7.581256	0.000287	2.866759	0.485642	0.000029
 734	7.2933e+01	7.2906	7.606918	0.000258	2.580083	0.437078	0.000026
 735	7.3033e+01	7.3013	7.631359	0.000246	2.457222	0.416265	0.000025
 736	7.3132e+01	7.3087	7.658651	0.000274	2.743898	0.464829	0.000027
 737	7.3232e+01	7.3169	7.683092	0.000246	2.457222	0.416265	0.000025
 738	7.3332e+01	7.3257	7.707939	0.000250	2.498176	0.423202	0.000025
 739	7.3431e+01	7.3376	7.732787	0.000250	2.498176	0.423202	0.000025
 740	7.3531e+01	7.3471	7.758450	0.000258	2.580083	0.437078	0.000026
 741	7.3630e+01	7.3584	7.782483	0.000242	2.416269	0.409327	0.000024
 742	7.3730e+01	7.3666	7.804480	0.000221	2.211500	0.374638	0.000022
 743	7.3829e+01	7.3796	7.828920	0.000246	2.457222	0.416265	0.000025
 744	7.3928e+01	7.3914	7.854990	0.000262	2.621037	0.444016	0.000026
 745	7.4028e+01	7.3987	7.876579	0.000217	2.170546	0.367701	0.000022
 746	7.4127e+01	7.4084	7.903057	0.000266	2.661991	0.450953	0.000027
 747	7.4227e+01	7.4171	7.928312	0.000254	2.539130	0.430140	0.000025
 748	7.4326e+01	7.4281	7.952345	0.000242	2.416269	0.409327	0.000024
 749	7.4426e+01	7.4394	7.977193	0.000250	2.498176	0.423202	0.000025
 750	7.4525e+01	7.4468	8.001633	0.000246	2.457222	0.416265	0.000025
 751	7.4625e+01	7.4581	8.024852	0.000233	2.334361	0.395451	0.000023
 752	7.4725e+01	7.4689	8.049292	0.000246	2.457222	0.416265	0.000025
 753	7.4824e+01	7.4775	8.071696	0.000225	2.252454	0.381576	0.000023
 754	7.4924e+01	7.4879	8.098988	0.000274	2.743898	0.464829	0.000027
 755	7.5023e+01	7.4984	8.122614	0.000238	2.375315	0.402389	0.000024
 756	7.5123e+01	7.5087	8.146647	0.000242	2.416269	0.409327	0.000024
 757	7.5222e+01	7.5178	8.169051	0.000225	2.252454	0.381576	0.000023
 758	7.5322e+01	7.5268	8.193899	0.000250	2.498176	0.423202	0.000025
 759	7.5421e+01	7.5386	8.219154	0.000254	2.539130	0.430140	0.000025
 760	7.5520e+01	7.5483	8.240336	0.000213	2.129593	0.360763	0.000021
 761	7.5620e+01	7.5574	8.265184	0.000250	2.498176	0.423202	0.000025
 762	7.5719e+01	7.5659	8.282700	0.000176	1.761009	0.298323	0.000018
 763	7.5819e+01	7.5768	8.312028	0.000295	2.948667	0.499518	0.000029
 764	7.5918e+01	7.5881	8.330766	0.000188	1.883870	0.319136	0.000019
 765	7.6018e+01	7.5952	8.356836	0.000262	2.621037	0.444016	0.000026
 766	7.6118e+01	7.6060	8.381684	0.000250	2.498176	0.423202	0.000025
 767	7.6217e+01	7.6202	8.403273	0.000217	2.170546	0.367701	0.000022
 768	7.6317e+01	7.6276	8.427714	0.000246	2.457222	0.416265	0.000025
 769	7.6416e+01	7.6384	8.448081	0.000205	2.047685	0.346887	0.000020
 770	7.6516e+01	7.6487	8.470892	0.000229	2.293407	0.388514	0.000023
 771	7.6615e+01	7.6574	8.493703	0.000229	2.293407	0.388514	0.000023
 772	7.6715e+01	7.6660	8.519366	0.000258	2.580083	0.437078	0.000026
 773	7.6814e+01	7.6758	8.541362	0.000221	2.211500	0.374638	0.000022
 774	7.6913e+01	7.6855	8.561729	0.000205	2.047685	0.346887	0.000020
 775	7.7013e+01	7.6978	8.582504	0.000209	2.088639	0.353825	0.000021
 776	7.7112e+01	7.7063	8.607759	0.000254	2.539130	0.430140	0.000025
 777	7.7212e+01	7.7206	8.630570	0.000229	2.293407	0.388514	0.000023
 778	7.7311e+01	7.7267	8.656233	0.000258	2.580083	0.437078	0.000026
 779	7.7411e+01	7.7377	8.674971	0.000188	1.883870	0.319136	0.000019
 780	7.7510e+01	7.7463	8.701855	0.000270	2.702945	0.457891	0.000027
 781	7.7610e+01	7.7564	8.723444	0.000217	2.170546	0.367701	0.000022
 782	7.7710e+01	7.7661	8.747885	0.000246	2.457222	0.416265	0.000025
 783	7.7809e+01	7.7760	8.770289	0.000225	2.252454	0.381576	0.000023
 784	7.7909e+01	7.7850	8.791878	0.000217	2.170546	0.367701	0.000022
 785	7.8008e+01	7.7969	8.817541	0.000258	2.580083	0.437078	0.000026
 786	7.8108e+01	7.8076	8.837908	0.000205	2.047685	0.346887	0.000020
 787	7.8207e+01	7.8179	8.859904	0.000221	2.211500	0.374638	0.000022
 788	7.8306e+01	7.8262	8.884345	0.000246	2.457222	0.416265	0.000025
 789	7.8406e+01	7.8396	8.906749	0.000225	2.252454	0.381576	0.000023
 790	7.8505e+01	7.8468	8.927930	0.000213	2.129593	0.360763	0.000021
 791	7.8605e+01	7.8582	8.951556	0.000238	2.375315	0.402389	0.000024
 792	7.8704e+01	7.8672	8.973960	0.000225	2.252454	0.381576	0.000023
 793	7.8804e+01	7.8750	8.996364	0.000225	2.252454	0.381576	0.000023
 794	7.8903e+01	7.8864	9.017546	0.000213	2.129593	0.360763	0.000021
 795	7.9003e+01	7.8943	9.042394	0.000250	2.498176	0.423202	0.000025
 796	7.9103e+01	7.9053	9.061946	0.000197	1.965778	0.333012	0.000020
 797	7.9202e+01	7.9153	9.081499	0.000197	1.965778	0.333012	0.000020
 798	7.9302e+01	7.9262	9.102680	0.000213	2.129593	0.360763	0.000021
 799	7.9401e+01	7.9346	9.128343	0.000258	2.580083	0.437078	0.000026
 800	7.9501e+01	7.9460	9.147488	0.000192	1.924824	0.326074	0.000019
 801	7.9600e+01	7.9548	9.168262	0.000209	2.088639	0.353825	0.000021
 802	7.9700e+01	7.9639	9.191074	0.000229	2.293407	0.388514	0.000023
 803	7.9799e+01	7.9729	9.209811	0.000188	1.883870	0.319136	0.000019
 804	7.9898e+01	7.9842	9.224476	0.000147	1.474333	0.249759	0.000015
 805	7.9998e+01	7.9945	9.246065	0.000217	2.170546	0.367701	0.000022
 806	8.0097e+01	8.0046	9.269283	0.000233	2.334361	0.395451	0.000023
 807	8.0197e+01	8.0161	9.287614	0.000184	1.842917	0.312199	0.000018
 808	8.0296e+01	8.0250	9.308388	0.000209	2.088639	0.353825	0.000021
 809	8.0396e+01	8.0354	9.331199	0.000229	2.293407	0.388514	0.000023
 810	8.0496e+01	8.0469	9.352789	0.000217	2.170546	0.367701	0.000022
 811	8.0595e+01	8.0580	9.373970	0.000213	2.129593	0.360763	0.000021
 812	8.0695e+01	8.0673	9.392708	0.000188	1.883870	0.319136	0.000019
 813	8.0794e+01	8.0753	9.414297	0.000217	2.170546	0.367701	0.000022
 814	8.0894e+01	8.0853	9.435887	0.000217	2.170546	0.367701	0.000022
 815	8.0993e+01	8.0972	9.458290	0.000225	2.252454	0.381576	0.000023
 816	8.1093e+01	8.1042	9.481509	0.000233	2.334361	0.395451	0.000023
 817	8.1192e+01	8.1130	9.503098	0.000217	2.170546	0.367701	0.000022
 818	8.1291e+01	8.1255	9.521836	0.000188	1.883870	0.319136	0.000019
 819	8.1391e+01	8.1350	9.549942	0.000283	2.825806	0.478704	0.000028
 820	8.1490e+01	8.1470	9.574383	0.000246	2.457222	0.416265	0.000025
 821	8.1590e+01	8.1543	9.597602	0.000233	2.334361	0.395451	0.000023
 822	8.1689e+01	8.1641	9.618783	0.000213	2.129593	0.360763	0.000021
 823	8.1789e+01	8.1739	9.643631	0.000250	2.498176	0.423202	0.000025
 824	8.1888e+01	8.1836	9.669294	0.000258	2.580083	0.437078	0.000026
 825	8.1988e+01	8.1940	9.690476	0.000213	2.129593	0.360763	0.000021
 826	8.2088e+01	8.2037	9.714916	0.000246	2.457222	0.416265	0.000025
 827	8.2187e+01	8.2146	9.740986	0.000262	2.621037	0.444016	0.000026
 828	8.2287e+01	8.2244	9.766241	0.000254	2.539130	0.430140	0.000025
 829	8.2386e+01	8.2352	9.791089	0.000250	2.498176	0.423202	0.000025
 830	8.2486e+01	8.2455	9.815530	0.000246	2.457222	0.416265	0.000025
 831	8.2585e+01	8.2532	9.835490	0.000201	2.006732	0.339950	0.000020
 832	8.2684e+01	8.2626	9.866448	0.000311	3.112482	0.527269	0.000031
 833	8.2784e+01	8.2739	9.891296	0.000250	2.498176	0.423202	0.000025
 834	8.2883e+01	8.2858	9.916143	0.000250	2.498176	0.423202	0.000025
 835	8.2983e+01	8.2960	9.942213	0.000262	2.621037	0.444016	0.000026
 836	8.3082e+01	8.3038	9.967469	0.000254	2.539130	0.430140	0.000025
 837	8.3182e+01	8.3145	9.990280	0.000229	2.293407	0.388514	0.000023
 838	8.3281e+01	8.3234	10.016350	0.000262	2.621037	0.444016	0.000026
 839	8.3381e+01	8.3334	10.039568	0.000233	2.334361	0.395451	0.000023
 840	8.3481e+01	8.3453	10.065638	0.000262	2.621037	0.444016	0.000026
 841	8.3580e+01	8.3529	10.094967	0.000295	2.948667	0.499518	0.000029
 842	8.3680e+01	8.3625	10.117778	0.000229	2.293407	0.388514	0.000023
 843	8.3779e+01	8.3717	10.142219	0.000246	2.457222	0.416265	0.000025
 844	8.3879e+01	8.3822	10.169103	0.000270	2.702945	0.457891	0.000027
 845	8.3978e+01	8.3918	10.195580	0.000266	2.661991	0.450953	0.000027
 846	8.4078e+01	8.4013	10.222465	0.000270	2.702945	0.457891	0.000027
 847	8.4177e+01	8.4129	10.249757	0.000274	2.743898	0.464829	0.000027
 848	8.4276e+01	8.4245	10.277456	0.000278	2.784852	0.471767	0.000028
 849	8.4376e+01	8.4330	10.300675	0.000233	2.334361	0.395451	0.000023
 850	8.4475e+01	8.4448	10.332040	0.000315	3.153435	0.534206	0.000032
 851	8.4575e+01	8.4604	10.357295	0.000254	2.539130	0.430140	0.000025
 852	8.4674e+01	8.4614	10.384180	0.000270	2.702945	0.457891	0.000027
 853	8.4774e+01	8.4737	10.410250	0.000262	2.621037	0.444016	0.000026
 854	8.4874e+01	8.4827	10.438764	0.000287	2.866759	0.485642	0.000029
 855	8.4973e+01	8.4927	10.465649	0.000270	2.702945	0.457891	0.000027
 856	8.5073e+01	8.5036	10.491718	0.000262	2.621037	0.444016	0.000026
 857	8.5172e+01	8.5115	10.516566	0.000250	2.498176	0.423202	0.000025
 858	8.5272e+01	8.5229	10.543451	0.000270	2.702945	0.457891	0.000027
 859	8.5371e+01	8.5303	10.569521	0.000262	2.621037	0.444016	0.000026
 860	8.5471e+01	8.5425	10.601294	0.000319	3.194389	0.541144	0.000032
 861	8.5570e+01	8.5513	10.628178	0.000270	2.702945	0.457891	0.000027
 862	8.5669e+01	8.5612	10.656285	0.000283	2.825806	0.478704	0.000028
 863	8.5769e+01	8.5727	10.681133	0.000250	2.498176	0.423202	0.000025
 864	8.5868e+01	8.5847	10.706388	0.000254	2.539130	0.430140	0.000025
 865	8.5968e+01	8.5919	10.735309	0.000291	2.907713	0.492580	0.000029
 866	8.6067e+01	8.6053	10.760972	0.000258	2.580083	0.437078	0.000026
 867	8.6167e+01	8.6133	10.790708	0.000299	2.989620	0.506455	0.000030
 868	8.6266e+01	8.6231	10.816370	0.000258	2.580083	0.437078	0.000026
 869	8.6366e+01	8.6337	10.844477	0.000283	2.825806	0.478704	0.000028
 870	8.6466e+01	8.6434	10.870140	0.000258	2.580083	0.437078	0.000026
 871	8.6565e+01	8.6516	10.898654	0.000287	2.866759	0.485642	0.000029
 872	8.6665e+01	8.6622	10.926760	0.000283	2.825806	0.478704	0.000028
 873	8.6764e+01	8.6723	10.952423	0.000258	2.580083	0.437078	0.000026
 874	8.6864e+01	8.6816	10.982974	0.000307	3.071528	0.520331	0.000031
 875	8.6963e+01	8.6916	11.013932	0.000311	3.112482	0.527269	0.000031
 876	8.7063e+01	8.7007	11.037965	0.000242	2.416269	0.409327	0.000024
 877	8.7162e+01	8.7122	11.069330	0.000315	3.153435	0.534206	0.000032
 878	8.7261e+01	8.7211	11.099881	0.000307	3.071528	0.520331	0.000031
 879	8.7361e+01	8.7321	11.134098	0.000344	3.440111	0.582771	0.000034
 880	8.7460e+01	8.7406	11.161390	0.000274	2.743898	0.464829	0.000027
 881	8.7560e+01	8.7531	11.191126	0.000299	2.989620	0.506455	0.000030
 882	8.7659e+01	8.7634	11.222491	0.000315	3.153435	0.534206	0.000032
 883	8.7759e+01	8.7702	11.249376	0.000270	2.702945	0.457891	0.000027
 884	8.7859e+01	8.7807	11.279519	0.000303	3.030574	0.513393	0.000030
 885	8.7958e+01	8.7923	11.313328	0.000340	3.399158	0.575833	0.000034
 886	8.8058e+01	8.8001	11.339398	0.000262	2.621037	0.444016	0.000026
 887	8.8157e+01	8.8105	11.368727	0.000295	2.948667	0.499518	0.000029
 888	8.8257e+01	8.8209	11.400500	0.000319	3.194389	0.541144	0.000032
 889	8.8356e+01	8.8306	11.432680	0.000324	3.235343	0.548082	0.000032
 890	8.8456e+01	8.8409	11.461194	0.000287	2.866759	0.485642	0.000029
 891	8.8555e+01	8.8501	11.489708	0.000287	2.866759	0.485642	0.000029
 892	8.8654e+01	8.8602	11.521480	0.000319	3.194389	0.541144	0.000032
 893	8.8754e+01	8.8692	11.549994	0.000287	2.866759	0.485642	0.000029
 894	8.8853e+01	8.8788	11.578916	0.000291	2.907713	0.492580	0.000029
 895	8.8953e+01	8.8894	11.608652	0.000299	2.989620	0.506455	0.000030
 896	8.9052e+01	8.9014	11.638388	0.000299	2.989620	0.506455	0.000030
 897	8.9152e+01	8.9087	11.665680	0.000274	2.743898	0.464829	0.000027
 898	8.9251e+01	8.9209	11.699489	0.000340	3.399158	0.575833	0.000034
 899	8.9351e+01	8.9307	11.729632	0.000303	3.030574	0.513393	0.000030
 900	8.9451e+01	8.9392	11.756110	0.000266	2.661991	0.450953	0.000027
 901	8.9550e+01	8.9496	11.787068	0.000311	3.112482	0.527269	0.000031
 902	8.9650e+01	8.9584	11.815582	0.000287	2.866759	0.485642	0.000029
 903	8.9749e+01	8.9686	11.845725	0.000303	3.030574	0.513393	0.000030
 904	8.9849e+01	8.9799	11.870980	0.000254	2.539130	0.430140	0.000025
 905	8.9948e+01	8.9905	11.900309	0.000295	2.948667	0.499518	0.000029
 906	9.0047e+01	9.0024	11.928008	0.000278	2.784852	0.471767	0.000028
 907	9.0147e+01	9.0112	11.955708	0.000278	2.784852	0.471767	0.000028
 908	9.0246e+01	9.0201	11.981777	0.000262	2.621037	0.444016	0.000026
 909	9.0346e+01	9.0289	12.015180	0.000336	3.358204	0.568895	0.000034
 910	9.0445e+01	9.0388	12.040842	0.000258	2.580083	0.437078	0.000026
 911	9.0545e+01	9.0495	12.067727	0.000270	2.702945	0.457891	0.000027
 912	9.0644e+01	9.0579	12.096241	0.000287	2.866759	0.485642	0.000029
 913	9.0744e+01	9.0685	12.124347	0.000283	2.825806	0.478704	0.000028
 914	9.0844e+01	9.0802	12.152454	0.000283	2.825806	0.478704	0.000028
 915	9.0943e+01	9.0884	12.180153	0.000278	2.784852	0.471767	0.000028
 916	9.1043e+01	9.0983	12.207853	0.000278	2.784852	0.471767	0.000028
 917	9.1142e+01	9.1077	12.236774	0.000291	2.907713	0.492580	0.000029
 918	9.1242e+01	9.1193	12.265288	0.000287	2.866759	0.485642	0.000029
 919	9.1341e+01	9.1310	12.292173	0.000270	2.702945	0.457891	0.000027
 920	9.1441e+01	9.1400	12.321909	0.000299	2.989620	0.506455	0.000030
 921	9.1540e+01	9.1486	12.348793	0.000270	2.702945	0.457891	0.000027
 922	9.1639e+01	9.1566	12.379751	0.000311	3.112482	0.527269	0.000031
 923	9.1739e+01	9.1688	12.411117	0.000315	3.153435	0.534206	0.000032
 924	9.1838e+01	9.1784	12.436372	0.000254	2.539130	0.430140	0.000025
 925	9.1938e+01	9.1885	12.468552	0.000324	3.235343	0.548082	0.000032
 926	9.2037e+01	9.1992	12.497066	0.000287	2.866759	0.485642	0.000029
 927	9.2137e+01	9.2078	12.525580	0.000287	2.866759	0.485642	0.000029
 928	9.2237e+01	9.2178	12.553279	0.000278	2.784852	0.471767	0.000028
 929	9.2336e+01	9.2273	12.585459	0.000324	3.235343	0.548082	0.000032
 930	9.2436e+01	9.2390	12.611122	0.000258	2.580083	0.437078	0.000026
 931	9.2535e+01	9.2493	12.639636	0.000287	2.866759	0.485642	0.000029
 932	9.2635e+01	9.2569	12.667335	0.000278	2.784852	0.471767	0.000028
 933	9.2734e+01	9.2693	12.691776	0.000246	2.457222	0.416265	0.000025
 934	9.2834e+01	9.2780	12.721919	0.000303	3.030574	0.513393	0.000030
 935	9.2933e+01	9.2879	12.750840	0.000291	2.907713	0.492580	0.000029
 936	9.3032e+01	9.3018	12.780984	0.000303	3.030574	0.513393	0.000030
 937	9.3132e+01	9.3073	12.805424	0.000246	2.457222	0.416265	0.000025
 938	9.3231e+01	9.3177	12.833123	0.000278	2.784852	0.471767	0.000028
 939	9.3331e+01	9.3292	12.863674	0.000307	3.071528	0.520331	0.000031
 940	9.3430e+01	9.3385	12.888522	0.000250	2.498176	0.423202	0.000025
 941	9.3530e+01	9.3483	12.919073	0.000307	3.071528	0.520331	0.000031
 942	9.3629e+01	9.3622	12.945550	0.000266	2.661991	0.450953	0.000027
 943	9.3729e+01	9.3666	12.972027	0.000266	2.661991	0.450953	0.000027
 944	9.3829e+01	9.3784	13.001763	0.000299	2.989620	0.506455	0.000030
 945	9.3928e+01	9.3860	13.032721	0.000311	3.112482	0.527269	0.000031
 946	9.4028e+01	9.3952	13.056347	0.000238	2.375315	0.402389	0.000024
 947	9.4127e+01	9.4080	13.084861	0.000287	2.866759	0.485642	0.000029
 948	9.4227e+01	9.4183	13.116226	0.000315	3.153435	0.534206	0.000032
 949	9.4326e+01	9.4281	13.142704	0.000266	2.661991	0.450953	0.000027
 950	9.4425e+01	9.4363	13.172032	0.000295	2.948667	0.499518	0.000029
 951	9.4525e+01	9.4485	13.205027	0.000332	3.317250	0.561957	0.000033
 952	9.4624e+01	9.4571	13.228653	0.000238	2.375315	0.402389	0.000024
 953	9.4724e+01	9.4680	13.260833	0.000324	3.235343	0.548082	0.000032
 954	9.4823e+01	9.4776	13.293420	0.000328	3.276296	0.555020	0.000033
 955	9.4923e+01	9.4863	13.317046	0.000238	2.375315	0.402389	0.000024
 956	9.5022e+01	9.4971	13.350448	0.000336	3.358204	0.568895	0.000034
 957	9.5122e+01	9.5045	13.377333	0.000270	2.702945	0.457891	0.000027
 958	9.5222e+01	9.5174	13.410735	0.000336	3.358204	0.568895	0.000034
 959	9.5321e+01	9.5269	13.443730	0.000332	3.317250	0.561957	0.000033
 960	9.5421e+01	9.5374	13.470207	0.000266	2.661991	0.450953	0.000027
 961	9.5520e+01	9.5459	13.498314	0.000283	2.825806	0.478704	0.000028
 962	9.5620e+01	9.5560	13.523162	0.000250	2.498176	0.423202	0.000025
 963	9.5719e+01	9.5691	13.555749	0.000328	3.276296	0.555020	0.000033
 964	9.5819e+01	9.5776	13.582226	0.000266	2.661991	0.450953	0.000027
 965	9.5918e+01	9.5841	13.613999	0.000319	3.194389	0.541144	0.000032
 966	9.6017e+01	9.5972	13.639254	0.000254	2.539130	0.430140	0.000025
 967	9.6117e+01	9.6058	13.667361	0.000283	2.825806	0.478704	0.000028
 968	9.6216e+01	9.6136	13.694246	0.000270	2.702945	0.457891	0.000027
 969	9.6316e+01	9.6277	13.722760	0.000287	2.866759	0.485642	0.000029
 970	9.6415e+01	9.6363	13.748829	0.000262	2.621037	0.444016	0.000026
 971	9.6515e+01	9.6478	13.773677	0.000250	2.498176	0.423202	0.000025
 972	9.6615e+01	9.6561	13.803006	0.000295	2.948667	0.499518	0.000029
 973	9.6714e+01	9.6656	13.826632	0.000238	2.375315	0.402389	0.000024
 974	9.6814e+01	9.6731	13.856368	0.000299	2.989620	0.506455	0.000030
 975	9.6913e+01	9.6864	13.887733	0.000315	3.153435	0.534206	0.000032
 976	9.7013e+01	9.6938	13.915025	0.000274	2.743898	0.464829	0.000027
 977	9.7112e+01	9.7042	13.944354	0.000295	2.948667	0.499518	0.000029
 978	9.7212e+01	9.7147	13.972868	0.000287	2.866759	0.485642	0.000029
 979	9.7311e+01	9.7279	14.003419	0.000307	3.071528	0.520331	0.000031
 980	9.7410e+01	9.7372	14.032747	0.000295	2.948667	0.499518	0.000029
 981	9.7510e+01	9.7467	14.062483	0.000299	2.989620	0.506455	0.000030
 982	9.7609e+01	9.7561	14.089368	0.000270	2.702945	0.457891	0.000027
 983	9.7709e+01	9.7671	14.119919	0.000307	3.071528	0.520331	0.000031
 984	9.7808e+01	9.7744	14.150877	0.000311	3.112482	0.527269	0.000031
 985	9.7908e+01	9.7829	14.184686	0.000340	3.399158	0.575833	0.000034
 986	9.8007e+01	9.7952	14.218495	0.000340	3.399158	0.575833	0.000034
 987	9.8107e+01	9.8053	14.252305	0.000340	3.399158	0.575833	0.000034
 988	9.8207e+01	9.8139	14.285707	0.000336	3.358204	0.568895	0.000034
 989	9.8306e+01	9.8252	14.319924	0.000344	3.440111	0.582771	0.000034
 990	9.8406e+01	9.8367	14.357399	0.000377	3.767741	0.638273	0.000038
 991	9.8505e+01	9.8486	14.393653	0.000364	3.644880	0.617459	0.000036
 992	9.8605e+01	9.8550	14.427462	0.000340	3.399158	0.575833	0.000034
 993	9.8704e+01	9.8664	14.460864	0.000336	3.358204	0.568895	0.000034
 994	9.8803e+01	9.8762	14.496710	0.000360	3.603926	0.610522	0.000036
 995	9.8903e+01	9.8865	14.534186	0.000377	3.767741	0.638273	0.000038
 996	9.9002e+01	9.8939	14.569625	0.000356	3.562972	0.603584	0.000036
 997	9.9102e+01	9.9084	14.605878	0.000364	3.644880	0.617459	0.000036
 998	9.9201e+01	9.9148	14.640095	0.000344	3.440111	0.582771	0.000034
 999	9.9301e+01	9.9262	14.680422	0.000405	4.054417	0.686837	0.000041
1000	9.9400e+01	9.9341	14.721156	0.000410	4.095371	0.693775	0.000041
1001	9.9500e+01	9.9463	14.756595	0.000356	3.562972	0.603584	0.000036
1002	9.9600e+01	9.9545	14.796922	0.000405	4.054417	0.686837	0.000041
1003	9.9699e+01	9.9660	14.830731	0.000340	3.399158	0.575833	0.000034
1004	9.9799e+01	9.9738	14.866985	0.000364	3.644880	0.617459	0.000036
1005	9.9898e+01	9.9866	14.913829	0.000471	4.709676	0.797841	0.000047
1006	9.9998e+01	9.9936	14.948861	0.000352	3.522019	0.596646	0.000035
1007	1.0010e+02	9.9863	14.949268	-0.000004	-0.040954	-0.006938	0.000000
1008	1.0020e+02	9.9768	14.952527	-0.000033	-0.327630	-0.055502	0.000003
1009	1.0030e+02	9.9648	14.958230	-0.000057	-0.573352	-0.097128	0.000006
1010	1.0040e+02	9.9540	14.957822	0.000004	0.040954	0.006938	-0.000000
1011	1.0050e+02	9.9424	14.961896	-0.000041	-0.409537	-0.069377	0.000004
1012	1.0059e+02	9.9346	14.962710	-0.000008	-0.081907	-0.013875	0.000001
1013	1.0069e+02	9.9232	14.964747	-0.000020	-0.204769	-0.034689	0.000002
1014	1.0079e+02	9.9146	14.967598	-0.000029	-0.286676	-0.048564	0.000003
1015	1.0089e+02	9.9039	14.971672	-0.000041	-0.409537	-0.069377	0.000004
1016	1.0099e+02	9.8941	14.970857	0.000008	0.081907	0.013875	-0.000001
1017	1.0109e+02	9.8859	14.974116	-0.000033	-0.327630	-0.055502	0.000003
1018	1.0119e+02	9.8779	14.974116	-0.000000	-0.000000	-0.000000	0.000000
1019	1.0129e+02	9.8645	14.973709	0.000004	0.040954	0.006938	-0.000000
1020	1.0139e+02	9.8560	14.974931	-0.000012	-0.122861	-0.020813	0.000001
1021	1.0149e+02	9.8426	14.975745	-0.000008	-0.081907	-0.013875	0.000001
1022	1.0159e+02	9.8344	14.979819	-0.000041	-0.409537	-0.069377	0.000004
1023	1.0169e+02	9.8251	14.980226	-0.000004	-0.040954	-0.006938	0.000000
1024	1.0179e+02	9.8136	14.975745	0.000045	0.450491	0.076315	-0.000005
1025	1.0189e+02	9.8032	14.977782	-0.000020	-0.204769	-0.034689	0.000002
1026	1.0199e+02	9.7950	14.975745	0.000020	0.204769	0.034689	-0.000002
1027	1.0209e+02	9.7864	14.978597	-0.000029	-0.286676	-0.048564	0.000003
1028	1.0219e+02	9.7763	14.977782	0.000008	0.081907	0.013875	-0.000001
1029	1.0229e+02	9.7649	14.975745	0.000020	0.204769	0.034689	-0.000002
1030	1.0239e+02	9.7576	14.975745	-0.000000	-0.000000	-0.000000	0.000000
1031	1.0248e+02	9.7440	14.974116	0.000016	0.163815	0.027751	-0.000002
1032	1.0258e+02	9.7379	14.975338	-0.000012	-0.122861	-0.020813	0.000001
1033	1.0268e+02	9.7275	14.974116	0.000012	0.122861	0.020813	-0.000001
1034	1.0278e+02	9.7137	14.975745	-0.000016	-0.163815	-0.027751	0.000002
1035	1.0288e+02	9.7079	14.971672	0.000041	0.409537	0.069377	-0.000004
1036	1.0298e+02	9.6962	14.969635	0.000020	0.204769	0.034689	-0.000002
1037	1.0308e+02	9.6852	14.966784	0.000029	0.286676	0.048564	-0.000003
1038	1.0318e+02	9.6753	14.963118	0.000037	0.368583	0.062440	-0.000004
1039	1.0328e+02	9.6657	14.958230	0.000049	0.491444	0.083253	-0.000005
1040	1.0338e+02	9.6582	14.954156	0.000041	0.409537	0.069377	-0.000004
1041	1.0348e+02	9.6460	14.952119	0.000020	0.204769	0.034689	-0.000002
1042	1.0358e+02	9.6349	14.945195	0.000070	0.696213	0.117942	-0.000007
1043	1.0368e+02	9.6289	14.943973	0.000012	0.122861	0.020813	-0.000001
1044	1.0378e+02	9.6159	14.937048	0.000070	0.696213	0.117942	-0.000007
1045	1.0388e+02	9.6076	14.940714	-0.000037	-0.368583	-0.062440	0.000004
1046	1.0398e+02	9.5972	14.929308	0.000115	1.146704	0.194257	-0.000011
1047	1.0408e+02	9.5864	14.930938	-0.000016	-0.163815	-0.027751	0.000002
1048	1.0418e+02	9.5768	14.927271	0.000037	0.368583	0.062440	-0.000004
1049	1.0428e+02	9.5669	14.923198	0.000041	0.409537	0.069377	-0.000004
1050	1.0438e+02	9.5544	14.918310	0.000049	0.491444	0.083253	-0.000005
1051	1.0447e+02	9.5478	14.916681	0.000016	0.163815	0.027751	-0.000002
1052	1.0457e+02	9.5377	14.914644	0.000020	0.204769	0.034689	-0.000002
1053	1.0467e+02	9.5264	14.910570	0.000041	0.409537	0.069377	-0.000004
1054	1.0477e+02	9.5178	14.906904	0.000037	0.368583	0.062440	-0.000004
1055	1.0487e+02	9.5068	14.902831	0.000041	0.409537	0.069377	-0.000004
1056	1.0497e+02	9.4956	14.903646	-0.000008	-0.081907	-0.013875	0.000001
1057	1.0507e+02	9.4882	14.897535	0.000061	0.614306	0.104066	-0.000006
1058	1.0517e+02	9.4766	14.897535	-0.000000	-0.000000	-0.000000	0.000000
1059	1.0527e+02	9.4686	14.896721	0.000008	0.081907	0.013875	-0.000001
1060	1.0537e+02	9.4583	14.895499	0.000012	0.122861	0.020813	-0.000001
1061	1.0547e+02	9.4453	14.891425	0.000041	0.409537	0.069377	-0.000004
1062	1.0557e+02	9.4404	14.885723	0.000057	0.573352	0.097128	-0.000006
1063	1.0567e+02	9.4257	14.885315	0.000004	0.040954	0.006938	-0.000000
1064	1.0577e+02	9.4196	14.882464	0.000029	0.286676	0.048564	-0.000003
1065	1.0587e+02	9.4082	14.873910	0.000086	0.860028	0.145693	-0.000009
1066	1.0597e+02	9.3963	14.873910	-0.000000	-0.000000	-0.000000	0.000000
1067	1.0607e+02	9.3872	14.867392	0.000066	0.655259	0.111004	-0.000007
1068	1.0617e+02	9.3784	14.860467	0.000070	0.696213	0.117942	-0.000007
1069	1.0627e+02	9.3658	14.854764	0.000057	0.573352	0.097128	-0.000006
1070	1.0637e+02	9.3559	14.844581	0.000102	1.023843	0.173444	-0.000010
1071	1.0647e+02	9.3468	14.838063	0.000066	0.655259	0.111004	-0.000007
1072	1.0656e+02	9.3394	14.830324	0.000078	0.778120	0.131817	-0.000008
1073	1.0666e+02	9.3288	14.823399	0.000070	0.696213	0.117942	-0.000007
1074	1.0676e+02	9.3164	14.815252	0.000082	0.819074	0.138755	-0.000008
1075	1.0686e+02	9.3072	14.805476	0.000098	0.982889	0.166506	-0.000010
1076	1.0696e+02	9.2982	14.797329	0.000082	0.819074	0.138755	-0.000008
1077	1.0706e+02	9.2896	14.787960	0.000094	0.941935	0.159568	-0.000009
1078	1.0716e+02	9.2798	14.774518	0.000135	1.351472	0.228946	-0.000014
1079	1.0726e+02	9.2664	14.766779	0.000078	0.778120	0.131817	-0.000008
1080	1.0736e+02	9.2593	14.755373	0.000115	1.146704	0.194257	-0.000011
1081	1.0746e+02	9.2484	14.743153	0.000123	1.228611	0.208132	-0.000012
1082	1.0756e+02	9.2383	14.735820	0.000074	0.737167	0.124879	-0.000007
1083	1.0766e+02	9.2265	14.722378	0.000135	1.351472	0.228946	-0.000014
1084	1.0776e+02	9.2169	14.714231	0.000082	0.819074	0.138755	-0.000008
1085	1.0786e+02	9.2078	14.704048	0.000102	1.023843	0.173444	-0.000010
1086	1.0796e+02	9.1979	14.693864	0.000102	1.023843	0.173444	-0.000010
1087	1.0806e+02	9.1901	14.681237	0.000127	1.269565	0.215070	-0.000013
1088	1.0816e+02	9.1748	14.672682	0.000086	0.860028	0.145693	-0.000009
1089	1.0826e+02	9.1687	14.664536	0.000082	0.819074	0.138755	-0.000008
1090	1.0836e+02	9.1592	14.658018	0.000066	0.655259	0.111004	-0.000007
1091	1.0845e+02	9.1492	14.644576	0.000135	1.351472	0.228946	-0.000014
1092	1.0855e+02	9.1386	14.633170	0.000115	1.146704	0.194257	-0.000011
1093	1.0865e+02	9.1300	14.625838	0.000074	0.737167	0.124879	-0.000007
1094	1.0875e+02	9.1211	14.611174	0.000147	1.474333	0.249759	-0.000015
1095	1.0885e+02	9.1093	14.600990	0.000102	1.023843	0.173444	-0.000010
1096	1.0895e+02	9.0982	14.592436	0.000086	0.860028	0.145693	-0.000009
1097	1.0905e+02	9.0862	14.581030	0.000115	1.146704	0.194257	-0.000011
1098	1.0915e+02	9.0765	14.569217	0.000119	1.187657	0.201195	-0.000012
1099	1.0925e+02	9.0707	14.554553	0.000147	1.474333	0.249759	-0.000015
1100	1.0935e+02	9.0579	14.544777	0.000098	0.982889	0.166506	-0.000010
1101	1.0945e+02	9.0527	14.530927	0.000139	1.392426	0.235883	-0.000014
1102	1.0955e+02	9.0387	14.518300	0.000127	1.269565	0.215070	-0.000013
1103	1.0965e+02	9.0287	14.506894	0.000115	1.146704	0.194257	-0.000011
1104	1.0975e+02	9.0186	14.491415	0.000156	1.556241	0.263634	-0.000016
1105	1.0985e+02	9.0096	14.480824	0.000106	1.064796	0.180381	-0.000011
1106	1.0995e+02	9.0015	14.464938	0.000160	1.597195	0.270572	-0.000016
1107	1.1005e+02	8.9948	14.453939	0.000111	1.105750	0.187319	-0.000011
1108	1.1015e+02	8.9800	14.442534	0.000115	1.146704	0.194257	-0.000011
1109	1.1025e+02	8.9700	14.427462	0.000152	1.515287	0.256697	-0.000015
1110	1.1035e+02	8.9600	14.410354	0.000172	1.720056	0.291385	-0.000017
1111	1.1044e+02	8.9502	14.397726	0.000127	1.269565	0.215070	-0.000013
1112	1.1054e+02	8.9404	14.380210	0.000176	1.761009	0.298323	-0.000018
1113	1.1064e+02	8.9301	14.370027	0.000102	1.023843	0.173444	-0.000010
1114	1.1074e+02	8.9215	14.353326	0.000168	1.679102	0.284448	-0.000017
1115	1.1084e+02	8.9088	14.339476	0.000139	1.392426	0.235883	-0.000014
1116	1.1094e+02	8.9003	14.322368	0.000172	1.720056	0.291385	-0.000017
1117	1.1104e+02	8.8898	14.306074	0.000164	1.638148	0.277510	-0.000016
1118	1.1114e+02	8.8798	14.289373	0.000168	1.679102	0.284448	-0.000017
1119	1.1124e+02	8.8691	14.274301	0.000152	1.515287	0.256697	-0.000015
1120	1.1134e+02	8.8599	14.261266	0.000131	1.310519	0.222008	-0.000013
1121	1.1144e+02	8.8515	14.246195	0.000152	1.515287	0.256697	-0.000015
1122	1.1154e+02	8.8364	14.230716	0.000156	1.556241	0.263634	-0.000016
1123	1.1164e+02	8.8300	14.213200	0.000176	1.761009	0.298323	-0.000018
1124	1.1174e+02	8.8214	14.200165	0.000131	1.310519	0.222008	-0.000013
1125	1.1184e+02	8.8109	14.186723	0.000135	1.351472	0.228946	-0.000014
1126	1.1194e+02	8.8003	14.167170	0.000197	1.965778	0.333012	-0.000020
1127	1.1204e+02	8.7897	14.150469	0.000168	1.679102	0.284448	-0.000017
1128	1.1214e+02	8.7807	14.135805	0.000147	1.474333	0.249759	-0.000015
1129	1.1224e+02	8.7714	14.116252	0.000197	1.965778	0.333012	-0.000020
1130	1.1234e+02	8.7592	14.097922	0.000184	1.842917	0.312199	-0.000018
1131	1.1244e+02	8.7531	14.080814	0.000172	1.720056	0.291385	-0.000017
1132	1.1253e+02	8.7424	14.064113	0.000168	1.679102	0.284448	-0.000017
1133	1.1263e+02	8.7305	14.046190	0.000180	1.801963	0.305261	-0.000018
1134	1.1273e+02	8.7207	14.027044	0.000192	1.924824	0.326074	-0.000019
1135	1.1283e+02	8.7134	14.011158	0.000160	1.597195	0.270572	-0.000016
1136	1.1293e+02	8.7012	13.992828	0.000184	1.842917	0.312199	-0.000018
1137	1.1303e+02	8.6907	13.974090	0.000188	1.883870	0.319136	-0.000019
1138	1.1313e+02	8.6805	13.955352	0.000188	1.883870	0.319136	-0.000019
1139	1.1323e+02	8.6729	13.932541	0.000229	2.293407	0.388514	-0.000023
1140	1.1333e+02	8.6611	13.912174	0.000205	2.047685	0.346887	-0.000020
1141	1.1343e+02	8.6523	13.893029	0.000192	1.924824	0.326074	-0.000019
1142	1.1353e+02	8.6451	13.871847	0.000213	2.129593	0.360763	-0.000021
1143	1.1363e+02	8.6308	13.851072	0.000209	2.088639	0.353825	-0.000021
1144	1.1373e+02	8.6230	13.832335	0.000188	1.883870	0.319136	-0.000019
1145	1.1383e+02	8.6102	13.812782	0.000197	1.965778	0.333012	-0.000020
1146	1.1393e+02	8.6013	13.796896	0.000160	1.597195	0.270572	-0.000016
1147	1.1403e+02	8.5929	13.775307	0.000217	2.170546	0.367701	-0.000022
1148	1.1413e+02	8.5823	13.756162	0.000192	1.924824	0.326074	-0.000019
1149	1.1423e+02	8.5720	13.736202	0.000201	2.006732	0.339950	-0.000020
1150	1.1433e+02	8.5630	13.718686	0.000176	1.761009	0.298323	-0.000018
1151	1.1442e+02	8.5516	13.699541	0.000192	1.924824	0.326074	-0.000019
1152	1.1452e+02	8.5410	13.678767	0.000209	2.088639	0.353825	-0.000021
1153	1.1462e+02	8.5339	13.660436	0.000184	1.842917	0.312199	-0.000018
1154	1.1472e+02	8.5233	13.642513	0.000180	1.801963	0.305261	-0.000018
1155	1.1482e+02	8.5151	13.624590	0.000180	1.801963	0.305261	-0.000018
1156	1.1492e+02	8.5027	13.603816	0.000209	2.088639	0.353825	-0.000021
1157	1.1502e+02	8.4946	13.588337	0.000156	1.556241	0.263634	-0.000016
1158	1.1512e+02	8.4821	13.571635	0.000168	1.679102	0.284448	-0.000017
1159	1.1522e+02	8.4738	13.551268	0.000205	2.047685	0.346887	-0.000020
1160	1.1532e+02	8.4619	13.532938	0.000184	1.842917	0.312199	-0.000018
1161	1.1542e+02	8.4531	13.520310	0.000127	1.269565	0.215070	-0.000013
1162	1.1552e+02	8.4430	13.500351	0.000201	2.006732	0.339950	-0.000020
1163	1.1562e+02	8.4326	13.482835	0.000176	1.761009	0.298323	-0.000018
1164	1.1572e+02	8.4222	13.465726	0.000172	1.720056	0.291385	-0.000017
1165	1.1582e+02	8.4144	13.449433	0.000164	1.638148	0.277510	-0.000016
1166	1.1592e+02	8.4011	13.433954	0.000156	1.556241	0.263634	-0.000016
1167	1.1602e+02	8.3946	13.416031	0.000180	1.801963	0.305261	-0.000018
1168	1.1612e+02	8.3823	13.396478	0.000197	1.965778	0.333012	-0.000020
1169	1.1622e+02	8.3722	13.380999	0.000156	1.556241	0.263634	-0.000016
1170	1.1632e+02	8.3630	13.360225	0.000209	2.088639	0.353825	-0.000021
1171	1.1642e+02	8.3529	13.345560	0.000147	1.474333	0.249759	-0.000015
1172	1.1651e+02	8.3496	13.330081	0.000156	1.556241	0.263634	-0.000016
1173	1.1661e+02	8.3351	13.311751	0.000184	1.842917	0.312199	-0.000018
1174	1.1671e+02	8.3233	13.291384	0.000205	2.047685	0.346887	-0.000020
1175	1.1681e+02	8.3160	13.273461	0.000180	1.801963	0.305261	-0.000018
1176	1.1691e+02	8.3060	13.258796	0.000147	1.474333	0.249759	-0.000015
1177	1.1701e+02	8.2932	13.240466	0.000184	1.842917	0.312199	-0.000018
1178	1.1711e+02	8.2848	13.222543	0.000180	1.801963	0.305261	-0.000018
1179	1.1721e+02	8.2752	13.206657	0.000160	1.597195	0.270572	-0.000016
1180	1.1731e+02	8.2642	13.188326	0.000184	1.842917	0.312199	-0.000018
1181	1.1741e+02	8.2528	13.172440	0.000160	1.597195	0.270572	-0.000016
1182	1.1751e+02	8.2440	13.157775	0.000147	1.474333	0.249759	-0.000015
1183	1.1761e+02	8.2355	13.139038	0.000188	1.883870	0.319136	-0.000019
1184	1.1771e+02	8.2252	13.122744	0.000164	1.638148	0.277510	-0.000016
1185	1.1781e+02	8.2147	13.106450	0.000164	1.638148	0.277510	-0.000016
1186	1.1791e+02	8.2041	13.086898	0.000197	1.965778	0.333012	-0.000020
1187	1.1801e+02	8.1947	13.072233	0.000147	1.474333	0.249759	-0.000015
1188	1.1811e+02	8.1849	13.056754	0.000156	1.556241	0.263634	-0.000016
1189	1.1821e+02	8.1723	13.040053	0.000168	1.679102	0.284448	-0.000017
1190	1.1831e+02	8.1647	13.020908	0.000192	1.924824	0.326074	-0.000019
1191	1.1841e+02	8.1543	13.002171	0.000188	1.883870	0.319136	-0.000019
1192	1.1850e+02	8.1464	12.987506	0.000147	1.474333	0.249759	-0.000015
1193	1.1860e+02	8.1357	12.970805	0.000168	1.679102	0.284448	-0.000017
1194	1.1870e+02	8.1232	12.954511	0.000164	1.638148	0.277510	-0.000016
1195	1.1880e+02	8.1152	12.937810	0.000168	1.679102	0.284448	-0.000017
1196	1.1890e+02	8.1033	12.919480	0.000184	1.842917	0.312199	-0.000018
1197	1.1900e+02	8.0972	12.903186	0.000164	1.638148	0.277510	-0.000016
1198	1.1910e+02	8.0852	12.884856	0.000184	1.842917	0.312199	-0.000018
1199	1.1920e+02	8.0774	12.866118	0.000188	1.883870	0.319136	-0.000019
1200	1.1930e+02	8.0646	12.851861	0.000143	1.433380	0.242821	-0.000014
1201	1.1940e+02	8.0558	12.834753	0.000172	1.720056	0.291385	-0.000017
1202	1.1950e+02	8.0459	12.812756	0.000221	2.211500	0.374638	-0.000022
1203	1.1960e+02	8.0350	12.800129	0.000127	1.269565	0.215070	-0.000013
1204	1.1970e+02	8.0249	12.777725	0.000225	2.252454	0.381576	-0.000023
1205	1.1980e+02	8.0164	12.761431	0.000164	1.638148	0.277510	-0.000016
1206	1.1990e+02	8.0048	12.742693	0.000188	1.883870	0.319136	-0.000019
1207	1.2000e+02	7.9946	12.725178	0.000176	1.761009	0.298323	-0.000018
1208	1.2010e+02	7.9859	12.708069	0.000172	1.720056	0.291385	-0.000017
1209	1.2020e+02	7.9758	12.690554	0.000176	1.761009	0.298323	-0.000018
1210	1.2030e+02	7.9642	12.673038	0.000176	1.761009	0.298323	-0.000018
1211	1.2039e+02	7.9562	12.658373	0.000147	1.474333	0.249759	-0.000015
1212	1.2049e+02	7.9479	12.636784	0.000217	2.170546	0.367701	-0.000022
1213	1.2059e+02	7.9374	12.620898	0.000160	1.597195	0.270572	-0.000016
1214	1.2069e+02	7.9255	12.603790	0.000172	1.720056	0.291385	-0.000017
1215	1.2079e+02	7.9156	12.589533	0.000143	1.433380	0.242821	-0.000014
1216	1.2089e+02	7.9056	12.576090	0.000135	1.351472	0.228946	-0.000014
1217	1.2099e+02	7.8976	12.557353	0.000188	1.883870	0.319136	-0.000019
1218	1.2109e+02	7.8860	12.541059	0.000164	1.638148	0.277510	-0.000016
1219	1.2119e+02	7.8750	12.525987	0.000152	1.515287	0.256697	-0.000015
1220	1.2129e+02	7.8655	12.506435	0.000197	1.965778	0.333012	-0.000020
1221	1.2139e+02	7.8535	12.491363	0.000152	1.515287	0.256697	-0.000015
1222	1.2149e+02	7.8460	12.478735	0.000127	1.269565	0.215070	-0.000013
1223	1.2159e+02	7.8359	12.464886	0.000139	1.392426	0.235883	-0.000014
1224	1.2169e+02	7.8259	12.450221	0.000147	1.474333	0.249759	-0.000015
1225	1.2179e+02	7.8151	12.431076	0.000192	1.924824	0.326074	-0.000019
1226	1.2189e+02	7.8059	12.416819	0.000143	1.433380	0.242821	-0.000014
1227	1.2199e+02	7.7966	12.398896	0.000180	1.801963	0.305261	-0.000018
1228	1.2209e+02	7.7864	12.387083	0.000119	1.187657	0.201195	-0.000012
1229	1.2219e+02	7.7756	12.365902	0.000213	2.129593	0.360763	-0.000021
1230	1.2229e+02	7.7651	12.351645	0.000143	1.433380	0.242821	-0.000014
1231	1.2239e+02	7.7576	12.337795	0.000139	1.392426	0.235883	-0.000014
1232	1.2248e+02	7.7460	12.316613	0.000213	2.129593	0.360763	-0.000021
1233	1.2258e+02	7.7390	12.302356	0.000143	1.433380	0.242821	-0.000014
1234	1.2268e+02	7.7254	12.286877	0.000156	1.556241	0.263634	-0.000016
1235	1.2278e+02	7.7178	12.264473	0.000225	2.252454	0.381576	-0.000023
1236	1.2288e+02	7.7074	12.248180	0.000164	1.638148	0.277510	-0.000016
1237	1.2298e+02	7.6969	12.235145	0.000131	1.310519	0.222008	-0.000013
1238	1.2308e+02	7.6839	12.213148	0.000221	2.211500	0.374638	-0.000022
1239	1.2318e+02	7.6747	12.195632	0.000176	1.761009	0.298323	-0.000018
1240	1.2328e+02	7.6667	12.174451	0.000213	2.129593	0.360763	-0.000021
1241	1.2338e+02	7.6580	12.158564	0.000160	1.597195	0.270572	-0.000016
1242	1.2348e+02	7.6480	12.134531	0.000242	2.416269	0.409327	-0.000024
1243	1.2358e+02	7.6389	12.118237	0.000164	1.638148	0.277510	-0.000016
1244	1.2368e+02	7.6279	12.102758	0.000156	1.556241	0.263634	-0.000016
1245	1.2378e+02	7.6151	12.076281	0.000266	2.661991	0.450953	-0.000027
1246	1.2388e+02	7.6058	12.057951	0.000184	1.842917	0.312199	-0.000018
1247	1.2398e+02	7.5966	12.038398	0.000197	1.965778	0.333012	-0.000020
1248	1.2408e+02	7.5884	12.017624	0.000209	2.088639	0.353825	-0.000021
1249	1.2418e+02	7.5762	11.996034	0.000217	2.170546	0.367701	-0.000022
1250	1.2428e+02	7.5692	11.976075	0.000201	2.006732	0.339950	-0.000020
1251	1.2438e+02	7.5576	11.956115	0.000201	2.006732	0.339950	-0.000020
1252	1.2447e+02	7.5490	11.937377	0.000188	1.883870	0.319136	-0.000019
1253	1.2457e+02	7.5368	11.919454	0.000180	1.801963	0.305261	-0.000018
1254	1.2467e+02	7.5265	11.899087	0.000205	2.047685	0.346887	-0.000020
1255	1.2477e+02	7.5147	11.874239	0.000250	2.498176	0.423202	-0.000025
1256	1.2487e+02	7.5089	11.856723	0.000176	1.761009	0.298323	-0.000018
1257	1.2497e+02	7.4971	11.837986	0.000188	1.883870	0.319136	-0.000019
1258	1.2507e+02	7.4898	11.815989	0.000221	2.211500	0.374638	-0.000022
1259	1.2517e+02	7.4787	11.791141	0.000250	2.498176	0.423202	-0.000025
1260	1.2527e+02	7.4678	11.774440	0.000168	1.679102	0.284448	-0.000017
1261	1.2537e+02	7.4576	11.747556	0.000270	2.702945	0.457891	-0.000027
1262	1.2547e+02	7.4540	11.729632	0.000180	1.801963	0.305261	-0.000018
1263	1.2557e+02	7.4355	11.709673	0.000201	2.006732	0.339950	-0.000020
1264	1.2567e+02	7.4258	11.686861	0.000229	2.293407	0.388514	-0.000023
1265	1.2577e+02	7.4181	11.666902	0.000201	2.006732	0.339950	-0.000020
1266	1.2587e+02	7.4107	11.647349	0.000197	1.965778	0.333012	-0.000020
1267	1.2597e+02	7.3994	11.624945	0.000225	2.252454	0.381576	-0.000023
1268	1.2607e+02	7.3899	11.606208	0.000188	1.883870	0.319136	-0.000019
1269	1.2617e+02	7.3779	11.581360	0.000250	2.498176	0.423202	-0.000025
1270	1.2627e+02	7.3689	11.560585	0.000209	2.088639	0.353825	-0.000021
1271	1.2636e+02	7.3598	11.535330	0.000254	2.539130	0.430140	-0.000025
1272	1.2646e+02	7.3492	11.513741	0.000217	2.170546	0.367701	-0.000022
1273	1.2656e+02	7.3409	11.491337	0.000225	2.252454	0.381576	-0.000023
1274	1.2666e+02	7.3277	11.468119	0.000233	2.334361	0.395451	-0.000023
1275	1.2676e+02	7.3177	11.451825	0.000164	1.638148	0.277510	-0.000016
1276	1.2686e+02	7.3096	11.424940	0.000270	2.702945	0.457891	-0.000027
1277	1.2696e+02	7.2980	11.405795	0.000192	1.924824	0.326074	-0.000019
1278	1.2706e+02	7.2903	11.384206	0.000217	2.170546	0.367701	-0.000022
1279	1.2716e+02	7.2789	11.358136	0.000262	2.621037	0.444016	-0.000026
1280	1.2726e+02	7.2698	11.338584	0.000197	1.965778	0.333012	-0.000020
1281	1.2736e+02	7.2620	11.316587	0.000221	2.211500	0.374638	-0.000022
1282	1.2746e+02	7.2491	11.290110	0.000266	2.661991	0.450953	-0.000027
1283	1.2756e+02	7.2394	11.268928	0.000213	2.129593	0.360763	-0.000021
1284	1.2766e+02	7.2283	11.249376	0.000197	1.965778	0.333012	-0.000020
1285	1.2776e+02	7.2193	11.226157	0.000233	2.334361	0.395451	-0.000023
1286	1.2786e+02	7.2095	11.205790	0.000205	2.047685	0.346887	-0.000020
1287	1.2796e+02	7.1999	11.185423	0.000205	2.047685	0.346887	-0.000020
1288	1.2806e+02	7.1895	11.159353	0.000262	2.621037	0.444016	-0.000026
1289	1.2816e+02	7.1809	11.136949	0.000225	2.252454	0.381576	-0.000023
1290	1.2826e+02	7.1695	11.116582	0.000205	2.047685	0.346887	-0.000020
1291	1.2835e+02	7.1577	11.091327	0.000254	2.539130	0.430140	-0.000025
1292	1.2845e+02	7.1499	11.069330	0.000221	2.211500	0.374638	-0.000022
1293	1.2855e+02	7.1409	11.047741	0.000217	2.170546	0.367701	-0.000022
1294	1.2865e+02	7.1297	11.020856	0.000270	2.702945	0.457891	-0.000027
1295	1.2875e+02	7.1192	11.000082	0.000209	2.088639	0.353825	-0.000021
1296	1.2885e+02	7.1116	10.973605	0.000266	2.661991	0.450953	-0.000027
1297	1.2895e+02	7.0995	10.951608	0.000221	2.211500	0.374638	-0.000022
1298	1.2905e+02	7.0881	10.927168	0.000246	2.457222	0.416265	-0.000025
1299	1.2915e+02	7.0806	10.903134	0.000242	2.416269	0.409327	-0.000024
1300	1.2925e+02	7.0696	10.881545	0.000217	2.170546	0.367701	-0.000022
1301	1.2935e+02	7.0605	10.856697	0.000250	2.498176	0.423202	-0.000025
1302	1.2945e+02	7.0516	10.829405	0.000274	2.743898	0.464829	-0.000027
1303	1.2955e+02	7.0403	10.802521	0.000270	2.702945	0.457891	-0.000027
1304	1.2965e+02	7.0321	10.781339	0.000213	2.129593	0.360763	-0.000021
1305	1.2975e+02	7.0225	10.756491	0.000250	2.498176	0.423202	-0.000025
1306	1.2985e+02	7.0090	10.731236	0.000254	2.539130	0.430140	-0.000025
1307	1.2995e+02	7.0013	10.701092	0.000303	3.030574	0.513393	-0.000030
1308	1.3005e+02	6.9912	10.674615	0.000266	2.661991	0.450953	-0.000027
1309	1.3015e+02	6.9797	10.653841	0.000209	2.088639	0.353825	-0.000021
1310	1.3025e+02	6.9727	10.624512	0.000295	2.948667	0.499518	-0.000029
1311	1.3034e+02	6.9611	10.600886	0.000238	2.375315	0.402389	-0.000024
1312	1.3044e+02	6.9509	10.573594	0.000274	2.743898	0.464829	-0.000027
1313	1.3054e+02	6.9412	10.552820	0.000209	2.088639	0.353825	-0.000021
1314	1.3064e+02	6.9329	10.523084	0.000299	2.989620	0.506455	-0.000030
1315	1.3074e+02	6.9238	10.498643	0.000246	2.457222	0.416265	-0.000025
1316	1.3084e+02	6.9128	10.475425	0.000233	2.334361	0.395451	-0.000023
1317	1.3094e+02	6.9009	10.449762	0.000258	2.580083	0.437078	-0.000026
1318	1.3104e+02	6.8911	10.426544	0.000233	2.334361	0.395451	-0.000023
1319	1.3114e+02	6.8822	10.400474	0.000262	2.621037	0.444016	-0.000026
1320	1.3124e+02	6.8716	10.378477	0.000221	2.211500	0.374638	-0.000022
1321	1.3134e+02	6.8593	10.356888	0.000217	2.170546	0.367701	-0.000022
1322	1.3144e+02	6.8517	10.330411	0.000266	2.661991	0.450953	-0.000027
1323	1.3154e+02	6.8414	10.305156	0.000254	2.539130	0.430140	-0.000025
1324	1.3164e+02	6.8301	10.281937	0.000233	2.334361	0.395451	-0.000023
1325	1.3174e+02	6.8227	10.259533	0.000225	2.252454	0.381576	-0.000023
1326	1.3184e+02	6.8087	10.237129	0.000225	2.252454	0.381576	-0.000023
1327	1.3194e+02	6.8029	10.213503	0.000238	2.375315	0.402389	-0.000024
1328	1.3204e+02	6.7922	10.189878	0.000238	2.375315	0.402389	-0.000024
1329	1.3214e+02	6.7791	10.167474	0.000225	2.252454	0.381576	-0.000023
1330	1.3224e+02	6.7715	10.145885	0.000217	2.170546	0.367701	-0.000022
1331	1.3234e+02	6.7617	10.124295	0.000217	2.170546	0.367701	-0.000022
1332	1.3243e+02	6.7535	10.101892	0.000225	2.252454	0.381576	-0.000023
1333	1.3253e+02	6.7429	10.079895	0.000221	2.211500	0.374638	-0.000022
1334	1.3263e+02	6.7345	10.056677	0.000233	2.334361	0.395451	-0.000023
1335	1.3273e+02	6.7217	10.036309	0.000205	2.047685	0.346887	-0.000020
1336	1.3283e+02	6.7107	10.016350	0.000201	2.006732	0.339950	-0.000020
1337	1.3293e+02	6.7031	9.990687	0.000258	2.580083	0.437078	-0.000026
1338	1.3303e+02	6.6906	9.966654	0.000242	2.416269	0.409327	-0.000024
1339	1.3313e+02	6.6816	9.946287	0.000205	2.047685	0.346887	-0.000020
1340	1.3323e+02	6.6724	9.926734	0.000197	1.965778	0.333012	-0.000020
1341	1.3333e+02	6.6613	9.900257	0.000266	2.661991	0.450953	-0.000027
1342	1.3343e+02	6.6506	9.880297	0.000201	2.006732	0.339950	-0.000020
1343	1.3353e+02	6.6421	9.855857	0.000246	2.457222	0.416265	-0.000025
1344	1.3363e+02	6.6322	9.837934	0.000180	1.801963	0.305261	-0.000018
1345	1.3373e+02	6.6250	9.814308	0.000238	2.375315	0.402389	-0.000024
1346	1.3383e+02	6.6117	9.790275	0.000242	2.416269	0.409327	-0.000024
1347	1.3393e+02	6.6021	9.769093	0.000213	2.129593	0.360763	-0.000021
1348	1.3403e+02	6.5982	9.748726	0.000205	2.047685	0.346887	-0.000020
1349	1.3413e+02	6.5821	9.728766	0.000201	2.006732	0.339950	-0.000020
1350	1.3423e+02	6.5713	9.707991	0.000209	2.088639	0.353825	-0.000021
1351	1.3432e+02	6.5604	9.685588	0.000225	2.252454	0.381576	-0.000023
1352	1.3442e+02	6.5524	9.660332	0.000254	2.539130	0.430140	-0.000025
1353	1.3452e+02	6.5417	9.640780	0.000197	1.965778	0.333012	-0.000020
1354	1.3462e+02	6.5323	9.619191	0.000217	2.170546	0.367701	-0.000022
1355	1.3472e+02	6.5218	9.599231	0.000201	2.006732	0.339950	-0.000020
1356	1.3482e+02	6.5144	9.577234	0.000221	2.211500	0.374638	-0.000022
1357	1.3492e+02	6.5034	9.553201	0.000242	2.416269	0.409327	-0.000024
1358	1.3502e+02	6.4948	9.534463	0.000188	1.883870	0.319136	-0.000019
1359	1.3512e+02	6.4843	9.514911	0.000197	1.965778	0.333012	-0.000020
1360	1.3522e+02	6.4735	9.491692	0.000233	2.334361	0.395451	-0.000023
1361	1.3532e+02	6.4629	9.468067	0.000238	2.375315	0.402389	-0.000024
1362	1.3542e+02	6.4527	9.445663	0.000225	2.252454	0.381576	-0.000023
1363	1.3552e+02	6.4429	9.427332	0.000184	1.842917	0.312199	-0.000018
1364	1.3562e+02	6.4361	9.406965	0.000205	2.047685	0.346887	-0.000020
1365	1.3572e+02	6.4234	9.381710	0.000254	2.539130	0.430140	-0.000025
1366	1.3582e+02	6.4175	9.360528	0.000213	2.129593	0.360763	-0.000021
1367	1.3592e+02	6.4034	9.339754	0.000209	2.088639	0.353825	-0.000021
1368	1.3602e+02	6.3934	9.316535	0.000233	2.334361	0.395451	-0.000023
1369	1.3612e+02	6.3825	9.294539	0.000221	2.211500	0.374638	-0.000022
1370	1.3622e+02	6.3721	9.274579	0.000201	2.006732	0.339950	-0.000020
1371	1.3631e+02	6.3639	9.249731	0.000250	2.498176	0.423202	-0.000025
1372	1.3641e+02	6.3538	9.228957	0.000209	2.088639	0.353825	-0.000021
1373	1.3651e+02	6.3415	9.206145	0.000229	2.293407	0.388514	-0.000023
1374	1.3661e+02	6.3335	9.185778	0.000205	2.047685	0.346887	-0.000020
1375	1.3671e+02	6.3235	9.165411	0.000205	2.047685	0.346887	-0.000020
1376	1.3681e+02	6.3151	9.140971	0.000246	2.457222	0.416265	-0.000025
1377	1.3691e+02	6.3046	9.121418	0.000197	1.965778	0.333012	-0.000020
1378	1.3701e+02	6.2972	9.099829	0.000217	2.170546	0.367701	-0.000022
1379	1.3711e+02	6.2847	9.077018	0.000229	2.293407	0.388514	-0.000023
1380	1.3721e+02	6.2744	9.059502	0.000176	1.761009	0.298323	-0.000018
1381	1.3731e+02	6.2656	9.037506	0.000221	2.211500	0.374638	-0.000022
1382	1.3741e+02	6.2553	9.017546	0.000201	2.006732	0.339950	-0.000020
1383	1.3751e+02	6.2449	8.999215	0.000184	1.842917	0.312199	-0.000018
1384	1.3761e+02	6.2346	8.978441	0.000209	2.088639	0.353825	-0.000021
1385	1.3771e+02	6.2247	8.958888	0.000197	1.965778	0.333012	-0.000020
1386	1.3781e+02	6.2159	8.937299	0.000217	2.170546	0.367701	-0.000022
1387	1.3791e+02	6.2012	8.916932	0.000205	2.047685	0.346887	-0.000020
1388	1.3801e+02	6.1947	8.894121	0.000229	2.293407	0.388514	-0.000023
1389	1.3811e+02	6.1831	8.878642	0.000156	1.556241	0.263634	-0.000016
1390	1.3821e+02	6.1752	8.859089	0.000197	1.965778	0.333012	-0.000020
1391	1.3831e+02	6.1622	8.839944	0.000192	1.924824	0.326074	-0.000019
1392	1.3840e+02	6.1553	8.822021	0.000180	1.801963	0.305261	-0.000018
1393	1.3850e+02	6.1445	8.802062	0.000201	2.006732	0.339950	-0.000020
1394	1.3860e+02	6.1346	8.786175	0.000160	1.597195	0.270572	-0.000016
1395	1.3870e+02	6.1266	8.763364	0.000229	2.293407	0.388514	-0.000023
1396	1.3880e+02	6.1141	8.737701	0.000258	2.580083	0.437078	-0.000026
1397	1.3890e+02	6.1059	8.718964	0.000188	1.883870	0.319136	-0.000019
1398	1.3900e+02	6.0938	8.698597	0.000205	2.047685	0.346887	-0.000020
1399	1.3910e+02	6.0851	8.679451	0.000192	1.924824	0.326074	-0.000019
1400	1.3920e+02	6.0741	8.659084	0.000205	2.047685	0.346887	-0.000020
1401	1.3930e+02	6.0653	8.640754	0.000184	1.842917	0.312199	-0.000018
1402	1.3940e+02	6.0555	8.618757	0.000221	2.211500	0.374638	-0.000022
1403	1.3950e+02	6.0483	8.597168	0.000217	2.170546	0.367701	-0.000022
1404	1.3960e+02	6.0352	8.578838	0.000184	1.842917	0.312199	-0.000018
1405	1.3970e+02	6.0248	8.556434	0.000225	2.252454	0.381576	-0.000023
1406	1.3980e+02	6.0144	8.534437	0.000221	2.211500	0.374638	-0.000022
1407	1.3990e+02	6.0070	8.506738	0.000278	2.784852	0.471767	-0.000028
1408	1.4000e+02	5.9962	8.486778	0.000201	2.006732	0.339950	-0.000020
1409	1.4010e+02	5.9859	8.464375	0.000225	2.252454	0.381576	-0.000023
1410	1.4020e+02	5.9771	8.437083	0.000274	2.743898	0.464829	-0.000027
1411	1.4029e+02	5.9679	8.415493	0.000217	2.170546	0.367701	-0.000022
1412	1.4039e+02	5.9579	8.394719	0.000209	2.088639	0.353825	-0.000021
1413	1.4049e+02	5.9457	8.370686	0.000242	2.416269	0.409327	-0.000024
1414	1.4059e+02	5.9343	8.343394	0.000274	2.743898	0.464829	-0.000027
1415	1.4069e+02	5.9266	8.323434	0.000201	2.006732	0.339950	-0.000020
1416	1.4079e+02	5.9156	8.300216	0.000233	2.334361	0.395451	-0.000023
1417	1.4089e+02	5.9053	8.273738	0.000266	2.661991	0.450953	-0.000027
1418	1.4099e+02	5.8959	8.248890	0.000250	2.498176	0.423202	-0.000025
1419	1.4109e+02	5.8843	8.224042	0.000250	2.498176	0.423202	-0.000025
1420	1.4119e+02	5.8764	8.202046	0.000221	2.211500	0.374638	-0.000022
1421	1.4129e+02	5.8674	8.178420	0.000238	2.375315	0.402389	-0.000024
1422	1.4139e+02	5.8581	8.154794	0.000238	2.375315	0.402389	-0.000024
1423	1.4149e+02	5.8471	8.128317	0.000266	2.661991	0.450953	-0.000027
1424	1.4159e+02	5.8379	8.104691	0.000238	2.375315	0.402389	-0.000024
1425	1.4169e+02	5.8283	8.080251	0.000246	2.457222	0.416265	-0.000025
1426	1.4179e+02	5.8187	8.057032	0.000233	2.334361	0.395451	-0.000023
1427	1.4189e+02	5.8071	8.029333	0.000278	2.784852	0.471767	-0.000028
1428	1.4199e+02	5.7960	8.006114	0.000233	2.334361	0.395451	-0.000023
1429	1.4209e+02	5.7863	7.984118	0.000221	2.211500	0.374638	-0.000022
1430	1.4219e+02	5.7777	7.957640	0.000266	2.661991	0.450953	-0.000027
1431	1.4228e+02	5.7691	7.935644	0.000221	2.211500	0.374638	-0.000022
1432	1.4238e+02	5.7574	7.903464	0.000324	3.235343	0.548082	-0.000032
1433	1.4248e+02	5.7471	7.882689	0.000209	2.088639	0.353825	-0.000021
1434	1.4258e+02	5.7354	7.854175	0.000287	2.866759	0.485642	-0.000029
1435	1.4268e+02	5.7265	7.828513	0.000258	2.580083	0.437078	-0.000026
1436	1.4278e+02	5.7182	7.806516	0.000221	2.211500	0.374638	-0.000022
1437	1.4288e+02	5.7076	7.780854	0.000258	2.580083	0.437078	-0.000026
1438	1.4298e+02	5.6983	7.754784	0.000262	2.621037	0.444016	-0.000026
1439	1.4308e+02	5.6872	7.729121	0.000258	2.580083	0.437078	-0.000026
1440	1.4318e+02	5.6753	7.705495	0.000238	2.375315	0.402389	-0.000024
1441	1.4328e+02	5.6681	7.679833	0.000258	2.580083	0.437078	-0.000026
1442	1.4338e+02	5.6562	7.650097	0.000299	2.989620	0.506455	-0.000030
1443	1.4348e+02	5.6452	7.624842	0.000254	2.539130	0.430140	-0.000025
1444	1.4358e+02	5.6390	7.598772	0.000262	2.621037	0.444016	-0.000026
1445	1.4368e+02	5.6301	7.577182	0.000217	2.170546	0.367701	-0.000022
1446	1.4378e+02	5.6174	7.546632	0.000307	3.071528	0.520331	-0.000031
1447	1.4388e+02	5.6076	7.521377	0.000254	2.539130	0.430140	-0.000025
1448	1.4398e+02	5.5981	7.497343	0.000242	2.416269	0.409327	-0.000024
1449	1.4408e+02	5.5865	7.468829	0.000287	2.866759	0.485642	-0.000029
1450	1.4418e+02	5.5778	7.445203	0.000238	2.375315	0.402389	-0.000024
1451	1.4428e+02	5.5682	7.419541	0.000258	2.580083	0.437078	-0.000026
1452	1.4437e+02	5.5575	7.389805	0.000299	2.989620	0.506455	-0.000030
1453	1.4447e+02	5.5482	7.365772	0.000242	2.416269	0.409327	-0.000024
1454	1.4457e+02	5.5406	7.343775	0.000221	2.211500	0.374638	-0.000022
1455	1.4467e+02	5.5315	7.318113	0.000258	2.580083	0.437078	-0.000026
1456	1.4477e+02	5.5209	7.290006	0.000283	2.825806	0.478704	-0.000028
1457	1.4487e+02	5.5077	7.263121	0.000270	2.702945	0.457891	-0.000027
1458	1.4497e+02	5.4998	7.237051	0.000262	2.621037	0.444016	-0.000026
1459	1.4507e+02	5.4891	7.210167	0.000270	2.702945	0.457891	-0.000027
1460	1.4517e+02	5.4787	7.184912	0.000254	2.539130	0.430140	-0.000025
1461	1.4527e+02	5.4684	7.155990	0.000291	2.907713	0.492580	-0.000029
1462	1.4537e+02	5.4601	7.129106	0.000270	2.702945	0.457891	-0.000027
1463	1.4547e+02	5.4493	7.103443	0.000258	2.580083	0.437078	-0.000026
1464	1.4557e+02	5.4375	7.074114	0.000295	2.948667	0.499518	-0.000029
1465	1.4567e+02	5.4286	7.046415	0.000278	2.784852	0.471767	-0.000028
1466	1.4577e+02	5.4192	7.021567	0.000250	2.498176	0.423202	-0.000025
1467	1.4587e+02	5.4125	6.989387	0.000324	3.235343	0.548082	-0.000032
1468	1.4597e+02	5.3973	6.966983	0.000225	2.252454	0.381576	-0.000023
1469	1.4607e+02	5.3893	6.936433	0.000307	3.071528	0.520331	-0.000031
1470	1.4617e+02	5.3770	6.913214	0.000233	2.334361	0.395451	-0.000023
1471	1.4626e+02	5.3677	6.878997	0.000344	3.440111	0.582771	-0.000034
1472	1.4636e+02	5.3585	6.852927	0.000262	2.621037	0.444016	-0.000026
1473	1.4646e+02	5.3477	6.824821	0.000283	2.825806	0.478704	-0.000028
1474	1.4656e+02	5.3391	6.791419	0.000336	3.358204	0.568895	-0.000034
1475	1.4666e+02	5.3301	6.766571	0.000250	2.498176	0.423202	-0.000025
1476	1.4676e+02	5.3197	6.736020	0.000307	3.071528	0.520331	-0.000031
1477	1.4686e+02	5.3091	6.701803	0.000344	3.440111	0.582771	-0.000034
1478	1.4696e+02	5.2974	6.674511	0.000274	2.743898	0.464829	-0.000027
1479	1.4706e+02	5.2898	6.650478	0.000242	2.416269	0.409327	-0.000024
1480	1.4716e+02	5.2804	6.617076	0.000336	3.358204	0.568895	-0.000034
1481	1.4726e+02	5.2692	6.590191	0.000270	2.702945	0.457891	-0.000027
1482	1.4736e+02	5.2607	6.561270	0.000291	2.907713	0.492580	-0.000029
1483	1.4746e+02	5.2505	6.535200	0.000262	2.621037	0.444016	-0.000026
1484	1.4756e+02	5.2413	6.502613	0.000328	3.276296	0.555020	-0.000033
1485	1.4766e+02	5.2310	6.480209	0.000225	2.252454	0.381576	-0.000023
1486	1.4776e+02	5.2193	6.449251	0.000311	3.112482	0.527269	-0.000031
1487	1.4786e+02	5.2096	6.420737	0.000287	2.866759	0.485642	-0.000029
1488	1.4796e+02	5.1997	6.393038	0.000278	2.784852	0.471767	-0.000028
1489	1.4806e+02	5.1916	6.367782	0.000254	2.539130	0.430140	-0.000025
1490	1.4816e+02	5.1810	6.338454	0.000295	2.948667	0.499518	-0.000029
1491	1.4825e+02	5.1681	6.308718	0.000299	2.989620	0.506455	-0.000030
1492	1.4835e+02	5.1585	6.285092	0.000238	2.375315	0.402389	-0.000024
1493	1.4845e+02	5.1499	6.257800	0.000274	2.743898	0.464829	-0.000027
1494	1.4855e+02	5.1385	6.233767	0.000242	2.416269	0.409327	-0.000024
1495	1.4865e+02	5.1289	6.206475	0.000274	2.743898	0.464829	-0.000027
1496	1.4875e+02	5.1214	6.179183	0.000274	2.743898	0.464829	-0.000027
1497	1.4885e+02	5.1118	6.152706	0.000266	2.661991	0.450953	-0.000027
1498	1.4895e+02	5.1019	6.127858	0.000250	2.498176	0.423202	-0.000025
1499	1.4905e+02	5.0930	6.103824	0.000242	2.416269	0.409327	-0.000024
1500	1.4915e+02	5.0799	6.075310	0.000287	2.866759	0.485642	-0.000029
1501	1.4925e+02	5.0697	6.049241	0.000262	2.621037	0.444016	-0.000026
1502	1.4935e+02	5.0616	6.026429	0.000229	2.293407	0.388514	-0.000023
1503	1.4945e+02	5.0481	6.002396	0.000242	2.416269	0.409327	-0.000024
1504	1.4955e+02	5.0412	5.977956	0.000246	2.457222	0.416265	-0.000025
1505	1.4965e+02	5.0282	5.951886	0.000262	2.621037	0.444016	-0.000026
1506	1.4975e+02	5.0207	5.925408	0.000266	2.661991	0.450953	-0.000027
1507	1.4985e+02	5.0129	5.898524	0.000270	2.702945	0.457891	-0.000027
1508	1.4995e+02	4.9998	5.873269	0.000254	2.539130	0.430140	-0.000025
1509	1.5005e+02	4.9912	5.850457	0.000229	2.293407	0.388514	-0.000023
1510	1.5015e+02	4.9840	5.822351	0.000283	2.825806	0.478704	-0.000028
1511	1.5025e+02	4.9695	5.797096	0.000254	2.539130	0.430140	-0.000025
1512	1.5034e+02	4.9601	5.770211	0.000270	2.702945	0.457891	-0.000027
1513	1.5044e+02	4.9496	5.746992	0.000233	2.334361	0.395451	-0.000023
1514	1.5054e+02	4.9376	5.720922	0.000262	2.621037	0.444016	-0.000026
1515	1.5064e+02	4.9324	5.694445	0.000266	2.661991	0.450953	-0.000027
1516	1.5074e+02	4.9216	5.668375	0.000262	2.621037	0.444016	-0.000026
1517	1.5084e+02	4.9151	5.645564	0.000229	2.293407	0.388514	-0.000023
1518	1.5094e+02	4.8997	5.619494	0.000262	2.621037	0.444016	-0.000026
1519	1.5104e+02	4.8917	5.594646	0.000250	2.498176	0.423202	-0.000025
1520	1.5114e+02	4.8805	5.567762	0.000270	2.702945	0.457891	-0.000027
1521	1.5124e+02	4.8705	5.543728	0.000242	2.416269	0.409327	-0.000024
1522	1.5134e+02	4.8614	5.515214	0.000287	2.866759	0.485642	-0.000029
1523	1.5144e+02	4.8519	5.492811	0.000225	2.252454	0.381576	-0.000023
1524	1.5154e+02	4.8412	5.466741	0.000262	2.621037	0.444016	-0.000026
1525	1.5164e+02	4.8325	5.444744	0.000221	2.211500	0.374638	-0.000022
1526	1.5174e+02	4.8213	5.419082	0.000258	2.580083	0.437078	-0.000026
1527	1.5184e+02	4.8142	5.394234	0.000250	2.498176	0.423202	-0.000025
1528	1.5194e+02	4.8013	5.368978	0.000254	2.539130	0.430140	-0.000025
1529	1.5204e+02	4.7932	5.347389	0.000217	2.170546	0.367701	-0.000022
1530	1.5214e+02	4.7810	5.320505	0.000270	2.702945	0.457891	-0.000027
1531	1.5224e+02	4.7727	5.296064	0.000246	2.457222	0.416265	-0.000025
1532	1.5233e+02	4.7616	5.270402	0.000258	2.580083	0.437078	-0.000026
1533	1.5243e+02	4.7532	5.245554	0.000250	2.498176	0.423202	-0.000025
1534	1.5253e+02	4.7430	5.220706	0.000250	2.498176	0.423202	-0.000025
1535	1.5263e+02	4.7351	5.193414	0.000274	2.743898	0.464829	-0.000027
1536	1.5273e+02	4.7231	5.170603	0.000229	2.293407	0.388514	-0.000023
1537	1.5283e+02	4.7118	5.144533	0.000262	2.621037	0.444016	-0.000026
1538	1.5293e+02	4.7009	5.117241	0.000274	2.743898	0.464829	-0.000027
1539	1.5303e+02	4.6944	5.090764	0.000266	2.661991	0.450953	-0.000027
1540	1.5313e+02	4.6806	5.066323	0.000246	2.457222	0.416265	-0.000025
1541	1.5323e+02	4.6728	5.039438	0.000270	2.702945	0.457891	-0.000027
1542	1.5333e+02	4.6621	5.012146	0.000274	2.743898	0.464829	-0.000027
1543	1.5343e+02	4.6521	4.993001	0.000192	1.924824	0.326074	-0.000019
1544	1.5353e+02	4.6441	4.964895	0.000283	2.825806	0.478704	-0.000028
1545	1.5363e+02	4.6332	4.939232	0.000258	2.580083	0.437078	-0.000026
1546	1.5373e+02	4.6229	4.916014	0.000233	2.334361	0.395451	-0.000023
1547	1.5383e+02	4.6132	4.891573	0.000246	2.457222	0.416265	-0.000025
1548	1.5393e+02	4.6040	4.869169	0.000225	2.252454	0.381576	-0.000023
1549	1.5403e+02	4.5930	4.843914	0.000254	2.539130	0.430140	-0.000025
1550	1.5413e+02	4.5831	4.819066	0.000250	2.498176	0.423202	-0.000025
1551	1.5422e+02	4.5760	4.797884	0.000213	2.129593	0.360763	-0.000021
1552	1.5432e+02	4.5644	4.770185	0.000278	2.784852	0.471767	-0.000028
1553	1.5442e+02	4.5528	4.748596	0.000217	2.170546	0.367701	-0.000022
1554	1.5452e+02	4.5430	4.723748	0.000250	2.498176	0.423202	-0.000025
1555	1.5462e+02	4.5364	4.698493	0.000254	2.539130	0.430140	-0.000025
1556	1.5472e+02	4.5248	4.674867	0.000238	2.375315	0.402389	-0.000024
1557	1.5482e+02	4.5142	4.651241	0.000238	2.375315	0.402389	-0.000024
1558	1.5492e+02	4.5028	4.633318	0.000180	1.801963	0.305261	-0.000018
1559	1.5502e+02	4.4942	4.608063	0.000254	2.539130	0.430140	-0.000025
1560	1.5512e+02	4.4836	4.585251	0.000229	2.293407	0.388514	-0.000023
1561	1.5522e+02	4.4730	4.564477	0.000209	2.088639	0.353825	-0.000021
1562	1.5532e+02	4.4638	4.541258	0.000233	2.334361	0.395451	-0.000023
1563	1.5542e+02	4.4532	4.518447	0.000229	2.293407	0.388514	-0.000023
1564	1.5552e+02	4.4415	4.490748	0.000278	2.784852	0.471767	-0.000028
1565	1.5562e+02	4.4350	4.466715	0.000242	2.416269	0.409327	-0.000024
1566	1.5572e+02	4.4222	4.445533	0.000213	2.129593	0.360763	-0.000021
1567	1.5582e+02	4.4125	4.420685	0.000250	2.498176	0.423202	-0.000025
1568	1.5592e+02	4.4062	4.395837	0.000250	2.498176	0.423202	-0.000025
1569	1.5602e+02	4.3948	4.373026	0.000229	2.293407	0.388514	-0.000023
1570	1.5612e+02	4.3864	4.348178	0.000250	2.498176	0.423202	-0.000025
1571	1.5622e+02	4.3755	4.322923	0.000254	2.539130	0.430140	-0.000025
1572	1.5631e+02	4.3658	4.294409	0.000287	2.866759	0.485642	-0.000029
1573	1.5641e+02	4.3545	4.270376	0.000242	2.416269	0.409327	-0.000024
1574	1.5651e+02	4.3462	4.245528	0.000250	2.498176	0.423202	-0.000025
1575	1.5661e+02	4.3318	4.219458	0.000262	2.621037	0.444016	-0.000026
1576	1.5671e+02	4.3248	4.190536	0.000291	2.907713	0.492580	-0.000029
1577	1.5681e+02	4.3130	4.164874	0.000258	2.580083	0.437078	-0.000026
1578	1.5691e+02	4.3012	4.139619	0.000254	2.539130	0.430140	-0.000025
1579	1.5701e+02	4.2944	4.111105	0.000287	2.866759	0.485642	-0.000029
1580	1.5711e+02	4.2832	4.086664	0.000246	2.457222	0.416265	-0.000025
1581	1.5721e+02	4.2717	4.055299	0.000315	3.153435	0.534206	-0.000032
1582	1.5731e+02	4.2648	4.031673	0.000238	2.375315	0.402389	-0.000024
1583	1.5741e+02	4.2552	4.004788	0.000270	2.702945	0.457891	-0.000027
1584	1.5751e+02	4.2451	3.977496	0.000274	2.743898	0.464829	-0.000027
1585	1.5761e+02	4.2348	3.949390	0.000283	2.825806	0.478704	-0.000028
1586	1.5771e+02	4.2239	3.918024	0.000315	3.153435	0.534206	-0.000032
1587	1.5781e+02	4.2155	3.891547	0.000266	2.661991	0.450953	-0.000027
1588	1.5791e+02	4.2065	3.864255	0.000274	2.743898	0.464829	-0.000027
1589	1.5801e+02	4.1940	3.836556	0.000278	2.784852	0.471767	-0.000028
1590	1.5811e+02	4.1857	3.808042	0.000287	2.866759	0.485642	-0.000029
1591	1.5821e+02	4.1733	3.779528	0.000287	2.866759	0.485642	-0.000029
1592	1.5830e+02	4.1655	3.749792	0.000299	2.989620	0.506455	-0.000030
1593	1.5840e+02	4.1543	3.722907	0.000270	2.702945	0.457891	-0.000027
1594	1.5850e+02	4.1448	3.696023	0.000270	2.702945	0.457891	-0.000027
1595	1.5860e+02	4.1332	3.666287	0.000299	2.989620	0.506455	-0.000030
1596	1.5870e+02	4.1262	3.641031	0.000254	2.539130	0.430140	-0.000025
1597	1.5880e+02	4.1135	3.612925	0.000283	2.825806	0.478704	-0.000028
1598	1.5890e+02	4.1042	3.585225	0.000278	2.784852	0.471767	-0.000028
1599	1.5900e+02	4.0964	3.554675	0.000307	3.071528	0.520331	-0.000031
1600	1.5910e+02	4.0852	3.525753	0.000291	2.907713	0.492580	-0.000029
1601	1.5920e+02	4.0745	3.496832	0.000291	2.907713	0.492580	-0.000029
1602	1.5930e+02	4.0656	3.465467	0.000315	3.153435	0.534206	-0.000032
1603	1.5940e+02	4.0546	3.439804	0.000258	2.580083	0.437078	-0.000026
1604	1.5950e+02	4.0471	3.407217	0.000328	3.276296	0.555020	-0.000033
1605	1.5960e+02	4.0365	3.380740	0.000266	2.661991	0.450953	-0.000027
1606	1.5970e+02	4.0240	3.349374	0.000315	3.153435	0.534206	-0.000032
1607	1.5980e+02	4.0147	3.319231	0.000303	3.030574	0.513393	-0.000030
1608	1.5990e+02	4.0060	3.292346	0.000270	2.702945	0.457891	-0.000027
1609	1.6000e+02	3.9919	3.263832	0.000287	2.866759	0.485642	-0.000029
1610	1.6010e+02	3.9855	3.230837	0.000332	3.317250	0.561957	-0.000033
1611	1.6019e+02	3.9782	3.199472	0.000315	3.153435	0.534206	-0.000032
1612	1.6029e+02	3.9654	3.171773	0.000278	2.784852	0.471767	-0.000028
1613	1.6039e+02	3.9559	3.141222	0.000307	3.071528	0.520331	-0.000031
1614	1.6049e+02	3.9469	3.115560	0.000258	2.580083	0.437078	-0.000026
1615	1.6059e+02	3.9342	3.085009	0.000307	3.071528	0.520331	-0.000031
1616	1.6069e+02	3.9257	3.055273	0.000299	2.989620	0.506455	-0.000030
1617	1.6079e+02	3.9159	3.022278	0.000332	3.317250	0.561957	-0.000033
1618	1.6089e+02	3.9068	2.994986	0.000274	2.743898	0.464829	-0.000027
1619	1.6099e+02	3.8958	2.964843	0.000303	3.030574	0.513393	-0.000030
1620	1.6109e+02	3.8880	2.934699	0.000303	3.030574	0.513393	-0.000030
1621	1.6119e+02	3.8770	2.907000	0.000278	2.784852	0.471767	-0.000028
1622	1.6129e+02	3.8646	2.876857	0.000303	3.030574	0.513393	-0.000030
1623	1.6139e+02	3.8570	2.851602	0.000254	2.539130	0.430140	-0.000025
1624	1.6149e+02	3.8499	2.817385	0.000344	3.440111	0.582771	-0.000034
1625	1.6159e+02	3.8369	2.786019	0.000315	3.153435	0.534206	-0.000032
1626	1.6169e+02	3.8280	2.758320	0.000278	2.784852	0.471767	-0.000028
1627	1.6179e+02	3.8161	2.728991	0.000295	2.948667	0.499518	-0.000029
1628	1.6189e+02	3.8062	2.695997	0.000332	3.317250	0.561957	-0.000033
1629	1.6199e+02	3.7990	2.668297	0.000278	2.784852	0.471767	-0.000028
1630	1.6209e+02	3.7861	2.633673	0.000348	3.481065	0.589708	-0.000035
1631	1.6219e+02	3.7765	2.604752	0.000291	2.907713	0.492580	-0.000029
1632	1.6228e+02	3.7669	2.575423	0.000295	2.948667	0.499518	-0.000029
1633	1.6238e+02	3.7580	2.541207	0.000344	3.440111	0.582771	-0.000034
1634	1.6248e+02	3.7471	2.509841	0.000315	3.153435	0.534206	-0.000032
1635	1.6258e+02	3.7383	2.478068	0.000319	3.194389	0.541144	-0.000032
1636	1.6268e+02	3.7283	2.448740	0.000295	2.948667	0.499518	-0.000029
1637	1.6278e+02	3.7177	2.414116	0.000348	3.481065	0.589708	-0.000035
1638	1.6288e+02	3.7078	2.386416	0.000278	2.784852	0.471767	-0.000028
1639	1.6298e+02	3.6962	2.354236	0.000324	3.235343	0.548082	-0.000032
1640	1.6308e+02	3.6879	2.322871	0.000315	3.153435	0.534206	-0.000032
1641	1.6318e+02	3.6765	2.289469	0.000336	3.358204	0.568895	-0.000034
1642	1.6328e+02	3.6696	2.252808	0.000369	3.685833	0.624397	-0.000037
1643	1.6338e+02	3.6570	2.221035	0.000319	3.194389	0.541144	-0.000032
1644	1.6348e+02	3.6442	2.183560	0.000377	3.767741	0.638273	-0.000038
1645	1.6358e+02	3.6394	2.149343	0.000344	3.440111	0.582771	-0.000034
1646	1.6368e+02	3.6304	2.119607	0.000299	2.989620	0.506455	-0.000030
1647	1.6378e+02	3.6179	2.084983	0.000348	3.481065	0.589708	-0.000035
1648	1.6388e+02	3.6059	2.053210	0.000319	3.194389	0.541144	-0.000032
1649	1.6398e+02	3.5961	2.021437	0.000319	3.194389	0.541144	-0.000032
1650	1.6408e+02	3.5870	1.994145	0.000274	2.743898	0.464829	-0.000027
1651	1.6418e+02	3.5789	1.961558	0.000328	3.276296	0.555020	-0.000033
1652	1.6427e+02	3.5688	1.927749	0.000340	3.399158	0.575833	-0.000034
1653	1.6437e+02	3.5637	1.895569	0.000324	3.235343	0.548082	-0.000032
1654	1.6447e+02	3.5485	1.861352	0.000344	3.440111	0.582771	-0.000034
1655	1.6457e+02	3.5442	1.827950	0.000336	3.358204	0.568895	-0.000034
1656	1.6467e+02	3.5262	1.799028	0.000291	2.907713	0.492580	-0.000029
1657	1.6477e+02	3.5183	1.766848	0.000324	3.235343	0.548082	-0.000032
1658	1.6487e+02	3.5061	1.736705	0.000303	3.030574	0.513393	-0.000030
1659	1.6497e+02	3.4994	1.705340	0.000315	3.153435	0.534206	-0.000032
1660	1.6507e+02	3.4872	1.676418	0.000291	2.907713	0.492580	-0.000029
1661	1.6517e+02	3.4814	1.646275	0.000303	3.030574	0.513393	-0.000030
1662	1.6527e+02	3.4718	1.616946	0.000295	2.948667	0.499518	-0.000029
1663	1.6537e+02	3.4589	1.583952	0.000332	3.317250	0.561957	-0.000033
1664	1.6547e+02	3.4465	1.555845	0.000283	2.825806	0.478704	-0.000028
1665	1.6557e+02	3.4389	1.524887	0.000311	3.112482	0.527269	-0.000031
1666	1.6567e+02	3.4286	1.493114	0.000319	3.194389	0.541144	-0.000032
1667	1.6577e+02	3.4183	1.465007	0.000283	2.825806	0.478704	-0.000028
1668	1.6587e+02	3.4075	1.438123	0.000270	2.702945	0.457891	-0.000027
1669	1.6597e+02	3.4013	1.405128	0.000332	3.317250	0.561957	-0.000033
1670	1.6607e+02	3.3873	1.375799	0.000295	2.948667	0.499518	-0.000029
1671	1.6616e+02	3.3807	1.346878	0.000291	2.907713	0.492580	-0.000029
1672	1.6626e+02	3.3720	1.318364	0.000287	2.866759	0.485642	-0.000029
1673	1.6636e+02	3.3583	1.290665	0.000278	2.784852	0.471767	-0.000028
1674	1.6646e+02	3.3505	1.258077	0.000328	3.276296	0.555020	-0.000033
1675	1.6656e+02	3.3395	1.230786	0.000274	2.743898	0.464829	-0.000027
1676	1.6666e+02	3.3297	1.201864	0.000291	2.907713	0.492580	-0.000029
1677	1.6676e+02	3.3227	1.172943	0.000291	2.907713	0.492580	-0.000029
1678	1.6686e+02	3.3073	1.139948	0.000332	3.317250	0.561957	-0.000033
1679	1.6696e+02	3.2980	1.107361	0.000328	3.276296	0.555020	-0.000033
1680	1.6706e+02	3.2900	1.080069	0.000274	2.743898	0.464829	-0.000027
1681	1.6716e+02	3.2796	1.055221	0.000250	2.498176	0.423202	-0.000025
1682	1.6726e+02	3.2687	1.023041	0.000324	3.235343	0.548082	-0.000032
1683	1.6736e+02	3.2600	0.994527	0.000287	2.866759	0.485642	-0.000029
1684	1.6746e+02	3.2490	0.964791	0.000299	2.989620	0.506455	-0.000030
1685	1.6756e+02	3.2411	0.938721	0.000262	2.621037	0.444016	-0.000026
1686	1.6766e+02	3.2288	0.906134	0.000328	3.276296	0.555020	-0.000033
1687	1.6776e+02	3.2200	0.875990	0.000303	3.030574	0.513393	-0.000030
1688	1.6786e+02	3.2099	0.847884	0.000283	2.825806	0.478704	-0.000028
1689	1.6796e+02	3.2021	0.819777	0.000283	2.825806	0.478704	-0.000028
1690	1.6806e+02	3.1910	0.788819	0.000311	3.112482	0.527269	-0.000031
1691	1.6816e+02	3.1777	0.758268	0.000307	3.071528	0.520331	-0.000031
1692	1.6825e+02	3.1691	0.731791	0.000266	2.661991	0.450953	-0.000027
1693	1.6835e+02	3.1611	0.699203	0.000328	3.276296	0.555020	-0.000033
1694	1.6845e+02	3.1529	0.671097	0.000283	2.825806	0.478704	-0.000028
1695	1.6855e+02	3.1397	0.640546	0.000307	3.071528	0.520331	-0.000031
1696	1.6865e+02	3.1302	0.614476	0.000262	2.621037	0.444016	-0.000026
1697	1.6875e+02	3.1246	0.581481	0.000332	3.317250	0.561957	-0.000033
1698	1.6885e+02	3.1095	0.558670	0.000229	2.293407	0.388514	-0.000023
1699	1.6895e+02	3.1020	0.526083	0.000328	3.276296	0.555020	-0.000033
1700	1.6905e+02	3.0886	0.499198	0.000270	2.702945	0.457891	-0.000027
1701	1.6915e+02	3.0785	0.469462	0.000299	2.989620	0.506455	-0.000030
1702	1.6925e+02	3.0726	0.439726	0.000299	2.989620	0.506455	-0.000030
1703	1.6935e+02	3.0619	0.408768	0.000311	3.112482	0.527269	-0.000031
1704	1.6945e+02	3.0518	0.380254	0.000287	2.866759	0.485642	-0.000029
1705	1.6955e+02	3.0413	0.348482	0.000319	3.194389	0.541144	-0.000032
1706	1.6965e+02	3.0309	0.319560	0.000291	2.907713	0.492580	-0.000029
1707	1.6975e+02	3.0191	0.288602	0.000311	3.112482	0.527269	-0.000031
1708	1.6985e+02	3.0120	0.261310	0.000274	2.743898	0.464829	-0.000027
1709	1.6995e+02	3.0010	0.229130	0.000324	3.235343	0.548082	-0.000032
1710	1.7005e+02	2.9916	0.199394	0.000299	2.989620	0.506455	-0.000030
1711	1.7015e+02	2.9803	0.170880	0.000287	2.866759	0.485642	-0.000029
1712	1.7024e+02	2.9710	0.141552	0.000295	2.948667	0.499518	-0.000029
1713	1.7034e+02	2.9623	0.116296	0.000254	2.539130	0.430140	-0.000025
1714	1.7044e+02	2.9496	0.085338	0.000311	3.112482	0.527269	-0.000031
1715	1.7054e+02	2.9422	0.057232	0.000283	2.825806	0.478704	-0.000028
1716	1.7064e+02	2.9293	0.031162	0.000262	2.621037	0.444016	-0.000026
1717	1.7074e+02	2.9196	0.001833	0.000295	2.948667	0.499518	-0.000029
1718	1.7084e+02	2.9101	-0.024237	0.000262	2.621037	0.444016	-0.000026
1719	1.7094e+02	2.9000	-0.056824	0.000328	3.276296	0.555020	-0.000033
1720	1.7104e+02	2.8930	-0.084116	0.000274	2.743898	0.464829	-0.000027
1721	1.7114e+02	2.8815	-0.110594	0.000266	2.661991	0.450953	-0.000027
1722	1.7124e+02	2.8721	-0.141959	0.000315	3.153435	0.534206	-0.000032
1723	1.7134e+02	2.8595	-0.166807	0.000250	2.498176	0.423202	-0.000025
1724	1.7144e+02	2.8500	-0.196543	0.000299	2.989620	0.506455	-0.000030
1725	1.7154e+02	2.8399	-0.222613	0.000262	2.621037	0.444016	-0.000026
1726	1.7164e+02	2.8307	-0.246646	0.000242	2.416269	0.409327	-0.000024
1727	1.7174e+02	2.8219	-0.278419	0.000319	3.194389	0.541144	-0.000032
1728	1.7184e+02	2.8143	-0.303674	0.000254	2.539130	0.430140	-0.000025
1729	1.7194e+02	2.8023	-0.332188	0.000287	2.866759	0.485642	-0.000029
1730	1.7204e+02	2.7942	-0.355814	0.000238	2.375315	0.402389	-0.000024
1731	1.7213e+02	2.7781	-0.385550	0.000299	2.989620	0.506455	-0.000030
1732	1.7223e+02	2.7695	-0.416508	0.000311	3.112482	0.527269	-0.000031
1733	1.7233e+02	2.7621	-0.443800	0.000274	2.743898	0.464829	-0.000027
1734	1.7243e+02	2.7525	-0.472314	0.000287	2.866759	0.485642	-0.000029
1735	1.7253e+02	2.7397	-0.500420	0.000283	2.825806	0.478704	-0.000028
1736	1.7263e+02	2.7316	-0.529749	0.000295	2.948667	0.499518	-0.000029
1737	1.7273e+02	2.7222	-0.556634	0.000270	2.702945	0.457891	-0.000027
1738	1.7283e+02	2.7151	-0.586370	0.000299	2.989620	0.506455	-0.000030
1739	1.7293e+02	2.7059	-0.615698	0.000295	2.948667	0.499518	-0.000029
1740	1.7303e+02	2.6948	-0.645027	0.000295	2.948667	0.499518	-0.000029
1741	1.7313e+02	2.6816	-0.674763	0.000299	2.989620	0.506455	-0.000030
1742	1.7323e+02	2.6720	-0.704499	0.000299	2.989620	0.506455	-0.000030
1743	1.7333e+02	2.6615	-0.736679	0.000324	3.235343	0.548082	-0.000032
1744	1.7343e+02	2.6552	-0.768452	0.000319	3.194389	0.541144	-0.000032
1745	1.7353e+02	2.6438	-0.799817	0.000315	3.153435	0.534206	-0.000032
1746	1.7363e+02	2.6328	-0.829960	0.000303	3.030574	0.513393	-0.000030
1747	1.7373e+02	2.6238	-0.861733	0.000319	3.194389	0.541144	-0.000032
1748	1.7383e+02	2.6123	-0.894728	0.000332	3.317250	0.561957	-0.000033
1749	1.7393e+02	2.6030	-0.923649	0.000291	2.907713	0.492580	-0.000029
1750	1.7403e+02	2.5939	-0.958681	0.000352	3.522019	0.596646	-0.000035
1751	1.7413e+02	2.5851	-0.989231	0.000307	3.071528	0.520331	-0.000031
1752	1.7422e+02	2.5724	-1.021819	0.000328	3.276296	0.555020	-0.000033
1753	1.7432e+02	2.5634	-1.053592	0.000319	3.194389	0.541144	-0.000032
1754	1.7442e+02	2.5546	-1.087401	0.000340	3.399158	0.575833	-0.000034
1755	1.7452e+02	2.5401	-1.114693	0.000274	2.743898	0.464829	-0.000027
1756	1.7462e+02	2.5326	-1.149317	0.000348	3.481065	0.589708	-0.000035
1757	1.7472e+02	2.5255	-1.184348	0.000352	3.522019	0.596646	-0.000035
1758	1.7482e+02	2.5120	-1.213270	0.000291	2.907713	0.492580	-0.000029
1759	1.7492e+02	2.5041	-1.246672	0.000336	3.358204	0.568895	-0.000034
1760	1.7502e+02	2.4924	-1.280889	0.000344	3.440111	0.582771	-0.000034
1761	1.7512e+02	2.4831	-1.310217	0.000295	2.948667	0.499518	-0.000029
1762	1.7522e+02	2.4746	-1.345656	0.000356	3.562972	0.603584	-0.000036
1763	1.7532e+02	2.4641	-1.375799	0.000303	3.030574	0.513393	-0.000030
1764	1.7542e+02	2.4575	-1.411238	0.000356	3.562972	0.603584	-0.000036
1765	1.7552e+02	2.4450	-1.442604	0.000315	3.153435	0.534206	-0.000032
1766	1.7562e+02	2.4373	-1.477635	0.000352	3.522019	0.596646	-0.000035
1767	1.7572e+02	2.4263	-1.509408	0.000319	3.194389	0.541144	-0.000032
1768	1.7582e+02	2.4146	-1.544439	0.000352	3.522019	0.596646	-0.000035
1769	1.7592e+02	2.4029	-1.575397	0.000311	3.112482	0.527269	-0.000031
1770	1.7602e+02	2.3934	-1.612465	0.000373	3.726787	0.631335	-0.000037
1771	1.7612e+02	2.3839	-1.643424	0.000311	3.112482	0.527269	-0.000031
1772	1.7621e+02	2.3754	-1.678455	0.000352	3.522019	0.596646	-0.000035
1773	1.7631e+02	2.3650	-1.711450	0.000332	3.317250	0.561957	-0.000033
1774	1.7641e+02	2.3566	-1.742815	0.000315	3.153435	0.534206	-0.000032
1775	1.7651e+02	2.3447	-1.779069	0.000364	3.644880	0.617459	-0.000036
1776	1.7661e+02	2.3360	-1.812063	0.000332	3.317250	0.561957	-0.000033
1777	1.7671e+02	2.3261	-1.848317	0.000364	3.644880	0.617459	-0.000036
1778	1.7681e+02	2.3141	-1.880090	0.000319	3.194389	0.541144	-0.000032
1779	1.7691e+02	2.3038	-1.913084	0.000332	3.317250	0.561957	-0.000033
1780	1.7701e+02	2.2940	-1.948523	0.000356	3.562972	0.603584	-0.000036
1781	1.7711e+02	2.2839	-1.984369	0.000360	3.603926	0.610522	-0.000036
1782	1.7721e+02	2.2769	-2.014920	0.000307	3.071528	0.520331	-0.000031
1783	1.7731e+02	2.2632	-2.051581	0.000369	3.685833	0.624397	-0.000037
1784	1.7741e+02	2.2532	-2.089056	0.000377	3.767741	0.638273	-0.000038
1785	1.7751e+02	2.2459	-2.122458	0.000336	3.358204	0.568895	-0.000034
1786	1.7761e+02	2.2379	-2.154638	0.000324	3.235343	0.548082	-0.000032
1787	1.7771e+02	2.2247	-2.188041	0.000336	3.358204	0.568895	-0.000034
1788	1.7781e+02	2.2134	-2.223072	0.000352	3.522019	0.596646	-0.000035
1789	1.7791e+02	2.2041	-2.260547	0.000377	3.767741	0.638273	-0.000038
1790	1.7801e+02	2.1929	-2.293950	0.000336	3.358204	0.568895	-0.000034
1791	1.7810e+02	2.1874	-2.325722	0.000319	3.194389	0.541144	-0.000032
1792	1.7820e+02	2.1745	-2.360346	0.000348	3.481065	0.589708	-0.000035
1793	1.7830e+02	2.1671	-2.397007	0.000369	3.685833	0.624397	-0.000037
1794	1.7840e+02	2.1581	-2.429595	0.000328	3.276296	0.555020	-0.000033
1795	1.7850e+02	2.1442	-2.469107	0.000397	3.972509	0.672961	-0.000040
1796	1.7860e+02	2.1355	-2.500880	0.000319	3.194389	0.541144	-0.000032
1797	1.7870e+02	2.1204	-2.538762	0.000381	3.808695	0.645210	-0.000038
1798	1.7880e+02	2.1137	-2.572572	0.000340	3.399158	0.575833	-0.000034
1799	1.7890e+02	2.1029	-2.608418	0.000360	3.603926	0.610522	-0.000036
1800	1.7900e+02	2.0960	-2.643449	0.000352	3.522019	0.596646	-0.000035
1801	1.7910e+02	2.0853	-2.677666	0.000344	3.440111	0.582771	-0.000034
1802	1.7920e+02	2.0742	-2.714327	0.000369	3.685833	0.624397	-0.000037
1803	1.7930e+02	2.0646	-2.753025	0.000389	3.890602	0.659086	-0.000039
1804	1.7940e+02	2.0535	-2.790500	0.000377	3.767741	0.638273	-0.000038
1805	1.7950e+02	2.0449	-2.825124	0.000348	3.481065	0.589708	-0.000035
1806	1.7960e+02	2.0341	-2.863007	0.000381	3.808695	0.645210	-0.000038
1807	1.7970e+02	2.0239	-2.899668	0.000369	3.685833	0.624397	-0.000037
1808	1.7980e+02	2.0170	-2.934292	0.000348	3.481065	0.589708	-0.000035
1809	1.7990e+02	2.0063	-2.974212	0.000401	4.013463	0.679899	-0.000040
1810	1.8000e+02	1.9930	-3.015353	0.000414	4.136324	0.700712	-0.000041
1811	1.8009e+02	1.9855	-3.052014	0.000369	3.685833	0.624397	-0.000037
1812	1.8019e+02	1.9753	-3.089490	0.000377	3.767741	0.638273	-0.000038
1813	1.8029e+02	1.9637	-3.129002	0.000397	3.972509	0.672961	-0.000040
1814	1.8039e+02	1.9558	-3.165663	0.000369	3.685833	0.624397	-0.000037
1815	1.8049e+02	1.9473	-3.203138	0.000377	3.767741	0.638273	-0.000038
1816	1.8059e+02	1.9353	-3.236540	0.000336	3.358204	0.568895	-0.000034
1817	1.8069e+02	1.9285	-3.278089	0.000418	4.177278	0.707650	-0.000042
1818	1.8079e+02	1.9125	-3.315972	0.000381	3.808695	0.645210	-0.000038
1819	1.8089e+02	1.9061	-3.350596	0.000348	3.481065	0.589708	-0.000035
1820	1.8099e+02	1.8975	-3.389701	0.000393	3.931556	0.666024	-0.000039
1821	1.8109e+02	1.8869	-3.425140	0.000356	3.562972	0.603584	-0.000036
1822	1.8119e+02	1.8780	-3.459357	0.000344	3.440111	0.582771	-0.000034
1823	1.8129e+02	1.8672	-3.495610	0.000364	3.644880	0.617459	-0.000036
1824	1.8139e+02	1.8581	-3.531456	0.000360	3.603926	0.610522	-0.000036
1825	1.8149e+02	1.8468	-3.568932	0.000377	3.767741	0.638273	-0.000038
1826	1.8159e+02	1.8383	-3.605593	0.000369	3.685833	0.624397	-0.000037
1827	1.8169e+02	1.8272	-3.638995	0.000336	3.358204	0.568895	-0.000034
1828	1.8179e+02	1.8163	-3.676878	0.000381	3.808695	0.645210	-0.000038
1829	1.8189e+02	1.8069	-3.711909	0.000352	3.522019	0.596646	-0.000035
1830	1.8199e+02	1.7989	-3.751014	0.000393	3.931556	0.666024	-0.000039
1831	1.8209e+02	1.7867	-3.778306	0.000274	2.743898	0.464829	-0.000027
1832	1.8218e+02	1.7771	-3.812523	0.000344	3.440111	0.582771	-0.000034
1833	1.8228e+02	1.7648	-3.845925	0.000336	3.358204	0.568895	-0.000034
1834	1.8238e+02	1.7573	-3.885437	0.000397	3.972509	0.672961	-0.000040
1835	1.8248e+02	1.7494	-3.921283	0.000360	3.603926	0.610522	-0.000036
1836	1.8258e+02	1.7367	-3.955500	0.000344	3.440111	0.582771	-0.000034
1837	1.8268e+02	1.7268	-3.990531	0.000352	3.522019	0.596646	-0.000035
1838	1.8278e+02	1.7176	-4.021489	0.000311	3.112482	0.527269	-0.000031
1839	1.8288e+02	1.7065	-4.058558	0.000373	3.726787	0.631335	-0.000037
1840	1.8298e+02	1.6978	-4.091552	0.000332	3.317250	0.561957	-0.000033
1841	1.8308e+02	1.6868	-4.127806	0.000364	3.644880	0.617459	-0.000036
1842	1.8318e+02	1.6762	-4.163652	0.000360	3.603926	0.610522	-0.000036
1843	1.8328e+02	1.6678	-4.196647	0.000332	3.317250	0.561957	-0.000033
1844	1.8338e+02	1.6556	-4.230049	0.000336	3.358204	0.568895	-0.000034
1845	1.8348e+02	1.6473	-4.266302	0.000364	3.644880	0.617459	-0.000036
1846	1.8358e+02	1.6364	-4.298482	0.000324	3.235343	0.548082	-0.000032
1847	1.8368e+02	1.6272	-4.331884	0.000336	3.358204	0.568895	-0.000034
1848	1.8378e+02	1.6163	-4.370582	0.000389	3.890602	0.659086	-0.000039
1849	1.8388e+02	1.6078	-4.403984	0.000336	3.358204	0.568895	-0.000034
1850	1.8398e+02	1.5978	-4.436571	0.000328	3.276296	0.555020	-0.000033
1851	1.8407e+02	1.5874	-4.472825	0.000364	3.644880	0.617459	-0.000036
1852	1.8417e+02	1.5765	-4.503783	0.000311	3.112482	0.527269	-0.000031
1853	1.8427e+02	1.5685	-4.537185	0.000336	3.358204	0.568895	-0.000034
1854	1.8437e+02	1.5559	-4.572216	0.000352	3.522019	0.596646	-0.000035
1855	1.8447e+02	1.5478	-4.606841	0.000348	3.481065	0.589708	-0.000035
1856	1.8457e+02	1.5379	-4.641465	0.000348	3.481065	0.589708	-0.000035
1857	1.8467e+02	1.5276	-4.674459	0.000332	3.317250	0.561957	-0.000033
1858	1.8477e+02	1.5211	-4.710713	0.000364	3.644880	0.617459	-0.000036
1859	1.8487e+02	1.5111	-4.745744	0.000352	3.522019	0.596646	-0.000035
1860	1.8497e+02	1.4992	-4.775073	0.000295	2.948667	0.499518	-0.000029
1861	1.8507e+02	1.4903	-4.815400	0.000405	4.054417	0.686837	-0.000041
1862	1.8517e+02	1.4796	-4.846765	0.000315	3.153435	0.534206	-0.000032
1863	1.8527e+02	1.4672	-4.883834	0.000373	3.726787	0.631335	-0.000037
1864	1.8537e+02	1.4581	-4.912755	0.000291	2.907713	0.492580	-0.000029
1865	1.8547e+02	1.4490	-4.950638	0.000381	3.808695	0.645210	-0.000038
1866	1.8557e+02	1.4387	-4.983632	0.000332	3.317250	0.561957	-0.000033
1867	1.8567e+02	1.4278	-5.017849	0.000344	3.440111	0.582771	-0.000034
1868	1.8577e+02	1.4193	-5.054103	0.000364	3.644880	0.617459	-0.000036
1869	1.8587e+02	1.4114	-5.086690	0.000328	3.276296	0.555020	-0.000033
1870	1.8597e+02	1.3988	-5.119685	0.000332	3.317250	0.561957	-0.000033
1871	1.8606e+02	1.3883	-5.156753	0.000373	3.726787	0.631335	-0.000037
1872	1.8616e+02	1.3763	-5.190970	0.000344	3.440111	0.582771	-0.000034
1873	1.8626e+02	1.3732	-5.226001	0.000352	3.522019	0.596646	-0.000035
1874	1.8636e+02	1.3594	-5.260218	0.000344	3.440111	0.582771	-0.000034
1875	1.8646e+02	1.3489	-5.294842	0.000348	3.481065	0.589708	-0.000035
1876	1.8656e+02	1.3384	-5.329874	0.000352	3.522019	0.596646	-0.000035
1877	1.8666e+02	1.3271	-5.361646	0.000319	3.194389	0.541144	-0.000032
1878	1.8676e+02	1.3174	-5.399937	0.000385	3.849648	0.652148	-0.000038
1879	1.8686e+02	1.3088	-5.430895	0.000311	3.112482	0.527269	-0.000031
1880	1.8696e+02	1.2993	-5.469592	0.000389	3.890602	0.659086	-0.000039
1881	1.8706e+02	1.2873	-5.500143	0.000307	3.071528	0.520331	-0.000031
1882	1.8716e+02	1.2792	-5.534360	0.000344	3.440111	0.582771	-0.000034
1883	1.8726e+02	1.2675	-5.572650	0.000385	3.849648	0.652148	-0.000038
1884	1.8736e+02	1.2595	-5.600756	0.000283	2.825806	0.478704	-0.000028
1885	1.8746e+02	1.2507	-5.633344	0.000328	3.276296	0.555020	-0.000033
1886	1.8756e+02	1.2426	-5.667153	0.000340	3.399158	0.575833	-0.000034
1887	1.8766e+02	1.2292	-5.698111	0.000311	3.112482	0.527269	-0.000031
1888	1.8776e+02	1.2199	-5.734365	0.000364	3.644880	0.617459	-0.000036
1889	1.8786e+02	1.2086	-5.765730	0.000315	3.153435	0.534206	-0.000032
1890	1.8796e+02	1.1993	-5.801576	0.000360	3.603926	0.610522	-0.000036
1891	1.8806e+02	1.1921	-5.832127	0.000307	3.071528	0.520331	-0.000031
1892	1.8815e+02	1.1804	-5.864714	0.000328	3.276296	0.555020	-0.000033
1893	1.8825e+02	1.1726	-5.896894	0.000324	3.235343	0.548082	-0.000032
1894	1.8835e+02	1.1612	-5.927445	0.000307	3.071528	0.520331	-0.000031
1895	1.8845e+02	1.1505	-5.958811	0.000315	3.153435	0.534206	-0.000032
1896	1.8855e+02	1.1412	-5.990583	0.000319	3.194389	0.541144	-0.000032
1897	1.8865e+02	1.1309	-6.027244	0.000369	3.685833	0.624397	-0.000037
1898	1.8875e+02	1.1196	-6.061053	0.000340	3.399158	0.575833	-0.000034
1899	1.8885e+02	1.1118	-6.091604	0.000307	3.071528	0.520331	-0.000031
1900	1.8895e+02	1.1004	-6.127043	0.000356	3.562972	0.603584	-0.000036
1901	1.8905e+02	1.0892	-6.160038	0.000332	3.317250	0.561957	-0.000033
1902	1.8915e+02	1.0819	-6.192625	0.000328	3.276296	0.555020	-0.000033
1903	1.8925e+02	1.0700	-6.227657	0.000352	3.522019	0.596646	-0.000035
1904	1.8935e+02	1.0616	-6.261873	0.000344	3.440111	0.582771	-0.000034
1905	1.8945e+02	1.0511	-6.292831	0.000311	3.112482	0.527269	-0.000031
1906	1.8955e+02	1.0407	-6.326641	0.000340	3.399158	0.575833	-0.000034
1907	1.8965e+02	1.0300	-6.362080	0.000356	3.562972	0.603584	-0.000036
1908	1.8975e+02	1.0204	-6.397518	0.000356	3.562972	0.603584	-0.000036
1909	1.8985e+02	1.0130	-6.431328	0.000340	3.399158	0.575833	-0.000034
1910	1.8995e+02	1.0017	-6.469211	0.000381	3.808695	0.645210	-0.000038
1911	1.9004e+02	0.9950	-6.505057	0.000360	3.603926	0.610522	-0.000036
1912	1.9014e+02	0.9804	-6.544569	0.000397	3.972509	0.672961	-0.000040
1913	1.9024e+02	0.9696	-6.578379	0.000340	3.399158	0.575833	-0.000034
1914	1.9034e+02	0.9614	-6.615447	0.000373	3.726787	0.631335	-0.000037
1915	1.9044e+02	0.9521	-6.652108	0.000369	3.685833	0.624397	-0.000037
1916	1.9054e+02	0.9407	-6.689176	0.000373	3.726787	0.631335	-0.000037
1917	1.9064e+02	0.9288	-6.725429	0.000364	3.644880	0.617459	-0.000036
1918	1.9074e+02	0.9223	-6.760053	0.000348	3.481065	0.589708	-0.000035
1919	1.9084e+02	0.9102	-6.799158	0.000393	3.931556	0.666024	-0.000039
1920	1.9094e+02	0.9010	-6.835819	0.000369	3.685833	0.624397	-0.000037
1921	1.9104e+02	0.8931	-6.874517	0.000389	3.890602	0.659086	-0.000039
1922	1.9114e+02	0.8826	-6.911177	0.000369	3.685833	0.624397	-0.000037
1923	1.9124e+02	0.8703	-6.949060	0.000381	3.808695	0.645210	-0.000038
1924	1.9134e+02	0.8633	-6.986128	0.000373	3.726787	0.631335	-0.000037
1925	1.9144e+02	0.8557	-7.022789	0.000369	3.685833	0.624397	-0.000037
1926	1.9154e+02	0.8425	-7.059450	0.000369	3.685833	0.624397	-0.000037
1927	1.9164e+02	0.8303	-7.101406	0.000422	4.218232	0.714588	-0.000042
1928	1.9174e+02	0.8205	-7.139697	0.000385	3.849648	0.652148	-0.000038
1929	1.9184e+02	0.8122	-7.173506	0.000340	3.399158	0.575833	-0.000034
1930	1.9194e+02	0.8025	-7.211796	0.000385	3.849648	0.652148	-0.000038
1931	1.9203e+02	0.7910	-7.253345	0.000418	4.177278	0.707650	-0.000042
1932	1.9213e+02	0.7841	-7.288784	0.000356	3.562972	0.603584	-0.000036
1933	1.9223e+02	0.7723	-7.331148	0.000426	4.259185	0.721526	-0.000043
1934	1.9233e+02	0.7648	-7.365772	0.000348	3.481065	0.589708	-0.000035
1935	1.9243e+02	0.7540	-7.407321	0.000418	4.177278	0.707650	-0.000042
1936	1.9253e+02	0.7433	-7.445203	0.000381	3.808695	0.645210	-0.000038
1937	1.9263e+02	0.7337	-7.483086	0.000381	3.808695	0.645210	-0.000038
1938	1.9273e+02	0.7226	-7.520969	0.000381	3.808695	0.645210	-0.000038
1939	1.9283e+02	0.7135	-7.559259	0.000385	3.849648	0.652148	-0.000038
1940	1.9293e+02	0.7003	-7.599994	0.000410	4.095371	0.693775	-0.000041
1941	1.9303e+02	0.6920	-7.638691	0.000389	3.890602	0.659086	-0.000039
1942	1.9313e+02	0.6860	-7.679018	0.000405	4.054417	0.686837	-0.000041
1943	1.9323e+02	0.6715	-7.717716	0.000389	3.890602	0.659086	-0.000039
1944	1.9333e+02	0.6635	-7.760079	0.000426	4.259185	0.721526	-0.000043
1945	1.9343e+02	0.6528	-7.798369	0.000385	3.849648	0.652148	-0.000038
1946	1.9353e+02	0.6401	-7.836252	0.000381	3.808695	0.645210	-0.000038
1947	1.9363e+02	0.6352	-7.874543	0.000385	3.849648	0.652148	-0.000038
1948	1.9373e+02	0.6228	-7.912425	0.000381	3.808695	0.645210	-0.000038
1949	1.9383e+02	0.6130	-7.953567	0.000414	4.136324	0.700712	-0.000041
1950	1.9393e+02	0.6048	-7.993894	0.000405	4.054417	0.686837	-0.000041
1951	1.9403e+02	0.5914	-8.031777	0.000381	3.808695	0.645210	-0.000038
1952	1.9412e+02	0.5834	-8.072104	0.000405	4.054417	0.686837	-0.000041
1953	1.9422e+02	0.5747	-8.112023	0.000401	4.013463	0.679899	-0.000040
1954	1.9432e+02	0.5605	-8.150313	0.000385	3.849648	0.652148	-0.000038
1955	1.9442e+02	0.5518	-8.192677	0.000426	4.259185	0.721526	-0.000043
1956	1.9452e+02	0.5412	-8.229338	0.000369	3.685833	0.624397	-0.000037
1957	1.9462e+02	0.5343	-8.268443	0.000393	3.931556	0.666024	-0.000039
1958	1.9472e+02	0.5248	-8.308770	0.000405	4.054417	0.686837	-0.000041
1959	1.9482e+02	0.5133	-8.347467	0.000389	3.890602	0.659086	-0.000039
1960	1.9492e+02	0.5033	-8.386165	0.000389	3.890602	0.659086	-0.000039
1961	1.9502e+02	0.4949	-8.428121	0.000422	4.218232	0.714588	-0.000042
1962	1.9512e+02	0.4823	-8.471299	0.000434	4.341093	0.735401	-0.000043
1963	1.9522e+02	0.4746	-8.508368	0.000373	3.726787	0.631335	-0.000037
1964	1.9532e+02	0.4609	-8.546658	0.000385	3.849648	0.652148	-0.000038
1965	1.9542e+02	0.4510	-8.594724	0.000483	4.832537	0.818654	-0.000048
1966	1.9552e+02	0.4424	-8.637902	0.000434	4.341093	0.735401	-0.000043
1967	1.9562e+02	0.4330	-8.670897	0.000332	3.317250	0.561957	-0.000033
1968	1.9572e+02	0.4214	-8.718964	0.000483	4.832537	0.818654	-0.000048
1969	1.9582e+02	0.4144	-8.756847	0.000381	3.808695	0.645210	-0.000038
1970	1.9592e+02	0.4030	-8.797173	0.000405	4.054417	0.686837	-0.000041
1971	1.9601e+02	0.3952	-8.837500	0.000405	4.054417	0.686837	-0.000041
1972	1.9611e+02	0.3862	-8.881086	0.000438	4.382046	0.742339	-0.000044
1973	1.9621e+02	0.3752	-8.925486	0.000446	4.463954	0.756214	-0.000045
1974	1.9631e+02	0.3636	-8.968257	0.000430	4.300139	0.728463	-0.000043
1975	1.9641e+02	0.3559	-9.003696	0.000356	3.562972	0.603584	-0.000036
1976	1.9651e+02	0.3422	-9.051763	0.000483	4.832537	0.818654	-0.000048
1977	1.9661e+02	0.3342	-9.089238	0.000377	3.767741	0.638273	-0.000038
1978	1.9671e+02	0.3286	-9.136490	0.000475	4.750630	0.804778	-0.000047
1979	1.9681e+02	0.3161	-9.181297	0.000450	4.504908	0.763152	-0.000045
1980	1.9691e+02	0.3043	-9.224883	0.000438	4.382046	0.742339	-0.000044
1981	1.9701e+02	0.2950	-9.264803	0.000401	4.013463	0.679899	-0.000040
1982	1.9711e+02	0.2814	-9.311647	0.000471	4.709676	0.797841	-0.000047
1983	1.9721e+02	0.2750	-9.351974	0.000405	4.054417	0.686837	-0.000041
1984	1.9731e+02	0.2657	-9.390672	0.000389	3.890602	0.659086	-0.000039
1985	1.9741e+02	0.2533	-9.435072	0.000446	4.463954	0.756214	-0.000045
1986	1.9751e+02	0.2439	-9.473769	0.000389	3.890602	0.659086	-0.000039
1987	1.9761e+02	0.2341	-9.521021	0.000475	4.750630	0.804778	-0.000047
1988	1.9771e+02	0.2248	-9.563792	0.000430	4.300139	0.728463	-0.000043
1989	1.9781e+02	0.2129	-9.606970	0.000434	4.341093	0.735401	-0.000043
1990	1.9791e+02	0.2072	-9.647705	0.000410	4.095371	0.693775	-0.000041
1991	1.9800e+02	0.1965	-9.689661	0.000422	4.218232	0.714588	-0.000042
1992	1.9810e+02	0.1832	-9.727951	0.000385	3.849648	0.652148	-0.000038
1993	1.9820e+02	0.1752	-9.769500	0.000418	4.177278	0.707650	-0.000042
1994	1.9830e+02	0.1649	-9.809012	0.000397	3.972509	0.672961	-0.000040
1995	1.9840e+02	0.1558	-9.848525	0.000397	3.972509	0.672961	-0.000040
1996	1.9850e+02	0.1447	-9.892110	0.000438	4.382046	0.742339	-0.000044
1997	1.9860e+02	0.1360	-9.934474	0.000426	4.259185	0.721526	-0.000043
1998	1.9870e+02	0.1219	-9.975208	0.000410	4.095371	0.693775	-0.000041
1999	1.9880e+02	0.1161	-10.013091	0.000381	3.808695	0.645210	-0.000038
2000	1.9890e+02	0.1031	-10.053010	0.000401	4.013463	0.679899	-0.000040
2001	1.9900e+02	0.0978	-10.092523	0.000397	3.972509	0.672961	-0.000040
2002	1.9910e+02	0.0850	-10.133664	0.000414	4.136324	0.700712	-0.000041
2003	1.9920e+02	0.0753	-10.172769	0.000393	3.931556	0.666024	-0.000039
2004	1.9930e+02	0.0661	-10.213911	0.000414	4.136324	0.700712	-0.000041
2005	1.9940e+02	0.0562	-10.246906	0.000332	3.317250	0.561957	-0.000033
2006	1.9950e+02	0.0446	-10.290084	0.000434	4.341093	0.735401	-0.000043
2007	1.9960e+02	0.0352	-10.333262	0.000434	4.341093	0.735401	-0.000043
2008	1.9970e+02	0.0242	-10.371552	0.000385	3.849648	0.652148	-0.000038
2009	1.9980e+02	0.0165	-10.408621	0.000373	3.726787	0.631335	-0.000037
2010	1.9990e+02	0.0037	-10.447318	0.000389	3.890602	0.659086	-0.000039
2011	2.0000e+02	-0.0037	-10.489274	0.000389	3.890602	0.659086	-0.000042

PMax (uC/cm2):	2.99e+01
Pr (uC/cm2):	4.49e+00
-Pr (uC/cm2):	0.00e+00
PLoss (uC/cm2):	0.00e+00
C (Max-Eff) (nF):	2.99e-01
K (Eff):	5.07e+02
Vert. (+/-Pr) Shift (uC/cm2):	2.24e+00
Offset (uC/cm2):	1.50e+01

A (Loop Area - uC/cm2·Volts):	-4.36e-02



Hysteresis Version: 5.48.1 - Radiant Technologies, Inc., 1999 - 9/12/24

