»»»»»»»»»»»»»»»»»»»»»»»»»»»»»»»»»»»» Hysteresis ««««««««««««««««««««««««««««««««««««
»»»  Executed Version:	5.48.1
»»»  Vision Version:	5.48.4 (R)
»»»  Vision Compiled:	9/18/24
»»»  Driver Version:	5.47.0
»»»  Windows Version:	Windows 8 or 8.1
»»»  Processor Information:	x86 (AMD or Intel) - 32 Processors
»»»  Tester Name:	PMF21124-494 (100V)
»»»  Tester S/N:	PMF21124-494
»»»  Internal Amp Type:	100V RevK 270k
»»»  Internal Amp S/N:	iAB2-596/K     
»»»  Execution Count:	1
»»»»»»»»»»»»»»»»»»»»»»»»»»»»»»»»»»»»»»»»»»««««««««««««««««««««««««««««««««««««««««««

Stored:	6/25/2025 - 14:39:56
Configured:	06/25/25 10:44:40 AM
Executed:	06/25/25 02:39:17 PM

»»»»»»»»»»»»»»»»»»»»»»»»»»»»»»»»»»» Sample Info ««««««««««««««««««««««««««««««««««««
Sample Name:	
Lot Name:	
Wafer Name:	
Die Row/Column:	0/0
Capacitor Number:	0
Sample Area (cm2):	1.00e-04
Sample Thickness (microns):	1.50e-01

Amplifier:	Internal

»»»»»»»»»»»»»»»»»»»»»»»»»»»»»»»»»»» Tester Info «««««««««««««««««««««««««««««««««««
Tester Name:	PMF21124-494 (100V)
Tester Serial Number:	PMF21124-494
Return Signal Amp. Level:	1.9 [Index: 2]

»»»»»»»»»»»»»»»»»»»»»»»»»»»»»»»» Hysteresis Info ««««««««««««««««««««««««««««««««««
Task Name:	Hyst-116
Volts:	10.00
Field:	666.67 (kV/cm)
DCBias:	0.00
DCField:	0.00 (kV/cm)
Hysteresis Period (ms):	2.00e+02
Preset:	Enabled
Preset Delay (ms):	1.00e+03
Profile:	Standard Monopolar

»»»»»»»»»»»»»»»»»»»»»»»»»»»»»»»»»»»»»» Data «««««««««««««««««««««««««««««««««««««««
Points:	2011

Valid Data

Point	Time (ms)	Drive Voltage	Measured Polarization (uC/cm2)	Capacitance (uF)	Normalized Capacitance (uF/cm2)	Dielectric Constant	Instantaneous Current (mA)
   1	0.0000e+00	-0.0033	-16.288610	0.000405	4.054556	0.686860	0.000041
   2	9.9500e-02	0.0064	-16.248283	0.000405	4.054556	0.686860	0.000041
   3	1.9900e-01	0.0135	-16.203068	0.000455	4.546017	0.770116	0.000045
   4	2.9850e-01	0.0274	-16.163556	0.000397	3.972646	0.672984	0.000040
   5	3.9800e-01	0.0346	-16.124044	0.000397	3.972646	0.672984	0.000040
   6	4.9750e-01	0.0469	-16.080458	0.000438	4.382197	0.742364	0.000044
   7	5.9700e-01	0.0533	-16.034836	0.000459	4.586973	0.777054	0.000046
   8	6.9650e-01	0.0639	-15.992880	0.000422	4.218377	0.714612	0.000042
   9	7.9600e-01	0.0754	-15.950516	0.000426	4.259332	0.721550	0.000043
  10	8.9550e-01	0.0854	-15.910189	0.000405	4.054556	0.686860	0.000041
  11	9.9500e-01	0.0974	-15.868233	0.000422	4.218377	0.714612	0.000042
  12	1.0945e+00	0.1045	-15.822203	0.000463	4.627928	0.783992	0.000046
  13	1.1940e+00	0.1163	-15.779839	0.000426	4.259332	0.721550	0.000043
  14	1.2935e+00	0.1232	-15.739920	0.000401	4.013601	0.679922	0.000040
  15	1.3930e+00	0.1330	-15.697964	0.000422	4.218377	0.714612	0.000042
  16	1.4925e+00	0.1482	-15.653156	0.000451	4.505062	0.763178	0.000045
  17	1.5920e+00	0.1544	-15.613644	0.000397	3.972646	0.672984	0.000040
  18	1.6915e+00	0.1644	-15.571280	0.000426	4.259332	0.721550	0.000043
  19	1.7910e+00	0.1752	-15.527694	0.000438	4.382197	0.742364	0.000044
  20	1.8905e+00	0.1846	-15.483294	0.000446	4.464107	0.756240	0.000045
  21	1.9900e+00	0.1956	-15.440930	0.000426	4.259332	0.721550	0.000043
  22	2.0895e+00	0.2034	-15.398567	0.000426	4.259332	0.721550	0.000043
  23	2.1890e+00	0.2144	-15.355388	0.000434	4.341242	0.735426	0.000043
  24	2.2885e+00	0.2246	-15.314654	0.000410	4.095511	0.693798	0.000041
  25	2.3880e+00	0.2351	-15.270661	0.000442	4.423152	0.749302	0.000044
  26	2.4875e+00	0.2449	-15.229112	0.000418	4.177421	0.707674	0.000042
  27	2.5870e+00	0.2551	-15.188785	0.000405	4.054556	0.686860	0.000041
  28	2.6865e+00	0.2682	-15.142756	0.000463	4.627928	0.783992	0.000046
  29	2.7860e+00	0.2731	-15.107724	0.000352	3.522140	0.596667	0.000035
  30	2.8855e+00	0.2828	-15.066175	0.000418	4.177421	0.707674	0.000042
  31	2.9850e+00	0.2948	-15.022590	0.000438	4.382197	0.742364	0.000044
  32	3.0845e+00	0.3051	-14.983077	0.000397	3.972646	0.672984	0.000040
  33	3.1840e+00	0.3158	-14.940306	0.000430	4.300287	0.728488	0.000043
  34	3.2835e+00	0.3224	-14.901202	0.000393	3.931691	0.666046	0.000039
  35	3.3830e+00	0.3351	-14.857209	0.000442	4.423152	0.749302	0.000044
  36	3.4825e+00	0.3458	-14.816474	0.000410	4.095511	0.693798	0.000041
  37	3.5820e+00	0.3527	-14.773703	0.000430	4.300287	0.728488	0.000043
  38	3.6815e+00	0.3619	-14.730932	0.000430	4.300287	0.728488	0.000043
  39	3.7810e+00	0.3726	-14.693050	0.000381	3.808825	0.645232	0.000038
  40	3.8805e+00	0.3827	-14.652315	0.000410	4.095511	0.693798	0.000041
  41	3.9800e+00	0.3920	-14.607508	0.000451	4.505062	0.763178	0.000045
  42	4.0795e+00	0.4054	-14.567588	0.000401	4.013601	0.679922	0.000040
  43	4.1790e+00	0.4152	-14.521966	0.000459	4.586973	0.777054	0.000046
  44	4.2785e+00	0.4249	-14.484490	0.000377	3.767870	0.638295	0.000038
  45	4.3780e+00	0.4329	-14.440090	0.000446	4.464107	0.756240	0.000045
  46	4.4775e+00	0.4411	-14.397726	0.000426	4.259332	0.721550	0.000043
  47	4.5770e+00	0.4522	-14.358214	0.000397	3.972646	0.672984	0.000040
  48	4.6765e+00	0.4634	-14.314221	0.000442	4.423152	0.749302	0.000044
  49	4.7760e+00	0.4778	-14.271043	0.000434	4.341242	0.735426	0.000043
  50	4.8755e+00	0.4832	-14.227050	0.000442	4.423152	0.749302	0.000044
  51	4.9750e+00	0.4929	-14.182242	0.000451	4.505062	0.763178	0.000045
  52	5.0745e+00	0.5026	-14.139878	0.000426	4.259332	0.721550	0.000043
  53	5.1740e+00	0.5130	-14.094663	0.000455	4.546017	0.770116	0.000045
  54	5.2735e+00	0.5238	-14.050263	0.000446	4.464107	0.756240	0.000045
  55	5.3730e+00	0.5333	-14.004641	0.000459	4.586973	0.777054	0.000046
  56	5.4725e+00	0.5428	-13.959426	0.000455	4.546017	0.770116	0.000045
  57	5.5720e+00	0.5552	-13.915433	0.000442	4.423152	0.749302	0.000044
  58	5.6715e+00	0.5634	-13.869810	0.000459	4.586973	0.777054	0.000046
  59	5.7710e+00	0.5679	-13.826225	0.000438	4.382197	0.742364	0.000044
  60	5.8705e+00	0.5818	-13.783046	0.000434	4.341242	0.735426	0.000043
  61	5.9700e+00	0.5927	-13.741497	0.000418	4.177421	0.707674	0.000042
  62	6.0695e+00	0.6028	-13.692209	0.000496	4.955569	0.839496	0.000050
  63	6.1690e+00	0.6132	-13.647401	0.000451	4.505062	0.763178	0.000045
  64	6.2685e+00	0.6222	-13.606260	0.000414	4.136466	0.700736	0.000041
  65	6.3680e+00	0.6345	-13.557786	0.000487	4.873658	0.825620	0.000049
  66	6.4675e+00	0.6422	-13.513793	0.000442	4.423152	0.749302	0.000044
  67	6.5670e+00	0.6548	-13.474688	0.000393	3.931691	0.666046	0.000039
  68	6.6665e+00	0.6638	-13.428251	0.000467	4.668883	0.790930	0.000047
  69	6.7660e+00	0.6679	-13.380999	0.000475	4.750793	0.804806	0.000047
  70	6.8655e+00	0.6799	-13.338228	0.000430	4.300287	0.728488	0.000043
  71	6.9650e+00	0.6929	-13.295457	0.000430	4.300287	0.728488	0.000043
  72	7.0645e+00	0.7043	-13.249020	0.000467	4.668883	0.790930	0.000047
  73	7.1640e+00	0.7136	-13.208286	0.000410	4.095511	0.693798	0.000041
  74	7.2635e+00	0.7229	-13.167959	0.000405	4.054556	0.686860	0.000041
  75	7.3630e+00	0.7331	-13.126003	0.000422	4.218377	0.714612	0.000042
  76	7.4625e+00	0.7435	-13.077122	0.000491	4.914613	0.832558	0.000049
  77	7.5620e+00	0.7512	-13.035980	0.000414	4.136466	0.700736	0.000041
  78	7.6615e+00	0.7593	-12.995246	0.000410	4.095511	0.693798	0.000041
  79	7.7610e+00	0.7707	-12.951660	0.000438	4.382197	0.742364	0.000044
  80	7.8605e+00	0.7813	-12.909704	0.000422	4.218377	0.714612	0.000042
  81	7.9600e+00	0.7922	-12.864896	0.000451	4.505062	0.763178	0.000045
  82	8.0595e+00	0.8026	-12.821718	0.000434	4.341242	0.735426	0.000043
  83	8.1590e+00	0.8089	-12.779354	0.000426	4.259332	0.721550	0.000043
  84	8.2585e+00	0.8231	-12.741064	0.000385	3.849781	0.652170	0.000038
  85	8.3580e+00	0.8337	-12.695034	0.000463	4.627928	0.783992	0.000046
  86	8.4575e+00	0.8442	-12.654707	0.000405	4.054556	0.686860	0.000041
  87	8.5570e+00	0.8509	-12.611122	0.000438	4.382197	0.742364	0.000044
  88	8.6565e+00	0.8611	-12.565499	0.000459	4.586973	0.777054	0.000046
  89	8.7560e+00	0.8711	-12.523543	0.000422	4.218377	0.714612	0.000042
  90	8.8555e+00	0.8811	-12.483624	0.000401	4.013601	0.679922	0.000040
  91	8.9550e+00	0.8923	-12.441667	0.000422	4.218377	0.714612	0.000042
  92	9.0545e+00	0.9013	-12.399304	0.000426	4.259332	0.721550	0.000043
  93	9.1540e+00	0.9106	-12.358569	0.000410	4.095511	0.693798	0.000041
  94	9.2535e+00	0.9206	-12.315391	0.000434	4.341242	0.735426	0.000043
  95	9.3530e+00	0.9346	-12.270583	0.000451	4.505062	0.763178	0.000045
  96	9.4525e+00	0.9402	-12.231478	0.000393	3.931691	0.666046	0.000039
  97	9.5520e+00	0.9527	-12.185856	0.000459	4.586973	0.777054	0.000046
  98	9.6515e+00	0.9623	-12.147566	0.000385	3.849781	0.652170	0.000038
  99	9.7510e+00	0.9707	-12.106017	0.000418	4.177421	0.707674	0.000042
 100	9.8505e+00	0.9771	-12.062431	0.000438	4.382197	0.742364	0.000044
 101	9.9500e+00	0.9911	-12.022104	0.000405	4.054556	0.686860	0.000041
 102	1.0050e+01	0.9995	-11.981370	0.000410	4.095511	0.693798	0.000041
 103	1.0149e+01	1.0081	-11.936155	0.000455	4.546017	0.770116	0.000045
 104	1.0248e+01	1.0213	-11.898272	0.000381	3.808825	0.645232	0.000038
 105	1.0348e+01	1.0287	-11.853057	0.000455	4.546017	0.770116	0.000045
 106	1.0447e+01	1.0404	-11.811916	0.000414	4.136466	0.700736	0.000041
 107	1.0547e+01	1.0505	-11.771589	0.000405	4.054556	0.686860	0.000041
 108	1.0646e+01	1.0616	-11.730854	0.000410	4.095511	0.693798	0.000041
 109	1.0746e+01	1.0679	-11.691750	0.000393	3.931691	0.666046	0.000039
 110	1.0845e+01	1.0803	-11.644498	0.000475	4.750793	0.804806	0.000047
 111	1.0945e+01	1.0909	-11.602949	0.000418	4.177421	0.707674	0.000042
 112	1.1044e+01	1.0995	-11.559771	0.000434	4.341242	0.735426	0.000043
 113	1.1144e+01	1.1115	-11.517000	0.000430	4.300287	0.728488	0.000043
 114	1.1243e+01	1.1204	-11.472599	0.000446	4.464107	0.756240	0.000045
 115	1.1343e+01	1.1303	-11.431050	0.000418	4.177421	0.707674	0.000042
 116	1.1443e+01	1.1404	-11.389094	0.000422	4.218377	0.714612	0.000042
 117	1.1542e+01	1.1510	-11.348360	0.000410	4.095511	0.693798	0.000041
 118	1.1642e+01	1.1629	-11.308033	0.000405	4.054556	0.686860	0.000041
 119	1.1741e+01	1.1666	-11.266484	0.000418	4.177421	0.707674	0.000042
 120	1.1841e+01	1.1794	-11.220862	0.000459	4.586973	0.777054	0.000046
 121	1.1940e+01	1.1885	-11.177683	0.000434	4.341242	0.735426	0.000043
 122	1.2040e+01	1.1995	-11.135727	0.000422	4.218377	0.714612	0.000042
 123	1.2139e+01	1.2100	-11.095807	0.000401	4.013601	0.679922	0.000040
 124	1.2239e+01	1.2190	-11.053851	0.000422	4.218377	0.714612	0.000042
 125	1.2338e+01	1.2307	-11.010673	0.000434	4.341242	0.735426	0.000043
 126	1.2438e+01	1.2390	-10.967902	0.000430	4.300287	0.728488	0.000043
 127	1.2537e+01	1.2490	-10.929612	0.000385	3.849781	0.652170	0.000038
 128	1.2636e+01	1.2585	-10.888063	0.000418	4.177421	0.707674	0.000042
 129	1.2736e+01	1.2725	-10.850587	0.000377	3.767870	0.638295	0.000038
 130	1.2835e+01	1.2795	-10.808631	0.000422	4.218377	0.714612	0.000042
 131	1.2935e+01	1.2887	-10.767897	0.000410	4.095511	0.693798	0.000041
 132	1.3034e+01	1.2978	-10.728792	0.000393	3.931691	0.666046	0.000039
 133	1.3134e+01	1.3070	-10.687650	0.000414	4.136466	0.700736	0.000041
 134	1.3233e+01	1.3170	-10.648545	0.000393	3.931691	0.666046	0.000039
 135	1.3333e+01	1.3295	-10.608218	0.000405	4.054556	0.686860	0.000041
 136	1.3432e+01	1.3374	-10.568299	0.000401	4.013601	0.679922	0.000040
 137	1.3532e+01	1.3503	-10.533267	0.000352	3.522140	0.596667	0.000035
 138	1.3632e+01	1.3589	-10.492940	0.000405	4.054556	0.686860	0.000041
 139	1.3731e+01	1.3712	-10.457502	0.000356	3.563095	0.603605	0.000036
 140	1.3831e+01	1.3802	-10.415953	0.000418	4.177421	0.707674	0.000042
 141	1.3930e+01	1.3879	-10.379699	0.000365	3.645005	0.617481	0.000036
 142	1.4030e+01	1.3998	-10.338558	0.000414	4.136466	0.700736	0.000041
 143	1.4129e+01	1.4117	-10.301489	0.000373	3.726915	0.631357	0.000037
 144	1.4229e+01	1.4188	-10.261977	0.000397	3.972646	0.672984	0.000040
 145	1.4328e+01	1.4263	-10.221650	0.000405	4.054556	0.686860	0.000041
 146	1.4428e+01	1.4385	-10.185397	0.000365	3.645005	0.617481	0.000036
 147	1.4527e+01	1.4475	-10.142626	0.000430	4.300287	0.728488	0.000043
 148	1.4627e+01	1.4576	-10.110853	0.000319	3.194499	0.541163	0.000032
 149	1.4726e+01	1.4684	-10.073378	0.000377	3.767870	0.638295	0.000038
 150	1.4825e+01	1.4783	-10.036309	0.000373	3.726915	0.631357	0.000037
 151	1.4925e+01	1.4864	-9.995168	0.000414	4.136466	0.700736	0.000041
 152	1.5024e+01	1.4990	-9.956063	0.000393	3.931691	0.666046	0.000039
 153	1.5124e+01	1.5083	-9.921032	0.000352	3.522140	0.596667	0.000035
 154	1.5223e+01	1.5160	-9.880297	0.000410	4.095511	0.693798	0.000041
 155	1.5323e+01	1.5262	-9.843229	0.000373	3.726915	0.631357	0.000037
 156	1.5422e+01	1.5388	-9.801680	0.000418	4.177421	0.707674	0.000042
 157	1.5522e+01	1.5476	-9.769500	0.000324	3.235454	0.548101	0.000032
 158	1.5621e+01	1.5588	-9.724692	0.000451	4.505062	0.763178	0.000045
 159	1.5721e+01	1.5656	-9.684365	0.000405	4.054556	0.686860	0.000041
 160	1.5820e+01	1.5804	-9.647705	0.000369	3.685960	0.624419	0.000037
 161	1.5920e+01	1.5873	-9.609414	0.000385	3.849781	0.652170	0.000038
 162	1.6020e+01	1.5980	-9.567051	0.000426	4.259332	0.721550	0.000043
 163	1.6119e+01	1.6084	-9.528353	0.000389	3.890736	0.659108	0.000039
 164	1.6218e+01	1.6175	-9.492507	0.000360	3.604050	0.610543	0.000036
 165	1.6318e+01	1.6262	-9.457883	0.000348	3.481185	0.589729	0.000035
 166	1.6418e+01	1.6396	-9.414297	0.000438	4.382197	0.742364	0.000044
 167	1.6517e+01	1.6470	-9.378044	0.000365	3.645005	0.617481	0.000036
 168	1.6616e+01	1.6566	-9.338532	0.000397	3.972646	0.672984	0.000040
 169	1.6716e+01	1.6671	-9.299019	0.000397	3.972646	0.672984	0.000040
 170	1.6816e+01	1.6776	-9.260729	0.000385	3.849781	0.652170	0.000038
 171	1.6915e+01	1.6870	-9.222032	0.000389	3.890736	0.659108	0.000039
 172	1.7015e+01	1.6986	-9.182112	0.000401	4.013601	0.679922	0.000040
 173	1.7114e+01	1.7083	-9.144637	0.000377	3.767870	0.638295	0.000038
 174	1.7213e+01	1.7148	-9.105939	0.000389	3.890736	0.659108	0.000039
 175	1.7313e+01	1.7246	-9.068464	0.000377	3.767870	0.638295	0.000038
 176	1.7413e+01	1.7382	-9.024878	0.000438	4.382197	0.742364	0.000044
 177	1.7512e+01	1.7440	-8.989846	0.000352	3.522140	0.596667	0.000035
 178	1.7611e+01	1.7564	-8.950334	0.000397	3.972646	0.672984	0.000040
 179	1.7711e+01	1.7660	-8.911229	0.000393	3.931691	0.666046	0.000039
 180	1.7811e+01	1.7782	-8.872532	0.000389	3.890736	0.659108	0.000039
 181	1.7910e+01	1.7869	-8.836278	0.000365	3.645005	0.617481	0.000036
 182	1.8009e+01	1.7971	-8.794729	0.000418	4.177421	0.707674	0.000042
 183	1.8109e+01	1.8101	-8.758883	0.000360	3.604050	0.610543	0.000036
 184	1.8209e+01	1.8166	-8.717334	0.000418	4.177421	0.707674	0.000042
 185	1.8308e+01	1.8259	-8.681081	0.000365	3.645005	0.617481	0.000036
 186	1.8407e+01	1.8351	-8.637495	0.000438	4.382197	0.742364	0.000044
 187	1.8507e+01	1.8468	-8.598798	0.000389	3.890736	0.659108	0.000039
 188	1.8607e+01	1.8550	-8.561729	0.000373	3.726915	0.631357	0.000037
 189	1.8706e+01	1.8642	-8.520995	0.000410	4.095511	0.693798	0.000041
 190	1.8805e+01	1.8767	-8.483520	0.000377	3.767870	0.638295	0.000038
 191	1.8905e+01	1.8839	-8.445229	0.000385	3.849781	0.652170	0.000038
 192	1.9005e+01	1.8961	-8.405717	0.000397	3.972646	0.672984	0.000040
 193	1.9104e+01	1.9090	-8.367020	0.000389	3.890736	0.659108	0.000039
 194	1.9203e+01	1.9138	-8.333210	0.000340	3.399274	0.575853	0.000034
 195	1.9303e+01	1.9266	-8.294920	0.000385	3.849781	0.652170	0.000038
 196	1.9402e+01	1.9355	-8.259481	0.000356	3.563095	0.603605	0.000036
 197	1.9502e+01	1.9482	-8.220784	0.000389	3.890736	0.659108	0.000039
 198	1.9602e+01	1.9543	-8.184123	0.000369	3.685960	0.624419	0.000037
 199	1.9701e+01	1.9669	-8.149906	0.000344	3.440229	0.582791	0.000034
 200	1.9800e+01	1.9755	-8.113653	0.000365	3.645005	0.617481	0.000036
 201	1.9900e+01	1.9865	-8.074955	0.000389	3.890736	0.659108	0.000039
 202	2.0000e+01	1.9966	-8.037887	0.000373	3.726915	0.631357	0.000037
 203	2.0099e+01	2.0059	-7.998375	0.000397	3.972646	0.672984	0.000040
 204	2.0198e+01	2.0161	-7.962529	0.000360	3.604050	0.610543	0.000036
 205	2.0298e+01	2.0265	-7.927090	0.000356	3.563095	0.603605	0.000036
 206	2.0398e+01	2.0345	-7.889207	0.000381	3.808825	0.645232	0.000038
 207	2.0497e+01	2.0423	-7.850102	0.000393	3.931691	0.666046	0.000039
 208	2.0596e+01	2.0548	-7.812626	0.000377	3.767870	0.638295	0.000038
 209	2.0696e+01	2.0647	-7.778410	0.000344	3.440229	0.582791	0.000034
 210	2.0796e+01	2.0721	-7.739712	0.000389	3.890736	0.659108	0.000039
 211	2.0895e+01	2.0837	-7.697349	0.000426	4.259332	0.721550	0.000043
 212	2.0994e+01	2.0965	-7.665168	0.000324	3.235454	0.548101	0.000032
 213	2.1094e+01	2.1059	-7.628915	0.000365	3.645005	0.617481	0.000036
 214	2.1194e+01	2.1154	-7.586144	0.000430	4.300287	0.728488	0.000043
 215	2.1293e+01	2.1236	-7.549483	0.000369	3.685960	0.624419	0.000037
 216	2.1392e+01	2.1371	-7.514044	0.000356	3.563095	0.603605	0.000036
 217	2.1492e+01	2.1439	-7.474125	0.000401	4.013601	0.679922	0.000040
 218	2.1591e+01	2.1563	-7.432983	0.000414	4.136466	0.700736	0.000041
 219	2.1691e+01	2.1640	-7.394693	0.000385	3.849781	0.652170	0.000038
 220	2.1791e+01	2.1745	-7.353959	0.000410	4.095511	0.693798	0.000041
 221	2.1890e+01	2.1828	-7.311595	0.000426	4.259332	0.721550	0.000043
 222	2.1989e+01	2.1925	-7.274934	0.000369	3.685960	0.624419	0.000037
 223	2.2089e+01	2.2042	-7.232163	0.000430	4.300287	0.728488	0.000043
 224	2.2189e+01	2.2156	-7.197132	0.000352	3.522140	0.596667	0.000035
 225	2.2288e+01	2.2246	-7.157212	0.000401	4.013601	0.679922	0.000040
 226	2.2387e+01	2.2350	-7.116071	0.000414	4.136466	0.700736	0.000041
 227	2.2487e+01	2.2462	-7.074522	0.000418	4.177421	0.707674	0.000042
 228	2.2587e+01	2.2530	-7.037861	0.000369	3.685960	0.624419	0.000037
 229	2.2686e+01	2.2651	-6.997534	0.000405	4.054556	0.686860	0.000041
 230	2.2785e+01	2.2765	-6.957207	0.000405	4.054556	0.686860	0.000041
 231	2.2885e+01	2.2855	-6.916066	0.000414	4.136466	0.700736	0.000041
 232	2.2985e+01	2.2944	-6.876961	0.000393	3.931691	0.666046	0.000039
 233	2.3084e+01	2.3028	-6.839078	0.000381	3.808825	0.645232	0.000038
 234	2.3183e+01	2.3135	-6.799973	0.000393	3.931691	0.666046	0.000039
 235	2.3283e+01	2.3255	-6.760868	0.000393	3.931691	0.666046	0.000039
 236	2.3383e+01	2.3338	-6.716468	0.000446	4.464107	0.756240	0.000045
 237	2.3482e+01	2.3457	-6.674919	0.000418	4.177421	0.707674	0.000042
 238	2.3581e+01	2.3516	-6.639480	0.000356	3.563095	0.603605	0.000036
 239	2.3681e+01	2.3633	-6.603226	0.000365	3.645005	0.617481	0.000036
 240	2.3780e+01	2.3746	-6.564936	0.000385	3.849781	0.652170	0.000038
 241	2.3880e+01	2.3830	-6.525017	0.000401	4.013601	0.679922	0.000040
 242	2.3980e+01	2.3931	-6.487134	0.000381	3.808825	0.645232	0.000038
 243	2.4079e+01	2.4050	-6.448029	0.000393	3.931691	0.666046	0.000039
 244	2.4178e+01	2.4139	-6.410146	0.000381	3.808825	0.645232	0.000038
 245	2.4278e+01	2.4251	-6.372263	0.000381	3.808825	0.645232	0.000038
 246	2.4378e+01	2.4334	-6.333158	0.000393	3.931691	0.666046	0.000039
 247	2.4477e+01	2.4450	-6.294461	0.000389	3.890736	0.659108	0.000039
 248	2.4576e+01	2.4532	-6.255763	0.000389	3.890736	0.659108	0.000039
 249	2.4676e+01	2.4658	-6.223991	0.000319	3.194499	0.541163	0.000032
 250	2.4776e+01	2.4735	-6.181220	0.000430	4.300287	0.728488	0.000043
 251	2.4875e+01	2.4819	-6.144966	0.000365	3.645005	0.617481	0.000036
 252	2.4974e+01	2.4939	-6.105046	0.000401	4.013601	0.679922	0.000040
 253	2.5074e+01	2.5036	-6.067571	0.000377	3.767870	0.638295	0.000038
 254	2.5174e+01	2.5143	-6.030503	0.000373	3.726915	0.631357	0.000037
 255	2.5273e+01	2.5243	-5.993842	0.000369	3.685960	0.624419	0.000037
 256	2.5372e+01	2.5335	-5.957996	0.000360	3.604050	0.610543	0.000036
 257	2.5472e+01	2.5440	-5.920113	0.000381	3.808825	0.645232	0.000038
 258	2.5572e+01	2.5555	-5.885082	0.000352	3.522140	0.596667	0.000035
 259	2.5671e+01	2.5620	-5.847199	0.000381	3.808825	0.645232	0.000038
 260	2.5770e+01	2.5732	-5.808908	0.000385	3.849781	0.652170	0.000038
 261	2.5870e+01	2.5828	-5.771840	0.000373	3.726915	0.631357	0.000037
 262	2.5970e+01	2.5923	-5.733957	0.000381	3.808825	0.645232	0.000038
 263	2.6069e+01	2.6023	-5.697297	0.000369	3.685960	0.624419	0.000037
 264	2.6169e+01	2.6138	-5.659414	0.000381	3.808825	0.645232	0.000038
 265	2.6268e+01	2.6254	-5.625197	0.000344	3.440229	0.582791	0.000034
 266	2.6367e+01	2.6333	-5.583241	0.000422	4.218377	0.714612	0.000042
 267	2.6467e+01	2.6435	-5.551468	0.000319	3.194499	0.541163	0.000032
 268	2.6567e+01	2.6538	-5.509512	0.000422	4.218377	0.714612	0.000042
 269	2.6666e+01	2.6647	-5.474073	0.000356	3.563095	0.603605	0.000036
 270	2.6765e+01	2.6714	-5.441485	0.000328	3.276409	0.555039	0.000033
 271	2.6865e+01	2.6838	-5.400344	0.000414	4.136466	0.700736	0.000041
 272	2.6965e+01	2.6888	-5.364498	0.000360	3.604050	0.610543	0.000036
 273	2.7064e+01	2.7031	-5.328244	0.000365	3.645005	0.617481	0.000036
 274	2.7163e+01	2.7100	-5.291176	0.000373	3.726915	0.631357	0.000037
 275	2.7263e+01	2.7225	-5.258181	0.000332	3.317364	0.561977	0.000033
 276	2.7363e+01	2.7335	-5.219076	0.000393	3.931691	0.666046	0.000039
 277	2.7462e+01	2.7425	-5.181601	0.000377	3.767870	0.638295	0.000038
 278	2.7561e+01	2.7528	-5.142089	0.000397	3.972646	0.672984	0.000040
 279	2.7661e+01	2.7644	-5.108687	0.000336	3.358319	0.568915	0.000034
 280	2.7761e+01	2.7723	-5.071211	0.000377	3.767870	0.638295	0.000038
 281	2.7860e+01	2.7821	-5.027218	0.000442	4.423152	0.749302	0.000044
 282	2.7959e+01	2.7914	-4.992594	0.000348	3.481185	0.589729	0.000035
 283	2.8059e+01	2.8026	-4.954711	0.000381	3.808825	0.645232	0.000038
 284	2.8159e+01	2.8129	-4.918458	0.000365	3.645005	0.617481	0.000036
 285	2.8258e+01	2.8188	-4.882611	0.000360	3.604050	0.610543	0.000036
 286	2.8358e+01	2.8333	-4.842692	0.000401	4.013601	0.679922	0.000040
 287	2.8457e+01	2.8413	-4.807253	0.000356	3.563095	0.603605	0.000036
 288	2.8556e+01	2.8521	-4.771814	0.000356	3.563095	0.603605	0.000036
 289	2.8656e+01	2.8638	-4.728636	0.000434	4.341242	0.735426	0.000043
 290	2.8756e+01	2.8744	-4.694419	0.000344	3.440229	0.582791	0.000034
 291	2.8855e+01	2.8811	-4.657351	0.000373	3.726915	0.631357	0.000037
 292	2.8954e+01	2.8915	-4.618246	0.000393	3.931691	0.666046	0.000039
 293	2.9054e+01	2.9009	-4.583622	0.000348	3.481185	0.589729	0.000035
 294	2.9154e+01	2.9099	-4.544925	0.000389	3.890736	0.659108	0.000039
 295	2.9253e+01	2.9226	-4.511115	0.000340	3.399274	0.575853	0.000034
 296	2.9352e+01	2.9301	-4.472010	0.000393	3.931691	0.666046	0.000039
 297	2.9452e+01	2.9414	-4.440237	0.000319	3.194499	0.541163	0.000032
 298	2.9552e+01	2.9505	-4.404391	0.000360	3.604050	0.610543	0.000036
 299	2.9651e+01	2.9607	-4.368138	0.000365	3.645005	0.617481	0.000036
 300	2.9750e+01	2.9726	-4.336365	0.000319	3.194499	0.541163	0.000032
 301	2.9850e+01	2.9820	-4.298482	0.000381	3.808825	0.645232	0.000038
 302	2.9950e+01	2.9902	-4.266302	0.000324	3.235454	0.548101	0.000032
 303	3.0049e+01	3.0030	-4.230863	0.000356	3.563095	0.603605	0.000036
 304	3.0148e+01	3.0103	-4.195832	0.000352	3.522140	0.596667	0.000035
 305	3.0248e+01	3.0209	-4.165281	0.000307	3.071633	0.520349	0.000031
 306	3.0348e+01	3.0307	-4.128620	0.000369	3.685960	0.624419	0.000037
 307	3.0447e+01	3.0396	-4.094811	0.000340	3.399274	0.575853	0.000034
 308	3.0547e+01	3.0486	-4.061409	0.000336	3.358319	0.568915	0.000034
 309	3.0646e+01	3.0631	-4.028414	0.000332	3.317364	0.561977	0.000033
 310	3.0745e+01	3.0693	-3.998678	0.000299	2.989723	0.506473	0.000030
 311	3.0845e+01	3.0816	-3.963647	0.000352	3.522140	0.596667	0.000035
 312	3.0945e+01	3.0904	-3.930245	0.000336	3.358319	0.568915	0.000034
 313	3.1044e+01	3.1010	-3.889918	0.000405	4.054556	0.686860	0.000041
 314	3.1143e+01	3.1104	-3.859774	0.000303	3.030678	0.513411	0.000030
 315	3.1243e+01	3.1191	-3.828816	0.000311	3.112589	0.527287	0.000031
 316	3.1343e+01	3.1319	-3.796229	0.000328	3.276409	0.555039	0.000033
 317	3.1442e+01	3.1375	-3.767308	0.000291	2.907813	0.492597	0.000029
 318	3.1541e+01	3.1498	-3.730647	0.000369	3.685960	0.624419	0.000037
 319	3.1641e+01	3.1604	-3.699689	0.000311	3.112589	0.527287	0.000031
 320	3.1741e+01	3.1702	-3.665879	0.000340	3.399274	0.575853	0.000034
 321	3.1840e+01	3.1796	-3.631663	0.000344	3.440229	0.582791	0.000034
 322	3.1939e+01	3.1899	-3.599075	0.000328	3.276409	0.555039	0.000033
 323	3.2039e+01	3.1979	-3.568932	0.000303	3.030678	0.513411	0.000030
 324	3.2139e+01	3.2098	-3.531049	0.000381	3.808825	0.645232	0.000038
 325	3.2238e+01	3.2183	-3.496832	0.000344	3.440229	0.582791	0.000034
 326	3.2337e+01	3.2288	-3.463430	0.000336	3.358319	0.568915	0.000034
 327	3.2437e+01	3.2394	-3.428399	0.000352	3.522140	0.596667	0.000035
 328	3.2536e+01	3.2465	-3.395404	0.000332	3.317364	0.561977	0.000033
 329	3.2636e+01	3.2606	-3.358743	0.000369	3.685960	0.624419	0.000037
 330	3.2736e+01	3.2729	-3.324526	0.000344	3.440229	0.582791	0.000034
 331	3.2835e+01	3.2801	-3.296420	0.000283	2.825903	0.478721	0.000028
 332	3.2934e+01	3.2902	-3.260981	0.000356	3.563095	0.603605	0.000036
 333	3.3034e+01	3.3004	-3.230023	0.000311	3.112589	0.527287	0.000031
 334	3.3133e+01	3.3064	-3.195399	0.000348	3.481185	0.589729	0.000035
 335	3.3233e+01	3.3176	-3.158330	0.000373	3.726915	0.631357	0.000037
 336	3.3333e+01	3.3302	-3.127372	0.000311	3.112589	0.527287	0.000031
 337	3.3432e+01	3.3369	-3.088675	0.000389	3.890736	0.659108	0.000039
 338	3.3532e+01	3.3494	-3.056902	0.000319	3.194499	0.541163	0.000032
 339	3.3631e+01	3.3588	-3.021871	0.000352	3.522140	0.596667	0.000035
 340	3.3730e+01	3.3679	-2.987654	0.000344	3.440229	0.582791	0.000034
 341	3.3830e+01	3.3804	-2.952215	0.000356	3.563095	0.603605	0.000036
 342	3.3929e+01	3.3881	-2.920850	0.000315	3.153544	0.534225	0.000032
 343	3.4029e+01	3.3992	-2.883782	0.000373	3.726915	0.631357	0.000037
 344	3.4129e+01	3.4060	-2.850380	0.000336	3.358319	0.568915	0.000034
 345	3.4228e+01	3.4208	-2.817385	0.000332	3.317364	0.561977	0.000033
 346	3.4328e+01	3.4261	-2.788056	0.000295	2.948768	0.499535	0.000029
 347	3.4427e+01	3.4380	-2.748951	0.000393	3.931691	0.666046	0.000039
 348	3.4526e+01	3.4461	-2.715549	0.000336	3.358319	0.568915	0.000034
 349	3.4626e+01	3.4563	-2.684998	0.000307	3.071633	0.520349	0.000031
 350	3.4725e+01	3.4695	-2.652004	0.000332	3.317364	0.561977	0.000033
 351	3.4825e+01	3.4772	-2.620231	0.000319	3.194499	0.541163	0.000032
 352	3.4925e+01	3.4887	-2.582755	0.000377	3.767870	0.638295	0.000038
 353	3.5024e+01	3.4966	-2.548131	0.000348	3.481185	0.589729	0.000035
 354	3.5123e+01	3.5083	-2.513915	0.000344	3.440229	0.582791	0.000034
 355	3.5223e+01	3.5190	-2.481327	0.000328	3.276409	0.555039	0.000033
 356	3.5322e+01	3.5296	-2.447518	0.000340	3.399274	0.575853	0.000034
 357	3.5422e+01	3.5378	-2.412486	0.000352	3.522140	0.596667	0.000035
 358	3.5522e+01	3.5479	-2.378269	0.000344	3.440229	0.582791	0.000034
 359	3.5621e+01	3.5594	-2.340387	0.000381	3.808825	0.645232	0.000038
 360	3.5721e+01	3.5688	-2.308614	0.000319	3.194499	0.541163	0.000032
 361	3.5820e+01	3.5757	-2.279285	0.000295	2.948768	0.499535	0.000029
 362	3.5919e+01	3.5876	-2.245883	0.000336	3.358319	0.568915	0.000034
 363	3.6019e+01	3.5973	-2.215740	0.000303	3.030678	0.513411	0.000030
 364	3.6118e+01	3.6071	-2.183152	0.000328	3.276409	0.555039	0.000033
 365	3.6218e+01	3.6175	-2.151787	0.000315	3.153544	0.534225	0.000032
 366	3.6318e+01	3.6292	-2.118385	0.000336	3.358319	0.568915	0.000034
 367	3.6417e+01	3.6367	-2.087020	0.000315	3.153544	0.534225	0.000032
 368	3.6517e+01	3.6480	-2.050359	0.000369	3.685960	0.624419	0.000037
 369	3.6616e+01	3.6589	-2.017771	0.000328	3.276409	0.555039	0.000033
 370	3.6715e+01	3.6681	-1.988035	0.000299	2.989723	0.506473	0.000030
 371	3.6815e+01	3.6788	-1.954226	0.000340	3.399274	0.575853	0.000034
 372	3.6914e+01	3.6873	-1.922453	0.000319	3.194499	0.541163	0.000032
 373	3.7014e+01	3.6977	-1.892310	0.000303	3.030678	0.513411	0.000030
 374	3.7114e+01	3.7077	-1.857278	0.000352	3.522140	0.596667	0.000035
 375	3.7213e+01	3.7160	-1.827542	0.000299	2.989723	0.506473	0.000030
 376	3.7313e+01	3.7280	-1.794140	0.000336	3.358319	0.568915	0.000034
 377	3.7412e+01	3.7355	-1.762775	0.000315	3.153544	0.534225	0.000032
 378	3.7511e+01	3.7455	-1.732224	0.000307	3.071633	0.520349	0.000031
 379	3.7611e+01	3.7569	-1.696785	0.000356	3.563095	0.603605	0.000036
 380	3.7711e+01	3.7676	-1.665827	0.000311	3.112589	0.527287	0.000031
 381	3.7810e+01	3.7772	-1.630796	0.000352	3.522140	0.596667	0.000035
 382	3.7910e+01	3.7875	-1.601060	0.000299	2.989723	0.506473	0.000030
 383	3.8009e+01	3.7976	-1.562362	0.000389	3.890736	0.659108	0.000039
 384	3.8108e+01	3.8046	-1.531812	0.000307	3.071633	0.520349	0.000031
 385	3.8208e+01	3.8169	-1.498410	0.000336	3.358319	0.568915	0.000034
 386	3.8307e+01	3.8255	-1.465822	0.000328	3.276409	0.555039	0.000033
 387	3.8407e+01	3.8369	-1.429569	0.000365	3.645005	0.617481	0.000036
 388	3.8507e+01	3.8454	-1.396574	0.000332	3.317364	0.561977	0.000033
 389	3.8606e+01	3.8564	-1.359913	0.000369	3.685960	0.624419	0.000037
 390	3.8706e+01	3.8653	-1.322438	0.000377	3.767870	0.638295	0.000038
 391	3.8805e+01	3.8786	-1.289036	0.000336	3.358319	0.568915	0.000034
 392	3.8904e+01	3.8882	-1.253597	0.000356	3.563095	0.603605	0.000036
 393	3.9004e+01	3.8976	-1.214899	0.000389	3.890736	0.659108	0.000039
 394	3.9103e+01	3.9045	-1.183126	0.000319	3.194499	0.541163	0.000032
 395	3.9203e+01	3.9169	-1.148095	0.000352	3.522140	0.596667	0.000035
 396	3.9303e+01	3.9266	-1.113878	0.000344	3.440229	0.582791	0.000034
 397	3.9402e+01	3.9376	-1.078847	0.000352	3.522140	0.596667	0.000035
 398	3.9502e+01	3.9487	-1.043815	0.000352	3.522140	0.596667	0.000035
 399	3.9601e+01	3.9556	-1.006340	0.000377	3.767870	0.638295	0.000038
 400	3.9700e+01	3.9656	-0.974974	0.000315	3.153544	0.534225	0.000032
 401	3.9800e+01	3.9772	-0.935870	0.000393	3.931691	0.666046	0.000039
 402	3.9900e+01	3.9828	-0.902060	0.000340	3.399274	0.575853	0.000034
 403	3.9999e+01	3.9954	-0.868251	0.000340	3.399274	0.575853	0.000034
 404	4.0099e+01	4.0029	-0.833219	0.000352	3.522140	0.596667	0.000035
 405	4.0198e+01	4.0174	-0.800224	0.000332	3.317364	0.561977	0.000033
 406	4.0297e+01	4.0255	-0.764786	0.000356	3.563095	0.603605	0.000036
 407	4.0397e+01	4.0345	-0.729347	0.000356	3.563095	0.603605	0.000036
 408	4.0496e+01	4.0450	-0.695537	0.000340	3.399274	0.575853	0.000034
 409	4.0596e+01	4.0578	-0.663357	0.000324	3.235454	0.548101	0.000032
 410	4.0696e+01	4.0646	-0.630770	0.000328	3.276409	0.555039	0.000033
 411	4.0795e+01	4.0739	-0.598183	0.000328	3.276409	0.555039	0.000033
 412	4.0895e+01	4.0838	-0.563966	0.000344	3.440229	0.582791	0.000034
 413	4.0994e+01	4.0955	-0.528120	0.000360	3.604050	0.610543	0.000036
 414	4.1093e+01	4.1030	-0.494310	0.000340	3.399274	0.575853	0.000034
 415	4.1193e+01	4.1151	-0.459686	0.000348	3.481185	0.589729	0.000035
 416	4.1292e+01	4.1270	-0.431172	0.000287	2.866858	0.485659	0.000029
 417	4.1392e+01	4.1354	-0.397363	0.000340	3.399274	0.575853	0.000034
 418	4.1492e+01	4.1460	-0.367627	0.000299	2.989723	0.506473	0.000030
 419	4.1591e+01	4.1556	-0.332188	0.000356	3.563095	0.603605	0.000036
 420	4.1691e+01	4.1662	-0.296342	0.000360	3.604050	0.610543	0.000036
 421	4.1790e+01	4.1740	-0.266606	0.000299	2.989723	0.506473	0.000030
 422	4.1889e+01	4.1821	-0.234018	0.000328	3.276409	0.555039	0.000033
 423	4.1989e+01	4.1954	-0.203060	0.000311	3.112589	0.527287	0.000031
 424	4.2089e+01	4.2051	-0.170880	0.000324	3.235454	0.548101	0.000032
 425	4.2188e+01	4.2139	-0.134627	0.000365	3.645005	0.617481	0.000036
 426	4.2288e+01	4.2245	-0.102854	0.000319	3.194499	0.541163	0.000032
 427	4.2387e+01	4.2342	-0.065786	0.000373	3.726915	0.631357	0.000037
 428	4.2486e+01	4.2440	-0.038087	0.000278	2.784948	0.471783	0.000028
 429	4.2586e+01	4.2545	-0.005092	0.000332	3.317364	0.561977	0.000033
 430	4.2685e+01	4.2625	0.027903	0.000332	3.317364	0.561977	0.000033
 431	4.2785e+01	4.2715	0.060898	0.000332	3.317364	0.561977	0.000033
 432	4.2885e+01	4.2837	0.091041	0.000303	3.030678	0.513411	0.000030
 433	4.2984e+01	4.2947	0.126480	0.000356	3.563095	0.603605	0.000036
 434	4.3084e+01	4.3047	0.160697	0.000344	3.440229	0.582791	0.000034
 435	4.3183e+01	4.3156	0.191247	0.000307	3.071633	0.520349	0.000031
 436	4.3282e+01	4.3242	0.220169	0.000291	2.907813	0.492597	0.000029
 437	4.3382e+01	4.3353	0.254793	0.000348	3.481185	0.589729	0.000035
 438	4.3481e+01	4.3450	0.288602	0.000340	3.399274	0.575853	0.000034
 439	4.3581e+01	4.3542	0.319153	0.000307	3.071633	0.520349	0.000031
 440	4.3681e+01	4.3641	0.349296	0.000303	3.030678	0.513411	0.000030
 441	4.3780e+01	4.3747	0.383106	0.000340	3.399274	0.575853	0.000034
 442	4.3880e+01	4.3857	0.413249	0.000303	3.030678	0.513411	0.000030
 443	4.3979e+01	4.3925	0.450725	0.000377	3.767870	0.638295	0.000038
 444	4.4078e+01	4.4062	0.480461	0.000299	2.989723	0.506473	0.000030
 445	4.4178e+01	4.4151	0.515492	0.000352	3.522140	0.596667	0.000035
 446	4.4278e+01	4.4245	0.546857	0.000315	3.153544	0.534225	0.000032
 447	4.4377e+01	4.4326	0.581889	0.000352	3.522140	0.596667	0.000035
 448	4.4477e+01	4.4428	0.610810	0.000291	2.907813	0.492597	0.000029
 449	4.4576e+01	4.4546	0.646656	0.000360	3.604050	0.610543	0.000036
 450	4.4675e+01	4.4637	0.679651	0.000332	3.317364	0.561977	0.000033
 451	4.4775e+01	4.4768	0.706536	0.000270	2.703037	0.457907	0.000027
 452	4.4874e+01	4.4834	0.742382	0.000360	3.604050	0.610543	0.000036
 453	4.4974e+01	4.4936	0.774155	0.000319	3.194499	0.541163	0.000032
 454	4.5074e+01	4.5009	0.809186	0.000352	3.522140	0.596667	0.000035
 455	4.5173e+01	4.5130	0.842588	0.000336	3.358319	0.568915	0.000034
 456	4.5273e+01	4.5250	0.875583	0.000332	3.317364	0.561977	0.000033
 457	4.5372e+01	4.5348	0.910207	0.000348	3.481185	0.589729	0.000035
 458	4.5471e+01	4.5435	0.946460	0.000365	3.645005	0.617481	0.000036
 459	4.5571e+01	4.5542	0.976196	0.000299	2.989723	0.506473	0.000030
 460	4.5670e+01	4.5621	1.007969	0.000319	3.194499	0.541163	0.000032
 461	4.5770e+01	4.5770	1.040964	0.000332	3.317364	0.561977	0.000033
 462	4.5870e+01	4.5855	1.071922	0.000311	3.112589	0.527287	0.000031
 463	4.5969e+01	4.5927	1.102880	0.000311	3.112589	0.527287	0.000031
 464	4.6069e+01	4.6046	1.133838	0.000311	3.112589	0.527287	0.000031
 465	4.6168e+01	4.6131	1.168462	0.000348	3.481185	0.589729	0.000035
 466	4.6267e+01	4.6217	1.196976	0.000287	2.866858	0.485659	0.000029
 467	4.6367e+01	4.6316	1.227527	0.000307	3.071633	0.520349	0.000031
 468	4.6467e+01	4.6414	1.257670	0.000303	3.030678	0.513411	0.000030
 469	4.6566e+01	4.6531	1.291072	0.000336	3.358319	0.568915	0.000034
 470	4.6666e+01	4.6653	1.318364	0.000274	2.743992	0.464845	0.000027
 471	4.6765e+01	4.6731	1.346063	0.000278	2.784948	0.471783	0.000028
 472	4.6864e+01	4.6816	1.375392	0.000295	2.948768	0.499535	0.000029
 473	4.6964e+01	4.6915	1.405943	0.000307	3.071633	0.520349	0.000031
 474	4.7063e+01	4.7030	1.436494	0.000307	3.071633	0.520349	0.000031
 475	4.7163e+01	4.7144	1.462156	0.000258	2.580172	0.437093	0.000026
 476	4.7263e+01	4.7223	1.492707	0.000307	3.071633	0.520349	0.000031
 477	4.7362e+01	4.7344	1.521628	0.000291	2.907813	0.492597	0.000029
 478	4.7462e+01	4.7440	1.551364	0.000299	2.989723	0.506473	0.000030
 479	4.7561e+01	4.7527	1.582322	0.000311	3.112589	0.527287	0.000031
 480	4.7660e+01	4.7616	1.607577	0.000254	2.539217	0.430155	0.000025
 481	4.7760e+01	4.7730	1.640572	0.000332	3.317364	0.561977	0.000033
 482	4.7859e+01	4.7816	1.667864	0.000274	2.743992	0.464845	0.000027
 483	4.7959e+01	4.7912	1.697193	0.000295	2.948768	0.499535	0.000029
 484	4.8059e+01	4.8035	1.724485	0.000274	2.743992	0.464845	0.000027
 485	4.8158e+01	4.8106	1.753813	0.000295	2.948768	0.499535	0.000029
 486	4.8258e+01	4.8203	1.781920	0.000283	2.825903	0.478721	0.000028
 487	4.8357e+01	4.8322	1.812063	0.000303	3.030678	0.513411	0.000030
 488	4.8456e+01	4.8405	1.839355	0.000274	2.743992	0.464845	0.000027
 489	4.8556e+01	4.8495	1.869499	0.000303	3.030678	0.513411	0.000030
 490	4.8656e+01	4.8613	1.895976	0.000266	2.662082	0.450969	0.000027
 491	4.8755e+01	4.8719	1.924490	0.000287	2.866858	0.485659	0.000029
 492	4.8855e+01	4.8817	1.955855	0.000315	3.153544	0.534225	0.000032
 493	4.8954e+01	4.8902	1.985999	0.000303	3.030678	0.513411	0.000030
 494	4.9053e+01	4.9024	2.019401	0.000336	3.358319	0.568915	0.000034
 495	4.9153e+01	4.9138	2.045063	0.000258	2.580172	0.437093	0.000026
 496	4.9252e+01	4.9232	2.076021	0.000311	3.112589	0.527287	0.000031
 497	4.9352e+01	4.9340	2.104943	0.000291	2.907813	0.492597	0.000029
 498	4.9452e+01	4.9395	2.133864	0.000291	2.907813	0.492597	0.000029
 499	4.9551e+01	4.9502	2.165229	0.000315	3.153544	0.534225	0.000032
 500	4.9651e+01	4.9624	2.194558	0.000295	2.948768	0.499535	0.000029
 501	4.9750e+01	4.9677	2.223072	0.000287	2.866858	0.485659	0.000029
 502	4.9849e+01	4.9824	2.251993	0.000291	2.907813	0.492597	0.000029
 503	4.9949e+01	4.9901	2.285803	0.000340	3.399274	0.575853	0.000034
 504	5.0048e+01	5.0007	2.313502	0.000278	2.784948	0.471783	0.000028
 505	5.0148e+01	5.0100	2.340794	0.000274	2.743992	0.464845	0.000027
 506	5.0248e+01	5.0207	2.370123	0.000295	2.948768	0.499535	0.000029
 507	5.0347e+01	5.0343	2.403932	0.000340	3.399274	0.575853	0.000034
 508	5.0447e+01	5.0408	2.430002	0.000262	2.621127	0.444031	0.000026
 509	5.0546e+01	5.0498	2.460960	0.000311	3.112589	0.527287	0.000031
 510	5.0645e+01	5.0599	2.490696	0.000299	2.989723	0.506473	0.000030
 511	5.0745e+01	5.0707	2.521247	0.000307	3.071633	0.520349	0.000031
 512	5.0844e+01	5.0782	2.547317	0.000262	2.621127	0.444031	0.000026
 513	5.0944e+01	5.0921	2.577053	0.000299	2.989723	0.506473	0.000030
 514	5.1044e+01	5.0999	2.608825	0.000319	3.194499	0.541163	0.000032
 515	5.1143e+01	5.1099	2.636117	0.000274	2.743992	0.464845	0.000027
 516	5.1242e+01	5.1194	2.666261	0.000303	3.030678	0.513411	0.000030
 517	5.1342e+01	5.1307	2.696404	0.000303	3.030678	0.513411	0.000030
 518	5.1441e+01	5.1409	2.723696	0.000274	2.743992	0.464845	0.000027
 519	5.1541e+01	5.1525	2.757098	0.000336	3.358319	0.568915	0.000034
 520	5.1641e+01	5.1592	2.783575	0.000266	2.662082	0.450969	0.000027
 521	5.1740e+01	5.1713	2.815348	0.000319	3.194499	0.541163	0.000032
 522	5.1840e+01	5.1823	2.847121	0.000319	3.194499	0.541163	0.000032
 523	5.1939e+01	5.1887	2.876857	0.000299	2.989723	0.506473	0.000030
 524	5.2038e+01	5.1989	2.906185	0.000295	2.948768	0.499535	0.000029
 525	5.2138e+01	5.2089	2.935514	0.000295	2.948768	0.499535	0.000029
 526	5.2237e+01	5.2198	2.965657	0.000303	3.030678	0.513411	0.000030
 527	5.2337e+01	5.2316	2.992135	0.000266	2.662082	0.450969	0.000027
 528	5.2437e+01	5.2389	3.026351	0.000344	3.440229	0.582791	0.000034
 529	5.2536e+01	5.2497	3.050385	0.000242	2.416352	0.409341	0.000024
 530	5.2636e+01	5.2583	3.080935	0.000307	3.071633	0.520349	0.000031
 531	5.2735e+01	5.2692	3.110264	0.000295	2.948768	0.499535	0.000029
 532	5.2834e+01	5.2797	3.133483	0.000233	2.334441	0.395465	0.000023
 533	5.2934e+01	5.2911	3.161997	0.000287	2.866858	0.485659	0.000029
 534	5.3033e+01	5.3012	3.196621	0.000348	3.481185	0.589729	0.000035
 535	5.3133e+01	5.3109	3.220654	0.000242	2.416352	0.409341	0.000024
 536	5.3233e+01	5.3204	3.250797	0.000303	3.030678	0.513411	0.000030
 537	5.3332e+01	5.3296	3.279311	0.000287	2.866858	0.485659	0.000029
 538	5.3431e+01	5.3381	3.309455	0.000303	3.030678	0.513411	0.000030
 539	5.3531e+01	5.3486	3.335117	0.000258	2.580172	0.437093	0.000026
 540	5.3630e+01	5.3594	3.361187	0.000262	2.621127	0.444031	0.000026
 541	5.3730e+01	5.3701	3.391738	0.000307	3.071633	0.520349	0.000031
 542	5.3830e+01	5.3783	3.420252	0.000287	2.866858	0.485659	0.000029
 543	5.3929e+01	5.3884	3.450395	0.000303	3.030678	0.513411	0.000030
 544	5.4029e+01	5.3989	3.475650	0.000254	2.539217	0.430155	0.000025
 545	5.4128e+01	5.4108	3.503757	0.000283	2.825903	0.478721	0.000028
 546	5.4227e+01	5.4218	3.533086	0.000295	2.948768	0.499535	0.000029
 547	5.4327e+01	5.4299	3.561600	0.000287	2.866858	0.485659	0.000029
 548	5.4426e+01	5.4371	3.590928	0.000295	2.948768	0.499535	0.000029
 549	5.4526e+01	5.4502	3.620664	0.000299	2.989723	0.506473	0.000030
 550	5.4626e+01	5.4609	3.647142	0.000266	2.662082	0.450969	0.000027
 551	5.4725e+01	5.4665	3.681358	0.000344	3.440229	0.582791	0.000034
 552	5.4825e+01	5.4772	3.707021	0.000258	2.580172	0.437093	0.000026
 553	5.4924e+01	5.4879	3.738386	0.000315	3.153544	0.534225	0.000032
 554	5.5023e+01	5.4975	3.768530	0.000303	3.030678	0.513411	0.000030
 555	5.5123e+01	5.5088	3.801117	0.000328	3.276409	0.555039	0.000033
 556	5.5222e+01	5.5158	3.829224	0.000283	2.825903	0.478721	0.000028
 557	5.5322e+01	5.5291	3.862218	0.000332	3.317364	0.561977	0.000033
 558	5.5422e+01	5.5350	3.896843	0.000348	3.481185	0.589729	0.000035
 559	5.5521e+01	5.5479	3.924542	0.000278	2.784948	0.471783	0.000028
 560	5.5620e+01	5.5581	3.958759	0.000344	3.440229	0.582791	0.000034
 561	5.5720e+01	5.5686	3.990124	0.000315	3.153544	0.534225	0.000032
 562	5.5819e+01	5.5787	4.019860	0.000299	2.989723	0.506473	0.000030
 563	5.5919e+01	5.5906	4.048374	0.000287	2.866858	0.485659	0.000029
 564	5.6019e+01	5.5963	4.080961	0.000328	3.276409	0.555039	0.000033
 565	5.6118e+01	5.6092	4.113549	0.000328	3.276409	0.555039	0.000033
 566	5.6218e+01	5.6158	4.144507	0.000311	3.112589	0.527287	0.000031
 567	5.6317e+01	5.6255	4.175872	0.000315	3.153544	0.534225	0.000032
 568	5.6416e+01	5.6384	4.205608	0.000299	2.989723	0.506473	0.000030
 569	5.6516e+01	5.6487	4.241454	0.000360	3.604050	0.610543	0.000036
 570	5.6615e+01	5.6557	4.267932	0.000266	2.662082	0.450969	0.000027
 571	5.6715e+01	5.6695	4.301334	0.000336	3.358319	0.568915	0.000034
 572	5.6815e+01	5.6756	4.332292	0.000311	3.112589	0.527287	0.000031
 573	5.6914e+01	5.6879	4.362435	0.000303	3.030678	0.513411	0.000030
 574	5.7014e+01	5.6948	4.392578	0.000303	3.030678	0.513411	0.000030
 575	5.7113e+01	5.7050	4.417426	0.000250	2.498262	0.423217	0.000025
 576	5.7212e+01	5.7178	4.452458	0.000352	3.522140	0.596667	0.000035
 577	5.7312e+01	5.7287	4.478935	0.000266	2.662082	0.450969	0.000027
 578	5.7411e+01	5.7376	4.511115	0.000324	3.235454	0.548101	0.000032
 579	5.7511e+01	5.7482	4.540851	0.000299	2.989723	0.506473	0.000030
 580	5.7611e+01	5.7548	4.568550	0.000278	2.784948	0.471783	0.000028
 581	5.7710e+01	5.7682	4.605211	0.000369	3.685960	0.624419	0.000037
 582	5.7809e+01	5.7824	4.633318	0.000283	2.825903	0.478721	0.000028
 583	5.7909e+01	5.7867	4.658573	0.000254	2.539217	0.430155	0.000025
 584	5.8008e+01	5.7980	4.687087	0.000287	2.866858	0.485659	0.000029
 585	5.8108e+01	5.8064	4.720489	0.000336	3.358319	0.568915	0.000034
 586	5.8208e+01	5.8178	4.749410	0.000291	2.907813	0.492597	0.000029
 587	5.8307e+01	5.8280	4.776702	0.000274	2.743992	0.464845	0.000027
 588	5.8407e+01	5.8381	4.805624	0.000291	2.907813	0.492597	0.000029
 589	5.8506e+01	5.8468	4.834545	0.000291	2.907813	0.492597	0.000029
 590	5.8605e+01	5.8572	4.863466	0.000291	2.907813	0.492597	0.000029
 591	5.8705e+01	5.8654	4.890758	0.000274	2.743992	0.464845	0.000027
 592	5.8804e+01	5.8762	4.924975	0.000344	3.440229	0.582791	0.000034
 593	5.8904e+01	5.8865	4.952267	0.000274	2.743992	0.464845	0.000027
 594	5.9004e+01	5.8959	4.978744	0.000266	2.662082	0.450969	0.000027
 595	5.9103e+01	5.9042	5.008888	0.000303	3.030678	0.513411	0.000030
 596	5.9203e+01	5.9144	5.036994	0.000283	2.825903	0.478721	0.000028
 597	5.9302e+01	5.9240	5.068360	0.000315	3.153544	0.534225	0.000032
 598	5.9401e+01	5.9344	5.094022	0.000258	2.580172	0.437093	0.000026
 599	5.9501e+01	5.9478	5.126610	0.000328	3.276409	0.555039	0.000033
 600	5.9600e+01	5.9533	5.153494	0.000270	2.703037	0.457907	0.000027
 601	5.9700e+01	5.9637	5.182008	0.000287	2.866858	0.485659	0.000029
 602	5.9800e+01	5.9782	5.211337	0.000295	2.948768	0.499535	0.000029
 603	5.9899e+01	5.9885	5.241073	0.000299	2.989723	0.506473	0.000030
 604	5.9998e+01	5.9951	5.266736	0.000258	2.580172	0.437093	0.000026
 605	6.0098e+01	6.0055	5.298101	0.000315	3.153544	0.534225	0.000032
 606	6.0197e+01	6.0176	5.324986	0.000270	2.703037	0.457907	0.000027
 607	6.0297e+01	6.0250	5.354314	0.000295	2.948768	0.499535	0.000029
 608	6.0397e+01	6.0342	5.379162	0.000250	2.498262	0.423217	0.000025
 609	6.0496e+01	6.0445	5.410935	0.000319	3.194499	0.541163	0.000032
 610	6.0596e+01	6.0560	5.438634	0.000278	2.784948	0.471783	0.000028
 611	6.0695e+01	6.0647	5.468777	0.000303	3.030678	0.513411	0.000030
 612	6.0794e+01	6.0794	5.503402	0.000348	3.481185	0.589729	0.000035
 613	6.0894e+01	6.0839	5.527435	0.000242	2.416352	0.409341	0.000024
 614	6.0993e+01	6.0942	5.558800	0.000315	3.153544	0.534225	0.000032
 615	6.1093e+01	6.1065	5.587721	0.000291	2.907813	0.492597	0.000029
 616	6.1193e+01	6.1155	5.617457	0.000299	2.989723	0.506473	0.000030
 617	6.1292e+01	6.1236	5.648415	0.000311	3.112589	0.527287	0.000031
 618	6.1392e+01	6.1350	5.675707	0.000274	2.743992	0.464845	0.000027
 619	6.1491e+01	6.1452	5.707888	0.000324	3.235454	0.548101	0.000032
 620	6.1590e+01	6.1532	5.735587	0.000278	2.784948	0.471783	0.000028
 621	6.1690e+01	6.1651	5.762064	0.000266	2.662082	0.450969	0.000027
 622	6.1789e+01	6.1764	5.793837	0.000319	3.194499	0.541163	0.000032
 623	6.1889e+01	6.1846	5.821943	0.000283	2.825903	0.478721	0.000028
 624	6.1989e+01	6.1893	5.852494	0.000307	3.071633	0.520349	0.000031
 625	6.2088e+01	6.2083	5.880193	0.000278	2.784948	0.471783	0.000028
 626	6.2188e+01	6.2160	5.910337	0.000303	3.030678	0.513411	0.000030
 627	6.2287e+01	6.2232	5.939665	0.000295	2.948768	0.499535	0.000029
 628	6.2386e+01	6.2350	5.967365	0.000278	2.784948	0.471783	0.000028
 629	6.2486e+01	6.2466	5.998323	0.000311	3.112589	0.527287	0.000031
 630	6.2586e+01	6.2554	6.025207	0.000270	2.703037	0.457907	0.000027
 631	6.2685e+01	6.2627	6.053314	0.000283	2.825903	0.478721	0.000028
 632	6.2785e+01	6.2741	6.084272	0.000311	3.112589	0.527287	0.000031
 633	6.2884e+01	6.2830	6.111564	0.000274	2.743992	0.464845	0.000027
 634	6.2983e+01	6.2939	6.141300	0.000299	2.989723	0.506473	0.000030
 635	6.3083e+01	6.3018	6.162074	0.000209	2.088711	0.353837	0.000021
 636	6.3182e+01	6.3136	6.189774	0.000278	2.784948	0.471783	0.000028
 637	6.3282e+01	6.3236	6.216251	0.000266	2.662082	0.450969	0.000027
 638	6.3382e+01	6.3342	6.243543	0.000274	2.743992	0.464845	0.000027
 639	6.3481e+01	6.3424	6.271242	0.000278	2.784948	0.471783	0.000028
 640	6.3581e+01	6.3491	6.292424	0.000213	2.129666	0.360775	0.000021
 641	6.3680e+01	6.3634	6.320531	0.000283	2.825903	0.478721	0.000028
 642	6.3779e+01	6.3717	6.346601	0.000262	2.621127	0.444031	0.000026
 643	6.3879e+01	6.3838	6.369412	0.000229	2.293486	0.388527	0.000023
 644	6.3978e+01	6.3952	6.399148	0.000299	2.989723	0.506473	0.000030
 645	6.4078e+01	6.4053	6.421552	0.000225	2.252531	0.381589	0.000023
 646	6.4177e+01	6.4158	6.452102	0.000307	3.071633	0.520349	0.000031
 647	6.4277e+01	6.4248	6.475321	0.000233	2.334441	0.395465	0.000023
 648	6.4376e+01	6.4331	6.500983	0.000258	2.580172	0.437093	0.000026
 649	6.4476e+01	6.4413	6.527053	0.000262	2.621127	0.444031	0.000026
 650	6.4576e+01	6.4532	6.550272	0.000233	2.334441	0.395465	0.000023
 651	6.4675e+01	6.4645	6.576342	0.000262	2.621127	0.444031	0.000026
 652	6.4775e+01	6.4724	6.602004	0.000258	2.580172	0.437093	0.000026
 653	6.4874e+01	6.4836	6.625223	0.000233	2.334441	0.395465	0.000023
 654	6.4974e+01	6.4942	6.653330	0.000283	2.825903	0.478721	0.000028
 655	6.5073e+01	6.5044	6.677363	0.000242	2.416352	0.409341	0.000024
 656	6.5172e+01	6.5118	6.702618	0.000254	2.539217	0.430155	0.000025
 657	6.5272e+01	6.5266	6.730317	0.000278	2.784948	0.471783	0.000028
 658	6.5371e+01	6.5310	6.758424	0.000283	2.825903	0.478721	0.000028
 659	6.5471e+01	6.5447	6.783679	0.000254	2.539217	0.430155	0.000025
 660	6.5570e+01	6.5542	6.810564	0.000270	2.703037	0.457907	0.000027
 661	6.5670e+01	6.5612	6.835004	0.000246	2.457307	0.416279	0.000025
 662	6.5769e+01	6.5720	6.864333	0.000295	2.948768	0.499535	0.000029
 663	6.5869e+01	6.5798	6.887144	0.000229	2.293486	0.388527	0.000023
 664	6.5969e+01	6.5902	6.916473	0.000295	2.948768	0.499535	0.000029
 665	6.6068e+01	6.6015	6.941321	0.000250	2.498262	0.423217	0.000025
 666	6.6168e+01	6.6163	6.966169	0.000250	2.498262	0.423217	0.000025
 667	6.6267e+01	6.6231	6.992646	0.000266	2.662082	0.450969	0.000027
 668	6.6367e+01	6.6317	7.020345	0.000278	2.784948	0.471783	0.000028
 669	6.6466e+01	6.6407	7.046822	0.000266	2.662082	0.450969	0.000027
 670	6.6566e+01	6.6525	7.073300	0.000266	2.662082	0.450969	0.000027
 671	6.6665e+01	6.6645	7.100592	0.000274	2.743992	0.464845	0.000027
 672	6.6764e+01	6.6724	7.130328	0.000299	2.989723	0.506473	0.000030
 673	6.6864e+01	6.6810	7.151102	0.000209	2.088711	0.353837	0.000021
 674	6.6963e+01	6.6915	7.177987	0.000270	2.703037	0.457907	0.000027
 675	6.7063e+01	6.7032	7.204464	0.000266	2.662082	0.450969	0.000027
 676	6.7162e+01	6.7117	7.232978	0.000287	2.866858	0.485659	0.000029
 677	6.7262e+01	6.7223	7.261492	0.000287	2.866858	0.485659	0.000029
 678	6.7362e+01	6.7304	7.286747	0.000254	2.539217	0.430155	0.000025
 679	6.7461e+01	6.7417	7.314447	0.000278	2.784948	0.471783	0.000028
 680	6.7561e+01	6.7522	7.341738	0.000274	2.743992	0.464845	0.000027
 681	6.7660e+01	6.7596	7.366586	0.000250	2.498262	0.423217	0.000025
 682	6.7760e+01	6.7733	7.393471	0.000270	2.703037	0.457907	0.000027
 683	6.7859e+01	6.7805	7.417504	0.000242	2.416352	0.409341	0.000024
 684	6.7959e+01	6.7934	7.443574	0.000262	2.621127	0.444031	0.000026
 685	6.8058e+01	6.8020	7.471273	0.000278	2.784948	0.471783	0.000028
 686	6.8157e+01	6.8124	7.499380	0.000283	2.825903	0.478721	0.000028
 687	6.8257e+01	6.8221	7.527079	0.000278	2.784948	0.471783	0.000028
 688	6.8356e+01	6.8311	7.553149	0.000262	2.621127	0.444031	0.000026
 689	6.8456e+01	6.8377	7.580034	0.000270	2.703037	0.457907	0.000027
 690	6.8555e+01	6.8473	7.608955	0.000291	2.907813	0.492597	0.000029
 691	6.8655e+01	6.8624	7.634210	0.000254	2.539217	0.430155	0.000025
 692	6.8754e+01	6.8708	7.661910	0.000278	2.784948	0.471783	0.000028
 693	6.8854e+01	6.8780	7.691646	0.000299	2.989723	0.506473	0.000030
 694	6.8954e+01	6.8911	7.714050	0.000225	2.252531	0.381589	0.000023
 695	6.9053e+01	6.9004	7.740934	0.000270	2.703037	0.457907	0.000027
 696	6.9153e+01	6.9109	7.766597	0.000258	2.580172	0.437093	0.000026
 697	6.9252e+01	6.9228	7.791852	0.000254	2.539217	0.430155	0.000025
 698	6.9352e+01	6.9302	7.813848	0.000221	2.211576	0.374651	0.000022
 699	6.9451e+01	6.9411	7.842770	0.000291	2.907813	0.492597	0.000029
 700	6.9550e+01	6.9512	7.864766	0.000221	2.211576	0.374651	0.000022
 701	6.9650e+01	6.9582	7.894095	0.000295	2.948768	0.499535	0.000029
 702	6.9749e+01	6.9685	7.917721	0.000238	2.375396	0.402403	0.000024
 703	6.9849e+01	6.9793	7.943791	0.000262	2.621127	0.444031	0.000026
 704	6.9948e+01	6.9910	7.971490	0.000278	2.784948	0.471783	0.000028
 705	7.0048e+01	7.0018	7.994709	0.000233	2.334441	0.395465	0.000023
 706	7.0147e+01	7.0090	8.021593	0.000270	2.703037	0.457907	0.000027
 707	7.0247e+01	7.0170	8.045626	0.000242	2.416352	0.409341	0.000024
 708	7.0347e+01	7.0277	8.068030	0.000225	2.252531	0.381589	0.000023
 709	7.0446e+01	7.0394	8.093285	0.000254	2.539217	0.430155	0.000025
 710	7.0546e+01	7.0510	8.120577	0.000274	2.743992	0.464845	0.000027
 711	7.0645e+01	7.0611	8.147462	0.000270	2.703037	0.457907	0.000027
 712	7.0745e+01	7.0718	8.172717	0.000254	2.539217	0.430155	0.000025
 713	7.0844e+01	7.0793	8.197158	0.000246	2.457307	0.416279	0.000025
 714	7.0944e+01	7.0900	8.228116	0.000311	3.112589	0.527287	0.000031
 715	7.1043e+01	7.0992	8.250927	0.000229	2.293486	0.388527	0.000023
 716	7.1142e+01	7.1084	8.274553	0.000238	2.375396	0.402403	0.000024
 717	7.1242e+01	7.1194	8.305104	0.000307	3.071633	0.520349	0.000031
 718	7.1341e+01	7.1266	8.326285	0.000213	2.129666	0.360775	0.000021
 719	7.1441e+01	7.1404	8.357243	0.000311	3.112589	0.527287	0.000031
 720	7.1540e+01	7.1504	8.382906	0.000258	2.580172	0.437093	0.000026
 721	7.1640e+01	7.1587	8.408976	0.000262	2.621127	0.444031	0.000026
 722	7.1740e+01	7.1699	8.437490	0.000287	2.866858	0.485659	0.000029
 723	7.1839e+01	7.1799	8.468448	0.000311	3.112589	0.527287	0.000031
 724	7.1939e+01	7.1893	8.498999	0.000307	3.071633	0.520349	0.000031
 725	7.2038e+01	7.1969	8.527920	0.000291	2.907813	0.492597	0.000029
 726	7.2138e+01	7.2090	8.556027	0.000283	2.825903	0.478721	0.000028
 727	7.2237e+01	7.2198	8.584948	0.000291	2.907813	0.492597	0.000029
 728	7.2337e+01	7.2294	8.613055	0.000283	2.825903	0.478721	0.000028
 729	7.2436e+01	7.2375	8.644420	0.000315	3.153544	0.534225	0.000032
 730	7.2535e+01	7.2490	8.665602	0.000213	2.129666	0.360775	0.000021
 731	7.2635e+01	7.2598	8.696560	0.000311	3.112589	0.527287	0.000031
 732	7.2734e+01	7.2698	8.726703	0.000303	3.030678	0.513411	0.000030
 733	7.2834e+01	7.2786	8.751958	0.000254	2.539217	0.430155	0.000025
 734	7.2933e+01	7.2881	8.783324	0.000315	3.153544	0.534225	0.000032
 735	7.3033e+01	7.2994	8.814282	0.000311	3.112589	0.527287	0.000031
 736	7.3132e+01	7.3091	8.840759	0.000266	2.662082	0.450969	0.000027
 737	7.3232e+01	7.3193	8.870088	0.000295	2.948768	0.499535	0.000029
 738	7.3332e+01	7.3283	8.901453	0.000315	3.153544	0.534225	0.000032
 739	7.3431e+01	7.3389	8.926708	0.000254	2.539217	0.430155	0.000025
 740	7.3531e+01	7.3476	8.952371	0.000258	2.580172	0.437093	0.000026
 741	7.3630e+01	7.3586	8.982107	0.000299	2.989723	0.506473	0.000030
 742	7.3730e+01	7.3699	9.009399	0.000274	2.743992	0.464845	0.000027
 743	7.3829e+01	7.3788	9.033839	0.000246	2.457307	0.416279	0.000025
 744	7.3928e+01	7.3875	9.064797	0.000311	3.112589	0.527287	0.000031
 745	7.4028e+01	7.4007	9.088016	0.000233	2.334441	0.395465	0.000023
 746	7.4127e+01	7.4085	9.118974	0.000311	3.112589	0.527287	0.000031
 747	7.4227e+01	7.4170	9.149117	0.000303	3.030678	0.513411	0.000030
 748	7.4326e+01	7.4319	9.170299	0.000213	2.129666	0.360775	0.000021
 749	7.4426e+01	7.4405	9.200443	0.000303	3.030678	0.513411	0.000030
 750	7.4525e+01	7.4483	9.226920	0.000266	2.662082	0.450969	0.000027
 751	7.4625e+01	7.4583	9.257878	0.000311	3.112589	0.527287	0.000031
 752	7.4725e+01	7.4717	9.283133	0.000254	2.539217	0.430155	0.000025
 753	7.4824e+01	7.4791	9.306759	0.000238	2.375396	0.402403	0.000024
 754	7.4924e+01	7.4905	9.335680	0.000291	2.907813	0.492597	0.000029
 755	7.5023e+01	7.4956	9.362565	0.000270	2.703037	0.457907	0.000027
 756	7.5123e+01	7.5054	9.391894	0.000295	2.948768	0.499535	0.000029
 757	7.5222e+01	7.5187	9.417556	0.000258	2.580172	0.437093	0.000026
 758	7.5322e+01	7.5275	9.439960	0.000225	2.252531	0.381589	0.000023
 759	7.5421e+01	7.5385	9.469289	0.000295	2.948768	0.499535	0.000029
 760	7.5520e+01	7.5486	9.496173	0.000270	2.703037	0.457907	0.000027
 761	7.5620e+01	7.5565	9.526317	0.000303	3.030678	0.513411	0.000030
 762	7.5719e+01	7.5668	9.548720	0.000225	2.252531	0.381589	0.000023
 763	7.5819e+01	7.5787	9.577642	0.000291	2.907813	0.492597	0.000029
 764	7.5918e+01	7.5875	9.602897	0.000254	2.539217	0.430155	0.000025
 765	7.6018e+01	7.5982	9.630189	0.000274	2.743992	0.464845	0.000027
 766	7.6118e+01	7.6066	9.657888	0.000278	2.784948	0.471783	0.000028
 767	7.6217e+01	7.6170	9.679477	0.000217	2.170621	0.367713	0.000022
 768	7.6317e+01	7.6280	9.708806	0.000295	2.948768	0.499535	0.000029
 769	7.6416e+01	7.6368	9.733654	0.000250	2.498262	0.423217	0.000025
 770	7.6516e+01	7.6475	9.762983	0.000295	2.948768	0.499535	0.000029
 771	7.6615e+01	7.6569	9.789053	0.000262	2.621127	0.444031	0.000026
 772	7.6715e+01	7.6672	9.818381	0.000295	2.948768	0.499535	0.000029
 773	7.6814e+01	7.6763	9.841192	0.000229	2.293486	0.388527	0.000023
 774	7.6913e+01	7.6849	9.868892	0.000278	2.784948	0.471783	0.000028
 775	7.7013e+01	7.6955	9.897813	0.000291	2.907813	0.492597	0.000029
 776	7.7112e+01	7.7071	9.923068	0.000254	2.539217	0.430155	0.000025
 777	7.7212e+01	7.7154	9.950768	0.000278	2.784948	0.471783	0.000028
 778	7.7311e+01	7.7261	9.978059	0.000274	2.743992	0.464845	0.000027
 779	7.7411e+01	7.7367	10.001278	0.000233	2.334441	0.395465	0.000023
 780	7.7510e+01	7.7468	10.031829	0.000307	3.071633	0.520349	0.000031
 781	7.7610e+01	7.7573	10.059935	0.000283	2.825903	0.478721	0.000028
 782	7.7710e+01	7.7666	10.086005	0.000262	2.621127	0.444031	0.000026
 783	7.7809e+01	7.7778	10.112483	0.000266	2.662082	0.450969	0.000027
 784	7.7909e+01	7.7860	10.143033	0.000307	3.071633	0.520349	0.000031
 785	7.8008e+01	7.7958	10.168288	0.000254	2.539217	0.430155	0.000025
 786	7.8108e+01	7.8064	10.196395	0.000283	2.825903	0.478721	0.000028
 787	7.8207e+01	7.8165	10.220428	0.000242	2.416352	0.409341	0.000024
 788	7.8306e+01	7.8249	10.250164	0.000299	2.989723	0.506473	0.000030
 789	7.8406e+01	7.8366	10.277049	0.000270	2.703037	0.457907	0.000027
 790	7.8505e+01	7.8452	10.303934	0.000270	2.703037	0.457907	0.000027
 791	7.8605e+01	7.8551	10.335706	0.000319	3.194499	0.541163	0.000032
 792	7.8704e+01	7.8647	10.362591	0.000270	2.703037	0.457907	0.000027
 793	7.8804e+01	7.8775	10.391105	0.000287	2.866858	0.485659	0.000029
 794	7.8903e+01	7.8869	10.417989	0.000270	2.703037	0.457907	0.000027
 795	7.9003e+01	7.8950	10.445689	0.000278	2.784948	0.471783	0.000028
 796	7.9103e+01	7.9062	10.468093	0.000225	2.252531	0.381589	0.000023
 797	7.9202e+01	7.9162	10.499051	0.000311	3.112589	0.527287	0.000031
 798	7.9302e+01	7.9253	10.524713	0.000258	2.580172	0.437093	0.000026
 799	7.9401e+01	7.9375	10.551190	0.000266	2.662082	0.450969	0.000027
 800	7.9501e+01	7.9462	10.573594	0.000225	2.252531	0.381589	0.000023
 801	7.9600e+01	7.9549	10.601294	0.000278	2.784948	0.471783	0.000028
 802	7.9700e+01	7.9668	10.626956	0.000258	2.580172	0.437093	0.000026
 803	7.9799e+01	7.9763	10.650175	0.000233	2.334441	0.395465	0.000023
 804	7.9898e+01	7.9864	10.674208	0.000242	2.416352	0.409341	0.000024
 805	7.9998e+01	7.9935	10.702315	0.000283	2.825903	0.478721	0.000028
 806	8.0097e+01	8.0064	10.729606	0.000274	2.743992	0.464845	0.000027
 807	8.0197e+01	8.0134	10.750788	0.000213	2.129666	0.360775	0.000021
 808	8.0296e+01	8.0235	10.775229	0.000246	2.457307	0.416279	0.000025
 809	8.0396e+01	8.0341	10.803335	0.000283	2.825903	0.478721	0.000028
 810	8.0496e+01	8.0424	10.826147	0.000229	2.293486	0.388527	0.000023
 811	8.0595e+01	8.0545	10.848958	0.000229	2.293486	0.388527	0.000023
 812	8.0695e+01	8.0633	10.877879	0.000291	2.907813	0.492597	0.000029
 813	8.0794e+01	8.0740	10.899061	0.000213	2.129666	0.360775	0.000021
 814	8.0894e+01	8.0857	10.921465	0.000225	2.252531	0.381589	0.000023
 815	8.0993e+01	8.0930	10.946720	0.000254	2.539217	0.430155	0.000025
 816	8.1093e+01	8.1079	10.970753	0.000242	2.416352	0.409341	0.000024
 817	8.1192e+01	8.1144	10.994786	0.000242	2.416352	0.409341	0.000024
 818	8.1291e+01	8.1237	11.018005	0.000233	2.334441	0.395465	0.000023
 819	8.1391e+01	8.1342	11.042853	0.000250	2.498262	0.423217	0.000025
 820	8.1490e+01	8.1447	11.066886	0.000242	2.416352	0.409341	0.000024
 821	8.1590e+01	8.1548	11.092956	0.000262	2.621127	0.444031	0.000026
 822	8.1689e+01	8.1635	11.110472	0.000176	1.761070	0.298333	0.000018
 823	8.1789e+01	8.1741	11.137356	0.000270	2.703037	0.457907	0.000027
 824	8.1888e+01	8.1847	11.162204	0.000250	2.498262	0.423217	0.000025
 825	8.1988e+01	8.1910	11.187052	0.000250	2.498262	0.423217	0.000025
 826	8.2088e+01	8.2032	11.213937	0.000270	2.703037	0.457907	0.000027
 827	8.2187e+01	8.2146	11.237563	0.000238	2.375396	0.402403	0.000024
 828	8.2287e+01	8.2236	11.262003	0.000246	2.457307	0.416279	0.000025
 829	8.2386e+01	8.2334	11.290110	0.000283	2.825903	0.478721	0.000028
 830	8.2486e+01	8.2439	11.314550	0.000246	2.457307	0.416279	0.000025
 831	8.2585e+01	8.2549	11.336954	0.000225	2.252531	0.381589	0.000023
 832	8.2684e+01	8.2663	11.365468	0.000287	2.866858	0.485659	0.000029
 833	8.2784e+01	8.2745	11.387872	0.000225	2.252531	0.381589	0.000023
 834	8.2883e+01	8.2822	11.414349	0.000266	2.662082	0.450969	0.000027
 835	8.2983e+01	8.2945	11.439197	0.000250	2.498262	0.423217	0.000025
 836	8.3082e+01	8.3021	11.468526	0.000295	2.948768	0.499535	0.000029
 837	8.3182e+01	8.3157	11.493374	0.000250	2.498262	0.423217	0.000025
 838	8.3281e+01	8.3237	11.517814	0.000246	2.457307	0.416279	0.000025
 839	8.3381e+01	8.3356	11.543070	0.000254	2.539217	0.430155	0.000025
 840	8.3481e+01	8.3429	11.567917	0.000250	2.498262	0.423217	0.000025
 841	8.3580e+01	8.3515	11.597246	0.000295	2.948768	0.499535	0.000029
 842	8.3680e+01	8.3659	11.619650	0.000225	2.252531	0.381589	0.000023
 843	8.3779e+01	8.3726	11.646942	0.000274	2.743992	0.464845	0.000027
 844	8.3879e+01	8.3817	11.677085	0.000303	3.030678	0.513411	0.000030
 845	8.3978e+01	8.3930	11.697452	0.000205	2.047756	0.346899	0.000020
 846	8.4078e+01	8.4030	11.726781	0.000295	2.948768	0.499535	0.000029
 847	8.4177e+01	8.4155	11.752036	0.000254	2.539217	0.430155	0.000025
 848	8.4276e+01	8.4238	11.775255	0.000233	2.334441	0.395465	0.000023
 849	8.4376e+01	8.4357	11.800917	0.000258	2.580172	0.437093	0.000026
 850	8.4475e+01	8.4429	11.827802	0.000270	2.703037	0.457907	0.000027
 851	8.4575e+01	8.4531	11.854687	0.000270	2.703037	0.457907	0.000027
 852	8.4674e+01	8.4650	11.883608	0.000291	2.907813	0.492597	0.000029
 853	8.4774e+01	8.4708	11.906419	0.000229	2.293486	0.388527	0.000023
 854	8.4874e+01	8.4838	11.929638	0.000233	2.334441	0.395465	0.000023
 855	8.4973e+01	8.4939	11.960596	0.000311	3.112589	0.527287	0.000031
 856	8.5073e+01	8.5010	11.986258	0.000258	2.580172	0.437093	0.000026
 857	8.5172e+01	8.5146	12.010291	0.000242	2.416352	0.409341	0.000024
 858	8.5272e+01	8.5233	12.037176	0.000270	2.703037	0.457907	0.000027
 859	8.5371e+01	8.5316	12.064468	0.000274	2.743992	0.464845	0.000027
 860	8.5471e+01	8.5436	12.092167	0.000278	2.784948	0.471783	0.000028
 861	8.5570e+01	8.5528	12.119052	0.000270	2.703037	0.457907	0.000027
 862	8.5669e+01	8.5612	12.141863	0.000229	2.293486	0.388527	0.000023
 863	8.5769e+01	8.5715	12.167933	0.000262	2.621127	0.444031	0.000026
 864	8.5868e+01	8.5825	12.193188	0.000254	2.539217	0.430155	0.000025
 865	8.5968e+01	8.5914	12.216814	0.000238	2.375396	0.402403	0.000024
 866	8.6067e+01	8.6041	12.241255	0.000246	2.457307	0.416279	0.000025
 867	8.6167e+01	8.6134	12.273027	0.000319	3.194499	0.541163	0.000032
 868	8.6266e+01	8.6210	12.294617	0.000217	2.170621	0.367713	0.000022
 869	8.6366e+01	8.6321	12.319464	0.000250	2.498262	0.423217	0.000025
 870	8.6466e+01	8.6430	12.344720	0.000254	2.539217	0.430155	0.000025
 871	8.6565e+01	8.6527	12.371604	0.000270	2.703037	0.457907	0.000027
 872	8.6665e+01	8.6648	12.395230	0.000238	2.375396	0.402403	0.000024
 873	8.6764e+01	8.6743	12.423744	0.000287	2.866858	0.485659	0.000029
 874	8.6864e+01	8.6829	12.444926	0.000213	2.129666	0.360775	0.000021
 875	8.6963e+01	8.6950	12.470996	0.000262	2.621127	0.444031	0.000026
 876	8.7063e+01	8.7022	12.493807	0.000229	2.293486	0.388527	0.000023
 877	8.7162e+01	8.7114	12.521506	0.000278	2.784948	0.471783	0.000028
 878	8.7261e+01	8.7199	12.545132	0.000238	2.375396	0.402403	0.000024
 879	8.7361e+01	8.7312	12.575683	0.000307	3.071633	0.520349	0.000031
 880	8.7460e+01	8.7412	12.600123	0.000246	2.457307	0.416279	0.000025
 881	8.7560e+01	8.7518	12.626601	0.000266	2.662082	0.450969	0.000027
 882	8.7659e+01	8.7622	12.652671	0.000262	2.621127	0.444031	0.000026
 883	8.7759e+01	8.7695	12.673038	0.000205	2.047756	0.346899	0.000020
 884	8.7859e+01	8.7817	12.705218	0.000324	3.235454	0.548101	0.000032
 885	8.7958e+01	8.7918	12.730066	0.000250	2.498262	0.423217	0.000025
 886	8.8058e+01	8.8013	12.759394	0.000295	2.948768	0.499535	0.000029
 887	8.8157e+01	8.8116	12.785057	0.000258	2.580172	0.437093	0.000026
 888	8.8257e+01	8.8220	12.814793	0.000299	2.989723	0.506473	0.000030
 889	8.8356e+01	8.8299	12.844529	0.000299	2.989723	0.506473	0.000030
 890	8.8456e+01	8.8401	12.868970	0.000246	2.457307	0.416279	0.000025
 891	8.8555e+01	8.8484	12.898298	0.000295	2.948768	0.499535	0.000029
 892	8.8654e+01	8.8578	12.926405	0.000283	2.825903	0.478721	0.000028
 893	8.8754e+01	8.8682	12.958178	0.000319	3.194499	0.541163	0.000032
 894	8.8853e+01	8.8784	12.988321	0.000303	3.030678	0.513411	0.000030
 895	8.8953e+01	8.8911	13.015206	0.000270	2.703037	0.457907	0.000027
 896	8.9052e+01	8.8989	13.044942	0.000299	2.989723	0.506473	0.000030
 897	8.9152e+01	8.9092	13.076714	0.000319	3.194499	0.541163	0.000032
 898	8.9251e+01	8.9209	13.101562	0.000250	2.498262	0.423217	0.000025
 899	8.9351e+01	8.9310	13.134150	0.000328	3.276409	0.555039	0.000033
 900	8.9451e+01	8.9407	13.158997	0.000250	2.498262	0.423217	0.000025
 901	8.9550e+01	8.9502	13.192400	0.000336	3.358319	0.568915	0.000034
 902	8.9650e+01	8.9594	13.220506	0.000283	2.825903	0.478721	0.000028
 903	8.9749e+01	8.9715	13.253501	0.000332	3.317364	0.561977	0.000033
 904	8.9849e+01	8.9771	13.282015	0.000287	2.866858	0.485659	0.000029
 905	8.9948e+01	8.9912	13.313788	0.000319	3.194499	0.541163	0.000032
 906	9.0047e+01	8.9979	13.339858	0.000262	2.621127	0.444031	0.000026
 907	9.0147e+01	9.0085	13.370001	0.000303	3.030678	0.513411	0.000030
 908	9.0246e+01	9.0210	13.400144	0.000303	3.030678	0.513411	0.000030
 909	9.0346e+01	9.0308	13.427029	0.000270	2.703037	0.457907	0.000027
 910	9.0445e+01	9.0397	13.456358	0.000295	2.948768	0.499535	0.000029
 911	9.0545e+01	9.0500	13.483242	0.000270	2.703037	0.457907	0.000027
 912	9.0644e+01	9.0576	13.510941	0.000278	2.784948	0.471783	0.000028
 913	9.0744e+01	9.0675	13.541085	0.000303	3.030678	0.513411	0.000030
 914	9.0844e+01	9.0791	13.567155	0.000262	2.621127	0.444031	0.000026
 915	9.0943e+01	9.0885	13.599742	0.000328	3.276409	0.555039	0.000033
 916	9.1043e+01	9.1010	13.629071	0.000295	2.948768	0.499535	0.000029
 917	9.1142e+01	9.1108	13.655955	0.000270	2.703037	0.457907	0.000027
 918	9.1242e+01	9.1171	13.686099	0.000303	3.030678	0.513411	0.000030
 919	9.1341e+01	9.1288	13.714205	0.000283	2.825903	0.478721	0.000028
 920	9.1441e+01	9.1384	13.740683	0.000266	2.662082	0.450969	0.000027
 921	9.1540e+01	9.1470	13.770826	0.000303	3.030678	0.513411	0.000030
 922	9.1639e+01	9.1620	13.801784	0.000311	3.112589	0.527287	0.000031
 923	9.1739e+01	9.1657	13.824188	0.000225	2.252531	0.381589	0.000023
 924	9.1838e+01	9.1772	13.854739	0.000307	3.071633	0.520349	0.000031
 925	9.1938e+01	9.1895	13.879994	0.000254	2.539217	0.430155	0.000025
 926	9.2037e+01	9.1973	13.912581	0.000328	3.276409	0.555039	0.000033
 927	9.2137e+01	9.2092	13.941910	0.000295	2.948768	0.499535	0.000029
 928	9.2237e+01	9.2197	13.973275	0.000315	3.153544	0.534225	0.000032
 929	9.2336e+01	9.2294	14.001789	0.000287	2.866858	0.485659	0.000029
 930	9.2436e+01	9.2392	14.030711	0.000291	2.907813	0.492597	0.000029
 931	9.2535e+01	9.2462	14.056373	0.000258	2.580172	0.437093	0.000026
 932	9.2635e+01	9.2579	14.084887	0.000287	2.866858	0.485659	0.000029
 933	9.2734e+01	9.2667	14.116660	0.000319	3.194499	0.541163	0.000032
 934	9.2834e+01	9.2773	14.141915	0.000254	2.539217	0.430155	0.000025
 935	9.2933e+01	9.2854	14.174502	0.000328	3.276409	0.555039	0.000033
 936	9.3032e+01	9.2974	14.200980	0.000266	2.662082	0.450969	0.000027
 937	9.3132e+01	9.3091	14.233567	0.000328	3.276409	0.555039	0.000033
 938	9.3231e+01	9.3146	14.261266	0.000278	2.784948	0.471783	0.000028
 939	9.3331e+01	9.3263	14.287744	0.000266	2.662082	0.450969	0.000027
 940	9.3430e+01	9.3369	14.318294	0.000307	3.071633	0.520349	0.000031
 941	9.3530e+01	9.3485	14.347623	0.000295	2.948768	0.499535	0.000029
 942	9.3629e+01	9.3585	14.375322	0.000278	2.784948	0.471783	0.000028
 943	9.3729e+01	9.3665	14.403022	0.000278	2.784948	0.471783	0.000028
 944	9.3829e+01	9.3763	14.432350	0.000295	2.948768	0.499535	0.000029
 945	9.3928e+01	9.3872	14.462494	0.000303	3.030678	0.513411	0.000030
 946	9.4028e+01	9.3973	14.491415	0.000291	2.907813	0.492597	0.000029
 947	9.4127e+01	9.4083	14.522780	0.000315	3.153544	0.534225	0.000032
 948	9.4227e+01	9.4175	14.553738	0.000311	3.112589	0.527287	0.000031
 949	9.4326e+01	9.4281	14.584289	0.000307	3.071633	0.520349	0.000031
 950	9.4425e+01	9.4366	14.614432	0.000303	3.030678	0.513411	0.000030
 951	9.4525e+01	9.4475	14.645390	0.000311	3.112589	0.527287	0.000031
 952	9.4624e+01	9.4581	14.675534	0.000303	3.030678	0.513411	0.000030
 953	9.4724e+01	9.4678	14.706899	0.000315	3.153544	0.534225	0.000032
 954	9.4823e+01	9.4778	14.735820	0.000291	2.907813	0.492597	0.000029
 955	9.4923e+01	9.4891	14.763520	0.000278	2.784948	0.471783	0.000028
 956	9.5022e+01	9.4965	14.794885	0.000315	3.153544	0.534225	0.000032
 957	9.5122e+01	9.5075	14.824621	0.000299	2.989723	0.506473	0.000030
 958	9.5222e+01	9.5154	14.859245	0.000348	3.481185	0.589729	0.000035
 959	9.5321e+01	9.5290	14.888981	0.000299	2.989723	0.506473	0.000030
 960	9.5421e+01	9.5387	14.920754	0.000319	3.194499	0.541163	0.000032
 961	9.5520e+01	9.5459	14.949268	0.000287	2.866858	0.485659	0.000029
 962	9.5620e+01	9.5570	14.979819	0.000307	3.071633	0.520349	0.000031
 963	9.5719e+01	9.5654	15.010777	0.000311	3.112589	0.527287	0.000031
 964	9.5819e+01	9.5779	15.041735	0.000311	3.112589	0.527287	0.000031
 965	9.5918e+01	9.5889	15.075137	0.000336	3.358319	0.568915	0.000034
 966	9.6017e+01	9.5956	15.102836	0.000278	2.784948	0.471783	0.000028
 967	9.6117e+01	9.6051	15.132979	0.000303	3.030678	0.513411	0.000030
 968	9.6216e+01	9.6163	15.165974	0.000332	3.317364	0.561977	0.000033
 969	9.6316e+01	9.6289	15.191229	0.000254	2.539217	0.430155	0.000025
 970	9.6415e+01	9.6344	15.222187	0.000311	3.112589	0.527287	0.000031
 971	9.6515e+01	9.6448	15.255590	0.000336	3.358319	0.568915	0.000034
 972	9.6615e+01	9.6560	15.281252	0.000258	2.580172	0.437093	0.000026
 973	9.6714e+01	9.6655	15.310988	0.000299	2.989723	0.506473	0.000030
 974	9.6814e+01	9.6754	15.335429	0.000246	2.457307	0.416279	0.000025
 975	9.6913e+01	9.6875	15.364350	0.000291	2.907813	0.492597	0.000029
 976	9.7013e+01	9.6954	15.391642	0.000274	2.743992	0.464845	0.000027
 977	9.7112e+01	9.7034	15.423415	0.000319	3.194499	0.541163	0.000032
 978	9.7212e+01	9.7163	15.450707	0.000274	2.743992	0.464845	0.000027
 979	9.7311e+01	9.7266	15.483701	0.000332	3.317364	0.561977	0.000033
 980	9.7410e+01	9.7364	15.508957	0.000254	2.539217	0.430155	0.000025
 981	9.7510e+01	9.7437	15.539100	0.000303	3.030678	0.513411	0.000030
 982	9.7609e+01	9.7565	15.566799	0.000278	2.784948	0.471783	0.000028
 983	9.7709e+01	9.7637	15.596535	0.000299	2.989723	0.506473	0.000030
 984	9.7808e+01	9.7778	15.626271	0.000299	2.989723	0.506473	0.000030
 985	9.7908e+01	9.7845	15.651119	0.000250	2.498262	0.423217	0.000025
 986	9.8007e+01	9.7949	15.680448	0.000295	2.948768	0.499535	0.000029
 987	9.8107e+01	9.8071	15.706925	0.000266	2.662082	0.450969	0.000027
 988	9.8207e+01	9.8154	15.739513	0.000328	3.276409	0.555039	0.000033
 989	9.8306e+01	9.8250	15.766397	0.000270	2.703037	0.457907	0.000027
 990	9.8406e+01	9.8344	15.795318	0.000291	2.907813	0.492597	0.000029
 991	9.8505e+01	9.8447	15.823018	0.000278	2.784948	0.471783	0.000028
 992	9.8605e+01	9.8560	15.856012	0.000332	3.317364	0.561977	0.000033
 993	9.8704e+01	9.8645	15.886971	0.000311	3.112589	0.527287	0.000031
 994	9.8803e+01	9.8769	15.919965	0.000332	3.317364	0.561977	0.000033
 995	9.8903e+01	9.8830	15.947665	0.000278	2.784948	0.471783	0.000028
 996	9.9002e+01	9.8927	15.979845	0.000324	3.235454	0.548101	0.000032
 997	9.9102e+01	9.9048	16.005915	0.000262	2.621127	0.444031	0.000026
 998	9.9201e+01	9.9135	16.041353	0.000356	3.563095	0.603605	0.000036
 999	9.9301e+01	9.9268	16.070275	0.000291	2.907813	0.492597	0.000029
1000	9.9400e+01	9.9365	16.098789	0.000287	2.866858	0.485659	0.000029
1001	9.9500e+01	9.9448	16.132191	0.000336	3.358319	0.568915	0.000034
1002	9.9600e+01	9.9532	16.164371	0.000324	3.235454	0.548101	0.000032
1003	9.9699e+01	9.9670	16.196958	0.000328	3.276409	0.555039	0.000033
1004	9.9799e+01	9.9756	16.225472	0.000287	2.866858	0.485659	0.000029
1005	9.9898e+01	9.9857	16.256838	0.000315	3.153544	0.534225	0.000032
1006	9.9998e+01	9.9922	16.288610	0.000319	3.194499	0.541163	0.000032
1007	1.0010e+02	9.9854	16.282500	0.000061	0.614327	0.104070	-0.000006
1008	1.0020e+02	9.9724	16.273539	0.000090	0.901012	0.152636	-0.000009
1009	1.0030e+02	9.9634	16.263355	0.000102	1.023878	0.173450	-0.000010
1010	1.0040e+02	9.9524	16.257652	0.000057	0.573372	0.097132	-0.000006
1011	1.0050e+02	9.9453	16.242581	0.000152	1.515339	0.256705	-0.000015
1012	1.0059e+02	9.9335	16.232397	0.000102	1.023878	0.173450	-0.000010
1013	1.0069e+02	9.9237	16.226694	0.000057	0.573372	0.097132	-0.000006
1014	1.0079e+02	9.9148	16.217733	0.000090	0.901012	0.152636	-0.000009
1015	1.0089e+02	9.9063	16.201439	0.000164	1.638204	0.277519	-0.000016
1016	1.0099e+02	9.8950	16.192070	0.000094	0.941968	0.159574	-0.000009
1017	1.0109e+02	9.8859	16.182701	0.000094	0.941968	0.159574	-0.000009
1018	1.0119e+02	9.8746	16.169666	0.000131	1.310564	0.222015	-0.000013
1019	1.0129e+02	9.8645	16.152151	0.000176	1.761070	0.298333	-0.000018
1020	1.0139e+02	9.8551	16.144411	0.000078	0.778147	0.131822	-0.000008
1021	1.0149e+02	9.8447	16.129747	0.000147	1.474384	0.249767	-0.000015
1022	1.0159e+02	9.8319	16.118748	0.000111	1.105788	0.187326	-0.000011
1023	1.0169e+02	9.8231	16.106528	0.000123	1.228653	0.208140	-0.000012
1024	1.0179e+02	9.8151	16.096345	0.000102	1.023878	0.173450	-0.000010
1025	1.0189e+02	9.8041	16.081273	0.000152	1.515339	0.256705	-0.000015
1026	1.0199e+02	9.7939	16.069867	0.000115	1.146743	0.194264	-0.000011
1027	1.0209e+02	9.7811	16.060498	0.000094	0.941968	0.159574	-0.000009
1028	1.0219e+02	9.7730	16.043797	0.000168	1.679160	0.284457	-0.000017
1029	1.0229e+02	9.7645	16.029948	0.000139	1.392474	0.235891	-0.000014
1030	1.0239e+02	9.7547	16.015283	0.000147	1.474384	0.249767	-0.000015
1031	1.0248e+02	9.7455	16.003470	0.000119	1.187698	0.201202	-0.000012
1032	1.0258e+02	9.7355	15.985547	0.000180	1.802025	0.305271	-0.000018
1033	1.0268e+02	9.7237	15.969661	0.000160	1.597249	0.270581	-0.000016
1034	1.0278e+02	9.7171	15.955811	0.000139	1.392474	0.235891	-0.000014
1035	1.0288e+02	9.7056	15.939925	0.000160	1.597249	0.270581	-0.000016
1036	1.0298e+02	9.6967	15.924446	0.000156	1.556294	0.263643	-0.000016
1037	1.0308e+02	9.6875	15.909782	0.000147	1.474384	0.249767	-0.000015
1038	1.0318e+02	9.6745	15.892673	0.000172	1.720115	0.291395	-0.000017
1039	1.0328e+02	9.6667	15.875565	0.000172	1.720115	0.291395	-0.000017
1040	1.0338e+02	9.6574	15.860493	0.000152	1.515339	0.256705	-0.000015
1041	1.0348e+02	9.6473	15.847458	0.000131	1.310564	0.222015	-0.000013
1042	1.0358e+02	9.6357	15.831572	0.000160	1.597249	0.270581	-0.000016
1043	1.0368e+02	9.6246	15.813242	0.000184	1.842980	0.312209	-0.000018
1044	1.0378e+02	9.6159	15.796540	0.000168	1.679160	0.284457	-0.000017
1045	1.0388e+02	9.6022	15.780654	0.000160	1.597249	0.270581	-0.000016
1046	1.0398e+02	9.5966	15.766804	0.000139	1.392474	0.235891	-0.000014
1047	1.0408e+02	9.5870	15.747659	0.000192	1.924890	0.326085	-0.000019
1048	1.0418e+02	9.5752	15.729736	0.000180	1.802025	0.305271	-0.000018
1049	1.0428e+02	9.5655	15.717516	0.000123	1.228653	0.208140	-0.000012
1050	1.0438e+02	9.5557	15.700815	0.000168	1.679160	0.284457	-0.000017
1051	1.0447e+02	9.5459	15.681263	0.000197	1.965845	0.333023	-0.000020
1052	1.0457e+02	9.5367	15.669857	0.000115	1.146743	0.194264	-0.000011
1053	1.0467e+02	9.5270	15.651934	0.000180	1.802025	0.305271	-0.000018
1054	1.0477e+02	9.5193	15.637677	0.000143	1.433429	0.242829	-0.000014
1055	1.0487e+02	9.5057	15.619754	0.000180	1.802025	0.305271	-0.000018
1056	1.0497e+02	9.4980	15.609163	0.000106	1.064833	0.180388	-0.000011
1057	1.0507e+02	9.4873	15.592055	0.000172	1.720115	0.291395	-0.000017
1058	1.0517e+02	9.4784	15.578612	0.000135	1.351519	0.228953	-0.000014
1059	1.0527e+02	9.4654	15.567207	0.000115	1.146743	0.194264	-0.000011
1060	1.0537e+02	9.4556	15.550506	0.000168	1.679160	0.284457	-0.000017
1061	1.0547e+02	9.4489	15.537063	0.000135	1.351519	0.228953	-0.000014
1062	1.0557e+02	9.4360	15.519548	0.000176	1.761070	0.298333	-0.000018
1063	1.0567e+02	9.4265	15.506513	0.000131	1.310564	0.222015	-0.000013
1064	1.0577e+02	9.4177	15.490626	0.000160	1.597249	0.270581	-0.000016
1065	1.0587e+02	9.4128	15.477591	0.000131	1.310564	0.222015	-0.000013
1066	1.0597e+02	9.3970	15.463334	0.000143	1.433429	0.242829	-0.000014
1067	1.0607e+02	9.3883	15.445411	0.000180	1.802025	0.305271	-0.000018
1068	1.0617e+02	9.3821	15.431562	0.000139	1.392474	0.235891	-0.000014
1069	1.0627e+02	9.3687	15.412824	0.000188	1.883935	0.319147	-0.000019
1070	1.0637e+02	9.3573	15.402233	0.000106	1.064833	0.180388	-0.000011
1071	1.0647e+02	9.3478	15.391642	0.000106	1.064833	0.180388	-0.000011
1072	1.0656e+02	9.3384	15.374534	0.000172	1.720115	0.291395	-0.000017
1073	1.0666e+02	9.3272	15.359869	0.000147	1.474384	0.249767	-0.000015
1074	1.0676e+02	9.3189	15.344390	0.000156	1.556294	0.263643	-0.000016
1075	1.0686e+02	9.3091	15.329319	0.000152	1.515339	0.256705	-0.000015
1076	1.0696e+02	9.2970	15.311395	0.000180	1.802025	0.305271	-0.000018
1077	1.0706e+02	9.2873	15.294287	0.000172	1.720115	0.291395	-0.000017
1078	1.0716e+02	9.2768	15.276364	0.000180	1.802025	0.305271	-0.000018
1079	1.0726e+02	9.2706	15.257219	0.000192	1.924890	0.326085	-0.000019
1080	1.0736e+02	9.2587	15.240925	0.000164	1.638204	0.277519	-0.000016
1081	1.0746e+02	9.2471	15.226668	0.000143	1.433429	0.242829	-0.000014
1082	1.0756e+02	9.2407	15.207523	0.000192	1.924890	0.326085	-0.000019
1083	1.0766e+02	9.2268	15.194488	0.000131	1.310564	0.222015	-0.000013
1084	1.0776e+02	9.2171	15.173714	0.000209	2.088711	0.353837	-0.000021
1085	1.0786e+02	9.2078	15.157420	0.000164	1.638204	0.277519	-0.000016
1086	1.0796e+02	9.1962	15.142348	0.000152	1.515339	0.256705	-0.000015
1087	1.0806e+02	9.1901	15.121574	0.000209	2.088711	0.353837	-0.000021
1088	1.0816e+02	9.1788	15.104465	0.000172	1.720115	0.291395	-0.000017
1089	1.0826e+02	9.1681	15.090616	0.000139	1.392474	0.235891	-0.000014
1090	1.0836e+02	9.1586	15.069841	0.000209	2.088711	0.353837	-0.000021
1091	1.0845e+02	9.1500	15.053548	0.000164	1.638204	0.277519	-0.000016
1092	1.0855e+02	9.1395	15.036439	0.000172	1.720115	0.291395	-0.000017
1093	1.0865e+02	9.1284	15.016072	0.000205	2.047756	0.346899	-0.000020
1094	1.0875e+02	9.1187	14.998964	0.000172	1.720115	0.291395	-0.000017
1095	1.0885e+02	9.1073	14.980633	0.000184	1.842980	0.312209	-0.000018
1096	1.0895e+02	9.0972	14.964747	0.000160	1.597249	0.270581	-0.000016
1097	1.0905e+02	9.0897	14.944380	0.000205	2.047756	0.346899	-0.000020
1098	1.0915e+02	9.0784	14.928086	0.000164	1.638204	0.277519	-0.000016
1099	1.0925e+02	9.0694	14.909348	0.000188	1.883935	0.319147	-0.000019
1100	1.0935e+02	9.0594	14.890611	0.000188	1.883935	0.319147	-0.000019
1101	1.0945e+02	9.0491	14.871466	0.000192	1.924890	0.326085	-0.000019
1102	1.0955e+02	9.0424	14.855172	0.000164	1.638204	0.277519	-0.000016
1103	1.0965e+02	9.0308	14.833583	0.000217	2.170621	0.367713	-0.000022
1104	1.0975e+02	9.0191	14.816474	0.000172	1.720115	0.291395	-0.000017
1105	1.0985e+02	9.0094	14.797329	0.000192	1.924890	0.326085	-0.000019
1106	1.0995e+02	9.0015	14.783480	0.000139	1.392474	0.235891	-0.000014
1107	1.1005e+02	8.9896	14.761076	0.000225	2.252531	0.381589	-0.000023
1108	1.1015e+02	8.9795	14.743967	0.000172	1.720115	0.291395	-0.000017
1109	1.1025e+02	8.9698	14.726452	0.000176	1.761070	0.298333	-0.000018
1110	1.1035e+02	8.9620	14.704455	0.000221	2.211576	0.374651	-0.000022
1111	1.1044e+02	8.9504	14.683273	0.000213	2.129666	0.360775	-0.000021
1112	1.1054e+02	8.9380	14.664943	0.000184	1.842980	0.312209	-0.000018
1113	1.1064e+02	8.9288	14.647427	0.000176	1.761070	0.298333	-0.000018
1114	1.1074e+02	8.9197	14.626653	0.000209	2.088711	0.353837	-0.000021
1115	1.1084e+02	8.9090	14.612396	0.000143	1.433429	0.242829	-0.000014
1116	1.1094e+02	8.9004	14.594473	0.000180	1.802025	0.305271	-0.000018
1117	1.1104e+02	8.8905	14.578586	0.000160	1.597249	0.270581	-0.000016
1118	1.1114e+02	8.8797	14.559848	0.000188	1.883935	0.319147	-0.000019
1119	1.1124e+02	8.8685	14.539889	0.000201	2.006800	0.339961	-0.000020
1120	1.1134e+02	8.8587	14.522780	0.000172	1.720115	0.291395	-0.000017
1121	1.1144e+02	8.8502	14.504043	0.000188	1.883935	0.319147	-0.000019
1122	1.1154e+02	8.8388	14.483675	0.000205	2.047756	0.346899	-0.000020
1123	1.1164e+02	8.8306	14.466974	0.000168	1.679160	0.284457	-0.000017
1124	1.1174e+02	8.8224	14.452717	0.000143	1.433429	0.242829	-0.000014
1125	1.1184e+02	8.8091	14.429092	0.000238	2.375396	0.402403	-0.000024
1126	1.1194e+02	8.8013	14.414835	0.000143	1.433429	0.242829	-0.000014
1127	1.1204e+02	8.7912	14.396097	0.000188	1.883935	0.319147	-0.000019
1128	1.1214e+02	8.7794	14.374100	0.000221	2.211576	0.374651	-0.000022
1129	1.1224e+02	8.7708	14.358621	0.000156	1.556294	0.263643	-0.000016
1130	1.1234e+02	8.7611	14.339884	0.000188	1.883935	0.319147	-0.000019
1131	1.1244e+02	8.7540	14.319924	0.000201	2.006800	0.339961	-0.000020
1132	1.1253e+02	8.7388	14.304445	0.000156	1.556294	0.263643	-0.000016
1133	1.1263e+02	8.7305	14.284078	0.000205	2.047756	0.346899	-0.000020
1134	1.1273e+02	8.7244	14.263303	0.000209	2.088711	0.353837	-0.000021
1135	1.1283e+02	8.7122	14.239270	0.000242	2.416352	0.409341	-0.000024
1136	1.1293e+02	8.7014	14.221754	0.000176	1.761070	0.298333	-0.000018
1137	1.1303e+02	8.6925	14.203424	0.000184	1.842980	0.312209	-0.000018
1138	1.1313e+02	8.6805	14.179391	0.000242	2.416352	0.409341	-0.000024
1139	1.1323e+02	8.6735	14.155357	0.000242	2.416352	0.409341	-0.000024
1140	1.1333e+02	8.6630	14.137027	0.000184	1.842980	0.312209	-0.000018
1141	1.1343e+02	8.6500	14.117474	0.000197	1.965845	0.333023	-0.000020
1142	1.1353e+02	8.6403	14.094663	0.000229	2.293486	0.388527	-0.000023
1143	1.1363e+02	8.6353	14.071852	0.000229	2.293486	0.388527	-0.000023
1144	1.1373e+02	8.6224	14.046597	0.000254	2.539217	0.430155	-0.000025
1145	1.1383e+02	8.6136	14.023378	0.000233	2.334441	0.395465	-0.000023
1146	1.1393e+02	8.6010	14.003011	0.000205	2.047756	0.346899	-0.000020
1147	1.1403e+02	8.5938	13.983459	0.000197	1.965845	0.333023	-0.000020
1148	1.1413e+02	8.5803	13.961055	0.000225	2.252531	0.381589	-0.000023
1149	1.1423e+02	8.5748	13.934985	0.000262	2.621127	0.444031	-0.000026
1150	1.1433e+02	8.5625	13.913803	0.000213	2.129666	0.360775	-0.000021
1151	1.1442e+02	8.5533	13.893436	0.000205	2.047756	0.346899	-0.000020
1152	1.1452e+02	8.5411	13.873069	0.000205	2.047756	0.346899	-0.000020
1153	1.1462e+02	8.5303	13.848628	0.000246	2.457307	0.416279	-0.000025
1154	1.1472e+02	8.5222	13.825817	0.000229	2.293486	0.388527	-0.000023
1155	1.1482e+02	8.5156	13.803006	0.000229	2.293486	0.388527	-0.000023
1156	1.1492e+02	8.5028	13.777751	0.000254	2.539217	0.430155	-0.000025
1157	1.1502e+02	8.4930	13.755754	0.000221	2.211576	0.374651	-0.000022
1158	1.1512e+02	8.4840	13.731314	0.000246	2.457307	0.416279	-0.000025
1159	1.1522e+02	8.4729	13.709317	0.000221	2.211576	0.374651	-0.000022
1160	1.1532e+02	8.4620	13.687321	0.000221	2.211576	0.374651	-0.000022
1161	1.1542e+02	8.4535	13.670212	0.000172	1.720115	0.291395	-0.000017
1162	1.1552e+02	8.4425	13.644142	0.000262	2.621127	0.444031	-0.000026
1163	1.1562e+02	8.4326	13.623368	0.000209	2.088711	0.353837	-0.000021
1164	1.1572e+02	8.4237	13.602186	0.000213	2.129666	0.360775	-0.000021
1165	1.1582e+02	8.4169	13.578560	0.000238	2.375396	0.402403	-0.000024
1166	1.1592e+02	8.4040	13.557786	0.000209	2.088711	0.353837	-0.000021
1167	1.1602e+02	8.3926	13.537011	0.000209	2.088711	0.353837	-0.000021
1168	1.1612e+02	8.3817	13.512571	0.000246	2.457307	0.416279	-0.000025
1169	1.1622e+02	8.3740	13.490167	0.000225	2.252531	0.381589	-0.000023
1170	1.1632e+02	8.3631	13.468578	0.000217	2.170621	0.367713	-0.000022
1171	1.1642e+02	8.3530	13.444545	0.000242	2.416352	0.409341	-0.000024
1172	1.1651e+02	8.3441	13.424585	0.000201	2.006800	0.339961	-0.000020
1173	1.1661e+02	8.3335	13.402996	0.000217	2.170621	0.367713	-0.000022
1174	1.1671e+02	8.3241	13.379370	0.000238	2.375396	0.402403	-0.000024
1175	1.1681e+02	8.3176	13.360225	0.000192	1.924890	0.326085	-0.000019
1176	1.1691e+02	8.3037	13.337006	0.000233	2.334441	0.395465	-0.000023
1177	1.1701e+02	8.2940	13.318268	0.000188	1.883935	0.319147	-0.000019
1178	1.1711e+02	8.2864	13.295865	0.000225	2.252531	0.381589	-0.000023
1179	1.1721e+02	8.2732	13.271831	0.000242	2.416352	0.409341	-0.000024
1180	1.1731e+02	8.2635	13.249020	0.000229	2.293486	0.388527	-0.000023
1181	1.1741e+02	8.2547	13.224172	0.000250	2.498262	0.423217	-0.000025
1182	1.1751e+02	8.2431	13.205842	0.000184	1.842980	0.312209	-0.000018
1183	1.1761e+02	8.2349	13.184660	0.000213	2.129666	0.360775	-0.000021
1184	1.1771e+02	8.2191	13.161849	0.000229	2.293486	0.388527	-0.000023
1185	1.1781e+02	8.2135	13.139038	0.000229	2.293486	0.388527	-0.000023
1186	1.1791e+02	8.2044	13.115819	0.000233	2.334441	0.395465	-0.000023
1187	1.1801e+02	8.1926	13.095859	0.000201	2.006800	0.339961	-0.000020
1188	1.1811e+02	8.1863	13.074270	0.000217	2.170621	0.367713	-0.000022
1189	1.1821e+02	8.1749	13.053088	0.000213	2.129666	0.360775	-0.000021
1190	1.1831e+02	8.1641	13.032314	0.000209	2.088711	0.353837	-0.000021
1191	1.1841e+02	8.1545	13.009095	0.000233	2.334441	0.395465	-0.000023
1192	1.1850e+02	8.1470	12.985062	0.000242	2.416352	0.409341	-0.000024
1193	1.1860e+02	8.1348	12.969991	0.000152	1.515339	0.256705	-0.000015
1194	1.1870e+02	8.1246	12.945143	0.000250	2.498262	0.423217	-0.000025
1195	1.1880e+02	8.1155	12.920702	0.000246	2.457307	0.416279	-0.000025
1196	1.1890e+02	8.1064	12.899928	0.000209	2.088711	0.353837	-0.000021
1197	1.1900e+02	8.0959	12.879153	0.000209	2.088711	0.353837	-0.000021
1198	1.1910e+02	8.0848	12.855120	0.000242	2.416352	0.409341	-0.000024
1199	1.1920e+02	8.0766	12.832309	0.000229	2.293486	0.388527	-0.000023
1200	1.1930e+02	8.0641	12.807461	0.000250	2.498262	0.423217	-0.000025
1201	1.1940e+02	8.0544	12.783835	0.000238	2.375396	0.402403	-0.000024
1202	1.1950e+02	8.0458	12.761024	0.000229	2.293486	0.388527	-0.000023
1203	1.1960e+02	8.0353	12.736176	0.000250	2.498262	0.423217	-0.000025
1204	1.1970e+02	8.0243	12.714587	0.000217	2.170621	0.367713	-0.000022
1205	1.1980e+02	8.0160	12.691776	0.000229	2.293486	0.388527	-0.000023
1206	1.1990e+02	8.0051	12.666928	0.000250	2.498262	0.423217	-0.000025
1207	1.2000e+02	7.9943	12.644931	0.000221	2.211576	0.374651	-0.000022
1208	1.2010e+02	7.9842	12.622120	0.000229	2.293486	0.388527	-0.000023
1209	1.2020e+02	7.9748	12.598494	0.000238	2.375396	0.402403	-0.000024
1210	1.2030e+02	7.9668	12.570795	0.000278	2.784948	0.471783	-0.000028
1211	1.2039e+02	7.9580	12.548798	0.000221	2.211576	0.374651	-0.000022
1212	1.2049e+02	7.9449	12.522321	0.000266	2.662082	0.450969	-0.000027
1213	1.2059e+02	7.9337	12.500325	0.000221	2.211576	0.374651	-0.000022
1214	1.2069e+02	7.9261	12.475884	0.000246	2.457307	0.416279	-0.000025
1215	1.2079e+02	7.9150	12.455517	0.000205	2.047756	0.346899	-0.000020
1216	1.2089e+02	7.9057	12.434335	0.000213	2.129666	0.360775	-0.000021
1217	1.2099e+02	7.8942	12.411931	0.000225	2.252531	0.381589	-0.000023
1218	1.2109e+02	7.8846	12.388305	0.000238	2.375396	0.402403	-0.000024
1219	1.2119e+02	7.8764	12.367531	0.000209	2.088711	0.353837	-0.000021
1220	1.2129e+02	7.8662	12.344720	0.000229	2.293486	0.388527	-0.000023
1221	1.2139e+02	7.8551	12.321501	0.000233	2.334441	0.395465	-0.000023
1222	1.2149e+02	7.8421	12.299097	0.000225	2.252531	0.381589	-0.000023
1223	1.2159e+02	7.8369	12.277101	0.000221	2.211576	0.374651	-0.000022
1224	1.2169e+02	7.8262	12.256326	0.000209	2.088711	0.353837	-0.000021
1225	1.2179e+02	7.8172	12.233923	0.000225	2.252531	0.381589	-0.000023
1226	1.2189e+02	7.8049	12.213963	0.000201	2.006800	0.339961	-0.000020
1227	1.2199e+02	7.7953	12.194818	0.000192	1.924890	0.326085	-0.000019
1228	1.2209e+02	7.7868	12.174451	0.000205	2.047756	0.346899	-0.000020
1229	1.2219e+02	7.7752	12.155305	0.000192	1.924890	0.326085	-0.000019
1230	1.2229e+02	7.7663	12.132494	0.000229	2.293486	0.388527	-0.000023
1231	1.2239e+02	7.7602	12.112942	0.000197	1.965845	0.333023	-0.000020
1232	1.2248e+02	7.7433	12.092167	0.000209	2.088711	0.353837	-0.000021
1233	1.2258e+02	7.7352	12.072615	0.000197	1.965845	0.333023	-0.000020
1234	1.2268e+02	7.7274	12.053877	0.000188	1.883935	0.319147	-0.000019
1235	1.2278e+02	7.7155	12.032288	0.000217	2.170621	0.367713	-0.000022
1236	1.2288e+02	7.7070	12.009884	0.000225	2.252531	0.381589	-0.000023
1237	1.2298e+02	7.6975	11.985036	0.000250	2.498262	0.423217	-0.000025
1238	1.2308e+02	7.6848	11.969150	0.000160	1.597249	0.270581	-0.000016
1239	1.2318e+02	7.6760	11.951227	0.000180	1.802025	0.305271	-0.000018
1240	1.2328e+02	7.6685	11.927194	0.000242	2.416352	0.409341	-0.000024
1241	1.2338e+02	7.6580	11.907234	0.000201	2.006800	0.339961	-0.000020
1242	1.2348e+02	7.6479	11.887274	0.000201	2.006800	0.339961	-0.000020
1243	1.2358e+02	7.6367	11.862019	0.000254	2.539217	0.430155	-0.000025
1244	1.2368e+02	7.6272	11.843281	0.000188	1.883935	0.319147	-0.000019
1245	1.2378e+02	7.6152	11.821285	0.000221	2.211576	0.374651	-0.000022
1246	1.2388e+02	7.6058	11.798881	0.000225	2.252531	0.381589	-0.000023
1247	1.2398e+02	7.5971	11.778921	0.000201	2.006800	0.339961	-0.000020
1248	1.2408e+02	7.5884	11.756110	0.000229	2.293486	0.388527	-0.000023
1249	1.2418e+02	7.5760	11.732891	0.000233	2.334441	0.395465	-0.000023
1250	1.2428e+02	7.5676	11.711709	0.000213	2.129666	0.360775	-0.000021
1251	1.2438e+02	7.5567	11.689713	0.000221	2.211576	0.374651	-0.000022
1252	1.2447e+02	7.5475	11.668938	0.000209	2.088711	0.353837	-0.000021
1253	1.2457e+02	7.5362	11.646535	0.000225	2.252531	0.381589	-0.000023
1254	1.2467e+02	7.5282	11.623723	0.000229	2.293486	0.388527	-0.000023
1255	1.2477e+02	7.5179	11.600505	0.000233	2.334441	0.395465	-0.000023
1256	1.2487e+02	7.5049	11.575657	0.000250	2.498262	0.423217	-0.000025
1257	1.2497e+02	7.4981	11.554882	0.000209	2.088711	0.353837	-0.000021
1258	1.2507e+02	7.4856	11.531664	0.000233	2.334441	0.395465	-0.000023
1259	1.2517e+02	7.4780	11.510482	0.000213	2.129666	0.360775	-0.000021
1260	1.2527e+02	7.4700	11.489300	0.000213	2.129666	0.360775	-0.000021
1261	1.2537e+02	7.4609	11.464452	0.000250	2.498262	0.423217	-0.000025
1262	1.2547e+02	7.4458	11.439605	0.000250	2.498262	0.423217	-0.000025
1263	1.2557e+02	7.4367	11.418015	0.000217	2.170621	0.367713	-0.000022
1264	1.2567e+02	7.4288	11.394797	0.000233	2.334441	0.395465	-0.000023
1265	1.2577e+02	7.4178	11.373208	0.000217	2.170621	0.367713	-0.000022
1266	1.2587e+02	7.4073	11.350397	0.000229	2.293486	0.388527	-0.000023
1267	1.2597e+02	7.3979	11.326363	0.000242	2.416352	0.409341	-0.000024
1268	1.2607e+02	7.3895	11.304774	0.000217	2.170621	0.367713	-0.000022
1269	1.2617e+02	7.3792	11.282778	0.000221	2.211576	0.374651	-0.000022
1270	1.2627e+02	7.3683	11.261189	0.000217	2.170621	0.367713	-0.000022
1271	1.2636e+02	7.3600	11.235933	0.000254	2.539217	0.430155	-0.000025
1272	1.2646e+02	7.3490	11.213937	0.000221	2.211576	0.374651	-0.000022
1273	1.2656e+02	7.3396	11.190311	0.000238	2.375396	0.402403	-0.000024
1274	1.2666e+02	7.3284	11.165870	0.000246	2.457307	0.416279	-0.000025
1275	1.2676e+02	7.3186	11.143059	0.000229	2.293486	0.388527	-0.000023
1276	1.2686e+02	7.3083	11.119841	0.000233	2.334441	0.395465	-0.000023
1277	1.2696e+02	7.2993	11.096215	0.000238	2.375396	0.402403	-0.000024
1278	1.2706e+02	7.2880	11.072996	0.000233	2.334441	0.395465	-0.000023
1279	1.2716e+02	7.2784	11.049370	0.000238	2.375396	0.402403	-0.000024
1280	1.2726e+02	7.2668	11.027781	0.000217	2.170621	0.367713	-0.000022
1281	1.2736e+02	7.2607	11.002933	0.000250	2.498262	0.423217	-0.000025
1282	1.2746e+02	7.2485	10.983381	0.000197	1.965845	0.333023	-0.000020
1283	1.2756e+02	7.2409	10.958533	0.000250	2.498262	0.423217	-0.000025
1284	1.2766e+02	7.2289	10.939795	0.000188	1.883935	0.319147	-0.000019
1285	1.2776e+02	7.2213	10.914540	0.000254	2.539217	0.430155	-0.000025
1286	1.2786e+02	7.2094	10.894988	0.000197	1.965845	0.333023	-0.000020
1287	1.2796e+02	7.1992	10.868510	0.000266	2.662082	0.450969	-0.000027
1288	1.2806e+02	7.1902	10.848551	0.000201	2.006800	0.339961	-0.000020
1289	1.2816e+02	7.1807	10.825332	0.000233	2.334441	0.395465	-0.000023
1290	1.2826e+02	7.1687	10.799262	0.000262	2.621127	0.444031	-0.000026
1291	1.2835e+02	7.1584	10.780524	0.000188	1.883935	0.319147	-0.000019
1292	1.2845e+02	7.1461	10.757306	0.000233	2.334441	0.395465	-0.000023
1293	1.2855e+02	7.1406	10.736531	0.000209	2.088711	0.353837	-0.000021
1294	1.2865e+02	7.1304	10.710461	0.000262	2.621127	0.444031	-0.000026
1295	1.2875e+02	7.1205	10.689280	0.000213	2.129666	0.360775	-0.000021
1296	1.2885e+02	7.1094	10.671764	0.000176	1.761070	0.298333	-0.000018
1297	1.2895e+02	7.0981	10.646509	0.000254	2.539217	0.430155	-0.000025
1298	1.2905e+02	7.0882	10.622883	0.000238	2.375396	0.402403	-0.000024
1299	1.2915e+02	7.0786	10.595998	0.000270	2.703037	0.457907	-0.000027
1300	1.2925e+02	7.0672	10.575224	0.000209	2.088711	0.353837	-0.000021
1301	1.2935e+02	7.0599	10.550376	0.000250	2.498262	0.423217	-0.000025
1302	1.2945e+02	7.0480	10.526750	0.000238	2.375396	0.402403	-0.000024
1303	1.2955e+02	7.0419	10.503939	0.000229	2.293486	0.388527	-0.000023
1304	1.2965e+02	7.0315	10.480313	0.000238	2.375396	0.402403	-0.000024
1305	1.2975e+02	7.0195	10.452206	0.000283	2.825903	0.478721	-0.000028
1306	1.2985e+02	7.0107	10.429395	0.000229	2.293486	0.388527	-0.000023
1307	1.2995e+02	7.0019	10.401696	0.000278	2.784948	0.471783	-0.000028
1308	1.3005e+02	6.9894	10.379292	0.000225	2.252531	0.381589	-0.000023
1309	1.3015e+02	6.9805	10.351593	0.000278	2.784948	0.471783	-0.000028
1310	1.3025e+02	6.9711	10.325115	0.000266	2.662082	0.450969	-0.000027
1311	1.3034e+02	6.9597	10.301082	0.000242	2.416352	0.409341	-0.000024
1312	1.3044e+02	6.9488	10.274198	0.000270	2.703037	0.457907	-0.000027
1313	1.3054e+02	6.9379	10.249350	0.000250	2.498262	0.423217	-0.000025
1314	1.3064e+02	6.9328	10.223280	0.000262	2.621127	0.444031	-0.000026
1315	1.3074e+02	6.9214	10.196395	0.000270	2.703037	0.457907	-0.000027
1316	1.3084e+02	6.9130	10.171140	0.000254	2.539217	0.430155	-0.000025
1317	1.3094e+02	6.8984	10.143848	0.000274	2.743992	0.464845	-0.000027
1318	1.3104e+02	6.8932	10.120222	0.000238	2.375396	0.402403	-0.000024
1319	1.3114e+02	6.8829	10.092115	0.000283	2.825903	0.478721	-0.000028
1320	1.3124e+02	6.8674	10.064416	0.000278	2.784948	0.471783	-0.000028
1321	1.3134e+02	6.8621	10.038754	0.000258	2.580172	0.437093	-0.000026
1322	1.3144e+02	6.8502	10.011054	0.000278	2.784948	0.471783	-0.000028
1323	1.3154e+02	6.8420	9.979689	0.000315	3.153544	0.534225	-0.000032
1324	1.3164e+02	6.8319	9.955248	0.000246	2.457307	0.416279	-0.000025
1325	1.3174e+02	6.8196	9.929993	0.000254	2.539217	0.430155	-0.000025
1326	1.3184e+02	6.8095	9.902701	0.000274	2.743992	0.464845	-0.000027
1327	1.3194e+02	6.8019	9.879890	0.000229	2.293486	0.388527	-0.000023
1328	1.3204e+02	6.7921	9.852598	0.000274	2.743992	0.464845	-0.000027
1329	1.3214e+02	6.7828	9.826528	0.000262	2.621127	0.444031	-0.000026
1330	1.3224e+02	6.7718	9.804124	0.000225	2.252531	0.381589	-0.000023
1331	1.3234e+02	6.7637	9.776425	0.000278	2.784948	0.471783	-0.000028
1332	1.3243e+02	6.7519	9.749948	0.000266	2.662082	0.450969	-0.000027
1333	1.3253e+02	6.7430	9.726729	0.000233	2.334441	0.395465	-0.000023
1334	1.3263e+02	6.7329	9.701474	0.000254	2.539217	0.430155	-0.000025
1335	1.3273e+02	6.7217	9.672960	0.000287	2.866858	0.485659	-0.000029
1336	1.3283e+02	6.7120	9.646483	0.000266	2.662082	0.450969	-0.000027
1337	1.3293e+02	6.7021	9.619598	0.000270	2.703037	0.457907	-0.000027
1338	1.3303e+02	6.6926	9.595972	0.000238	2.375396	0.402403	-0.000024
1339	1.3313e+02	6.6816	9.570310	0.000258	2.580172	0.437093	-0.000026
1340	1.3323e+02	6.6726	9.546684	0.000238	2.375396	0.402403	-0.000024
1341	1.3333e+02	6.6609	9.523465	0.000233	2.334441	0.395465	-0.000023
1342	1.3343e+02	6.6496	9.496173	0.000274	2.743992	0.464845	-0.000027
1343	1.3353e+02	6.6412	9.468474	0.000278	2.784948	0.471783	-0.000028
1344	1.3363e+02	6.6320	9.446070	0.000225	2.252531	0.381589	-0.000023
1345	1.3373e+02	6.6225	9.419185	0.000270	2.703037	0.457907	-0.000027
1346	1.3383e+02	6.6102	9.391079	0.000283	2.825903	0.478721	-0.000028
1347	1.3393e+02	6.6009	9.368675	0.000225	2.252531	0.381589	-0.000023
1348	1.3403e+02	6.5911	9.341383	0.000274	2.743992	0.464845	-0.000027
1349	1.3413e+02	6.5804	9.315313	0.000262	2.621127	0.444031	-0.000026
1350	1.3423e+02	6.5733	9.294539	0.000209	2.088711	0.353837	-0.000021
1351	1.3432e+02	6.5612	9.263988	0.000307	3.071633	0.520349	-0.000031
1352	1.3442e+02	6.5541	9.235474	0.000287	2.866858	0.485659	-0.000029
1353	1.3452e+02	6.5412	9.214700	0.000209	2.088711	0.353837	-0.000021
1354	1.3462e+02	6.5319	9.186593	0.000283	2.825903	0.478721	-0.000028
1355	1.3472e+02	6.5234	9.163782	0.000229	2.293486	0.388527	-0.000023
1356	1.3482e+02	6.5122	9.136490	0.000274	2.743992	0.464845	-0.000027
1357	1.3492e+02	6.5034	9.111642	0.000250	2.498262	0.423217	-0.000025
1358	1.3502e+02	6.4938	9.085572	0.000262	2.621127	0.444031	-0.000026
1359	1.3512e+02	6.4837	9.060724	0.000250	2.498262	0.423217	-0.000025
1360	1.3522e+02	6.4722	9.035876	0.000250	2.498262	0.423217	-0.000025
1361	1.3532e+02	6.4629	9.010621	0.000254	2.539217	0.430155	-0.000025
1362	1.3542e+02	6.4541	8.980885	0.000299	2.989723	0.506473	-0.000030
1363	1.3552e+02	6.4413	8.958074	0.000229	2.293486	0.388527	-0.000023
1364	1.3562e+02	6.4336	8.934041	0.000242	2.416352	0.409341	-0.000024
1365	1.3572e+02	6.4214	8.908785	0.000254	2.539217	0.430155	-0.000025
1366	1.3582e+02	6.4133	8.879864	0.000291	2.907813	0.492597	-0.000029
1367	1.3592e+02	6.4032	8.853387	0.000266	2.662082	0.450969	-0.000027
1368	1.3602e+02	6.3937	8.828131	0.000254	2.539217	0.430155	-0.000025
1369	1.3612e+02	6.3851	8.799617	0.000287	2.866858	0.485659	-0.000029
1370	1.3622e+02	6.3732	8.771103	0.000287	2.866858	0.485659	-0.000029
1371	1.3631e+02	6.3641	8.746663	0.000246	2.457307	0.416279	-0.000025
1372	1.3641e+02	6.3557	8.719371	0.000274	2.743992	0.464845	-0.000027
1373	1.3651e+02	6.3431	8.690450	0.000291	2.907813	0.492597	-0.000029
1374	1.3661e+02	6.3332	8.663972	0.000266	2.662082	0.450969	-0.000027
1375	1.3671e+02	6.3253	8.638310	0.000258	2.580172	0.437093	-0.000026
1376	1.3681e+02	6.3146	8.611833	0.000266	2.662082	0.450969	-0.000027
1377	1.3691e+02	6.3027	8.581689	0.000303	3.030678	0.513411	-0.000030
1378	1.3701e+02	6.2913	8.559285	0.000225	2.252531	0.381589	-0.000023
1379	1.3711e+02	6.2853	8.528735	0.000307	3.071633	0.520349	-0.000031
1380	1.3721e+02	6.2749	8.503072	0.000258	2.580172	0.437093	-0.000026
1381	1.3731e+02	6.2656	8.479039	0.000242	2.416352	0.409341	-0.000024
1382	1.3741e+02	6.2537	8.449710	0.000295	2.948768	0.499535	-0.000029
1383	1.3751e+02	6.2444	8.425677	0.000242	2.416352	0.409341	-0.000024
1384	1.3761e+02	6.2341	8.397570	0.000283	2.825903	0.478721	-0.000028
1385	1.3771e+02	6.2257	8.370278	0.000274	2.743992	0.464845	-0.000027
1386	1.3781e+02	6.2163	8.343801	0.000266	2.662082	0.450969	-0.000027
1387	1.3791e+02	6.2061	8.314880	0.000291	2.907813	0.492597	-0.000029
1388	1.3801e+02	6.1939	8.295327	0.000197	1.965845	0.333023	-0.000020
1389	1.3811e+02	6.1843	8.270479	0.000250	2.498262	0.423217	-0.000025
1390	1.3821e+02	6.1727	8.241966	0.000287	2.866858	0.485659	-0.000029
1391	1.3831e+02	6.1660	8.213859	0.000283	2.825903	0.478721	-0.000028
1392	1.3840e+02	6.1556	8.192270	0.000217	2.170621	0.367713	-0.000022
1393	1.3850e+02	6.1445	8.169051	0.000233	2.334441	0.395465	-0.000023
1394	1.3860e+02	6.1385	8.147462	0.000217	2.170621	0.367713	-0.000022
1395	1.3870e+02	6.1251	8.123021	0.000246	2.457307	0.416279	-0.000025
1396	1.3880e+02	6.1157	8.099396	0.000238	2.375396	0.402403	-0.000024
1397	1.3890e+02	6.1065	8.075770	0.000238	2.375396	0.402403	-0.000024
1398	1.3900e+02	6.0952	8.047256	0.000287	2.866858	0.485659	-0.000029
1399	1.3910e+02	6.0851	8.024852	0.000225	2.252531	0.381589	-0.000023
1400	1.3920e+02	6.0749	8.002041	0.000229	2.293486	0.388527	-0.000023
1401	1.3930e+02	6.0648	7.974341	0.000278	2.784948	0.471783	-0.000028
1402	1.3940e+02	6.0571	7.950308	0.000242	2.416352	0.409341	-0.000024
1403	1.3950e+02	6.0468	7.927497	0.000229	2.293486	0.388527	-0.000023
1404	1.3960e+02	6.0357	7.904279	0.000233	2.334441	0.395465	-0.000023
1405	1.3970e+02	6.0247	7.880653	0.000238	2.375396	0.402403	-0.000024
1406	1.3980e+02	6.0165	7.857434	0.000233	2.334441	0.395465	-0.000023
1407	1.3990e+02	6.0079	7.836660	0.000209	2.088711	0.353837	-0.000021
1408	1.4000e+02	5.9957	7.810590	0.000262	2.621127	0.444031	-0.000026
1409	1.4010e+02	5.9852	7.785742	0.000250	2.498262	0.423217	-0.000025
1410	1.4020e+02	5.9769	7.763745	0.000221	2.211576	0.374651	-0.000022
1411	1.4029e+02	5.9668	7.734824	0.000291	2.907813	0.492597	-0.000029
1412	1.4039e+02	5.9565	7.708754	0.000262	2.621127	0.444031	-0.000026
1413	1.4049e+02	5.9469	7.682277	0.000266	2.662082	0.450969	-0.000027
1414	1.4059e+02	5.9364	7.654170	0.000283	2.825903	0.478721	-0.000028
1415	1.4069e+02	5.9253	7.636654	0.000176	1.761070	0.298333	-0.000018
1416	1.4079e+02	5.9168	7.609770	0.000270	2.703037	0.457907	-0.000027
1417	1.4089e+02	5.9072	7.580849	0.000291	2.907813	0.492597	-0.000029
1418	1.4099e+02	5.8986	7.556408	0.000246	2.457307	0.416279	-0.000025
1419	1.4109e+02	5.8858	7.528709	0.000278	2.784948	0.471783	-0.000028
1420	1.4119e+02	5.8798	7.505490	0.000233	2.334441	0.395465	-0.000023
1421	1.4129e+02	5.8669	7.477791	0.000278	2.784948	0.471783	-0.000028
1422	1.4139e+02	5.8553	7.451721	0.000262	2.621127	0.444031	-0.000026
1423	1.4149e+02	5.8459	7.426466	0.000254	2.539217	0.430155	-0.000025
1424	1.4159e+02	5.8376	7.400396	0.000262	2.621127	0.444031	-0.000026
1425	1.4169e+02	5.8245	7.375141	0.000254	2.539217	0.430155	-0.000025
1426	1.4179e+02	5.8196	7.347849	0.000274	2.743992	0.464845	-0.000027
1427	1.4189e+02	5.8076	7.319742	0.000283	2.825903	0.478721	-0.000028
1428	1.4199e+02	5.7952	7.296116	0.000238	2.375396	0.402403	-0.000024
1429	1.4209e+02	5.7873	7.269232	0.000270	2.703037	0.457907	-0.000027
1430	1.4219e+02	5.7769	7.243976	0.000254	2.539217	0.430155	-0.000025
1431	1.4228e+02	5.7687	7.215055	0.000291	2.907813	0.492597	-0.000029
1432	1.4238e+02	5.7551	7.189392	0.000258	2.580172	0.437093	-0.000026
1433	1.4248e+02	5.7465	7.164952	0.000246	2.457307	0.416279	-0.000025
1434	1.4258e+02	5.7378	7.137253	0.000278	2.784948	0.471783	-0.000028
1435	1.4268e+02	5.7255	7.110368	0.000270	2.703037	0.457907	-0.000027
1436	1.4278e+02	5.7178	7.083483	0.000270	2.703037	0.457907	-0.000027
1437	1.4288e+02	5.7071	7.058228	0.000254	2.539217	0.430155	-0.000025
1438	1.4298e+02	5.6992	7.032565	0.000258	2.580172	0.437093	-0.000026
1439	1.4308e+02	5.6870	7.005274	0.000274	2.743992	0.464845	-0.000027
1440	1.4318e+02	5.6785	6.979611	0.000258	2.580172	0.437093	-0.000026
1441	1.4328e+02	5.6690	6.953948	0.000258	2.580172	0.437093	-0.000026
1442	1.4338e+02	5.6562	6.923398	0.000307	3.071633	0.520349	-0.000031
1443	1.4348e+02	5.6470	6.899364	0.000242	2.416352	0.409341	-0.000024
1444	1.4358e+02	5.6380	6.870850	0.000287	2.866858	0.485659	-0.000029
1445	1.4368e+02	5.6270	6.843151	0.000278	2.784948	0.471783	-0.000028
1446	1.4378e+02	5.6181	6.815859	0.000274	2.743992	0.464845	-0.000027
1447	1.4388e+02	5.6068	6.793048	0.000229	2.293486	0.388527	-0.000023
1448	1.4398e+02	5.5968	6.767385	0.000258	2.580172	0.437093	-0.000026
1449	1.4408e+02	5.5859	6.739279	0.000283	2.825903	0.478721	-0.000028
1450	1.4418e+02	5.5782	6.713616	0.000258	2.580172	0.437093	-0.000026
1451	1.4428e+02	5.5662	6.685510	0.000283	2.825903	0.478721	-0.000028
1452	1.4437e+02	5.5556	6.661476	0.000242	2.416352	0.409341	-0.000024
1453	1.4447e+02	5.5477	6.633777	0.000278	2.784948	0.471783	-0.000028
1454	1.4457e+02	5.5389	6.611781	0.000221	2.211576	0.374651	-0.000022
1455	1.4467e+02	5.5296	6.585711	0.000262	2.621127	0.444031	-0.000026
1456	1.4477e+02	5.5193	6.559641	0.000262	2.621127	0.444031	-0.000026
1457	1.4487e+02	5.5097	6.533571	0.000262	2.621127	0.444031	-0.000026
1458	1.4497e+02	5.4986	6.503020	0.000307	3.071633	0.520349	-0.000031
1459	1.4507e+02	5.4884	6.474914	0.000283	2.825903	0.478721	-0.000028
1460	1.4517e+02	5.4794	6.454546	0.000205	2.047756	0.346899	-0.000020
1461	1.4527e+02	5.4712	6.424810	0.000299	2.989723	0.506473	-0.000030
1462	1.4537e+02	5.4584	6.398740	0.000262	2.621127	0.444031	-0.000026
1463	1.4547e+02	5.4488	6.373078	0.000258	2.580172	0.437093	-0.000026
1464	1.4557e+02	5.4391	6.347415	0.000258	2.580172	0.437093	-0.000026
1465	1.4567e+02	5.4272	6.320938	0.000266	2.662082	0.450969	-0.000027
1466	1.4577e+02	5.4190	6.294868	0.000262	2.621127	0.444031	-0.000026
1467	1.4587e+02	5.4094	6.271242	0.000238	2.375396	0.402403	-0.000024
1468	1.4597e+02	5.3985	6.240692	0.000307	3.071633	0.520349	-0.000031
1469	1.4607e+02	5.3870	6.213807	0.000270	2.703037	0.457907	-0.000027
1470	1.4617e+02	5.3780	6.185700	0.000283	2.825903	0.478721	-0.000028
1471	1.4626e+02	5.3698	6.159630	0.000262	2.621127	0.444031	-0.000026
1472	1.4636e+02	5.3576	6.128265	0.000315	3.153544	0.534225	-0.000032
1473	1.4646e+02	5.3481	6.100158	0.000283	2.825903	0.478721	-0.000028
1474	1.4656e+02	5.3391	6.073274	0.000270	2.703037	0.457907	-0.000027
1475	1.4666e+02	5.3287	6.042723	0.000307	3.071633	0.520349	-0.000031
1476	1.4676e+02	5.3203	6.014616	0.000283	2.825903	0.478721	-0.000028
1477	1.4686e+02	5.3060	5.982844	0.000319	3.194499	0.541163	-0.000032
1478	1.4696e+02	5.2991	5.954330	0.000287	2.866858	0.485659	-0.000029
1479	1.4706e+02	5.2903	5.923372	0.000311	3.112589	0.527287	-0.000031
1480	1.4716e+02	5.2807	5.896080	0.000274	2.743992	0.464845	-0.000027
1481	1.4726e+02	5.2703	5.865122	0.000311	3.112589	0.527287	-0.000031
1482	1.4736e+02	5.2592	5.832534	0.000328	3.276409	0.555039	-0.000033
1483	1.4746e+02	5.2493	5.807686	0.000250	2.498262	0.423217	-0.000025
1484	1.4756e+02	5.2409	5.773877	0.000340	3.399274	0.575853	-0.000034
1485	1.4766e+02	5.2286	5.746178	0.000278	2.784948	0.471783	-0.000028
1486	1.4776e+02	5.2227	5.716034	0.000303	3.030678	0.513411	-0.000030
1487	1.4786e+02	5.2087	5.685076	0.000311	3.112589	0.527287	-0.000031
1488	1.4796e+02	5.1989	5.654933	0.000303	3.030678	0.513411	-0.000030
1489	1.4806e+02	5.1890	5.624382	0.000307	3.071633	0.520349	-0.000031
1490	1.4816e+02	5.1800	5.595054	0.000295	2.948768	0.499535	-0.000029
1491	1.4825e+02	5.1714	5.563281	0.000319	3.194499	0.541163	-0.000032
1492	1.4835e+02	5.1585	5.531101	0.000324	3.235454	0.548101	-0.000032
1493	1.4845e+02	5.1510	5.503402	0.000278	2.784948	0.471783	-0.000028
1494	1.4855e+02	5.1413	5.473666	0.000299	2.989723	0.506473	-0.000030
1495	1.4865e+02	5.1330	5.443522	0.000303	3.030678	0.513411	-0.000030
1496	1.4875e+02	5.1192	5.414601	0.000291	2.907813	0.492597	-0.000029
1497	1.4885e+02	5.1096	5.381606	0.000332	3.317364	0.561977	-0.000033
1498	1.4895e+02	5.1006	5.355536	0.000262	2.621127	0.444031	-0.000026
1499	1.4905e+02	5.0904	5.324171	0.000315	3.153544	0.534225	-0.000032
1500	1.4915e+02	5.0814	5.297694	0.000266	2.662082	0.450969	-0.000027
1501	1.4925e+02	5.0698	5.269587	0.000283	2.825903	0.478721	-0.000028
1502	1.4935e+02	5.0616	5.238629	0.000311	3.112589	0.527287	-0.000031
1503	1.4945e+02	5.0513	5.207671	0.000311	3.112589	0.527287	-0.000031
1504	1.4955e+02	5.0417	5.181194	0.000266	2.662082	0.450969	-0.000027
1505	1.4965e+02	5.0338	5.149828	0.000315	3.153544	0.534225	-0.000032
1506	1.4975e+02	5.0210	5.125388	0.000246	2.457307	0.416279	-0.000025
1507	1.4985e+02	5.0119	5.096466	0.000291	2.907813	0.492597	-0.000029
1508	1.4995e+02	4.9996	5.061842	0.000348	3.481185	0.589729	-0.000035
1509	1.5005e+02	4.9909	5.032106	0.000299	2.989723	0.506473	-0.000030
1510	1.5015e+02	4.9805	5.000333	0.000319	3.194499	0.541163	-0.000032
1511	1.5025e+02	4.9732	4.974264	0.000262	2.621127	0.444031	-0.000026
1512	1.5034e+02	4.9630	4.947786	0.000266	2.662082	0.450969	-0.000027
1513	1.5044e+02	4.9514	4.918458	0.000295	2.948768	0.499535	-0.000029
1514	1.5054e+02	4.9424	4.883834	0.000348	3.481185	0.589729	-0.000035
1515	1.5064e+02	4.9319	4.854912	0.000291	2.907813	0.492597	-0.000029
1516	1.5074e+02	4.9233	4.824362	0.000307	3.071633	0.520349	-0.000031
1517	1.5084e+02	4.9116	4.801958	0.000225	2.252531	0.381589	-0.000023
1518	1.5094e+02	4.9000	4.771000	0.000311	3.112589	0.527287	-0.000031
1519	1.5104e+02	4.8914	4.740449	0.000307	3.071633	0.520349	-0.000031
1520	1.5114e+02	4.8827	4.710713	0.000299	2.989723	0.506473	-0.000030
1521	1.5124e+02	4.8688	4.683014	0.000278	2.784948	0.471783	-0.000028
1522	1.5134e+02	4.8614	4.653278	0.000299	2.989723	0.506473	-0.000030
1523	1.5144e+02	4.8492	4.622727	0.000307	3.071633	0.520349	-0.000031
1524	1.5154e+02	4.8420	4.591769	0.000311	3.112589	0.527287	-0.000031
1525	1.5164e+02	4.8310	4.562848	0.000291	2.907813	0.492597	-0.000029
1526	1.5174e+02	4.8222	4.535148	0.000278	2.784948	0.471783	-0.000028
1527	1.5184e+02	4.8113	4.502968	0.000324	3.235454	0.548101	-0.000032
1528	1.5194e+02	4.8017	4.478935	0.000242	2.416352	0.409341	-0.000024
1529	1.5204e+02	4.7926	4.445940	0.000332	3.317364	0.561977	-0.000033
1530	1.5214e+02	4.7832	4.418648	0.000274	2.743992	0.464845	-0.000027
1531	1.5224e+02	4.7729	4.390542	0.000283	2.825903	0.478721	-0.000028
1532	1.5233e+02	4.7628	4.359991	0.000307	3.071633	0.520349	-0.000031
1533	1.5243e+02	4.7524	4.331070	0.000291	2.907813	0.492597	-0.000029
1534	1.5253e+02	4.7390	4.297668	0.000336	3.358319	0.568915	-0.000034
1535	1.5263e+02	4.7320	4.265895	0.000319	3.194499	0.541163	-0.000032
1536	1.5273e+02	4.7202	4.234122	0.000319	3.194499	0.541163	-0.000032
1537	1.5283e+02	4.7109	4.203164	0.000311	3.112589	0.527287	-0.000031
1538	1.5293e+02	4.7022	4.176687	0.000266	2.662082	0.450969	-0.000027
1539	1.5303e+02	4.6923	4.141655	0.000352	3.522140	0.596667	-0.000035
1540	1.5313e+02	4.6836	4.112734	0.000291	2.907813	0.492597	-0.000029
1541	1.5323e+02	4.6719	4.084220	0.000287	2.866858	0.485659	-0.000029
1542	1.5333e+02	4.6611	4.052447	0.000319	3.194499	0.541163	-0.000032
1543	1.5343e+02	4.6535	4.021082	0.000315	3.153544	0.534225	-0.000032
1544	1.5353e+02	4.6398	3.984421	0.000369	3.685960	0.624419	-0.000037
1545	1.5363e+02	4.6322	3.957944	0.000266	2.662082	0.450969	-0.000027
1546	1.5373e+02	4.6274	3.927801	0.000303	3.030678	0.513411	-0.000030
1547	1.5383e+02	4.6124	3.898065	0.000299	2.989723	0.506473	-0.000030
1548	1.5393e+02	4.6037	3.864255	0.000340	3.399274	0.575853	-0.000034
1549	1.5403e+02	4.5918	3.834519	0.000299	2.989723	0.506473	-0.000030
1550	1.5413e+02	4.5812	3.803561	0.000311	3.112589	0.527287	-0.000031
1551	1.5422e+02	4.5715	3.771381	0.000324	3.235454	0.548101	-0.000032
1552	1.5432e+02	4.5623	3.742460	0.000291	2.907813	0.492597	-0.000029
1553	1.5442e+02	4.5530	3.711502	0.000311	3.112589	0.527287	-0.000031
1554	1.5452e+02	4.5411	3.683395	0.000283	2.825903	0.478721	-0.000028
1555	1.5462e+02	4.5329	3.650400	0.000332	3.317364	0.561977	-0.000033
1556	1.5472e+02	4.5248	3.624330	0.000262	2.621127	0.444031	-0.000026
1557	1.5482e+02	4.5144	3.591743	0.000328	3.276409	0.555039	-0.000033
1558	1.5492e+02	4.5036	3.564451	0.000274	2.743992	0.464845	-0.000027
1559	1.5502e+02	4.4930	3.532271	0.000324	3.235454	0.548101	-0.000032
1560	1.5512e+02	4.4830	3.507830	0.000246	2.457307	0.416279	-0.000025
1561	1.5522e+02	4.4740	3.482575	0.000254	2.539217	0.430155	-0.000025
1562	1.5532e+02	4.4630	3.452839	0.000299	2.989723	0.506473	-0.000030
1563	1.5542e+02	4.4543	3.423103	0.000299	2.989723	0.506473	-0.000030
1564	1.5552e+02	4.4444	3.395811	0.000274	2.743992	0.464845	-0.000027
1565	1.5562e+02	4.4333	3.369334	0.000266	2.662082	0.450969	-0.000027
1566	1.5572e+02	4.4234	3.341227	0.000283	2.825903	0.478721	-0.000028
1567	1.5582e+02	4.4120	3.312306	0.000291	2.907813	0.492597	-0.000029
1568	1.5592e+02	4.4042	3.280941	0.000315	3.153544	0.534225	-0.000032
1569	1.5602e+02	4.3935	3.254871	0.000262	2.621127	0.444031	-0.000026
1570	1.5612e+02	4.3836	3.227171	0.000278	2.784948	0.471783	-0.000028
1571	1.5622e+02	4.3771	3.199879	0.000274	2.743992	0.464845	-0.000027
1572	1.5631e+02	4.3618	3.170958	0.000291	2.907813	0.492597	-0.000029
1573	1.5641e+02	4.3543	3.141222	0.000299	2.989723	0.506473	-0.000030
1574	1.5651e+02	4.3404	3.116374	0.000250	2.498262	0.423217	-0.000025
1575	1.5661e+02	4.3326	3.089082	0.000274	2.743992	0.464845	-0.000027
1576	1.5671e+02	4.3235	3.059346	0.000299	2.989723	0.506473	-0.000030
1577	1.5681e+02	4.3130	3.029610	0.000299	2.989723	0.506473	-0.000030
1578	1.5691e+02	4.3035	2.999874	0.000299	2.989723	0.506473	-0.000030
1579	1.5701e+02	4.2928	2.973397	0.000266	2.662082	0.450969	-0.000027
1580	1.5711e+02	4.2809	2.940402	0.000332	3.317364	0.561977	-0.000033
1581	1.5721e+02	4.2738	2.913925	0.000266	2.662082	0.450969	-0.000027
1582	1.5731e+02	4.2660	2.883374	0.000307	3.071633	0.520349	-0.000031
1583	1.5741e+02	4.2516	2.855268	0.000283	2.825903	0.478721	-0.000028
1584	1.5751e+02	4.2467	2.822273	0.000332	3.317364	0.561977	-0.000033
1585	1.5761e+02	4.2345	2.790093	0.000324	3.235454	0.548101	-0.000032
1586	1.5771e+02	4.2211	2.764430	0.000258	2.580172	0.437093	-0.000026
1587	1.5781e+02	4.2158	2.733880	0.000307	3.071633	0.520349	-0.000031
1588	1.5791e+02	4.2049	2.700477	0.000336	3.358319	0.568915	-0.000034
1589	1.5801e+02	4.1953	2.674815	0.000258	2.580172	0.437093	-0.000026
1590	1.5811e+02	4.1853	2.643449	0.000315	3.153544	0.534225	-0.000032
1591	1.5821e+02	4.1750	2.614528	0.000291	2.907813	0.492597	-0.000029
1592	1.5830e+02	4.1660	2.583977	0.000307	3.071633	0.520349	-0.000031
1593	1.5840e+02	4.1562	2.554241	0.000299	2.989723	0.506473	-0.000030
1594	1.5850e+02	4.1441	2.524098	0.000303	3.030678	0.513411	-0.000030
1595	1.5860e+02	4.1360	2.491511	0.000328	3.276409	0.555039	-0.000033
1596	1.5870e+02	4.1262	2.466255	0.000254	2.539217	0.430155	-0.000025
1597	1.5880e+02	4.1170	2.433261	0.000332	3.317364	0.561977	-0.000033
1598	1.5890e+02	4.1048	2.403117	0.000303	3.030678	0.513411	-0.000030
1599	1.5900e+02	4.0960	2.367271	0.000360	3.604050	0.610543	-0.000036
1600	1.5910e+02	4.0852	2.340794	0.000266	2.662082	0.450969	-0.000027
1601	1.5920e+02	4.0751	2.310651	0.000303	3.030678	0.513411	-0.000030
1602	1.5930e+02	4.0644	2.281729	0.000291	2.907813	0.492597	-0.000029
1603	1.5940e+02	4.0555	2.248735	0.000332	3.317364	0.561977	-0.000033
1604	1.5950e+02	4.0471	2.216962	0.000319	3.194499	0.541163	-0.000032
1605	1.5960e+02	4.0348	2.186818	0.000303	3.030678	0.513411	-0.000030
1606	1.5970e+02	4.0259	2.157490	0.000295	2.948768	0.499535	-0.000029
1607	1.5980e+02	4.0163	2.126124	0.000315	3.153544	0.534225	-0.000032
1608	1.5990e+02	4.0037	2.094352	0.000319	3.194499	0.541163	-0.000032
1609	1.6000e+02	3.9970	2.063394	0.000311	3.112589	0.527287	-0.000031
1610	1.6010e+02	3.9841	2.032028	0.000315	3.153544	0.534225	-0.000032
1611	1.6019e+02	3.9767	2.001070	0.000311	3.112589	0.527287	-0.000031
1612	1.6029e+02	3.9648	1.969298	0.000319	3.194499	0.541163	-0.000032
1613	1.6039e+02	3.9573	1.942006	0.000274	2.743992	0.464845	-0.000027
1614	1.6049e+02	3.9480	1.906974	0.000352	3.522140	0.596667	-0.000035
1615	1.6059e+02	3.9355	1.876016	0.000311	3.112589	0.527287	-0.000031
1616	1.6069e+02	3.9276	1.845058	0.000311	3.112589	0.527287	-0.000031
1617	1.6079e+02	3.9164	1.814100	0.000311	3.112589	0.527287	-0.000031
1618	1.6089e+02	3.9073	1.782735	0.000315	3.153544	0.534225	-0.000032
1619	1.6099e+02	3.8973	1.757887	0.000250	2.498262	0.423217	-0.000025
1620	1.6109e+02	3.8866	1.726114	0.000319	3.194499	0.541163	-0.000032
1621	1.6119e+02	3.8763	1.694749	0.000315	3.153544	0.534225	-0.000032
1622	1.6129e+02	3.8680	1.666235	0.000287	2.866858	0.485659	-0.000029
1623	1.6139e+02	3.8573	1.634869	0.000315	3.153544	0.534225	-0.000032
1624	1.6149e+02	3.8457	1.603911	0.000311	3.112589	0.527287	-0.000031
1625	1.6159e+02	3.8380	1.568065	0.000360	3.604050	0.610543	-0.000036
1626	1.6169e+02	3.8259	1.542403	0.000258	2.580172	0.437093	-0.000026
1627	1.6179e+02	3.8186	1.512667	0.000299	2.989723	0.506473	-0.000030
1628	1.6189e+02	3.8076	1.483745	0.000291	2.907813	0.492597	-0.000029
1629	1.6199e+02	3.7975	1.450343	0.000336	3.358319	0.568915	-0.000034
1630	1.6209e+02	3.7859	1.419385	0.000311	3.112589	0.527287	-0.000031
1631	1.6219e+02	3.7762	1.392501	0.000270	2.703037	0.457907	-0.000027
1632	1.6228e+02	3.7685	1.360728	0.000319	3.194499	0.541163	-0.000032
1633	1.6238e+02	3.7576	1.330584	0.000303	3.030678	0.513411	-0.000030
1634	1.6248e+02	3.7498	1.297590	0.000332	3.317364	0.561977	-0.000033
1635	1.6258e+02	3.7382	1.265817	0.000319	3.194499	0.541163	-0.000032
1636	1.6268e+02	3.7282	1.232822	0.000332	3.317364	0.561977	-0.000033
1637	1.6278e+02	3.7170	1.204308	0.000287	2.866858	0.485659	-0.000029
1638	1.6288e+02	3.7075	1.171314	0.000332	3.317364	0.561977	-0.000033
1639	1.6298e+02	3.6967	1.139541	0.000319	3.194499	0.541163	-0.000032
1640	1.6308e+02	3.6869	1.107768	0.000319	3.194499	0.541163	-0.000032
1641	1.6318e+02	3.6765	1.071922	0.000360	3.604050	0.610543	-0.000036
1642	1.6328e+02	3.6657	1.039335	0.000328	3.276409	0.555039	-0.000033
1643	1.6338e+02	3.6573	1.005525	0.000340	3.399274	0.575853	-0.000034
1644	1.6348e+02	3.6475	0.970901	0.000348	3.481185	0.589729	-0.000035
1645	1.6358e+02	3.6399	0.937092	0.000340	3.399274	0.575853	-0.000034
1646	1.6368e+02	3.6274	0.901245	0.000360	3.604050	0.610543	-0.000036
1647	1.6378e+02	3.6168	0.866214	0.000352	3.522140	0.596667	-0.000035
1648	1.6388e+02	3.6089	0.834441	0.000319	3.194499	0.541163	-0.000032
1649	1.6398e+02	3.5990	0.798595	0.000360	3.604050	0.610543	-0.000036
1650	1.6408e+02	3.5870	0.764786	0.000340	3.399274	0.575853	-0.000034
1651	1.6418e+02	3.5802	0.728939	0.000360	3.604050	0.610543	-0.000036
1652	1.6427e+02	3.5673	0.697981	0.000311	3.112589	0.527287	-0.000031
1653	1.6437e+02	3.5603	0.664172	0.000340	3.399274	0.575853	-0.000034
1654	1.6447e+02	3.5468	0.627511	0.000369	3.685960	0.624419	-0.000037
1655	1.6457e+02	3.5395	0.587184	0.000405	4.054556	0.686860	-0.000041
1656	1.6467e+02	3.5259	0.557856	0.000295	2.948768	0.499535	-0.000029
1657	1.6477e+02	3.5184	0.517529	0.000405	4.054556	0.686860	-0.000041
1658	1.6487e+02	3.5081	0.486163	0.000315	3.153544	0.534225	-0.000032
1659	1.6497e+02	3.4976	0.449910	0.000365	3.645005	0.617481	-0.000036
1660	1.6507e+02	3.4881	0.418137	0.000319	3.194499	0.541163	-0.000032
1661	1.6517e+02	3.4772	0.383106	0.000352	3.522140	0.596667	-0.000035
1662	1.6527e+02	3.4644	0.347260	0.000360	3.604050	0.610543	-0.000036
1663	1.6537e+02	3.4616	0.312228	0.000352	3.522140	0.596667	-0.000035
1664	1.6547e+02	3.4467	0.281270	0.000311	3.112589	0.527287	-0.000031
1665	1.6557e+02	3.4383	0.244609	0.000369	3.685960	0.624419	-0.000037
1666	1.6567e+02	3.4280	0.214059	0.000307	3.071633	0.520349	-0.000031
1667	1.6577e+02	3.4190	0.180249	0.000340	3.399274	0.575853	-0.000034
1668	1.6587e+02	3.4095	0.146847	0.000336	3.358319	0.568915	-0.000034
1669	1.6597e+02	3.3998	0.111408	0.000356	3.563095	0.603605	-0.000036
1670	1.6607e+02	3.3898	0.076377	0.000352	3.522140	0.596667	-0.000035
1671	1.6616e+02	3.3778	0.040123	0.000365	3.645005	0.617481	-0.000036
1672	1.6626e+02	3.3683	0.005499	0.000348	3.481185	0.589729	-0.000035
1673	1.6636e+02	3.3607	-0.027088	0.000328	3.276409	0.555039	-0.000033
1674	1.6646e+02	3.3488	-0.060083	0.000332	3.317364	0.561977	-0.000033
1675	1.6656e+02	3.3361	-0.097966	0.000381	3.808825	0.645232	-0.000038
1676	1.6666e+02	3.3295	-0.126480	0.000287	2.866858	0.485659	-0.000029
1677	1.6676e+02	3.3202	-0.160289	0.000340	3.399274	0.575853	-0.000034
1678	1.6686e+02	3.3106	-0.194913	0.000348	3.481185	0.589729	-0.000035
1679	1.6696e+02	3.2986	-0.231982	0.000373	3.726915	0.631357	-0.000037
1680	1.6706e+02	3.2863	-0.265384	0.000336	3.358319	0.568915	-0.000034
1681	1.6716e+02	3.2787	-0.293898	0.000287	2.866858	0.485659	-0.000029
1682	1.6726e+02	3.2728	-0.331781	0.000381	3.808825	0.645232	-0.000038
1683	1.6736e+02	3.2593	-0.369256	0.000377	3.767870	0.638295	-0.000038
1684	1.6746e+02	3.2488	-0.399399	0.000303	3.030678	0.513411	-0.000030
1685	1.6756e+02	3.2384	-0.433209	0.000340	3.399274	0.575853	-0.000034
1686	1.6766e+02	3.2303	-0.469055	0.000360	3.604050	0.610543	-0.000036
1687	1.6776e+02	3.2190	-0.503272	0.000344	3.440229	0.582791	-0.000034
1688	1.6786e+02	3.2116	-0.535452	0.000324	3.235454	0.548101	-0.000032
1689	1.6796e+02	3.2003	-0.569669	0.000344	3.440229	0.582791	-0.000034
1690	1.6806e+02	3.1894	-0.604700	0.000352	3.522140	0.596667	-0.000035
1691	1.6816e+02	3.1799	-0.640139	0.000356	3.563095	0.603605	-0.000036
1692	1.6825e+02	3.1696	-0.670690	0.000307	3.071633	0.520349	-0.000031
1693	1.6835e+02	3.1613	-0.706943	0.000365	3.645005	0.617481	-0.000036
1694	1.6845e+02	3.1498	-0.742789	0.000360	3.604050	0.610543	-0.000036
1695	1.6855e+02	3.1403	-0.775784	0.000332	3.317364	0.561977	-0.000033
1696	1.6865e+02	3.1316	-0.809593	0.000340	3.399274	0.575853	-0.000034
1697	1.6875e+02	3.1187	-0.841366	0.000319	3.194499	0.541163	-0.000032
1698	1.6885e+02	3.1089	-0.877620	0.000365	3.645005	0.617481	-0.000036
1699	1.6895e+02	3.0984	-0.911022	0.000336	3.358319	0.568915	-0.000034
1700	1.6905e+02	3.0904	-0.945646	0.000348	3.481185	0.589729	-0.000035
1701	1.6915e+02	3.0787	-0.981492	0.000360	3.604050	0.610543	-0.000036
1702	1.6925e+02	3.0726	-1.015709	0.000344	3.440229	0.582791	-0.000034
1703	1.6935e+02	3.0600	-1.051962	0.000365	3.645005	0.617481	-0.000036
1704	1.6945e+02	3.0544	-1.090660	0.000389	3.890736	0.659108	-0.000039
1705	1.6955e+02	3.0418	-1.123654	0.000332	3.317364	0.561977	-0.000033
1706	1.6965e+02	3.0298	-1.159501	0.000360	3.604050	0.610543	-0.000036
1707	1.6975e+02	3.0193	-1.196976	0.000377	3.767870	0.638295	-0.000038
1708	1.6985e+02	3.0088	-1.232822	0.000360	3.604050	0.610543	-0.000036
1709	1.6995e+02	3.0029	-1.268261	0.000356	3.563095	0.603605	-0.000036
1710	1.7005e+02	2.9899	-1.301663	0.000336	3.358319	0.568915	-0.000034
1711	1.7015e+02	2.9804	-1.338324	0.000369	3.685960	0.624419	-0.000037
1712	1.7024e+02	2.9715	-1.374170	0.000360	3.604050	0.610543	-0.000036
1713	1.7034e+02	2.9611	-1.414904	0.000410	4.095511	0.693798	-0.000041
1714	1.7044e+02	2.9549	-1.450343	0.000356	3.563095	0.603605	-0.000036
1715	1.7054e+02	2.9411	-1.486597	0.000365	3.645005	0.617481	-0.000036
1716	1.7064e+02	2.9321	-1.521628	0.000352	3.522140	0.596667	-0.000035
1717	1.7074e+02	2.9233	-1.555030	0.000336	3.358319	0.568915	-0.000034
1718	1.7084e+02	2.9096	-1.590062	0.000352	3.522140	0.596667	-0.000035
1719	1.7094e+02	2.9016	-1.625500	0.000356	3.563095	0.603605	-0.000036
1720	1.7104e+02	2.8896	-1.660532	0.000352	3.522140	0.596667	-0.000035
1721	1.7114e+02	2.8833	-1.697193	0.000369	3.685960	0.624419	-0.000037
1722	1.7124e+02	2.8728	-1.731410	0.000344	3.440229	0.582791	-0.000034
1723	1.7134e+02	2.8618	-1.768885	0.000377	3.767870	0.638295	-0.000038
1724	1.7144e+02	2.8525	-1.802694	0.000340	3.399274	0.575853	-0.000034
1725	1.7154e+02	2.8419	-1.836097	0.000336	3.358319	0.568915	-0.000034
1726	1.7164e+02	2.8291	-1.871128	0.000352	3.522140	0.596667	-0.000035
1727	1.7174e+02	2.8191	-1.903308	0.000324	3.235454	0.548101	-0.000032
1728	1.7184e+02	2.8148	-1.937525	0.000344	3.440229	0.582791	-0.000034
1729	1.7194e+02	2.8001	-1.966446	0.000291	2.907813	0.492597	-0.000029
1730	1.7204e+02	2.7901	-2.000256	0.000340	3.399274	0.575853	-0.000034
1731	1.7213e+02	2.7808	-2.035287	0.000352	3.522140	0.596667	-0.000035
1732	1.7223e+02	2.7703	-2.065430	0.000303	3.030678	0.513411	-0.000030
1733	1.7233e+02	2.7630	-2.098832	0.000336	3.358319	0.568915	-0.000034
1734	1.7243e+02	2.7502	-2.131420	0.000328	3.276409	0.555039	-0.000033
1735	1.7253e+02	2.7399	-2.165229	0.000340	3.399274	0.575853	-0.000034
1736	1.7263e+02	2.7324	-2.201075	0.000360	3.604050	0.610543	-0.000036
1737	1.7273e+02	2.7206	-2.233256	0.000324	3.235454	0.548101	-0.000032
1738	1.7283e+02	2.7123	-2.270324	0.000373	3.726915	0.631357	-0.000037
1739	1.7293e+02	2.7003	-2.302504	0.000324	3.235454	0.548101	-0.000032
1740	1.7303e+02	2.6900	-2.334276	0.000319	3.194499	0.541163	-0.000032
1741	1.7313e+02	2.6813	-2.364012	0.000299	2.989723	0.506473	-0.000030
1742	1.7323e+02	2.6698	-2.400266	0.000365	3.645005	0.617481	-0.000036
1743	1.7333e+02	2.6620	-2.431631	0.000315	3.153544	0.534225	-0.000032
1744	1.7343e+02	2.6534	-2.468700	0.000373	3.726915	0.631357	-0.000037
1745	1.7353e+02	2.6427	-2.501694	0.000332	3.317364	0.561977	-0.000033
1746	1.7363e+02	2.6318	-2.533467	0.000319	3.194499	0.541163	-0.000032
1747	1.7373e+02	2.6226	-2.566462	0.000332	3.317364	0.561977	-0.000033
1748	1.7383e+02	2.6134	-2.603937	0.000377	3.767870	0.638295	-0.000038
1749	1.7393e+02	2.6006	-2.640598	0.000369	3.685960	0.624419	-0.000037
1750	1.7403e+02	2.5916	-2.676852	0.000365	3.645005	0.617481	-0.000036
1751	1.7413e+02	2.5823	-2.709846	0.000332	3.317364	0.561977	-0.000033
1752	1.7422e+02	2.5710	-2.748137	0.000385	3.849781	0.652170	-0.000038
1753	1.7432e+02	2.5652	-2.780317	0.000324	3.235454	0.548101	-0.000032
1754	1.7442e+02	2.5528	-2.817385	0.000373	3.726915	0.631357	-0.000037
1755	1.7452e+02	2.5432	-2.850380	0.000332	3.317364	0.561977	-0.000033
1756	1.7462e+02	2.5333	-2.884189	0.000340	3.399274	0.575853	-0.000034
1757	1.7472e+02	2.5198	-2.919628	0.000356	3.563095	0.603605	-0.000036
1758	1.7482e+02	2.5124	-2.953845	0.000344	3.440229	0.582791	-0.000034
1759	1.7492e+02	2.5027	-2.988876	0.000352	3.522140	0.596667	-0.000035
1760	1.7502e+02	2.4957	-3.025944	0.000373	3.726915	0.631357	-0.000037
1761	1.7512e+02	2.4847	-3.057310	0.000315	3.153544	0.534225	-0.000032
1762	1.7522e+02	2.4737	-3.102525	0.000455	4.546017	0.770116	-0.000045
1763	1.7532e+02	2.4617	-3.136334	0.000340	3.399274	0.575853	-0.000034
1764	1.7542e+02	2.4533	-3.172587	0.000365	3.645005	0.617481	-0.000036
1765	1.7552e+02	2.4451	-3.207619	0.000352	3.522140	0.596667	-0.000035
1766	1.7562e+02	2.4334	-3.241836	0.000344	3.440229	0.582791	-0.000034
1767	1.7572e+02	2.4219	-3.273608	0.000319	3.194499	0.541163	-0.000032
1768	1.7582e+02	2.4142	-3.311899	0.000385	3.849781	0.652170	-0.000038
1769	1.7592e+02	2.4029	-3.352633	0.000410	4.095511	0.693798	-0.000041
1770	1.7602e+02	2.3911	-3.379925	0.000274	2.743992	0.464845	-0.000027
1771	1.7612e+02	2.3823	-3.421066	0.000414	4.136466	0.700736	-0.000041
1772	1.7621e+02	2.3734	-3.456098	0.000352	3.522140	0.596667	-0.000035
1773	1.7631e+02	2.3634	-3.493573	0.000377	3.767870	0.638295	-0.000038
1774	1.7641e+02	2.3533	-3.526975	0.000336	3.358319	0.568915	-0.000034
1775	1.7651e+02	2.3454	-3.564858	0.000381	3.808825	0.645232	-0.000038
1776	1.7661e+02	2.3353	-3.603963	0.000393	3.931691	0.666046	-0.000039
1777	1.7671e+02	2.3237	-3.640217	0.000365	3.645005	0.617481	-0.000036
1778	1.7681e+02	2.3158	-3.678914	0.000389	3.890736	0.659108	-0.000039
1779	1.7691e+02	2.3025	-3.714353	0.000356	3.563095	0.603605	-0.000036
1780	1.7701e+02	2.2943	-3.749792	0.000356	3.563095	0.603605	-0.000036
1781	1.7711e+02	2.2850	-3.787675	0.000381	3.808825	0.645232	-0.000038
1782	1.7721e+02	2.2759	-3.823928	0.000365	3.645005	0.617481	-0.000036
1783	1.7731e+02	2.2666	-3.860996	0.000373	3.726915	0.631357	-0.000037
1784	1.7741e+02	2.2533	-3.891954	0.000311	3.112589	0.527287	-0.000031
1785	1.7751e+02	2.2442	-3.930652	0.000389	3.890736	0.659108	-0.000039
1786	1.7761e+02	2.2333	-3.965683	0.000352	3.522140	0.596667	-0.000035
1787	1.7771e+02	2.2231	-4.003974	0.000385	3.849781	0.652170	-0.000038
1788	1.7781e+02	2.2124	-4.035339	0.000315	3.153544	0.534225	-0.000032
1789	1.7791e+02	2.2056	-4.075259	0.000401	4.013601	0.679922	-0.000040
1790	1.7801e+02	2.1951	-4.109475	0.000344	3.440229	0.582791	-0.000034
1791	1.7810e+02	2.1844	-4.145729	0.000365	3.645005	0.617481	-0.000036
1792	1.7820e+02	2.1745	-4.184019	0.000385	3.849781	0.652170	-0.000038
1793	1.7830e+02	2.1651	-4.217014	0.000332	3.317364	0.561977	-0.000033
1794	1.7840e+02	2.1540	-4.250009	0.000332	3.317364	0.561977	-0.000033
1795	1.7850e+02	2.1456	-4.289521	0.000397	3.972646	0.672984	-0.000040
1796	1.7860e+02	2.1340	-4.323738	0.000344	3.440229	0.582791	-0.000034
1797	1.7870e+02	2.1259	-4.361620	0.000381	3.808825	0.645232	-0.000038
1798	1.7880e+02	2.1171	-4.395430	0.000340	3.399274	0.575853	-0.000034
1799	1.7890e+02	2.1046	-4.436571	0.000414	4.136466	0.700736	-0.000041
1800	1.7900e+02	2.0931	-4.470381	0.000340	3.399274	0.575853	-0.000034
1801	1.7910e+02	2.0882	-4.505005	0.000348	3.481185	0.589729	-0.000035
1802	1.7920e+02	2.0769	-4.543295	0.000385	3.849781	0.652170	-0.000038
1803	1.7930e+02	2.0658	-4.581993	0.000389	3.890736	0.659108	-0.000039
1804	1.7940e+02	2.0558	-4.624764	0.000430	4.300287	0.728488	-0.000043
1805	1.7950e+02	2.0461	-4.658166	0.000336	3.358319	0.568915	-0.000034
1806	1.7960e+02	2.0354	-4.696049	0.000381	3.808825	0.645232	-0.000038
1807	1.7970e+02	2.0246	-4.735968	0.000401	4.013601	0.679922	-0.000040
1808	1.7980e+02	2.0150	-4.772629	0.000369	3.685960	0.624419	-0.000037
1809	1.7990e+02	2.0025	-4.813363	0.000410	4.095511	0.693798	-0.000041
1810	1.8000e+02	1.9938	-4.850024	0.000369	3.685960	0.624419	-0.000037
1811	1.8009e+02	1.9875	-4.889944	0.000401	4.013601	0.679922	-0.000040
1812	1.8019e+02	1.9753	-4.930271	0.000405	4.054556	0.686860	-0.000041
1813	1.8029e+02	1.9664	-4.970190	0.000401	4.013601	0.679922	-0.000040
1814	1.8039e+02	1.9582	-5.010110	0.000401	4.013601	0.679922	-0.000040
1815	1.8049e+02	1.9421	-5.051251	0.000414	4.136466	0.700736	-0.000041
1816	1.8059e+02	1.9370	-5.092393	0.000414	4.136466	0.700736	-0.000041
1817	1.8069e+02	1.9244	-5.132720	0.000405	4.054556	0.686860	-0.000041
1818	1.8079e+02	1.9140	-5.174269	0.000418	4.177421	0.707674	-0.000042
1819	1.8089e+02	1.9076	-5.209708	0.000356	3.563095	0.603605	-0.000036
1820	1.8099e+02	1.8980	-5.250849	0.000414	4.136466	0.700736	-0.000041
1821	1.8109e+02	1.8854	-5.289139	0.000385	3.849781	0.652170	-0.000038
1822	1.8119e+02	1.8752	-5.332725	0.000438	4.382197	0.742364	-0.000044
1823	1.8129e+02	1.8645	-5.372237	0.000397	3.972646	0.672984	-0.000040
1824	1.8139e+02	1.8584	-5.414194	0.000422	4.218377	0.714612	-0.000042
1825	1.8149e+02	1.8478	-5.455335	0.000414	4.136466	0.700736	-0.000041
1826	1.8159e+02	1.8356	-5.498921	0.000438	4.382197	0.742364	-0.000044
1827	1.8169e+02	1.8267	-5.539655	0.000410	4.095511	0.693798	-0.000041
1828	1.8179e+02	1.8191	-5.578760	0.000393	3.931691	0.666046	-0.000039
1829	1.8189e+02	1.8078	-5.617457	0.000389	3.890736	0.659108	-0.000039
1830	1.8199e+02	1.7981	-5.661043	0.000438	4.382197	0.742364	-0.000044
1831	1.8209e+02	1.7850	-5.697297	0.000365	3.645005	0.617481	-0.000036
1832	1.8218e+02	1.7773	-5.736401	0.000393	3.931691	0.666046	-0.000039
1833	1.8228e+02	1.7670	-5.776728	0.000405	4.054556	0.686860	-0.000041
1834	1.8238e+02	1.7568	-5.815426	0.000389	3.890736	0.659108	-0.000039
1835	1.8248e+02	1.7454	-5.858604	0.000434	4.341242	0.735426	-0.000043
1836	1.8258e+02	1.7358	-5.895265	0.000369	3.685960	0.624419	-0.000037
1837	1.8268e+02	1.7280	-5.936407	0.000414	4.136466	0.700736	-0.000041
1838	1.8278e+02	1.7164	-5.976326	0.000401	4.013601	0.679922	-0.000040
1839	1.8288e+02	1.7085	-6.016246	0.000401	4.013601	0.679922	-0.000040
1840	1.8298e+02	1.6964	-6.054129	0.000381	3.808825	0.645232	-0.000038
1841	1.8308e+02	1.6864	-6.097714	0.000438	4.382197	0.742364	-0.000044
1842	1.8318e+02	1.6757	-6.137634	0.000401	4.013601	0.679922	-0.000040
1843	1.8328e+02	1.6660	-6.176739	0.000393	3.931691	0.666046	-0.000039
1844	1.8338e+02	1.6570	-6.219917	0.000434	4.341242	0.735426	-0.000043
1845	1.8348e+02	1.6491	-6.256985	0.000373	3.726915	0.631357	-0.000037
1846	1.8358e+02	1.6374	-6.295275	0.000385	3.849781	0.652170	-0.000038
1847	1.8368e+02	1.6309	-6.338454	0.000434	4.341242	0.735426	-0.000043
1848	1.8378e+02	1.6180	-6.376744	0.000385	3.849781	0.652170	-0.000038
1849	1.8388e+02	1.6080	-6.419108	0.000426	4.259332	0.721550	-0.000043
1850	1.8398e+02	1.5969	-6.455361	0.000365	3.645005	0.617481	-0.000036
1851	1.8407e+02	1.5890	-6.500169	0.000451	4.505062	0.763178	-0.000045
1852	1.8417e+02	1.5755	-6.540088	0.000401	4.013601	0.679922	-0.000040
1853	1.8427e+02	1.5675	-6.575934	0.000360	3.604050	0.610543	-0.000036
1854	1.8437e+02	1.5599	-6.616669	0.000410	4.095511	0.693798	-0.000041
1855	1.8447e+02	1.5453	-6.659847	0.000434	4.341242	0.735426	-0.000043
1856	1.8457e+02	1.5372	-6.698952	0.000393	3.931691	0.666046	-0.000039
1857	1.8467e+02	1.5276	-6.736427	0.000377	3.767870	0.638295	-0.000038
1858	1.8477e+02	1.5179	-6.778384	0.000422	4.218377	0.714612	-0.000042
1859	1.8487e+02	1.5081	-6.816674	0.000385	3.849781	0.652170	-0.000038
1860	1.8497e+02	1.5018	-6.862296	0.000459	4.586973	0.777054	-0.000046
1861	1.8507e+02	1.4894	-6.897735	0.000356	3.563095	0.603605	-0.000036
1862	1.8517e+02	1.4793	-6.941321	0.000438	4.382197	0.742364	-0.000044
1863	1.8527e+02	1.4684	-6.981648	0.000405	4.054556	0.686860	-0.000041
1864	1.8537e+02	1.4599	-7.020345	0.000389	3.890736	0.659108	-0.000039
1865	1.8547e+02	1.4498	-7.061894	0.000418	4.177421	0.707674	-0.000042
1866	1.8557e+02	1.4400	-7.102221	0.000405	4.054556	0.686860	-0.000041
1867	1.8567e+02	1.4285	-7.141326	0.000393	3.931691	0.666046	-0.000039
1868	1.8577e+02	1.4185	-7.181653	0.000405	4.054556	0.686860	-0.000041
1869	1.8587e+02	1.4091	-7.225239	0.000438	4.382197	0.742364	-0.000044
1870	1.8597e+02	1.4006	-7.270046	0.000451	4.505062	0.763178	-0.000045
1871	1.8606e+02	1.3901	-7.309558	0.000397	3.972646	0.672984	-0.000040
1872	1.8616e+02	1.3767	-7.350700	0.000414	4.136466	0.700736	-0.000041
1873	1.8626e+02	1.3658	-7.392656	0.000422	4.218377	0.714612	-0.000042
1874	1.8636e+02	1.3576	-7.434205	0.000418	4.177421	0.707674	-0.000042
1875	1.8646e+02	1.3499	-7.478198	0.000442	4.423152	0.749302	-0.000044
1876	1.8656e+02	1.3404	-7.518525	0.000405	4.054556	0.686860	-0.000041
1877	1.8666e+02	1.3275	-7.561296	0.000430	4.300287	0.728488	-0.000043
1878	1.8676e+02	1.3183	-7.603252	0.000422	4.218377	0.714612	-0.000042
1879	1.8686e+02	1.3103	-7.646431	0.000434	4.341242	0.735426	-0.000043
1880	1.8696e+02	1.2988	-7.685536	0.000393	3.931691	0.666046	-0.000039
1881	1.8706e+02	1.2897	-7.727492	0.000422	4.218377	0.714612	-0.000042
1882	1.8716e+02	1.2767	-7.773929	0.000467	4.668883	0.790930	-0.000047
1883	1.8726e+02	1.2661	-7.815478	0.000418	4.177421	0.707674	-0.000042
1884	1.8736e+02	1.2623	-7.854175	0.000389	3.890736	0.659108	-0.000039
1885	1.8746e+02	1.2489	-7.898576	0.000446	4.464107	0.756240	-0.000045
1886	1.8756e+02	1.2395	-7.937681	0.000393	3.931691	0.666046	-0.000039
1887	1.8766e+02	1.2306	-7.983303	0.000459	4.586973	0.777054	-0.000046
1888	1.8776e+02	1.2216	-8.020371	0.000373	3.726915	0.631357	-0.000037
1889	1.8786e+02	1.2115	-8.063957	0.000438	4.382197	0.742364	-0.000044
1890	1.8796e+02	1.1992	-8.104284	0.000405	4.054556	0.686860	-0.000041
1891	1.8806e+02	1.1913	-8.141759	0.000377	3.767870	0.638295	-0.000038
1892	1.8815e+02	1.1778	-8.185752	0.000442	4.423152	0.749302	-0.000044
1893	1.8825e+02	1.1701	-8.225672	0.000401	4.013601	0.679922	-0.000040
1894	1.8835e+02	1.1629	-8.265184	0.000397	3.972646	0.672984	-0.000040
1895	1.8845e+02	1.1501	-8.304696	0.000397	3.972646	0.672984	-0.000040
1896	1.8855e+02	1.1398	-8.343394	0.000389	3.890736	0.659108	-0.000039
1897	1.8865e+02	1.1302	-8.385757	0.000426	4.259332	0.721550	-0.000043
1898	1.8875e+02	1.1182	-8.421604	0.000360	3.604050	0.610543	-0.000036
1899	1.8885e+02	1.1119	-8.465597	0.000442	4.423152	0.749302	-0.000044
1900	1.8895e+02	1.0995	-8.504294	0.000389	3.890736	0.659108	-0.000039
1901	1.8905e+02	1.0902	-8.541770	0.000377	3.767870	0.638295	-0.000038
1902	1.8915e+02	1.0783	-8.579652	0.000381	3.808825	0.645232	-0.000038
1903	1.8925e+02	1.0695	-8.624053	0.000446	4.464107	0.756240	-0.000045
1904	1.8935e+02	1.0607	-8.663158	0.000393	3.931691	0.666046	-0.000039
1905	1.8945e+02	1.0500	-8.703485	0.000405	4.054556	0.686860	-0.000041
1906	1.8955e+02	1.0400	-8.742182	0.000389	3.890736	0.659108	-0.000039
1907	1.8965e+02	1.0295	-8.781694	0.000397	3.972646	0.672984	-0.000040
1908	1.8975e+02	1.0207	-8.820799	0.000393	3.931691	0.666046	-0.000039
1909	1.8985e+02	1.0119	-8.860312	0.000397	3.972646	0.672984	-0.000040
1910	1.8995e+02	1.0007	-8.901453	0.000414	4.136466	0.700736	-0.000041
1911	1.9004e+02	0.9930	-8.936485	0.000352	3.522140	0.596667	-0.000035
1912	1.9014e+02	0.9837	-8.979256	0.000430	4.300287	0.728488	-0.000043
1913	1.9024e+02	0.9708	-9.020804	0.000418	4.177421	0.707674	-0.000042
1914	1.9034e+02	0.9617	-9.062761	0.000422	4.218377	0.714612	-0.000042
1915	1.9044e+02	0.9496	-9.105124	0.000426	4.259332	0.721550	-0.000043
1916	1.9054e+02	0.9412	-9.143822	0.000389	3.890736	0.659108	-0.000039
1917	1.9064e+02	0.9331	-9.184964	0.000414	4.136466	0.700736	-0.000041
1918	1.9074e+02	0.9196	-9.230993	0.000463	4.627928	0.783992	-0.000046
1919	1.9084e+02	0.9134	-9.269691	0.000389	3.890736	0.659108	-0.000039
1920	1.9094e+02	0.8988	-9.309203	0.000397	3.972646	0.672984	-0.000040
1921	1.9104e+02	0.8893	-9.352789	0.000438	4.382197	0.742364	-0.000044
1922	1.9114e+02	0.8816	-9.398004	0.000455	4.546017	0.770116	-0.000045
1923	1.9124e+02	0.8756	-9.438331	0.000405	4.054556	0.686860	-0.000041
1924	1.9134e+02	0.8592	-9.478658	0.000405	4.054556	0.686860	-0.000041
1925	1.9144e+02	0.8519	-9.517762	0.000393	3.931691	0.666046	-0.000039
1926	1.9154e+02	0.8423	-9.564199	0.000467	4.668883	0.790930	-0.000047
1927	1.9164e+02	0.8317	-9.602897	0.000389	3.890736	0.659108	-0.000039
1928	1.9174e+02	0.8230	-9.644853	0.000422	4.218377	0.714612	-0.000042
1929	1.9184e+02	0.8122	-9.687624	0.000430	4.300287	0.728488	-0.000043
1930	1.9194e+02	0.8010	-9.731617	0.000442	4.423152	0.749302	-0.000044
1931	1.9203e+02	0.7936	-9.772759	0.000414	4.136466	0.700736	-0.000041
1932	1.9213e+02	0.7824	-9.815122	0.000426	4.259332	0.721550	-0.000043
1933	1.9223e+02	0.7703	-9.859115	0.000442	4.423152	0.749302	-0.000044
1934	1.9233e+02	0.7626	-9.902701	0.000438	4.382197	0.742364	-0.000044
1935	1.9243e+02	0.7510	-9.940584	0.000381	3.808825	0.645232	-0.000038
1936	1.9253e+02	0.7411	-9.984170	0.000438	4.382197	0.742364	-0.000044
1937	1.9263e+02	0.7284	-10.030199	0.000463	4.627928	0.783992	-0.000046
1938	1.9273e+02	0.7229	-10.071341	0.000414	4.136466	0.700736	-0.000041
1939	1.9283e+02	0.7121	-10.114519	0.000434	4.341242	0.735426	-0.000043
1940	1.9293e+02	0.7014	-10.155661	0.000414	4.136466	0.700736	-0.000041
1941	1.9303e+02	0.6921	-10.199246	0.000438	4.382197	0.742364	-0.000044
1942	1.9313e+02	0.6819	-10.244461	0.000455	4.546017	0.770116	-0.000045
1943	1.9323e+02	0.6734	-10.286010	0.000418	4.177421	0.707674	-0.000042
1944	1.9333e+02	0.6628	-10.329189	0.000434	4.341242	0.735426	-0.000043
1945	1.9343e+02	0.6516	-10.372367	0.000434	4.341242	0.735426	-0.000043
1946	1.9353e+02	0.6409	-10.412287	0.000401	4.013601	0.679922	-0.000040
1947	1.9363e+02	0.6329	-10.460760	0.000487	4.873658	0.825620	-0.000049
1948	1.9373e+02	0.6204	-10.501902	0.000414	4.136466	0.700736	-0.000041
1949	1.9383e+02	0.6116	-10.542636	0.000410	4.095511	0.693798	-0.000041
1950	1.9393e+02	0.6024	-10.588666	0.000463	4.627928	0.783992	-0.000046
1951	1.9403e+02	0.5927	-10.631437	0.000430	4.300287	0.728488	-0.000043
1952	1.9412e+02	0.5823	-10.674208	0.000430	4.300287	0.728488	-0.000043
1953	1.9422e+02	0.5685	-10.714127	0.000401	4.013601	0.679922	-0.000040
1954	1.9432e+02	0.5623	-10.755676	0.000418	4.177421	0.707674	-0.000042
1955	1.9442e+02	0.5521	-10.800484	0.000451	4.505062	0.763178	-0.000045
1956	1.9452e+02	0.5418	-10.846106	0.000459	4.586973	0.777054	-0.000046
1957	1.9462e+02	0.5310	-10.885619	0.000397	3.972646	0.672984	-0.000040
1958	1.9472e+02	0.5215	-10.930426	0.000451	4.505062	0.763178	-0.000045
1959	1.9482e+02	0.5138	-10.972383	0.000422	4.218377	0.714612	-0.000042
1960	1.9492e+02	0.5054	-11.015154	0.000430	4.300287	0.728488	-0.000043
1961	1.9502e+02	0.4936	-11.059554	0.000446	4.464107	0.756240	-0.000045
1962	1.9512e+02	0.4850	-11.101510	0.000422	4.218377	0.714612	-0.000042
1963	1.9522e+02	0.4731	-11.140208	0.000389	3.890736	0.659108	-0.000039
1964	1.9532e+02	0.4618	-11.186237	0.000463	4.627928	0.783992	-0.000046
1965	1.9542e+02	0.4507	-11.231453	0.000455	4.546017	0.770116	-0.000045
1966	1.9552e+02	0.4432	-11.273816	0.000426	4.259332	0.721550	-0.000043
1967	1.9562e+02	0.4307	-11.312514	0.000389	3.890736	0.659108	-0.000039
1968	1.9572e+02	0.4227	-11.359358	0.000471	4.709838	0.797868	-0.000047
1969	1.9582e+02	0.4108	-11.403351	0.000442	4.423152	0.749302	-0.000044
1970	1.9592e+02	0.4030	-11.446937	0.000438	4.382197	0.742364	-0.000044
1971	1.9601e+02	0.3925	-11.488078	0.000414	4.136466	0.700736	-0.000041
1972	1.9611e+02	0.3781	-11.534108	0.000463	4.627928	0.783992	-0.000046
1973	1.9621e+02	0.3739	-11.578508	0.000446	4.464107	0.756240	-0.000045
1974	1.9631e+02	0.3629	-11.623723	0.000455	4.546017	0.770116	-0.000045
1975	1.9641e+02	0.3555	-11.670160	0.000467	4.668883	0.790930	-0.000047
1976	1.9651e+02	0.3439	-11.711709	0.000418	4.177421	0.707674	-0.000042
1977	1.9661e+02	0.3334	-11.756517	0.000451	4.505062	0.763178	-0.000045
1978	1.9671e+02	0.3230	-11.808250	0.000520	5.201299	0.881124	-0.000052
1979	1.9681e+02	0.3139	-11.851835	0.000438	4.382197	0.742364	-0.000044
1980	1.9691e+02	0.3030	-11.900309	0.000487	4.873658	0.825620	-0.000049
1981	1.9701e+02	0.2944	-11.944302	0.000442	4.423152	0.749302	-0.000044
1982	1.9711e+02	0.2839	-11.993183	0.000491	4.914613	0.832558	-0.000049
1983	1.9721e+02	0.2749	-12.040027	0.000471	4.709838	0.797868	-0.000047
1984	1.9731e+02	0.2647	-12.088094	0.000483	4.832703	0.818682	-0.000048
1985	1.9741e+02	0.2551	-12.133716	0.000459	4.586973	0.777054	-0.000046
1986	1.9751e+02	0.2449	-12.182190	0.000487	4.873658	0.825620	-0.000049
1987	1.9761e+02	0.2322	-12.226590	0.000446	4.464107	0.756240	-0.000045
1988	1.9771e+02	0.2258	-12.275064	0.000487	4.873658	0.825620	-0.000049
1989	1.9781e+02	0.2129	-12.323131	0.000483	4.832703	0.818682	-0.000048
1990	1.9791e+02	0.2025	-12.367531	0.000446	4.464107	0.756240	-0.000045
1991	1.9800e+02	0.1975	-12.414783	0.000475	4.750793	0.804806	-0.000047
1992	1.9810e+02	0.1842	-12.463256	0.000487	4.873658	0.825620	-0.000049
1993	1.9820e+02	0.1719	-12.512545	0.000496	4.955569	0.839496	-0.000050
1994	1.9830e+02	0.1642	-12.560611	0.000483	4.832703	0.818682	-0.000048
1995	1.9840e+02	0.1551	-12.608270	0.000479	4.791748	0.811744	-0.000048
1996	1.9850e+02	0.1435	-12.656744	0.000487	4.873658	0.825620	-0.000049
1997	1.9860e+02	0.1352	-12.705625	0.000491	4.914613	0.832558	-0.000049
1998	1.9870e+02	0.1242	-12.747581	0.000422	4.218377	0.714612	-0.000042
1999	1.9880e+02	0.1138	-12.795241	0.000479	4.791748	0.811744	-0.000048
2000	1.9890e+02	0.1064	-12.839641	0.000446	4.464107	0.756240	-0.000045
2001	1.9900e+02	0.0947	-12.886485	0.000471	4.709838	0.797868	-0.000047
2002	1.9910e+02	0.0856	-12.932922	0.000467	4.668883	0.790930	-0.000047
2003	1.9920e+02	0.0731	-12.981803	0.000491	4.914613	0.832558	-0.000049
2004	1.9930e+02	0.0646	-13.026204	0.000446	4.464107	0.756240	-0.000045
2005	1.9940e+02	0.0555	-13.075085	0.000491	4.914613	0.832558	-0.000049
2006	1.9950e+02	0.0464	-13.120707	0.000459	4.586973	0.777054	-0.000046
2007	1.9960e+02	0.0362	-13.168366	0.000479	4.791748	0.811744	-0.000048
2008	1.9970e+02	0.0237	-13.218062	0.000500	4.996524	0.846434	-0.000050
2009	1.9980e+02	0.0154	-13.259204	0.000414	4.136466	0.700736	-0.000041
2010	1.9990e+02	0.0068	-13.310529	0.000516	5.160344	0.874186	-0.000052
2011	2.0000e+02	-0.0039	-13.352893	0.000516	5.160344	0.874186	-0.000043

PMax (uC/cm2):	3.26e+01
Pr (uC/cm2):	2.93e+00
-Pr (uC/cm2):	0.00e+00
PLoss (uC/cm2):	0.00e+00
C (Max-Eff) (nF):	3.26e-01
K (Eff):	5.52e+02
Vert. (+/-Pr) Shift (uC/cm2):	1.46e+00
Offset (uC/cm2):	1.63e+01

A (Loop Area - uC/cm2·Volts):	-2.95e-02



Hysteresis Version: 5.48.1 - Radiant Technologies, Inc., 1999 - 9/12/24

