»»»»»»»»»»»»»»»»»»»»»»»»»»»»»»»»»»»» Hysteresis ««««««««««««««««««««««««««««««««««««
»»»  Executed Version:	5.48.1
»»»  Vision Version:	5.48.4 (R)
»»»  Vision Compiled:	9/18/24
»»»  Driver Version:	5.47.0
»»»  Windows Version:	Windows 8 or 8.1
»»»  Processor Information:	x86 (AMD or Intel) - 32 Processors
»»»  Tester Name:	PMF21124-494 (100V)
»»»  Tester S/N:	PMF21124-494
»»»  Internal Amp Type:	100V RevK 270k
»»»  Internal Amp S/N:	iAB2-596/K     
»»»  Execution Count:	1
»»»»»»»»»»»»»»»»»»»»»»»»»»»»»»»»»»»»»»»»»»««««««««««««««««««««««««««««««««««««««««««

Stored:	6/25/2025 - 14:46:31
Configured:	06/25/25 10:44:40 AM
Executed:	06/25/25 02:45:56 PM

»»»»»»»»»»»»»»»»»»»»»»»»»»»»»»»»»»» Sample Info ««««««««««««««««««««««««««««««««««««
Sample Name:	
Lot Name:	
Wafer Name:	
Die Row/Column:	0/0
Capacitor Number:	0
Sample Area (cm2):	1.00e-04
Sample Thickness (microns):	1.50e-01

Amplifier:	Internal

»»»»»»»»»»»»»»»»»»»»»»»»»»»»»»»»»»» Tester Info «««««««««««««««««««««««««««««««««««
Tester Name:	PMF21124-494 (100V)
Tester Serial Number:	PMF21124-494
Return Signal Amp. Level:	1.9 [Index: 2]

»»»»»»»»»»»»»»»»»»»»»»»»»»»»»»»» Hysteresis Info ««««««««««««««««««««««««««««««««««
Task Name:	Hyst-116
Volts:	10.00
Field:	666.67 (kV/cm)
DCBias:	0.00
DCField:	0.00 (kV/cm)
Hysteresis Period (ms):	2.00e+02
Preset:	Enabled
Preset Delay (ms):	1.00e+03
Profile:	Standard Monopolar

»»»»»»»»»»»»»»»»»»»»»»»»»»»»»»»»»»»»»» Data «««««««««««««««««««««««««««««««««««««««
Points:	2011

Valid Data

Point	Time (ms)	Drive Voltage	Measured Polarization (uC/cm2)	Capacitance (uF)	Normalized Capacitance (uF/cm2)	Dielectric Constant	Instantaneous Current (mA)
   1	0.0000e+00	-0.0040	-15.392660	0.000299	2.989176	0.506380	0.000030
   2	9.9500e-02	0.0050	-15.362924	0.000299	2.989176	0.506380	0.000030
   3	1.9900e-01	0.0128	-15.321375	0.000418	4.176656	0.707545	0.000042
   4	2.9850e-01	0.0266	-15.283493	0.000381	3.808128	0.645114	0.000038
   5	3.9800e-01	0.0349	-15.252942	0.000307	3.071071	0.520253	0.000031
   6	4.9750e-01	0.0447	-15.210578	0.000426	4.258552	0.721418	0.000043
   7	5.9700e-01	0.0557	-15.175139	0.000356	3.562442	0.603494	0.000036
   8	6.9650e-01	0.0642	-15.140108	0.000352	3.521495	0.596557	0.000035
   9	7.9600e-01	0.0735	-15.099374	0.000409	4.094761	0.693671	0.000041
  10	8.9550e-01	0.0847	-15.059454	0.000401	4.012866	0.679798	0.000040
  11	9.9500e-01	0.0973	-15.018720	0.000409	4.094761	0.693671	0.000041
  12	1.0945e+00	0.1079	-14.983281	0.000356	3.562442	0.603494	0.000036
  13	1.1940e+00	0.1162	-14.940510	0.000430	4.299499	0.728355	0.000043
  14	1.2935e+00	0.1237	-14.902627	0.000381	3.808128	0.645114	0.000038
  15	1.3930e+00	0.1330	-14.865966	0.000369	3.685285	0.624304	0.000037
  16	1.4925e+00	0.1451	-14.820344	0.000459	4.586132	0.776912	0.000046
  17	1.5920e+00	0.1550	-14.785720	0.000348	3.480547	0.589621	0.000035
  18	1.6915e+00	0.1650	-14.743356	0.000426	4.258552	0.721418	0.000043
  19	1.7910e+00	0.1758	-14.702215	0.000414	4.135709	0.700608	0.000041
  20	1.8905e+00	0.1850	-14.661073	0.000414	4.135709	0.700608	0.000041
  21	1.9900e+00	0.1967	-14.620339	0.000409	4.094761	0.693671	0.000041
  22	2.0895e+00	0.2021	-14.582456	0.000381	3.808128	0.645114	0.000038
  23	2.1890e+00	0.2161	-14.541314	0.000414	4.135709	0.700608	0.000041
  24	2.2885e+00	0.2269	-14.500173	0.000414	4.135709	0.700608	0.000041
  25	2.3880e+00	0.2366	-14.460253	0.000401	4.012866	0.679798	0.000040
  26	2.4875e+00	0.2433	-14.419926	0.000405	4.053813	0.686735	0.000041
  27	2.5870e+00	0.2544	-14.379192	0.000409	4.094761	0.693671	0.000041
  28	2.6865e+00	0.2644	-14.338865	0.000405	4.053813	0.686735	0.000041
  29	2.7860e+00	0.2773	-14.303019	0.000360	3.603390	0.610431	0.000036
  30	2.8855e+00	0.2853	-14.262285	0.000409	4.094761	0.693671	0.000041
  31	2.9850e+00	0.2934	-14.219921	0.000426	4.258552	0.721418	0.000043
  32	3.0845e+00	0.3036	-14.182853	0.000373	3.726233	0.631241	0.000037
  33	3.1840e+00	0.3186	-14.140897	0.000422	4.217604	0.714481	0.000042
  34	3.2835e+00	0.3244	-14.103014	0.000381	3.808128	0.645114	0.000038
  35	3.3830e+00	0.3326	-14.065131	0.000381	3.808128	0.645114	0.000038
  36	3.4825e+00	0.3431	-14.028877	0.000364	3.644337	0.617367	0.000036
  37	3.5820e+00	0.3547	-13.986107	0.000430	4.299499	0.728355	0.000043
  38	3.6815e+00	0.3625	-13.946594	0.000397	3.971918	0.672861	0.000040
  39	3.7810e+00	0.3727	-13.908304	0.000385	3.849075	0.652051	0.000038
  40	3.8805e+00	0.3857	-13.869199	0.000393	3.930971	0.665924	0.000039
  41	3.9800e+00	0.3939	-13.826428	0.000430	4.299499	0.728355	0.000043
  42	4.0795e+00	0.4037	-13.786101	0.000405	4.053813	0.686735	0.000041
  43	4.1790e+00	0.4121	-13.750663	0.000356	3.562442	0.603494	0.000036
  44	4.2785e+00	0.4239	-13.710336	0.000405	4.053813	0.686735	0.000041
  45	4.3780e+00	0.4327	-13.667565	0.000430	4.299499	0.728355	0.000043
  46	4.4775e+00	0.4443	-13.630496	0.000373	3.726233	0.631241	0.000037
  47	4.5770e+00	0.4518	-13.591392	0.000393	3.930971	0.665924	0.000039
  48	4.6765e+00	0.4596	-13.549843	0.000418	4.176656	0.707545	0.000042
  49	4.7760e+00	0.4747	-13.511552	0.000385	3.849075	0.652051	0.000038
  50	4.8755e+00	0.4840	-13.472040	0.000397	3.971918	0.672861	0.000040
  51	4.9750e+00	0.4945	-13.432121	0.000401	4.012866	0.679798	0.000040
  52	5.0745e+00	0.5026	-13.391386	0.000409	4.094761	0.693671	0.000041
  53	5.1740e+00	0.5128	-13.351467	0.000401	4.012866	0.679798	0.000040
  54	5.2735e+00	0.5252	-13.317657	0.000340	3.398652	0.575747	0.000034
  55	5.3730e+00	0.5328	-13.275701	0.000422	4.217604	0.714481	0.000042
  56	5.4725e+00	0.5423	-13.232930	0.000430	4.299499	0.728355	0.000043
  57	5.5720e+00	0.5525	-13.197084	0.000360	3.603390	0.610431	0.000036
  58	5.6715e+00	0.5624	-13.156350	0.000409	4.094761	0.693671	0.000041
  59	5.7710e+00	0.5744	-13.118874	0.000377	3.767180	0.638178	0.000038
  60	5.8705e+00	0.5808	-13.076511	0.000426	4.258552	0.721418	0.000043
  61	5.9700e+00	0.5943	-13.040257	0.000364	3.644337	0.617367	0.000036
  62	6.0695e+00	0.6029	-13.001560	0.000389	3.890023	0.658988	0.000039
  63	6.1690e+00	0.6124	-12.958789	0.000430	4.299499	0.728355	0.000043
  64	6.2685e+00	0.6226	-12.923350	0.000356	3.562442	0.603494	0.000036
  65	6.3680e+00	0.6325	-12.884245	0.000393	3.930971	0.665924	0.000039
  66	6.4675e+00	0.6436	-12.843103	0.000414	4.135709	0.700608	0.000041
  67	6.5670e+00	0.6519	-12.806442	0.000369	3.685285	0.624304	0.000037
  68	6.6665e+00	0.6615	-12.765301	0.000414	4.135709	0.700608	0.000041
  69	6.7660e+00	0.6715	-12.726196	0.000393	3.930971	0.665924	0.000039
  70	6.8655e+00	0.6841	-12.685869	0.000405	4.053813	0.686735	0.000041
  71	6.9650e+00	0.6922	-12.643913	0.000422	4.217604	0.714481	0.000042
  72	7.0645e+00	0.7008	-12.608067	0.000360	3.603390	0.610431	0.000036
  73	7.1640e+00	0.7121	-12.569776	0.000385	3.849075	0.652051	0.000038
  74	7.2635e+00	0.7234	-12.529042	0.000409	4.094761	0.693671	0.000041
  75	7.3630e+00	0.7290	-12.488715	0.000405	4.053813	0.686735	0.000041
  76	7.4625e+00	0.7417	-12.451240	0.000377	3.767180	0.638178	0.000038
  77	7.5620e+00	0.7497	-12.413357	0.000381	3.808128	0.645114	0.000038
  78	7.6615e+00	0.7612	-12.370586	0.000430	4.299499	0.728355	0.000043
  79	7.7610e+00	0.7733	-12.331074	0.000397	3.971918	0.672861	0.000040
  80	7.8605e+00	0.7826	-12.288710	0.000426	4.258552	0.721418	0.000043
  81	7.9600e+00	0.7916	-12.247161	0.000418	4.176656	0.707545	0.000042
  82	8.0595e+00	0.8020	-12.209278	0.000381	3.808128	0.645114	0.000038
  83	8.1590e+00	0.8125	-12.167729	0.000418	4.176656	0.707545	0.000042
  84	8.2585e+00	0.8225	-12.127402	0.000405	4.053813	0.686735	0.000041
  85	8.3580e+00	0.8317	-12.086261	0.000414	4.135709	0.700608	0.000041
  86	8.4575e+00	0.8413	-12.044712	0.000418	4.176656	0.707545	0.000042
  87	8.5570e+00	0.8529	-12.006422	0.000385	3.849075	0.652051	0.000038
  88	8.6565e+00	0.8598	-11.965280	0.000414	4.135709	0.700608	0.000041
  89	8.7560e+00	0.8714	-11.926990	0.000385	3.849075	0.652051	0.000038
  90	8.8555e+00	0.8800	-11.888292	0.000389	3.890023	0.658988	0.000039
  91	8.9550e+00	0.8915	-11.848780	0.000397	3.971918	0.672861	0.000040
  92	9.0545e+00	0.9023	-11.807231	0.000418	4.176656	0.707545	0.000042
  93	9.1540e+00	0.9124	-11.766904	0.000405	4.053813	0.686735	0.000041
  94	9.2535e+00	0.9218	-11.731058	0.000360	3.603390	0.610431	0.000036
  95	9.3530e+00	0.9300	-11.691139	0.000401	4.012866	0.679798	0.000040
  96	9.4525e+00	0.9435	-11.652848	0.000385	3.849075	0.652051	0.000038
  97	9.5520e+00	0.9518	-11.616595	0.000364	3.644337	0.617367	0.000036
  98	9.6515e+00	0.9605	-11.575046	0.000418	4.176656	0.707545	0.000042
  99	9.7510e+00	0.9713	-11.537978	0.000373	3.726233	0.631241	0.000037
 100	9.8505e+00	0.9806	-11.500502	0.000377	3.767180	0.638178	0.000038
 101	9.9500e+00	0.9888	-11.458953	0.000418	4.176656	0.707545	0.000042
 102	1.0050e+01	1.0012	-11.424737	0.000344	3.439599	0.582684	0.000034
 103	1.0149e+01	1.0090	-11.385632	0.000393	3.930971	0.665924	0.000039
 104	1.0248e+01	1.0204	-11.349786	0.000360	3.603390	0.610431	0.000036
 105	1.0348e+01	1.0323	-11.315161	0.000348	3.480547	0.589621	0.000035
 106	1.0447e+01	1.0416	-11.278093	0.000373	3.726233	0.631241	0.000037
 107	1.0547e+01	1.0500	-11.237766	0.000405	4.053813	0.686735	0.000041
 108	1.0646e+01	1.0591	-11.199476	0.000385	3.849075	0.652051	0.000038
 109	1.0746e+01	1.0695	-11.162408	0.000373	3.726233	0.631241	0.000037
 110	1.0845e+01	1.0799	-11.123710	0.000389	3.890023	0.658988	0.000039
 111	1.0945e+01	1.0911	-11.086235	0.000377	3.767180	0.638178	0.000038
 112	1.1044e+01	1.0986	-11.042649	0.000438	4.381394	0.742228	0.000044
 113	1.1144e+01	1.1109	-11.010469	0.000323	3.234861	0.548000	0.000032
 114	1.1243e+01	1.1192	-10.970957	0.000397	3.971918	0.672861	0.000040
 115	1.1343e+01	1.1314	-10.933074	0.000381	3.808128	0.645114	0.000038
 116	1.1443e+01	1.1396	-10.891525	0.000418	4.176656	0.707545	0.000042
 117	1.1542e+01	1.1510	-10.851198	0.000405	4.053813	0.686735	0.000041
 118	1.1642e+01	1.1613	-10.815759	0.000356	3.562442	0.603494	0.000036
 119	1.1741e+01	1.1683	-10.777062	0.000389	3.890023	0.658988	0.000039
 120	1.1841e+01	1.1771	-10.740808	0.000364	3.644337	0.617367	0.000036
 121	1.1940e+01	1.1898	-10.703333	0.000377	3.767180	0.638178	0.000038
 122	1.2040e+01	1.1986	-10.658525	0.000450	4.504237	0.763038	0.000045
 123	1.2139e+01	1.2109	-10.623494	0.000352	3.521495	0.596557	0.000035
 124	1.2239e+01	1.2209	-10.589684	0.000340	3.398652	0.575747	0.000034
 125	1.2338e+01	1.2271	-10.545284	0.000446	4.463290	0.756102	0.000045
 126	1.2438e+01	1.2402	-10.506179	0.000393	3.930971	0.665924	0.000039
 127	1.2537e+01	1.2469	-10.467889	0.000385	3.849075	0.652051	0.000038
 128	1.2636e+01	1.2592	-10.431228	0.000369	3.685285	0.624304	0.000037
 129	1.2736e+01	1.2737	-10.394567	0.000369	3.685285	0.624304	0.000037
 130	1.2835e+01	1.2787	-10.355462	0.000393	3.930971	0.665924	0.000039
 131	1.2935e+01	1.2897	-10.317987	0.000377	3.767180	0.638178	0.000038
 132	1.3034e+01	1.2997	-10.282548	0.000356	3.562442	0.603494	0.000036
 133	1.3134e+01	1.3072	-10.241406	0.000414	4.135709	0.700608	0.000041
 134	1.3233e+01	1.3221	-10.207190	0.000344	3.439599	0.582684	0.000034
 135	1.3333e+01	1.3268	-10.165233	0.000422	4.217604	0.714481	0.000042
 136	1.3432e+01	1.3387	-10.126536	0.000389	3.890023	0.658988	0.000039
 137	1.3532e+01	1.3506	-10.088246	0.000385	3.849075	0.652051	0.000038
 138	1.3632e+01	1.3584	-10.049141	0.000393	3.930971	0.665924	0.000039
 139	1.3731e+01	1.3676	-10.014517	0.000348	3.480547	0.589621	0.000035
 140	1.3831e+01	1.3779	-9.977448	0.000373	3.726233	0.631241	0.000037
 141	1.3930e+01	1.3879	-9.935900	0.000418	4.176656	0.707545	0.000042
 142	1.4030e+01	1.3990	-9.895980	0.000401	4.012866	0.679798	0.000040
 143	1.4129e+01	1.4041	-9.859319	0.000369	3.685285	0.624304	0.000037
 144	1.4229e+01	1.4178	-9.819400	0.000401	4.012866	0.679798	0.000040
 145	1.4328e+01	1.4258	-9.779073	0.000405	4.053813	0.686735	0.000041
 146	1.4428e+01	1.4387	-9.739968	0.000393	3.930971	0.665924	0.000039
 147	1.4527e+01	1.4489	-9.700456	0.000397	3.971918	0.672861	0.000040
 148	1.4627e+01	1.4600	-9.663387	0.000373	3.726233	0.631241	0.000037
 149	1.4726e+01	1.4697	-9.626319	0.000373	3.726233	0.631241	0.000037
 150	1.4825e+01	1.4818	-9.586807	0.000397	3.971918	0.672861	0.000040
 151	1.4925e+01	1.4896	-9.550553	0.000364	3.644337	0.617367	0.000036
 152	1.5024e+01	1.4966	-9.511449	0.000393	3.930971	0.665924	0.000039
 153	1.5124e+01	1.5087	-9.470714	0.000409	4.094761	0.693671	0.000041
 154	1.5223e+01	1.5180	-9.435683	0.000352	3.521495	0.596557	0.000035
 155	1.5323e+01	1.5264	-9.397800	0.000381	3.808128	0.645114	0.000038
 156	1.5422e+01	1.5358	-9.356658	0.000414	4.135709	0.700608	0.000041
 157	1.5522e+01	1.5464	-9.319183	0.000377	3.767180	0.638178	0.000038
 158	1.5621e+01	1.5593	-9.279263	0.000401	4.012866	0.679798	0.000040
 159	1.5721e+01	1.5698	-9.239344	0.000401	4.012866	0.679798	0.000040
 160	1.5820e+01	1.5793	-9.202276	0.000373	3.726233	0.631241	0.000037
 161	1.5920e+01	1.5859	-9.164393	0.000381	3.808128	0.645114	0.000038
 162	1.6020e+01	1.5963	-9.125288	0.000393	3.930971	0.665924	0.000039
 163	1.6119e+01	1.6063	-9.088627	0.000369	3.685285	0.624304	0.000037
 164	1.6218e+01	1.6185	-9.057262	0.000315	3.152966	0.534127	0.000032
 165	1.6318e+01	1.6257	-9.016120	0.000414	4.135709	0.700608	0.000041
 166	1.6418e+01	1.6351	-8.978645	0.000377	3.767180	0.638178	0.000038
 167	1.6517e+01	1.6474	-8.944020	0.000348	3.480547	0.589621	0.000035
 168	1.6616e+01	1.6582	-8.908174	0.000360	3.603390	0.610431	0.000036
 169	1.6716e+01	1.6674	-8.866218	0.000422	4.217604	0.714481	0.000042
 170	1.6816e+01	1.6785	-8.837297	0.000291	2.907280	0.492507	0.000029
 171	1.6915e+01	1.6856	-8.795340	0.000422	4.217604	0.714481	0.000042
 172	1.7015e+01	1.6970	-8.759902	0.000356	3.562442	0.603494	0.000036
 173	1.7114e+01	1.7075	-8.724055	0.000360	3.603390	0.610431	0.000036
 174	1.7213e+01	1.7149	-8.688209	0.000360	3.603390	0.610431	0.000036
 175	1.7313e+01	1.7278	-8.646660	0.000418	4.176656	0.707545	0.000042
 176	1.7413e+01	1.7377	-8.605926	0.000409	4.094761	0.693671	0.000041
 177	1.7512e+01	1.7451	-8.569673	0.000364	3.644337	0.617367	0.000036
 178	1.7611e+01	1.7580	-8.531790	0.000381	3.808128	0.645114	0.000038
 179	1.7711e+01	1.7676	-8.495536	0.000364	3.644337	0.617367	0.000036
 180	1.7811e+01	1.7760	-8.458468	0.000373	3.726233	0.631241	0.000037
 181	1.7910e+01	1.7864	-8.418141	0.000405	4.053813	0.686735	0.000041
 182	1.8009e+01	1.7963	-8.378629	0.000397	3.971918	0.672861	0.000040
 183	1.8109e+01	1.8090	-8.338709	0.000401	4.012866	0.679798	0.000040
 184	1.8209e+01	1.8169	-8.298382	0.000405	4.053813	0.686735	0.000041
 185	1.8308e+01	1.8271	-8.264166	0.000344	3.439599	0.582684	0.000034
 186	1.8407e+01	1.8372	-8.222209	0.000422	4.217604	0.714481	0.000042
 187	1.8507e+01	1.8481	-8.182697	0.000397	3.971918	0.672861	0.000040
 188	1.8607e+01	1.8555	-8.143185	0.000397	3.971918	0.672861	0.000040
 189	1.8706e+01	1.8654	-8.104487	0.000389	3.890023	0.658988	0.000039
 190	1.8805e+01	1.8747	-8.064160	0.000405	4.053813	0.686735	0.000041
 191	1.8905e+01	1.8861	-8.025056	0.000393	3.930971	0.665924	0.000039
 192	1.9005e+01	1.8955	-7.986765	0.000385	3.849075	0.652051	0.000038
 193	1.9104e+01	1.9071	-7.945216	0.000418	4.176656	0.707545	0.000042
 194	1.9203e+01	1.9185	-7.909778	0.000356	3.562442	0.603494	0.000036
 195	1.9303e+01	1.9264	-7.868636	0.000414	4.135709	0.700608	0.000041
 196	1.9402e+01	1.9373	-7.829939	0.000389	3.890023	0.658988	0.000039
 197	1.9502e+01	1.9463	-7.791241	0.000389	3.890023	0.658988	0.000039
 198	1.9602e+01	1.9552	-7.757024	0.000344	3.439599	0.582684	0.000034
 199	1.9701e+01	1.9642	-7.715883	0.000414	4.135709	0.700608	0.000041
 200	1.9800e+01	1.9749	-7.682073	0.000340	3.398652	0.575747	0.000034
 201	1.9900e+01	1.9848	-7.641339	0.000409	4.094761	0.693671	0.000041
 202	2.0000e+01	1.9935	-7.606715	0.000348	3.480547	0.589621	0.000035
 203	2.0099e+01	2.0061	-7.567610	0.000393	3.930971	0.665924	0.000039
 204	2.0198e+01	2.0144	-7.528505	0.000393	3.930971	0.665924	0.000039
 205	2.0298e+01	2.0258	-7.493474	0.000352	3.521495	0.596557	0.000035
 206	2.0398e+01	2.0380	-7.455183	0.000385	3.849075	0.652051	0.000038
 207	2.0497e+01	2.0465	-7.415671	0.000397	3.971918	0.672861	0.000040
 208	2.0596e+01	2.0533	-7.379010	0.000369	3.685285	0.624304	0.000037
 209	2.0696e+01	2.0656	-7.343572	0.000356	3.562442	0.603494	0.000036
 210	2.0796e+01	2.0761	-7.301208	0.000426	4.258552	0.721418	0.000043
 211	2.0895e+01	2.0863	-7.262103	0.000393	3.930971	0.665924	0.000039
 212	2.0994e+01	2.0955	-7.229516	0.000328	3.275809	0.554937	0.000033
 213	2.1094e+01	2.1056	-7.191633	0.000381	3.808128	0.645114	0.000038
 214	2.1194e+01	2.1136	-7.153750	0.000381	3.808128	0.645114	0.000038
 215	2.1293e+01	2.1243	-7.112608	0.000414	4.135709	0.700608	0.000041
 216	2.1392e+01	2.1349	-7.077169	0.000356	3.562442	0.603494	0.000036
 217	2.1492e+01	2.1473	-7.040509	0.000369	3.685285	0.624304	0.000037
 218	2.1591e+01	2.1542	-7.005070	0.000356	3.562442	0.603494	0.000036
 219	2.1691e+01	2.1647	-6.967594	0.000377	3.767180	0.638178	0.000038
 220	2.1791e+01	2.1758	-6.928082	0.000397	3.971918	0.672861	0.000040
 221	2.1890e+01	2.1864	-6.891421	0.000369	3.685285	0.624304	0.000037
 222	2.1989e+01	2.1946	-6.856797	0.000348	3.480547	0.589621	0.000035
 223	2.2089e+01	2.2052	-6.816470	0.000405	4.053813	0.686735	0.000041
 224	2.2189e+01	2.2139	-6.780217	0.000364	3.644337	0.617367	0.000036
 225	2.2288e+01	2.2251	-6.740705	0.000397	3.971918	0.672861	0.000040
 226	2.2387e+01	2.2349	-6.702007	0.000389	3.890023	0.658988	0.000039
 227	2.2487e+01	2.2442	-6.670234	0.000319	3.193914	0.541064	0.000032
 228	2.2587e+01	2.2526	-6.629500	0.000409	4.094761	0.693671	0.000041
 229	2.2686e+01	2.2665	-6.600171	0.000295	2.948228	0.499443	0.000029
 230	2.2785e+01	2.2745	-6.561066	0.000393	3.930971	0.665924	0.000039
 231	2.2885e+01	2.2863	-6.521962	0.000393	3.930971	0.665924	0.000039
 232	2.2985e+01	2.2953	-6.485708	0.000364	3.644337	0.617367	0.000036
 233	2.3084e+01	2.3020	-6.449862	0.000360	3.603390	0.610431	0.000036
 234	2.3183e+01	2.3124	-6.410757	0.000393	3.930971	0.665924	0.000039
 235	2.3283e+01	2.3269	-6.373689	0.000373	3.726233	0.631241	0.000037
 236	2.3383e+01	2.3347	-6.336621	0.000373	3.726233	0.631241	0.000037
 237	2.3482e+01	2.3435	-6.299145	0.000377	3.767180	0.638178	0.000038
 238	2.3581e+01	2.3525	-6.268595	0.000307	3.071071	0.520253	0.000031
 239	2.3681e+01	2.3642	-6.229490	0.000393	3.930971	0.665924	0.000039
 240	2.3780e+01	2.3737	-6.188348	0.000414	4.135709	0.700608	0.000041
 241	2.3880e+01	2.3853	-6.156575	0.000319	3.193914	0.541064	0.000032
 242	2.3980e+01	2.3946	-6.119100	0.000377	3.767180	0.638178	0.000038
 243	2.4079e+01	2.4075	-6.084068	0.000352	3.521495	0.596557	0.000035
 244	2.4178e+01	2.4142	-6.044149	0.000401	4.012866	0.679798	0.000040
 245	2.4278e+01	2.4252	-6.007488	0.000369	3.685285	0.624304	0.000037
 246	2.4378e+01	2.4332	-5.971642	0.000360	3.603390	0.610431	0.000036
 247	2.4477e+01	2.4442	-5.932130	0.000397	3.971918	0.672861	0.000040
 248	2.4576e+01	2.4547	-5.896283	0.000360	3.603390	0.610431	0.000036
 249	2.4676e+01	2.4635	-5.859623	0.000369	3.685285	0.624304	0.000037
 250	2.4776e+01	2.4751	-5.820518	0.000393	3.930971	0.665924	0.000039
 251	2.4875e+01	2.4844	-5.781820	0.000389	3.890023	0.658988	0.000039
 252	2.4974e+01	2.4931	-5.743530	0.000385	3.849075	0.652051	0.000038
 253	2.5074e+01	2.5030	-5.708906	0.000348	3.480547	0.589621	0.000035
 254	2.5174e+01	2.5140	-5.671838	0.000373	3.726233	0.631241	0.000037
 255	2.5273e+01	2.5225	-5.636399	0.000356	3.562442	0.603494	0.000036
 256	2.5372e+01	2.5327	-5.598923	0.000377	3.767180	0.638178	0.000038
 257	2.5472e+01	2.5433	-5.559411	0.000397	3.971918	0.672861	0.000040
 258	2.5572e+01	2.5556	-5.523158	0.000364	3.644337	0.617367	0.000036
 259	2.5671e+01	2.5633	-5.490978	0.000323	3.234861	0.548000	0.000032
 260	2.5770e+01	2.5719	-5.453502	0.000377	3.767180	0.638178	0.000038
 261	2.5870e+01	2.5811	-5.416841	0.000369	3.685285	0.624304	0.000037
 262	2.5970e+01	2.5925	-5.379366	0.000377	3.767180	0.638178	0.000038
 263	2.6069e+01	2.6008	-5.345964	0.000336	3.357704	0.568810	0.000034
 264	2.6169e+01	2.6100	-5.308488	0.000377	3.767180	0.638178	0.000038
 265	2.6268e+01	2.6221	-5.275086	0.000336	3.357704	0.568810	0.000034
 266	2.6367e+01	2.6315	-5.240055	0.000352	3.521495	0.596557	0.000035
 267	2.6467e+01	2.6426	-5.206652	0.000336	3.357704	0.568810	0.000034
 268	2.6567e+01	2.6514	-5.171621	0.000352	3.521495	0.596557	0.000035
 269	2.6666e+01	2.6601	-5.137404	0.000344	3.439599	0.582684	0.000034
 270	2.6765e+01	2.6788	-5.104002	0.000336	3.357704	0.568810	0.000034
 271	2.6865e+01	2.6846	-5.071822	0.000323	3.234861	0.548000	0.000032
 272	2.6965e+01	2.6943	-5.036791	0.000352	3.521495	0.596557	0.000035
 273	2.7064e+01	2.6997	-5.004203	0.000328	3.275809	0.554937	0.000033
 274	2.7163e+01	2.7113	-4.967135	0.000373	3.726233	0.631241	0.000037
 275	2.7263e+01	2.7206	-4.935770	0.000315	3.152966	0.534127	0.000032
 276	2.7363e+01	2.7324	-4.901146	0.000348	3.480547	0.589621	0.000035
 277	2.7462e+01	2.7412	-4.864077	0.000373	3.726233	0.631241	0.000037
 278	2.7561e+01	2.7517	-4.830675	0.000336	3.357704	0.568810	0.000034
 279	2.7661e+01	2.7634	-4.794422	0.000364	3.644337	0.617367	0.000036
 280	2.7761e+01	2.7711	-4.759798	0.000348	3.480547	0.589621	0.000035
 281	2.7860e+01	2.7813	-4.723952	0.000360	3.603390	0.610431	0.000036
 282	2.7959e+01	2.7913	-4.688920	0.000352	3.521495	0.596557	0.000035
 283	2.8059e+01	2.8025	-4.655111	0.000340	3.398652	0.575747	0.000034
 284	2.8159e+01	2.8146	-4.618043	0.000373	3.726233	0.631241	0.000037
 285	2.8258e+01	2.8185	-4.586270	0.000319	3.193914	0.541064	0.000032
 286	2.8358e+01	2.8327	-4.547572	0.000389	3.890023	0.658988	0.000039
 287	2.8457e+01	2.8396	-4.516207	0.000315	3.152966	0.534127	0.000032
 288	2.8556e+01	2.8512	-4.479546	0.000369	3.685285	0.624304	0.000037
 289	2.8656e+01	2.8629	-4.448995	0.000307	3.071071	0.520253	0.000031
 290	2.8756e+01	2.8723	-4.409890	0.000393	3.930971	0.665924	0.000039
 291	2.8855e+01	2.8805	-4.377710	0.000323	3.234861	0.548000	0.000032
 292	2.8954e+01	2.8905	-4.341050	0.000369	3.685285	0.624304	0.000037
 293	2.9054e+01	2.9018	-4.306018	0.000352	3.521495	0.596557	0.000035
 294	2.9154e+01	2.9095	-4.272209	0.000340	3.398652	0.575747	0.000034
 295	2.9253e+01	2.9230	-4.236770	0.000356	3.562442	0.603494	0.000036
 296	2.9352e+01	2.9296	-4.201331	0.000356	3.562442	0.603494	0.000036
 297	2.9452e+01	2.9403	-4.169558	0.000319	3.193914	0.541064	0.000032
 298	2.9552e+01	2.9491	-4.132898	0.000369	3.685285	0.624304	0.000037
 299	2.9651e+01	2.9628	-4.099088	0.000340	3.398652	0.575747	0.000034
 300	2.9750e+01	2.9724	-4.062835	0.000364	3.644337	0.617367	0.000036
 301	2.9850e+01	2.9797	-4.029025	0.000340	3.398652	0.575747	0.000034
 302	2.9950e+01	2.9918	-3.997252	0.000319	3.193914	0.541064	0.000032
 303	3.0049e+01	3.0042	-3.962221	0.000352	3.521495	0.596557	0.000035
 304	3.0148e+01	3.0105	-3.928819	0.000336	3.357704	0.568810	0.000034
 305	3.0248e+01	3.0202	-3.893787	0.000352	3.521495	0.596557	0.000035
 306	3.0348e+01	3.0309	-3.857127	0.000369	3.685285	0.624304	0.000037
 307	3.0447e+01	3.0424	-3.824947	0.000323	3.234861	0.548000	0.000032
 308	3.0547e+01	3.0514	-3.789100	0.000360	3.603390	0.610431	0.000036
 309	3.0646e+01	3.0624	-3.752032	0.000373	3.726233	0.631241	0.000037
 310	3.0745e+01	3.0692	-3.718630	0.000336	3.357704	0.568810	0.000034
 311	3.0845e+01	3.0775	-3.685228	0.000336	3.357704	0.568810	0.000034
 312	3.0945e+01	3.0903	-3.648160	0.000373	3.726233	0.631241	0.000037
 313	3.1044e+01	3.0997	-3.611906	0.000364	3.644337	0.617367	0.000036
 314	3.1143e+01	3.1098	-3.581356	0.000307	3.071071	0.520253	0.000031
 315	3.1243e+01	3.1200	-3.544695	0.000369	3.685285	0.624304	0.000037
 316	3.1343e+01	3.1292	-3.511293	0.000336	3.357704	0.568810	0.000034
 317	3.1442e+01	3.1402	-3.479113	0.000323	3.234861	0.548000	0.000032
 318	3.1541e+01	3.1472	-3.441230	0.000381	3.808128	0.645114	0.000038
 319	3.1641e+01	3.1597	-3.407828	0.000336	3.357704	0.568810	0.000034
 320	3.1741e+01	3.1693	-3.374833	0.000332	3.316756	0.561874	0.000033
 321	3.1840e+01	3.1805	-3.338580	0.000364	3.644337	0.617367	0.000036
 322	3.1939e+01	3.1889	-3.304770	0.000340	3.398652	0.575747	0.000034
 323	3.2039e+01	3.1995	-3.274627	0.000303	3.030123	0.513317	0.000030
 324	3.2139e+01	3.2106	-3.238373	0.000364	3.644337	0.617367	0.000036
 325	3.2238e+01	3.2195	-3.204971	0.000336	3.357704	0.568810	0.000034
 326	3.2337e+01	3.2294	-3.168718	0.000364	3.644337	0.617367	0.000036
 327	3.2437e+01	3.2407	-3.136130	0.000328	3.275809	0.554937	0.000033
 328	3.2536e+01	3.2511	-3.102321	0.000340	3.398652	0.575747	0.000034
 329	3.2636e+01	3.2622	-3.067289	0.000352	3.521495	0.596557	0.000035
 330	3.2736e+01	3.2713	-3.035109	0.000323	3.234861	0.548000	0.000032
 331	3.2835e+01	3.2788	-3.000078	0.000352	3.521495	0.596557	0.000035
 332	3.2934e+01	3.2865	-2.969527	0.000307	3.071071	0.520253	0.000031
 333	3.3034e+01	3.2989	-2.939384	0.000303	3.030123	0.513317	0.000030
 334	3.3133e+01	3.3082	-2.905574	0.000340	3.398652	0.575747	0.000034
 335	3.3233e+01	3.3181	-2.869728	0.000360	3.603390	0.610431	0.000036
 336	3.3333e+01	3.3275	-2.840400	0.000295	2.948228	0.499443	0.000029
 337	3.3432e+01	3.3363	-2.804961	0.000356	3.562442	0.603494	0.000036
 338	3.3532e+01	3.3485	-2.774003	0.000311	3.112018	0.527190	0.000031
 339	3.3631e+01	3.3594	-2.742637	0.000315	3.152966	0.534127	0.000032
 340	3.3730e+01	3.3699	-2.708828	0.000340	3.398652	0.575747	0.000034
 341	3.3830e+01	3.3799	-2.674204	0.000348	3.480547	0.589621	0.000035
 342	3.3929e+01	3.3885	-2.644875	0.000295	2.948228	0.499443	0.000029
 343	3.4029e+01	3.4007	-2.611473	0.000336	3.357704	0.568810	0.000034
 344	3.4129e+01	3.4096	-2.574405	0.000373	3.726233	0.631241	0.000037
 345	3.4228e+01	3.4177	-2.541003	0.000336	3.357704	0.568810	0.000034
 346	3.4328e+01	3.4288	-2.509637	0.000315	3.152966	0.534127	0.000032
 347	3.4427e+01	3.4394	-2.472162	0.000377	3.767180	0.638178	0.000038
 348	3.4526e+01	3.4469	-2.439167	0.000332	3.316756	0.561874	0.000033
 349	3.4626e+01	3.4595	-2.404950	0.000344	3.439599	0.582684	0.000034
 350	3.4725e+01	3.4686	-2.368290	0.000369	3.685285	0.624304	0.000037
 351	3.4825e+01	3.4794	-2.338146	0.000303	3.030123	0.513317	0.000030
 352	3.4925e+01	3.4876	-2.301893	0.000364	3.644337	0.617367	0.000036
 353	3.5024e+01	3.4975	-2.266454	0.000356	3.562442	0.603494	0.000036
 354	3.5123e+01	3.5093	-2.228164	0.000385	3.849075	0.652051	0.000038
 355	3.5223e+01	3.5184	-2.195576	0.000328	3.275809	0.554937	0.000033
 356	3.5322e+01	3.5299	-2.158101	0.000377	3.767180	0.638178	0.000038
 357	3.5422e+01	3.5372	-2.123884	0.000344	3.439599	0.582684	0.000034
 358	3.5522e+01	3.5504	-2.090889	0.000332	3.316756	0.561874	0.000033
 359	3.5621e+01	3.5567	-2.055043	0.000360	3.603390	0.610431	0.000036
 360	3.5721e+01	3.5682	-2.024492	0.000307	3.071071	0.520253	0.000031
 361	3.5820e+01	3.5765	-1.986610	0.000381	3.808128	0.645114	0.000038
 362	3.5919e+01	3.5870	-1.952800	0.000340	3.398652	0.575747	0.000034
 363	3.6019e+01	3.6002	-1.920620	0.000323	3.234861	0.548000	0.000032
 364	3.6118e+01	3.6074	-1.882737	0.000381	3.808128	0.645114	0.000038
 365	3.6218e+01	3.6199	-1.853001	0.000299	2.989176	0.506380	0.000030
 366	3.6318e+01	3.6297	-1.818784	0.000344	3.439599	0.582684	0.000034
 367	3.6417e+01	3.6373	-1.784160	0.000348	3.480547	0.589621	0.000035
 368	3.6517e+01	3.6488	-1.753202	0.000311	3.112018	0.527190	0.000031
 369	3.6616e+01	3.6587	-1.715727	0.000377	3.767180	0.638178	0.000038
 370	3.6715e+01	3.6692	-1.685991	0.000299	2.989176	0.506380	0.000030
 371	3.6815e+01	3.6782	-1.650552	0.000356	3.562442	0.603494	0.000036
 372	3.6914e+01	3.6854	-1.617965	0.000328	3.275809	0.554937	0.000033
 373	3.7014e+01	3.6970	-1.584970	0.000332	3.316756	0.561874	0.000033
 374	3.7114e+01	3.7078	-1.553197	0.000319	3.193914	0.541064	0.000032
 375	3.7213e+01	3.7170	-1.520610	0.000328	3.275809	0.554937	0.000033
 376	3.7313e+01	3.7262	-1.485578	0.000352	3.521495	0.596557	0.000035
 377	3.7412e+01	3.7373	-1.452991	0.000328	3.275809	0.554937	0.000033
 378	3.7511e+01	3.7476	-1.419996	0.000332	3.316756	0.561874	0.000033
 379	3.7611e+01	3.7585	-1.385779	0.000344	3.439599	0.582684	0.000034
 380	3.7711e+01	3.7667	-1.356451	0.000295	2.948228	0.499443	0.000029
 381	3.7810e+01	3.7762	-1.321419	0.000352	3.521495	0.596557	0.000035
 382	3.7910e+01	3.7836	-1.287202	0.000344	3.439599	0.582684	0.000034
 383	3.8009e+01	3.7975	-1.257874	0.000295	2.948228	0.499443	0.000029
 384	3.8108e+01	3.8063	-1.221620	0.000364	3.644337	0.617367	0.000036
 385	3.8208e+01	3.8183	-1.190662	0.000311	3.112018	0.527190	0.000031
 386	3.8307e+01	3.8271	-1.156446	0.000344	3.439599	0.582684	0.000034
 387	3.8407e+01	3.8346	-1.127524	0.000291	2.907280	0.492507	0.000029
 388	3.8507e+01	3.8468	-1.093307	0.000344	3.439599	0.582684	0.000034
 389	3.8606e+01	3.8567	-1.058276	0.000352	3.521495	0.596557	0.000035
 390	3.8706e+01	3.8669	-1.025689	0.000328	3.275809	0.554937	0.000033
 391	3.8805e+01	3.8755	-0.993916	0.000319	3.193914	0.541064	0.000032
 392	3.8904e+01	3.8851	-0.960106	0.000340	3.398652	0.575747	0.000034
 393	3.9004e+01	3.8964	-0.924668	0.000356	3.562442	0.603494	0.000036
 394	3.9103e+01	3.9074	-0.894932	0.000299	2.989176	0.506380	0.000030
 395	3.9203e+01	3.9125	-0.863159	0.000319	3.193914	0.541064	0.000032
 396	3.9303e+01	3.9275	-0.828942	0.000344	3.439599	0.582684	0.000034
 397	3.9402e+01	3.9368	-0.801243	0.000278	2.784438	0.471696	0.000028
 398	3.9502e+01	3.9479	-0.767841	0.000336	3.357704	0.568810	0.000034
 399	3.9601e+01	3.9575	-0.732402	0.000356	3.562442	0.603494	0.000036
 400	3.9700e+01	3.9642	-0.703888	0.000287	2.866333	0.485570	0.000029
 401	3.9800e+01	3.9736	-0.668856	0.000352	3.521495	0.596557	0.000035
 402	3.9900e+01	3.9828	-0.635047	0.000340	3.398652	0.575747	0.000034
 403	3.9999e+01	3.9967	-0.605718	0.000295	2.948228	0.499443	0.000029
 404	4.0099e+01	4.0079	-0.571502	0.000344	3.439599	0.582684	0.000034
 405	4.0198e+01	4.0162	-0.542173	0.000295	2.948228	0.499443	0.000029
 406	4.0297e+01	4.0257	-0.510808	0.000315	3.152966	0.534127	0.000032
 407	4.0397e+01	4.0356	-0.477813	0.000332	3.316756	0.561874	0.000033
 408	4.0496e+01	4.0453	-0.446040	0.000319	3.193914	0.541064	0.000032
 409	4.0596e+01	4.0562	-0.411823	0.000344	3.439599	0.582684	0.000034
 410	4.0696e+01	4.0664	-0.381273	0.000307	3.071071	0.520253	0.000031
 411	4.0795e+01	4.0745	-0.345019	0.000364	3.644337	0.617367	0.000036
 412	4.0895e+01	4.0833	-0.316505	0.000287	2.866333	0.485570	0.000029
 413	4.0994e+01	4.0986	-0.285954	0.000307	3.071071	0.520253	0.000031
 414	4.1093e+01	4.1075	-0.249701	0.000364	3.644337	0.617367	0.000036
 415	4.1193e+01	4.1187	-0.220780	0.000291	2.907280	0.492507	0.000029
 416	4.1292e+01	4.1221	-0.185341	0.000356	3.562442	0.603494	0.000036
 417	4.1392e+01	4.1338	-0.153975	0.000315	3.152966	0.534127	0.000032
 418	4.1492e+01	4.1455	-0.120981	0.000332	3.316756	0.561874	0.000033
 419	4.1591e+01	4.1534	-0.083098	0.000381	3.808128	0.645114	0.000038
 420	4.1691e+01	4.1629	-0.055399	0.000278	2.784438	0.471696	0.000028
 421	4.1790e+01	4.1757	-0.018738	0.000369	3.685285	0.624304	0.000037
 422	4.1889e+01	4.1854	0.009369	0.000283	2.825385	0.478633	0.000028
 423	4.1989e+01	4.1949	0.040327	0.000311	3.112018	0.527190	0.000031
 424	4.2089e+01	4.2065	0.075358	0.000352	3.521495	0.596557	0.000035
 425	4.2188e+01	4.2147	0.110797	0.000356	3.562442	0.603494	0.000036
 426	4.2288e+01	4.2233	0.142163	0.000315	3.152966	0.534127	0.000032
 427	4.2387e+01	4.2363	0.169455	0.000274	2.743490	0.464760	0.000027
 428	4.2486e+01	4.2460	0.202042	0.000328	3.275809	0.554937	0.000033
 429	4.2586e+01	4.2530	0.235444	0.000336	3.357704	0.568810	0.000034
 430	4.2685e+01	4.2664	0.268031	0.000328	3.275809	0.554937	0.000033
 431	4.2785e+01	4.2745	0.295731	0.000278	2.784438	0.471696	0.000028
 432	4.2885e+01	4.2837	0.328725	0.000332	3.316756	0.561874	0.000033
 433	4.2984e+01	4.2949	0.360498	0.000319	3.193914	0.541064	0.000032
 434	4.3084e+01	4.3046	0.389419	0.000291	2.907280	0.492507	0.000029
 435	4.3183e+01	4.3108	0.419155	0.000299	2.989176	0.506380	0.000030
 436	4.3282e+01	4.3230	0.450114	0.000311	3.112018	0.527190	0.000031
 437	4.3382e+01	4.3334	0.479850	0.000299	2.989176	0.506380	0.000030
 438	4.3481e+01	4.3441	0.507549	0.000278	2.784438	0.471696	0.000028
 439	4.3581e+01	4.3536	0.534026	0.000266	2.661595	0.450886	0.000027
 440	4.3681e+01	4.3642	0.563762	0.000299	2.989176	0.506380	0.000030
 441	4.3780e+01	4.3727	0.591869	0.000283	2.825385	0.478633	0.000028
 442	4.3880e+01	4.3845	0.626900	0.000352	3.521495	0.596557	0.000035
 443	4.3979e+01	4.3937	0.656229	0.000295	2.948228	0.499443	0.000029
 444	4.4078e+01	4.4034	0.685558	0.000295	2.948228	0.499443	0.000029
 445	4.4178e+01	4.4155	0.716516	0.000311	3.112018	0.527190	0.000031
 446	4.4278e+01	4.4263	0.742585	0.000262	2.620647	0.443950	0.000026
 447	4.4377e+01	4.4352	0.778839	0.000364	3.644337	0.617367	0.000036
 448	4.4477e+01	4.4437	0.804502	0.000258	2.579699	0.437013	0.000026
 449	4.4576e+01	4.4555	0.834238	0.000299	2.989176	0.506380	0.000030
 450	4.4675e+01	4.4642	0.866418	0.000323	3.234861	0.548000	0.000032
 451	4.4775e+01	4.4721	0.895339	0.000291	2.907280	0.492507	0.000029
 452	4.4874e+01	4.4812	0.925890	0.000307	3.071071	0.520253	0.000031
 453	4.4974e+01	4.4949	0.959292	0.000336	3.357704	0.568810	0.000034
 454	4.5074e+01	4.5039	0.989028	0.000299	2.989176	0.506380	0.000030
 455	4.5173e+01	4.5140	1.018356	0.000295	2.948228	0.499443	0.000029
 456	4.5273e+01	4.5240	1.050536	0.000323	3.234861	0.548000	0.000032
 457	4.5372e+01	4.5343	1.081494	0.000311	3.112018	0.527190	0.000031
 458	4.5471e+01	4.5452	1.112045	0.000307	3.071071	0.520253	0.000031
 459	4.5571e+01	4.5554	1.143411	0.000315	3.152966	0.534127	0.000032
 460	4.5670e+01	4.5640	1.171110	0.000278	2.784438	0.471696	0.000028
 461	4.5770e+01	4.5733	1.204919	0.000340	3.398652	0.575747	0.000034
 462	4.5870e+01	4.5815	1.230175	0.000254	2.538752	0.430076	0.000025
 463	4.5969e+01	4.5911	1.262762	0.000328	3.275809	0.554937	0.000033
 464	4.6069e+01	4.6029	1.293720	0.000311	3.112018	0.527190	0.000031
 465	4.6168e+01	4.6119	1.322234	0.000287	2.866333	0.485570	0.000029
 466	4.6267e+01	4.6218	1.352377	0.000303	3.030123	0.513317	0.000030
 467	4.6367e+01	4.6319	1.382113	0.000299	2.989176	0.506380	0.000030
 468	4.6467e+01	4.6435	1.413479	0.000315	3.152966	0.534127	0.000032
 469	4.6566e+01	4.6533	1.446881	0.000336	3.357704	0.568810	0.000034
 470	4.6666e+01	4.6625	1.473358	0.000266	2.661595	0.450886	0.000027
 471	4.6765e+01	4.6714	1.505538	0.000323	3.234861	0.548000	0.000032
 472	4.6864e+01	4.6828	1.532015	0.000266	2.661595	0.450886	0.000027
 473	4.6964e+01	4.6912	1.562159	0.000303	3.030123	0.513317	0.000030
 474	4.7063e+01	4.7015	1.595153	0.000332	3.316756	0.561874	0.000033
 475	4.7163e+01	4.7120	1.623260	0.000283	2.825385	0.478633	0.000028
 476	4.7263e+01	4.7249	1.654218	0.000311	3.112018	0.527190	0.000031
 477	4.7362e+01	4.7308	1.683954	0.000299	2.989176	0.506380	0.000030
 478	4.7462e+01	4.7420	1.712468	0.000287	2.866333	0.485570	0.000029
 479	4.7561e+01	4.7536	1.743833	0.000315	3.152966	0.534127	0.000032
 480	4.7660e+01	4.7604	1.775199	0.000315	3.152966	0.534127	0.000032
 481	4.7760e+01	4.7718	1.807379	0.000323	3.234861	0.548000	0.000032
 482	4.7859e+01	4.7832	1.835078	0.000278	2.784438	0.471696	0.000028
 483	4.7959e+01	4.7915	1.869295	0.000344	3.439599	0.582684	0.000034
 484	4.8059e+01	4.8019	1.895772	0.000266	2.661595	0.450886	0.000027
 485	4.8158e+01	4.8100	1.927138	0.000315	3.152966	0.534127	0.000032
 486	4.8258e+01	4.8208	1.954837	0.000278	2.784438	0.471696	0.000028
 487	4.8357e+01	4.8312	1.986202	0.000315	3.152966	0.534127	0.000032
 488	4.8456e+01	4.8417	2.015531	0.000295	2.948228	0.499443	0.000029
 489	4.8556e+01	4.8518	2.045267	0.000299	2.989176	0.506380	0.000030
 490	4.8656e+01	4.8605	2.074596	0.000295	2.948228	0.499443	0.000029
 491	4.8755e+01	4.8717	2.104739	0.000303	3.030123	0.513317	0.000030
 492	4.8855e+01	4.8804	2.137734	0.000332	3.316756	0.561874	0.000033
 493	4.8954e+01	4.8952	2.167062	0.000295	2.948228	0.499443	0.000029
 494	4.9053e+01	4.9001	2.196391	0.000295	2.948228	0.499443	0.000029
 495	4.9153e+01	4.9123	2.221646	0.000254	2.538752	0.430076	0.000025
 496	4.9252e+01	4.9203	2.252604	0.000311	3.112018	0.527190	0.000031
 497	4.9352e+01	4.9296	2.283155	0.000307	3.071071	0.520253	0.000031
 498	4.9452e+01	4.9438	2.315335	0.000323	3.234861	0.548000	0.000032
 499	4.9551e+01	4.9525	2.343442	0.000283	2.825385	0.478633	0.000028
 500	4.9651e+01	4.9612	2.368290	0.000250	2.497804	0.423139	0.000025
 501	4.9750e+01	4.9722	2.395989	0.000278	2.784438	0.471696	0.000028
 502	4.9849e+01	4.9828	2.422873	0.000270	2.702542	0.457823	0.000027
 503	4.9949e+01	4.9944	2.450165	0.000274	2.743490	0.464760	0.000027
 504	5.0048e+01	4.9995	2.477457	0.000274	2.743490	0.464760	0.000027
 505	5.0148e+01	5.0098	2.507193	0.000299	2.989176	0.506380	0.000030
 506	5.0248e+01	5.0195	2.537337	0.000303	3.030123	0.513317	0.000030
 507	5.0347e+01	5.0314	2.569924	0.000328	3.275809	0.554937	0.000033
 508	5.0447e+01	5.0422	2.595994	0.000262	2.620647	0.443950	0.000026
 509	5.0546e+01	5.0506	2.622879	0.000270	2.702542	0.457823	0.000027
 510	5.0645e+01	5.0576	2.648949	0.000262	2.620647	0.443950	0.000026
 511	5.0745e+01	5.0719	2.679092	0.000303	3.030123	0.513317	0.000030
 512	5.0844e+01	5.0790	2.710457	0.000315	3.152966	0.534127	0.000032
 513	5.0944e+01	5.0883	2.740601	0.000303	3.030123	0.513317	0.000030
 514	5.1044e+01	5.0997	2.769929	0.000295	2.948228	0.499443	0.000029
 515	5.1143e+01	5.1087	2.800480	0.000307	3.071071	0.520253	0.000031
 516	5.1242e+01	5.1188	2.828994	0.000287	2.866333	0.485570	0.000029
 517	5.1342e+01	5.1309	2.857508	0.000287	2.866333	0.485570	0.000029
 518	5.1441e+01	5.1383	2.888059	0.000307	3.071071	0.520253	0.000031
 519	5.1541e+01	5.1514	2.917795	0.000299	2.989176	0.506380	0.000030
 520	5.1641e+01	5.1613	2.948753	0.000311	3.112018	0.527190	0.000031
 521	5.1740e+01	5.1704	2.982970	0.000344	3.439599	0.582684	0.000034
 522	5.1840e+01	5.1800	3.011483	0.000287	2.866333	0.485570	0.000029
 523	5.1939e+01	5.1888	3.044071	0.000328	3.275809	0.554937	0.000033
 524	5.2038e+01	5.1992	3.077066	0.000332	3.316756	0.561874	0.000033
 525	5.2138e+01	5.2100	3.106394	0.000295	2.948228	0.499443	0.000029
 526	5.2237e+01	5.2204	3.138167	0.000319	3.193914	0.541064	0.000032
 527	5.2337e+01	5.2298	3.167088	0.000291	2.907280	0.492507	0.000029
 528	5.2437e+01	5.2417	3.198454	0.000315	3.152966	0.534127	0.000032
 529	5.2536e+01	5.2489	3.229819	0.000315	3.152966	0.534127	0.000032
 530	5.2636e+01	5.2599	3.260777	0.000311	3.112018	0.527190	0.000031
 531	5.2735e+01	5.2700	3.288476	0.000278	2.784438	0.471696	0.000028
 532	5.2834e+01	5.2784	3.316176	0.000278	2.784438	0.471696	0.000028
 533	5.2934e+01	5.2896	3.345097	0.000291	2.907280	0.492507	0.000029
 534	5.3033e+01	5.3000	3.377277	0.000323	3.234861	0.548000	0.000032
 535	5.3133e+01	5.3094	3.402532	0.000254	2.538752	0.430076	0.000025
 536	5.3233e+01	5.3185	3.434712	0.000323	3.234861	0.548000	0.000032
 537	5.3332e+01	5.3282	3.459968	0.000254	2.538752	0.430076	0.000025
 538	5.3431e+01	5.3396	3.490926	0.000311	3.112018	0.527190	0.000031
 539	5.3531e+01	5.3471	3.523513	0.000328	3.275809	0.554937	0.000033
 540	5.3630e+01	5.3592	3.550805	0.000274	2.743490	0.464760	0.000027
 541	5.3730e+01	5.3681	3.577690	0.000270	2.702542	0.457823	0.000027
 542	5.3830e+01	5.3799	3.607833	0.000303	3.030123	0.513317	0.000030
 543	5.3929e+01	5.3866	3.637976	0.000303	3.030123	0.513317	0.000030
 544	5.4029e+01	5.3997	3.666490	0.000287	2.866333	0.485570	0.000029
 545	5.4128e+01	5.4098	3.692153	0.000258	2.579699	0.437013	0.000026
 546	5.4227e+01	5.4180	3.725148	0.000332	3.316756	0.561874	0.000033
 547	5.4327e+01	5.4298	3.752440	0.000274	2.743490	0.464760	0.000027
 548	5.4426e+01	5.4406	3.778510	0.000262	2.620647	0.443950	0.000026
 549	5.4526e+01	5.4476	3.810690	0.000323	3.234861	0.548000	0.000032
 550	5.4626e+01	5.4571	3.837167	0.000266	2.661595	0.450886	0.000027
 551	5.4725e+01	5.4702	3.868532	0.000315	3.152966	0.534127	0.000032
 552	5.4825e+01	5.4791	3.897454	0.000291	2.907280	0.492507	0.000029
 553	5.4924e+01	5.4902	3.927597	0.000303	3.030123	0.513317	0.000030
 554	5.5023e+01	5.5001	3.959370	0.000319	3.193914	0.541064	0.000032
 555	5.5123e+01	5.5065	3.984217	0.000250	2.497804	0.423139	0.000025
 556	5.5222e+01	5.5169	4.015176	0.000311	3.112018	0.527190	0.000031
 557	5.5322e+01	5.5278	4.044504	0.000295	2.948228	0.499443	0.000029
 558	5.5422e+01	5.5376	4.070574	0.000262	2.620647	0.443950	0.000026
 559	5.5521e+01	5.5495	4.100717	0.000303	3.030123	0.513317	0.000030
 560	5.5620e+01	5.5564	4.128417	0.000278	2.784438	0.471696	0.000028
 561	5.5720e+01	5.5672	4.155301	0.000270	2.702542	0.457823	0.000027
 562	5.5819e+01	5.5814	4.185852	0.000307	3.071071	0.520253	0.000031
 563	5.5919e+01	5.5891	4.210700	0.000250	2.497804	0.423139	0.000025
 564	5.6019e+01	5.5990	4.242473	0.000319	3.193914	0.541064	0.000032
 565	5.6118e+01	5.6092	4.268543	0.000262	2.620647	0.443950	0.000026
 566	5.6218e+01	5.6173	4.300723	0.000323	3.234861	0.548000	0.000032
 567	5.6317e+01	5.6275	4.325163	0.000246	2.456857	0.416203	0.000025
 568	5.6416e+01	5.6377	4.354899	0.000299	2.989176	0.506380	0.000030
 569	5.6516e+01	5.6483	4.383821	0.000291	2.907280	0.492507	0.000029
 570	5.6615e+01	5.6575	4.407446	0.000237	2.374961	0.402329	0.000024
 571	5.6715e+01	5.6674	4.438404	0.000311	3.112018	0.527190	0.000031
 572	5.6815e+01	5.6773	4.469362	0.000311	3.112018	0.527190	0.000031
 573	5.6914e+01	5.6886	4.494210	0.000250	2.497804	0.423139	0.000025
 574	5.7014e+01	5.6979	4.525576	0.000315	3.152966	0.534127	0.000032
 575	5.7113e+01	5.7075	4.550424	0.000250	2.497804	0.423139	0.000025
 576	5.7212e+01	5.7150	4.576494	0.000262	2.620647	0.443950	0.000026
 577	5.7312e+01	5.7285	4.605822	0.000295	2.948228	0.499443	0.000029
 578	5.7411e+01	5.7362	4.636780	0.000311	3.112018	0.527190	0.000031
 579	5.7511e+01	5.7467	4.663258	0.000266	2.661595	0.450886	0.000027
 580	5.7611e+01	5.7555	4.691364	0.000283	2.825385	0.478633	0.000028
 581	5.7710e+01	5.7671	4.721100	0.000299	2.989176	0.506380	0.000030
 582	5.7809e+01	5.7757	4.751244	0.000303	3.030123	0.513317	0.000030
 583	5.7909e+01	5.7858	4.779757	0.000287	2.866333	0.485570	0.000029
 584	5.8008e+01	5.7970	4.808679	0.000291	2.907280	0.492507	0.000029
 585	5.8108e+01	5.8067	4.840044	0.000315	3.152966	0.534127	0.000032
 586	5.8208e+01	5.8170	4.866521	0.000266	2.661595	0.450886	0.000027
 587	5.8307e+01	5.8289	4.896257	0.000299	2.989176	0.506380	0.000030
 588	5.8407e+01	5.8372	4.925179	0.000291	2.907280	0.492507	0.000029
 589	5.8506e+01	5.8459	4.955729	0.000307	3.071071	0.520253	0.000031
 590	5.8605e+01	5.8585	4.985058	0.000295	2.948228	0.499443	0.000029
 591	5.8705e+01	5.8657	5.007055	0.000221	2.211171	0.374583	0.000022
 592	5.8804e+01	5.8758	5.036791	0.000299	2.989176	0.506380	0.000030
 593	5.8904e+01	5.8855	5.066527	0.000299	2.989176	0.506380	0.000030
 594	5.9004e+01	5.8961	5.096263	0.000299	2.989176	0.506380	0.000030
 595	5.9103e+01	5.9054	5.125184	0.000291	2.907280	0.492507	0.000029
 596	5.9203e+01	5.9196	5.151254	0.000262	2.620647	0.443950	0.000026
 597	5.9302e+01	5.9270	5.179361	0.000283	2.825385	0.478633	0.000028
 598	5.9401e+01	5.9332	5.205023	0.000258	2.579699	0.437013	0.000026
 599	5.9501e+01	5.9460	5.235166	0.000303	3.030123	0.513317	0.000030
 600	5.9600e+01	5.9586	5.256756	0.000217	2.170223	0.367646	0.000022
 601	5.9700e+01	5.9642	5.285270	0.000287	2.866333	0.485570	0.000029
 602	5.9800e+01	5.9766	5.315006	0.000299	2.989176	0.506380	0.000030
 603	5.9899e+01	5.9859	5.337002	0.000221	2.211171	0.374583	0.000022
 604	5.9998e+01	5.9951	5.365516	0.000287	2.866333	0.485570	0.000029
 605	6.0098e+01	6.0044	5.388735	0.000233	2.334014	0.395393	0.000023
 606	6.0197e+01	6.0159	5.411546	0.000229	2.293066	0.388456	0.000023
 607	6.0297e+01	6.0265	5.439245	0.000278	2.784438	0.471696	0.000028
 608	6.0397e+01	6.0348	5.464500	0.000254	2.538752	0.430076	0.000025
 609	6.0496e+01	6.0436	5.489348	0.000250	2.497804	0.423139	0.000025
 610	6.0596e+01	6.0574	5.514196	0.000250	2.497804	0.423139	0.000025
 611	6.0695e+01	6.0652	5.543117	0.000291	2.907280	0.492507	0.000029
 612	6.0794e+01	6.0760	5.570409	0.000274	2.743490	0.464760	0.000027
 613	6.0894e+01	6.0854	5.595665	0.000254	2.538752	0.430076	0.000025
 614	6.0993e+01	6.0960	5.620920	0.000254	2.538752	0.430076	0.000025
 615	6.1093e+01	6.1042	5.647397	0.000266	2.661595	0.450886	0.000027
 616	6.1193e+01	6.1140	5.677540	0.000303	3.030123	0.513317	0.000030
 617	6.1292e+01	6.1259	5.702796	0.000254	2.538752	0.430076	0.000025
 618	6.1392e+01	6.1345	5.727236	0.000246	2.456857	0.416203	0.000025
 619	6.1491e+01	6.1428	5.757787	0.000307	3.071071	0.520253	0.000031
 620	6.1590e+01	6.1558	5.788338	0.000307	3.071071	0.520253	0.000031
 621	6.1690e+01	6.1649	5.812778	0.000246	2.456857	0.416203	0.000025
 622	6.1789e+01	6.1749	5.839663	0.000270	2.702542	0.457823	0.000027
 623	6.1889e+01	6.1835	5.866140	0.000266	2.661595	0.450886	0.000027
 624	6.1989e+01	6.1950	5.892617	0.000266	2.661595	0.450886	0.000027
 625	6.2088e+01	6.2038	5.917873	0.000254	2.538752	0.430076	0.000025
 626	6.2188e+01	6.2122	5.944757	0.000270	2.702542	0.457823	0.000027
 627	6.2287e+01	6.2255	5.971642	0.000270	2.702542	0.457823	0.000027
 628	6.2386e+01	6.2341	5.997304	0.000258	2.579699	0.437013	0.000026
 629	6.2486e+01	6.2435	6.027448	0.000303	3.030123	0.513317	0.000030
 630	6.2586e+01	6.2568	6.051074	0.000237	2.374961	0.402329	0.000024
 631	6.2685e+01	6.2655	6.079588	0.000287	2.866333	0.485570	0.000029
 632	6.2785e+01	6.2724	6.105658	0.000262	2.620647	0.443950	0.000026
 633	6.2884e+01	6.2843	6.130098	0.000246	2.456857	0.416203	0.000025
 634	6.2983e+01	6.2907	6.159019	0.000291	2.907280	0.492507	0.000029
 635	6.3083e+01	6.3009	6.182238	0.000233	2.334014	0.395393	0.000023
 636	6.3182e+01	6.3146	6.206678	0.000246	2.456857	0.416203	0.000025
 637	6.3282e+01	6.3238	6.235192	0.000287	2.866333	0.485570	0.000029
 638	6.3382e+01	6.3362	6.260040	0.000250	2.497804	0.423139	0.000025
 639	6.3481e+01	6.3417	6.287740	0.000278	2.784438	0.471696	0.000028
 640	6.3581e+01	6.3538	6.312588	0.000250	2.497804	0.423139	0.000025
 641	6.3680e+01	6.3642	6.339472	0.000270	2.702542	0.457823	0.000027
 642	6.3779e+01	6.3731	6.367579	0.000283	2.825385	0.478633	0.000028
 643	6.3879e+01	6.3839	6.397722	0.000303	3.030123	0.513317	0.000030
 644	6.3978e+01	6.3930	6.419719	0.000221	2.211171	0.374583	0.000022
 645	6.4078e+01	6.4055	6.448233	0.000287	2.866333	0.485570	0.000029
 646	6.4177e+01	6.4115	6.476747	0.000287	2.866333	0.485570	0.000029
 647	6.4277e+01	6.4236	6.500780	0.000242	2.415909	0.409266	0.000024
 648	6.4376e+01	6.4320	6.527257	0.000266	2.661595	0.450886	0.000027
 649	6.4476e+01	6.4429	6.555771	0.000287	2.866333	0.485570	0.000029
 650	6.4576e+01	6.4505	6.582248	0.000266	2.661595	0.450886	0.000027
 651	6.4675e+01	6.4642	6.607504	0.000254	2.538752	0.430076	0.000025
 652	6.4775e+01	6.4733	6.632759	0.000254	2.538752	0.430076	0.000025
 653	6.4874e+01	6.4812	6.661680	0.000291	2.907280	0.492507	0.000029
 654	6.4974e+01	6.4931	6.687343	0.000258	2.579699	0.437013	0.000026
 655	6.5073e+01	6.5022	6.712598	0.000254	2.538752	0.430076	0.000025
 656	6.5172e+01	6.5135	6.739890	0.000274	2.743490	0.464760	0.000027
 657	6.5272e+01	6.5211	6.766367	0.000266	2.661595	0.450886	0.000027
 658	6.5371e+01	6.5325	6.796918	0.000307	3.071071	0.520253	0.000031
 659	6.5471e+01	6.5423	6.817692	0.000209	2.088328	0.353772	0.000021
 660	6.5570e+01	6.5491	6.846206	0.000287	2.866333	0.485570	0.000029
 661	6.5670e+01	6.5618	6.874720	0.000287	2.866333	0.485570	0.000029
 662	6.5769e+01	6.5729	6.901198	0.000266	2.661595	0.450886	0.000027
 663	6.5869e+01	6.5832	6.927675	0.000266	2.661595	0.450886	0.000027
 664	6.5969e+01	6.5929	6.950893	0.000233	2.334014	0.395393	0.000023
 665	6.6068e+01	6.6025	6.978185	0.000274	2.743490	0.464760	0.000027
 666	6.6168e+01	6.6111	7.002218	0.000242	2.415909	0.409266	0.000024
 667	6.6267e+01	6.6219	7.024215	0.000221	2.211171	0.374583	0.000022
 668	6.6367e+01	6.6346	7.049878	0.000258	2.579699	0.437013	0.000026
 669	6.6466e+01	6.6436	7.075133	0.000254	2.538752	0.430076	0.000025
 670	6.6566e+01	6.6534	7.102832	0.000278	2.784438	0.471696	0.000028
 671	6.6665e+01	6.6631	7.123607	0.000209	2.088328	0.353772	0.000021
 672	6.6764e+01	6.6718	7.148047	0.000246	2.456857	0.416203	0.000025
 673	6.6864e+01	6.6824	7.174932	0.000270	2.702542	0.457823	0.000027
 674	6.6963e+01	6.6922	7.202224	0.000274	2.743490	0.464760	0.000027
 675	6.7063e+01	6.7030	7.227072	0.000250	2.497804	0.423139	0.000025
 676	6.7162e+01	6.7117	7.248253	0.000213	2.129276	0.360709	0.000021
 677	6.7262e+01	6.7202	7.276360	0.000283	2.825385	0.478633	0.000028
 678	6.7362e+01	6.7334	7.299579	0.000233	2.334014	0.395393	0.000023
 679	6.7461e+01	6.7414	7.330129	0.000307	3.071071	0.520253	0.000031
 680	6.7561e+01	6.7532	7.352533	0.000225	2.252119	0.381519	0.000023
 681	6.7660e+01	6.7641	7.382269	0.000299	2.989176	0.506380	0.000030
 682	6.7760e+01	6.7761	7.405895	0.000237	2.374961	0.402329	0.000024
 683	6.7859e+01	6.7824	7.433594	0.000278	2.784438	0.471696	0.000028
 684	6.7959e+01	6.7920	7.460071	0.000266	2.661595	0.450886	0.000027
 685	6.8058e+01	6.8020	7.490215	0.000303	3.030123	0.513317	0.000030
 686	6.8157e+01	6.8145	7.514248	0.000242	2.415909	0.409266	0.000024
 687	6.8257e+01	6.8206	7.539503	0.000254	2.538752	0.430076	0.000025
 688	6.8356e+01	6.8301	7.567203	0.000278	2.784438	0.471696	0.000028
 689	6.8456e+01	6.8423	7.594495	0.000274	2.743490	0.464760	0.000027
 690	6.8555e+01	6.8502	7.625860	0.000315	3.152966	0.534127	0.000032
 691	6.8655e+01	6.8604	7.654374	0.000287	2.866333	0.485570	0.000029
 692	6.8754e+01	6.8710	7.680444	0.000262	2.620647	0.443950	0.000026
 693	6.8854e+01	6.8822	7.706921	0.000266	2.661595	0.450886	0.000027
 694	6.8954e+01	6.8913	7.737064	0.000303	3.030123	0.513317	0.000030
 695	6.9053e+01	6.9004	7.761098	0.000242	2.415909	0.409266	0.000024
 696	6.9153e+01	6.9117	7.792870	0.000319	3.193914	0.541064	0.000032
 697	6.9252e+01	6.9201	7.815274	0.000225	2.252119	0.381519	0.000023
 698	6.9352e+01	6.9289	7.840122	0.000250	2.497804	0.423139	0.000025
 699	6.9451e+01	6.9402	7.870265	0.000303	3.030123	0.513317	0.000030
 700	6.9550e+01	6.9505	7.893484	0.000233	2.334014	0.395393	0.000023
 701	6.9650e+01	6.9598	7.919554	0.000262	2.620647	0.443950	0.000026
 702	6.9749e+01	6.9727	7.944402	0.000250	2.497804	0.423139	0.000025
 703	6.9849e+01	6.9805	7.972101	0.000278	2.784438	0.471696	0.000028
 704	6.9948e+01	6.9931	7.996542	0.000246	2.456857	0.416203	0.000025
 705	7.0048e+01	7.0004	8.020982	0.000246	2.456857	0.416203	0.000025
 706	7.0147e+01	7.0094	8.046237	0.000254	2.538752	0.430076	0.000025
 707	7.0247e+01	7.0219	8.079232	0.000332	3.316756	0.561874	0.000033
 708	7.0347e+01	7.0293	8.099599	0.000205	2.047381	0.346836	0.000020
 709	7.0446e+01	7.0410	8.128113	0.000287	2.866333	0.485570	0.000029
 710	7.0546e+01	7.0512	8.152554	0.000246	2.456857	0.416203	0.000025
 711	7.0645e+01	7.0603	8.174143	0.000217	2.170223	0.367646	0.000022
 712	7.0745e+01	7.0695	8.204286	0.000303	3.030123	0.513317	0.000030
 713	7.0844e+01	7.0808	8.229949	0.000258	2.579699	0.437013	0.000026
 714	7.0944e+01	7.0901	8.253982	0.000242	2.415909	0.409266	0.000024
 715	7.1043e+01	7.1000	8.282496	0.000287	2.866333	0.485570	0.000029
 716	7.1142e+01	7.1127	8.309788	0.000274	2.743490	0.464760	0.000027
 717	7.1242e+01	7.1220	8.333007	0.000233	2.334014	0.395393	0.000023
 718	7.1341e+01	7.1301	8.359891	0.000270	2.702542	0.457823	0.000027
 719	7.1441e+01	7.1400	8.387998	0.000283	2.825385	0.478633	0.000028
 720	7.1540e+01	7.1501	8.409587	0.000217	2.170223	0.367646	0.000022
 721	7.1640e+01	7.1614	8.437286	0.000278	2.784438	0.471696	0.000028
 722	7.1740e+01	7.1684	8.456431	0.000192	1.924538	0.326026	0.000019
 723	7.1839e+01	7.1798	8.484131	0.000278	2.784438	0.471696	0.000028
 724	7.1939e+01	7.1900	8.513052	0.000291	2.907280	0.492507	0.000029
 725	7.2038e+01	7.1999	8.539122	0.000262	2.620647	0.443950	0.000026
 726	7.2138e+01	7.2074	8.568858	0.000299	2.989176	0.506380	0.000030
 727	7.2237e+01	7.2179	8.592076	0.000233	2.334014	0.395393	0.000023
 728	7.2337e+01	7.2295	8.615702	0.000237	2.374961	0.402329	0.000024
 729	7.2436e+01	7.2386	8.639736	0.000242	2.415909	0.409266	0.000024
 730	7.2535e+01	7.2462	8.669472	0.000299	2.989176	0.506380	0.000030
 731	7.2635e+01	7.2578	8.691875	0.000225	2.252119	0.381519	0.000023
 732	7.2734e+01	7.2678	8.715909	0.000242	2.415909	0.409266	0.000024
 733	7.2834e+01	7.2767	8.738312	0.000225	2.252119	0.381519	0.000023
 734	7.2933e+01	7.2900	8.767641	0.000295	2.948228	0.499443	0.000029
 735	7.3033e+01	7.2990	8.790452	0.000229	2.293066	0.388456	0.000023
 736	7.3132e+01	7.3101	8.816930	0.000266	2.661595	0.450886	0.000027
 737	7.3232e+01	7.3183	8.845444	0.000287	2.866333	0.485570	0.000029
 738	7.3332e+01	7.3284	8.867847	0.000225	2.252119	0.381519	0.000023
 739	7.3431e+01	7.3397	8.891881	0.000242	2.415909	0.409266	0.000024
 740	7.3531e+01	7.3492	8.919987	0.000283	2.825385	0.478633	0.000028
 741	7.3630e+01	7.3589	8.942391	0.000225	2.252119	0.381519	0.000023
 742	7.3730e+01	7.3660	8.967239	0.000250	2.497804	0.423139	0.000025
 743	7.3829e+01	7.3763	8.992494	0.000254	2.538752	0.430076	0.000025
 744	7.3928e+01	7.3870	9.019379	0.000270	2.702542	0.457823	0.000027
 745	7.4028e+01	7.3988	9.044634	0.000254	2.538752	0.430076	0.000025
 746	7.4127e+01	7.4072	9.069075	0.000246	2.456857	0.416203	0.000025
 747	7.4227e+01	7.4174	9.093108	0.000242	2.415909	0.409266	0.000024
 748	7.4326e+01	7.4282	9.117956	0.000250	2.497804	0.423139	0.000025
 749	7.4426e+01	7.4368	9.146877	0.000291	2.907280	0.492507	0.000029
 750	7.4525e+01	7.4499	9.172947	0.000262	2.620647	0.443950	0.000026
 751	7.4625e+01	7.4572	9.202683	0.000299	2.989176	0.506380	0.000030
 752	7.4725e+01	7.4693	9.223865	0.000213	2.129276	0.360709	0.000021
 753	7.4824e+01	7.4751	9.252379	0.000287	2.866333	0.485570	0.000029
 754	7.4924e+01	7.4856	9.280485	0.000283	2.825385	0.478633	0.000028
 755	7.5023e+01	7.4986	9.305333	0.000250	2.497804	0.423139	0.000025
 756	7.5123e+01	7.5063	9.330181	0.000250	2.497804	0.423139	0.000025
 757	7.5222e+01	7.5179	9.355436	0.000254	2.538752	0.430076	0.000025
 758	7.5322e+01	7.5274	9.380692	0.000254	2.538752	0.430076	0.000025
 759	7.5421e+01	7.5381	9.408391	0.000278	2.784438	0.471696	0.000028
 760	7.5520e+01	7.5488	9.432831	0.000246	2.456857	0.416203	0.000025
 761	7.5620e+01	7.5586	9.453199	0.000205	2.047381	0.346836	0.000020
 762	7.5719e+01	7.5677	9.483749	0.000307	3.071071	0.520253	0.000031
 763	7.5819e+01	7.5756	9.504931	0.000213	2.129276	0.360709	0.000021
 764	7.5918e+01	7.5879	9.528964	0.000242	2.415909	0.409266	0.000024
 765	7.6018e+01	7.5977	9.557071	0.000283	2.825385	0.478633	0.000028
 766	7.6118e+01	7.6057	9.585178	0.000283	2.825385	0.478633	0.000028
 767	7.6217e+01	7.6150	9.606359	0.000213	2.129276	0.360709	0.000021
 768	7.6317e+01	7.6270	9.630393	0.000242	2.415909	0.409266	0.000024
 769	7.6416e+01	7.6353	9.654018	0.000237	2.374961	0.402329	0.000024
 770	7.6516e+01	7.6465	9.677237	0.000233	2.334014	0.395393	0.000023
 771	7.6615e+01	7.6575	9.702085	0.000250	2.497804	0.423139	0.000025
 772	7.6715e+01	7.6652	9.722452	0.000205	2.047381	0.346836	0.000020
 773	7.6814e+01	7.6794	9.744041	0.000217	2.170223	0.367646	0.000022
 774	7.6913e+01	7.6883	9.770926	0.000270	2.702542	0.457823	0.000027
 775	7.7013e+01	7.6978	9.790071	0.000192	1.924538	0.326026	0.000019
 776	7.7112e+01	7.7052	9.813289	0.000233	2.334014	0.395393	0.000023
 777	7.7212e+01	7.7154	9.839359	0.000262	2.620647	0.443950	0.000026
 778	7.7311e+01	7.7273	9.858504	0.000192	1.924538	0.326026	0.000019
 779	7.7411e+01	7.7374	9.886611	0.000283	2.825385	0.478633	0.000028
 780	7.7510e+01	7.7467	9.905349	0.000188	1.883590	0.319089	0.000019
 781	7.7610e+01	7.7564	9.932233	0.000270	2.702542	0.457823	0.000027
 782	7.7710e+01	7.7666	9.953823	0.000217	2.170223	0.367646	0.000022
 783	7.7809e+01	7.7753	9.980300	0.000266	2.661595	0.450886	0.000027
 784	7.7909e+01	7.7859	10.005555	0.000254	2.538752	0.430076	0.000025
 785	7.8008e+01	7.7979	10.029588	0.000242	2.415909	0.409266	0.000024
 786	7.8108e+01	7.8036	10.054436	0.000250	2.497804	0.423139	0.000025
 787	7.8207e+01	7.8157	10.076840	0.000225	2.252119	0.381519	0.000023
 788	7.8306e+01	7.8237	10.100466	0.000237	2.374961	0.402329	0.000024
 789	7.8406e+01	7.8364	10.126943	0.000266	2.661595	0.450886	0.000027
 790	7.8505e+01	7.8471	10.143644	0.000168	1.678852	0.284405	0.000017
 791	7.8605e+01	7.8564	10.170936	0.000274	2.743490	0.464760	0.000027
 792	7.8704e+01	7.8654	10.195377	0.000246	2.456857	0.416203	0.000025
 793	7.8804e+01	7.8803	10.221039	0.000258	2.579699	0.437013	0.000026
 794	7.8903e+01	7.8869	10.246702	0.000258	2.579699	0.437013	0.000026
 795	7.9003e+01	7.8973	10.269106	0.000225	2.252119	0.381519	0.000023
 796	7.9103e+01	7.9049	10.292732	0.000237	2.374961	0.402329	0.000024
 797	7.9202e+01	7.9186	10.318394	0.000258	2.579699	0.437013	0.000026
 798	7.9302e+01	7.9253	10.344057	0.000258	2.579699	0.437013	0.000026
 799	7.9401e+01	7.9353	10.368090	0.000242	2.415909	0.409266	0.000024
 800	7.9501e+01	7.9446	10.389679	0.000217	2.170223	0.367646	0.000022
 801	7.9600e+01	7.9550	10.414934	0.000254	2.538752	0.430076	0.000025
 802	7.9700e+01	7.9642	10.437338	0.000225	2.252119	0.381519	0.000023
 803	7.9799e+01	7.9737	10.461779	0.000246	2.456857	0.416203	0.000025
 804	7.9898e+01	7.9841	10.485405	0.000237	2.374961	0.402329	0.000024
 805	7.9998e+01	7.9936	10.504957	0.000197	1.965485	0.332962	0.000020
 806	8.0097e+01	8.0051	10.529398	0.000246	2.456857	0.416203	0.000025
 807	8.0197e+01	8.0154	10.557504	0.000283	2.825385	0.478633	0.000028
 808	8.0296e+01	8.0264	10.579093	0.000217	2.170223	0.367646	0.000022
 809	8.0396e+01	8.0332	10.605978	0.000270	2.702542	0.457823	0.000027
 810	8.0496e+01	8.0454	10.628789	0.000229	2.293066	0.388456	0.000023
 811	8.0595e+01	8.0540	10.653230	0.000246	2.456857	0.416203	0.000025
 812	8.0695e+01	8.0664	10.676856	0.000237	2.374961	0.402329	0.000024
 813	8.0794e+01	8.0752	10.700889	0.000242	2.415909	0.409266	0.000024
 814	8.0894e+01	8.0843	10.726959	0.000262	2.620647	0.443950	0.000026
 815	8.0993e+01	8.0954	10.751399	0.000246	2.456857	0.416203	0.000025
 816	8.1093e+01	8.1065	10.779913	0.000287	2.866333	0.485570	0.000029
 817	8.1192e+01	8.1139	10.801095	0.000213	2.129276	0.360709	0.000021
 818	8.1291e+01	8.1229	10.825536	0.000246	2.456857	0.416203	0.000025
 819	8.1391e+01	8.1350	10.850384	0.000250	2.497804	0.423139	0.000025
 820	8.1490e+01	8.1422	10.874824	0.000246	2.456857	0.416203	0.000025
 821	8.1590e+01	8.1525	10.896006	0.000213	2.129276	0.360709	0.000021
 822	8.1689e+01	8.1644	10.917188	0.000213	2.129276	0.360709	0.000021
 823	8.1789e+01	8.1750	10.941221	0.000242	2.415909	0.409266	0.000024
 824	8.1888e+01	8.1895	10.969735	0.000287	2.866333	0.485570	0.000029
 825	8.1988e+01	8.1948	10.992546	0.000229	2.293066	0.388456	0.000023
 826	8.2088e+01	8.2035	11.018209	0.000258	2.579699	0.437013	0.000026
 827	8.2187e+01	8.2156	11.040613	0.000225	2.252119	0.381519	0.000023
 828	8.2287e+01	8.2241	11.065460	0.000250	2.497804	0.423139	0.000025
 829	8.2386e+01	8.2333	11.091938	0.000266	2.661595	0.450886	0.000027
 830	8.2486e+01	8.2431	11.113527	0.000217	2.170223	0.367646	0.000022
 831	8.2585e+01	8.2528	11.136745	0.000233	2.334014	0.395393	0.000023
 832	8.2684e+01	8.2634	11.160779	0.000242	2.415909	0.409266	0.000024
 833	8.2784e+01	8.2764	11.183997	0.000233	2.334014	0.395393	0.000023
 834	8.2883e+01	8.2845	11.203957	0.000201	2.006433	0.339899	0.000020
 835	8.2983e+01	8.2944	11.229212	0.000254	2.538752	0.430076	0.000025
 836	8.3082e+01	8.3058	11.251209	0.000221	2.211171	0.374583	0.000022
 837	8.3182e+01	8.3132	11.275242	0.000242	2.415909	0.409266	0.000024
 838	8.3281e+01	8.3212	11.296016	0.000209	2.088328	0.353772	0.000021
 839	8.3381e+01	8.3286	11.319235	0.000233	2.334014	0.395393	0.000023
 840	8.3481e+01	8.3413	11.340009	0.000209	2.088328	0.353772	0.000021
 841	8.3580e+01	8.3535	11.365265	0.000254	2.538752	0.430076	0.000025
 842	8.3680e+01	8.3636	11.390927	0.000258	2.579699	0.437013	0.000026
 843	8.3779e+01	8.3728	11.411702	0.000209	2.088328	0.353772	0.000021
 844	8.3879e+01	8.3839	11.435735	0.000242	2.415909	0.409266	0.000024
 845	8.3978e+01	8.3952	11.456102	0.000205	2.047381	0.346836	0.000020
 846	8.4078e+01	8.4009	11.485023	0.000291	2.907280	0.492507	0.000029
 847	8.4177e+01	8.4159	11.506612	0.000217	2.170223	0.367646	0.000022
 848	8.4276e+01	8.4262	11.531460	0.000250	2.497804	0.423139	0.000025
 849	8.4376e+01	8.4332	11.555086	0.000237	2.374961	0.402329	0.000024
 850	8.4475e+01	8.4434	11.578712	0.000237	2.374961	0.402329	0.000024
 851	8.4575e+01	8.4531	11.603967	0.000254	2.538752	0.430076	0.000025
 852	8.4674e+01	8.4641	11.626371	0.000225	2.252119	0.381519	0.000023
 853	8.4774e+01	8.4713	11.653256	0.000270	2.702542	0.457823	0.000027
 854	8.4874e+01	8.4836	11.678511	0.000254	2.538752	0.430076	0.000025
 855	8.4973e+01	8.4957	11.706210	0.000278	2.784438	0.471696	0.000028
 856	8.5073e+01	8.5014	11.725763	0.000197	1.965485	0.332962	0.000020
 857	8.5172e+01	8.5120	11.759165	0.000336	3.357704	0.568810	0.000034
 858	8.5272e+01	8.5222	11.782791	0.000237	2.374961	0.402329	0.000024
 859	8.5371e+01	8.5303	11.807639	0.000250	2.497804	0.423139	0.000025
 860	8.5471e+01	8.5422	11.834116	0.000266	2.661595	0.450886	0.000027
 861	8.5570e+01	8.5540	11.860593	0.000266	2.661595	0.450886	0.000027
 862	8.5669e+01	8.5632	11.881775	0.000213	2.129276	0.360709	0.000021
 863	8.5769e+01	8.5715	11.909882	0.000283	2.825385	0.478633	0.000028
 864	8.5868e+01	8.5847	11.935544	0.000258	2.579699	0.437013	0.000026
 865	8.5968e+01	8.5919	11.962836	0.000274	2.743490	0.464760	0.000027
 866	8.6067e+01	8.6021	11.984018	0.000213	2.129276	0.360709	0.000021
 867	8.6167e+01	8.6133	12.012532	0.000287	2.866333	0.485570	0.000029
 868	8.6266e+01	8.6230	12.033714	0.000213	2.129276	0.360709	0.000021
 869	8.6366e+01	8.6331	12.055303	0.000217	2.170223	0.367646	0.000022
 870	8.6466e+01	8.6417	12.078929	0.000237	2.374961	0.402329	0.000024
 871	8.6565e+01	8.6552	12.102147	0.000233	2.334014	0.395393	0.000023
 872	8.6665e+01	8.6632	12.128624	0.000266	2.661595	0.450886	0.000027
 873	8.6764e+01	8.6703	12.153065	0.000246	2.456857	0.416203	0.000025
 874	8.6864e+01	8.6813	12.182394	0.000295	2.948228	0.499443	0.000029
 875	8.6963e+01	8.6917	12.206020	0.000237	2.374961	0.402329	0.000024
 876	8.7063e+01	8.7005	12.226387	0.000205	2.047381	0.346836	0.000020
 877	8.7162e+01	8.7112	12.250827	0.000246	2.456857	0.416203	0.000025
 878	8.7261e+01	8.7225	12.275675	0.000250	2.497804	0.423139	0.000025
 879	8.7361e+01	8.7305	12.301745	0.000262	2.620647	0.443950	0.000026
 880	8.7460e+01	8.7409	12.324149	0.000225	2.252119	0.381519	0.000023
 881	8.7560e+01	8.7512	12.345331	0.000213	2.129276	0.360709	0.000021
 882	8.7659e+01	8.7611	12.375067	0.000299	2.989176	0.506380	0.000030
 883	8.7759e+01	8.7724	12.397063	0.000221	2.211171	0.374583	0.000022
 884	8.7859e+01	8.7817	12.420282	0.000233	2.334014	0.395393	0.000023
 885	8.7958e+01	8.7894	12.445537	0.000254	2.538752	0.430076	0.000025
 886	8.8058e+01	8.8013	12.472829	0.000274	2.743490	0.464760	0.000027
 887	8.8157e+01	8.8107	12.494825	0.000221	2.211171	0.374583	0.000022
 888	8.8257e+01	8.8205	12.516822	0.000221	2.211171	0.374583	0.000022
 889	8.8356e+01	8.8338	12.541262	0.000246	2.456857	0.416203	0.000025
 890	8.8456e+01	8.8408	12.567332	0.000262	2.620647	0.443950	0.000026
 891	8.8555e+01	8.8494	12.590958	0.000237	2.374961	0.402329	0.000024
 892	8.8654e+01	8.8609	12.613362	0.000225	2.252119	0.381519	0.000023
 893	8.8754e+01	8.8705	12.639839	0.000266	2.661595	0.450886	0.000027
 894	8.8853e+01	8.8812	12.666724	0.000270	2.702542	0.457823	0.000027
 895	8.8953e+01	8.8897	12.689128	0.000225	2.252119	0.381519	0.000023
 896	8.9052e+01	8.9004	12.713976	0.000250	2.497804	0.423139	0.000025
 897	8.9152e+01	8.9081	12.737602	0.000237	2.374961	0.402329	0.000024
 898	8.9251e+01	8.9198	12.759598	0.000221	2.211171	0.374583	0.000022
 899	8.9351e+01	8.9290	12.784039	0.000246	2.456857	0.416203	0.000025
 900	8.9451e+01	8.9407	12.806035	0.000221	2.211171	0.374583	0.000022
 901	8.9550e+01	8.9513	12.831698	0.000258	2.579699	0.437013	0.000026
 902	8.9650e+01	8.9590	12.853694	0.000221	2.211171	0.374583	0.000022
 903	8.9749e+01	8.9706	12.883023	0.000295	2.948228	0.499443	0.000029
 904	8.9849e+01	8.9804	12.902168	0.000192	1.924538	0.326026	0.000019
 905	8.9948e+01	8.9907	12.925387	0.000233	2.334014	0.395393	0.000023
 906	9.0047e+01	8.9993	12.952678	0.000274	2.743490	0.464760	0.000027
 907	9.0147e+01	9.0101	12.974268	0.000217	2.170223	0.367646	0.000022
 908	9.0246e+01	9.0228	13.001560	0.000274	2.743490	0.464760	0.000027
 909	9.0346e+01	9.0298	13.023963	0.000225	2.252119	0.381519	0.000023
 910	9.0445e+01	9.0405	13.047997	0.000242	2.415909	0.409266	0.000024
 911	9.0545e+01	9.0455	13.067956	0.000201	2.006433	0.339899	0.000020
 912	9.0644e+01	9.0591	13.096878	0.000291	2.907280	0.492507	0.000029
 913	9.0744e+01	9.0684	13.119689	0.000229	2.293066	0.388456	0.000023
 914	9.0844e+01	9.0782	13.143722	0.000242	2.415909	0.409266	0.000024
 915	9.0943e+01	9.0881	13.168570	0.000250	2.497804	0.423139	0.000025
 916	9.1043e+01	9.0984	13.191381	0.000229	2.293066	0.388456	0.000023
 917	9.1142e+01	9.1066	13.219488	0.000283	2.825385	0.478633	0.000028
 918	9.1242e+01	9.1211	13.245965	0.000266	2.661595	0.450886	0.000027
 919	9.1341e+01	9.1314	13.273664	0.000278	2.784438	0.471696	0.000028
 920	9.1441e+01	9.1407	13.299327	0.000258	2.579699	0.437013	0.000026
 921	9.1540e+01	9.1504	13.322953	0.000237	2.374961	0.402329	0.000024
 922	9.1639e+01	9.1596	13.349837	0.000270	2.702542	0.457823	0.000027
 923	9.1739e+01	9.1688	13.374278	0.000246	2.456857	0.416203	0.000025
 924	9.1838e+01	9.1785	13.397904	0.000237	2.374961	0.402329	0.000024
 925	9.1938e+01	9.1895	13.425603	0.000278	2.784438	0.471696	0.000028
 926	9.2037e+01	9.1994	13.446378	0.000209	2.088328	0.353772	0.000021
 927	9.2137e+01	9.2139	13.474077	0.000278	2.784438	0.471696	0.000028
 928	9.2237e+01	9.2191	13.497295	0.000233	2.334014	0.395393	0.000023
 929	9.2336e+01	9.2296	13.521736	0.000246	2.456857	0.416203	0.000025
 930	9.2436e+01	9.2397	13.547399	0.000258	2.579699	0.437013	0.000026
 931	9.2535e+01	9.2462	13.572654	0.000254	2.538752	0.430076	0.000025
 932	9.2635e+01	9.2588	13.594243	0.000217	2.170223	0.367646	0.000022
 933	9.2734e+01	9.2677	13.620720	0.000266	2.661595	0.450886	0.000027
 934	9.2834e+01	9.2786	13.644346	0.000237	2.374961	0.402329	0.000024
 935	9.2933e+01	9.2887	13.670009	0.000258	2.579699	0.437013	0.000026
 936	9.3032e+01	9.2970	13.692005	0.000221	2.211171	0.374583	0.000022
 937	9.3132e+01	9.3066	13.715631	0.000237	2.374961	0.402329	0.000024
 938	9.3231e+01	9.3177	13.735591	0.000201	2.006433	0.339899	0.000020
 939	9.3331e+01	9.3311	13.755958	0.000205	2.047381	0.346836	0.000020
 940	9.3430e+01	9.3401	13.780399	0.000246	2.456857	0.416203	0.000025
 941	9.3530e+01	9.3468	13.802802	0.000225	2.252119	0.381519	0.000023
 942	9.3629e+01	9.3569	13.822762	0.000201	2.006433	0.339899	0.000020
 943	9.3729e+01	9.3678	13.846388	0.000237	2.374961	0.402329	0.000024
 944	9.3829e+01	9.3777	13.872458	0.000262	2.620647	0.443950	0.000026
 945	9.3928e+01	9.3874	13.895269	0.000229	2.293066	0.388456	0.000023
 946	9.4028e+01	9.3970	13.916451	0.000213	2.129276	0.360709	0.000021
 947	9.4127e+01	9.4072	13.942114	0.000258	2.579699	0.437013	0.000026
 948	9.4227e+01	9.4233	13.968183	0.000262	2.620647	0.443950	0.000026
 949	9.4326e+01	9.4263	13.990995	0.000229	2.293066	0.388456	0.000023
 950	9.4425e+01	9.4360	14.012584	0.000217	2.170223	0.367646	0.000022
 951	9.4525e+01	9.4466	14.032544	0.000201	2.006433	0.339899	0.000020
 952	9.4624e+01	9.4580	14.057799	0.000254	2.538752	0.430076	0.000025
 953	9.4724e+01	9.4654	14.087127	0.000295	2.948228	0.499443	0.000029
 954	9.4823e+01	9.4752	14.110753	0.000237	2.374961	0.402329	0.000024
 955	9.4923e+01	9.4852	14.132342	0.000217	2.170223	0.367646	0.000022
 956	9.5022e+01	9.4971	14.160042	0.000278	2.784438	0.471696	0.000028
 957	9.5122e+01	9.5052	14.181631	0.000217	2.170223	0.367646	0.000022
 958	9.5222e+01	9.5166	14.206479	0.000250	2.497804	0.423139	0.000025
 959	9.5321e+01	9.5256	14.231734	0.000254	2.538752	0.430076	0.000025
 960	9.5421e+01	9.5352	14.255767	0.000242	2.415909	0.409266	0.000024
 961	9.5520e+01	9.5471	14.276134	0.000205	2.047381	0.346836	0.000020
 962	9.5620e+01	9.5573	14.303834	0.000278	2.784438	0.471696	0.000028
 963	9.5719e+01	9.5673	14.326645	0.000229	2.293066	0.388456	0.000023
 964	9.5819e+01	9.5773	14.355974	0.000295	2.948228	0.499443	0.000029
 965	9.5918e+01	9.5873	14.377970	0.000221	2.211171	0.374583	0.000022
 966	9.6017e+01	9.5954	14.401189	0.000233	2.334014	0.395393	0.000023
 967	9.6117e+01	9.6063	14.428888	0.000278	2.784438	0.471696	0.000028
 968	9.6216e+01	9.6201	14.453736	0.000250	2.497804	0.423139	0.000025
 969	9.6316e+01	9.6246	14.474510	0.000209	2.088328	0.353772	0.000021
 970	9.6415e+01	9.6362	14.500987	0.000266	2.661595	0.450886	0.000027
 971	9.6515e+01	9.6460	14.525021	0.000242	2.415909	0.409266	0.000024
 972	9.6615e+01	9.6574	14.549869	0.000250	2.497804	0.423139	0.000025
 973	9.6714e+01	9.6638	14.571458	0.000217	2.170223	0.367646	0.000022
 974	9.6814e+01	9.6769	14.593047	0.000217	2.170223	0.367646	0.000022
 975	9.6913e+01	9.6863	14.622783	0.000299	2.989176	0.506380	0.000030
 976	9.7013e+01	9.6955	14.644372	0.000217	2.170223	0.367646	0.000022
 977	9.7112e+01	9.7070	14.671257	0.000270	2.702542	0.457823	0.000027
 978	9.7212e+01	9.7168	14.694883	0.000237	2.374961	0.402329	0.000024
 979	9.7311e+01	9.7248	14.724211	0.000295	2.948228	0.499443	0.000029
 980	9.7410e+01	9.7355	14.746208	0.000221	2.211171	0.374583	0.000022
 981	9.7510e+01	9.7469	14.773092	0.000270	2.702542	0.457823	0.000027
 982	9.7609e+01	9.7565	14.798755	0.000258	2.579699	0.437013	0.000026
 983	9.7709e+01	9.7634	14.821973	0.000233	2.334014	0.395393	0.000023
 984	9.7808e+01	9.7755	14.845599	0.000237	2.374961	0.402329	0.000024
 985	9.7908e+01	9.7842	14.873706	0.000283	2.825385	0.478633	0.000028
 986	9.8007e+01	9.7941	14.891629	0.000180	1.801695	0.305215	0.000018
 987	9.8107e+01	9.8067	14.922994	0.000315	3.152966	0.534127	0.000032
 988	9.8207e+01	9.8148	14.949064	0.000262	2.620647	0.443950	0.000026
 989	9.8306e+01	9.8231	14.973098	0.000242	2.415909	0.409266	0.000024
 990	9.8406e+01	9.8342	14.999167	0.000262	2.620647	0.443950	0.000026
 991	9.8505e+01	9.8464	15.022793	0.000237	2.374961	0.402329	0.000024
 992	9.8605e+01	9.8566	15.050493	0.000278	2.784438	0.471696	0.000028
 993	9.8704e+01	9.8644	15.075340	0.000250	2.497804	0.423139	0.000025
 994	9.8803e+01	9.8743	15.098152	0.000229	2.293066	0.388456	0.000023
 995	9.8903e+01	9.8843	15.125036	0.000270	2.702542	0.457823	0.000027
 996	9.9002e+01	9.8962	15.151106	0.000262	2.620647	0.443950	0.000026
 997	9.9102e+01	9.9048	15.175954	0.000250	2.497804	0.423139	0.000025
 998	9.9201e+01	9.9134	15.200802	0.000250	2.497804	0.423139	0.000025
 999	9.9301e+01	9.9238	15.226057	0.000254	2.538752	0.430076	0.000025
1000	9.9400e+01	9.9341	15.248868	0.000229	2.293066	0.388456	0.000023
1001	9.9500e+01	9.9454	15.273716	0.000250	2.497804	0.423139	0.000025
1002	9.9600e+01	9.9561	15.297342	0.000237	2.374961	0.402329	0.000024
1003	9.9699e+01	9.9658	15.321375	0.000242	2.415909	0.409266	0.000024
1004	9.9799e+01	9.9731	15.344594	0.000233	2.334014	0.395393	0.000023
1005	9.9898e+01	9.9847	15.370664	0.000262	2.620647	0.443950	0.000026
1006	9.9998e+01	9.9937	15.392660	0.000221	2.211171	0.374583	0.000022
1007	1.0010e+02	9.9834	15.382069	0.000106	1.064638	0.180355	-0.000011
1008	1.0020e+02	9.9731	15.371071	0.000111	1.105585	0.187291	-0.000011
1009	1.0030e+02	9.9635	15.357629	0.000135	1.351271	0.228912	-0.000014
1010	1.0040e+02	9.9542	15.347445	0.000102	1.023690	0.173418	-0.000010
1011	1.0050e+02	9.9451	15.331966	0.000156	1.556009	0.263595	-0.000016
1012	1.0059e+02	9.9368	15.322190	0.000098	0.982743	0.166481	-0.000010
1013	1.0069e+02	9.9244	15.308748	0.000135	1.351271	0.228912	-0.000014
1014	1.0079e+02	9.9142	15.295713	0.000131	1.310324	0.221975	-0.000013
1015	1.0089e+02	9.9039	15.279826	0.000160	1.596957	0.270532	-0.000016
1016	1.0099e+02	9.8935	15.267199	0.000127	1.269376	0.215038	-0.000013
1017	1.0109e+02	9.8853	15.257423	0.000098	0.982743	0.166481	-0.000010
1018	1.0119e+02	9.8749	15.240314	0.000172	1.719800	0.291342	-0.000017
1019	1.0129e+02	9.8617	15.224021	0.000164	1.637904	0.277469	-0.000016
1020	1.0139e+02	9.8549	15.214652	0.000094	0.941795	0.159544	-0.000009
1021	1.0149e+02	9.8445	15.200802	0.000139	1.392219	0.235848	-0.000014
1022	1.0159e+02	9.8350	15.189396	0.000115	1.146533	0.194228	-0.000011
1023	1.0169e+02	9.8255	15.177176	0.000123	1.228428	0.208101	-0.000012
1024	1.0179e+02	9.8147	15.166585	0.000106	1.064638	0.180355	-0.000011
1025	1.0189e+02	9.8035	15.152736	0.000139	1.392219	0.235848	-0.000014
1026	1.0199e+02	9.7961	15.138071	0.000147	1.474114	0.249722	-0.000015
1027	1.0209e+02	9.7868	15.128702	0.000094	0.941795	0.159544	-0.000009
1028	1.0219e+02	9.7744	15.110779	0.000180	1.801695	0.305215	-0.000018
1029	1.0229e+02	9.7656	15.097744	0.000131	1.310324	0.221975	-0.000013
1030	1.0239e+02	9.7598	15.085931	0.000119	1.187481	0.201165	-0.000012
1031	1.0248e+02	9.7461	15.073711	0.000123	1.228428	0.208101	-0.000012
1032	1.0258e+02	9.7372	15.057825	0.000160	1.596957	0.270532	-0.000016
1033	1.0268e+02	9.7253	15.043568	0.000143	1.433166	0.242785	-0.000014
1034	1.0278e+02	9.7155	15.027681	0.000160	1.596957	0.270532	-0.000016
1035	1.0288e+02	9.7070	15.010980	0.000168	1.678852	0.284405	-0.000017
1036	1.0298e+02	9.6973	14.995909	0.000152	1.515062	0.256658	-0.000015
1037	1.0308e+02	9.6859	14.985725	0.000102	1.023690	0.173418	-0.000010
1038	1.0318e+02	9.6753	14.966987	0.000188	1.883590	0.319089	-0.000019
1039	1.0328e+02	9.6656	14.949879	0.000172	1.719800	0.291342	-0.000017
1040	1.0338e+02	9.6558	14.934807	0.000152	1.515062	0.256658	-0.000015
1041	1.0348e+02	9.6445	14.917292	0.000176	1.760747	0.298279	-0.000018
1042	1.0358e+02	9.6364	14.905071	0.000123	1.228428	0.208101	-0.000012
1043	1.0368e+02	9.6265	14.887963	0.000172	1.719800	0.291342	-0.000017
1044	1.0378e+02	9.6156	14.870447	0.000176	1.760747	0.298279	-0.000018
1045	1.0388e+02	9.6070	14.853746	0.000168	1.678852	0.284405	-0.000017
1046	1.0398e+02	9.5963	14.837860	0.000160	1.596957	0.270532	-0.000016
1047	1.0408e+02	9.5861	14.825640	0.000123	1.228428	0.208101	-0.000012
1048	1.0418e+02	9.5753	14.806494	0.000192	1.924538	0.326026	-0.000019
1049	1.0428e+02	9.5692	14.792237	0.000143	1.433166	0.242785	-0.000014
1050	1.0438e+02	9.5569	14.778388	0.000139	1.392219	0.235848	-0.000014
1051	1.0447e+02	9.5467	14.757206	0.000213	2.129276	0.360709	-0.000021
1052	1.0457e+02	9.5331	14.742134	0.000152	1.515062	0.256658	-0.000015
1053	1.0467e+02	9.5258	14.722174	0.000201	2.006433	0.339899	-0.000020
1054	1.0477e+02	9.5170	14.711991	0.000102	1.023690	0.173418	-0.000010
1055	1.0487e+02	9.5050	14.692846	0.000192	1.924538	0.326026	-0.000019
1056	1.0497e+02	9.4946	14.678589	0.000143	1.433166	0.242785	-0.000014
1057	1.0507e+02	9.4866	14.659851	0.000188	1.883590	0.319089	-0.000019
1058	1.0517e+02	9.4761	14.644372	0.000156	1.556009	0.263595	-0.000016
1059	1.0527e+02	9.4678	14.620746	0.000237	2.374961	0.402329	-0.000024
1060	1.0537e+02	9.4540	14.611377	0.000094	0.941795	0.159544	-0.000009
1061	1.0547e+02	9.4489	14.590603	0.000209	2.088328	0.353772	-0.000021
1062	1.0557e+02	9.4357	14.575531	0.000152	1.515062	0.256658	-0.000015
1063	1.0567e+02	9.4263	14.557608	0.000180	1.801695	0.305215	-0.000018
1064	1.0577e+02	9.4169	14.540500	0.000172	1.719800	0.291342	-0.000017
1065	1.0587e+02	9.4073	14.525835	0.000147	1.474114	0.249722	-0.000015
1066	1.0597e+02	9.3977	14.507505	0.000184	1.842642	0.312152	-0.000018
1067	1.0607e+02	9.3863	14.489989	0.000176	1.760747	0.298279	-0.000018
1068	1.0617e+02	9.3784	14.471659	0.000184	1.842642	0.312152	-0.000018
1069	1.0627e+02	9.3658	14.454958	0.000168	1.678852	0.284405	-0.000017
1070	1.0637e+02	9.3583	14.433776	0.000213	2.129276	0.360709	-0.000021
1071	1.0647e+02	9.3458	14.419926	0.000139	1.392219	0.235848	-0.000014
1072	1.0656e+02	9.3366	14.402818	0.000172	1.719800	0.291342	-0.000017
1073	1.0666e+02	9.3290	14.382858	0.000201	2.006433	0.339899	-0.000020
1074	1.0676e+02	9.3213	14.365750	0.000172	1.719800	0.291342	-0.000017
1075	1.0686e+02	9.3069	14.346605	0.000192	1.924538	0.326026	-0.000019
1076	1.0696e+02	9.2974	14.331940	0.000147	1.474114	0.249722	-0.000015
1077	1.0706e+02	9.2852	14.309944	0.000221	2.211171	0.374583	-0.000022
1078	1.0716e+02	9.2802	14.290391	0.000197	1.965485	0.332962	-0.000020
1079	1.0726e+02	9.2712	14.273283	0.000172	1.719800	0.291342	-0.000017
1080	1.0736e+02	9.2570	14.254953	0.000184	1.842642	0.312152	-0.000018
1081	1.0746e+02	9.2493	14.237437	0.000176	1.760747	0.298279	-0.000018
1082	1.0756e+02	9.2384	14.223995	0.000135	1.351271	0.228912	-0.000014
1083	1.0766e+02	9.2269	14.203220	0.000209	2.088328	0.353772	-0.000021
1084	1.0776e+02	9.2168	14.187334	0.000160	1.596957	0.270532	-0.000016
1085	1.0786e+02	9.2083	14.169411	0.000180	1.801695	0.305215	-0.000018
1086	1.0796e+02	9.1996	14.153117	0.000164	1.637904	0.277469	-0.000016
1087	1.0806e+02	9.1870	14.140489	0.000127	1.269376	0.215038	-0.000013
1088	1.0816e+02	9.1782	14.119715	0.000209	2.088328	0.353772	-0.000021
1089	1.0826e+02	9.1693	14.106273	0.000135	1.351271	0.228912	-0.000014
1090	1.0836e+02	9.1610	14.086720	0.000197	1.965485	0.332962	-0.000020
1091	1.0845e+02	9.1495	14.066353	0.000205	2.047381	0.346836	-0.000020
1092	1.0855e+02	9.1398	14.048837	0.000176	1.760747	0.298279	-0.000018
1093	1.0865e+02	9.1300	14.030100	0.000188	1.883590	0.319089	-0.000019
1094	1.0875e+02	9.1184	14.017879	0.000123	1.228428	0.208101	-0.000012
1095	1.0885e+02	9.1097	13.997512	0.000205	2.047381	0.346836	-0.000020
1096	1.0895e+02	9.0987	13.981626	0.000160	1.596957	0.270532	-0.000016
1097	1.0905e+02	9.0907	13.962073	0.000197	1.965485	0.332962	-0.000020
1098	1.0915e+02	9.0812	13.940077	0.000221	2.211171	0.374583	-0.000022
1099	1.0925e+02	9.0698	13.920524	0.000197	1.965485	0.332962	-0.000020
1100	1.0935e+02	9.0577	13.905045	0.000156	1.556009	0.263595	-0.000016
1101	1.0945e+02	9.0482	13.883864	0.000213	2.129276	0.360709	-0.000021
1102	1.0955e+02	9.0396	13.865940	0.000180	1.801695	0.305215	-0.000018
1103	1.0965e+02	9.0276	13.845573	0.000205	2.047381	0.346836	-0.000020
1104	1.0975e+02	9.0187	13.824799	0.000209	2.088328	0.353772	-0.000021
1105	1.0985e+02	9.0079	13.805654	0.000192	1.924538	0.326026	-0.000019
1106	1.0995e+02	9.0003	13.782843	0.000229	2.293066	0.388456	-0.000023
1107	1.1005e+02	8.9903	13.766549	0.000164	1.637904	0.277469	-0.000016
1108	1.1015e+02	8.9774	13.742923	0.000237	2.374961	0.402329	-0.000024
1109	1.1025e+02	8.9711	13.721741	0.000213	2.129276	0.360709	-0.000021
1110	1.1035e+02	8.9606	13.700152	0.000217	2.170223	0.367646	-0.000022
1111	1.1044e+02	8.9506	13.678156	0.000221	2.211171	0.374583	-0.000022
1112	1.1054e+02	8.9381	13.659010	0.000192	1.924538	0.326026	-0.000019
1113	1.1064e+02	8.9301	13.641902	0.000172	1.719800	0.291342	-0.000017
1114	1.1074e+02	8.9175	13.622350	0.000197	1.965485	0.332962	-0.000020
1115	1.1084e+02	8.9111	13.599538	0.000229	2.293066	0.388456	-0.000023
1116	1.1094e+02	8.8975	13.581208	0.000184	1.842642	0.312152	-0.000018
1117	1.1104e+02	8.8924	13.563692	0.000176	1.760747	0.298279	-0.000018
1118	1.1114e+02	8.8786	13.542510	0.000213	2.129276	0.360709	-0.000021
1119	1.1124e+02	8.8682	13.520921	0.000217	2.170223	0.367646	-0.000022
1120	1.1134e+02	8.8611	13.502998	0.000180	1.801695	0.305215	-0.000018
1121	1.1144e+02	8.8493	13.484668	0.000184	1.842642	0.312152	-0.000018
1122	1.1154e+02	8.8393	13.464708	0.000201	2.006433	0.339899	-0.000020
1123	1.1164e+02	8.8281	13.441490	0.000233	2.334014	0.395393	-0.000023
1124	1.1174e+02	8.8215	13.427233	0.000143	1.433166	0.242785	-0.000014
1125	1.1184e+02	8.8081	13.409717	0.000176	1.760747	0.298279	-0.000018
1126	1.1194e+02	8.8006	13.385684	0.000242	2.415909	0.409266	-0.000024
1127	1.1204e+02	8.7939	13.364094	0.000217	2.170223	0.367646	-0.000022
1128	1.1214e+02	8.7817	13.345357	0.000188	1.883590	0.319089	-0.000019
1129	1.1224e+02	8.7704	13.323768	0.000217	2.170223	0.367646	-0.000022
1130	1.1234e+02	8.7614	13.302178	0.000217	2.170223	0.367646	-0.000022
1131	1.1244e+02	8.7530	13.287107	0.000152	1.515062	0.256658	-0.000015
1132	1.1253e+02	8.7408	13.268369	0.000188	1.883590	0.319089	-0.000019
1133	1.1263e+02	8.7309	13.245965	0.000225	2.252119	0.381519	-0.000023
1134	1.1273e+02	8.7187	13.226005	0.000201	2.006433	0.339899	-0.000020
1135	1.1283e+02	8.7092	13.206453	0.000197	1.965485	0.332962	-0.000020
1136	1.1293e+02	8.7004	13.187715	0.000188	1.883590	0.319089	-0.000019
1137	1.1303e+02	8.6923	13.167348	0.000205	2.047381	0.346836	-0.000020
1138	1.1313e+02	8.6823	13.142907	0.000246	2.456857	0.416203	-0.000025
1139	1.1323e+02	8.6719	13.124577	0.000184	1.842642	0.312152	-0.000018
1140	1.1333e+02	8.6622	13.104210	0.000205	2.047381	0.346836	-0.000020
1141	1.1343e+02	8.6510	13.086694	0.000176	1.760747	0.298279	-0.000018
1142	1.1353e+02	8.6441	13.063068	0.000237	2.374961	0.402329	-0.000024
1143	1.1363e+02	8.6318	13.042701	0.000205	2.047381	0.346836	-0.000020
1144	1.1373e+02	8.6184	13.023149	0.000197	1.965485	0.332962	-0.000020
1145	1.1383e+02	8.6127	13.001967	0.000213	2.129276	0.360709	-0.000021
1146	1.1393e+02	8.6007	12.981600	0.000205	2.047381	0.346836	-0.000020
1147	1.1403e+02	8.5914	12.963269	0.000184	1.842642	0.312152	-0.000018
1148	1.1413e+02	8.5835	12.942088	0.000213	2.129276	0.360709	-0.000021
1149	1.1423e+02	8.5730	12.926201	0.000160	1.596957	0.270532	-0.000016
1150	1.1433e+02	8.5645	12.903797	0.000225	2.252119	0.381519	-0.000023
1151	1.1442e+02	8.5520	12.883430	0.000205	2.047381	0.346836	-0.000020
1152	1.1452e+02	8.5414	12.864285	0.000192	1.924538	0.326026	-0.000019
1153	1.1462e+02	8.5318	12.843918	0.000205	2.047381	0.346836	-0.000020
1154	1.1472e+02	8.5195	12.823958	0.000201	2.006433	0.339899	-0.000020
1155	1.1482e+02	8.5159	12.803998	0.000201	2.006433	0.339899	-0.000020
1156	1.1492e+02	8.5014	12.783224	0.000209	2.088328	0.353772	-0.000021
1157	1.1502e+02	8.4947	12.763264	0.000201	2.006433	0.339899	-0.000020
1158	1.1512e+02	8.4832	12.743712	0.000197	1.965485	0.332962	-0.000020
1159	1.1522e+02	8.4756	12.721715	0.000221	2.211171	0.374583	-0.000022
1160	1.1532e+02	8.4629	12.704607	0.000172	1.719800	0.291342	-0.000017
1161	1.1542e+02	8.4509	12.682610	0.000221	2.211171	0.374583	-0.000022
1162	1.1552e+02	8.4428	12.660614	0.000221	2.211171	0.374583	-0.000022
1163	1.1562e+02	8.4329	12.642691	0.000180	1.801695	0.305215	-0.000018
1164	1.1572e+02	8.4271	12.619472	0.000233	2.334014	0.395393	-0.000023
1165	1.1582e+02	8.4148	12.602364	0.000172	1.719800	0.291342	-0.000017
1166	1.1592e+02	8.4033	12.579145	0.000233	2.334014	0.395393	-0.000023
1167	1.1602e+02	8.3925	12.561222	0.000180	1.801695	0.305215	-0.000018
1168	1.1612e+02	8.3849	12.534338	0.000270	2.702542	0.457823	-0.000027
1169	1.1622e+02	8.3735	12.515193	0.000192	1.924538	0.326026	-0.000019
1170	1.1632e+02	8.3618	12.493196	0.000221	2.211171	0.374583	-0.000022
1171	1.1642e+02	8.3521	12.473644	0.000197	1.965485	0.332962	-0.000020
1172	1.1651e+02	8.3421	12.447574	0.000262	2.620647	0.443950	-0.000026
1173	1.1661e+02	8.3353	12.427614	0.000201	2.006433	0.339899	-0.000020
1174	1.1671e+02	8.3244	12.407247	0.000205	2.047381	0.346836	-0.000020
1175	1.1681e+02	8.3142	12.381177	0.000262	2.620647	0.443950	-0.000026
1176	1.1691e+02	8.3024	12.361217	0.000201	2.006433	0.339899	-0.000020
1177	1.1701e+02	8.2932	12.342072	0.000192	1.924538	0.326026	-0.000019
1178	1.1711e+02	8.2842	12.318446	0.000237	2.374961	0.402329	-0.000024
1179	1.1721e+02	8.2746	12.298079	0.000205	2.047381	0.346836	-0.000020
1180	1.1731e+02	8.2650	12.272824	0.000254	2.538752	0.430076	-0.000025
1181	1.1741e+02	8.2552	12.252864	0.000201	2.006433	0.339899	-0.000020
1182	1.1751e+02	8.2452	12.233312	0.000197	1.965485	0.332962	-0.000020
1183	1.1761e+02	8.2352	12.210908	0.000225	2.252119	0.381519	-0.000023
1184	1.1771e+02	8.2243	12.191763	0.000192	1.924538	0.326026	-0.000019
1185	1.1781e+02	8.2157	12.175062	0.000168	1.678852	0.284405	-0.000017
1186	1.1791e+02	8.2053	12.155509	0.000197	1.965485	0.332962	-0.000020
1187	1.1801e+02	8.1940	12.134327	0.000213	2.129276	0.360709	-0.000021
1188	1.1811e+02	8.1841	12.113960	0.000205	2.047381	0.346836	-0.000020
1189	1.1821e+02	8.1754	12.096037	0.000180	1.801695	0.305215	-0.000018
1190	1.1831e+02	8.1670	12.074855	0.000213	2.129276	0.360709	-0.000021
1191	1.1841e+02	8.1570	12.054895	0.000201	2.006433	0.339899	-0.000020
1192	1.1850e+02	8.1445	12.037380	0.000176	1.760747	0.298279	-0.000018
1193	1.1860e+02	8.1364	12.014569	0.000229	2.293066	0.388456	-0.000023
1194	1.1870e+02	8.1283	11.995831	0.000188	1.883590	0.319089	-0.000019
1195	1.1880e+02	8.1194	11.978722	0.000172	1.719800	0.291342	-0.000017
1196	1.1890e+02	8.1037	11.958763	0.000201	2.006433	0.339899	-0.000020
1197	1.1900e+02	8.0964	11.940432	0.000184	1.842642	0.312152	-0.000018
1198	1.1910e+02	8.0842	11.920472	0.000201	2.006433	0.339899	-0.000020
1199	1.1920e+02	8.0759	11.898476	0.000221	2.211171	0.374583	-0.000022
1200	1.1930e+02	8.0666	11.881368	0.000172	1.719800	0.291342	-0.000017
1201	1.1940e+02	8.0560	11.859371	0.000221	2.211171	0.374583	-0.000022
1202	1.1950e+02	8.0446	11.838189	0.000213	2.129276	0.360709	-0.000021
1203	1.1960e+02	8.0354	11.820266	0.000180	1.801695	0.305215	-0.000018
1204	1.1970e+02	8.0261	11.795826	0.000246	2.456857	0.416203	-0.000025
1205	1.1980e+02	8.0155	11.777495	0.000184	1.842642	0.312152	-0.000018
1206	1.1990e+02	8.0047	11.759165	0.000184	1.842642	0.312152	-0.000018
1207	1.2000e+02	7.9957	11.731873	0.000274	2.743490	0.464760	-0.000027
1208	1.2010e+02	7.9824	11.711098	0.000209	2.088328	0.353772	-0.000021
1209	1.2020e+02	7.9737	11.689509	0.000217	2.170223	0.367646	-0.000022
1210	1.2030e+02	7.9654	11.670771	0.000188	1.883590	0.319089	-0.000019
1211	1.2039e+02	7.9534	11.648368	0.000225	2.252119	0.381519	-0.000023
1212	1.2049e+02	7.9443	11.624742	0.000237	2.374961	0.402329	-0.000024
1213	1.2059e+02	7.9355	11.608041	0.000168	1.678852	0.284405	-0.000017
1214	1.2069e+02	7.9232	11.586452	0.000217	2.170223	0.367646	-0.000022
1215	1.2079e+02	7.9154	11.566492	0.000201	2.006433	0.339899	-0.000020
1216	1.2089e+02	7.9053	11.549383	0.000172	1.719800	0.291342	-0.000017
1217	1.2099e+02	7.8948	11.523721	0.000258	2.579699	0.437013	-0.000026
1218	1.2109e+02	7.8860	11.503354	0.000205	2.047381	0.346836	-0.000020
1219	1.2119e+02	7.8754	11.476469	0.000270	2.702542	0.457823	-0.000027
1220	1.2129e+02	7.8668	11.458139	0.000184	1.842642	0.312152	-0.000018
1221	1.2139e+02	7.8555	11.436549	0.000217	2.170223	0.367646	-0.000022
1222	1.2149e+02	7.8490	11.415775	0.000209	2.088328	0.353772	-0.000021
1223	1.2159e+02	7.8348	11.395815	0.000201	2.006433	0.339899	-0.000020
1224	1.2169e+02	7.8236	11.374226	0.000217	2.170223	0.367646	-0.000022
1225	1.2179e+02	7.8174	11.355081	0.000192	1.924538	0.326026	-0.000019
1226	1.2189e+02	7.8053	11.331455	0.000237	2.374961	0.402329	-0.000024
1227	1.2199e+02	7.7961	11.313532	0.000180	1.801695	0.305215	-0.000018
1228	1.2209e+02	7.7863	11.291128	0.000225	2.252119	0.381519	-0.000023
1229	1.2219e+02	7.7776	11.268724	0.000225	2.252119	0.381519	-0.000023
1230	1.2229e+02	7.7653	11.251209	0.000176	1.760747	0.298279	-0.000018
1231	1.2239e+02	7.7562	11.227175	0.000242	2.415909	0.409266	-0.000024
1232	1.2248e+02	7.7467	11.204364	0.000229	2.293066	0.388456	-0.000023
1233	1.2258e+02	7.7366	11.182775	0.000217	2.170223	0.367646	-0.000022
1234	1.2268e+02	7.7246	11.157927	0.000250	2.497804	0.423139	-0.000025
1235	1.2278e+02	7.7148	11.140004	0.000180	1.801695	0.305215	-0.000018
1236	1.2288e+02	7.7065	11.115564	0.000246	2.456857	0.416203	-0.000025
1237	1.2298e+02	7.6982	11.092752	0.000229	2.293066	0.388456	-0.000023
1238	1.2308e+02	7.6856	11.073200	0.000197	1.965485	0.332962	-0.000020
1239	1.2318e+02	7.6758	11.053240	0.000201	2.006433	0.339899	-0.000020
1240	1.2328e+02	7.6676	11.028392	0.000250	2.497804	0.423139	-0.000025
1241	1.2338e+02	7.6545	11.007210	0.000213	2.129276	0.360709	-0.000021
1242	1.2348e+02	7.6466	10.986843	0.000205	2.047381	0.346836	-0.000020
1243	1.2358e+02	7.6366	10.962403	0.000246	2.456857	0.416203	-0.000025
1244	1.2368e+02	7.6297	10.939184	0.000233	2.334014	0.395393	-0.000023
1245	1.2378e+02	7.6162	10.918002	0.000213	2.129276	0.360709	-0.000021
1246	1.2388e+02	7.6087	10.899265	0.000188	1.883590	0.319089	-0.000019
1247	1.2398e+02	7.5964	10.877268	0.000221	2.211171	0.374583	-0.000022
1248	1.2408e+02	7.5893	10.854050	0.000233	2.334014	0.395393	-0.000023
1249	1.2418e+02	7.5787	10.835719	0.000184	1.842642	0.312152	-0.000018
1250	1.2428e+02	7.5678	10.811279	0.000246	2.456857	0.416203	-0.000025
1251	1.2438e+02	7.5578	10.790912	0.000205	2.047381	0.346836	-0.000020
1252	1.2447e+02	7.5462	10.771359	0.000197	1.965485	0.332962	-0.000020
1253	1.2457e+02	7.5406	10.748548	0.000229	2.293066	0.388456	-0.000023
1254	1.2467e+02	7.5300	10.727366	0.000213	2.129276	0.360709	-0.000021
1255	1.2477e+02	7.5181	10.705777	0.000217	2.170223	0.367646	-0.000022
1256	1.2487e+02	7.5081	10.687447	0.000184	1.842642	0.312152	-0.000018
1257	1.2497e+02	7.4986	10.666265	0.000213	2.129276	0.360709	-0.000021
1258	1.2507e+02	7.4871	10.645490	0.000209	2.088328	0.353772	-0.000021
1259	1.2517e+02	7.4786	10.622272	0.000233	2.334014	0.395393	-0.000023
1260	1.2527e+02	7.4693	10.601905	0.000205	2.047381	0.346836	-0.000020
1261	1.2537e+02	7.4593	10.580315	0.000217	2.170223	0.367646	-0.000022
1262	1.2547e+02	7.4480	10.555468	0.000250	2.497804	0.423139	-0.000025
1263	1.2557e+02	7.4380	10.537137	0.000184	1.842642	0.312152	-0.000018
1264	1.2567e+02	7.4268	10.513104	0.000242	2.415909	0.409266	-0.000024
1265	1.2577e+02	7.4184	10.490700	0.000225	2.252119	0.381519	-0.000023
1266	1.2587e+02	7.4078	10.473999	0.000168	1.678852	0.284405	-0.000017
1267	1.2597e+02	7.3959	10.446707	0.000274	2.743490	0.464760	-0.000027
1268	1.2607e+02	7.3882	10.423489	0.000233	2.334014	0.395393	-0.000023
1269	1.2617e+02	7.3788	10.404751	0.000188	1.883590	0.319089	-0.000019
1270	1.2627e+02	7.3690	10.379903	0.000250	2.497804	0.423139	-0.000025
1271	1.2636e+02	7.3589	10.355870	0.000242	2.415909	0.409266	-0.000024
1272	1.2646e+02	7.3476	10.329392	0.000266	2.661595	0.450886	-0.000027
1273	1.2656e+02	7.3397	10.307396	0.000221	2.211171	0.374583	-0.000022
1274	1.2666e+02	7.3293	10.283770	0.000237	2.374961	0.402329	-0.000024
1275	1.2676e+02	7.3195	10.260144	0.000237	2.374961	0.402329	-0.000024
1276	1.2686e+02	7.3085	10.233260	0.000270	2.702542	0.457823	-0.000027
1277	1.2696e+02	7.2989	10.208819	0.000246	2.456857	0.416203	-0.000025
1278	1.2706e+02	7.2886	10.187637	0.000213	2.129276	0.360709	-0.000021
1279	1.2716e+02	7.2800	10.161567	0.000262	2.620647	0.443950	-0.000026
1280	1.2726e+02	7.2701	10.137127	0.000246	2.456857	0.416203	-0.000025
1281	1.2736e+02	7.2598	10.113501	0.000237	2.374961	0.402329	-0.000024
1282	1.2746e+02	7.2472	10.091912	0.000217	2.170223	0.367646	-0.000022
1283	1.2756e+02	7.2388	10.069915	0.000221	2.211171	0.374583	-0.000022
1284	1.2766e+02	7.2286	10.043031	0.000270	2.702542	0.457823	-0.000027
1285	1.2776e+02	7.2185	10.020219	0.000229	2.293066	0.388456	-0.000023
1286	1.2786e+02	7.2106	9.992927	0.000274	2.743490	0.464760	-0.000027
1287	1.2796e+02	7.2004	9.973782	0.000192	1.924538	0.326026	-0.000019
1288	1.2806e+02	7.1883	9.950564	0.000233	2.334014	0.395393	-0.000023
1289	1.2816e+02	7.1796	9.927753	0.000229	2.293066	0.388456	-0.000023
1290	1.2826e+02	7.1719	9.902905	0.000250	2.497804	0.423139	-0.000025
1291	1.2835e+02	7.1575	9.881723	0.000213	2.129276	0.360709	-0.000021
1292	1.2845e+02	7.1481	9.861356	0.000205	2.047381	0.346836	-0.000020
1293	1.2855e+02	7.1410	9.834064	0.000274	2.743490	0.464760	-0.000027
1294	1.2865e+02	7.1292	9.812475	0.000217	2.170223	0.367646	-0.000022
1295	1.2875e+02	7.1212	9.791700	0.000209	2.088328	0.353772	-0.000021
1296	1.2885e+02	7.1087	9.767667	0.000242	2.415909	0.409266	-0.000024
1297	1.2895e+02	7.1002	9.742004	0.000258	2.579699	0.437013	-0.000026
1298	1.2905e+02	7.0866	9.716342	0.000258	2.579699	0.437013	-0.000026
1299	1.2915e+02	7.0811	9.697604	0.000188	1.883590	0.319089	-0.000019
1300	1.2925e+02	7.0674	9.671127	0.000266	2.661595	0.450886	-0.000027
1301	1.2935e+02	7.0596	9.651167	0.000201	2.006433	0.339899	-0.000020
1302	1.2945e+02	7.0512	9.623875	0.000274	2.743490	0.464760	-0.000027
1303	1.2955e+02	7.0415	9.600249	0.000237	2.374961	0.402329	-0.000024
1304	1.2965e+02	7.0265	9.580697	0.000197	1.965485	0.332962	-0.000020
1305	1.2975e+02	7.0205	9.556664	0.000242	2.415909	0.409266	-0.000024
1306	1.2985e+02	7.0095	9.533445	0.000233	2.334014	0.395393	-0.000023
1307	1.2995e+02	6.9988	9.505746	0.000278	2.784438	0.471696	-0.000028
1308	1.3005e+02	6.9918	9.484971	0.000209	2.088328	0.353772	-0.000021
1309	1.3015e+02	6.9823	9.460123	0.000250	2.497804	0.423139	-0.000025
1310	1.3025e+02	6.9694	9.439756	0.000205	2.047381	0.346836	-0.000020
1311	1.3034e+02	6.9601	9.413279	0.000266	2.661595	0.450886	-0.000027
1312	1.3044e+02	6.9499	9.391283	0.000221	2.211171	0.374583	-0.000022
1313	1.3054e+02	6.9378	9.366842	0.000246	2.456857	0.416203	-0.000025
1314	1.3064e+02	6.9314	9.341994	0.000250	2.497804	0.423139	-0.000025
1315	1.3074e+02	6.9219	9.322442	0.000197	1.965485	0.332962	-0.000020
1316	1.3084e+02	6.9111	9.296779	0.000258	2.579699	0.437013	-0.000026
1317	1.3094e+02	6.9028	9.271931	0.000250	2.497804	0.423139	-0.000025
1318	1.3104e+02	6.8896	9.250749	0.000213	2.129276	0.360709	-0.000021
1319	1.3114e+02	6.8807	9.227938	0.000229	2.293066	0.388456	-0.000023
1320	1.3124e+02	6.8718	9.206756	0.000213	2.129276	0.360709	-0.000021
1321	1.3134e+02	6.8613	9.181908	0.000250	2.497804	0.423139	-0.000025
1322	1.3144e+02	6.8511	9.159097	0.000229	2.293066	0.388456	-0.000023
1323	1.3154e+02	6.8397	9.134249	0.000250	2.497804	0.423139	-0.000025
1324	1.3164e+02	6.8316	9.106550	0.000278	2.784438	0.471696	-0.000028
1325	1.3174e+02	6.8230	9.086590	0.000201	2.006433	0.339899	-0.000020
1326	1.3184e+02	6.8115	9.065408	0.000213	2.129276	0.360709	-0.000021
1327	1.3194e+02	6.8011	9.040561	0.000250	2.497804	0.423139	-0.000025
1328	1.3204e+02	6.7920	9.016120	0.000246	2.456857	0.416203	-0.000025
1329	1.3214e+02	6.7804	8.994124	0.000221	2.211171	0.374583	-0.000022
1330	1.3224e+02	6.7696	8.970090	0.000242	2.415909	0.409266	-0.000024
1331	1.3234e+02	6.7605	8.947686	0.000225	2.252119	0.381519	-0.000023
1332	1.3243e+02	6.7537	8.923246	0.000246	2.456857	0.416203	-0.000025
1333	1.3253e+02	6.7419	8.901249	0.000221	2.211171	0.374583	-0.000022
1334	1.3263e+02	6.7310	8.877216	0.000242	2.415909	0.409266	-0.000024
1335	1.3273e+02	6.7229	8.849924	0.000274	2.743490	0.464760	-0.000027
1336	1.3283e+02	6.7110	8.825484	0.000246	2.456857	0.416203	-0.000025
1337	1.3293e+02	6.7066	8.799414	0.000262	2.620647	0.443950	-0.000026
1338	1.3303e+02	6.6949	8.773751	0.000258	2.579699	0.437013	-0.000026
1339	1.3313e+02	6.6814	8.743608	0.000303	3.030123	0.513317	-0.000030
1340	1.3323e+02	6.6728	8.724055	0.000197	1.965485	0.332962	-0.000020
1341	1.3333e+02	6.6622	8.695541	0.000287	2.866333	0.485570	-0.000029
1342	1.3343e+02	6.6528	8.673545	0.000221	2.211171	0.374583	-0.000022
1343	1.3353e+02	6.6395	8.647475	0.000262	2.620647	0.443950	-0.000026
1344	1.3363e+02	6.6311	8.622220	0.000254	2.538752	0.430076	-0.000025
1345	1.3373e+02	6.6245	8.599816	0.000225	2.252119	0.381519	-0.000023
1346	1.3383e+02	6.6135	8.572524	0.000274	2.743490	0.464760	-0.000027
1347	1.3393e+02	6.6027	8.545232	0.000274	2.743490	0.464760	-0.000027
1348	1.3403e+02	6.5896	8.526087	0.000192	1.924538	0.326026	-0.000019
1349	1.3413e+02	6.5868	8.498795	0.000274	2.743490	0.464760	-0.000027
1350	1.3423e+02	6.5730	8.481279	0.000176	1.760747	0.298279	-0.000018
1351	1.3432e+02	6.5606	8.455617	0.000258	2.579699	0.437013	-0.000026
1352	1.3442e+02	6.5516	8.433620	0.000221	2.211171	0.374583	-0.000022
1353	1.3452e+02	6.5452	8.406736	0.000270	2.702542	0.457823	-0.000027
1354	1.3462e+02	6.5311	8.384332	0.000225	2.252119	0.381519	-0.000023
1355	1.3472e+02	6.5246	8.361928	0.000225	2.252119	0.381519	-0.000023
1356	1.3482e+02	6.5115	8.335043	0.000270	2.702542	0.457823	-0.000027
1357	1.3492e+02	6.5022	8.317120	0.000180	1.801695	0.305215	-0.000018
1358	1.3502e+02	6.4948	8.293902	0.000233	2.334014	0.395393	-0.000023
1359	1.3512e+02	6.4830	8.275164	0.000188	1.883590	0.319089	-0.000019
1360	1.3522e+02	6.4703	8.249501	0.000258	2.579699	0.437013	-0.000026
1361	1.3532e+02	6.4639	8.227098	0.000225	2.252119	0.381519	-0.000023
1362	1.3542e+02	6.4542	8.205101	0.000221	2.211171	0.374583	-0.000022
1363	1.3552e+02	6.4455	8.185956	0.000192	1.924538	0.326026	-0.000019
1364	1.3562e+02	6.4329	8.157035	0.000291	2.907280	0.492507	-0.000029
1365	1.3572e+02	6.4230	8.137482	0.000197	1.965485	0.332962	-0.000020
1366	1.3582e+02	6.4132	8.113449	0.000242	2.415909	0.409266	-0.000024
1367	1.3592e+02	6.4039	8.085342	0.000283	2.825385	0.478633	-0.000028
1368	1.3602e+02	6.3935	8.064975	0.000205	2.047381	0.346836	-0.000020
1369	1.3612e+02	6.3825	8.043793	0.000213	2.129276	0.360709	-0.000021
1370	1.3622e+02	6.3734	8.014872	0.000291	2.907280	0.492507	-0.000029
1371	1.3631e+02	6.3641	7.994912	0.000201	2.006433	0.339899	-0.000020
1372	1.3641e+02	6.3546	7.969657	0.000254	2.538752	0.430076	-0.000025
1373	1.3651e+02	6.3441	7.944809	0.000250	2.497804	0.423139	-0.000025
1374	1.3661e+02	6.3335	7.919147	0.000258	2.579699	0.437013	-0.000026
1375	1.3671e+02	6.3230	7.894299	0.000250	2.497804	0.423139	-0.000025
1376	1.3681e+02	6.3122	7.871487	0.000229	2.293066	0.388456	-0.000023
1377	1.3691e+02	6.3033	7.849898	0.000217	2.170223	0.367646	-0.000022
1378	1.3701e+02	6.2916	7.824643	0.000254	2.538752	0.430076	-0.000025
1379	1.3711e+02	6.2842	7.800203	0.000246	2.456857	0.416203	-0.000025
1380	1.3721e+02	6.2708	7.775762	0.000246	2.456857	0.416203	-0.000025
1381	1.3731e+02	6.2664	7.755395	0.000205	2.047381	0.346836	-0.000020
1382	1.3741e+02	6.2527	7.727696	0.000278	2.784438	0.471696	-0.000028
1383	1.3751e+02	6.2424	7.704477	0.000233	2.334014	0.395393	-0.000023
1384	1.3761e+02	6.2372	7.678000	0.000266	2.661595	0.450886	-0.000027
1385	1.3771e+02	6.2243	7.653967	0.000242	2.415909	0.409266	-0.000024
1386	1.3781e+02	6.2151	7.630748	0.000233	2.334014	0.395393	-0.000023
1387	1.3791e+02	6.2038	7.607122	0.000237	2.374961	0.402329	-0.000024
1388	1.3801e+02	6.1922	7.585126	0.000221	2.211171	0.374583	-0.000022
1389	1.3811e+02	6.1864	7.559870	0.000254	2.538752	0.430076	-0.000025
1390	1.3821e+02	6.1755	7.535430	0.000246	2.456857	0.416203	-0.000025
1391	1.3831e+02	6.1645	7.508545	0.000270	2.702542	0.457823	-0.000027
1392	1.3840e+02	6.1575	7.489400	0.000192	1.924538	0.326026	-0.000019
1393	1.3850e+02	6.1456	7.462108	0.000274	2.743490	0.464760	-0.000027
1394	1.3860e+02	6.1366	7.438890	0.000233	2.334014	0.395393	-0.000023
1395	1.3870e+02	6.1253	7.414042	0.000250	2.497804	0.423139	-0.000025
1396	1.3880e+02	6.1164	7.387972	0.000262	2.620647	0.443950	-0.000026
1397	1.3890e+02	6.1030	7.359051	0.000291	2.907280	0.492507	-0.000029
1398	1.3900e+02	6.0949	7.337869	0.000213	2.129276	0.360709	-0.000021
1399	1.3910e+02	6.0842	7.310169	0.000278	2.784438	0.471696	-0.000028
1400	1.3920e+02	6.0758	7.286951	0.000233	2.334014	0.395393	-0.000023
1401	1.3930e+02	6.0645	7.263325	0.000237	2.374961	0.402329	-0.000024
1402	1.3940e+02	6.0555	7.236033	0.000274	2.743490	0.464760	-0.000027
1403	1.3950e+02	6.0445	7.213629	0.000225	2.252119	0.381519	-0.000023
1404	1.3960e+02	6.0345	7.187559	0.000262	2.620647	0.443950	-0.000026
1405	1.3970e+02	6.0256	7.165563	0.000221	2.211171	0.374583	-0.000022
1406	1.3980e+02	6.0156	7.137049	0.000287	2.866333	0.485570	-0.000029
1407	1.3990e+02	6.0076	7.110979	0.000262	2.620647	0.443950	-0.000026
1408	1.4000e+02	5.9949	7.088575	0.000225	2.252119	0.381519	-0.000023
1409	1.4010e+02	5.9869	7.061283	0.000274	2.743490	0.464760	-0.000027
1410	1.4020e+02	5.9780	7.039287	0.000221	2.211171	0.374583	-0.000022
1411	1.4029e+02	5.9640	7.014846	0.000246	2.456857	0.416203	-0.000025
1412	1.4039e+02	5.9562	6.986739	0.000283	2.825385	0.478633	-0.000028
1413	1.4049e+02	5.9460	6.962706	0.000242	2.415909	0.409266	-0.000024
1414	1.4059e+02	5.9362	6.935414	0.000274	2.743490	0.464760	-0.000027
1415	1.4069e+02	5.9283	6.911788	0.000237	2.374961	0.402329	-0.000024
1416	1.4079e+02	5.9137	6.884904	0.000270	2.702542	0.457823	-0.000027
1417	1.4089e+02	5.9056	6.860056	0.000250	2.497804	0.423139	-0.000025
1418	1.4099e+02	5.8970	6.836430	0.000237	2.374961	0.402329	-0.000024
1419	1.4109e+02	5.8865	6.814434	0.000221	2.211171	0.374583	-0.000022
1420	1.4119e+02	5.8765	6.792437	0.000221	2.211171	0.374583	-0.000022
1421	1.4129e+02	5.8660	6.764330	0.000283	2.825385	0.478633	-0.000028
1422	1.4139e+02	5.8574	6.740705	0.000237	2.374961	0.402329	-0.000024
1423	1.4149e+02	5.8462	6.717486	0.000233	2.334014	0.395393	-0.000023
1424	1.4159e+02	5.8364	6.697526	0.000201	2.006433	0.339899	-0.000020
1425	1.4169e+02	5.8270	6.671456	0.000262	2.620647	0.443950	-0.000026
1426	1.4179e+02	5.8187	6.645794	0.000258	2.579699	0.437013	-0.000026
1427	1.4189e+02	5.8092	6.620131	0.000258	2.579699	0.437013	-0.000026
1428	1.4199e+02	5.7985	6.594061	0.000262	2.620647	0.443950	-0.000026
1429	1.4209e+02	5.7870	6.570435	0.000237	2.374961	0.402329	-0.000024
1430	1.4219e+02	5.7772	6.545587	0.000250	2.497804	0.423139	-0.000025
1431	1.4228e+02	5.7670	6.521147	0.000246	2.456857	0.416203	-0.000025
1432	1.4238e+02	5.7577	6.492633	0.000287	2.866333	0.485570	-0.000029
1433	1.4248e+02	5.7473	6.468600	0.000242	2.415909	0.409266	-0.000024
1434	1.4258e+02	5.7388	6.441715	0.000270	2.702542	0.457823	-0.000027
1435	1.4268e+02	5.7289	6.414831	0.000270	2.702542	0.457823	-0.000027
1436	1.4278e+02	5.7183	6.391612	0.000233	2.334014	0.395393	-0.000023
1437	1.4288e+02	5.7084	6.363913	0.000278	2.784438	0.471696	-0.000028
1438	1.4298e+02	5.7001	6.337028	0.000270	2.702542	0.457823	-0.000027
1439	1.4308e+02	5.6905	6.314624	0.000225	2.252119	0.381519	-0.000023
1440	1.4318e+02	5.6759	6.283666	0.000311	3.112018	0.527190	-0.000031
1441	1.4328e+02	5.6678	6.260040	0.000237	2.374961	0.402329	-0.000024
1442	1.4338e+02	5.6573	6.229082	0.000311	3.112018	0.527190	-0.000031
1443	1.4348e+02	5.6495	6.206271	0.000229	2.293066	0.388456	-0.000023
1444	1.4358e+02	5.6374	6.176535	0.000299	2.989176	0.506380	-0.000030
1445	1.4368e+02	5.6280	6.146799	0.000299	2.989176	0.506380	-0.000030
1446	1.4378e+02	5.6161	6.117470	0.000295	2.948228	0.499443	-0.000029
1447	1.4388e+02	5.6076	6.089771	0.000278	2.784438	0.471696	-0.000028
1448	1.4398e+02	5.5972	6.061257	0.000287	2.866333	0.485570	-0.000029
1449	1.4408e+02	5.5886	6.035187	0.000262	2.620647	0.443950	-0.000026
1450	1.4418e+02	5.5784	6.007895	0.000274	2.743490	0.464760	-0.000027
1451	1.4428e+02	5.5701	5.986306	0.000217	2.170223	0.367646	-0.000022
1452	1.4437e+02	5.5567	5.956163	0.000303	3.030123	0.513317	-0.000030
1453	1.4447e+02	5.5485	5.930500	0.000258	2.579699	0.437013	-0.000026
1454	1.4457e+02	5.5392	5.902801	0.000278	2.784438	0.471696	-0.000028
1455	1.4467e+02	5.5265	5.878360	0.000246	2.456857	0.416203	-0.000025
1456	1.4477e+02	5.5166	5.849032	0.000295	2.948228	0.499443	-0.000029
1457	1.4487e+02	5.5076	5.824998	0.000242	2.415909	0.409266	-0.000024
1458	1.4497e+02	5.4978	5.797707	0.000274	2.743490	0.464760	-0.000027
1459	1.4507e+02	5.4855	5.771229	0.000266	2.661595	0.450886	-0.000027
1460	1.4517e+02	5.4775	5.746789	0.000246	2.456857	0.416203	-0.000025
1461	1.4527e+02	5.4675	5.720311	0.000266	2.661595	0.450886	-0.000027
1462	1.4537e+02	5.4585	5.688539	0.000319	3.193914	0.541064	-0.000032
1463	1.4547e+02	5.4501	5.664913	0.000237	2.374961	0.402329	-0.000024
1464	1.4557e+02	5.4381	5.641287	0.000237	2.374961	0.402329	-0.000024
1465	1.4567e+02	5.4288	5.609107	0.000323	3.234861	0.548000	-0.000032
1466	1.4577e+02	5.4195	5.585074	0.000242	2.415909	0.409266	-0.000024
1467	1.4587e+02	5.4095	5.561041	0.000242	2.415909	0.409266	-0.000024
1468	1.4597e+02	5.4006	5.535378	0.000258	2.579699	0.437013	-0.000026
1469	1.4607e+02	5.3910	5.504827	0.000307	3.071071	0.520253	-0.000031
1470	1.4617e+02	5.3776	5.479572	0.000254	2.538752	0.430076	-0.000025
1471	1.4626e+02	5.3703	5.452280	0.000274	2.743490	0.464760	-0.000027
1472	1.4636e+02	5.3594	5.425395	0.000270	2.702542	0.457823	-0.000027
1473	1.4646e+02	5.3474	5.398103	0.000274	2.743490	0.464760	-0.000027
1474	1.4656e+02	5.3396	5.368367	0.000299	2.989176	0.506380	-0.000030
1475	1.4666e+02	5.3278	5.343112	0.000254	2.538752	0.430076	-0.000025
1476	1.4676e+02	5.3201	5.318264	0.000250	2.497804	0.423139	-0.000025
1477	1.4686e+02	5.3109	5.289750	0.000287	2.866333	0.485570	-0.000029
1478	1.4696e+02	5.3014	5.264088	0.000258	2.579699	0.437013	-0.000026
1479	1.4706e+02	5.2908	5.236796	0.000274	2.743490	0.464760	-0.000027
1480	1.4716e+02	5.2785	5.209097	0.000278	2.784438	0.471696	-0.000028
1481	1.4726e+02	5.2695	5.184249	0.000250	2.497804	0.423139	-0.000025
1482	1.4736e+02	5.2613	5.158179	0.000262	2.620647	0.443950	-0.000026
1483	1.4746e+02	5.2495	5.128443	0.000299	2.989176	0.506380	-0.000030
1484	1.4756e+02	5.2367	5.098707	0.000299	2.989176	0.506380	-0.000030
1485	1.4766e+02	5.2296	5.072229	0.000266	2.661595	0.450886	-0.000027
1486	1.4776e+02	5.2201	5.051455	0.000209	2.088328	0.353772	-0.000021
1487	1.4786e+02	5.2084	5.022126	0.000295	2.948228	0.499443	-0.000029
1488	1.4796e+02	5.2006	4.995649	0.000266	2.661595	0.450886	-0.000027
1489	1.4806e+02	5.1895	4.967950	0.000278	2.784438	0.471696	-0.000028
1490	1.4816e+02	5.1787	4.940658	0.000274	2.743490	0.464760	-0.000027
1491	1.4825e+02	5.1684	4.912551	0.000283	2.825385	0.478633	-0.000028
1492	1.4835e+02	5.1589	4.888518	0.000242	2.415909	0.409266	-0.000024
1493	1.4845e+02	5.1470	4.858375	0.000303	3.030123	0.513317	-0.000030
1494	1.4855e+02	5.1421	4.831897	0.000266	2.661595	0.450886	-0.000027
1495	1.4865e+02	5.1313	4.805013	0.000270	2.702542	0.457823	-0.000027
1496	1.4875e+02	5.1188	4.777721	0.000274	2.743490	0.464760	-0.000027
1497	1.4885e+02	5.1089	4.752466	0.000254	2.538752	0.430076	-0.000025
1498	1.4895e+02	5.1007	4.728025	0.000246	2.456857	0.416203	-0.000025
1499	1.4905e+02	5.0928	4.700326	0.000278	2.784438	0.471696	-0.000028
1500	1.4915e+02	5.0808	4.671404	0.000291	2.907280	0.492507	-0.000029
1501	1.4925e+02	5.0707	4.644927	0.000266	2.661595	0.450886	-0.000027
1502	1.4935e+02	5.0610	4.616006	0.000291	2.907280	0.492507	-0.000029
1503	1.4945e+02	5.0500	4.586270	0.000299	2.989176	0.506380	-0.000030
1504	1.4955e+02	5.0378	4.554090	0.000323	3.234861	0.548000	-0.000032
1505	1.4965e+02	5.0298	4.525168	0.000291	2.907280	0.492507	-0.000029
1506	1.4975e+02	5.0211	4.500728	0.000246	2.456857	0.416203	-0.000025
1507	1.4985e+02	5.0112	4.471807	0.000291	2.907280	0.492507	-0.000029
1508	1.4995e+02	5.0030	4.438812	0.000332	3.316756	0.561874	-0.000033
1509	1.5005e+02	4.9908	4.413964	0.000250	2.497804	0.423139	-0.000025
1510	1.5015e+02	4.9805	4.385043	0.000291	2.907280	0.492507	-0.000029
1511	1.5025e+02	4.9701	4.353677	0.000315	3.152966	0.534127	-0.000032
1512	1.5034e+02	4.9590	4.330459	0.000233	2.334014	0.395393	-0.000023
1513	1.5044e+02	4.9493	4.301537	0.000291	2.907280	0.492507	-0.000029
1514	1.5054e+02	4.9389	4.270172	0.000315	3.152966	0.534127	-0.000032
1515	1.5064e+02	4.9297	4.245731	0.000246	2.456857	0.416203	-0.000025
1516	1.5074e+02	4.9239	4.218439	0.000274	2.743490	0.464760	-0.000027
1517	1.5084e+02	4.9140	4.190333	0.000283	2.825385	0.478633	-0.000028
1518	1.5094e+02	4.9046	4.163448	0.000270	2.702542	0.457823	-0.000027
1519	1.5104e+02	4.8907	4.136564	0.000270	2.702542	0.457823	-0.000027
1520	1.5114e+02	4.8803	4.108457	0.000283	2.825385	0.478633	-0.000028
1521	1.5124e+02	4.8742	4.081980	0.000266	2.661595	0.450886	-0.000027
1522	1.5134e+02	4.8605	4.051022	0.000311	3.112018	0.527190	-0.000031
1523	1.5144e+02	4.8542	4.028210	0.000229	2.293066	0.388456	-0.000023
1524	1.5154e+02	4.8427	3.999697	0.000287	2.866333	0.485570	-0.000029
1525	1.5164e+02	4.8306	3.975663	0.000242	2.415909	0.409266	-0.000024
1526	1.5174e+02	4.8222	3.949593	0.000262	2.620647	0.443950	-0.000026
1527	1.5184e+02	4.8138	3.926375	0.000233	2.334014	0.395393	-0.000023
1528	1.5194e+02	4.8012	3.899898	0.000266	2.661595	0.450886	-0.000027
1529	1.5204e+02	4.7923	3.873013	0.000270	2.702542	0.457823	-0.000027
1530	1.5214e+02	4.7816	3.846943	0.000262	2.620647	0.443950	-0.000026
1531	1.5224e+02	4.7688	3.822095	0.000250	2.497804	0.423139	-0.000025
1532	1.5233e+02	4.7596	3.792359	0.000299	2.989176	0.506380	-0.000030
1533	1.5243e+02	4.7531	3.769548	0.000229	2.293066	0.388456	-0.000023
1534	1.5253e+02	4.7419	3.741441	0.000283	2.825385	0.478633	-0.000028
1535	1.5263e+02	4.7361	3.711298	0.000303	3.030123	0.513317	-0.000030
1536	1.5273e+02	4.7211	3.686450	0.000250	2.497804	0.423139	-0.000025
1537	1.5283e+02	4.7115	3.656714	0.000299	2.989176	0.506380	-0.000030
1538	1.5293e+02	4.7009	3.631866	0.000250	2.497804	0.423139	-0.000025
1539	1.5303e+02	4.6916	3.603760	0.000283	2.825385	0.478633	-0.000028
1540	1.5313e+02	4.6822	3.576060	0.000278	2.784438	0.471696	-0.000028
1541	1.5323e+02	4.6745	3.544695	0.000315	3.152966	0.534127	-0.000032
1542	1.5333e+02	4.6636	3.519032	0.000258	2.579699	0.437013	-0.000026
1543	1.5343e+02	4.6536	3.491740	0.000274	2.743490	0.464760	-0.000027
1544	1.5353e+02	4.6400	3.463634	0.000283	2.825385	0.478633	-0.000028
1545	1.5363e+02	4.6325	3.433490	0.000303	3.030123	0.513317	-0.000030
1546	1.5373e+02	4.6217	3.405384	0.000283	2.825385	0.478633	-0.000028
1547	1.5383e+02	4.6105	3.380128	0.000254	2.538752	0.430076	-0.000025
1548	1.5393e+02	4.6062	3.353651	0.000266	2.661595	0.450886	-0.000027
1549	1.5403e+02	4.5915	3.319027	0.000348	3.480547	0.589621	-0.000035
1550	1.5413e+02	4.5818	3.292550	0.000266	2.661595	0.450886	-0.000027
1551	1.5422e+02	4.5773	3.265665	0.000270	2.702542	0.457823	-0.000027
1552	1.5432e+02	4.5631	3.236744	0.000291	2.907280	0.492507	-0.000029
1553	1.5442e+02	4.5516	3.210267	0.000266	2.661595	0.450886	-0.000027
1554	1.5452e+02	4.5428	3.183789	0.000266	2.661595	0.450886	-0.000027
1555	1.5462e+02	4.5312	3.152017	0.000319	3.193914	0.541064	-0.000032
1556	1.5472e+02	4.5208	3.126354	0.000258	2.579699	0.437013	-0.000026
1557	1.5482e+02	4.5127	3.097840	0.000287	2.866333	0.485570	-0.000029
1558	1.5492e+02	4.5048	3.069326	0.000287	2.866333	0.485570	-0.000029
1559	1.5502e+02	4.4910	3.041627	0.000278	2.784438	0.471696	-0.000028
1560	1.5512e+02	4.4839	3.016372	0.000254	2.538752	0.430076	-0.000025
1561	1.5522e+02	4.4738	2.985006	0.000315	3.152966	0.534127	-0.000032
1562	1.5532e+02	4.4659	2.957714	0.000274	2.743490	0.464760	-0.000027
1563	1.5542e+02	4.4532	2.928793	0.000291	2.907280	0.492507	-0.000029
1564	1.5552e+02	4.4446	2.903945	0.000250	2.497804	0.423139	-0.000025
1565	1.5562e+02	4.4318	2.872172	0.000319	3.193914	0.541064	-0.000032
1566	1.5572e+02	4.4228	2.843251	0.000291	2.907280	0.492507	-0.000029
1567	1.5582e+02	4.4128	2.814330	0.000291	2.907280	0.492507	-0.000029
1568	1.5592e+02	4.4044	2.785816	0.000287	2.866333	0.485570	-0.000029
1569	1.5602e+02	4.3919	2.754450	0.000315	3.152966	0.534127	-0.000032
1570	1.5612e+02	4.3835	2.726344	0.000283	2.825385	0.478633	-0.000028
1571	1.5622e+02	4.3734	2.700274	0.000262	2.620647	0.443950	-0.000026
1572	1.5631e+02	4.3661	2.669723	0.000307	3.071071	0.520253	-0.000031
1573	1.5641e+02	4.3548	2.641616	0.000283	2.825385	0.478633	-0.000028
1574	1.5651e+02	4.3432	2.612695	0.000291	2.907280	0.492507	-0.000029
1575	1.5661e+02	4.3365	2.582552	0.000303	3.030123	0.513317	-0.000030
1576	1.5671e+02	4.3256	2.555260	0.000274	2.743490	0.464760	-0.000027
1577	1.5681e+02	4.3145	2.524709	0.000307	3.071071	0.520253	-0.000031
1578	1.5691e+02	4.3047	2.496602	0.000283	2.825385	0.478633	-0.000028
1579	1.5701e+02	4.2950	2.466459	0.000303	3.030123	0.513317	-0.000030
1580	1.5711e+02	4.2844	2.438760	0.000278	2.784438	0.471696	-0.000028
1581	1.5721e+02	4.2742	2.409431	0.000295	2.948228	0.499443	-0.000029
1582	1.5731e+02	4.2655	2.378881	0.000307	3.071071	0.520253	-0.000031
1583	1.5741e+02	4.2543	2.349552	0.000295	2.948228	0.499443	-0.000029
1584	1.5751e+02	4.2443	2.321445	0.000283	2.825385	0.478633	-0.000028
1585	1.5761e+02	4.2339	2.293746	0.000278	2.784438	0.471696	-0.000028
1586	1.5771e+02	4.2251	2.264010	0.000299	2.989176	0.506380	-0.000030
1587	1.5781e+02	4.2165	2.239162	0.000250	2.497804	0.423139	-0.000025
1588	1.5791e+02	4.2072	2.210241	0.000291	2.907280	0.492507	-0.000029
1589	1.5801e+02	4.1958	2.181727	0.000287	2.866333	0.485570	-0.000029
1590	1.5811e+02	4.1857	2.155657	0.000262	2.620647	0.443950	-0.000026
1591	1.5821e+02	4.1765	2.126735	0.000291	2.907280	0.492507	-0.000029
1592	1.5830e+02	4.1647	2.096999	0.000299	2.989176	0.506380	-0.000030
1593	1.5840e+02	4.1557	2.067263	0.000299	2.989176	0.506380	-0.000030
1594	1.5850e+02	4.1448	2.040786	0.000266	2.661595	0.450886	-0.000027
1595	1.5860e+02	4.1366	2.011865	0.000291	2.907280	0.492507	-0.000029
1596	1.5870e+02	4.1239	1.981314	0.000307	3.071071	0.520253	-0.000031
1597	1.5880e+02	4.1150	1.951171	0.000303	3.030123	0.513317	-0.000030
1598	1.5890e+02	4.1055	1.924694	0.000266	2.661595	0.450886	-0.000027
1599	1.5900e+02	4.0949	1.894143	0.000307	3.071071	0.520253	-0.000031
1600	1.5910e+02	4.0849	1.865222	0.000291	2.907280	0.492507	-0.000029
1601	1.5920e+02	4.0754	1.836708	0.000287	2.866333	0.485570	-0.000029
1602	1.5930e+02	4.0662	1.806564	0.000303	3.030123	0.513317	-0.000030
1603	1.5940e+02	4.0557	1.776828	0.000299	2.989176	0.506380	-0.000030
1604	1.5950e+02	4.0442	1.745870	0.000311	3.112018	0.527190	-0.000031
1605	1.5960e+02	4.0321	1.712875	0.000332	3.316756	0.561874	-0.000033
1606	1.5970e+02	4.0266	1.683954	0.000291	2.907280	0.492507	-0.000029
1607	1.5980e+02	4.0137	1.654625	0.000295	2.948228	0.499443	-0.000029
1608	1.5990e+02	4.0063	1.624075	0.000307	3.071071	0.520253	-0.000031
1609	1.6000e+02	3.9981	1.588636	0.000356	3.562442	0.603494	-0.000036
1610	1.6010e+02	3.9852	1.557678	0.000311	3.112018	0.527190	-0.000031
1611	1.6019e+02	3.9763	1.525091	0.000328	3.275809	0.554937	-0.000033
1612	1.6029e+02	3.9672	1.492910	0.000323	3.234861	0.548000	-0.000032
1613	1.6039e+02	3.9554	1.463582	0.000295	2.948228	0.499443	-0.000029
1614	1.6049e+02	3.9482	1.428958	0.000348	3.480547	0.589621	-0.000035
1615	1.6059e+02	3.9352	1.397185	0.000319	3.193914	0.541064	-0.000032
1616	1.6069e+02	3.9289	1.369486	0.000278	2.784438	0.471696	-0.000028
1617	1.6079e+02	3.9140	1.337713	0.000319	3.193914	0.541064	-0.000032
1618	1.6089e+02	3.9070	1.304311	0.000336	3.357704	0.568810	-0.000034
1619	1.6099e+02	3.8957	1.273760	0.000307	3.071071	0.520253	-0.000031
1620	1.6109e+02	3.8868	1.247690	0.000262	2.620647	0.443950	-0.000026
1621	1.6119e+02	3.8754	1.215510	0.000323	3.234861	0.548000	-0.000032
1622	1.6129e+02	3.8665	1.183330	0.000323	3.234861	0.548000	-0.000032
1623	1.6139e+02	3.8595	1.153187	0.000303	3.030123	0.513317	-0.000030
1624	1.6149e+02	3.8469	1.122636	0.000307	3.071071	0.520253	-0.000031
1625	1.6159e+02	3.8361	1.090456	0.000323	3.234861	0.548000	-0.000032
1626	1.6169e+02	3.8276	1.063571	0.000270	2.702542	0.457823	-0.000027
1627	1.6179e+02	3.8161	1.030169	0.000336	3.357704	0.568810	-0.000034
1628	1.6189e+02	3.8094	0.997175	0.000332	3.316756	0.561874	-0.000033
1629	1.6199e+02	3.7963	0.970697	0.000266	2.661595	0.450886	-0.000027
1630	1.6209e+02	3.7854	0.934851	0.000360	3.603390	0.610431	-0.000036
1631	1.6219e+02	3.7795	0.907967	0.000270	2.702542	0.457823	-0.000027
1632	1.6228e+02	3.7664	0.874564	0.000336	3.357704	0.568810	-0.000034
1633	1.6238e+02	3.7571	0.847680	0.000270	2.702542	0.457823	-0.000027
1634	1.6248e+02	3.7464	0.816722	0.000311	3.112018	0.527190	-0.000031
1635	1.6258e+02	3.7384	0.783727	0.000332	3.316756	0.561874	-0.000033
1636	1.6268e+02	3.7255	0.756028	0.000278	2.784438	0.471696	-0.000028
1637	1.6278e+02	3.7170	0.726699	0.000295	2.948228	0.499443	-0.000029
1638	1.6288e+02	3.7103	0.693704	0.000332	3.316756	0.561874	-0.000033
1639	1.6298e+02	3.6990	0.661932	0.000319	3.193914	0.541064	-0.000032
1640	1.6308e+02	3.6893	0.630566	0.000315	3.152966	0.534127	-0.000032
1641	1.6318e+02	3.6761	0.601238	0.000295	2.948228	0.499443	-0.000029
1642	1.6328e+02	3.6670	0.566206	0.000352	3.521495	0.596557	-0.000035
1643	1.6338e+02	3.6562	0.534433	0.000319	3.193914	0.541064	-0.000032
1644	1.6348e+02	3.6471	0.507549	0.000270	2.702542	0.457823	-0.000027
1645	1.6358e+02	3.6379	0.474147	0.000336	3.357704	0.568810	-0.000034
1646	1.6368e+02	3.6292	0.440745	0.000336	3.357704	0.568810	-0.000034
1647	1.6378e+02	3.6208	0.409379	0.000315	3.152966	0.534127	-0.000032
1648	1.6388e+02	3.6079	0.379236	0.000303	3.030123	0.513317	-0.000030
1649	1.6398e+02	3.5971	0.349500	0.000299	2.989176	0.506380	-0.000030
1650	1.6408e+02	3.5882	0.318542	0.000311	3.112018	0.527190	-0.000031
1651	1.6418e+02	3.5799	0.288806	0.000299	2.989176	0.506380	-0.000030
1652	1.6427e+02	3.5681	0.256626	0.000323	3.234861	0.548000	-0.000032
1653	1.6437e+02	3.5609	0.225260	0.000315	3.152966	0.534127	-0.000032
1654	1.6447e+02	3.5471	0.193488	0.000319	3.193914	0.541064	-0.000032
1655	1.6457e+02	3.5389	0.160086	0.000336	3.357704	0.568810	-0.000034
1656	1.6467e+02	3.5255	0.132386	0.000278	2.784438	0.471696	-0.000028
1657	1.6477e+02	3.5191	0.099799	0.000328	3.275809	0.554937	-0.000033
1658	1.6487e+02	3.5101	0.068434	0.000315	3.152966	0.534127	-0.000032
1659	1.6497e+02	3.4989	0.039105	0.000295	2.948228	0.499443	-0.000029
1660	1.6507e+02	3.4887	0.007740	0.000315	3.152966	0.534127	-0.000032
1661	1.6517e+02	3.4798	-0.028107	0.000360	3.603390	0.610431	-0.000036
1662	1.6527e+02	3.4664	-0.057028	0.000291	2.907280	0.492507	-0.000029
1663	1.6537e+02	3.4588	-0.087986	0.000311	3.112018	0.527190	-0.000031
1664	1.6547e+02	3.4460	-0.120166	0.000323	3.234861	0.548000	-0.000032
1665	1.6557e+02	3.4411	-0.151939	0.000319	3.193914	0.541064	-0.000032
1666	1.6567e+02	3.4305	-0.186563	0.000348	3.480547	0.589621	-0.000035
1667	1.6577e+02	3.4177	-0.211411	0.000250	2.497804	0.423139	-0.000025
1668	1.6587e+02	3.4086	-0.243184	0.000319	3.193914	0.541064	-0.000032
1669	1.6597e+02	3.4029	-0.276993	0.000340	3.398652	0.575747	-0.000034
1670	1.6607e+02	3.3894	-0.310395	0.000336	3.357704	0.568810	-0.000034
1671	1.6616e+02	3.3815	-0.342982	0.000328	3.275809	0.554937	-0.000033
1672	1.6626e+02	3.3685	-0.375162	0.000323	3.234861	0.548000	-0.000032
1673	1.6636e+02	3.3572	-0.409787	0.000348	3.480547	0.589621	-0.000035
1674	1.6646e+02	3.3495	-0.443596	0.000340	3.398652	0.575747	-0.000034
1675	1.6656e+02	3.3412	-0.482701	0.000393	3.930971	0.665924	-0.000039
1676	1.6666e+02	3.3291	-0.514474	0.000319	3.193914	0.541064	-0.000032
1677	1.6676e+02	3.3183	-0.545024	0.000307	3.071071	0.520253	-0.000031
1678	1.6686e+02	3.3059	-0.579241	0.000344	3.439599	0.582684	-0.000034
1679	1.6696e+02	3.2989	-0.610606	0.000315	3.152966	0.534127	-0.000032
1680	1.6706e+02	3.2900	-0.644009	0.000336	3.357704	0.568810	-0.000034
1681	1.6716e+02	3.2815	-0.674559	0.000307	3.071071	0.520253	-0.000031
1682	1.6726e+02	3.2677	-0.708369	0.000340	3.398652	0.575747	-0.000034
1683	1.6736e+02	3.2601	-0.737290	0.000291	2.907280	0.492507	-0.000029
1684	1.6746e+02	3.2489	-0.769877	0.000328	3.275809	0.554937	-0.000033
1685	1.6756e+02	3.2375	-0.804094	0.000344	3.439599	0.582684	-0.000034
1686	1.6766e+02	3.2288	-0.837496	0.000336	3.357704	0.568810	-0.000034
1687	1.6776e+02	3.2183	-0.869269	0.000319	3.193914	0.541064	-0.000032
1688	1.6786e+02	3.2101	-0.898190	0.000291	2.907280	0.492507	-0.000029
1689	1.6796e+02	3.2018	-0.930778	0.000328	3.275809	0.554937	-0.000033
1690	1.6806e+02	3.1895	-0.963365	0.000328	3.275809	0.554937	-0.000033
1691	1.6816e+02	3.1815	-0.992286	0.000291	2.907280	0.492507	-0.000029
1692	1.6825e+02	3.1690	-1.023652	0.000315	3.152966	0.534127	-0.000032
1693	1.6835e+02	3.1611	-1.055017	0.000315	3.152966	0.534127	-0.000032
1694	1.6845e+02	3.1483	-1.082717	0.000278	2.784438	0.471696	-0.000028
1695	1.6855e+02	3.1400	-1.116119	0.000336	3.357704	0.568810	-0.000034
1696	1.6865e+02	3.1317	-1.145040	0.000291	2.907280	0.492507	-0.000029
1697	1.6875e+02	3.1226	-1.177220	0.000323	3.234861	0.548000	-0.000032
1698	1.6885e+02	3.1088	-1.206956	0.000299	2.989176	0.506380	-0.000030
1699	1.6895e+02	3.0994	-1.239136	0.000323	3.234861	0.548000	-0.000032
1700	1.6905e+02	3.0893	-1.272131	0.000332	3.316756	0.561874	-0.000033
1701	1.6915e+02	3.0799	-1.300645	0.000287	2.866333	0.485570	-0.000029
1702	1.6925e+02	3.0727	-1.333640	0.000332	3.316756	0.561874	-0.000033
1703	1.6935e+02	3.0579	-1.366227	0.000328	3.275809	0.554937	-0.000033
1704	1.6945e+02	3.0498	-1.398000	0.000319	3.193914	0.541064	-0.000032
1705	1.6955e+02	3.0402	-1.427736	0.000299	2.989176	0.506380	-0.000030
1706	1.6965e+02	3.0289	-1.463174	0.000356	3.562442	0.603494	-0.000036
1707	1.6975e+02	3.0210	-1.494540	0.000315	3.152966	0.534127	-0.000032
1708	1.6985e+02	3.0085	-1.526720	0.000323	3.234861	0.548000	-0.000032
1709	1.6995e+02	2.9997	-1.560937	0.000344	3.439599	0.582684	-0.000034
1710	1.7005e+02	2.9893	-1.592302	0.000315	3.152966	0.534127	-0.000032
1711	1.7015e+02	2.9806	-1.626111	0.000340	3.398652	0.575747	-0.000034
1712	1.7024e+02	2.9713	-1.658699	0.000328	3.275809	0.554937	-0.000033
1713	1.7034e+02	2.9623	-1.690472	0.000319	3.193914	0.541064	-0.000032
1714	1.7044e+02	2.9493	-1.725503	0.000352	3.521495	0.596557	-0.000035
1715	1.7054e+02	2.9419	-1.756461	0.000311	3.112018	0.527190	-0.000031
1716	1.7064e+02	2.9326	-1.787419	0.000311	3.112018	0.527190	-0.000031
1717	1.7074e+02	2.9211	-1.823673	0.000364	3.644337	0.617367	-0.000036
1718	1.7084e+02	2.9121	-1.853816	0.000303	3.030123	0.513317	-0.000030
1719	1.7094e+02	2.9009	-1.890884	0.000373	3.726233	0.631241	-0.000037
1720	1.7104e+02	2.8928	-1.921027	0.000303	3.030123	0.513317	-0.000030
1721	1.7114e+02	2.8820	-1.956059	0.000352	3.521495	0.596557	-0.000035
1722	1.7124e+02	2.8698	-1.985795	0.000299	2.989176	0.506380	-0.000030
1723	1.7134e+02	2.8616	-2.016346	0.000307	3.071071	0.520253	-0.000031
1724	1.7144e+02	2.8517	-2.050970	0.000348	3.480547	0.589621	-0.000035
1725	1.7154e+02	2.8414	-2.087631	0.000369	3.685285	0.624304	-0.000037
1726	1.7164e+02	2.8312	-2.118181	0.000307	3.071071	0.520253	-0.000031
1727	1.7174e+02	2.8230	-2.150361	0.000323	3.234861	0.548000	-0.000032
1728	1.7184e+02	2.8120	-2.185393	0.000352	3.521495	0.596557	-0.000035
1729	1.7194e+02	2.8026	-2.219202	0.000340	3.398652	0.575747	-0.000034
1730	1.7204e+02	2.7950	-2.249753	0.000307	3.071071	0.520253	-0.000031
1731	1.7213e+02	2.7829	-2.286821	0.000373	3.726233	0.631241	-0.000037
1732	1.7223e+02	2.7715	-2.315335	0.000287	2.866333	0.485570	-0.000029
1733	1.7233e+02	2.7624	-2.351589	0.000364	3.644337	0.617367	-0.000036
1734	1.7243e+02	2.7509	-2.384176	0.000328	3.275809	0.554937	-0.000033
1735	1.7253e+02	2.7422	-2.421651	0.000377	3.767180	0.638178	-0.000038
1736	1.7263e+02	2.7303	-2.451795	0.000303	3.030123	0.513317	-0.000030
1737	1.7273e+02	2.7228	-2.487641	0.000360	3.603390	0.610431	-0.000036
1738	1.7283e+02	2.7111	-2.519821	0.000323	3.234861	0.548000	-0.000032
1739	1.7293e+02	2.7041	-2.555260	0.000356	3.562442	0.603494	-0.000036
1740	1.7303e+02	2.6910	-2.589477	0.000344	3.439599	0.582684	-0.000034
1741	1.7313e+02	2.6806	-2.623693	0.000344	3.439599	0.582684	-0.000034
1742	1.7323e+02	2.6741	-2.655873	0.000323	3.234861	0.548000	-0.000032
1743	1.7333e+02	2.6614	-2.690498	0.000348	3.480547	0.589621	-0.000035
1744	1.7343e+02	2.6538	-2.723492	0.000332	3.316756	0.561874	-0.000033
1745	1.7353e+02	2.6418	-2.759338	0.000360	3.603390	0.610431	-0.000036
1746	1.7363e+02	2.6321	-2.793963	0.000348	3.480547	0.589621	-0.000035
1747	1.7373e+02	2.6232	-2.826957	0.000332	3.316756	0.561874	-0.000033
1748	1.7383e+02	2.6125	-2.859952	0.000332	3.316756	0.561874	-0.000033
1749	1.7393e+02	2.6023	-2.896206	0.000364	3.644337	0.617367	-0.000036
1750	1.7403e+02	2.5908	-2.929608	0.000336	3.357704	0.568810	-0.000034
1751	1.7413e+02	2.5845	-2.963417	0.000340	3.398652	0.575747	-0.000034
1752	1.7422e+02	2.5707	-2.997634	0.000344	3.439599	0.582684	-0.000034
1753	1.7432e+02	2.5638	-3.033887	0.000364	3.644337	0.617367	-0.000036
1754	1.7442e+02	2.5542	-3.065253	0.000315	3.152966	0.534127	-0.000032
1755	1.7452e+02	2.5436	-3.098247	0.000332	3.316756	0.561874	-0.000033
1756	1.7462e+02	2.5336	-3.130428	0.000323	3.234861	0.548000	-0.000032
1757	1.7472e+02	2.5234	-3.162608	0.000323	3.234861	0.548000	-0.000032
1758	1.7482e+02	2.5130	-3.194788	0.000323	3.234861	0.548000	-0.000032
1759	1.7492e+02	2.5031	-3.223709	0.000291	2.907280	0.492507	-0.000029
1760	1.7502e+02	2.4907	-3.261184	0.000377	3.767180	0.638178	-0.000038
1761	1.7512e+02	2.4871	-3.294179	0.000332	3.316756	0.561874	-0.000033
1762	1.7522e+02	2.4738	-3.328803	0.000348	3.480547	0.589621	-0.000035
1763	1.7532e+02	2.4610	-3.363427	0.000348	3.480547	0.589621	-0.000035
1764	1.7542e+02	2.4550	-3.396015	0.000328	3.275809	0.554937	-0.000033
1765	1.7552e+02	2.4438	-3.429824	0.000340	3.398652	0.575747	-0.000034
1766	1.7562e+02	2.4332	-3.469337	0.000397	3.971918	0.672861	-0.000040
1767	1.7572e+02	2.4254	-3.501109	0.000319	3.193914	0.541064	-0.000032
1768	1.7582e+02	2.4113	-3.536955	0.000360	3.603390	0.610431	-0.000036
1769	1.7592e+02	2.4046	-3.569543	0.000328	3.275809	0.554937	-0.000033
1770	1.7602e+02	2.3934	-3.608648	0.000393	3.930971	0.665924	-0.000039
1771	1.7612e+02	2.3869	-3.641642	0.000332	3.316756	0.561874	-0.000033
1772	1.7621e+02	2.3740	-3.677896	0.000364	3.644337	0.617367	-0.000036
1773	1.7631e+02	2.3637	-3.714964	0.000373	3.726233	0.631241	-0.000037
1774	1.7641e+02	2.3537	-3.747959	0.000332	3.316756	0.561874	-0.000033
1775	1.7651e+02	2.3436	-3.785434	0.000377	3.767180	0.638178	-0.000038
1776	1.7661e+02	2.3329	-3.824132	0.000389	3.890023	0.658988	-0.000039
1777	1.7671e+02	2.3269	-3.856719	0.000328	3.275809	0.554937	-0.000033
1778	1.7681e+02	2.3150	-3.895009	0.000385	3.849075	0.652051	-0.000038
1779	1.7691e+02	2.3010	-3.933707	0.000389	3.890023	0.658988	-0.000039
1780	1.7701e+02	2.2951	-3.973219	0.000397	3.971918	0.672861	-0.000040
1781	1.7711e+02	2.2840	-4.005807	0.000328	3.275809	0.554937	-0.000033
1782	1.7721e+02	2.2729	-4.045319	0.000397	3.971918	0.672861	-0.000040
1783	1.7731e+02	2.2649	-4.082794	0.000377	3.767180	0.638178	-0.000038
1784	1.7741e+02	2.2532	-4.117826	0.000352	3.521495	0.596557	-0.000035
1785	1.7751e+02	2.2457	-4.152043	0.000344	3.439599	0.582684	-0.000034
1786	1.7761e+02	2.2326	-4.190740	0.000389	3.890023	0.658988	-0.000039
1787	1.7771e+02	2.2256	-4.228623	0.000381	3.808128	0.645114	-0.000038
1788	1.7781e+02	2.2143	-4.261210	0.000328	3.275809	0.554937	-0.000033
1789	1.7791e+02	2.2065	-4.297871	0.000369	3.685285	0.624304	-0.000037
1790	1.7801e+02	2.1960	-4.332088	0.000344	3.439599	0.582684	-0.000034
1791	1.7810e+02	2.1838	-4.369564	0.000377	3.767180	0.638178	-0.000038
1792	1.7820e+02	2.1751	-4.406224	0.000369	3.685285	0.624304	-0.000037
1793	1.7830e+02	2.1655	-4.440848	0.000348	3.480547	0.589621	-0.000035
1794	1.7840e+02	2.1548	-4.482805	0.000422	4.217604	0.714481	-0.000042
1795	1.7850e+02	2.1450	-4.515800	0.000332	3.316756	0.561874	-0.000033
1796	1.7860e+02	2.1350	-4.554090	0.000385	3.849075	0.652051	-0.000038
1797	1.7870e+02	2.1233	-4.588306	0.000344	3.439599	0.582684	-0.000034
1798	1.7880e+02	2.1162	-4.624153	0.000360	3.603390	0.610431	-0.000036
1799	1.7890e+02	2.1079	-4.659999	0.000360	3.603390	0.610431	-0.000036
1800	1.7900e+02	2.0928	-4.692994	0.000332	3.316756	0.561874	-0.000033
1801	1.7910e+02	2.0846	-4.729654	0.000369	3.685285	0.624304	-0.000037
1802	1.7920e+02	2.0760	-4.771611	0.000422	4.217604	0.714481	-0.000042
1803	1.7930e+02	2.0669	-4.807049	0.000356	3.562442	0.603494	-0.000036
1804	1.7940e+02	2.0535	-4.844525	0.000377	3.767180	0.638178	-0.000038
1805	1.7950e+02	2.0457	-4.881593	0.000373	3.726233	0.631241	-0.000037
1806	1.7960e+02	2.0342	-4.914181	0.000328	3.275809	0.554937	-0.000033
1807	1.7970e+02	2.0257	-4.956544	0.000426	4.258552	0.721418	-0.000043
1808	1.7980e+02	2.0165	-4.988724	0.000323	3.234861	0.548000	-0.000032
1809	1.7990e+02	2.0029	-5.029051	0.000405	4.053813	0.686735	-0.000041
1810	1.8000e+02	1.9957	-5.062861	0.000340	3.398652	0.575747	-0.000034
1811	1.8009e+02	1.9882	-5.098707	0.000360	3.603390	0.610431	-0.000036
1812	1.8019e+02	1.9763	-5.136182	0.000377	3.767180	0.638178	-0.000038
1813	1.8029e+02	1.9678	-5.175287	0.000393	3.930971	0.665924	-0.000039
1814	1.8039e+02	1.9549	-5.212355	0.000373	3.726233	0.631241	-0.000037
1815	1.8049e+02	1.9448	-5.247387	0.000352	3.521495	0.596557	-0.000035
1816	1.8059e+02	1.9328	-5.284455	0.000373	3.726233	0.631241	-0.000037
1817	1.8069e+02	1.9262	-5.319079	0.000348	3.480547	0.589621	-0.000035
1818	1.8079e+02	1.9164	-5.359406	0.000405	4.053813	0.686735	-0.000041
1819	1.8089e+02	1.9064	-5.391993	0.000328	3.275809	0.554937	-0.000033
1820	1.8099e+02	1.8930	-5.432320	0.000405	4.053813	0.686735	-0.000041
1821	1.8109e+02	1.8838	-5.467352	0.000352	3.521495	0.596557	-0.000035
1822	1.8119e+02	1.8742	-5.505235	0.000381	3.808128	0.645114	-0.000038
1823	1.8129e+02	1.8655	-5.541895	0.000369	3.685285	0.624304	-0.000037
1824	1.8139e+02	1.8575	-5.578964	0.000373	3.726233	0.631241	-0.000037
1825	1.8149e+02	1.8440	-5.615217	0.000364	3.644337	0.617367	-0.000036
1826	1.8159e+02	1.8351	-5.652285	0.000373	3.726233	0.631241	-0.000037
1827	1.8169e+02	1.8273	-5.690983	0.000389	3.890023	0.658988	-0.000039
1828	1.8179e+02	1.8187	-5.730902	0.000401	4.012866	0.679798	-0.000040
1829	1.8189e+02	1.8082	-5.765119	0.000344	3.439599	0.582684	-0.000034
1830	1.8199e+02	1.7949	-5.799743	0.000348	3.480547	0.589621	-0.000035
1831	1.8209e+02	1.7862	-5.835589	0.000360	3.603390	0.610431	-0.000036
1832	1.8218e+02	1.7779	-5.877138	0.000418	4.176656	0.707545	-0.000042
1833	1.8228e+02	1.7651	-5.912984	0.000360	3.603390	0.610431	-0.000036
1834	1.8238e+02	1.7564	-5.952497	0.000397	3.971918	0.672861	-0.000040
1835	1.8248e+02	1.7467	-5.986713	0.000344	3.439599	0.582684	-0.000034
1836	1.8258e+02	1.7394	-6.026226	0.000397	3.971918	0.672861	-0.000040
1837	1.8268e+02	1.7303	-6.063701	0.000377	3.767180	0.638178	-0.000038
1838	1.8278e+02	1.7187	-6.106472	0.000430	4.299499	0.728355	-0.000043
1839	1.8288e+02	1.7059	-6.144355	0.000381	3.808128	0.645114	-0.000038
1840	1.8298e+02	1.6980	-6.182645	0.000385	3.849075	0.652051	-0.000038
1841	1.8308e+02	1.6885	-6.221750	0.000393	3.930971	0.665924	-0.000039
1842	1.8318e+02	1.6753	-6.262077	0.000405	4.053813	0.686735	-0.000041
1843	1.8328e+02	1.6654	-6.301589	0.000397	3.971918	0.672861	-0.000040
1844	1.8338e+02	1.6566	-6.339472	0.000381	3.808128	0.645114	-0.000038
1845	1.8348e+02	1.6485	-6.380206	0.000409	4.094761	0.693671	-0.000041
1846	1.8358e+02	1.6352	-6.418497	0.000385	3.849075	0.652051	-0.000038
1847	1.8368e+02	1.6254	-6.453935	0.000356	3.562442	0.603494	-0.000036
1848	1.8378e+02	1.6180	-6.493855	0.000401	4.012866	0.679798	-0.000040
1849	1.8388e+02	1.6090	-6.533775	0.000401	4.012866	0.679798	-0.000040
1850	1.8398e+02	1.5960	-6.572065	0.000385	3.849075	0.652051	-0.000038
1851	1.8407e+02	1.5869	-6.608726	0.000369	3.685285	0.624304	-0.000037
1852	1.8417e+02	1.5739	-6.649460	0.000409	4.094761	0.693671	-0.000041
1853	1.8427e+02	1.5681	-6.685306	0.000360	3.603390	0.610431	-0.000036
1854	1.8437e+02	1.5588	-6.723189	0.000381	3.808128	0.645114	-0.000038
1855	1.8447e+02	1.5465	-6.761072	0.000381	3.808128	0.645114	-0.000038
1856	1.8457e+02	1.5388	-6.799362	0.000385	3.849075	0.652051	-0.000038
1857	1.8467e+02	1.5299	-6.840911	0.000418	4.176656	0.707545	-0.000042
1858	1.8477e+02	1.5204	-6.874313	0.000336	3.357704	0.568810	-0.000034
1859	1.8487e+02	1.5071	-6.912196	0.000381	3.808128	0.645114	-0.000038
1860	1.8497e+02	1.4964	-6.947227	0.000352	3.521495	0.596557	-0.000035
1861	1.8507e+02	1.4899	-6.983481	0.000364	3.644337	0.617367	-0.000036
1862	1.8517e+02	1.4761	-7.019734	0.000364	3.644337	0.617367	-0.000036
1863	1.8527e+02	1.4693	-7.055988	0.000364	3.644337	0.617367	-0.000036
1864	1.8537e+02	1.4602	-7.093871	0.000381	3.808128	0.645114	-0.000038
1865	1.8547e+02	1.4463	-7.132975	0.000393	3.930971	0.665924	-0.000039
1866	1.8557e+02	1.4391	-7.168822	0.000360	3.603390	0.610431	-0.000036
1867	1.8567e+02	1.4288	-7.204260	0.000356	3.562442	0.603494	-0.000036
1868	1.8577e+02	1.4208	-7.246624	0.000426	4.258552	0.721418	-0.000043
1869	1.8587e+02	1.4073	-7.283285	0.000369	3.685285	0.624304	-0.000037
1870	1.8597e+02	1.3970	-7.319946	0.000369	3.685285	0.624304	-0.000037
1871	1.8606e+02	1.3887	-7.357829	0.000381	3.808128	0.645114	-0.000038
1872	1.8616e+02	1.3786	-7.398970	0.000414	4.135709	0.700608	-0.000041
1873	1.8626e+02	1.3672	-7.434816	0.000360	3.603390	0.610431	-0.000036
1874	1.8636e+02	1.3607	-7.473514	0.000389	3.890023	0.658988	-0.000039
1875	1.8646e+02	1.3490	-7.509360	0.000360	3.603390	0.610431	-0.000036
1876	1.8656e+02	1.3414	-7.548465	0.000393	3.930971	0.665924	-0.000039
1877	1.8666e+02	1.3306	-7.590828	0.000426	4.258552	0.721418	-0.000043
1878	1.8676e+02	1.3168	-7.629119	0.000385	3.849075	0.652051	-0.000038
1879	1.8686e+02	1.3079	-7.669038	0.000401	4.012866	0.679798	-0.000040
1880	1.8696e+02	1.3001	-7.707328	0.000385	3.849075	0.652051	-0.000038
1881	1.8706e+02	1.2892	-7.748063	0.000409	4.094761	0.693671	-0.000041
1882	1.8716e+02	1.2794	-7.788390	0.000405	4.053813	0.686735	-0.000041
1883	1.8726e+02	1.2715	-7.825050	0.000369	3.685285	0.624304	-0.000037
1884	1.8736e+02	1.2601	-7.864563	0.000397	3.971918	0.672861	-0.000040
1885	1.8746e+02	1.2495	-7.900409	0.000360	3.603390	0.610431	-0.000036
1886	1.8756e+02	1.2395	-7.941143	0.000409	4.094761	0.693671	-0.000041
1887	1.8766e+02	1.2298	-7.979026	0.000381	3.808128	0.645114	-0.000038
1888	1.8776e+02	1.2186	-8.023019	0.000442	4.422342	0.749165	-0.000044
1889	1.8786e+02	1.2096	-8.056421	0.000336	3.357704	0.568810	-0.000034
1890	1.8796e+02	1.1992	-8.098377	0.000422	4.217604	0.714481	-0.000042
1891	1.8806e+02	1.1883	-8.135445	0.000373	3.726233	0.631241	-0.000037
1892	1.8815e+02	1.1793	-8.173328	0.000381	3.808128	0.645114	-0.000038
1893	1.8825e+02	1.1710	-8.218136	0.000450	4.504237	0.763038	-0.000045
1894	1.8835e+02	1.1604	-8.255611	0.000377	3.767180	0.638178	-0.000038
1895	1.8845e+02	1.1507	-8.296753	0.000414	4.135709	0.700608	-0.000041
1896	1.8855e+02	1.1401	-8.333414	0.000369	3.685285	0.624304	-0.000037
1897	1.8865e+02	1.1311	-8.374556	0.000414	4.135709	0.700608	-0.000041
1898	1.8875e+02	1.1185	-8.414475	0.000401	4.012866	0.679798	-0.000040
1899	1.8885e+02	1.1090	-8.453580	0.000393	3.930971	0.665924	-0.000039
1900	1.8895e+02	1.1026	-8.489833	0.000364	3.644337	0.617367	-0.000036
1901	1.8905e+02	1.0901	-8.530568	0.000409	4.094761	0.693671	-0.000041
1902	1.8915e+02	1.0791	-8.572931	0.000426	4.258552	0.721418	-0.000043
1903	1.8925e+02	1.0722	-8.616517	0.000438	4.381394	0.742228	-0.000044
1904	1.8935e+02	1.0593	-8.653585	0.000373	3.726233	0.631241	-0.000037
1905	1.8945e+02	1.0500	-8.697171	0.000438	4.381394	0.742228	-0.000044
1906	1.8955e+02	1.0418	-8.737498	0.000405	4.053813	0.686735	-0.000041
1907	1.8965e+02	1.0326	-8.777010	0.000397	3.971918	0.672861	-0.000040
1908	1.8975e+02	1.0205	-8.811634	0.000348	3.480547	0.589621	-0.000035
1909	1.8985e+02	1.0096	-8.853590	0.000422	4.217604	0.714481	-0.000042
1910	1.8995e+02	1.0009	-8.900027	0.000467	4.668028	0.790785	-0.000047
1911	1.9004e+02	0.9903	-8.937910	0.000381	3.808128	0.645114	-0.000038
1912	1.9014e+02	0.9774	-8.971312	0.000336	3.357704	0.568810	-0.000034
1913	1.9024e+02	0.9728	-9.019786	0.000487	4.872766	0.825469	-0.000049
1914	1.9034e+02	0.9615	-9.058891	0.000393	3.930971	0.665924	-0.000039
1915	1.9044e+02	0.9551	-9.100440	0.000418	4.176656	0.707545	-0.000042
1916	1.9054e+02	0.9418	-9.136286	0.000360	3.603390	0.610431	-0.000036
1917	1.9064e+02	0.9320	-9.181501	0.000455	4.545185	0.769975	-0.000045
1918	1.9074e+02	0.9220	-9.222643	0.000414	4.135709	0.700608	-0.000041
1919	1.9084e+02	0.9120	-9.261748	0.000393	3.930971	0.665924	-0.000039
1920	1.9094e+02	0.8993	-9.300445	0.000389	3.890023	0.658988	-0.000039
1921	1.9104e+02	0.8930	-9.344438	0.000442	4.422342	0.749165	-0.000044
1922	1.9114e+02	0.8803	-9.379470	0.000352	3.521495	0.596557	-0.000035
1923	1.9124e+02	0.8723	-9.420611	0.000414	4.135709	0.700608	-0.000041
1924	1.9134e+02	0.8614	-9.463382	0.000430	4.299499	0.728355	-0.000043
1925	1.9144e+02	0.8511	-9.500043	0.000369	3.685285	0.624304	-0.000037
1926	1.9154e+02	0.8407	-9.540777	0.000409	4.094761	0.693671	-0.000041
1927	1.9164e+02	0.8316	-9.582734	0.000422	4.217604	0.714481	-0.000042
1928	1.9174e+02	0.8230	-9.623875	0.000414	4.135709	0.700608	-0.000041
1929	1.9184e+02	0.8140	-9.661758	0.000381	3.808128	0.645114	-0.000038
1930	1.9194e+02	0.8022	-9.702085	0.000405	4.053813	0.686735	-0.000041
1931	1.9203e+02	0.7928	-9.744856	0.000430	4.299499	0.728355	-0.000043
1932	1.9213e+02	0.7829	-9.783961	0.000393	3.930971	0.665924	-0.000039
1933	1.9223e+02	0.7706	-9.827139	0.000434	4.340447	0.735292	-0.000043
1934	1.9233e+02	0.7609	-9.863393	0.000364	3.644337	0.617367	-0.000036
1935	1.9243e+02	0.7538	-9.910237	0.000471	4.708975	0.797722	-0.000047
1936	1.9253e+02	0.7426	-9.948120	0.000381	3.808128	0.645114	-0.000038
1937	1.9263e+02	0.7308	-9.990891	0.000430	4.299499	0.728355	-0.000043
1938	1.9273e+02	0.7229	-10.037328	0.000467	4.668028	0.790785	-0.000047
1939	1.9283e+02	0.7113	-10.076840	0.000397	3.971918	0.672861	-0.000040
1940	1.9293e+02	0.7013	-10.121240	0.000446	4.463290	0.756102	-0.000045
1941	1.9303e+02	0.6918	-10.161567	0.000405	4.053813	0.686735	-0.000041
1942	1.9313e+02	0.6814	-10.205968	0.000446	4.463290	0.756102	-0.000045
1943	1.9323e+02	0.6727	-10.248331	0.000426	4.258552	0.721418	-0.000043
1944	1.9333e+02	0.6605	-10.295176	0.000471	4.708975	0.797722	-0.000047
1945	1.9343e+02	0.6521	-10.339576	0.000446	4.463290	0.756102	-0.000045
1946	1.9353e+02	0.6426	-10.375829	0.000364	3.644337	0.617367	-0.000036
1947	1.9363e+02	0.6333	-10.421859	0.000463	4.627080	0.783849	-0.000046
1948	1.9373e+02	0.6229	-10.467482	0.000459	4.586132	0.776912	-0.000046
1949	1.9383e+02	0.6135	-10.510253	0.000430	4.299499	0.728355	-0.000043
1950	1.9393e+02	0.6033	-10.557504	0.000475	4.749923	0.804659	-0.000047
1951	1.9403e+02	0.5946	-10.599868	0.000426	4.258552	0.721418	-0.000043
1952	1.9412e+02	0.5830	-10.641417	0.000418	4.176656	0.707545	-0.000042
1953	1.9422e+02	0.5704	-10.680929	0.000397	3.971918	0.672861	-0.000040
1954	1.9432e+02	0.5630	-10.728588	0.000479	4.790870	0.811595	-0.000048
1955	1.9442e+02	0.5511	-10.771766	0.000434	4.340447	0.735292	-0.000043
1956	1.9452e+02	0.5425	-10.812093	0.000405	4.053813	0.686735	-0.000041
1957	1.9462e+02	0.5339	-10.854864	0.000430	4.299499	0.728355	-0.000043
1958	1.9472e+02	0.5242	-10.901709	0.000471	4.708975	0.797722	-0.000047
1959	1.9482e+02	0.5130	-10.942443	0.000409	4.094761	0.693671	-0.000041
1960	1.9492e+02	0.5035	-10.983177	0.000409	4.094761	0.693671	-0.000041
1961	1.9502e+02	0.4951	-11.024319	0.000414	4.135709	0.700608	-0.000041
1962	1.9512e+02	0.4836	-11.074829	0.000508	5.077504	0.860152	-0.000051
1963	1.9522e+02	0.4747	-11.116378	0.000418	4.176656	0.707545	-0.000042
1964	1.9532e+02	0.4639	-11.158335	0.000422	4.217604	0.714481	-0.000042
1965	1.9542e+02	0.4538	-11.201105	0.000430	4.299499	0.728355	-0.000043
1966	1.9552e+02	0.4436	-11.246728	0.000459	4.586132	0.776912	-0.000046
1967	1.9562e+02	0.4327	-11.287869	0.000414	4.135709	0.700608	-0.000041
1968	1.9572e+02	0.4228	-11.332677	0.000450	4.504237	0.763038	-0.000045
1969	1.9582e+02	0.4151	-11.377077	0.000446	4.463290	0.756102	-0.000045
1970	1.9592e+02	0.4025	-11.416590	0.000397	3.971918	0.672861	-0.000040
1971	1.9601e+02	0.3942	-11.460990	0.000446	4.463290	0.756102	-0.000045
1972	1.9611e+02	0.3841	-11.503354	0.000426	4.258552	0.721418	-0.000043
1973	1.9621e+02	0.3745	-11.546125	0.000430	4.299499	0.728355	-0.000043
1974	1.9631e+02	0.3631	-11.588081	0.000422	4.217604	0.714481	-0.000042
1975	1.9641e+02	0.3542	-11.634925	0.000471	4.708975	0.797722	-0.000047
1976	1.9651e+02	0.3442	-11.679733	0.000450	4.504237	0.763038	-0.000045
1977	1.9661e+02	0.3353	-11.722504	0.000430	4.299499	0.728355	-0.000043
1978	1.9671e+02	0.3263	-11.769756	0.000475	4.749923	0.804659	-0.000047
1979	1.9681e+02	0.3126	-11.808861	0.000393	3.930971	0.665924	-0.000039
1980	1.9691e+02	0.3044	-11.856520	0.000479	4.790870	0.811595	-0.000048
1981	1.9701e+02	0.2959	-11.897254	0.000409	4.094761	0.693671	-0.000041
1982	1.9711e+02	0.2850	-11.940840	0.000438	4.381394	0.742228	-0.000044
1983	1.9721e+02	0.2740	-11.987277	0.000467	4.668028	0.790785	-0.000047
1984	1.9731e+02	0.2639	-12.029233	0.000422	4.217604	0.714481	-0.000042
1985	1.9741e+02	0.2537	-12.075670	0.000467	4.668028	0.790785	-0.000047
1986	1.9751e+02	0.2444	-12.117626	0.000422	4.217604	0.714481	-0.000042
1987	1.9761e+02	0.2335	-12.157138	0.000397	3.971918	0.672861	-0.000040
1988	1.9771e+02	0.2226	-12.197873	0.000409	4.094761	0.693671	-0.000041
1989	1.9781e+02	0.2135	-12.248791	0.000512	5.118451	0.867089	-0.000051
1990	1.9791e+02	0.2045	-12.293191	0.000446	4.463290	0.756102	-0.000045
1991	1.9800e+02	0.1951	-12.336777	0.000438	4.381394	0.742228	-0.000044
1992	1.9810e+02	0.1842	-12.380362	0.000438	4.381394	0.742228	-0.000044
1993	1.9820e+02	0.1767	-12.422318	0.000422	4.217604	0.714481	-0.000042
1994	1.9830e+02	0.1614	-12.465497	0.000434	4.340447	0.735292	-0.000043
1995	1.9840e+02	0.1546	-12.511934	0.000467	4.668028	0.790785	-0.000047
1996	1.9850e+02	0.1440	-12.553890	0.000422	4.217604	0.714481	-0.000042
1997	1.9860e+02	0.1337	-12.598290	0.000446	4.463290	0.756102	-0.000045
1998	1.9870e+02	0.1251	-12.643913	0.000459	4.586132	0.776912	-0.000046
1999	1.9880e+02	0.1120	-12.686276	0.000426	4.258552	0.721418	-0.000043
2000	1.9890e+02	0.1047	-12.731491	0.000455	4.545185	0.769975	-0.000045
2001	1.9900e+02	0.0968	-12.773040	0.000418	4.176656	0.707545	-0.000042
2002	1.9910e+02	0.0842	-12.817033	0.000442	4.422342	0.749165	-0.000044
2003	1.9920e+02	0.0754	-12.864692	0.000479	4.790870	0.811595	-0.000048
2004	1.9930e+02	0.0644	-12.911944	0.000475	4.749923	0.804659	-0.000047
2005	1.9940e+02	0.0539	-12.957159	0.000455	4.545185	0.769975	-0.000045
2006	1.9950e+02	0.0434	-13.001152	0.000442	4.422342	0.749165	-0.000044
2007	1.9960e+02	0.0339	-13.048811	0.000479	4.790870	0.811595	-0.000048
2008	1.9970e+02	0.0241	-13.094026	0.000455	4.545185	0.769975	-0.000045
2009	1.9980e+02	0.0180	-13.143722	0.000500	4.995609	0.846279	-0.000050
2010	1.9990e+02	0.0058	-13.189344	0.000459	4.586132	0.776912	-0.000046
2011	2.0000e+02	-0.0039	-13.235374	0.000459	4.586132	0.776912	-0.000046

PMax (uC/cm2):	3.08e+01
Pr (uC/cm2):	2.15e+00
-Pr (uC/cm2):	0.00e+00
PLoss (uC/cm2):	0.00e+00
C (Max-Eff) (nF):	3.08e-01
K (Eff):	5.22e+02
Vert. (+/-Pr) Shift (uC/cm2):	1.07e+00
Offset (uC/cm2):	1.54e+01

A (Loop Area - uC/cm2·Volts):	-2.15e-02



Hysteresis Version: 5.48.1 - Radiant Technologies, Inc., 1999 - 9/12/24

