»»»»»»»»»»»»»»»»»»»»»»»»»»»»»»»»»»»» Hysteresis ««««««««««««««««««««««««««««««««««««
»»»  Executed Version:	5.48.1
»»»  Vision Version:	5.48.4 (R)
»»»  Vision Compiled:	9/18/24
»»»  Driver Version:	5.47.0
»»»  Windows Version:	Windows 8 or 8.1
»»»  Processor Information:	x86 (AMD or Intel) - 32 Processors
»»»  Tester Name:	PMF21124-494 (100V)
»»»  Tester S/N:	PMF21124-494
»»»  Internal Amp Type:	100V RevK 270k
»»»  Internal Amp S/N:	iAB2-596/K     
»»»  Execution Count:	1
»»»»»»»»»»»»»»»»»»»»»»»»»»»»»»»»»»»»»»»»»»««««««««««««««««««««««««««««««««««««««««««

Stored:	6/25/2025 - 14:51:11
Configured:	06/25/25 10:44:40 AM
Executed:	06/25/25 02:50:41 PM

»»»»»»»»»»»»»»»»»»»»»»»»»»»»»»»»»»» Sample Info ««««««««««««««««««««««««««««««««««««
Sample Name:	
Lot Name:	
Wafer Name:	
Die Row/Column:	0/0
Capacitor Number:	0
Sample Area (cm2):	1.00e-04
Sample Thickness (microns):	1.50e-01

Amplifier:	Internal

»»»»»»»»»»»»»»»»»»»»»»»»»»»»»»»»»»» Tester Info «««««««««««««««««««««««««««««««««««
Tester Name:	PMF21124-494 (100V)
Tester Serial Number:	PMF21124-494
Return Signal Amp. Level:	1.9 [Index: 2]

»»»»»»»»»»»»»»»»»»»»»»»»»»»»»»»» Hysteresis Info ««««««««««««««««««««««««««««««««««
Task Name:	Hyst-116
Volts:	10.00
Field:	666.67 (kV/cm)
DCBias:	0.00
DCField:	0.00 (kV/cm)
Hysteresis Period (ms):	2.00e+02
Preset:	Enabled
Preset Delay (ms):	1.00e+03
Profile:	Standard Monopolar

»»»»»»»»»»»»»»»»»»»»»»»»»»»»»»»»»»»»»» Data «««««««««««««««««««««««««««««««««««««««
Points:	2011

Valid Data

Point	Time (ms)	Drive Voltage	Measured Polarization (uC/cm2)	Capacitance (uF)	Normalized Capacitance (uF/cm2)	Dielectric Constant	Instantaneous Current (mA)
   1	0.0000e+00	-0.0045	-16.047463	0.000401	4.013877	0.679969	0.000040
   2	9.9500e-02	0.0063	-16.007544	0.000401	4.013877	0.679969	0.000040
   3	1.9900e-01	0.0207	-15.963551	0.000442	4.423456	0.749354	0.000044
   4	2.9850e-01	0.0266	-15.920373	0.000434	4.341540	0.735477	0.000043
   5	3.9800e-01	0.0353	-15.875565	0.000451	4.505372	0.763231	0.000045
   6	4.9750e-01	0.0452	-15.831572	0.000442	4.423456	0.749354	0.000044
   7	5.9700e-01	0.0575	-15.792467	0.000393	3.931961	0.666092	0.000039
   8	6.9650e-01	0.0658	-15.749289	0.000434	4.341540	0.735477	0.000043
   9	7.9600e-01	0.0732	-15.706925	0.000426	4.259624	0.721600	0.000043
  10	8.9550e-01	0.0852	-15.662117	0.000451	4.505372	0.763231	0.000045
  11	9.9500e-01	0.0948	-15.618939	0.000434	4.341540	0.735477	0.000043
  12	1.0945e+00	0.1067	-15.574946	0.000442	4.423456	0.749354	0.000044
  13	1.1940e+00	0.1148	-15.533397	0.000418	4.177708	0.707723	0.000042
  14	1.2935e+00	0.1259	-15.490626	0.000430	4.300582	0.728538	0.000043
  15	1.3930e+00	0.1347	-15.445819	0.000451	4.505372	0.763231	0.000045
  16	1.4925e+00	0.1468	-15.401011	0.000451	4.505372	0.763231	0.000045
  17	1.5920e+00	0.1569	-15.355388	0.000459	4.587288	0.777108	0.000046
  18	1.6915e+00	0.1654	-15.309766	0.000459	4.587288	0.777108	0.000046
  19	1.7910e+00	0.1720	-15.269032	0.000410	4.095793	0.693846	0.000041
  20	1.8905e+00	0.1874	-15.224224	0.000451	4.505372	0.763231	0.000045
  21	1.9900e+00	0.1930	-15.179009	0.000455	4.546330	0.770169	0.000045
  22	2.0895e+00	0.2066	-15.138682	0.000405	4.054835	0.686908	0.000041
  23	2.1890e+00	0.2151	-15.097948	0.000410	4.095793	0.693846	0.000041
  24	2.2885e+00	0.2253	-15.055177	0.000430	4.300582	0.728538	0.000043
  25	2.3880e+00	0.2358	-15.009147	0.000463	4.628246	0.784046	0.000046
  26	2.4875e+00	0.2449	-14.965969	0.000434	4.341540	0.735477	0.000043
  27	2.5870e+00	0.2547	-14.919939	0.000463	4.628246	0.784046	0.000046
  28	2.6865e+00	0.2642	-14.877168	0.000430	4.300582	0.728538	0.000043
  29	2.7860e+00	0.2731	-14.832361	0.000451	4.505372	0.763231	0.000045
  30	2.8855e+00	0.2817	-14.792034	0.000405	4.054835	0.686908	0.000041
  31	2.9850e+00	0.2925	-14.738672	0.000537	5.365488	0.908938	0.000054
  32	3.0845e+00	0.3021	-14.691827	0.000471	4.710161	0.797923	0.000047
  33	3.1840e+00	0.3117	-14.646205	0.000459	4.587288	0.777108	0.000046
  34	3.2835e+00	0.3232	-14.600175	0.000463	4.628246	0.784046	0.000046
  35	3.3830e+00	0.3371	-14.552516	0.000479	4.792077	0.811800	0.000048
  36	3.4825e+00	0.3433	-14.506894	0.000459	4.587288	0.777108	0.000046
  37	3.5820e+00	0.3536	-14.462086	0.000451	4.505372	0.763231	0.000045
  38	3.6815e+00	0.3648	-14.416464	0.000459	4.587288	0.777108	0.000046
  39	3.7810e+00	0.3733	-14.374100	0.000426	4.259624	0.721600	0.000043
  40	3.8805e+00	0.3801	-14.326441	0.000479	4.792077	0.811800	0.000048
  41	3.9800e+00	0.3936	-14.276338	0.000504	5.037825	0.853431	0.000050
  42	4.0795e+00	0.4028	-14.229494	0.000471	4.710161	0.797923	0.000047
  43	4.1790e+00	0.4115	-14.186723	0.000430	4.300582	0.728538	0.000043
  44	4.2785e+00	0.4218	-14.137434	0.000496	4.955909	0.839554	0.000050
  45	4.3780e+00	0.4333	-14.090590	0.000471	4.710161	0.797923	0.000047
  46	4.4775e+00	0.4446	-14.047819	0.000430	4.300582	0.728538	0.000043
  47	4.5770e+00	0.4549	-13.998530	0.000496	4.955909	0.839554	0.000050
  48	4.6765e+00	0.4628	-13.954130	0.000446	4.464414	0.756292	0.000045
  49	4.7760e+00	0.4745	-13.905656	0.000487	4.873993	0.825677	0.000049
  50	4.8755e+00	0.4855	-13.863293	0.000426	4.259624	0.721600	0.000043
  51	4.9750e+00	0.4929	-13.816856	0.000467	4.669203	0.790984	0.000047
  52	5.0745e+00	0.5063	-13.777343	0.000397	3.972919	0.673031	0.000040
  53	5.1740e+00	0.5136	-13.732128	0.000455	4.546330	0.770169	0.000045
  54	5.2735e+00	0.5249	-13.688950	0.000434	4.341540	0.735477	0.000043
  55	5.3730e+00	0.5315	-13.645364	0.000438	4.382498	0.742415	0.000044
  56	5.4725e+00	0.5422	-13.600964	0.000446	4.464414	0.756292	0.000045
  57	5.5720e+00	0.5533	-13.561859	0.000393	3.931961	0.666092	0.000039
  58	5.6715e+00	0.5614	-13.519088	0.000430	4.300582	0.728538	0.000043
  59	5.7710e+00	0.5722	-13.476317	0.000430	4.300582	0.728538	0.000043
  60	5.8705e+00	0.5831	-13.435990	0.000405	4.054835	0.686908	0.000041
  61	5.9700e+00	0.5936	-13.392812	0.000434	4.341540	0.735477	0.000043
  62	6.0695e+00	0.6038	-13.350041	0.000430	4.300582	0.728538	0.000043
  63	6.1690e+00	0.6126	-13.306048	0.000442	4.423456	0.749354	0.000044
  64	6.2685e+00	0.6212	-13.265721	0.000405	4.054835	0.686908	0.000041
  65	6.3680e+00	0.6344	-13.221321	0.000446	4.464414	0.756292	0.000045
  66	6.4675e+00	0.6445	-13.181401	0.000401	4.013877	0.679969	0.000040
  67	6.5670e+00	0.6544	-13.143518	0.000381	3.809087	0.645277	0.000038
  68	6.6665e+00	0.6610	-13.095045	0.000487	4.873993	0.825677	0.000049
  69	6.7660e+00	0.6713	-13.053496	0.000418	4.177708	0.707723	0.000042
  70	6.8655e+00	0.6831	-13.016835	0.000369	3.686213	0.624461	0.000037
  71	6.9650e+00	0.6943	-12.971620	0.000455	4.546330	0.770169	0.000045
  72	7.0645e+00	0.7012	-12.930478	0.000414	4.136750	0.700784	0.000041
  73	7.1640e+00	0.7140	-12.890966	0.000397	3.972919	0.673031	0.000040
  74	7.2635e+00	0.7226	-12.846973	0.000442	4.423456	0.749354	0.000044
  75	7.3630e+00	0.7317	-12.805831	0.000414	4.136750	0.700784	0.000041
  76	7.4625e+00	0.7395	-12.763875	0.000422	4.218666	0.714661	0.000042
  77	7.5620e+00	0.7513	-12.724363	0.000397	3.972919	0.673031	0.000040
  78	7.6615e+00	0.7612	-12.685258	0.000393	3.931961	0.666092	0.000039
  79	7.7610e+00	0.7719	-12.638414	0.000471	4.710161	0.797923	0.000047
  80	7.8605e+00	0.7838	-12.597272	0.000414	4.136750	0.700784	0.000041
  81	7.9600e+00	0.7917	-12.557760	0.000397	3.972919	0.673031	0.000040
  82	8.0595e+00	0.8012	-12.518655	0.000393	3.931961	0.666092	0.000039
  83	8.1590e+00	0.8115	-12.475884	0.000430	4.300582	0.728538	0.000043
  84	8.2585e+00	0.8215	-12.436779	0.000393	3.931961	0.666092	0.000039
  85	8.3580e+00	0.8312	-12.393193	0.000438	4.382498	0.742415	0.000044
  86	8.4575e+00	0.8419	-12.355718	0.000377	3.768129	0.638338	0.000038
  87	8.5570e+00	0.8520	-12.314169	0.000418	4.177708	0.707723	0.000042
  88	8.6565e+00	0.8626	-12.275471	0.000389	3.891003	0.659154	0.000039
  89	8.7560e+00	0.8704	-12.233515	0.000422	4.218666	0.714661	0.000042
  90	8.8555e+00	0.8826	-12.193596	0.000401	4.013877	0.679969	0.000040
  91	8.9550e+00	0.8913	-12.151232	0.000426	4.259624	0.721600	0.000043
  92	9.0545e+00	0.9029	-12.114571	0.000369	3.686213	0.624461	0.000037
  93	9.1540e+00	0.9128	-12.069356	0.000455	4.546330	0.770169	0.000045
  94	9.2535e+00	0.9216	-12.032695	0.000369	3.686213	0.624461	0.000037
  95	9.3530e+00	0.9320	-11.991146	0.000418	4.177708	0.707723	0.000042
  96	9.4525e+00	0.9441	-11.949597	0.000418	4.177708	0.707723	0.000042
  97	9.5520e+00	0.9531	-11.908456	0.000414	4.136750	0.700784	0.000041
  98	9.6515e+00	0.9621	-11.867314	0.000414	4.136750	0.700784	0.000041
  99	9.7510e+00	0.9720	-11.832690	0.000348	3.481424	0.589769	0.000035
 100	9.8505e+00	0.9808	-11.788697	0.000442	4.423456	0.749354	0.000044
 101	9.9500e+00	0.9892	-11.750000	0.000389	3.891003	0.659154	0.000039
 102	1.0050e+01	1.0011	-11.706821	0.000434	4.341540	0.735477	0.000043
 103	1.0149e+01	1.0102	-11.666902	0.000401	4.013877	0.679969	0.000040
 104	1.0248e+01	1.0200	-11.626982	0.000401	4.013877	0.679969	0.000040
 105	1.0348e+01	1.0308	-11.588692	0.000385	3.850045	0.652215	0.000038
 106	1.0447e+01	1.0406	-11.547550	0.000414	4.136750	0.700784	0.000041
 107	1.0547e+01	1.0509	-11.507631	0.000401	4.013877	0.679969	0.000040
 108	1.0646e+01	1.0609	-11.464860	0.000430	4.300582	0.728538	0.000043
 109	1.0746e+01	1.0708	-11.429828	0.000352	3.522382	0.596708	0.000035
 110	1.0845e+01	1.0842	-11.382169	0.000479	4.792077	0.811800	0.000048
 111	1.0945e+01	1.0877	-11.343879	0.000385	3.850045	0.652215	0.000038
 112	1.1044e+01	1.1021	-11.305996	0.000381	3.809087	0.645277	0.000038
 113	1.1144e+01	1.1102	-11.267299	0.000389	3.891003	0.659154	0.000039
 114	1.1243e+01	1.1190	-11.229008	0.000385	3.850045	0.652215	0.000038
 115	1.1343e+01	1.1314	-11.193570	0.000356	3.563340	0.603646	0.000036
 116	1.1443e+01	1.1388	-11.153650	0.000401	4.013877	0.679969	0.000040
 117	1.1542e+01	1.1505	-11.119026	0.000348	3.481424	0.589769	0.000035
 118	1.1642e+01	1.1594	-11.082365	0.000369	3.686213	0.624461	0.000037
 119	1.1741e+01	1.1672	-11.045297	0.000373	3.727171	0.631400	0.000037
 120	1.1841e+01	1.1781	-11.009451	0.000360	3.604297	0.610585	0.000036
 121	1.1940e+01	1.1894	-10.970753	0.000389	3.891003	0.659154	0.000039
 122	1.2040e+01	1.2005	-10.932463	0.000385	3.850045	0.652215	0.000038
 123	1.2139e+01	1.2103	-10.894173	0.000385	3.850045	0.652215	0.000038
 124	1.2239e+01	1.2205	-10.853846	0.000405	4.054835	0.686908	0.000041
 125	1.2338e+01	1.2292	-10.819629	0.000344	3.440466	0.582831	0.000034
 126	1.2438e+01	1.2365	-10.781746	0.000381	3.809087	0.645277	0.000038
 127	1.2537e+01	1.2476	-10.745493	0.000365	3.645255	0.617523	0.000036
 128	1.2636e+01	1.2579	-10.714535	0.000311	3.112802	0.527323	0.000031
 129	1.2736e+01	1.2701	-10.677059	0.000377	3.768129	0.638338	0.000038
 130	1.2835e+01	1.2797	-10.639991	0.000373	3.727171	0.631400	0.000037
 131	1.2935e+01	1.2873	-10.604145	0.000360	3.604297	0.610585	0.000036
 132	1.3034e+01	1.2996	-10.560967	0.000434	4.341540	0.735477	0.000043
 133	1.3134e+01	1.3090	-10.529194	0.000319	3.194718	0.541200	0.000032
 134	1.3233e+01	1.3223	-10.487238	0.000422	4.218666	0.714661	0.000042
 135	1.3333e+01	1.3265	-10.448947	0.000385	3.850045	0.652215	0.000038
 136	1.3432e+01	1.3388	-10.406991	0.000422	4.218666	0.714661	0.000042
 137	1.3532e+01	1.3480	-10.367886	0.000393	3.931961	0.666092	0.000039
 138	1.3632e+01	1.3550	-10.328781	0.000393	3.931961	0.666092	0.000039
 139	1.3731e+01	1.3688	-10.289269	0.000397	3.972919	0.673031	0.000040
 140	1.3831e+01	1.3818	-10.250979	0.000385	3.850045	0.652215	0.000038
 141	1.3930e+01	1.3874	-10.208615	0.000426	4.259624	0.721600	0.000043
 142	1.4030e+01	1.3997	-10.168288	0.000405	4.054835	0.686908	0.000041
 143	1.4129e+01	1.4082	-10.127962	0.000405	4.054835	0.686908	0.000041
 144	1.4229e+01	1.4191	-10.087227	0.000410	4.095793	0.693846	0.000041
 145	1.4328e+01	1.4282	-10.046086	0.000414	4.136750	0.700784	0.000041
 146	1.4428e+01	1.4390	-10.006981	0.000393	3.931961	0.666092	0.000039
 147	1.4527e+01	1.4489	-9.964210	0.000430	4.300582	0.728538	0.000043
 148	1.4627e+01	1.4586	-9.926734	0.000377	3.768129	0.638338	0.000038
 149	1.4726e+01	1.4655	-9.882741	0.000442	4.423456	0.749354	0.000044
 150	1.4825e+01	1.4744	-9.845673	0.000373	3.727171	0.631400	0.000037
 151	1.4925e+01	1.4909	-9.804532	0.000414	4.136750	0.700784	0.000041
 152	1.5024e+01	1.4962	-9.764612	0.000401	4.013877	0.679969	0.000040
 153	1.5124e+01	1.5075	-9.721026	0.000438	4.382498	0.742415	0.000044
 154	1.5223e+01	1.5161	-9.682329	0.000389	3.891003	0.659154	0.000039
 155	1.5323e+01	1.5260	-9.642409	0.000401	4.013877	0.679969	0.000040
 156	1.5422e+01	1.5405	-9.598009	0.000446	4.464414	0.756292	0.000045
 157	1.5522e+01	1.5452	-9.559719	0.000385	3.850045	0.652215	0.000038
 158	1.5621e+01	1.5574	-9.517762	0.000422	4.218666	0.714661	0.000042
 159	1.5721e+01	1.5652	-9.477435	0.000405	4.054835	0.686908	0.000041
 160	1.5820e+01	1.5771	-9.435479	0.000422	4.218666	0.714661	0.000042
 161	1.5920e+01	1.5887	-9.398004	0.000377	3.768129	0.638338	0.000038
 162	1.6020e+01	1.5963	-9.357677	0.000405	4.054835	0.686908	0.000041
 163	1.6119e+01	1.6073	-9.317350	0.000405	4.054835	0.686908	0.000041
 164	1.6218e+01	1.6162	-9.275394	0.000422	4.218666	0.714661	0.000042
 165	1.6318e+01	1.6284	-9.234659	0.000410	4.095793	0.693846	0.000041
 166	1.6418e+01	1.6361	-9.197591	0.000373	3.727171	0.631400	0.000037
 167	1.6517e+01	1.6460	-9.153191	0.000446	4.464414	0.756292	0.000045
 168	1.6616e+01	1.6579	-9.111235	0.000422	4.218666	0.714661	0.000042
 169	1.6716e+01	1.6682	-9.071722	0.000397	3.972919	0.673031	0.000040
 170	1.6816e+01	1.6771	-9.031395	0.000405	4.054835	0.686908	0.000041
 171	1.6915e+01	1.6874	-8.986995	0.000446	4.464414	0.756292	0.000045
 172	1.7015e+01	1.6954	-8.943817	0.000434	4.341540	0.735477	0.000043
 173	1.7114e+01	1.7083	-8.905527	0.000385	3.850045	0.652215	0.000038
 174	1.7213e+01	1.7155	-8.866014	0.000397	3.972919	0.673031	0.000040
 175	1.7313e+01	1.7262	-8.827317	0.000389	3.891003	0.659154	0.000039
 176	1.7413e+01	1.7369	-8.784546	0.000430	4.300582	0.728538	0.000043
 177	1.7512e+01	1.7453	-8.740145	0.000446	4.464414	0.756292	0.000045
 178	1.7611e+01	1.7574	-8.701448	0.000389	3.891003	0.659154	0.000039
 179	1.7711e+01	1.7673	-8.659492	0.000422	4.218666	0.714661	0.000042
 180	1.7811e+01	1.7784	-8.618350	0.000414	4.136750	0.700784	0.000041
 181	1.7910e+01	1.7866	-8.577616	0.000410	4.095793	0.693846	0.000041
 182	1.8009e+01	1.7950	-8.536882	0.000410	4.095793	0.693846	0.000041
 183	1.8109e+01	1.8058	-8.498184	0.000389	3.891003	0.659154	0.000039
 184	1.8209e+01	1.8148	-8.453376	0.000451	4.505372	0.763231	0.000045
 185	1.8308e+01	1.8267	-8.413864	0.000397	3.972919	0.673031	0.000040
 186	1.8407e+01	1.8381	-8.373945	0.000401	4.013877	0.679969	0.000040
 187	1.8507e+01	1.8450	-8.336469	0.000377	3.768129	0.638338	0.000038
 188	1.8607e+01	1.8578	-8.292883	0.000438	4.382498	0.742415	0.000044
 189	1.8706e+01	1.8628	-8.252149	0.000410	4.095793	0.693846	0.000041
 190	1.8805e+01	1.8764	-8.211822	0.000405	4.054835	0.686908	0.000041
 191	1.8905e+01	1.8859	-8.170273	0.000418	4.177708	0.707723	0.000042
 192	1.9005e+01	1.8926	-8.134427	0.000360	3.604297	0.610585	0.000036
 193	1.9104e+01	1.9057	-8.090027	0.000446	4.464414	0.756292	0.000045
 194	1.9203e+01	1.9135	-8.053366	0.000369	3.686213	0.624461	0.000037
 195	1.9303e+01	1.9266	-8.009373	0.000442	4.423456	0.749354	0.000044
 196	1.9402e+01	1.9363	-7.967417	0.000422	4.218666	0.714661	0.000042
 197	1.9502e+01	1.9500	-7.929941	0.000377	3.768129	0.638338	0.000038
 198	1.9602e+01	1.9565	-7.885133	0.000451	4.505372	0.763231	0.000045
 199	1.9701e+01	1.9635	-7.841955	0.000434	4.341540	0.735477	0.000043
 200	1.9800e+01	1.9749	-7.796740	0.000455	4.546330	0.770169	0.000045
 201	1.9900e+01	1.9830	-7.756413	0.000405	4.054835	0.686908	0.000041
 202	2.0000e+01	1.9961	-7.711198	0.000455	4.546330	0.770169	0.000045
 203	2.0099e+01	2.0054	-7.671279	0.000401	4.013877	0.679969	0.000040
 204	2.0198e+01	2.0143	-7.624434	0.000471	4.710161	0.797923	0.000047
 205	2.0298e+01	2.0235	-7.584107	0.000405	4.054835	0.686908	0.000041
 206	2.0398e+01	2.0350	-7.541744	0.000426	4.259624	0.721600	0.000043
 207	2.0497e+01	2.0470	-7.501417	0.000405	4.054835	0.686908	0.000041
 208	2.0596e+01	2.0525	-7.459460	0.000422	4.218666	0.714661	0.000042
 209	2.0696e+01	2.0637	-7.415875	0.000438	4.382498	0.742415	0.000044
 210	2.0796e+01	2.0759	-7.369845	0.000463	4.628246	0.784046	0.000046
 211	2.0895e+01	2.0841	-7.326667	0.000434	4.341540	0.735477	0.000043
 212	2.0994e+01	2.0946	-7.283896	0.000430	4.300582	0.728538	0.000043
 213	2.1094e+01	2.1069	-7.241940	0.000422	4.218666	0.714661	0.000042
 214	2.1194e+01	2.1137	-7.198354	0.000438	4.382498	0.742415	0.000044
 215	2.1293e+01	2.1239	-7.155176	0.000434	4.341540	0.735477	0.000043
 216	2.1392e+01	2.1353	-7.116885	0.000385	3.850045	0.652215	0.000038
 217	2.1492e+01	2.1445	-7.073707	0.000434	4.341540	0.735477	0.000043
 218	2.1591e+01	2.1550	-7.032973	0.000410	4.095793	0.693846	0.000041
 219	2.1691e+01	2.1622	-6.994683	0.000385	3.850045	0.652215	0.000038
 220	2.1791e+01	2.1743	-6.953948	0.000410	4.095793	0.693846	0.000041
 221	2.1890e+01	2.1853	-6.916066	0.000381	3.809087	0.645277	0.000038
 222	2.1989e+01	2.1938	-6.877368	0.000389	3.891003	0.659154	0.000039
 223	2.2089e+01	2.2061	-6.839892	0.000377	3.768129	0.638338	0.000038
 224	2.2189e+01	2.2143	-6.797936	0.000422	4.218666	0.714661	0.000042
 225	2.2288e+01	2.2241	-6.760461	0.000377	3.768129	0.638338	0.000038
 226	2.2387e+01	2.2349	-6.719726	0.000410	4.095793	0.693846	0.000041
 227	2.2487e+01	2.2446	-6.681436	0.000385	3.850045	0.652215	0.000038
 228	2.2587e+01	2.2540	-6.643146	0.000385	3.850045	0.652215	0.000038
 229	2.2686e+01	2.2640	-6.608929	0.000344	3.440466	0.582831	0.000034
 230	2.2785e+01	2.2762	-6.569417	0.000397	3.972919	0.673031	0.000040
 231	2.2885e+01	2.2853	-6.529905	0.000397	3.972919	0.673031	0.000040
 232	2.2985e+01	2.2929	-6.491615	0.000385	3.850045	0.652215	0.000038
 233	2.3084e+01	2.3055	-6.455768	0.000360	3.604297	0.610585	0.000036
 234	2.3183e+01	2.3125	-6.416664	0.000393	3.931961	0.666092	0.000039
 235	2.3283e+01	2.3237	-6.379188	0.000377	3.768129	0.638338	0.000038
 236	2.3383e+01	2.3333	-6.343342	0.000360	3.604297	0.610585	0.000036
 237	2.3482e+01	2.3442	-6.306274	0.000373	3.727171	0.631400	0.000037
 238	2.3581e+01	2.3529	-6.265539	0.000410	4.095793	0.693846	0.000041
 239	2.3681e+01	2.3663	-6.228064	0.000377	3.768129	0.638338	0.000038
 240	2.3780e+01	2.3730	-6.190996	0.000373	3.727171	0.631400	0.000037
 241	2.3880e+01	2.3840	-6.153928	0.000373	3.727171	0.631400	0.000037
 242	2.3980e+01	2.3952	-6.114823	0.000393	3.931961	0.666092	0.000039
 243	2.4079e+01	2.4044	-6.078977	0.000360	3.604297	0.610585	0.000036
 244	2.4178e+01	2.4128	-6.044760	0.000344	3.440466	0.582831	0.000034
 245	2.4278e+01	2.4223	-6.003618	0.000414	4.136750	0.700784	0.000041
 246	2.4378e+01	2.4330	-5.968179	0.000356	3.563340	0.603646	0.000036
 247	2.4477e+01	2.4444	-5.929482	0.000389	3.891003	0.659154	0.000039
 248	2.4576e+01	2.4531	-5.893228	0.000365	3.645255	0.617523	0.000036
 249	2.4676e+01	2.4634	-5.857382	0.000360	3.604297	0.610585	0.000036
 250	2.4776e+01	2.4746	-5.817463	0.000401	4.013877	0.679969	0.000040
 251	2.4875e+01	2.4844	-5.783653	0.000340	3.399508	0.575892	0.000034
 252	2.4974e+01	2.4951	-5.749029	0.000348	3.481424	0.589769	0.000035
 253	2.5074e+01	2.5045	-5.715627	0.000336	3.358550	0.568954	0.000034
 254	2.5174e+01	2.5111	-5.678151	0.000377	3.768129	0.638338	0.000038
 255	2.5273e+01	2.5198	-5.643527	0.000348	3.481424	0.589769	0.000035
 256	2.5372e+01	2.5336	-5.601978	0.000418	4.177708	0.707723	0.000042
 257	2.5472e+01	2.5432	-5.570613	0.000315	3.153760	0.534261	0.000032
 258	2.5572e+01	2.5519	-5.533952	0.000369	3.686213	0.624461	0.000037
 259	2.5671e+01	2.5647	-5.498106	0.000360	3.604297	0.610585	0.000036
 260	2.5770e+01	2.5724	-5.461038	0.000373	3.727171	0.631400	0.000037
 261	2.5870e+01	2.5835	-5.421933	0.000393	3.931961	0.666092	0.000039
 262	2.5970e+01	2.5942	-5.387309	0.000348	3.481424	0.589769	0.000035
 263	2.6069e+01	2.6034	-5.353499	0.000340	3.399508	0.575892	0.000034
 264	2.6169e+01	2.6139	-5.317246	0.000365	3.645255	0.617523	0.000036
 265	2.6268e+01	2.6243	-5.280178	0.000373	3.727171	0.631400	0.000037
 266	2.6367e+01	2.6302	-5.245961	0.000344	3.440466	0.582831	0.000034
 267	2.6467e+01	2.6411	-5.211744	0.000344	3.440466	0.582831	0.000034
 268	2.6567e+01	2.6548	-5.173047	0.000389	3.891003	0.659154	0.000039
 269	2.6666e+01	2.6637	-5.138015	0.000352	3.522382	0.596708	0.000035
 270	2.6765e+01	2.6722	-5.102576	0.000356	3.563340	0.603646	0.000036
 271	2.6865e+01	2.6811	-5.068360	0.000344	3.440466	0.582831	0.000034
 272	2.6965e+01	2.6917	-5.033328	0.000352	3.522382	0.596708	0.000035
 273	2.7064e+01	2.6999	-4.997075	0.000365	3.645255	0.617523	0.000036
 274	2.7163e+01	2.7094	-4.962858	0.000344	3.440466	0.582831	0.000034
 275	2.7263e+01	2.7222	-4.926197	0.000369	3.686213	0.624461	0.000037
 276	2.7363e+01	2.7310	-4.889129	0.000373	3.727171	0.631400	0.000037
 277	2.7462e+01	2.7415	-4.851653	0.000377	3.768129	0.638338	0.000038
 278	2.7561e+01	2.7509	-4.819881	0.000319	3.194718	0.541200	0.000032
 279	2.7661e+01	2.7617	-4.783220	0.000369	3.686213	0.624461	0.000037
 280	2.7761e+01	2.7716	-4.751855	0.000315	3.153760	0.534261	0.000032
 281	2.7860e+01	2.7840	-4.715601	0.000365	3.645255	0.617523	0.000036
 282	2.7959e+01	2.7888	-4.682606	0.000332	3.317592	0.562015	0.000033
 283	2.8059e+01	2.8011	-4.649612	0.000332	3.317592	0.562015	0.000033
 284	2.8159e+01	2.8114	-4.615802	0.000340	3.399508	0.575892	0.000034
 285	2.8258e+01	2.8216	-4.587288	0.000287	2.867055	0.485692	0.000029
 286	2.8358e+01	2.8345	-4.552664	0.000348	3.481424	0.589769	0.000035
 287	2.8457e+01	2.8410	-4.524965	0.000279	2.785139	0.471815	0.000028
 288	2.8556e+01	2.8503	-4.491563	0.000336	3.358550	0.568954	0.000034
 289	2.8656e+01	2.8603	-4.454902	0.000369	3.686213	0.624461	0.000037
 290	2.8756e+01	2.8716	-4.421092	0.000340	3.399508	0.575892	0.000034
 291	2.8855e+01	2.8831	-4.390949	0.000303	3.030886	0.513446	0.000030
 292	2.8954e+01	2.8915	-4.356325	0.000348	3.481424	0.589769	0.000035
 293	2.9054e+01	2.9017	-4.325367	0.000311	3.112802	0.527323	0.000031
 294	2.9154e+01	2.9123	-4.296038	0.000295	2.948971	0.499569	0.000029
 295	2.9253e+01	2.9221	-4.265488	0.000307	3.071844	0.520385	0.000031
 296	2.9352e+01	2.9301	-4.228827	0.000369	3.686213	0.624461	0.000037
 297	2.9452e+01	2.9414	-4.198683	0.000303	3.030886	0.513446	0.000030
 298	2.9552e+01	2.9517	-4.164874	0.000340	3.399508	0.575892	0.000034
 299	2.9651e+01	2.9608	-4.130657	0.000344	3.440466	0.582831	0.000034
 300	2.9750e+01	2.9691	-4.099292	0.000315	3.153760	0.534261	0.000032
 301	2.9850e+01	2.9839	-4.067112	0.000324	3.235676	0.548138	0.000032
 302	2.9950e+01	2.9894	-4.028007	0.000393	3.931961	0.666092	0.000039
 303	3.0049e+01	2.9996	-3.997049	0.000311	3.112802	0.527323	0.000031
 304	3.0148e+01	3.0101	-3.963647	0.000336	3.358550	0.568954	0.000034
 305	3.0248e+01	3.0215	-3.927801	0.000360	3.604297	0.610585	0.000036
 306	3.0348e+01	3.0308	-3.891140	0.000369	3.686213	0.624461	0.000037
 307	3.0447e+01	3.0433	-3.863033	0.000283	2.826097	0.478754	0.000028
 308	3.0547e+01	3.0514	-3.821077	0.000422	4.218666	0.714661	0.000042
 309	3.0646e+01	3.0614	-3.785638	0.000356	3.563340	0.603646	0.000036
 310	3.0745e+01	3.0701	-3.747755	0.000381	3.809087	0.645277	0.000038
 311	3.0845e+01	3.0778	-3.712724	0.000352	3.522382	0.596708	0.000035
 312	3.0945e+01	3.0901	-3.680544	0.000324	3.235676	0.548138	0.000032
 313	3.1044e+01	3.1017	-3.643475	0.000373	3.727171	0.631400	0.000037
 314	3.1143e+01	3.1094	-3.606407	0.000373	3.727171	0.631400	0.000037
 315	3.1243e+01	3.1187	-3.571783	0.000348	3.481424	0.589769	0.000035
 316	3.1343e+01	3.1303	-3.537159	0.000348	3.481424	0.589769	0.000035
 317	3.1442e+01	3.1386	-3.502128	0.000352	3.522382	0.596708	0.000035
 318	3.1541e+01	3.1493	-3.465467	0.000369	3.686213	0.624461	0.000037
 319	3.1641e+01	3.1611	-3.431657	0.000340	3.399508	0.575892	0.000034
 320	3.1741e+01	3.1718	-3.397033	0.000348	3.481424	0.589769	0.000035
 321	3.1840e+01	3.1797	-3.358743	0.000385	3.850045	0.652215	0.000038
 322	3.1939e+01	3.1925	-3.326156	0.000328	3.276634	0.555077	0.000033
 323	3.2039e+01	3.2001	-3.287051	0.000393	3.931961	0.666092	0.000039
 324	3.2139e+01	3.2085	-3.253241	0.000340	3.399508	0.575892	0.000034
 325	3.2238e+01	3.2204	-3.218210	0.000352	3.522382	0.596708	0.000035
 326	3.2337e+01	3.2307	-3.181142	0.000373	3.727171	0.631400	0.000037
 327	3.2437e+01	3.2388	-3.146518	0.000348	3.481424	0.589769	0.000035
 328	3.2536e+01	3.2494	-3.107005	0.000397	3.972919	0.673031	0.000040
 329	3.2636e+01	3.2604	-3.075233	0.000319	3.194718	0.541200	0.000032
 330	3.2736e+01	3.2677	-3.040608	0.000348	3.481424	0.589769	0.000035
 331	3.2835e+01	3.2801	-3.002726	0.000381	3.809087	0.645277	0.000038
 332	3.2934e+01	3.2883	-2.970138	0.000328	3.276634	0.555077	0.000033
 333	3.3034e+01	3.3018	-2.932255	0.000381	3.809087	0.645277	0.000038
 334	3.3133e+01	3.3080	-2.893965	0.000385	3.850045	0.652215	0.000038
 335	3.3233e+01	3.3160	-2.856082	0.000381	3.809087	0.645277	0.000038
 336	3.3333e+01	3.3273	-2.823495	0.000328	3.276634	0.555077	0.000033
 337	3.3432e+01	3.3408	-2.781946	0.000418	4.177708	0.707723	0.000042
 338	3.3532e+01	3.3475	-2.745692	0.000365	3.645255	0.617523	0.000036
 339	3.3631e+01	3.3598	-2.713105	0.000328	3.276634	0.555077	0.000033
 340	3.3730e+01	3.3694	-2.674408	0.000389	3.891003	0.659154	0.000039
 341	3.3830e+01	3.3771	-2.639783	0.000348	3.481424	0.589769	0.000035
 342	3.3929e+01	3.3883	-2.605159	0.000348	3.481424	0.589769	0.000035
 343	3.4029e+01	3.3991	-2.568906	0.000365	3.645255	0.617523	0.000036
 344	3.4129e+01	3.4076	-2.532245	0.000369	3.686213	0.624461	0.000037
 345	3.4228e+01	3.4167	-2.500880	0.000315	3.153760	0.534261	0.000032
 346	3.4328e+01	3.4292	-2.461775	0.000393	3.931961	0.666092	0.000039
 347	3.4427e+01	3.4394	-2.425929	0.000360	3.604297	0.610585	0.000036
 348	3.4526e+01	3.4500	-2.390490	0.000356	3.563340	0.603646	0.000036
 349	3.4626e+01	3.4591	-2.352200	0.000385	3.850045	0.652215	0.000038
 350	3.4725e+01	3.4667	-2.320427	0.000319	3.194718	0.541200	0.000032
 351	3.4825e+01	3.4776	-2.284581	0.000360	3.604297	0.610585	0.000036
 352	3.4925e+01	3.4893	-2.245068	0.000397	3.972919	0.673031	0.000040
 353	3.5024e+01	3.4991	-2.210444	0.000348	3.481424	0.589769	0.000035
 354	3.5123e+01	3.5079	-2.172561	0.000381	3.809087	0.645277	0.000038
 355	3.5223e+01	3.5192	-2.139567	0.000332	3.317592	0.562015	0.000033
 356	3.5322e+01	3.5295	-2.104535	0.000352	3.522382	0.596708	0.000035
 357	3.5422e+01	3.5384	-2.067874	0.000369	3.686213	0.624461	0.000037
 358	3.5522e+01	3.5461	-2.034065	0.000340	3.399508	0.575892	0.000034
 359	3.5621e+01	3.5578	-1.998626	0.000356	3.563340	0.603646	0.000036
 360	3.5721e+01	3.5694	-1.959929	0.000389	3.891003	0.659154	0.000039
 361	3.5820e+01	3.5767	-1.926934	0.000332	3.317592	0.562015	0.000033
 362	3.5919e+01	3.5892	-1.889866	0.000373	3.727171	0.631400	0.000037
 363	3.6019e+01	3.5964	-1.856056	0.000340	3.399508	0.575892	0.000034
 364	3.6118e+01	3.6073	-1.819803	0.000365	3.645255	0.617523	0.000036
 365	3.6218e+01	3.6197	-1.785179	0.000348	3.481424	0.589769	0.000035
 366	3.6318e+01	3.6277	-1.743630	0.000418	4.177708	0.707723	0.000042
 367	3.6417e+01	3.6358	-1.702896	0.000410	4.095793	0.693846	0.000041
 368	3.6517e+01	3.6481	-1.665420	0.000377	3.768129	0.638338	0.000038
 369	3.6616e+01	3.6588	-1.625500	0.000401	4.013877	0.679969	0.000040
 370	3.6715e+01	3.6671	-1.591284	0.000344	3.440466	0.582831	0.000034
 371	3.6815e+01	3.6765	-1.552179	0.000393	3.931961	0.666092	0.000039
 372	3.6914e+01	3.6895	-1.513074	0.000393	3.931961	0.666092	0.000039
 373	3.7014e+01	3.6959	-1.477635	0.000356	3.563340	0.603646	0.000036
 374	3.7114e+01	3.7046	-1.443011	0.000348	3.481424	0.589769	0.000035
 375	3.7213e+01	3.7158	-1.405128	0.000381	3.809087	0.645277	0.000038
 376	3.7313e+01	3.7277	-1.367245	0.000381	3.809087	0.645277	0.000038
 377	3.7412e+01	3.7377	-1.324474	0.000430	4.300582	0.728538	0.000043
 378	3.7511e+01	3.7456	-1.291072	0.000336	3.358550	0.568954	0.000034
 379	3.7611e+01	3.7598	-1.249523	0.000418	4.177708	0.707723	0.000042
 380	3.7711e+01	3.7664	-1.210011	0.000397	3.972919	0.673031	0.000040
 381	3.7810e+01	3.7751	-1.172943	0.000373	3.727171	0.631400	0.000037
 382	3.7910e+01	3.7865	-1.140763	0.000324	3.235676	0.548138	0.000032
 383	3.8009e+01	3.7956	-1.103287	0.000377	3.768129	0.638338	0.000038
 384	3.8108e+01	3.8064	-1.065812	0.000377	3.768129	0.638338	0.000038
 385	3.8208e+01	3.8184	-1.031595	0.000344	3.440466	0.582831	0.000034
 386	3.8307e+01	3.8258	-0.996564	0.000352	3.522382	0.596708	0.000035
 387	3.8407e+01	3.8335	-0.961532	0.000352	3.522382	0.596708	0.000035
 388	3.8507e+01	3.8473	-0.927723	0.000340	3.399508	0.575892	0.000034
 389	3.8606e+01	3.8563	-0.893913	0.000340	3.399508	0.575892	0.000034
 390	3.8706e+01	3.8672	-0.860511	0.000336	3.358550	0.568954	0.000034
 391	3.8805e+01	3.8759	-0.825072	0.000356	3.563340	0.603646	0.000036
 392	3.8904e+01	3.8876	-0.796151	0.000291	2.908013	0.492631	0.000029
 393	3.9004e+01	3.8957	-0.755824	0.000405	4.054835	0.686908	0.000041
 394	3.9103e+01	3.9069	-0.724051	0.000319	3.194718	0.541200	0.000032
 395	3.9203e+01	3.9157	-0.695537	0.000287	2.867055	0.485692	0.000029
 396	3.9303e+01	3.9281	-0.655210	0.000405	4.054835	0.686908	0.000041
 397	3.9402e+01	3.9358	-0.623438	0.000319	3.194718	0.541200	0.000032
 398	3.9502e+01	3.9452	-0.590036	0.000336	3.358550	0.568954	0.000034
 399	3.9601e+01	3.9552	-0.557041	0.000332	3.317592	0.562015	0.000033
 400	3.9700e+01	3.9639	-0.526898	0.000303	3.030886	0.513446	0.000030
 401	3.9800e+01	3.9752	-0.489829	0.000373	3.727171	0.631400	0.000037
 402	3.9900e+01	3.9832	-0.458464	0.000315	3.153760	0.534261	0.000032
 403	3.9999e+01	3.9974	-0.425062	0.000336	3.358550	0.568954	0.000034
 404	4.0099e+01	4.0051	-0.392067	0.000332	3.317592	0.562015	0.000033
 405	4.0198e+01	4.0156	-0.362331	0.000299	2.989929	0.506508	0.000030
 406	4.0297e+01	4.0271	-0.329336	0.000332	3.317592	0.562015	0.000033
 407	4.0397e+01	4.0360	-0.295934	0.000336	3.358550	0.568954	0.000034
 408	4.0496e+01	4.0469	-0.261718	0.000344	3.440466	0.582831	0.000034
 409	4.0596e+01	4.0566	-0.230352	0.000315	3.153760	0.534261	0.000032
 410	4.0696e+01	4.0682	-0.199394	0.000311	3.112802	0.527323	0.000031
 411	4.0795e+01	4.0768	-0.167621	0.000319	3.194718	0.541200	0.000032
 412	4.0895e+01	4.0844	-0.132997	0.000348	3.481424	0.589769	0.000035
 413	4.0994e+01	4.0972	-0.100003	0.000332	3.317592	0.562015	0.000033
 414	4.1093e+01	4.1051	-0.066193	0.000340	3.399508	0.575892	0.000034
 415	4.1193e+01	4.1143	-0.037272	0.000291	2.908013	0.492631	0.000029
 416	4.1292e+01	4.1245	-0.003462	0.000340	3.399508	0.575892	0.000034
 417	4.1392e+01	4.1356	0.027088	0.000307	3.071844	0.520385	0.000031
 418	4.1492e+01	4.1447	0.056824	0.000299	2.989929	0.506508	0.000030
 419	4.1591e+01	4.1555	0.091448	0.000348	3.481424	0.589769	0.000035
 420	4.1691e+01	4.1647	0.118333	0.000270	2.703223	0.457938	0.000027
 421	4.1790e+01	4.1737	0.151328	0.000332	3.317592	0.562015	0.000033
 422	4.1889e+01	4.1866	0.181064	0.000299	2.989929	0.506508	0.000030
 423	4.1989e+01	4.1914	0.213244	0.000324	3.235676	0.548138	0.000032
 424	4.2089e+01	4.2056	0.243387	0.000303	3.030886	0.513446	0.000030
 425	4.2188e+01	4.2161	0.275975	0.000328	3.276634	0.555077	0.000033
 426	4.2288e+01	4.2252	0.308969	0.000332	3.317592	0.562015	0.000033
 427	4.2387e+01	4.2335	0.339927	0.000311	3.112802	0.527323	0.000031
 428	4.2486e+01	4.2421	0.371293	0.000315	3.153760	0.534261	0.000032
 429	4.2586e+01	4.2530	0.400621	0.000295	2.948971	0.499569	0.000029
 430	4.2685e+01	4.2664	0.434838	0.000344	3.440466	0.582831	0.000034
 431	4.2785e+01	4.2757	0.464982	0.000303	3.030886	0.513446	0.000030
 432	4.2885e+01	4.2847	0.495940	0.000311	3.112802	0.527323	0.000031
 433	4.2984e+01	4.2945	0.523639	0.000279	2.785139	0.471815	0.000028
 434	4.3084e+01	4.3069	0.555004	0.000315	3.153760	0.534261	0.000032
 435	4.3183e+01	4.3142	0.585962	0.000311	3.112802	0.527323	0.000031
 436	4.3282e+01	4.3233	0.616920	0.000311	3.112802	0.527323	0.000031
 437	4.3382e+01	4.3346	0.650322	0.000336	3.358550	0.568954	0.000034
 438	4.3481e+01	4.3457	0.678022	0.000279	2.785139	0.471815	0.000028
 439	4.3581e+01	4.3536	0.712646	0.000348	3.481424	0.589769	0.000035
 440	4.3681e+01	4.3647	0.739530	0.000270	2.703223	0.457938	0.000027
 441	4.3780e+01	4.3745	0.773747	0.000344	3.440466	0.582831	0.000034
 442	4.3880e+01	4.3818	0.805520	0.000319	3.194718	0.541200	0.000032
 443	4.3979e+01	4.3948	0.834849	0.000295	2.948971	0.499569	0.000029
 444	4.4078e+01	4.4036	0.867029	0.000324	3.235676	0.548138	0.000032
 445	4.4178e+01	4.4118	0.895135	0.000283	2.826097	0.478754	0.000028
 446	4.4278e+01	4.4231	0.926093	0.000311	3.112802	0.527323	0.000031
 447	4.4377e+01	4.4336	0.957051	0.000311	3.112802	0.527323	0.000031
 448	4.4477e+01	4.4442	0.985158	0.000283	2.826097	0.478754	0.000028
 449	4.4576e+01	4.4511	1.014079	0.000291	2.908013	0.492631	0.000029
 450	4.4675e+01	4.4663	1.038520	0.000246	2.457476	0.416308	0.000025
 451	4.4775e+01	4.4722	1.067441	0.000291	2.908013	0.492631	0.000029
 452	4.4874e+01	4.4786	1.095548	0.000283	2.826097	0.478754	0.000028
 453	4.4974e+01	4.4963	1.120396	0.000250	2.498433	0.423246	0.000025
 454	4.5074e+01	4.5033	1.150539	0.000303	3.030886	0.513446	0.000030
 455	4.5173e+01	4.5098	1.179053	0.000287	2.867055	0.485692	0.000029
 456	4.5273e+01	4.5226	1.208382	0.000295	2.948971	0.499569	0.000029
 457	4.5372e+01	4.5339	1.235266	0.000270	2.703223	0.457938	0.000027
 458	4.5471e+01	4.5425	1.263373	0.000283	2.826097	0.478754	0.000028
 459	4.5571e+01	4.5521	1.291072	0.000279	2.785139	0.471815	0.000028
 460	4.5670e+01	4.5599	1.317549	0.000266	2.662265	0.451000	0.000027
 461	4.5770e+01	4.5741	1.345249	0.000279	2.785139	0.471815	0.000028
 462	4.5870e+01	4.5829	1.371319	0.000262	2.621307	0.444061	0.000026
 463	4.5969e+01	4.5947	1.399833	0.000287	2.867055	0.485692	0.000029
 464	4.6069e+01	4.6021	1.424681	0.000250	2.498433	0.423246	0.000025
 465	4.6168e+01	4.6114	1.456046	0.000315	3.153760	0.534261	0.000032
 466	4.6267e+01	4.6228	1.480487	0.000246	2.457476	0.416308	0.000025
 467	4.6367e+01	4.6326	1.509815	0.000295	2.948971	0.499569	0.000029
 468	4.6467e+01	4.6424	1.538329	0.000287	2.867055	0.485692	0.000029
 469	4.6566e+01	4.6523	1.569287	0.000311	3.112802	0.527323	0.000031
 470	4.6666e+01	4.6627	1.602282	0.000332	3.317592	0.562015	0.000033
 471	4.6765e+01	4.6722	1.630389	0.000283	2.826097	0.478754	0.000028
 472	4.6864e+01	4.6850	1.660125	0.000299	2.989929	0.506508	0.000030
 473	4.6964e+01	4.6900	1.688639	0.000287	2.867055	0.485692	0.000029
 474	4.7063e+01	4.7016	1.720819	0.000324	3.235676	0.548138	0.000032
 475	4.7163e+01	4.7128	1.753406	0.000328	3.276634	0.555077	0.000033
 476	4.7263e+01	4.7236	1.783549	0.000303	3.030886	0.513446	0.000030
 477	4.7362e+01	4.7351	1.812063	0.000287	2.867055	0.485692	0.000029
 478	4.7462e+01	4.7417	1.844651	0.000328	3.276634	0.555077	0.000033
 479	4.7561e+01	4.7536	1.874387	0.000299	2.989929	0.506508	0.000030
 480	4.7660e+01	4.7630	1.903715	0.000295	2.948971	0.499569	0.000029
 481	4.7760e+01	4.7726	1.937932	0.000344	3.440466	0.582831	0.000034
 482	4.7859e+01	4.7810	1.967668	0.000299	2.989929	0.506508	0.000030
 483	4.7959e+01	4.7908	1.997812	0.000303	3.030886	0.513446	0.000030
 484	4.8059e+01	4.8033	2.027548	0.000299	2.989929	0.506508	0.000030
 485	4.8158e+01	4.8125	2.061764	0.000344	3.440466	0.582831	0.000034
 486	4.8258e+01	4.8208	2.091908	0.000303	3.030886	0.513446	0.000030
 487	4.8357e+01	4.8306	2.118792	0.000270	2.703223	0.457938	0.000027
 488	4.8456e+01	4.8400	2.153416	0.000348	3.481424	0.589769	0.000035
 489	4.8556e+01	4.8522	2.187633	0.000344	3.440466	0.582831	0.000034
 490	4.8656e+01	4.8586	2.216554	0.000291	2.908013	0.492631	0.000029
 491	4.8755e+01	4.8708	2.245883	0.000295	2.948971	0.499569	0.000029
 492	4.8855e+01	4.8806	2.275619	0.000299	2.989929	0.506508	0.000030
 493	4.8954e+01	4.8905	2.308614	0.000332	3.317592	0.562015	0.000033
 494	4.9053e+01	4.9010	2.340794	0.000324	3.235676	0.548138	0.000032
 495	4.9153e+01	4.9113	2.368901	0.000283	2.826097	0.478754	0.000028
 496	4.9252e+01	4.9221	2.403525	0.000348	3.481424	0.589769	0.000035
 497	4.9352e+01	4.9326	2.431631	0.000283	2.826097	0.478754	0.000028
 498	4.9452e+01	4.9412	2.465848	0.000344	3.440466	0.582831	0.000034
 499	4.9551e+01	4.9517	2.497621	0.000319	3.194718	0.541200	0.000032
 500	4.9651e+01	4.9609	2.528986	0.000315	3.153760	0.534261	0.000032
 501	4.9750e+01	4.9744	2.557093	0.000283	2.826097	0.478754	0.000028
 502	4.9849e+01	4.9805	2.590902	0.000340	3.399508	0.575892	0.000034
 503	4.9949e+01	4.9892	2.620638	0.000299	2.989929	0.506508	0.000030
 504	5.0048e+01	5.0018	2.657706	0.000373	3.727171	0.631400	0.000037
 505	5.0148e+01	5.0110	2.687035	0.000295	2.948971	0.499569	0.000029
 506	5.0248e+01	5.0231	2.719215	0.000324	3.235676	0.548138	0.000032
 507	5.0347e+01	5.0289	2.751803	0.000328	3.276634	0.555077	0.000033
 508	5.0447e+01	5.0401	2.779909	0.000283	2.826097	0.478754	0.000028
 509	5.0546e+01	5.0510	2.814941	0.000352	3.522382	0.596708	0.000035
 510	5.0645e+01	5.0640	2.842640	0.000279	2.785139	0.471815	0.000028
 511	5.0745e+01	5.0686	2.874005	0.000315	3.153760	0.534261	0.000032
 512	5.0844e+01	5.0800	2.906185	0.000324	3.235676	0.548138	0.000032
 513	5.0944e+01	5.0898	2.934699	0.000287	2.867055	0.485692	0.000029
 514	5.1044e+01	5.0977	2.966879	0.000324	3.235676	0.548138	0.000032
 515	5.1143e+01	5.1108	2.999060	0.000324	3.235676	0.548138	0.000032
 516	5.1242e+01	5.1192	3.027981	0.000291	2.908013	0.492631	0.000029
 517	5.1342e+01	5.1295	3.061790	0.000340	3.399508	0.575892	0.000034
 518	5.1441e+01	5.1440	3.095192	0.000336	3.358550	0.568954	0.000034
 519	5.1541e+01	5.1495	3.123706	0.000287	2.867055	0.485692	0.000029
 520	5.1641e+01	5.1589	3.158738	0.000352	3.522382	0.596708	0.000035
 521	5.1740e+01	5.1682	3.188066	0.000295	2.948971	0.499569	0.000029
 522	5.1840e+01	5.1801	3.218617	0.000307	3.071844	0.520385	0.000031
 523	5.1939e+01	5.1894	3.252427	0.000340	3.399508	0.575892	0.000034
 524	5.2038e+01	5.1987	3.283385	0.000311	3.112802	0.527323	0.000031
 525	5.2138e+01	5.2071	3.312713	0.000295	2.948971	0.499569	0.000029
 526	5.2237e+01	5.2187	3.344486	0.000319	3.194718	0.541200	0.000032
 527	5.2337e+01	5.2320	3.375444	0.000311	3.112802	0.527323	0.000031
 528	5.2437e+01	5.2398	3.406402	0.000311	3.112802	0.527323	0.000031
 529	5.2536e+01	5.2477	3.436138	0.000299	2.989929	0.506508	0.000030
 530	5.2636e+01	5.2583	3.466281	0.000303	3.030886	0.513446	0.000030
 531	5.2735e+01	5.2699	3.499276	0.000332	3.317592	0.562015	0.000033
 532	5.2834e+01	5.2814	3.533493	0.000344	3.440466	0.582831	0.000034
 533	5.2934e+01	5.2901	3.566080	0.000328	3.276634	0.555077	0.000033
 534	5.3033e+01	5.2955	3.602334	0.000365	3.645255	0.617523	0.000036
 535	5.3133e+01	5.3062	3.634514	0.000324	3.235676	0.548138	0.000032
 536	5.3233e+01	5.3152	3.668323	0.000340	3.399508	0.575892	0.000034
 537	5.3332e+01	5.3307	3.704169	0.000360	3.604297	0.610585	0.000036
 538	5.3431e+01	5.3420	3.738386	0.000344	3.440466	0.582831	0.000034
 539	5.3531e+01	5.3497	3.770566	0.000324	3.235676	0.548138	0.000032
 540	5.3630e+01	5.3590	3.804376	0.000340	3.399508	0.575892	0.000034
 541	5.3730e+01	5.3690	3.836556	0.000324	3.235676	0.548138	0.000032
 542	5.3830e+01	5.3786	3.867514	0.000311	3.112802	0.527323	0.000031
 543	5.3929e+01	5.3910	3.900509	0.000332	3.317592	0.562015	0.000033
 544	5.4029e+01	5.4015	3.933503	0.000332	3.317592	0.562015	0.000033
 545	5.4128e+01	5.4115	3.969349	0.000360	3.604297	0.610585	0.000036
 546	5.4227e+01	5.4185	4.005196	0.000360	3.604297	0.610585	0.000036
 547	5.4327e+01	5.4273	4.038598	0.000336	3.358550	0.568954	0.000034
 548	5.4426e+01	5.4392	4.072000	0.000336	3.358550	0.568954	0.000034
 549	5.4526e+01	5.4464	4.105402	0.000336	3.358550	0.568954	0.000034
 550	5.4626e+01	5.4562	4.137989	0.000328	3.276634	0.555077	0.000033
 551	5.4725e+01	5.4693	4.170169	0.000324	3.235676	0.548138	0.000032
 552	5.4825e+01	5.4778	4.200313	0.000303	3.030886	0.513446	0.000030
 553	5.4924e+01	5.4882	4.232085	0.000319	3.194718	0.541200	0.000032
 554	5.5023e+01	5.4972	4.262636	0.000307	3.071844	0.520385	0.000031
 555	5.5123e+01	5.5079	4.292372	0.000299	2.989929	0.506508	0.000030
 556	5.5222e+01	5.5177	4.322923	0.000307	3.071844	0.520385	0.000031
 557	5.5322e+01	5.5282	4.355510	0.000328	3.276634	0.555077	0.000033
 558	5.5422e+01	5.5364	4.381173	0.000258	2.580349	0.437123	0.000026
 559	5.5521e+01	5.5475	4.412538	0.000315	3.153760	0.534261	0.000032
 560	5.5620e+01	5.5590	4.443496	0.000311	3.112802	0.527323	0.000031
 561	5.5720e+01	5.5676	4.472825	0.000295	2.948971	0.499569	0.000029
 562	5.5819e+01	5.5779	4.500117	0.000274	2.744181	0.464877	0.000027
 563	5.5919e+01	5.5910	4.528631	0.000287	2.867055	0.485692	0.000029
 564	5.6019e+01	5.5990	4.559589	0.000311	3.112802	0.527323	0.000031
 565	5.6118e+01	5.6082	4.588510	0.000291	2.908013	0.492631	0.000029
 566	5.6218e+01	5.6176	4.619468	0.000311	3.112802	0.527323	0.000031
 567	5.6317e+01	5.6285	4.648390	0.000291	2.908013	0.492631	0.000029
 568	5.6416e+01	5.6379	4.676089	0.000279	2.785139	0.471815	0.000028
 569	5.6516e+01	5.6470	4.707047	0.000311	3.112802	0.527323	0.000031
 570	5.6615e+01	5.6576	4.731080	0.000242	2.416518	0.409369	0.000024
 571	5.6715e+01	5.6679	4.762445	0.000315	3.153760	0.534261	0.000032
 572	5.6815e+01	5.6767	4.789737	0.000274	2.744181	0.464877	0.000027
 573	5.6914e+01	5.6861	4.817844	0.000283	2.826097	0.478754	0.000028
 574	5.7014e+01	5.6960	4.847987	0.000303	3.030886	0.513446	0.000030
 575	5.7113e+01	5.7058	4.877316	0.000295	2.948971	0.499569	0.000029
 576	5.7212e+01	5.7194	4.904608	0.000274	2.744181	0.464877	0.000027
 577	5.7312e+01	5.7285	4.936381	0.000319	3.194718	0.541200	0.000032
 578	5.7411e+01	5.7384	4.959192	0.000229	2.293644	0.388554	0.000023
 579	5.7511e+01	5.7485	4.993816	0.000348	3.481424	0.589769	0.000035
 580	5.7611e+01	5.7569	5.015813	0.000221	2.211728	0.374677	0.000022
 581	5.7710e+01	5.7674	5.047178	0.000315	3.153760	0.534261	0.000032
 582	5.7809e+01	5.7761	5.072026	0.000250	2.498433	0.423246	0.000025
 583	5.7909e+01	5.7875	5.099725	0.000279	2.785139	0.471815	0.000028
 584	5.8008e+01	5.7955	5.128646	0.000291	2.908013	0.492631	0.000029
 585	5.8108e+01	5.8062	5.158382	0.000299	2.989929	0.506508	0.000030
 586	5.8208e+01	5.8181	5.184860	0.000266	2.662265	0.451000	0.000027
 587	5.8307e+01	5.8242	5.208893	0.000242	2.416518	0.409369	0.000024
 588	5.8407e+01	5.8356	5.238629	0.000299	2.989929	0.506508	0.000030
 589	5.8506e+01	5.8472	5.267143	0.000287	2.867055	0.485692	0.000029
 590	5.8605e+01	5.8561	5.291583	0.000246	2.457476	0.416308	0.000025
 591	5.8705e+01	5.8630	5.321319	0.000299	2.989929	0.506508	0.000030
 592	5.8804e+01	5.8768	5.346982	0.000258	2.580349	0.437123	0.000026
 593	5.8904e+01	5.8846	5.377125	0.000303	3.030886	0.513446	0.000030
 594	5.9004e+01	5.8936	5.404010	0.000270	2.703223	0.457938	0.000027
 595	5.9103e+01	5.9048	5.430487	0.000266	2.662265	0.451000	0.000027
 596	5.9203e+01	5.9156	5.454928	0.000246	2.457476	0.416308	0.000025
 597	5.9302e+01	5.9281	5.485478	0.000307	3.071844	0.520385	0.000031
 598	5.9401e+01	5.9380	5.512363	0.000270	2.703223	0.457938	0.000027
 599	5.9501e+01	5.9480	5.538433	0.000262	2.621307	0.444061	0.000026
 600	5.9600e+01	5.9565	5.566947	0.000287	2.867055	0.485692	0.000029
 601	5.9700e+01	5.9658	5.590573	0.000238	2.375560	0.402431	0.000024
 602	5.9800e+01	5.9756	5.619494	0.000291	2.908013	0.492631	0.000029
 603	5.9899e+01	5.9867	5.648008	0.000287	2.867055	0.485692	0.000029
 604	5.9998e+01	5.9971	5.670412	0.000225	2.252686	0.381615	0.000023
 605	6.0098e+01	6.0058	5.696075	0.000258	2.580349	0.437123	0.000026
 606	6.0197e+01	6.0169	5.726218	0.000303	3.030886	0.513446	0.000030
 607	6.0297e+01	6.0268	5.752695	0.000266	2.662265	0.451000	0.000027
 608	6.0397e+01	6.0378	5.780802	0.000283	2.826097	0.478754	0.000028
 609	6.0496e+01	6.0423	5.808501	0.000279	2.785139	0.471815	0.000028
 610	6.0596e+01	6.0532	5.834164	0.000258	2.580349	0.437123	0.000026
 611	6.0695e+01	6.0648	5.861863	0.000279	2.785139	0.471815	0.000028
 612	6.0794e+01	6.0775	5.889155	0.000274	2.744181	0.464877	0.000027
 613	6.0894e+01	6.0840	5.915225	0.000262	2.621307	0.444061	0.000026
 614	6.0993e+01	6.0964	5.940480	0.000254	2.539391	0.430185	0.000025
 615	6.1093e+01	6.1034	5.966550	0.000262	2.621307	0.444061	0.000026
 616	6.1193e+01	6.1148	5.992620	0.000262	2.621307	0.444061	0.000026
 617	6.1292e+01	6.1255	6.019505	0.000270	2.703223	0.457938	0.000027
 618	6.1392e+01	6.1339	6.040279	0.000209	2.088854	0.353861	0.000021
 619	6.1491e+01	6.1462	6.065942	0.000258	2.580349	0.437123	0.000026
 620	6.1590e+01	6.1547	6.087531	0.000217	2.170770	0.367738	0.000022
 621	6.1690e+01	6.1634	6.110749	0.000233	2.334602	0.395492	0.000023
 622	6.1789e+01	6.1730	6.135597	0.000250	2.498433	0.423246	0.000025
 623	6.1889e+01	6.1855	6.159223	0.000238	2.375560	0.402431	0.000024
 624	6.1989e+01	6.1994	6.184478	0.000254	2.539391	0.430185	0.000025
 625	6.2088e+01	6.2032	6.206067	0.000217	2.170770	0.367738	0.000022
 626	6.2188e+01	6.2158	6.235396	0.000295	2.948971	0.499569	0.000029
 627	6.2287e+01	6.2267	6.256171	0.000209	2.088854	0.353861	0.000021
 628	6.2386e+01	6.2362	6.279389	0.000233	2.334602	0.395492	0.000023
 629	6.2486e+01	6.2418	6.300571	0.000213	2.129812	0.360800	0.000021
 630	6.2586e+01	6.2554	6.326233	0.000258	2.580349	0.437123	0.000026
 631	6.2685e+01	6.2658	6.349859	0.000238	2.375560	0.402431	0.000024
 632	6.2785e+01	6.2756	6.370226	0.000205	2.047896	0.346923	0.000020
 633	6.2884e+01	6.2853	6.397926	0.000279	2.785139	0.471815	0.000028
 634	6.2983e+01	6.2978	6.420330	0.000225	2.252686	0.381615	0.000023
 635	6.3083e+01	6.3036	6.444363	0.000242	2.416518	0.409369	0.000024
 636	6.3182e+01	6.3125	6.472469	0.000283	2.826097	0.478754	0.000028
 637	6.3282e+01	6.3210	6.498132	0.000258	2.580349	0.437123	0.000026
 638	6.3382e+01	6.3323	6.524202	0.000262	2.621307	0.444061	0.000026
 639	6.3481e+01	6.3441	6.549050	0.000250	2.498433	0.423246	0.000025
 640	6.3581e+01	6.3552	6.575934	0.000270	2.703223	0.457938	0.000027
 641	6.3680e+01	6.3638	6.604448	0.000287	2.867055	0.485692	0.000029
 642	6.3779e+01	6.3741	6.630111	0.000258	2.580349	0.437123	0.000026
 643	6.3879e+01	6.3828	6.658218	0.000283	2.826097	0.478754	0.000028
 644	6.3978e+01	6.3916	6.685102	0.000270	2.703223	0.457938	0.000027
 645	6.4078e+01	6.4030	6.709543	0.000246	2.457476	0.416308	0.000025
 646	6.4177e+01	6.4112	6.738872	0.000295	2.948971	0.499569	0.000029
 647	6.4277e+01	6.4234	6.762905	0.000242	2.416518	0.409369	0.000024
 648	6.4376e+01	6.4318	6.795085	0.000324	3.235676	0.548138	0.000032
 649	6.4476e+01	6.4440	6.819933	0.000250	2.498433	0.423246	0.000025
 650	6.4576e+01	6.4535	6.847225	0.000274	2.744181	0.464877	0.000027
 651	6.4675e+01	6.4629	6.876553	0.000295	2.948971	0.499569	0.000029
 652	6.4775e+01	6.4747	6.903031	0.000266	2.662265	0.451000	0.000027
 653	6.4874e+01	6.4870	6.931137	0.000283	2.826097	0.478754	0.000028
 654	6.4974e+01	6.4918	6.958429	0.000274	2.744181	0.464877	0.000027
 655	6.5073e+01	6.5017	6.982462	0.000242	2.416518	0.409369	0.000024
 656	6.5172e+01	6.5102	7.013013	0.000307	3.071844	0.520385	0.000031
 657	6.5272e+01	6.5240	7.044378	0.000315	3.153760	0.534261	0.000032
 658	6.5371e+01	6.5319	7.067597	0.000233	2.334602	0.395492	0.000023
 659	6.5471e+01	6.5437	7.097333	0.000299	2.989929	0.506508	0.000030
 660	6.5570e+01	6.5532	7.121773	0.000246	2.457476	0.416308	0.000025
 661	6.5670e+01	6.5654	7.152732	0.000311	3.112802	0.527323	0.000031
 662	6.5769e+01	6.5731	7.182468	0.000299	2.989929	0.506508	0.000030
 663	6.5869e+01	6.5813	7.206093	0.000238	2.375560	0.402431	0.000024
 664	6.5969e+01	6.5932	7.235829	0.000299	2.989929	0.506508	0.000030
 665	6.6068e+01	6.6016	7.260677	0.000250	2.498433	0.423246	0.000025
 666	6.6168e+01	6.6113	7.287562	0.000270	2.703223	0.457938	0.000027
 667	6.6267e+01	6.6222	7.315669	0.000283	2.826097	0.478754	0.000028
 668	6.6367e+01	6.6297	7.343775	0.000283	2.826097	0.478754	0.000028
 669	6.6466e+01	6.6424	7.375141	0.000315	3.153760	0.534261	0.000032
 670	6.6566e+01	6.6543	7.401618	0.000266	2.662265	0.451000	0.000027
 671	6.6665e+01	6.6582	7.434613	0.000332	3.317592	0.562015	0.000033
 672	6.6764e+01	6.6741	7.460275	0.000258	2.580349	0.437123	0.000026
 673	6.6864e+01	6.6808	7.490011	0.000299	2.989929	0.506508	0.000030
 674	6.6963e+01	6.6956	7.512415	0.000225	2.252686	0.381615	0.000023
 675	6.7063e+01	6.7019	7.540522	0.000283	2.826097	0.478754	0.000028
 676	6.7162e+01	6.7129	7.568628	0.000283	2.826097	0.478754	0.000028
 677	6.7262e+01	6.7245	7.599586	0.000311	3.112802	0.527323	0.000031
 678	6.7362e+01	6.7330	7.630544	0.000311	3.112802	0.527323	0.000031
 679	6.7461e+01	6.7403	7.654170	0.000238	2.375560	0.402431	0.000024
 680	6.7561e+01	6.7519	7.683092	0.000291	2.908013	0.492631	0.000029
 681	6.7660e+01	6.7596	7.711198	0.000283	2.826097	0.478754	0.000028
 682	6.7760e+01	6.7715	7.742156	0.000311	3.112802	0.527323	0.000031
 683	6.7859e+01	6.7831	7.766597	0.000246	2.457476	0.416308	0.000025
 684	6.7959e+01	6.7934	7.796740	0.000303	3.030886	0.513446	0.000030
 685	6.8058e+01	6.8004	7.824032	0.000274	2.744181	0.464877	0.000027
 686	6.8157e+01	6.8089	7.851324	0.000274	2.744181	0.464877	0.000027
 687	6.8257e+01	6.8231	7.885133	0.000340	3.399508	0.575892	0.000034
 688	6.8356e+01	6.8330	7.909981	0.000250	2.498433	0.423246	0.000025
 689	6.8456e+01	6.8400	7.936866	0.000270	2.703223	0.457938	0.000027
 690	6.8555e+01	6.8508	7.962936	0.000262	2.621307	0.444061	0.000026
 691	6.8655e+01	6.8613	7.991450	0.000287	2.867055	0.485692	0.000029
 692	6.8754e+01	6.8711	8.014261	0.000229	2.293644	0.388554	0.000023
 693	6.8854e+01	6.8825	8.046441	0.000324	3.235676	0.548138	0.000032
 694	6.8954e+01	6.8925	8.075770	0.000295	2.948971	0.499569	0.000029
 695	6.9053e+01	6.8980	8.102654	0.000270	2.703223	0.457938	0.000027
 696	6.9153e+01	6.9110	8.130761	0.000283	2.826097	0.478754	0.000028
 697	6.9252e+01	6.9207	8.162941	0.000324	3.235676	0.548138	0.000032
 698	6.9352e+01	6.9306	8.191455	0.000287	2.867055	0.485692	0.000029
 699	6.9451e+01	6.9399	8.216303	0.000250	2.498433	0.423246	0.000025
 700	6.9550e+01	6.9476	8.246446	0.000303	3.030886	0.513446	0.000030
 701	6.9650e+01	6.9625	8.274553	0.000283	2.826097	0.478754	0.000028
 702	6.9749e+01	6.9718	8.303474	0.000291	2.908013	0.492631	0.000029
 703	6.9849e+01	6.9812	8.338098	0.000348	3.481424	0.589769	0.000035
 704	6.9948e+01	6.9884	8.369871	0.000319	3.194718	0.541200	0.000032
 705	7.0048e+01	6.9991	8.399200	0.000295	2.948971	0.499569	0.000029
 706	7.0147e+01	7.0104	8.429750	0.000307	3.071844	0.520385	0.000031
 707	7.0247e+01	7.0193	8.462338	0.000328	3.276634	0.555077	0.000033
 708	7.0347e+01	7.0275	8.490037	0.000279	2.785139	0.471815	0.000028
 709	7.0446e+01	7.0391	8.516514	0.000266	2.662265	0.451000	0.000027
 710	7.0546e+01	7.0501	8.551139	0.000348	3.481424	0.589769	0.000035
 711	7.0645e+01	7.0597	8.577208	0.000262	2.621307	0.444061	0.000026
 712	7.0745e+01	7.0705	8.610611	0.000336	3.358550	0.568954	0.000034
 713	7.0844e+01	7.0794	8.640347	0.000299	2.989929	0.506508	0.000030
 714	7.0944e+01	7.0901	8.670490	0.000303	3.030886	0.513446	0.000030
 715	7.1043e+01	7.1003	8.703077	0.000328	3.276634	0.555077	0.000033
 716	7.1142e+01	7.1114	8.732813	0.000299	2.989929	0.506508	0.000030
 717	7.1242e+01	7.1197	8.765808	0.000332	3.317592	0.562015	0.000033
 718	7.1341e+01	7.1282	8.790656	0.000250	2.498433	0.423246	0.000025
 719	7.1441e+01	7.1380	8.822836	0.000324	3.235676	0.548138	0.000032
 720	7.1540e+01	7.1492	8.845647	0.000229	2.293644	0.388554	0.000023
 721	7.1640e+01	7.1572	8.877420	0.000319	3.194718	0.541200	0.000032
 722	7.1740e+01	7.1680	8.903082	0.000258	2.580349	0.437123	0.000026
 723	7.1839e+01	7.1792	8.927523	0.000246	2.457476	0.416308	0.000025
 724	7.1939e+01	7.1886	8.958888	0.000315	3.153760	0.534261	0.000032
 725	7.2038e+01	7.2012	8.984551	0.000258	2.580349	0.437123	0.000026
 726	7.2138e+01	7.2067	9.010214	0.000258	2.580349	0.437123	0.000026
 727	7.2237e+01	7.2207	9.033839	0.000238	2.375560	0.402431	0.000024
 728	7.2337e+01	7.2266	9.062353	0.000287	2.867055	0.485692	0.000029
 729	7.2436e+01	7.2392	9.087201	0.000250	2.498433	0.423246	0.000025
 730	7.2535e+01	7.2474	9.115715	0.000287	2.867055	0.485692	0.000029
 731	7.2635e+01	7.2593	9.143007	0.000274	2.744181	0.464877	0.000027
 732	7.2734e+01	7.2700	9.167448	0.000246	2.457476	0.416308	0.000025
 733	7.2834e+01	7.2774	9.195554	0.000283	2.826097	0.478754	0.000028
 734	7.2933e+01	7.2889	9.220402	0.000250	2.498433	0.423246	0.000025
 735	7.3033e+01	7.2998	9.245250	0.000250	2.498433	0.423246	0.000025
 736	7.3132e+01	7.3096	9.272542	0.000274	2.744181	0.464877	0.000027
 737	7.3232e+01	7.3175	9.296575	0.000242	2.416518	0.409369	0.000024
 738	7.3332e+01	7.3279	9.325904	0.000295	2.948971	0.499569	0.000029
 739	7.3431e+01	7.3392	9.351159	0.000254	2.539391	0.430185	0.000025
 740	7.3531e+01	7.3492	9.373970	0.000229	2.293644	0.388554	0.000023
 741	7.3630e+01	7.3572	9.402077	0.000283	2.826097	0.478754	0.000028
 742	7.3730e+01	7.3657	9.428962	0.000270	2.703223	0.457938	0.000027
 743	7.3829e+01	7.3782	9.452995	0.000242	2.416518	0.409369	0.000024
 744	7.3928e+01	7.3876	9.480694	0.000279	2.785139	0.471815	0.000028
 745	7.4028e+01	7.3970	9.503098	0.000225	2.252686	0.381615	0.000023
 746	7.4127e+01	7.4065	9.526724	0.000238	2.375560	0.402431	0.000024
 747	7.4227e+01	7.4204	9.551979	0.000254	2.539391	0.430185	0.000025
 748	7.4326e+01	7.4285	9.573161	0.000213	2.129812	0.360800	0.000021
 749	7.4426e+01	7.4374	9.601268	0.000283	2.826097	0.478754	0.000028
 750	7.4525e+01	7.4459	9.629374	0.000283	2.826097	0.478754	0.000028
 751	7.4625e+01	7.4581	9.655037	0.000258	2.580349	0.437123	0.000026
 752	7.4725e+01	7.4679	9.683143	0.000283	2.826097	0.478754	0.000028
 753	7.4824e+01	7.4759	9.702696	0.000197	1.965980	0.333046	0.000020
 754	7.4924e+01	7.4886	9.729988	0.000274	2.744181	0.464877	0.000027
 755	7.5023e+01	7.4998	9.752799	0.000229	2.293644	0.388554	0.000023
 756	7.5123e+01	7.5086	9.777240	0.000246	2.457476	0.416308	0.000025
 757	7.5222e+01	7.5179	9.799236	0.000221	2.211728	0.374677	0.000022
 758	7.5322e+01	7.5271	9.822047	0.000229	2.293644	0.388554	0.000023
 759	7.5421e+01	7.5378	9.845266	0.000233	2.334602	0.395492	0.000023
 760	7.5520e+01	7.5466	9.871336	0.000262	2.621307	0.444061	0.000026
 761	7.5620e+01	7.5582	9.899442	0.000283	2.826097	0.478754	0.000028
 762	7.5719e+01	7.5667	9.922254	0.000229	2.293644	0.388554	0.000023
 763	7.5819e+01	7.5774	9.943843	0.000217	2.170770	0.367738	0.000022
 764	7.5918e+01	7.5873	9.970320	0.000266	2.662265	0.451000	0.000027
 765	7.6018e+01	7.5986	9.998427	0.000283	2.826097	0.478754	0.000028
 766	7.6118e+01	7.6067	10.021238	0.000229	2.293644	0.388554	0.000023
 767	7.6217e+01	7.6138	10.046493	0.000254	2.539391	0.430185	0.000025
 768	7.6317e+01	7.6279	10.067675	0.000213	2.129812	0.360800	0.000021
 769	7.6416e+01	7.6382	10.088857	0.000213	2.129812	0.360800	0.000021
 770	7.6516e+01	7.6463	10.116963	0.000283	2.826097	0.478754	0.000028
 771	7.6615e+01	7.6566	10.142219	0.000254	2.539391	0.430185	0.000025
 772	7.6715e+01	7.6675	10.165437	0.000233	2.334602	0.395492	0.000023
 773	7.6814e+01	7.6789	10.191100	0.000258	2.580349	0.437123	0.000026
 774	7.6913e+01	7.6890	10.210652	0.000197	1.965980	0.333046	0.000020
 775	7.7013e+01	7.6955	10.240388	0.000299	2.989929	0.506508	0.000030
 776	7.7112e+01	7.7064	10.264014	0.000238	2.375560	0.402431	0.000024
 777	7.7212e+01	7.7177	10.289677	0.000258	2.580349	0.437123	0.000026
 778	7.7311e+01	7.7271	10.314117	0.000246	2.457476	0.416308	0.000025
 779	7.7411e+01	7.7383	10.339780	0.000258	2.580349	0.437123	0.000026
 780	7.7510e+01	7.7451	10.361369	0.000217	2.170770	0.367738	0.000022
 781	7.7610e+01	7.7572	10.385402	0.000242	2.416518	0.409369	0.000024
 782	7.7710e+01	7.7660	10.409843	0.000246	2.457476	0.416308	0.000025
 783	7.7809e+01	7.7757	10.432246	0.000225	2.252686	0.381615	0.000023
 784	7.7909e+01	7.7856	10.454650	0.000225	2.252686	0.381615	0.000023
 785	7.8008e+01	7.7960	10.475425	0.000209	2.088854	0.353861	0.000021
 786	7.8108e+01	7.8076	10.492533	0.000172	1.720233	0.291415	0.000017
 787	7.8207e+01	7.8162	10.514530	0.000221	2.211728	0.374677	0.000022
 788	7.8306e+01	7.8247	10.536933	0.000225	2.252686	0.381615	0.000023
 789	7.8406e+01	7.8366	10.556079	0.000193	1.925022	0.326108	0.000019
 790	7.8505e+01	7.8467	10.579297	0.000233	2.334602	0.395492	0.000023
 791	7.8605e+01	7.8540	10.602516	0.000233	2.334602	0.395492	0.000023
 792	7.8704e+01	7.8655	10.624919	0.000225	2.252686	0.381615	0.000023
 793	7.8804e+01	7.8767	10.644472	0.000197	1.965980	0.333046	0.000020
 794	7.8903e+01	7.8878	10.669727	0.000254	2.539391	0.430185	0.000025
 795	7.9003e+01	7.8964	10.693353	0.000238	2.375560	0.402431	0.000024
 796	7.9103e+01	7.9038	10.711683	0.000184	1.843107	0.312231	0.000018
 797	7.9202e+01	7.9160	10.732865	0.000213	2.129812	0.360800	0.000021
 798	7.9302e+01	7.9230	10.749566	0.000168	1.679275	0.284477	0.000017
 799	7.9401e+01	7.9359	10.771563	0.000221	2.211728	0.374677	0.000022
 800	7.9501e+01	7.9444	10.792745	0.000213	2.129812	0.360800	0.000021
 801	7.9600e+01	7.9556	10.815963	0.000233	2.334602	0.395492	0.000023
 802	7.9700e+01	7.9664	10.839589	0.000238	2.375560	0.402431	0.000024
 803	7.9799e+01	7.9762	10.860363	0.000209	2.088854	0.353861	0.000021
 804	7.9898e+01	7.9865	10.881953	0.000217	2.170770	0.367738	0.000022
 805	7.9998e+01	7.9951	10.908837	0.000270	2.703223	0.457938	0.000027
 806	8.0097e+01	8.0058	10.930019	0.000213	2.129812	0.360800	0.000021
 807	8.0197e+01	8.0157	10.956089	0.000262	2.621307	0.444061	0.000026
 808	8.0296e+01	8.0248	10.980122	0.000242	2.416518	0.409369	0.000024
 809	8.0396e+01	8.0392	11.004563	0.000246	2.457476	0.416308	0.000025
 810	8.0496e+01	8.0440	11.029003	0.000246	2.457476	0.416308	0.000025
 811	8.0595e+01	8.0556	11.052222	0.000233	2.334602	0.395492	0.000023
 812	8.0695e+01	8.0657	11.082772	0.000307	3.071844	0.520385	0.000031
 813	8.0794e+01	8.0738	11.106398	0.000238	2.375560	0.402431	0.000024
 814	8.0894e+01	8.0850	11.132468	0.000262	2.621307	0.444061	0.000026
 815	8.0993e+01	8.0949	11.158131	0.000258	2.580349	0.437123	0.000026
 816	8.1093e+01	8.1044	11.181349	0.000233	2.334602	0.395492	0.000023
 817	8.1192e+01	8.1137	11.209863	0.000287	2.867055	0.485692	0.000029
 818	8.1291e+01	8.1274	11.231045	0.000213	2.129812	0.360800	0.000021
 819	8.1391e+01	8.1355	11.256300	0.000254	2.539391	0.430185	0.000025
 820	8.1490e+01	8.1458	11.280741	0.000246	2.457476	0.416308	0.000025
 821	8.1590e+01	8.1525	11.304774	0.000242	2.416518	0.409369	0.000024
 822	8.1689e+01	8.1612	11.331659	0.000270	2.703223	0.457938	0.000027
 823	8.1789e+01	8.1734	11.353248	0.000217	2.170770	0.367738	0.000022
 824	8.1888e+01	8.1838	11.382984	0.000299	2.989929	0.506508	0.000030
 825	8.1988e+01	8.1924	11.407832	0.000250	2.498433	0.423246	0.000025
 826	8.2088e+01	8.2033	11.434309	0.000266	2.662265	0.451000	0.000027
 827	8.2187e+01	8.2131	11.456713	0.000225	2.252686	0.381615	0.000023
 828	8.2287e+01	8.2227	11.482783	0.000262	2.621307	0.444061	0.000026
 829	8.2386e+01	8.2325	11.508038	0.000254	2.539391	0.430185	0.000025
 830	8.2486e+01	8.2436	11.537774	0.000299	2.989929	0.506508	0.000030
 831	8.2585e+01	8.2520	11.558549	0.000209	2.088854	0.353861	0.000021
 832	8.2684e+01	8.2636	11.586655	0.000283	2.826097	0.478754	0.000028
 833	8.2784e+01	8.2739	11.612318	0.000258	2.580349	0.437123	0.000026
 834	8.2883e+01	8.2853	11.637166	0.000250	2.498433	0.423246	0.000025
 835	8.2983e+01	8.2919	11.662828	0.000258	2.580349	0.437123	0.000026
 836	8.3082e+01	8.3025	11.686047	0.000233	2.334602	0.395492	0.000023
 837	8.3182e+01	8.3163	11.712931	0.000270	2.703223	0.457938	0.000027
 838	8.3281e+01	8.3231	11.742667	0.000299	2.989929	0.506508	0.000030
 839	8.3381e+01	8.3350	11.768330	0.000258	2.580349	0.437123	0.000026
 840	8.3481e+01	8.3448	11.799288	0.000311	3.112802	0.527323	0.000031
 841	8.3580e+01	8.3566	11.823321	0.000242	2.416518	0.409369	0.000024
 842	8.3680e+01	8.3629	11.849391	0.000262	2.621307	0.444061	0.000026
 843	8.3779e+01	8.3759	11.876276	0.000270	2.703223	0.457938	0.000027
 844	8.3879e+01	8.3815	11.902753	0.000266	2.662265	0.451000	0.000027
 845	8.3978e+01	8.3938	11.930452	0.000279	2.785139	0.471815	0.000028
 846	8.4078e+01	8.4033	11.953264	0.000229	2.293644	0.388554	0.000023
 847	8.4177e+01	8.4124	11.977297	0.000242	2.416518	0.409369	0.000024
 848	8.4276e+01	8.4225	12.006218	0.000291	2.908013	0.492631	0.000029
 849	8.4376e+01	8.4327	12.029844	0.000238	2.375560	0.402431	0.000024
 850	8.4475e+01	8.4433	12.056729	0.000270	2.703223	0.457938	0.000027
 851	8.4575e+01	8.4531	12.080762	0.000242	2.416518	0.409369	0.000024
 852	8.4674e+01	8.4611	12.111312	0.000307	3.071844	0.520385	0.000031
 853	8.4774e+01	8.4744	12.136975	0.000258	2.580349	0.437123	0.000026
 854	8.4874e+01	8.4824	12.165489	0.000287	2.867055	0.485692	0.000029
 855	8.4973e+01	8.4917	12.193188	0.000279	2.785139	0.471815	0.000028
 856	8.5073e+01	8.5020	12.214777	0.000217	2.170770	0.367738	0.000022
 857	8.5172e+01	8.5137	12.243699	0.000291	2.908013	0.492631	0.000029
 858	8.5272e+01	8.5193	12.268547	0.000250	2.498433	0.423246	0.000025
 859	8.5371e+01	8.5314	12.295431	0.000270	2.703223	0.457938	0.000027
 860	8.5471e+01	8.5446	12.325167	0.000299	2.989929	0.506508	0.000030
 861	8.5570e+01	8.5532	12.344720	0.000197	1.965980	0.333046	0.000020
 862	8.5669e+01	8.5601	12.372012	0.000274	2.744181	0.464877	0.000027
 863	8.5769e+01	8.5728	12.401340	0.000295	2.948971	0.499569	0.000029
 864	8.5868e+01	8.5824	12.424559	0.000233	2.334602	0.395492	0.000023
 865	8.5968e+01	8.5920	12.451851	0.000274	2.744181	0.464877	0.000027
 866	8.6067e+01	8.6015	12.477513	0.000258	2.580349	0.437123	0.000026
 867	8.6167e+01	8.6133	12.507249	0.000299	2.989929	0.506508	0.000030
 868	8.6266e+01	8.6195	12.536578	0.000295	2.948971	0.499569	0.000029
 869	8.6366e+01	8.6307	12.563870	0.000274	2.744181	0.464877	0.000027
 870	8.6466e+01	8.6427	12.593606	0.000299	2.989929	0.506508	0.000030
 871	8.6565e+01	8.6508	12.623342	0.000299	2.989929	0.506508	0.000030
 872	8.6665e+01	8.6604	12.655929	0.000328	3.276634	0.555077	0.000033
 873	8.6764e+01	8.6710	12.684851	0.000291	2.908013	0.492631	0.000029
 874	8.6864e+01	8.6813	12.711735	0.000270	2.703223	0.457938	0.000027
 875	8.6963e+01	8.6921	12.739027	0.000274	2.744181	0.464877	0.000027
 876	8.7063e+01	8.7005	12.768356	0.000295	2.948971	0.499569	0.000029
 877	8.7162e+01	8.7110	12.796870	0.000287	2.867055	0.485692	0.000029
 878	8.7261e+01	8.7207	12.823755	0.000270	2.703223	0.457938	0.000027
 879	8.7361e+01	8.7330	12.853491	0.000299	2.989929	0.506508	0.000030
 880	8.7460e+01	8.7418	12.886893	0.000336	3.358550	0.568954	0.000034
 881	8.7560e+01	8.7512	12.917036	0.000303	3.030886	0.513446	0.000030
 882	8.7659e+01	8.7608	12.943106	0.000262	2.621307	0.444061	0.000026
 883	8.7759e+01	8.7711	12.971213	0.000283	2.826097	0.478754	0.000028
 884	8.7859e+01	8.7817	13.001356	0.000303	3.030886	0.513446	0.000030
 885	8.7958e+01	8.7906	13.028240	0.000270	2.703223	0.457938	0.000027
 886	8.8058e+01	8.7978	13.060013	0.000319	3.194718	0.541200	0.000032
 887	8.8157e+01	8.8128	13.085676	0.000258	2.580349	0.437123	0.000026
 888	8.8257e+01	8.8187	13.109302	0.000238	2.375560	0.402431	0.000024
 889	8.8356e+01	8.8318	13.137816	0.000287	2.867055	0.485692	0.000029
 890	8.8456e+01	8.8391	13.162664	0.000250	2.498433	0.423246	0.000025
 891	8.8555e+01	8.8505	13.186697	0.000242	2.416518	0.409369	0.000024
 892	8.8654e+01	8.8604	13.212767	0.000262	2.621307	0.444061	0.000026
 893	8.8754e+01	8.8693	13.238429	0.000258	2.580349	0.437123	0.000026
 894	8.8853e+01	8.8777	13.264092	0.000258	2.580349	0.437123	0.000026
 895	8.8953e+01	8.8901	13.288532	0.000246	2.457476	0.416308	0.000025
 896	8.9052e+01	8.9016	13.312566	0.000242	2.416518	0.409369	0.000024
 897	8.9152e+01	8.9091	13.342302	0.000299	2.989929	0.506508	0.000030
 898	8.9251e+01	8.9201	13.368779	0.000266	2.662265	0.451000	0.000027
 899	8.9351e+01	8.9317	13.391590	0.000229	2.293644	0.388554	0.000023
 900	8.9451e+01	8.9423	13.418067	0.000266	2.662265	0.451000	0.000027
 901	8.9550e+01	8.9496	13.444545	0.000266	2.662265	0.451000	0.000027
 902	8.9650e+01	8.9581	13.468170	0.000238	2.375560	0.402431	0.000024
 903	8.9749e+01	8.9703	13.492611	0.000246	2.457476	0.416308	0.000025
 904	8.9849e+01	8.9787	13.518274	0.000258	2.580349	0.437123	0.000026
 905	8.9948e+01	8.9922	13.541492	0.000233	2.334602	0.395492	0.000023
 906	9.0047e+01	8.9978	13.567155	0.000258	2.580349	0.437123	0.000026
 907	9.0147e+01	9.0112	13.593225	0.000262	2.621307	0.444061	0.000026
 908	9.0246e+01	9.0176	13.616036	0.000229	2.293644	0.388554	0.000023
 909	9.0346e+01	9.0297	13.641291	0.000254	2.539391	0.430185	0.000025
 910	9.0445e+01	9.0392	13.667768	0.000266	2.662265	0.451000	0.000027
 911	9.0545e+01	9.0501	13.689765	0.000221	2.211728	0.374677	0.000022
 912	9.0644e+01	9.0582	13.716242	0.000266	2.662265	0.451000	0.000027
 913	9.0744e+01	9.0688	13.742312	0.000262	2.621307	0.444061	0.000026
 914	9.0844e+01	9.0771	13.766345	0.000242	2.416518	0.409369	0.000024
 915	9.0943e+01	9.0879	13.793230	0.000270	2.703223	0.457938	0.000027
 916	9.1043e+01	9.0972	13.814819	0.000217	2.170770	0.367738	0.000022
 917	9.1142e+01	9.1082	13.843740	0.000291	2.908013	0.492631	0.000029
 918	9.1242e+01	9.1224	13.864922	0.000213	2.129812	0.360800	0.000021
 919	9.1341e+01	9.1291	13.890992	0.000262	2.621307	0.444061	0.000026
 920	9.1441e+01	9.1375	13.912174	0.000213	2.129812	0.360800	0.000021
 921	9.1540e+01	9.1507	13.935800	0.000238	2.375560	0.402431	0.000024
 922	9.1639e+01	9.1592	13.960648	0.000250	2.498433	0.423246	0.000025
 923	9.1739e+01	9.1693	13.988754	0.000283	2.826097	0.478754	0.000028
 924	9.1838e+01	9.1769	14.006270	0.000176	1.761191	0.298354	0.000018
 925	9.1938e+01	9.1901	14.031525	0.000254	2.539391	0.430185	0.000025
 926	9.2037e+01	9.1992	14.052707	0.000213	2.129812	0.360800	0.000021
 927	9.2137e+01	9.2118	14.081221	0.000287	2.867055	0.485692	0.000029
 928	9.2237e+01	9.2171	14.104440	0.000233	2.334602	0.395492	0.000023
 929	9.2336e+01	9.2282	14.130509	0.000262	2.621307	0.444061	0.000026
 930	9.2436e+01	9.2389	14.155357	0.000250	2.498433	0.423246	0.000025
 931	9.2535e+01	9.2485	14.177761	0.000225	2.252686	0.381615	0.000023
 932	9.2635e+01	9.2581	14.203424	0.000258	2.580349	0.437123	0.000026
 933	9.2734e+01	9.2661	14.227864	0.000246	2.457476	0.416308	0.000025
 934	9.2834e+01	9.2799	14.253934	0.000262	2.621307	0.444061	0.000026
 935	9.2933e+01	9.2889	14.275931	0.000221	2.211728	0.374677	0.000022
 936	9.3032e+01	9.2988	14.297520	0.000217	2.170770	0.367738	0.000022
 937	9.3132e+01	9.3054	14.323182	0.000258	2.580349	0.437123	0.000026
 938	9.3231e+01	9.3149	14.345994	0.000229	2.293644	0.388554	0.000023
 939	9.3331e+01	9.3272	14.372878	0.000270	2.703223	0.457938	0.000027
 940	9.3430e+01	9.3362	14.392838	0.000201	2.006938	0.339985	0.000020
 941	9.3530e+01	9.3485	14.418093	0.000254	2.539391	0.430185	0.000025
 942	9.3629e+01	9.3574	14.447829	0.000299	2.989929	0.506508	0.000030
 943	9.3729e+01	9.3658	14.465752	0.000180	1.802149	0.305292	0.000018
 944	9.3829e+01	9.3781	14.497118	0.000315	3.153760	0.534261	0.000032
 945	9.3928e+01	9.3872	14.521966	0.000250	2.498433	0.423246	0.000025
 946	9.4028e+01	9.3974	14.545184	0.000233	2.334602	0.395492	0.000023
 947	9.4127e+01	9.4057	14.570847	0.000258	2.580349	0.437123	0.000026
 948	9.4227e+01	9.4147	14.589584	0.000188	1.884065	0.319169	0.000019
 949	9.4326e+01	9.4281	14.616469	0.000270	2.703223	0.457938	0.000027
 950	9.4425e+01	9.4370	14.642946	0.000266	2.662265	0.451000	0.000027
 951	9.4525e+01	9.4475	14.664128	0.000213	2.129812	0.360800	0.000021
 952	9.4624e+01	9.4572	14.684495	0.000205	2.047896	0.346923	0.000020
 953	9.4724e+01	9.4678	14.704862	0.000205	2.047896	0.346923	0.000020
 954	9.4823e+01	9.4794	14.725230	0.000205	2.047896	0.346923	0.000020
 955	9.4923e+01	9.4888	14.750485	0.000254	2.539391	0.430185	0.000025
 956	9.5022e+01	9.4971	14.768815	0.000184	1.843107	0.312231	0.000018
 957	9.5122e+01	9.5078	14.790812	0.000221	2.211728	0.374677	0.000022
 958	9.5222e+01	9.5160	14.811994	0.000213	2.129812	0.360800	0.000021
 959	9.5321e+01	9.5243	14.836841	0.000250	2.498433	0.423246	0.000025
 960	9.5421e+01	9.5353	14.862097	0.000254	2.539391	0.430185	0.000025
 961	9.5520e+01	9.5477	14.884501	0.000225	2.252686	0.381615	0.000023
 962	9.5620e+01	9.5536	14.906904	0.000225	2.252686	0.381615	0.000023
 963	9.5719e+01	9.5636	14.926864	0.000201	2.006938	0.339985	0.000020
 964	9.5819e+01	9.5756	14.949675	0.000229	2.293644	0.388554	0.000023
 965	9.5918e+01	9.5874	14.970450	0.000209	2.088854	0.353861	0.000021
 966	9.6017e+01	9.5969	14.991224	0.000209	2.088854	0.353861	0.000021
 967	9.6117e+01	9.6069	15.014443	0.000233	2.334602	0.395492	0.000023
 968	9.6216e+01	9.6162	15.031144	0.000168	1.679275	0.284477	0.000017
 969	9.6316e+01	9.6253	15.059658	0.000287	2.867055	0.485692	0.000029
 970	9.6415e+01	9.6338	15.081654	0.000221	2.211728	0.374677	0.000022
 971	9.6515e+01	9.6469	15.106910	0.000254	2.539391	0.430185	0.000025
 972	9.6615e+01	9.6547	15.130535	0.000238	2.375560	0.402431	0.000024
 973	9.6714e+01	9.6659	15.156198	0.000258	2.580349	0.437123	0.000026
 974	9.6814e+01	9.6737	15.182675	0.000266	2.662265	0.451000	0.000027
 975	9.6913e+01	9.6851	15.204672	0.000221	2.211728	0.374677	0.000022
 976	9.7013e+01	9.6985	15.231964	0.000274	2.744181	0.464877	0.000027
 977	9.7112e+01	9.7073	15.258441	0.000266	2.662265	0.451000	0.000027
 978	9.7212e+01	9.7156	15.286548	0.000283	2.826097	0.478754	0.000028
 979	9.7311e+01	9.7266	15.308544	0.000221	2.211728	0.374677	0.000022
 980	9.7410e+01	9.7340	15.337058	0.000287	2.867055	0.485692	0.000029
 981	9.7510e+01	9.7446	15.363128	0.000262	2.621307	0.444061	0.000026
 982	9.7609e+01	9.7607	15.389605	0.000266	2.662265	0.451000	0.000027
 983	9.7709e+01	9.7662	15.417305	0.000279	2.785139	0.471815	0.000028
 984	9.7808e+01	9.7761	15.444189	0.000270	2.703223	0.457938	0.000027
 985	9.7908e+01	9.7839	15.469852	0.000258	2.580349	0.437123	0.000026
 986	9.8007e+01	9.7949	15.493885	0.000242	2.416518	0.409369	0.000024
 987	9.8107e+01	9.8060	15.522399	0.000287	2.867055	0.485692	0.000029
 988	9.8207e+01	9.8148	15.549691	0.000274	2.744181	0.464877	0.000027
 989	9.8306e+01	9.8248	15.574539	0.000250	2.498433	0.423246	0.000025
 990	9.8406e+01	9.8358	15.598572	0.000242	2.416518	0.409369	0.000024
 991	9.8505e+01	9.8438	15.626679	0.000283	2.826097	0.478754	0.000028
 992	9.8605e+01	9.8525	15.658044	0.000315	3.153760	0.534261	0.000032
 993	9.8704e+01	9.8651	15.682485	0.000246	2.457476	0.416308	0.000025
 994	9.8803e+01	9.8740	15.710184	0.000279	2.785139	0.471815	0.000028
 995	9.8903e+01	9.8844	15.739105	0.000291	2.908013	0.492631	0.000029
 996	9.9002e+01	9.8935	15.766804	0.000279	2.785139	0.471815	0.000028
 997	9.9102e+01	9.9023	15.796948	0.000303	3.030886	0.513446	0.000030
 998	9.9201e+01	9.9131	15.821388	0.000246	2.457476	0.416308	0.000025
 999	9.9301e+01	9.9251	15.848680	0.000274	2.744181	0.464877	0.000027
1000	9.9400e+01	9.9351	15.876787	0.000283	2.826097	0.478754	0.000028
1001	9.9500e+01	9.9429	15.905708	0.000291	2.908013	0.492631	0.000029
1002	9.9600e+01	9.9536	15.932593	0.000270	2.703223	0.457938	0.000027
1003	9.9699e+01	9.9644	15.960292	0.000279	2.785139	0.471815	0.000028
1004	9.9799e+01	9.9756	15.989214	0.000291	2.908013	0.492631	0.000029
1005	9.9898e+01	9.9841	16.013654	0.000246	2.457476	0.416308	0.000025
1006	9.9998e+01	9.9914	16.047463	0.000340	3.399508	0.575892	0.000034
1007	1.0010e+02	9.9854	16.036873	0.000106	1.064906	0.180400	-0.000011
1008	1.0020e+02	9.9722	16.027096	0.000098	0.982990	0.166523	-0.000010
1009	1.0030e+02	9.9622	16.014876	0.000123	1.228738	0.208154	-0.000012
1010	1.0040e+02	9.9564	16.002656	0.000123	1.228738	0.208154	-0.000012
1011	1.0050e+02	9.9438	15.990436	0.000123	1.228738	0.208154	-0.000012
1012	1.0059e+02	9.9348	15.976993	0.000135	1.351612	0.228969	-0.000014
1013	1.0069e+02	9.9235	15.969661	0.000074	0.737243	0.124892	-0.000007
1014	1.0079e+02	9.9134	15.954182	0.000156	1.556401	0.263661	-0.000016
1015	1.0089e+02	9.9042	15.940740	0.000135	1.351612	0.228969	-0.000014
1016	1.0099e+02	9.8950	15.930556	0.000102	1.023948	0.173462	-0.000010
1017	1.0109e+02	9.8862	15.915077	0.000156	1.556401	0.263661	-0.000016
1018	1.0119e+02	9.8743	15.904486	0.000106	1.064906	0.180400	-0.000011
1019	1.0129e+02	9.8652	15.891451	0.000131	1.310654	0.222031	-0.000013
1020	1.0139e+02	9.8547	15.876380	0.000152	1.515443	0.256723	-0.000015
1021	1.0149e+02	9.8431	15.863345	0.000131	1.310654	0.222031	-0.000013
1022	1.0159e+02	9.8340	15.852346	0.000111	1.105864	0.187338	-0.000011
1023	1.0169e+02	9.8267	15.840126	0.000123	1.228738	0.208154	-0.000012
1024	1.0179e+02	9.8186	15.825869	0.000143	1.433527	0.242846	-0.000014
1025	1.0189e+02	9.8066	15.812427	0.000135	1.351612	0.228969	-0.000014
1026	1.0199e+02	9.7939	15.797355	0.000152	1.515443	0.256723	-0.000015
1027	1.0209e+02	9.7876	15.783913	0.000135	1.351612	0.228969	-0.000014
1028	1.0219e+02	9.7760	15.769249	0.000147	1.474485	0.249785	-0.000015
1029	1.0229e+02	9.7665	15.756214	0.000131	1.310654	0.222031	-0.000013
1030	1.0239e+02	9.7559	15.741142	0.000152	1.515443	0.256723	-0.000015
1031	1.0248e+02	9.7443	15.725663	0.000156	1.556401	0.263661	-0.000016
1032	1.0258e+02	9.7363	15.709777	0.000160	1.597359	0.270600	-0.000016
1033	1.0268e+02	9.7260	15.699593	0.000102	1.023948	0.173462	-0.000010
1034	1.0278e+02	9.7168	15.680855	0.000188	1.884065	0.319169	-0.000019
1035	1.0288e+02	9.7057	15.674338	0.000066	0.655327	0.111015	-0.000007
1036	1.0298e+02	9.6957	15.656822	0.000176	1.761191	0.298354	-0.000018
1037	1.0308e+02	9.6854	15.647046	0.000098	0.982990	0.166523	-0.000010
1038	1.0318e+02	9.6766	15.640528	0.000066	0.655327	0.111015	-0.000007
1039	1.0328e+02	9.6644	15.627086	0.000135	1.351612	0.228969	-0.000014
1040	1.0338e+02	9.6552	15.614051	0.000131	1.310654	0.222031	-0.000013
1041	1.0348e+02	9.6464	15.601016	0.000131	1.310654	0.222031	-0.000013
1042	1.0358e+02	9.6350	15.587574	0.000135	1.351612	0.228969	-0.000014
1043	1.0368e+02	9.6289	15.572502	0.000152	1.515443	0.256723	-0.000015
1044	1.0378e+02	9.6152	15.559467	0.000131	1.310654	0.222031	-0.000013
1045	1.0388e+02	9.6061	15.547247	0.000123	1.228738	0.208154	-0.000012
1046	1.0398e+02	9.5959	15.538285	0.000090	0.901074	0.152646	-0.000009
1047	1.0408e+02	9.5866	15.522399	0.000160	1.597359	0.270600	-0.000016
1048	1.0418e+02	9.5791	15.510993	0.000115	1.146822	0.194277	-0.000011
1049	1.0428e+02	9.5647	15.496329	0.000147	1.474485	0.249785	-0.000015
1050	1.0438e+02	9.5581	15.481665	0.000147	1.474485	0.249785	-0.000015
1051	1.0447e+02	9.5483	15.470666	0.000111	1.105864	0.187338	-0.000011
1052	1.0457e+02	9.5367	15.458039	0.000127	1.269696	0.215092	-0.000013
1053	1.0467e+02	9.5254	15.443374	0.000147	1.474485	0.249785	-0.000015
1054	1.0477e+02	9.5167	15.425044	0.000184	1.843107	0.312231	-0.000018
1055	1.0487e+02	9.5078	15.412824	0.000123	1.228738	0.208154	-0.000012
1056	1.0497e+02	9.4960	15.393271	0.000197	1.965980	0.333046	-0.000020
1057	1.0507e+02	9.4860	15.380236	0.000131	1.310654	0.222031	-0.000013
1058	1.0517e+02	9.4764	15.363128	0.000172	1.720233	0.291415	-0.000017
1059	1.0527e+02	9.4672	15.348871	0.000143	1.433527	0.242846	-0.000014
1060	1.0537e+02	9.4556	15.330133	0.000188	1.884065	0.319169	-0.000019
1061	1.0547e+02	9.4459	15.317506	0.000127	1.269696	0.215092	-0.000013
1062	1.0557e+02	9.4343	15.297139	0.000205	2.047896	0.346923	-0.000020
1063	1.0567e+02	9.4278	15.278401	0.000188	1.884065	0.319169	-0.000019
1064	1.0577e+02	9.4165	15.262514	0.000160	1.597359	0.270600	-0.000016
1065	1.0587e+02	9.4080	15.245406	0.000172	1.720233	0.291415	-0.000017
1066	1.0597e+02	9.3955	15.225854	0.000197	1.965980	0.333046	-0.000020
1067	1.0607e+02	9.3874	15.204264	0.000217	2.170770	0.367738	-0.000022
1068	1.0617e+02	9.3781	15.192859	0.000115	1.146822	0.194277	-0.000011
1069	1.0627e+02	9.3690	15.169233	0.000238	2.375560	0.402431	-0.000024
1070	1.0637e+02	9.3575	15.155383	0.000139	1.392569	0.235908	-0.000014
1071	1.0647e+02	9.3460	15.137868	0.000176	1.761191	0.298354	-0.000018
1072	1.0656e+02	9.3376	15.117500	0.000205	2.047896	0.346923	-0.000020
1073	1.0666e+02	9.3279	15.099985	0.000176	1.761191	0.298354	-0.000018
1074	1.0676e+02	9.3173	15.078803	0.000213	2.129812	0.360800	-0.000021
1075	1.0686e+02	9.3073	15.059250	0.000197	1.965980	0.333046	-0.000020
1076	1.0696e+02	9.2969	15.045808	0.000135	1.351612	0.228969	-0.000014
1077	1.0706e+02	9.2865	15.027478	0.000184	1.843107	0.312231	-0.000018
1078	1.0716e+02	9.2761	15.005481	0.000221	2.211728	0.374677	-0.000022
1079	1.0726e+02	9.2665	14.984707	0.000209	2.088854	0.353861	-0.000021
1080	1.0736e+02	9.2557	14.967598	0.000172	1.720233	0.291415	-0.000017
1081	1.0746e+02	9.2480	14.946824	0.000209	2.088854	0.353861	-0.000021
1082	1.0756e+02	9.2397	14.930123	0.000168	1.679275	0.284477	-0.000017
1083	1.0766e+02	9.2278	14.908941	0.000213	2.129812	0.360800	-0.000021
1084	1.0776e+02	9.2177	14.885315	0.000238	2.375560	0.402431	-0.000024
1085	1.0786e+02	9.2077	14.871466	0.000139	1.392569	0.235908	-0.000014
1086	1.0796e+02	9.1993	14.853135	0.000184	1.843107	0.312231	-0.000018
1087	1.0806e+02	9.1870	14.833583	0.000197	1.965980	0.333046	-0.000020
1088	1.0816e+02	9.1785	14.816067	0.000176	1.761191	0.298354	-0.000018
1089	1.0826e+02	9.1681	14.793256	0.000229	2.293644	0.388554	-0.000023
1090	1.0836e+02	9.1576	14.768408	0.000250	2.498433	0.423246	-0.000025
1091	1.0845e+02	9.1476	14.747633	0.000209	2.088854	0.353861	-0.000021
1092	1.0855e+02	9.1382	14.730118	0.000176	1.761191	0.298354	-0.000018
1093	1.0865e+02	9.1300	14.708529	0.000217	2.170770	0.367738	-0.000022
1094	1.0875e+02	9.1202	14.689383	0.000193	1.925022	0.326108	-0.000019
1095	1.0885e+02	9.1090	14.669424	0.000201	2.006938	0.339985	-0.000020
1096	1.0895e+02	9.0984	14.650686	0.000188	1.884065	0.319169	-0.000019
1097	1.0905e+02	9.0887	14.629911	0.000209	2.088854	0.353861	-0.000021
1098	1.0915e+02	9.0759	14.608730	0.000213	2.129812	0.360800	-0.000021
1099	1.0925e+02	9.0674	14.586326	0.000225	2.252686	0.381615	-0.000023
1100	1.0935e+02	9.0583	14.564329	0.000221	2.211728	0.374677	-0.000022
1101	1.0945e+02	9.0458	14.549258	0.000152	1.515443	0.256723	-0.000015
1102	1.0955e+02	9.0398	14.527261	0.000221	2.211728	0.374677	-0.000022
1103	1.0965e+02	9.0300	14.503635	0.000238	2.375560	0.402431	-0.000024
1104	1.0975e+02	9.0189	14.482046	0.000217	2.170770	0.367738	-0.000022
1105	1.0985e+02	9.0099	14.459642	0.000225	2.252686	0.381615	-0.000023
1106	1.0995e+02	8.9999	14.439682	0.000201	2.006938	0.339985	-0.000020
1107	1.1005e+02	8.9897	14.418908	0.000209	2.088854	0.353861	-0.000021
1108	1.1015e+02	8.9801	14.397726	0.000213	2.129812	0.360800	-0.000021
1109	1.1025e+02	8.9703	14.379396	0.000184	1.843107	0.312231	-0.000018
1110	1.1035e+02	8.9612	14.359436	0.000201	2.006938	0.339985	-0.000020
1111	1.1044e+02	8.9503	14.335810	0.000238	2.375560	0.402431	-0.000024
1112	1.1054e+02	8.9372	14.319109	0.000168	1.679275	0.284477	-0.000017
1113	1.1064e+02	8.9301	14.299557	0.000197	1.965980	0.333046	-0.000020
1114	1.1074e+02	8.9176	14.274301	0.000254	2.539391	0.430185	-0.000025
1115	1.1084e+02	8.9103	14.254749	0.000197	1.965980	0.333046	-0.000020
1116	1.1094e+02	8.8989	14.232345	0.000225	2.252686	0.381615	-0.000023
1117	1.1104e+02	8.8904	14.211571	0.000209	2.088854	0.353861	-0.000021
1118	1.1114e+02	8.8792	14.187537	0.000242	2.416518	0.409369	-0.000024
1119	1.1124e+02	8.8699	14.166763	0.000209	2.088854	0.353861	-0.000021
1120	1.1134e+02	8.8600	14.143137	0.000238	2.375560	0.402431	-0.000024
1121	1.1144e+02	8.8520	14.117067	0.000262	2.621307	0.444061	-0.000026
1122	1.1154e+02	8.8388	14.093034	0.000242	2.416518	0.409369	-0.000024
1123	1.1164e+02	8.8297	14.068593	0.000246	2.457476	0.416308	-0.000025
1124	1.1174e+02	8.8215	14.049448	0.000193	1.925022	0.326108	-0.000019
1125	1.1184e+02	8.8116	14.022156	0.000274	2.744181	0.464877	-0.000027
1126	1.1194e+02	8.8004	13.997716	0.000246	2.457476	0.416308	-0.000025
1127	1.1204e+02	8.7928	13.973275	0.000246	2.457476	0.416308	-0.000025
1128	1.1214e+02	8.7799	13.949649	0.000238	2.375560	0.402431	-0.000024
1129	1.1224e+02	8.7717	13.926838	0.000229	2.293644	0.388554	-0.000023
1130	1.1234e+02	8.7601	13.905656	0.000213	2.129812	0.360800	-0.000021
1131	1.1244e+02	8.7540	13.875920	0.000299	2.989929	0.506508	-0.000030
1132	1.1253e+02	8.7399	13.852294	0.000238	2.375560	0.402431	-0.000024
1133	1.1263e+02	8.7312	13.828669	0.000238	2.375560	0.402431	-0.000024
1134	1.1273e+02	8.7219	13.801784	0.000270	2.703223	0.457938	-0.000027
1135	1.1283e+02	8.7093	13.774492	0.000274	2.744181	0.464877	-0.000027
1136	1.1293e+02	8.7002	13.752088	0.000225	2.252686	0.381615	-0.000023
1137	1.1303e+02	8.6919	13.731721	0.000205	2.047896	0.346923	-0.000020
1138	1.1313e+02	8.6832	13.708095	0.000238	2.375560	0.402431	-0.000024
1139	1.1323e+02	8.6719	13.684062	0.000242	2.416518	0.409369	-0.000024
1140	1.1333e+02	8.6606	13.665732	0.000184	1.843107	0.312231	-0.000018
1141	1.1343e+02	8.6539	13.644957	0.000209	2.088854	0.353861	-0.000021
1142	1.1353e+02	8.6431	13.620924	0.000242	2.416518	0.409369	-0.000024
1143	1.1363e+02	8.6314	13.598520	0.000225	2.252686	0.381615	-0.000023
1144	1.1373e+02	8.6198	13.577746	0.000209	2.088854	0.353861	-0.000021
1145	1.1383e+02	8.6114	13.556156	0.000217	2.170770	0.367738	-0.000022
1146	1.1393e+02	8.6017	13.534567	0.000217	2.170770	0.367738	-0.000022
1147	1.1403e+02	8.5917	13.519088	0.000156	1.556401	0.263661	-0.000016
1148	1.1413e+02	8.5822	13.493833	0.000254	2.539391	0.430185	-0.000025
1149	1.1423e+02	8.5740	13.476317	0.000176	1.761191	0.298354	-0.000018
1150	1.1433e+02	8.5620	13.453506	0.000229	2.293644	0.388554	-0.000023
1151	1.1442e+02	8.5535	13.432732	0.000209	2.088854	0.353861	-0.000021
1152	1.1452e+02	8.5449	13.412365	0.000205	2.047896	0.346923	-0.000020
1153	1.1462e+02	8.5322	13.391590	0.000209	2.088854	0.353861	-0.000021
1154	1.1472e+02	8.5214	13.370408	0.000213	2.129812	0.360800	-0.000021
1155	1.1482e+02	8.5129	13.352893	0.000176	1.761191	0.298354	-0.000018
1156	1.1492e+02	8.5019	13.327230	0.000258	2.580349	0.437123	-0.000026
1157	1.1502e+02	8.4917	13.305233	0.000221	2.211728	0.374677	-0.000022
1158	1.1512e+02	8.4831	13.288940	0.000164	1.638317	0.277538	-0.000016
1159	1.1522e+02	8.4717	13.265314	0.000238	2.375560	0.402431	-0.000024
1160	1.1532e+02	8.4633	13.246169	0.000193	1.925022	0.326108	-0.000019
1161	1.1542e+02	8.4531	13.225802	0.000205	2.047896	0.346923	-0.000020
1162	1.1552e+02	8.4443	13.207879	0.000180	1.802149	0.305292	-0.000018
1163	1.1562e+02	8.4331	13.180994	0.000270	2.703223	0.457938	-0.000027
1164	1.1572e+02	8.4243	13.164700	0.000164	1.638317	0.277538	-0.000016
1165	1.1582e+02	8.4148	13.141889	0.000229	2.293644	0.388554	-0.000023
1166	1.1592e+02	8.4043	13.122337	0.000197	1.965980	0.333046	-0.000020
1167	1.1602e+02	8.3936	13.101155	0.000213	2.129812	0.360800	-0.000021
1168	1.1612e+02	8.3816	13.079158	0.000221	2.211728	0.374677	-0.000022
1169	1.1622e+02	8.3736	13.058791	0.000205	2.047896	0.346923	-0.000020
1170	1.1632e+02	8.3659	13.041275	0.000176	1.761191	0.298354	-0.000018
1171	1.1642e+02	8.3533	13.016835	0.000246	2.457476	0.416308	-0.000025
1172	1.1651e+02	8.3440	13.003800	0.000131	1.310654	0.222031	-0.000013
1173	1.1661e+02	8.3323	12.979359	0.000246	2.457476	0.416308	-0.000025
1174	1.1671e+02	8.3215	12.958585	0.000209	2.088854	0.353861	-0.000021
1175	1.1681e+02	8.3118	12.941477	0.000172	1.720233	0.291415	-0.000017
1176	1.1691e+02	8.3041	12.919480	0.000221	2.211728	0.374677	-0.000022
1177	1.1701e+02	8.2920	12.902779	0.000168	1.679275	0.284477	-0.000017
1178	1.1711e+02	8.2837	12.879153	0.000238	2.375560	0.402431	-0.000024
1179	1.1721e+02	8.2727	12.860823	0.000184	1.843107	0.312231	-0.000018
1180	1.1731e+02	8.2632	12.839641	0.000213	2.129812	0.360800	-0.000021
1181	1.1741e+02	8.2551	12.817237	0.000225	2.252686	0.381615	-0.000023
1182	1.1751e+02	8.2422	12.797277	0.000201	2.006938	0.339985	-0.000020
1183	1.1761e+02	8.2336	12.775688	0.000217	2.170770	0.367738	-0.000022
1184	1.1771e+02	8.2270	12.755321	0.000205	2.047896	0.346923	-0.000020
1185	1.1781e+02	8.2133	12.738620	0.000168	1.679275	0.284477	-0.000017
1186	1.1791e+02	8.2073	12.715401	0.000233	2.334602	0.395492	-0.000023
1187	1.1801e+02	8.1951	12.693812	0.000217	2.170770	0.367738	-0.000022
1188	1.1811e+02	8.1840	12.677519	0.000164	1.638317	0.277538	-0.000016
1189	1.1821e+02	8.1759	12.657559	0.000201	2.006938	0.339985	-0.000020
1190	1.1831e+02	8.1668	12.633526	0.000242	2.416518	0.409369	-0.000024
1191	1.1841e+02	8.1528	12.618047	0.000156	1.556401	0.263661	-0.000016
1192	1.1850e+02	8.1441	12.594013	0.000242	2.416518	0.409369	-0.000024
1193	1.1860e+02	8.1313	12.576090	0.000180	1.802149	0.305292	-0.000018
1194	1.1870e+02	8.1300	12.556130	0.000201	2.006938	0.339985	-0.000020
1195	1.1880e+02	8.1153	12.530875	0.000254	2.539391	0.430185	-0.000025
1196	1.1890e+02	8.1057	12.510101	0.000209	2.088854	0.353861	-0.000021
1197	1.1900e+02	8.0947	12.488512	0.000217	2.170770	0.367738	-0.000022
1198	1.1910e+02	8.0847	12.471811	0.000168	1.679275	0.284477	-0.000017
1199	1.1920e+02	8.0739	12.448185	0.000238	2.375560	0.402431	-0.000024
1200	1.1930e+02	8.0626	12.430262	0.000180	1.802149	0.305292	-0.000018
1201	1.1940e+02	8.0553	12.407858	0.000225	2.252686	0.381615	-0.000023
1202	1.1950e+02	8.0470	12.389527	0.000184	1.843107	0.312231	-0.000018
1203	1.1960e+02	8.0371	12.370382	0.000193	1.925022	0.326108	-0.000019
1204	1.1970e+02	8.0271	12.356533	0.000139	1.392569	0.235908	-0.000014
1205	1.1980e+02	8.0176	12.338202	0.000184	1.843107	0.312231	-0.000018
1206	1.1990e+02	8.0030	12.320279	0.000180	1.802149	0.305292	-0.000018
1207	1.2000e+02	7.9960	12.300727	0.000197	1.965980	0.333046	-0.000020
1208	1.2010e+02	7.9834	12.282804	0.000180	1.802149	0.305292	-0.000018
1209	1.2020e+02	7.9725	12.261214	0.000217	2.170770	0.367738	-0.000022
1210	1.2030e+02	7.9653	12.244106	0.000172	1.720233	0.291415	-0.000017
1211	1.2039e+02	7.9536	12.229442	0.000147	1.474485	0.249785	-0.000015
1212	1.2049e+02	7.9443	12.206631	0.000229	2.293644	0.388554	-0.000023
1213	1.2059e+02	7.9352	12.189930	0.000168	1.679275	0.284477	-0.000017
1214	1.2069e+02	7.9245	12.171599	0.000184	1.843107	0.312231	-0.000018
1215	1.2079e+02	7.9179	12.153676	0.000180	1.802149	0.305292	-0.000018
1216	1.2089e+02	7.9062	12.139826	0.000139	1.392569	0.235908	-0.000014
1217	1.2099e+02	7.8948	12.114978	0.000250	2.498433	0.423246	-0.000025
1218	1.2109e+02	7.8850	12.099499	0.000156	1.556401	0.263661	-0.000016
1219	1.2119e+02	7.8762	12.081169	0.000184	1.843107	0.312231	-0.000018
1220	1.2129e+02	7.8687	12.064468	0.000168	1.679275	0.284477	-0.000017
1221	1.2139e+02	7.8555	12.045323	0.000193	1.925022	0.326108	-0.000019
1222	1.2149e+02	7.8443	12.021290	0.000242	2.416518	0.409369	-0.000024
1223	1.2159e+02	7.8345	12.000923	0.000205	2.047896	0.346923	-0.000020
1224	1.2169e+02	7.8243	11.983000	0.000180	1.802149	0.305292	-0.000018
1225	1.2179e+02	7.8176	11.959781	0.000233	2.334602	0.395492	-0.000023
1226	1.2189e+02	7.8084	11.938192	0.000217	2.170770	0.367738	-0.000022
1227	1.2199e+02	7.7962	11.913751	0.000246	2.457476	0.416308	-0.000025
1228	1.2209e+02	7.7856	11.898680	0.000152	1.515443	0.256723	-0.000015
1229	1.2219e+02	7.7759	11.867314	0.000315	3.153760	0.534261	-0.000032
1230	1.2229e+02	7.7663	11.852650	0.000147	1.474485	0.249785	-0.000015
1231	1.2239e+02	7.7566	11.827395	0.000254	2.539391	0.430185	-0.000025
1232	1.2248e+02	7.7468	11.802954	0.000246	2.457476	0.416308	-0.000025
1233	1.2258e+02	7.7389	11.780958	0.000221	2.211728	0.374677	-0.000022
1234	1.2268e+02	7.7256	11.758554	0.000225	2.252686	0.381615	-0.000023
1235	1.2278e+02	7.7148	11.737779	0.000209	2.088854	0.353861	-0.000021
1236	1.2288e+02	7.7072	11.716597	0.000213	2.129812	0.360800	-0.000021
1237	1.2298e+02	7.6958	11.690935	0.000258	2.580349	0.437123	-0.000026
1238	1.2308e+02	7.6868	11.670568	0.000205	2.047896	0.346923	-0.000020
1239	1.2318e+02	7.6791	11.645313	0.000254	2.539391	0.430185	-0.000025
1240	1.2328e+02	7.6685	11.622909	0.000225	2.252686	0.381615	-0.000023
1241	1.2338e+02	7.6585	11.599690	0.000233	2.334602	0.395492	-0.000023
1242	1.2348e+02	7.6441	11.577694	0.000221	2.211728	0.374677	-0.000022
1243	1.2358e+02	7.6362	11.550809	0.000270	2.703223	0.457938	-0.000027
1244	1.2368e+02	7.6266	11.530035	0.000209	2.088854	0.353861	-0.000021
1245	1.2378e+02	7.6167	11.506409	0.000238	2.375560	0.402431	-0.000024
1246	1.2388e+02	7.6052	11.481968	0.000246	2.457476	0.416308	-0.000025
1247	1.2398e+02	7.5980	11.462416	0.000197	1.965980	0.333046	-0.000020
1248	1.2408e+02	7.5853	11.438790	0.000238	2.375560	0.402431	-0.000024
1249	1.2418e+02	7.5775	11.412313	0.000266	2.662265	0.451000	-0.000027
1250	1.2428e+02	7.5689	11.393575	0.000188	1.884065	0.319169	-0.000019
1251	1.2438e+02	7.5567	11.367912	0.000258	2.580349	0.437123	-0.000026
1252	1.2447e+02	7.5473	11.346323	0.000217	2.170770	0.367738	-0.000022
1253	1.2457e+02	7.5359	11.322697	0.000238	2.375560	0.402431	-0.000024
1254	1.2467e+02	7.5278	11.299886	0.000229	2.293644	0.388554	-0.000023
1255	1.2477e+02	7.5188	11.277482	0.000225	2.252686	0.381615	-0.000023
1256	1.2487e+02	7.5081	11.247746	0.000299	2.989929	0.506508	-0.000030
1257	1.2497e+02	7.4963	11.222898	0.000250	2.498433	0.423246	-0.000025
1258	1.2507e+02	7.4910	11.199272	0.000238	2.375560	0.402431	-0.000024
1259	1.2517e+02	7.4805	11.174425	0.000250	2.498433	0.423246	-0.000025
1260	1.2527e+02	7.4696	11.147133	0.000274	2.744181	0.464877	-0.000027
1261	1.2537e+02	7.4594	11.125136	0.000221	2.211728	0.374677	-0.000022
1262	1.2547e+02	7.4474	11.099066	0.000262	2.621307	0.444061	-0.000026
1263	1.2557e+02	7.4414	11.076662	0.000225	2.252686	0.381615	-0.000023
1264	1.2567e+02	7.4303	11.054258	0.000225	2.252686	0.381615	-0.000023
1265	1.2577e+02	7.4226	11.027781	0.000266	2.662265	0.451000	-0.000027
1266	1.2587e+02	7.4081	11.005785	0.000221	2.211728	0.374677	-0.000022
1267	1.2597e+02	7.3975	10.981752	0.000242	2.416518	0.409369	-0.000024
1268	1.2607e+02	7.3878	10.955274	0.000266	2.662265	0.451000	-0.000027
1269	1.2617e+02	7.3759	10.930019	0.000254	2.539391	0.430185	-0.000025
1270	1.2627e+02	7.3694	10.905171	0.000250	2.498433	0.423246	-0.000025
1271	1.2636e+02	7.3605	10.877879	0.000274	2.744181	0.464877	-0.000027
1272	1.2646e+02	7.3478	10.855475	0.000225	2.252686	0.381615	-0.000023
1273	1.2656e+02	7.3389	10.829405	0.000262	2.621307	0.444061	-0.000026
1274	1.2666e+02	7.3328	10.804965	0.000246	2.457476	0.416308	-0.000025
1275	1.2676e+02	7.3186	10.779302	0.000258	2.580349	0.437123	-0.000026
1276	1.2686e+02	7.3098	10.752010	0.000274	2.744181	0.464877	-0.000027
1277	1.2696e+02	7.2985	10.730014	0.000221	2.211728	0.374677	-0.000022
1278	1.2706e+02	7.2862	10.706795	0.000233	2.334602	0.395492	-0.000023
1279	1.2716e+02	7.2790	10.682355	0.000246	2.457476	0.416308	-0.000025
1280	1.2726e+02	7.2672	10.659951	0.000225	2.252686	0.381615	-0.000023
1281	1.2736e+02	7.2594	10.634288	0.000258	2.580349	0.437123	-0.000026
1282	1.2746e+02	7.2478	10.611070	0.000233	2.334602	0.395492	-0.000023
1283	1.2756e+02	7.2387	10.583778	0.000274	2.744181	0.464877	-0.000027
1284	1.2766e+02	7.2292	10.556079	0.000279	2.785139	0.471815	-0.000028
1285	1.2776e+02	7.2173	10.535304	0.000209	2.088854	0.353861	-0.000021
1286	1.2786e+02	7.2099	10.510049	0.000254	2.539391	0.430185	-0.000025
1287	1.2796e+02	7.1982	10.478276	0.000319	3.194718	0.541200	-0.000032
1288	1.2806e+02	7.1902	10.448540	0.000299	2.989929	0.506508	-0.000030
1289	1.2816e+02	7.1832	10.418397	0.000303	3.030886	0.513446	-0.000030
1290	1.2826e+02	7.1682	10.392734	0.000258	2.580349	0.437123	-0.000026
1291	1.2835e+02	7.1625	10.365442	0.000274	2.744181	0.464877	-0.000027
1292	1.2845e+02	7.1490	10.337743	0.000279	2.785139	0.471815	-0.000028
1293	1.2855e+02	7.1387	10.310858	0.000270	2.703223	0.457938	-0.000027
1294	1.2865e+02	7.1313	10.281937	0.000291	2.908013	0.492631	-0.000029
1295	1.2875e+02	7.1187	10.253830	0.000283	2.826097	0.478754	-0.000028
1296	1.2885e+02	7.1117	10.233463	0.000205	2.047896	0.346923	-0.000020
1297	1.2895e+02	7.0982	10.204135	0.000295	2.948971	0.499569	-0.000029
1298	1.2905e+02	7.0900	10.173991	0.000303	3.030886	0.513446	-0.000030
1299	1.2915e+02	7.0804	10.143033	0.000311	3.112802	0.527323	-0.000031
1300	1.2925e+02	7.0715	10.116149	0.000270	2.703223	0.457938	-0.000027
1301	1.2935e+02	7.0608	10.084783	0.000315	3.153760	0.534261	-0.000032
1302	1.2945e+02	7.0504	10.061565	0.000233	2.334602	0.395492	-0.000023
1303	1.2955e+02	7.0406	10.031014	0.000307	3.071844	0.520385	-0.000031
1304	1.2965e+02	7.0300	10.002907	0.000283	2.826097	0.478754	-0.000028
1305	1.2975e+02	7.0187	9.979281	0.000238	2.375560	0.402431	-0.000024
1306	1.2985e+02	7.0107	9.951582	0.000279	2.785139	0.471815	-0.000028
1307	1.2995e+02	7.0012	9.927956	0.000238	2.375560	0.402431	-0.000024
1308	1.3005e+02	6.9886	9.903923	0.000242	2.416518	0.409369	-0.000024
1309	1.3015e+02	6.9801	9.875816	0.000283	2.826097	0.478754	-0.000028
1310	1.3025e+02	6.9723	9.854227	0.000217	2.170770	0.367738	-0.000022
1311	1.3034e+02	6.9593	9.826121	0.000283	2.826097	0.478754	-0.000028
1312	1.3044e+02	6.9514	9.800865	0.000254	2.539391	0.430185	-0.000025
1313	1.3054e+02	6.9399	9.776425	0.000246	2.457476	0.416308	-0.000025
1314	1.3064e+02	6.9332	9.750355	0.000262	2.621307	0.444061	-0.000026
1315	1.3074e+02	6.9201	9.728766	0.000217	2.170770	0.367738	-0.000022
1316	1.3084e+02	6.9120	9.705140	0.000238	2.375560	0.402431	-0.000024
1317	1.3094e+02	6.9007	9.680292	0.000250	2.498433	0.423246	-0.000025
1318	1.3104e+02	6.8909	9.658296	0.000221	2.211728	0.374677	-0.000022
1319	1.3114e+02	6.8816	9.635077	0.000233	2.334602	0.395492	-0.000023
1320	1.3124e+02	6.8714	9.609822	0.000254	2.539391	0.430185	-0.000025
1321	1.3134e+02	6.8593	9.580900	0.000291	2.908013	0.492631	-0.000029
1322	1.3144e+02	6.8516	9.556460	0.000246	2.457476	0.416308	-0.000025
1323	1.3154e+02	6.8417	9.530390	0.000262	2.621307	0.444061	-0.000026
1324	1.3164e+02	6.8327	9.508801	0.000217	2.170770	0.367738	-0.000022
1325	1.3174e+02	6.8199	9.479880	0.000291	2.908013	0.492631	-0.000029
1326	1.3184e+02	6.8082	9.456254	0.000238	2.375560	0.402431	-0.000024
1327	1.3194e+02	6.8020	9.436294	0.000201	2.006938	0.339985	-0.000020
1328	1.3204e+02	6.7888	9.412261	0.000242	2.416518	0.409369	-0.000024
1329	1.3214e+02	6.7790	9.385783	0.000266	2.662265	0.451000	-0.000027
1330	1.3224e+02	6.7701	9.363787	0.000221	2.211728	0.374677	-0.000022
1331	1.3234e+02	6.7608	9.337717	0.000262	2.621307	0.444061	-0.000026
1332	1.3243e+02	6.7495	9.317757	0.000201	2.006938	0.339985	-0.000020
1333	1.3253e+02	6.7410	9.292909	0.000250	2.498433	0.423246	-0.000025
1334	1.3263e+02	6.7320	9.267654	0.000254	2.539391	0.430185	-0.000025
1335	1.3273e+02	6.7244	9.241584	0.000262	2.621307	0.444061	-0.000026
1336	1.3283e+02	6.7124	9.220402	0.000213	2.129812	0.360800	-0.000021
1337	1.3293e+02	6.7030	9.193925	0.000266	2.662265	0.451000	-0.000027
1338	1.3303e+02	6.6902	9.170707	0.000233	2.334602	0.395492	-0.000023
1339	1.3313e+02	6.6804	9.147895	0.000229	2.293644	0.388554	-0.000023
1340	1.3323e+02	6.6715	9.124269	0.000238	2.375560	0.402431	-0.000024
1341	1.3333e+02	6.6622	9.102273	0.000221	2.211728	0.374677	-0.000022
1342	1.3343e+02	6.6529	9.077425	0.000250	2.498433	0.423246	-0.000025
1343	1.3353e+02	6.6445	9.056243	0.000213	2.129812	0.360800	-0.000021
1344	1.3363e+02	6.6329	9.033025	0.000233	2.334602	0.395492	-0.000023
1345	1.3373e+02	6.6239	9.013880	0.000193	1.925022	0.326108	-0.000019
1346	1.3383e+02	6.6122	8.984958	0.000291	2.908013	0.492631	-0.000029
1347	1.3393e+02	6.6003	8.966221	0.000188	1.884065	0.319169	-0.000019
1348	1.3403e+02	6.5901	8.938114	0.000283	2.826097	0.478754	-0.000028
1349	1.3413e+02	6.5816	8.912859	0.000254	2.539391	0.430185	-0.000025
1350	1.3423e+02	6.5722	8.891677	0.000213	2.129812	0.360800	-0.000021
1351	1.3432e+02	6.5627	8.867236	0.000246	2.457476	0.416308	-0.000025
1352	1.3442e+02	6.5518	8.841981	0.000254	2.539391	0.430185	-0.000025
1353	1.3452e+02	6.5443	8.817541	0.000246	2.457476	0.416308	-0.000025
1354	1.3462e+02	6.5347	8.795951	0.000217	2.170770	0.367738	-0.000022
1355	1.3472e+02	6.5223	8.769881	0.000262	2.621307	0.444061	-0.000026
1356	1.3482e+02	6.5125	8.745441	0.000246	2.457476	0.416308	-0.000025
1357	1.3492e+02	6.5064	8.723852	0.000217	2.170770	0.367738	-0.000022
1358	1.3502e+02	6.4929	8.697374	0.000266	2.662265	0.451000	-0.000027
1359	1.3512e+02	6.4839	8.675378	0.000221	2.211728	0.374677	-0.000022
1360	1.3522e+02	6.4719	8.650937	0.000246	2.457476	0.416308	-0.000025
1361	1.3532e+02	6.4634	8.624868	0.000262	2.621307	0.444061	-0.000026
1362	1.3542e+02	6.4532	8.604908	0.000201	2.006938	0.339985	-0.000020
1363	1.3552e+02	6.4442	8.578023	0.000270	2.703223	0.457938	-0.000027
1364	1.3562e+02	6.4341	8.557249	0.000209	2.088854	0.353861	-0.000021
1365	1.3572e+02	6.4214	8.530364	0.000270	2.703223	0.457938	-0.000027
1366	1.3582e+02	6.4160	8.505923	0.000246	2.457476	0.416308	-0.000025
1367	1.3592e+02	6.4066	8.481076	0.000250	2.498433	0.423246	-0.000025
1368	1.3602e+02	6.3918	8.459486	0.000217	2.170770	0.367738	-0.000022
1369	1.3612e+02	6.3819	8.436268	0.000233	2.334602	0.395492	-0.000023
1370	1.3622e+02	6.3726	8.413457	0.000229	2.293644	0.388554	-0.000023
1371	1.3631e+02	6.3625	8.396756	0.000168	1.679275	0.284477	-0.000017
1372	1.3641e+02	6.3537	8.371500	0.000254	2.539391	0.430185	-0.000025
1373	1.3651e+02	6.3413	8.351541	0.000201	2.006938	0.339985	-0.000020
1374	1.3661e+02	6.3328	8.329544	0.000221	2.211728	0.374677	-0.000022
1375	1.3671e+02	6.3235	8.308362	0.000213	2.129812	0.360800	-0.000021
1376	1.3681e+02	6.3165	8.289217	0.000193	1.925022	0.326108	-0.000019
1377	1.3691e+02	6.3018	8.265999	0.000233	2.334602	0.395492	-0.000023
1378	1.3701e+02	6.2936	8.243595	0.000225	2.252686	0.381615	-0.000023
1379	1.3711e+02	6.2843	8.222006	0.000217	2.170770	0.367738	-0.000022
1380	1.3721e+02	6.2749	8.196750	0.000254	2.539391	0.430185	-0.000025
1381	1.3731e+02	6.2657	8.178420	0.000184	1.843107	0.312231	-0.000018
1382	1.3741e+02	6.2528	8.157238	0.000213	2.129812	0.360800	-0.000021
1383	1.3751e+02	6.2438	8.139315	0.000180	1.802149	0.305292	-0.000018
1384	1.3761e+02	6.2353	8.115689	0.000238	2.375560	0.402431	-0.000024
1385	1.3771e+02	6.2235	8.096137	0.000197	1.965980	0.333046	-0.000020
1386	1.3781e+02	6.2151	8.073733	0.000225	2.252686	0.381615	-0.000023
1387	1.3791e+02	6.2046	8.050922	0.000229	2.293644	0.388554	-0.000023
1388	1.3801e+02	6.1963	8.028518	0.000225	2.252686	0.381615	-0.000023
1389	1.3811e+02	6.1839	8.006522	0.000221	2.211728	0.374677	-0.000022
1390	1.3821e+02	6.1744	7.979230	0.000274	2.744181	0.464877	-0.000027
1391	1.3831e+02	6.1628	7.953974	0.000254	2.539391	0.430185	-0.000025
1392	1.3840e+02	6.1569	7.930756	0.000233	2.334602	0.395492	-0.000023
1393	1.3850e+02	6.1433	7.903464	0.000274	2.744181	0.464877	-0.000027
1394	1.3860e+02	6.1346	7.881060	0.000225	2.252686	0.381615	-0.000023
1395	1.3870e+02	6.1249	7.856212	0.000250	2.498433	0.423246	-0.000025
1396	1.3880e+02	6.1182	7.829735	0.000266	2.662265	0.451000	-0.000027
1397	1.3890e+02	6.1049	7.802443	0.000274	2.744181	0.464877	-0.000027
1398	1.3900e+02	6.0958	7.776780	0.000258	2.580349	0.437123	-0.000026
1399	1.3910e+02	6.0857	7.751525	0.000254	2.539391	0.430185	-0.000025
1400	1.3920e+02	6.0726	7.727085	0.000246	2.457476	0.416308	-0.000025
1401	1.3930e+02	6.0686	7.699793	0.000274	2.744181	0.464877	-0.000027
1402	1.3940e+02	6.0543	7.674130	0.000258	2.580349	0.437123	-0.000026
1403	1.3950e+02	6.0464	7.652134	0.000221	2.211728	0.374677	-0.000022
1404	1.3960e+02	6.0326	7.624027	0.000283	2.826097	0.478754	-0.000028
1405	1.3970e+02	6.0242	7.598772	0.000254	2.539391	0.430185	-0.000025
1406	1.3980e+02	6.0151	7.570665	0.000283	2.826097	0.478754	-0.000028
1407	1.3990e+02	6.0037	7.546632	0.000242	2.416518	0.409369	-0.000024
1408	1.4000e+02	5.9972	7.520969	0.000258	2.580349	0.437123	-0.000026
1409	1.4010e+02	5.9847	7.491233	0.000299	2.989929	0.506508	-0.000030
1410	1.4020e+02	5.9774	7.463534	0.000279	2.785139	0.471815	-0.000028
1411	1.4029e+02	5.9663	7.435020	0.000287	2.867055	0.485692	-0.000029
1412	1.4039e+02	5.9566	7.413431	0.000217	2.170770	0.367738	-0.000022
1413	1.4049e+02	5.9460	7.385731	0.000279	2.785139	0.471815	-0.000028
1414	1.4059e+02	5.9389	7.354366	0.000315	3.153760	0.534261	-0.000032
1415	1.4069e+02	5.9251	7.332777	0.000217	2.170770	0.367738	-0.000022
1416	1.4079e+02	5.9161	7.303448	0.000295	2.948971	0.499569	-0.000029
1417	1.4089e+02	5.9062	7.276156	0.000274	2.744181	0.464877	-0.000027
1418	1.4099e+02	5.8949	7.252123	0.000242	2.416518	0.409369	-0.000024
1419	1.4109e+02	5.8843	7.226461	0.000258	2.580349	0.437123	-0.000026
1420	1.4119e+02	5.8774	7.197132	0.000295	2.948971	0.499569	-0.000029
1421	1.4129e+02	5.8664	7.167803	0.000295	2.948971	0.499569	-0.000029
1422	1.4139e+02	5.8570	7.139697	0.000283	2.826097	0.478754	-0.000028
1423	1.4149e+02	5.8483	7.112405	0.000274	2.744181	0.464877	-0.000027
1424	1.4159e+02	5.8373	7.089593	0.000229	2.293644	0.388554	-0.000023
1425	1.4169e+02	5.8282	7.057821	0.000319	3.194718	0.541200	-0.000032
1426	1.4179e+02	5.8183	7.030121	0.000279	2.785139	0.471815	-0.000028
1427	1.4189e+02	5.8052	7.002829	0.000274	2.744181	0.464877	-0.000027
1428	1.4199e+02	5.7951	6.972686	0.000303	3.030886	0.513446	-0.000030
1429	1.4209e+02	5.7850	6.944579	0.000283	2.826097	0.478754	-0.000028
1430	1.4219e+02	5.7769	6.918102	0.000266	2.662265	0.451000	-0.000027
1431	1.4228e+02	5.7682	6.888366	0.000299	2.989929	0.506508	-0.000030
1432	1.4238e+02	5.7549	6.861482	0.000270	2.703223	0.457938	-0.000027
1433	1.4248e+02	5.7458	6.836226	0.000254	2.539391	0.430185	-0.000025
1434	1.4258e+02	5.7373	6.808120	0.000283	2.826097	0.478754	-0.000028
1435	1.4268e+02	5.7273	6.780013	0.000283	2.826097	0.478754	-0.000028
1436	1.4278e+02	5.7178	6.749055	0.000311	3.112802	0.527323	-0.000031
1437	1.4288e+02	5.7072	6.723800	0.000254	2.539391	0.430185	-0.000025
1438	1.4298e+02	5.6998	6.693656	0.000303	3.030886	0.513446	-0.000030
1439	1.4308e+02	5.6899	6.668401	0.000254	2.539391	0.430185	-0.000025
1440	1.4318e+02	5.6808	6.638665	0.000299	2.989929	0.506508	-0.000030
1441	1.4328e+02	5.6676	6.609744	0.000291	2.908013	0.492631	-0.000029
1442	1.4338e+02	5.6579	6.577971	0.000319	3.194718	0.541200	-0.000032
1443	1.4348e+02	5.6495	6.551087	0.000270	2.703223	0.457938	-0.000027
1444	1.4358e+02	5.6373	6.522573	0.000287	2.867055	0.485692	-0.000029
1445	1.4368e+02	5.6264	6.498132	0.000246	2.457476	0.416308	-0.000025
1446	1.4378e+02	5.6191	6.467989	0.000303	3.030886	0.513446	-0.000030
1447	1.4388e+02	5.6080	6.443141	0.000250	2.498433	0.423246	-0.000025
1448	1.4398e+02	5.5972	6.415034	0.000283	2.826097	0.478754	-0.000028
1449	1.4408e+02	5.5872	6.385298	0.000299	2.989929	0.506508	-0.000030
1450	1.4418e+02	5.5770	6.360043	0.000254	2.539391	0.430185	-0.000025
1451	1.4428e+02	5.5694	6.328270	0.000319	3.194718	0.541200	-0.000032
1452	1.4437e+02	5.5569	6.299756	0.000287	2.867055	0.485692	-0.000029
1453	1.4447e+02	5.5473	6.268391	0.000315	3.153760	0.534261	-0.000032
1454	1.4457e+02	5.5349	6.239470	0.000291	2.908013	0.492631	-0.000029
1455	1.4467e+02	5.5248	6.208104	0.000315	3.153760	0.534261	-0.000032
1456	1.4477e+02	5.5190	6.175924	0.000324	3.235676	0.548138	-0.000032
1457	1.4487e+02	5.5080	6.142522	0.000336	3.358550	0.568954	-0.000034
1458	1.4497e+02	5.4952	6.109935	0.000328	3.276634	0.555077	-0.000033
1459	1.4507e+02	5.4871	6.078569	0.000315	3.153760	0.534261	-0.000032
1460	1.4517e+02	5.4769	6.050055	0.000287	2.867055	0.485692	-0.000029
1461	1.4527e+02	5.4669	6.017468	0.000328	3.276634	0.555077	-0.000033
1462	1.4537e+02	5.4590	5.987324	0.000303	3.030886	0.513446	-0.000030
1463	1.4547e+02	5.4492	5.957996	0.000295	2.948971	0.499569	-0.000029
1464	1.4557e+02	5.4375	5.927852	0.000303	3.030886	0.513446	-0.000030
1465	1.4567e+02	5.4305	5.894450	0.000336	3.358550	0.568954	-0.000034
1466	1.4577e+02	5.4207	5.859419	0.000352	3.522382	0.596708	-0.000035
1467	1.4587e+02	5.4096	5.826017	0.000336	3.358550	0.568954	-0.000034
1468	1.4597e+02	5.4002	5.799540	0.000266	2.662265	0.451000	-0.000027
1469	1.4607e+02	5.3907	5.764915	0.000348	3.481424	0.589769	-0.000035
1470	1.4617e+02	5.3814	5.735587	0.000295	2.948971	0.499569	-0.000029
1471	1.4626e+02	5.3680	5.703814	0.000319	3.194718	0.541200	-0.000032
1472	1.4636e+02	5.3589	5.672449	0.000315	3.153760	0.534261	-0.000032
1473	1.4646e+02	5.3463	5.643527	0.000291	2.908013	0.492631	-0.000029
1474	1.4656e+02	5.3364	5.615421	0.000283	2.826097	0.478754	-0.000028
1475	1.4666e+02	5.3274	5.585685	0.000299	2.989929	0.506508	-0.000030
1476	1.4676e+02	5.3188	5.557171	0.000287	2.867055	0.485692	-0.000029
1477	1.4686e+02	5.3077	5.528657	0.000287	2.867055	0.485692	-0.000029
1478	1.4696e+02	5.2989	5.502587	0.000262	2.621307	0.444061	-0.000026
1479	1.4706e+02	5.2895	5.472444	0.000303	3.030886	0.513446	-0.000030
1480	1.4716e+02	5.2814	5.443522	0.000291	2.908013	0.492631	-0.000029
1481	1.4726e+02	5.2697	5.416638	0.000270	2.703223	0.457938	-0.000027
1482	1.4736e+02	5.2598	5.386494	0.000303	3.030886	0.513446	-0.000030
1483	1.4746e+02	5.2497	5.357573	0.000291	2.908013	0.492631	-0.000029
1484	1.4756e+02	5.2378	5.328652	0.000291	2.908013	0.492631	-0.000029
1485	1.4766e+02	5.2312	5.301767	0.000270	2.703223	0.457938	-0.000027
1486	1.4776e+02	5.2169	5.274475	0.000274	2.744181	0.464877	-0.000027
1487	1.4786e+02	5.2106	5.247998	0.000266	2.662265	0.451000	-0.000027
1488	1.4796e+02	5.1987	5.218669	0.000295	2.948971	0.499569	-0.000029
1489	1.4806e+02	5.1904	5.193007	0.000258	2.580349	0.437123	-0.000026
1490	1.4816e+02	5.1788	5.159604	0.000336	3.358550	0.568954	-0.000034
1491	1.4825e+02	5.1694	5.135164	0.000246	2.457476	0.416308	-0.000025
1492	1.4835e+02	5.1608	5.108279	0.000270	2.703223	0.457938	-0.000027
1493	1.4845e+02	5.1496	5.081395	0.000270	2.703223	0.457938	-0.000027
1494	1.4855e+02	5.1398	5.048807	0.000328	3.276634	0.555077	-0.000033
1495	1.4865e+02	5.1311	5.023959	0.000250	2.498433	0.423246	-0.000025
1496	1.4875e+02	5.1194	4.992594	0.000315	3.153760	0.534261	-0.000032
1497	1.4885e+02	5.1074	4.969375	0.000233	2.334602	0.395492	-0.000023
1498	1.4895e+02	5.1002	4.941269	0.000283	2.826097	0.478754	-0.000028
1499	1.4905e+02	5.0917	4.913162	0.000283	2.826097	0.478754	-0.000028
1500	1.4915e+02	5.0767	4.883426	0.000299	2.989929	0.506508	-0.000030
1501	1.4925e+02	5.0703	4.855320	0.000283	2.826097	0.478754	-0.000028
1502	1.4935e+02	5.0599	4.828028	0.000274	2.744181	0.464877	-0.000027
1503	1.4945e+02	5.0485	4.801143	0.000270	2.703223	0.457938	-0.000027
1504	1.4955e+02	5.0381	4.773851	0.000274	2.744181	0.464877	-0.000027
1505	1.4965e+02	5.0292	4.746152	0.000279	2.785139	0.471815	-0.000028
1506	1.4975e+02	5.0167	4.716823	0.000295	2.948971	0.499569	-0.000029
1507	1.4985e+02	5.0121	4.691160	0.000258	2.580349	0.437123	-0.000026
1508	1.4995e+02	5.0031	4.664276	0.000270	2.703223	0.457938	-0.000027
1509	1.5005e+02	4.9928	4.639021	0.000254	2.539391	0.430185	-0.000025
1510	1.5015e+02	4.9801	4.611321	0.000279	2.785139	0.471815	-0.000028
1511	1.5025e+02	4.9696	4.583622	0.000279	2.785139	0.471815	-0.000028
1512	1.5034e+02	4.9596	4.556330	0.000274	2.744181	0.464877	-0.000027
1513	1.5044e+02	4.9483	4.528631	0.000279	2.785139	0.471815	-0.000028
1514	1.5054e+02	4.9412	4.498895	0.000299	2.989929	0.506508	-0.000030
1515	1.5064e+02	4.9352	4.472825	0.000262	2.621307	0.444061	-0.000026
1516	1.5074e+02	4.9204	4.445126	0.000279	2.785139	0.471815	-0.000028
1517	1.5084e+02	4.9105	4.419056	0.000262	2.621307	0.444061	-0.000026
1518	1.5094e+02	4.9033	4.390134	0.000291	2.908013	0.492631	-0.000029
1519	1.5104e+02	4.8920	4.365286	0.000250	2.498433	0.423246	-0.000025
1520	1.5114e+02	4.8805	4.334736	0.000307	3.071844	0.520385	-0.000031
1521	1.5124e+02	4.8743	4.307851	0.000270	2.703223	0.457938	-0.000027
1522	1.5134e+02	4.8623	4.281781	0.000262	2.621307	0.444061	-0.000026
1523	1.5144e+02	4.8513	4.252453	0.000295	2.948971	0.499569	-0.000029
1524	1.5154e+02	4.8417	4.227605	0.000250	2.498433	0.423246	-0.000025
1525	1.5164e+02	4.8345	4.197461	0.000303	3.030886	0.513446	-0.000030
1526	1.5174e+02	4.8214	4.174243	0.000233	2.334602	0.395492	-0.000023
1527	1.5184e+02	4.8125	4.146544	0.000279	2.785139	0.471815	-0.000028
1528	1.5194e+02	4.8016	4.114771	0.000319	3.194718	0.541200	-0.000032
1529	1.5204e+02	4.7960	4.087479	0.000274	2.744181	0.464877	-0.000027
1530	1.5214e+02	4.7803	4.061816	0.000258	2.580349	0.437123	-0.000026
1531	1.5224e+02	4.7706	4.029229	0.000328	3.276634	0.555077	-0.000033
1532	1.5233e+02	4.7588	4.003974	0.000254	2.539391	0.430185	-0.000025
1533	1.5243e+02	4.7500	3.975052	0.000291	2.908013	0.492631	-0.000029
1534	1.5253e+02	4.7422	3.945724	0.000295	2.948971	0.499569	-0.000029
1535	1.5263e+02	4.7301	3.915580	0.000303	3.030886	0.513446	-0.000030
1536	1.5273e+02	4.7230	3.893991	0.000217	2.170770	0.367738	-0.000022
1537	1.5283e+02	4.7131	3.865070	0.000291	2.908013	0.492631	-0.000029
1538	1.5293e+02	4.7018	3.839407	0.000258	2.580349	0.437123	-0.000026
1539	1.5303e+02	4.6920	3.816189	0.000233	2.334602	0.395492	-0.000023
1540	1.5313e+02	4.6811	3.792155	0.000242	2.416518	0.409369	-0.000024
1541	1.5323e+02	4.6724	3.766900	0.000254	2.539391	0.430185	-0.000025
1542	1.5333e+02	4.6637	3.739608	0.000274	2.744181	0.464877	-0.000027
1543	1.5343e+02	4.6521	3.717612	0.000221	2.211728	0.374677	-0.000022
1544	1.5353e+02	4.6436	3.691135	0.000266	2.662265	0.451000	-0.000027
1545	1.5363e+02	4.6316	3.663843	0.000274	2.744181	0.464877	-0.000027
1546	1.5373e+02	4.6218	3.637773	0.000262	2.621307	0.444061	-0.000026
1547	1.5383e+02	4.6134	3.610073	0.000279	2.785139	0.471815	-0.000028
1548	1.5393e+02	4.6032	3.586040	0.000242	2.416518	0.409369	-0.000024
1549	1.5403e+02	4.5939	3.561192	0.000250	2.498433	0.423246	-0.000025
1550	1.5413e+02	4.5815	3.535122	0.000262	2.621307	0.444061	-0.000026
1551	1.5422e+02	4.5722	3.512311	0.000229	2.293644	0.388554	-0.000023
1552	1.5432e+02	4.5635	3.484612	0.000279	2.785139	0.471815	-0.000028
1553	1.5442e+02	4.5513	3.461801	0.000229	2.293644	0.388554	-0.000023
1554	1.5452e+02	4.5414	3.436545	0.000254	2.539391	0.430185	-0.000025
1555	1.5462e+02	4.5317	3.408439	0.000283	2.826097	0.478754	-0.000028
1556	1.5472e+02	4.5217	3.377481	0.000311	3.112802	0.527323	-0.000031
1557	1.5482e+02	4.5142	3.353855	0.000238	2.375560	0.402431	-0.000024
1558	1.5492e+02	4.5020	3.320045	0.000340	3.399508	0.575892	-0.000034
1559	1.5502e+02	4.4929	3.293161	0.000270	2.703223	0.457938	-0.000027
1560	1.5512e+02	4.4834	3.266276	0.000270	2.703223	0.457938	-0.000027
1561	1.5522e+02	4.4714	3.240206	0.000262	2.621307	0.444061	-0.000026
1562	1.5532e+02	4.4598	3.205990	0.000344	3.440466	0.582831	-0.000034
1563	1.5542e+02	4.4521	3.176254	0.000299	2.989929	0.506508	-0.000030
1564	1.5552e+02	4.4427	3.145703	0.000307	3.071844	0.520385	-0.000031
1565	1.5562e+02	4.4328	3.118818	0.000270	2.703223	0.457938	-0.000027
1566	1.5572e+02	4.4228	3.092341	0.000266	2.662265	0.451000	-0.000027
1567	1.5582e+02	4.4128	3.059346	0.000332	3.317592	0.562015	-0.000033
1568	1.5592e+02	4.4015	3.031647	0.000279	2.785139	0.471815	-0.000028
1569	1.5602e+02	4.3929	3.002318	0.000295	2.948971	0.499569	-0.000029
1570	1.5612e+02	4.3842	2.969731	0.000328	3.276634	0.555077	-0.000033
1571	1.5622e+02	4.3738	2.939588	0.000303	3.030886	0.513446	-0.000030
1572	1.5631e+02	4.3630	2.910259	0.000295	2.948971	0.499569	-0.000029
1573	1.5641e+02	4.3507	2.881338	0.000291	2.908013	0.492631	-0.000029
1574	1.5651e+02	4.3437	2.849157	0.000324	3.235676	0.548138	-0.000032
1575	1.5661e+02	4.3343	2.820643	0.000287	2.867055	0.485692	-0.000029
1576	1.5671e+02	4.3235	2.790500	0.000303	3.030886	0.513446	-0.000030
1577	1.5681e+02	4.3111	2.761579	0.000291	2.908013	0.492631	-0.000029
1578	1.5691e+02	4.3056	2.730621	0.000311	3.112802	0.527323	-0.000031
1579	1.5701e+02	4.2950	2.700477	0.000303	3.030886	0.513446	-0.000030
1580	1.5711e+02	4.2834	2.669112	0.000315	3.153760	0.534261	-0.000032
1581	1.5721e+02	4.2761	2.638154	0.000311	3.112802	0.527323	-0.000031
1582	1.5731e+02	4.2645	2.605159	0.000332	3.317592	0.562015	-0.000033
1583	1.5741e+02	4.2567	2.573387	0.000319	3.194718	0.541200	-0.000032
1584	1.5751e+02	4.2440	2.542836	0.000307	3.071844	0.520385	-0.000031
1585	1.5761e+02	4.2330	2.511471	0.000315	3.153760	0.534261	-0.000032
1586	1.5771e+02	4.2248	2.478883	0.000328	3.276634	0.555077	-0.000033
1587	1.5781e+02	4.2142	2.448332	0.000307	3.071844	0.520385	-0.000031
1588	1.5791e+02	4.2073	2.415745	0.000328	3.276634	0.555077	-0.000033
1589	1.5801e+02	4.1937	2.385602	0.000303	3.030886	0.513446	-0.000030
1590	1.5811e+02	4.1859	2.355458	0.000303	3.030886	0.513446	-0.000030
1591	1.5821e+02	4.1779	2.326537	0.000291	2.908013	0.492631	-0.000029
1592	1.5830e+02	4.1631	2.290691	0.000360	3.604297	0.610585	-0.000036
1593	1.5840e+02	4.1566	2.260955	0.000299	2.989929	0.506508	-0.000030
1594	1.5850e+02	4.1428	2.227145	0.000340	3.399508	0.575892	-0.000034
1595	1.5860e+02	4.1322	2.194965	0.000324	3.235676	0.548138	-0.000032
1596	1.5870e+02	4.1244	2.159119	0.000360	3.604297	0.610585	-0.000036
1597	1.5880e+02	4.1153	2.130198	0.000291	2.908013	0.492631	-0.000029
1598	1.5890e+02	4.1058	2.097203	0.000332	3.317592	0.562015	-0.000033
1599	1.5900e+02	4.0954	2.062986	0.000344	3.440466	0.582831	-0.000034
1600	1.5910e+02	4.0840	2.032436	0.000307	3.071844	0.520385	-0.000031
1601	1.5920e+02	4.0763	2.001070	0.000315	3.153760	0.534261	-0.000032
1602	1.5930e+02	4.0632	1.968890	0.000324	3.235676	0.548138	-0.000032
1603	1.5940e+02	4.0565	1.938747	0.000303	3.030886	0.513446	-0.000030
1604	1.5950e+02	4.0453	1.903715	0.000352	3.522382	0.596708	-0.000035
1605	1.5960e+02	4.0382	1.872350	0.000315	3.153760	0.534261	-0.000032
1606	1.5970e+02	4.0270	1.840985	0.000315	3.153760	0.534261	-0.000032
1607	1.5980e+02	4.0167	1.805953	0.000352	3.522382	0.596708	-0.000035
1608	1.5990e+02	4.0078	1.772144	0.000340	3.399508	0.575892	-0.000034
1609	1.6000e+02	3.9966	1.740778	0.000315	3.153760	0.534261	-0.000032
1610	1.6010e+02	3.9880	1.706562	0.000344	3.440466	0.582831	-0.000034
1611	1.6019e+02	3.9771	1.675604	0.000311	3.112802	0.527323	-0.000031
1612	1.6029e+02	3.9661	1.645053	0.000307	3.071844	0.520385	-0.000031
1613	1.6039e+02	3.9553	1.609614	0.000356	3.563340	0.603646	-0.000036
1614	1.6049e+02	3.9425	1.579471	0.000303	3.030886	0.513446	-0.000030
1615	1.6059e+02	3.9344	1.549735	0.000299	2.989929	0.506508	-0.000030
1616	1.6069e+02	3.9256	1.518777	0.000311	3.112802	0.527323	-0.000031
1617	1.6079e+02	3.9162	1.482931	0.000360	3.604297	0.610585	-0.000036
1618	1.6089e+02	3.9048	1.448306	0.000348	3.481424	0.589769	-0.000035
1619	1.6099e+02	3.8966	1.415312	0.000332	3.317592	0.562015	-0.000033
1620	1.6109e+02	3.8879	1.381910	0.000336	3.358550	0.568954	-0.000034
1621	1.6119e+02	3.8790	1.348100	0.000340	3.399508	0.575892	-0.000034
1622	1.6129e+02	3.8654	1.315920	0.000324	3.235676	0.548138	-0.000032
1623	1.6139e+02	3.8555	1.276408	0.000397	3.972919	0.673031	-0.000040
1624	1.6149e+02	3.8448	1.238118	0.000385	3.850045	0.652215	-0.000038
1625	1.6159e+02	3.8351	1.205938	0.000324	3.235676	0.548138	-0.000032
1626	1.6169e+02	3.8268	1.167647	0.000385	3.850045	0.652215	-0.000038
1627	1.6179e+02	3.8149	1.133838	0.000340	3.399508	0.575892	-0.000034
1628	1.6189e+02	3.8057	1.098807	0.000352	3.522382	0.596708	-0.000035
1629	1.6199e+02	3.7972	1.061331	0.000377	3.768129	0.638338	-0.000038
1630	1.6209e+02	3.7856	1.025892	0.000356	3.563340	0.603646	-0.000036
1631	1.6219e+02	3.7782	0.993305	0.000328	3.276634	0.555077	-0.000033
1632	1.6228e+02	3.7659	0.957459	0.000360	3.604297	0.610585	-0.000036
1633	1.6238e+02	3.7572	0.922427	0.000352	3.522382	0.596708	-0.000035
1634	1.6248e+02	3.7482	0.882100	0.000405	4.054835	0.686908	-0.000041
1635	1.6258e+02	3.7369	0.843403	0.000389	3.891003	0.659154	-0.000039
1636	1.6268e+02	3.7291	0.808371	0.000352	3.522382	0.596708	-0.000035
1637	1.6278e+02	3.7179	0.773747	0.000348	3.481424	0.589769	-0.000035
1638	1.6288e+02	3.7077	0.739530	0.000344	3.440466	0.582831	-0.000034
1639	1.6298e+02	3.6991	0.703684	0.000360	3.604297	0.610585	-0.000036
1640	1.6308e+02	3.6861	0.665394	0.000385	3.850045	0.652215	-0.000038
1641	1.6318e+02	3.6792	0.636880	0.000287	2.867055	0.485692	-0.000029
1642	1.6328e+02	3.6713	0.598183	0.000389	3.891003	0.659154	-0.000039
1643	1.6338e+02	3.6564	0.569261	0.000291	2.908013	0.492631	-0.000029
1644	1.6348e+02	3.6476	0.532600	0.000369	3.686213	0.624461	-0.000037
1645	1.6358e+02	3.6401	0.500420	0.000324	3.235676	0.548138	-0.000032
1646	1.6368e+02	3.6271	0.471092	0.000295	2.948971	0.499569	-0.000029
1647	1.6378e+02	3.6163	0.437690	0.000336	3.358550	0.568954	-0.000034
1648	1.6388e+02	3.6080	0.402658	0.000352	3.522382	0.596708	-0.000035
1649	1.6398e+02	3.5970	0.369256	0.000336	3.358550	0.568954	-0.000034
1650	1.6408e+02	3.5879	0.339927	0.000295	2.948971	0.499569	-0.000029
1651	1.6418e+02	3.5812	0.308562	0.000315	3.153760	0.534261	-0.000032
1652	1.6427e+02	3.5693	0.272308	0.000365	3.645255	0.617523	-0.000036
1653	1.6437e+02	3.5574	0.240536	0.000319	3.194718	0.541200	-0.000032
1654	1.6447e+02	3.5490	0.211207	0.000295	2.948971	0.499569	-0.000029
1655	1.6457e+02	3.5406	0.171288	0.000401	4.013877	0.679969	-0.000040
1656	1.6467e+02	3.5309	0.143588	0.000279	2.785139	0.471815	-0.000028
1657	1.6477e+02	3.5178	0.111001	0.000328	3.276634	0.555077	-0.000033
1658	1.6487e+02	3.5085	0.079635	0.000315	3.153760	0.534261	-0.000032
1659	1.6497e+02	3.4994	0.040938	0.000389	3.891003	0.659154	-0.000039
1660	1.6507e+02	3.4877	0.011202	0.000299	2.989929	0.506508	-0.000030
1661	1.6517e+02	3.4803	-0.023830	0.000352	3.522382	0.596708	-0.000035
1662	1.6527e+02	3.4669	-0.054380	0.000307	3.071844	0.520385	-0.000031
1663	1.6537e+02	3.4582	-0.084931	0.000307	3.071844	0.520385	-0.000031
1664	1.6547e+02	3.4475	-0.117111	0.000324	3.235676	0.548138	-0.000032
1665	1.6557e+02	3.4386	-0.151735	0.000348	3.481424	0.589769	-0.000035
1666	1.6567e+02	3.4315	-0.183508	0.000319	3.194718	0.541200	-0.000032
1667	1.6577e+02	3.4200	-0.214466	0.000311	3.112802	0.527323	-0.000031
1668	1.6587e+02	3.4100	-0.248683	0.000344	3.440466	0.582831	-0.000034
1669	1.6597e+02	3.3994	-0.281270	0.000328	3.276634	0.555077	-0.000033
1670	1.6607e+02	3.3904	-0.314265	0.000332	3.317592	0.562015	-0.000033
1671	1.6616e+02	3.3778	-0.345630	0.000315	3.153760	0.534261	-0.000032
1672	1.6626e+02	3.3674	-0.380254	0.000348	3.481424	0.589769	-0.000035
1673	1.6636e+02	3.3581	-0.410805	0.000307	3.071844	0.520385	-0.000031
1674	1.6646e+02	3.3465	-0.443800	0.000332	3.317592	0.562015	-0.000033
1675	1.6656e+02	3.3390	-0.474350	0.000307	3.071844	0.520385	-0.000031
1676	1.6666e+02	3.3276	-0.504494	0.000303	3.030886	0.513446	-0.000030
1677	1.6676e+02	3.3189	-0.536266	0.000319	3.194718	0.541200	-0.000032
1678	1.6686e+02	3.3099	-0.568854	0.000328	3.276634	0.555077	-0.000033
1679	1.6696e+02	3.3004	-0.599405	0.000307	3.071844	0.520385	-0.000031
1680	1.6706e+02	3.2888	-0.636880	0.000377	3.768129	0.638338	-0.000038
1681	1.6716e+02	3.2775	-0.665801	0.000291	2.908013	0.492631	-0.000029
1682	1.6726e+02	3.2716	-0.696759	0.000311	3.112802	0.527323	-0.000031
1683	1.6736e+02	3.2595	-0.729754	0.000332	3.317592	0.562015	-0.000033
1684	1.6746e+02	3.2452	-0.763156	0.000336	3.358550	0.568954	-0.000034
1685	1.6756e+02	3.2392	-0.798188	0.000352	3.522382	0.596708	-0.000035
1686	1.6766e+02	3.2307	-0.824665	0.000266	2.662265	0.451000	-0.000027
1687	1.6776e+02	3.2211	-0.861733	0.000373	3.727171	0.631400	-0.000037
1688	1.6786e+02	3.2076	-0.891469	0.000299	2.989929	0.506508	-0.000030
1689	1.6796e+02	3.1985	-0.925279	0.000340	3.399508	0.575892	-0.000034
1690	1.6806e+02	3.1886	-0.958681	0.000336	3.358550	0.568954	-0.000034
1691	1.6816e+02	3.1799	-0.990046	0.000315	3.153760	0.534261	-0.000032
1692	1.6825e+02	3.1700	-1.021411	0.000315	3.153760	0.534261	-0.000032
1693	1.6835e+02	3.1598	-1.056036	0.000348	3.481424	0.589769	-0.000035
1694	1.6845e+02	3.1493	-1.084957	0.000291	2.908013	0.492631	-0.000029
1695	1.6855e+02	3.1409	-1.118359	0.000336	3.358550	0.568954	-0.000034
1696	1.6865e+02	3.1290	-1.152983	0.000348	3.481424	0.589769	-0.000035
1697	1.6875e+02	3.1203	-1.186385	0.000336	3.358550	0.568954	-0.000034
1698	1.6885e+02	3.1093	-1.215307	0.000291	2.908013	0.492631	-0.000029
1699	1.6895e+02	3.0964	-1.251153	0.000360	3.604297	0.610585	-0.000036
1700	1.6905e+02	3.0894	-1.287406	0.000365	3.645255	0.617523	-0.000036
1701	1.6915e+02	3.0805	-1.319179	0.000319	3.194718	0.541200	-0.000032
1702	1.6925e+02	3.0703	-1.349730	0.000307	3.071844	0.520385	-0.000031
1703	1.6935e+02	3.0634	-1.381502	0.000319	3.194718	0.541200	-0.000032
1704	1.6945e+02	3.0469	-1.414904	0.000336	3.358550	0.568954	-0.000034
1705	1.6955e+02	3.0395	-1.445048	0.000303	3.030886	0.513446	-0.000030
1706	1.6965e+02	3.0296	-1.474376	0.000295	2.948971	0.499569	-0.000029
1707	1.6975e+02	3.0214	-1.504520	0.000303	3.030886	0.513446	-0.000030
1708	1.6985e+02	3.0099	-1.531812	0.000274	2.744181	0.464877	-0.000027
1709	1.6995e+02	3.0019	-1.560733	0.000291	2.908013	0.492631	-0.000029
1710	1.7005e+02	2.9903	-1.596579	0.000360	3.604297	0.610585	-0.000036
1711	1.7015e+02	2.9803	-1.623056	0.000266	2.662265	0.451000	-0.000027
1712	1.7024e+02	2.9717	-1.658088	0.000352	3.522382	0.596708	-0.000035
1713	1.7034e+02	2.9601	-1.684158	0.000262	2.621307	0.444061	-0.000026
1714	1.7044e+02	2.9508	-1.719597	0.000356	3.563340	0.603646	-0.000036
1715	1.7054e+02	2.9424	-1.749740	0.000303	3.030886	0.513446	-0.000030
1716	1.7064e+02	2.9308	-1.780698	0.000311	3.112802	0.527323	-0.000031
1717	1.7074e+02	2.9229	-1.806768	0.000262	2.621307	0.444061	-0.000026
1718	1.7084e+02	2.9105	-1.838541	0.000319	3.194718	0.541200	-0.000032
1719	1.7094e+02	2.9040	-1.869091	0.000307	3.071844	0.520385	-0.000031
1720	1.7104e+02	2.8942	-1.901271	0.000324	3.235676	0.548138	-0.000032
1721	1.7114e+02	2.8790	-1.932637	0.000315	3.153760	0.534261	-0.000032
1722	1.7124e+02	2.8727	-1.964002	0.000315	3.153760	0.534261	-0.000032
1723	1.7134e+02	2.8623	-1.993738	0.000299	2.989929	0.506508	-0.000030
1724	1.7144e+02	2.8524	-2.029177	0.000356	3.563340	0.603646	-0.000036
1725	1.7154e+02	2.8403	-2.062172	0.000332	3.317592	0.562015	-0.000033
1726	1.7164e+02	2.8289	-2.095166	0.000332	3.317592	0.562015	-0.000033
1727	1.7174e+02	2.8205	-2.129791	0.000348	3.481424	0.589769	-0.000035
1728	1.7184e+02	2.8107	-2.164007	0.000344	3.440466	0.582831	-0.000034
1729	1.7194e+02	2.8017	-2.195373	0.000315	3.153760	0.534261	-0.000032
1730	1.7204e+02	2.7909	-2.231626	0.000365	3.645255	0.617523	-0.000036
1731	1.7213e+02	2.7819	-2.263806	0.000324	3.235676	0.548138	-0.000032
1732	1.7223e+02	2.7735	-2.304133	0.000405	4.054835	0.686908	-0.000041
1733	1.7233e+02	2.7630	-2.335499	0.000315	3.153760	0.534261	-0.000032
1734	1.7243e+02	2.7517	-2.372159	0.000369	3.686213	0.624461	-0.000037
1735	1.7253e+02	2.7409	-2.404339	0.000324	3.235676	0.548138	-0.000032
1736	1.7263e+02	2.7335	-2.441408	0.000373	3.727171	0.631400	-0.000037
1737	1.7273e+02	2.7226	-2.476439	0.000352	3.522382	0.596708	-0.000035
1738	1.7283e+02	2.7133	-2.512693	0.000365	3.645255	0.617523	-0.000036
1739	1.7293e+02	2.7013	-2.544465	0.000319	3.194718	0.541200	-0.000032
1740	1.7303e+02	2.6930	-2.582348	0.000381	3.809087	0.645277	-0.000038
1741	1.7313e+02	2.6830	-2.618194	0.000360	3.604297	0.610585	-0.000036
1742	1.7323e+02	2.6708	-2.656892	0.000389	3.891003	0.659154	-0.000039
1743	1.7333e+02	2.6623	-2.690701	0.000340	3.399508	0.575892	-0.000034
1744	1.7343e+02	2.6548	-2.723289	0.000328	3.276634	0.555077	-0.000033
1745	1.7353e+02	2.6427	-2.764430	0.000414	4.136750	0.700784	-0.000041
1746	1.7363e+02	2.6336	-2.797425	0.000332	3.317592	0.562015	-0.000033
1747	1.7373e+02	2.6237	-2.832864	0.000356	3.563340	0.603646	-0.000036
1748	1.7383e+02	2.6136	-2.869117	0.000365	3.645255	0.617523	-0.000036
1749	1.7393e+02	2.6007	-2.907815	0.000389	3.891003	0.659154	-0.000039
1750	1.7403e+02	2.5935	-2.942032	0.000344	3.440466	0.582831	-0.000034
1751	1.7413e+02	2.5834	-2.978692	0.000369	3.686213	0.624461	-0.000037
1752	1.7422e+02	2.5724	-3.016168	0.000377	3.768129	0.638338	-0.000038
1753	1.7432e+02	2.5608	-3.050792	0.000348	3.481424	0.589769	-0.000035
1754	1.7442e+02	2.5533	-3.088675	0.000381	3.809087	0.645277	-0.000038
1755	1.7452e+02	2.5422	-3.122892	0.000344	3.440466	0.582831	-0.000034
1756	1.7462e+02	2.5342	-3.161589	0.000389	3.891003	0.659154	-0.000039
1757	1.7472e+02	2.5236	-3.197028	0.000356	3.563340	0.603646	-0.000036
1758	1.7482e+02	2.5126	-3.235318	0.000385	3.850045	0.652215	-0.000038
1759	1.7492e+02	2.5041	-3.272794	0.000377	3.768129	0.638338	-0.000038
1760	1.7502e+02	2.4940	-3.309862	0.000373	3.727171	0.631400	-0.000037
1761	1.7512e+02	2.4823	-3.348559	0.000389	3.891003	0.659154	-0.000039
1762	1.7522e+02	2.4738	-3.383184	0.000348	3.481424	0.589769	-0.000035
1763	1.7532e+02	2.4633	-3.425140	0.000422	4.218666	0.714661	-0.000042
1764	1.7542e+02	2.4532	-3.462208	0.000373	3.727171	0.631400	-0.000037
1765	1.7552e+02	2.4436	-3.499276	0.000373	3.727171	0.631400	-0.000037
1766	1.7562e+02	2.4335	-3.537566	0.000385	3.850045	0.652215	-0.000038
1767	1.7572e+02	2.4227	-3.573005	0.000356	3.563340	0.603646	-0.000036
1768	1.7582e+02	2.4129	-3.610481	0.000377	3.768129	0.638338	-0.000038
1769	1.7592e+02	2.4033	-3.647956	0.000377	3.768129	0.638338	-0.000038
1770	1.7602e+02	2.3949	-3.688283	0.000405	4.054835	0.686908	-0.000041
1771	1.7612e+02	2.3858	-3.724944	0.000369	3.686213	0.624461	-0.000037
1772	1.7621e+02	2.3745	-3.761605	0.000369	3.686213	0.624461	-0.000037
1773	1.7631e+02	2.3641	-3.799488	0.000381	3.809087	0.645277	-0.000038
1774	1.7641e+02	2.3536	-3.837371	0.000381	3.809087	0.645277	-0.000038
1775	1.7651e+02	2.3446	-3.877697	0.000405	4.054835	0.686908	-0.000041
1776	1.7661e+02	2.3354	-3.913951	0.000365	3.645255	0.617523	-0.000036
1777	1.7671e+02	2.3257	-3.953870	0.000401	4.013877	0.679969	-0.000040
1778	1.7681e+02	2.3135	-3.990531	0.000369	3.686213	0.624461	-0.000037
1779	1.7691e+02	2.3038	-4.029636	0.000393	3.931961	0.666092	-0.000039
1780	1.7701e+02	2.2941	-4.069556	0.000401	4.013877	0.679969	-0.000040
1781	1.7711e+02	2.2809	-4.104587	0.000352	3.522382	0.596708	-0.000035
1782	1.7721e+02	2.2742	-4.143692	0.000393	3.931961	0.666092	-0.000039
1783	1.7731e+02	2.2674	-4.182390	0.000389	3.891003	0.659154	-0.000039
1784	1.7741e+02	2.2561	-4.216606	0.000344	3.440466	0.582831	-0.000034
1785	1.7751e+02	2.2430	-4.260192	0.000438	4.382498	0.742415	-0.000044
1786	1.7761e+02	2.2341	-4.296446	0.000365	3.645255	0.617523	-0.000036
1787	1.7771e+02	2.2247	-4.339217	0.000430	4.300582	0.728538	-0.000043
1788	1.7781e+02	2.2161	-4.374655	0.000356	3.563340	0.603646	-0.000036
1789	1.7791e+02	2.2054	-4.415797	0.000414	4.136750	0.700784	-0.000041
1790	1.7801e+02	2.1934	-4.461012	0.000455	4.546330	0.770169	-0.000045
1791	1.7810e+02	2.1819	-4.501339	0.000405	4.054835	0.686908	-0.000041
1792	1.7820e+02	2.1751	-4.541666	0.000405	4.054835	0.686908	-0.000041
1793	1.7830e+02	2.1655	-4.583622	0.000422	4.218666	0.714661	-0.000042
1794	1.7840e+02	2.1564	-4.626393	0.000430	4.300582	0.728538	-0.000043
1795	1.7850e+02	2.1436	-4.670386	0.000442	4.423456	0.749354	-0.000044
1796	1.7860e+02	2.1366	-4.707862	0.000377	3.768129	0.638338	-0.000038
1797	1.7870e+02	2.1236	-4.750225	0.000426	4.259624	0.721600	-0.000043
1798	1.7880e+02	2.1147	-4.787293	0.000373	3.727171	0.631400	-0.000037
1799	1.7890e+02	2.1050	-4.832916	0.000459	4.587288	0.777108	-0.000046
1800	1.7900e+02	2.0957	-4.872428	0.000397	3.972919	0.673031	-0.000040
1801	1.7910e+02	2.0864	-4.912755	0.000405	4.054835	0.686908	-0.000041
1802	1.7920e+02	2.0756	-4.960007	0.000475	4.751119	0.804861	-0.000047
1803	1.7930e+02	2.0634	-5.002778	0.000430	4.300582	0.728538	-0.000043
1804	1.7940e+02	2.0592	-5.043919	0.000414	4.136750	0.700784	-0.000041
1805	1.7950e+02	2.0470	-5.083024	0.000393	3.931961	0.666092	-0.000039
1806	1.7960e+02	2.0327	-5.121722	0.000389	3.891003	0.659154	-0.000039
1807	1.7970e+02	2.0251	-5.167344	0.000459	4.587288	0.777108	-0.000046
1808	1.7980e+02	2.0151	-5.208486	0.000414	4.136750	0.700784	-0.000041
1809	1.7990e+02	2.0073	-5.245554	0.000373	3.727171	0.631400	-0.000037
1810	1.8000e+02	1.9963	-5.284659	0.000393	3.931961	0.666092	-0.000039
1811	1.8009e+02	1.9891	-5.325800	0.000414	4.136750	0.700784	-0.000041
1812	1.8019e+02	1.9756	-5.366534	0.000410	4.095793	0.693846	-0.000041
1813	1.8029e+02	1.9658	-5.405639	0.000393	3.931961	0.666092	-0.000039
1814	1.8039e+02	1.9567	-5.440671	0.000352	3.522382	0.596708	-0.000035
1815	1.8049e+02	1.9456	-5.478554	0.000381	3.809087	0.645277	-0.000038
1816	1.8059e+02	1.9369	-5.521732	0.000434	4.341540	0.735477	-0.000043
1817	1.8069e+02	1.9222	-5.558393	0.000369	3.686213	0.624461	-0.000037
1818	1.8079e+02	1.9187	-5.595868	0.000377	3.768129	0.638338	-0.000038
1819	1.8089e+02	1.9051	-5.634973	0.000393	3.931961	0.666092	-0.000039
1820	1.8099e+02	1.8948	-5.673671	0.000389	3.891003	0.659154	-0.000039
1821	1.8109e+02	1.8881	-5.710739	0.000373	3.727171	0.631400	-0.000037
1822	1.8119e+02	1.8749	-5.749436	0.000389	3.891003	0.659154	-0.000039
1823	1.8129e+02	1.8661	-5.793022	0.000438	4.382498	0.742415	-0.000044
1824	1.8139e+02	1.8569	-5.828054	0.000352	3.522382	0.596708	-0.000035
1825	1.8149e+02	1.8469	-5.866751	0.000389	3.891003	0.659154	-0.000039
1826	1.8159e+02	1.8356	-5.902190	0.000356	3.563340	0.603646	-0.000036
1827	1.8169e+02	1.8282	-5.944961	0.000430	4.300582	0.728538	-0.000043
1828	1.8179e+02	1.8176	-5.984473	0.000397	3.972919	0.673031	-0.000040
1829	1.8189e+02	1.8081	-6.021134	0.000369	3.686213	0.624461	-0.000037
1830	1.8199e+02	1.7974	-6.060646	0.000397	3.972919	0.673031	-0.000040
1831	1.8209e+02	1.7875	-6.098529	0.000381	3.809087	0.645277	-0.000038
1832	1.8218e+02	1.7743	-6.137634	0.000393	3.931961	0.666092	-0.000039
1833	1.8228e+02	1.7653	-6.174295	0.000369	3.686213	0.624461	-0.000037
1834	1.8238e+02	1.7549	-6.212585	0.000385	3.850045	0.652215	-0.000038
1835	1.8248e+02	1.7497	-6.249653	0.000373	3.727171	0.631400	-0.000037
1836	1.8258e+02	1.7353	-6.288351	0.000389	3.891003	0.659154	-0.000039
1837	1.8268e+02	1.7279	-6.327456	0.000393	3.931961	0.666092	-0.000039
1838	1.8278e+02	1.7175	-6.370226	0.000430	4.300582	0.728538	-0.000043
1839	1.8288e+02	1.7072	-6.406073	0.000360	3.604297	0.610585	-0.000036
1840	1.8298e+02	1.6974	-6.447214	0.000414	4.136750	0.700784	-0.000041
1841	1.8308e+02	1.6853	-6.482653	0.000356	3.563340	0.603646	-0.000036
1842	1.8318e+02	1.6781	-6.522573	0.000401	4.013877	0.679969	-0.000040
1843	1.8328e+02	1.6666	-6.558011	0.000356	3.563340	0.603646	-0.000036
1844	1.8338e+02	1.6567	-6.593043	0.000352	3.522382	0.596708	-0.000035
1845	1.8348e+02	1.6472	-6.635814	0.000430	4.300582	0.728538	-0.000043
1846	1.8358e+02	1.6383	-6.674104	0.000385	3.850045	0.652215	-0.000038
1847	1.8368e+02	1.6280	-6.712802	0.000389	3.891003	0.659154	-0.000039
1848	1.8378e+02	1.6154	-6.753943	0.000414	4.136750	0.700784	-0.000041
1849	1.8388e+02	1.6045	-6.789382	0.000356	3.563340	0.603646	-0.000036
1850	1.8398e+02	1.5965	-6.827265	0.000381	3.809087	0.645277	-0.000038
1851	1.8407e+02	1.5874	-6.867999	0.000410	4.095793	0.693846	-0.000041
1852	1.8417e+02	1.5780	-6.904253	0.000365	3.645255	0.617523	-0.000036
1853	1.8427e+02	1.5669	-6.948246	0.000442	4.423456	0.749354	-0.000044
1854	1.8437e+02	1.5591	-6.985721	0.000377	3.768129	0.638338	-0.000038
1855	1.8447e+02	1.5478	-7.026455	0.000410	4.095793	0.693846	-0.000041
1856	1.8457e+02	1.5394	-7.061079	0.000348	3.481424	0.589769	-0.000035
1857	1.8467e+02	1.5302	-7.099777	0.000389	3.891003	0.659154	-0.000039
1858	1.8477e+02	1.5166	-7.138475	0.000389	3.891003	0.659154	-0.000039
1859	1.8487e+02	1.5086	-7.177987	0.000397	3.972919	0.673031	-0.000040
1860	1.8497e+02	1.4963	-7.215055	0.000373	3.727171	0.631400	-0.000037
1861	1.8507e+02	1.4869	-7.254567	0.000397	3.972919	0.673031	-0.000040
1862	1.8517e+02	1.4784	-7.294079	0.000397	3.972919	0.673031	-0.000040
1863	1.8527e+02	1.4655	-7.333184	0.000393	3.931961	0.666092	-0.000039
1864	1.8537e+02	1.4556	-7.371474	0.000385	3.850045	0.652215	-0.000038
1865	1.8547e+02	1.4482	-7.410172	0.000389	3.891003	0.659154	-0.000039
1866	1.8557e+02	1.4373	-7.451721	0.000418	4.177708	0.707723	-0.000042
1867	1.8567e+02	1.4298	-7.493270	0.000418	4.177708	0.707723	-0.000042
1868	1.8577e+02	1.4154	-7.531967	0.000389	3.891003	0.659154	-0.000039
1869	1.8587e+02	1.4074	-7.568628	0.000369	3.686213	0.624461	-0.000037
1870	1.8597e+02	1.3998	-7.607733	0.000393	3.931961	0.666092	-0.000039
1871	1.8606e+02	1.3869	-7.646838	0.000393	3.931961	0.666092	-0.000039
1872	1.8616e+02	1.3789	-7.681462	0.000348	3.481424	0.589769	-0.000035
1873	1.8626e+02	1.3673	-7.718938	0.000377	3.768129	0.638338	-0.000038
1874	1.8636e+02	1.3587	-7.758450	0.000397	3.972919	0.673031	-0.000040
1875	1.8646e+02	1.3497	-7.792259	0.000340	3.399508	0.575892	-0.000034
1876	1.8656e+02	1.3367	-7.828105	0.000360	3.604297	0.610585	-0.000036
1877	1.8666e+02	1.3303	-7.864766	0.000369	3.686213	0.624461	-0.000037
1878	1.8676e+02	1.3171	-7.907130	0.000426	4.259624	0.721600	-0.000043
1879	1.8686e+02	1.3100	-7.937681	0.000307	3.071844	0.520385	-0.000031
1880	1.8696e+02	1.2984	-7.977600	0.000401	4.013877	0.679969	-0.000040
1881	1.8706e+02	1.2878	-8.019556	0.000422	4.218666	0.714661	-0.000042
1882	1.8716e+02	1.2772	-8.057439	0.000381	3.809087	0.645277	-0.000038
1883	1.8726e+02	1.2654	-8.095322	0.000381	3.809087	0.645277	-0.000038
1884	1.8736e+02	1.2607	-8.130761	0.000356	3.563340	0.603646	-0.000036
1885	1.8746e+02	1.2505	-8.164570	0.000340	3.399508	0.575892	-0.000034
1886	1.8756e+02	1.2386	-8.198380	0.000340	3.399508	0.575892	-0.000034
1887	1.8766e+02	1.2300	-8.236670	0.000385	3.850045	0.652215	-0.000038
1888	1.8776e+02	1.2197	-8.270887	0.000344	3.440466	0.582831	-0.000034
1889	1.8786e+02	1.2099	-8.309584	0.000389	3.891003	0.659154	-0.000039
1890	1.8796e+02	1.1974	-8.349911	0.000405	4.054835	0.686908	-0.000041
1891	1.8806e+02	1.1910	-8.392275	0.000426	4.259624	0.721600	-0.000043
1892	1.8815e+02	1.1826	-8.428528	0.000365	3.645255	0.617523	-0.000036
1893	1.8825e+02	1.1697	-8.470077	0.000418	4.177708	0.707723	-0.000042
1894	1.8835e+02	1.1611	-8.507146	0.000373	3.727171	0.631400	-0.000037
1895	1.8845e+02	1.1527	-8.550731	0.000438	4.382498	0.742415	-0.000044
1896	1.8855e+02	1.1401	-8.592280	0.000418	4.177708	0.707723	-0.000042
1897	1.8865e+02	1.1298	-8.631792	0.000397	3.972919	0.673031	-0.000040
1898	1.8875e+02	1.1183	-8.674156	0.000426	4.259624	0.721600	-0.000043
1899	1.8885e+02	1.1086	-8.716112	0.000422	4.218666	0.714661	-0.000042
1900	1.8895e+02	1.1013	-8.756847	0.000410	4.095793	0.693846	-0.000041
1901	1.8905e+02	1.0915	-8.797581	0.000410	4.095793	0.693846	-0.000041
1902	1.8915e+02	1.0787	-8.841574	0.000442	4.423456	0.749354	-0.000044
1903	1.8925e+02	1.0703	-8.885567	0.000442	4.423456	0.749354	-0.000044
1904	1.8935e+02	1.0631	-8.923042	0.000377	3.768129	0.638338	-0.000038
1905	1.8945e+02	1.0505	-8.968257	0.000455	4.546330	0.770169	-0.000045
1906	1.8955e+02	1.0403	-9.008992	0.000410	4.095793	0.693846	-0.000041
1907	1.8965e+02	1.0307	-9.052985	0.000442	4.423456	0.749354	-0.000044
1908	1.8975e+02	1.0222	-9.094533	0.000418	4.177708	0.707723	-0.000042
1909	1.8985e+02	1.0096	-9.135675	0.000414	4.136750	0.700784	-0.000041
1910	1.8995e+02	1.0020	-9.179668	0.000442	4.423456	0.749354	-0.000044
1911	1.9004e+02	0.9900	-9.220402	0.000410	4.095793	0.693846	-0.000041
1912	1.9014e+02	0.9804	-9.263988	0.000438	4.382498	0.742415	-0.000044
1913	1.9024e+02	0.9702	-9.307574	0.000438	4.382498	0.742415	-0.000044
1914	1.9034e+02	0.9614	-9.350752	0.000434	4.341540	0.735477	-0.000043
1915	1.9044e+02	0.9514	-9.393523	0.000430	4.300582	0.728538	-0.000043
1916	1.9054e+02	0.9400	-9.438738	0.000455	4.546330	0.770169	-0.000045
1917	1.9064e+02	0.9303	-9.483138	0.000446	4.464414	0.756292	-0.000045
1918	1.9074e+02	0.9203	-9.523465	0.000405	4.054835	0.686908	-0.000041
1919	1.9084e+02	0.9119	-9.565014	0.000418	4.177708	0.707723	-0.000042
1920	1.9094e+02	0.8991	-9.607378	0.000426	4.259624	0.721600	-0.000043
1921	1.9104e+02	0.8932	-9.651371	0.000442	4.423456	0.749354	-0.000044
1922	1.9114e+02	0.8820	-9.694549	0.000434	4.341540	0.735477	-0.000043
1923	1.9124e+02	0.8723	-9.739357	0.000451	4.505372	0.763231	-0.000045
1924	1.9134e+02	0.8595	-9.781720	0.000426	4.259624	0.721600	-0.000043
1925	1.9144e+02	0.8506	-9.828565	0.000471	4.710161	0.797923	-0.000047
1926	1.9154e+02	0.8372	-9.871336	0.000430	4.300582	0.728538	-0.000043
1927	1.9164e+02	0.8305	-9.919809	0.000487	4.873993	0.825677	-0.000049
1928	1.9174e+02	0.8241	-9.960544	0.000410	4.095793	0.693846	-0.000041
1929	1.9184e+02	0.8115	-10.006981	0.000467	4.669203	0.790984	-0.000047
1930	1.9194e+02	0.8044	-10.054640	0.000479	4.792077	0.811800	-0.000048
1931	1.9203e+02	0.7932	-10.098633	0.000442	4.423456	0.749354	-0.000044
1932	1.9213e+02	0.7806	-10.137738	0.000393	3.931961	0.666092	-0.000039
1933	1.9223e+02	0.7741	-10.186212	0.000487	4.873993	0.825677	-0.000049
1934	1.9233e+02	0.7632	-10.228982	0.000430	4.300582	0.728538	-0.000043
1935	1.9243e+02	0.7501	-10.277456	0.000487	4.873993	0.825677	-0.000049
1936	1.9253e+02	0.7446	-10.318598	0.000414	4.136750	0.700784	-0.000041
1937	1.9263e+02	0.7333	-10.362183	0.000438	4.382498	0.742415	-0.000044
1938	1.9273e+02	0.7207	-10.407399	0.000455	4.546330	0.770169	-0.000045
1939	1.9283e+02	0.7137	-10.452614	0.000455	4.546330	0.770169	-0.000045
1940	1.9293e+02	0.7018	-10.494570	0.000422	4.218666	0.714661	-0.000042
1941	1.9303e+02	0.6916	-10.542636	0.000483	4.833035	0.818738	-0.000048
1942	1.9313e+02	0.6809	-10.585815	0.000434	4.341540	0.735477	-0.000043
1943	1.9323e+02	0.6729	-10.635103	0.000496	4.955909	0.839554	-0.000050
1944	1.9333e+02	0.6628	-10.677059	0.000422	4.218666	0.714661	-0.000042
1945	1.9343e+02	0.6524	-10.724718	0.000479	4.792077	0.811800	-0.000048
1946	1.9353e+02	0.6427	-10.765045	0.000405	4.054835	0.686908	-0.000041
1947	1.9363e+02	0.6312	-10.814334	0.000496	4.955909	0.839554	-0.000050
1948	1.9373e+02	0.6224	-10.861585	0.000475	4.751119	0.804861	-0.000047
1949	1.9383e+02	0.6140	-10.904356	0.000430	4.300582	0.728538	-0.000043
1950	1.9393e+02	0.6022	-10.948757	0.000446	4.464414	0.756292	-0.000045
1951	1.9403e+02	0.5917	-10.992750	0.000442	4.423456	0.749354	-0.000044
1952	1.9412e+02	0.5823	-11.037557	0.000451	4.505372	0.763231	-0.000045
1953	1.9422e+02	0.5731	-11.086439	0.000491	4.914951	0.832615	-0.000049
1954	1.9432e+02	0.5601	-11.131246	0.000451	4.505372	0.763231	-0.000045
1955	1.9442e+02	0.5547	-11.180127	0.000491	4.914951	0.832615	-0.000049
1956	1.9452e+02	0.5434	-11.225342	0.000455	4.546330	0.770169	-0.000045
1957	1.9462e+02	0.5349	-11.275853	0.000508	5.078783	0.860369	-0.000051
1958	1.9472e+02	0.5246	-11.322697	0.000471	4.710161	0.797923	-0.000047
1959	1.9482e+02	0.5132	-11.374430	0.000520	5.201657	0.881184	-0.000052
1960	1.9492e+02	0.5035	-11.419645	0.000455	4.546330	0.770169	-0.000045
1961	1.9502e+02	0.4964	-11.469748	0.000504	5.037825	0.853431	-0.000050
1962	1.9512e+02	0.4846	-11.519036	0.000496	4.955909	0.839554	-0.000050
1963	1.9522e+02	0.4737	-11.565881	0.000471	4.710161	0.797923	-0.000047
1964	1.9532e+02	0.4629	-11.616799	0.000512	5.119741	0.867308	-0.000051
1965	1.9542e+02	0.4539	-11.662828	0.000463	4.628246	0.784046	-0.000046
1966	1.9552e+02	0.4426	-11.712931	0.000504	5.037825	0.853431	-0.000050
1967	1.9562e+02	0.4331	-11.758961	0.000463	4.628246	0.784046	-0.000046
1968	1.9572e+02	0.4256	-11.811916	0.000532	5.324530	0.902000	-0.000053
1969	1.9582e+02	0.4137	-11.863241	0.000516	5.160699	0.874246	-0.000052
1970	1.9592e+02	0.4042	-11.910085	0.000471	4.710161	0.797923	-0.000047
1971	1.9601e+02	0.3922	-11.957744	0.000479	4.792077	0.811800	-0.000048
1972	1.9611e+02	0.3841	-12.006218	0.000487	4.873993	0.825677	-0.000049
1973	1.9621e+02	0.3716	-12.057136	0.000512	5.119741	0.867308	-0.000051
1974	1.9631e+02	0.3667	-12.108461	0.000516	5.160699	0.874246	-0.000052
1975	1.9641e+02	0.3510	-12.154083	0.000459	4.587288	0.777108	-0.000046
1976	1.9651e+02	0.3448	-12.198484	0.000446	4.464414	0.756292	-0.000045
1977	1.9661e+02	0.3335	-12.246143	0.000479	4.792077	0.811800	-0.000048
1978	1.9671e+02	0.3220	-12.292173	0.000463	4.628246	0.784046	-0.000046
1979	1.9681e+02	0.3146	-12.341868	0.000500	4.996867	0.846492	-0.000050
1980	1.9691e+02	0.3056	-12.385047	0.000434	4.341540	0.735477	-0.000043
1981	1.9701e+02	0.2924	-12.432298	0.000475	4.751119	0.804861	-0.000047
1982	1.9711e+02	0.2829	-12.476699	0.000446	4.464414	0.756292	-0.000045
1983	1.9721e+02	0.2750	-12.527616	0.000512	5.119741	0.867308	-0.000051
1984	1.9731e+02	0.2654	-12.569980	0.000426	4.259624	0.721600	-0.000043
1985	1.9741e+02	0.2546	-12.612344	0.000426	4.259624	0.721600	-0.000043
1986	1.9751e+02	0.2459	-12.659188	0.000471	4.710161	0.797923	-0.000047
1987	1.9761e+02	0.2317	-12.705218	0.000463	4.628246	0.784046	-0.000046
1988	1.9771e+02	0.2240	-12.754099	0.000491	4.914951	0.832615	-0.000049
1989	1.9781e+02	0.2119	-12.798092	0.000442	4.423456	0.749354	-0.000044
1990	1.9791e+02	0.2056	-12.846973	0.000491	4.914951	0.832615	-0.000049
1991	1.9800e+02	0.1952	-12.891781	0.000451	4.505372	0.763231	-0.000045
1992	1.9810e+02	0.1878	-12.938218	0.000467	4.669203	0.790984	-0.000047
1993	1.9820e+02	0.1724	-12.982211	0.000442	4.423456	0.749354	-0.000044
1994	1.9830e+02	0.1640	-13.027018	0.000451	4.505372	0.763231	-0.000045
1995	1.9840e+02	0.1570	-13.075900	0.000491	4.914951	0.832615	-0.000049
1996	1.9850e+02	0.1443	-13.119078	0.000434	4.341540	0.735477	-0.000043
1997	1.9860e+02	0.1380	-13.168774	0.000500	4.996867	0.846492	-0.000050
1998	1.9870e+02	0.1244	-13.210323	0.000418	4.177708	0.707723	-0.000042
1999	1.9880e+02	0.1150	-13.258796	0.000487	4.873993	0.825677	-0.000049
2000	1.9890e+02	0.1041	-13.303604	0.000451	4.505372	0.763231	-0.000045
2001	1.9900e+02	0.0970	-13.346375	0.000430	4.300582	0.728538	-0.000043
2002	1.9910e+02	0.0813	-13.394441	0.000483	4.833035	0.818738	-0.000048
2003	1.9920e+02	0.0758	-13.439656	0.000455	4.546330	0.770169	-0.000045
2004	1.9930e+02	0.0631	-13.486908	0.000475	4.751119	0.804861	-0.000047
2005	1.9940e+02	0.0578	-13.533753	0.000471	4.710161	0.797923	-0.000047
2006	1.9950e+02	0.0451	-13.579375	0.000459	4.587288	0.777108	-0.000046
2007	1.9960e+02	0.0346	-13.627034	0.000479	4.792077	0.811800	-0.000048
2008	1.9970e+02	0.0272	-13.670620	0.000438	4.382498	0.742415	-0.000044
2009	1.9980e+02	0.0161	-13.717057	0.000467	4.669203	0.790984	-0.000047
2010	1.9990e+02	0.0056	-13.761457	0.000446	4.464414	0.756292	-0.000045
2011	2.0000e+02	-0.0030	-13.804228	0.000446	4.464414	0.756292	-0.000043

PMax (uC/cm2):	3.21e+01
Pr (uC/cm2):	2.25e+00
-Pr (uC/cm2):	0.00e+00
PLoss (uC/cm2):	0.00e+00
C (Max-Eff) (nF):	3.21e-01
K (Eff):	5.44e+02
Vert. (+/-Pr) Shift (uC/cm2):	1.13e+00
Offset (uC/cm2):	1.61e+01

A (Loop Area - uC/cm2·Volts):	-2.25e-02



Hysteresis Version: 5.48.1 - Radiant Technologies, Inc., 1999 - 9/12/24

