»»»»»»»»»»»»»»»»»»»»»»»»»»»»»»»»»»»» Hysteresis ««««««««««««««««««««««««««««««««««««
»»»  Executed Version:	5.48.1
»»»  Vision Version:	5.48.4 (R)
»»»  Vision Compiled:	9/18/24
»»»  Driver Version:	5.47.0
»»»  Windows Version:	Windows 8 or 8.1
»»»  Processor Information:	x86 (AMD or Intel) - 32 Processors
»»»  Tester Name:	PMF21124-494 (100V)
»»»  Tester S/N:	PMF21124-494
»»»  Internal Amp Type:	100V RevK 270k
»»»  Internal Amp S/N:	iAB2-596/K     
»»»  Execution Count:	1
»»»»»»»»»»»»»»»»»»»»»»»»»»»»»»»»»»»»»»»»»»««««««««««««««««««««««««««««««««««««««««««

Stored:	6/25/2025 - 14:56:51
Configured:	06/25/25 10:44:40 AM
Executed:	06/25/25 02:56:22 PM

»»»»»»»»»»»»»»»»»»»»»»»»»»»»»»»»»»» Sample Info ««««««««««««««««««««««««««««««««««««
Sample Name:	
Lot Name:	
Wafer Name:	
Die Row/Column:	0/0
Capacitor Number:	0
Sample Area (cm2):	1.00e-04
Sample Thickness (microns):	1.50e-01

Amplifier:	Internal

»»»»»»»»»»»»»»»»»»»»»»»»»»»»»»»»»»» Tester Info «««««««««««««««««««««««««««««««««««
Tester Name:	PMF21124-494 (100V)
Tester Serial Number:	PMF21124-494
Return Signal Amp. Level:	1.9 [Index: 2]

»»»»»»»»»»»»»»»»»»»»»»»»»»»»»»»» Hysteresis Info ««««««««««««««««««««««««««««««««««
Task Name:	Hyst-116
Volts:	10.00
Field:	666.67 (kV/cm)
DCBias:	0.00
DCField:	0.00 (kV/cm)
Hysteresis Period (ms):	2.00e+02
Preset:	Enabled
Preset Delay (ms):	1.00e+03
Profile:	Standard Monopolar

»»»»»»»»»»»»»»»»»»»»»»»»»»»»»»»»»»»»»» Data «««««««««««««««««««««««««««««««««««««««
Points:	2011

Valid Data

Point	Time (ms)	Drive Voltage	Measured Polarization (uC/cm2)	Capacitance (uF)	Normalized Capacitance (uF/cm2)	Dielectric Constant	Instantaneous Current (mA)
   1	0.0000e+00	-0.0058	-17.126921	0.000369	3.685201	0.624290	0.000037
   2	9.9500e-02	0.0092	-17.090260	0.000369	3.685201	0.624290	0.000037
   3	1.9900e-01	0.0142	-17.045860	0.000446	4.463187	0.756084	0.000045
   4	2.9850e-01	0.0243	-16.999830	0.000463	4.626974	0.783831	0.000046
   5	3.9800e-01	0.0368	-16.957874	0.000422	4.217507	0.714465	0.000042
   6	4.9750e-01	0.0446	-16.912252	0.000459	4.586027	0.776894	0.000046
   7	5.9700e-01	0.0542	-16.867851	0.000446	4.463187	0.756084	0.000045
   8	6.9650e-01	0.0647	-16.832820	0.000352	3.521414	0.596544	0.000035
   9	7.9600e-01	0.0761	-16.786790	0.000463	4.626974	0.783831	0.000046
  10	8.9550e-01	0.0836	-16.742390	0.000446	4.463187	0.756084	0.000045
  11	9.9500e-01	0.0950	-16.699619	0.000430	4.299401	0.728338	0.000043
  12	1.0945e+00	0.1057	-16.655626	0.000442	4.422241	0.749148	0.000044
  13	1.1940e+00	0.1153	-16.615706	0.000401	4.012774	0.679782	0.000040
  14	1.2935e+00	0.1246	-16.571306	0.000446	4.463187	0.756084	0.000045
  15	1.3930e+00	0.1331	-16.532201	0.000393	3.930881	0.665909	0.000039
  16	1.4925e+00	0.1441	-16.482913	0.000495	4.954548	0.839323	0.000050
  17	1.5920e+00	0.1549	-16.445437	0.000377	3.767094	0.638163	0.000038
  18	1.6915e+00	0.1652	-16.402259	0.000434	4.340347	0.735275	0.000043
  19	1.7910e+00	0.1751	-16.365191	0.000373	3.726147	0.631226	0.000037
  20	1.8905e+00	0.1821	-16.320383	0.000450	4.504134	0.763021	0.000045
  21	1.9900e+00	0.1947	-16.280463	0.000401	4.012774	0.679782	0.000040
  22	2.0895e+00	0.2036	-16.241359	0.000393	3.930881	0.665909	0.000039
  23	2.1890e+00	0.2157	-16.197773	0.000438	4.381294	0.742211	0.000044
  24	2.2885e+00	0.2243	-16.155002	0.000430	4.299401	0.728338	0.000043
  25	2.3880e+00	0.2364	-16.113453	0.000418	4.176561	0.707529	0.000042
  26	2.4875e+00	0.2421	-16.071089	0.000426	4.258454	0.721402	0.000043
  27	2.5870e+00	0.2531	-16.025874	0.000455	4.545081	0.769958	0.000045
  28	2.6865e+00	0.2653	-15.983918	0.000422	4.217507	0.714465	0.000042
  29	2.7860e+00	0.2717	-15.942369	0.000418	4.176561	0.707529	0.000042
  30	2.8855e+00	0.2830	-15.900005	0.000426	4.258454	0.721402	0.000043
  31	2.9850e+00	0.2965	-15.856827	0.000434	4.340347	0.735275	0.000043
  32	3.0845e+00	0.3040	-15.815686	0.000414	4.135614	0.700592	0.000041
  33	3.1840e+00	0.3174	-15.769249	0.000467	4.667921	0.790767	0.000047
  34	3.2835e+00	0.3252	-15.726070	0.000434	4.340347	0.735275	0.000043
  35	3.3830e+00	0.3356	-15.684114	0.000422	4.217507	0.714465	0.000042
  36	3.4825e+00	0.3451	-15.640936	0.000434	4.340347	0.735275	0.000043
  37	3.5820e+00	0.3513	-15.596128	0.000450	4.504134	0.763021	0.000045
  38	3.6815e+00	0.3642	-15.553357	0.000430	4.299401	0.728338	0.000043
  39	3.7810e+00	0.3728	-15.508142	0.000455	4.545081	0.769958	0.000045
  40	3.8805e+00	0.3848	-15.463742	0.000446	4.463187	0.756084	0.000045
  41	3.9800e+00	0.3916	-15.416490	0.000475	4.749814	0.804640	0.000047
  42	4.0795e+00	0.4041	-15.374534	0.000422	4.217507	0.714465	0.000042
  43	4.1790e+00	0.4113	-15.328504	0.000463	4.626974	0.783831	0.000046
  44	4.2785e+00	0.4224	-15.282882	0.000459	4.586027	0.776894	0.000046
  45	4.3780e+00	0.4337	-15.238074	0.000450	4.504134	0.763021	0.000045
  46	4.4775e+00	0.4409	-15.191637	0.000467	4.667921	0.790767	0.000047
  47	4.5770e+00	0.4535	-15.146829	0.000450	4.504134	0.763021	0.000045
  48	4.6765e+00	0.4633	-15.102836	0.000442	4.422241	0.749148	0.000044
  49	4.7760e+00	0.4709	-15.054770	0.000483	4.831707	0.818513	0.000048
  50	4.8755e+00	0.4819	-15.009147	0.000459	4.586027	0.776894	0.000046
  51	4.9750e+00	0.4944	-14.966376	0.000430	4.299401	0.728338	0.000043
  52	5.0745e+00	0.5024	-14.917088	0.000495	4.954548	0.839323	0.000050
  53	5.1740e+00	0.5153	-14.875132	0.000422	4.217507	0.714465	0.000042
  54	5.2735e+00	0.5235	-14.831953	0.000434	4.340347	0.735275	0.000043
  55	5.3730e+00	0.5328	-14.785516	0.000467	4.667921	0.790767	0.000047
  56	5.4725e+00	0.5451	-14.737857	0.000479	4.790761	0.811577	0.000048
  57	5.5720e+00	0.5538	-14.694272	0.000438	4.381294	0.742211	0.000044
  58	5.6715e+00	0.5633	-14.645798	0.000487	4.872654	0.825450	0.000049
  59	5.7710e+00	0.5726	-14.604656	0.000414	4.135614	0.700592	0.000041
  60	5.8705e+00	0.5822	-14.556182	0.000487	4.872654	0.825450	0.000049
  61	5.9700e+00	0.5907	-14.513004	0.000434	4.340347	0.735275	0.000043
  62	6.0695e+00	0.6018	-14.465345	0.000479	4.790761	0.811577	0.000048
  63	6.1690e+00	0.6103	-14.418501	0.000471	4.708867	0.797704	0.000047
  64	6.2685e+00	0.6252	-14.374915	0.000438	4.381294	0.742211	0.000044
  65	6.3680e+00	0.6304	-14.326441	0.000487	4.872654	0.825450	0.000049
  66	6.4675e+00	0.6439	-14.282041	0.000446	4.463187	0.756084	0.000045
  67	6.5670e+00	0.6535	-14.239270	0.000430	4.299401	0.728338	0.000043
  68	6.6665e+00	0.6628	-14.187537	0.000520	5.200228	0.880942	0.000052
  69	6.7660e+00	0.6747	-14.142730	0.000450	4.504134	0.763021	0.000045
  70	6.8655e+00	0.6806	-14.100773	0.000422	4.217507	0.714465	0.000042
  71	6.9650e+00	0.6930	-14.053522	0.000475	4.749814	0.804640	0.000047
  72	7.0645e+00	0.7010	-14.007899	0.000459	4.586027	0.776894	0.000046
  73	7.1640e+00	0.7120	-13.962277	0.000459	4.586027	0.776894	0.000046
  74	7.2635e+00	0.7235	-13.918284	0.000442	4.422241	0.749148	0.000044
  75	7.3630e+00	0.7314	-13.867773	0.000508	5.077388	0.860133	0.000051
  76	7.4625e+00	0.7426	-13.822558	0.000455	4.545081	0.769958	0.000045
  77	7.5620e+00	0.7508	-13.781010	0.000418	4.176561	0.707529	0.000042
  78	7.6615e+00	0.7632	-13.731314	0.000500	4.995494	0.846260	0.000050
  79	7.7610e+00	0.7710	-13.685284	0.000463	4.626974	0.783831	0.000046
  80	7.8605e+00	0.7810	-13.640476	0.000450	4.504134	0.763021	0.000045
  81	7.9600e+00	0.7919	-13.594039	0.000467	4.667921	0.790767	0.000047
  82	8.0595e+00	0.8031	-13.546380	0.000479	4.790761	0.811577	0.000048
  83	8.1590e+00	0.8105	-13.504831	0.000418	4.176561	0.707529	0.000042
  84	8.2585e+00	0.8208	-13.460431	0.000446	4.463187	0.756084	0.000045
  85	8.3580e+00	0.8312	-13.413994	0.000467	4.667921	0.790767	0.000047
  86	8.4575e+00	0.8405	-13.367149	0.000471	4.708867	0.797704	0.000047
  87	8.5570e+00	0.8553	-13.317861	0.000495	4.954548	0.839323	0.000050
  88	8.6565e+00	0.8610	-13.271424	0.000467	4.667921	0.790767	0.000047
  89	8.7560e+00	0.8706	-13.230690	0.000409	4.094667	0.693655	0.000041
  90	8.8555e+00	0.8800	-13.179772	0.000512	5.118334	0.867069	0.000051
  91	8.9550e+00	0.8894	-13.136594	0.000434	4.340347	0.735275	0.000043
  92	9.0545e+00	0.9014	-13.086898	0.000500	4.995494	0.846260	0.000050
  93	9.1540e+00	0.9097	-13.040053	0.000471	4.708867	0.797704	0.000047
  94	9.2535e+00	0.9226	-12.993616	0.000467	4.667921	0.790767	0.000047
  95	9.3530e+00	0.9327	-12.947994	0.000459	4.586027	0.776894	0.000046
  96	9.4525e+00	0.9412	-12.899928	0.000483	4.831707	0.818513	0.000048
  97	9.5520e+00	0.9554	-12.855935	0.000442	4.422241	0.749148	0.000044
  98	9.6515e+00	0.9611	-12.809905	0.000463	4.626974	0.783831	0.000046
  99	9.7510e+00	0.9684	-12.763875	0.000463	4.626974	0.783831	0.000046
 100	9.8505e+00	0.9803	-12.715401	0.000487	4.872654	0.825450	0.000049
 101	9.9500e+00	0.9892	-12.666520	0.000491	4.913601	0.832387	0.000049
 102	1.0050e+01	1.0046	-12.622935	0.000438	4.381294	0.742211	0.000044
 103	1.0149e+01	1.0086	-12.568758	0.000545	5.445908	0.922562	0.000054
 104	1.0248e+01	1.0206	-12.523136	0.000459	4.586027	0.776894	0.000046
 105	1.0348e+01	1.0305	-12.474255	0.000491	4.913601	0.832387	0.000049
 106	1.0447e+01	1.0412	-12.427818	0.000467	4.667921	0.790767	0.000047
 107	1.0547e+01	1.0489	-12.381788	0.000463	4.626974	0.783831	0.000046
 108	1.0646e+01	1.0609	-12.332499	0.000495	4.954548	0.839323	0.000050
 109	1.0746e+01	1.0691	-12.286877	0.000459	4.586027	0.776894	0.000046
 110	1.0845e+01	1.0793	-12.239218	0.000479	4.790761	0.811577	0.000048
 111	1.0945e+01	1.0886	-12.196040	0.000434	4.340347	0.735275	0.000043
 112	1.1044e+01	1.0998	-12.146751	0.000495	4.954548	0.839323	0.000050
 113	1.1144e+01	1.1092	-12.101944	0.000450	4.504134	0.763021	0.000045
 114	1.1243e+01	1.1181	-12.058358	0.000438	4.381294	0.742211	0.000044
 115	1.1343e+01	1.1303	-12.008255	0.000504	5.036441	0.853196	0.000050
 116	1.1443e+01	1.1387	-11.960596	0.000479	4.790761	0.811577	0.000048
 117	1.1542e+01	1.1445	-11.917825	0.000430	4.299401	0.728338	0.000043
 118	1.1642e+01	1.1632	-11.867722	0.000504	5.036441	0.853196	0.000050
 119	1.1741e+01	1.1687	-11.826580	0.000414	4.135614	0.700592	0.000041
 120	1.1841e+01	1.1872	-11.781365	0.000455	4.545081	0.769958	0.000045
 121	1.1940e+01	1.1906	-11.735335	0.000463	4.626974	0.783831	0.000046
 122	1.2040e+01	1.1996	-11.693786	0.000418	4.176561	0.707529	0.000042
 123	1.2139e+01	1.2093	-11.649386	0.000446	4.463187	0.756084	0.000045
 124	1.2239e+01	1.2175	-11.603764	0.000459	4.586027	0.776894	0.000046
 125	1.2338e+01	1.2304	-11.558549	0.000455	4.545081	0.769958	0.000045
 126	1.2438e+01	1.2408	-11.513334	0.000455	4.545081	0.769958	0.000045
 127	1.2537e+01	1.2523	-11.475451	0.000381	3.808041	0.645100	0.000038
 128	1.2636e+01	1.2600	-11.433087	0.000426	4.258454	0.721402	0.000043
 129	1.2736e+01	1.2688	-11.394390	0.000389	3.889934	0.658973	0.000039
 130	1.2835e+01	1.2792	-11.346730	0.000479	4.790761	0.811577	0.000048
 131	1.2935e+01	1.2900	-11.305996	0.000409	4.094667	0.693655	0.000041
 132	1.3034e+01	1.3007	-11.260781	0.000455	4.545081	0.769958	0.000045
 133	1.3134e+01	1.3094	-11.218010	0.000430	4.299401	0.728338	0.000043
 134	1.3233e+01	1.3182	-11.176869	0.000414	4.135614	0.700592	0.000041
 135	1.3333e+01	1.3284	-11.132061	0.000450	4.504134	0.763021	0.000045
 136	1.3432e+01	1.3370	-11.089290	0.000430	4.299401	0.728338	0.000043
 137	1.3532e+01	1.3493	-11.043260	0.000463	4.626974	0.783831	0.000046
 138	1.3632e+01	1.3589	-11.004155	0.000393	3.930881	0.665909	0.000039
 139	1.3731e+01	1.3666	-10.961792	0.000426	4.258454	0.721402	0.000043
 140	1.3831e+01	1.3827	-10.925131	0.000369	3.685201	0.624290	0.000037
 141	1.3930e+01	1.3901	-10.877879	0.000475	4.749814	0.804640	0.000047
 142	1.4030e+01	1.3978	-10.832664	0.000455	4.545081	0.769958	0.000045
 143	1.4129e+01	1.4098	-10.794781	0.000381	3.808041	0.645100	0.000038
 144	1.4229e+01	1.4188	-10.752825	0.000422	4.217507	0.714465	0.000042
 145	1.4328e+01	1.4281	-10.708832	0.000442	4.422241	0.749148	0.000044
 146	1.4428e+01	1.4379	-10.668098	0.000409	4.094667	0.693655	0.000041
 147	1.4527e+01	1.4482	-10.626549	0.000418	4.176561	0.707529	0.000042
 148	1.4627e+01	1.4555	-10.586629	0.000401	4.012774	0.679782	0.000040
 149	1.4726e+01	1.4668	-10.543451	0.000434	4.340347	0.735275	0.000043
 150	1.4825e+01	1.4765	-10.505161	0.000385	3.848987	0.652036	0.000038
 151	1.4925e+01	1.4888	-10.459131	0.000463	4.626974	0.783831	0.000046
 152	1.5024e+01	1.4977	-10.421248	0.000381	3.808041	0.645100	0.000038
 153	1.5124e+01	1.5078	-10.377255	0.000442	4.422241	0.749148	0.000044
 154	1.5223e+01	1.5168	-10.340187	0.000373	3.726147	0.631226	0.000037
 155	1.5323e+01	1.5266	-10.296194	0.000442	4.422241	0.749148	0.000044
 156	1.5422e+01	1.5408	-10.253016	0.000434	4.340347	0.735275	0.000043
 157	1.5522e+01	1.5461	-10.213911	0.000393	3.930881	0.665909	0.000039
 158	1.5621e+01	1.5588	-10.173584	0.000405	4.053721	0.686719	0.000041
 159	1.5721e+01	1.5669	-10.134886	0.000389	3.889934	0.658973	0.000039
 160	1.5820e+01	1.5796	-10.095781	0.000393	3.930881	0.665909	0.000039
 161	1.5920e+01	1.5900	-10.049344	0.000467	4.667921	0.790767	0.000047
 162	1.6020e+01	1.5978	-10.009018	0.000405	4.053721	0.686719	0.000041
 163	1.6119e+01	1.6084	-9.967876	0.000414	4.135614	0.700592	0.000041
 164	1.6218e+01	1.6158	-9.927956	0.000401	4.012774	0.679782	0.000040
 165	1.6318e+01	1.6267	-9.888037	0.000401	4.012774	0.679782	0.000040
 166	1.6418e+01	1.6369	-9.842822	0.000455	4.545081	0.769958	0.000045
 167	1.6517e+01	1.6491	-9.805346	0.000377	3.767094	0.638163	0.000038
 168	1.6616e+01	1.6537	-9.763390	0.000422	4.217507	0.714465	0.000042
 169	1.6716e+01	1.6666	-9.723470	0.000401	4.012774	0.679782	0.000040
 170	1.6816e+01	1.6769	-9.683551	0.000401	4.012774	0.679782	0.000040
 171	1.6915e+01	1.6866	-9.643631	0.000401	4.012774	0.679782	0.000040
 172	1.7015e+01	1.6944	-9.604526	0.000393	3.930881	0.665909	0.000039
 173	1.7114e+01	1.7047	-9.557682	0.000471	4.708867	0.797704	0.000047
 174	1.7213e+01	1.7152	-9.522243	0.000356	3.562361	0.603480	0.000036
 175	1.7313e+01	1.7274	-9.482731	0.000397	3.971827	0.672846	0.000040
 176	1.7413e+01	1.7387	-9.445255	0.000377	3.767094	0.638163	0.000038
 177	1.7512e+01	1.7482	-9.409409	0.000360	3.603307	0.610417	0.000036
 178	1.7611e+01	1.7550	-9.366231	0.000434	4.340347	0.735275	0.000043
 179	1.7711e+01	1.7652	-9.330792	0.000356	3.562361	0.603480	0.000036
 180	1.7811e+01	1.7775	-9.288836	0.000422	4.217507	0.714465	0.000042
 181	1.7910e+01	1.7864	-9.248916	0.000401	4.012774	0.679782	0.000040
 182	1.8009e+01	1.7974	-9.208182	0.000409	4.094667	0.693655	0.000041
 183	1.8109e+01	1.8093	-9.168670	0.000397	3.971827	0.672846	0.000040
 184	1.8209e+01	1.8147	-9.136490	0.000323	3.234787	0.547988	0.000032
 185	1.8308e+01	1.8232	-9.093719	0.000430	4.299401	0.728338	0.000043
 186	1.8407e+01	1.8380	-9.055836	0.000381	3.808041	0.645100	0.000038
 187	1.8507e+01	1.8467	-9.022027	0.000340	3.398574	0.575734	0.000034
 188	1.8607e+01	1.8587	-8.984958	0.000373	3.726147	0.631226	0.000037
 189	1.8706e+01	1.8671	-8.951556	0.000336	3.357627	0.568797	0.000034
 190	1.8805e+01	1.8777	-8.913673	0.000381	3.808041	0.645100	0.000038
 191	1.8905e+01	1.8842	-8.874976	0.000389	3.889934	0.658973	0.000039
 192	1.9005e+01	1.8960	-8.835056	0.000401	4.012774	0.679782	0.000040
 193	1.9104e+01	1.9048	-8.799210	0.000360	3.603307	0.610417	0.000036
 194	1.9203e+01	1.9129	-8.761735	0.000377	3.767094	0.638163	0.000038
 195	1.9303e+01	1.9270	-8.723444	0.000385	3.848987	0.652036	0.000038
 196	1.9402e+01	1.9350	-8.680266	0.000434	4.340347	0.735275	0.000043
 197	1.9502e+01	1.9466	-8.644013	0.000364	3.644254	0.617353	0.000036
 198	1.9602e+01	1.9551	-8.610611	0.000336	3.357627	0.568797	0.000034
 199	1.9701e+01	1.9635	-8.569469	0.000414	4.135614	0.700592	0.000041
 200	1.9800e+01	1.9760	-8.529957	0.000397	3.971827	0.672846	0.000040
 201	1.9900e+01	1.9854	-8.487186	0.000430	4.299401	0.728338	0.000043
 202	2.0000e+01	1.9970	-8.452969	0.000344	3.439521	0.582671	0.000034
 203	2.0099e+01	2.0069	-8.410198	0.000430	4.299401	0.728338	0.000043
 204	2.0198e+01	2.0137	-8.373537	0.000369	3.685201	0.624290	0.000037
 205	2.0298e+01	2.0267	-8.331174	0.000426	4.258454	0.721402	0.000043
 206	2.0398e+01	2.0360	-8.296549	0.000348	3.480467	0.589607	0.000035
 207	2.0497e+01	2.0447	-8.252149	0.000446	4.463187	0.756084	0.000045
 208	2.0596e+01	2.0570	-8.213044	0.000393	3.930881	0.665909	0.000039
 209	2.0696e+01	2.0644	-8.170273	0.000430	4.299401	0.728338	0.000043
 210	2.0796e+01	2.0737	-8.128724	0.000418	4.176561	0.707529	0.000042
 211	2.0895e+01	2.0851	-8.090027	0.000389	3.889934	0.658973	0.000039
 212	2.0994e+01	2.0927	-8.053366	0.000369	3.685201	0.624290	0.000037
 213	2.1094e+01	2.1088	-8.006522	0.000471	4.708867	0.797704	0.000047
 214	2.1194e+01	2.1155	-7.972712	0.000340	3.398574	0.575734	0.000034
 215	2.1293e+01	2.1237	-7.929126	0.000438	4.381294	0.742211	0.000044
 216	2.1392e+01	2.1335	-7.885541	0.000438	4.381294	0.742211	0.000044
 217	2.1492e+01	2.1453	-7.845214	0.000405	4.053721	0.686719	0.000041
 218	2.1591e+01	2.1526	-7.808553	0.000369	3.685201	0.624290	0.000037
 219	2.1691e+01	2.1653	-7.768633	0.000401	4.012774	0.679782	0.000040
 220	2.1791e+01	2.1735	-7.728714	0.000401	4.012774	0.679782	0.000040
 221	2.1890e+01	2.1844	-7.685943	0.000430	4.299401	0.728338	0.000043
 222	2.1989e+01	2.1950	-7.646431	0.000397	3.971827	0.672846	0.000040
 223	2.2089e+01	2.2058	-7.604882	0.000418	4.176561	0.707529	0.000042
 224	2.2189e+01	2.2141	-7.566592	0.000385	3.848987	0.652036	0.000038
 225	2.2288e+01	2.2233	-7.523006	0.000438	4.381294	0.742211	0.000044
 226	2.2387e+01	2.2338	-7.484716	0.000385	3.848987	0.652036	0.000038
 227	2.2487e+01	2.2422	-7.441130	0.000438	4.381294	0.742211	0.000044
 228	2.2587e+01	2.2555	-7.402433	0.000389	3.889934	0.658973	0.000039
 229	2.2686e+01	2.2649	-7.359254	0.000434	4.340347	0.735275	0.000043
 230	2.2785e+01	2.2755	-7.318927	0.000405	4.053721	0.686719	0.000041
 231	2.2885e+01	2.2826	-7.277378	0.000418	4.176561	0.707529	0.000042
 232	2.2985e+01	2.2923	-7.239088	0.000385	3.848987	0.652036	0.000038
 233	2.3084e+01	2.3048	-7.196317	0.000430	4.299401	0.728338	0.000043
 234	2.3183e+01	2.3156	-7.158027	0.000385	3.848987	0.652036	0.000038
 235	2.3283e+01	2.3252	-7.114441	0.000438	4.381294	0.742211	0.000044
 236	2.3383e+01	2.3342	-7.074522	0.000401	4.012774	0.679782	0.000040
 237	2.3482e+01	2.3415	-7.032973	0.000418	4.176561	0.707529	0.000042
 238	2.3581e+01	2.3540	-6.993461	0.000397	3.971827	0.672846	0.000040
 239	2.3681e+01	2.3605	-6.951097	0.000426	4.258454	0.721402	0.000043
 240	2.3780e+01	2.3759	-6.912399	0.000389	3.889934	0.658973	0.000039
 241	2.3880e+01	2.3833	-6.869221	0.000434	4.340347	0.735275	0.000043
 242	2.3980e+01	2.3930	-6.826857	0.000426	4.258454	0.721402	0.000043
 243	2.4079e+01	2.4029	-6.786531	0.000405	4.053721	0.686719	0.000041
 244	2.4178e+01	2.4143	-6.743760	0.000430	4.299401	0.728338	0.000043
 245	2.4278e+01	2.4239	-6.709950	0.000340	3.398574	0.575734	0.000034
 246	2.4378e+01	2.4350	-6.665142	0.000450	4.504134	0.763021	0.000045
 247	2.4477e+01	2.4451	-6.628482	0.000369	3.685201	0.624290	0.000037
 248	2.4576e+01	2.4538	-6.587747	0.000409	4.094667	0.693655	0.000041
 249	2.4676e+01	2.4627	-6.546606	0.000414	4.135614	0.700592	0.000041
 250	2.4776e+01	2.4727	-6.505872	0.000409	4.094667	0.693655	0.000041
 251	2.4875e+01	2.4813	-6.462693	0.000434	4.340347	0.735275	0.000043
 252	2.4974e+01	2.4931	-6.423588	0.000393	3.930881	0.665909	0.000039
 253	2.5074e+01	2.5051	-6.380410	0.000434	4.340347	0.735275	0.000043
 254	2.5174e+01	2.5143	-6.341305	0.000393	3.930881	0.665909	0.000039
 255	2.5273e+01	2.5241	-6.303422	0.000381	3.808041	0.645100	0.000038
 256	2.5372e+01	2.5332	-6.259837	0.000438	4.381294	0.742211	0.000044
 257	2.5472e+01	2.5456	-6.221139	0.000389	3.889934	0.658973	0.000039
 258	2.5572e+01	2.5520	-6.178775	0.000426	4.258454	0.721402	0.000043
 259	2.5671e+01	2.5637	-6.138449	0.000405	4.053721	0.686719	0.000041
 260	2.5770e+01	2.5706	-6.096900	0.000418	4.176561	0.707529	0.000042
 261	2.5870e+01	2.5836	-6.052499	0.000446	4.463187	0.756084	0.000045
 262	2.5970e+01	2.5903	-6.012580	0.000401	4.012774	0.679782	0.000040
 263	2.6069e+01	2.6034	-5.969401	0.000434	4.340347	0.735275	0.000043
 264	2.6169e+01	2.6154	-5.933555	0.000360	3.603307	0.610417	0.000036
 265	2.6268e+01	2.6207	-5.889970	0.000438	4.381294	0.742211	0.000044
 266	2.6367e+01	2.6314	-5.846384	0.000438	4.381294	0.742211	0.000044
 267	2.6467e+01	2.6434	-5.807279	0.000393	3.930881	0.665909	0.000039
 268	2.6567e+01	2.6521	-5.763693	0.000438	4.381294	0.742211	0.000044
 269	2.6666e+01	2.6637	-5.722144	0.000418	4.176561	0.707529	0.000042
 270	2.6765e+01	2.6712	-5.678966	0.000434	4.340347	0.735275	0.000043
 271	2.6865e+01	2.6822	-5.637825	0.000414	4.135614	0.700592	0.000041
 272	2.6965e+01	2.6920	-5.591795	0.000463	4.626974	0.783831	0.000046
 273	2.7064e+01	2.7027	-5.547802	0.000442	4.422241	0.749148	0.000044
 274	2.7163e+01	2.7102	-5.509104	0.000389	3.889934	0.658973	0.000039
 275	2.7263e+01	2.7241	-5.467148	0.000422	4.217507	0.714465	0.000042
 276	2.7363e+01	2.7313	-5.422340	0.000450	4.504134	0.763021	0.000045
 277	2.7462e+01	2.7435	-5.380791	0.000418	4.176561	0.707529	0.000042
 278	2.7561e+01	2.7486	-5.341687	0.000393	3.930881	0.665909	0.000039
 279	2.7661e+01	2.7624	-5.299730	0.000422	4.217507	0.714465	0.000042
 280	2.7761e+01	2.7689	-5.261847	0.000381	3.808041	0.645100	0.000038
 281	2.7860e+01	2.7811	-5.216632	0.000455	4.545081	0.769958	0.000045
 282	2.7959e+01	2.7908	-5.177120	0.000397	3.971827	0.672846	0.000040
 283	2.8059e+01	2.7990	-5.138830	0.000385	3.848987	0.652036	0.000038
 284	2.8159e+01	2.8130	-5.100132	0.000389	3.889934	0.658973	0.000039
 285	2.8258e+01	2.8185	-5.056954	0.000434	4.340347	0.735275	0.000043
 286	2.8358e+01	2.8294	-5.015405	0.000418	4.176561	0.707529	0.000042
 287	2.8457e+01	2.8391	-4.978744	0.000369	3.685201	0.624290	0.000037
 288	2.8556e+01	2.8527	-4.938417	0.000405	4.053721	0.686719	0.000041
 289	2.8656e+01	2.8603	-4.896054	0.000426	4.258454	0.721402	0.000043
 290	2.8756e+01	2.8728	-4.859393	0.000369	3.685201	0.624290	0.000037
 291	2.8855e+01	2.8813	-4.822325	0.000373	3.726147	0.631226	0.000037
 292	2.8954e+01	2.8901	-4.783220	0.000393	3.930881	0.665909	0.000039
 293	2.9054e+01	2.9027	-4.742893	0.000405	4.053721	0.686719	0.000041
 294	2.9154e+01	2.9111	-4.704195	0.000389	3.889934	0.658973	0.000039
 295	2.9253e+01	2.9212	-4.667535	0.000369	3.685201	0.624290	0.000037
 296	2.9352e+01	2.9308	-4.630466	0.000373	3.726147	0.631226	0.000037
 297	2.9452e+01	2.9400	-4.595435	0.000352	3.521414	0.596544	0.000035
 298	2.9552e+01	2.9497	-4.556330	0.000393	3.930881	0.665909	0.000039
 299	2.9651e+01	2.9607	-4.520484	0.000360	3.603307	0.610417	0.000036
 300	2.9750e+01	2.9722	-4.478120	0.000426	4.258454	0.721402	0.000043
 301	2.9850e+01	2.9819	-4.441460	0.000369	3.685201	0.624290	0.000037
 302	2.9950e+01	2.9905	-4.405613	0.000360	3.603307	0.610417	0.000036
 303	3.0049e+01	3.0039	-4.366508	0.000393	3.930881	0.665909	0.000039
 304	3.0148e+01	3.0096	-4.331070	0.000356	3.562361	0.603480	0.000036
 305	3.0248e+01	3.0201	-4.291557	0.000397	3.971827	0.672846	0.000040
 306	3.0348e+01	3.0296	-4.254489	0.000373	3.726147	0.631226	0.000037
 307	3.0447e+01	3.0442	-4.219050	0.000356	3.562361	0.603480	0.000036
 308	3.0547e+01	3.0511	-4.184019	0.000352	3.521414	0.596544	0.000035
 309	3.0646e+01	3.0631	-4.146544	0.000377	3.767094	0.638163	0.000038
 310	3.0745e+01	3.0697	-4.113141	0.000336	3.357627	0.568797	0.000034
 311	3.0845e+01	3.0804	-4.074851	0.000385	3.848987	0.652036	0.000038
 312	3.0945e+01	3.0892	-4.036154	0.000389	3.889934	0.658973	0.000039
 313	3.1044e+01	3.1011	-3.999493	0.000369	3.685201	0.624290	0.000037
 314	3.1143e+01	3.1094	-3.964461	0.000352	3.521414	0.596544	0.000035
 315	3.1243e+01	3.1192	-3.933096	0.000315	3.152894	0.534115	0.000032
 316	3.1343e+01	3.1298	-3.890325	0.000430	4.299401	0.728338	0.000043
 317	3.1442e+01	3.1399	-3.855701	0.000348	3.480467	0.589607	0.000035
 318	3.1541e+01	3.1488	-3.818633	0.000373	3.726147	0.631226	0.000037
 319	3.1641e+01	3.1610	-3.780343	0.000385	3.848987	0.652036	0.000038
 320	3.1741e+01	3.1692	-3.748977	0.000315	3.152894	0.534115	0.000032
 321	3.1840e+01	3.1809	-3.711094	0.000381	3.808041	0.645100	0.000038
 322	3.1939e+01	3.1886	-3.674841	0.000364	3.644254	0.617353	0.000036
 323	3.2039e+01	3.2027	-3.639809	0.000352	3.521414	0.596544	0.000035
 324	3.2139e+01	3.2086	-3.604778	0.000352	3.521414	0.596544	0.000035
 325	3.2238e+01	3.2203	-3.567710	0.000373	3.726147	0.631226	0.000037
 326	3.2337e+01	3.2301	-3.532678	0.000352	3.521414	0.596544	0.000035
 327	3.2437e+01	3.2395	-3.496017	0.000369	3.685201	0.624290	0.000037
 328	3.2536e+01	3.2520	-3.457727	0.000385	3.848987	0.652036	0.000038
 329	3.2636e+01	3.2574	-3.429213	0.000287	2.866267	0.485559	0.000029
 330	3.2736e+01	3.2680	-3.390923	0.000385	3.848987	0.652036	0.000038
 331	3.2835e+01	3.2773	-3.357928	0.000332	3.316681	0.561861	0.000033
 332	3.2934e+01	3.2891	-3.320860	0.000373	3.726147	0.631226	0.000037
 333	3.3034e+01	3.3009	-3.284607	0.000364	3.644254	0.617353	0.000036
 334	3.3133e+01	3.3088	-3.246724	0.000381	3.808041	0.645100	0.000038
 335	3.3233e+01	3.3199	-3.211285	0.000356	3.562361	0.603480	0.000036
 336	3.3333e+01	3.3281	-3.178290	0.000332	3.316681	0.561861	0.000033
 337	3.3432e+01	3.3395	-3.144888	0.000336	3.357627	0.568797	0.000034
 338	3.3532e+01	3.3504	-3.106191	0.000389	3.889934	0.658973	0.000039
 339	3.3631e+01	3.3601	-3.071974	0.000344	3.439521	0.582671	0.000034
 340	3.3730e+01	3.3677	-3.038979	0.000332	3.316681	0.561861	0.000033
 341	3.3830e+01	3.3772	-3.001911	0.000373	3.726147	0.631226	0.000037
 342	3.3929e+01	3.3875	-2.972175	0.000299	2.989107	0.506368	0.000030
 343	3.4029e+01	3.3982	-2.937143	0.000352	3.521414	0.596544	0.000035
 344	3.4129e+01	3.4093	-2.901297	0.000360	3.603307	0.610417	0.000036
 345	3.4228e+01	3.4179	-2.866266	0.000352	3.521414	0.596544	0.000035
 346	3.4328e+01	3.4261	-2.836937	0.000295	2.948160	0.499432	0.000029
 347	3.4427e+01	3.4376	-2.801906	0.000352	3.521414	0.596544	0.000035
 348	3.4526e+01	3.4505	-2.768911	0.000332	3.316681	0.561861	0.000033
 349	3.4626e+01	3.4596	-2.739175	0.000299	2.989107	0.506368	0.000030
 350	3.4725e+01	3.4681	-2.704551	0.000348	3.480467	0.589607	0.000035
 351	3.4825e+01	3.4792	-2.668705	0.000360	3.603307	0.610417	0.000036
 352	3.4925e+01	3.4853	-2.634488	0.000344	3.439521	0.582671	0.000034
 353	3.5024e+01	3.4980	-2.604345	0.000303	3.030054	0.513305	0.000030
 354	3.5123e+01	3.5050	-2.570128	0.000344	3.439521	0.582671	0.000034
 355	3.5223e+01	3.5189	-2.539577	0.000307	3.071001	0.520242	0.000031
 356	3.5322e+01	3.5280	-2.508619	0.000311	3.111947	0.527178	0.000031
 357	3.5422e+01	3.5390	-2.477254	0.000315	3.152894	0.534115	0.000032
 358	3.5522e+01	3.5474	-2.444666	0.000328	3.275734	0.554924	0.000033
 359	3.5621e+01	3.5573	-2.411672	0.000332	3.316681	0.561861	0.000033
 360	3.5721e+01	3.5654	-2.379899	0.000319	3.193841	0.541051	0.000032
 361	3.5820e+01	3.5752	-2.350570	0.000295	2.948160	0.499432	0.000029
 362	3.5919e+01	3.5868	-2.312687	0.000381	3.808041	0.645100	0.000038
 363	3.6019e+01	3.5957	-2.280915	0.000319	3.193841	0.541051	0.000032
 364	3.6118e+01	3.6082	-2.245476	0.000356	3.562361	0.603480	0.000036
 365	3.6218e+01	3.6169	-2.212481	0.000332	3.316681	0.561861	0.000033
 366	3.6318e+01	3.6293	-2.179079	0.000336	3.357627	0.568797	0.000034
 367	3.6417e+01	3.6367	-2.149343	0.000299	2.989107	0.506368	0.000030
 368	3.6517e+01	3.6451	-2.114719	0.000348	3.480467	0.589607	0.000035
 369	3.6616e+01	3.6565	-2.078873	0.000360	3.603307	0.610417	0.000036
 370	3.6715e+01	3.6680	-2.046285	0.000328	3.275734	0.554924	0.000033
 371	3.6815e+01	3.6774	-2.014513	0.000319	3.193841	0.541051	0.000032
 372	3.6914e+01	3.6870	-1.976222	0.000385	3.848987	0.652036	0.000038
 373	3.7014e+01	3.6991	-1.939562	0.000369	3.685201	0.624290	0.000037
 374	3.7114e+01	3.7091	-1.907381	0.000323	3.234787	0.547988	0.000032
 375	3.7213e+01	3.7185	-1.872350	0.000352	3.521414	0.596544	0.000035
 376	3.7313e+01	3.7257	-1.837319	0.000352	3.521414	0.596544	0.000035
 377	3.7412e+01	3.7370	-1.805546	0.000319	3.193841	0.541051	0.000032
 378	3.7511e+01	3.7492	-1.771329	0.000344	3.439521	0.582671	0.000034
 379	3.7611e+01	3.7590	-1.733854	0.000377	3.767094	0.638163	0.000038
 380	3.7711e+01	3.7670	-1.698822	0.000352	3.521414	0.596544	0.000035
 381	3.7810e+01	3.7789	-1.660125	0.000389	3.889934	0.658973	0.000039
 382	3.7910e+01	3.7856	-1.629167	0.000311	3.111947	0.527178	0.000031
 383	3.8009e+01	3.7982	-1.592506	0.000369	3.685201	0.624290	0.000037
 384	3.8108e+01	3.8065	-1.556252	0.000364	3.644254	0.617353	0.000036
 385	3.8208e+01	3.8158	-1.526109	0.000303	3.030054	0.513305	0.000030
 386	3.8307e+01	3.8258	-1.486597	0.000397	3.971827	0.672846	0.000040
 387	3.8407e+01	3.8342	-1.452380	0.000344	3.439521	0.582671	0.000034
 388	3.8507e+01	3.8486	-1.415312	0.000373	3.726147	0.631226	0.000037
 389	3.8606e+01	3.8555	-1.385168	0.000303	3.030054	0.513305	0.000030
 390	3.8706e+01	3.8653	-1.346878	0.000385	3.848987	0.652036	0.000038
 391	3.8805e+01	3.8769	-1.311847	0.000352	3.521414	0.596544	0.000035
 392	3.8904e+01	3.8858	-1.275186	0.000369	3.685201	0.624290	0.000037
 393	3.9004e+01	3.8953	-1.243006	0.000323	3.234787	0.547988	0.000032
 394	3.9103e+01	3.9079	-1.204716	0.000385	3.848987	0.652036	0.000038
 395	3.9203e+01	3.9129	-1.170499	0.000344	3.439521	0.582671	0.000034
 396	3.9303e+01	3.9272	-1.129765	0.000409	4.094667	0.693655	0.000041
 397	3.9402e+01	3.9375	-1.097992	0.000319	3.193841	0.541051	0.000032
 398	3.9502e+01	3.9443	-1.062960	0.000352	3.521414	0.596544	0.000035
 399	3.9601e+01	3.9556	-1.026300	0.000369	3.685201	0.624290	0.000037
 400	3.9700e+01	3.9673	-0.990046	0.000364	3.644254	0.617353	0.000036
 401	3.9800e+01	3.9737	-0.957051	0.000332	3.316681	0.561861	0.000033
 402	3.9900e+01	3.9832	-0.919983	0.000373	3.726147	0.631226	0.000037
 403	3.9999e+01	3.9966	-0.882508	0.000377	3.767094	0.638163	0.000038
 404	4.0099e+01	4.0065	-0.847476	0.000352	3.521414	0.596544	0.000035
 405	4.0198e+01	4.0138	-0.812852	0.000348	3.480467	0.589607	0.000035
 406	4.0297e+01	4.0310	-0.778635	0.000344	3.439521	0.582671	0.000034
 407	4.0397e+01	4.0363	-0.741567	0.000373	3.726147	0.631226	0.000037
 408	4.0496e+01	4.0449	-0.706943	0.000348	3.480467	0.589607	0.000035
 409	4.0596e+01	4.0576	-0.666209	0.000409	4.094667	0.693655	0.000041
 410	4.0696e+01	4.0644	-0.631177	0.000352	3.521414	0.596544	0.000035
 411	4.0795e+01	4.0741	-0.598997	0.000323	3.234787	0.547988	0.000032
 412	4.0895e+01	4.0855	-0.563558	0.000356	3.562361	0.603480	0.000036
 413	4.0994e+01	4.0945	-0.525676	0.000381	3.808041	0.645100	0.000038
 414	4.1093e+01	4.1056	-0.488607	0.000373	3.726147	0.631226	0.000037
 415	4.1193e+01	4.1160	-0.456427	0.000323	3.234787	0.547988	0.000032
 416	4.1292e+01	4.1264	-0.421396	0.000352	3.521414	0.596544	0.000035
 417	4.1392e+01	4.1362	-0.386364	0.000352	3.521414	0.596544	0.000035
 418	4.1492e+01	4.1431	-0.349704	0.000369	3.685201	0.624290	0.000037
 419	4.1591e+01	4.1553	-0.317116	0.000328	3.275734	0.554924	0.000033
 420	4.1691e+01	4.1664	-0.280048	0.000373	3.726147	0.631226	0.000037
 421	4.1790e+01	4.1741	-0.241758	0.000385	3.848987	0.652036	0.000038
 422	4.1889e+01	4.1830	-0.207948	0.000340	3.398574	0.575734	0.000034
 423	4.1989e+01	4.1929	-0.172917	0.000352	3.521414	0.596544	0.000035
 424	4.2089e+01	4.2026	-0.134627	0.000385	3.848987	0.652036	0.000038
 425	4.2188e+01	4.2168	-0.098373	0.000364	3.644254	0.617353	0.000036
 426	4.2288e+01	4.2234	-0.064564	0.000340	3.398574	0.575734	0.000034
 427	4.2387e+01	4.2353	-0.023830	0.000409	4.094667	0.693655	0.000041
 428	4.2486e+01	4.2447	0.012017	0.000360	3.603307	0.610417	0.000036
 429	4.2586e+01	4.2529	0.048270	0.000364	3.644254	0.617353	0.000036
 430	4.2685e+01	4.2641	0.081672	0.000336	3.357627	0.568797	0.000034
 431	4.2785e+01	4.2739	0.118740	0.000373	3.726147	0.631226	0.000037
 432	4.2885e+01	4.2870	0.155809	0.000373	3.726147	0.631226	0.000037
 433	4.2984e+01	4.2934	0.192062	0.000364	3.644254	0.617353	0.000036
 434	4.3084e+01	4.3031	0.229945	0.000381	3.808041	0.645100	0.000038
 435	4.3183e+01	4.3134	0.262125	0.000323	3.234787	0.547988	0.000032
 436	4.3282e+01	4.3234	0.302045	0.000401	4.012774	0.679782	0.000040
 437	4.3382e+01	4.3328	0.338298	0.000364	3.644254	0.617353	0.000036
 438	4.3481e+01	4.3449	0.379440	0.000414	4.135614	0.700592	0.000041
 439	4.3581e+01	4.3549	0.412434	0.000332	3.316681	0.561861	0.000033
 440	4.3681e+01	4.3629	0.457242	0.000450	4.504134	0.763021	0.000045
 441	4.3780e+01	4.3734	0.492273	0.000352	3.521414	0.596544	0.000035
 442	4.3880e+01	4.3837	0.524046	0.000319	3.193841	0.541051	0.000032
 443	4.3979e+01	4.3946	0.564373	0.000405	4.053721	0.686719	0.000041
 444	4.4078e+01	4.4057	0.602663	0.000385	3.848987	0.652036	0.000038
 445	4.4178e+01	4.4113	0.637695	0.000352	3.521414	0.596544	0.000035
 446	4.4278e+01	4.4270	0.672319	0.000348	3.480467	0.589607	0.000035
 447	4.4377e+01	4.4330	0.706128	0.000340	3.398574	0.575734	0.000034
 448	4.4477e+01	4.4422	0.747270	0.000414	4.135614	0.700592	0.000041
 449	4.4576e+01	4.4568	0.781894	0.000348	3.480467	0.589607	0.000035
 450	4.4675e+01	4.4619	0.814889	0.000332	3.316681	0.561861	0.000033
 451	4.4775e+01	4.4746	0.852772	0.000381	3.808041	0.645100	0.000038
 452	4.4874e+01	4.4828	0.887803	0.000352	3.521414	0.596544	0.000035
 453	4.4974e+01	4.4910	0.922427	0.000348	3.480467	0.589607	0.000035
 454	4.5074e+01	4.5019	0.960310	0.000381	3.808041	0.645100	0.000038
 455	4.5173e+01	4.5113	0.992897	0.000328	3.275734	0.554924	0.000033
 456	4.5273e+01	4.5227	1.029558	0.000369	3.685201	0.624290	0.000037
 457	4.5372e+01	4.5326	1.063368	0.000340	3.398574	0.575734	0.000034
 458	4.5471e+01	4.5426	1.094733	0.000315	3.152894	0.534115	0.000032
 459	4.5571e+01	4.5531	1.130579	0.000360	3.603307	0.610417	0.000036
 460	4.5670e+01	4.5657	1.163981	0.000336	3.357627	0.568797	0.000034
 461	4.5770e+01	4.5737	1.196976	0.000332	3.316681	0.561861	0.000033
 462	4.5870e+01	4.5834	1.229563	0.000328	3.275734	0.554924	0.000033
 463	4.5969e+01	4.5916	1.258892	0.000295	2.948160	0.499432	0.000029
 464	4.6069e+01	4.6008	1.294738	0.000360	3.603307	0.610417	0.000036
 465	4.6168e+01	4.6140	1.329770	0.000352	3.521414	0.596544	0.000035
 466	4.6267e+01	4.6253	1.359098	0.000295	2.948160	0.499432	0.000029
 467	4.6367e+01	4.6315	1.393315	0.000344	3.439521	0.582671	0.000034
 468	4.6467e+01	4.6422	1.424681	0.000315	3.152894	0.534115	0.000032
 469	4.6566e+01	4.6544	1.457268	0.000328	3.275734	0.554924	0.000033
 470	4.6666e+01	4.6662	1.489855	0.000328	3.275734	0.554924	0.000033
 471	4.6765e+01	4.6719	1.524072	0.000344	3.439521	0.582671	0.000034
 472	4.6864e+01	4.6803	1.556660	0.000328	3.275734	0.554924	0.000033
 473	4.6964e+01	4.6935	1.591284	0.000348	3.480467	0.589607	0.000035
 474	4.7063e+01	4.7022	1.620205	0.000291	2.907214	0.492495	0.000029
 475	4.7163e+01	4.7120	1.654014	0.000340	3.398574	0.575734	0.000034
 476	4.7263e+01	4.7224	1.686194	0.000323	3.234787	0.547988	0.000032
 477	4.7362e+01	4.7321	1.717560	0.000315	3.152894	0.534115	0.000032
 478	4.7462e+01	4.7411	1.750147	0.000328	3.275734	0.554924	0.000033
 479	4.7561e+01	4.7529	1.779883	0.000299	2.989107	0.506368	0.000030
 480	4.7660e+01	4.7596	1.812471	0.000328	3.275734	0.554924	0.000033
 481	4.7760e+01	4.7701	1.842207	0.000299	2.989107	0.506368	0.000030
 482	4.7859e+01	4.7807	1.874387	0.000323	3.234787	0.547988	0.000032
 483	4.7959e+01	4.7927	1.907789	0.000336	3.357627	0.568797	0.000034
 484	4.8059e+01	4.8009	1.937525	0.000299	2.989107	0.506368	0.000030
 485	4.8158e+01	4.8122	1.971742	0.000344	3.439521	0.582671	0.000034
 486	4.8258e+01	4.8211	1.999441	0.000278	2.784374	0.471686	0.000028
 487	4.8357e+01	4.8315	2.029992	0.000307	3.071001	0.520242	0.000031
 488	4.8456e+01	4.8431	2.064616	0.000348	3.480467	0.589607	0.000035
 489	4.8556e+01	4.8537	2.098425	0.000340	3.398574	0.575734	0.000034
 490	4.8656e+01	4.8610	2.123273	0.000250	2.497747	0.423130	0.000025
 491	4.8755e+01	4.8714	2.156675	0.000336	3.357627	0.568797	0.000034
 492	4.8855e+01	4.8831	2.190485	0.000340	3.398574	0.575734	0.000034
 493	4.8954e+01	4.8918	2.221850	0.000315	3.152894	0.534115	0.000032
 494	4.9053e+01	4.9036	2.251993	0.000303	3.030054	0.513305	0.000030
 495	4.9153e+01	4.9117	2.282951	0.000311	3.111947	0.527178	0.000031
 496	4.9252e+01	4.9209	2.309021	0.000262	2.620587	0.443939	0.000026
 497	4.9352e+01	4.9303	2.342016	0.000332	3.316681	0.561861	0.000033
 498	4.9452e+01	4.9403	2.369308	0.000274	2.743427	0.464749	0.000027
 499	4.9551e+01	4.9529	2.402303	0.000332	3.316681	0.561861	0.000033
 500	4.9651e+01	4.9616	2.432446	0.000303	3.030054	0.513305	0.000030
 501	4.9750e+01	4.9721	2.466255	0.000340	3.398574	0.575734	0.000034
 502	4.9849e+01	4.9807	2.499658	0.000336	3.357627	0.568797	0.000034
 503	4.9949e+01	4.9891	2.527764	0.000283	2.825320	0.478622	0.000028
 504	5.0048e+01	5.0024	2.559130	0.000315	3.152894	0.534115	0.000032
 505	5.0148e+01	5.0109	2.589680	0.000307	3.071001	0.520242	0.000031
 506	5.0248e+01	5.0217	2.617380	0.000278	2.784374	0.471686	0.000028
 507	5.0347e+01	5.0326	2.649560	0.000323	3.234787	0.547988	0.000032
 508	5.0447e+01	5.0404	2.678481	0.000291	2.907214	0.492495	0.000029
 509	5.0546e+01	5.0490	2.705366	0.000270	2.702480	0.457813	0.000027
 510	5.0645e+01	5.0605	2.736731	0.000315	3.152894	0.534115	0.000032
 511	5.0745e+01	5.0668	2.763616	0.000270	2.702480	0.457813	0.000027
 512	5.0844e+01	5.0781	2.794981	0.000315	3.152894	0.534115	0.000032
 513	5.0944e+01	5.0881	2.825124	0.000303	3.030054	0.513305	0.000030
 514	5.1044e+01	5.0997	2.853231	0.000283	2.825320	0.478622	0.000028
 515	5.1143e+01	5.1109	2.884189	0.000311	3.111947	0.527178	0.000031
 516	5.1242e+01	5.1166	2.911888	0.000278	2.784374	0.471686	0.000028
 517	5.1342e+01	5.1308	2.938365	0.000266	2.661534	0.450876	0.000027
 518	5.1441e+01	5.1392	2.971360	0.000332	3.316681	0.561861	0.000033
 519	5.1541e+01	5.1504	3.000282	0.000291	2.907214	0.492495	0.000029
 520	5.1641e+01	5.1614	3.027166	0.000270	2.702480	0.457813	0.000027
 521	5.1740e+01	5.1688	3.052014	0.000250	2.497747	0.423130	0.000025
 522	5.1840e+01	5.1767	3.078491	0.000266	2.661534	0.450876	0.000027
 523	5.1939e+01	5.1899	3.108227	0.000299	2.989107	0.506368	0.000030
 524	5.2038e+01	5.2003	3.133075	0.000250	2.497747	0.423130	0.000025
 525	5.2138e+01	5.2093	3.164033	0.000311	3.111947	0.527178	0.000031
 526	5.2237e+01	5.2187	3.190103	0.000262	2.620587	0.443939	0.000026
 527	5.2337e+01	5.2277	3.217395	0.000274	2.743427	0.464749	0.000027
 528	5.2437e+01	5.2422	3.249575	0.000323	3.234787	0.547988	0.000032
 529	5.2536e+01	5.2505	3.277274	0.000278	2.784374	0.471686	0.000028
 530	5.2636e+01	5.2618	3.306196	0.000291	2.907214	0.492495	0.000029
 531	5.2735e+01	5.2700	3.332673	0.000266	2.661534	0.450876	0.000027
 532	5.2834e+01	5.2785	3.362816	0.000303	3.030054	0.513305	0.000030
 533	5.2934e+01	5.2872	3.388886	0.000262	2.620587	0.443939	0.000026
 534	5.3033e+01	5.3001	3.417808	0.000291	2.907214	0.492495	0.000029
 535	5.3133e+01	5.3078	3.447136	0.000295	2.948160	0.499432	0.000029
 536	5.3233e+01	5.3173	3.476465	0.000295	2.948160	0.499432	0.000029
 537	5.3332e+01	5.3289	3.506608	0.000303	3.030054	0.513305	0.000030
 538	5.3431e+01	5.3371	3.535530	0.000291	2.907214	0.492495	0.000029
 539	5.3531e+01	5.3487	3.566488	0.000311	3.111947	0.527178	0.000031
 540	5.3630e+01	5.3590	3.594187	0.000278	2.784374	0.471686	0.000028
 541	5.3730e+01	5.3687	3.623923	0.000299	2.989107	0.506368	0.000030
 542	5.3830e+01	5.3800	3.658140	0.000344	3.439521	0.582671	0.000034
 543	5.3929e+01	5.3880	3.686246	0.000283	2.825320	0.478622	0.000028
 544	5.4029e+01	5.3996	3.717204	0.000311	3.111947	0.527178	0.000031
 545	5.4128e+01	5.4069	3.749385	0.000323	3.234787	0.547988	0.000032
 546	5.4227e+01	5.4184	3.780343	0.000311	3.111947	0.527178	0.000031
 547	5.4327e+01	5.4281	3.809264	0.000291	2.907214	0.492495	0.000029
 548	5.4426e+01	5.4394	3.841851	0.000328	3.275734	0.554924	0.000033
 549	5.4526e+01	5.4477	3.869143	0.000274	2.743427	0.464749	0.000027
 550	5.4626e+01	5.4559	3.903767	0.000348	3.480467	0.589607	0.000035
 551	5.4725e+01	5.4691	3.937169	0.000336	3.357627	0.568797	0.000034
 552	5.4825e+01	5.4774	3.966091	0.000291	2.907214	0.492495	0.000029
 553	5.4924e+01	5.4888	3.997049	0.000311	3.111947	0.527178	0.000031
 554	5.5023e+01	5.4992	4.029636	0.000328	3.275734	0.554924	0.000033
 555	5.5123e+01	5.5091	4.058965	0.000295	2.948160	0.499432	0.000029
 556	5.5222e+01	5.5190	4.092367	0.000336	3.357627	0.568797	0.000034
 557	5.5322e+01	5.5288	4.122918	0.000307	3.071001	0.520242	0.000031
 558	5.5422e+01	5.5372	4.152246	0.000295	2.948160	0.499432	0.000029
 559	5.5521e+01	5.5473	4.182390	0.000303	3.030054	0.513305	0.000030
 560	5.5620e+01	5.5575	4.213348	0.000311	3.111947	0.527178	0.000031
 561	5.5720e+01	5.5697	4.247157	0.000340	3.398574	0.575734	0.000034
 562	5.5819e+01	5.5752	4.278115	0.000311	3.111947	0.527178	0.000031
 563	5.5919e+01	5.5871	4.308666	0.000307	3.071001	0.520242	0.000031
 564	5.6019e+01	5.5962	4.340031	0.000315	3.152894	0.534115	0.000032
 565	5.6118e+01	5.6091	4.374655	0.000348	3.480467	0.589607	0.000035
 566	5.6218e+01	5.6165	4.401947	0.000274	2.743427	0.464749	0.000027
 567	5.6317e+01	5.6257	4.436164	0.000344	3.439521	0.582671	0.000034
 568	5.6416e+01	5.6361	4.463863	0.000278	2.784374	0.471686	0.000028
 569	5.6516e+01	5.6466	4.495229	0.000315	3.152894	0.534115	0.000032
 570	5.6615e+01	5.6570	4.529853	0.000348	3.480467	0.589607	0.000035
 571	5.6715e+01	5.6654	4.557959	0.000283	2.825320	0.478622	0.000028
 572	5.6815e+01	5.6783	4.590954	0.000332	3.316681	0.561861	0.000033
 573	5.6914e+01	5.6882	4.624356	0.000336	3.357627	0.568797	0.000034
 574	5.7014e+01	5.6957	4.653685	0.000295	2.948160	0.499432	0.000029
 575	5.7113e+01	5.7081	4.685050	0.000315	3.152894	0.534115	0.000032
 576	5.7212e+01	5.7168	4.715601	0.000307	3.071001	0.520242	0.000031
 577	5.7312e+01	5.7249	4.749818	0.000344	3.439521	0.582671	0.000034
 578	5.7411e+01	5.7333	4.781183	0.000315	3.152894	0.534115	0.000032
 579	5.7511e+01	5.7447	4.810512	0.000295	2.948160	0.499432	0.000029
 580	5.7611e+01	5.7554	4.844729	0.000344	3.439521	0.582671	0.000034
 581	5.7710e+01	5.7662	4.876501	0.000319	3.193841	0.541051	0.000032
 582	5.7809e+01	5.7784	4.908274	0.000319	3.193841	0.541051	0.000032
 583	5.7909e+01	5.7925	4.938010	0.000299	2.989107	0.506368	0.000030
 584	5.8008e+01	5.7964	4.970190	0.000323	3.234787	0.547988	0.000032
 585	5.8108e+01	5.8070	4.998297	0.000283	2.825320	0.478622	0.000028
 586	5.8208e+01	5.8160	5.032106	0.000340	3.398574	0.575734	0.000034
 587	5.8307e+01	5.8250	5.062657	0.000307	3.071001	0.520242	0.000031
 588	5.8407e+01	5.8373	5.098096	0.000356	3.562361	0.603480	0.000036
 589	5.8506e+01	5.8477	5.127424	0.000295	2.948160	0.499432	0.000029
 590	5.8605e+01	5.8556	5.158382	0.000311	3.111947	0.527178	0.000031
 591	5.8705e+01	5.8654	5.191784	0.000336	3.357627	0.568797	0.000034
 592	5.8804e+01	5.8759	5.221520	0.000299	2.989107	0.506368	0.000030
 593	5.8904e+01	5.8871	5.254515	0.000332	3.316681	0.561861	0.000033
 594	5.9004e+01	5.8930	5.288732	0.000344	3.439521	0.582671	0.000034
 595	5.9103e+01	5.9084	5.318875	0.000303	3.030054	0.513305	0.000030
 596	5.9203e+01	5.9161	5.352277	0.000336	3.357627	0.568797	0.000034
 597	5.9302e+01	5.9246	5.387716	0.000356	3.562361	0.603480	0.000036
 598	5.9401e+01	5.9377	5.420304	0.000328	3.275734	0.554924	0.000033
 599	5.9501e+01	5.9480	5.451262	0.000311	3.111947	0.527178	0.000031
 600	5.9600e+01	5.9563	5.481812	0.000307	3.071001	0.520242	0.000031
 601	5.9700e+01	5.9637	5.512363	0.000307	3.071001	0.520242	0.000031
 602	5.9800e+01	5.9774	5.546580	0.000344	3.439521	0.582671	0.000034
 603	5.9899e+01	5.9865	5.577538	0.000311	3.111947	0.527178	0.000031
 604	5.9998e+01	5.9963	5.610125	0.000328	3.275734	0.554924	0.000033
 605	6.0098e+01	6.0043	5.648415	0.000385	3.848987	0.652036	0.000038
 606	6.0197e+01	6.0129	5.682632	0.000344	3.439521	0.582671	0.000034
 607	6.0297e+01	6.0249	5.715627	0.000332	3.316681	0.561861	0.000033
 608	6.0397e+01	6.0345	5.749436	0.000340	3.398574	0.575734	0.000034
 609	6.0496e+01	6.0464	5.784468	0.000352	3.521414	0.596544	0.000035
 610	6.0596e+01	6.0558	5.816648	0.000323	3.234787	0.547988	0.000032
 611	6.0695e+01	6.0650	5.848828	0.000323	3.234787	0.547988	0.000032
 612	6.0794e+01	6.0731	5.881415	0.000328	3.275734	0.554924	0.000033
 613	6.0894e+01	6.0866	5.913188	0.000319	3.193841	0.541051	0.000032
 614	6.0993e+01	6.0963	5.942109	0.000291	2.907214	0.492495	0.000029
 615	6.1093e+01	6.1036	5.973882	0.000319	3.193841	0.541051	0.000032
 616	6.1193e+01	6.1147	6.008506	0.000348	3.480467	0.589607	0.000035
 617	6.1292e+01	6.1259	6.043945	0.000356	3.562361	0.603480	0.000036
 618	6.1392e+01	6.1333	6.072052	0.000283	2.825320	0.478622	0.000028
 619	6.1491e+01	6.1443	6.102195	0.000303	3.030054	0.513305	0.000030
 620	6.1590e+01	6.1556	6.138041	0.000360	3.603307	0.610417	0.000036
 621	6.1690e+01	6.1646	6.164926	0.000270	2.702480	0.457813	0.000027
 622	6.1789e+01	6.1745	6.199550	0.000348	3.480467	0.589607	0.000035
 623	6.1889e+01	6.1881	6.229693	0.000303	3.030054	0.513305	0.000030
 624	6.1989e+01	6.1956	6.261873	0.000323	3.234787	0.547988	0.000032
 625	6.2088e+01	6.2045	6.290387	0.000287	2.866267	0.485559	0.000029
 626	6.2188e+01	6.2139	6.321345	0.000311	3.111947	0.527178	0.000031
 627	6.2287e+01	6.2256	6.351081	0.000299	2.989107	0.506368	0.000030
 628	6.2386e+01	6.2351	6.376744	0.000258	2.579640	0.437003	0.000026
 629	6.2486e+01	6.2441	6.409331	0.000328	3.275734	0.554924	0.000033
 630	6.2586e+01	6.2511	6.439475	0.000303	3.030054	0.513305	0.000030
 631	6.2685e+01	6.2672	6.468803	0.000295	2.948160	0.499432	0.000029
 632	6.2785e+01	6.2763	6.497725	0.000291	2.907214	0.492495	0.000029
 633	6.2884e+01	6.2844	6.528683	0.000311	3.111947	0.527178	0.000031
 634	6.2983e+01	6.2930	6.556789	0.000283	2.825320	0.478622	0.000028
 635	6.3083e+01	6.3038	6.580415	0.000237	2.374907	0.402320	0.000024
 636	6.3182e+01	6.3136	6.610966	0.000307	3.071001	0.520242	0.000031
 637	6.3282e+01	6.3251	6.639887	0.000291	2.907214	0.492495	0.000029
 638	6.3382e+01	6.3365	6.667179	0.000274	2.743427	0.464749	0.000027
 639	6.3481e+01	6.3432	6.696915	0.000299	2.989107	0.506368	0.000030
 640	6.3581e+01	6.3552	6.726244	0.000295	2.948160	0.499432	0.000029
 641	6.3680e+01	6.3624	6.754758	0.000287	2.866267	0.485559	0.000029
 642	6.3779e+01	6.3757	6.785309	0.000307	3.071001	0.520242	0.000031
 643	6.3879e+01	6.3821	6.813823	0.000287	2.866267	0.485559	0.000029
 644	6.3978e+01	6.3927	6.841114	0.000274	2.743427	0.464749	0.000027
 645	6.4078e+01	6.4019	6.868814	0.000278	2.784374	0.471686	0.000028
 646	6.4177e+01	6.4143	6.896513	0.000278	2.784374	0.471686	0.000028
 647	6.4277e+01	6.4234	6.927064	0.000307	3.071001	0.520242	0.000031
 648	6.4376e+01	6.4318	6.951097	0.000242	2.415854	0.409257	0.000024
 649	6.4476e+01	6.4455	6.983684	0.000328	3.275734	0.554924	0.000033
 650	6.4576e+01	6.4521	7.006903	0.000233	2.333960	0.395384	0.000023
 651	6.4675e+01	6.4614	7.035010	0.000283	2.825320	0.478622	0.000028
 652	6.4775e+01	6.4730	7.064746	0.000299	2.989107	0.506368	0.000030
 653	6.4874e+01	6.4816	7.092852	0.000283	2.825320	0.478622	0.000028
 654	6.4974e+01	6.4925	7.121773	0.000291	2.907214	0.492495	0.000029
 655	6.5073e+01	6.5055	7.148658	0.000270	2.702480	0.457813	0.000027
 656	6.5172e+01	6.5118	7.177987	0.000295	2.948160	0.499432	0.000029
 657	6.5272e+01	6.5215	7.204057	0.000262	2.620587	0.443939	0.000026
 658	6.5371e+01	6.5346	7.229312	0.000254	2.538694	0.430066	0.000025
 659	6.5471e+01	6.5430	7.257826	0.000287	2.866267	0.485559	0.000029
 660	6.5570e+01	6.5540	7.285525	0.000278	2.784374	0.471686	0.000028
 661	6.5670e+01	6.5642	7.314447	0.000291	2.907214	0.492495	0.000029
 662	6.5769e+01	6.5711	7.337665	0.000233	2.333960	0.395384	0.000023
 663	6.5869e+01	6.5836	7.363735	0.000262	2.620587	0.443939	0.000026
 664	6.5969e+01	6.5963	7.395100	0.000315	3.152894	0.534115	0.000032
 665	6.6068e+01	6.6003	7.422392	0.000274	2.743427	0.464749	0.000027
 666	6.6168e+01	6.6119	7.444389	0.000221	2.211120	0.374574	0.000022
 667	6.6267e+01	6.6228	7.475347	0.000311	3.111947	0.527178	0.000031
 668	6.6367e+01	6.6335	7.499787	0.000246	2.456800	0.416193	0.000025
 669	6.6466e+01	6.6421	7.534412	0.000348	3.480467	0.589607	0.000035
 670	6.6566e+01	6.6525	7.559667	0.000254	2.538694	0.430066	0.000025
 671	6.6665e+01	6.6622	7.586144	0.000266	2.661534	0.450876	0.000027
 672	6.6764e+01	6.6705	7.614251	0.000283	2.825320	0.478622	0.000028
 673	6.6864e+01	6.6813	7.645209	0.000311	3.111947	0.527178	0.000031
 674	6.6963e+01	6.6926	7.670057	0.000250	2.497747	0.423130	0.000025
 675	6.7063e+01	6.6985	7.696941	0.000270	2.702480	0.457813	0.000027
 676	6.7162e+01	6.7113	7.720160	0.000233	2.333960	0.395384	0.000023
 677	6.7262e+01	6.7236	7.751525	0.000315	3.152894	0.534115	0.000032
 678	6.7362e+01	6.7297	7.768633	0.000172	1.719760	0.291335	0.000017
 679	6.7461e+01	6.7413	7.798369	0.000299	2.989107	0.506368	0.000030
 680	6.7561e+01	6.7513	7.822403	0.000242	2.415854	0.409257	0.000024
 681	6.7660e+01	6.7632	7.849287	0.000270	2.702480	0.457813	0.000027
 682	6.7760e+01	6.7692	7.876172	0.000270	2.702480	0.457813	0.000027
 683	6.7859e+01	6.7809	7.898576	0.000225	2.252067	0.381510	0.000023
 684	6.7959e+01	6.7905	7.929126	0.000307	3.071001	0.520242	0.000031
 685	6.8058e+01	6.8005	7.952752	0.000237	2.374907	0.402320	0.000024
 686	6.8157e+01	6.8108	7.980859	0.000283	2.825320	0.478622	0.000028
 687	6.8257e+01	6.8230	8.004892	0.000242	2.415854	0.409257	0.000024
 688	6.8356e+01	6.8324	8.028111	0.000233	2.333960	0.395384	0.000023
 689	6.8456e+01	6.8430	8.052144	0.000242	2.415854	0.409257	0.000024
 690	6.8555e+01	6.8499	8.072511	0.000205	2.047334	0.346828	0.000020
 691	6.8655e+01	6.8606	8.102247	0.000299	2.989107	0.506368	0.000030
 692	6.8754e+01	6.8728	8.123021	0.000209	2.088280	0.353764	0.000021
 693	6.8854e+01	6.8812	8.147055	0.000242	2.415854	0.409257	0.000024
 694	6.8954e+01	6.8908	8.170681	0.000237	2.374907	0.402320	0.000024
 695	6.9053e+01	6.8999	8.199602	0.000291	2.907214	0.492495	0.000029
 696	6.9153e+01	6.9123	8.223228	0.000237	2.374907	0.402320	0.000024
 697	6.9252e+01	6.9204	8.247668	0.000246	2.456800	0.416193	0.000025
 698	6.9352e+01	6.9298	8.276182	0.000287	2.866267	0.485559	0.000029
 699	6.9451e+01	6.9411	8.298993	0.000229	2.293014	0.388447	0.000023
 700	6.9550e+01	6.9545	8.323027	0.000242	2.415854	0.409257	0.000024
 701	6.9650e+01	6.9595	8.351133	0.000283	2.825320	0.478622	0.000028
 702	6.9749e+01	6.9689	8.373130	0.000221	2.211120	0.374574	0.000022
 703	6.9849e+01	6.9794	8.400014	0.000270	2.702480	0.457813	0.000027
 704	6.9948e+01	6.9881	8.425677	0.000258	2.579640	0.437003	0.000026
 705	7.0048e+01	6.9991	8.451340	0.000258	2.579640	0.437003	0.000026
 706	7.0147e+01	7.0110	8.481483	0.000303	3.030054	0.513305	0.000030
 707	7.0247e+01	7.0216	8.508368	0.000270	2.702480	0.457813	0.000027
 708	7.0347e+01	7.0296	8.534845	0.000266	2.661534	0.450876	0.000027
 709	7.0446e+01	7.0439	8.565803	0.000311	3.111947	0.527178	0.000031
 710	7.0546e+01	7.0515	8.591058	0.000254	2.538694	0.430066	0.000025
 711	7.0645e+01	7.0577	8.618757	0.000278	2.784374	0.471686	0.000028
 712	7.0745e+01	7.0691	8.643605	0.000250	2.497747	0.423130	0.000025
 713	7.0844e+01	7.0791	8.674156	0.000307	3.071001	0.520242	0.000031
 714	7.0944e+01	7.0905	8.699004	0.000250	2.497747	0.423130	0.000025
 715	7.1043e+01	7.1001	8.727925	0.000291	2.907214	0.492495	0.000029
 716	7.1142e+01	7.1103	8.756439	0.000287	2.866267	0.485559	0.000029
 717	7.1242e+01	7.1221	8.782509	0.000262	2.620587	0.443939	0.000026
 718	7.1341e+01	7.1294	8.811838	0.000295	2.948160	0.499432	0.000029
 719	7.1441e+01	7.1405	8.839944	0.000283	2.825320	0.478622	0.000028
 720	7.1540e+01	7.1485	8.866422	0.000266	2.661534	0.450876	0.000027
 721	7.1640e+01	7.1603	8.892492	0.000262	2.620587	0.443939	0.000026
 722	7.1740e+01	7.1691	8.927523	0.000352	3.521414	0.596544	0.000035
 723	7.1839e+01	7.1778	8.951556	0.000242	2.415854	0.409257	0.000024
 724	7.1939e+01	7.1900	8.981292	0.000299	2.989107	0.506368	0.000030
 725	7.2038e+01	7.1960	9.005733	0.000246	2.456800	0.416193	0.000025
 726	7.2138e+01	7.2079	9.035876	0.000303	3.030054	0.513305	0.000030
 727	7.2237e+01	7.2190	9.062353	0.000266	2.661534	0.450876	0.000027
 728	7.2337e+01	7.2304	9.091275	0.000291	2.907214	0.492495	0.000029
 729	7.2436e+01	7.2407	9.120196	0.000291	2.907214	0.492495	0.000029
 730	7.2535e+01	7.2495	9.150747	0.000307	3.071001	0.520242	0.000031
 731	7.2635e+01	7.2626	9.180890	0.000303	3.030054	0.513305	0.000030
 732	7.2734e+01	7.2689	9.206960	0.000262	2.620587	0.443939	0.000026
 733	7.2834e+01	7.2775	9.233437	0.000266	2.661534	0.450876	0.000027
 734	7.2933e+01	7.2894	9.265210	0.000319	3.193841	0.541051	0.000032
 735	7.3033e+01	7.3002	9.291687	0.000266	2.661534	0.450876	0.000027
 736	7.3132e+01	7.3090	9.321016	0.000295	2.948160	0.499432	0.000029
 737	7.3232e+01	7.3188	9.352381	0.000315	3.152894	0.534115	0.000032
 738	7.3332e+01	7.3287	9.376822	0.000246	2.456800	0.416193	0.000025
 739	7.3431e+01	7.3376	9.402484	0.000258	2.579640	0.437003	0.000026
 740	7.3531e+01	7.3436	9.435072	0.000328	3.275734	0.554924	0.000033
 741	7.3630e+01	7.3571	9.463586	0.000287	2.866267	0.485559	0.000029
 742	7.3730e+01	7.3705	9.494137	0.000307	3.071001	0.520242	0.000031
 743	7.3829e+01	7.3804	9.523873	0.000299	2.989107	0.506368	0.000030
 744	7.3928e+01	7.3887	9.552794	0.000291	2.907214	0.492495	0.000029
 745	7.4028e+01	7.3992	9.582123	0.000295	2.948160	0.499432	0.000029
 746	7.4127e+01	7.4068	9.609822	0.000278	2.784374	0.471686	0.000028
 747	7.4227e+01	7.4202	9.634262	0.000246	2.456800	0.416193	0.000025
 748	7.4326e+01	7.4258	9.666850	0.000328	3.275734	0.554924	0.000033
 749	7.4426e+01	7.4367	9.694956	0.000283	2.825320	0.478622	0.000028
 750	7.4525e+01	7.4490	9.723470	0.000287	2.866267	0.485559	0.000029
 751	7.4625e+01	7.4614	9.754836	0.000315	3.152894	0.534115	0.000032
 752	7.4725e+01	7.4667	9.777647	0.000229	2.293014	0.388447	0.000023
 753	7.4824e+01	7.4768	9.806568	0.000291	2.907214	0.492495	0.000029
 754	7.4924e+01	7.4863	9.839563	0.000332	3.316681	0.561861	0.000033
 755	7.5023e+01	7.4984	9.863596	0.000242	2.415854	0.409257	0.000024
 756	7.5123e+01	7.5098	9.893740	0.000303	3.030054	0.513305	0.000030
 757	7.5222e+01	7.5185	9.922254	0.000287	2.866267	0.485559	0.000029
 758	7.5322e+01	7.5299	9.956063	0.000340	3.398574	0.575734	0.000034
 759	7.5421e+01	7.5359	9.982133	0.000262	2.620587	0.443939	0.000026
 760	7.5520e+01	7.5455	10.010647	0.000287	2.866267	0.485559	0.000029
 761	7.5620e+01	7.5567	10.044864	0.000344	3.439521	0.582671	0.000034
 762	7.5719e+01	7.5655	10.072970	0.000283	2.825320	0.478622	0.000028
 763	7.5819e+01	7.5781	10.102706	0.000299	2.989107	0.506368	0.000030
 764	7.5918e+01	7.5881	10.132442	0.000299	2.989107	0.506368	0.000030
 765	7.6018e+01	7.5964	10.164215	0.000319	3.193841	0.541051	0.000032
 766	7.6118e+01	7.6069	10.193544	0.000295	2.948160	0.499432	0.000029
 767	7.6217e+01	7.6183	10.221243	0.000278	2.784374	0.471686	0.000028
 768	7.6317e+01	7.6258	10.252201	0.000311	3.111947	0.527178	0.000031
 769	7.6416e+01	7.6376	10.282752	0.000307	3.071001	0.520242	0.000031
 770	7.6516e+01	7.6458	10.311266	0.000287	2.866267	0.485559	0.000029
 771	7.6615e+01	7.6577	10.345890	0.000348	3.480467	0.589607	0.000035
 772	7.6715e+01	7.6662	10.372774	0.000270	2.702480	0.457813	0.000027
 773	7.6814e+01	7.6783	10.404954	0.000323	3.234787	0.547988	0.000032
 774	7.6913e+01	7.6864	10.439579	0.000348	3.480467	0.589607	0.000035
 775	7.7013e+01	7.6968	10.472573	0.000332	3.316681	0.561861	0.000033
 776	7.7112e+01	7.7067	10.502717	0.000303	3.030054	0.513305	0.000030
 777	7.7212e+01	7.7158	10.534489	0.000319	3.193841	0.541051	0.000032
 778	7.7311e+01	7.7295	10.560559	0.000262	2.620587	0.443939	0.000026
 779	7.7411e+01	7.7351	10.593147	0.000328	3.275734	0.554924	0.000033
 780	7.7510e+01	7.7464	10.621661	0.000287	2.866267	0.485559	0.000029
 781	7.7610e+01	7.7579	10.653433	0.000319	3.193841	0.541051	0.000032
 782	7.7710e+01	7.7666	10.683169	0.000299	2.989107	0.506368	0.000030
 783	7.7809e+01	7.7748	10.710869	0.000278	2.784374	0.471686	0.000028
 784	7.7909e+01	7.7844	10.743863	0.000332	3.316681	0.561861	0.000033
 785	7.8008e+01	7.7946	10.770748	0.000270	2.702480	0.457813	0.000027
 786	7.8108e+01	7.8069	10.800891	0.000303	3.030054	0.513305	0.000030
 787	7.8207e+01	7.8176	10.835516	0.000348	3.480467	0.589607	0.000035
 788	7.8306e+01	7.8240	10.860363	0.000250	2.497747	0.423130	0.000025
 789	7.8406e+01	7.8378	10.890914	0.000307	3.071001	0.520242	0.000031
 790	7.8505e+01	7.8442	10.916984	0.000262	2.620587	0.443939	0.000026
 791	7.8605e+01	7.8569	10.944276	0.000274	2.743427	0.464749	0.000027
 792	7.8704e+01	7.8664	10.975234	0.000311	3.111947	0.527178	0.000031
 793	7.8804e+01	7.8771	11.001304	0.000262	2.620587	0.443939	0.000026
 794	7.8903e+01	7.8857	11.033077	0.000319	3.193841	0.541051	0.000032
 795	7.9003e+01	7.8947	11.055888	0.000229	2.293014	0.388447	0.000023
 796	7.9103e+01	7.9067	11.086439	0.000307	3.071001	0.520242	0.000031
 797	7.9202e+01	7.9156	11.113323	0.000270	2.702480	0.457813	0.000027
 798	7.9302e+01	7.9243	11.138986	0.000258	2.579640	0.437003	0.000026
 799	7.9401e+01	7.9365	11.165463	0.000266	2.661534	0.450876	0.000027
 800	7.9501e+01	7.9443	11.195199	0.000299	2.989107	0.506368	0.000030
 801	7.9600e+01	7.9572	11.221676	0.000266	2.661534	0.450876	0.000027
 802	7.9700e+01	7.9649	11.248968	0.000274	2.743427	0.464749	0.000027
 803	7.9799e+01	7.9763	11.277075	0.000283	2.825320	0.478622	0.000028
 804	7.9898e+01	7.9807	11.303552	0.000266	2.661534	0.450876	0.000027
 805	7.9998e+01	7.9944	11.329215	0.000258	2.579640	0.437003	0.000026
 806	8.0097e+01	8.0036	11.357321	0.000283	2.825320	0.478622	0.000028
 807	8.0197e+01	8.0135	11.383391	0.000262	2.620587	0.443939	0.000026
 808	8.0296e+01	8.0280	11.412720	0.000295	2.948160	0.499432	0.000029
 809	8.0396e+01	8.0358	11.440012	0.000274	2.743427	0.464749	0.000027
 810	8.0496e+01	8.0469	11.464860	0.000250	2.497747	0.423130	0.000025
 811	8.0595e+01	8.0539	11.494188	0.000295	2.948160	0.499432	0.000029
 812	8.0695e+01	8.0633	11.519036	0.000250	2.497747	0.423130	0.000025
 813	8.0794e+01	8.0751	11.546328	0.000274	2.743427	0.464749	0.000027
 814	8.0894e+01	8.0847	11.570362	0.000242	2.415854	0.409257	0.000024
 815	8.0993e+01	8.0943	11.595209	0.000250	2.497747	0.423130	0.000025
 816	8.1093e+01	8.1042	11.622094	0.000270	2.702480	0.457813	0.000027
 817	8.1192e+01	8.1144	11.648979	0.000270	2.702480	0.457813	0.000027
 818	8.1291e+01	8.1226	11.674641	0.000258	2.579640	0.437003	0.000026
 819	8.1391e+01	8.1360	11.701118	0.000266	2.661534	0.450876	0.000027
 820	8.1490e+01	8.1446	11.725152	0.000242	2.415854	0.409257	0.000024
 821	8.1590e+01	8.1543	11.752444	0.000274	2.743427	0.464749	0.000027
 822	8.1689e+01	8.1661	11.780143	0.000278	2.784374	0.471686	0.000028
 823	8.1789e+01	8.1741	11.801325	0.000213	2.129227	0.360701	0.000021
 824	8.1888e+01	8.1841	11.831468	0.000303	3.030054	0.513305	0.000030
 825	8.1988e+01	8.1939	11.860797	0.000295	2.948160	0.499432	0.000029
 826	8.2088e+01	8.2010	11.884015	0.000233	2.333960	0.395384	0.000023
 827	8.2187e+01	8.2138	11.909678	0.000258	2.579640	0.437003	0.000026
 828	8.2287e+01	8.2227	11.933711	0.000242	2.415854	0.409257	0.000024
 829	8.2386e+01	8.2339	11.963447	0.000299	2.989107	0.506368	0.000030
 830	8.2486e+01	8.2452	11.987480	0.000242	2.415854	0.409257	0.000024
 831	8.2585e+01	8.2546	12.012736	0.000254	2.538694	0.430066	0.000025
 832	8.2684e+01	8.2627	12.038398	0.000258	2.579640	0.437003	0.000026
 833	8.2784e+01	8.2749	12.067727	0.000295	2.948160	0.499432	0.000029
 834	8.2883e+01	8.2853	12.093389	0.000258	2.579640	0.437003	0.000026
 835	8.2983e+01	8.2952	12.116201	0.000229	2.293014	0.388447	0.000023
 836	8.3082e+01	8.3060	12.146751	0.000307	3.071001	0.520242	0.000031
 837	8.3182e+01	8.3135	12.172414	0.000258	2.579640	0.437003	0.000026
 838	8.3281e+01	8.3221	12.196447	0.000242	2.415854	0.409257	0.000024
 839	8.3381e+01	8.3326	12.222517	0.000262	2.620587	0.443939	0.000026
 840	8.3481e+01	8.3443	12.248180	0.000258	2.579640	0.437003	0.000026
 841	8.3580e+01	8.3533	12.275471	0.000274	2.743427	0.464749	0.000027
 842	8.3680e+01	8.3618	12.301949	0.000266	2.661534	0.450876	0.000027
 843	8.3779e+01	8.3731	12.328019	0.000262	2.620587	0.443939	0.000026
 844	8.3879e+01	8.3831	12.353274	0.000254	2.538694	0.430066	0.000025
 845	8.3978e+01	8.3900	12.378936	0.000258	2.579640	0.437003	0.000026
 846	8.4078e+01	8.4009	12.401340	0.000225	2.252067	0.381510	0.000023
 847	8.4177e+01	8.4119	12.422115	0.000209	2.088280	0.353764	0.000021
 848	8.4276e+01	8.4238	12.450221	0.000283	2.825320	0.478622	0.000028
 849	8.4376e+01	8.4330	12.472218	0.000221	2.211120	0.374574	0.000022
 850	8.4475e+01	8.4400	12.497880	0.000258	2.579640	0.437003	0.000026
 851	8.4575e+01	8.4510	12.523950	0.000262	2.620587	0.443939	0.000026
 852	8.4674e+01	8.4637	12.549613	0.000258	2.579640	0.437003	0.000026
 853	8.4774e+01	8.4743	12.572832	0.000233	2.333960	0.395384	0.000023
 854	8.4874e+01	8.4830	12.598901	0.000262	2.620587	0.443939	0.000026
 855	8.4973e+01	8.4952	12.621305	0.000225	2.252067	0.381510	0.000023
 856	8.5073e+01	8.5024	12.642487	0.000213	2.129227	0.360701	0.000021
 857	8.5172e+01	8.5120	12.668964	0.000266	2.661534	0.450876	0.000027
 858	8.5272e+01	8.5220	12.687295	0.000184	1.842600	0.312145	0.000018
 859	8.5371e+01	8.5323	12.710106	0.000229	2.293014	0.388447	0.000023
 860	8.5471e+01	8.5430	12.740249	0.000303	3.030054	0.513305	0.000030
 861	8.5570e+01	8.5513	12.761838	0.000217	2.170174	0.367637	0.000022
 862	8.5669e+01	8.5632	12.786686	0.000250	2.497747	0.423130	0.000025
 863	8.5769e+01	8.5707	12.810720	0.000242	2.415854	0.409257	0.000024
 864	8.5868e+01	8.5831	12.833938	0.000233	2.333960	0.395384	0.000023
 865	8.5968e+01	8.5931	12.863267	0.000295	2.948160	0.499432	0.000029
 866	8.6067e+01	8.6002	12.889744	0.000266	2.661534	0.450876	0.000027
 867	8.6167e+01	8.6118	12.908482	0.000188	1.883547	0.319081	0.000019
 868	8.6266e+01	8.6208	12.936588	0.000283	2.825320	0.478622	0.000028
 869	8.6366e+01	8.6340	12.959400	0.000229	2.293014	0.388447	0.000023
 870	8.6466e+01	8.6404	12.985062	0.000258	2.579640	0.437003	0.000026
 871	8.6565e+01	8.6515	13.007873	0.000229	2.293014	0.388447	0.000023
 872	8.6665e+01	8.6623	13.035980	0.000283	2.825320	0.478622	0.000028
 873	8.6764e+01	8.6724	13.061643	0.000258	2.579640	0.437003	0.000026
 874	8.6864e+01	8.6816	13.089749	0.000283	2.825320	0.478622	0.000028
 875	8.6963e+01	8.6928	13.119893	0.000303	3.030054	0.513305	0.000030
 876	8.7063e+01	8.7036	13.143111	0.000233	2.333960	0.395384	0.000023
 877	8.7162e+01	8.7119	13.173662	0.000307	3.071001	0.520242	0.000031
 878	8.7261e+01	8.7235	13.200139	0.000266	2.661534	0.450876	0.000027
 879	8.7361e+01	8.7326	13.224580	0.000246	2.456800	0.416193	0.000025
 880	8.7460e+01	8.7420	13.252279	0.000278	2.784374	0.471686	0.000028
 881	8.7560e+01	8.7519	13.281608	0.000295	2.948160	0.499432	0.000029
 882	8.7659e+01	8.7605	13.310936	0.000295	2.948160	0.499432	0.000029
 883	8.7759e+01	8.7729	13.334562	0.000237	2.374907	0.402320	0.000024
 884	8.7859e+01	8.7795	13.367964	0.000336	3.357627	0.568797	0.000034
 885	8.7958e+01	8.7881	13.392405	0.000246	2.456800	0.416193	0.000025
 886	8.8058e+01	8.8001	13.422141	0.000299	2.989107	0.506368	0.000030
 887	8.8157e+01	8.8103	13.448211	0.000262	2.620587	0.443939	0.000026
 888	8.8257e+01	8.8203	13.475503	0.000274	2.743427	0.464749	0.000027
 889	8.8356e+01	8.8285	13.503609	0.000283	2.825320	0.478622	0.000028
 890	8.8456e+01	8.8394	13.532531	0.000291	2.907214	0.492495	0.000029
 891	8.8555e+01	8.8492	13.559415	0.000270	2.702480	0.457813	0.000027
 892	8.8654e+01	8.8593	13.586707	0.000274	2.743427	0.464749	0.000027
 893	8.8754e+01	8.8707	13.617665	0.000311	3.111947	0.527178	0.000031
 894	8.8853e+01	8.8797	13.642513	0.000250	2.497747	0.423130	0.000025
 895	8.8953e+01	8.8928	13.673878	0.000315	3.152894	0.534115	0.000032
 896	8.9052e+01	8.9001	13.703207	0.000295	2.948160	0.499432	0.000029
 897	8.9152e+01	8.9047	13.730092	0.000270	2.702480	0.457813	0.000027
 898	8.9251e+01	8.9225	13.761050	0.000311	3.111947	0.527178	0.000031
 899	8.9351e+01	8.9307	13.791600	0.000307	3.071001	0.520242	0.000031
 900	8.9451e+01	8.9384	13.821336	0.000299	2.989107	0.506368	0.000030
 901	8.9550e+01	8.9474	13.850258	0.000291	2.907214	0.492495	0.000029
 902	8.9650e+01	8.9589	13.878364	0.000283	2.825320	0.478622	0.000028
 903	8.9749e+01	8.9715	13.908100	0.000299	2.989107	0.506368	0.000030
 904	8.9849e+01	8.9802	13.933763	0.000258	2.579640	0.437003	0.000026
 905	8.9948e+01	8.9887	13.963499	0.000299	2.989107	0.506368	0.000030
 906	9.0047e+01	9.0000	13.996901	0.000336	3.357627	0.568797	0.000034
 907	9.0147e+01	9.0074	14.022971	0.000262	2.620587	0.443939	0.000026
 908	9.0246e+01	9.0234	14.054336	0.000315	3.152894	0.534115	0.000032
 909	9.0346e+01	9.0287	14.088960	0.000348	3.480467	0.589607	0.000035
 910	9.0445e+01	9.0391	14.112179	0.000233	2.333960	0.395384	0.000023
 911	9.0545e+01	9.0482	14.144766	0.000328	3.275734	0.554924	0.000033
 912	9.0644e+01	9.0592	14.174910	0.000303	3.030054	0.513305	0.000030
 913	9.0744e+01	9.0667	14.203016	0.000283	2.825320	0.478622	0.000028
 914	9.0844e+01	9.0793	14.231530	0.000287	2.866267	0.485559	0.000029
 915	9.0943e+01	9.0884	14.266969	0.000356	3.562361	0.603480	0.000036
 916	9.1043e+01	9.0998	14.293446	0.000266	2.661534	0.450876	0.000027
 917	9.1142e+01	9.1105	14.326034	0.000328	3.275734	0.554924	0.000033
 918	9.1242e+01	9.1169	14.355770	0.000299	2.989107	0.506368	0.000030
 919	9.1341e+01	9.1281	14.385913	0.000303	3.030054	0.513305	0.000030
 920	9.1441e+01	9.1385	14.418908	0.000332	3.316681	0.561861	0.000033
 921	9.1540e+01	9.1455	14.443756	0.000250	2.497747	0.423130	0.000025
 922	9.1639e+01	9.1563	14.473899	0.000303	3.030054	0.513305	0.000030
 923	9.1739e+01	9.1706	14.502413	0.000287	2.866267	0.485559	0.000029
 924	9.1838e+01	9.1788	14.531335	0.000291	2.907214	0.492495	0.000029
 925	9.1938e+01	9.1876	14.566773	0.000356	3.562361	0.603480	0.000036
 926	9.2037e+01	9.1959	14.595287	0.000287	2.866267	0.485559	0.000029
 927	9.2137e+01	9.2051	14.628689	0.000336	3.357627	0.568797	0.000034
 928	9.2237e+01	9.2192	14.656796	0.000283	2.825320	0.478622	0.000028
 929	9.2336e+01	9.2268	14.690605	0.000340	3.398574	0.575734	0.000034
 930	9.2436e+01	9.2394	14.725230	0.000348	3.480467	0.589607	0.000035
 931	9.2535e+01	9.2494	14.755373	0.000303	3.030054	0.513305	0.000030
 932	9.2635e+01	9.2599	14.784294	0.000291	2.907214	0.492495	0.000029
 933	9.2734e+01	9.2705	14.814845	0.000307	3.071001	0.520242	0.000031
 934	9.2834e+01	9.2767	14.847840	0.000332	3.316681	0.561861	0.000033
 935	9.2933e+01	9.2859	14.879612	0.000319	3.193841	0.541051	0.000032
 936	9.3032e+01	9.2987	14.915459	0.000360	3.603307	0.610417	0.000036
 937	9.3132e+01	9.3079	14.945195	0.000299	2.989107	0.506368	0.000030
 938	9.3231e+01	9.3188	14.979819	0.000348	3.480467	0.589607	0.000035
 939	9.3331e+01	9.3282	15.011999	0.000323	3.234787	0.547988	0.000032
 940	9.3430e+01	9.3391	15.044586	0.000328	3.275734	0.554924	0.000033
 941	9.3530e+01	9.3439	15.080025	0.000356	3.562361	0.603480	0.000036
 942	9.3629e+01	9.3567	15.112612	0.000328	3.275734	0.554924	0.000033
 943	9.3729e+01	9.3681	15.148458	0.000360	3.603307	0.610417	0.000036
 944	9.3829e+01	9.3781	15.180231	0.000319	3.193841	0.541051	0.000032
 945	9.3928e+01	9.3890	15.212819	0.000328	3.275734	0.554924	0.000033
 946	9.4028e+01	9.3972	15.243369	0.000307	3.071001	0.520242	0.000031
 947	9.4127e+01	9.4080	15.277586	0.000344	3.439521	0.582671	0.000034
 948	9.4227e+01	9.4153	15.307729	0.000303	3.030054	0.513305	0.000030
 949	9.4326e+01	9.4272	15.342761	0.000352	3.521414	0.596544	0.000035
 950	9.4425e+01	9.4363	15.378200	0.000356	3.562361	0.603480	0.000036
 951	9.4525e+01	9.4461	15.408750	0.000307	3.071001	0.520242	0.000031
 952	9.4624e+01	9.4559	15.440930	0.000323	3.234787	0.547988	0.000032
 953	9.4724e+01	9.4647	15.475555	0.000348	3.480467	0.589607	0.000035
 954	9.4823e+01	9.4763	15.506920	0.000315	3.152894	0.534115	0.000032
 955	9.4923e+01	9.4877	15.539915	0.000332	3.316681	0.561861	0.000033
 956	9.5022e+01	9.4962	15.571687	0.000319	3.193841	0.541051	0.000032
 957	9.5122e+01	9.5068	15.601831	0.000303	3.030054	0.513305	0.000030
 958	9.5222e+01	9.5153	15.636862	0.000352	3.521414	0.596544	0.000035
 959	9.5321e+01	9.5271	15.664561	0.000278	2.784374	0.471686	0.000028
 960	9.5421e+01	9.5347	15.696334	0.000319	3.193841	0.541051	0.000032
 961	9.5520e+01	9.5453	15.728107	0.000319	3.193841	0.541051	0.000032
 962	9.5620e+01	9.5565	15.759065	0.000311	3.111947	0.527178	0.000031
 963	9.5719e+01	9.5658	15.789208	0.000303	3.030054	0.513305	0.000030
 964	9.5819e+01	9.5753	15.820981	0.000319	3.193841	0.541051	0.000032
 965	9.5918e+01	9.5867	15.853161	0.000323	3.234787	0.547988	0.000032
 966	9.6017e+01	9.5977	15.883712	0.000307	3.071001	0.520242	0.000031
 967	9.6117e+01	9.6103	15.912633	0.000291	2.907214	0.492495	0.000029
 968	9.6216e+01	9.6134	15.945628	0.000332	3.316681	0.561861	0.000033
 969	9.6316e+01	9.6240	15.977401	0.000319	3.193841	0.541051	0.000032
 970	9.6415e+01	9.6357	16.008359	0.000311	3.111947	0.527178	0.000031
 971	9.6515e+01	9.6454	16.035651	0.000274	2.743427	0.464749	0.000027
 972	9.6615e+01	9.6571	16.067016	0.000315	3.152894	0.534115	0.000032
 973	9.6714e+01	9.6662	16.097974	0.000311	3.111947	0.527178	0.000031
 974	9.6814e+01	9.6754	16.128525	0.000307	3.071001	0.520242	0.000031
 975	9.6913e+01	9.6861	16.161927	0.000336	3.357627	0.568797	0.000034
 976	9.7013e+01	9.6997	16.189626	0.000278	2.784374	0.471686	0.000028
 977	9.7112e+01	9.7047	16.224250	0.000348	3.480467	0.589607	0.000035
 978	9.7212e+01	9.7144	16.254394	0.000303	3.030054	0.513305	0.000030
 979	9.7311e+01	9.7243	16.286166	0.000319	3.193841	0.541051	0.000032
 980	9.7410e+01	9.7339	16.319976	0.000340	3.398574	0.575734	0.000034
 981	9.7510e+01	9.7473	16.345231	0.000254	2.538694	0.430066	0.000025
 982	9.7609e+01	9.7540	16.380262	0.000352	3.521414	0.596544	0.000035
 983	9.7709e+01	9.7657	16.408776	0.000287	2.866267	0.485559	0.000029
 984	9.7808e+01	9.7787	16.439734	0.000311	3.111947	0.527178	0.000031
 985	9.7908e+01	9.7873	16.467434	0.000278	2.784374	0.471686	0.000028
 986	9.8007e+01	9.7949	16.501650	0.000344	3.439521	0.582671	0.000034
 987	9.8107e+01	9.8055	16.531386	0.000299	2.989107	0.506368	0.000030
 988	9.8207e+01	9.8135	16.562344	0.000311	3.111947	0.527178	0.000031
 989	9.8306e+01	9.8242	16.593710	0.000315	3.152894	0.534115	0.000032
 990	9.8406e+01	9.8352	16.626297	0.000328	3.275734	0.554924	0.000033
 991	9.8505e+01	9.8445	16.656441	0.000303	3.030054	0.513305	0.000030
 992	9.8605e+01	9.8553	16.687806	0.000315	3.152894	0.534115	0.000032
 993	9.8704e+01	9.8633	16.717542	0.000299	2.989107	0.506368	0.000030
 994	9.8803e+01	9.8750	16.751351	0.000340	3.398574	0.575734	0.000034
 995	9.8903e+01	9.8867	16.781495	0.000303	3.030054	0.513305	0.000030
 996	9.9002e+01	9.8940	16.812860	0.000315	3.152894	0.534115	0.000032
 997	9.9102e+01	9.9044	16.844226	0.000315	3.152894	0.534115	0.000032
 998	9.9201e+01	9.9151	16.872739	0.000287	2.866267	0.485559	0.000029
 999	9.9301e+01	9.9233	16.906549	0.000340	3.398574	0.575734	0.000034
1000	9.9400e+01	9.9368	16.936692	0.000303	3.030054	0.513305	0.000030
1001	9.9500e+01	9.9449	16.971316	0.000348	3.480467	0.589607	0.000035
1002	9.9600e+01	9.9536	16.999423	0.000283	2.825320	0.478622	0.000028
1003	9.9699e+01	9.9618	17.035677	0.000364	3.644254	0.617353	0.000036
1004	9.9799e+01	9.9747	17.068264	0.000328	3.275734	0.554924	0.000033
1005	9.9898e+01	9.9847	17.097185	0.000291	2.907214	0.492495	0.000029
1006	9.9998e+01	9.9927	17.126921	0.000299	2.989107	0.506368	0.000030
1007	1.0010e+02	9.9878	17.118774	0.000082	0.818933	0.138731	-0.000008
1008	1.0020e+02	9.9744	17.108998	0.000098	0.982720	0.166477	-0.000010
1009	1.0030e+02	9.9641	17.099222	0.000098	0.982720	0.166477	-0.000010
1010	1.0040e+02	9.9551	17.087002	0.000123	1.228400	0.208097	-0.000012
1011	1.0050e+02	9.9451	17.074374	0.000127	1.269347	0.215033	-0.000013
1012	1.0059e+02	9.9342	17.063376	0.000111	1.105560	0.187287	-0.000011
1013	1.0069e+02	9.9243	17.045860	0.000176	1.760707	0.298272	-0.000018
1014	1.0079e+02	9.9133	17.032418	0.000135	1.351240	0.228906	-0.000014
1015	1.0089e+02	9.9024	17.018161	0.000143	1.433134	0.242779	-0.000014
1016	1.0099e+02	9.8926	17.005533	0.000127	1.269347	0.215033	-0.000013
1017	1.0109e+02	9.8840	16.991684	0.000139	1.392187	0.235843	-0.000014
1018	1.0119e+02	9.8752	16.976612	0.000152	1.515027	0.256653	-0.000015
1019	1.0129e+02	9.8646	16.961133	0.000156	1.555974	0.263589	-0.000016
1020	1.0139e+02	9.8568	16.948505	0.000127	1.269347	0.215033	-0.000013
1021	1.0149e+02	9.8438	16.930175	0.000184	1.842600	0.312145	-0.000018
1022	1.0159e+02	9.8333	16.917547	0.000127	1.269347	0.215033	-0.000013
1023	1.0169e+02	9.8251	16.894736	0.000229	2.293014	0.388447	-0.000023
1024	1.0179e+02	9.8193	16.880479	0.000143	1.433134	0.242779	-0.000014
1025	1.0189e+02	9.8050	16.861741	0.000188	1.883547	0.319081	-0.000019
1026	1.0199e+02	9.7962	16.843818	0.000180	1.801654	0.305208	-0.000018
1027	1.0209e+02	9.7865	16.827117	0.000168	1.678814	0.284399	-0.000017
1028	1.0219e+02	9.7773	16.812045	0.000152	1.515027	0.256653	-0.000015
1029	1.0229e+02	9.7648	16.787605	0.000246	2.456800	0.416193	-0.000025
1030	1.0239e+02	9.7542	16.776199	0.000115	1.146507	0.194224	-0.000011
1031	1.0248e+02	9.7461	16.757462	0.000188	1.883547	0.319081	-0.000019
1032	1.0258e+02	9.7361	16.739946	0.000176	1.760707	0.298272	-0.000018
1033	1.0268e+02	9.7268	16.726911	0.000131	1.310294	0.221970	-0.000013
1034	1.0278e+02	9.7168	16.703692	0.000233	2.333960	0.395384	-0.000023
1035	1.0288e+02	9.7058	16.684955	0.000188	1.883547	0.319081	-0.000019
1036	1.0298e+02	9.6951	16.669476	0.000156	1.555974	0.263589	-0.000016
1037	1.0308e+02	9.6861	16.653182	0.000164	1.637867	0.277462	-0.000016
1038	1.0318e+02	9.6747	16.638518	0.000147	1.474080	0.249716	-0.000015
1039	1.0328e+02	9.6680	16.619780	0.000188	1.883547	0.319081	-0.000019
1040	1.0338e+02	9.6554	16.605115	0.000147	1.474080	0.249716	-0.000015
1041	1.0348e+02	9.6470	16.585970	0.000192	1.924494	0.326018	-0.000019
1042	1.0358e+02	9.6369	16.566011	0.000201	2.006387	0.339891	-0.000020
1043	1.0368e+02	9.6253	16.550532	0.000156	1.555974	0.263589	-0.000016
1044	1.0378e+02	9.6169	16.537497	0.000131	1.310294	0.221970	-0.000013
1045	1.0388e+02	9.6054	16.522018	0.000156	1.555974	0.263589	-0.000016
1046	1.0398e+02	9.5936	16.506131	0.000160	1.596920	0.270526	-0.000016
1047	1.0408e+02	9.5860	16.489023	0.000172	1.719760	0.291335	-0.000017
1048	1.0418e+02	9.5757	16.477617	0.000115	1.146507	0.194224	-0.000011
1049	1.0428e+02	9.5657	16.453584	0.000242	2.415854	0.409257	-0.000024
1050	1.0438e+02	9.5560	16.440549	0.000131	1.310294	0.221970	-0.000013
1051	1.0447e+02	9.5462	16.425477	0.000152	1.515027	0.256653	-0.000015
1052	1.0457e+02	9.5351	16.405925	0.000197	1.965440	0.332955	-0.000020
1053	1.0467e+02	9.5271	16.390446	0.000156	1.555974	0.263589	-0.000016
1054	1.0477e+02	9.5155	16.371301	0.000192	1.924494	0.326018	-0.000019
1055	1.0487e+02	9.5037	16.357044	0.000143	1.433134	0.242779	-0.000014
1056	1.0497e+02	9.4953	16.337491	0.000197	1.965440	0.332955	-0.000020
1057	1.0507e+02	9.4863	16.324456	0.000131	1.310294	0.221970	-0.000013
1058	1.0517e+02	9.4745	16.305719	0.000188	1.883547	0.319081	-0.000019
1059	1.0527e+02	9.4668	16.287796	0.000180	1.801654	0.305208	-0.000018
1060	1.0537e+02	9.4587	16.274761	0.000131	1.310294	0.221970	-0.000013
1061	1.0547e+02	9.4477	16.256838	0.000180	1.801654	0.305208	-0.000018
1062	1.0557e+02	9.4389	16.241359	0.000156	1.555974	0.263589	-0.000016
1063	1.0567e+02	9.4280	16.225472	0.000160	1.596920	0.270526	-0.000016
1064	1.0577e+02	9.4181	16.209586	0.000160	1.596920	0.270526	-0.000016
1065	1.0587e+02	9.4068	16.193699	0.000160	1.596920	0.270526	-0.000016
1066	1.0597e+02	9.3965	16.175776	0.000180	1.801654	0.305208	-0.000018
1067	1.0607e+02	9.3875	16.157039	0.000188	1.883547	0.319081	-0.000019
1068	1.0617e+02	9.3757	16.140745	0.000164	1.637867	0.277462	-0.000016
1069	1.0627e+02	9.3644	16.122822	0.000180	1.801654	0.305208	-0.000018
1070	1.0637e+02	9.3584	16.104899	0.000180	1.801654	0.305208	-0.000018
1071	1.0647e+02	9.3465	16.089827	0.000152	1.515027	0.256653	-0.000015
1072	1.0656e+02	9.3388	16.073126	0.000168	1.678814	0.284399	-0.000017
1073	1.0666e+02	9.3311	16.057647	0.000156	1.555974	0.263589	-0.000016
1074	1.0676e+02	9.3172	16.036873	0.000209	2.088280	0.353764	-0.000021
1075	1.0686e+02	9.3073	16.020579	0.000164	1.637867	0.277462	-0.000016
1076	1.0696e+02	9.2955	16.003063	0.000176	1.760707	0.298272	-0.000018
1077	1.0706e+02	9.2869	15.987177	0.000160	1.596920	0.270526	-0.000016
1078	1.0716e+02	9.2796	15.971698	0.000156	1.555974	0.263589	-0.000016
1079	1.0726e+02	9.2685	15.956626	0.000152	1.515027	0.256653	-0.000015
1080	1.0736e+02	9.2567	15.935037	0.000217	2.170174	0.367637	-0.000022
1081	1.0746e+02	9.2509	15.916707	0.000184	1.842600	0.312145	-0.000018
1082	1.0756e+02	9.2413	15.903264	0.000135	1.351240	0.228906	-0.000014
1083	1.0766e+02	9.2268	15.885748	0.000176	1.760707	0.298272	-0.000018
1084	1.0776e+02	9.2188	15.864159	0.000217	2.170174	0.367637	-0.000022
1085	1.0786e+02	9.2090	15.850717	0.000135	1.351240	0.228906	-0.000014
1086	1.0796e+02	9.1956	15.836460	0.000143	1.433134	0.242779	-0.000014
1087	1.0806e+02	9.1900	15.813242	0.000233	2.333960	0.395384	-0.000023
1088	1.0816e+02	9.1776	15.795318	0.000180	1.801654	0.305208	-0.000018
1089	1.0826e+02	9.1697	15.776988	0.000184	1.842600	0.312145	-0.000018
1090	1.0836e+02	9.1577	15.759880	0.000172	1.719760	0.291335	-0.000017
1091	1.0845e+02	9.1504	15.745623	0.000143	1.433134	0.242779	-0.000014
1092	1.0855e+02	9.1391	15.726885	0.000188	1.883547	0.319081	-0.000019
1093	1.0865e+02	9.1314	15.708554	0.000184	1.842600	0.312145	-0.000018
1094	1.0875e+02	9.1169	15.693890	0.000147	1.474080	0.249716	-0.000015
1095	1.0885e+02	9.1106	15.675967	0.000180	1.801654	0.305208	-0.000018
1096	1.0895e+02	9.0994	15.658859	0.000172	1.719760	0.291335	-0.000017
1097	1.0905e+02	9.0878	15.641750	0.000172	1.719760	0.291335	-0.000017
1098	1.0915e+02	9.0794	15.625864	0.000160	1.596920	0.270526	-0.000016
1099	1.0925e+02	9.0710	15.609978	0.000160	1.596920	0.270526	-0.000016
1100	1.0935e+02	9.0590	15.593277	0.000168	1.678814	0.284399	-0.000017
1101	1.0945e+02	9.0470	15.571687	0.000217	2.170174	0.367637	-0.000022
1102	1.0955e+02	9.0381	15.556208	0.000156	1.555974	0.263589	-0.000016
1103	1.0965e+02	9.0301	15.537471	0.000188	1.883547	0.319081	-0.000019
1104	1.0975e+02	9.0201	15.519548	0.000180	1.801654	0.305208	-0.000018
1105	1.0985e+02	9.0102	15.500402	0.000192	1.924494	0.326018	-0.000019
1106	1.0995e+02	9.0000	15.484923	0.000156	1.555974	0.263589	-0.000016
1107	1.1005e+02	8.9871	15.469444	0.000156	1.555974	0.263589	-0.000016
1108	1.1015e+02	8.9780	15.457631	0.000119	1.187454	0.201160	-0.000012
1109	1.1025e+02	8.9692	15.441338	0.000164	1.637867	0.277462	-0.000016
1110	1.1035e+02	8.9603	15.427081	0.000143	1.433134	0.242779	-0.000014
1111	1.1044e+02	8.9494	15.410787	0.000164	1.637867	0.277462	-0.000016
1112	1.1054e+02	8.9420	15.397752	0.000131	1.310294	0.221970	-0.000013
1113	1.1064e+02	8.9297	15.373312	0.000246	2.456800	0.416193	-0.000025
1114	1.1074e+02	8.9144	15.359869	0.000135	1.351240	0.228906	-0.000014
1115	1.1084e+02	8.9091	15.339095	0.000209	2.088280	0.353764	-0.000021
1116	1.1094e+02	8.8990	15.323616	0.000156	1.555974	0.263589	-0.000016
1117	1.1104e+02	8.8874	15.302434	0.000213	2.129227	0.360701	-0.000021
1118	1.1114e+02	8.8784	15.287362	0.000152	1.515027	0.256653	-0.000015
1119	1.1124e+02	8.8704	15.269847	0.000176	1.760707	0.298272	-0.000018
1120	1.1134e+02	8.8591	15.251923	0.000180	1.801654	0.305208	-0.000018
1121	1.1144e+02	8.8491	15.237259	0.000147	1.474080	0.249716	-0.000015
1122	1.1154e+02	8.8403	15.214855	0.000225	2.252067	0.381510	-0.000023
1123	1.1164e+02	8.8319	15.198562	0.000164	1.637867	0.277462	-0.000016
1124	1.1174e+02	8.8226	15.179824	0.000188	1.883547	0.319081	-0.000019
1125	1.1184e+02	8.8102	15.156605	0.000233	2.333960	0.395384	-0.000023
1126	1.1194e+02	8.8037	15.143978	0.000127	1.269347	0.215033	-0.000013
1127	1.1204e+02	8.7934	15.119944	0.000242	2.415854	0.409257	-0.000024
1128	1.1214e+02	8.7817	15.099577	0.000205	2.047334	0.346828	-0.000020
1129	1.1224e+02	8.7714	15.079618	0.000201	2.006387	0.339891	-0.000020
1130	1.1234e+02	8.7608	15.057621	0.000221	2.211120	0.374574	-0.000022
1131	1.1244e+02	8.7508	15.041327	0.000164	1.637867	0.277462	-0.000016
1132	1.1253e+02	8.7402	15.019738	0.000217	2.170174	0.367637	-0.000022
1133	1.1263e+02	8.7330	15.000186	0.000197	1.965440	0.332955	-0.000020
1134	1.1273e+02	8.7218	14.979411	0.000209	2.088280	0.353764	-0.000021
1135	1.1283e+02	8.7143	14.954971	0.000246	2.456800	0.416193	-0.000025
1136	1.1293e+02	8.7049	14.934604	0.000205	2.047334	0.346828	-0.000020
1137	1.1303e+02	8.6899	14.916681	0.000180	1.801654	0.305208	-0.000018
1138	1.1313e+02	8.6801	14.892240	0.000246	2.456800	0.416193	-0.000025
1139	1.1323e+02	8.6726	14.866985	0.000254	2.538694	0.430066	-0.000025
1140	1.1333e+02	8.6605	14.850284	0.000168	1.678814	0.284399	-0.000017
1141	1.1343e+02	8.6515	14.826251	0.000242	2.415854	0.409257	-0.000024
1142	1.1353e+02	8.6409	14.807920	0.000184	1.842600	0.312145	-0.000018
1143	1.1363e+02	8.6317	14.785924	0.000221	2.211120	0.374574	-0.000022
1144	1.1373e+02	8.6208	14.761483	0.000246	2.456800	0.416193	-0.000025
1145	1.1383e+02	8.6133	14.743967	0.000176	1.760707	0.298272	-0.000018
1146	1.1393e+02	8.6050	14.721971	0.000221	2.211120	0.374574	-0.000022
1147	1.1403e+02	8.5940	14.700382	0.000217	2.170174	0.367637	-0.000022
1148	1.1413e+02	8.5815	14.676756	0.000237	2.374907	0.402320	-0.000024
1149	1.1423e+02	8.5726	14.655981	0.000209	2.088280	0.353764	-0.000021
1150	1.1433e+02	8.5605	14.630319	0.000258	2.579640	0.437003	-0.000026
1151	1.1442e+02	8.5511	14.606693	0.000237	2.374907	0.402320	-0.000024
1152	1.1452e+02	8.5432	14.585918	0.000209	2.088280	0.353764	-0.000021
1153	1.1462e+02	8.5321	14.560663	0.000254	2.538694	0.430066	-0.000025
1154	1.1472e+02	8.5216	14.540296	0.000205	2.047334	0.346828	-0.000020
1155	1.1482e+02	8.5119	14.515448	0.000250	2.497747	0.423130	-0.000025
1156	1.1492e+02	8.5040	14.497118	0.000184	1.842600	0.312145	-0.000018
1157	1.1502e+02	8.4914	14.472677	0.000246	2.456800	0.416193	-0.000025
1158	1.1512e+02	8.4830	14.451903	0.000209	2.088280	0.353764	-0.000021
1159	1.1522e+02	8.4751	14.425018	0.000270	2.702480	0.457813	-0.000027
1160	1.1532e+02	8.4601	14.404244	0.000209	2.088280	0.353764	-0.000021
1161	1.1542e+02	8.4521	14.384284	0.000201	2.006387	0.339891	-0.000020
1162	1.1552e+02	8.4454	14.357807	0.000266	2.661534	0.450876	-0.000027
1163	1.1562e+02	8.4326	14.333366	0.000246	2.456800	0.416193	-0.000025
1164	1.1572e+02	8.4223	14.309740	0.000237	2.374907	0.402320	-0.000024
1165	1.1582e+02	8.4131	14.287744	0.000221	2.211120	0.374574	-0.000022
1166	1.1592e+02	8.4013	14.264118	0.000237	2.374907	0.402320	-0.000024
1167	1.1602e+02	8.3917	14.240492	0.000237	2.374907	0.402320	-0.000024
1168	1.1612e+02	8.3823	14.218903	0.000217	2.170174	0.367637	-0.000022
1169	1.1622e+02	8.3724	14.193240	0.000258	2.579640	0.437003	-0.000026
1170	1.1632e+02	8.3625	14.171651	0.000217	2.170174	0.367637	-0.000022
1171	1.1642e+02	8.3530	14.147618	0.000242	2.415854	0.409257	-0.000024
1172	1.1651e+02	8.3418	14.123992	0.000237	2.374907	0.402320	-0.000024
1173	1.1661e+02	8.3305	14.104847	0.000192	1.924494	0.326018	-0.000019
1174	1.1671e+02	8.3234	14.077555	0.000274	2.743427	0.464749	-0.000027
1175	1.1681e+02	8.3133	14.054336	0.000233	2.333960	0.395384	-0.000023
1176	1.1691e+02	8.3023	14.029896	0.000246	2.456800	0.416193	-0.000025
1177	1.1701e+02	8.2937	14.005455	0.000246	2.456800	0.416193	-0.000025
1178	1.1711e+02	8.2825	13.982644	0.000229	2.293014	0.388447	-0.000023
1179	1.1721e+02	8.2746	13.959426	0.000233	2.333960	0.395384	-0.000023
1180	1.1731e+02	8.2652	13.932948	0.000266	2.661534	0.450876	-0.000027
1181	1.1741e+02	8.2540	13.907693	0.000254	2.538694	0.430066	-0.000025
1182	1.1751e+02	8.2447	13.884882	0.000229	2.293014	0.388447	-0.000023
1183	1.1761e+02	8.2291	13.862071	0.000229	2.293014	0.388447	-0.000023
1184	1.1771e+02	8.2233	13.829483	0.000328	3.275734	0.554924	-0.000033
1185	1.1781e+02	8.2162	13.807894	0.000217	2.170174	0.367637	-0.000022
1186	1.1791e+02	8.2046	13.781417	0.000266	2.661534	0.450876	-0.000027
1187	1.1801e+02	8.1956	13.758606	0.000229	2.293014	0.388447	-0.000023
1188	1.1811e+02	8.1853	13.732128	0.000266	2.661534	0.450876	-0.000027
1189	1.1821e+02	8.1735	13.703207	0.000291	2.907214	0.492495	-0.000029
1190	1.1831e+02	8.1631	13.676730	0.000266	2.661534	0.450876	-0.000027
1191	1.1841e+02	8.1560	13.652697	0.000242	2.415854	0.409257	-0.000024
1192	1.1850e+02	8.1445	13.623775	0.000291	2.907214	0.492495	-0.000029
1193	1.1860e+02	8.1362	13.596483	0.000274	2.743427	0.464749	-0.000027
1194	1.1870e+02	8.1234	13.568784	0.000278	2.784374	0.471686	-0.000028
1195	1.1880e+02	8.1142	13.543121	0.000258	2.579640	0.437003	-0.000026
1196	1.1890e+02	8.1037	13.518681	0.000246	2.456800	0.416193	-0.000025
1197	1.1900e+02	8.0929	13.493426	0.000254	2.538694	0.430066	-0.000025
1198	1.1910e+02	8.0819	13.461246	0.000323	3.234787	0.547988	-0.000032
1199	1.1920e+02	8.0772	13.439249	0.000221	2.211120	0.374574	-0.000022
1200	1.1930e+02	8.0651	13.417253	0.000221	2.211120	0.374574	-0.000022
1201	1.1940e+02	8.0563	13.387109	0.000303	3.030054	0.513305	-0.000030
1202	1.1950e+02	8.0424	13.361039	0.000262	2.620587	0.443939	-0.000026
1203	1.1960e+02	8.0337	13.337006	0.000242	2.415854	0.409257	-0.000024
1204	1.1970e+02	8.0242	13.312158	0.000250	2.497747	0.423130	-0.000025
1205	1.1980e+02	8.0154	13.289754	0.000225	2.252067	0.381510	-0.000023
1206	1.1990e+02	8.0043	13.258389	0.000315	3.152894	0.534115	-0.000032
1207	1.2000e+02	7.9928	13.236393	0.000221	2.211120	0.374574	-0.000022
1208	1.2010e+02	7.9831	13.209508	0.000270	2.702480	0.457813	-0.000027
1209	1.2020e+02	7.9746	13.191585	0.000180	1.801654	0.305208	-0.000018
1210	1.2030e+02	7.9659	13.161849	0.000299	2.989107	0.506368	-0.000030
1211	1.2039e+02	7.9551	13.136186	0.000258	2.579640	0.437003	-0.000026
1212	1.2049e+02	7.9436	13.113375	0.000229	2.293014	0.388447	-0.000023
1213	1.2059e+02	7.9346	13.088527	0.000250	2.497747	0.423130	-0.000025
1214	1.2069e+02	7.9257	13.066938	0.000217	2.170174	0.367637	-0.000022
1215	1.2079e+02	7.9162	13.044534	0.000225	2.252067	0.381510	-0.000023
1216	1.2089e+02	7.9073	13.018464	0.000262	2.620587	0.443939	-0.000026
1217	1.2099e+02	7.8955	12.992394	0.000262	2.620587	0.443939	-0.000026
1218	1.2109e+02	7.8848	12.974471	0.000180	1.801654	0.305208	-0.000018
1219	1.2119e+02	7.8762	12.946365	0.000283	2.825320	0.478622	-0.000028
1220	1.2129e+02	7.8672	12.929664	0.000168	1.678814	0.284399	-0.000017
1221	1.2139e+02	7.8533	12.903594	0.000262	2.620587	0.443939	-0.000026
1222	1.2149e+02	7.8454	12.878746	0.000250	2.497747	0.423130	-0.000025
1223	1.2159e+02	7.8369	12.855935	0.000229	2.293014	0.388447	-0.000023
1224	1.2169e+02	7.8266	12.833531	0.000225	2.252067	0.381510	-0.000023
1225	1.2179e+02	7.8152	12.809090	0.000246	2.456800	0.416193	-0.000025
1226	1.2189e+02	7.8053	12.786686	0.000225	2.252067	0.381510	-0.000023
1227	1.2199e+02	7.7956	12.763060	0.000237	2.374907	0.402320	-0.000024
1228	1.2209e+02	7.7876	12.745952	0.000172	1.719760	0.291335	-0.000017
1229	1.2219e+02	7.7763	12.714587	0.000315	3.152894	0.534115	-0.000032
1230	1.2229e+02	7.7651	12.691368	0.000233	2.333960	0.395384	-0.000023
1231	1.2239e+02	7.7567	12.668557	0.000229	2.293014	0.388447	-0.000023
1232	1.2248e+02	7.7459	12.646561	0.000221	2.211120	0.374574	-0.000022
1233	1.2258e+02	7.7364	12.623342	0.000233	2.333960	0.395384	-0.000023
1234	1.2268e+02	7.7277	12.602975	0.000205	2.047334	0.346828	-0.000020
1235	1.2278e+02	7.7184	12.575683	0.000274	2.743427	0.464749	-0.000027
1236	1.2288e+02	7.7073	12.555723	0.000201	2.006387	0.339891	-0.000020
1237	1.2298e+02	7.6969	12.530875	0.000250	2.497747	0.423130	-0.000025
1238	1.2308e+02	7.6847	12.512137	0.000188	1.883547	0.319081	-0.000019
1239	1.2318e+02	7.6777	12.488104	0.000242	2.415854	0.409257	-0.000024
1240	1.2328e+02	7.6662	12.464886	0.000233	2.333960	0.395384	-0.000023
1241	1.2338e+02	7.6569	12.441260	0.000237	2.374907	0.402320	-0.000024
1242	1.2348e+02	7.6438	12.414783	0.000266	2.661534	0.450876	-0.000027
1243	1.2358e+02	7.6345	12.393601	0.000213	2.129227	0.360701	-0.000021
1244	1.2368e+02	7.6247	12.371604	0.000221	2.211120	0.374574	-0.000022
1245	1.2378e+02	7.6160	12.352867	0.000188	1.883547	0.319081	-0.000019
1246	1.2388e+02	7.6077	12.325575	0.000274	2.743427	0.464749	-0.000027
1247	1.2398e+02	7.5965	12.306022	0.000197	1.965440	0.332955	-0.000020
1248	1.2408e+02	7.5880	12.284840	0.000213	2.129227	0.360701	-0.000021
1249	1.2418e+02	7.5795	12.261214	0.000237	2.374907	0.402320	-0.000024
1250	1.2428e+02	7.5676	12.233923	0.000274	2.743427	0.464749	-0.000027
1251	1.2438e+02	7.5573	12.214370	0.000197	1.965440	0.332955	-0.000020
1252	1.2447e+02	7.5471	12.189930	0.000246	2.456800	0.416193	-0.000025
1253	1.2457e+02	7.5378	12.170784	0.000192	1.924494	0.326018	-0.000019
1254	1.2467e+02	7.5256	12.144307	0.000266	2.661534	0.450876	-0.000027
1255	1.2477e+02	7.5173	12.123125	0.000213	2.129227	0.360701	-0.000021
1256	1.2487e+02	7.5054	12.095019	0.000283	2.825320	0.478622	-0.000028
1257	1.2497e+02	7.4987	12.077096	0.000180	1.801654	0.305208	-0.000018
1258	1.2507e+02	7.4881	12.049396	0.000278	2.784374	0.471686	-0.000028
1259	1.2517e+02	7.4792	12.029029	0.000205	2.047334	0.346828	-0.000020
1260	1.2527e+02	7.4664	12.008662	0.000205	2.047334	0.346828	-0.000020
1261	1.2537e+02	7.4569	11.987073	0.000217	2.170174	0.367637	-0.000022
1262	1.2547e+02	7.4471	11.963447	0.000237	2.374907	0.402320	-0.000024
1263	1.2557e+02	7.4390	11.944302	0.000192	1.924494	0.326018	-0.000019
1264	1.2567e+02	7.4281	11.919861	0.000246	2.456800	0.416193	-0.000025
1265	1.2577e+02	7.4183	11.897050	0.000229	2.293014	0.388447	-0.000023
1266	1.2587e+02	7.4088	11.877090	0.000201	2.006387	0.339891	-0.000020
1267	1.2597e+02	7.3965	11.852243	0.000250	2.497747	0.423130	-0.000025
1268	1.2607e+02	7.3907	11.830653	0.000217	2.170174	0.367637	-0.000022
1269	1.2617e+02	7.3780	11.807435	0.000233	2.333960	0.395384	-0.000023
1270	1.2627e+02	7.3688	11.787475	0.000201	2.006387	0.339891	-0.000020
1271	1.2636e+02	7.3611	11.765479	0.000221	2.211120	0.374574	-0.000022
1272	1.2646e+02	7.3461	11.739409	0.000262	2.620587	0.443939	-0.000026
1273	1.2656e+02	7.3382	11.719042	0.000205	2.047334	0.346828	-0.000020
1274	1.2666e+02	7.3280	11.699082	0.000201	2.006387	0.339891	-0.000020
1275	1.2676e+02	7.3193	11.681159	0.000180	1.801654	0.305208	-0.000018
1276	1.2686e+02	7.3098	11.662828	0.000184	1.842600	0.312145	-0.000018
1277	1.2696e+02	7.2976	11.638795	0.000242	2.415854	0.409257	-0.000024
1278	1.2706e+02	7.2868	11.620465	0.000184	1.842600	0.312145	-0.000018
1279	1.2716e+02	7.2791	11.597653	0.000229	2.293014	0.388447	-0.000023
1280	1.2726e+02	7.2688	11.577694	0.000201	2.006387	0.339891	-0.000020
1281	1.2736e+02	7.2604	11.554475	0.000233	2.333960	0.395384	-0.000023
1282	1.2746e+02	7.2495	11.529627	0.000250	2.497747	0.423130	-0.000025
1283	1.2756e+02	7.2375	11.508445	0.000213	2.129227	0.360701	-0.000021
1284	1.2766e+02	7.2311	11.484005	0.000246	2.456800	0.416193	-0.000025
1285	1.2776e+02	7.2210	11.466082	0.000180	1.801654	0.305208	-0.000018
1286	1.2786e+02	7.2092	11.442456	0.000237	2.374907	0.402320	-0.000024
1287	1.2796e+02	7.1980	11.420459	0.000221	2.211120	0.374574	-0.000022
1288	1.2806e+02	7.1912	11.396426	0.000242	2.415854	0.409257	-0.000024
1289	1.2816e+02	7.1803	11.376059	0.000205	2.047334	0.346828	-0.000020
1290	1.2826e+02	7.1691	11.353248	0.000229	2.293014	0.388447	-0.000023
1291	1.2835e+02	7.1608	11.328807	0.000246	2.456800	0.416193	-0.000025
1292	1.2845e+02	7.1484	11.301515	0.000274	2.743427	0.464749	-0.000027
1293	1.2855e+02	7.1377	11.282778	0.000188	1.883547	0.319081	-0.000019
1294	1.2865e+02	7.1286	11.253449	0.000295	2.948160	0.499432	-0.000029
1295	1.2875e+02	7.1218	11.233082	0.000205	2.047334	0.346828	-0.000020
1296	1.2885e+02	7.1101	11.207012	0.000262	2.620587	0.443939	-0.000026
1297	1.2895e+02	7.0983	11.180127	0.000270	2.702480	0.457813	-0.000027
1298	1.2905e+02	7.0921	11.159760	0.000205	2.047334	0.346828	-0.000020
1299	1.2915e+02	7.0775	11.131654	0.000283	2.825320	0.478622	-0.000028
1300	1.2925e+02	7.0696	11.105991	0.000258	2.579640	0.437003	-0.000026
1301	1.2935e+02	7.0583	11.083180	0.000229	2.293014	0.388447	-0.000023
1302	1.2945e+02	7.0499	11.059147	0.000242	2.415854	0.409257	-0.000024
1303	1.2955e+02	7.0393	11.031447	0.000278	2.784374	0.471686	-0.000028
1304	1.2965e+02	7.0303	11.004155	0.000274	2.743427	0.464749	-0.000027
1305	1.2975e+02	7.0195	10.980937	0.000233	2.333960	0.395384	-0.000023
1306	1.2985e+02	7.0097	10.953645	0.000274	2.743427	0.464749	-0.000027
1307	1.2995e+02	6.9978	10.927575	0.000262	2.620587	0.443939	-0.000026
1308	1.3005e+02	6.9922	10.908023	0.000197	1.965440	0.332955	-0.000020
1309	1.3015e+02	6.9805	10.877064	0.000311	3.111947	0.527178	-0.000031
1310	1.3025e+02	6.9714	10.853031	0.000242	2.415854	0.409257	-0.000024
1311	1.3034e+02	6.9598	10.828998	0.000242	2.415854	0.409257	-0.000024
1312	1.3044e+02	6.9492	10.799669	0.000295	2.948160	0.499432	-0.000029
1313	1.3054e+02	6.9389	10.776044	0.000237	2.374907	0.402320	-0.000024
1314	1.3064e+02	6.9320	10.749566	0.000266	2.661534	0.450876	-0.000027
1315	1.3074e+02	6.9177	10.721867	0.000278	2.784374	0.471686	-0.000028
1316	1.3084e+02	6.9115	10.697426	0.000246	2.456800	0.416193	-0.000025
1317	1.3094e+02	6.8975	10.666876	0.000307	3.071001	0.520242	-0.000031
1318	1.3104e+02	6.8914	10.639176	0.000278	2.784374	0.471686	-0.000028
1319	1.3114e+02	6.8815	10.615958	0.000233	2.333960	0.395384	-0.000023
1320	1.3124e+02	6.8694	10.589073	0.000270	2.702480	0.457813	-0.000027
1321	1.3134e+02	6.8617	10.560152	0.000291	2.907214	0.492495	-0.000029
1322	1.3144e+02	6.8490	10.535711	0.000246	2.456800	0.416193	-0.000025
1323	1.3154e+02	6.8408	10.505975	0.000299	2.989107	0.506368	-0.000030
1324	1.3164e+02	6.8305	10.483572	0.000225	2.252067	0.381510	-0.000023
1325	1.3174e+02	6.8209	10.455465	0.000283	2.825320	0.478622	-0.000028
1326	1.3184e+02	6.8101	10.430617	0.000250	2.497747	0.423130	-0.000025
1327	1.3194e+02	6.7992	10.400066	0.000307	3.071001	0.520242	-0.000031
1328	1.3204e+02	6.7937	10.374404	0.000258	2.579640	0.437003	-0.000026
1329	1.3214e+02	6.7818	10.348741	0.000258	2.579640	0.437003	-0.000026
1330	1.3224e+02	6.7725	10.320227	0.000287	2.866267	0.485559	-0.000029
1331	1.3234e+02	6.7625	10.290084	0.000303	3.030054	0.513305	-0.000030
1332	1.3243e+02	6.7495	10.265236	0.000250	2.497747	0.423130	-0.000025
1333	1.3253e+02	6.7422	10.236315	0.000291	2.907214	0.492495	-0.000029
1334	1.3263e+02	6.7324	10.212689	0.000237	2.374907	0.402320	-0.000024
1335	1.3273e+02	6.7220	10.180101	0.000328	3.275734	0.554924	-0.000033
1336	1.3283e+02	6.7110	10.155661	0.000246	2.456800	0.416193	-0.000025
1337	1.3293e+02	6.6985	10.125925	0.000299	2.989107	0.506368	-0.000030
1338	1.3303e+02	6.6917	10.097818	0.000283	2.825320	0.478622	-0.000028
1339	1.3313e+02	6.6839	10.075414	0.000225	2.252067	0.381510	-0.000023
1340	1.3323e+02	6.6744	10.046086	0.000295	2.948160	0.499432	-0.000029
1341	1.3333e+02	6.6612	10.025311	0.000209	2.088280	0.353764	-0.000021
1342	1.3343e+02	6.6504	9.992316	0.000332	3.316681	0.561861	-0.000033
1343	1.3353e+02	6.6411	9.963395	0.000291	2.907214	0.492495	-0.000029
1344	1.3363e+02	6.6326	9.937733	0.000258	2.579640	0.437003	-0.000026
1345	1.3373e+02	6.6216	9.905960	0.000319	3.193841	0.541051	-0.000032
1346	1.3383e+02	6.6115	9.880297	0.000258	2.579640	0.437003	-0.000026
1347	1.3393e+02	6.6018	9.852598	0.000278	2.784374	0.471686	-0.000028
1348	1.3403e+02	6.5923	9.821233	0.000315	3.152894	0.534115	-0.000032
1349	1.3413e+02	6.5844	9.791089	0.000303	3.030054	0.513305	-0.000030
1350	1.3423e+02	6.5730	9.765019	0.000262	2.620587	0.443939	-0.000026
1351	1.3432e+02	6.5621	9.734876	0.000303	3.030054	0.513305	-0.000030
1352	1.3442e+02	6.5510	9.703918	0.000311	3.111947	0.527178	-0.000031
1353	1.3452e+02	6.5423	9.679477	0.000246	2.456800	0.416193	-0.000025
1354	1.3462e+02	6.5343	9.647705	0.000319	3.193841	0.541051	-0.000032
1355	1.3472e+02	6.5222	9.619598	0.000283	2.825320	0.478622	-0.000028
1356	1.3482e+02	6.5126	9.589047	0.000307	3.071001	0.520242	-0.000031
1357	1.3492e+02	6.5057	9.558497	0.000307	3.071001	0.520242	-0.000031
1358	1.3502e+02	6.4935	9.527131	0.000315	3.152894	0.534115	-0.000032
1359	1.3512e+02	6.4822	9.496173	0.000311	3.111947	0.527178	-0.000031
1360	1.3522e+02	6.4736	9.463178	0.000332	3.316681	0.561861	-0.000033
1361	1.3532e+02	6.4616	9.435887	0.000274	2.743427	0.464749	-0.000027
1362	1.3542e+02	6.4534	9.402484	0.000336	3.357627	0.568797	-0.000034
1363	1.3552e+02	6.4437	9.374785	0.000278	2.784374	0.471686	-0.000028
1364	1.3562e+02	6.4338	9.344234	0.000307	3.071001	0.520242	-0.000031
1365	1.3572e+02	6.4262	9.315720	0.000287	2.866267	0.485559	-0.000029
1366	1.3582e+02	6.4121	9.286392	0.000295	2.948160	0.499432	-0.000029
1367	1.3592e+02	6.4060	9.256248	0.000303	3.030054	0.513305	-0.000030
1368	1.3602e+02	6.3952	9.225698	0.000307	3.071001	0.520242	-0.000031
1369	1.3612e+02	6.3815	9.196369	0.000295	2.948160	0.499432	-0.000029
1370	1.3622e+02	6.3747	9.162967	0.000336	3.357627	0.568797	-0.000034
1371	1.3631e+02	6.3641	9.139341	0.000237	2.374907	0.402320	-0.000024
1372	1.3641e+02	6.3526	9.106754	0.000328	3.275734	0.554924	-0.000033
1373	1.3651e+02	6.3450	9.078647	0.000283	2.825320	0.478622	-0.000028
1374	1.3661e+02	6.3345	9.050133	0.000287	2.866267	0.485559	-0.000029
1375	1.3671e+02	6.3247	9.021212	0.000291	2.907214	0.492495	-0.000029
1376	1.3681e+02	6.3173	8.991476	0.000299	2.989107	0.506368	-0.000030
1377	1.3691e+02	6.3046	8.965813	0.000258	2.579640	0.437003	-0.000026
1378	1.3701e+02	6.2933	8.942595	0.000233	2.333960	0.395384	-0.000023
1379	1.3711e+02	6.2861	8.912044	0.000307	3.071001	0.520242	-0.000031
1380	1.3721e+02	6.2772	8.883530	0.000287	2.866267	0.485559	-0.000029
1381	1.3731e+02	6.2656	8.857460	0.000262	2.620587	0.443939	-0.000026
1382	1.3741e+02	6.2536	8.828946	0.000287	2.866267	0.485559	-0.000029
1383	1.3751e+02	6.2417	8.803691	0.000254	2.538694	0.430066	-0.000025
1384	1.3761e+02	6.2362	8.771918	0.000319	3.193841	0.541051	-0.000032
1385	1.3771e+02	6.2256	8.745034	0.000270	2.702480	0.457813	-0.000027
1386	1.3781e+02	6.2164	8.719778	0.000254	2.538694	0.430066	-0.000025
1387	1.3791e+02	6.2025	8.692079	0.000278	2.784374	0.471686	-0.000028
1388	1.3801e+02	6.1963	8.667638	0.000246	2.456800	0.416193	-0.000025
1389	1.3811e+02	6.1859	8.641569	0.000262	2.620587	0.443939	-0.000026
1390	1.3821e+02	6.1735	8.611425	0.000303	3.030054	0.513305	-0.000030
1391	1.3831e+02	6.1631	8.583726	0.000278	2.784374	0.471686	-0.000028
1392	1.3840e+02	6.1578	8.557249	0.000266	2.661534	0.450876	-0.000027
1393	1.3850e+02	6.1454	8.528327	0.000291	2.907214	0.492495	-0.000029
1394	1.3860e+02	6.1348	8.503072	0.000254	2.538694	0.430066	-0.000025
1395	1.3870e+02	6.1266	8.478224	0.000250	2.497747	0.423130	-0.000025
1396	1.3880e+02	6.1153	8.447266	0.000311	3.111947	0.527178	-0.000031
1397	1.3890e+02	6.1042	8.422418	0.000250	2.497747	0.423130	-0.000025
1398	1.3900e+02	6.0936	8.392275	0.000303	3.030054	0.513305	-0.000030
1399	1.3910e+02	6.0841	8.370278	0.000221	2.211120	0.374574	-0.000022
1400	1.3920e+02	6.0755	8.340542	0.000299	2.989107	0.506368	-0.000030
1401	1.3930e+02	6.0656	8.313658	0.000270	2.702480	0.457813	-0.000027
1402	1.3940e+02	6.0522	8.290439	0.000233	2.333960	0.395384	-0.000023
1403	1.3950e+02	6.0445	8.263555	0.000270	2.702480	0.457813	-0.000027
1404	1.3960e+02	6.0378	8.232597	0.000311	3.111947	0.527178	-0.000031
1405	1.3970e+02	6.0273	8.207749	0.000250	2.497747	0.423130	-0.000025
1406	1.3980e+02	6.0168	8.180457	0.000274	2.743427	0.464749	-0.000027
1407	1.3990e+02	6.0051	8.153572	0.000270	2.702480	0.457813	-0.000027
1408	1.4000e+02	5.9969	8.129539	0.000242	2.415854	0.409257	-0.000024
1409	1.4010e+02	5.9858	8.097766	0.000319	3.193841	0.541051	-0.000032
1410	1.4020e+02	5.9750	8.074955	0.000229	2.293014	0.388447	-0.000023
1411	1.4029e+02	5.9660	8.048885	0.000262	2.620587	0.443939	-0.000026
1412	1.4039e+02	5.9551	8.019556	0.000295	2.948160	0.499432	-0.000029
1413	1.4049e+02	5.9454	7.995116	0.000246	2.456800	0.416193	-0.000025
1414	1.4059e+02	5.9367	7.970268	0.000250	2.497747	0.423130	-0.000025
1415	1.4069e+02	5.9241	7.944198	0.000262	2.620587	0.443939	-0.000026
1416	1.4079e+02	5.9167	7.916906	0.000274	2.743427	0.464749	-0.000027
1417	1.4089e+02	5.9061	7.891244	0.000258	2.579640	0.437003	-0.000026
1418	1.4099e+02	5.8947	7.862730	0.000287	2.866267	0.485559	-0.000029
1419	1.4109e+02	5.8855	7.839511	0.000233	2.333960	0.395384	-0.000023
1420	1.4119e+02	5.8782	7.808960	0.000307	3.071001	0.520242	-0.000031
1421	1.4129e+02	5.8657	7.779632	0.000295	2.948160	0.499432	-0.000029
1422	1.4139e+02	5.8572	7.753969	0.000258	2.579640	0.437003	-0.000026
1423	1.4149e+02	5.8477	7.726677	0.000274	2.743427	0.464749	-0.000027
1424	1.4159e+02	5.8361	7.698571	0.000283	2.825320	0.478622	-0.000028
1425	1.4169e+02	5.8279	7.672908	0.000258	2.579640	0.437003	-0.000026
1426	1.4179e+02	5.8178	7.647245	0.000258	2.579640	0.437003	-0.000026
1427	1.4189e+02	5.8059	7.621175	0.000262	2.620587	0.443939	-0.000026
1428	1.4199e+02	5.7957	7.594291	0.000270	2.702480	0.457813	-0.000027
1429	1.4209e+02	5.7861	7.567814	0.000266	2.661534	0.450876	-0.000027
1430	1.4219e+02	5.7771	7.543780	0.000242	2.415854	0.409257	-0.000024
1431	1.4228e+02	5.7697	7.516896	0.000270	2.702480	0.457813	-0.000027
1432	1.4238e+02	5.7557	7.492455	0.000246	2.456800	0.416193	-0.000025
1433	1.4248e+02	5.7458	7.469237	0.000233	2.333960	0.395384	-0.000023
1434	1.4258e+02	5.7380	7.440723	0.000287	2.866267	0.485559	-0.000029
1435	1.4268e+02	5.7298	7.416690	0.000242	2.415854	0.409257	-0.000024
1436	1.4278e+02	5.7168	7.388176	0.000287	2.866267	0.485559	-0.000029
1437	1.4288e+02	5.7105	7.362513	0.000258	2.579640	0.437003	-0.000026
1438	1.4298e+02	5.6989	7.336036	0.000266	2.661534	0.450876	-0.000027
1439	1.4308e+02	5.6867	7.308744	0.000274	2.743427	0.464749	-0.000027
1440	1.4318e+02	5.6784	7.285933	0.000229	2.293014	0.388447	-0.000023
1441	1.4328e+02	5.6680	7.259455	0.000266	2.661534	0.450876	-0.000027
1442	1.4338e+02	5.6579	7.232163	0.000274	2.743427	0.464749	-0.000027
1443	1.4348e+02	5.6485	7.210982	0.000213	2.129227	0.360701	-0.000021
1444	1.4358e+02	5.6359	7.192651	0.000184	1.842600	0.312145	-0.000018
1445	1.4368e+02	5.6284	7.161286	0.000315	3.152894	0.534115	-0.000032
1446	1.4378e+02	5.6176	7.139697	0.000217	2.170174	0.367637	-0.000022
1447	1.4388e+02	5.6071	7.111590	0.000283	2.825320	0.478622	-0.000028
1448	1.4398e+02	5.5953	7.090815	0.000209	2.088280	0.353764	-0.000021
1449	1.4408e+02	5.5880	7.061894	0.000291	2.907214	0.492495	-0.000029
1450	1.4418e+02	5.5801	7.039898	0.000221	2.211120	0.374574	-0.000022
1451	1.4428e+02	5.5704	7.007718	0.000323	3.234787	0.547988	-0.000032
1452	1.4437e+02	5.5570	6.983277	0.000246	2.456800	0.416193	-0.000025
1453	1.4447e+02	5.5499	6.956800	0.000266	2.661534	0.450876	-0.000027
1454	1.4457e+02	5.5387	6.933581	0.000233	2.333960	0.395384	-0.000023
1455	1.4467e+02	5.5274	6.907919	0.000258	2.579640	0.437003	-0.000026
1456	1.4477e+02	5.5187	6.881849	0.000262	2.620587	0.443939	-0.000026
1457	1.4487e+02	5.5095	6.852520	0.000295	2.948160	0.499432	-0.000029
1458	1.4497e+02	5.4974	6.823599	0.000291	2.907214	0.492495	-0.000029
1459	1.4507e+02	5.4867	6.797529	0.000262	2.620587	0.443939	-0.000026
1460	1.4517e+02	5.4785	6.773496	0.000242	2.415854	0.409257	-0.000024
1461	1.4527e+02	5.4682	6.743760	0.000299	2.989107	0.506368	-0.000030
1462	1.4537e+02	5.4574	6.716468	0.000274	2.743427	0.464749	-0.000027
1463	1.4547e+02	5.4485	6.684695	0.000319	3.193841	0.541051	-0.000032
1464	1.4557e+02	5.4383	6.657810	0.000270	2.702480	0.457813	-0.000027
1465	1.4567e+02	5.4283	6.626852	0.000311	3.111947	0.527178	-0.000031
1466	1.4577e+02	5.4202	6.600375	0.000266	2.661534	0.450876	-0.000027
1467	1.4587e+02	5.4102	6.573083	0.000274	2.743427	0.464749	-0.000027
1468	1.4597e+02	5.3974	6.542125	0.000311	3.111947	0.527178	-0.000031
1469	1.4607e+02	5.3881	6.515648	0.000266	2.661534	0.450876	-0.000027
1470	1.4617e+02	5.3786	6.484282	0.000315	3.152894	0.534115	-0.000032
1471	1.4626e+02	5.3687	6.457398	0.000270	2.702480	0.457813	-0.000027
1472	1.4636e+02	5.3597	6.424810	0.000328	3.275734	0.554924	-0.000033
1473	1.4646e+02	5.3461	6.395074	0.000299	2.989107	0.506368	-0.000030
1474	1.4656e+02	5.3390	6.369004	0.000262	2.620587	0.443939	-0.000026
1475	1.4666e+02	5.3265	6.334380	0.000348	3.480467	0.589607	-0.000035
1476	1.4676e+02	5.3207	6.308310	0.000262	2.620587	0.443939	-0.000026
1477	1.4686e+02	5.3088	6.279389	0.000291	2.907214	0.492495	-0.000029
1478	1.4696e+02	5.2988	6.252504	0.000270	2.702480	0.457813	-0.000027
1479	1.4706e+02	5.2883	6.219102	0.000336	3.357627	0.568797	-0.000034
1480	1.4716e+02	5.2795	6.189366	0.000299	2.989107	0.506368	-0.000030
1481	1.4726e+02	5.2706	6.158001	0.000315	3.152894	0.534115	-0.000032
1482	1.4736e+02	5.2571	6.130302	0.000278	2.784374	0.471686	-0.000028
1483	1.4746e+02	5.2483	6.098936	0.000315	3.152894	0.534115	-0.000032
1484	1.4756e+02	5.2382	6.065534	0.000336	3.357627	0.568797	-0.000034
1485	1.4766e+02	5.2320	6.036206	0.000295	2.948160	0.499432	-0.000029
1486	1.4776e+02	5.2180	6.004026	0.000323	3.234787	0.547988	-0.000032
1487	1.4786e+02	5.2104	5.973882	0.000303	3.030054	0.513305	-0.000030
1488	1.4796e+02	5.2041	5.945368	0.000287	2.866267	0.485559	-0.000029
1489	1.4806e+02	5.1874	5.915632	0.000299	2.989107	0.506368	-0.000030
1490	1.4816e+02	5.1797	5.883452	0.000323	3.234787	0.547988	-0.000032
1491	1.4825e+02	5.1704	5.850050	0.000336	3.357627	0.568797	-0.000034
1492	1.4835e+02	5.1601	5.819092	0.000311	3.111947	0.527178	-0.000031
1493	1.4845e+02	5.1525	5.794244	0.000250	2.497747	0.423130	-0.000025
1494	1.4855e+02	5.1399	5.760842	0.000336	3.357627	0.568797	-0.000034
1495	1.4865e+02	5.1302	5.730699	0.000303	3.030054	0.513305	-0.000030
1496	1.4875e+02	5.1196	5.700555	0.000303	3.030054	0.513305	-0.000030
1497	1.4885e+02	5.1093	5.666339	0.000344	3.439521	0.582671	-0.000034
1498	1.4895e+02	5.0991	5.636195	0.000303	3.030054	0.513305	-0.000030
1499	1.4905e+02	5.0934	5.602793	0.000336	3.357627	0.568797	-0.000034
1500	1.4915e+02	5.0822	5.573464	0.000295	2.948160	0.499432	-0.000029
1501	1.4925e+02	5.0697	5.538840	0.000348	3.480467	0.589607	-0.000035
1502	1.4935e+02	5.0587	5.510734	0.000283	2.825320	0.478622	-0.000028
1503	1.4945e+02	5.0495	5.479776	0.000311	3.111947	0.527178	-0.000031
1504	1.4955e+02	5.0431	5.448818	0.000311	3.111947	0.527178	-0.000031
1505	1.4965e+02	5.0347	5.419082	0.000299	2.989107	0.506368	-0.000030
1506	1.4975e+02	5.0201	5.388531	0.000307	3.071001	0.520242	-0.000031
1507	1.4985e+02	5.0138	5.357573	0.000311	3.111947	0.527178	-0.000031
1508	1.4995e+02	5.0008	5.324171	0.000336	3.357627	0.568797	-0.000034
1509	1.5005e+02	4.9938	5.295249	0.000291	2.907214	0.492495	-0.000029
1510	1.5015e+02	4.9812	5.264291	0.000311	3.111947	0.527178	-0.000031
1511	1.5025e+02	4.9716	5.233333	0.000311	3.111947	0.527178	-0.000031
1512	1.5034e+02	4.9615	5.202783	0.000307	3.071001	0.520242	-0.000031
1513	1.5044e+02	4.9521	5.166122	0.000369	3.685201	0.624290	-0.000037
1514	1.5054e+02	4.9419	5.130683	0.000356	3.562361	0.603480	-0.000036
1515	1.5064e+02	4.9297	5.100540	0.000303	3.030054	0.513305	-0.000030
1516	1.5074e+02	4.9218	5.067545	0.000332	3.316681	0.561861	-0.000033
1517	1.5084e+02	4.9099	5.034958	0.000328	3.275734	0.554924	-0.000033
1518	1.5094e+02	4.9009	5.002778	0.000323	3.234787	0.547988	-0.000032
1519	1.5104e+02	4.8928	4.967746	0.000352	3.521414	0.596544	-0.000035
1520	1.5114e+02	4.8827	4.931085	0.000369	3.685201	0.624290	-0.000037
1521	1.5124e+02	4.8697	4.899720	0.000315	3.152894	0.534115	-0.000032
1522	1.5134e+02	4.8631	4.869169	0.000307	3.071001	0.520242	-0.000031
1523	1.5144e+02	4.8504	4.838618	0.000307	3.071001	0.520242	-0.000031
1524	1.5154e+02	4.8421	4.801143	0.000377	3.767094	0.638163	-0.000038
1525	1.5164e+02	4.8331	4.768148	0.000332	3.316681	0.561861	-0.000033
1526	1.5174e+02	4.8229	4.733117	0.000352	3.521414	0.596544	-0.000035
1527	1.5184e+02	4.8119	4.696863	0.000364	3.644254	0.617353	-0.000036
1528	1.5194e+02	4.8023	4.661424	0.000356	3.562361	0.603480	-0.000036
1529	1.5204e+02	4.7909	4.628022	0.000336	3.357627	0.568797	-0.000034
1530	1.5214e+02	4.7831	4.592176	0.000360	3.603307	0.610417	-0.000036
1531	1.5224e+02	4.7729	4.556330	0.000360	3.603307	0.610417	-0.000036
1532	1.5233e+02	4.7620	4.522113	0.000344	3.439521	0.582671	-0.000034
1533	1.5243e+02	4.7536	4.488711	0.000336	3.357627	0.568797	-0.000034
1534	1.5253e+02	4.7410	4.455716	0.000332	3.316681	0.561861	-0.000033
1535	1.5263e+02	4.7314	4.422314	0.000336	3.357627	0.568797	-0.000034
1536	1.5273e+02	4.7234	4.391356	0.000311	3.111947	0.527178	-0.000031
1537	1.5283e+02	4.7112	4.355510	0.000360	3.603307	0.610417	-0.000036
1538	1.5293e+02	4.7005	4.318442	0.000373	3.726147	0.631226	-0.000037
1539	1.5303e+02	4.6932	4.285855	0.000328	3.275734	0.554924	-0.000033
1540	1.5313e+02	4.6829	4.253675	0.000323	3.234787	0.547988	-0.000032
1541	1.5323e+02	4.6696	4.222309	0.000315	3.152894	0.534115	-0.000032
1542	1.5333e+02	4.6614	4.186463	0.000360	3.603307	0.610417	-0.000036
1543	1.5343e+02	4.6526	4.154283	0.000323	3.234787	0.547988	-0.000032
1544	1.5353e+02	4.6444	4.124954	0.000295	2.948160	0.499432	-0.000029
1545	1.5363e+02	4.6325	4.090330	0.000348	3.480467	0.589607	-0.000035
1546	1.5373e+02	4.6220	4.058558	0.000319	3.193841	0.541051	-0.000032
1547	1.5383e+02	4.6131	4.029229	0.000295	2.948160	0.499432	-0.000029
1548	1.5393e+02	4.6044	3.996641	0.000328	3.275734	0.554924	-0.000033
1549	1.5403e+02	4.5916	3.965683	0.000311	3.111947	0.527178	-0.000031
1550	1.5413e+02	4.5832	3.933503	0.000323	3.234787	0.547988	-0.000032
1551	1.5422e+02	4.5714	3.900916	0.000328	3.275734	0.554924	-0.000033
1552	1.5432e+02	4.5632	3.874031	0.000270	2.702480	0.457813	-0.000027
1553	1.5442e+02	4.5513	3.842666	0.000315	3.152894	0.534115	-0.000032
1554	1.5452e+02	4.5432	3.806005	0.000369	3.685201	0.624290	-0.000037
1555	1.5462e+02	4.5356	3.777084	0.000291	2.907214	0.492495	-0.000029
1556	1.5472e+02	4.5248	3.744904	0.000323	3.234787	0.547988	-0.000032
1557	1.5482e+02	4.5148	3.713538	0.000315	3.152894	0.534115	-0.000032
1558	1.5492e+02	4.5013	3.682580	0.000311	3.111947	0.527178	-0.000031
1559	1.5502e+02	4.4946	3.645105	0.000377	3.767094	0.638163	-0.000038
1560	1.5512e+02	4.4827	3.621072	0.000242	2.415854	0.409257	-0.000024
1561	1.5522e+02	4.4722	3.586447	0.000348	3.480467	0.589607	-0.000035
1562	1.5532e+02	4.4662	3.554267	0.000323	3.234787	0.547988	-0.000032
1563	1.5542e+02	4.4543	3.524939	0.000295	2.948160	0.499432	-0.000029
1564	1.5552e+02	4.4421	3.494388	0.000307	3.071001	0.520242	-0.000031
1565	1.5562e+02	4.4304	3.463837	0.000307	3.071001	0.520242	-0.000031
1566	1.5572e+02	4.4216	3.429213	0.000348	3.480467	0.589607	-0.000035
1567	1.5582e+02	4.4151	3.400699	0.000287	2.866267	0.485559	-0.000029
1568	1.5592e+02	4.4056	3.368112	0.000328	3.275734	0.554924	-0.000033
1569	1.5602e+02	4.3941	3.338783	0.000295	2.948160	0.499432	-0.000029
1570	1.5612e+02	4.3861	3.309047	0.000299	2.989107	0.506368	-0.000030
1571	1.5622e+02	4.3760	3.278904	0.000303	3.030054	0.513305	-0.000030
1572	1.5631e+02	4.3650	3.247538	0.000315	3.152894	0.534115	-0.000032
1573	1.5641e+02	4.3546	3.214951	0.000328	3.275734	0.554924	-0.000033
1574	1.5651e+02	4.3459	3.185622	0.000295	2.948160	0.499432	-0.000029
1575	1.5661e+02	4.3339	3.150998	0.000348	3.480467	0.589607	-0.000035
1576	1.5671e+02	4.3233	3.120448	0.000307	3.071001	0.520242	-0.000031
1577	1.5681e+02	4.3136	3.089897	0.000307	3.071001	0.520242	-0.000031
1578	1.5691e+02	4.3040	3.059754	0.000303	3.030054	0.513305	-0.000030
1579	1.5701e+02	4.2944	3.028796	0.000311	3.111947	0.527178	-0.000031
1580	1.5711e+02	4.2860	2.998245	0.000307	3.071001	0.520242	-0.000031
1581	1.5721e+02	4.2751	2.968916	0.000295	2.948160	0.499432	-0.000029
1582	1.5731e+02	4.2635	2.937551	0.000315	3.152894	0.534115	-0.000032
1583	1.5741e+02	4.2536	2.910259	0.000274	2.743427	0.464749	-0.000027
1584	1.5751e+02	4.2462	2.874820	0.000356	3.562361	0.603480	-0.000036
1585	1.5761e+02	4.2346	2.844269	0.000307	3.071001	0.520242	-0.000031
1586	1.5771e+02	4.2253	2.814941	0.000295	2.948160	0.499432	-0.000029
1587	1.5781e+02	4.2120	2.787649	0.000274	2.743427	0.464749	-0.000027
1588	1.5791e+02	4.2028	2.750581	0.000373	3.726147	0.631226	-0.000037
1589	1.5801e+02	4.1955	2.718808	0.000319	3.193841	0.541051	-0.000032
1590	1.5811e+02	4.1870	2.687035	0.000319	3.193841	0.541051	-0.000032
1591	1.5821e+02	4.1752	2.654040	0.000332	3.316681	0.561861	-0.000033
1592	1.5830e+02	4.1651	2.624304	0.000299	2.989107	0.506368	-0.000030
1593	1.5840e+02	4.1553	2.593346	0.000311	3.111947	0.527178	-0.000031
1594	1.5850e+02	4.1452	2.561981	0.000315	3.152894	0.534115	-0.000032
1595	1.5860e+02	4.1351	2.529394	0.000328	3.275734	0.554924	-0.000033
1596	1.5870e+02	4.1246	2.500880	0.000287	2.866267	0.485559	-0.000029
1597	1.5880e+02	4.1154	2.469514	0.000315	3.152894	0.534115	-0.000032
1598	1.5890e+02	4.1054	2.442630	0.000270	2.702480	0.457813	-0.000027
1599	1.5900e+02	4.0954	2.408005	0.000348	3.480467	0.589607	-0.000035
1600	1.5910e+02	4.0845	2.380306	0.000278	2.784374	0.471686	-0.000028
1601	1.5920e+02	4.0758	2.352200	0.000283	2.825320	0.478622	-0.000028
1602	1.5930e+02	4.0643	2.319612	0.000328	3.275734	0.554924	-0.000033
1603	1.5940e+02	4.0539	2.292320	0.000274	2.743427	0.464749	-0.000027
1604	1.5950e+02	4.0434	2.256881	0.000356	3.562361	0.603480	-0.000036
1605	1.5960e+02	4.0345	2.230811	0.000262	2.620587	0.443939	-0.000026
1606	1.5970e+02	4.0257	2.196187	0.000348	3.480467	0.589607	-0.000035
1607	1.5980e+02	4.0144	2.165637	0.000307	3.071001	0.520242	-0.000031
1608	1.5990e+02	4.0047	2.133864	0.000319	3.193841	0.541051	-0.000032
1609	1.6000e+02	3.9944	2.105757	0.000283	2.825320	0.478622	-0.000028
1610	1.6010e+02	3.9869	2.077651	0.000283	2.825320	0.478622	-0.000028
1611	1.6019e+02	3.9774	2.051173	0.000266	2.661534	0.450876	-0.000027
1612	1.6029e+02	3.9653	2.022659	0.000287	2.866267	0.485559	-0.000029
1613	1.6039e+02	3.9574	1.993331	0.000295	2.948160	0.499432	-0.000029
1614	1.6049e+02	3.9489	1.964409	0.000291	2.907214	0.492495	-0.000029
1615	1.6059e+02	3.9371	1.934266	0.000303	3.030054	0.513305	-0.000030
1616	1.6069e+02	3.9259	1.904937	0.000295	2.948160	0.499432	-0.000029
1617	1.6079e+02	3.9157	1.869091	0.000360	3.603307	0.610417	-0.000036
1618	1.6089e+02	3.9053	1.843429	0.000258	2.579640	0.437003	-0.000026
1619	1.6099e+02	3.8970	1.814915	0.000287	2.866267	0.485559	-0.000029
1620	1.6109e+02	3.8862	1.782735	0.000323	3.234787	0.547988	-0.000032
1621	1.6119e+02	3.8775	1.750147	0.000328	3.275734	0.554924	-0.000033
1622	1.6129e+02	3.8677	1.722448	0.000278	2.784374	0.471686	-0.000028
1623	1.6139e+02	3.8555	1.687009	0.000356	3.562361	0.603480	-0.000036
1624	1.6149e+02	3.8471	1.654829	0.000323	3.234787	0.547988	-0.000032
1625	1.6159e+02	3.8390	1.623464	0.000315	3.152894	0.534115	-0.000032
1626	1.6169e+02	3.8287	1.593728	0.000299	2.989107	0.506368	-0.000030
1627	1.6179e+02	3.8171	1.561955	0.000319	3.193841	0.541051	-0.000032
1628	1.6189e+02	3.8061	1.529775	0.000323	3.234787	0.547988	-0.000032
1629	1.6199e+02	3.7954	1.497188	0.000328	3.275734	0.554924	-0.000033
1630	1.6209e+02	3.7873	1.464193	0.000332	3.316681	0.561861	-0.000033
1631	1.6219e+02	3.7785	1.428754	0.000356	3.562361	0.603480	-0.000036
1632	1.6228e+02	3.7671	1.397389	0.000315	3.152894	0.534115	-0.000032
1633	1.6238e+02	3.7585	1.367653	0.000299	2.989107	0.506368	-0.000030
1634	1.6248e+02	3.7472	1.331806	0.000360	3.603307	0.610417	-0.000036
1635	1.6258e+02	3.7383	1.298404	0.000336	3.357627	0.568797	-0.000034
1636	1.6268e+02	3.7257	1.269483	0.000291	2.907214	0.492495	-0.000029
1637	1.6278e+02	3.7170	1.232008	0.000377	3.767094	0.638163	-0.000038
1638	1.6288e+02	3.7080	1.196161	0.000360	3.603307	0.610417	-0.000036
1639	1.6298e+02	3.6985	1.162759	0.000336	3.357627	0.568797	-0.000034
1640	1.6308e+02	3.6893	1.130172	0.000328	3.275734	0.554924	-0.000033
1641	1.6318e+02	3.6805	1.096362	0.000340	3.398574	0.575734	-0.000034
1642	1.6328e+02	3.6685	1.061331	0.000352	3.521414	0.596544	-0.000035
1643	1.6338e+02	3.6594	1.028336	0.000332	3.316681	0.561861	-0.000033
1644	1.6348e+02	3.6472	0.989639	0.000389	3.889934	0.658973	-0.000039
1645	1.6358e+02	3.6395	0.955422	0.000344	3.439521	0.582671	-0.000034
1646	1.6368e+02	3.6281	0.924057	0.000315	3.152894	0.534115	-0.000032
1647	1.6378e+02	3.6149	0.888618	0.000356	3.562361	0.603480	-0.000036
1648	1.6388e+02	3.6063	0.849106	0.000397	3.971827	0.672846	-0.000040
1649	1.6398e+02	3.5986	0.817333	0.000319	3.193841	0.541051	-0.000032
1650	1.6408e+02	3.5881	0.785560	0.000319	3.193841	0.541051	-0.000032
1651	1.6418e+02	3.5764	0.748899	0.000369	3.685201	0.624290	-0.000037
1652	1.6427e+02	3.5674	0.711424	0.000377	3.767094	0.638163	-0.000038
1653	1.6437e+02	3.5573	0.676800	0.000348	3.480467	0.589607	-0.000035
1654	1.6447e+02	3.5483	0.641361	0.000356	3.562361	0.603480	-0.000036
1655	1.6457e+02	3.5370	0.605107	0.000364	3.644254	0.617353	-0.000036
1656	1.6467e+02	3.5288	0.569669	0.000356	3.562361	0.603480	-0.000036
1657	1.6477e+02	3.5171	0.537488	0.000323	3.234787	0.547988	-0.000032
1658	1.6487e+02	3.5075	0.500420	0.000373	3.726147	0.631226	-0.000037
1659	1.6497e+02	3.4969	0.466611	0.000340	3.398574	0.575734	-0.000034
1660	1.6507e+02	3.4872	0.426691	0.000401	4.012774	0.679782	-0.000040
1661	1.6517e+02	3.4774	0.393697	0.000332	3.316681	0.561861	-0.000033
1662	1.6527e+02	3.4695	0.358665	0.000352	3.521414	0.596544	-0.000035
1663	1.6537e+02	3.4589	0.320375	0.000385	3.848987	0.652036	-0.000038
1664	1.6547e+02	3.4489	0.284121	0.000364	3.644254	0.617353	-0.000036
1665	1.6557e+02	3.4384	0.247868	0.000364	3.644254	0.617353	-0.000036
1666	1.6567e+02	3.4292	0.210800	0.000373	3.726147	0.631226	-0.000037
1667	1.6577e+02	3.4176	0.173324	0.000377	3.767094	0.638163	-0.000038
1668	1.6587e+02	3.4097	0.139515	0.000340	3.398574	0.575734	-0.000034
1669	1.6597e+02	3.4003	0.102447	0.000373	3.726147	0.631226	-0.000037
1670	1.6607e+02	3.3894	0.064564	0.000381	3.808041	0.645100	-0.000038
1671	1.6616e+02	3.3779	0.030754	0.000340	3.398574	0.575734	-0.000034
1672	1.6626e+02	3.3698	-0.006314	0.000373	3.726147	0.631226	-0.000037
1673	1.6636e+02	3.3582	-0.042160	0.000360	3.603307	0.610417	-0.000036
1674	1.6646e+02	3.3498	-0.075155	0.000332	3.316681	0.561861	-0.000033
1675	1.6656e+02	3.3372	-0.112630	0.000377	3.767094	0.638163	-0.000038
1676	1.6666e+02	3.3277	-0.150513	0.000381	3.808041	0.645100	-0.000038
1677	1.6676e+02	3.3187	-0.183100	0.000328	3.275734	0.554924	-0.000033
1678	1.6686e+02	3.3083	-0.221391	0.000385	3.848987	0.652036	-0.000038
1679	1.6696e+02	3.2981	-0.264162	0.000430	4.299401	0.728338	-0.000043
1680	1.6706e+02	3.2876	-0.299600	0.000356	3.562361	0.603480	-0.000036
1681	1.6716e+02	3.2787	-0.339113	0.000397	3.971827	0.672846	-0.000040
1682	1.6726e+02	3.2674	-0.376181	0.000373	3.726147	0.631226	-0.000037
1683	1.6736e+02	3.2604	-0.411620	0.000356	3.562361	0.603480	-0.000036
1684	1.6746e+02	3.2500	-0.445022	0.000336	3.357627	0.568797	-0.000034
1685	1.6756e+02	3.2389	-0.490237	0.000455	4.545081	0.769958	-0.000045
1686	1.6766e+02	3.2311	-0.524454	0.000344	3.439521	0.582671	-0.000034
1687	1.6776e+02	3.2204	-0.566410	0.000422	4.217507	0.714465	-0.000042
1688	1.6786e+02	3.2073	-0.600219	0.000340	3.398574	0.575734	-0.000034
1689	1.6796e+02	3.1992	-0.641361	0.000414	4.135614	0.700592	-0.000041
1690	1.6806e+02	3.1875	-0.678836	0.000377	3.767094	0.638163	-0.000038
1691	1.6816e+02	3.1814	-0.717127	0.000385	3.848987	0.652036	-0.000038
1692	1.6825e+02	3.1697	-0.757861	0.000409	4.094667	0.693655	-0.000041
1693	1.6835e+02	3.1604	-0.796151	0.000385	3.848987	0.652036	-0.000038
1694	1.6845e+02	3.1490	-0.838922	0.000430	4.299401	0.728338	-0.000043
1695	1.6855e+02	3.1387	-0.877212	0.000385	3.848987	0.652036	-0.000038
1696	1.6865e+02	3.1311	-0.916317	0.000393	3.930881	0.665909	-0.000039
1697	1.6875e+02	3.1210	-0.957866	0.000418	4.176561	0.707529	-0.000042
1698	1.6885e+02	3.1116	-0.995749	0.000381	3.808041	0.645100	-0.000038
1699	1.6895e+02	3.1017	-1.034854	0.000393	3.930881	0.665909	-0.000039
1700	1.6905e+02	3.0913	-1.077217	0.000426	4.258454	0.721402	-0.000043
1701	1.6915e+02	3.0807	-1.115508	0.000385	3.848987	0.652036	-0.000038
1702	1.6925e+02	3.0721	-1.152168	0.000369	3.685201	0.624290	-0.000037
1703	1.6935e+02	3.0608	-1.192495	0.000405	4.053721	0.686719	-0.000041
1704	1.6945e+02	3.0504	-1.229156	0.000369	3.685201	0.624290	-0.000037
1705	1.6955e+02	3.0427	-1.266632	0.000377	3.767094	0.638163	-0.000038
1706	1.6965e+02	3.0304	-1.311032	0.000446	4.463187	0.756084	-0.000045
1707	1.6975e+02	3.0190	-1.350137	0.000393	3.930881	0.665909	-0.000039
1708	1.6985e+02	3.0106	-1.381910	0.000319	3.193841	0.541051	-0.000032
1709	1.6995e+02	2.9976	-1.422237	0.000405	4.053721	0.686719	-0.000041
1710	1.7005e+02	2.9922	-1.463785	0.000418	4.176561	0.707529	-0.000042
1711	1.7015e+02	2.9829	-1.500039	0.000364	3.644254	0.617353	-0.000036
1712	1.7024e+02	2.9708	-1.531812	0.000319	3.193841	0.541051	-0.000032
1713	1.7034e+02	2.9595	-1.572546	0.000409	4.094667	0.693655	-0.000041
1714	1.7044e+02	2.9516	-1.612873	0.000405	4.053721	0.686719	-0.000041
1715	1.7054e+02	2.9416	-1.647904	0.000352	3.521414	0.596544	-0.000035
1716	1.7064e+02	2.9336	-1.684565	0.000369	3.685201	0.624290	-0.000037
1717	1.7074e+02	2.9192	-1.723670	0.000393	3.930881	0.665909	-0.000039
1718	1.7084e+02	2.9116	-1.758701	0.000352	3.521414	0.596544	-0.000035
1719	1.7094e+02	2.9018	-1.801065	0.000426	4.258454	0.721402	-0.000043
1720	1.7104e+02	2.8893	-1.834467	0.000336	3.357627	0.568797	-0.000034
1721	1.7114e+02	2.8826	-1.871535	0.000373	3.726147	0.631226	-0.000037
1722	1.7124e+02	2.8713	-1.907789	0.000364	3.644254	0.617353	-0.000036
1723	1.7134e+02	2.8614	-1.944857	0.000373	3.726147	0.631226	-0.000037
1724	1.7144e+02	2.8543	-1.979481	0.000348	3.480467	0.589607	-0.000035
1725	1.7154e+02	2.8400	-2.021030	0.000418	4.176561	0.707529	-0.000042
1726	1.7164e+02	2.8341	-2.052395	0.000315	3.152894	0.534115	-0.000032
1727	1.7174e+02	2.8198	-2.089871	0.000377	3.767094	0.638163	-0.000038
1728	1.7184e+02	2.8133	-2.128976	0.000393	3.930881	0.665909	-0.000039
1729	1.7194e+02	2.8042	-2.162785	0.000340	3.398574	0.575734	-0.000034
1730	1.7204e+02	2.7926	-2.203927	0.000414	4.135614	0.700592	-0.000041
1731	1.7213e+02	2.7832	-2.238551	0.000348	3.480467	0.589607	-0.000035
1732	1.7223e+02	2.7708	-2.273175	0.000348	3.480467	0.589607	-0.000035
1733	1.7233e+02	2.7645	-2.308614	0.000356	3.562361	0.603480	-0.000036
1734	1.7243e+02	2.7522	-2.350570	0.000422	4.217507	0.714465	-0.000042
1735	1.7253e+02	2.7422	-2.383565	0.000332	3.316681	0.561861	-0.000033
1736	1.7263e+02	2.7306	-2.419411	0.000360	3.603307	0.610417	-0.000036
1737	1.7273e+02	2.7232	-2.456887	0.000377	3.767094	0.638163	-0.000038
1738	1.7283e+02	2.7131	-2.491511	0.000348	3.480467	0.589607	-0.000035
1739	1.7293e+02	2.7015	-2.528172	0.000369	3.685201	0.624290	-0.000037
1740	1.7303e+02	2.6954	-2.564832	0.000369	3.685201	0.624290	-0.000037
1741	1.7313e+02	2.6863	-2.605159	0.000405	4.053721	0.686719	-0.000041
1742	1.7323e+02	2.6705	-2.641820	0.000369	3.685201	0.624290	-0.000037
1743	1.7333e+02	2.6638	-2.678481	0.000369	3.685201	0.624290	-0.000037
1744	1.7343e+02	2.6534	-2.711883	0.000336	3.357627	0.568797	-0.000034
1745	1.7353e+02	2.6400	-2.751395	0.000397	3.971827	0.672846	-0.000040
1746	1.7363e+02	2.6318	-2.785205	0.000340	3.398574	0.575734	-0.000034
1747	1.7373e+02	2.6215	-2.822273	0.000373	3.726147	0.631226	-0.000037
1748	1.7383e+02	2.6135	-2.859341	0.000373	3.726147	0.631226	-0.000037
1749	1.7393e+02	2.5994	-2.893558	0.000344	3.439521	0.582671	-0.000034
1750	1.7403e+02	2.5912	-2.931033	0.000377	3.767094	0.638163	-0.000038
1751	1.7413e+02	2.5823	-2.968102	0.000373	3.726147	0.631226	-0.000037
1752	1.7422e+02	2.5707	-3.004355	0.000364	3.644254	0.617353	-0.000036
1753	1.7432e+02	2.5616	-3.042238	0.000381	3.808041	0.645100	-0.000038
1754	1.7442e+02	2.5526	-3.079713	0.000377	3.767094	0.638163	-0.000038
1755	1.7452e+02	2.5393	-3.114745	0.000352	3.521414	0.596544	-0.000035
1756	1.7462e+02	2.5320	-3.154664	0.000401	4.012774	0.679782	-0.000040
1757	1.7472e+02	2.5202	-3.188474	0.000340	3.398574	0.575734	-0.000034
1758	1.7482e+02	2.5130	-3.226764	0.000385	3.848987	0.652036	-0.000038
1759	1.7492e+02	2.5017	-3.267091	0.000405	4.053721	0.686719	-0.000041
1760	1.7502e+02	2.4941	-3.299678	0.000328	3.275734	0.554924	-0.000033
1761	1.7512e+02	2.4850	-3.337561	0.000381	3.808041	0.645100	-0.000038
1762	1.7522e+02	2.4743	-3.371778	0.000344	3.439521	0.582671	-0.000034
1763	1.7532e+02	2.4599	-3.409661	0.000381	3.808041	0.645100	-0.000038
1764	1.7542e+02	2.4551	-3.444692	0.000352	3.521414	0.596544	-0.000035
1765	1.7552e+02	2.4454	-3.482982	0.000385	3.848987	0.652036	-0.000038
1766	1.7562e+02	2.4318	-3.516792	0.000340	3.398574	0.575734	-0.000034
1767	1.7572e+02	2.4214	-3.555897	0.000393	3.930881	0.665909	-0.000039
1768	1.7582e+02	2.4139	-3.588077	0.000323	3.234787	0.547988	-0.000032
1769	1.7592e+02	2.4041	-3.624738	0.000369	3.685201	0.624290	-0.000037
1770	1.7602e+02	2.3959	-3.658954	0.000344	3.439521	0.582671	-0.000034
1771	1.7612e+02	2.3859	-3.699689	0.000409	4.094667	0.693655	-0.000041
1772	1.7621e+02	2.3749	-3.733498	0.000340	3.398574	0.575734	-0.000034
1773	1.7631e+02	2.3642	-3.771788	0.000385	3.848987	0.652036	-0.000038
1774	1.7641e+02	2.3552	-3.807635	0.000360	3.603307	0.610417	-0.000036
1775	1.7651e+02	2.3440	-3.843073	0.000356	3.562361	0.603480	-0.000036
1776	1.7661e+02	2.3339	-3.877697	0.000348	3.480467	0.589607	-0.000035
1777	1.7671e+02	2.3232	-3.912729	0.000352	3.521414	0.596544	-0.000035
1778	1.7681e+02	2.3159	-3.948982	0.000364	3.644254	0.617353	-0.000036
1779	1.7691e+02	2.3091	-3.984421	0.000356	3.562361	0.603480	-0.000036
1780	1.7701e+02	2.2930	-4.014565	0.000303	3.030054	0.513305	-0.000030
1781	1.7711e+02	2.2811	-4.052447	0.000381	3.808041	0.645100	-0.000038
1782	1.7721e+02	2.2742	-4.088294	0.000360	3.603307	0.610417	-0.000036
1783	1.7731e+02	2.2663	-4.122510	0.000344	3.439521	0.582671	-0.000034
1784	1.7741e+02	2.2518	-4.155912	0.000336	3.357627	0.568797	-0.000034
1785	1.7751e+02	2.2428	-4.195832	0.000401	4.012774	0.679782	-0.000040
1786	1.7761e+02	2.2337	-4.232900	0.000373	3.726147	0.631226	-0.000037
1787	1.7771e+02	2.2242	-4.274449	0.000418	4.176561	0.707529	-0.000042
1788	1.7781e+02	2.2112	-4.305814	0.000315	3.152894	0.534115	-0.000032
1789	1.7791e+02	2.2018	-4.345734	0.000401	4.012774	0.679782	-0.000040
1790	1.7801e+02	2.1940	-4.379951	0.000344	3.439521	0.582671	-0.000034
1791	1.7810e+02	2.1823	-4.417019	0.000373	3.726147	0.631226	-0.000037
1792	1.7820e+02	2.1754	-4.456939	0.000401	4.012774	0.679782	-0.000040
1793	1.7830e+02	2.1645	-4.491563	0.000348	3.480467	0.589607	-0.000035
1794	1.7840e+02	2.1535	-4.528631	0.000373	3.726147	0.631226	-0.000037
1795	1.7850e+02	2.1461	-4.570994	0.000426	4.258454	0.721402	-0.000043
1796	1.7860e+02	2.1339	-4.604397	0.000336	3.357627	0.568797	-0.000034
1797	1.7870e+02	2.1271	-4.647982	0.000438	4.381294	0.742211	-0.000044
1798	1.7880e+02	2.1160	-4.687494	0.000397	3.971827	0.672846	-0.000040
1799	1.7890e+02	2.1049	-4.725785	0.000385	3.848987	0.652036	-0.000038
1800	1.7900e+02	2.0937	-4.764075	0.000385	3.848987	0.652036	-0.000038
1801	1.7910e+02	2.0850	-4.799921	0.000360	3.603307	0.610417	-0.000036
1802	1.7920e+02	2.0743	-4.844729	0.000450	4.504134	0.763021	-0.000045
1803	1.7930e+02	2.0635	-4.882204	0.000377	3.767094	0.638163	-0.000038
1804	1.7940e+02	2.0541	-4.921716	0.000397	3.971827	0.672846	-0.000040
1805	1.7950e+02	2.0427	-4.962451	0.000409	4.094667	0.693655	-0.000041
1806	1.7960e+02	2.0343	-5.004814	0.000426	4.258454	0.721402	-0.000043
1807	1.7970e+02	2.0252	-5.044326	0.000397	3.971827	0.672846	-0.000040
1808	1.7980e+02	2.0138	-5.083024	0.000389	3.889934	0.658973	-0.000039
1809	1.7990e+02	2.0080	-5.124166	0.000414	4.135614	0.700592	-0.000041
1810	1.8000e+02	1.9951	-5.165715	0.000418	4.176561	0.707529	-0.000042
1811	1.8009e+02	1.9848	-5.205634	0.000401	4.012774	0.679782	-0.000040
1812	1.8019e+02	1.9755	-5.245146	0.000397	3.971827	0.672846	-0.000040
1813	1.8029e+02	1.9656	-5.293213	0.000483	4.831707	0.818513	-0.000048
1814	1.8039e+02	1.9552	-5.326208	0.000332	3.316681	0.561861	-0.000033
1815	1.8049e+02	1.9451	-5.370201	0.000442	4.422241	0.749148	-0.000044
1816	1.8059e+02	1.9351	-5.407269	0.000373	3.726147	0.631226	-0.000037
1817	1.8069e+02	1.9260	-5.453298	0.000463	4.626974	0.783831	-0.000046
1818	1.8079e+02	1.9155	-5.492403	0.000393	3.930881	0.665909	-0.000039
1819	1.8089e+02	1.9070	-5.534360	0.000422	4.217507	0.714465	-0.000042
1820	1.8099e+02	1.8996	-5.577945	0.000438	4.381294	0.742211	-0.000044
1821	1.8109e+02	1.8874	-5.619087	0.000414	4.135614	0.700592	-0.000041
1822	1.8119e+02	1.8761	-5.662265	0.000434	4.340347	0.735275	-0.000043
1823	1.8129e+02	1.8664	-5.702592	0.000405	4.053721	0.686719	-0.000041
1824	1.8139e+02	1.8578	-5.742512	0.000401	4.012774	0.679782	-0.000040
1825	1.8149e+02	1.8459	-5.781617	0.000393	3.930881	0.665909	-0.000039
1826	1.8159e+02	1.8341	-5.822351	0.000409	4.094667	0.693655	-0.000041
1827	1.8169e+02	1.8279	-5.870825	0.000487	4.872654	0.825450	-0.000049
1828	1.8179e+02	1.8160	-5.911559	0.000409	4.094667	0.693655	-0.000041
1829	1.8189e+02	1.8061	-5.950256	0.000389	3.889934	0.658973	-0.000039
1830	1.8199e+02	1.7953	-5.996693	0.000467	4.667921	0.790767	-0.000047
1831	1.8209e+02	1.7898	-6.038242	0.000418	4.176561	0.707529	-0.000042
1832	1.8218e+02	1.7761	-6.077755	0.000397	3.971827	0.672846	-0.000040
1833	1.8228e+02	1.7695	-6.123784	0.000463	4.626974	0.783831	-0.000046
1834	1.8238e+02	1.7565	-6.160038	0.000364	3.644254	0.617353	-0.000036
1835	1.8248e+02	1.7440	-6.210548	0.000508	5.077388	0.860133	-0.000051
1836	1.8258e+02	1.7414	-6.248024	0.000377	3.767094	0.638163	-0.000038
1837	1.8268e+02	1.7254	-6.295275	0.000475	4.749814	0.804640	-0.000047
1838	1.8278e+02	1.7178	-6.336824	0.000418	4.176561	0.707529	-0.000042
1839	1.8288e+02	1.7069	-6.380817	0.000442	4.422241	0.749148	-0.000044
1840	1.8298e+02	1.6980	-6.423181	0.000426	4.258454	0.721402	-0.000043
1841	1.8308e+02	1.6870	-6.462286	0.000393	3.930881	0.665909	-0.000039
1842	1.8318e+02	1.6765	-6.507501	0.000455	4.545081	0.769958	-0.000045
1843	1.8328e+02	1.6699	-6.549865	0.000426	4.258454	0.721402	-0.000043
1844	1.8338e+02	1.6532	-6.589784	0.000401	4.012774	0.679782	-0.000040
1845	1.8348e+02	1.6479	-6.632148	0.000426	4.258454	0.721402	-0.000043
1846	1.8358e+02	1.6357	-6.676548	0.000446	4.463187	0.756084	-0.000045
1847	1.8368e+02	1.6264	-6.721356	0.000450	4.504134	0.763021	-0.000045
1848	1.8378e+02	1.6184	-6.769015	0.000479	4.790761	0.811577	-0.000048
1849	1.8388e+02	1.6081	-6.808120	0.000393	3.930881	0.665909	-0.000039
1850	1.8398e+02	1.5949	-6.854149	0.000463	4.626974	0.783831	-0.000046
1851	1.8407e+02	1.5866	-6.897735	0.000438	4.381294	0.742211	-0.000044
1852	1.8417e+02	1.5762	-6.946209	0.000487	4.872654	0.825450	-0.000049
1853	1.8427e+02	1.5655	-6.987350	0.000414	4.135614	0.700592	-0.000041
1854	1.8437e+02	1.5604	-7.030121	0.000430	4.299401	0.728338	-0.000043
1855	1.8447e+02	1.5469	-7.078188	0.000483	4.831707	0.818513	-0.000048
1856	1.8457e+02	1.5379	-7.123403	0.000455	4.545081	0.769958	-0.000045
1857	1.8467e+02	1.5257	-7.165766	0.000426	4.258454	0.721402	-0.000043
1858	1.8477e+02	1.5163	-7.214240	0.000487	4.872654	0.825450	-0.000049
1859	1.8487e+02	1.5086	-7.259048	0.000450	4.504134	0.763021	-0.000045
1860	1.8497e+02	1.4981	-7.303448	0.000446	4.463187	0.756084	-0.000045
1861	1.8507e+02	1.4877	-7.351922	0.000487	4.872654	0.825450	-0.000049
1862	1.8517e+02	1.4770	-7.399174	0.000475	4.749814	0.804640	-0.000047
1863	1.8527e+02	1.4663	-7.443167	0.000442	4.422241	0.749148	-0.000044
1864	1.8537e+02	1.4593	-7.490826	0.000479	4.790761	0.811577	-0.000048
1865	1.8547e+02	1.4500	-7.539300	0.000487	4.872654	0.825450	-0.000049
1866	1.8557e+02	1.4405	-7.585329	0.000463	4.626974	0.783831	-0.000046
1867	1.8567e+02	1.4288	-7.630544	0.000455	4.545081	0.769958	-0.000045
1868	1.8577e+02	1.4197	-7.679833	0.000495	4.954548	0.839323	-0.000050
1869	1.8587e+02	1.4086	-7.720974	0.000414	4.135614	0.700592	-0.000041
1870	1.8597e+02	1.3973	-7.766189	0.000455	4.545081	0.769958	-0.000045
1871	1.8606e+02	1.3876	-7.811404	0.000455	4.545081	0.769958	-0.000045
1872	1.8616e+02	1.3770	-7.857841	0.000467	4.667921	0.790767	-0.000047
1873	1.8626e+02	1.3691	-7.905501	0.000479	4.790761	0.811577	-0.000048
1874	1.8636e+02	1.3599	-7.949494	0.000442	4.422241	0.749148	-0.000044
1875	1.8646e+02	1.3512	-7.995116	0.000459	4.586027	0.776894	-0.000046
1876	1.8656e+02	1.3361	-8.039924	0.000450	4.504134	0.763021	-0.000045
1877	1.8666e+02	1.3285	-8.086361	0.000467	4.667921	0.790767	-0.000047
1878	1.8676e+02	1.3171	-8.128317	0.000422	4.217507	0.714465	-0.000042
1879	1.8686e+02	1.3087	-8.175976	0.000479	4.790761	0.811577	-0.000048
1880	1.8696e+02	1.2972	-8.216303	0.000405	4.053721	0.686719	-0.000041
1881	1.8706e+02	1.2873	-8.262333	0.000463	4.626974	0.783831	-0.000046
1882	1.8716e+02	1.2796	-8.304696	0.000426	4.258454	0.721402	-0.000043
1883	1.8726e+02	1.2689	-8.350726	0.000463	4.626974	0.783831	-0.000046
1884	1.8736e+02	1.2566	-8.398385	0.000479	4.790761	0.811577	-0.000048
1885	1.8746e+02	1.2496	-8.434639	0.000364	3.644254	0.617353	-0.000036
1886	1.8756e+02	1.2397	-8.476187	0.000418	4.176561	0.707529	-0.000042
1887	1.8766e+02	1.2309	-8.523439	0.000475	4.749814	0.804640	-0.000047
1888	1.8776e+02	1.2200	-8.564173	0.000409	4.094667	0.693655	-0.000041
1889	1.8786e+02	1.2086	-8.608166	0.000442	4.422241	0.749148	-0.000044
1890	1.8796e+02	1.1978	-8.652974	0.000450	4.504134	0.763021	-0.000045
1891	1.8806e+02	1.1897	-8.697782	0.000450	4.504134	0.763021	-0.000045
1892	1.8815e+02	1.1791	-8.742590	0.000450	4.504134	0.763021	-0.000045
1893	1.8825e+02	1.1703	-8.784953	0.000426	4.258454	0.721402	-0.000043
1894	1.8835e+02	1.1603	-8.827317	0.000426	4.258454	0.721402	-0.000043
1895	1.8845e+02	1.1511	-8.873346	0.000463	4.626974	0.783831	-0.000046
1896	1.8855e+02	1.1399	-8.916525	0.000434	4.340347	0.735275	-0.000043
1897	1.8865e+02	1.1288	-8.958481	0.000422	4.217507	0.714465	-0.000042
1898	1.8875e+02	1.1200	-9.002474	0.000442	4.422241	0.749148	-0.000044
1899	1.8885e+02	1.1112	-9.046874	0.000446	4.463187	0.756084	-0.000045
1900	1.8895e+02	1.0997	-9.093311	0.000467	4.667921	0.790767	-0.000047
1901	1.8905e+02	1.0882	-9.133231	0.000401	4.012774	0.679782	-0.000040
1902	1.8915e+02	1.0825	-9.178039	0.000450	4.504134	0.763021	-0.000045
1903	1.8925e+02	1.0687	-9.219180	0.000414	4.135614	0.700592	-0.000041
1904	1.8935e+02	1.0606	-9.264803	0.000459	4.586027	0.776894	-0.000046
1905	1.8945e+02	1.0518	-9.310018	0.000455	4.545081	0.769958	-0.000045
1906	1.8955e+02	1.0399	-9.353603	0.000438	4.381294	0.742211	-0.000044
1907	1.8965e+02	1.0307	-9.392301	0.000389	3.889934	0.658973	-0.000039
1908	1.8975e+02	1.0223	-9.437923	0.000459	4.586027	0.776894	-0.000046
1909	1.8985e+02	1.0116	-9.482324	0.000446	4.463187	0.756084	-0.000045
1910	1.8995e+02	1.0030	-9.523058	0.000409	4.094667	0.693655	-0.000041
1911	1.9004e+02	0.9908	-9.572346	0.000495	4.954548	0.839323	-0.000050
1912	1.9014e+02	0.9799	-9.609822	0.000377	3.767094	0.638163	-0.000038
1913	1.9024e+02	0.9707	-9.659925	0.000504	5.036441	0.853196	-0.000050
1914	1.9034e+02	0.9606	-9.699845	0.000401	4.012774	0.679782	-0.000040
1915	1.9044e+02	0.9501	-9.743023	0.000434	4.340347	0.735275	-0.000043
1916	1.9054e+02	0.9410	-9.786608	0.000438	4.381294	0.742211	-0.000044
1917	1.9064e+02	0.9299	-9.826935	0.000405	4.053721	0.686719	-0.000041
1918	1.9074e+02	0.9219	-9.873780	0.000471	4.708867	0.797704	-0.000047
1919	1.9084e+02	0.9118	-9.916958	0.000434	4.340347	0.735275	-0.000043
1920	1.9094e+02	0.9018	-9.960951	0.000442	4.422241	0.749148	-0.000044
1921	1.9104e+02	0.8910	-10.007795	0.000471	4.708867	0.797704	-0.000047
1922	1.9114e+02	0.8810	-10.047308	0.000397	3.971827	0.672846	-0.000040
1923	1.9124e+02	0.8744	-10.094559	0.000475	4.749814	0.804640	-0.000047
1924	1.9134e+02	0.8599	-10.138552	0.000442	4.422241	0.749148	-0.000044
1925	1.9144e+02	0.8514	-10.183360	0.000450	4.504134	0.763021	-0.000045
1926	1.9154e+02	0.8444	-10.225316	0.000422	4.217507	0.714465	-0.000042
1927	1.9164e+02	0.8315	-10.268902	0.000438	4.381294	0.742211	-0.000044
1928	1.9174e+02	0.8223	-10.314524	0.000459	4.586027	0.776894	-0.000046
1929	1.9184e+02	0.8123	-10.357295	0.000430	4.299401	0.728338	-0.000043
1930	1.9194e+02	0.8024	-10.399252	0.000422	4.217507	0.714465	-0.000042
1931	1.9203e+02	0.7920	-10.445689	0.000467	4.667921	0.790767	-0.000047
1932	1.9213e+02	0.7854	-10.490496	0.000450	4.504134	0.763021	-0.000045
1933	1.9223e+02	0.7716	-10.532453	0.000422	4.217507	0.714465	-0.000042
1934	1.9233e+02	0.7635	-10.576446	0.000442	4.422241	0.749148	-0.000044
1935	1.9243e+02	0.7506	-10.616365	0.000401	4.012774	0.679782	-0.000040
1936	1.9253e+02	0.7404	-10.660358	0.000442	4.422241	0.749148	-0.000044
1937	1.9263e+02	0.7375	-10.705981	0.000459	4.586027	0.776894	-0.000046
1938	1.9273e+02	0.7211	-10.749974	0.000442	4.422241	0.749148	-0.000044
1939	1.9283e+02	0.7108	-10.793967	0.000442	4.422241	0.749148	-0.000044
1940	1.9293e+02	0.7018	-10.835923	0.000422	4.217507	0.714465	-0.000042
1941	1.9303e+02	0.6934	-10.879916	0.000442	4.422241	0.749148	-0.000044
1942	1.9313e+02	0.6833	-10.919021	0.000393	3.930881	0.665909	-0.000039
1943	1.9323e+02	0.6723	-10.965050	0.000463	4.626974	0.783831	-0.000046
1944	1.9333e+02	0.6621	-11.008636	0.000438	4.381294	0.742211	-0.000044
1945	1.9343e+02	0.6533	-11.049370	0.000409	4.094667	0.693655	-0.000041
1946	1.9353e+02	0.6413	-11.088883	0.000397	3.971827	0.672846	-0.000040
1947	1.9363e+02	0.6324	-11.132061	0.000434	4.340347	0.735275	-0.000043
1948	1.9373e+02	0.6244	-11.174017	0.000422	4.217507	0.714465	-0.000042
1949	1.9383e+02	0.6120	-11.217603	0.000438	4.381294	0.742211	-0.000044
1950	1.9393e+02	0.6023	-11.259559	0.000422	4.217507	0.714465	-0.000042
1951	1.9403e+02	0.5921	-11.301923	0.000426	4.258454	0.721402	-0.000043
1952	1.9412e+02	0.5846	-11.345916	0.000442	4.422241	0.749148	-0.000044
1953	1.9422e+02	0.5730	-11.391131	0.000455	4.545081	0.769958	-0.000045
1954	1.9432e+02	0.5624	-11.435124	0.000442	4.422241	0.749148	-0.000044
1955	1.9442e+02	0.5549	-11.478709	0.000438	4.381294	0.742211	-0.000044
1956	1.9452e+02	0.5434	-11.523110	0.000446	4.463187	0.756084	-0.000045
1957	1.9462e+02	0.5355	-11.567103	0.000442	4.422241	0.749148	-0.000044
1958	1.9472e+02	0.5241	-11.610281	0.000434	4.340347	0.735275	-0.000043
1959	1.9482e+02	0.5120	-11.656311	0.000463	4.626974	0.783831	-0.000046
1960	1.9492e+02	0.5050	-11.700304	0.000442	4.422241	0.749148	-0.000044
1961	1.9502e+02	0.4959	-11.743889	0.000438	4.381294	0.742211	-0.000044
1962	1.9512e+02	0.4861	-11.789104	0.000455	4.545081	0.769958	-0.000045
1963	1.9522e+02	0.4716	-11.835542	0.000467	4.667921	0.790767	-0.000047
1964	1.9532e+02	0.4631	-11.884015	0.000487	4.872654	0.825450	-0.000049
1965	1.9542e+02	0.4519	-11.929638	0.000459	4.586027	0.776894	-0.000046
1966	1.9552e+02	0.4407	-11.979333	0.000500	4.995494	0.846260	-0.000050
1967	1.9562e+02	0.4319	-12.023326	0.000442	4.422241	0.749148	-0.000044
1968	1.9572e+02	0.4230	-12.072615	0.000495	4.954548	0.839323	-0.000050
1969	1.9582e+02	0.4156	-12.117015	0.000446	4.463187	0.756084	-0.000045
1970	1.9592e+02	0.4004	-12.162638	0.000459	4.586027	0.776894	-0.000046
1971	1.9601e+02	0.3963	-12.210704	0.000483	4.831707	0.818513	-0.000048
1972	1.9611e+02	0.3827	-12.257956	0.000475	4.749814	0.804640	-0.000047
1973	1.9621e+02	0.3740	-12.303985	0.000463	4.626974	0.783831	-0.000046
1974	1.9631e+02	0.3629	-12.350830	0.000471	4.708867	0.797704	-0.000047
1975	1.9641e+02	0.3531	-12.400526	0.000500	4.995494	0.846260	-0.000050
1976	1.9651e+02	0.3461	-12.447370	0.000471	4.708867	0.797704	-0.000047
1977	1.9661e+02	0.3348	-12.497066	0.000500	4.995494	0.846260	-0.000050
1978	1.9671e+02	0.3247	-12.539837	0.000430	4.299401	0.728338	-0.000043
1979	1.9681e+02	0.3144	-12.592791	0.000532	5.323068	0.901752	-0.000053
1980	1.9691e+02	0.3064	-12.637192	0.000446	4.463187	0.756084	-0.000045
1981	1.9701e+02	0.2941	-12.686480	0.000495	4.954548	0.839323	-0.000050
1982	1.9711e+02	0.2819	-12.736583	0.000504	5.036441	0.853196	-0.000050
1983	1.9721e+02	0.2729	-12.785872	0.000495	4.954548	0.839323	-0.000050
1984	1.9731e+02	0.2630	-12.831494	0.000459	4.586027	0.776894	-0.000046
1985	1.9741e+02	0.2548	-12.879153	0.000479	4.790761	0.811577	-0.000048
1986	1.9751e+02	0.2431	-12.929256	0.000504	5.036441	0.853196	-0.000050
1987	1.9761e+02	0.2357	-12.974879	0.000459	4.586027	0.776894	-0.000046
1988	1.9771e+02	0.2235	-13.026611	0.000520	5.200228	0.880942	-0.000052
1989	1.9781e+02	0.2145	-13.078344	0.000520	5.200228	0.880942	-0.000052
1990	1.9791e+02	0.2041	-13.127225	0.000491	4.913601	0.832387	-0.000049
1991	1.9800e+02	0.1926	-13.173662	0.000467	4.667921	0.790767	-0.000047
1992	1.9810e+02	0.1811	-13.220914	0.000475	4.749814	0.804640	-0.000047
1993	1.9820e+02	0.1753	-13.273461	0.000528	5.282121	0.894816	-0.000053
1994	1.9830e+02	0.1667	-13.322342	0.000491	4.913601	0.832387	-0.000049
1995	1.9840e+02	0.1553	-13.371630	0.000495	4.954548	0.839323	-0.000050
1996	1.9850e+02	0.1424	-13.419289	0.000479	4.790761	0.811577	-0.000048
1997	1.9860e+02	0.1353	-13.471022	0.000520	5.200228	0.880942	-0.000052
1998	1.9870e+02	0.1223	-13.524791	0.000540	5.404961	0.915625	-0.000054
1999	1.9880e+02	0.1148	-13.572857	0.000483	4.831707	0.818513	-0.000048
2000	1.9890e+02	0.1048	-13.619295	0.000467	4.667921	0.790767	-0.000047
2001	1.9900e+02	0.0974	-13.666546	0.000475	4.749814	0.804640	-0.000047
2002	1.9910e+02	0.0857	-13.721130	0.000549	5.486854	0.929498	-0.000055
2003	1.9920e+02	0.0761	-13.767160	0.000463	4.626974	0.783831	-0.000046
2004	1.9930e+02	0.0670	-13.821744	0.000549	5.486854	0.929498	-0.000055
2005	1.9940e+02	0.0562	-13.871440	0.000500	4.995494	0.846260	-0.000050
2006	1.9950e+02	0.0446	-13.918284	0.000471	4.708867	0.797704	-0.000047
2007	1.9960e+02	0.0364	-13.970016	0.000520	5.200228	0.880942	-0.000052
2008	1.9970e+02	0.0266	-14.019305	0.000495	4.954548	0.839323	-0.000050
2009	1.9980e+02	0.0146	-14.067371	0.000483	4.831707	0.818513	-0.000048
2010	1.9990e+02	0.0069	-14.117882	0.000508	5.077388	0.860133	-0.000051
2011	2.0000e+02	-0.0046	-14.169614	0.000508	5.077388	0.860133	-0.000052

PMax (uC/cm2):	3.42e+01
Pr (uC/cm2):	2.95e+00
-Pr (uC/cm2):	0.00e+00
PLoss (uC/cm2):	0.00e+00
C (Max-Eff) (nF):	3.43e-01
K (Eff):	5.81e+02
Vert. (+/-Pr) Shift (uC/cm2):	1.47e+00
Offset (uC/cm2):	1.71e+01

A (Loop Area - uC/cm2·Volts):	-2.98e-02



Hysteresis Version: 5.48.1 - Radiant Technologies, Inc., 1999 - 9/12/24

