»»»»»»»»»»»»»»»»»»»»»»»»»»»»»»»»»»»» Hysteresis ««««««««««««««««««««««««««««««««««««
»»»  Executed Version:	5.48.1
»»»  Vision Version:	5.48.4 (R)
»»»  Vision Compiled:	9/18/24
»»»  Driver Version:	5.47.0
»»»  Windows Version:	Windows 8 or 8.1
»»»  Processor Information:	x86 (AMD or Intel) - 32 Processors
»»»  Tester Name:	PMF21124-494 (100V)
»»»  Tester S/N:	PMF21124-494
»»»  Internal Amp Type:	100V RevK 270k
»»»  Internal Amp S/N:	iAB2-596/K     
»»»  Execution Count:	1
»»»»»»»»»»»»»»»»»»»»»»»»»»»»»»»»»»»»»»»»»»««««««««««««««««««««««««««««««««««««««««««

Stored:	6/25/2025 - 15:30:33
Configured:	06/25/25 10:44:40 AM
Executed:	06/25/25 03:30:00 PM

»»»»»»»»»»»»»»»»»»»»»»»»»»»»»»»»»»» Sample Info ««««««««««««««««««««««««««««««««««««
Sample Name:	
Lot Name:	
Wafer Name:	
Die Row/Column:	0/0
Capacitor Number:	0
Sample Area (cm2):	1.00e-04
Sample Thickness (microns):	1.50e-01

Amplifier:	Internal

»»»»»»»»»»»»»»»»»»»»»»»»»»»»»»»»»»» Tester Info «««««««««««««««««««««««««««««««««««
Tester Name:	PMF21124-494 (100V)
Tester Serial Number:	PMF21124-494
Return Signal Amp. Level:	1.9 [Index: 2]

»»»»»»»»»»»»»»»»»»»»»»»»»»»»»»»» Hysteresis Info ««««««««««««««««««««««««««««««««««
Task Name:	Hyst-116
Volts:	10.00
Field:	666.67 (kV/cm)
DCBias:	0.00
DCField:	0.00 (kV/cm)
Hysteresis Period (ms):	2.00e+02
Preset:	Enabled
Preset Delay (ms):	1.00e+03
Profile:	Standard Monopolar

»»»»»»»»»»»»»»»»»»»»»»»»»»»»»»»»»»»»»» Data «««««««««««««««««««««««««««««««««««««««
Points:	2011

Valid Data

Point	Time (ms)	Drive Voltage	Measured Polarization (uC/cm2)	Capacitance (uF)	Normalized Capacitance (uF/cm2)	Dielectric Constant	Instantaneous Current (mA)
   1	0.0000e+00	-0.0020	-19.048152	0.000475	4.749579	0.804600	0.000047
   2	9.9500e-02	0.0059	-19.000901	0.000475	4.749579	0.804600	0.000047
   3	1.9900e-01	0.0146	-18.951612	0.000495	4.954302	0.839281	0.000050
   4	2.9850e-01	0.0294	-18.899880	0.000520	5.199970	0.880899	0.000052
   5	3.9800e-01	0.0352	-18.850184	0.000500	4.995246	0.846218	0.000050
   6	4.9750e-01	0.0471	-18.801303	0.000491	4.913357	0.832345	0.000049
   7	5.9700e-01	0.0545	-18.749570	0.000520	5.199970	0.880899	0.000052
   8	6.9650e-01	0.0645	-18.702726	0.000471	4.708634	0.797664	0.000047
   9	7.9600e-01	0.0752	-18.650586	0.000524	5.240914	0.887835	0.000052
  10	8.9550e-01	0.0864	-18.600076	0.000508	5.077136	0.860090	0.000051
  11	9.9500e-01	0.0954	-18.547528	0.000528	5.281859	0.894771	0.000053
  12	1.0945e+00	0.1028	-18.502313	0.000454	4.544855	0.769919	0.000045
  13	1.1940e+00	0.1124	-18.448951	0.000536	5.363748	0.908644	0.000054
  14	1.2935e+00	0.1254	-18.402514	0.000467	4.667689	0.790728	0.000047
  15	1.3930e+00	0.1351	-18.353633	0.000491	4.913357	0.832345	0.000049
  16	1.4925e+00	0.1451	-18.304752	0.000491	4.913357	0.832345	0.000049
  17	1.5920e+00	0.1546	-18.254242	0.000508	5.077136	0.860090	0.000051
  18	1.6915e+00	0.1669	-18.204546	0.000500	4.995246	0.846218	0.000050
  19	1.7910e+00	0.1746	-18.155258	0.000495	4.954302	0.839281	0.000050
  20	1.8905e+00	0.1836	-18.107598	0.000479	4.790523	0.811537	0.000048
  21	1.9900e+00	0.1955	-18.057088	0.000508	5.077136	0.860090	0.000051
  22	2.0895e+00	0.2085	-18.006170	0.000512	5.118080	0.867026	0.000051
  23	2.1890e+00	0.2164	-17.957289	0.000491	4.913357	0.832345	0.000049
  24	2.2885e+00	0.2262	-17.905557	0.000520	5.199970	0.880899	0.000052
  25	2.3880e+00	0.2346	-17.855046	0.000508	5.077136	0.860090	0.000051
  26	2.4875e+00	0.2434	-17.805350	0.000500	4.995246	0.846218	0.000050
  27	2.5870e+00	0.2560	-17.753210	0.000524	5.240914	0.887835	0.000052
  28	2.6865e+00	0.2644	-17.700663	0.000528	5.281859	0.894771	0.000053
  29	2.7860e+00	0.2753	-17.656670	0.000442	4.422021	0.749111	0.000044
  30	2.8855e+00	0.2855	-17.605345	0.000516	5.159025	0.873962	0.000052
  31	2.9850e+00	0.2949	-17.555242	0.000504	5.036191	0.853154	0.000050
  32	3.0845e+00	0.3069	-17.500658	0.000549	5.486582	0.929452	0.000055
  33	3.1840e+00	0.3165	-17.449333	0.000516	5.159025	0.873962	0.000052
  34	3.2835e+00	0.3230	-17.400044	0.000495	4.954302	0.839281	0.000050
  35	3.3830e+00	0.3322	-17.352385	0.000479	4.790523	0.811537	0.000048
  36	3.4825e+00	0.3455	-17.301060	0.000516	5.159025	0.873962	0.000052
  37	3.5820e+00	0.3513	-17.251364	0.000500	4.995246	0.846218	0.000050
  38	3.6815e+00	0.3645	-17.199632	0.000520	5.199970	0.880899	0.000052
  39	3.7810e+00	0.3719	-17.152788	0.000471	4.708634	0.797664	0.000047
  40	3.8805e+00	0.3851	-17.097796	0.000553	5.527527	0.936388	0.000055
  41	3.9800e+00	0.3922	-17.050137	0.000479	4.790523	0.811537	0.000048
  42	4.0795e+00	0.4025	-17.001256	0.000491	4.913357	0.832345	0.000049
  43	4.1790e+00	0.4154	-16.951968	0.000495	4.954302	0.839281	0.000050
  44	4.2785e+00	0.4250	-16.905123	0.000471	4.708634	0.797664	0.000047
  45	4.3780e+00	0.4324	-16.858686	0.000467	4.667689	0.790728	0.000047
  46	4.4775e+00	0.4418	-16.807361	0.000516	5.159025	0.873962	0.000052
  47	4.5770e+00	0.4527	-16.763775	0.000438	4.381077	0.742174	0.000044
  48	4.6765e+00	0.4623	-16.715302	0.000487	4.872412	0.825409	0.000049
  49	4.7760e+00	0.4732	-16.666420	0.000491	4.913357	0.832345	0.000049
  50	4.8755e+00	0.4835	-16.619169	0.000475	4.749579	0.804600	0.000047
  51	4.9750e+00	0.4931	-16.567029	0.000524	5.240914	0.887835	0.000052
  52	5.0745e+00	0.5026	-16.522221	0.000450	4.503911	0.762983	0.000045
  53	5.1740e+00	0.5131	-16.474969	0.000475	4.749579	0.804600	0.000047
  54	5.2735e+00	0.5241	-16.427310	0.000479	4.790523	0.811537	0.000048
  55	5.3730e+00	0.5356	-16.378429	0.000491	4.913357	0.832345	0.000049
  56	5.4725e+00	0.5425	-16.328734	0.000500	4.995246	0.846218	0.000050
  57	5.5720e+00	0.5545	-16.279445	0.000495	4.954302	0.839281	0.000050
  58	5.6715e+00	0.5628	-16.235452	0.000442	4.422021	0.749111	0.000044
  59	5.7710e+00	0.5748	-16.190237	0.000454	4.544855	0.769919	0.000045
  60	5.8705e+00	0.5838	-16.140134	0.000504	5.036191	0.853154	0.000050
  61	5.9700e+00	0.5929	-16.091253	0.000491	4.913357	0.832345	0.000049
  62	6.0695e+00	0.6048	-16.043594	0.000479	4.790523	0.811537	0.000048
  63	6.1690e+00	0.6124	-15.998379	0.000454	4.544855	0.769919	0.000045
  64	6.2685e+00	0.6232	-15.951942	0.000467	4.667689	0.790728	0.000047
  65	6.3680e+00	0.6335	-15.901431	0.000508	5.077136	0.860090	0.000051
  66	6.4675e+00	0.6451	-15.857438	0.000442	4.422021	0.749111	0.000044
  67	6.5670e+00	0.6535	-15.810186	0.000475	4.749579	0.804600	0.000047
  68	6.6665e+00	0.6631	-15.759269	0.000512	5.118080	0.867026	0.000051
  69	6.7660e+00	0.6721	-15.710795	0.000487	4.872412	0.825409	0.000049
  70	6.8655e+00	0.6815	-15.665987	0.000450	4.503911	0.762983	0.000045
  71	6.9650e+00	0.6930	-15.613440	0.000528	5.281859	0.894771	0.000053
  72	7.0645e+00	0.7039	-15.567410	0.000463	4.626745	0.783792	0.000046
  73	7.1640e+00	0.7157	-15.523010	0.000446	4.462966	0.756047	0.000045
  74	7.2635e+00	0.7211	-15.476573	0.000467	4.667689	0.790728	0.000047
  75	7.3630e+00	0.7343	-15.429321	0.000475	4.749579	0.804600	0.000047
  76	7.4625e+00	0.7455	-15.381662	0.000479	4.790523	0.811537	0.000048
  77	7.5620e+00	0.7507	-15.339298	0.000426	4.258243	0.721366	0.000043
  78	7.6615e+00	0.7609	-15.293676	0.000459	4.585800	0.776856	0.000046
  79	7.7610e+00	0.7716	-15.249683	0.000442	4.422021	0.749111	0.000044
  80	7.8605e+00	0.7815	-15.202431	0.000475	4.749579	0.804600	0.000047
  81	7.9600e+00	0.7934	-15.158031	0.000446	4.462966	0.756047	0.000045
  82	8.0595e+00	0.8044	-15.114445	0.000438	4.381077	0.742174	0.000044
  83	8.1590e+00	0.8123	-15.061083	0.000536	5.363748	0.908644	0.000054
  84	8.2585e+00	0.8205	-15.021979	0.000393	3.930686	0.665876	0.000039
  85	8.3580e+00	0.8322	-14.974727	0.000475	4.749579	0.804600	0.000047
  86	8.4575e+00	0.8411	-14.929105	0.000459	4.585800	0.776856	0.000046
  87	8.5570e+00	0.8525	-14.883075	0.000463	4.626745	0.783792	0.000046
  88	8.6565e+00	0.8633	-14.840711	0.000426	4.258243	0.721366	0.000043
  89	8.7560e+00	0.8708	-14.793459	0.000475	4.749579	0.804600	0.000047
  90	8.8555e+00	0.8858	-14.750688	0.000430	4.299187	0.728302	0.000043
  91	8.9550e+00	0.8920	-14.702622	0.000483	4.831468	0.818473	0.000048
  92	9.0545e+00	0.9019	-14.656185	0.000467	4.667689	0.790728	0.000047
  93	9.1540e+00	0.9118	-14.609341	0.000471	4.708634	0.797664	0.000047
  94	9.2535e+00	0.9201	-14.566977	0.000426	4.258243	0.721366	0.000043
  95	9.3530e+00	0.9312	-14.522169	0.000450	4.503911	0.762983	0.000045
  96	9.4525e+00	0.9433	-14.473288	0.000491	4.913357	0.832345	0.000049
  97	9.5520e+00	0.9519	-14.424000	0.000495	4.954302	0.839281	0.000050
  98	9.6515e+00	0.9654	-14.382043	0.000422	4.217298	0.714430	0.000042
  99	9.7510e+00	0.9706	-14.336828	0.000454	4.544855	0.769919	0.000045
 100	9.8505e+00	0.9819	-14.287947	0.000491	4.913357	0.832345	0.000049
 101	9.9500e+00	0.9931	-14.238252	0.000500	4.995246	0.846218	0.000050
 102	1.0050e+01	1.0012	-14.192222	0.000463	4.626745	0.783792	0.000046
 103	1.0149e+01	1.0108	-14.146192	0.000463	4.626745	0.783792	0.000046
 104	1.0248e+01	1.0213	-14.098533	0.000479	4.790523	0.811537	0.000048
 105	1.0348e+01	1.0283	-14.054540	0.000442	4.422021	0.749111	0.000044
 106	1.0447e+01	1.0407	-14.007288	0.000475	4.749579	0.804600	0.000047
 107	1.0547e+01	1.0509	-13.962073	0.000454	4.544855	0.769919	0.000045
 108	1.0646e+01	1.0624	-13.916858	0.000454	4.544855	0.769919	0.000045
 109	1.0746e+01	1.0699	-13.871643	0.000454	4.544855	0.769919	0.000045
 110	1.0845e+01	1.0815	-13.824392	0.000475	4.749579	0.804600	0.000047
 111	1.0945e+01	1.0916	-13.779991	0.000446	4.462966	0.756047	0.000045
 112	1.1044e+01	1.1005	-13.732739	0.000475	4.749579	0.804600	0.000047
 113	1.1144e+01	1.1100	-13.688339	0.000446	4.462966	0.756047	0.000045
 114	1.1243e+01	1.1183	-13.639865	0.000487	4.872412	0.825409	0.000049
 115	1.1343e+01	1.1337	-13.595872	0.000442	4.422021	0.749111	0.000044
 116	1.1443e+01	1.1428	-13.551472	0.000446	4.462966	0.756047	0.000045
 117	1.1542e+01	1.1494	-13.505035	0.000467	4.667689	0.790728	0.000047
 118	1.1642e+01	1.1606	-13.461042	0.000442	4.422021	0.749111	0.000044
 119	1.1741e+01	1.1692	-13.416642	0.000446	4.462966	0.756047	0.000045
 120	1.1841e+01	1.1792	-13.364909	0.000520	5.199970	0.880899	0.000052
 121	1.1940e+01	1.1896	-13.322138	0.000430	4.299187	0.728302	0.000043
 122	1.2040e+01	1.1996	-13.278552	0.000438	4.381077	0.742174	0.000044
 123	1.2139e+01	1.2090	-13.229264	0.000495	4.954302	0.839281	0.000050
 124	1.2239e+01	1.2198	-13.182827	0.000467	4.667689	0.790728	0.000047
 125	1.2338e+01	1.2305	-13.136797	0.000463	4.626745	0.783792	0.000046
 126	1.2438e+01	1.2393	-13.091175	0.000459	4.585800	0.776856	0.000046
 127	1.2537e+01	1.2489	-13.046775	0.000446	4.462966	0.756047	0.000045
 128	1.2636e+01	1.2579	-12.997893	0.000491	4.913357	0.832345	0.000049
 129	1.2736e+01	1.2713	-12.949827	0.000483	4.831468	0.818473	0.000048
 130	1.2835e+01	1.2756	-12.902983	0.000471	4.708634	0.797664	0.000047
 131	1.2935e+01	1.2891	-12.853287	0.000500	4.995246	0.846218	0.000050
 132	1.3034e+01	1.2992	-12.807257	0.000463	4.626745	0.783792	0.000046
 133	1.3134e+01	1.3114	-12.763264	0.000442	4.422021	0.749111	0.000044
 134	1.3233e+01	1.3184	-12.716827	0.000467	4.667689	0.790728	0.000047
 135	1.3333e+01	1.3313	-12.665909	0.000512	5.118080	0.867026	0.000051
 136	1.3432e+01	1.3383	-12.618250	0.000479	4.790523	0.811537	0.000048
 137	1.3532e+01	1.3457	-12.569369	0.000491	4.913357	0.832345	0.000049
 138	1.3632e+01	1.3573	-12.523339	0.000463	4.626745	0.783792	0.000046
 139	1.3731e+01	1.3664	-12.474458	0.000491	4.913357	0.832345	0.000049
 140	1.3831e+01	1.3796	-12.428021	0.000467	4.667689	0.790728	0.000047
 141	1.3930e+01	1.3891	-12.380770	0.000475	4.749579	0.804600	0.000047
 142	1.4030e+01	1.3993	-12.333518	0.000475	4.749579	0.804600	0.000047
 143	1.4129e+01	1.4080	-12.285044	0.000487	4.872412	0.825409	0.000049
 144	1.4229e+01	1.4170	-12.237792	0.000475	4.749579	0.804600	0.000047
 145	1.4328e+01	1.4281	-12.190133	0.000479	4.790523	0.811537	0.000048
 146	1.4428e+01	1.4386	-12.141252	0.000491	4.913357	0.832345	0.000049
 147	1.4527e+01	1.4470	-12.098481	0.000430	4.299187	0.728302	0.000043
 148	1.4627e+01	1.4562	-12.045119	0.000536	5.363748	0.908644	0.000054
 149	1.4726e+01	1.4681	-11.997868	0.000475	4.749579	0.804600	0.000047
 150	1.4825e+01	1.4753	-11.949801	0.000483	4.831468	0.818473	0.000048
 151	1.4925e+01	1.4891	-11.901327	0.000487	4.872412	0.825409	0.000049
 152	1.5024e+01	1.4987	-11.855705	0.000459	4.585800	0.776856	0.000046
 153	1.5124e+01	1.5069	-11.809675	0.000463	4.626745	0.783792	0.000046
 154	1.5223e+01	1.5185	-11.759979	0.000500	4.995246	0.846218	0.000050
 155	1.5323e+01	1.5295	-11.715172	0.000450	4.503911	0.762983	0.000045
 156	1.5422e+01	1.5371	-11.664254	0.000512	5.118080	0.867026	0.000051
 157	1.5522e+01	1.5461	-11.616188	0.000483	4.831468	0.818473	0.000048
 158	1.5621e+01	1.5580	-11.566899	0.000495	4.954302	0.839281	0.000050
 159	1.5721e+01	1.5675	-11.520055	0.000471	4.708634	0.797664	0.000047
 160	1.5820e+01	1.5765	-11.469137	0.000512	5.118080	0.867026	0.000051
 161	1.5920e+01	1.5874	-11.420663	0.000487	4.872412	0.825409	0.000049
 162	1.6020e+01	1.5952	-11.373004	0.000479	4.790523	0.811537	0.000048
 163	1.6119e+01	1.6075	-11.322494	0.000508	5.077136	0.860090	0.000051
 164	1.6218e+01	1.6178	-11.275649	0.000471	4.708634	0.797664	0.000047
 165	1.6318e+01	1.6271	-11.227990	0.000479	4.790523	0.811537	0.000048
 166	1.6418e+01	1.6375	-11.175036	0.000532	5.322804	0.901707	0.000053
 167	1.6517e+01	1.6473	-11.125747	0.000495	4.954302	0.839281	0.000050
 168	1.6616e+01	1.6576	-11.079717	0.000463	4.626745	0.783792	0.000046
 169	1.6716e+01	1.6673	-11.031651	0.000483	4.831468	0.818473	0.000048
 170	1.6816e+01	1.6773	-10.983585	0.000483	4.831468	0.818473	0.000048
 171	1.6915e+01	1.6871	-10.933481	0.000504	5.036191	0.853154	0.000050
 172	1.7015e+01	1.6970	-10.881749	0.000520	5.199970	0.880899	0.000052
 173	1.7114e+01	1.7077	-10.830424	0.000516	5.159025	0.873962	0.000052
 174	1.7213e+01	1.7153	-10.787245	0.000434	4.340132	0.735238	0.000043
 175	1.7313e+01	1.7278	-10.739586	0.000479	4.790523	0.811537	0.000048
 176	1.7413e+01	1.7374	-10.688261	0.000516	5.159025	0.873962	0.000052
 177	1.7512e+01	1.7451	-10.639787	0.000487	4.872412	0.825409	0.000049
 178	1.7611e+01	1.7546	-10.590092	0.000500	4.995246	0.846218	0.000050
 179	1.7711e+01	1.7670	-10.547321	0.000430	4.299187	0.728302	0.000043
 180	1.7811e+01	1.7773	-10.496403	0.000512	5.118080	0.867026	0.000051
 181	1.7910e+01	1.7839	-10.452410	0.000442	4.422021	0.749111	0.000044
 182	1.8009e+01	1.7967	-10.405158	0.000475	4.749579	0.804600	0.000047
 183	1.8109e+01	1.8070	-10.358721	0.000467	4.667689	0.790728	0.000047
 184	1.8209e+01	1.8180	-10.315135	0.000438	4.381077	0.742174	0.000044
 185	1.8308e+01	1.8273	-10.265847	0.000495	4.954302	0.839281	0.000050
 186	1.8407e+01	1.8391	-10.217781	0.000483	4.831468	0.818473	0.000048
 187	1.8507e+01	1.8458	-10.169714	0.000483	4.831468	0.818473	0.000048
 188	1.8607e+01	1.8571	-10.123277	0.000467	4.667689	0.790728	0.000047
 189	1.8706e+01	1.8671	-10.077247	0.000463	4.626745	0.783792	0.000046
 190	1.8805e+01	1.8771	-10.029588	0.000479	4.790523	0.811537	0.000048
 191	1.8905e+01	1.8857	-9.981522	0.000483	4.831468	0.818473	0.000048
 192	1.9005e+01	1.9003	-9.935085	0.000467	4.667689	0.790728	0.000047
 193	1.9104e+01	1.9057	-9.885389	0.000500	4.995246	0.846218	0.000050
 194	1.9203e+01	1.9145	-9.838952	0.000467	4.667689	0.790728	0.000047
 195	1.9303e+01	1.9262	-9.791700	0.000475	4.749579	0.804600	0.000047
 196	1.9402e+01	1.9390	-9.741190	0.000508	5.077136	0.860090	0.000051
 197	1.9502e+01	1.9453	-9.694345	0.000471	4.708634	0.797664	0.000047
 198	1.9602e+01	1.9566	-9.649130	0.000454	4.544855	0.769919	0.000045
 199	1.9701e+01	1.9668	-9.605952	0.000434	4.340132	0.735238	0.000043
 200	1.9800e+01	1.9736	-9.555034	0.000512	5.118080	0.867026	0.000051
 201	1.9900e+01	1.9844	-9.509412	0.000459	4.585800	0.776856	0.000046
 202	2.0000e+01	1.9941	-9.463382	0.000463	4.626745	0.783792	0.000046
 203	2.0099e+01	2.0077	-9.416945	0.000467	4.667689	0.790728	0.000047
 204	2.0198e+01	2.0164	-9.367249	0.000500	4.995246	0.846218	0.000050
 205	2.0298e+01	2.0267	-9.322442	0.000450	4.503911	0.762983	0.000045
 206	2.0398e+01	2.0345	-9.276005	0.000467	4.667689	0.790728	0.000047
 207	2.0497e+01	2.0437	-9.226716	0.000495	4.954302	0.839281	0.000050
 208	2.0596e+01	2.0544	-9.185167	0.000418	4.176354	0.707493	0.000042
 209	2.0696e+01	2.0656	-9.137915	0.000475	4.749579	0.804600	0.000047
 210	2.0796e+01	2.0763	-9.089849	0.000483	4.831468	0.818473	0.000048
 211	2.0895e+01	2.0863	-9.047893	0.000422	4.217298	0.714430	0.000042
 212	2.0994e+01	2.0940	-9.001456	0.000467	4.667689	0.790728	0.000047
 213	2.1094e+01	2.1043	-8.957463	0.000442	4.422021	0.749111	0.000044
 214	2.1194e+01	2.1154	-8.910211	0.000475	4.749579	0.804600	0.000047
 215	2.1293e+01	2.1255	-8.870699	0.000397	3.971630	0.672812	0.000040
 216	2.1392e+01	2.1336	-8.825484	0.000454	4.544855	0.769919	0.000045
 217	2.1492e+01	2.1439	-8.782305	0.000434	4.340132	0.735238	0.000043
 218	2.1591e+01	2.1568	-8.740349	0.000422	4.217298	0.714430	0.000042
 219	2.1691e+01	2.1658	-8.695541	0.000450	4.503911	0.762983	0.000045
 220	2.1791e+01	2.1755	-8.652363	0.000434	4.340132	0.735238	0.000043
 221	2.1890e+01	2.1848	-8.608777	0.000438	4.381077	0.742174	0.000044
 222	2.1989e+01	2.1944	-8.562748	0.000463	4.626745	0.783792	0.000046
 223	2.2089e+01	2.2046	-8.518347	0.000446	4.462966	0.756047	0.000045
 224	2.2189e+01	2.2120	-8.475576	0.000430	4.299187	0.728302	0.000043
 225	2.2288e+01	2.2269	-8.429954	0.000459	4.585800	0.776856	0.000046
 226	2.2387e+01	2.2350	-8.386776	0.000434	4.340132	0.735238	0.000043
 227	2.2487e+01	2.2443	-8.342783	0.000442	4.422021	0.749111	0.000044
 228	2.2587e+01	2.2541	-8.301641	0.000414	4.135409	0.700557	0.000041
 229	2.2686e+01	2.2645	-8.258870	0.000430	4.299187	0.728302	0.000043
 230	2.2785e+01	2.2743	-8.216507	0.000426	4.258243	0.721366	0.000043
 231	2.2885e+01	2.2852	-8.173328	0.000434	4.340132	0.735238	0.000043
 232	2.2985e+01	2.2938	-8.125669	0.000479	4.790523	0.811537	0.000048
 233	2.3084e+01	2.3060	-8.084528	0.000414	4.135409	0.700557	0.000041
 234	2.3183e+01	2.3132	-8.041757	0.000430	4.299187	0.728302	0.000043
 235	2.3283e+01	2.3244	-8.002244	0.000397	3.971630	0.672812	0.000040
 236	2.3383e+01	2.3336	-7.954178	0.000483	4.831468	0.818473	0.000048
 237	2.3482e+01	2.3444	-7.908148	0.000463	4.626745	0.783792	0.000046
 238	2.3581e+01	2.3542	-7.870673	0.000377	3.766907	0.638131	0.000038
 239	2.3681e+01	2.3634	-7.826680	0.000442	4.422021	0.749111	0.000044
 240	2.3780e+01	2.3744	-7.785538	0.000414	4.135409	0.700557	0.000041
 241	2.3880e+01	2.3843	-7.737472	0.000483	4.831468	0.818473	0.000048
 242	2.3980e+01	2.3943	-7.698367	0.000393	3.930686	0.665876	0.000039
 243	2.4079e+01	2.4023	-7.655596	0.000430	4.299187	0.728302	0.000043
 244	2.4178e+01	2.4130	-7.618935	0.000369	3.685018	0.624259	0.000037
 245	2.4278e+01	2.4252	-7.575349	0.000438	4.381077	0.742174	0.000044
 246	2.4378e+01	2.4337	-7.536245	0.000393	3.930686	0.665876	0.000039
 247	2.4477e+01	2.4426	-7.498362	0.000381	3.807852	0.645068	0.000038
 248	2.4576e+01	2.4550	-7.455591	0.000430	4.299187	0.728302	0.000043
 249	2.4676e+01	2.4633	-7.413634	0.000422	4.217298	0.714430	0.000042
 250	2.4776e+01	2.4736	-7.371678	0.000422	4.217298	0.714430	0.000042
 251	2.4875e+01	2.4857	-7.332166	0.000397	3.971630	0.672812	0.000040
 252	2.4974e+01	2.4928	-7.289395	0.000430	4.299187	0.728302	0.000043
 253	2.5074e+01	2.5016	-7.249883	0.000397	3.971630	0.672812	0.000040
 254	2.5174e+01	2.5107	-7.209556	0.000405	4.053520	0.686685	0.000041
 255	2.5273e+01	2.5228	-7.168007	0.000418	4.176354	0.707493	0.000042
 256	2.5372e+01	2.5351	-7.128902	0.000393	3.930686	0.665876	0.000039
 257	2.5472e+01	2.5432	-7.090204	0.000389	3.889741	0.658940	0.000039
 258	2.5572e+01	2.5504	-7.052322	0.000381	3.807852	0.645068	0.000038
 259	2.5671e+01	2.5642	-7.009551	0.000430	4.299187	0.728302	0.000043
 260	2.5770e+01	2.5701	-6.972075	0.000377	3.766907	0.638131	0.000038
 261	2.5870e+01	2.5838	-6.930526	0.000418	4.176354	0.707493	0.000042
 262	2.5970e+01	2.5930	-6.889792	0.000409	4.094464	0.693621	0.000041
 263	2.6069e+01	2.6018	-6.845799	0.000442	4.422021	0.749111	0.000044
 264	2.6169e+01	2.6118	-6.805472	0.000405	4.053520	0.686685	0.000041
 265	2.6268e+01	2.6230	-6.760664	0.000450	4.503911	0.762983	0.000045
 266	2.6367e+01	2.6334	-6.717486	0.000434	4.340132	0.735238	0.000043
 267	2.6467e+01	2.6404	-6.680418	0.000373	3.725962	0.631195	0.000037
 268	2.6567e+01	2.6520	-6.642128	0.000385	3.848796	0.652004	0.000038
 269	2.6666e+01	2.6646	-6.595691	0.000467	4.667689	0.790728	0.000047
 270	2.6765e+01	2.6711	-6.553327	0.000426	4.258243	0.721366	0.000043
 271	2.6865e+01	2.6822	-6.513815	0.000397	3.971630	0.672812	0.000040
 272	2.6965e+01	2.6923	-6.473080	0.000409	4.094464	0.693621	0.000041
 273	2.7064e+01	2.7034	-6.428680	0.000446	4.462966	0.756047	0.000045
 274	2.7163e+01	2.7110	-6.394871	0.000340	3.398405	0.575705	0.000034
 275	2.7263e+01	2.7196	-6.350063	0.000450	4.503911	0.762983	0.000045
 276	2.7363e+01	2.7346	-6.308921	0.000414	4.135409	0.700557	0.000041
 277	2.7462e+01	2.7428	-6.270631	0.000385	3.848796	0.652004	0.000038
 278	2.7561e+01	2.7562	-6.228268	0.000426	4.258243	0.721366	0.000043
 279	2.7661e+01	2.7630	-6.187533	0.000409	4.094464	0.693621	0.000041
 280	2.7761e+01	2.7708	-6.149650	0.000381	3.807852	0.645068	0.000038
 281	2.7860e+01	2.7815	-6.104435	0.000454	4.544855	0.769919	0.000045
 282	2.7959e+01	2.7902	-6.066960	0.000377	3.766907	0.638131	0.000038
 283	2.8059e+01	2.8045	-6.024189	0.000430	4.299187	0.728302	0.000043
 284	2.8159e+01	2.8127	-5.987121	0.000373	3.725962	0.631195	0.000037
 285	2.8258e+01	2.8220	-5.948423	0.000389	3.889741	0.658940	0.000039
 286	2.8358e+01	2.8310	-5.903616	0.000450	4.503911	0.762983	0.000045
 287	2.8457e+01	2.8423	-5.867362	0.000364	3.644073	0.617323	0.000036
 288	2.8556e+01	2.8504	-5.823369	0.000442	4.422021	0.749111	0.000044
 289	2.8656e+01	2.8619	-5.783042	0.000405	4.053520	0.686685	0.000041
 290	2.8756e+01	2.8716	-5.744752	0.000385	3.848796	0.652004	0.000038
 291	2.8855e+01	2.8802	-5.703203	0.000418	4.176354	0.707493	0.000042
 292	2.8954e+01	2.8914	-5.661247	0.000422	4.217298	0.714430	0.000042
 293	2.9054e+01	2.9012	-5.618068	0.000434	4.340132	0.735238	0.000043
 294	2.9154e+01	2.9132	-5.579371	0.000389	3.889741	0.658940	0.000039
 295	2.9253e+01	2.9215	-5.536600	0.000430	4.299187	0.728302	0.000043
 296	2.9352e+01	2.9311	-5.495051	0.000418	4.176354	0.707493	0.000042
 297	2.9452e+01	2.9408	-5.453502	0.000418	4.176354	0.707493	0.000042
 298	2.9552e+01	2.9477	-5.413990	0.000397	3.971630	0.672812	0.000040
 299	2.9651e+01	2.9568	-5.369590	0.000446	4.462966	0.756047	0.000045
 300	2.9750e+01	2.9733	-5.326004	0.000438	4.381077	0.742174	0.000044
 301	2.9850e+01	2.9817	-5.285270	0.000409	4.094464	0.693621	0.000041
 302	2.9950e+01	2.9914	-5.242091	0.000434	4.340132	0.735238	0.000043
 303	3.0049e+01	3.0007	-5.202579	0.000397	3.971630	0.672812	0.000040
 304	3.0148e+01	3.0131	-5.154920	0.000479	4.790523	0.811537	0.000048
 305	3.0248e+01	3.0207	-5.117444	0.000377	3.766907	0.638131	0.000038
 306	3.0348e+01	3.0303	-5.074266	0.000434	4.340132	0.735238	0.000043
 307	3.0447e+01	3.0408	-5.033939	0.000405	4.053520	0.686685	0.000041
 308	3.0547e+01	3.0481	-4.992390	0.000418	4.176354	0.707493	0.000042
 309	3.0646e+01	3.0622	-4.948805	0.000438	4.381077	0.742174	0.000044
 310	3.0745e+01	3.0709	-4.907663	0.000414	4.135409	0.700557	0.000041
 311	3.0845e+01	3.0831	-4.867336	0.000405	4.053520	0.686685	0.000041
 312	3.0945e+01	3.0901	-4.827009	0.000405	4.053520	0.686685	0.000041
 313	3.1044e+01	3.0978	-4.781794	0.000454	4.544855	0.769919	0.000045
 314	3.1143e+01	3.1108	-4.741060	0.000409	4.094464	0.693621	0.000041
 315	3.1243e+01	3.1193	-4.698289	0.000430	4.299187	0.728302	0.000043
 316	3.1343e+01	3.1316	-4.655111	0.000434	4.340132	0.735238	0.000043
 317	3.1442e+01	3.1395	-4.617228	0.000381	3.807852	0.645068	0.000038
 318	3.1541e+01	3.1497	-4.572420	0.000450	4.503911	0.762983	0.000045
 319	3.1641e+01	3.1613	-4.530057	0.000426	4.258243	0.721366	0.000043
 320	3.1741e+01	3.1696	-4.490137	0.000401	4.012575	0.679749	0.000040
 321	3.1840e+01	3.1802	-4.447366	0.000430	4.299187	0.728302	0.000043
 322	3.1939e+01	3.1892	-4.407446	0.000401	4.012575	0.679749	0.000040
 323	3.2039e+01	3.2003	-4.364268	0.000434	4.340132	0.735238	0.000043
 324	3.2139e+01	3.2105	-4.323534	0.000409	4.094464	0.693621	0.000041
 325	3.2238e+01	3.2204	-4.278726	0.000450	4.503911	0.762983	0.000045
 326	3.2337e+01	3.2298	-4.240029	0.000389	3.889741	0.658940	0.000039
 327	3.2437e+01	3.2380	-4.194406	0.000459	4.585800	0.776856	0.000046
 328	3.2536e+01	3.2531	-4.152043	0.000426	4.258243	0.721366	0.000043
 329	3.2636e+01	3.2601	-4.106828	0.000454	4.544855	0.769919	0.000045
 330	3.2736e+01	3.2677	-4.060798	0.000463	4.626745	0.783792	0.000046
 331	3.2835e+01	3.2806	-4.016398	0.000446	4.462966	0.756047	0.000045
 332	3.2934e+01	3.2912	-3.974849	0.000418	4.176354	0.707493	0.000042
 333	3.3034e+01	3.3004	-3.934114	0.000409	4.094464	0.693621	0.000041
 334	3.3133e+01	3.3099	-3.886455	0.000479	4.790523	0.811537	0.000048
 335	3.3233e+01	3.3179	-3.848165	0.000385	3.848796	0.652004	0.000038
 336	3.3333e+01	3.3279	-3.805394	0.000430	4.299187	0.728302	0.000043
 337	3.3432e+01	3.3412	-3.766289	0.000393	3.930686	0.665876	0.000039
 338	3.3532e+01	3.3485	-3.717815	0.000487	4.872412	0.825409	0.000049
 339	3.3631e+01	3.3602	-3.677081	0.000409	4.094464	0.693621	0.000041
 340	3.3730e+01	3.3693	-3.630644	0.000467	4.667689	0.790728	0.000047
 341	3.3830e+01	3.3812	-3.591947	0.000389	3.889741	0.658940	0.000039
 342	3.3929e+01	3.3901	-3.547546	0.000446	4.462966	0.756047	0.000045
 343	3.4029e+01	3.3978	-3.504368	0.000434	4.340132	0.735238	0.000043
 344	3.4129e+01	3.4087	-3.459968	0.000446	4.462966	0.756047	0.000045
 345	3.4228e+01	3.4186	-3.420048	0.000401	4.012575	0.679749	0.000040
 346	3.4328e+01	3.4299	-3.378906	0.000414	4.135409	0.700557	0.000041
 347	3.4427e+01	3.4376	-3.336135	0.000430	4.299187	0.728302	0.000043
 348	3.4526e+01	3.4509	-3.297438	0.000389	3.889741	0.658940	0.000039
 349	3.4626e+01	3.4554	-3.254260	0.000434	4.340132	0.735238	0.000043
 350	3.4725e+01	3.4674	-3.217191	0.000373	3.725962	0.631195	0.000037
 351	3.4825e+01	3.4784	-3.173198	0.000442	4.422021	0.749111	0.000044
 352	3.4925e+01	3.4879	-3.132464	0.000409	4.094464	0.693621	0.000041
 353	3.5024e+01	3.4955	-3.093767	0.000389	3.889741	0.658940	0.000039
 354	3.5123e+01	3.5105	-3.049774	0.000442	4.422021	0.749111	0.000044
 355	3.5223e+01	3.5184	-3.012298	0.000377	3.766907	0.638131	0.000038
 356	3.5322e+01	3.5290	-2.969935	0.000426	4.258243	0.721366	0.000043
 357	3.5422e+01	3.5381	-2.930830	0.000393	3.930686	0.665876	0.000039
 358	3.5522e+01	3.5475	-2.883171	0.000479	4.790523	0.811537	0.000048
 359	3.5621e+01	3.5584	-2.844880	0.000385	3.848796	0.652004	0.000038
 360	3.5721e+01	3.5683	-2.804553	0.000405	4.053520	0.686685	0.000041
 361	3.5820e+01	3.5772	-2.759746	0.000450	4.503911	0.762983	0.000045
 362	3.5919e+01	3.5883	-2.721048	0.000389	3.889741	0.658940	0.000039
 363	3.6019e+01	3.5966	-2.678277	0.000430	4.299187	0.728302	0.000043
 364	3.6118e+01	3.6068	-2.634284	0.000442	4.422021	0.749111	0.000044
 365	3.6218e+01	3.6172	-2.594772	0.000397	3.971630	0.672812	0.000040
 366	3.6318e+01	3.6272	-2.556889	0.000381	3.807852	0.645068	0.000038
 367	3.6417e+01	3.6401	-2.514118	0.000430	4.299187	0.728302	0.000043
 368	3.6517e+01	3.6480	-2.472569	0.000418	4.176354	0.707493	0.000042
 369	3.6616e+01	3.6604	-2.430206	0.000426	4.258243	0.721366	0.000043
 370	3.6715e+01	3.6658	-2.389064	0.000414	4.135409	0.700557	0.000041
 371	3.6815e+01	3.6790	-2.349144	0.000401	4.012575	0.679749	0.000040
 372	3.6914e+01	3.6863	-2.308003	0.000414	4.135409	0.700557	0.000041
 373	3.7014e+01	3.6994	-2.266861	0.000414	4.135409	0.700557	0.000041
 374	3.7114e+01	3.7060	-2.225720	0.000414	4.135409	0.700557	0.000041
 375	3.7213e+01	3.7200	-2.183763	0.000422	4.217298	0.714430	0.000042
 376	3.7313e+01	3.7283	-2.147510	0.000364	3.644073	0.617323	0.000036
 377	3.7412e+01	3.7372	-2.109627	0.000381	3.807852	0.645068	0.000038
 378	3.7511e+01	3.7460	-2.070115	0.000397	3.971630	0.672812	0.000040
 379	3.7611e+01	3.7569	-2.029381	0.000409	4.094464	0.693621	0.000041
 380	3.7711e+01	3.7673	-1.989054	0.000405	4.053520	0.686685	0.000041
 381	3.7810e+01	3.7777	-1.952800	0.000364	3.644073	0.617323	0.000036
 382	3.7910e+01	3.7859	-1.916139	0.000369	3.685018	0.624259	0.000037
 383	3.8009e+01	3.7971	-1.875812	0.000405	4.053520	0.686685	0.000041
 384	3.8108e+01	3.8058	-1.839152	0.000369	3.685018	0.624259	0.000037
 385	3.8208e+01	3.8149	-1.800454	0.000389	3.889741	0.658940	0.000039
 386	3.8307e+01	3.8286	-1.762571	0.000381	3.807852	0.645068	0.000038
 387	3.8407e+01	3.8354	-1.725503	0.000373	3.725962	0.631195	0.000037
 388	3.8507e+01	3.8445	-1.688842	0.000369	3.685018	0.624259	0.000037
 389	3.8606e+01	3.8562	-1.646886	0.000422	4.217298	0.714430	0.000042
 390	3.8706e+01	3.8653	-1.610225	0.000369	3.685018	0.624259	0.000037
 391	3.8805e+01	3.8758	-1.574379	0.000360	3.603129	0.610387	0.000036
 392	3.8904e+01	3.8880	-1.534052	0.000405	4.053520	0.686685	0.000041
 393	3.9004e+01	3.8952	-1.497391	0.000369	3.685018	0.624259	0.000037
 394	3.9103e+01	3.9053	-1.461545	0.000360	3.603129	0.610387	0.000036
 395	3.9203e+01	3.9160	-1.421218	0.000405	4.053520	0.686685	0.000041
 396	3.9303e+01	3.9275	-1.387001	0.000344	3.439350	0.582642	0.000034
 397	3.9402e+01	3.9355	-1.348711	0.000385	3.848796	0.652004	0.000038
 398	3.9502e+01	3.9469	-1.310421	0.000385	3.848796	0.652004	0.000038
 399	3.9601e+01	3.9550	-1.272945	0.000377	3.766907	0.638131	0.000038
 400	3.9700e+01	3.9645	-1.233841	0.000393	3.930686	0.665876	0.000039
 401	3.9800e+01	3.9753	-1.199216	0.000348	3.480295	0.589578	0.000035
 402	3.9900e+01	3.9836	-1.160519	0.000389	3.889741	0.658940	0.000039
 403	3.9999e+01	3.9953	-1.124673	0.000360	3.603129	0.610387	0.000036
 404	4.0099e+01	4.0046	-1.086790	0.000381	3.807852	0.645068	0.000038
 405	4.0198e+01	4.0171	-1.046870	0.000401	4.012575	0.679749	0.000040
 406	4.0297e+01	4.0254	-1.012246	0.000348	3.480295	0.589578	0.000035
 407	4.0397e+01	4.0344	-0.975178	0.000373	3.725962	0.631195	0.000037
 408	4.0496e+01	4.0453	-0.939332	0.000360	3.603129	0.610387	0.000036
 409	4.0596e+01	4.0559	-0.903078	0.000364	3.644073	0.617323	0.000036
 410	4.0696e+01	4.0660	-0.867640	0.000356	3.562184	0.603450	0.000036
 411	4.0795e+01	4.0739	-0.831793	0.000360	3.603129	0.610387	0.000036
 412	4.0895e+01	4.0839	-0.796762	0.000352	3.521239	0.596514	0.000035
 413	4.0994e+01	4.0957	-0.760916	0.000360	3.603129	0.610387	0.000036
 414	4.1093e+01	4.1051	-0.727921	0.000332	3.316516	0.561833	0.000033
 415	4.1193e+01	4.1157	-0.692482	0.000356	3.562184	0.603450	0.000036
 416	4.1292e+01	4.1268	-0.658673	0.000340	3.398405	0.575705	0.000034
 417	4.1392e+01	4.1371	-0.618346	0.000405	4.053520	0.686685	0.000041
 418	4.1492e+01	4.1440	-0.583722	0.000348	3.480295	0.589578	0.000035
 419	4.1591e+01	4.1573	-0.551134	0.000328	3.275571	0.554897	0.000033
 420	4.1691e+01	4.1669	-0.516918	0.000344	3.439350	0.582642	0.000034
 421	4.1790e+01	4.1775	-0.482294	0.000348	3.480295	0.589578	0.000035
 422	4.1889e+01	4.1798	-0.446447	0.000360	3.603129	0.610387	0.000036
 423	4.1989e+01	4.1943	-0.414675	0.000319	3.193682	0.541024	0.000032
 424	4.2089e+01	4.2036	-0.378829	0.000360	3.603129	0.610387	0.000036
 425	4.2188e+01	4.2149	-0.345834	0.000332	3.316516	0.561833	0.000033
 426	4.2288e+01	4.2254	-0.308358	0.000377	3.766907	0.638131	0.000038
 427	4.2387e+01	4.2341	-0.276586	0.000319	3.193682	0.541024	0.000032
 428	4.2486e+01	4.2453	-0.239110	0.000377	3.766907	0.638131	0.000038
 429	4.2586e+01	4.2516	-0.202857	0.000364	3.644073	0.617323	0.000036
 430	4.2685e+01	4.2657	-0.171491	0.000315	3.152737	0.534088	0.000032
 431	4.2785e+01	4.2800	-0.136052	0.000356	3.562184	0.603450	0.000036
 432	4.2885e+01	4.2837	-0.098170	0.000381	3.807852	0.645068	0.000038
 433	4.2984e+01	4.2918	-0.062731	0.000356	3.562184	0.603450	0.000036
 434	4.3084e+01	4.3012	-0.024441	0.000385	3.848796	0.652004	0.000038
 435	4.3183e+01	4.3134	0.008962	0.000336	3.357461	0.568769	0.000034
 436	4.3282e+01	4.3239	0.043993	0.000352	3.521239	0.596514	0.000035
 437	4.3382e+01	4.3346	0.081876	0.000381	3.807852	0.645068	0.000038
 438	4.3481e+01	4.3429	0.117315	0.000356	3.562184	0.603450	0.000036
 439	4.3581e+01	4.3568	0.152753	0.000356	3.562184	0.603450	0.000036
 440	4.3681e+01	4.3629	0.189007	0.000364	3.644073	0.617323	0.000036
 441	4.3780e+01	4.3739	0.228112	0.000393	3.930686	0.665876	0.000039
 442	4.3880e+01	4.3837	0.260292	0.000323	3.234627	0.547961	0.000032
 443	4.3979e+01	4.3938	0.290435	0.000303	3.029904	0.513280	0.000030
 444	4.4078e+01	4.4024	0.329133	0.000389	3.889741	0.658940	0.000039
 445	4.4178e+01	4.4158	0.358869	0.000299	2.988959	0.506343	0.000030
 446	4.4278e+01	4.4267	0.395937	0.000373	3.725962	0.631195	0.000037
 447	4.4377e+01	4.4311	0.428117	0.000323	3.234627	0.547961	0.000032
 448	4.4477e+01	4.4438	0.464778	0.000369	3.685018	0.624259	0.000037
 449	4.4576e+01	4.4537	0.497365	0.000328	3.275571	0.554897	0.000033
 450	4.4675e+01	4.4622	0.536877	0.000397	3.971630	0.672812	0.000040
 451	4.4775e+01	4.4736	0.569058	0.000323	3.234627	0.547961	0.000032
 452	4.4874e+01	4.4848	0.605718	0.000369	3.685018	0.624259	0.000037
 453	4.4974e+01	4.4958	0.639528	0.000340	3.398405	0.575705	0.000034
 454	4.5074e+01	4.5056	0.673745	0.000344	3.439350	0.582642	0.000034
 455	4.5173e+01	4.5152	0.709183	0.000356	3.562184	0.603450	0.000036
 456	4.5273e+01	4.5220	0.743400	0.000344	3.439350	0.582642	0.000034
 457	4.5372e+01	4.5336	0.775580	0.000323	3.234627	0.547961	0.000032
 458	4.5471e+01	4.5423	0.811426	0.000360	3.603129	0.610387	0.000036
 459	4.5571e+01	4.5542	0.847680	0.000364	3.644073	0.617323	0.000036
 460	4.5670e+01	4.5658	0.881489	0.000340	3.398405	0.575705	0.000034
 461	4.5770e+01	4.5717	0.918150	0.000369	3.685018	0.624259	0.000037
 462	4.5870e+01	4.5824	0.958070	0.000401	4.012575	0.679749	0.000040
 463	4.5969e+01	4.5917	0.992694	0.000348	3.480295	0.589578	0.000035
 464	4.6069e+01	4.6006	1.026911	0.000344	3.439350	0.582642	0.000034
 465	4.6168e+01	4.6134	1.066830	0.000401	4.012575	0.679749	0.000040
 466	4.6267e+01	4.6208	1.099825	0.000332	3.316516	0.561833	0.000033
 467	4.6367e+01	4.6355	1.136893	0.000373	3.725962	0.631195	0.000037
 468	4.6467e+01	4.6432	1.174776	0.000381	3.807852	0.645068	0.000038
 469	4.6566e+01	4.6537	1.211437	0.000369	3.685018	0.624259	0.000037
 470	4.6666e+01	4.6644	1.250134	0.000389	3.889741	0.658940	0.000039
 471	4.6765e+01	4.6706	1.285980	0.000360	3.603129	0.610387	0.000036
 472	4.6864e+01	4.6827	1.320605	0.000348	3.480295	0.589578	0.000035
 473	4.6964e+01	4.6931	1.356858	0.000364	3.644073	0.617323	0.000036
 474	4.7063e+01	4.7022	1.393519	0.000369	3.685018	0.624259	0.000037
 475	4.7163e+01	4.7121	1.431402	0.000381	3.807852	0.645068	0.000038
 476	4.7263e+01	4.7222	1.463989	0.000328	3.275571	0.554897	0.000033
 477	4.7362e+01	4.7300	1.501872	0.000381	3.807852	0.645068	0.000038
 478	4.7462e+01	4.7437	1.539755	0.000381	3.807852	0.645068	0.000038
 479	4.7561e+01	4.7518	1.576008	0.000364	3.644073	0.617323	0.000036
 480	4.7660e+01	4.7617	1.614706	0.000389	3.889741	0.658940	0.000039
 481	4.7760e+01	4.7693	1.652181	0.000377	3.766907	0.638131	0.000038
 482	4.7859e+01	4.7798	1.685583	0.000336	3.357461	0.568769	0.000034
 483	4.7959e+01	4.7926	1.722652	0.000373	3.725962	0.631195	0.000037
 484	4.8059e+01	4.8016	1.758090	0.000356	3.562184	0.603450	0.000036
 485	4.8158e+01	4.8121	1.795973	0.000381	3.807852	0.645068	0.000038
 486	4.8258e+01	4.8230	1.831005	0.000352	3.521239	0.596514	0.000035
 487	4.8357e+01	4.8314	1.864814	0.000340	3.398405	0.575705	0.000034
 488	4.8456e+01	4.8411	1.900660	0.000360	3.603129	0.610387	0.000036
 489	4.8556e+01	4.8512	1.940580	0.000401	4.012575	0.679749	0.000040
 490	4.8656e+01	4.8609	1.976833	0.000364	3.644073	0.617323	0.000036
 491	4.8755e+01	4.8727	2.012680	0.000360	3.603129	0.610387	0.000036
 492	4.8855e+01	4.8804	2.049340	0.000369	3.685018	0.624259	0.000037
 493	4.8954e+01	4.8899	2.087223	0.000381	3.807852	0.645068	0.000038
 494	4.9053e+01	4.9046	2.123884	0.000369	3.685018	0.624259	0.000037
 495	4.9153e+01	4.9128	2.162989	0.000393	3.930686	0.665876	0.000039
 496	4.9252e+01	4.9204	2.197613	0.000348	3.480295	0.589578	0.000035
 497	4.9352e+01	4.9316	2.242828	0.000454	4.544855	0.769919	0.000045
 498	4.9452e+01	4.9419	2.278267	0.000356	3.562184	0.603450	0.000036
 499	4.9551e+01	4.9509	2.315335	0.000373	3.725962	0.631195	0.000037
 500	4.9651e+01	4.9615	2.350774	0.000356	3.562184	0.603450	0.000036
 501	4.9750e+01	4.9709	2.390286	0.000397	3.971630	0.672812	0.000040
 502	4.9849e+01	4.9806	2.426947	0.000369	3.685018	0.624259	0.000037
 503	4.9949e+01	4.9892	2.465644	0.000389	3.889741	0.658940	0.000039
 504	5.0048e+01	5.0021	2.502305	0.000369	3.685018	0.624259	0.000037
 505	5.0148e+01	5.0143	2.539373	0.000373	3.725962	0.631195	0.000037
 506	5.0248e+01	5.0213	2.574405	0.000352	3.521239	0.596514	0.000035
 507	5.0347e+01	5.0315	2.613510	0.000393	3.930686	0.665876	0.000039
 508	5.0447e+01	5.0408	2.651800	0.000385	3.848796	0.652004	0.000038
 509	5.0546e+01	5.0517	2.691312	0.000397	3.971630	0.672812	0.000040
 510	5.0645e+01	5.0616	2.727973	0.000369	3.685018	0.624259	0.000037
 511	5.0745e+01	5.0706	2.767078	0.000393	3.930686	0.665876	0.000039
 512	5.0844e+01	5.0826	2.805368	0.000385	3.848796	0.652004	0.000038
 513	5.0944e+01	5.0899	2.838770	0.000336	3.357461	0.568769	0.000034
 514	5.1044e+01	5.1022	2.875431	0.000369	3.685018	0.624259	0.000037
 515	5.1143e+01	5.1116	2.910463	0.000352	3.521239	0.596514	0.000035
 516	5.1242e+01	5.1218	2.948753	0.000385	3.848796	0.652004	0.000038
 517	5.1342e+01	5.1302	2.980525	0.000319	3.193682	0.541024	0.000032
 518	5.1441e+01	5.1400	3.016372	0.000360	3.603129	0.610387	0.000036
 519	5.1541e+01	5.1507	3.053440	0.000373	3.725962	0.631195	0.000037
 520	5.1641e+01	5.1588	3.086842	0.000336	3.357461	0.568769	0.000034
 521	5.1740e+01	5.1707	3.123910	0.000373	3.725962	0.631195	0.000037
 522	5.1840e+01	5.1788	3.160164	0.000364	3.644073	0.617323	0.000036
 523	5.1939e+01	5.1897	3.197639	0.000377	3.766907	0.638131	0.000038
 524	5.2038e+01	5.1984	3.233078	0.000356	3.562184	0.603450	0.000036
 525	5.2138e+01	5.2097	3.264036	0.000311	3.111793	0.527152	0.000031
 526	5.2237e+01	5.2215	3.303955	0.000401	4.012575	0.679749	0.000040
 527	5.2337e+01	5.2280	3.345097	0.000414	4.135409	0.700557	0.000041
 528	5.2437e+01	5.2399	3.377684	0.000328	3.275571	0.554897	0.000033
 529	5.2536e+01	5.2498	3.419233	0.000418	4.176354	0.707493	0.000042
 530	5.2636e+01	5.2569	3.453450	0.000344	3.439350	0.582642	0.000034
 531	5.2735e+01	5.2708	3.488482	0.000352	3.521239	0.596514	0.000035
 532	5.2834e+01	5.2802	3.523106	0.000348	3.480295	0.589578	0.000035
 533	5.2934e+01	5.2890	3.560581	0.000377	3.766907	0.638131	0.000038
 534	5.3033e+01	5.2991	3.596020	0.000356	3.562184	0.603450	0.000036
 535	5.3133e+01	5.3084	3.631052	0.000352	3.521239	0.596514	0.000035
 536	5.3233e+01	5.3197	3.669342	0.000385	3.848796	0.652004	0.000038
 537	5.3332e+01	5.3289	3.703966	0.000348	3.480295	0.589578	0.000035
 538	5.3431e+01	5.3385	3.741441	0.000377	3.766907	0.638131	0.000038
 539	5.3531e+01	5.3495	3.775251	0.000340	3.398405	0.575705	0.000034
 540	5.3630e+01	5.3573	3.810690	0.000356	3.562184	0.603450	0.000036
 541	5.3730e+01	5.3719	3.846536	0.000360	3.603129	0.610387	0.000036
 542	5.3830e+01	5.3802	3.882382	0.000360	3.603129	0.610387	0.000036
 543	5.3929e+01	5.3898	3.918635	0.000364	3.644073	0.617323	0.000036
 544	5.4029e+01	5.3982	3.952852	0.000344	3.439350	0.582642	0.000034
 545	5.4128e+01	5.4101	3.989513	0.000369	3.685018	0.624259	0.000037
 546	5.4227e+01	5.4194	4.019656	0.000303	3.029904	0.513280	0.000030
 547	5.4327e+01	5.4258	4.053466	0.000340	3.398405	0.575705	0.000034
 548	5.4426e+01	5.4374	4.086053	0.000328	3.275571	0.554897	0.000033
 549	5.4526e+01	5.4476	4.120677	0.000348	3.480295	0.589578	0.000035
 550	5.4626e+01	5.4592	4.154894	0.000344	3.439350	0.582642	0.000034
 551	5.4725e+01	5.4694	4.186667	0.000319	3.193682	0.541024	0.000032
 552	5.4825e+01	5.4787	4.217625	0.000311	3.111793	0.527152	0.000031
 553	5.4924e+01	5.4888	4.249805	0.000323	3.234627	0.547961	0.000032
 554	5.5023e+01	5.4974	4.286873	0.000373	3.725962	0.631195	0.000037
 555	5.5123e+01	5.5056	4.322312	0.000356	3.562184	0.603450	0.000036
 556	5.5222e+01	5.5168	4.355307	0.000332	3.316516	0.561833	0.000033
 557	5.5322e+01	5.5280	4.388709	0.000336	3.357461	0.568769	0.000034
 558	5.5422e+01	5.5386	4.418037	0.000295	2.948014	0.499407	0.000029
 559	5.5521e+01	5.5482	4.451032	0.000332	3.316516	0.561833	0.000033
 560	5.5620e+01	5.5561	4.488100	0.000373	3.725962	0.631195	0.000037
 561	5.5720e+01	5.5689	4.519466	0.000315	3.152737	0.534088	0.000032
 562	5.5819e+01	5.5807	4.553275	0.000340	3.398405	0.575705	0.000034
 563	5.5919e+01	5.5871	4.585455	0.000323	3.234627	0.547961	0.000032
 564	5.6019e+01	5.5981	4.619265	0.000340	3.398405	0.575705	0.000034
 565	5.6118e+01	5.6100	4.649001	0.000299	2.988959	0.506343	0.000030
 566	5.6218e+01	5.6186	4.681588	0.000328	3.275571	0.554897	0.000033
 567	5.6317e+01	5.6268	4.713768	0.000323	3.234627	0.547961	0.000032
 568	5.6416e+01	5.6365	4.749207	0.000356	3.562184	0.603450	0.000036
 569	5.6516e+01	5.6477	4.780165	0.000311	3.111793	0.527152	0.000031
 570	5.6615e+01	5.6596	4.809494	0.000295	2.948014	0.499407	0.000029
 571	5.6715e+01	5.6658	4.844525	0.000352	3.521239	0.596514	0.000035
 572	5.6815e+01	5.6794	4.873854	0.000295	2.948014	0.499407	0.000029
 573	5.6914e+01	5.6873	4.908070	0.000344	3.439350	0.582642	0.000034
 574	5.7014e+01	5.6964	4.943917	0.000360	3.603129	0.610387	0.000036
 575	5.7113e+01	5.7071	4.976097	0.000323	3.234627	0.547961	0.000032
 576	5.7212e+01	5.7191	5.008684	0.000328	3.275571	0.554897	0.000033
 577	5.7312e+01	5.7261	5.037198	0.000287	2.866125	0.485535	0.000029
 578	5.7411e+01	5.7365	5.068971	0.000319	3.193682	0.541024	0.000032
 579	5.7511e+01	5.7464	5.099929	0.000311	3.111793	0.527152	0.000031
 580	5.7611e+01	5.7584	5.127221	0.000274	2.743291	0.464726	0.000027
 581	5.7710e+01	5.7671	5.159808	0.000328	3.275571	0.554897	0.000033
 582	5.7809e+01	5.7732	5.191173	0.000315	3.152737	0.534088	0.000032
 583	5.7909e+01	5.7891	5.220909	0.000299	2.988959	0.506343	0.000030
 584	5.8008e+01	5.7989	5.251460	0.000307	3.070848	0.520216	0.000031
 585	5.8108e+01	5.8094	5.279974	0.000287	2.866125	0.485535	0.000029
 586	5.8208e+01	5.8150	5.312562	0.000328	3.275571	0.554897	0.000033
 587	5.8307e+01	5.8288	5.342298	0.000299	2.988959	0.506343	0.000030
 588	5.8407e+01	5.8364	5.371626	0.000295	2.948014	0.499407	0.000029
 589	5.8506e+01	5.8469	5.403399	0.000319	3.193682	0.541024	0.000032
 590	5.8605e+01	5.8562	5.432320	0.000291	2.907070	0.492471	0.000029
 591	5.8705e+01	5.8649	5.460834	0.000287	2.866125	0.485535	0.000029
 592	5.8804e+01	5.8776	5.491792	0.000311	3.111793	0.527152	0.000031
 593	5.8904e+01	5.8871	5.520714	0.000291	2.907070	0.492471	0.000029
 594	5.9004e+01	5.8985	5.552486	0.000319	3.193682	0.541024	0.000032
 595	5.9103e+01	5.9084	5.581408	0.000291	2.907070	0.492471	0.000029
 596	5.9203e+01	5.9169	5.611958	0.000307	3.070848	0.520216	0.000031
 597	5.9302e+01	5.9263	5.643731	0.000319	3.193682	0.541024	0.000032
 598	5.9401e+01	5.9389	5.670616	0.000270	2.702346	0.457790	0.000027
 599	5.9501e+01	5.9461	5.706462	0.000360	3.603129	0.610387	0.000036
 600	5.9600e+01	5.9545	5.735790	0.000295	2.948014	0.499407	0.000029
 601	5.9700e+01	5.9635	5.768785	0.000332	3.316516	0.561833	0.000033
 602	5.9800e+01	5.9743	5.798521	0.000299	2.988959	0.506343	0.000030
 603	5.9899e+01	5.9863	5.831923	0.000336	3.357461	0.568769	0.000034
 604	5.9998e+01	5.9956	5.863696	0.000319	3.193682	0.541024	0.000032
 605	6.0098e+01	6.0062	5.892617	0.000291	2.907070	0.492471	0.000029
 606	6.0197e+01	6.0159	5.924390	0.000319	3.193682	0.541024	0.000032
 607	6.0297e+01	6.0266	5.959829	0.000356	3.562184	0.603450	0.000036
 608	6.0397e+01	6.0326	5.985491	0.000258	2.579512	0.436981	0.000026
 609	6.0496e+01	6.0453	6.018079	0.000328	3.275571	0.554897	0.000033
 610	6.0596e+01	6.0555	6.047000	0.000291	2.907070	0.492471	0.000029
 611	6.0695e+01	6.0658	6.075514	0.000287	2.866125	0.485535	0.000029
 612	6.0794e+01	6.0751	6.107694	0.000323	3.234627	0.547961	0.000032
 613	6.0894e+01	6.0892	6.137430	0.000299	2.988959	0.506343	0.000030
 614	6.0993e+01	6.0918	6.168796	0.000315	3.152737	0.534088	0.000032
 615	6.1093e+01	6.1037	6.200568	0.000319	3.193682	0.541024	0.000032
 616	6.1193e+01	6.1169	6.229490	0.000291	2.907070	0.492471	0.000029
 617	6.1292e+01	6.1253	6.262077	0.000328	3.275571	0.554897	0.000033
 618	6.1392e+01	6.1347	6.288147	0.000262	2.620457	0.443917	0.000026
 619	6.1491e+01	6.1479	6.321549	0.000336	3.357461	0.568769	0.000034
 620	6.1590e+01	6.1543	6.352100	0.000307	3.070848	0.520216	0.000031
 621	6.1690e+01	6.1658	6.381836	0.000299	2.988959	0.506343	0.000030
 622	6.1789e+01	6.1733	6.412386	0.000307	3.070848	0.520216	0.000031
 623	6.1889e+01	6.1840	6.441715	0.000295	2.948014	0.499407	0.000029
 624	6.1989e+01	6.1927	6.473080	0.000315	3.152737	0.534088	0.000032
 625	6.2088e+01	6.2035	6.502002	0.000291	2.907070	0.492471	0.000029
 626	6.2188e+01	6.2142	6.530923	0.000291	2.907070	0.492471	0.000029
 627	6.2287e+01	6.2256	6.566362	0.000356	3.562184	0.603450	0.000036
 628	6.2386e+01	6.2331	6.594469	0.000283	2.825180	0.478599	0.000028
 629	6.2486e+01	6.2441	6.627056	0.000328	3.275571	0.554897	0.000033
 630	6.2586e+01	6.2539	6.662087	0.000352	3.521239	0.596514	0.000035
 631	6.2685e+01	6.2657	6.695490	0.000336	3.357461	0.568769	0.000034
 632	6.2785e+01	6.2720	6.727670	0.000323	3.234627	0.547961	0.000032
 633	6.2884e+01	6.2873	6.756591	0.000291	2.907070	0.492471	0.000029
 634	6.2983e+01	6.2950	6.786734	0.000303	3.029904	0.513280	0.000030
 635	6.3083e+01	6.3017	6.819322	0.000328	3.275571	0.554897	0.000033
 636	6.3182e+01	6.3143	6.853131	0.000340	3.398405	0.575705	0.000034
 637	6.3282e+01	6.3233	6.883682	0.000307	3.070848	0.520216	0.000031
 638	6.3382e+01	6.3303	6.920343	0.000369	3.685018	0.624259	0.000037
 639	6.3481e+01	6.3450	6.948857	0.000287	2.866125	0.485535	0.000029
 640	6.3581e+01	6.3526	6.979407	0.000307	3.070848	0.520216	0.000031
 641	6.3680e+01	6.3628	7.014846	0.000356	3.562184	0.603450	0.000036
 642	6.3779e+01	6.3732	7.048656	0.000340	3.398405	0.575705	0.000034
 643	6.3879e+01	6.3847	7.079614	0.000311	3.111793	0.527152	0.000031
 644	6.3978e+01	6.3947	7.109757	0.000303	3.029904	0.513280	0.000030
 645	6.4078e+01	6.4046	7.142752	0.000332	3.316516	0.561833	0.000033
 646	6.4177e+01	6.4145	7.177376	0.000348	3.480295	0.589578	0.000035
 647	6.4277e+01	6.4219	7.210371	0.000332	3.316516	0.561833	0.000033
 648	6.4376e+01	6.4351	7.241329	0.000311	3.111793	0.527152	0.000031
 649	6.4476e+01	6.4419	7.272694	0.000315	3.152737	0.534088	0.000032
 650	6.4576e+01	6.4525	7.302023	0.000295	2.948014	0.499407	0.000029
 651	6.4675e+01	6.4611	7.338276	0.000364	3.644073	0.617323	0.000036
 652	6.4775e+01	6.4751	7.370456	0.000323	3.234627	0.547961	0.000032
 653	6.4874e+01	6.4837	7.400599	0.000303	3.029904	0.513280	0.000030
 654	6.4974e+01	6.4922	7.434002	0.000336	3.357461	0.568769	0.000034
 655	6.5073e+01	6.5051	7.465367	0.000315	3.152737	0.534088	0.000032
 656	6.5172e+01	6.5139	7.502028	0.000369	3.685018	0.624259	0.000037
 657	6.5272e+01	6.5238	7.531764	0.000299	2.988959	0.506343	0.000030
 658	6.5371e+01	6.5332	7.563536	0.000319	3.193682	0.541024	0.000032
 659	6.5471e+01	6.5434	7.596124	0.000328	3.275571	0.554897	0.000033
 660	6.5570e+01	6.5517	7.629933	0.000340	3.398405	0.575705	0.000034
 661	6.5670e+01	6.5626	7.665372	0.000356	3.562184	0.603450	0.000036
 662	6.5769e+01	6.5728	7.698774	0.000336	3.357461	0.568769	0.000034
 663	6.5869e+01	6.5810	7.730140	0.000315	3.152737	0.534088	0.000032
 664	6.5969e+01	6.5913	7.763542	0.000336	3.357461	0.568769	0.000034
 665	6.6068e+01	6.6016	7.798573	0.000352	3.521239	0.596514	0.000035
 666	6.6168e+01	6.6122	7.831975	0.000336	3.357461	0.568769	0.000034
 667	6.6267e+01	6.6228	7.868636	0.000369	3.685018	0.624259	0.000037
 668	6.6367e+01	6.6319	7.903668	0.000352	3.521239	0.596514	0.000035
 669	6.6466e+01	6.6454	7.933811	0.000303	3.029904	0.513280	0.000030
 670	6.6566e+01	6.6531	7.970472	0.000369	3.685018	0.624259	0.000037
 671	6.6665e+01	6.6628	8.001022	0.000307	3.070848	0.520216	0.000031
 672	6.6764e+01	6.6729	8.034424	0.000336	3.357461	0.568769	0.000034
 673	6.6864e+01	6.6799	8.069456	0.000352	3.521239	0.596514	0.000035
 674	6.6963e+01	6.6943	8.104487	0.000352	3.521239	0.596514	0.000035
 675	6.7063e+01	6.7027	8.136667	0.000323	3.234627	0.547961	0.000032
 676	6.7162e+01	6.7113	8.171292	0.000348	3.480295	0.589578	0.000035
 677	6.7262e+01	6.7205	8.209174	0.000381	3.807852	0.645068	0.000038
 678	6.7362e+01	6.7313	8.238910	0.000299	2.988959	0.506343	0.000030
 679	6.7461e+01	6.7422	8.274757	0.000360	3.603129	0.610387	0.000036
 680	6.7561e+01	6.7494	8.306122	0.000315	3.152737	0.534088	0.000032
 681	6.7660e+01	6.7610	8.337895	0.000319	3.193682	0.541024	0.000032
 682	6.7760e+01	6.7718	8.375370	0.000377	3.766907	0.638131	0.000038
 683	6.7859e+01	6.7820	8.404292	0.000291	2.907070	0.492471	0.000029
 684	6.7959e+01	6.7924	8.436879	0.000328	3.275571	0.554897	0.000033
 685	6.8058e+01	6.7992	8.464986	0.000283	2.825180	0.478599	0.000028
 686	6.8157e+01	6.8110	8.501646	0.000369	3.685018	0.624259	0.000037
 687	6.8257e+01	6.8215	8.534234	0.000328	3.275571	0.554897	0.000033
 688	6.8356e+01	6.8330	8.568451	0.000344	3.439350	0.582642	0.000034
 689	6.8456e+01	6.8378	8.593298	0.000250	2.497623	0.423109	0.000025
 690	6.8555e+01	6.8522	8.627923	0.000348	3.480295	0.589578	0.000035
 691	6.8655e+01	6.8613	8.660103	0.000323	3.234627	0.547961	0.000032
 692	6.8754e+01	6.8678	8.691061	0.000311	3.111793	0.527152	0.000031
 693	6.8854e+01	6.8800	8.727314	0.000364	3.644073	0.617323	0.000036
 694	6.8954e+01	6.8906	8.760309	0.000332	3.316516	0.561833	0.000033
 695	6.9053e+01	6.9006	8.792082	0.000319	3.193682	0.541024	0.000032
 696	6.9153e+01	6.9115	8.826298	0.000344	3.439350	0.582642	0.000034
 697	6.9252e+01	6.9239	8.860108	0.000340	3.398405	0.575705	0.000034
 698	6.9352e+01	6.9296	8.892288	0.000323	3.234627	0.547961	0.000032
 699	6.9451e+01	6.9418	8.926505	0.000344	3.439350	0.582642	0.000034
 700	6.9550e+01	6.9514	8.956648	0.000303	3.029904	0.513280	0.000030
 701	6.9650e+01	6.9617	8.988421	0.000319	3.193682	0.541024	0.000032
 702	6.9749e+01	6.9722	9.022230	0.000340	3.398405	0.575705	0.000034
 703	6.9849e+01	6.9800	9.059706	0.000377	3.766907	0.638131	0.000038
 704	6.9948e+01	6.9901	9.089849	0.000303	3.029904	0.513280	0.000030
 705	7.0048e+01	7.0000	9.120807	0.000311	3.111793	0.527152	0.000031
 706	7.0147e+01	7.0111	9.154617	0.000340	3.398405	0.575705	0.000034
 707	7.0247e+01	7.0207	9.187204	0.000328	3.275571	0.554897	0.000033
 708	7.0347e+01	7.0293	9.218977	0.000319	3.193682	0.541024	0.000032
 709	7.0446e+01	7.0412	9.252379	0.000336	3.357461	0.568769	0.000034
 710	7.0546e+01	7.0492	9.282522	0.000303	3.029904	0.513280	0.000030
 711	7.0645e+01	7.0600	9.316739	0.000344	3.439350	0.582642	0.000034
 712	7.0745e+01	7.0699	9.346475	0.000299	2.988959	0.506343	0.000030
 713	7.0844e+01	7.0811	9.373359	0.000270	2.702346	0.457790	0.000027
 714	7.0944e+01	7.0892	9.405947	0.000328	3.275571	0.554897	0.000033
 715	7.1043e+01	7.0988	9.436498	0.000307	3.070848	0.520216	0.000031
 716	7.1142e+01	7.1095	9.466641	0.000303	3.029904	0.513280	0.000030
 717	7.1242e+01	7.1191	9.498414	0.000319	3.193682	0.541024	0.000032
 718	7.1341e+01	7.1305	9.531001	0.000328	3.275571	0.554897	0.000033
 719	7.1441e+01	7.1387	9.558293	0.000274	2.743291	0.464726	0.000027
 720	7.1540e+01	7.1490	9.588029	0.000299	2.988959	0.506343	0.000030
 721	7.1640e+01	7.1593	9.618580	0.000307	3.070848	0.520216	0.000031
 722	7.1740e+01	7.1709	9.649130	0.000307	3.070848	0.520216	0.000031
 723	7.1839e+01	7.1777	9.676422	0.000274	2.743291	0.464726	0.000027
 724	7.1939e+01	7.1877	9.708195	0.000319	3.193682	0.541024	0.000032
 725	7.2038e+01	7.1997	9.733858	0.000258	2.579512	0.436981	0.000026
 726	7.2138e+01	7.2073	9.769296	0.000356	3.562184	0.603450	0.000036
 727	7.2237e+01	7.2222	9.796996	0.000278	2.784236	0.471662	0.000028
 728	7.2337e+01	7.2279	9.827139	0.000303	3.029904	0.513280	0.000030
 729	7.2436e+01	7.2384	9.857282	0.000303	3.029904	0.513280	0.000030
 730	7.2535e+01	7.2478	9.884574	0.000274	2.743291	0.464726	0.000027
 731	7.2635e+01	7.2600	9.914718	0.000303	3.029904	0.513280	0.000030
 732	7.2734e+01	7.2694	9.946083	0.000315	3.152737	0.534088	0.000032
 733	7.2834e+01	7.2759	9.970931	0.000250	2.497623	0.423109	0.000025
 734	7.2933e+01	7.2875	10.005555	0.000348	3.480295	0.589578	0.000035
 735	7.3033e+01	7.2987	10.033254	0.000278	2.784236	0.471662	0.000028
 736	7.3132e+01	7.3121	10.062583	0.000295	2.948014	0.499407	0.000029
 737	7.3232e+01	7.3167	10.091504	0.000291	2.907070	0.492471	0.000029
 738	7.3332e+01	7.3280	10.122462	0.000311	3.111793	0.527152	0.000031
 739	7.3431e+01	7.3379	10.155457	0.000332	3.316516	0.561833	0.000033
 740	7.3531e+01	7.3489	10.181120	0.000258	2.579512	0.436981	0.000026
 741	7.3630e+01	7.3593	10.212892	0.000319	3.193682	0.541024	0.000032
 742	7.3730e+01	7.3675	10.242221	0.000295	2.948014	0.499407	0.000029
 743	7.3829e+01	7.3769	10.274401	0.000323	3.234627	0.547961	0.000032
 744	7.3928e+01	7.3898	10.301286	0.000270	2.702346	0.457790	0.000027
 745	7.4028e+01	7.3961	10.328578	0.000274	2.743291	0.464726	0.000027
 746	7.4127e+01	7.4087	10.356277	0.000278	2.784236	0.471662	0.000028
 747	7.4227e+01	7.4192	10.381940	0.000258	2.579512	0.436981	0.000026
 748	7.4326e+01	7.4258	10.411268	0.000295	2.948014	0.499407	0.000029
 749	7.4426e+01	7.4371	10.439375	0.000283	2.825180	0.478599	0.000028
 750	7.4525e+01	7.4490	10.464630	0.000254	2.538568	0.430045	0.000025
 751	7.4625e+01	7.4586	10.492329	0.000278	2.784236	0.471662	0.000028
 752	7.4725e+01	7.4693	10.522065	0.000299	2.988959	0.506343	0.000030
 753	7.4824e+01	7.4761	10.546913	0.000250	2.497623	0.423109	0.000025
 754	7.4924e+01	7.4902	10.576649	0.000299	2.988959	0.506343	0.000030
 755	7.5023e+01	7.4984	10.609237	0.000328	3.275571	0.554897	0.000033
 756	7.5123e+01	7.5041	10.631233	0.000221	2.211011	0.374555	0.000022
 757	7.5222e+01	7.5172	10.663006	0.000319	3.193682	0.541024	0.000032
 758	7.5322e+01	7.5280	10.687039	0.000242	2.415734	0.409236	0.000024
 759	7.5421e+01	7.5393	10.713924	0.000270	2.702346	0.457790	0.000027
 760	7.5520e+01	7.5464	10.740808	0.000270	2.702346	0.457790	0.000027
 761	7.5620e+01	7.5597	10.767286	0.000266	2.661402	0.450854	0.000027
 762	7.5719e+01	7.5670	10.797429	0.000303	3.029904	0.513280	0.000030
 763	7.5819e+01	7.5773	10.824721	0.000274	2.743291	0.464726	0.000027
 764	7.5918e+01	7.5861	10.852420	0.000278	2.784236	0.471662	0.000028
 765	7.6018e+01	7.5994	10.880527	0.000283	2.825180	0.478599	0.000028
 766	7.6118e+01	7.6064	10.909041	0.000287	2.866125	0.485535	0.000029
 767	7.6217e+01	7.6187	10.937148	0.000283	2.825180	0.478599	0.000028
 768	7.6317e+01	7.6270	10.966884	0.000299	2.988959	0.506343	0.000030
 769	7.6416e+01	7.6359	10.996212	0.000295	2.948014	0.499407	0.000029
 770	7.6516e+01	7.6490	11.023097	0.000270	2.702346	0.457790	0.000027
 771	7.6615e+01	7.6563	11.057721	0.000348	3.480295	0.589578	0.000035
 772	7.6715e+01	7.6675	11.083791	0.000262	2.620457	0.443917	0.000026
 773	7.6814e+01	7.6736	11.110675	0.000270	2.702346	0.457790	0.000027
 774	7.6913e+01	7.6836	11.140819	0.000303	3.029904	0.513280	0.000030
 775	7.7013e+01	7.6949	11.168518	0.000278	2.784236	0.471662	0.000028
 776	7.7112e+01	7.7043	11.198661	0.000303	3.029904	0.513280	0.000030
 777	7.7212e+01	7.7174	11.225546	0.000270	2.702346	0.457790	0.000027
 778	7.7311e+01	7.7248	11.256097	0.000307	3.070848	0.520216	0.000031
 779	7.7411e+01	7.7349	11.283389	0.000274	2.743291	0.464726	0.000027
 780	7.7510e+01	7.7479	11.311088	0.000278	2.784236	0.471662	0.000028
 781	7.7610e+01	7.7566	11.336343	0.000254	2.538568	0.430045	0.000025
 782	7.7710e+01	7.7674	11.369338	0.000332	3.316516	0.561833	0.000033
 783	7.7809e+01	7.7764	11.391334	0.000221	2.211011	0.374555	0.000022
 784	7.7909e+01	7.7866	11.424329	0.000332	3.316516	0.561833	0.000033
 785	7.8008e+01	7.7981	11.450806	0.000266	2.661402	0.450854	0.000027
 786	7.8108e+01	7.8085	11.482987	0.000323	3.234627	0.547961	0.000032
 787	7.8207e+01	7.8155	11.512723	0.000299	2.988959	0.506343	0.000030
 788	7.8306e+01	7.8273	11.535126	0.000225	2.251955	0.381492	0.000023
 789	7.8406e+01	7.8369	11.565677	0.000307	3.070848	0.520216	0.000031
 790	7.8505e+01	7.8467	11.590525	0.000250	2.497623	0.423109	0.000025
 791	7.8605e+01	7.8564	11.623112	0.000328	3.275571	0.554897	0.000033
 792	7.8704e+01	7.8676	11.649997	0.000270	2.702346	0.457790	0.000027
 793	7.8804e+01	7.8764	11.681362	0.000315	3.152737	0.534088	0.000032
 794	7.8903e+01	7.8890	11.708654	0.000274	2.743291	0.464726	0.000027
 795	7.9003e+01	7.8951	11.736761	0.000283	2.825180	0.478599	0.000028
 796	7.9103e+01	7.9053	11.769348	0.000328	3.275571	0.554897	0.000033
 797	7.9202e+01	7.9179	11.797048	0.000278	2.784236	0.471662	0.000028
 798	7.9302e+01	7.9267	11.825969	0.000291	2.907070	0.492471	0.000029
 799	7.9401e+01	7.9329	11.863037	0.000373	3.725962	0.631195	0.000037
 800	7.9501e+01	7.9443	11.890329	0.000274	2.743291	0.464726	0.000027
 801	7.9600e+01	7.9568	11.923324	0.000332	3.316516	0.561833	0.000033
 802	7.9700e+01	7.9654	11.953875	0.000307	3.070848	0.520216	0.000031
 803	7.9799e+01	7.9778	11.980352	0.000266	2.661402	0.450854	0.000027
 804	7.9898e+01	7.9860	12.014569	0.000344	3.439350	0.582642	0.000034
 805	7.9998e+01	7.9951	12.042675	0.000283	2.825180	0.478599	0.000028
 806	8.0097e+01	8.0045	12.069152	0.000266	2.661402	0.450854	0.000027
 807	8.0197e+01	8.0145	12.099703	0.000307	3.070848	0.520216	0.000031
 808	8.0296e+01	8.0249	12.133920	0.000344	3.439350	0.582642	0.000034
 809	8.0396e+01	8.0360	12.165285	0.000315	3.152737	0.534088	0.000032
 810	8.0496e+01	8.0441	12.196651	0.000315	3.152737	0.534088	0.000032
 811	8.0595e+01	8.0555	12.228831	0.000323	3.234627	0.547961	0.000032
 812	8.0695e+01	8.0659	12.256530	0.000278	2.784236	0.471662	0.000028
 813	8.0794e+01	8.0762	12.287081	0.000307	3.070848	0.520216	0.000031
 814	8.0894e+01	8.0853	12.319668	0.000328	3.275571	0.554897	0.000033
 815	8.0993e+01	8.0936	12.353478	0.000340	3.398405	0.575705	0.000034
 816	8.1093e+01	8.1064	12.384436	0.000311	3.111793	0.527152	0.000031
 817	8.1192e+01	8.1136	12.417023	0.000328	3.275571	0.554897	0.000033
 818	8.1291e+01	8.1247	12.443908	0.000270	2.702346	0.457790	0.000027
 819	8.1391e+01	8.1355	12.476088	0.000323	3.234627	0.547961	0.000032
 820	8.1490e+01	8.1441	12.509490	0.000336	3.357461	0.568769	0.000034
 821	8.1590e+01	8.1532	12.536374	0.000270	2.702346	0.457790	0.000027
 822	8.1689e+01	8.1648	12.571406	0.000352	3.521239	0.596514	0.000035
 823	8.1789e+01	8.1751	12.603586	0.000323	3.234627	0.547961	0.000032
 824	8.1888e+01	8.1854	12.637395	0.000340	3.398405	0.575705	0.000034
 825	8.1988e+01	8.1934	12.663058	0.000258	2.579512	0.436981	0.000026
 826	8.2088e+01	8.2049	12.696460	0.000336	3.357461	0.568769	0.000034
 827	8.2187e+01	8.2153	12.727825	0.000315	3.152737	0.534088	0.000032
 828	8.2287e+01	8.2245	12.762042	0.000344	3.439350	0.582642	0.000034
 829	8.2386e+01	8.2339	12.793000	0.000311	3.111793	0.527152	0.000031
 830	8.2486e+01	8.2446	12.827624	0.000348	3.480295	0.589578	0.000035
 831	8.2585e+01	8.2496	12.861434	0.000340	3.398405	0.575705	0.000034
 832	8.2684e+01	8.2659	12.897280	0.000360	3.603129	0.610387	0.000036
 833	8.2784e+01	8.2742	12.928238	0.000311	3.111793	0.527152	0.000031
 834	8.2883e+01	8.2832	12.960418	0.000323	3.234627	0.547961	0.000032
 835	8.2983e+01	8.2936	12.996264	0.000360	3.603129	0.610387	0.000036
 836	8.3082e+01	8.3008	13.028852	0.000328	3.275571	0.554897	0.000033
 837	8.3182e+01	8.3142	13.064290	0.000356	3.562184	0.603450	0.000036
 838	8.3281e+01	8.3245	13.098100	0.000340	3.398405	0.575705	0.000034
 839	8.3381e+01	8.3329	13.128243	0.000303	3.029904	0.513280	0.000030
 840	8.3481e+01	8.3441	13.165719	0.000377	3.766907	0.638131	0.000038
 841	8.3580e+01	8.3545	13.197491	0.000319	3.193682	0.541024	0.000032
 842	8.3680e+01	8.3604	13.235374	0.000381	3.807852	0.645068	0.000038
 843	8.3779e+01	8.3698	13.262259	0.000270	2.702346	0.457790	0.000027
 844	8.3879e+01	8.3848	13.300956	0.000389	3.889741	0.658940	0.000039
 845	8.3978e+01	8.3942	13.333544	0.000328	3.275571	0.554897	0.000033
 846	8.4078e+01	8.4010	13.367353	0.000340	3.398405	0.575705	0.000034
 847	8.4177e+01	8.4121	13.403607	0.000364	3.644073	0.617323	0.000036
 848	8.4276e+01	8.4229	13.434157	0.000307	3.070848	0.520216	0.000031
 849	8.4376e+01	8.4326	13.466745	0.000328	3.275571	0.554897	0.000033
 850	8.4475e+01	8.4438	13.497703	0.000311	3.111793	0.527152	0.000031
 851	8.4575e+01	8.4534	13.535178	0.000377	3.766907	0.638131	0.000038
 852	8.4674e+01	8.4650	13.565322	0.000303	3.029904	0.513280	0.000030
 853	8.4774e+01	8.4717	13.594243	0.000291	2.907070	0.492471	0.000029
 854	8.4874e+01	8.4824	13.626016	0.000319	3.193682	0.541024	0.000032
 855	8.4973e+01	8.4959	13.661454	0.000356	3.562184	0.603450	0.000036
 856	8.5073e+01	8.5022	13.692005	0.000307	3.070848	0.520216	0.000031
 857	8.5172e+01	8.5108	13.725815	0.000340	3.398405	0.575705	0.000034
 858	8.5272e+01	8.5229	13.757587	0.000319	3.193682	0.541024	0.000032
 859	8.5371e+01	8.5282	13.790175	0.000328	3.275571	0.554897	0.000033
 860	8.5471e+01	8.5435	13.825614	0.000356	3.562184	0.603450	0.000036
 861	8.5570e+01	8.5494	13.860238	0.000348	3.480295	0.589578	0.000035
 862	8.5669e+01	8.5596	13.891196	0.000311	3.111793	0.527152	0.000031
 863	8.5769e+01	8.5708	13.925820	0.000348	3.480295	0.589578	0.000035
 864	8.5868e+01	8.5828	13.960037	0.000344	3.439350	0.582642	0.000034
 865	8.5968e+01	8.5914	13.992217	0.000323	3.234627	0.547961	0.000032
 866	8.6067e+01	8.6031	14.027248	0.000352	3.521239	0.596514	0.000035
 867	8.6167e+01	8.6104	14.056169	0.000291	2.907070	0.492471	0.000029
 868	8.6266e+01	8.6222	14.089979	0.000340	3.398405	0.575705	0.000034
 869	8.6366e+01	8.6316	14.125825	0.000360	3.603129	0.610387	0.000036
 870	8.6466e+01	8.6427	14.159227	0.000336	3.357461	0.568769	0.000034
 871	8.6565e+01	8.6515	14.196703	0.000377	3.766907	0.638131	0.000038
 872	8.6665e+01	8.6599	14.230919	0.000344	3.439350	0.582642	0.000034
 873	8.6764e+01	8.6694	14.264321	0.000336	3.357461	0.568769	0.000034
 874	8.6864e+01	8.6816	14.298946	0.000348	3.480295	0.589578	0.000035
 875	8.6963e+01	8.6916	14.329904	0.000311	3.111793	0.527152	0.000031
 876	8.7063e+01	8.7016	14.364120	0.000344	3.439350	0.582642	0.000034
 877	8.7162e+01	8.7131	14.398745	0.000348	3.480295	0.589578	0.000035
 878	8.7261e+01	8.7197	14.429703	0.000311	3.111793	0.527152	0.000031
 879	8.7361e+01	8.7326	14.464327	0.000348	3.480295	0.589578	0.000035
 880	8.7460e+01	8.7431	14.498136	0.000340	3.398405	0.575705	0.000034
 881	8.7560e+01	8.7527	14.530723	0.000328	3.275571	0.554897	0.000033
 882	8.7659e+01	8.7603	14.564533	0.000340	3.398405	0.575705	0.000034
 883	8.7759e+01	8.7722	14.592232	0.000278	2.784236	0.471662	0.000028
 884	8.7859e+01	8.7825	14.624820	0.000328	3.275571	0.554897	0.000033
 885	8.7958e+01	8.7919	14.658629	0.000340	3.398405	0.575705	0.000034
 886	8.8058e+01	8.7988	14.688365	0.000299	2.988959	0.506343	0.000030
 887	8.8157e+01	8.8122	14.721360	0.000332	3.316516	0.561833	0.000033
 888	8.8257e+01	8.8200	14.753133	0.000319	3.193682	0.541024	0.000032
 889	8.8356e+01	8.8306	14.784498	0.000315	3.152737	0.534088	0.000032
 890	8.8456e+01	8.8393	14.814641	0.000303	3.029904	0.513280	0.000030
 891	8.8555e+01	8.8502	14.846821	0.000323	3.234627	0.547961	0.000032
 892	8.8654e+01	8.8577	14.880223	0.000336	3.357461	0.568769	0.000034
 893	8.8754e+01	8.8683	14.913625	0.000336	3.357461	0.568769	0.000034
 894	8.8853e+01	8.8810	14.946213	0.000328	3.275571	0.554897	0.000033
 895	8.8953e+01	8.8917	14.978800	0.000328	3.275571	0.554897	0.000033
 896	8.9052e+01	8.8985	15.009351	0.000307	3.070848	0.520216	0.000031
 897	8.9152e+01	8.9111	15.040716	0.000315	3.152737	0.534088	0.000032
 898	8.9251e+01	8.9185	15.073711	0.000332	3.316516	0.561833	0.000033
 899	8.9351e+01	8.9298	15.107928	0.000344	3.439350	0.582642	0.000034
 900	8.9451e+01	8.9389	15.137664	0.000299	2.988959	0.506343	0.000030
 901	8.9550e+01	8.9515	15.167807	0.000303	3.029904	0.513280	0.000030
 902	8.9650e+01	8.9600	15.204061	0.000364	3.644073	0.617323	0.000036
 903	8.9749e+01	8.9687	15.231760	0.000278	2.784236	0.471662	0.000028
 904	8.9849e+01	8.9814	15.265162	0.000336	3.357461	0.568769	0.000034
 905	8.9948e+01	8.9878	15.301823	0.000369	3.685018	0.624259	0.000037
 906	9.0047e+01	8.9990	15.333596	0.000319	3.193682	0.541024	0.000032
 907	9.0147e+01	9.0097	15.366590	0.000332	3.316516	0.561833	0.000033
 908	9.0246e+01	9.0197	15.395919	0.000295	2.948014	0.499407	0.000029
 909	9.0346e+01	9.0275	15.427284	0.000315	3.152737	0.534088	0.000032
 910	9.0445e+01	9.0381	15.467611	0.000405	4.053520	0.686685	0.000041
 911	9.0545e+01	9.0479	15.496533	0.000291	2.907070	0.492471	0.000029
 912	9.0644e+01	9.0576	15.524232	0.000278	2.784236	0.471662	0.000028
 913	9.0744e+01	9.0687	15.559671	0.000356	3.562184	0.603450	0.000036
 914	9.0844e+01	9.0808	15.590629	0.000311	3.111793	0.527152	0.000031
 915	9.0943e+01	9.0877	15.622809	0.000323	3.234627	0.547961	0.000032
 916	9.1043e+01	9.0981	15.648471	0.000258	2.579512	0.436981	0.000026
 917	9.1142e+01	9.1101	15.681059	0.000328	3.275571	0.554897	0.000033
 918	9.1242e+01	9.1187	15.714868	0.000340	3.398405	0.575705	0.000034
 919	9.1341e+01	9.1275	15.747048	0.000323	3.234627	0.547961	0.000032
 920	9.1441e+01	9.1396	15.779228	0.000323	3.234627	0.547961	0.000032
 921	9.1540e+01	9.1476	15.808964	0.000299	2.988959	0.506343	0.000030
 922	9.1639e+01	9.1606	15.839108	0.000303	3.029904	0.513280	0.000030
 923	9.1739e+01	9.1676	15.872917	0.000340	3.398405	0.575705	0.000034
 924	9.1838e+01	9.1776	15.904283	0.000315	3.152737	0.534088	0.000032
 925	9.1938e+01	9.1871	15.935648	0.000315	3.152737	0.534088	0.000032
 926	9.2037e+01	9.1995	15.967828	0.000323	3.234627	0.547961	0.000032
 927	9.2137e+01	9.2090	15.999601	0.000319	3.193682	0.541024	0.000032
 928	9.2237e+01	9.2225	16.028522	0.000291	2.907070	0.492471	0.000029
 929	9.2336e+01	9.2278	16.066405	0.000381	3.807852	0.645068	0.000038
 930	9.2436e+01	9.2383	16.095326	0.000291	2.907070	0.492471	0.000029
 931	9.2535e+01	9.2487	16.123840	0.000287	2.866125	0.485535	0.000029
 932	9.2635e+01	9.2578	16.157242	0.000336	3.357461	0.568769	0.000034
 933	9.2734e+01	9.2676	16.195533	0.000385	3.848796	0.652004	0.000038
 934	9.2834e+01	9.2780	16.229342	0.000340	3.398405	0.575705	0.000034
 935	9.2933e+01	9.2871	16.260300	0.000311	3.111793	0.527152	0.000031
 936	9.3032e+01	9.2981	16.300627	0.000405	4.053520	0.686685	0.000041
 937	9.3132e+01	9.3071	16.332807	0.000323	3.234627	0.547961	0.000032
 938	9.3231e+01	9.3176	16.369468	0.000369	3.685018	0.624259	0.000037
 939	9.3331e+01	9.3286	16.401648	0.000323	3.234627	0.547961	0.000032
 940	9.3430e+01	9.3393	16.435050	0.000336	3.357461	0.568769	0.000034
 941	9.3530e+01	9.3472	16.470896	0.000360	3.603129	0.610387	0.000036
 942	9.3629e+01	9.3569	16.507150	0.000364	3.644073	0.617323	0.000036
 943	9.3729e+01	9.3669	16.540144	0.000332	3.316516	0.561833	0.000033
 944	9.3829e+01	9.3784	16.575583	0.000356	3.562184	0.603450	0.000036
 945	9.3928e+01	9.3884	16.608171	0.000328	3.275571	0.554897	0.000033
 946	9.4028e+01	9.3987	16.639536	0.000315	3.152737	0.534088	0.000032
 947	9.4127e+01	9.4067	16.675789	0.000364	3.644073	0.617323	0.000036
 948	9.4227e+01	9.4177	16.708377	0.000328	3.275571	0.554897	0.000033
 949	9.4326e+01	9.4263	16.746667	0.000385	3.848796	0.652004	0.000038
 950	9.4425e+01	9.4354	16.778032	0.000315	3.152737	0.534088	0.000032
 951	9.4525e+01	9.4492	16.816730	0.000389	3.889741	0.658940	0.000039
 952	9.4624e+01	9.4576	16.850132	0.000336	3.357461	0.568769	0.000034
 953	9.4724e+01	9.4669	16.881905	0.000319	3.193682	0.541024	0.000032
 954	9.4823e+01	9.4758	16.914492	0.000328	3.275571	0.554897	0.000033
 955	9.4923e+01	9.4868	16.953190	0.000389	3.889741	0.658940	0.000039
 956	9.5022e+01	9.4962	16.985777	0.000328	3.275571	0.554897	0.000033
 957	9.5122e+01	9.5068	17.027733	0.000422	4.217298	0.714430	0.000042
 958	9.5222e+01	9.5193	17.056247	0.000287	2.866125	0.485535	0.000029
 959	9.5321e+01	9.5267	17.094538	0.000385	3.848796	0.652004	0.000038
 960	9.5421e+01	9.5356	17.128347	0.000340	3.398405	0.575705	0.000034
 961	9.5520e+01	9.5478	17.166230	0.000381	3.807852	0.645068	0.000038
 962	9.5620e+01	9.5563	17.200854	0.000348	3.480295	0.589578	0.000035
 963	9.5719e+01	9.5654	17.237922	0.000373	3.725962	0.631195	0.000037
 964	9.5819e+01	9.5780	17.275805	0.000381	3.807852	0.645068	0.000038
 965	9.5918e+01	9.5874	17.312873	0.000373	3.725962	0.631195	0.000037
 966	9.6017e+01	9.5972	17.353607	0.000409	4.094464	0.693621	0.000041
 967	9.6117e+01	9.6060	17.397193	0.000438	4.381077	0.742174	0.000044
 968	9.6216e+01	9.6167	17.434669	0.000377	3.766907	0.638131	0.000038
 969	9.6316e+01	9.6241	17.472551	0.000381	3.807852	0.645068	0.000038
 970	9.6415e+01	9.6353	17.513286	0.000409	4.094464	0.693621	0.000041
 971	9.6515e+01	9.6464	17.547910	0.000348	3.480295	0.589578	0.000035
 972	9.6615e+01	9.6550	17.590273	0.000426	4.258243	0.721366	0.000043
 973	9.6714e+01	9.6660	17.627749	0.000377	3.766907	0.638131	0.000038
 974	9.6814e+01	9.6757	17.668076	0.000405	4.053520	0.686685	0.000041
 975	9.6913e+01	9.6899	17.710439	0.000426	4.258243	0.721366	0.000043
 976	9.7013e+01	9.6957	17.747915	0.000377	3.766907	0.638131	0.000038
 977	9.7112e+01	9.7052	17.787835	0.000401	4.012575	0.679749	0.000040
 978	9.7212e+01	9.7156	17.829791	0.000422	4.217298	0.714430	0.000042
 979	9.7311e+01	9.7272	17.867266	0.000377	3.766907	0.638131	0.000038
 980	9.7410e+01	9.7352	17.909630	0.000426	4.258243	0.721366	0.000043
 981	9.7510e+01	9.7446	17.951179	0.000418	4.176354	0.707493	0.000042
 982	9.7609e+01	9.7546	17.993543	0.000426	4.258243	0.721366	0.000043
 983	9.7709e+01	9.7662	18.037128	0.000438	4.381077	0.742174	0.000044
 984	9.7808e+01	9.7761	18.076640	0.000397	3.971630	0.672812	0.000040
 985	9.7908e+01	9.7839	18.118597	0.000422	4.217298	0.714430	0.000042
 986	9.8007e+01	9.7943	18.158924	0.000405	4.053520	0.686685	0.000041
 987	9.8107e+01	9.8049	18.201287	0.000426	4.258243	0.721366	0.000043
 988	9.8207e+01	9.8145	18.242429	0.000414	4.135409	0.700557	0.000041
 989	9.8306e+01	9.8242	18.286422	0.000442	4.422021	0.749111	0.000044
 990	9.8406e+01	9.8371	18.327971	0.000418	4.176354	0.707493	0.000042
 991	9.8505e+01	9.8444	18.364224	0.000364	3.644073	0.617323	0.000036
 992	9.8605e+01	9.8550	18.410661	0.000467	4.667689	0.790728	0.000047
 993	9.8704e+01	9.8660	18.453025	0.000426	4.258243	0.721366	0.000043
 994	9.8803e+01	9.8730	18.492944	0.000401	4.012575	0.679749	0.000040
 995	9.8903e+01	9.8853	18.539382	0.000467	4.667689	0.790728	0.000047
 996	9.9002e+01	9.8954	18.582967	0.000438	4.381077	0.742174	0.000044
 997	9.9102e+01	9.9061	18.628590	0.000459	4.585800	0.776856	0.000046
 998	9.9201e+01	9.9146	18.673805	0.000454	4.544855	0.769919	0.000045
 999	9.9301e+01	9.9255	18.721464	0.000479	4.790523	0.811537	0.000048
1000	9.9400e+01	9.9365	18.766271	0.000450	4.503911	0.762983	0.000045
1001	9.9500e+01	9.9470	18.815560	0.000495	4.954302	0.839281	0.000050
1002	9.9600e+01	9.9542	18.857516	0.000422	4.217298	0.714430	0.000042
1003	9.9699e+01	9.9644	18.903546	0.000463	4.626745	0.783792	0.000046
1004	9.9799e+01	9.9762	18.946317	0.000430	4.299187	0.728302	0.000043
1005	9.9898e+01	9.9838	18.996420	0.000504	5.036191	0.853154	0.000050
1006	9.9998e+01	9.9943	19.033895	0.000377	3.766907	0.638131	0.000038
1007	1.0010e+02	9.9833	19.042857	-0.000090	-0.900782	-0.152597	0.000009
1008	1.0020e+02	9.9734	19.044079	-0.000012	-0.122834	-0.020809	0.000001
1009	1.0030e+02	9.9623	19.044894	-0.000008	-0.081889	-0.013872	0.000001
1010	1.0040e+02	9.9574	19.047338	-0.000025	-0.245668	-0.041617	0.000002
1011	1.0050e+02	9.9433	19.048152	-0.000008	-0.081889	-0.013872	0.000001
1012	1.0059e+02	9.9365	19.044894	0.000033	0.327557	0.055490	-0.000003
1013	1.0069e+02	9.9247	19.042857	0.000020	0.204723	0.034681	-0.000002
1014	1.0079e+02	9.9152	19.040006	0.000029	0.286612	0.048553	-0.000003
1015	1.0089e+02	9.9039	19.040006	-0.000000	-0.000000	-0.000000	0.000000
1016	1.0099e+02	9.8953	19.035117	0.000049	0.491336	0.083235	-0.000005
1017	1.0109e+02	9.8837	19.035117	-0.000000	-0.000000	-0.000000	0.000000
1018	1.0119e+02	9.8758	19.031451	0.000037	0.368502	0.062426	-0.000004
1019	1.0129e+02	9.8640	19.027378	0.000041	0.409446	0.069362	-0.000004
1020	1.0139e+02	9.8544	19.022490	0.000049	0.491336	0.083235	-0.000005
1021	1.0149e+02	9.8450	19.014343	0.000082	0.818893	0.138724	-0.000008
1022	1.0159e+02	9.8408	19.009862	0.000045	0.450391	0.076298	-0.000005
1023	1.0169e+02	9.8257	19.002530	0.000074	0.737004	0.124852	-0.000007
1024	1.0179e+02	9.8145	18.996420	0.000061	0.614170	0.104043	-0.000006
1025	1.0189e+02	9.8071	18.987051	0.000094	0.941727	0.159533	-0.000009
1026	1.0199e+02	9.7949	18.986236	0.000008	0.081889	0.013872	-0.000001
1027	1.0209e+02	9.7868	18.978497	0.000078	0.777948	0.131788	-0.000008
1028	1.0219e+02	9.7741	18.971572	0.000070	0.696059	0.117916	-0.000007
1029	1.0229e+02	9.7650	18.964240	0.000074	0.737004	0.124852	-0.000007
1030	1.0239e+02	9.7552	18.963425	0.000008	0.081889	0.013872	-0.000001
1031	1.0248e+02	9.7462	18.955278	0.000082	0.818893	0.138724	-0.000008
1032	1.0258e+02	9.7369	18.949575	0.000057	0.573225	0.097107	-0.000006
1033	1.0268e+02	9.7266	18.941836	0.000078	0.777948	0.131788	-0.000008
1034	1.0278e+02	9.7157	18.937763	0.000041	0.409446	0.069362	-0.000004
1035	1.0288e+02	9.7057	18.928801	0.000090	0.900782	0.152597	-0.000009
1036	1.0298e+02	9.6949	18.923098	0.000057	0.573225	0.097107	-0.000006
1037	1.0308e+02	9.6861	18.914137	0.000090	0.900782	0.152597	-0.000009
1038	1.0318e+02	9.6751	18.906397	0.000078	0.777948	0.131788	-0.000008
1039	1.0328e+02	9.6667	18.899065	0.000074	0.737004	0.124852	-0.000007
1040	1.0338e+02	9.6562	18.893362	0.000057	0.573225	0.097107	-0.000006
1041	1.0348e+02	9.6448	18.880327	0.000131	1.310229	0.221959	-0.000013
1042	1.0358e+02	9.6387	18.872588	0.000078	0.777948	0.131788	-0.000008
1043	1.0368e+02	9.6243	18.863219	0.000094	0.941727	0.159533	-0.000009
1044	1.0378e+02	9.6145	18.854257	0.000090	0.900782	0.152597	-0.000009
1045	1.0388e+02	9.6069	18.846110	0.000082	0.818893	0.138724	-0.000008
1046	1.0398e+02	9.5953	18.837149	0.000090	0.900782	0.152597	-0.000009
1047	1.0408e+02	9.5858	18.824114	0.000131	1.310229	0.221959	-0.000013
1048	1.0418e+02	9.5752	18.813930	0.000102	1.023616	0.173405	-0.000010
1049	1.0428e+02	9.5673	18.802117	0.000119	1.187395	0.201150	-0.000012
1050	1.0438e+02	9.5583	18.791934	0.000102	1.023616	0.173405	-0.000010
1051	1.0447e+02	9.5465	18.778492	0.000135	1.351173	0.228895	-0.000014
1052	1.0457e+02	9.5362	18.765049	0.000135	1.351173	0.228895	-0.000014
1053	1.0467e+02	9.5248	18.751200	0.000139	1.392118	0.235831	-0.000014
1054	1.0477e+02	9.5166	18.741016	0.000102	1.023616	0.173405	-0.000010
1055	1.0487e+02	9.5068	18.725537	0.000156	1.555896	0.263576	-0.000016
1056	1.0497e+02	9.4971	18.708429	0.000172	1.719675	0.291321	-0.000017
1057	1.0507e+02	9.4855	18.697838	0.000106	1.064561	0.180341	-0.000011
1058	1.0517e+02	9.4766	18.683173	0.000147	1.474007	0.249704	-0.000015
1059	1.0527e+02	9.4669	18.669731	0.000135	1.351173	0.228895	-0.000014
1060	1.0537e+02	9.4565	18.655067	0.000147	1.474007	0.249704	-0.000015
1061	1.0547e+02	9.4470	18.642439	0.000127	1.269284	0.215023	-0.000013
1062	1.0557e+02	9.4370	18.623294	0.000192	1.924398	0.326002	-0.000019
1063	1.0567e+02	9.4263	18.611481	0.000119	1.187395	0.201150	-0.000012
1064	1.0577e+02	9.4165	18.598039	0.000135	1.351173	0.228895	-0.000014
1065	1.0587e+02	9.4074	18.581745	0.000164	1.637786	0.277448	-0.000016
1066	1.0597e+02	9.3994	18.565859	0.000160	1.596841	0.270512	-0.000016
1067	1.0607e+02	9.3882	18.549565	0.000164	1.637786	0.277448	-0.000016
1068	1.0617e+02	9.3787	18.536937	0.000127	1.269284	0.215023	-0.000013
1069	1.0627e+02	9.3671	18.520644	0.000164	1.637786	0.277448	-0.000016
1070	1.0637e+02	9.3555	18.504350	0.000164	1.637786	0.277448	-0.000016
1071	1.0647e+02	9.3475	18.486020	0.000184	1.842509	0.312129	-0.000018
1072	1.0656e+02	9.3384	18.469319	0.000168	1.678730	0.284385	-0.000017
1073	1.0666e+02	9.3280	18.454247	0.000151	1.514952	0.256640	-0.000015
1074	1.0676e+02	9.3176	18.437139	0.000172	1.719675	0.291321	-0.000017
1075	1.0686e+02	9.3109	18.426548	0.000106	1.064561	0.180341	-0.000011
1076	1.0696e+02	9.3008	18.409439	0.000172	1.719675	0.291321	-0.000017
1077	1.0706e+02	9.2886	18.391516	0.000180	1.801564	0.305193	-0.000018
1078	1.0716e+02	9.2764	18.374408	0.000172	1.719675	0.291321	-0.000017
1079	1.0726e+02	9.2682	18.358521	0.000160	1.596841	0.270512	-0.000016
1080	1.0736e+02	9.2568	18.336932	0.000217	2.170066	0.367619	-0.000022
1081	1.0746e+02	9.2480	18.319009	0.000180	1.801564	0.305193	-0.000018
1082	1.0756e+02	9.2383	18.303530	0.000156	1.555896	0.263576	-0.000016
1083	1.0766e+02	9.2297	18.282348	0.000213	2.129121	0.360683	-0.000021
1084	1.0776e+02	9.2181	18.259945	0.000225	2.251955	0.381492	-0.000023
1085	1.0786e+02	9.2096	18.242021	0.000180	1.801564	0.305193	-0.000018
1086	1.0796e+02	9.1970	18.224098	0.000180	1.801564	0.305193	-0.000018
1087	1.0806e+02	9.1905	18.204546	0.000197	1.965343	0.332938	-0.000020
1088	1.0816e+02	9.1786	18.185808	0.000188	1.883454	0.319066	-0.000019
1089	1.0826e+02	9.1667	18.165441	0.000205	2.047232	0.346811	-0.000020
1090	1.0836e+02	9.1592	18.147925	0.000176	1.760620	0.298257	-0.000018
1091	1.0845e+02	9.1504	18.123485	0.000246	2.456679	0.416173	-0.000025
1092	1.0855e+02	9.1375	18.103932	0.000197	1.965343	0.332938	-0.000020
1093	1.0865e+02	9.1305	18.083973	0.000201	2.006287	0.339874	-0.000020
1094	1.0875e+02	9.1174	18.066050	0.000180	1.801564	0.305193	-0.000018
1095	1.0885e+02	9.1113	18.045275	0.000209	2.088177	0.353747	-0.000021
1096	1.0895e+02	9.0984	18.023279	0.000221	2.211011	0.374555	-0.000022
1097	1.0905e+02	9.0883	18.005355	0.000180	1.801564	0.305193	-0.000018
1098	1.0915e+02	9.0764	17.986210	0.000192	1.924398	0.326002	-0.000019
1099	1.0925e+02	9.0678	17.962992	0.000233	2.333845	0.395364	-0.000023
1100	1.0935e+02	9.0579	17.943032	0.000201	2.006287	0.339874	-0.000020
1101	1.0945e+02	9.0479	17.921443	0.000217	2.170066	0.367619	-0.000022
1102	1.0955e+02	9.0436	17.905149	0.000164	1.637786	0.277448	-0.000016
1103	1.0965e+02	9.0299	17.884782	0.000205	2.047232	0.346811	-0.000020
1104	1.0975e+02	9.0186	17.867266	0.000176	1.760620	0.298257	-0.000018
1105	1.0985e+02	9.0098	17.846899	0.000205	2.047232	0.346811	-0.000020
1106	1.0995e+02	8.9978	17.831013	0.000160	1.596841	0.270512	-0.000016
1107	1.1005e+02	8.9883	17.813904	0.000172	1.719675	0.291321	-0.000017
1108	1.1015e+02	8.9798	17.791501	0.000225	2.251955	0.381492	-0.000023
1109	1.1025e+02	8.9713	17.770319	0.000213	2.129121	0.360683	-0.000021
1110	1.1035e+02	8.9587	17.749952	0.000205	2.047232	0.346811	-0.000020
1111	1.1044e+02	8.9497	17.728770	0.000213	2.129121	0.360683	-0.000021
1112	1.1054e+02	8.9408	17.708403	0.000205	2.047232	0.346811	-0.000020
1113	1.1064e+02	8.9307	17.686406	0.000221	2.211011	0.374555	-0.000022
1114	1.1074e+02	8.9209	17.665224	0.000213	2.129121	0.360683	-0.000021
1115	1.1084e+02	8.9102	17.641599	0.000237	2.374789	0.402300	-0.000024
1116	1.1094e+02	8.8998	17.621231	0.000205	2.047232	0.346811	-0.000020
1117	1.1104e+02	8.8909	17.601272	0.000201	2.006287	0.339874	-0.000020
1118	1.1114e+02	8.8789	17.581719	0.000197	1.965343	0.332938	-0.000020
1119	1.1124e+02	8.8712	17.560945	0.000209	2.088177	0.353747	-0.000021
1120	1.1134e+02	8.8593	17.539763	0.000213	2.129121	0.360683	-0.000021
1121	1.1144e+02	8.8489	17.518988	0.000209	2.088177	0.353747	-0.000021
1122	1.1154e+02	8.8406	17.493326	0.000258	2.579512	0.436981	-0.000026
1123	1.1164e+02	8.8297	17.470922	0.000225	2.251955	0.381492	-0.000023
1124	1.1174e+02	8.8208	17.449333	0.000217	2.170066	0.367619	-0.000022
1125	1.1184e+02	8.8104	17.430188	0.000192	1.924398	0.326002	-0.000019
1126	1.1194e+02	8.7988	17.409006	0.000213	2.129121	0.360683	-0.000021
1127	1.1204e+02	8.7931	17.389046	0.000201	2.006287	0.339874	-0.000020
1128	1.1214e+02	8.7811	17.369901	0.000192	1.924398	0.326002	-0.000019
1129	1.1224e+02	8.7713	17.344646	0.000254	2.538568	0.430045	-0.000025
1130	1.1234e+02	8.7631	17.325093	0.000197	1.965343	0.332938	-0.000020
1131	1.1244e+02	8.7508	17.307578	0.000176	1.760620	0.298257	-0.000018
1132	1.1253e+02	8.7413	17.284766	0.000229	2.292900	0.388428	-0.000023
1133	1.1263e+02	8.7317	17.267251	0.000176	1.760620	0.298257	-0.000018
1134	1.1273e+02	8.7226	17.246069	0.000213	2.129121	0.360683	-0.000021
1135	1.1283e+02	8.7128	17.228553	0.000176	1.760620	0.298257	-0.000018
1136	1.1293e+02	8.7015	17.206964	0.000217	2.170066	0.367619	-0.000022
1137	1.1303e+02	8.6959	17.188634	0.000184	1.842509	0.312129	-0.000018
1138	1.1313e+02	8.6816	17.165415	0.000233	2.333845	0.395364	-0.000023
1139	1.1323e+02	8.6723	17.146270	0.000192	1.924398	0.326002	-0.000019
1140	1.1333e+02	8.6618	17.127125	0.000192	1.924398	0.326002	-0.000019
1141	1.1343e+02	8.6499	17.104721	0.000225	2.251955	0.381492	-0.000023
1142	1.1353e+02	8.6423	17.085169	0.000197	1.965343	0.332938	-0.000020
1143	1.1363e+02	8.6333	17.066431	0.000188	1.883454	0.319066	-0.000019
1144	1.1373e+02	8.6203	17.048915	0.000176	1.760620	0.298257	-0.000018
1145	1.1383e+02	8.6135	17.027733	0.000213	2.129121	0.360683	-0.000021
1146	1.1393e+02	8.6010	17.001256	0.000266	2.661402	0.450854	-0.000027
1147	1.1403e+02	8.5922	16.987814	0.000135	1.351173	0.228895	-0.000014
1148	1.1413e+02	8.5843	16.961744	0.000262	2.620457	0.443917	-0.000026
1149	1.1423e+02	8.5744	16.943413	0.000184	1.842509	0.312129	-0.000018
1150	1.1433e+02	8.5632	16.925490	0.000180	1.801564	0.305193	-0.000018
1151	1.1442e+02	8.5551	16.903901	0.000217	2.170066	0.367619	-0.000022
1152	1.1452e+02	8.5425	16.882719	0.000213	2.129121	0.360683	-0.000021
1153	1.1462e+02	8.5310	16.859501	0.000233	2.333845	0.395364	-0.000023
1154	1.1472e+02	8.5215	16.839134	0.000205	2.047232	0.346811	-0.000020
1155	1.1482e+02	8.5127	16.820803	0.000184	1.842509	0.312129	-0.000018
1156	1.1492e+02	8.5035	16.800844	0.000201	2.006287	0.339874	-0.000020
1157	1.1502e+02	8.4953	16.775181	0.000258	2.579512	0.436981	-0.000026
1158	1.1512e+02	8.4843	16.757258	0.000180	1.801564	0.305193	-0.000018
1159	1.1522e+02	8.4760	16.736483	0.000209	2.088177	0.353747	-0.000021
1160	1.1532e+02	8.4621	16.716116	0.000205	2.047232	0.346811	-0.000020
1161	1.1542e+02	8.4517	16.699008	0.000172	1.719675	0.291321	-0.000017
1162	1.1552e+02	8.4397	16.673753	0.000254	2.538568	0.430045	-0.000025
1163	1.1562e+02	8.4327	16.652978	0.000209	2.088177	0.353747	-0.000021
1164	1.1572e+02	8.4229	16.633426	0.000197	1.965343	0.332938	-0.000020
1165	1.1582e+02	8.4123	16.613873	0.000197	1.965343	0.332938	-0.000020
1166	1.1592e+02	8.4019	16.591469	0.000225	2.251955	0.381492	-0.000023
1167	1.1602e+02	8.3916	16.574768	0.000168	1.678730	0.284385	-0.000017
1168	1.1612e+02	8.3845	16.556845	0.000180	1.801564	0.305193	-0.000018
1169	1.1622e+02	8.3751	16.539737	0.000172	1.719675	0.291321	-0.000017
1170	1.1632e+02	8.3619	16.516518	0.000233	2.333845	0.395364	-0.000023
1171	1.1642e+02	8.3536	16.495744	0.000209	2.088177	0.353747	-0.000021
1172	1.1651e+02	8.3449	16.476599	0.000192	1.924398	0.326002	-0.000019
1173	1.1661e+02	8.3350	16.455417	0.000213	2.129121	0.360683	-0.000021
1174	1.1671e+02	8.3241	16.434643	0.000209	2.088177	0.353747	-0.000021
1175	1.1681e+02	8.3158	16.417534	0.000172	1.719675	0.291321	-0.000017
1176	1.1691e+02	8.3042	16.399204	0.000184	1.842509	0.312129	-0.000018
1177	1.1701e+02	8.2950	16.380873	0.000184	1.842509	0.312129	-0.000018
1178	1.1711e+02	8.2833	16.355211	0.000258	2.579512	0.436981	-0.000026
1179	1.1721e+02	8.2723	16.339324	0.000160	1.596841	0.270512	-0.000016
1180	1.1731e+02	8.2655	16.319772	0.000197	1.965343	0.332938	-0.000020
1181	1.1741e+02	8.2523	16.296553	0.000233	2.333845	0.395364	-0.000023
1182	1.1751e+02	8.2423	16.276594	0.000201	2.006287	0.339874	-0.000020
1183	1.1761e+02	8.2343	16.258263	0.000184	1.842509	0.312129	-0.000018
1184	1.1771e+02	8.2244	16.233823	0.000246	2.456679	0.416173	-0.000025
1185	1.1781e+02	8.2136	16.211012	0.000229	2.292900	0.388428	-0.000023
1186	1.1791e+02	8.2045	16.193088	0.000180	1.801564	0.305193	-0.000018
1187	1.1801e+02	8.1962	16.169870	0.000233	2.333845	0.395364	-0.000023
1188	1.1811e+02	8.1837	16.145022	0.000250	2.497623	0.423109	-0.000025
1189	1.1821e+02	8.1726	16.120989	0.000242	2.415734	0.409236	-0.000024
1190	1.1831e+02	8.1636	16.101029	0.000201	2.006287	0.339874	-0.000020
1191	1.1841e+02	8.1532	16.076588	0.000246	2.456679	0.416173	-0.000025
1192	1.1850e+02	8.1445	16.056629	0.000201	2.006287	0.339874	-0.000020
1193	1.1860e+02	8.1348	16.035040	0.000217	2.170066	0.367619	-0.000022
1194	1.1870e+02	8.1219	16.011821	0.000233	2.333845	0.395364	-0.000023
1195	1.1880e+02	8.1177	15.993083	0.000188	1.883454	0.319066	-0.000019
1196	1.1890e+02	8.1024	15.970679	0.000225	2.251955	0.381492	-0.000023
1197	1.1900e+02	8.0933	15.947461	0.000233	2.333845	0.395364	-0.000023
1198	1.1910e+02	8.0846	15.925872	0.000217	2.170066	0.367619	-0.000022
1199	1.1920e+02	8.0769	15.907949	0.000180	1.801564	0.305193	-0.000018
1200	1.1930e+02	8.0640	15.885137	0.000229	2.292900	0.388428	-0.000023
1201	1.1940e+02	8.0550	15.863548	0.000217	2.170066	0.367619	-0.000022
1202	1.1950e+02	8.0463	15.841552	0.000221	2.211011	0.374555	-0.000022
1203	1.1960e+02	8.0334	15.815482	0.000262	2.620457	0.443917	-0.000026
1204	1.1970e+02	8.0286	15.798374	0.000172	1.719675	0.291321	-0.000017
1205	1.1980e+02	8.0161	15.775155	0.000233	2.333845	0.395364	-0.000023
1206	1.1990e+02	8.0041	15.756825	0.000184	1.842509	0.312129	-0.000018
1207	1.2000e+02	7.9959	15.732384	0.000246	2.456679	0.416173	-0.000025
1208	1.2010e+02	7.9834	15.711202	0.000213	2.129121	0.360683	-0.000021
1209	1.2020e+02	7.9774	15.690428	0.000209	2.088177	0.353747	-0.000021
1210	1.2030e+02	7.9643	15.665580	0.000250	2.497623	0.423109	-0.000025
1211	1.2039e+02	7.9551	15.646435	0.000192	1.924398	0.326002	-0.000019
1212	1.2049e+02	7.9456	15.621587	0.000250	2.497623	0.423109	-0.000025
1213	1.2059e+02	7.9377	15.598368	0.000233	2.333845	0.395364	-0.000023
1214	1.2069e+02	7.9258	15.573928	0.000246	2.456679	0.416173	-0.000025
1215	1.2079e+02	7.9153	15.546636	0.000274	2.743291	0.464726	-0.000027
1216	1.2089e+02	7.9066	15.527083	0.000197	1.965343	0.332938	-0.000020
1217	1.2099e+02	7.8947	15.500199	0.000270	2.702346	0.457790	-0.000027
1218	1.2109e+02	7.8858	15.478202	0.000221	2.211011	0.374555	-0.000022
1219	1.2119e+02	7.8762	15.454169	0.000242	2.415734	0.409236	-0.000024
1220	1.2129e+02	7.8658	15.430543	0.000237	2.374789	0.402300	-0.000024
1221	1.2139e+02	7.8541	15.405288	0.000254	2.538568	0.430045	-0.000025
1222	1.2149e+02	7.8509	15.377181	0.000283	2.825180	0.478599	-0.000028
1223	1.2159e+02	7.8359	15.356000	0.000213	2.129121	0.360683	-0.000021
1224	1.2169e+02	7.8271	15.328708	0.000274	2.743291	0.464726	-0.000027
1225	1.2179e+02	7.8174	15.305489	0.000233	2.333845	0.395364	-0.000023
1226	1.2189e+02	7.8059	15.276160	0.000295	2.948014	0.499407	-0.000029
1227	1.2199e+02	7.7980	15.252942	0.000233	2.333845	0.395364	-0.000023
1228	1.2209e+02	7.7850	15.229316	0.000237	2.374789	0.402300	-0.000024
1229	1.2219e+02	7.7739	15.202839	0.000266	2.661402	0.450854	-0.000027
1230	1.2229e+02	7.7651	15.176361	0.000266	2.661402	0.450854	-0.000027
1231	1.2239e+02	7.7569	15.155180	0.000213	2.129121	0.360683	-0.000021
1232	1.2248e+02	7.7444	15.127888	0.000274	2.743291	0.464726	-0.000027
1233	1.2258e+02	7.7357	15.099781	0.000283	2.825180	0.478599	-0.000028
1234	1.2268e+02	7.7273	15.074933	0.000250	2.497623	0.423109	-0.000025
1235	1.2278e+02	7.7164	15.052122	0.000229	2.292900	0.388428	-0.000023
1236	1.2288e+02	7.7061	15.026867	0.000254	2.538568	0.430045	-0.000025
1237	1.2298e+02	7.6965	14.998353	0.000287	2.866125	0.485535	-0.000029
1238	1.2308e+02	7.6848	14.971875	0.000266	2.661402	0.450854	-0.000027
1239	1.2318e+02	7.6771	14.943769	0.000283	2.825180	0.478599	-0.000028
1240	1.2328e+02	7.6672	14.923402	0.000205	2.047232	0.346811	-0.000020
1241	1.2338e+02	7.6543	14.897332	0.000262	2.620457	0.443917	-0.000026
1242	1.2348e+02	7.6468	14.868818	0.000287	2.866125	0.485535	-0.000029
1243	1.2358e+02	7.6380	14.846821	0.000221	2.211011	0.374555	-0.000022
1244	1.2368e+02	7.6261	14.821159	0.000258	2.579512	0.436981	-0.000026
1245	1.2378e+02	7.6164	14.795089	0.000262	2.620457	0.443917	-0.000026
1246	1.2388e+02	7.6082	14.764945	0.000303	3.029904	0.513280	-0.000030
1247	1.2398e+02	7.5977	14.742949	0.000221	2.211011	0.374555	-0.000022
1248	1.2408e+02	7.5879	14.714842	0.000283	2.825180	0.478599	-0.000028
1249	1.2418e+02	7.5781	14.686736	0.000283	2.825180	0.478599	-0.000028
1250	1.2428e+02	7.5690	14.661073	0.000258	2.579512	0.436981	-0.000026
1251	1.2438e+02	7.5610	14.628893	0.000323	3.234627	0.547961	-0.000032
1252	1.2447e+02	7.5478	14.603230	0.000258	2.579512	0.436981	-0.000026
1253	1.2457e+02	7.5375	14.573902	0.000295	2.948014	0.499407	-0.000029
1254	1.2467e+02	7.5289	14.544573	0.000295	2.948014	0.499407	-0.000029
1255	1.2477e+02	7.5160	14.519318	0.000254	2.538568	0.430045	-0.000025
1256	1.2487e+02	7.5057	14.486323	0.000332	3.316516	0.561833	-0.000033
1257	1.2497e+02	7.4976	14.465141	0.000213	2.129121	0.360683	-0.000021
1258	1.2507e+02	7.4899	14.434183	0.000311	3.111793	0.527152	-0.000031
1259	1.2517e+02	7.4770	14.408928	0.000254	2.538568	0.430045	-0.000025
1260	1.2527e+02	7.4683	14.377563	0.000315	3.152737	0.534088	-0.000032
1261	1.2537e+02	7.4577	14.349456	0.000283	2.825180	0.478599	-0.000028
1262	1.2547e+02	7.4483	14.320942	0.000287	2.866125	0.485535	-0.000029
1263	1.2557e+02	7.4382	14.292428	0.000287	2.866125	0.485535	-0.000029
1264	1.2567e+02	7.4288	14.265951	0.000266	2.661402	0.450854	-0.000027
1265	1.2577e+02	7.4174	14.235807	0.000303	3.029904	0.513280	-0.000030
1266	1.2587e+02	7.4087	14.208516	0.000274	2.743291	0.464726	-0.000027
1267	1.2597e+02	7.3994	14.180816	0.000278	2.784236	0.471662	-0.000028
1268	1.2607e+02	7.3863	14.154746	0.000262	2.620457	0.443917	-0.000026
1269	1.2617e+02	7.3782	14.125010	0.000299	2.988959	0.506343	-0.000030
1270	1.2627e+02	7.3676	14.102199	0.000229	2.292900	0.388428	-0.000023
1271	1.2636e+02	7.3579	14.074907	0.000274	2.743291	0.464726	-0.000027
1272	1.2646e+02	7.3490	14.045986	0.000291	2.907070	0.492471	-0.000029
1273	1.2656e+02	7.3402	14.019101	0.000270	2.702346	0.457790	-0.000027
1274	1.2666e+02	7.3302	13.993846	0.000254	2.538568	0.430045	-0.000025
1275	1.2676e+02	7.3197	13.968591	0.000254	2.538568	0.430045	-0.000025
1276	1.2686e+02	7.3080	13.938040	0.000307	3.070848	0.520216	-0.000031
1277	1.2696e+02	7.2993	13.912785	0.000254	2.538568	0.430045	-0.000025
1278	1.2706e+02	7.2890	13.885493	0.000274	2.743291	0.464726	-0.000027
1279	1.2716e+02	7.2766	13.856164	0.000295	2.948014	0.499407	-0.000029
1280	1.2726e+02	7.2698	13.830502	0.000258	2.579512	0.436981	-0.000026
1281	1.2736e+02	7.2616	13.799136	0.000315	3.152737	0.534088	-0.000032
1282	1.2746e+02	7.2499	13.773881	0.000254	2.538568	0.430045	-0.000025
1283	1.2756e+02	7.2385	13.744960	0.000291	2.907070	0.492471	-0.000029
1284	1.2766e+02	7.2280	13.720519	0.000246	2.456679	0.416173	-0.000025
1285	1.2776e+02	7.2246	13.688746	0.000319	3.193682	0.541024	-0.000032
1286	1.2786e+02	7.2091	13.659010	0.000299	2.988959	0.506343	-0.000030
1287	1.2796e+02	7.1984	13.631718	0.000274	2.743291	0.464726	-0.000027
1288	1.2806e+02	7.1887	13.602797	0.000291	2.907070	0.492471	-0.000029
1289	1.2816e+02	7.1786	13.575098	0.000278	2.784236	0.471662	-0.000028
1290	1.2826e+02	7.1680	13.546584	0.000287	2.866125	0.485535	-0.000029
1291	1.2835e+02	7.1577	13.519292	0.000274	2.743291	0.464726	-0.000027
1292	1.2845e+02	7.1502	13.490371	0.000291	2.907070	0.492471	-0.000029
1293	1.2855e+02	7.1383	13.465115	0.000254	2.538568	0.430045	-0.000025
1294	1.2865e+02	7.1295	13.434157	0.000311	3.111793	0.527152	-0.000031
1295	1.2875e+02	7.1191	13.406051	0.000283	2.825180	0.478599	-0.000028
1296	1.2885e+02	7.1111	13.376315	0.000299	2.988959	0.506343	-0.000030
1297	1.2895e+02	7.0995	13.353911	0.000225	2.251955	0.381492	-0.000023
1298	1.2905e+02	7.0872	13.320916	0.000332	3.316516	0.561833	-0.000033
1299	1.2915e+02	7.0806	13.300142	0.000209	2.088177	0.353747	-0.000021
1300	1.2925e+02	7.0703	13.271628	0.000287	2.866125	0.485535	-0.000029
1301	1.2935e+02	7.0589	13.241892	0.000299	2.988959	0.506343	-0.000030
1302	1.2945e+02	7.0504	13.219895	0.000221	2.211011	0.374555	-0.000022
1303	1.2955e+02	7.0407	13.193825	0.000262	2.620457	0.443917	-0.000026
1304	1.2965e+02	7.0290	13.166126	0.000278	2.784236	0.471662	-0.000028
1305	1.2975e+02	7.0222	13.142500	0.000237	2.374789	0.402300	-0.000024
1306	1.2985e+02	7.0128	13.115208	0.000274	2.743291	0.464726	-0.000027
1307	1.2995e+02	6.9994	13.088731	0.000266	2.661402	0.450854	-0.000027
1308	1.3005e+02	6.9910	13.062254	0.000266	2.661402	0.450854	-0.000027
1309	1.3015e+02	6.9801	13.034962	0.000274	2.743291	0.464726	-0.000027
1310	1.3025e+02	6.9715	13.007670	0.000274	2.743291	0.464726	-0.000027
1311	1.3034e+02	6.9600	12.982007	0.000258	2.579512	0.436981	-0.000026
1312	1.3044e+02	6.9494	12.957974	0.000242	2.415734	0.409236	-0.000024
1313	1.3054e+02	6.9404	12.931089	0.000270	2.702346	0.457790	-0.000027
1314	1.3064e+02	6.9300	12.907871	0.000233	2.333845	0.395364	-0.000023
1315	1.3074e+02	6.9234	12.878542	0.000295	2.948014	0.499407	-0.000029
1316	1.3084e+02	6.9103	12.855324	0.000233	2.333845	0.395364	-0.000023
1317	1.3094e+02	6.9006	12.825180	0.000303	3.029904	0.513280	-0.000030
1318	1.3104e+02	6.8939	12.799925	0.000254	2.538568	0.430045	-0.000025
1319	1.3114e+02	6.8810	12.776299	0.000237	2.374789	0.402300	-0.000024
1320	1.3124e+02	6.8713	12.750637	0.000258	2.579512	0.436981	-0.000026
1321	1.3134e+02	6.8609	12.719679	0.000311	3.111793	0.527152	-0.000031
1322	1.3144e+02	6.8517	12.694831	0.000250	2.497623	0.423109	-0.000025
1323	1.3154e+02	6.8414	12.672427	0.000225	2.251955	0.381492	-0.000023
1324	1.3164e+02	6.8307	12.640247	0.000323	3.234627	0.547961	-0.000032
1325	1.3174e+02	6.8203	12.615806	0.000246	2.456679	0.416173	-0.000025
1326	1.3184e+02	6.8115	12.592180	0.000237	2.374789	0.402300	-0.000024
1327	1.3194e+02	6.8024	12.564481	0.000278	2.784236	0.471662	-0.000028
1328	1.3204e+02	6.7883	12.539226	0.000254	2.538568	0.430045	-0.000025
1329	1.3214e+02	6.7818	12.509897	0.000295	2.948014	0.499407	-0.000029
1330	1.3224e+02	6.7725	12.485864	0.000242	2.415734	0.409236	-0.000024
1331	1.3234e+02	6.7629	12.461831	0.000242	2.415734	0.409236	-0.000024
1332	1.3243e+02	6.7505	12.436983	0.000250	2.497623	0.423109	-0.000025
1333	1.3253e+02	6.7432	12.409691	0.000274	2.743291	0.464726	-0.000027
1334	1.3263e+02	6.7306	12.389324	0.000205	2.047232	0.346811	-0.000020
1335	1.3273e+02	6.7205	12.367735	0.000217	2.170066	0.367619	-0.000022
1336	1.3283e+02	6.7114	12.341257	0.000266	2.661402	0.450854	-0.000027
1337	1.3293e+02	6.7004	12.315595	0.000258	2.579512	0.436981	-0.000026
1338	1.3303e+02	6.6920	12.288303	0.000274	2.743291	0.464726	-0.000027
1339	1.3313e+02	6.6814	12.264270	0.000242	2.415734	0.409236	-0.000024
1340	1.3323e+02	6.6699	12.241458	0.000229	2.292900	0.388428	-0.000023
1341	1.3333e+02	6.6599	12.213352	0.000283	2.825180	0.478599	-0.000028
1342	1.3343e+02	6.6525	12.188096	0.000254	2.538568	0.430045	-0.000025
1343	1.3353e+02	6.6425	12.161619	0.000266	2.661402	0.450854	-0.000027
1344	1.3363e+02	6.6332	12.138401	0.000233	2.333845	0.395364	-0.000023
1345	1.3373e+02	6.6211	12.113553	0.000250	2.497623	0.423109	-0.000025
1346	1.3383e+02	6.6122	12.089520	0.000242	2.415734	0.409236	-0.000024
1347	1.3393e+02	6.6017	12.065486	0.000242	2.415734	0.409236	-0.000024
1348	1.3403e+02	6.5932	12.042268	0.000233	2.333845	0.395364	-0.000023
1349	1.3413e+02	6.5826	12.016198	0.000262	2.620457	0.443917	-0.000026
1350	1.3423e+02	6.5737	11.990128	0.000262	2.620457	0.443917	-0.000026
1351	1.3432e+02	6.5603	11.966502	0.000237	2.374789	0.402300	-0.000024
1352	1.3442e+02	6.5548	11.935544	0.000311	3.111793	0.527152	-0.000031
1353	1.3452e+02	6.5446	11.911918	0.000237	2.374789	0.402300	-0.000024
1354	1.3462e+02	6.5328	11.881775	0.000303	3.029904	0.513280	-0.000030
1355	1.3472e+02	6.5221	11.856520	0.000254	2.538568	0.430045	-0.000025
1356	1.3482e+02	6.5151	11.829228	0.000274	2.743291	0.464726	-0.000027
1357	1.3492e+02	6.5012	11.803972	0.000254	2.538568	0.430045	-0.000025
1358	1.3502e+02	6.4907	11.775051	0.000291	2.907070	0.492471	-0.000029
1359	1.3512e+02	6.4826	11.747759	0.000274	2.743291	0.464726	-0.000027
1360	1.3522e+02	6.4735	11.721282	0.000266	2.661402	0.450854	-0.000027
1361	1.3532e+02	6.4645	11.693990	0.000274	2.743291	0.464726	-0.000027
1362	1.3542e+02	6.4543	11.667105	0.000270	2.702346	0.457790	-0.000027
1363	1.3552e+02	6.4437	11.646331	0.000209	2.088177	0.353747	-0.000021
1364	1.3562e+02	6.4339	11.622298	0.000242	2.415734	0.409236	-0.000024
1365	1.3572e+02	6.4245	11.593784	0.000287	2.866125	0.485535	-0.000029
1366	1.3582e+02	6.4140	11.565270	0.000287	2.866125	0.485535	-0.000029
1367	1.3592e+02	6.4014	11.541237	0.000242	2.415734	0.409236	-0.000024
1368	1.3602e+02	6.3943	11.515167	0.000262	2.620457	0.443917	-0.000026
1369	1.3612e+02	6.3840	11.487467	0.000278	2.784236	0.471662	-0.000028
1370	1.3622e+02	6.3721	11.463027	0.000246	2.456679	0.416173	-0.000025
1371	1.3631e+02	6.3610	11.434513	0.000287	2.866125	0.485535	-0.000029
1372	1.3641e+02	6.3567	11.406406	0.000283	2.825180	0.478599	-0.000028
1373	1.3651e+02	6.3423	11.382373	0.000242	2.415734	0.409236	-0.000024
1374	1.3661e+02	6.3319	11.355081	0.000274	2.743291	0.464726	-0.000027
1375	1.3671e+02	6.3231	11.329826	0.000254	2.538568	0.430045	-0.000025
1376	1.3681e+02	6.3141	11.303756	0.000262	2.620457	0.443917	-0.000026
1377	1.3691e+02	6.3073	11.275242	0.000287	2.866125	0.485535	-0.000029
1378	1.3701e+02	6.2974	11.254467	0.000209	2.088177	0.353747	-0.000021
1379	1.3711e+02	6.2847	11.220251	0.000344	3.439350	0.582642	-0.000034
1380	1.3721e+02	6.2746	11.198661	0.000217	2.170066	0.367619	-0.000022
1381	1.3731e+02	6.2646	11.170962	0.000278	2.784236	0.471662	-0.000028
1382	1.3741e+02	6.2547	11.142855	0.000283	2.825180	0.478599	-0.000028
1383	1.3751e+02	6.2421	11.112712	0.000303	3.029904	0.513280	-0.000030
1384	1.3761e+02	6.2347	11.085013	0.000278	2.784236	0.471662	-0.000028
1385	1.3771e+02	6.2257	11.058943	0.000262	2.620457	0.443917	-0.000026
1386	1.3781e+02	6.2138	11.025133	0.000340	3.398405	0.575705	-0.000034
1387	1.3791e+02	6.2035	10.997434	0.000278	2.784236	0.471662	-0.000028
1388	1.3801e+02	6.1942	10.970142	0.000274	2.743291	0.464726	-0.000027
1389	1.3811e+02	6.1849	10.937962	0.000323	3.234627	0.547961	-0.000032
1390	1.3821e+02	6.1742	10.909041	0.000291	2.907070	0.492471	-0.000029
1391	1.3831e+02	6.1642	10.880120	0.000291	2.907070	0.492471	-0.000029
1392	1.3840e+02	6.1550	10.852420	0.000278	2.784236	0.471662	-0.000028
1393	1.3850e+02	6.1451	10.820240	0.000323	3.234627	0.547961	-0.000032
1394	1.3860e+02	6.1330	10.793356	0.000270	2.702346	0.457790	-0.000027
1395	1.3870e+02	6.1243	10.762398	0.000311	3.111793	0.527152	-0.000031
1396	1.3880e+02	6.1138	10.734291	0.000283	2.825180	0.478599	-0.000028
1397	1.3890e+02	6.1034	10.703740	0.000307	3.070848	0.520216	-0.000031
1398	1.3900e+02	6.0954	10.674819	0.000291	2.907070	0.492471	-0.000029
1399	1.3910e+02	6.0844	10.646305	0.000287	2.866125	0.485535	-0.000029
1400	1.3920e+02	6.0748	10.618198	0.000283	2.825180	0.478599	-0.000028
1401	1.3930e+02	6.0663	10.581945	0.000364	3.644073	0.617323	-0.000036
1402	1.3940e+02	6.0545	10.557504	0.000246	2.456679	0.416173	-0.000025
1403	1.3950e+02	6.0474	10.524510	0.000332	3.316516	0.561833	-0.000033
1404	1.3960e+02	6.0345	10.493959	0.000307	3.070848	0.520216	-0.000031
1405	1.3970e+02	6.0262	10.465037	0.000291	2.907070	0.492471	-0.000029
1406	1.3980e+02	6.0152	10.435301	0.000299	2.988959	0.506343	-0.000030
1407	1.3990e+02	6.0047	10.403121	0.000323	3.234627	0.547961	-0.000032
1408	1.4000e+02	5.9961	10.373385	0.000299	2.988959	0.506343	-0.000030
1409	1.4010e+02	5.9853	10.344871	0.000287	2.866125	0.485535	-0.000029
1410	1.4020e+02	5.9750	10.315135	0.000299	2.988959	0.506343	-0.000030
1411	1.4029e+02	5.9680	10.287436	0.000278	2.784236	0.471662	-0.000028
1412	1.4039e+02	5.9573	10.255663	0.000319	3.193682	0.541024	-0.000032
1413	1.4049e+02	5.9473	10.225520	0.000303	3.029904	0.513280	-0.000030
1414	1.4059e+02	5.9367	10.193747	0.000319	3.193682	0.541024	-0.000032
1415	1.4069e+02	5.9246	10.162789	0.000311	3.111793	0.527152	-0.000031
1416	1.4079e+02	5.9151	10.131017	0.000319	3.193682	0.541024	-0.000032
1417	1.4089e+02	5.9062	10.095578	0.000356	3.562184	0.603450	-0.000036
1418	1.4099e+02	5.8936	10.067471	0.000283	2.825180	0.478599	-0.000028
1419	1.4109e+02	5.8856	10.031625	0.000360	3.603129	0.610387	-0.000036
1420	1.4119e+02	5.8767	10.003926	0.000278	2.784236	0.471662	-0.000028
1421	1.4129e+02	5.8680	9.967672	0.000364	3.644073	0.617323	-0.000036
1422	1.4139e+02	5.8541	9.938344	0.000295	2.948014	0.499407	-0.000029
1423	1.4149e+02	5.8457	9.902497	0.000360	3.603129	0.610387	-0.000036
1424	1.4159e+02	5.8347	9.873576	0.000291	2.907070	0.492471	-0.000029
1425	1.4169e+02	5.8273	9.842211	0.000315	3.152737	0.534088	-0.000032
1426	1.4179e+02	5.8175	9.809216	0.000332	3.316516	0.561833	-0.000033
1427	1.4189e+02	5.8028	9.774185	0.000352	3.521239	0.596514	-0.000035
1428	1.4199e+02	5.7955	9.743634	0.000307	3.070848	0.520216	-0.000031
1429	1.4209e+02	5.7850	9.711046	0.000328	3.275571	0.554897	-0.000033
1430	1.4219e+02	5.7789	9.678459	0.000328	3.275571	0.554897	-0.000033
1431	1.4228e+02	5.7710	9.646279	0.000323	3.234627	0.547961	-0.000032
1432	1.4238e+02	5.7568	9.614099	0.000323	3.234627	0.547961	-0.000032
1433	1.4248e+02	5.7459	9.577031	0.000373	3.725962	0.631195	-0.000037
1434	1.4258e+02	5.7381	9.543629	0.000336	3.357461	0.568769	-0.000034
1435	1.4268e+02	5.7276	9.515115	0.000287	2.866125	0.485535	-0.000029
1436	1.4278e+02	5.7172	9.488637	0.000266	2.661402	0.450854	-0.000027
1437	1.4288e+02	5.7079	9.452384	0.000364	3.644073	0.617323	-0.000036
1438	1.4298e+02	5.6971	9.419797	0.000328	3.275571	0.554897	-0.000033
1439	1.4308e+02	5.6874	9.387616	0.000323	3.234627	0.547961	-0.000032
1440	1.4318e+02	5.6785	9.358695	0.000291	2.907070	0.492471	-0.000029
1441	1.4328e+02	5.6673	9.329366	0.000295	2.948014	0.499407	-0.000029
1442	1.4338e+02	5.6570	9.298001	0.000315	3.152737	0.534088	-0.000032
1443	1.4348e+02	5.6478	9.269080	0.000291	2.907070	0.492471	-0.000029
1444	1.4358e+02	5.6373	9.235270	0.000340	3.398405	0.575705	-0.000034
1445	1.4368e+02	5.6272	9.201868	0.000336	3.357461	0.568769	-0.000034
1446	1.4378e+02	5.6150	9.172132	0.000299	2.988959	0.506343	-0.000030
1447	1.4388e+02	5.6089	9.140360	0.000319	3.193682	0.541024	-0.000032
1448	1.4398e+02	5.5983	9.105735	0.000348	3.480295	0.589578	-0.000035
1449	1.4408e+02	5.5894	9.069889	0.000360	3.603129	0.610387	-0.000036
1450	1.4418e+02	5.5759	9.040561	0.000295	2.948014	0.499407	-0.000029
1451	1.4428e+02	5.5697	9.009195	0.000315	3.152737	0.534088	-0.000032
1452	1.4437e+02	5.5587	8.975793	0.000336	3.357461	0.568769	-0.000034
1453	1.4447e+02	5.5474	8.947279	0.000287	2.866125	0.485535	-0.000029
1454	1.4457e+02	5.5357	8.914284	0.000332	3.316516	0.561833	-0.000033
1455	1.4467e+02	5.5284	8.880882	0.000336	3.357461	0.568769	-0.000034
1456	1.4477e+02	5.5176	8.850739	0.000303	3.029904	0.513280	-0.000030
1457	1.4487e+02	5.5076	8.814485	0.000364	3.644073	0.617323	-0.000036
1458	1.4497e+02	5.4942	8.784749	0.000299	2.988959	0.506343	-0.000030
1459	1.4507e+02	5.4897	8.750940	0.000340	3.398405	0.575705	-0.000034
1460	1.4517e+02	5.4763	8.718353	0.000328	3.275571	0.554897	-0.000033
1461	1.4527e+02	5.4688	8.685358	0.000332	3.316516	0.561833	-0.000033
1462	1.4537e+02	5.4597	8.652363	0.000332	3.316516	0.561833	-0.000033
1463	1.4547e+02	5.4481	8.621812	0.000307	3.070848	0.520216	-0.000031
1464	1.4557e+02	5.4394	8.590040	0.000319	3.193682	0.541024	-0.000032
1465	1.4567e+02	5.4290	8.556230	0.000340	3.398405	0.575705	-0.000034
1466	1.4577e+02	5.4189	8.527309	0.000291	2.907070	0.492471	-0.000029
1467	1.4587e+02	5.4095	8.494722	0.000328	3.275571	0.554897	-0.000033
1468	1.4597e+02	5.4005	8.462134	0.000328	3.275571	0.554897	-0.000033
1469	1.4607e+02	5.3896	8.434028	0.000283	2.825180	0.478599	-0.000028
1470	1.4617e+02	5.3780	8.399403	0.000348	3.480295	0.589578	-0.000035
1471	1.4626e+02	5.3659	8.368853	0.000307	3.070848	0.520216	-0.000031
1472	1.4636e+02	5.3598	8.345227	0.000237	2.374789	0.402300	-0.000024
1473	1.4646e+02	5.3486	8.314269	0.000311	3.111793	0.527152	-0.000031
1474	1.4656e+02	5.3396	8.278015	0.000364	3.644073	0.617323	-0.000036
1475	1.4666e+02	5.3262	8.254797	0.000233	2.333845	0.395364	-0.000023
1476	1.4676e+02	5.3146	8.218136	0.000369	3.685018	0.624259	-0.000037
1477	1.4686e+02	5.3094	8.189622	0.000287	2.866125	0.485535	-0.000029
1478	1.4696e+02	5.2995	8.162737	0.000270	2.702346	0.457790	-0.000027
1479	1.4706e+02	5.2908	8.133001	0.000299	2.988959	0.506343	-0.000030
1480	1.4716e+02	5.2797	8.099599	0.000336	3.357461	0.568769	-0.000034
1481	1.4726e+02	5.2676	8.067012	0.000328	3.275571	0.554897	-0.000033
1482	1.4736e+02	5.2565	8.034017	0.000332	3.316516	0.561833	-0.000033
1483	1.4746e+02	5.2501	8.007133	0.000270	2.702346	0.457790	-0.000027
1484	1.4756e+02	5.2395	7.974138	0.000332	3.316516	0.561833	-0.000033
1485	1.4766e+02	5.2285	7.946846	0.000274	2.743291	0.464726	-0.000027
1486	1.4776e+02	5.2206	7.915480	0.000315	3.152737	0.534088	-0.000032
1487	1.4786e+02	5.2077	7.883708	0.000319	3.193682	0.541024	-0.000032
1488	1.4796e+02	5.1995	7.852750	0.000311	3.111793	0.527152	-0.000031
1489	1.4806e+02	5.1902	7.824236	0.000287	2.866125	0.485535	-0.000029
1490	1.4816e+02	5.1791	7.793278	0.000311	3.111793	0.527152	-0.000031
1491	1.4825e+02	5.1687	7.761912	0.000315	3.152737	0.534088	-0.000032
1492	1.4835e+02	5.1569	7.728510	0.000336	3.357461	0.568769	-0.000034
1493	1.4845e+02	5.1479	7.699996	0.000287	2.866125	0.485535	-0.000029
1494	1.4855e+02	5.1422	7.673112	0.000270	2.702346	0.457790	-0.000027
1495	1.4865e+02	5.1297	7.640932	0.000323	3.234627	0.547961	-0.000032
1496	1.4875e+02	5.1196	7.611196	0.000299	2.988959	0.506343	-0.000030
1497	1.4885e+02	5.1111	7.576571	0.000348	3.480295	0.589578	-0.000035
1498	1.4895e+02	5.0990	7.548465	0.000283	2.825180	0.478599	-0.000028
1499	1.4905e+02	5.0900	7.517507	0.000311	3.111793	0.527152	-0.000031
1500	1.4915e+02	5.0776	7.490215	0.000274	2.743291	0.464726	-0.000027
1501	1.4925e+02	5.0718	7.464145	0.000262	2.620457	0.443917	-0.000026
1502	1.4935e+02	5.0585	7.430743	0.000336	3.357461	0.568769	-0.000034
1503	1.4945e+02	5.0507	7.403451	0.000274	2.743291	0.464726	-0.000027
1504	1.4955e+02	5.0423	7.375344	0.000283	2.825180	0.478599	-0.000028
1505	1.4965e+02	5.0316	7.347238	0.000283	2.825180	0.478599	-0.000028
1506	1.4975e+02	5.0209	7.313021	0.000344	3.439350	0.582642	-0.000034
1507	1.4985e+02	5.0082	7.288580	0.000246	2.456679	0.416173	-0.000025
1508	1.4995e+02	5.0003	7.254363	0.000344	3.439350	0.582642	-0.000034
1509	1.5005e+02	4.9913	7.230738	0.000237	2.374789	0.402300	-0.000024
1510	1.5015e+02	4.9797	7.198558	0.000323	3.234627	0.547961	-0.000032
1511	1.5025e+02	4.9718	7.167600	0.000311	3.111793	0.527152	-0.000031
1512	1.5034e+02	4.9596	7.140715	0.000270	2.702346	0.457790	-0.000027
1513	1.5044e+02	4.9522	7.109757	0.000311	3.111793	0.527152	-0.000031
1514	1.5054e+02	4.9398	7.083280	0.000266	2.661402	0.450854	-0.000027
1515	1.5064e+02	4.9297	7.049470	0.000340	3.398405	0.575705	-0.000034
1516	1.5074e+02	4.9205	7.026252	0.000233	2.333845	0.395364	-0.000023
1517	1.5084e+02	4.9119	6.996108	0.000303	3.029904	0.513280	-0.000030
1518	1.5094e+02	4.9014	6.959447	0.000369	3.685018	0.624259	-0.000037
1519	1.5104e+02	4.8923	6.934600	0.000250	2.497623	0.423109	-0.000025
1520	1.5114e+02	4.8798	6.898346	0.000364	3.644073	0.617323	-0.000036
1521	1.5124e+02	4.8717	6.870647	0.000278	2.784236	0.471662	-0.000028
1522	1.5134e+02	4.8611	6.838467	0.000323	3.234627	0.547961	-0.000032
1523	1.5144e+02	4.8519	6.806287	0.000323	3.234627	0.547961	-0.000032
1524	1.5154e+02	4.8405	6.774107	0.000323	3.234627	0.547961	-0.000032
1525	1.5164e+02	4.8308	6.744778	0.000295	2.948014	0.499407	-0.000029
1526	1.5174e+02	4.8232	6.710561	0.000344	3.439350	0.582642	-0.000034
1527	1.5184e+02	4.8128	6.680011	0.000307	3.070848	0.520216	-0.000031
1528	1.5194e+02	4.8019	6.649867	0.000303	3.029904	0.513280	-0.000030
1529	1.5204e+02	4.7915	6.619316	0.000307	3.070848	0.520216	-0.000031
1530	1.5214e+02	4.7822	6.584692	0.000348	3.480295	0.589578	-0.000035
1531	1.5224e+02	4.7739	6.555771	0.000291	2.907070	0.492471	-0.000029
1532	1.5233e+02	4.7617	6.524813	0.000311	3.111793	0.527152	-0.000031
1533	1.5243e+02	4.7537	6.494670	0.000303	3.029904	0.513280	-0.000030
1534	1.5253e+02	4.7395	6.465748	0.000291	2.907070	0.492471	-0.000029
1535	1.5263e+02	4.7341	6.435605	0.000303	3.029904	0.513280	-0.000030
1536	1.5273e+02	4.7198	6.407498	0.000283	2.825180	0.478599	-0.000028
1537	1.5283e+02	4.7131	6.373282	0.000344	3.439350	0.582642	-0.000034
1538	1.5293e+02	4.7027	6.337843	0.000356	3.562184	0.603450	-0.000036
1539	1.5303e+02	4.6932	6.308514	0.000295	2.948014	0.499407	-0.000029
1540	1.5313e+02	4.6805	6.281629	0.000270	2.702346	0.457790	-0.000027
1541	1.5323e+02	4.6741	6.249449	0.000323	3.234627	0.547961	-0.000032
1542	1.5333e+02	4.6633	6.219306	0.000303	3.029904	0.513280	-0.000030
1543	1.5343e+02	4.6546	6.185089	0.000344	3.439350	0.582642	-0.000034
1544	1.5353e+02	4.6441	6.154946	0.000303	3.029904	0.513280	-0.000030
1545	1.5363e+02	4.6304	6.123173	0.000319	3.193682	0.541024	-0.000032
1546	1.5373e+02	4.6217	6.090993	0.000323	3.234627	0.547961	-0.000032
1547	1.5383e+02	4.6154	6.060035	0.000311	3.111793	0.527152	-0.000031
1548	1.5393e+02	4.6043	6.029077	0.000311	3.111793	0.527152	-0.000031
1549	1.5403e+02	4.5940	5.995268	0.000340	3.398405	0.575705	-0.000034
1550	1.5413e+02	4.5829	5.962273	0.000332	3.316516	0.561833	-0.000033
1551	1.5422e+02	4.5746	5.927649	0.000348	3.480295	0.589578	-0.000035
1552	1.5432e+02	4.5631	5.895876	0.000319	3.193682	0.541024	-0.000032
1553	1.5442e+02	4.5531	5.862881	0.000332	3.316516	0.561833	-0.000033
1554	1.5452e+02	4.5455	5.829887	0.000332	3.316516	0.561833	-0.000033
1555	1.5462e+02	4.5336	5.798114	0.000319	3.193682	0.541024	-0.000032
1556	1.5472e+02	4.5257	5.759824	0.000385	3.848796	0.652004	-0.000038
1557	1.5482e+02	4.5117	5.727644	0.000323	3.234627	0.547961	-0.000032
1558	1.5492e+02	4.5023	5.692205	0.000356	3.562184	0.603450	-0.000036
1559	1.5502e+02	4.4933	5.659210	0.000332	3.316516	0.561833	-0.000033
1560	1.5512e+02	4.4828	5.625401	0.000340	3.398405	0.575705	-0.000034
1561	1.5522e+02	4.4767	5.590369	0.000352	3.521239	0.596514	-0.000035
1562	1.5532e+02	4.4634	5.556152	0.000344	3.439350	0.582642	-0.000034
1563	1.5542e+02	4.4515	5.523972	0.000323	3.234627	0.547961	-0.000032
1564	1.5552e+02	4.4437	5.490978	0.000332	3.316516	0.561833	-0.000033
1565	1.5562e+02	4.4314	5.451058	0.000401	4.012575	0.679749	-0.000040
1566	1.5572e+02	4.4236	5.422544	0.000287	2.866125	0.485535	-0.000029
1567	1.5582e+02	4.4118	5.385069	0.000377	3.766907	0.638131	-0.000038
1568	1.5592e+02	4.4061	5.349222	0.000360	3.603129	0.610387	-0.000036
1569	1.5602e+02	4.3930	5.313784	0.000356	3.562184	0.603450	-0.000036
1570	1.5612e+02	4.3827	5.279567	0.000344	3.439350	0.582642	-0.000034
1571	1.5622e+02	4.3746	5.247387	0.000323	3.234627	0.547961	-0.000032
1572	1.5631e+02	4.3620	5.207875	0.000397	3.971630	0.672812	-0.000040
1573	1.5641e+02	4.3535	5.179768	0.000283	2.825180	0.478599	-0.000028
1574	1.5651e+02	4.3443	5.141478	0.000385	3.848796	0.652004	-0.000038
1575	1.5661e+02	4.3342	5.108483	0.000332	3.316516	0.561833	-0.000033
1576	1.5671e+02	4.3237	5.071822	0.000369	3.685018	0.624259	-0.000037
1577	1.5681e+02	4.3136	5.035161	0.000369	3.685018	0.624259	-0.000037
1578	1.5691e+02	4.3077	5.006240	0.000291	2.907070	0.492471	-0.000029
1579	1.5701e+02	4.2929	4.967542	0.000389	3.889741	0.658940	-0.000039
1580	1.5711e+02	4.2822	4.932511	0.000352	3.521239	0.596514	-0.000035
1581	1.5721e+02	4.2741	4.899109	0.000336	3.357461	0.568769	-0.000034
1582	1.5731e+02	4.2641	4.862855	0.000364	3.644073	0.617323	-0.000036
1583	1.5741e+02	4.2530	4.821306	0.000418	4.176354	0.707493	-0.000042
1584	1.5751e+02	4.2455	4.787497	0.000340	3.398405	0.575705	-0.000034
1585	1.5761e+02	4.2346	4.748392	0.000393	3.930686	0.665876	-0.000039
1586	1.5771e+02	4.2255	4.710917	0.000377	3.766907	0.638131	-0.000038
1587	1.5781e+02	4.2141	4.673441	0.000377	3.766907	0.638131	-0.000038
1588	1.5791e+02	4.2056	4.634336	0.000393	3.930686	0.665876	-0.000039
1589	1.5801e+02	4.1964	4.598897	0.000356	3.562184	0.603450	-0.000036
1590	1.5811e+02	4.1824	4.561015	0.000381	3.807852	0.645068	-0.000038
1591	1.5821e+02	4.1759	4.523539	0.000377	3.766907	0.638131	-0.000038
1592	1.5830e+02	4.1663	4.485249	0.000385	3.848796	0.652004	-0.000038
1593	1.5840e+02	4.1535	4.451847	0.000336	3.357461	0.568769	-0.000034
1594	1.5850e+02	4.1447	4.415186	0.000369	3.685018	0.624259	-0.000037
1595	1.5860e+02	4.1354	4.376488	0.000389	3.889741	0.658940	-0.000039
1596	1.5870e+02	4.1260	4.340235	0.000364	3.644073	0.617323	-0.000036
1597	1.5880e+02	4.1156	4.300723	0.000397	3.971630	0.672812	-0.000040
1598	1.5890e+02	4.1057	4.264877	0.000360	3.603129	0.610387	-0.000036
1599	1.5900e+02	4.0952	4.229030	0.000360	3.603129	0.610387	-0.000036
1600	1.5910e+02	4.0852	4.185445	0.000438	4.381077	0.742174	-0.000044
1601	1.5920e+02	4.0746	4.150006	0.000356	3.562184	0.603450	-0.000036
1602	1.5930e+02	4.0675	4.116604	0.000336	3.357461	0.568769	-0.000034
1603	1.5940e+02	4.0545	4.078314	0.000385	3.848796	0.652004	-0.000038
1604	1.5950e+02	4.0446	4.039616	0.000389	3.889741	0.658940	-0.000039
1605	1.5960e+02	4.0357	4.005807	0.000340	3.398405	0.575705	-0.000034
1606	1.5970e+02	4.0234	3.969146	0.000369	3.685018	0.624259	-0.000037
1607	1.5980e+02	4.0157	3.934522	0.000348	3.480295	0.589578	-0.000035
1608	1.5990e+02	4.0051	3.895009	0.000397	3.971630	0.672812	-0.000040
1609	1.6000e+02	3.9956	3.861607	0.000336	3.357461	0.568769	-0.000034
1610	1.6010e+02	3.9858	3.824132	0.000377	3.766907	0.638131	-0.000038
1611	1.6019e+02	3.9761	3.787064	0.000373	3.725962	0.631195	-0.000037
1612	1.6029e+02	3.9663	3.748774	0.000385	3.848796	0.652004	-0.000038
1613	1.6039e+02	3.9587	3.712927	0.000360	3.603129	0.610387	-0.000036
1614	1.6049e+02	3.9453	3.678303	0.000348	3.480295	0.589578	-0.000035
1615	1.6059e+02	3.9357	3.640420	0.000381	3.807852	0.645068	-0.000038
1616	1.6069e+02	3.9282	3.600501	0.000401	4.012575	0.679749	-0.000040
1617	1.6079e+02	3.9155	3.565877	0.000348	3.480295	0.589578	-0.000035
1618	1.6089e+02	3.9072	3.528809	0.000373	3.725962	0.631195	-0.000037
1619	1.6099e+02	3.8938	3.486852	0.000422	4.217298	0.714430	-0.000042
1620	1.6109e+02	3.8879	3.450599	0.000364	3.644073	0.617323	-0.000036
1621	1.6119e+02	3.8793	3.414345	0.000364	3.644073	0.617323	-0.000036
1622	1.6129e+02	3.8670	3.378499	0.000360	3.603129	0.610387	-0.000036
1623	1.6139e+02	3.8579	3.343468	0.000352	3.521239	0.596514	-0.000035
1624	1.6149e+02	3.8470	3.304363	0.000393	3.930686	0.665876	-0.000039
1625	1.6159e+02	3.8361	3.264036	0.000405	4.053520	0.686685	-0.000041
1626	1.6169e+02	3.8257	3.224116	0.000401	4.012575	0.679749	-0.000040
1627	1.6179e+02	3.8151	3.184604	0.000397	3.971630	0.672812	-0.000040
1628	1.6189e+02	3.8059	3.147129	0.000377	3.766907	0.638131	-0.000038
1629	1.6199e+02	3.7962	3.108431	0.000389	3.889741	0.658940	-0.000039
1630	1.6209e+02	3.7864	3.073400	0.000352	3.521239	0.596514	-0.000035
1631	1.6219e+02	3.7763	3.036739	0.000369	3.685018	0.624259	-0.000037
1632	1.6228e+02	3.7671	3.000078	0.000369	3.685018	0.624259	-0.000037
1633	1.6238e+02	3.7574	2.965454	0.000348	3.480295	0.589578	-0.000035
1634	1.6248e+02	3.7466	2.930015	0.000356	3.562184	0.603450	-0.000036
1635	1.6258e+02	3.7381	2.892539	0.000377	3.766907	0.638131	-0.000038
1636	1.6268e+02	3.7266	2.858323	0.000344	3.439350	0.582642	-0.000034
1637	1.6278e+02	3.7166	2.823699	0.000348	3.480295	0.589578	-0.000035
1638	1.6288e+02	3.7070	2.784186	0.000397	3.971630	0.672812	-0.000040
1639	1.6298e+02	3.6970	2.749155	0.000352	3.521239	0.596514	-0.000035
1640	1.6308e+02	3.6854	2.716567	0.000328	3.275571	0.554897	-0.000033
1641	1.6318e+02	3.6787	2.677870	0.000389	3.889741	0.658940	-0.000039
1642	1.6328e+02	3.6689	2.640802	0.000373	3.725962	0.631195	-0.000037
1643	1.6338e+02	3.6568	2.603326	0.000377	3.766907	0.638131	-0.000038
1644	1.6348e+02	3.6468	2.567480	0.000360	3.603129	0.610387	-0.000036
1645	1.6358e+02	3.6395	2.531227	0.000364	3.644073	0.617323	-0.000036
1646	1.6368e+02	3.6275	2.497417	0.000340	3.398405	0.575705	-0.000034
1647	1.6378e+02	3.6171	2.461978	0.000356	3.562184	0.603450	-0.000036
1648	1.6388e+02	3.6044	2.423688	0.000385	3.848796	0.652004	-0.000038
1649	1.6398e+02	3.5986	2.389879	0.000340	3.398405	0.575705	-0.000034
1650	1.6408e+02	3.5862	2.351181	0.000389	3.889741	0.658940	-0.000039
1651	1.6418e+02	3.5809	2.316557	0.000348	3.480295	0.589578	-0.000035
1652	1.6427e+02	3.5670	2.280304	0.000364	3.644073	0.617323	-0.000036
1653	1.6437e+02	3.5573	2.247309	0.000332	3.316516	0.561833	-0.000033
1654	1.6447e+02	3.5478	2.209833	0.000377	3.766907	0.638131	-0.000038
1655	1.6457e+02	3.5387	2.172765	0.000373	3.725962	0.631195	-0.000037
1656	1.6467e+02	3.5300	2.141807	0.000311	3.111793	0.527152	-0.000031
1657	1.6477e+02	3.5170	2.101073	0.000409	4.094464	0.693621	-0.000041
1658	1.6487e+02	3.5099	2.061561	0.000397	3.971630	0.672812	-0.000040
1659	1.6497e+02	3.4995	2.027751	0.000340	3.398405	0.575705	-0.000034
1660	1.6507e+02	3.4882	1.992720	0.000352	3.521239	0.596514	-0.000035
1661	1.6517e+02	3.4795	1.955244	0.000377	3.766907	0.638131	-0.000038
1662	1.6527e+02	3.4664	1.919398	0.000360	3.603129	0.610387	-0.000036
1663	1.6537e+02	3.4573	1.885996	0.000336	3.357461	0.568769	-0.000034
1664	1.6547e+02	3.4495	1.848928	0.000373	3.725962	0.631195	-0.000037
1665	1.6557e+02	3.4405	1.813082	0.000360	3.603129	0.610387	-0.000036
1666	1.6567e+02	3.4296	1.780494	0.000328	3.275571	0.554897	-0.000033
1667	1.6577e+02	3.4197	1.742611	0.000381	3.807852	0.645068	-0.000038
1668	1.6587e+02	3.4103	1.708802	0.000340	3.398405	0.575705	-0.000034
1669	1.6597e+02	3.4014	1.672549	0.000364	3.644073	0.617323	-0.000036
1670	1.6607e+02	3.3894	1.637517	0.000352	3.521239	0.596514	-0.000035
1671	1.6616e+02	3.3785	1.601264	0.000364	3.644073	0.617323	-0.000036
1672	1.6626e+02	3.3675	1.570713	0.000307	3.070848	0.520216	-0.000031
1673	1.6636e+02	3.3572	1.535681	0.000352	3.521239	0.596514	-0.000035
1674	1.6646e+02	3.3506	1.499021	0.000369	3.685018	0.624259	-0.000037
1675	1.6656e+02	3.3379	1.463582	0.000356	3.562184	0.603450	-0.000036
1676	1.6666e+02	3.3295	1.431402	0.000323	3.234627	0.547961	-0.000032
1677	1.6676e+02	3.3202	1.393519	0.000381	3.807852	0.645068	-0.000038
1678	1.6686e+02	3.3095	1.352785	0.000409	4.094464	0.693621	-0.000041
1679	1.6696e+02	3.3015	1.320605	0.000323	3.234627	0.547961	-0.000032
1680	1.6706e+02	3.2893	1.286795	0.000340	3.398405	0.575705	-0.000034
1681	1.6716e+02	3.2814	1.253800	0.000332	3.316516	0.561833	-0.000033
1682	1.6726e+02	3.2687	1.217140	0.000369	3.685018	0.624259	-0.000037
1683	1.6736e+02	3.2595	1.182923	0.000344	3.439350	0.582642	-0.000034
1684	1.6746e+02	3.2476	1.148706	0.000344	3.439350	0.582642	-0.000034
1685	1.6756e+02	3.2392	1.107972	0.000409	4.094464	0.693621	-0.000041
1686	1.6766e+02	3.2311	1.074570	0.000336	3.357461	0.568769	-0.000034
1687	1.6776e+02	3.2184	1.037094	0.000377	3.766907	0.638131	-0.000038
1688	1.6786e+02	3.2095	1.004507	0.000328	3.275571	0.554897	-0.000033
1689	1.6796e+02	3.1996	0.965402	0.000393	3.930686	0.665876	-0.000039
1690	1.6806e+02	3.1899	0.926297	0.000393	3.930686	0.665876	-0.000039
1691	1.6816e+02	3.1800	0.890451	0.000360	3.603129	0.610387	-0.000036
1692	1.6825e+02	3.1689	0.853790	0.000369	3.685018	0.624259	-0.000037
1693	1.6835e+02	3.1594	0.817129	0.000369	3.685018	0.624259	-0.000037
1694	1.6845e+02	3.1506	0.774358	0.000430	4.299187	0.728302	-0.000043
1695	1.6855e+02	3.1409	0.737697	0.000369	3.685018	0.624259	-0.000037
1696	1.6865e+02	3.1318	0.705110	0.000328	3.275571	0.554897	-0.000033
1697	1.6875e+02	3.1186	0.665598	0.000397	3.971630	0.672812	-0.000040
1698	1.6885e+02	3.1104	0.629752	0.000360	3.603129	0.610387	-0.000036
1699	1.6895e+02	3.1002	0.592276	0.000377	3.766907	0.638131	-0.000038
1700	1.6905e+02	3.0892	0.559689	0.000328	3.275571	0.554897	-0.000033
1701	1.6915e+02	3.0798	0.518954	0.000409	4.094464	0.693621	-0.000041
1702	1.6925e+02	3.0700	0.483516	0.000356	3.562184	0.603450	-0.000036
1703	1.6935e+02	3.0600	0.450114	0.000336	3.357461	0.568769	-0.000034
1704	1.6945e+02	3.0508	0.411823	0.000385	3.848796	0.652004	-0.000038
1705	1.6955e+02	3.0413	0.373533	0.000385	3.848796	0.652004	-0.000038
1706	1.6965e+02	3.0328	0.335650	0.000381	3.807852	0.645068	-0.000038
1707	1.6975e+02	3.0192	0.296138	0.000397	3.971630	0.672812	-0.000040
1708	1.6985e+02	3.0128	0.263551	0.000328	3.275571	0.554897	-0.000033
1709	1.6995e+02	3.0038	0.225668	0.000381	3.807852	0.645068	-0.000038
1710	1.7005e+02	2.9907	0.188600	0.000373	3.725962	0.631195	-0.000037
1711	1.7015e+02	2.9790	0.151531	0.000373	3.725962	0.631195	-0.000037
1712	1.7024e+02	2.9733	0.111612	0.000401	4.012575	0.679749	-0.000040
1713	1.7034e+02	2.9641	0.074951	0.000369	3.685018	0.624259	-0.000037
1714	1.7044e+02	2.9515	0.039920	0.000352	3.521239	0.596514	-0.000035
1715	1.7054e+02	2.9411	-0.000815	0.000409	4.094464	0.693621	-0.000041
1716	1.7064e+02	2.9299	-0.034624	0.000340	3.398405	0.575705	-0.000034
1717	1.7074e+02	2.9190	-0.078210	0.000438	4.381077	0.742174	-0.000044
1718	1.7084e+02	2.9124	-0.116907	0.000389	3.889741	0.658940	-0.000039
1719	1.7094e+02	2.9017	-0.156012	0.000393	3.930686	0.665876	-0.000039
1720	1.7104e+02	2.8906	-0.193488	0.000377	3.766907	0.638131	-0.000038
1721	1.7114e+02	2.8816	-0.235851	0.000426	4.258243	0.721366	-0.000043
1722	1.7124e+02	2.8729	-0.275364	0.000397	3.971630	0.672812	-0.000040
1723	1.7134e+02	2.8609	-0.312839	0.000377	3.766907	0.638131	-0.000038
1724	1.7144e+02	2.8519	-0.354795	0.000422	4.217298	0.714430	-0.000042
1725	1.7154e+02	2.8396	-0.397159	0.000426	4.258243	0.721366	-0.000043
1726	1.7164e+02	2.8309	-0.436264	0.000393	3.930686	0.665876	-0.000039
1727	1.7174e+02	2.8201	-0.475776	0.000397	3.971630	0.672812	-0.000040
1728	1.7184e+02	2.8103	-0.516918	0.000414	4.135409	0.700557	-0.000041
1729	1.7194e+02	2.7984	-0.555615	0.000389	3.889741	0.658940	-0.000039
1730	1.7204e+02	2.7884	-0.597979	0.000426	4.258243	0.721366	-0.000043
1731	1.7213e+02	2.7849	-0.637491	0.000397	3.971630	0.672812	-0.000040
1732	1.7223e+02	2.7741	-0.678633	0.000414	4.135409	0.700557	-0.000041
1733	1.7233e+02	2.7615	-0.717330	0.000389	3.889741	0.658940	-0.000039
1734	1.7243e+02	2.7527	-0.763767	0.000467	4.667689	0.790728	-0.000047
1735	1.7253e+02	2.7425	-0.802465	0.000389	3.889741	0.658940	-0.000039
1736	1.7263e+02	2.7325	-0.841162	0.000389	3.889741	0.658940	-0.000039
1737	1.7273e+02	2.7225	-0.883933	0.000430	4.299187	0.728302	-0.000043
1738	1.7283e+02	2.7147	-0.927112	0.000434	4.340132	0.735238	-0.000043
1739	1.7293e+02	2.7018	-0.967031	0.000401	4.012575	0.679749	-0.000040
1740	1.7303e+02	2.6894	-1.007765	0.000409	4.094464	0.693621	-0.000041
1741	1.7313e+02	2.6820	-1.046870	0.000393	3.930686	0.665876	-0.000039
1742	1.7323e+02	2.6705	-1.090456	0.000438	4.381077	0.742174	-0.000044
1743	1.7333e+02	2.6658	-1.129968	0.000397	3.971630	0.672812	-0.000040
1744	1.7343e+02	2.6548	-1.172332	0.000426	4.258243	0.721366	-0.000043
1745	1.7353e+02	2.6426	-1.212659	0.000405	4.053520	0.686685	-0.000041
1746	1.7363e+02	2.6328	-1.253393	0.000409	4.094464	0.693621	-0.000041
1747	1.7373e+02	2.6223	-1.298201	0.000450	4.503911	0.762983	-0.000045
1748	1.7383e+02	2.6133	-1.337713	0.000397	3.971630	0.672812	-0.000040
1749	1.7393e+02	2.6027	-1.380077	0.000426	4.258243	0.721366	-0.000043
1750	1.7403e+02	2.5926	-1.421626	0.000418	4.176354	0.707493	-0.000042
1751	1.7413e+02	2.5814	-1.466841	0.000454	4.544855	0.769919	-0.000045
1752	1.7422e+02	2.5738	-1.512870	0.000463	4.626745	0.783792	-0.000046
1753	1.7432e+02	2.5632	-1.555641	0.000430	4.299187	0.728302	-0.000043
1754	1.7442e+02	2.5534	-1.598820	0.000434	4.340132	0.735238	-0.000043
1755	1.7452e+02	2.5431	-1.641590	0.000430	4.299187	0.728302	-0.000043
1756	1.7462e+02	2.5314	-1.688435	0.000471	4.708634	0.797664	-0.000047
1757	1.7472e+02	2.5217	-1.729169	0.000409	4.094464	0.693621	-0.000041
1758	1.7482e+02	2.5122	-1.774384	0.000454	4.544855	0.769919	-0.000045
1759	1.7492e+02	2.5042	-1.815526	0.000414	4.135409	0.700557	-0.000041
1760	1.7502e+02	2.4947	-1.859926	0.000446	4.462966	0.756047	-0.000045
1761	1.7512e+02	2.4825	-1.901475	0.000418	4.176354	0.707493	-0.000042
1762	1.7522e+02	2.4747	-1.949949	0.000487	4.872412	0.825409	-0.000049
1763	1.7532e+02	2.4627	-1.993534	0.000438	4.381077	0.742174	-0.000044
1764	1.7542e+02	2.4547	-2.032639	0.000393	3.930686	0.665876	-0.000039
1765	1.7552e+02	2.4456	-2.085187	0.000528	5.281859	0.894771	-0.000053
1766	1.7562e+02	2.4321	-2.126735	0.000418	4.176354	0.707493	-0.000042
1767	1.7572e+02	2.4227	-2.169914	0.000434	4.340132	0.735238	-0.000043
1768	1.7582e+02	2.4146	-2.215536	0.000459	4.585800	0.776856	-0.000046
1769	1.7592e+02	2.4027	-2.254234	0.000389	3.889741	0.658940	-0.000039
1770	1.7602e+02	2.3962	-2.304744	0.000508	5.077136	0.860090	-0.000051
1771	1.7612e+02	2.3830	-2.343442	0.000389	3.889741	0.658940	-0.000039
1772	1.7621e+02	2.3746	-2.387027	0.000438	4.381077	0.742174	-0.000044
1773	1.7631e+02	2.3611	-2.432650	0.000459	4.585800	0.776856	-0.000046
1774	1.7641e+02	2.3547	-2.472162	0.000397	3.971630	0.672812	-0.000040
1775	1.7651e+02	2.3440	-2.516970	0.000450	4.503911	0.762983	-0.000045
1776	1.7661e+02	2.3350	-2.564629	0.000479	4.790523	0.811537	-0.000048
1777	1.7671e+02	2.3252	-2.601697	0.000373	3.725962	0.631195	-0.000037
1778	1.7681e+02	2.3130	-2.647727	0.000463	4.626745	0.783792	-0.000046
1779	1.7691e+02	2.3051	-2.690498	0.000430	4.299187	0.728302	-0.000043
1780	1.7701e+02	2.2937	-2.735305	0.000450	4.503911	0.762983	-0.000045
1781	1.7711e+02	2.2838	-2.776854	0.000418	4.176354	0.707493	-0.000042
1782	1.7721e+02	2.2755	-2.822884	0.000463	4.626745	0.783792	-0.000046
1783	1.7731e+02	2.2649	-2.866877	0.000442	4.422021	0.749111	-0.000044
1784	1.7741e+02	2.2552	-2.910870	0.000442	4.422021	0.749111	-0.000044
1785	1.7751e+02	2.2438	-2.956492	0.000459	4.585800	0.776856	-0.000046
1786	1.7761e+02	2.2321	-3.001300	0.000450	4.503911	0.762983	-0.000045
1787	1.7771e+02	2.2253	-3.044886	0.000438	4.381077	0.742174	-0.000044
1788	1.7781e+02	2.2138	-3.090915	0.000463	4.626745	0.783792	-0.000046
1789	1.7791e+02	2.2050	-3.136130	0.000454	4.544855	0.769919	-0.000045
1790	1.7801e+02	2.1926	-3.181753	0.000459	4.585800	0.776856	-0.000046
1791	1.7810e+02	2.1861	-3.220450	0.000389	3.889741	0.658940	-0.000039
1792	1.7820e+02	2.1763	-3.266073	0.000459	4.585800	0.776856	-0.000046
1793	1.7830e+02	2.1624	-3.315361	0.000495	4.954302	0.839281	-0.000050
1794	1.7840e+02	2.1548	-3.357317	0.000422	4.217298	0.714430	-0.000042
1795	1.7850e+02	2.1439	-3.399681	0.000426	4.258243	0.721366	-0.000043
1796	1.7860e+02	2.1353	-3.446525	0.000471	4.708634	0.797664	-0.000047
1797	1.7870e+02	2.1248	-3.490926	0.000446	4.462966	0.756047	-0.000045
1798	1.7880e+02	2.1151	-3.536955	0.000463	4.626745	0.783792	-0.000046
1799	1.7890e+02	2.1069	-3.579726	0.000430	4.299187	0.728302	-0.000043
1800	1.7900e+02	2.0948	-3.628200	0.000487	4.872412	0.825409	-0.000049
1801	1.7910e+02	2.0848	-3.670971	0.000430	4.299187	0.728302	-0.000043
1802	1.7920e+02	2.0758	-3.712520	0.000418	4.176354	0.707493	-0.000042
1803	1.7930e+02	2.0658	-3.756106	0.000438	4.381077	0.742174	-0.000044
1804	1.7940e+02	2.0558	-3.799284	0.000434	4.340132	0.735238	-0.000043
1805	1.7950e+02	2.0444	-3.842055	0.000430	4.299187	0.728302	-0.000043
1806	1.7960e+02	2.0358	-3.885641	0.000438	4.381077	0.742174	-0.000044
1807	1.7970e+02	2.0255	-3.930856	0.000454	4.544855	0.769919	-0.000045
1808	1.7980e+02	2.0149	-3.969961	0.000393	3.930686	0.665876	-0.000039
1809	1.7990e+02	2.0069	-4.012731	0.000430	4.299187	0.728302	-0.000043
1810	1.8000e+02	1.9958	-4.055910	0.000434	4.340132	0.735238	-0.000043
1811	1.8009e+02	1.9868	-4.099088	0.000434	4.340132	0.735238	-0.000043
1812	1.8019e+02	1.9755	-4.146747	0.000479	4.790523	0.811537	-0.000048
1813	1.8029e+02	1.9646	-4.187889	0.000414	4.135409	0.700557	-0.000041
1814	1.8039e+02	1.9534	-4.232696	0.000450	4.503911	0.762983	-0.000045
1815	1.8049e+02	1.9444	-4.276282	0.000438	4.381077	0.742174	-0.000044
1816	1.8059e+02	1.9400	-4.318238	0.000422	4.217298	0.714430	-0.000042
1817	1.8069e+02	1.9238	-4.360195	0.000422	4.217298	0.714430	-0.000042
1818	1.8079e+02	1.9159	-4.405002	0.000450	4.503911	0.762983	-0.000045
1819	1.8089e+02	1.9048	-4.450217	0.000454	4.544855	0.769919	-0.000045
1820	1.8099e+02	1.8946	-4.492174	0.000422	4.217298	0.714430	-0.000042
1821	1.8109e+02	1.8850	-4.536167	0.000442	4.422021	0.749111	-0.000044
1822	1.8119e+02	1.8755	-4.578938	0.000430	4.299187	0.728302	-0.000043
1823	1.8129e+02	1.8657	-4.624153	0.000454	4.544855	0.769919	-0.000045
1824	1.8139e+02	1.8557	-4.663665	0.000397	3.971630	0.672812	-0.000040
1825	1.8149e+02	1.8459	-4.707658	0.000442	4.422021	0.749111	-0.000044
1826	1.8159e+02	1.8362	-4.753688	0.000463	4.626745	0.783792	-0.000046
1827	1.8169e+02	1.8266	-4.796051	0.000426	4.258243	0.721366	-0.000043
1828	1.8179e+02	1.8182	-4.839637	0.000438	4.381077	0.742174	-0.000044
1829	1.8189e+02	1.8060	-4.883223	0.000438	4.381077	0.742174	-0.000044
1830	1.8199e+02	1.7953	-4.929252	0.000463	4.626745	0.783792	-0.000046
1831	1.8209e+02	1.7873	-4.969986	0.000409	4.094464	0.693621	-0.000041
1832	1.8218e+02	1.7767	-5.015201	0.000454	4.544855	0.769919	-0.000045
1833	1.8228e+02	1.7656	-5.057565	0.000426	4.258243	0.721366	-0.000043
1834	1.8238e+02	1.7548	-5.101151	0.000438	4.381077	0.742174	-0.000044
1835	1.8248e+02	1.7475	-5.147180	0.000463	4.626745	0.783792	-0.000046
1836	1.8258e+02	1.7369	-5.186285	0.000393	3.930686	0.665876	-0.000039
1837	1.8268e+02	1.7272	-5.227020	0.000409	4.094464	0.693621	-0.000041
1838	1.8278e+02	1.7178	-5.266125	0.000393	3.930686	0.665876	-0.000039
1839	1.8288e+02	1.7071	-5.314598	0.000487	4.872412	0.825409	-0.000049
1840	1.8298e+02	1.6969	-5.355740	0.000414	4.135409	0.700557	-0.000041
1841	1.8308e+02	1.6874	-5.401362	0.000459	4.585800	0.776856	-0.000046
1842	1.8318e+02	1.6763	-5.441689	0.000405	4.053520	0.686685	-0.000041
1843	1.8328e+02	1.6665	-5.484867	0.000434	4.340132	0.735238	-0.000043
1844	1.8338e+02	1.6541	-5.527231	0.000426	4.258243	0.721366	-0.000043
1845	1.8348e+02	1.6463	-5.576520	0.000495	4.954302	0.839281	-0.000050
1846	1.8358e+02	1.6354	-5.615624	0.000393	3.930686	0.665876	-0.000039
1847	1.8368e+02	1.6267	-5.658395	0.000430	4.299187	0.728302	-0.000043
1848	1.8378e+02	1.6171	-5.701574	0.000434	4.340132	0.735238	-0.000043
1849	1.8388e+02	1.6080	-5.745974	0.000446	4.462966	0.756047	-0.000045
1850	1.8398e+02	1.5963	-5.787523	0.000418	4.176354	0.707493	-0.000042
1851	1.8407e+02	1.5884	-5.829887	0.000426	4.258243	0.721366	-0.000043
1852	1.8417e+02	1.5773	-5.872250	0.000426	4.258243	0.721366	-0.000043
1853	1.8427e+02	1.5678	-5.917465	0.000454	4.544855	0.769919	-0.000045
1854	1.8437e+02	1.5572	-5.959014	0.000418	4.176354	0.707493	-0.000042
1855	1.8447e+02	1.5491	-6.006266	0.000475	4.749579	0.804600	-0.000047
1856	1.8457e+02	1.5382	-6.049852	0.000438	4.381077	0.742174	-0.000044
1857	1.8467e+02	1.5308	-6.094252	0.000446	4.462966	0.756047	-0.000045
1858	1.8477e+02	1.5171	-6.142318	0.000483	4.831468	0.818473	-0.000048
1859	1.8487e+02	1.5119	-6.187941	0.000459	4.585800	0.776856	-0.000046
1860	1.8497e+02	1.4986	-6.231119	0.000434	4.340132	0.735238	-0.000043
1861	1.8507e+02	1.4886	-6.275112	0.000442	4.422021	0.749111	-0.000044
1862	1.8517e+02	1.4792	-6.324808	0.000500	4.995246	0.846218	-0.000050
1863	1.8527e+02	1.4699	-6.367986	0.000434	4.340132	0.735238	-0.000043
1864	1.8537e+02	1.4603	-6.414831	0.000471	4.708634	0.797664	-0.000047
1865	1.8547e+02	1.4471	-6.457601	0.000430	4.299187	0.728302	-0.000043
1866	1.8557e+02	1.4378	-6.502002	0.000446	4.462966	0.756047	-0.000045
1867	1.8567e+02	1.4283	-6.546402	0.000446	4.462966	0.756047	-0.000045
1868	1.8577e+02	1.4167	-6.592025	0.000459	4.585800	0.776856	-0.000046
1869	1.8587e+02	1.4068	-6.630722	0.000389	3.889741	0.658940	-0.000039
1870	1.8597e+02	1.4001	-6.680825	0.000504	5.036191	0.853154	-0.000050
1871	1.8606e+02	1.3882	-6.722781	0.000422	4.217298	0.714430	-0.000042
1872	1.8616e+02	1.3780	-6.771255	0.000487	4.872412	0.825409	-0.000049
1873	1.8626e+02	1.3677	-6.820136	0.000491	4.913357	0.832345	-0.000049
1874	1.8636e+02	1.3578	-6.862500	0.000426	4.258243	0.721366	-0.000043
1875	1.8646e+02	1.3480	-6.910159	0.000479	4.790523	0.811537	-0.000048
1876	1.8656e+02	1.3364	-6.954152	0.000442	4.422021	0.749111	-0.000044
1877	1.8666e+02	1.3293	-6.998145	0.000442	4.422021	0.749111	-0.000044
1878	1.8676e+02	1.3194	-7.042545	0.000446	4.462966	0.756047	-0.000045
1879	1.8686e+02	1.3110	-7.091834	0.000495	4.954302	0.839281	-0.000050
1880	1.8696e+02	1.2958	-7.140308	0.000487	4.872412	0.825409	-0.000049
1881	1.8706e+02	1.2897	-7.178190	0.000381	3.807852	0.645068	-0.000038
1882	1.8716e+02	1.2760	-7.226664	0.000487	4.872412	0.825409	-0.000049
1883	1.8726e+02	1.2679	-7.273916	0.000475	4.749579	0.804600	-0.000047
1884	1.8736e+02	1.2601	-7.321575	0.000479	4.790523	0.811537	-0.000048
1885	1.8746e+02	1.2514	-7.363124	0.000418	4.176354	0.707493	-0.000042
1886	1.8756e+02	1.2377	-7.410376	0.000475	4.749579	0.804600	-0.000047
1887	1.8766e+02	1.2289	-7.463330	0.000532	5.322804	0.901707	-0.000053
1888	1.8776e+02	1.2215	-7.506916	0.000438	4.381077	0.742174	-0.000044
1889	1.8786e+02	1.2099	-7.560278	0.000536	5.363748	0.908644	-0.000054
1890	1.8796e+02	1.1988	-7.605900	0.000459	4.585800	0.776856	-0.000046
1891	1.8806e+02	1.1930	-7.654374	0.000487	4.872412	0.825409	-0.000049
1892	1.8815e+02	1.1815	-7.705699	0.000516	5.159025	0.873962	-0.000052
1893	1.8825e+02	1.1700	-7.751729	0.000463	4.626745	0.783792	-0.000046
1894	1.8835e+02	1.1604	-7.801425	0.000500	4.995246	0.846218	-0.000050
1895	1.8845e+02	1.1502	-7.851528	0.000504	5.036191	0.853154	-0.000050
1896	1.8855e+02	1.1417	-7.900409	0.000491	4.913357	0.832345	-0.000049
1897	1.8865e+02	1.1308	-7.949290	0.000491	4.913357	0.832345	-0.000049
1898	1.8875e+02	1.1199	-7.997764	0.000487	4.872412	0.825409	-0.000049
1899	1.8885e+02	1.1106	-8.049089	0.000516	5.159025	0.873962	-0.000052
1900	1.8895e+02	1.0981	-8.098785	0.000500	4.995246	0.846218	-0.000050
1901	1.8905e+02	1.0921	-8.144814	0.000463	4.626745	0.783792	-0.000046
1902	1.8915e+02	1.0799	-8.194103	0.000495	4.954302	0.839281	-0.000050
1903	1.8925e+02	1.0697	-8.249094	0.000553	5.527527	0.936388	-0.000055
1904	1.8935e+02	1.0595	-8.296346	0.000475	4.749579	0.804600	-0.000047
1905	1.8945e+02	1.0486	-8.348486	0.000524	5.240914	0.887835	-0.000052
1906	1.8955e+02	1.0416	-8.398181	0.000500	4.995246	0.846218	-0.000050
1907	1.8965e+02	1.0316	-8.447877	0.000500	4.995246	0.846218	-0.000050
1908	1.8975e+02	1.0206	-8.497573	0.000500	4.995246	0.846218	-0.000050
1909	1.8985e+02	1.0108	-8.544417	0.000471	4.708634	0.797664	-0.000047
1910	1.8995e+02	1.0011	-8.599409	0.000553	5.527527	0.936388	-0.000055
1911	1.9004e+02	0.9928	-8.646253	0.000471	4.708634	0.797664	-0.000047
1912	1.9014e+02	0.9782	-8.697171	0.000512	5.118080	0.867026	-0.000051
1913	1.9024e+02	0.9704	-8.746052	0.000491	4.913357	0.832345	-0.000049
1914	1.9034e+02	0.9600	-8.800228	0.000545	5.445637	0.922516	-0.000054
1915	1.9044e+02	0.9512	-8.848702	0.000487	4.872412	0.825409	-0.000049
1916	1.9054e+02	0.9412	-8.899620	0.000512	5.118080	0.867026	-0.000051
1917	1.9064e+02	0.9312	-8.953797	0.000545	5.445637	0.922516	-0.000054
1918	1.9074e+02	0.9230	-9.003085	0.000495	4.954302	0.839281	-0.000050
1919	1.9084e+02	0.9113	-9.052781	0.000500	4.995246	0.846218	-0.000050
1920	1.9094e+02	0.9008	-9.105735	0.000532	5.322804	0.901707	-0.000053
1921	1.9104e+02	0.8907	-9.157875	0.000524	5.240914	0.887835	-0.000052
1922	1.9114e+02	0.8823	-9.212052	0.000545	5.445637	0.922516	-0.000054
1923	1.9124e+02	0.8762	-9.265414	0.000536	5.363748	0.908644	-0.000054
1924	1.9134e+02	0.8632	-9.320812	0.000557	5.568471	0.943325	-0.000056
1925	1.9144e+02	0.8527	-9.370101	0.000495	4.954302	0.839281	-0.000050
1926	1.9154e+02	0.8391	-9.424277	0.000545	5.445637	0.922516	-0.000054
1927	1.9164e+02	0.8320	-9.478861	0.000549	5.486582	0.929452	-0.000055
1928	1.9174e+02	0.8213	-9.531816	0.000532	5.322804	0.901707	-0.000053
1929	1.9184e+02	0.8111	-9.583548	0.000520	5.199970	0.880899	-0.000052
1930	1.9194e+02	0.8006	-9.636095	0.000528	5.281859	0.894771	-0.000053
1931	1.9203e+02	0.7929	-9.689050	0.000532	5.322804	0.901707	-0.000053
1932	1.9213e+02	0.7809	-9.745263	0.000565	5.650361	0.957197	-0.000056
1933	1.9223e+02	0.7703	-9.799440	0.000545	5.445637	0.922516	-0.000054
1934	1.9233e+02	0.7606	-9.849136	0.000500	4.995246	0.846218	-0.000050
1935	1.9243e+02	0.7528	-9.907386	0.000586	5.855084	0.991878	-0.000059
1936	1.9253e+02	0.7429	-9.958711	0.000516	5.159025	0.873962	-0.000052
1937	1.9263e+02	0.7339	-10.013295	0.000549	5.486582	0.929452	-0.000055
1938	1.9273e+02	0.7236	-10.065027	0.000520	5.199970	0.880899	-0.000052
1939	1.9283e+02	0.7135	-10.112279	0.000475	4.749579	0.804600	-0.000047
1940	1.9293e+02	0.7015	-10.172158	0.000602	6.018862	1.019623	-0.000060
1941	1.9303e+02	0.6929	-10.216966	0.000450	4.503911	0.762983	-0.000045
1942	1.9313e+02	0.6817	-10.276845	0.000602	6.018862	1.019623	-0.000060
1943	1.9323e+02	0.6712	-10.325319	0.000487	4.872412	0.825409	-0.000049
1944	1.9333e+02	0.6616	-10.379903	0.000549	5.486582	0.929452	-0.000055
1945	1.9343e+02	0.6543	-10.430821	0.000512	5.118080	0.867026	-0.000051
1946	1.9353e+02	0.6415	-10.483368	0.000528	5.281859	0.894771	-0.000053
1947	1.9363e+02	0.6327	-10.537952	0.000549	5.486582	0.929452	-0.000055
1948	1.9373e+02	0.6226	-10.591721	0.000540	5.404693	0.915580	-0.000054
1949	1.9383e+02	0.6109	-10.644268	0.000528	5.281859	0.894771	-0.000053
1950	1.9393e+02	0.6031	-10.697630	0.000536	5.363748	0.908644	-0.000054
1951	1.9403e+02	0.5966	-10.749770	0.000524	5.240914	0.887835	-0.000052
1952	1.9412e+02	0.5843	-10.803946	0.000545	5.445637	0.922516	-0.000054
1953	1.9422e+02	0.5736	-10.861789	0.000581	5.814139	0.984942	-0.000058
1954	1.9432e+02	0.5617	-10.911485	0.000500	4.995246	0.846218	-0.000050
1955	1.9442e+02	0.5534	-10.968513	0.000573	5.732250	0.971069	-0.000057
1956	1.9452e+02	0.5415	-11.023097	0.000549	5.486582	0.929452	-0.000055
1957	1.9462e+02	0.5325	-11.073607	0.000508	5.077136	0.860090	-0.000051
1958	1.9472e+02	0.5231	-11.127376	0.000540	5.404693	0.915580	-0.000054
1959	1.9482e+02	0.5129	-11.184404	0.000573	5.732250	0.971069	-0.000057
1960	1.9492e+02	0.5033	-11.236952	0.000528	5.281859	0.894771	-0.000053
1961	1.9502e+02	0.4967	-11.294387	0.000577	5.773195	0.978006	-0.000058
1962	1.9512e+02	0.4836	-11.346527	0.000524	5.240914	0.887835	-0.000052
1963	1.9522e+02	0.4713	-11.398259	0.000520	5.199970	0.880899	-0.000052
1964	1.9532e+02	0.4675	-11.458139	0.000602	6.018862	1.019623	-0.000060
1965	1.9542e+02	0.4545	-11.511908	0.000540	5.404693	0.915580	-0.000054
1966	1.9552e+02	0.4451	-11.564862	0.000532	5.322804	0.901707	-0.000053
1967	1.9562e+02	0.4324	-11.619854	0.000553	5.527527	0.936388	-0.000055
1968	1.9572e+02	0.4245	-11.673215	0.000536	5.363748	0.908644	-0.000054
1969	1.9582e+02	0.4109	-11.727799	0.000549	5.486582	0.929452	-0.000055
1970	1.9592e+02	0.4030	-11.777903	0.000504	5.036191	0.853154	-0.000050
1971	1.9601e+02	0.3923	-11.830857	0.000532	5.322804	0.901707	-0.000053
1972	1.9611e+02	0.3821	-11.883404	0.000528	5.281859	0.894771	-0.000053
1973	1.9621e+02	0.3719	-11.940432	0.000573	5.732250	0.971069	-0.000057
1974	1.9631e+02	0.3648	-11.988906	0.000487	4.872412	0.825409	-0.000049
1975	1.9641e+02	0.3528	-12.038602	0.000500	4.995246	0.846218	-0.000050
1976	1.9651e+02	0.3442	-12.092778	0.000545	5.445637	0.922516	-0.000054
1977	1.9661e+02	0.3364	-12.148992	0.000565	5.650361	0.957197	-0.000056
1978	1.9671e+02	0.3247	-12.198687	0.000500	4.995246	0.846218	-0.000050
1979	1.9681e+02	0.3155	-12.252864	0.000545	5.445637	0.922516	-0.000054
1980	1.9691e+02	0.3050	-12.309892	0.000573	5.732250	0.971069	-0.000057
1981	1.9701e+02	0.2936	-12.358773	0.000491	4.913357	0.832345	-0.000049
1982	1.9711e+02	0.2836	-12.413764	0.000553	5.527527	0.936388	-0.000055
1983	1.9721e+02	0.2760	-12.467126	0.000536	5.363748	0.908644	-0.000054
1984	1.9731e+02	0.2640	-12.519673	0.000528	5.281859	0.894771	-0.000053
1985	1.9741e+02	0.2510	-12.574665	0.000553	5.527527	0.936388	-0.000055
1986	1.9751e+02	0.2481	-12.628434	0.000540	5.404693	0.915580	-0.000054
1987	1.9761e+02	0.2363	-12.679759	0.000516	5.159025	0.873962	-0.000052
1988	1.9771e+02	0.2220	-12.735972	0.000565	5.650361	0.957197	-0.000056
1989	1.9781e+02	0.2110	-12.788927	0.000532	5.322804	0.901707	-0.000053
1990	1.9791e+02	0.2040	-12.839437	0.000508	5.077136	0.860090	-0.000051
1991	1.9800e+02	0.1923	-12.892799	0.000536	5.363748	0.908644	-0.000054
1992	1.9810e+02	0.1830	-12.946568	0.000540	5.404693	0.915580	-0.000054
1993	1.9820e+02	0.1747	-13.002374	0.000561	5.609416	0.950261	-0.000056
1994	1.9830e+02	0.1652	-13.051663	0.000495	4.954302	0.839281	-0.000050
1995	1.9840e+02	0.1532	-13.106247	0.000549	5.486582	0.929452	-0.000055
1996	1.9850e+02	0.1416	-13.161645	0.000557	5.568471	0.943325	-0.000056
1997	1.9860e+02	0.1351	-13.216636	0.000553	5.527527	0.936388	-0.000055
1998	1.9870e+02	0.1232	-13.269184	0.000528	5.281859	0.894771	-0.000053
1999	1.9880e+02	0.1147	-13.323360	0.000545	5.445637	0.922516	-0.000054
2000	1.9890e+02	0.1060	-13.377537	0.000545	5.445637	0.922516	-0.000054
2001	1.9900e+02	0.0957	-13.429677	0.000524	5.240914	0.887835	-0.000052
2002	1.9910e+02	0.0842	-13.479780	0.000504	5.036191	0.853154	-0.000050
2003	1.9920e+02	0.0770	-13.535586	0.000561	5.609416	0.950261	-0.000056
2004	1.9930e+02	0.0668	-13.586096	0.000508	5.077136	0.860090	-0.000051
2005	1.9940e+02	0.0562	-13.636199	0.000504	5.036191	0.853154	-0.000050
2006	1.9950e+02	0.0459	-13.691190	0.000553	5.527527	0.936388	-0.000055
2007	1.9960e+02	0.0345	-13.744552	0.000536	5.363748	0.908644	-0.000054
2008	1.9970e+02	0.0262	-13.795878	0.000516	5.159025	0.873962	-0.000052
2009	1.9980e+02	0.0156	-13.849647	0.000540	5.404693	0.915580	-0.000054
2010	1.9990e+02	0.0051	-13.902601	0.000532	5.322804	0.901707	-0.000053
2011	2.0000e+02	-0.0062	-13.953519	0.000532	5.322804	0.901707	-0.000051

PMax (uC/cm2):	3.81e+01
Pr (uC/cm2):	5.11e+00
-Pr (uC/cm2):	0.00e+00
PLoss (uC/cm2):	0.00e+00
C (Max-Eff) (nF):	3.81e-01
K (Eff):	6.46e+02
Vert. (+/-Pr) Shift (uC/cm2):	2.56e+00
Offset (uC/cm2):	1.91e+01

A (Loop Area - uC/cm2·Volts):	-5.02e-02



Hysteresis Version: 5.48.1 - Radiant Technologies, Inc., 1999 - 9/12/24

