»»»»»»»»»»»»»»»»»»»»»»»»»»»»»»»»»»»» Hysteresis ««««««««««««««««««««««««««««««««««««
»»»  Executed Version:	5.48.1
»»»  Vision Version:	5.48.4 (R)
»»»  Vision Compiled:	9/18/24
»»»  Driver Version:	5.47.0
»»»  Windows Version:	Windows 8 or 8.1
»»»  Processor Information:	x86 (AMD or Intel) - 32 Processors
»»»  Tester Name:	PMF21124-494 (100V)
»»»  Tester S/N:	PMF21124-494
»»»  Internal Amp Type:	100V RevK 270k
»»»  Internal Amp S/N:	iAB2-596/K     
»»»  Execution Count:	1
»»»»»»»»»»»»»»»»»»»»»»»»»»»»»»»»»»»»»»»»»»««««««««««««««««««««««««««««««««««««««««««

Stored:	6/25/2025 - 15:34:5
Configured:	06/25/25 10:44:40 AM
Executed:	06/25/25 03:33:34 PM

»»»»»»»»»»»»»»»»»»»»»»»»»»»»»»»»»»» Sample Info ««««««««««««««««««««««««««««««««««««
Sample Name:	
Lot Name:	
Wafer Name:	
Die Row/Column:	0/0
Capacitor Number:	0
Sample Area (cm2):	1.00e-04
Sample Thickness (microns):	1.50e-01

Amplifier:	Internal

»»»»»»»»»»»»»»»»»»»»»»»»»»»»»»»»»»» Tester Info «««««««««««««««««««««««««««««««««««
Tester Name:	PMF21124-494 (100V)
Tester Serial Number:	PMF21124-494
Return Signal Amp. Level:	1.9 [Index: 2]

»»»»»»»»»»»»»»»»»»»»»»»»»»»»»»»» Hysteresis Info ««««««««««««««««««««««««««««««««««
Task Name:	Hyst-116
Volts:	10.00
Field:	666.67 (kV/cm)
DCBias:	0.00
DCField:	0.00 (kV/cm)
Hysteresis Period (ms):	2.00e+02
Preset:	Enabled
Preset Delay (ms):	1.00e+03
Profile:	Standard Monopolar

»»»»»»»»»»»»»»»»»»»»»»»»»»»»»»»»»»»»»» Data «««««««««««««««««««««««««««««««««««««««
Points:	2011

Valid Data

Point	Time (ms)	Drive Voltage	Measured Polarization (uC/cm2)	Capacitance (uF)	Normalized Capacitance (uF/cm2)	Dielectric Constant	Instantaneous Current (mA)
   1	0.0000e+00	-0.0041	-21.439864	0.000459	4.586517	0.776977	0.000046
   2	9.9500e-02	0.0040	-21.394242	0.000459	4.586517	0.776977	0.000046
   3	1.9900e-01	0.0139	-21.342917	0.000516	5.159832	0.874099	0.000052
   4	2.9850e-01	0.0257	-21.299738	0.000434	4.340811	0.735353	0.000043
   5	3.9800e-01	0.0335	-21.251265	0.000487	4.873175	0.825538	0.000049
   6	4.9750e-01	0.0454	-21.200754	0.000508	5.077930	0.860225	0.000051
   7	5.9700e-01	0.0544	-21.157983	0.000430	4.299860	0.728416	0.000043
   8	6.9650e-01	0.0670	-21.109102	0.000491	4.914126	0.832475	0.000049
   9	7.9600e-01	0.0737	-21.059406	0.000500	4.996028	0.846350	0.000050
  10	8.9550e-01	0.0845	-21.010932	0.000487	4.873175	0.825538	0.000049
  11	9.9500e-01	0.0950	-20.962051	0.000491	4.914126	0.832475	0.000049
  12	1.0945e+00	0.1080	-20.911948	0.000504	5.036979	0.853287	0.000050
  13	1.1940e+00	0.1186	-20.869585	0.000426	4.258909	0.721479	0.000043
  14	1.2935e+00	0.1229	-20.816223	0.000536	5.364587	0.908786	0.000054
  15	1.3930e+00	0.1311	-20.770600	0.000459	4.586517	0.776977	0.000046
  16	1.4925e+00	0.1450	-20.720497	0.000504	5.036979	0.853287	0.000050
  17	1.5920e+00	0.1531	-20.676504	0.000442	4.422713	0.749228	0.000044
  18	1.6915e+00	0.1655	-20.630067	0.000467	4.668420	0.790852	0.000047
  19	1.7910e+00	0.1746	-20.584037	0.000463	4.627468	0.783914	0.000046
  20	1.8905e+00	0.1848	-20.532712	0.000516	5.159832	0.874099	0.000052
  21	1.9900e+00	0.1932	-20.489127	0.000438	4.381762	0.742291	0.000044
  22	2.0895e+00	0.2055	-20.447170	0.000422	4.217958	0.714541	0.000042
  23	2.1890e+00	0.2138	-20.394623	0.000528	5.282685	0.894911	0.000053
  24	2.2885e+00	0.2227	-20.347779	0.000471	4.709371	0.797789	0.000047
  25	2.3880e+00	0.2359	-20.298490	0.000496	4.955077	0.839413	0.000050
  26	2.4875e+00	0.2435	-20.252461	0.000463	4.627468	0.783914	0.000046
  27	2.5870e+00	0.2559	-20.204394	0.000483	4.832224	0.818601	0.000048
  28	2.6865e+00	0.2687	-20.158365	0.000463	4.627468	0.783914	0.000046
  29	2.7860e+00	0.2736	-20.109891	0.000487	4.873175	0.825538	0.000049
  30	2.8855e+00	0.2845	-20.063861	0.000463	4.627468	0.783914	0.000046
  31	2.9850e+00	0.2921	-20.016202	0.000479	4.791273	0.811664	0.000048
  32	3.0845e+00	0.3044	-19.970580	0.000459	4.586517	0.776977	0.000046
  33	3.1840e+00	0.3184	-19.923735	0.000471	4.709371	0.797789	0.000047
  34	3.2835e+00	0.3237	-19.872817	0.000512	5.118881	0.867162	0.000051
  35	3.3830e+00	0.3316	-19.831676	0.000414	4.136056	0.700667	0.000041
  36	3.4825e+00	0.3443	-19.776277	0.000557	5.569343	0.943472	0.000056
  37	3.5820e+00	0.3536	-19.733099	0.000434	4.340811	0.735353	0.000043
  38	3.6815e+00	0.3648	-19.680959	0.000524	5.241734	0.887974	0.000052
  39	3.7810e+00	0.3740	-19.636151	0.000450	4.504615	0.763102	0.000045
  40	3.8805e+00	0.3817	-19.585234	0.000512	5.118881	0.867162	0.000051
  41	3.9800e+00	0.3917	-19.532279	0.000532	5.323636	0.901848	0.000053
  42	4.0795e+00	0.4033	-19.487064	0.000455	4.545566	0.770040	0.000045
  43	4.1790e+00	0.4160	-19.440627	0.000467	4.668420	0.790852	0.000047
  44	4.2785e+00	0.4242	-19.389709	0.000512	5.118881	0.867162	0.000051
  45	4.3780e+00	0.4325	-19.337977	0.000520	5.200783	0.881037	0.000052
  46	4.4775e+00	0.4443	-19.293576	0.000446	4.463664	0.756165	0.000045
  47	4.5770e+00	0.4525	-19.245103	0.000487	4.873175	0.825538	0.000049
  48	4.6765e+00	0.4635	-19.198665	0.000467	4.668420	0.790852	0.000047
  49	4.7760e+00	0.4743	-19.151414	0.000475	4.750322	0.804726	0.000047
  50	4.8755e+00	0.4819	-19.105384	0.000463	4.627468	0.783914	0.000046
  51	4.9750e+00	0.4923	-19.055281	0.000504	5.036979	0.853287	0.000050
  52	5.0745e+00	0.5052	-19.009251	0.000463	4.627468	0.783914	0.000046
  53	5.1740e+00	0.5108	-18.961592	0.000479	4.791273	0.811664	0.000048
  54	5.2735e+00	0.5226	-18.915562	0.000463	4.627468	0.783914	0.000046
  55	5.3730e+00	0.5331	-18.864645	0.000512	5.118881	0.867162	0.000051
  56	5.4725e+00	0.5416	-18.816578	0.000483	4.832224	0.818601	0.000048
  57	5.5720e+00	0.5517	-18.773400	0.000434	4.340811	0.735353	0.000043
  58	5.6715e+00	0.5630	-18.724519	0.000491	4.914126	0.832475	0.000049
  59	5.7710e+00	0.5719	-18.678896	0.000459	4.586517	0.776977	0.000046
  60	5.8705e+00	0.5821	-18.625534	0.000536	5.364587	0.908786	0.000054
  61	5.9700e+00	0.5941	-18.581134	0.000446	4.463664	0.756165	0.000045
  62	6.0695e+00	0.6034	-18.534290	0.000471	4.709371	0.797789	0.000047
  63	6.1690e+00	0.6139	-18.487853	0.000467	4.668420	0.790852	0.000047
  64	6.2685e+00	0.6210	-18.439786	0.000483	4.832224	0.818601	0.000048
  65	6.3680e+00	0.6331	-18.387646	0.000524	5.241734	0.887974	0.000052
  66	6.4675e+00	0.6416	-18.339987	0.000479	4.791273	0.811664	0.000048
  67	6.5670e+00	0.6510	-18.293958	0.000463	4.627468	0.783914	0.000046
  68	6.6665e+00	0.6634	-18.242632	0.000516	5.159832	0.874099	0.000052
  69	6.7660e+00	0.6751	-18.195381	0.000475	4.750322	0.804726	0.000047
  70	6.8655e+00	0.6812	-18.144463	0.000512	5.118881	0.867162	0.000051
  71	6.9650e+00	0.6917	-18.095582	0.000491	4.914126	0.832475	0.000049
  72	7.0645e+00	0.7043	-18.042220	0.000536	5.364587	0.908786	0.000054
  73	7.1640e+00	0.7108	-17.993339	0.000491	4.914126	0.832475	0.000049
  74	7.2635e+00	0.7220	-17.947309	0.000463	4.627468	0.783914	0.000046
  75	7.3630e+00	0.7315	-17.895984	0.000516	5.159832	0.874099	0.000052
  76	7.4625e+00	0.7423	-17.844659	0.000516	5.159832	0.874099	0.000052
  77	7.5620e+00	0.7522	-17.796185	0.000487	4.873175	0.825538	0.000049
  78	7.6615e+00	0.7594	-17.744860	0.000516	5.159832	0.874099	0.000052
  79	7.7610e+00	0.7708	-17.695571	0.000496	4.955077	0.839413	0.000050
  80	7.8605e+00	0.7811	-17.648727	0.000471	4.709371	0.797789	0.000047
  81	7.9600e+00	0.7931	-17.597809	0.000512	5.118881	0.867162	0.000051
  82	8.0595e+00	0.8008	-17.548521	0.000496	4.955077	0.839413	0.000050
  83	8.1590e+00	0.8133	-17.496788	0.000520	5.200783	0.881037	0.000052
  84	8.2585e+00	0.8212	-17.450351	0.000467	4.668420	0.790852	0.000047
  85	8.3580e+00	0.8317	-17.396582	0.000541	5.405538	0.915723	0.000054
  86	8.4575e+00	0.8405	-17.346072	0.000508	5.077930	0.860225	0.000051
  87	8.5570e+00	0.8532	-17.295968	0.000504	5.036979	0.853287	0.000050
  88	8.6565e+00	0.8595	-17.252790	0.000434	4.340811	0.735353	0.000043
  89	8.7560e+00	0.8714	-17.201465	0.000516	5.159832	0.874099	0.000052
  90	8.8555e+00	0.8836	-17.149325	0.000524	5.241734	0.887974	0.000052
  91	8.9550e+00	0.8914	-17.100444	0.000491	4.914126	0.832475	0.000049
  92	9.0545e+00	0.8997	-17.051970	0.000487	4.873175	0.825538	0.000049
  93	9.1540e+00	0.9135	-17.000238	0.000520	5.200783	0.881037	0.000052
  94	9.2535e+00	0.9198	-16.954615	0.000459	4.586517	0.776977	0.000046
  95	9.3530e+00	0.9312	-16.903698	0.000512	5.118881	0.867162	0.000051
  96	9.4525e+00	0.9393	-16.853187	0.000508	5.077930	0.860225	0.000051
  97	9.5520e+00	0.9515	-16.801455	0.000520	5.200783	0.881037	0.000052
  98	9.6515e+00	0.9599	-16.752166	0.000496	4.955077	0.839413	0.000050
  99	9.7510e+00	0.9698	-16.702470	0.000500	4.996028	0.846350	0.000050
 100	9.8505e+00	0.9817	-16.650330	0.000524	5.241734	0.887974	0.000052
 101	9.9500e+00	0.9885	-16.597376	0.000532	5.323636	0.901848	0.000053
 102	1.0050e+01	1.0006	-16.547273	0.000504	5.036979	0.853287	0.000050
 103	1.0149e+01	1.0122	-16.492689	0.000549	5.487441	0.929598	0.000055
 104	1.0248e+01	1.0241	-16.447881	0.000450	4.504615	0.763102	0.000045
 105	1.0348e+01	1.0321	-16.391668	0.000565	5.651245	0.957347	0.000056
 106	1.0447e+01	1.0406	-16.341157	0.000508	5.077930	0.860225	0.000051
 107	1.0547e+01	1.0499	-16.293906	0.000475	4.750322	0.804726	0.000047
 108	1.0646e+01	1.0622	-16.244617	0.000496	4.955077	0.839413	0.000050
 109	1.0746e+01	1.0703	-16.191255	0.000536	5.364587	0.908786	0.000054
 110	1.0845e+01	1.0801	-16.138301	0.000532	5.323636	0.901848	0.000053
 111	1.0945e+01	1.0915	-16.084124	0.000545	5.446489	0.922660	0.000054
 112	1.1044e+01	1.1000	-16.035243	0.000491	4.914126	0.832475	0.000049
 113	1.1144e+01	1.1098	-15.984733	0.000508	5.077930	0.860225	0.000051
 114	1.1243e+01	1.1206	-15.936259	0.000487	4.873175	0.825538	0.000049
 115	1.1343e+01	1.1297	-15.885341	0.000512	5.118881	0.867162	0.000051
 116	1.1443e+01	1.1419	-15.831165	0.000545	5.446489	0.922660	0.000054
 117	1.1542e+01	1.1497	-15.782691	0.000487	4.873175	0.825538	0.000049
 118	1.1642e+01	1.1609	-15.730958	0.000520	5.200783	0.881037	0.000052
 119	1.1741e+01	1.1714	-15.682077	0.000491	4.914126	0.832475	0.000049
 120	1.1841e+01	1.1803	-15.633603	0.000487	4.873175	0.825538	0.000049
 121	1.1940e+01	1.1898	-15.579834	0.000541	5.405538	0.915723	0.000054
 122	1.2040e+01	1.1996	-15.535027	0.000450	4.504615	0.763102	0.000045
 123	1.2139e+01	1.2109	-15.482887	0.000524	5.241734	0.887974	0.000052
 124	1.2239e+01	1.2180	-15.438079	0.000450	4.504615	0.763102	0.000045
 125	1.2338e+01	1.2304	-15.389198	0.000491	4.914126	0.832475	0.000049
 126	1.2438e+01	1.2363	-15.334614	0.000549	5.487441	0.929598	0.000055
 127	1.2537e+01	1.2496	-15.291436	0.000434	4.340811	0.735353	0.000043
 128	1.2636e+01	1.2591	-15.243777	0.000479	4.791273	0.811664	0.000048
 129	1.2736e+01	1.2676	-15.194896	0.000491	4.914126	0.832475	0.000049
 130	1.2835e+01	1.2795	-15.146422	0.000487	4.873175	0.825538	0.000049
 131	1.2935e+01	1.2898	-15.094689	0.000520	5.200783	0.881037	0.000052
 132	1.3034e+01	1.2966	-15.043771	0.000512	5.118881	0.867162	0.000051
 133	1.3134e+01	1.3069	-14.996112	0.000479	4.791273	0.811664	0.000048
 134	1.3233e+01	1.3185	-14.949675	0.000467	4.668420	0.790852	0.000047
 135	1.3333e+01	1.3318	-14.897128	0.000528	5.282685	0.894911	0.000053
 136	1.3432e+01	1.3406	-14.848247	0.000491	4.914126	0.832475	0.000049
 137	1.3532e+01	1.3476	-14.798551	0.000500	4.996028	0.846350	0.000050
 138	1.3632e+01	1.3600	-14.750892	0.000479	4.791273	0.811664	0.000048
 139	1.3731e+01	1.3670	-14.702418	0.000487	4.873175	0.825538	0.000049
 140	1.3831e+01	1.3794	-14.655167	0.000475	4.750322	0.804726	0.000047
 141	1.3930e+01	1.3882	-14.600175	0.000553	5.528392	0.936535	0.000055
 142	1.4030e+01	1.3951	-14.550072	0.000504	5.036979	0.853287	0.000050
 143	1.4129e+01	1.4079	-14.500784	0.000496	4.955077	0.839413	0.000050
 144	1.4229e+01	1.4161	-14.455569	0.000455	4.545566	0.770040	0.000045
 145	1.4328e+01	1.4272	-14.401800	0.000541	5.405538	0.915723	0.000054
 146	1.4428e+01	1.4371	-14.356177	0.000459	4.586517	0.776977	0.000046
 147	1.4527e+01	1.4498	-14.308925	0.000475	4.750322	0.804726	0.000047
 148	1.4627e+01	1.4582	-14.258415	0.000508	5.077930	0.860225	0.000051
 149	1.4726e+01	1.4658	-14.211571	0.000471	4.709371	0.797789	0.000047
 150	1.4825e+01	1.4779	-14.163504	0.000483	4.832224	0.818601	0.000048
 151	1.4925e+01	1.4851	-14.115030	0.000487	4.873175	0.825538	0.000049
 152	1.5024e+01	1.4997	-14.067371	0.000479	4.791273	0.811664	0.000048
 153	1.5124e+01	1.5076	-14.021342	0.000463	4.627468	0.783914	0.000046
 154	1.5223e+01	1.5184	-13.971646	0.000500	4.996028	0.846350	0.000050
 155	1.5323e+01	1.5275	-13.930912	0.000410	4.095105	0.693730	0.000041
 156	1.5422e+01	1.5365	-13.881216	0.000500	4.996028	0.846350	0.000050
 157	1.5522e+01	1.5444	-13.839667	0.000418	4.177007	0.707604	0.000042
 158	1.5621e+01	1.5562	-13.789564	0.000504	5.036979	0.853287	0.000050
 159	1.5721e+01	1.5666	-13.745978	0.000438	4.381762	0.742291	0.000044
 160	1.5820e+01	1.5791	-13.697504	0.000487	4.873175	0.825538	0.000049
 161	1.5920e+01	1.5869	-13.650253	0.000475	4.750322	0.804726	0.000047
 162	1.6020e+01	1.5964	-13.605038	0.000455	4.545566	0.770040	0.000045
 163	1.6119e+01	1.6076	-13.558193	0.000471	4.709371	0.797789	0.000047
 164	1.6218e+01	1.6167	-13.513793	0.000446	4.463664	0.756165	0.000045
 165	1.6318e+01	1.6266	-13.462060	0.000520	5.200783	0.881037	0.000052
 166	1.6418e+01	1.6381	-13.417660	0.000446	4.463664	0.756165	0.000045
 167	1.6517e+01	1.6470	-13.375704	0.000422	4.217958	0.714541	0.000042
 168	1.6616e+01	1.6567	-13.331711	0.000442	4.422713	0.749228	0.000044
 169	1.6716e+01	1.6645	-13.285681	0.000463	4.627468	0.783914	0.000046
 170	1.6816e+01	1.6779	-13.237615	0.000483	4.832224	0.818601	0.000048
 171	1.6915e+01	1.6869	-13.194436	0.000434	4.340811	0.735353	0.000043
 172	1.7015e+01	1.6959	-13.150443	0.000442	4.422713	0.749228	0.000044
 173	1.7114e+01	1.7075	-13.099525	0.000512	5.118881	0.867162	0.000051
 174	1.7213e+01	1.7168	-13.059199	0.000405	4.054154	0.686792	0.000041
 175	1.7313e+01	1.7274	-13.010725	0.000487	4.873175	0.825538	0.000049
 176	1.7413e+01	1.7376	-12.964288	0.000467	4.668420	0.790852	0.000047
 177	1.7512e+01	1.7457	-12.921517	0.000430	4.299860	0.728416	0.000043
 178	1.7611e+01	1.7574	-12.877116	0.000446	4.463664	0.756165	0.000045
 179	1.7711e+01	1.7690	-12.829457	0.000479	4.791273	0.811664	0.000048
 180	1.7811e+01	1.7770	-12.783020	0.000467	4.668420	0.790852	0.000047
 181	1.7910e+01	1.7871	-12.739842	0.000434	4.340811	0.735353	0.000043
 182	1.8009e+01	1.7960	-12.695849	0.000442	4.422713	0.749228	0.000044
 183	1.8109e+01	1.8069	-12.651041	0.000450	4.504615	0.763102	0.000045
 184	1.8209e+01	1.8155	-12.609085	0.000422	4.217958	0.714541	0.000042
 185	1.8308e+01	1.8258	-12.563055	0.000463	4.627468	0.783914	0.000046
 186	1.8407e+01	1.8373	-12.522728	0.000405	4.054154	0.686792	0.000041
 187	1.8507e+01	1.8483	-12.483624	0.000393	3.931301	0.665980	0.000039
 188	1.8607e+01	1.8555	-12.437186	0.000467	4.668420	0.790852	0.000047
 189	1.8706e+01	1.8649	-12.391157	0.000463	4.627468	0.783914	0.000046
 190	1.8805e+01	1.8791	-12.351237	0.000401	4.013203	0.679855	0.000040
 191	1.8905e+01	1.8862	-12.308059	0.000434	4.340811	0.735353	0.000043
 192	1.9005e+01	1.8937	-12.265288	0.000430	4.299860	0.728416	0.000043
 193	1.9104e+01	1.9054	-12.219258	0.000463	4.627468	0.783914	0.000046
 194	1.9203e+01	1.9164	-12.176080	0.000434	4.340811	0.735353	0.000043
 195	1.9303e+01	1.9228	-12.132494	0.000438	4.381762	0.742291	0.000044
 196	1.9402e+01	1.9386	-12.092167	0.000405	4.054154	0.686792	0.000041
 197	1.9502e+01	1.9469	-12.050618	0.000418	4.177007	0.707604	0.000042
 198	1.9602e+01	1.9557	-12.009069	0.000418	4.177007	0.707604	0.000042
 199	1.9701e+01	1.9626	-11.967520	0.000418	4.177007	0.707604	0.000042
 200	1.9800e+01	1.9765	-11.924750	0.000430	4.299860	0.728416	0.000043
 201	1.9900e+01	1.9870	-11.881164	0.000438	4.381762	0.742291	0.000044
 202	2.0000e+01	1.9971	-11.835542	0.000459	4.586517	0.776977	0.000046
 203	2.0099e+01	2.0068	-11.792363	0.000434	4.340811	0.735353	0.000043
 204	2.0198e+01	2.0142	-11.748778	0.000438	4.381762	0.742291	0.000044
 205	2.0298e+01	2.0248	-11.705192	0.000438	4.381762	0.742291	0.000044
 206	2.0398e+01	2.0351	-11.657940	0.000475	4.750322	0.804726	0.000047
 207	2.0497e+01	2.0467	-11.613947	0.000442	4.422713	0.749228	0.000044
 208	2.0596e+01	2.0549	-11.570769	0.000434	4.340811	0.735353	0.000043
 209	2.0696e+01	2.0632	-11.526369	0.000446	4.463664	0.756165	0.000045
 210	2.0796e+01	2.0759	-11.479117	0.000475	4.750322	0.804726	0.000047
 211	2.0895e+01	2.0856	-11.437568	0.000418	4.177007	0.707604	0.000042
 212	2.0994e+01	2.0952	-11.394797	0.000430	4.299860	0.728416	0.000043
 213	2.1094e+01	2.1062	-11.352026	0.000430	4.299860	0.728416	0.000043
 214	2.1194e+01	2.1149	-11.307626	0.000446	4.463664	0.756165	0.000045
 215	2.1293e+01	2.1258	-11.264855	0.000430	4.299860	0.728416	0.000043
 216	2.1392e+01	2.1339	-11.225342	0.000397	3.972252	0.672918	0.000040
 217	2.1492e+01	2.1447	-11.183386	0.000422	4.217958	0.714541	0.000042
 218	2.1591e+01	2.1544	-11.138986	0.000446	4.463664	0.756165	0.000045
 219	2.1691e+01	2.1658	-11.098251	0.000410	4.095105	0.693730	0.000041
 220	2.1791e+01	2.1758	-11.053851	0.000446	4.463664	0.756165	0.000045
 221	2.1890e+01	2.1843	-11.009043	0.000450	4.504615	0.763102	0.000045
 222	2.1989e+01	2.1918	-10.969531	0.000397	3.972252	0.672918	0.000040
 223	2.2089e+01	2.2053	-10.922687	0.000471	4.709371	0.797789	0.000047
 224	2.2189e+01	2.2131	-10.880323	0.000426	4.258909	0.721479	0.000043
 225	2.2288e+01	2.2240	-10.839589	0.000410	4.095105	0.693730	0.000041
 226	2.2387e+01	2.2337	-10.798447	0.000414	4.136056	0.700667	0.000041
 227	2.2487e+01	2.2418	-10.754862	0.000438	4.381762	0.742291	0.000044
 228	2.2587e+01	2.2556	-10.710054	0.000450	4.504615	0.763102	0.000045
 229	2.2686e+01	2.2639	-10.672171	0.000381	3.808448	0.645168	0.000038
 230	2.2785e+01	2.2731	-10.627771	0.000446	4.463664	0.756165	0.000045
 231	2.2885e+01	2.2859	-10.586222	0.000418	4.177007	0.707604	0.000042
 232	2.2985e+01	2.2939	-10.540600	0.000459	4.586517	0.776977	0.000046
 233	2.3084e+01	2.3063	-10.499458	0.000414	4.136056	0.700667	0.000041
 234	2.3183e+01	2.3131	-10.454650	0.000450	4.504615	0.763102	0.000045
 235	2.3283e+01	2.3234	-10.411472	0.000434	4.340811	0.735353	0.000043
 236	2.3383e+01	2.3327	-10.366664	0.000450	4.504615	0.763102	0.000045
 237	2.3482e+01	2.3441	-10.321449	0.000455	4.545566	0.770040	0.000045
 238	2.3581e+01	2.3559	-10.277864	0.000438	4.381762	0.742291	0.000044
 239	2.3681e+01	2.3605	-10.235093	0.000430	4.299860	0.728416	0.000043
 240	2.3780e+01	2.3746	-10.189470	0.000459	4.586517	0.776977	0.000046
 241	2.3880e+01	2.3846	-10.143033	0.000467	4.668420	0.790852	0.000047
 242	2.3980e+01	2.3955	-10.099448	0.000438	4.381762	0.742291	0.000044
 243	2.4079e+01	2.4028	-10.055862	0.000438	4.381762	0.742291	0.000044
 244	2.4178e+01	2.4123	-10.013498	0.000426	4.258909	0.721479	0.000043
 245	2.4278e+01	2.4232	-9.965025	0.000487	4.873175	0.825538	0.000049
 246	2.4378e+01	2.4306	-9.922254	0.000430	4.299860	0.728416	0.000043
 247	2.4477e+01	2.4424	-9.880297	0.000422	4.217958	0.714541	0.000042
 248	2.4576e+01	2.4514	-9.834675	0.000459	4.586517	0.776977	0.000046
 249	2.4676e+01	2.4643	-9.791497	0.000434	4.340811	0.735353	0.000043
 250	2.4776e+01	2.4717	-9.745467	0.000463	4.627468	0.783914	0.000046
 251	2.4875e+01	2.4830	-9.702696	0.000430	4.299860	0.728416	0.000043
 252	2.4974e+01	2.4941	-9.657481	0.000455	4.545566	0.770040	0.000045
 253	2.5074e+01	2.5050	-9.612673	0.000450	4.504615	0.763102	0.000045
 254	2.5174e+01	2.5153	-9.571532	0.000414	4.136056	0.700667	0.000041
 255	2.5273e+01	2.5211	-9.527946	0.000438	4.381762	0.742291	0.000044
 256	2.5372e+01	2.5335	-9.482731	0.000455	4.545566	0.770040	0.000045
 257	2.5472e+01	2.5437	-9.436294	0.000467	4.668420	0.790852	0.000047
 258	2.5572e+01	2.5533	-9.397189	0.000393	3.931301	0.665980	0.000039
 259	2.5671e+01	2.5634	-9.349937	0.000475	4.750322	0.804726	0.000047
 260	2.5770e+01	2.5735	-9.308796	0.000414	4.136056	0.700667	0.000041
 261	2.5870e+01	2.5823	-9.265210	0.000438	4.381762	0.742291	0.000044
 262	2.5970e+01	2.5928	-9.219588	0.000459	4.586517	0.776977	0.000046
 263	2.6069e+01	2.6023	-9.176817	0.000430	4.299860	0.728416	0.000043
 264	2.6169e+01	2.6130	-9.129972	0.000471	4.709371	0.797789	0.000047
 265	2.6268e+01	2.6205	-9.090460	0.000397	3.972252	0.672918	0.000040
 266	2.6367e+01	2.6321	-9.041579	0.000491	4.914126	0.832475	0.000049
 267	2.6467e+01	2.6433	-8.997586	0.000442	4.422713	0.749228	0.000044
 268	2.6567e+01	2.6519	-8.951556	0.000463	4.627468	0.783914	0.000046
 269	2.6666e+01	2.6618	-8.905934	0.000459	4.586517	0.776977	0.000046
 270	2.6765e+01	2.6704	-8.858682	0.000475	4.750322	0.804726	0.000047
 271	2.6865e+01	2.6798	-8.813060	0.000459	4.586517	0.776977	0.000046
 272	2.6965e+01	2.6936	-8.768252	0.000450	4.504615	0.763102	0.000045
 273	2.7064e+01	2.7031	-8.721815	0.000467	4.668420	0.790852	0.000047
 274	2.7163e+01	2.7113	-8.677007	0.000450	4.504615	0.763102	0.000045
 275	2.7263e+01	2.7227	-8.635866	0.000414	4.136056	0.700667	0.000041
 276	2.7363e+01	2.7326	-8.589836	0.000463	4.627468	0.783914	0.000046
 277	2.7462e+01	2.7400	-8.545028	0.000450	4.504615	0.763102	0.000045
 278	2.7561e+01	2.7523	-8.501443	0.000438	4.381762	0.742291	0.000044
 279	2.7661e+01	2.7618	-8.455006	0.000467	4.668420	0.790852	0.000047
 280	2.7761e+01	2.7718	-8.408976	0.000463	4.627468	0.783914	0.000046
 281	2.7860e+01	2.7827	-8.364168	0.000450	4.504615	0.763102	0.000045
 282	2.7959e+01	2.7900	-8.316917	0.000475	4.750322	0.804726	0.000047
 283	2.8059e+01	2.8027	-8.273738	0.000434	4.340811	0.735353	0.000043
 284	2.8159e+01	2.8098	-8.225672	0.000483	4.832224	0.818601	0.000048
 285	2.8258e+01	2.8235	-8.183308	0.000426	4.258909	0.721479	0.000043
 286	2.8358e+01	2.8329	-8.139315	0.000442	4.422713	0.749228	0.000044
 287	2.8457e+01	2.8417	-8.096952	0.000426	4.258909	0.721479	0.000043
 288	2.8556e+01	2.8509	-8.053366	0.000438	4.381762	0.742291	0.000044
 289	2.8656e+01	2.8619	-8.007744	0.000459	4.586517	0.776977	0.000046
 290	2.8756e+01	2.8696	-7.965380	0.000426	4.258909	0.721479	0.000043
 291	2.8855e+01	2.8825	-7.923016	0.000426	4.258909	0.721479	0.000043
 292	2.8954e+01	2.8894	-7.883097	0.000401	4.013203	0.679855	0.000040
 293	2.9054e+01	2.9003	-7.841548	0.000418	4.177007	0.707604	0.000042
 294	2.9154e+01	2.9131	-7.794703	0.000471	4.709371	0.797789	0.000047
 295	2.9253e+01	2.9198	-7.753154	0.000418	4.177007	0.707604	0.000042
 296	2.9352e+01	2.9284	-7.709161	0.000442	4.422713	0.749228	0.000044
 297	2.9452e+01	2.9412	-7.665576	0.000438	4.381762	0.742291	0.000044
 298	2.9552e+01	2.9486	-7.624027	0.000418	4.177007	0.707604	0.000042
 299	2.9651e+01	2.9608	-7.574331	0.000500	4.996028	0.846350	0.000050
 300	2.9750e+01	2.9717	-7.534004	0.000405	4.054154	0.686792	0.000041
 301	2.9850e+01	2.9787	-7.492048	0.000422	4.217958	0.714541	0.000042
 302	2.9950e+01	2.9907	-7.446018	0.000463	4.627468	0.783914	0.000046
 303	3.0049e+01	3.0003	-7.402840	0.000434	4.340811	0.735353	0.000043
 304	3.0148e+01	3.0090	-7.359662	0.000434	4.340811	0.735353	0.000043
 305	3.0248e+01	3.0217	-7.316483	0.000434	4.340811	0.735353	0.000043
 306	3.0348e+01	3.0303	-7.274934	0.000418	4.177007	0.707604	0.000042
 307	3.0447e+01	3.0388	-7.234607	0.000405	4.054154	0.686792	0.000041
 308	3.0547e+01	3.0497	-7.190207	0.000446	4.463664	0.756165	0.000045
 309	3.0646e+01	3.0575	-7.143770	0.000467	4.668420	0.790852	0.000047
 310	3.0745e+01	3.0694	-7.101814	0.000422	4.217958	0.714541	0.000042
 311	3.0845e+01	3.0781	-7.058228	0.000438	4.381762	0.742291	0.000044
 312	3.0945e+01	3.0910	-7.014235	0.000442	4.422713	0.749228	0.000044
 313	3.1044e+01	3.1008	-6.972686	0.000418	4.177007	0.707604	0.000042
 314	3.1143e+01	3.1112	-6.928693	0.000442	4.422713	0.749228	0.000044
 315	3.1243e+01	3.1184	-6.888774	0.000401	4.013203	0.679855	0.000040
 316	3.1343e+01	3.1300	-6.846003	0.000430	4.299860	0.728416	0.000043
 317	3.1442e+01	3.1404	-6.806490	0.000397	3.972252	0.672918	0.000040
 318	3.1541e+01	3.1478	-6.764127	0.000426	4.258909	0.721479	0.000043
 319	3.1641e+01	3.1638	-6.722170	0.000422	4.217958	0.714541	0.000042
 320	3.1741e+01	3.1669	-6.685510	0.000369	3.685594	0.624357	0.000037
 321	3.1840e+01	3.1780	-6.643961	0.000418	4.177007	0.707604	0.000042
 322	3.1939e+01	3.1893	-6.604041	0.000401	4.013203	0.679855	0.000040
 323	3.2039e+01	3.1997	-6.564122	0.000401	4.013203	0.679855	0.000040
 324	3.2139e+01	3.2064	-6.522573	0.000418	4.177007	0.707604	0.000042
 325	3.2238e+01	3.2183	-6.480209	0.000426	4.258909	0.721479	0.000043
 326	3.2337e+01	3.2280	-6.441511	0.000389	3.890350	0.659043	0.000039
 327	3.2437e+01	3.2385	-6.401185	0.000405	4.054154	0.686792	0.000041
 328	3.2536e+01	3.2477	-6.359228	0.000422	4.217958	0.714541	0.000042
 329	3.2636e+01	3.2605	-6.320531	0.000389	3.890350	0.659043	0.000039
 330	3.2736e+01	3.2690	-6.281018	0.000397	3.972252	0.672918	0.000040
 331	3.2835e+01	3.2771	-6.238655	0.000426	4.258909	0.721479	0.000043
 332	3.2934e+01	3.2906	-6.202809	0.000360	3.603692	0.610482	0.000036
 333	3.3034e+01	3.2960	-6.160445	0.000426	4.258909	0.721479	0.000043
 334	3.3133e+01	3.3086	-6.119303	0.000414	4.136056	0.700667	0.000041
 335	3.3233e+01	3.3202	-6.082235	0.000373	3.726545	0.631294	0.000037
 336	3.3333e+01	3.3286	-6.043945	0.000385	3.849399	0.652106	0.000038
 337	3.3432e+01	3.3403	-6.006470	0.000377	3.767496	0.638231	0.000038
 338	3.3532e+01	3.3453	-5.961662	0.000450	4.504615	0.763102	0.000045
 339	3.3631e+01	3.3605	-5.923779	0.000381	3.808448	0.645168	0.000038
 340	3.3730e+01	3.3662	-5.887118	0.000369	3.685594	0.624357	0.000037
 341	3.3830e+01	3.3808	-5.847199	0.000401	4.013203	0.679855	0.000040
 342	3.3929e+01	3.3868	-5.806464	0.000410	4.095105	0.693730	0.000041
 343	3.4029e+01	3.3981	-5.766952	0.000397	3.972252	0.672918	0.000040
 344	3.4129e+01	3.4093	-5.728662	0.000385	3.849399	0.652106	0.000038
 345	3.4228e+01	3.4177	-5.691186	0.000377	3.767496	0.638231	0.000038
 346	3.4328e+01	3.4261	-5.646786	0.000446	4.463664	0.756165	0.000045
 347	3.4427e+01	3.4368	-5.613791	0.000332	3.317035	0.561921	0.000033
 348	3.4526e+01	3.4476	-5.572650	0.000414	4.136056	0.700667	0.000041
 349	3.4626e+01	3.4597	-5.536804	0.000360	3.603692	0.610482	0.000036
 350	3.4725e+01	3.4697	-5.498921	0.000381	3.808448	0.645168	0.000038
 351	3.4825e+01	3.4773	-5.457779	0.000414	4.136056	0.700667	0.000041
 352	3.4925e+01	3.4897	-5.425599	0.000324	3.235133	0.548046	0.000032
 353	3.5024e+01	3.5005	-5.387716	0.000381	3.808448	0.645168	0.000038
 354	3.5123e+01	3.5109	-5.352685	0.000352	3.521790	0.596607	0.000035
 355	3.5223e+01	3.5178	-5.314395	0.000385	3.849399	0.652106	0.000038
 356	3.5322e+01	3.5281	-5.276919	0.000377	3.767496	0.638231	0.000038
 357	3.5422e+01	3.5381	-5.239036	0.000381	3.808448	0.645168	0.000038
 358	3.5522e+01	3.5493	-5.201153	0.000381	3.808448	0.645168	0.000038
 359	3.5621e+01	3.5601	-5.166122	0.000352	3.521790	0.596607	0.000035
 360	3.5721e+01	3.5682	-5.128239	0.000381	3.808448	0.645168	0.000038
 361	3.5820e+01	3.5796	-5.089949	0.000385	3.849399	0.652106	0.000038
 362	3.5919e+01	3.5889	-5.051251	0.000389	3.890350	0.659043	0.000039
 363	3.6019e+01	3.5952	-5.020293	0.000311	3.112280	0.527234	0.000031
 364	3.6118e+01	3.6084	-4.982410	0.000381	3.808448	0.645168	0.000038
 365	3.6218e+01	3.6181	-4.946972	0.000356	3.562741	0.603545	0.000036
 366	3.6318e+01	3.6278	-4.909496	0.000377	3.767496	0.638231	0.000038
 367	3.6417e+01	3.6391	-4.874465	0.000352	3.521790	0.596607	0.000035
 368	3.6517e+01	3.6463	-4.837804	0.000369	3.685594	0.624357	0.000037
 369	3.6616e+01	3.6582	-4.797477	0.000405	4.054154	0.686792	0.000041
 370	3.6715e+01	3.6691	-4.760816	0.000369	3.685594	0.624357	0.000037
 371	3.6815e+01	3.6761	-4.723748	0.000373	3.726545	0.631294	0.000037
 372	3.6914e+01	3.6877	-4.689124	0.000348	3.480839	0.589670	0.000035
 373	3.7014e+01	3.6960	-4.647982	0.000414	4.136056	0.700667	0.000041
 374	3.7114e+01	3.7081	-4.606841	0.000414	4.136056	0.700667	0.000041
 375	3.7213e+01	3.7160	-4.569365	0.000377	3.767496	0.638231	0.000038
 376	3.7313e+01	3.7272	-4.529446	0.000401	4.013203	0.679855	0.000040
 377	3.7412e+01	3.7365	-4.496858	0.000328	3.276084	0.554984	0.000033
 378	3.7511e+01	3.7452	-4.456939	0.000401	4.013203	0.679855	0.000040
 379	3.7611e+01	3.7568	-4.418648	0.000385	3.849399	0.652106	0.000038
 380	3.7711e+01	3.7669	-4.386061	0.000328	3.276084	0.554984	0.000033
 381	3.7810e+01	3.7748	-4.347771	0.000385	3.849399	0.652106	0.000038
 382	3.7910e+01	3.7840	-4.311110	0.000369	3.685594	0.624357	0.000037
 383	3.8009e+01	3.7956	-4.275264	0.000360	3.603692	0.610482	0.000036
 384	3.8108e+01	3.8057	-4.237381	0.000381	3.808448	0.645168	0.000038
 385	3.8208e+01	3.8168	-4.202757	0.000348	3.480839	0.589670	0.000035
 386	3.8307e+01	3.8296	-4.168133	0.000348	3.480839	0.589670	0.000035
 387	3.8407e+01	3.8343	-4.131472	0.000369	3.685594	0.624357	0.000037
 388	3.8507e+01	3.8435	-4.091145	0.000405	4.054154	0.686792	0.000041
 389	3.8606e+01	3.8572	-4.057743	0.000336	3.357986	0.568858	0.000034
 390	3.8706e+01	3.8672	-4.017416	0.000405	4.054154	0.686792	0.000041
 391	3.8805e+01	3.8766	-3.981570	0.000360	3.603692	0.610482	0.000036
 392	3.8904e+01	3.8869	-3.943687	0.000381	3.808448	0.645168	0.000038
 393	3.9004e+01	3.8961	-3.912729	0.000311	3.112280	0.527234	0.000031
 394	3.9103e+01	3.9039	-3.876475	0.000364	3.644643	0.617419	0.000036
 395	3.9203e+01	3.9155	-3.839815	0.000369	3.685594	0.624357	0.000037
 396	3.9303e+01	3.9286	-3.798673	0.000414	4.136056	0.700667	0.000041
 397	3.9402e+01	3.9327	-3.765678	0.000332	3.317035	0.561921	0.000033
 398	3.9502e+01	3.9454	-3.729425	0.000364	3.644643	0.617419	0.000036
 399	3.9601e+01	3.9571	-3.687061	0.000426	4.258909	0.721479	0.000043
 400	3.9700e+01	3.9656	-3.654881	0.000324	3.235133	0.548046	0.000032
 401	3.9800e+01	3.9738	-3.617406	0.000377	3.767496	0.638231	0.000038
 402	3.9900e+01	3.9844	-3.579930	0.000377	3.767496	0.638231	0.000038
 403	3.9999e+01	3.9974	-3.540825	0.000393	3.931301	0.665980	0.000039
 404	4.0099e+01	4.0070	-3.502128	0.000389	3.890350	0.659043	0.000039
 405	4.0198e+01	4.0149	-3.465874	0.000364	3.644643	0.617419	0.000036
 406	4.0297e+01	4.0276	-3.427991	0.000381	3.808448	0.645168	0.000038
 407	4.0397e+01	4.0355	-3.387664	0.000405	4.054154	0.686792	0.000041
 408	4.0496e+01	4.0463	-3.350596	0.000373	3.726545	0.631294	0.000037
 409	4.0596e+01	4.0571	-3.311899	0.000389	3.890350	0.659043	0.000039
 410	4.0696e+01	4.0623	-3.272386	0.000397	3.972252	0.672918	0.000040
 411	4.0795e+01	4.0759	-3.234911	0.000377	3.767496	0.638231	0.000038
 412	4.0895e+01	4.0839	-3.199065	0.000360	3.603692	0.610482	0.000036
 413	4.0994e+01	4.0961	-3.157108	0.000422	4.217958	0.714541	0.000042
 414	4.1093e+01	4.1076	-3.119633	0.000377	3.767496	0.638231	0.000038
 415	4.1193e+01	4.1172	-3.082972	0.000369	3.685594	0.624357	0.000037
 416	4.1292e+01	4.1250	-3.043460	0.000397	3.972252	0.672918	0.000040
 417	4.1392e+01	4.1318	-3.005577	0.000381	3.808448	0.645168	0.000038
 418	4.1492e+01	4.1454	-2.970546	0.000352	3.521790	0.596607	0.000035
 419	4.1591e+01	4.1532	-2.928182	0.000426	4.258909	0.721479	0.000043
 420	4.1691e+01	4.1637	-2.891114	0.000373	3.726545	0.631294	0.000037
 421	4.1790e+01	4.1744	-2.854046	0.000373	3.726545	0.631294	0.000037
 422	4.1889e+01	4.1886	-2.815755	0.000385	3.849399	0.652106	0.000038
 423	4.1989e+01	4.1973	-2.777465	0.000385	3.849399	0.652106	0.000038
 424	4.2089e+01	4.2054	-2.738360	0.000393	3.931301	0.665980	0.000039
 425	4.2188e+01	4.2150	-2.699663	0.000389	3.890350	0.659043	0.000039
 426	4.2288e+01	4.2278	-2.665853	0.000340	3.398937	0.575796	0.000034
 427	4.2387e+01	4.2342	-2.626748	0.000393	3.931301	0.665980	0.000039
 428	4.2486e+01	4.2440	-2.586829	0.000401	4.013203	0.679855	0.000040
 429	4.2586e+01	4.2544	-2.550168	0.000369	3.685594	0.624357	0.000037
 430	4.2685e+01	4.2645	-2.514322	0.000360	3.603692	0.610482	0.000036
 431	4.2785e+01	4.2757	-2.472773	0.000418	4.177007	0.707604	0.000042
 432	4.2885e+01	4.2822	-2.438149	0.000348	3.480839	0.589670	0.000035
 433	4.2984e+01	4.2916	-2.397007	0.000414	4.136056	0.700667	0.000041
 434	4.3084e+01	4.3041	-2.357088	0.000401	4.013203	0.679855	0.000040
 435	4.3183e+01	4.3140	-2.321649	0.000356	3.562741	0.603545	0.000036
 436	4.3282e+01	4.3258	-2.278471	0.000434	4.340811	0.735353	0.000043
 437	4.3382e+01	4.3350	-2.237329	0.000414	4.136056	0.700667	0.000041
 438	4.3481e+01	4.3450	-2.197409	0.000401	4.013203	0.679855	0.000040
 439	4.3581e+01	4.3542	-2.159527	0.000381	3.808448	0.645168	0.000038
 440	4.3681e+01	4.3652	-2.120422	0.000393	3.931301	0.665980	0.000039
 441	4.3780e+01	4.3720	-2.079687	0.000410	4.095105	0.693730	0.000041
 442	4.3880e+01	4.3855	-2.044656	0.000352	3.521790	0.596607	0.000035
 443	4.3979e+01	4.3944	-2.003922	0.000410	4.095105	0.693730	0.000041
 444	4.4078e+01	4.4043	-1.964002	0.000401	4.013203	0.679855	0.000040
 445	4.4178e+01	4.4122	-1.926934	0.000373	3.726545	0.631294	0.000037
 446	4.4278e+01	4.4260	-1.889458	0.000377	3.767496	0.638231	0.000038
 447	4.4377e+01	4.4366	-1.846687	0.000430	4.299860	0.728416	0.000043
 448	4.4477e+01	4.4421	-1.807583	0.000393	3.931301	0.665980	0.000039
 449	4.4576e+01	4.4570	-1.769292	0.000385	3.849399	0.652106	0.000038
 450	4.4675e+01	4.4633	-1.730187	0.000393	3.931301	0.665980	0.000039
 451	4.4775e+01	4.4744	-1.688231	0.000422	4.217958	0.714541	0.000042
 452	4.4874e+01	4.4825	-1.653607	0.000348	3.480839	0.589670	0.000035
 453	4.4974e+01	4.4942	-1.613280	0.000405	4.054154	0.686792	0.000041
 454	4.5074e+01	4.5014	-1.573361	0.000401	4.013203	0.679855	0.000040
 455	4.5173e+01	4.5153	-1.535885	0.000377	3.767496	0.638231	0.000038
 456	4.5273e+01	4.5243	-1.500446	0.000356	3.562741	0.603545	0.000036
 457	4.5372e+01	4.5338	-1.463785	0.000369	3.685594	0.624357	0.000037
 458	4.5471e+01	4.5444	-1.423459	0.000405	4.054154	0.686792	0.000041
 459	4.5571e+01	4.5551	-1.388427	0.000352	3.521790	0.596607	0.000035
 460	4.5670e+01	4.5612	-1.351359	0.000373	3.726545	0.631294	0.000037
 461	4.5770e+01	4.5739	-1.313476	0.000381	3.808448	0.645168	0.000038
 462	4.5870e+01	4.5812	-1.277630	0.000360	3.603692	0.610482	0.000036
 463	4.5969e+01	4.5940	-1.239340	0.000385	3.849399	0.652106	0.000038
 464	4.6069e+01	4.6033	-1.203086	0.000364	3.644643	0.617419	0.000036
 465	4.6168e+01	4.6113	-1.163167	0.000401	4.013203	0.679855	0.000040
 466	4.6267e+01	4.6227	-1.126506	0.000369	3.685594	0.624357	0.000037
 467	4.6367e+01	4.6308	-1.086994	0.000397	3.972252	0.672918	0.000040
 468	4.6467e+01	4.6410	-1.046259	0.000410	4.095105	0.693730	0.000041
 469	4.6566e+01	4.6535	-1.007154	0.000393	3.931301	0.665980	0.000039
 470	4.6666e+01	4.6600	-0.974974	0.000324	3.235133	0.548046	0.000032
 471	4.6765e+01	4.6712	-0.935462	0.000397	3.972252	0.672918	0.000040
 472	4.6864e+01	4.6822	-0.898394	0.000373	3.726545	0.631294	0.000037
 473	4.6964e+01	4.6932	-0.860511	0.000381	3.808448	0.645168	0.000038
 474	4.7063e+01	4.7042	-0.825887	0.000348	3.480839	0.589670	0.000035
 475	4.7163e+01	4.7144	-0.786375	0.000397	3.972252	0.672918	0.000040
 476	4.7263e+01	4.7254	-0.747270	0.000393	3.931301	0.665980	0.000039
 477	4.7362e+01	4.7307	-0.711016	0.000364	3.644643	0.617419	0.000036
 478	4.7462e+01	4.7446	-0.670690	0.000405	4.054154	0.686792	0.000041
 479	4.7561e+01	4.7492	-0.633621	0.000373	3.726545	0.631294	0.000037
 480	4.7660e+01	4.7598	-0.596146	0.000377	3.767496	0.638231	0.000038
 481	4.7760e+01	4.7718	-0.561522	0.000348	3.480839	0.589670	0.000035
 482	4.7859e+01	4.7827	-0.521602	0.000401	4.013203	0.679855	0.000040
 483	4.7959e+01	4.7924	-0.487385	0.000344	3.439888	0.582733	0.000034
 484	4.8059e+01	4.8014	-0.451947	0.000356	3.562741	0.603545	0.000036
 485	4.8158e+01	4.8080	-0.416915	0.000352	3.521790	0.596607	0.000035
 486	4.8258e+01	4.8206	-0.382698	0.000344	3.439888	0.582733	0.000034
 487	4.8357e+01	4.8327	-0.346445	0.000364	3.644643	0.617419	0.000036
 488	4.8456e+01	4.8442	-0.311821	0.000348	3.480839	0.589670	0.000035
 489	4.8556e+01	4.8524	-0.277197	0.000348	3.480839	0.589670	0.000035
 490	4.8656e+01	4.8623	-0.240536	0.000369	3.685594	0.624357	0.000037
 491	4.8755e+01	4.8716	-0.208356	0.000324	3.235133	0.548046	0.000032
 492	4.8855e+01	4.8798	-0.172917	0.000356	3.562741	0.603545	0.000036
 493	4.8954e+01	4.8919	-0.139922	0.000332	3.317035	0.561921	0.000033
 494	4.9053e+01	4.9010	-0.102039	0.000381	3.808448	0.645168	0.000038
 495	4.9153e+01	4.9087	-0.066601	0.000356	3.562741	0.603545	0.000036
 496	4.9252e+01	4.9206	-0.031976	0.000348	3.480839	0.589670	0.000035
 497	4.9352e+01	4.9313	0.002240	0.000344	3.439888	0.582733	0.000034
 498	4.9452e+01	4.9405	0.036050	0.000340	3.398937	0.575796	0.000034
 499	4.9551e+01	4.9518	0.071489	0.000356	3.562741	0.603545	0.000036
 500	4.9651e+01	4.9586	0.104891	0.000336	3.357986	0.568858	0.000034
 501	4.9750e+01	4.9697	0.142366	0.000377	3.767496	0.638231	0.000038
 502	4.9849e+01	4.9809	0.170880	0.000287	2.866573	0.485611	0.000029
 503	4.9949e+01	4.9924	0.207541	0.000369	3.685594	0.624357	0.000037
 504	5.0048e+01	5.0014	0.244609	0.000373	3.726545	0.631294	0.000037
 505	5.0148e+01	5.0129	0.273938	0.000295	2.948475	0.499485	0.000029
 506	5.0248e+01	5.0216	0.311413	0.000377	3.767496	0.638231	0.000038
 507	5.0347e+01	5.0318	0.343186	0.000319	3.194182	0.541109	0.000032
 508	5.0447e+01	5.0427	0.374959	0.000319	3.194182	0.541109	0.000032
 509	5.0546e+01	5.0493	0.409583	0.000348	3.480839	0.589670	0.000035
 510	5.0645e+01	5.0586	0.445836	0.000364	3.644643	0.617419	0.000036
 511	5.0745e+01	5.0727	0.478424	0.000328	3.276084	0.554984	0.000033
 512	5.0844e+01	5.0797	0.508975	0.000307	3.071329	0.520297	0.000031
 513	5.0944e+01	5.0890	0.545228	0.000364	3.644643	0.617419	0.000036
 514	5.1044e+01	5.1019	0.581889	0.000369	3.685594	0.624357	0.000037
 515	5.1143e+01	5.1072	0.612032	0.000303	3.030378	0.513360	0.000030
 516	5.1242e+01	5.1208	0.645434	0.000336	3.357986	0.568858	0.000034
 517	5.1342e+01	5.1324	0.675985	0.000307	3.071329	0.520297	0.000031
 518	5.1441e+01	5.1398	0.712238	0.000364	3.644643	0.617419	0.000036
 519	5.1541e+01	5.1472	0.739938	0.000278	2.784671	0.471736	0.000028
 520	5.1641e+01	5.1595	0.771710	0.000319	3.194182	0.541109	0.000032
 521	5.1740e+01	5.1685	0.803076	0.000315	3.153231	0.534172	0.000032
 522	5.1840e+01	5.1788	0.834441	0.000315	3.153231	0.534172	0.000032
 523	5.1939e+01	5.1914	0.868251	0.000340	3.398937	0.575796	0.000034
 524	5.2038e+01	5.1996	0.898394	0.000303	3.030378	0.513360	0.000030
 525	5.2138e+01	5.2106	0.932203	0.000340	3.398937	0.575796	0.000034
 526	5.2237e+01	5.2204	0.964383	0.000324	3.235133	0.548046	0.000032
 527	5.2337e+01	5.2306	0.996156	0.000319	3.194182	0.541109	0.000032
 528	5.2437e+01	5.2398	1.025078	0.000291	2.907524	0.492548	0.000029
 529	5.2536e+01	5.2469	1.061738	0.000369	3.685594	0.624357	0.000037
 530	5.2636e+01	5.2593	1.090252	0.000287	2.866573	0.485611	0.000029
 531	5.2735e+01	5.2659	1.119174	0.000291	2.907524	0.492548	0.000029
 532	5.2834e+01	5.2759	1.148095	0.000291	2.907524	0.492548	0.000029
 533	5.2934e+01	5.2892	1.182719	0.000348	3.480839	0.589670	0.000035
 534	5.3033e+01	5.3005	1.215307	0.000328	3.276084	0.554984	0.000033
 535	5.3133e+01	5.3095	1.245857	0.000307	3.071329	0.520297	0.000031
 536	5.3233e+01	5.3156	1.276815	0.000311	3.112280	0.527234	0.000031
 537	5.3332e+01	5.3315	1.308588	0.000319	3.194182	0.541109	0.000032
 538	5.3431e+01	5.3368	1.343212	0.000348	3.480839	0.589670	0.000035
 539	5.3531e+01	5.3474	1.375799	0.000328	3.276084	0.554984	0.000033
 540	5.3630e+01	5.3559	1.407572	0.000319	3.194182	0.541109	0.000032
 541	5.3730e+01	5.3683	1.441789	0.000344	3.439888	0.582733	0.000034
 542	5.3830e+01	5.3768	1.472340	0.000307	3.071329	0.520297	0.000031
 543	5.3929e+01	5.3876	1.507371	0.000352	3.521790	0.596607	0.000035
 544	5.4029e+01	5.3977	1.538736	0.000315	3.153231	0.534172	0.000032
 545	5.4128e+01	5.4105	1.575397	0.000369	3.685594	0.624357	0.000037
 546	5.4227e+01	5.4197	1.609614	0.000344	3.439888	0.582733	0.000034
 547	5.4327e+01	5.4308	1.640165	0.000307	3.071329	0.520297	0.000031
 548	5.4426e+01	5.4401	1.672752	0.000328	3.276084	0.554984	0.000033
 549	5.4526e+01	5.4492	1.702896	0.000303	3.030378	0.513360	0.000030
 550	5.4626e+01	5.4575	1.734261	0.000315	3.153231	0.534172	0.000032
 551	5.4725e+01	5.4647	1.768478	0.000344	3.439888	0.582733	0.000034
 552	5.4825e+01	5.4755	1.795362	0.000270	2.702769	0.457861	0.000027
 553	5.4924e+01	5.4880	1.828764	0.000336	3.357986	0.568858	0.000034
 554	5.5023e+01	5.4961	1.861352	0.000328	3.276084	0.554984	0.000033
 555	5.5123e+01	5.5059	1.887829	0.000266	2.661818	0.450924	0.000027
 556	5.5222e+01	5.5166	1.922453	0.000348	3.480839	0.589670	0.000035
 557	5.5322e+01	5.5294	1.955855	0.000336	3.357986	0.568858	0.000034
 558	5.5422e+01	5.5372	1.986406	0.000307	3.071329	0.520297	0.000031
 559	5.5521e+01	5.5477	2.018179	0.000319	3.194182	0.541109	0.000032
 560	5.5620e+01	5.5563	2.049137	0.000311	3.112280	0.527234	0.000031
 561	5.5720e+01	5.5676	2.078873	0.000299	2.989427	0.506423	0.000030
 562	5.5819e+01	5.5779	2.115126	0.000364	3.644643	0.617419	0.000036
 563	5.5919e+01	5.5878	2.145270	0.000303	3.030378	0.513360	0.000030
 564	5.6019e+01	5.5959	2.179079	0.000340	3.398937	0.575796	0.000034
 565	5.6118e+01	5.6092	2.208000	0.000291	2.907524	0.492548	0.000029
 566	5.6218e+01	5.6185	2.238551	0.000307	3.071329	0.520297	0.000031
 567	5.6317e+01	5.6278	2.272768	0.000344	3.439888	0.582733	0.000034
 568	5.6416e+01	5.6377	2.302911	0.000303	3.030378	0.513360	0.000030
 569	5.6516e+01	5.6475	2.338757	0.000360	3.603692	0.610482	0.000036
 570	5.6615e+01	5.6577	2.368901	0.000303	3.030378	0.513360	0.000030
 571	5.6715e+01	5.6702	2.403117	0.000344	3.439888	0.582733	0.000034
 572	5.6815e+01	5.6768	2.435297	0.000324	3.235133	0.548046	0.000032
 573	5.6914e+01	5.6847	2.471551	0.000364	3.644643	0.617419	0.000036
 574	5.7014e+01	5.6958	2.505768	0.000344	3.439888	0.582733	0.000034
 575	5.7113e+01	5.7047	2.539170	0.000336	3.357986	0.568858	0.000034
 576	5.7212e+01	5.7151	2.573387	0.000344	3.439888	0.582733	0.000034
 577	5.7312e+01	5.7240	2.606381	0.000332	3.317035	0.561921	0.000033
 578	5.7411e+01	5.7368	2.640598	0.000344	3.439888	0.582733	0.000034
 579	5.7511e+01	5.7477	2.672778	0.000324	3.235133	0.548046	0.000032
 580	5.7611e+01	5.7568	2.704958	0.000324	3.235133	0.548046	0.000032
 581	5.7710e+01	5.7668	2.738768	0.000340	3.398937	0.575796	0.000034
 582	5.7809e+01	5.7740	2.775021	0.000364	3.644643	0.617419	0.000036
 583	5.7909e+01	5.7879	2.805164	0.000303	3.030378	0.513360	0.000030
 584	5.8008e+01	5.7954	2.841011	0.000360	3.603692	0.610482	0.000036
 585	5.8108e+01	5.8060	2.876042	0.000352	3.521790	0.596607	0.000035
 586	5.8208e+01	5.8172	2.909037	0.000332	3.317035	0.561921	0.000033
 587	5.8307e+01	5.8279	2.939588	0.000307	3.071329	0.520297	0.000031
 588	5.8407e+01	5.8382	2.973804	0.000344	3.439888	0.582733	0.000034
 589	5.8506e+01	5.8459	3.011687	0.000381	3.808448	0.645168	0.000038
 590	5.8605e+01	5.8572	3.041831	0.000303	3.030378	0.513360	0.000030
 591	5.8705e+01	5.8663	3.076862	0.000352	3.521790	0.596607	0.000035
 592	5.8804e+01	5.8768	3.112708	0.000360	3.603692	0.610482	0.000036
 593	5.8904e+01	5.8874	3.141629	0.000291	2.907524	0.492548	0.000029
 594	5.9004e+01	5.8968	3.176254	0.000348	3.480839	0.589670	0.000035
 595	5.9103e+01	5.9045	3.210470	0.000344	3.439888	0.582733	0.000034
 596	5.9203e+01	5.9188	3.244280	0.000340	3.398937	0.575796	0.000034
 597	5.9302e+01	5.9248	3.276867	0.000328	3.276084	0.554984	0.000033
 598	5.9401e+01	5.9396	3.309455	0.000328	3.276084	0.554984	0.000033
 599	5.9501e+01	5.9489	3.343671	0.000344	3.439888	0.582733	0.000034
 600	5.9600e+01	5.9548	3.381147	0.000377	3.767496	0.638231	0.000038
 601	5.9700e+01	5.9631	3.414549	0.000336	3.357986	0.568858	0.000034
 602	5.9800e+01	5.9756	3.447544	0.000332	3.317035	0.561921	0.000033
 603	5.9899e+01	5.9850	3.483797	0.000364	3.644643	0.617419	0.000036
 604	5.9998e+01	5.9965	3.521680	0.000381	3.808448	0.645168	0.000038
 605	6.0098e+01	6.0049	3.555082	0.000336	3.357986	0.568858	0.000034
 606	6.0197e+01	6.0127	3.592150	0.000373	3.726545	0.631294	0.000037
 607	6.0297e+01	6.0270	3.626367	0.000344	3.439888	0.582733	0.000034
 608	6.0397e+01	6.0368	3.660584	0.000344	3.439888	0.582733	0.000034
 609	6.0496e+01	6.0458	3.693986	0.000336	3.357986	0.568858	0.000034
 610	6.0596e+01	6.0548	3.733091	0.000393	3.931301	0.665980	0.000039
 611	6.0695e+01	6.0645	3.766900	0.000340	3.398937	0.575796	0.000034
 612	6.0794e+01	6.0739	3.798266	0.000315	3.153231	0.534172	0.000032
 613	6.0894e+01	6.0857	3.838593	0.000405	4.054154	0.686792	0.000041
 614	6.0993e+01	6.0943	3.870365	0.000319	3.194182	0.541109	0.000032
 615	6.1093e+01	6.1062	3.906619	0.000364	3.644643	0.617419	0.000036
 616	6.1193e+01	6.1144	3.942465	0.000360	3.603692	0.610482	0.000036
 617	6.1292e+01	6.1282	3.977089	0.000348	3.480839	0.589670	0.000035
 618	6.1392e+01	6.1359	4.008454	0.000315	3.153231	0.534172	0.000032
 619	6.1491e+01	6.1462	4.045523	0.000373	3.726545	0.631294	0.000037
 620	6.1590e+01	6.1553	4.082998	0.000377	3.767496	0.638231	0.000038
 621	6.1690e+01	6.1657	4.113956	0.000311	3.112280	0.527234	0.000031
 622	6.1789e+01	6.1741	4.148580	0.000348	3.480839	0.589670	0.000035
 623	6.1889e+01	6.1816	4.183612	0.000352	3.521790	0.596607	0.000035
 624	6.1989e+01	6.1952	4.217421	0.000340	3.398937	0.575796	0.000034
 625	6.2088e+01	6.2045	4.249601	0.000324	3.235133	0.548046	0.000032
 626	6.2188e+01	6.2139	4.281781	0.000324	3.235133	0.548046	0.000032
 627	6.2287e+01	6.2222	4.318035	0.000364	3.644643	0.617419	0.000036
 628	6.2386e+01	6.2356	4.348585	0.000307	3.071329	0.520297	0.000031
 629	6.2486e+01	6.2441	4.381580	0.000332	3.317035	0.561921	0.000033
 630	6.2586e+01	6.2536	4.412131	0.000307	3.071329	0.520297	0.000031
 631	6.2685e+01	6.2646	4.450014	0.000381	3.808448	0.645168	0.000038
 632	6.2785e+01	6.2722	4.482601	0.000328	3.276084	0.554984	0.000033
 633	6.2884e+01	6.2844	4.516411	0.000340	3.398937	0.575796	0.000034
 634	6.2983e+01	6.2931	4.546554	0.000303	3.030378	0.513360	0.000030
 635	6.3083e+01	6.3038	4.582400	0.000360	3.603692	0.610482	0.000036
 636	6.3182e+01	6.3129	4.617024	0.000348	3.480839	0.589670	0.000035
 637	6.3282e+01	6.3248	4.650834	0.000340	3.398937	0.575796	0.000034
 638	6.3382e+01	6.3331	4.684643	0.000340	3.398937	0.575796	0.000034
 639	6.3481e+01	6.3424	4.720489	0.000360	3.603692	0.610482	0.000036
 640	6.3581e+01	6.3558	4.755521	0.000352	3.521790	0.596607	0.000035
 641	6.3680e+01	6.3635	4.785664	0.000303	3.030378	0.513360	0.000030
 642	6.3779e+01	6.3752	4.819066	0.000336	3.357986	0.568858	0.000034
 643	6.3879e+01	6.3842	4.855727	0.000369	3.685594	0.624357	0.000037
 644	6.3978e+01	6.3956	4.888314	0.000328	3.276084	0.554984	0.000033
 645	6.4078e+01	6.4022	4.927012	0.000389	3.890350	0.659043	0.000039
 646	6.4177e+01	6.4133	4.955118	0.000283	2.825622	0.478673	0.000028
 647	6.4277e+01	6.4240	4.988521	0.000336	3.357986	0.568858	0.000034
 648	6.4376e+01	6.4351	5.021515	0.000332	3.317035	0.561921	0.000033
 649	6.4476e+01	6.4420	5.056139	0.000348	3.480839	0.589670	0.000035
 650	6.4576e+01	6.4532	5.090764	0.000348	3.480839	0.589670	0.000035
 651	6.4675e+01	6.4614	5.122536	0.000319	3.194182	0.541109	0.000032
 652	6.4775e+01	6.4729	5.157160	0.000348	3.480839	0.589670	0.000035
 653	6.4874e+01	6.4835	5.187711	0.000307	3.071329	0.520297	0.000031
 654	6.4974e+01	6.4942	5.221113	0.000336	3.357986	0.568858	0.000034
 655	6.5073e+01	6.5014	5.251257	0.000303	3.030378	0.513360	0.000030
 656	6.5172e+01	6.5112	5.281400	0.000303	3.030378	0.513360	0.000030
 657	6.5272e+01	6.5228	5.314395	0.000332	3.317035	0.561921	0.000033
 658	6.5371e+01	6.5289	5.346575	0.000324	3.235133	0.548046	0.000032
 659	6.5471e+01	6.5422	5.374274	0.000278	2.784671	0.471736	0.000028
 660	6.5570e+01	6.5554	5.406861	0.000328	3.276084	0.554984	0.000033
 661	6.5670e+01	6.5590	5.439041	0.000324	3.235133	0.548046	0.000032
 662	6.5769e+01	6.5717	5.468370	0.000295	2.948475	0.499485	0.000029
 663	6.5869e+01	6.5816	5.501365	0.000332	3.317035	0.561921	0.000033
 664	6.5969e+01	6.5945	5.532730	0.000315	3.153231	0.534172	0.000032
 665	6.6068e+01	6.6024	5.565318	0.000328	3.276084	0.554984	0.000033
 666	6.6168e+01	6.6117	5.598312	0.000332	3.317035	0.561921	0.000033
 667	6.6267e+01	6.6225	5.628863	0.000307	3.071329	0.520297	0.000031
 668	6.6367e+01	6.6337	5.657377	0.000287	2.866573	0.485611	0.000029
 669	6.6466e+01	6.6407	5.688742	0.000315	3.153231	0.534172	0.000032
 670	6.6566e+01	6.6515	5.716442	0.000278	2.784671	0.471736	0.000028
 671	6.6665e+01	6.6640	5.750658	0.000344	3.439888	0.582733	0.000034
 672	6.6764e+01	6.6721	5.782431	0.000319	3.194182	0.541109	0.000032
 673	6.6864e+01	6.6805	5.813389	0.000311	3.112280	0.527234	0.000031
 674	6.6963e+01	6.6917	5.842718	0.000295	2.948475	0.499485	0.000029
 675	6.7063e+01	6.7017	5.872861	0.000303	3.030378	0.513360	0.000030
 676	6.7162e+01	6.7109	5.900153	0.000274	2.743720	0.464799	0.000027
 677	6.7262e+01	6.7211	5.935185	0.000352	3.521790	0.596607	0.000035
 678	6.7362e+01	6.7297	5.968179	0.000332	3.317035	0.561921	0.000033
 679	6.7461e+01	6.7408	5.995471	0.000274	2.743720	0.464799	0.000027
 680	6.7561e+01	6.7498	6.029688	0.000344	3.439888	0.582733	0.000034
 681	6.7660e+01	6.7641	6.059424	0.000299	2.989427	0.506423	0.000030
 682	6.7760e+01	6.7707	6.092826	0.000336	3.357986	0.568858	0.000034
 683	6.7859e+01	6.7815	6.122155	0.000295	2.948475	0.499485	0.000029
 684	6.7959e+01	6.7920	6.148225	0.000262	2.620867	0.443987	0.000026
 685	6.8058e+01	6.7999	6.177553	0.000295	2.948475	0.499485	0.000029
 686	6.8157e+01	6.8093	6.210141	0.000328	3.276084	0.554984	0.000033
 687	6.8257e+01	6.8205	6.239470	0.000295	2.948475	0.499485	0.000029
 688	6.8356e+01	6.8311	6.266354	0.000270	2.702769	0.457861	0.000027
 689	6.8456e+01	6.8394	6.292831	0.000266	2.661818	0.450924	0.000027
 690	6.8555e+01	6.8510	6.323789	0.000311	3.112280	0.527234	0.000031
 691	6.8655e+01	6.8591	6.349452	0.000258	2.579916	0.437050	0.000026
 692	6.8754e+01	6.8710	6.384483	0.000352	3.521790	0.596607	0.000035
 693	6.8854e+01	6.8826	6.413405	0.000291	2.907524	0.492548	0.000029
 694	6.8954e+01	6.8905	6.445178	0.000319	3.194182	0.541109	0.000032
 695	6.9053e+01	6.8999	6.472877	0.000278	2.784671	0.471736	0.000028
 696	6.9153e+01	6.9093	6.502613	0.000299	2.989427	0.506423	0.000030
 697	6.9252e+01	6.9205	6.533164	0.000307	3.071329	0.520297	0.000031
 698	6.9352e+01	6.9296	6.558011	0.000250	2.498014	0.423175	0.000025
 699	6.9451e+01	6.9397	6.589784	0.000319	3.194182	0.541109	0.000032
 700	6.9550e+01	6.9507	6.617483	0.000278	2.784671	0.471736	0.000028
 701	6.9650e+01	6.9604	6.643146	0.000258	2.579916	0.437050	0.000026
 702	6.9749e+01	6.9689	6.673289	0.000303	3.030378	0.513360	0.000030
 703	6.9849e+01	6.9795	6.701396	0.000283	2.825622	0.478673	0.000028
 704	6.9948e+01	6.9910	6.732354	0.000311	3.112280	0.527234	0.000031
 705	7.0048e+01	7.0010	6.761275	0.000291	2.907524	0.492548	0.000029
 706	7.0147e+01	7.0090	6.796307	0.000352	3.521790	0.596607	0.000035
 707	7.0247e+01	7.0241	6.823599	0.000274	2.743720	0.464799	0.000027
 708	7.0347e+01	7.0296	6.854557	0.000311	3.112280	0.527234	0.000031
 709	7.0446e+01	7.0392	6.888366	0.000340	3.398937	0.575796	0.000034
 710	7.0546e+01	7.0483	6.916880	0.000287	2.866573	0.485611	0.000029
 711	7.0645e+01	7.0586	6.952726	0.000360	3.603692	0.610482	0.000036
 712	7.0745e+01	7.0730	6.981240	0.000287	2.866573	0.485611	0.000029
 713	7.0844e+01	7.0808	7.010569	0.000295	2.948475	0.499485	0.000029
 714	7.0944e+01	7.0911	7.039898	0.000295	2.948475	0.499485	0.000029
 715	7.1043e+01	7.1001	7.067597	0.000278	2.784671	0.471736	0.000028
 716	7.1142e+01	7.1108	7.101406	0.000340	3.398937	0.575796	0.000034
 717	7.1242e+01	7.1204	7.129513	0.000283	2.825622	0.478673	0.000028
 718	7.1341e+01	7.1319	7.158027	0.000287	2.866573	0.485611	0.000029
 719	7.1441e+01	7.1387	7.189392	0.000315	3.153231	0.534172	0.000032
 720	7.1540e+01	7.1508	7.217092	0.000278	2.784671	0.471736	0.000028
 721	7.1640e+01	7.1582	7.249272	0.000324	3.235133	0.548046	0.000032
 722	7.1740e+01	7.1704	7.276156	0.000270	2.702769	0.457861	0.000027
 723	7.1839e+01	7.1783	7.305892	0.000299	2.989427	0.506423	0.000030
 724	7.1939e+01	7.1883	7.337665	0.000319	3.194182	0.541109	0.000032
 725	7.2038e+01	7.1989	7.363735	0.000262	2.620867	0.443987	0.000026
 726	7.2138e+01	7.2083	7.398359	0.000348	3.480839	0.589670	0.000035
 727	7.2237e+01	7.2193	7.430132	0.000319	3.194182	0.541109	0.000032
 728	7.2337e+01	7.2269	7.456202	0.000262	2.620867	0.443987	0.000026
 729	7.2436e+01	7.2396	7.487160	0.000311	3.112280	0.527234	0.000031
 730	7.2535e+01	7.2522	7.516081	0.000291	2.907524	0.492548	0.000029
 731	7.2635e+01	7.2622	7.546632	0.000307	3.071329	0.520297	0.000031
 732	7.2734e+01	7.2665	7.574738	0.000283	2.825622	0.478673	0.000028
 733	7.2834e+01	7.2791	7.604474	0.000299	2.989427	0.506423	0.000030
 734	7.2933e+01	7.2894	7.635025	0.000307	3.071329	0.520297	0.000031
 735	7.3033e+01	7.2983	7.667205	0.000324	3.235133	0.548046	0.000032
 736	7.3132e+01	7.3096	7.695719	0.000287	2.866573	0.485611	0.000029
 737	7.3232e+01	7.3203	7.729529	0.000340	3.398937	0.575796	0.000034
 738	7.3332e+01	7.3287	7.763745	0.000344	3.439888	0.582733	0.000034
 739	7.3431e+01	7.3394	7.793889	0.000303	3.030378	0.513360	0.000030
 740	7.3531e+01	7.3489	7.825661	0.000319	3.194182	0.541109	0.000032
 741	7.3630e+01	7.3566	7.859471	0.000340	3.398937	0.575796	0.000034
 742	7.3730e+01	7.3678	7.890429	0.000311	3.112280	0.527234	0.000031
 743	7.3829e+01	7.3780	7.923016	0.000328	3.276084	0.554984	0.000033
 744	7.3928e+01	7.3882	7.957233	0.000344	3.439888	0.582733	0.000034
 745	7.4028e+01	7.3966	7.989006	0.000319	3.194182	0.541109	0.000032
 746	7.4127e+01	7.4072	8.020779	0.000319	3.194182	0.541109	0.000032
 747	7.4227e+01	7.4177	8.053366	0.000328	3.276084	0.554984	0.000033
 748	7.4326e+01	7.4297	8.085546	0.000324	3.235133	0.548046	0.000032
 749	7.4426e+01	7.4397	8.119355	0.000340	3.398937	0.575796	0.000034
 750	7.4525e+01	7.4491	8.147869	0.000287	2.866573	0.485611	0.000029
 751	7.4625e+01	7.4566	8.180457	0.000328	3.276084	0.554984	0.000033
 752	7.4725e+01	7.4655	8.214674	0.000344	3.439888	0.582733	0.000034
 753	7.4824e+01	7.4815	8.244002	0.000295	2.948475	0.499485	0.000029
 754	7.4924e+01	7.4865	8.279034	0.000352	3.521790	0.596607	0.000035
 755	7.5023e+01	7.4982	8.313250	0.000344	3.439888	0.582733	0.000034
 756	7.5123e+01	7.5060	8.348689	0.000356	3.562741	0.603545	0.000036
 757	7.5222e+01	7.5174	8.377203	0.000287	2.866573	0.485611	0.000029
 758	7.5322e+01	7.5294	8.413864	0.000369	3.685594	0.624357	0.000037
 759	7.5421e+01	7.5372	8.444007	0.000303	3.030378	0.513360	0.000030
 760	7.5520e+01	7.5478	8.475780	0.000319	3.194182	0.541109	0.000032
 761	7.5620e+01	7.5579	8.511626	0.000360	3.603692	0.610482	0.000036
 762	7.5719e+01	7.5677	8.543399	0.000319	3.194182	0.541109	0.000032
 763	7.5819e+01	7.5787	8.577616	0.000344	3.439888	0.582733	0.000034
 764	7.5918e+01	7.5862	8.612240	0.000348	3.480839	0.589670	0.000035
 765	7.6018e+01	7.5987	8.641161	0.000291	2.907524	0.492548	0.000029
 766	7.6118e+01	7.6095	8.675378	0.000344	3.439888	0.582733	0.000034
 767	7.6217e+01	7.6163	8.710409	0.000352	3.521790	0.596607	0.000035
 768	7.6317e+01	7.6270	8.743404	0.000332	3.317035	0.561921	0.000033
 769	7.6416e+01	7.6357	8.775584	0.000324	3.235133	0.548046	0.000032
 770	7.6516e+01	7.6479	8.811430	0.000360	3.603692	0.610482	0.000036
 771	7.6615e+01	7.6578	8.847277	0.000360	3.603692	0.610482	0.000036
 772	7.6715e+01	7.6679	8.885159	0.000381	3.808448	0.645168	0.000038
 773	7.6814e+01	7.6736	8.914081	0.000291	2.907524	0.492548	0.000029
 774	7.6913e+01	7.6864	8.953593	0.000397	3.972252	0.672918	0.000040
 775	7.7013e+01	7.6962	8.985366	0.000319	3.194182	0.541109	0.000032
 776	7.7112e+01	7.7074	9.026100	0.000410	4.095105	0.693730	0.000041
 777	7.7212e+01	7.7175	9.060724	0.000348	3.480839	0.589670	0.000035
 778	7.7311e+01	7.7269	9.092497	0.000319	3.194182	0.541109	0.000032
 779	7.7411e+01	7.7348	9.129565	0.000373	3.726545	0.631294	0.000037
 780	7.7510e+01	7.7469	9.161338	0.000319	3.194182	0.541109	0.000032
 781	7.7610e+01	7.7575	9.198813	0.000377	3.767496	0.638231	0.000038
 782	7.7710e+01	7.7663	9.235474	0.000369	3.685594	0.624357	0.000037
 783	7.7809e+01	7.7775	9.272135	0.000369	3.685594	0.624357	0.000037
 784	7.7909e+01	7.7856	9.307574	0.000356	3.562741	0.603545	0.000036
 785	7.8008e+01	7.7959	9.345456	0.000381	3.808448	0.645168	0.000038
 786	7.8108e+01	7.8062	9.378044	0.000328	3.276084	0.554984	0.000033
 787	7.8207e+01	7.8155	9.413483	0.000356	3.562741	0.603545	0.000036
 788	7.8306e+01	7.8269	9.448107	0.000348	3.480839	0.589670	0.000035
 789	7.8406e+01	7.8369	9.483138	0.000352	3.521790	0.596607	0.000035
 790	7.8505e+01	7.8456	9.517355	0.000344	3.439888	0.582733	0.000034
 791	7.8605e+01	7.8581	9.549942	0.000328	3.276084	0.554984	0.000033
 792	7.8704e+01	7.8653	9.585789	0.000360	3.603692	0.610482	0.000036
 793	7.8804e+01	7.8780	9.620820	0.000352	3.521790	0.596607	0.000035
 794	7.8903e+01	7.8849	9.655037	0.000344	3.439888	0.582733	0.000034
 795	7.9003e+01	7.8983	9.687217	0.000324	3.235133	0.548046	0.000032
 796	7.9103e+01	7.9084	9.723470	0.000364	3.644643	0.617419	0.000036
 797	7.9202e+01	7.9185	9.755650	0.000324	3.235133	0.548046	0.000032
 798	7.9302e+01	7.9252	9.795163	0.000397	3.972252	0.672918	0.000040
 799	7.9401e+01	7.9346	9.825713	0.000307	3.071329	0.520297	0.000031
 800	7.9501e+01	7.9465	9.859115	0.000336	3.357986	0.568858	0.000034
 801	7.9600e+01	7.9530	9.894554	0.000356	3.562741	0.603545	0.000036
 802	7.9700e+01	7.9652	9.930400	0.000360	3.603692	0.610482	0.000036
 803	7.9799e+01	7.9785	9.967876	0.000377	3.767496	0.638231	0.000038
 804	7.9898e+01	7.9834	10.003722	0.000360	3.603692	0.610482	0.000036
 805	7.9998e+01	7.9946	10.038754	0.000352	3.521790	0.596607	0.000035
 806	8.0097e+01	8.0050	10.077044	0.000385	3.849399	0.652106	0.000038
 807	8.0197e+01	8.0170	10.113297	0.000364	3.644643	0.617419	0.000036
 808	8.0296e+01	8.0264	10.147921	0.000348	3.480839	0.589670	0.000035
 809	8.0396e+01	8.0356	10.180509	0.000328	3.276084	0.554984	0.000033
 810	8.0496e+01	8.0457	10.218799	0.000385	3.849399	0.652106	0.000038
 811	8.0595e+01	8.0560	10.250572	0.000319	3.194182	0.541109	0.000032
 812	8.0695e+01	8.0640	10.291713	0.000414	4.136056	0.700667	0.000041
 813	8.0794e+01	8.0732	10.323079	0.000315	3.153231	0.534172	0.000032
 814	8.0894e+01	8.0865	10.359739	0.000369	3.685594	0.624357	0.000037
 815	8.0993e+01	8.0933	10.398437	0.000389	3.890350	0.659043	0.000039
 816	8.1093e+01	8.1052	10.431839	0.000336	3.357986	0.568858	0.000034
 817	8.1192e+01	8.1143	10.468500	0.000369	3.685594	0.624357	0.000037
 818	8.1291e+01	8.1214	10.506383	0.000381	3.808448	0.645168	0.000038
 819	8.1391e+01	8.1351	10.545080	0.000389	3.890350	0.659043	0.000039
 820	8.1490e+01	8.1431	10.574409	0.000295	2.948475	0.499485	0.000029
 821	8.1590e+01	8.1538	10.611477	0.000373	3.726545	0.631294	0.000037
 822	8.1689e+01	8.1663	10.645287	0.000340	3.398937	0.575796	0.000034
 823	8.1789e+01	8.1728	10.676652	0.000315	3.153231	0.534172	0.000032
 824	8.1888e+01	8.1848	10.715757	0.000393	3.931301	0.665980	0.000039
 825	8.1988e+01	8.1952	10.743456	0.000278	2.784671	0.471736	0.000028
 826	8.2088e+01	8.2025	10.780932	0.000377	3.767496	0.638231	0.000038
 827	8.2187e+01	8.2141	10.816778	0.000360	3.603692	0.610482	0.000036
 828	8.2287e+01	8.2236	10.847328	0.000307	3.071329	0.520297	0.000031
 829	8.2386e+01	8.2333	10.882360	0.000352	3.521790	0.596607	0.000035
 830	8.2486e+01	8.2430	10.918206	0.000360	3.603692	0.610482	0.000036
 831	8.2585e+01	8.2531	10.949979	0.000319	3.194182	0.541109	0.000032
 832	8.2684e+01	8.2629	10.984603	0.000348	3.480839	0.589670	0.000035
 833	8.2784e+01	8.2723	11.023300	0.000389	3.890350	0.659043	0.000039
 834	8.2883e+01	8.2825	11.055481	0.000324	3.235133	0.548046	0.000032
 835	8.2983e+01	8.2951	11.089290	0.000340	3.398937	0.575796	0.000034
 836	8.3082e+01	8.3061	11.123914	0.000348	3.480839	0.589670	0.000035
 837	8.3182e+01	8.3142	11.162204	0.000385	3.849399	0.652106	0.000038
 838	8.3281e+01	8.3247	11.195606	0.000336	3.357986	0.568858	0.000034
 839	8.3381e+01	8.3312	11.229416	0.000340	3.398937	0.575796	0.000034
 840	8.3481e+01	8.3421	11.263633	0.000344	3.439888	0.582733	0.000034
 841	8.3580e+01	8.3524	11.299886	0.000364	3.644643	0.617419	0.000036
 842	8.3680e+01	8.3637	11.332066	0.000324	3.235133	0.548046	0.000032
 843	8.3779e+01	8.3742	11.367505	0.000356	3.562741	0.603545	0.000036
 844	8.3879e+01	8.3828	11.400500	0.000332	3.317035	0.561921	0.000033
 845	8.3978e+01	8.3917	11.435531	0.000352	3.521790	0.596607	0.000035
 846	8.4078e+01	8.4037	11.470563	0.000352	3.521790	0.596607	0.000035
 847	8.4177e+01	8.4131	11.506409	0.000360	3.603692	0.610482	0.000036
 848	8.4276e+01	8.4246	11.538996	0.000328	3.276084	0.554984	0.000033
 849	8.4376e+01	8.4326	11.576472	0.000377	3.767496	0.638231	0.000038
 850	8.4475e+01	8.4433	11.610688	0.000344	3.439888	0.582733	0.000034
 851	8.4575e+01	8.4528	11.644498	0.000340	3.398937	0.575796	0.000034
 852	8.4674e+01	8.4635	11.676678	0.000324	3.235133	0.548046	0.000032
 853	8.4774e+01	8.4747	11.715783	0.000393	3.931301	0.665980	0.000039
 854	8.4874e+01	8.4839	11.748370	0.000328	3.276084	0.554984	0.000033
 855	8.4973e+01	8.4942	11.780143	0.000319	3.194182	0.541109	0.000032
 856	8.5073e+01	8.5049	11.809064	0.000291	2.907524	0.492548	0.000029
 857	8.5172e+01	8.5114	11.844503	0.000356	3.562741	0.603545	0.000036
 858	8.5272e+01	8.5220	11.878720	0.000344	3.439888	0.582733	0.000034
 859	8.5371e+01	8.5320	11.908863	0.000303	3.030378	0.513360	0.000030
 860	8.5471e+01	8.5397	11.949597	0.000410	4.095105	0.693730	0.000041
 861	8.5570e+01	8.5522	11.980963	0.000315	3.153231	0.534172	0.000032
 862	8.5669e+01	8.5621	12.014365	0.000336	3.357986	0.568858	0.000034
 863	8.5769e+01	8.5738	12.048174	0.000340	3.398937	0.575796	0.000034
 864	8.5868e+01	8.5865	12.084428	0.000364	3.644643	0.617419	0.000036
 865	8.5968e+01	8.5943	12.119459	0.000352	3.521790	0.596607	0.000035
 866	8.6067e+01	8.6024	12.150417	0.000311	3.112280	0.527234	0.000031
 867	8.6167e+01	8.6134	12.182190	0.000319	3.194182	0.541109	0.000032
 868	8.6266e+01	8.6218	12.215999	0.000340	3.398937	0.575796	0.000034
 869	8.6366e+01	8.6340	12.251031	0.000352	3.521790	0.596607	0.000035
 870	8.6466e+01	8.6392	12.287284	0.000364	3.644643	0.617419	0.000036
 871	8.6565e+01	8.6516	12.323538	0.000364	3.644643	0.617419	0.000036
 872	8.6665e+01	8.6617	12.356940	0.000336	3.357986	0.568858	0.000034
 873	8.6764e+01	8.6732	12.398082	0.000414	4.136056	0.700667	0.000041
 874	8.6864e+01	8.6800	12.428632	0.000307	3.071329	0.520297	0.000031
 875	8.6963e+01	8.6901	12.468144	0.000397	3.972252	0.672918	0.000040
 876	8.7063e+01	8.7025	12.503991	0.000360	3.603692	0.610482	0.000036
 877	8.7162e+01	8.7128	12.541059	0.000373	3.726545	0.631294	0.000037
 878	8.7261e+01	8.7211	12.579756	0.000389	3.890350	0.659043	0.000039
 879	8.7361e+01	8.7307	12.616417	0.000369	3.685594	0.624357	0.000037
 880	8.7460e+01	8.7415	12.652671	0.000364	3.644643	0.617419	0.000036
 881	8.7560e+01	8.7527	12.691776	0.000393	3.931301	0.665980	0.000039
 882	8.7659e+01	8.7613	12.728029	0.000364	3.644643	0.617419	0.000036
 883	8.7759e+01	8.7726	12.767134	0.000393	3.931301	0.665980	0.000039
 884	8.7859e+01	8.7830	12.806646	0.000397	3.972252	0.672918	0.000040
 885	8.7958e+01	8.7922	12.841678	0.000352	3.521790	0.596607	0.000035
 886	8.8058e+01	8.8013	12.878338	0.000369	3.685594	0.624357	0.000037
 887	8.8157e+01	8.8126	12.914185	0.000360	3.603692	0.610482	0.000036
 888	8.8257e+01	8.8232	12.950845	0.000369	3.685594	0.624357	0.000037
 889	8.8356e+01	8.8300	12.990765	0.000401	4.013203	0.679855	0.000040
 890	8.8456e+01	8.8410	13.025389	0.000348	3.480839	0.589670	0.000035
 891	8.8555e+01	8.8480	13.062050	0.000369	3.685594	0.624357	0.000037
 892	8.8654e+01	8.8602	13.102377	0.000405	4.054154	0.686792	0.000041
 893	8.8754e+01	8.8714	13.141889	0.000397	3.972252	0.672918	0.000040
 894	8.8853e+01	8.8785	13.179772	0.000381	3.808448	0.645168	0.000038
 895	8.8953e+01	8.8882	13.220099	0.000405	4.054154	0.686792	0.000041
 896	8.9052e+01	8.9029	13.260426	0.000405	4.054154	0.686792	0.000041
 897	8.9152e+01	8.9099	13.296679	0.000364	3.644643	0.617419	0.000036
 898	8.9251e+01	8.9191	13.342302	0.000459	4.586517	0.776977	0.000046
 899	8.9351e+01	8.9307	13.379777	0.000377	3.767496	0.638231	0.000038
 900	8.9451e+01	8.9380	13.420919	0.000414	4.136056	0.700667	0.000041
 901	8.9550e+01	8.9494	13.460838	0.000401	4.013203	0.679855	0.000040
 902	8.9650e+01	8.9590	13.504017	0.000434	4.340811	0.735353	0.000043
 903	8.9749e+01	8.9706	13.549639	0.000459	4.586517	0.776977	0.000046
 904	8.9849e+01	8.9787	13.590373	0.000410	4.095105	0.693730	0.000041
 905	8.9948e+01	8.9901	13.633959	0.000438	4.381762	0.742291	0.000044
 906	9.0047e+01	9.0024	13.683655	0.000500	4.996028	0.846350	0.000050
 907	9.0147e+01	9.0100	13.724389	0.000410	4.095105	0.693730	0.000041
 908	9.0246e+01	9.0197	13.767975	0.000438	4.381762	0.742291	0.000044
 909	9.0346e+01	9.0287	13.810746	0.000430	4.299860	0.728416	0.000043
 910	9.0445e+01	9.0374	13.857183	0.000467	4.668420	0.790852	0.000047
 911	9.0545e+01	9.0484	13.901583	0.000446	4.463664	0.756165	0.000045
 912	9.0644e+01	9.0588	13.949649	0.000483	4.832224	0.818601	0.000048
 913	9.0744e+01	9.0739	13.993235	0.000438	4.381762	0.742291	0.000044
 914	9.0844e+01	9.0797	14.038043	0.000450	4.504615	0.763102	0.000045
 915	9.0943e+01	9.0920	14.086924	0.000491	4.914126	0.832475	0.000049
 916	9.1043e+01	9.1016	14.130509	0.000438	4.381762	0.742291	0.000044
 917	9.1142e+01	9.1086	14.175317	0.000450	4.504615	0.763102	0.000045
 918	9.1242e+01	9.1181	14.221347	0.000463	4.627468	0.783914	0.000046
 919	9.1341e+01	9.1287	14.264525	0.000434	4.340811	0.735353	0.000043
 920	9.1441e+01	9.1382	14.317480	0.000532	5.323636	0.901848	0.000053
 921	9.1540e+01	9.1504	14.361880	0.000446	4.463664	0.756165	0.000045
 922	9.1639e+01	9.1579	14.414835	0.000532	5.323636	0.901848	0.000053
 923	9.1739e+01	9.1709	14.462901	0.000483	4.832224	0.818601	0.000048
 924	9.1838e+01	9.1758	14.507709	0.000450	4.504615	0.763102	0.000045
 925	9.1938e+01	9.1897	14.557812	0.000504	5.036979	0.853287	0.000050
 926	9.2037e+01	9.1975	14.605878	0.000483	4.832224	0.818601	0.000048
 927	9.2137e+01	9.2095	14.653130	0.000475	4.750322	0.804726	0.000047
 928	9.2237e+01	9.2159	14.706084	0.000532	5.323636	0.901848	0.000053
 929	9.2336e+01	9.2279	14.750892	0.000450	4.504615	0.763102	0.000045
 930	9.2436e+01	9.2396	14.798144	0.000475	4.750322	0.804726	0.000047
 931	9.2535e+01	9.2474	14.847025	0.000491	4.914126	0.832475	0.000049
 932	9.2635e+01	9.2599	14.895906	0.000491	4.914126	0.832475	0.000049
 933	9.2734e+01	9.2695	14.946417	0.000508	5.077930	0.860225	0.000051
 934	9.2834e+01	9.2776	14.996520	0.000504	5.036979	0.853287	0.000050
 935	9.2933e+01	9.2892	15.047845	0.000516	5.159832	0.874099	0.000052
 936	9.3032e+01	9.2988	15.100392	0.000528	5.282685	0.894911	0.000053
 937	9.3132e+01	9.3076	15.152532	0.000524	5.241734	0.887974	0.000052
 938	9.3231e+01	9.3192	15.208338	0.000561	5.610294	0.950409	0.000056
 939	9.3331e+01	9.3262	15.261700	0.000536	5.364587	0.908786	0.000054
 940	9.3430e+01	9.3365	15.311803	0.000504	5.036979	0.853287	0.000050
 941	9.3530e+01	9.3481	15.366387	0.000549	5.487441	0.929598	0.000055
 942	9.3629e+01	9.3570	15.418527	0.000524	5.241734	0.887974	0.000052
 943	9.3729e+01	9.3658	15.472703	0.000545	5.446489	0.922660	0.000054
 944	9.3829e+01	9.3750	15.528102	0.000557	5.569343	0.943472	0.000056
 945	9.3928e+01	9.3872	15.582278	0.000545	5.446489	0.922660	0.000054
 946	9.4028e+01	9.3955	15.637677	0.000557	5.569343	0.943472	0.000056
 947	9.4127e+01	9.4086	15.691853	0.000545	5.446489	0.922660	0.000054
 948	9.4227e+01	9.4165	15.746845	0.000553	5.528392	0.936535	0.000055
 949	9.4326e+01	9.4250	15.802243	0.000557	5.569343	0.943472	0.000056
 950	9.4425e+01	9.4360	15.863752	0.000618	6.183608	1.047532	0.000062
 951	9.4525e+01	9.4458	15.922002	0.000586	5.856000	0.992033	0.000059
 952	9.4624e+01	9.4556	15.982696	0.000610	6.101706	1.033657	0.000061
 953	9.4724e+01	9.4672	16.039317	0.000569	5.692196	0.964284	0.000057
 954	9.4823e+01	9.4751	16.096752	0.000577	5.774098	0.978159	0.000058
 955	9.4923e+01	9.4874	16.153780	0.000573	5.733147	0.971221	0.000057
 956	9.5022e+01	9.4950	16.203883	0.000504	5.036979	0.853287	0.000050
 957	9.5122e+01	9.5068	16.262948	0.000594	5.937902	1.005908	0.000059
 958	9.5222e+01	9.5159	16.317532	0.000549	5.487441	0.929598	0.000055
 959	9.5321e+01	9.5264	16.372523	0.000553	5.528392	0.936535	0.000055
 960	9.5421e+01	9.5351	16.434032	0.000618	6.183608	1.047532	0.000062
 961	9.5520e+01	9.5467	16.485357	0.000516	5.159832	0.874099	0.000052
 962	9.5620e+01	9.5560	16.547680	0.000627	6.265510	1.061406	0.000063
 963	9.5719e+01	9.5669	16.606745	0.000594	5.937902	1.005908	0.000059
 964	9.5819e+01	9.5782	16.668661	0.000622	6.224559	1.054469	0.000062
 965	9.5918e+01	9.5898	16.725281	0.000569	5.692196	0.964284	0.000057
 966	9.6017e+01	9.5978	16.790456	0.000655	6.552168	1.109967	0.000066
 967	9.6117e+01	9.6078	16.851558	0.000614	6.142657	1.040594	0.000061
 968	9.6216e+01	9.6152	16.914288	0.000631	6.306461	1.068343	0.000063
 969	9.6316e+01	9.6253	16.982722	0.000688	6.879776	1.165466	0.000069
 970	9.6415e+01	9.6375	17.047489	0.000651	6.511217	1.103030	0.000065
 971	9.6515e+01	9.6472	17.115108	0.000680	6.797874	1.151591	0.000068
 972	9.6615e+01	9.6558	17.181098	0.000663	6.634070	1.123842	0.000066
 973	9.6714e+01	9.6638	17.245051	0.000643	6.429315	1.089155	0.000064
 974	9.6814e+01	9.6762	17.312262	0.000676	6.756923	1.144654	0.000068
 975	9.6913e+01	9.6867	17.380696	0.000688	6.879776	1.165466	0.000069
 976	9.7013e+01	9.6927	17.447500	0.000672	6.715972	1.137716	0.000067
 977	9.7112e+01	9.7046	17.515119	0.000680	6.797874	1.151591	0.000068
 978	9.7212e+01	9.7160	17.583960	0.000692	6.920727	1.172403	0.000069
 979	9.7311e+01	9.7285	17.660133	0.000766	7.657846	1.297274	0.000077
 980	9.7410e+01	9.7364	17.728566	0.000688	6.879776	1.165466	0.000069
 981	9.7510e+01	9.7440	17.805554	0.000774	7.739748	1.311149	0.000077
 982	9.7609e+01	9.7562	17.882542	0.000774	7.739748	1.311149	0.000077
 983	9.7709e+01	9.7650	17.955863	0.000737	7.371189	1.248713	0.000074
 984	9.7808e+01	9.7784	18.023890	0.000684	6.838825	1.158528	0.000068
 985	9.7908e+01	9.7855	18.095989	0.000725	7.248336	1.227901	0.000072
 986	9.8007e+01	9.7949	18.160349	0.000647	6.470266	1.096093	0.000065
 987	9.8107e+01	9.8064	18.232856	0.000729	7.289287	1.234839	0.000073
 988	9.8207e+01	9.8120	18.309029	0.000766	7.657846	1.297274	0.000077
 989	9.8306e+01	9.8235	18.386832	0.000782	7.821650	1.325023	0.000078
 990	9.8406e+01	9.8328	18.471559	0.000852	8.517818	1.442957	0.000085
 991	9.8505e+01	9.8450	18.558323	0.000872	8.722573	1.477644	0.000087
 992	9.8605e+01	9.8535	18.644272	0.000864	8.640671	1.463769	0.000086
 993	9.8704e+01	9.8636	18.726963	0.000831	8.313063	1.408271	0.000083
 994	9.8803e+01	9.8767	18.806395	0.000799	7.985454	1.352773	0.000080
 995	9.8903e+01	9.8843	18.900083	0.000942	9.418741	1.595578	0.000094
 996	9.9002e+01	9.8942	18.982774	0.000831	8.313063	1.408271	0.000083
 997	9.9102e+01	9.9045	19.073611	0.000913	9.132084	1.547017	0.000091
 998	9.9201e+01	9.9152	19.164856	0.000917	9.173035	1.553954	0.000092
 999	9.9301e+01	9.9259	19.256508	0.000921	9.213986	1.560891	0.000092
1000	9.9400e+01	9.9335	19.355085	0.000991	9.910154	1.678825	0.000099
1001	9.9500e+01	9.9424	19.445515	0.000909	9.091133	1.540080	0.000091
1002	9.9600e+01	9.9548	19.534316	0.000893	8.927329	1.512330	0.000089
1003	9.9699e+01	9.9652	19.622302	0.000885	8.845426	1.498456	0.000088
1004	9.9799e+01	9.9731	19.706214	0.000844	8.435916	1.429083	0.000084
1005	9.9898e+01	9.9821	19.793386	0.000876	8.763524	1.484581	0.000088
1006	9.9998e+01	9.9935	19.874447	0.000815	8.149259	1.380522	0.000081
1007	1.0010e+02	9.9847	19.918032	-0.000438	-4.381762	-0.742291	0.000044
1008	1.0020e+02	9.9727	19.961211	-0.000434	-4.340811	-0.735353	0.000043
1009	1.0030e+02	9.9643	19.998279	-0.000373	-3.726545	-0.631294	0.000037
1010	1.0040e+02	9.9538	20.036162	-0.000381	-3.808448	-0.645168	0.000038
1011	1.0050e+02	9.9448	20.070379	-0.000344	-3.439888	-0.582733	0.000034
1012	1.0059e+02	9.9354	20.112335	-0.000422	-4.217958	-0.714541	0.000042
1013	1.0069e+02	9.9198	20.150218	-0.000381	-3.808448	-0.645168	0.000038
1014	1.0079e+02	9.9136	20.179954	-0.000299	-2.989427	-0.506423	0.000030
1015	1.0089e+02	9.9054	20.213763	-0.000340	-3.398937	-0.575796	0.000034
1016	1.0099e+02	9.8949	20.246351	-0.000328	-3.276084	-0.554984	0.000033
1017	1.0109e+02	9.8837	20.271198	-0.000250	-2.498014	-0.423175	0.000025
1018	1.0119e+02	9.8738	20.294010	-0.000229	-2.293259	-0.388489	0.000023
1019	1.0129e+02	9.8648	20.319672	-0.000258	-2.579916	-0.437050	0.000026
1020	1.0139e+02	9.8530	20.349816	-0.000303	-3.030378	-0.513360	0.000030
1021	1.0149e+02	9.8450	20.376700	-0.000270	-2.702769	-0.457861	0.000027
1022	1.0159e+02	9.8341	20.401548	-0.000250	-2.498014	-0.423175	0.000025
1023	1.0169e+02	9.8254	20.430877	-0.000295	-2.948475	-0.499485	0.000029
1024	1.0179e+02	9.8163	20.452466	-0.000217	-2.170406	-0.367677	0.000022
1025	1.0189e+02	9.8038	20.486275	-0.000340	-3.398937	-0.575796	0.000034
1026	1.0199e+02	9.7952	20.510716	-0.000246	-2.457063	-0.416238	0.000025
1027	1.0209e+02	9.7869	20.539637	-0.000291	-2.907524	-0.492548	0.000029
1028	1.0219e+02	9.7760	20.567336	-0.000278	-2.784671	-0.471736	0.000028
1029	1.0229e+02	9.7644	20.596258	-0.000291	-2.907524	-0.492548	0.000029
1030	1.0239e+02	9.7559	20.625179	-0.000291	-2.907524	-0.492548	0.000029
1031	1.0248e+02	9.7461	20.656137	-0.000311	-3.112280	-0.527234	0.000031
1032	1.0258e+02	9.7339	20.679763	-0.000238	-2.375161	-0.402363	0.000024
1033	1.0268e+02	9.7269	20.702574	-0.000229	-2.293259	-0.388489	0.000023
1034	1.0278e+02	9.7139	20.727422	-0.000250	-2.498014	-0.423175	0.000025
1035	1.0288e+02	9.7052	20.754307	-0.000270	-2.702769	-0.457861	0.000027
1036	1.0298e+02	9.6940	20.774674	-0.000205	-2.047552	-0.346865	0.000020
1037	1.0308e+02	9.6866	20.798300	-0.000238	-2.375161	-0.402363	0.000024
1038	1.0318e+02	9.6761	20.819889	-0.000217	-2.170406	-0.367677	0.000022
1039	1.0328e+02	9.6689	20.848403	-0.000287	-2.866573	-0.485611	0.000029
1040	1.0338e+02	9.6548	20.872436	-0.000242	-2.416112	-0.409300	0.000024
1041	1.0348e+02	9.6440	20.896469	-0.000242	-2.416112	-0.409300	0.000024
1042	1.0358e+02	9.6338	20.917651	-0.000213	-2.129455	-0.360739	0.000021
1043	1.0368e+02	9.6256	20.942906	-0.000254	-2.538965	-0.430112	0.000025
1044	1.0378e+02	9.6149	20.968162	-0.000254	-2.538965	-0.430112	0.000025
1045	1.0388e+02	9.6066	20.993417	-0.000254	-2.538965	-0.430112	0.000025
1046	1.0398e+02	9.5960	21.010932	-0.000176	-1.760895	-0.298304	0.000018
1047	1.0408e+02	9.5839	21.037410	-0.000266	-2.661818	-0.450924	0.000027
1048	1.0418e+02	9.5776	21.056555	-0.000192	-1.924699	-0.326053	0.000019
1049	1.0428e+02	9.5663	21.076922	-0.000205	-2.047552	-0.346865	0.000020
1050	1.0438e+02	9.5557	21.093623	-0.000168	-1.678993	-0.284429	0.000017
1051	1.0447e+02	9.5462	21.113583	-0.000201	-2.006601	-0.339927	0.000020
1052	1.0457e+02	9.5350	21.131913	-0.000184	-1.842797	-0.312178	0.000018
1053	1.0467e+02	9.5267	21.149429	-0.000176	-1.760895	-0.298304	0.000018
1054	1.0477e+02	9.5166	21.170203	-0.000209	-2.088503	-0.353802	0.000021
1055	1.0487e+02	9.5062	21.182016	-0.000119	-1.187580	-0.201182	0.000012
1056	1.0497e+02	9.4965	21.200347	-0.000184	-1.842797	-0.312178	0.000018
1057	1.0507e+02	9.4889	21.208494	-0.000082	-0.819021	-0.138746	0.000008
1058	1.0517e+02	9.4775	21.221936	-0.000135	-1.351385	-0.228931	0.000014
1059	1.0527e+02	9.4682	21.235378	-0.000135	-1.351385	-0.228931	0.000014
1060	1.0537e+02	9.4580	21.249635	-0.000143	-1.433287	-0.242805	0.000014
1061	1.0547e+02	9.4460	21.262263	-0.000127	-1.269483	-0.215056	0.000013
1062	1.0557e+02	9.4357	21.274076	-0.000119	-1.187580	-0.201182	0.000012
1063	1.0567e+02	9.4273	21.287518	-0.000135	-1.351385	-0.228931	0.000014
1064	1.0577e+02	9.4207	21.289962	-0.000025	-0.245706	-0.041624	0.000002
1065	1.0587e+02	9.4073	21.295665	-0.000057	-0.573315	-0.097122	0.000006
1066	1.0597e+02	9.3954	21.299738	-0.000041	-0.409510	-0.069373	0.000004
1067	1.0607e+02	9.3891	21.305848	-0.000061	-0.614266	-0.104059	0.000006
1068	1.0617e+02	9.3799	21.309515	-0.000037	-0.368559	-0.062436	0.000004
1069	1.0627e+02	9.3665	21.313588	-0.000041	-0.409510	-0.069373	0.000004
1070	1.0637e+02	9.3585	21.315217	-0.000016	-0.163804	-0.027749	0.000002
1071	1.0647e+02	9.3472	21.320920	-0.000057	-0.573315	-0.097122	0.000006
1072	1.0656e+02	9.3408	21.325808	-0.000049	-0.491413	-0.083248	0.000005
1073	1.0666e+02	9.3279	21.331918	-0.000061	-0.614266	-0.104059	0.000006
1074	1.0676e+02	9.3168	21.337621	-0.000057	-0.573315	-0.097122	0.000006
1075	1.0686e+02	9.3075	21.336399	0.000012	0.122853	0.020812	-0.000001
1076	1.0696e+02	9.2955	21.339658	-0.000033	-0.327608	-0.055498	0.000003
1077	1.0706e+02	9.2886	21.342102	-0.000025	-0.245706	-0.041624	0.000002
1078	1.0716e+02	9.2786	21.344953	-0.000029	-0.286657	-0.048561	0.000003
1079	1.0726e+02	9.2676	21.345361	-0.000004	-0.040951	-0.006937	0.000000
1080	1.0736e+02	9.2556	21.349434	-0.000041	-0.409510	-0.069373	0.000004
1081	1.0746e+02	9.2505	21.357174	-0.000078	-0.778070	-0.131809	0.000008
1082	1.0756e+02	9.2388	21.361247	-0.000041	-0.409510	-0.069373	0.000004
1083	1.0766e+02	9.2285	21.365320	-0.000041	-0.409510	-0.069373	0.000004
1084	1.0776e+02	9.2163	21.368172	-0.000029	-0.286657	-0.048561	0.000003
1085	1.0786e+02	9.2075	21.375504	-0.000074	-0.737119	-0.124871	0.000007
1086	1.0796e+02	9.1972	21.377948	-0.000025	-0.245706	-0.041624	0.000002
1087	1.0806e+02	9.1895	21.384466	-0.000066	-0.655217	-0.110997	0.000007
1088	1.0816e+02	9.1770	21.386910	-0.000025	-0.245706	-0.041624	0.000002
1089	1.0826e+02	9.1686	21.397501	-0.000106	-1.064727	-0.180370	0.000011
1090	1.0836e+02	9.1564	21.401574	-0.000041	-0.409510	-0.069373	0.000004
1091	1.0845e+02	9.1467	21.402389	-0.000008	-0.081902	-0.013875	0.000001
1092	1.0855e+02	9.1412	21.406055	-0.000037	-0.368559	-0.062436	0.000004
1093	1.0865e+02	9.1299	21.412165	-0.000061	-0.614266	-0.104059	0.000006
1094	1.0875e+02	9.1180	21.412572	-0.000004	-0.040951	-0.006937	0.000000
1095	1.0885e+02	9.1099	21.416646	-0.000041	-0.409510	-0.069373	0.000004
1096	1.0895e+02	9.0995	21.423163	-0.000066	-0.655217	-0.110997	0.000007
1097	1.0905e+02	9.0875	21.428051	-0.000049	-0.491413	-0.083248	0.000005
1098	1.0915e+02	9.0788	21.428459	-0.000004	-0.040951	-0.006937	0.000000
1099	1.0925e+02	9.0693	21.430903	-0.000025	-0.245706	-0.041624	0.000002
1100	1.0935e+02	9.0631	21.421534	0.000094	0.941874	0.159558	-0.000009
1101	1.0945e+02	9.0513	21.428051	-0.000066	-0.655217	-0.110997	0.000007
1102	1.0955e+02	9.0381	21.434161	-0.000061	-0.614266	-0.104059	0.000006
1103	1.0965e+02	9.0292	21.426829	0.000074	0.737119	0.124871	-0.000007
1104	1.0975e+02	9.0186	21.431717	-0.000049	-0.491413	-0.083248	0.000005
1105	1.0985e+02	9.0101	21.433347	-0.000016	-0.163804	-0.027749	0.000002
1106	1.0995e+02	8.9996	21.435791	-0.000025	-0.245706	-0.041624	0.000002
1107	1.1005e+02	8.9877	21.435383	0.000004	0.040951	0.006937	-0.000000
1108	1.1015e+02	8.9820	21.434161	0.000012	0.122853	0.020812	-0.000001
1109	1.1025e+02	8.9683	21.434976	-0.000008	-0.081902	-0.013875	0.000001
1110	1.1035e+02	8.9588	21.436605	-0.000016	-0.163804	-0.027749	0.000002
1111	1.1044e+02	8.9492	21.439049	-0.000025	-0.245706	-0.041624	0.000002
1112	1.1054e+02	8.9407	21.439864	-0.000008	-0.081902	-0.013875	0.000001
1113	1.1064e+02	8.9331	21.437827	0.000020	0.204755	0.034686	-0.000002
1114	1.1074e+02	8.9169	21.433754	0.000041	0.409510	0.069373	-0.000004
1115	1.1084e+02	8.9094	21.435383	-0.000016	-0.163804	-0.027749	0.000002
1116	1.1094e+02	8.8998	21.430088	0.000053	0.532364	0.090185	-0.000005
1117	1.1104e+02	8.8916	21.429681	0.000004	0.040951	0.006937	-0.000000
1118	1.1114e+02	8.8791	21.431717	-0.000020	-0.204755	-0.034686	0.000002
1119	1.1124e+02	8.8692	21.426422	0.000053	0.532364	0.090185	-0.000005
1120	1.1134e+02	8.8589	21.426829	-0.000004	-0.040951	-0.006937	0.000000
1121	1.1144e+02	8.8490	21.424793	0.000020	0.204755	0.034686	-0.000002
1122	1.1154e+02	8.8416	21.423978	0.000008	0.081902	0.013875	-0.000001
1123	1.1164e+02	8.8309	21.422348	0.000016	0.163804	0.027749	-0.000002
1124	1.1174e+02	8.8190	21.424385	-0.000020	-0.204755	-0.034686	0.000002
1125	1.1184e+02	8.8120	21.414202	0.000102	1.023776	0.173432	-0.000010
1126	1.1194e+02	8.8052	21.414202	-0.000000	-0.000000	-0.000000	0.000000
1127	1.1204e+02	8.7918	21.410128	0.000041	0.409510	0.069373	-0.000004
1128	1.1214e+02	8.7797	21.404425	0.000057	0.573315	0.097122	-0.000006
1129	1.1224e+02	8.7720	21.401981	0.000025	0.245706	0.041624	-0.000002
1130	1.1234e+02	8.7619	21.396686	0.000053	0.532364	0.090185	-0.000005
1131	1.1244e+02	8.7524	21.390168	0.000066	0.655217	0.110997	-0.000007
1132	1.1253e+02	8.7395	21.384058	0.000061	0.614266	0.104059	-0.000006
1133	1.1263e+02	8.7317	21.376726	0.000074	0.737119	0.124871	-0.000007
1134	1.1273e+02	8.7207	21.375097	0.000016	0.163804	0.027749	-0.000002
1135	1.1283e+02	8.7132	21.366135	0.000090	0.900923	0.152620	-0.000009
1136	1.1293e+02	8.7008	21.362469	0.000037	0.368559	0.062436	-0.000004
1137	1.1303e+02	8.6922	21.355544	0.000070	0.696168	0.117934	-0.000007
1138	1.1313e+02	8.6819	21.349434	0.000061	0.614266	0.104059	-0.000006
1139	1.1323e+02	8.6729	21.345768	0.000037	0.368559	0.062436	-0.000004
1140	1.1333e+02	8.6615	21.339658	0.000061	0.614266	0.104059	-0.000006
1141	1.1343e+02	8.6509	21.329882	0.000098	0.982825	0.166495	-0.000010
1142	1.1353e+02	8.6407	21.322550	0.000074	0.737119	0.124871	-0.000007
1143	1.1363e+02	8.6316	21.311959	0.000106	1.064727	0.180370	-0.000011
1144	1.1373e+02	8.6267	21.298924	0.000131	1.310434	0.221993	-0.000013
1145	1.1383e+02	8.6134	21.291999	0.000070	0.696168	0.117934	-0.000007
1146	1.1393e+02	8.6021	21.285889	0.000061	0.614266	0.104059	-0.000006
1147	1.1403e+02	8.5947	21.278964	0.000070	0.696168	0.117934	-0.000007
1148	1.1413e+02	8.5803	21.270817	0.000082	0.819021	0.138746	-0.000008
1149	1.1423e+02	8.5697	21.261041	0.000098	0.982825	0.166495	-0.000010
1150	1.1433e+02	8.5605	21.250857	0.000102	1.023776	0.173432	-0.000010
1151	1.1442e+02	8.5526	21.240266	0.000106	1.064727	0.180370	-0.000011
1152	1.1452e+02	8.5413	21.231305	0.000090	0.900923	0.152620	-0.000009
1153	1.1462e+02	8.5313	21.223158	0.000082	0.819021	0.138746	-0.000008
1154	1.1472e+02	8.5212	21.206864	0.000164	1.638042	0.277492	-0.000016
1155	1.1482e+02	8.5163	21.193829	0.000131	1.310434	0.221993	-0.000013
1156	1.1492e+02	8.5001	21.179572	0.000143	1.433287	0.242805	-0.000014
1157	1.1502e+02	8.4938	21.172240	0.000074	0.737119	0.124871	-0.000007
1158	1.1512e+02	8.4852	21.157168	0.000152	1.515189	0.256680	-0.000015
1159	1.1522e+02	8.4727	21.144133	0.000131	1.310434	0.221993	-0.000013
1160	1.1532e+02	8.4627	21.134765	0.000094	0.941874	0.159558	-0.000009
1161	1.1542e+02	8.4521	21.123766	0.000111	1.105678	0.187307	-0.000011
1162	1.1552e+02	8.4434	21.105436	0.000184	1.842797	0.312178	-0.000018
1163	1.1562e+02	8.4335	21.094438	0.000111	1.105678	0.187307	-0.000011
1164	1.1572e+02	8.4253	21.075700	0.000188	1.883748	0.319116	-0.000019
1165	1.1582e+02	8.4135	21.064294	0.000115	1.146629	0.194244	-0.000011
1166	1.1592e+02	8.4010	21.050445	0.000139	1.392336	0.235868	-0.000014
1167	1.1602e+02	8.3936	21.036595	0.000139	1.392336	0.235868	-0.000014
1168	1.1612e+02	8.3847	21.018672	0.000180	1.801846	0.305241	-0.000018
1169	1.1622e+02	8.3740	21.003193	0.000156	1.556140	0.263617	-0.000016
1170	1.1632e+02	8.3619	20.985270	0.000180	1.801846	0.305241	-0.000018
1171	1.1642e+02	8.3542	20.970606	0.000147	1.474238	0.249743	-0.000015
1172	1.1651e+02	8.3428	20.953090	0.000176	1.760895	0.298304	-0.000018
1173	1.1661e+02	8.3315	20.934759	0.000184	1.842797	0.312178	-0.000018
1174	1.1671e+02	8.3218	20.918466	0.000164	1.638042	0.277492	-0.000016
1175	1.1681e+02	8.3125	20.902172	0.000164	1.638042	0.277492	-0.000016
1176	1.1691e+02	8.3019	20.882620	0.000197	1.965650	0.332990	-0.000020
1177	1.1701e+02	8.2915	20.868770	0.000139	1.392336	0.235868	-0.000014
1178	1.1711e+02	8.2827	20.847995	0.000209	2.088503	0.353802	-0.000021
1179	1.1721e+02	8.2736	20.831294	0.000168	1.678993	0.284429	-0.000017
1180	1.1731e+02	8.2635	20.814593	0.000168	1.678993	0.284429	-0.000017
1181	1.1741e+02	8.2539	20.794226	0.000205	2.047552	0.346865	-0.000020
1182	1.1751e+02	8.2422	20.775081	0.000192	1.924699	0.326053	-0.000019
1183	1.1761e+02	8.2342	20.760009	0.000152	1.515189	0.256680	-0.000015
1184	1.1771e+02	8.2278	20.737198	0.000229	2.293259	0.388489	-0.000023
1185	1.1781e+02	8.2131	20.720497	0.000168	1.678993	0.284429	-0.000017
1186	1.1791e+02	8.2024	20.701352	0.000192	1.924699	0.326053	-0.000019
1187	1.1801e+02	8.1942	20.679763	0.000217	2.170406	0.367677	-0.000022
1188	1.1811e+02	8.1833	20.661840	0.000180	1.801846	0.305241	-0.000018
1189	1.1821e+02	8.1761	20.644732	0.000172	1.719944	0.291366	-0.000017
1190	1.1831e+02	8.1634	20.618254	0.000266	2.661818	0.450924	-0.000027
1191	1.1841e+02	8.1554	20.595850	0.000225	2.252308	0.381551	-0.000023
1192	1.1850e+02	8.1464	20.572632	0.000233	2.334210	0.395426	-0.000023
1193	1.1860e+02	8.1316	20.555116	0.000176	1.760895	0.298304	-0.000018
1194	1.1870e+02	8.1250	20.533527	0.000217	2.170406	0.367677	-0.000022
1195	1.1880e+02	8.1142	20.510308	0.000233	2.334210	0.395426	-0.000023
1196	1.1890e+02	8.1037	20.489534	0.000209	2.088503	0.353802	-0.000021
1197	1.1900e+02	8.0945	20.471611	0.000180	1.801846	0.305241	-0.000018
1198	1.1910e+02	8.0846	20.450429	0.000213	2.129455	0.360739	-0.000021
1199	1.1920e+02	8.0746	20.425174	0.000254	2.538965	0.430112	-0.000025
1200	1.1930e+02	8.0668	20.402770	0.000225	2.252308	0.381551	-0.000023
1201	1.1940e+02	8.0558	20.379144	0.000238	2.375161	0.402363	-0.000024
1202	1.1950e+02	8.0446	20.357148	0.000221	2.211357	0.374614	-0.000022
1203	1.1960e+02	8.0312	20.334336	0.000229	2.293259	0.388489	-0.000023
1204	1.1970e+02	8.0246	20.313562	0.000209	2.088503	0.353802	-0.000021
1205	1.1980e+02	8.0160	20.289936	0.000238	2.375161	0.402363	-0.000024
1206	1.1990e+02	8.0058	20.266718	0.000233	2.334210	0.395426	-0.000023
1207	1.2000e+02	7.9961	20.245943	0.000209	2.088503	0.353802	-0.000021
1208	1.2010e+02	7.9842	20.223947	0.000221	2.211357	0.374614	-0.000022
1209	1.2020e+02	7.9764	20.206024	0.000180	1.801846	0.305241	-0.000018
1210	1.2030e+02	7.9658	20.185249	0.000209	2.088503	0.353802	-0.000021
1211	1.2039e+02	7.9547	20.166104	0.000192	1.924699	0.326053	-0.000019
1212	1.2049e+02	7.9452	20.141663	0.000246	2.457063	0.416238	-0.000025
1213	1.2059e+02	7.9362	20.120482	0.000213	2.129455	0.360739	-0.000021
1214	1.2069e+02	7.9250	20.098078	0.000225	2.252308	0.381551	-0.000023
1215	1.2079e+02	7.9172	20.080155	0.000180	1.801846	0.305241	-0.000018
1216	1.2089e+02	7.9053	20.058973	0.000213	2.129455	0.360739	-0.000021
1217	1.2099e+02	7.8940	20.036162	0.000229	2.293259	0.388489	-0.000023
1218	1.2109e+02	7.8857	20.015387	0.000209	2.088503	0.353802	-0.000021
1219	1.2119e+02	7.8778	19.990539	0.000250	2.498014	0.423175	-0.000025
1220	1.2129e+02	7.8652	19.967728	0.000229	2.293259	0.388489	-0.000023
1221	1.2139e+02	7.8529	19.943288	0.000246	2.457063	0.416238	-0.000025
1222	1.2149e+02	7.8453	19.918440	0.000250	2.498014	0.423175	-0.000025
1223	1.2159e+02	7.8357	19.894407	0.000242	2.416112	0.409300	-0.000024
1224	1.2169e+02	7.8265	19.871595	0.000229	2.293259	0.388489	-0.000023
1225	1.2179e+02	7.8161	19.847969	0.000238	2.375161	0.402363	-0.000024
1226	1.2189e+02	7.8065	19.828417	0.000197	1.965650	0.332990	-0.000020
1227	1.2199e+02	7.7970	19.802754	0.000258	2.579916	0.437050	-0.000026
1228	1.2209e+02	7.7861	19.777499	0.000254	2.538965	0.430112	-0.000025
1229	1.2219e+02	7.7764	19.758354	0.000192	1.924699	0.326053	-0.000019
1230	1.2229e+02	7.7691	19.733506	0.000250	2.498014	0.423175	-0.000025
1231	1.2239e+02	7.7565	19.707436	0.000262	2.620867	0.443987	-0.000026
1232	1.2248e+02	7.7478	19.683403	0.000242	2.416112	0.409300	-0.000024
1233	1.2258e+02	7.7364	19.659777	0.000238	2.375161	0.402363	-0.000024
1234	1.2268e+02	7.7271	19.632893	0.000270	2.702769	0.457861	-0.000027
1235	1.2278e+02	7.7149	19.611711	0.000213	2.129455	0.360739	-0.000021
1236	1.2288e+02	7.7067	19.586863	0.000250	2.498014	0.423175	-0.000025
1237	1.2298e+02	7.6948	19.564459	0.000225	2.252308	0.381551	-0.000023
1238	1.2308e+02	7.6867	19.542463	0.000221	2.211357	0.374614	-0.000022
1239	1.2318e+02	7.6783	19.519651	0.000229	2.293259	0.388489	-0.000023
1240	1.2328e+02	7.6670	19.502136	0.000176	1.760895	0.298304	-0.000018
1241	1.2338e+02	7.6546	19.474029	0.000283	2.825622	0.478673	-0.000028
1242	1.2348e+02	7.6455	19.451625	0.000225	2.252308	0.381551	-0.000023
1243	1.2358e+02	7.6356	19.428814	0.000229	2.293259	0.388489	-0.000023
1244	1.2368e+02	7.6279	19.404781	0.000242	2.416112	0.409300	-0.000024
1245	1.2378e+02	7.6170	19.382377	0.000225	2.252308	0.381551	-0.000023
1246	1.2388e+02	7.6057	19.360380	0.000221	2.211357	0.374614	-0.000022
1247	1.2398e+02	7.5988	19.342865	0.000176	1.760895	0.298304	-0.000018
1248	1.2408e+02	7.5868	19.319239	0.000238	2.375161	0.402363	-0.000024
1249	1.2418e+02	7.5761	19.294798	0.000246	2.457063	0.416238	-0.000025
1250	1.2428e+02	7.5668	19.274839	0.000201	2.006601	0.339927	-0.000020
1251	1.2438e+02	7.5600	19.252027	0.000229	2.293259	0.388489	-0.000023
1252	1.2447e+02	7.5481	19.228401	0.000238	2.375161	0.402363	-0.000024
1253	1.2457e+02	7.5364	19.204776	0.000238	2.375161	0.402363	-0.000024
1254	1.2467e+02	7.5256	19.182779	0.000221	2.211357	0.374614	-0.000022
1255	1.2477e+02	7.5179	19.157931	0.000250	2.498014	0.423175	-0.000025
1256	1.2487e+02	7.5056	19.135527	0.000225	2.252308	0.381551	-0.000023
1257	1.2497e+02	7.5016	19.113124	0.000225	2.252308	0.381551	-0.000023
1258	1.2507e+02	7.4865	19.088276	0.000250	2.498014	0.423175	-0.000025
1259	1.2517e+02	7.4767	19.065464	0.000229	2.293259	0.388489	-0.000023
1260	1.2527e+02	7.4690	19.044690	0.000209	2.088503	0.353802	-0.000021
1261	1.2537e+02	7.4570	19.021471	0.000233	2.334210	0.395426	-0.000023
1262	1.2547e+02	7.4464	18.999882	0.000217	2.170406	0.367677	-0.000022
1263	1.2557e+02	7.4419	18.979515	0.000205	2.047552	0.346865	-0.000020
1264	1.2567e+02	7.4294	18.951409	0.000283	2.825622	0.478673	-0.000028
1265	1.2577e+02	7.4187	18.931041	0.000205	2.047552	0.346865	-0.000020
1266	1.2587e+02	7.4097	18.903342	0.000278	2.784671	0.471736	-0.000028
1267	1.2597e+02	7.3985	18.880938	0.000225	2.252308	0.381551	-0.000023
1268	1.2607e+02	7.3860	18.856498	0.000246	2.457063	0.416238	-0.000025
1269	1.2617e+02	7.3756	18.836131	0.000205	2.047552	0.346865	-0.000020
1270	1.2627e+02	7.3666	18.813319	0.000229	2.293259	0.388489	-0.000023
1271	1.2636e+02	7.3598	18.790508	0.000229	2.293259	0.388489	-0.000023
1272	1.2646e+02	7.3496	18.768512	0.000221	2.211357	0.374614	-0.000022
1273	1.2656e+02	7.3373	18.747330	0.000213	2.129455	0.360739	-0.000021
1274	1.2666e+02	7.3286	18.727370	0.000201	2.006601	0.339927	-0.000020
1275	1.2676e+02	7.3196	18.702930	0.000246	2.457063	0.416238	-0.000025
1276	1.2686e+02	7.3067	18.685414	0.000176	1.760895	0.298304	-0.000018
1277	1.2696e+02	7.2926	18.661381	0.000242	2.416112	0.409300	-0.000024
1278	1.2706e+02	7.2894	18.639791	0.000217	2.170406	0.367677	-0.000022
1279	1.2716e+02	7.2755	18.615758	0.000242	2.416112	0.409300	-0.000024
1280	1.2726e+02	7.2684	18.594576	0.000213	2.129455	0.360739	-0.000021
1281	1.2736e+02	7.2585	18.570951	0.000238	2.375161	0.402363	-0.000024
1282	1.2746e+02	7.2502	18.546103	0.000250	2.498014	0.423175	-0.000025
1283	1.2756e+02	7.2390	18.526550	0.000197	1.965650	0.332990	-0.000020
1284	1.2766e+02	7.2289	18.504961	0.000217	2.170406	0.367677	-0.000022
1285	1.2776e+02	7.2176	18.481335	0.000238	2.375161	0.402363	-0.000024
1286	1.2786e+02	7.2109	18.460153	0.000213	2.129455	0.360739	-0.000021
1287	1.2796e+02	7.2005	18.436935	0.000233	2.334210	0.395426	-0.000023
1288	1.2806e+02	7.1899	18.414124	0.000229	2.293259	0.388489	-0.000023
1289	1.2816e+02	7.1792	18.396608	0.000176	1.760895	0.298304	-0.000018
1290	1.2826e+02	7.1711	18.370945	0.000258	2.579916	0.437050	-0.000026
1291	1.2835e+02	7.1610	18.348134	0.000229	2.293259	0.388489	-0.000023
1292	1.2845e+02	7.1479	18.325730	0.000225	2.252308	0.381551	-0.000023
1293	1.2855e+02	7.1420	18.298031	0.000278	2.784671	0.471736	-0.000028
1294	1.2865e+02	7.1296	18.276849	0.000213	2.129455	0.360739	-0.000021
1295	1.2875e+02	7.1203	18.250372	0.000266	2.661818	0.450924	-0.000027
1296	1.2885e+02	7.1114	18.223895	0.000266	2.661818	0.450924	-0.000027
1297	1.2895e+02	7.0980	18.200676	0.000233	2.334210	0.395426	-0.000023
1298	1.2905e+02	7.0910	18.180716	0.000201	2.006601	0.339927	-0.000020
1299	1.2915e+02	7.0824	18.159127	0.000217	2.170406	0.367677	-0.000022
1300	1.2925e+02	7.0703	18.127355	0.000319	3.194182	0.541109	-0.000032
1301	1.2935e+02	7.0588	18.103729	0.000238	2.375161	0.402363	-0.000024
1302	1.2945e+02	7.0508	18.077659	0.000262	2.620867	0.443987	-0.000026
1303	1.2955e+02	7.0423	18.056884	0.000209	2.088503	0.353802	-0.000021
1304	1.2965e+02	7.0300	18.034073	0.000229	2.293259	0.388489	-0.000023
1305	1.2975e+02	7.0227	18.010855	0.000233	2.334210	0.395426	-0.000023
1306	1.2985e+02	7.0098	17.988858	0.000221	2.211357	0.374614	-0.000022
1307	1.2995e+02	7.0021	17.961566	0.000274	2.743720	0.464799	-0.000027
1308	1.3005e+02	6.9902	17.938348	0.000233	2.334210	0.395426	-0.000023
1309	1.3015e+02	6.9808	17.912278	0.000262	2.620867	0.443987	-0.000026
1310	1.3025e+02	6.9714	17.890281	0.000221	2.211357	0.374614	-0.000022
1311	1.3034e+02	6.9595	17.860953	0.000295	2.948475	0.499485	-0.000029
1312	1.3044e+02	6.9518	17.839363	0.000217	2.170406	0.367677	-0.000022
1313	1.3054e+02	6.9411	17.816145	0.000233	2.334210	0.395426	-0.000023
1314	1.3064e+02	6.9291	17.791704	0.000246	2.457063	0.416238	-0.000025
1315	1.3074e+02	6.9202	17.766856	0.000250	2.498014	0.423175	-0.000025
1316	1.3084e+02	6.9087	17.743638	0.000233	2.334210	0.395426	-0.000023
1317	1.3094e+02	6.9016	17.719197	0.000246	2.457063	0.416238	-0.000025
1318	1.3104e+02	6.8907	17.695571	0.000238	2.375161	0.402363	-0.000024
1319	1.3114e+02	6.8795	17.670724	0.000250	2.498014	0.423175	-0.000025
1320	1.3124e+02	6.8712	17.645061	0.000258	2.579916	0.437050	-0.000026
1321	1.3134e+02	6.8583	17.620213	0.000250	2.498014	0.423175	-0.000025
1322	1.3144e+02	6.8499	17.592106	0.000283	2.825622	0.478673	-0.000028
1323	1.3154e+02	6.8408	17.567259	0.000250	2.498014	0.423175	-0.000025
1324	1.3164e+02	6.8282	17.537930	0.000295	2.948475	0.499485	-0.000029
1325	1.3174e+02	6.8227	17.513082	0.000250	2.498014	0.423175	-0.000025
1326	1.3184e+02	6.8095	17.484568	0.000287	2.866573	0.485611	-0.000029
1327	1.3194e+02	6.8006	17.456461	0.000283	2.825622	0.478673	-0.000028
1328	1.3204e+02	6.7904	17.432021	0.000246	2.457063	0.416238	-0.000025
1329	1.3214e+02	6.7826	17.403507	0.000287	2.866573	0.485611	-0.000029
1330	1.3224e+02	6.7713	17.380696	0.000229	2.293259	0.388489	-0.000023
1331	1.3234e+02	6.7628	17.349738	0.000311	3.112280	0.527234	-0.000031
1332	1.3243e+02	6.7516	17.322853	0.000270	2.702769	0.457861	-0.000027
1333	1.3253e+02	6.7400	17.296376	0.000266	2.661818	0.450924	-0.000027
1334	1.3263e+02	6.7320	17.267047	0.000295	2.948475	0.499485	-0.000029
1335	1.3273e+02	6.7199	17.241385	0.000258	2.579916	0.437050	-0.000026
1336	1.3283e+02	6.7126	17.212056	0.000295	2.948475	0.499485	-0.000029
1337	1.3293e+02	6.7001	17.187615	0.000246	2.457063	0.416238	-0.000025
1338	1.3303e+02	6.6904	17.157472	0.000303	3.030378	0.513360	-0.000030
1339	1.3313e+02	6.6827	17.131809	0.000258	2.579916	0.437050	-0.000026
1340	1.3323e+02	6.6717	17.102073	0.000299	2.989427	0.506423	-0.000030
1341	1.3333e+02	6.6607	17.075596	0.000266	2.661818	0.450924	-0.000027
1342	1.3343e+02	6.6505	17.042194	0.000336	3.357986	0.568858	-0.000034
1343	1.3353e+02	6.6444	17.018161	0.000242	2.416112	0.409300	-0.000024
1344	1.3363e+02	6.6309	16.987610	0.000307	3.071329	0.520297	-0.000031
1345	1.3373e+02	6.6216	16.962762	0.000250	2.498014	0.423175	-0.000025
1346	1.3383e+02	6.6100	16.931397	0.000315	3.153231	0.534172	-0.000032
1347	1.3393e+02	6.6048	16.902883	0.000287	2.866573	0.485611	-0.000029
1348	1.3403e+02	6.5958	16.878442	0.000246	2.457063	0.416238	-0.000025
1349	1.3413e+02	6.5823	16.851558	0.000270	2.702769	0.457861	-0.000027
1350	1.3423e+02	6.5714	16.820600	0.000311	3.112280	0.527234	-0.000031
1351	1.3432e+02	6.5639	16.792900	0.000278	2.784671	0.471736	-0.000028
1352	1.3442e+02	6.5554	16.762757	0.000303	3.030378	0.513360	-0.000030
1353	1.3452e+02	6.5437	16.733021	0.000299	2.989427	0.506423	-0.000030
1354	1.3462e+02	6.5328	16.704507	0.000287	2.866573	0.485611	-0.000029
1355	1.3472e+02	6.5250	16.672327	0.000324	3.235133	0.548046	-0.000032
1356	1.3482e+02	6.5142	16.645035	0.000274	2.743720	0.464799	-0.000027
1357	1.3492e+02	6.5040	16.612855	0.000324	3.235133	0.548046	-0.000032
1358	1.3502e+02	6.4925	16.583934	0.000291	2.907524	0.492548	-0.000029
1359	1.3512e+02	6.4830	16.550124	0.000340	3.398937	0.575796	-0.000034
1360	1.3522e+02	6.4716	16.518759	0.000315	3.153231	0.534172	-0.000032
1361	1.3532e+02	6.4629	16.491874	0.000270	2.702769	0.457861	-0.000027
1362	1.3542e+02	6.4493	16.458472	0.000336	3.357986	0.568858	-0.000034
1363	1.3552e+02	6.4429	16.426699	0.000319	3.194182	0.541109	-0.000032
1364	1.3562e+02	6.4355	16.399815	0.000270	2.702769	0.457861	-0.000027
1365	1.3572e+02	6.4236	16.369264	0.000307	3.071329	0.520297	-0.000031
1366	1.3582e+02	6.4158	16.337491	0.000319	3.194182	0.541109	-0.000032
1367	1.3592e+02	6.4014	16.304497	0.000332	3.317035	0.561921	-0.000033
1368	1.3602e+02	6.3927	16.272724	0.000319	3.194182	0.541109	-0.000032
1369	1.3612e+02	6.3833	16.243803	0.000291	2.907524	0.492548	-0.000029
1370	1.3622e+02	6.3731	16.214474	0.000295	2.948475	0.499485	-0.000029
1371	1.3631e+02	6.3625	16.181887	0.000328	3.276084	0.554984	-0.000033
1372	1.3641e+02	6.3531	16.152965	0.000291	2.907524	0.492548	-0.000029
1373	1.3651e+02	6.3437	16.121192	0.000319	3.194182	0.541109	-0.000032
1374	1.3661e+02	6.3351	16.091049	0.000303	3.030378	0.513360	-0.000030
1375	1.3671e+02	6.3223	16.061313	0.000299	2.989427	0.506423	-0.000030
1376	1.3681e+02	6.3136	16.032392	0.000291	2.907524	0.492548	-0.000029
1377	1.3691e+02	6.3026	15.999397	0.000332	3.317035	0.561921	-0.000033
1378	1.3701e+02	6.2952	15.976586	0.000229	2.293259	0.388489	-0.000023
1379	1.3711e+02	6.2843	15.943998	0.000328	3.276084	0.554984	-0.000033
1380	1.3721e+02	6.2751	15.916707	0.000274	2.743720	0.464799	-0.000027
1381	1.3731e+02	6.2646	15.886156	0.000307	3.071329	0.520297	-0.000031
1382	1.3741e+02	6.2525	15.858864	0.000274	2.743720	0.464799	-0.000027
1383	1.3751e+02	6.2452	15.829535	0.000295	2.948475	0.499485	-0.000029
1384	1.3761e+02	6.2331	15.794911	0.000348	3.480839	0.589670	-0.000035
1385	1.3771e+02	6.2254	15.768026	0.000270	2.702769	0.457861	-0.000027
1386	1.3781e+02	6.2171	15.735439	0.000328	3.276084	0.554984	-0.000033
1387	1.3791e+02	6.2061	15.703666	0.000319	3.194182	0.541109	-0.000032
1388	1.3801e+02	6.1918	15.675152	0.000287	2.866573	0.485611	-0.000029
1389	1.3811e+02	6.1863	15.644194	0.000311	3.112280	0.527234	-0.000031
1390	1.3821e+02	6.1749	15.609978	0.000344	3.439888	0.582733	-0.000034
1391	1.3831e+02	6.1629	15.582278	0.000278	2.784671	0.471736	-0.000028
1392	1.3840e+02	6.1561	15.548876	0.000336	3.357986	0.568858	-0.000034
1393	1.3850e+02	6.1456	15.517511	0.000315	3.153231	0.534172	-0.000032
1394	1.3860e+02	6.1350	15.488182	0.000295	2.948475	0.499485	-0.000029
1395	1.3870e+02	6.1263	15.457631	0.000307	3.071329	0.520297	-0.000031
1396	1.3880e+02	6.1148	15.426266	0.000315	3.153231	0.534172	-0.000032
1397	1.3890e+02	6.1042	15.395715	0.000307	3.071329	0.520297	-0.000031
1398	1.3900e+02	6.0947	15.367609	0.000283	2.825622	0.478673	-0.000028
1399	1.3910e+02	6.0872	15.335429	0.000324	3.235133	0.548046	-0.000032
1400	1.3920e+02	6.0744	15.302841	0.000328	3.276084	0.554984	-0.000033
1401	1.3930e+02	6.0668	15.269847	0.000332	3.317035	0.561921	-0.000033
1402	1.3940e+02	6.0543	15.242147	0.000278	2.784671	0.471736	-0.000028
1403	1.3950e+02	6.0480	15.208338	0.000340	3.398937	0.575796	-0.000034
1404	1.3960e+02	6.0355	15.178602	0.000299	2.989427	0.506423	-0.000030
1405	1.3970e+02	6.0258	15.150495	0.000283	2.825622	0.478673	-0.000028
1406	1.3980e+02	6.0160	15.119537	0.000311	3.112280	0.527234	-0.000031
1407	1.3990e+02	6.0065	15.093060	0.000266	2.661818	0.450924	-0.000027
1408	1.4000e+02	5.9966	15.062917	0.000303	3.030378	0.513360	-0.000030
1409	1.4010e+02	5.9849	15.033588	0.000295	2.948475	0.499485	-0.000029
1410	1.4020e+02	5.9756	15.003445	0.000303	3.030378	0.513360	-0.000030
1411	1.4029e+02	5.9673	14.973301	0.000303	3.030378	0.513360	-0.000030
1412	1.4039e+02	5.9551	14.945195	0.000283	2.825622	0.478673	-0.000028
1413	1.4049e+02	5.9460	14.917088	0.000283	2.825622	0.478673	-0.000028
1414	1.4059e+02	5.9365	14.884908	0.000324	3.235133	0.548046	-0.000032
1415	1.4069e+02	5.9264	14.858431	0.000266	2.661818	0.450924	-0.000027
1416	1.4079e+02	5.9176	14.826251	0.000324	3.235133	0.548046	-0.000032
1417	1.4089e+02	5.9077	14.801403	0.000250	2.498014	0.423175	-0.000025
1418	1.4099e+02	5.8970	14.770037	0.000315	3.153231	0.534172	-0.000032
1419	1.4109e+02	5.8869	14.740709	0.000295	2.948475	0.499485	-0.000029
1420	1.4119e+02	5.8784	14.711380	0.000295	2.948475	0.499485	-0.000029
1421	1.4129e+02	5.8668	14.677978	0.000336	3.357986	0.568858	-0.000034
1422	1.4139e+02	5.8591	14.653945	0.000242	2.416112	0.409300	-0.000024
1423	1.4149e+02	5.8466	14.622987	0.000311	3.112280	0.527234	-0.000031
1424	1.4159e+02	5.8344	14.593658	0.000295	2.948475	0.499485	-0.000029
1425	1.4169e+02	5.8271	14.564737	0.000291	2.907524	0.492548	-0.000029
1426	1.4179e+02	5.8158	14.535001	0.000299	2.989427	0.506423	-0.000030
1427	1.4189e+02	5.8085	14.508523	0.000266	2.661818	0.450924	-0.000027
1428	1.4199e+02	5.7958	14.480824	0.000278	2.784671	0.471736	-0.000028
1429	1.4209e+02	5.7874	14.449459	0.000315	3.153231	0.534172	-0.000032
1430	1.4219e+02	5.7761	14.420537	0.000291	2.907524	0.492548	-0.000029
1431	1.4228e+02	5.7676	14.392838	0.000278	2.784671	0.471736	-0.000028
1432	1.4238e+02	5.7563	14.361065	0.000319	3.194182	0.541109	-0.000032
1433	1.4248e+02	5.7483	14.331737	0.000295	2.948475	0.499485	-0.000029
1434	1.4258e+02	5.7362	14.302815	0.000291	2.907524	0.492548	-0.000029
1435	1.4268e+02	5.7266	14.272265	0.000307	3.071329	0.520297	-0.000031
1436	1.4278e+02	5.7172	14.245380	0.000270	2.702769	0.457861	-0.000027
1437	1.4288e+02	5.7067	14.213607	0.000319	3.194182	0.541109	-0.000032
1438	1.4298e+02	5.6988	14.184686	0.000291	2.907524	0.492548	-0.000029
1439	1.4308e+02	5.6878	14.159023	0.000258	2.579916	0.437050	-0.000026
1440	1.4318e+02	5.6773	14.136212	0.000229	2.293259	0.388489	-0.000023
1441	1.4328e+02	5.6683	14.106884	0.000295	2.948475	0.499485	-0.000029
1442	1.4338e+02	5.6567	14.078777	0.000283	2.825622	0.478673	-0.000028
1443	1.4348e+02	5.6469	14.051892	0.000270	2.702769	0.457861	-0.000027
1444	1.4358e+02	5.6348	14.020934	0.000311	3.112280	0.527234	-0.000031
1445	1.4368e+02	5.6270	13.993642	0.000274	2.743720	0.464799	-0.000027
1446	1.4378e+02	5.6158	13.966758	0.000270	2.702769	0.457861	-0.000027
1447	1.4388e+02	5.6122	13.934578	0.000324	3.235133	0.548046	-0.000032
1448	1.4398e+02	5.6006	13.908100	0.000266	2.661818	0.450924	-0.000027
1449	1.4408e+02	5.5894	13.879179	0.000291	2.907524	0.492548	-0.000029
1450	1.4418e+02	5.5788	13.852294	0.000270	2.702769	0.457861	-0.000027
1451	1.4428e+02	5.5703	13.828261	0.000242	2.416112	0.409300	-0.000024
1452	1.4437e+02	5.5582	13.798118	0.000303	3.030378	0.513360	-0.000030
1453	1.4447e+02	5.5486	13.767975	0.000303	3.030378	0.513360	-0.000030
1454	1.4457e+02	5.5376	13.741905	0.000262	2.620867	0.443987	-0.000026
1455	1.4467e+02	5.5286	13.714613	0.000274	2.743720	0.464799	-0.000027
1456	1.4477e+02	5.5186	13.684469	0.000303	3.030378	0.513360	-0.000030
1457	1.4487e+02	5.5068	13.655548	0.000291	2.907524	0.492548	-0.000029
1458	1.4497e+02	5.4986	13.627034	0.000287	2.866573	0.485611	-0.000029
1459	1.4507e+02	5.4876	13.598520	0.000287	2.866573	0.485611	-0.000029
1460	1.4517e+02	5.4799	13.569599	0.000291	2.907524	0.492548	-0.000029
1461	1.4527e+02	5.4671	13.539455	0.000303	3.030378	0.513360	-0.000030
1462	1.4537e+02	5.4591	13.506053	0.000336	3.357986	0.568858	-0.000034
1463	1.4547e+02	5.4477	13.479169	0.000270	2.702769	0.457861	-0.000027
1464	1.4557e+02	5.4383	13.447803	0.000315	3.153231	0.534172	-0.000032
1465	1.4567e+02	5.4299	13.416845	0.000311	3.112280	0.527234	-0.000031
1466	1.4577e+02	5.4182	13.392405	0.000246	2.457063	0.416238	-0.000025
1467	1.4587e+02	5.4108	13.359410	0.000332	3.317035	0.561921	-0.000033
1468	1.4597e+02	5.3970	13.328452	0.000311	3.112280	0.527234	-0.000031
1469	1.4607e+02	5.3893	13.302789	0.000258	2.579916	0.437050	-0.000026
1470	1.4617e+02	5.3777	13.269387	0.000336	3.357986	0.568858	-0.000034
1471	1.4626e+02	5.3659	13.242910	0.000266	2.661818	0.450924	-0.000027
1472	1.4636e+02	5.3568	13.211545	0.000315	3.153231	0.534172	-0.000032
1473	1.4646e+02	5.3455	13.183438	0.000283	2.825622	0.478673	-0.000028
1474	1.4656e+02	5.3385	13.156146	0.000274	2.743720	0.464799	-0.000027
1475	1.4666e+02	5.3286	13.126410	0.000299	2.989427	0.506423	-0.000030
1476	1.4676e+02	5.3178	13.097081	0.000295	2.948475	0.499485	-0.000029
1477	1.4686e+02	5.3088	13.064494	0.000328	3.276084	0.554984	-0.000033
1478	1.4696e+02	5.2995	13.035980	0.000287	2.866573	0.485611	-0.000029
1479	1.4706e+02	5.2886	13.003800	0.000324	3.235133	0.548046	-0.000032
1480	1.4716e+02	5.2804	12.975693	0.000283	2.825622	0.478673	-0.000028
1481	1.4726e+02	5.2696	12.948809	0.000270	2.702769	0.457861	-0.000027
1482	1.4736e+02	5.2578	12.919480	0.000295	2.948475	0.499485	-0.000029
1483	1.4746e+02	5.2471	12.888522	0.000311	3.112280	0.527234	-0.000031
1484	1.4756e+02	5.2399	12.856342	0.000324	3.235133	0.548046	-0.000032
1485	1.4766e+02	5.2274	12.828235	0.000283	2.825622	0.478673	-0.000028
1486	1.4776e+02	5.2169	12.798092	0.000303	3.030378	0.513360	-0.000030
1487	1.4786e+02	5.2087	12.764283	0.000340	3.398937	0.575796	-0.000034
1488	1.4796e+02	5.1991	12.737398	0.000270	2.702769	0.457861	-0.000027
1489	1.4806e+02	5.1882	12.705625	0.000319	3.194182	0.541109	-0.000032
1490	1.4816e+02	5.1795	12.673038	0.000328	3.276084	0.554984	-0.000033
1491	1.4825e+02	5.1690	12.640858	0.000324	3.235133	0.548046	-0.000032
1492	1.4835e+02	5.1598	12.607456	0.000336	3.357986	0.568858	-0.000034
1493	1.4845e+02	5.1501	12.576090	0.000315	3.153231	0.534172	-0.000032
1494	1.4855e+02	5.1369	12.543503	0.000328	3.276084	0.554984	-0.000033
1495	1.4865e+02	5.1310	12.512137	0.000315	3.153231	0.534172	-0.000032
1496	1.4875e+02	5.1182	12.479550	0.000328	3.276084	0.554984	-0.000033
1497	1.4885e+02	5.1119	12.446555	0.000332	3.317035	0.561921	-0.000033
1498	1.4895e+02	5.0989	12.414783	0.000319	3.194182	0.541109	-0.000032
1499	1.4905e+02	5.0903	12.381381	0.000336	3.357986	0.568858	-0.000034
1500	1.4915e+02	5.0792	12.351645	0.000299	2.989427	0.506423	-0.000030
1501	1.4925e+02	5.0706	12.316613	0.000352	3.521790	0.596607	-0.000035
1502	1.4935e+02	5.0599	12.284433	0.000324	3.235133	0.548046	-0.000032
1503	1.4945e+02	5.0499	12.252660	0.000319	3.194182	0.541109	-0.000032
1504	1.4955e+02	5.0391	12.218851	0.000340	3.398937	0.575796	-0.000034
1505	1.4965e+02	5.0301	12.188300	0.000307	3.071329	0.520297	-0.000031
1506	1.4975e+02	5.0197	12.155713	0.000328	3.276084	0.554984	-0.000033
1507	1.4985e+02	5.0079	12.121903	0.000340	3.398937	0.575796	-0.000034
1508	1.4995e+02	5.0015	12.089723	0.000324	3.235133	0.548046	-0.000032
1509	1.5005e+02	4.9908	12.055099	0.000348	3.480839	0.589670	-0.000035
1510	1.5015e+02	4.9833	12.021290	0.000340	3.398937	0.575796	-0.000034
1511	1.5025e+02	4.9709	11.989110	0.000324	3.235133	0.548046	-0.000032
1512	1.5034e+02	4.9592	11.952449	0.000369	3.685594	0.624357	-0.000037
1513	1.5044e+02	4.9494	11.922305	0.000303	3.030378	0.513360	-0.000030
1514	1.5054e+02	4.9415	11.888089	0.000344	3.439888	0.582733	-0.000034
1515	1.5064e+02	4.9308	11.854687	0.000336	3.357986	0.568858	-0.000034
1516	1.5074e+02	4.9223	11.822507	0.000324	3.235133	0.548046	-0.000032
1517	1.5084e+02	4.9102	11.786660	0.000360	3.603692	0.610482	-0.000036
1518	1.5094e+02	4.9000	11.753258	0.000336	3.357986	0.568858	-0.000034
1519	1.5104e+02	4.8888	11.721893	0.000315	3.153231	0.534172	-0.000032
1520	1.5114e+02	4.8830	11.688084	0.000340	3.398937	0.575796	-0.000034
1521	1.5124e+02	4.8702	11.649793	0.000385	3.849399	0.652106	-0.000038
1522	1.5134e+02	4.8605	11.614354	0.000356	3.562741	0.603545	-0.000036
1523	1.5144e+02	4.8519	11.585026	0.000295	2.948475	0.499485	-0.000029
1524	1.5154e+02	4.8394	11.547143	0.000381	3.808448	0.645168	-0.000038
1525	1.5164e+02	4.8324	11.510482	0.000369	3.685594	0.624357	-0.000037
1526	1.5174e+02	4.8244	11.475858	0.000348	3.480839	0.589670	-0.000035
1527	1.5184e+02	4.8103	11.440012	0.000360	3.603692	0.610482	-0.000036
1528	1.5194e+02	4.8021	11.402536	0.000377	3.767496	0.638231	-0.000038
1529	1.5204e+02	4.7926	11.368320	0.000344	3.439888	0.582733	-0.000034
1530	1.5214e+02	4.7794	11.331659	0.000369	3.685594	0.624357	-0.000037
1531	1.5224e+02	4.7717	11.300293	0.000315	3.153231	0.534172	-0.000032
1532	1.5233e+02	4.7614	11.261596	0.000389	3.890350	0.659043	-0.000039
1533	1.5243e+02	4.7530	11.229823	0.000319	3.194182	0.541109	-0.000032
1534	1.5253e+02	4.7419	11.191533	0.000385	3.849399	0.652106	-0.000038
1535	1.5263e+02	4.7308	11.153650	0.000381	3.808448	0.645168	-0.000038
1536	1.5273e+02	4.7207	11.119433	0.000344	3.439888	0.582733	-0.000034
1537	1.5283e+02	4.7131	11.078699	0.000410	4.095105	0.693730	-0.000041
1538	1.5293e+02	4.7015	11.044075	0.000348	3.480839	0.589670	-0.000035
1539	1.5303e+02	4.6931	11.013117	0.000311	3.112280	0.527234	-0.000031
1540	1.5313e+02	4.6848	10.969531	0.000438	4.381762	0.742291	-0.000044
1541	1.5323e+02	4.6735	10.938166	0.000315	3.153231	0.534172	-0.000032
1542	1.5333e+02	4.6613	10.905171	0.000332	3.317035	0.561921	-0.000033
1543	1.5343e+02	4.6537	10.870140	0.000352	3.521790	0.596607	-0.000035
1544	1.5353e+02	4.6426	10.833886	0.000364	3.644643	0.617419	-0.000036
1545	1.5363e+02	4.6330	10.803743	0.000303	3.030378	0.513360	-0.000030
1546	1.5373e+02	4.6219	10.766267	0.000377	3.767496	0.638231	-0.000038
1547	1.5383e+02	4.6110	10.732865	0.000336	3.357986	0.568858	-0.000034
1548	1.5393e+02	4.6030	10.698241	0.000348	3.480839	0.589670	-0.000035
1549	1.5403e+02	4.5940	10.665246	0.000332	3.317035	0.561921	-0.000033
1550	1.5413e+02	4.5805	10.628586	0.000369	3.685594	0.624357	-0.000037
1551	1.5422e+02	4.5722	10.594776	0.000340	3.398937	0.575796	-0.000034
1552	1.5432e+02	4.5632	10.558930	0.000360	3.603692	0.610482	-0.000036
1553	1.5442e+02	4.5510	10.522676	0.000364	3.644643	0.617419	-0.000036
1554	1.5452e+02	4.5445	10.486830	0.000360	3.603692	0.610482	-0.000036
1555	1.5462e+02	4.5328	10.449355	0.000377	3.767496	0.638231	-0.000038
1556	1.5472e+02	4.5242	10.415545	0.000340	3.398937	0.575796	-0.000034
1557	1.5482e+02	4.5123	10.379699	0.000360	3.603692	0.610482	-0.000036
1558	1.5492e+02	4.5026	10.343853	0.000360	3.603692	0.610482	-0.000036
1559	1.5502e+02	4.4924	10.307600	0.000364	3.644643	0.617419	-0.000036
1560	1.5512e+02	4.4802	10.271346	0.000364	3.644643	0.617419	-0.000036
1561	1.5522e+02	4.4736	10.237129	0.000344	3.439888	0.582733	-0.000034
1562	1.5532e+02	4.4598	10.197617	0.000397	3.972252	0.672918	-0.000040
1563	1.5542e+02	4.4531	10.162993	0.000348	3.480839	0.589670	-0.000035
1564	1.5552e+02	4.4431	10.126740	0.000364	3.644643	0.617419	-0.000036
1565	1.5562e+02	4.4357	10.091708	0.000352	3.521790	0.596607	-0.000035
1566	1.5572e+02	4.4205	10.051788	0.000401	4.013203	0.679855	-0.000040
1567	1.5582e+02	4.4151	10.020016	0.000319	3.194182	0.541109	-0.000032
1568	1.5592e+02	4.4056	9.983762	0.000364	3.644643	0.617419	-0.000036
1569	1.5602e+02	4.3957	9.947509	0.000364	3.644643	0.617419	-0.000036
1570	1.5612e+02	4.3838	9.910033	0.000377	3.767496	0.638231	-0.000038
1571	1.5622e+02	4.3729	9.875409	0.000348	3.480839	0.589670	-0.000035
1572	1.5631e+02	4.3639	9.840378	0.000352	3.521790	0.596607	-0.000035
1573	1.5641e+02	4.3557	9.804532	0.000360	3.603692	0.610482	-0.000036
1574	1.5651e+02	4.3428	9.770315	0.000344	3.439888	0.582733	-0.000034
1575	1.5661e+02	4.3330	9.738135	0.000324	3.235133	0.548046	-0.000032
1576	1.5671e+02	4.3230	9.700659	0.000377	3.767496	0.638231	-0.000038
1577	1.5681e+02	4.3186	9.669294	0.000315	3.153231	0.534172	-0.000032
1578	1.5691e+02	4.3040	9.634262	0.000352	3.521790	0.596607	-0.000035
1579	1.5701e+02	4.2946	9.601268	0.000332	3.317035	0.561921	-0.000033
1580	1.5711e+02	4.2860	9.564607	0.000369	3.685594	0.624357	-0.000037
1581	1.5721e+02	4.2751	9.536500	0.000283	2.825622	0.478673	-0.000028
1582	1.5731e+02	4.2635	9.499432	0.000373	3.726545	0.631294	-0.000037
1583	1.5741e+02	4.2551	9.462364	0.000373	3.726545	0.631294	-0.000037
1584	1.5751e+02	4.2435	9.429776	0.000328	3.276084	0.554984	-0.000033
1585	1.5761e+02	4.2335	9.395967	0.000340	3.398937	0.575796	-0.000034
1586	1.5771e+02	4.2237	9.361343	0.000348	3.480839	0.589670	-0.000035
1587	1.5781e+02	4.2156	9.323053	0.000385	3.849399	0.652106	-0.000038
1588	1.5791e+02	4.2066	9.295761	0.000274	2.743720	0.464799	-0.000027
1589	1.5801e+02	4.1949	9.257063	0.000389	3.890350	0.659043	-0.000039
1590	1.5811e+02	4.1846	9.223254	0.000340	3.398937	0.575796	-0.000034
1591	1.5821e+02	4.1755	9.189444	0.000340	3.398937	0.575796	-0.000034
1592	1.5830e+02	4.1652	9.154820	0.000348	3.480839	0.589670	-0.000035
1593	1.5840e+02	4.1538	9.121011	0.000340	3.398937	0.575796	-0.000034
1594	1.5850e+02	4.1457	9.087609	0.000336	3.357986	0.568858	-0.000034
1595	1.5860e+02	4.1348	9.052985	0.000348	3.480839	0.589670	-0.000035
1596	1.5870e+02	4.1261	9.021212	0.000319	3.194182	0.541109	-0.000032
1597	1.5880e+02	4.1162	8.986588	0.000348	3.480839	0.589670	-0.000035
1598	1.5890e+02	4.1073	8.951964	0.000348	3.480839	0.589670	-0.000035
1599	1.5900e+02	4.0936	8.918154	0.000340	3.398937	0.575796	-0.000034
1600	1.5910e+02	4.0836	8.882715	0.000356	3.562741	0.603545	-0.000036
1601	1.5920e+02	4.0764	8.847277	0.000356	3.562741	0.603545	-0.000036
1602	1.5930e+02	4.0656	8.808579	0.000389	3.890350	0.659043	-0.000039
1603	1.5940e+02	4.0589	8.777621	0.000311	3.112280	0.527234	-0.000031
1604	1.5950e+02	4.0451	8.743812	0.000340	3.398937	0.575796	-0.000034
1605	1.5960e+02	4.0353	8.707558	0.000364	3.644643	0.617419	-0.000036
1606	1.5970e+02	4.0254	8.674563	0.000332	3.317035	0.561921	-0.000033
1607	1.5980e+02	4.0160	8.642383	0.000324	3.235133	0.548046	-0.000032
1608	1.5990e+02	4.0052	8.611425	0.000311	3.112280	0.527234	-0.000031
1609	1.6000e+02	3.9954	8.579245	0.000324	3.235133	0.548046	-0.000032
1610	1.6010e+02	3.9884	8.543806	0.000356	3.562741	0.603545	-0.000036
1611	1.6019e+02	3.9749	8.510812	0.000332	3.317035	0.561921	-0.000033
1612	1.6029e+02	3.9669	8.481890	0.000291	2.907524	0.492548	-0.000029
1613	1.6039e+02	3.9571	8.445229	0.000369	3.685594	0.624357	-0.000037
1614	1.6049e+02	3.9468	8.411827	0.000336	3.357986	0.568858	-0.000034
1615	1.6059e+02	3.9356	8.379647	0.000324	3.235133	0.548046	-0.000032
1616	1.6069e+02	3.9275	8.347060	0.000328	3.276084	0.554984	-0.000033
1617	1.6079e+02	3.9161	8.310806	0.000364	3.644643	0.617419	-0.000036
1618	1.6089e+02	3.9065	8.278626	0.000324	3.235133	0.548046	-0.000032
1619	1.6099e+02	3.8975	8.247261	0.000315	3.153231	0.534172	-0.000032
1620	1.6109e+02	3.8856	8.211822	0.000356	3.562741	0.603545	-0.000036
1621	1.6119e+02	3.8766	8.185345	0.000266	2.661818	0.450924	-0.000027
1622	1.6129e+02	3.8692	8.150313	0.000352	3.521790	0.596607	-0.000035
1623	1.6139e+02	3.8564	8.115689	0.000348	3.480839	0.589670	-0.000035
1624	1.6149e+02	3.8475	8.081880	0.000340	3.398937	0.575796	-0.000034
1625	1.6159e+02	3.8353	8.048885	0.000332	3.317035	0.561921	-0.000033
1626	1.6169e+02	3.8276	8.013446	0.000356	3.562741	0.603545	-0.000036
1627	1.6179e+02	3.8168	7.980452	0.000332	3.317035	0.561921	-0.000033
1628	1.6189e+02	3.8066	7.941754	0.000389	3.890350	0.659043	-0.000039
1629	1.6199e+02	3.7971	7.906315	0.000356	3.562741	0.603545	-0.000036
1630	1.6209e+02	3.7862	7.869247	0.000373	3.726545	0.631294	-0.000037
1631	1.6219e+02	3.7775	7.837882	0.000315	3.153231	0.534172	-0.000032
1632	1.6228e+02	3.7686	7.796740	0.000414	4.136056	0.700667	-0.000041
1633	1.6238e+02	3.7568	7.762116	0.000348	3.480839	0.589670	-0.000035
1634	1.6248e+02	3.7484	7.729121	0.000332	3.317035	0.561921	-0.000033
1635	1.6258e+02	3.7375	7.694090	0.000352	3.521790	0.596607	-0.000035
1636	1.6268e+02	3.7257	7.662724	0.000315	3.153231	0.534172	-0.000032
1637	1.6278e+02	3.7154	7.622805	0.000401	4.013203	0.679855	-0.000040
1638	1.6288e+02	3.7052	7.593476	0.000295	2.948475	0.499485	-0.000029
1639	1.6298e+02	3.6982	7.556408	0.000373	3.726545	0.631294	-0.000037
1640	1.6308e+02	3.6861	7.522191	0.000344	3.439888	0.582733	-0.000034
1641	1.6318e+02	3.6790	7.486752	0.000356	3.562741	0.603545	-0.000036
1642	1.6328e+02	3.6665	7.449684	0.000373	3.726545	0.631294	-0.000037
1643	1.6338e+02	3.6572	7.419134	0.000307	3.071329	0.520297	-0.000031
1644	1.6348e+02	3.6463	7.383287	0.000360	3.603692	0.610482	-0.000036
1645	1.6358e+02	3.6375	7.345812	0.000377	3.767496	0.638231	-0.000038
1646	1.6368e+02	3.6278	7.316483	0.000295	2.948475	0.499485	-0.000029
1647	1.6378e+02	3.6172	7.276564	0.000401	4.013203	0.679855	-0.000040
1648	1.6388e+02	3.6080	7.243569	0.000332	3.317035	0.561921	-0.000033
1649	1.6398e+02	3.5977	7.204057	0.000397	3.972252	0.672918	-0.000040
1650	1.6408e+02	3.5862	7.171877	0.000324	3.235133	0.548046	-0.000032
1651	1.6418e+02	3.5772	7.136030	0.000360	3.603692	0.610482	-0.000036
1652	1.6427e+02	3.5671	7.102221	0.000340	3.398937	0.575796	-0.000034
1653	1.6437e+02	3.5579	7.070448	0.000319	3.194182	0.541109	-0.000032
1654	1.6447e+02	3.5498	7.031343	0.000393	3.931301	0.665980	-0.000039
1655	1.6457e+02	3.5365	6.993461	0.000381	3.808448	0.645168	-0.000038
1656	1.6467e+02	3.5296	6.958836	0.000348	3.480839	0.589670	-0.000035
1657	1.6477e+02	3.5152	6.920546	0.000385	3.849399	0.652106	-0.000038
1658	1.6487e+02	3.5068	6.885922	0.000348	3.480839	0.589670	-0.000035
1659	1.6497e+02	3.4977	6.848854	0.000373	3.726545	0.631294	-0.000037
1660	1.6507e+02	3.4882	6.808120	0.000410	4.095105	0.693730	-0.000041
1661	1.6517e+02	3.4792	6.767793	0.000405	4.054154	0.686792	-0.000041
1662	1.6527e+02	3.4682	6.727873	0.000401	4.013203	0.679855	-0.000040
1663	1.6537e+02	3.4585	6.692434	0.000356	3.562741	0.603545	-0.000036
1664	1.6547e+02	3.4490	6.653737	0.000389	3.890350	0.659043	-0.000039
1665	1.6557e+02	3.4357	6.618705	0.000352	3.521790	0.596607	-0.000035
1666	1.6567e+02	3.4300	6.582045	0.000369	3.685594	0.624357	-0.000037
1667	1.6577e+02	3.4187	6.542125	0.000401	4.013203	0.679855	-0.000040
1668	1.6587e+02	3.4093	6.503428	0.000389	3.890350	0.659043	-0.000039
1669	1.6597e+02	3.3952	6.463915	0.000397	3.972252	0.672918	-0.000040
1670	1.6607e+02	3.3901	6.426440	0.000377	3.767496	0.638231	-0.000038
1671	1.6616e+02	3.3759	6.388964	0.000377	3.767496	0.638231	-0.000038
1672	1.6626e+02	3.3663	6.348637	0.000405	4.054154	0.686792	-0.000041
1673	1.6636e+02	3.3584	6.311569	0.000373	3.726545	0.631294	-0.000037
1674	1.6646e+02	3.3485	6.270020	0.000418	4.177007	0.707604	-0.000042
1675	1.6656e+02	3.3404	6.232137	0.000381	3.808448	0.645168	-0.000038
1676	1.6666e+02	3.3263	6.195069	0.000373	3.726545	0.631294	-0.000037
1677	1.6676e+02	3.3204	6.157186	0.000381	3.808448	0.645168	-0.000038
1678	1.6686e+02	3.3083	6.115230	0.000422	4.217958	0.714541	-0.000042
1679	1.6696e+02	3.3006	6.076125	0.000393	3.931301	0.665980	-0.000039
1680	1.6706e+02	3.2887	6.034576	0.000418	4.177007	0.707604	-0.000042
1681	1.6716e+02	3.2787	5.998730	0.000360	3.603692	0.610482	-0.000036
1682	1.6726e+02	3.2688	5.959625	0.000393	3.931301	0.665980	-0.000039
1683	1.6736e+02	3.2594	5.923372	0.000364	3.644643	0.617419	-0.000036
1684	1.6746e+02	3.2486	5.880601	0.000430	4.299860	0.728416	-0.000043
1685	1.6756e+02	3.2385	5.844347	0.000364	3.644643	0.617419	-0.000036
1686	1.6766e+02	3.2292	5.806057	0.000385	3.849399	0.652106	-0.000038
1687	1.6776e+02	3.2201	5.759620	0.000467	4.668420	0.790852	-0.000047
1688	1.6786e+02	3.2120	5.725403	0.000344	3.439888	0.582733	-0.000034
1689	1.6796e+02	3.2002	5.684262	0.000414	4.136056	0.700667	-0.000041
1690	1.6806e+02	3.1911	5.640269	0.000442	4.422713	0.749228	-0.000044
1691	1.6816e+02	3.1809	5.601571	0.000389	3.890350	0.659043	-0.000039
1692	1.6825e+02	3.1708	5.557985	0.000438	4.381762	0.742291	-0.000044
1693	1.6835e+02	3.1592	5.518473	0.000397	3.972252	0.672918	-0.000040
1694	1.6845e+02	3.1506	5.474888	0.000438	4.381762	0.742291	-0.000044
1695	1.6855e+02	3.1428	5.433746	0.000414	4.136056	0.700667	-0.000041
1696	1.6865e+02	3.1313	5.394234	0.000397	3.972252	0.672918	-0.000040
1697	1.6875e+02	3.1188	5.353092	0.000414	4.136056	0.700667	-0.000041
1698	1.6885e+02	3.1112	5.314395	0.000389	3.890350	0.659043	-0.000039
1699	1.6895e+02	3.0997	5.272031	0.000426	4.258909	0.721479	-0.000043
1700	1.6905e+02	3.0908	5.228853	0.000434	4.340811	0.735353	-0.000043
1701	1.6915e+02	3.0814	5.189340	0.000397	3.972252	0.672918	-0.000040
1702	1.6925e+02	3.0695	5.142089	0.000475	4.750322	0.804726	-0.000047
1703	1.6935e+02	3.0602	5.101354	0.000410	4.095105	0.693730	-0.000041
1704	1.6945e+02	3.0505	5.059806	0.000418	4.177007	0.707604	-0.000042
1705	1.6955e+02	3.0383	5.017849	0.000422	4.217958	0.714541	-0.000042
1706	1.6965e+02	3.0285	4.975486	0.000426	4.258909	0.721479	-0.000043
1707	1.6975e+02	3.0209	4.932715	0.000430	4.299860	0.728416	-0.000043
1708	1.6985e+02	3.0088	4.892388	0.000405	4.054154	0.686792	-0.000041
1709	1.6995e+02	3.0000	4.851653	0.000410	4.095105	0.693730	-0.000041
1710	1.7005e+02	2.9887	4.808882	0.000430	4.299860	0.728416	-0.000043
1711	1.7015e+02	2.9785	4.767741	0.000414	4.136056	0.700667	-0.000041
1712	1.7024e+02	2.9706	4.727821	0.000401	4.013203	0.679855	-0.000040
1713	1.7034e+02	2.9614	4.688309	0.000397	3.972252	0.672918	-0.000040
1714	1.7044e+02	2.9498	4.650834	0.000377	3.767496	0.638231	-0.000038
1715	1.7054e+02	2.9403	4.611321	0.000397	3.972252	0.672918	-0.000040
1716	1.7064e+02	2.9307	4.570180	0.000414	4.136056	0.700667	-0.000041
1717	1.7074e+02	2.9240	4.526187	0.000442	4.422713	0.749228	-0.000044
1718	1.7084e+02	2.9092	4.483008	0.000434	4.340811	0.735353	-0.000043
1719	1.7094e+02	2.9025	4.443904	0.000393	3.931301	0.665980	-0.000039
1720	1.7104e+02	2.8916	4.404391	0.000397	3.972252	0.672918	-0.000040
1721	1.7114e+02	2.8808	4.359991	0.000446	4.463664	0.756165	-0.000045
1722	1.7124e+02	2.8730	4.318035	0.000422	4.217958	0.714541	-0.000042
1723	1.7134e+02	2.8629	4.274856	0.000434	4.340811	0.735353	-0.000043
1724	1.7144e+02	2.8513	4.232085	0.000430	4.299860	0.728416	-0.000043
1725	1.7154e+02	2.8404	4.190944	0.000414	4.136056	0.700667	-0.000041
1726	1.7164e+02	2.8320	4.148988	0.000422	4.217958	0.714541	-0.000042
1727	1.7174e+02	2.8230	4.108661	0.000405	4.054154	0.686792	-0.000041
1728	1.7184e+02	2.8120	4.063038	0.000459	4.586517	0.776977	-0.000046
1729	1.7194e+02	2.8033	4.023526	0.000397	3.972252	0.672918	-0.000040
1730	1.7204e+02	2.7907	3.979533	0.000442	4.422713	0.749228	-0.000044
1731	1.7213e+02	2.7821	3.939613	0.000401	4.013203	0.679855	-0.000040
1732	1.7223e+02	2.7708	3.894806	0.000450	4.504615	0.763102	-0.000045
1733	1.7233e+02	2.7646	3.855701	0.000393	3.931301	0.665980	-0.000039
1734	1.7243e+02	2.7506	3.810079	0.000459	4.586517	0.776977	-0.000046
1735	1.7253e+02	2.7435	3.770566	0.000397	3.972252	0.672918	-0.000040
1736	1.7263e+02	2.7334	3.723722	0.000471	4.709371	0.797789	-0.000047
1737	1.7273e+02	2.7235	3.686246	0.000377	3.767496	0.638231	-0.000038
1738	1.7283e+02	2.7130	3.638587	0.000479	4.791273	0.811664	-0.000048
1739	1.7293e+02	2.7029	3.599482	0.000393	3.931301	0.665980	-0.000039
1740	1.7303e+02	2.6946	3.561600	0.000381	3.808448	0.645168	-0.000038
1741	1.7313e+02	2.6825	3.518014	0.000438	4.381762	0.742291	-0.000044
1742	1.7323e+02	2.6696	3.473614	0.000446	4.463664	0.756165	-0.000045
1743	1.7333e+02	2.6597	3.436545	0.000373	3.726545	0.631294	-0.000037
1744	1.7343e+02	2.6528	3.398255	0.000385	3.849399	0.652106	-0.000038
1745	1.7353e+02	2.6426	3.355892	0.000426	4.258909	0.721479	-0.000043
1746	1.7363e+02	2.6324	3.316787	0.000393	3.931301	0.665980	-0.000039
1747	1.7373e+02	2.6231	3.274423	0.000426	4.258909	0.721479	-0.000043
1748	1.7383e+02	2.6129	3.232874	0.000418	4.177007	0.707604	-0.000042
1749	1.7393e+02	2.6013	3.192955	0.000401	4.013203	0.679855	-0.000040
1750	1.7403e+02	2.5913	3.150998	0.000422	4.217958	0.714541	-0.000042
1751	1.7413e+02	2.5838	3.112301	0.000389	3.890350	0.659043	-0.000039
1752	1.7422e+02	2.5712	3.071159	0.000414	4.136056	0.700667	-0.000041
1753	1.7432e+02	2.5642	3.032054	0.000393	3.931301	0.665980	-0.000039
1754	1.7442e+02	2.5490	2.988876	0.000434	4.340811	0.735353	-0.000043
1755	1.7452e+02	2.5437	2.948142	0.000410	4.095105	0.693730	-0.000041
1756	1.7462e+02	2.5358	2.907000	0.000414	4.136056	0.700667	-0.000041
1757	1.7472e+02	2.5228	2.864636	0.000426	4.258909	0.721479	-0.000043
1758	1.7482e+02	2.5124	2.823088	0.000418	4.177007	0.707604	-0.000042
1759	1.7492e+02	2.5047	2.785612	0.000377	3.767496	0.638231	-0.000038
1760	1.7502e+02	2.4926	2.744878	0.000410	4.095105	0.693730	-0.000041
1761	1.7512e+02	2.4814	2.704144	0.000410	4.095105	0.693730	-0.000041
1762	1.7522e+02	2.4714	2.665039	0.000393	3.931301	0.665980	-0.000039
1763	1.7532e+02	2.4620	2.620231	0.000450	4.504615	0.763102	-0.000045
1764	1.7542e+02	2.4533	2.582755	0.000377	3.767496	0.638231	-0.000038
1765	1.7552e+02	2.4387	2.538762	0.000442	4.422713	0.749228	-0.000044
1766	1.7562e+02	2.4337	2.497214	0.000418	4.177007	0.707604	-0.000042
1767	1.7572e+02	2.4247	2.459738	0.000377	3.767496	0.638231	-0.000038
1768	1.7582e+02	2.4155	2.417374	0.000426	4.258909	0.721479	-0.000043
1769	1.7592e+02	2.4067	2.376233	0.000414	4.136056	0.700667	-0.000041
1770	1.7602e+02	2.3907	2.333054	0.000434	4.340811	0.735353	-0.000043
1771	1.7612e+02	2.3818	2.296394	0.000369	3.685594	0.624357	-0.000037
1772	1.7621e+02	2.3744	2.251586	0.000450	4.504615	0.763102	-0.000045
1773	1.7631e+02	2.3643	2.211259	0.000405	4.054154	0.686792	-0.000041
1774	1.7641e+02	2.3554	2.170932	0.000405	4.054154	0.686792	-0.000041
1775	1.7651e+02	2.3438	2.132235	0.000389	3.890350	0.659043	-0.000039
1776	1.7661e+02	2.3338	2.091908	0.000405	4.054154	0.686792	-0.000041
1777	1.7671e+02	2.3234	2.054025	0.000381	3.808448	0.645168	-0.000038
1778	1.7681e+02	2.3136	2.012883	0.000414	4.136056	0.700667	-0.000041
1779	1.7691e+02	2.3061	1.972964	0.000401	4.013203	0.679855	-0.000040
1780	1.7701e+02	2.2958	1.931822	0.000414	4.136056	0.700667	-0.000041
1781	1.7711e+02	2.2841	1.896383	0.000356	3.562741	0.603545	-0.000036
1782	1.7721e+02	2.2737	1.853205	0.000434	4.340811	0.735353	-0.000043
1783	1.7731e+02	2.2647	1.814507	0.000389	3.890350	0.659043	-0.000039
1784	1.7741e+02	2.2562	1.774180	0.000405	4.054154	0.686792	-0.000041
1785	1.7751e+02	2.2443	1.734668	0.000397	3.972252	0.672918	-0.000040
1786	1.7761e+02	2.2343	1.694749	0.000401	4.013203	0.679855	-0.000040
1787	1.7771e+02	2.2231	1.653200	0.000418	4.177007	0.707604	-0.000042
1788	1.7781e+02	2.2134	1.615724	0.000377	3.767496	0.638231	-0.000038
1789	1.7791e+02	2.2047	1.573361	0.000426	4.258909	0.721479	-0.000043
1790	1.7801e+02	2.1970	1.530997	0.000426	4.258909	0.721479	-0.000043
1791	1.7810e+02	2.1884	1.494336	0.000369	3.685594	0.624357	-0.000037
1792	1.7820e+02	2.1757	1.448306	0.000463	4.627468	0.783914	-0.000046
1793	1.7830e+02	2.1651	1.412868	0.000356	3.562741	0.603545	-0.000036
1794	1.7840e+02	2.1556	1.369689	0.000434	4.340811	0.735353	-0.000043
1795	1.7850e+02	2.1450	1.325696	0.000442	4.422713	0.749228	-0.000044
1796	1.7860e+02	2.1331	1.282925	0.000430	4.299860	0.728416	-0.000043
1797	1.7870e+02	2.1255	1.236896	0.000463	4.627468	0.783914	-0.000046
1798	1.7880e+02	2.1146	1.196976	0.000401	4.013203	0.679855	-0.000040
1799	1.7890e+02	2.1081	1.155834	0.000414	4.136056	0.700667	-0.000041
1800	1.7900e+02	2.0966	1.111841	0.000442	4.422713	0.749228	-0.000044
1801	1.7910e+02	2.0871	1.071922	0.000401	4.013203	0.679855	-0.000040
1802	1.7920e+02	2.0775	1.027522	0.000446	4.463664	0.756165	-0.000045
1803	1.7930e+02	2.0660	0.984343	0.000434	4.340811	0.735353	-0.000043
1804	1.7940e+02	2.0564	0.942387	0.000422	4.217958	0.714541	-0.000042
1805	1.7950e+02	2.0444	0.904504	0.000381	3.808448	0.645168	-0.000038
1806	1.7960e+02	2.0364	0.859696	0.000450	4.504615	0.763102	-0.000045
1807	1.7970e+02	2.0234	0.818555	0.000414	4.136056	0.700667	-0.000041
1808	1.7980e+02	2.0142	0.778635	0.000401	4.013203	0.679855	-0.000040
1809	1.7990e+02	2.0084	0.734235	0.000446	4.463664	0.756165	-0.000045
1810	1.8000e+02	1.9930	0.692279	0.000422	4.217958	0.714541	-0.000042
1811	1.8009e+02	1.9840	0.649100	0.000434	4.340811	0.735353	-0.000043
1812	1.8019e+02	1.9764	0.607144	0.000422	4.217958	0.714541	-0.000042
1813	1.8029e+02	1.9645	0.562336	0.000450	4.504615	0.763102	-0.000045
1814	1.8039e+02	1.9555	0.521602	0.000410	4.095105	0.693730	-0.000041
1815	1.8049e+02	1.9440	0.482497	0.000393	3.931301	0.665980	-0.000039
1816	1.8059e+02	1.9353	0.438097	0.000446	4.463664	0.756165	-0.000045
1817	1.8069e+02	1.9247	0.392882	0.000455	4.545566	0.770040	-0.000045
1818	1.8079e+02	1.9149	0.355406	0.000377	3.767496	0.638231	-0.000038
1819	1.8089e+02	1.9046	0.311821	0.000438	4.381762	0.742291	-0.000044
1820	1.8099e+02	1.8960	0.268235	0.000438	4.381762	0.742291	-0.000044
1821	1.8109e+02	1.8859	0.222613	0.000459	4.586517	0.776977	-0.000046
1822	1.8119e+02	1.8745	0.181878	0.000410	4.095105	0.693730	-0.000041
1823	1.8129e+02	1.8676	0.137071	0.000450	4.504615	0.763102	-0.000045
1824	1.8139e+02	1.8546	0.091041	0.000463	4.627468	0.783914	-0.000046
1825	1.8149e+02	1.8466	0.049085	0.000422	4.217958	0.714541	-0.000042
1826	1.8159e+02	1.8339	0.008351	0.000410	4.095105	0.693730	-0.000041
1827	1.8169e+02	1.8283	-0.041753	0.000504	5.036979	0.853287	-0.000050
1828	1.8179e+02	1.8172	-0.086968	0.000455	4.545566	0.770040	-0.000045
1829	1.8189e+02	1.8064	-0.133405	0.000467	4.668420	0.790852	-0.000047
1830	1.8199e+02	1.7957	-0.178212	0.000450	4.504615	0.763102	-0.000045
1831	1.8209e+02	1.7825	-0.221391	0.000434	4.340811	0.735353	-0.000043
1832	1.8218e+02	1.7769	-0.268235	0.000471	4.709371	0.797789	-0.000047
1833	1.8228e+02	1.7635	-0.312228	0.000442	4.422713	0.749228	-0.000044
1834	1.8238e+02	1.7562	-0.359072	0.000471	4.709371	0.797789	-0.000047
1835	1.8248e+02	1.7496	-0.407546	0.000487	4.873175	0.825538	-0.000049
1836	1.8258e+02	1.7361	-0.452354	0.000450	4.504615	0.763102	-0.000045
1837	1.8268e+02	1.7262	-0.497162	0.000450	4.504615	0.763102	-0.000045
1838	1.8278e+02	1.7170	-0.545635	0.000487	4.873175	0.825538	-0.000049
1839	1.8288e+02	1.7077	-0.588406	0.000430	4.299860	0.728416	-0.000043
1840	1.8298e+02	1.6968	-0.632807	0.000446	4.463664	0.756165	-0.000045
1841	1.8308e+02	1.6877	-0.679651	0.000471	4.709371	0.797789	-0.000047
1842	1.8318e+02	1.6766	-0.729754	0.000504	5.036979	0.853287	-0.000050
1843	1.8328e+02	1.6675	-0.776599	0.000471	4.709371	0.797789	-0.000047
1844	1.8338e+02	1.6586	-0.825072	0.000487	4.873175	0.825538	-0.000049
1845	1.8348e+02	1.6476	-0.870287	0.000455	4.545566	0.770040	-0.000045
1846	1.8358e+02	1.6388	-0.916724	0.000467	4.668420	0.790852	-0.000047
1847	1.8368e+02	1.6265	-0.961939	0.000455	4.545566	0.770040	-0.000045
1848	1.8378e+02	1.6166	-1.011635	0.000500	4.996028	0.846350	-0.000050
1849	1.8388e+02	1.6053	-1.059294	0.000479	4.791273	0.811664	-0.000048
1850	1.8398e+02	1.5948	-1.106953	0.000479	4.791273	0.811664	-0.000048
1851	1.8407e+02	1.5880	-1.150946	0.000442	4.422713	0.749228	-0.000044
1852	1.8417e+02	1.5765	-1.199420	0.000487	4.873175	0.825538	-0.000049
1853	1.8427e+02	1.5678	-1.245857	0.000467	4.668420	0.790852	-0.000047
1854	1.8437e+02	1.5561	-1.293109	0.000475	4.750322	0.804726	-0.000047
1855	1.8447e+02	1.5473	-1.343619	0.000508	5.077930	0.860225	-0.000051
1856	1.8457e+02	1.5379	-1.390464	0.000471	4.709371	0.797789	-0.000047
1857	1.8467e+02	1.5266	-1.434864	0.000446	4.463664	0.756165	-0.000045
1858	1.8477e+02	1.5177	-1.492299	0.000577	5.774098	0.978159	-0.000058
1859	1.8487e+02	1.5089	-1.538736	0.000467	4.668420	0.790852	-0.000047
1860	1.8497e+02	1.4997	-1.586396	0.000479	4.791273	0.811664	-0.000048
1861	1.8507e+02	1.4886	-1.636499	0.000504	5.036979	0.853287	-0.000050
1862	1.8517e+02	1.4787	-1.686602	0.000504	5.036979	0.853287	-0.000050
1863	1.8527e+02	1.4663	-1.738334	0.000520	5.200783	0.881037	-0.000052
1864	1.8537e+02	1.4581	-1.783957	0.000459	4.586517	0.776977	-0.000046
1865	1.8547e+02	1.4484	-1.834467	0.000508	5.077930	0.860225	-0.000051
1866	1.8557e+02	1.4363	-1.881312	0.000471	4.709371	0.797789	-0.000047
1867	1.8567e+02	1.4298	-1.933859	0.000528	5.282685	0.894911	-0.000053
1868	1.8577e+02	1.4165	-1.983962	0.000504	5.036979	0.853287	-0.000050
1869	1.8587e+02	1.4071	-2.029177	0.000455	4.545566	0.770040	-0.000045
1870	1.8597e+02	1.3976	-2.084576	0.000557	5.569343	0.943472	-0.000056
1871	1.8606e+02	1.3892	-2.131013	0.000467	4.668420	0.790852	-0.000047
1872	1.8616e+02	1.3782	-2.187226	0.000565	5.651245	0.957347	-0.000056
1873	1.8626e+02	1.3676	-2.235292	0.000483	4.832224	0.818601	-0.000048
1874	1.8636e+02	1.3596	-2.284988	0.000500	4.996028	0.846350	-0.000050
1875	1.8646e+02	1.3483	-2.331425	0.000467	4.668420	0.790852	-0.000047
1876	1.8656e+02	1.3379	-2.381528	0.000504	5.036979	0.853287	-0.000050
1877	1.8666e+02	1.3298	-2.434075	0.000528	5.282685	0.894911	-0.000053
1878	1.8676e+02	1.3176	-2.482142	0.000483	4.832224	0.818601	-0.000048
1879	1.8686e+02	1.3087	-2.533467	0.000516	5.159832	0.874099	-0.000052
1880	1.8696e+02	1.2978	-2.578275	0.000450	4.504615	0.763102	-0.000045
1881	1.8706e+02	1.2893	-2.628378	0.000504	5.036979	0.853287	-0.000050
1882	1.8716e+02	1.2775	-2.679296	0.000512	5.118881	0.867162	-0.000051
1883	1.8726e+02	1.2697	-2.728584	0.000496	4.955077	0.839413	-0.000050
1884	1.8736e+02	1.2577	-2.772984	0.000446	4.463664	0.756165	-0.000045
1885	1.8746e+02	1.2494	-2.822680	0.000500	4.996028	0.846350	-0.000050
1886	1.8756e+02	1.2402	-2.870747	0.000483	4.832224	0.818601	-0.000048
1887	1.8766e+02	1.2279	-2.917998	0.000475	4.750322	0.804726	-0.000047
1888	1.8776e+02	1.2185	-2.969324	0.000516	5.159832	0.874099	-0.000052
1889	1.8786e+02	1.2087	-3.021056	0.000520	5.200783	0.881037	-0.000052
1890	1.8796e+02	1.2000	-3.070344	0.000496	4.955077	0.839413	-0.000050
1891	1.8806e+02	1.1897	-3.118004	0.000479	4.791273	0.811664	-0.000048
1892	1.8815e+02	1.1791	-3.175846	0.000582	5.815049	0.985096	-0.000058
1893	1.8825e+02	1.1674	-3.222691	0.000471	4.709371	0.797789	-0.000047
1894	1.8835e+02	1.1596	-3.275645	0.000532	5.323636	0.901848	-0.000053
1895	1.8845e+02	1.1502	-3.327785	0.000524	5.241734	0.887974	-0.000052
1896	1.8855e+02	1.1413	-3.373407	0.000459	4.586517	0.776977	-0.000046
1897	1.8865e+02	1.1310	-3.423103	0.000500	4.996028	0.846350	-0.000050
1898	1.8875e+02	1.1190	-3.476872	0.000541	5.405538	0.915723	-0.000054
1899	1.8885e+02	1.1102	-3.529420	0.000528	5.282685	0.894911	-0.000053
1900	1.8895e+02	1.0996	-3.579115	0.000500	4.996028	0.846350	-0.000050
1901	1.8905e+02	1.0896	-3.628404	0.000496	4.955077	0.839413	-0.000050
1902	1.8915e+02	1.0803	-3.682988	0.000549	5.487441	0.929598	-0.000055
1903	1.8925e+02	1.0699	-3.731054	0.000483	4.832224	0.818601	-0.000048
1904	1.8935e+02	1.0600	-3.779935	0.000491	4.914126	0.832475	-0.000049
1905	1.8945e+02	1.0510	-3.834112	0.000545	5.446489	0.922660	-0.000054
1906	1.8955e+02	1.0414	-3.884622	0.000508	5.077930	0.860225	-0.000051
1907	1.8965e+02	1.0316	-3.935133	0.000508	5.077930	0.860225	-0.000051
1908	1.8975e+02	1.0179	-3.984421	0.000496	4.955077	0.839413	-0.000050
1909	1.8985e+02	1.0110	-4.032488	0.000483	4.832224	0.818601	-0.000048
1910	1.8995e+02	1.0011	-4.085442	0.000532	5.323636	0.901848	-0.000053
1911	1.9004e+02	0.9915	-4.132287	0.000471	4.709371	0.797789	-0.000047
1912	1.9014e+02	0.9807	-4.184019	0.000520	5.200783	0.881037	-0.000052
1913	1.9024e+02	0.9682	-4.233307	0.000496	4.955077	0.839413	-0.000050
1914	1.9034e+02	0.9578	-4.284225	0.000512	5.118881	0.867162	-0.000051
1915	1.9044e+02	0.9512	-4.329848	0.000459	4.586517	0.776977	-0.000046
1916	1.9054e+02	0.9420	-4.379136	0.000496	4.955077	0.839413	-0.000050
1917	1.9064e+02	0.9315	-4.427610	0.000487	4.873175	0.825538	-0.000049
1918	1.9074e+02	0.9195	-4.480564	0.000532	5.323636	0.901848	-0.000053
1919	1.9084e+02	0.9098	-4.527409	0.000471	4.709371	0.797789	-0.000047
1920	1.9094e+02	0.9009	-4.578327	0.000512	5.118881	0.867162	-0.000051
1921	1.9104e+02	0.8938	-4.627208	0.000491	4.914126	0.832475	-0.000049
1922	1.9114e+02	0.8816	-4.678533	0.000516	5.159832	0.874099	-0.000052
1923	1.9124e+02	0.8705	-4.731487	0.000532	5.323636	0.901848	-0.000053
1924	1.9134e+02	0.8602	-4.779961	0.000487	4.873175	0.825538	-0.000049
1925	1.9144e+02	0.8511	-4.827213	0.000475	4.750322	0.804726	-0.000047
1926	1.9154e+02	0.8390	-4.874465	0.000475	4.750322	0.804726	-0.000047
1927	1.9164e+02	0.8309	-4.929863	0.000557	5.569343	0.943472	-0.000056
1928	1.9174e+02	0.8213	-4.976300	0.000467	4.668420	0.790852	-0.000047
1929	1.9184e+02	0.8141	-5.024367	0.000483	4.832224	0.818601	-0.000048
1930	1.9194e+02	0.8022	-5.077321	0.000532	5.323636	0.901848	-0.000053
1931	1.9203e+02	0.7918	-5.124166	0.000471	4.709371	0.797789	-0.000047
1932	1.9213e+02	0.7826	-5.177935	0.000541	5.405538	0.915723	-0.000054
1933	1.9223e+02	0.7727	-5.222335	0.000446	4.463664	0.756165	-0.000045
1934	1.9233e+02	0.7628	-5.276919	0.000549	5.487441	0.929598	-0.000055
1935	1.9243e+02	0.7520	-5.327430	0.000508	5.077930	0.860225	-0.000051
1936	1.9253e+02	0.7406	-5.377940	0.000508	5.077930	0.860225	-0.000051
1937	1.9263e+02	0.7305	-5.428858	0.000512	5.118881	0.867162	-0.000051
1938	1.9273e+02	0.7233	-5.478554	0.000500	4.996028	0.846350	-0.000050
1939	1.9283e+02	0.7131	-5.527435	0.000491	4.914126	0.832475	-0.000049
1940	1.9293e+02	0.7026	-5.581204	0.000541	5.405538	0.915723	-0.000054
1941	1.9303e+02	0.6918	-5.627641	0.000467	4.668420	0.790852	-0.000047
1942	1.9313e+02	0.6818	-5.675707	0.000483	4.832224	0.818601	-0.000048
1943	1.9323e+02	0.6731	-5.726218	0.000508	5.077930	0.860225	-0.000051
1944	1.9333e+02	0.6620	-5.773877	0.000479	4.791273	0.811664	-0.000048
1945	1.9343e+02	0.6493	-5.826832	0.000532	5.323636	0.901848	-0.000053
1946	1.9353e+02	0.6441	-5.866344	0.000397	3.972252	0.672918	-0.000040
1947	1.9363e+02	0.6326	-5.916854	0.000508	5.077930	0.860225	-0.000051
1948	1.9373e+02	0.6206	-5.967772	0.000512	5.118881	0.867162	-0.000051
1949	1.9383e+02	0.6135	-6.018690	0.000512	5.118881	0.867162	-0.000051
1950	1.9393e+02	0.6030	-6.068386	0.000500	4.996028	0.846350	-0.000050
1951	1.9403e+02	0.5943	-6.116452	0.000483	4.832224	0.818601	-0.000048
1952	1.9412e+02	0.5827	-6.167370	0.000512	5.118881	0.867162	-0.000051
1953	1.9422e+02	0.5734	-6.216251	0.000491	4.914126	0.832475	-0.000049
1954	1.9432e+02	0.5622	-6.264725	0.000487	4.873175	0.825538	-0.000049
1955	1.9442e+02	0.5549	-6.312791	0.000483	4.832224	0.818601	-0.000048
1956	1.9452e+02	0.5431	-6.362080	0.000496	4.955077	0.839413	-0.000050
1957	1.9462e+02	0.5337	-6.414627	0.000528	5.282685	0.894911	-0.000053
1958	1.9472e+02	0.5219	-6.462693	0.000483	4.832224	0.818601	-0.000048
1959	1.9482e+02	0.5151	-6.512389	0.000500	4.996028	0.846350	-0.000050
1960	1.9492e+02	0.5026	-6.564529	0.000524	5.241734	0.887974	-0.000052
1961	1.9502e+02	0.4945	-6.613003	0.000487	4.873175	0.825538	-0.000049
1962	1.9512e+02	0.4819	-6.667179	0.000545	5.446489	0.922660	-0.000054
1963	1.9522e+02	0.4720	-6.716468	0.000496	4.955077	0.839413	-0.000050
1964	1.9532e+02	0.4675	-6.771459	0.000553	5.528392	0.936535	-0.000055
1965	1.9542e+02	0.4535	-6.822784	0.000516	5.159832	0.874099	-0.000052
1966	1.9552e+02	0.4417	-6.875739	0.000532	5.323636	0.901848	-0.000053
1967	1.9562e+02	0.4341	-6.925027	0.000496	4.955077	0.839413	-0.000050
1968	1.9572e+02	0.4255	-6.974723	0.000500	4.996028	0.846350	-0.000050
1969	1.9582e+02	0.4123	-7.028085	0.000536	5.364587	0.908786	-0.000054
1970	1.9592e+02	0.4018	-7.081447	0.000536	5.364587	0.908786	-0.000054
1971	1.9601e+02	0.3945	-7.131550	0.000504	5.036979	0.853287	-0.000050
1972	1.9611e+02	0.3829	-7.186948	0.000557	5.569343	0.943472	-0.000056
1973	1.9621e+02	0.3723	-7.237459	0.000508	5.077930	0.860225	-0.000051
1974	1.9631e+02	0.3590	-7.286340	0.000491	4.914126	0.832475	-0.000049
1975	1.9641e+02	0.3501	-7.337665	0.000516	5.159832	0.874099	-0.000052
1976	1.9651e+02	0.3472	-7.388583	0.000512	5.118881	0.867162	-0.000051
1977	1.9661e+02	0.3351	-7.441130	0.000528	5.282685	0.894911	-0.000053
1978	1.9671e+02	0.3230	-7.492455	0.000516	5.159832	0.874099	-0.000052
1979	1.9681e+02	0.3112	-7.542558	0.000504	5.036979	0.853287	-0.000050
1980	1.9691e+02	0.3063	-7.600401	0.000582	5.815049	0.985096	-0.000058
1981	1.9701e+02	0.2959	-7.648875	0.000487	4.873175	0.825538	-0.000049
1982	1.9711e+02	0.2847	-7.702644	0.000541	5.405538	0.915723	-0.000054
1983	1.9721e+02	0.2738	-7.753154	0.000508	5.077930	0.860225	-0.000051
1984	1.9731e+02	0.2653	-7.803258	0.000504	5.036979	0.853287	-0.000050
1985	1.9741e+02	0.2530	-7.856212	0.000532	5.323636	0.901848	-0.000053
1986	1.9751e+02	0.2438	-7.905501	0.000496	4.955077	0.839413	-0.000050
1987	1.9761e+02	0.2360	-7.957640	0.000524	5.241734	0.887974	-0.000052
1988	1.9771e+02	0.2232	-8.014668	0.000573	5.733147	0.971221	-0.000057
1989	1.9781e+02	0.2139	-8.066401	0.000520	5.200783	0.881037	-0.000052
1990	1.9791e+02	0.2045	-8.118948	0.000528	5.282685	0.894911	-0.000053
1991	1.9800e+02	0.1945	-8.169459	0.000508	5.077930	0.860225	-0.000051
1992	1.9810e+02	0.1847	-8.224857	0.000557	5.569343	0.943472	-0.000056
1993	1.9820e+02	0.1738	-8.281070	0.000565	5.651245	0.957347	-0.000056
1994	1.9830e+02	0.1638	-8.337691	0.000569	5.692196	0.964284	-0.000057
1995	1.9840e+02	0.1560	-8.391460	0.000541	5.405538	0.915723	-0.000054
1996	1.9850e+02	0.1471	-8.444415	0.000532	5.323636	0.901848	-0.000053
1997	1.9860e+02	0.1346	-8.504701	0.000606	6.060755	1.026720	-0.000061
1998	1.9870e+02	0.1231	-8.557656	0.000532	5.323636	0.901848	-0.000053
1999	1.9880e+02	0.1168	-8.611425	0.000541	5.405538	0.915723	-0.000054
2000	1.9890e+02	0.1025	-8.666009	0.000549	5.487441	0.929598	-0.000055
2001	1.9900e+02	0.0938	-8.723444	0.000577	5.774098	0.978159	-0.000058
2002	1.9910e+02	0.0846	-8.775177	0.000520	5.200783	0.881037	-0.000052
2003	1.9920e+02	0.0743	-8.833834	0.000590	5.896951	0.998971	-0.000059
2004	1.9930e+02	0.0658	-8.890455	0.000569	5.692196	0.964284	-0.000057
2005	1.9940e+02	0.0554	-8.947483	0.000573	5.733147	0.971221	-0.000057
2006	1.9950e+02	0.0427	-9.000030	0.000528	5.282685	0.894911	-0.000053
2007	1.9960e+02	0.0333	-9.058280	0.000586	5.856000	0.992033	-0.000059
2008	1.9970e+02	0.0251	-9.111235	0.000532	5.323636	0.901848	-0.000053
2009	1.9980e+02	0.0146	-9.167855	0.000569	5.692196	0.964284	-0.000057
2010	1.9990e+02	0.0056	-9.225698	0.000582	5.815049	0.985096	-0.000058
2011	2.0000e+02	-0.0024	-9.281096	0.000582	5.815049	0.985096	-0.000056

PMax (uC/cm2):	4.13e+01
Pr (uC/cm2):	1.22e+01
-Pr (uC/cm2):	0.00e+00
PLoss (uC/cm2):	0.00e+00
C (Max-Eff) (nF):	4.13e-01
K (Eff):	7.00e+02
Vert. (+/-Pr) Shift (uC/cm2):	6.08e+00
Offset (uC/cm2):	2.14e+01

A (Loop Area - uC/cm2·Volts):	-8.89e-02



Hysteresis Version: 5.48.1 - Radiant Technologies, Inc., 1999 - 9/12/24

