»»»»»»»»»»»»»»»»»»»»»»»»»»»»»»»»»»»» Hysteresis ««««««««««««««««««««««««««««««««««««
»»»  Executed Version:	5.48.1
»»»  Vision Version:	5.48.4 (R)
»»»  Vision Compiled:	9/18/24
»»»  Driver Version:	5.47.0
»»»  Windows Version:	Windows 8 or 8.1
»»»  Processor Information:	x86 (AMD or Intel) - 32 Processors
»»»  Tester Name:	PMF21124-494 (100V)
»»»  Tester S/N:	PMF21124-494
»»»  Internal Amp Type:	100V RevK 270k
»»»  Internal Amp S/N:	iAB2-596/K     
»»»  Execution Count:	1
»»»»»»»»»»»»»»»»»»»»»»»»»»»»»»»»»»»»»»»»»»««««««««««««««««««««««««««««««««««««««««««

Stored:	6/25/2025 - 15:43:9
Configured:	06/25/25 10:44:40 AM
Executed:	06/25/25 03:42:41 PM

»»»»»»»»»»»»»»»»»»»»»»»»»»»»»»»»»»» Sample Info ««««««««««««««««««««««««««««««««««««
Sample Name:	
Lot Name:	
Wafer Name:	
Die Row/Column:	0/0
Capacitor Number:	0
Sample Area (cm2):	1.00e-04
Sample Thickness (microns):	1.50e-01

Amplifier:	Internal

»»»»»»»»»»»»»»»»»»»»»»»»»»»»»»»»»»» Tester Info «««««««««««««««««««««««««««««««««««
Tester Name:	PMF21124-494 (100V)
Tester Serial Number:	PMF21124-494
Return Signal Amp. Level:	0.19 [Index: 3]

»»»»»»»»»»»»»»»»»»»»»»»»»»»»»»»» Hysteresis Info ««««««««««««««««««««««««««««««««««
Task Name:	Hyst-116
Volts:	10.00
Field:	666.67 (kV/cm)
DCBias:	0.00
DCField:	0.00 (kV/cm)
Hysteresis Period (ms):	2.00e+02
Preset:	Enabled
Preset Delay (ms):	1.00e+03
Profile:	Standard Monopolar

»»»»»»»»»»»»»»»»»»»»»»»»»»»»»»»»»»»»»» Data «««««««««««««««««««««««««««««««««««««««
Points:	2011

Valid Data

Point	Time (ms)	Drive Voltage	Measured Polarization (uC/cm2)	Capacitance (uF)	Normalized Capacitance (uF/cm2)	Dielectric Constant	Instantaneous Current (mA)
   1	0.0000e+00	-0.0008	-24.547804	0.000446	4.463615	0.756157	0.000045
   2	9.9500e-02	0.0095	-24.503395	0.000446	4.463615	0.756157	0.000045
   3	1.9900e-01	0.0204	-24.438801	0.000649	6.492532	1.099865	0.000065
   4	2.9850e-01	0.0295	-24.394393	0.000446	4.463615	0.756157	0.000045
   5	3.9800e-01	0.0396	-24.333836	0.000609	6.086748	1.031123	0.000061
   6	4.9750e-01	0.0489	-24.289427	0.000446	4.463615	0.756157	0.000045
   7	5.9700e-01	0.0584	-24.220796	0.000690	6.898315	1.168606	0.000069
   8	6.9650e-01	0.0688	-24.188499	0.000325	3.246266	0.549932	0.000032
   9	7.9600e-01	0.0788	-24.160239	0.000284	2.840483	0.481191	0.000028
  10	8.9550e-01	0.0884	-24.091608	0.000690	6.898315	1.168606	0.000069
  11	9.9500e-01	0.0989	-24.002791	0.000893	8.927231	1.512314	0.000089
  12	1.0945e+00	0.1086	-23.994716	0.000081	0.811566	0.137483	0.000008
  13	1.1940e+00	0.1188	-23.946271	0.000487	4.869399	0.824898	0.000049
  14	1.2935e+00	0.1285	-23.881676	0.000649	6.492532	1.099865	0.000065
  15	1.3930e+00	0.1381	-23.796897	0.000852	8.521448	1.443572	0.000085
  16	1.4925e+00	0.1492	-23.764600	0.000325	3.246266	0.549932	0.000032
  17	1.5920e+00	0.1588	-23.683857	0.000812	8.115664	1.374831	0.000081
  18	1.6915e+00	0.1687	-23.627337	0.000568	5.680965	0.962382	0.000057
  19	1.7910e+00	0.1785	-23.582928	0.000446	4.463615	0.756157	0.000045
  20	1.8905e+00	0.1891	-23.526409	0.000568	5.680965	0.962382	0.000057
  21	1.9900e+00	0.1983	-23.502186	0.000243	2.434699	0.412449	0.000024
  22	2.0895e+00	0.2079	-23.393183	0.001096	10.956147	1.856022	0.000110
  23	2.1890e+00	0.2184	-23.364923	0.000284	2.840483	0.481191	0.000028
  24	2.2885e+00	0.2275	-23.304366	0.000609	6.086748	1.031123	0.000061
  25	2.3880e+00	0.2381	-23.296292	0.000081	0.811566	0.137483	0.000008
  26	2.4875e+00	0.2491	-23.203438	0.000933	9.333014	1.581055	0.000093
  27	2.5870e+00	0.2577	-23.175178	0.000284	2.840483	0.481191	0.000028
  28	2.6865e+00	0.2676	-23.058101	0.001177	11.767713	1.993505	0.000118
  29	2.7860e+00	0.2777	-23.017729	0.000406	4.057832	0.687415	0.000041
  30	2.8855e+00	0.2890	-22.961210	0.000568	5.680965	0.962382	0.000057
  31	2.9850e+00	0.2981	-22.924875	0.000365	3.652049	0.618674	0.000037
  32	3.0845e+00	0.3076	-22.832021	0.000933	9.333014	1.581055	0.000093
  33	3.1840e+00	0.3168	-22.791650	0.000406	4.057832	0.687415	0.000041
  34	3.2835e+00	0.3275	-22.767427	0.000243	2.434699	0.412449	0.000024
  35	3.3830e+00	0.3379	-22.706870	0.000609	6.086748	1.031123	0.000061
  36	3.4825e+00	0.3470	-22.646313	0.000609	6.086748	1.031123	0.000061
  37	3.5820e+00	0.3576	-22.638239	0.000081	0.811566	0.137483	0.000008
  38	3.6815e+00	0.3680	-22.513087	0.001258	12.579280	2.130988	0.000126
  39	3.7810e+00	0.3765	-22.452530	0.000609	6.086748	1.031123	0.000061
  40	3.8805e+00	0.3868	-22.420233	0.000325	3.246266	0.549932	0.000032
  41	3.9800e+00	0.3979	-22.335453	0.000852	8.521448	1.443572	0.000085
  42	4.0795e+00	0.4076	-22.287008	0.000487	4.869399	0.824898	0.000049
  43	4.1790e+00	0.4177	-22.234525	0.000528	5.275182	0.893640	0.000053
  44	4.2785e+00	0.4270	-22.182042	0.000528	5.275182	0.893640	0.000053
  45	4.3780e+00	0.4381	-22.137634	0.000446	4.463615	0.756157	0.000045
  46	4.4775e+00	0.4472	-22.073040	0.000649	6.492532	1.099865	0.000065
  47	4.5770e+00	0.4569	-22.040743	0.000325	3.246266	0.549932	0.000032
  48	4.6765e+00	0.4672	-21.976148	0.000649	6.492532	1.099865	0.000065
  49	4.7760e+00	0.4772	-21.899443	0.000771	7.709881	1.306089	0.000077
  50	4.8755e+00	0.4869	-21.838886	0.000609	6.086748	1.031123	0.000061
  51	4.9750e+00	0.4977	-21.814663	0.000243	2.434699	0.412449	0.000024
  52	5.0745e+00	0.5069	-21.733920	0.000812	8.115664	1.374831	0.000081
  53	5.1740e+00	0.5167	-21.673363	0.000609	6.086748	1.031123	0.000061
  54	5.2735e+00	0.5261	-21.641066	0.000325	3.246266	0.549932	0.000032
  55	5.3730e+00	0.5373	-21.536101	0.001055	10.550364	1.787280	0.000105
  56	5.4725e+00	0.5468	-21.507841	0.000284	2.840483	0.481191	0.000028
  57	5.5720e+00	0.5567	-21.467469	0.000406	4.057832	0.687415	0.000041
  58	5.6715e+00	0.5668	-21.414987	0.000528	5.275182	0.893640	0.000053
  59	5.7710e+00	0.5766	-21.350392	0.000649	6.492532	1.099865	0.000065
  60	5.8705e+00	0.5865	-21.257538	0.000933	9.333014	1.581055	0.000093
  61	5.9700e+00	0.5968	-21.205055	0.000528	5.275182	0.893640	0.000053
  62	6.0695e+00	0.6060	-21.148536	0.000568	5.680965	0.962382	0.000057
  63	6.1690e+00	0.6168	-21.096053	0.000528	5.275182	0.893640	0.000053
  64	6.2685e+00	0.6260	-21.043570	0.000528	5.275182	0.893640	0.000053
  65	6.3680e+00	0.6361	-21.011273	0.000325	3.246266	0.549932	0.000032
  66	6.4675e+00	0.6457	-20.922456	0.000893	8.927231	1.512314	0.000089
  67	6.5670e+00	0.6559	-20.910345	0.000122	1.217350	0.206225	0.000012
  68	6.6665e+00	0.6665	-20.813453	0.000974	9.738797	1.649797	0.000097
  69	6.7660e+00	0.6757	-20.744822	0.000690	6.898315	1.168606	0.000069
  70	6.8655e+00	0.6861	-20.696376	0.000487	4.869399	0.824898	0.000049
  71	6.9650e+00	0.6959	-20.631782	0.000649	6.492532	1.099865	0.000065
  72	7.0645e+00	0.7056	-20.599485	0.000325	3.246266	0.549932	0.000032
  73	7.1640e+00	0.7155	-20.490482	0.001096	10.956147	1.856022	0.000110
  74	7.2635e+00	0.7259	-20.466260	0.000243	2.434699	0.412449	0.000024
  75	7.3630e+00	0.7362	-20.438000	0.000284	2.840483	0.481191	0.000028
  76	7.4625e+00	0.7457	-20.345146	0.000933	9.333014	1.581055	0.000093
  77	7.5620e+00	0.7552	-20.312848	0.000325	3.246266	0.549932	0.000032
  78	7.6615e+00	0.7660	-20.240180	0.000730	7.304098	1.237348	0.000073
  79	7.7610e+00	0.7756	-20.207883	0.000325	3.246266	0.549932	0.000032
  80	7.8605e+00	0.7856	-20.119066	0.000893	8.927231	1.512314	0.000089
  81	7.9600e+00	0.7949	-20.054472	0.000649	6.492532	1.099865	0.000065
  82	8.0595e+00	0.8049	-20.038323	0.000162	1.623133	0.274966	0.000016
  83	8.1590e+00	0.8156	-19.965655	0.000730	7.304098	1.237348	0.000073
  84	8.2585e+00	0.8261	-19.901061	0.000649	6.492532	1.099865	0.000065
  85	8.3580e+00	0.8352	-19.824355	0.000771	7.709881	1.306089	0.000077
  86	8.4575e+00	0.8453	-19.796095	0.000284	2.840483	0.481191	0.000028
  87	8.5570e+00	0.8563	-19.695167	0.001014	10.144581	1.718538	0.000101
  88	8.6565e+00	0.8653	-19.691130	0.000041	0.405783	0.068742	0.000004
  89	8.7560e+00	0.8753	-19.630573	0.000609	6.086748	1.031123	0.000061
  90	8.8555e+00	0.8853	-19.565978	0.000649	6.492532	1.099865	0.000065
  91	8.9550e+00	0.8952	-19.485236	0.000812	8.115664	1.374831	0.000081
  92	9.0545e+00	0.9048	-19.469087	0.000162	1.623133	0.274966	0.000016
  93	9.1540e+00	0.9157	-19.416604	0.000528	5.275182	0.893640	0.000053
  94	9.2535e+00	0.9249	-19.376233	0.000406	4.057832	0.687415	0.000041
  95	9.3530e+00	0.9338	-19.267230	0.001096	10.956147	1.856022	0.000110
  96	9.4525e+00	0.9453	-19.218785	0.000487	4.869399	0.824898	0.000049
  97	9.5520e+00	0.9550	-19.178413	0.000406	4.057832	0.687415	0.000041
  98	9.6515e+00	0.9644	-19.117856	0.000609	6.086748	1.031123	0.000061
  99	9.7510e+00	0.9740	-19.045188	0.000730	7.304098	1.237348	0.000073
 100	9.8505e+00	0.9846	-19.020965	0.000243	2.434699	0.412449	0.000024
 101	9.9500e+00	0.9949	-18.960408	0.000609	6.086748	1.031123	0.000061
 102	1.0050e+01	1.0042	-18.891777	0.000690	6.898315	1.168606	0.000069
 103	1.0149e+01	1.0139	-18.859480	0.000325	3.246266	0.549932	0.000032
 104	1.0248e+01	1.0230	-18.798923	0.000609	6.086748	1.031123	0.000061
 105	1.0348e+01	1.0341	-18.766625	0.000325	3.246266	0.549932	0.000032
 106	1.0447e+01	1.0441	-18.693957	0.000730	7.304098	1.237348	0.000073
 107	1.0547e+01	1.0545	-18.641474	0.000528	5.275182	0.893640	0.000053
 108	1.0646e+01	1.0635	-18.572843	0.000690	6.898315	1.168606	0.000069
 109	1.0746e+01	1.0746	-18.544583	0.000284	2.840483	0.481191	0.000028
 110	1.0845e+01	1.0844	-18.488063	0.000568	5.680965	0.962382	0.000057
 111	1.0945e+01	1.0956	-18.443655	0.000446	4.463615	0.756157	0.000045
 112	1.1044e+01	1.1033	-18.403283	0.000406	4.057832	0.687415	0.000041
 113	1.1144e+01	1.1140	-18.318503	0.000852	8.521448	1.443572	0.000085
 114	1.1243e+01	1.1240	-18.302355	0.000162	1.623133	0.274966	0.000016
 115	1.1343e+01	1.1340	-18.233724	0.000690	6.898315	1.168606	0.000069
 116	1.1443e+01	1.1436	-18.189315	0.000446	4.463615	0.756157	0.000045
 117	1.1542e+01	1.1547	-18.108572	0.000812	8.115664	1.374831	0.000081
 118	1.1642e+01	1.1634	-18.072238	0.000365	3.652049	0.618674	0.000037
 119	1.1741e+01	1.1736	-18.019755	0.000528	5.275182	0.893640	0.000053
 120	1.1841e+01	1.1832	-17.914790	0.001055	10.550364	1.787280	0.000105
 121	1.1940e+01	1.1948	-17.930938	-0.000162	-1.623133	-0.274966	-0.000016
 122	1.2040e+01	1.2034	-17.870381	0.000609	6.086748	1.031123	0.000061
 123	1.2139e+01	1.2135	-17.797713	0.000730	7.304098	1.237348	0.000073
 124	1.2239e+01	1.2234	-17.761379	0.000365	3.652049	0.618674	0.000037
 125	1.2338e+01	1.2338	-17.712933	0.000487	4.869399	0.824898	0.000049
 126	1.2438e+01	1.2435	-17.648339	0.000649	6.492532	1.099865	0.000065
 127	1.2537e+01	1.2531	-17.616042	0.000325	3.246266	0.549932	0.000032
 128	1.2636e+01	1.2624	-17.547410	0.000690	6.898315	1.168606	0.000069
 129	1.2736e+01	1.2726	-17.474742	0.000730	7.304098	1.237348	0.000073
 130	1.2835e+01	1.2815	-17.503002	-0.000284	-2.840483	-0.481191	-0.000028
 131	1.2935e+01	1.2930	-17.418222	0.000852	8.521448	1.443572	0.000085
 132	1.3034e+01	1.3020	-17.325368	0.000933	9.333014	1.581055	0.000093
 133	1.3134e+01	1.3119	-17.305182	0.000203	2.028916	0.343708	0.000020
 134	1.3233e+01	1.3216	-17.240588	0.000649	6.492532	1.099865	0.000065
 135	1.3333e+01	1.3313	-17.200217	0.000406	4.057832	0.687415	0.000041
 136	1.3432e+01	1.3425	-17.155808	0.000446	4.463615	0.756157	0.000045
 137	1.3532e+01	1.3513	-17.115437	0.000406	4.057832	0.687415	0.000041
 138	1.3632e+01	1.3637	-17.034694	0.000812	8.115664	1.374831	0.000081
 139	1.3731e+01	1.3720	-16.990286	0.000446	4.463615	0.756157	0.000045
 140	1.3831e+01	1.3818	-16.925692	0.000649	6.492532	1.099865	0.000065
 141	1.3930e+01	1.3921	-16.913580	0.000122	1.217350	0.206225	0.000012
 142	1.4030e+01	1.4024	-16.824763	0.000893	8.927231	1.512314	0.000089
 143	1.4129e+01	1.4113	-16.800540	0.000243	2.434699	0.412449	0.000024
 144	1.4229e+01	1.4217	-16.723835	0.000771	7.709881	1.306089	0.000077
 145	1.4328e+01	1.4315	-16.727872	-0.000041	-0.405783	-0.068742	-0.000004
 146	1.4428e+01	1.4423	-16.618869	0.001096	10.956147	1.856022	0.000110
 147	1.4527e+01	1.4516	-16.610795	0.000081	0.811566	0.137483	0.000008
 148	1.4627e+01	1.4613	-16.542164	0.000690	6.898315	1.168606	0.000069
 149	1.4726e+01	1.4713	-16.493718	0.000487	4.869399	0.824898	0.000049
 150	1.4825e+01	1.4819	-16.465458	0.000284	2.840483	0.481191	0.000028
 151	1.4925e+01	1.4916	-16.417012	0.000487	4.869399	0.824898	0.000049
 152	1.5024e+01	1.5018	-16.384715	0.000325	3.246266	0.549932	0.000032
 153	1.5124e+01	1.5118	-16.303973	0.000812	8.115664	1.374831	0.000081
 154	1.5223e+01	1.5209	-16.199007	0.001055	10.550364	1.787280	0.000105
 155	1.5323e+01	1.5322	-16.231304	-0.000325	-3.246266	-0.549932	-0.000032
 156	1.5422e+01	1.5414	-16.122302	0.001096	10.956147	1.856022	0.000110
 157	1.5522e+01	1.5506	-16.126339	-0.000041	-0.405783	-0.068742	-0.000004
 158	1.5621e+01	1.5620	-16.021373	0.001055	10.550364	1.787280	0.000105
 159	1.5721e+01	1.5713	-16.001187	0.000203	2.028916	0.343708	0.000020
 160	1.5820e+01	1.5808	-15.932556	0.000690	6.898315	1.168606	0.000069
 161	1.5920e+01	1.5916	-15.904296	0.000284	2.840483	0.481191	0.000028
 162	1.6020e+01	1.6010	-15.859888	0.000446	4.463615	0.756157	0.000045
 163	1.6119e+01	1.6113	-15.811442	0.000487	4.869399	0.824898	0.000049
 164	1.6218e+01	1.6201	-15.783182	0.000284	2.840483	0.481191	0.000028
 165	1.6318e+01	1.6319	-15.718588	0.000649	6.492532	1.099865	0.000065
 166	1.6418e+01	1.6415	-15.658031	0.000609	6.086748	1.031123	0.000061
 167	1.6517e+01	1.6503	-15.621697	0.000365	3.652049	0.618674	0.000037
 168	1.6616e+01	1.6616	-15.577288	0.000446	4.463615	0.756157	0.000045
 169	1.6716e+01	1.6703	-15.512694	0.000649	6.492532	1.099865	0.000065
 170	1.6816e+01	1.6808	-15.504620	0.000081	0.811566	0.137483	0.000008
 171	1.6915e+01	1.6909	-15.411766	0.000933	9.333014	1.581055	0.000093
 172	1.7015e+01	1.7010	-15.379469	0.000325	3.246266	0.549932	0.000032
 173	1.7114e+01	1.7113	-15.335060	0.000446	4.463615	0.756157	0.000045
 174	1.7213e+01	1.7201	-15.274503	0.000609	6.086748	1.031123	0.000061
 175	1.7313e+01	1.7308	-15.258355	0.000162	1.623133	0.274966	0.000016
 176	1.7413e+01	1.7411	-15.205872	0.000528	5.275182	0.893640	0.000053
 177	1.7512e+01	1.7501	-15.129166	0.000771	7.709881	1.306089	0.000077
 178	1.7611e+01	1.7606	-15.044386	0.000852	8.521448	1.443572	0.000085
 179	1.7711e+01	1.7704	-15.040349	0.000041	0.405783	0.068742	0.000004
 180	1.7811e+01	1.7795	-14.963644	0.000771	7.709881	1.306089	0.000077
 181	1.7910e+01	1.7902	-14.967681	-0.000041	-0.405783	-0.068742	-0.000004
 182	1.8009e+01	1.7999	-14.866752	0.001014	10.144581	1.718538	0.000101
 183	1.8109e+01	1.8111	-14.818307	0.000487	4.869399	0.824898	0.000049
 184	1.8209e+01	1.8200	-14.810232	0.000081	0.811566	0.137483	0.000008
 185	1.8308e+01	1.8309	-14.741601	0.000690	6.898315	1.168606	0.000069
 186	1.8407e+01	1.8401	-14.701230	0.000406	4.057832	0.687415	0.000041
 187	1.8507e+01	1.8491	-14.656821	0.000446	4.463615	0.756157	0.000045
 188	1.8607e+01	1.8606	-14.592227	0.000649	6.492532	1.099865	0.000065
 189	1.8706e+01	1.8698	-14.523596	0.000690	6.898315	1.168606	0.000069
 190	1.8805e+01	1.8797	-14.495336	0.000284	2.840483	0.481191	0.000028
 191	1.8905e+01	1.8903	-14.454965	0.000406	4.057832	0.687415	0.000041
 192	1.9005e+01	1.9009	-14.378259	0.000771	7.709881	1.306089	0.000077
 193	1.9104e+01	1.9092	-14.358073	0.000203	2.028916	0.343708	0.000020
 194	1.9203e+01	1.9194	-14.289442	0.000690	6.898315	1.168606	0.000069
 195	1.9303e+01	1.9294	-14.253108	0.000365	3.652049	0.618674	0.000037
 196	1.9402e+01	1.9400	-14.204662	0.000487	4.869399	0.824898	0.000049
 197	1.9502e+01	1.9501	-14.115845	0.000893	8.927231	1.512314	0.000089
 198	1.9602e+01	1.9596	-14.083548	0.000325	3.246266	0.549932	0.000032
 199	1.9701e+01	1.9697	-14.022991	0.000609	6.086748	1.031123	0.000061
 200	1.9800e+01	1.9800	-13.982620	0.000406	4.057832	0.687415	0.000041
 201	1.9900e+01	1.9888	-13.913988	0.000690	6.898315	1.168606	0.000069
 202	2.0000e+01	1.9990	-13.901877	0.000122	1.217350	0.206225	0.000012
 203	2.0099e+01	2.0094	-13.804986	0.000974	9.738797	1.649797	0.000097
 204	2.0198e+01	2.0195	-13.760577	0.000446	4.463615	0.756157	0.000045
 205	2.0298e+01	2.0293	-13.716169	0.000446	4.463615	0.756157	0.000045
 206	2.0398e+01	2.0394	-13.679834	0.000365	3.652049	0.618674	0.000037
 207	2.0497e+01	2.0486	-13.619277	0.000609	6.086748	1.031123	0.000061
 208	2.0596e+01	2.0586	-13.611203	0.000081	0.811566	0.137483	0.000008
 209	2.0696e+01	2.0689	-13.534498	0.000771	7.709881	1.306089	0.000077
 210	2.0796e+01	2.0793	-13.522386	0.000122	1.217350	0.206225	0.000012
 211	2.0895e+01	2.0895	-13.449718	0.000730	7.304098	1.237348	0.000073
 212	2.0994e+01	2.0986	-13.389161	0.000609	6.086748	1.031123	0.000061
 213	2.1094e+01	2.1091	-13.340715	0.000487	4.869399	0.824898	0.000049
 214	2.1194e+01	2.1189	-13.300344	0.000406	4.057832	0.687415	0.000041
 215	2.1293e+01	2.1288	-13.243824	0.000568	5.680965	0.962382	0.000057
 216	2.1392e+01	2.1390	-13.187304	0.000568	5.680965	0.962382	0.000057
 217	2.1492e+01	2.1487	-13.098487	0.000893	8.927231	1.512314	0.000089
 218	2.1591e+01	2.1583	-13.062153	0.000365	3.652049	0.618674	0.000037
 219	2.1691e+01	2.1694	-13.054078	0.000081	0.811566	0.137483	0.000008
 220	2.1791e+01	2.1789	-12.989484	0.000649	6.492532	1.099865	0.000065
 221	2.1890e+01	2.1887	-12.924890	0.000649	6.492532	1.099865	0.000065
 222	2.1989e+01	2.1980	-12.900667	0.000243	2.434699	0.412449	0.000024
 223	2.2089e+01	2.2078	-12.856259	0.000446	4.463615	0.756157	0.000045
 224	2.2189e+01	2.2181	-12.755330	0.001014	10.144581	1.718538	0.000101
 225	2.2288e+01	2.2277	-12.710922	0.000446	4.463615	0.756157	0.000045
 226	2.2387e+01	2.2385	-12.666513	0.000446	4.463615	0.756157	0.000045
 227	2.2487e+01	2.2479	-12.593845	0.000730	7.304098	1.237348	0.000073
 228	2.2587e+01	2.2585	-12.545399	0.000487	4.869399	0.824898	0.000049
 229	2.2686e+01	2.2675	-12.557511	-0.000122	-1.217350	-0.206225	-0.000012
 230	2.2785e+01	2.2778	-12.464657	0.000933	9.333014	1.581055	0.000093
 231	2.2885e+01	2.2877	-12.412174	0.000528	5.275182	0.893640	0.000053
 232	2.2985e+01	2.2980	-12.339505	0.000730	7.304098	1.237348	0.000073
 233	2.3084e+01	2.3074	-12.303171	0.000365	3.652049	0.618674	0.000037
 234	2.3183e+01	2.3181	-12.226466	0.000771	7.709881	1.306089	0.000077
 235	2.3283e+01	2.3280	-12.222428	0.000041	0.405783	0.068742	0.000004
 236	2.3383e+01	2.3380	-12.153797	0.000690	6.898315	1.168606	0.000069
 237	2.3482e+01	2.3476	-12.117463	0.000365	3.652049	0.618674	0.000037
 238	2.3581e+01	2.3586	-12.048832	0.000690	6.898315	1.168606	0.000069
 239	2.3681e+01	2.3681	-12.032683	0.000162	1.623133	0.274966	0.000016
 240	2.3780e+01	2.3779	-11.972126	0.000609	6.086748	1.031123	0.000061
 241	2.3880e+01	2.3882	-11.895420	0.000771	7.709881	1.306089	0.000077
 242	2.3980e+01	2.3975	-11.838901	0.000568	5.680965	0.962382	0.000057
 243	2.4079e+01	2.4072	-11.802566	0.000365	3.652049	0.618674	0.000037
 244	2.4178e+01	2.4176	-11.758158	0.000446	4.463615	0.756157	0.000045
 245	2.4278e+01	2.4272	-11.709712	0.000487	4.869399	0.824898	0.000049
 246	2.4378e+01	2.4380	-11.673378	0.000365	3.652049	0.618674	0.000037
 247	2.4477e+01	2.4471	-11.616858	0.000568	5.680965	0.962382	0.000057
 248	2.4576e+01	2.4572	-11.552264	0.000649	6.492532	1.099865	0.000065
 249	2.4676e+01	2.4664	-11.524004	0.000284	2.840483	0.481191	0.000028
 250	2.4776e+01	2.4776	-11.447298	0.000771	7.709881	1.306089	0.000077
 251	2.4875e+01	2.4868	-11.435187	0.000122	1.217350	0.206225	0.000012
 252	2.4974e+01	2.4975	-11.358481	0.000771	7.709881	1.306089	0.000077
 253	2.5074e+01	2.5079	-11.314073	0.000446	4.463615	0.756157	0.000045
 254	2.5174e+01	2.5167	-11.257553	0.000568	5.680965	0.962382	0.000057
 255	2.5273e+01	2.5259	-11.205070	0.000528	5.275182	0.893640	0.000053
 256	2.5372e+01	2.5362	-11.160662	0.000446	4.463615	0.756157	0.000045
 257	2.5472e+01	2.5466	-11.144513	0.000162	1.623133	0.274966	0.000016
 258	2.5572e+01	2.5564	-11.035511	0.001096	10.956147	1.856022	0.000110
 259	2.5671e+01	2.5671	-11.043585	-0.000081	-0.811566	-0.137483	-0.000008
 260	2.5770e+01	2.5761	-10.966879	0.000771	7.709881	1.306089	0.000077
 261	2.5870e+01	2.5865	-10.910359	0.000568	5.680965	0.962382	0.000057
 262	2.5970e+01	2.5967	-10.922471	-0.000122	-1.217350	-0.206225	-0.000012
 263	2.6069e+01	2.6071	-10.821542	0.001014	10.144581	1.718538	0.000101
 264	2.6169e+01	2.6154	-10.773097	0.000487	4.869399	0.824898	0.000049
 265	2.6268e+01	2.6256	-10.748874	0.000243	2.434699	0.412449	0.000024
 266	2.6367e+01	2.6360	-10.668131	0.000812	8.115664	1.374831	0.000081
 267	2.6467e+01	2.6459	-10.615648	0.000528	5.275182	0.893640	0.000053
 268	2.6567e+01	2.6561	-10.603537	0.000122	1.217350	0.206225	0.000012
 269	2.6666e+01	2.6642	-10.526831	0.000771	7.709881	1.306089	0.000077
 270	2.6765e+01	2.6749	-10.502609	0.000243	2.434699	0.412449	0.000024
 271	2.6865e+01	2.6865	-10.474349	0.000284	2.840483	0.481191	0.000028
 272	2.6965e+01	2.6960	-10.421866	0.000528	5.275182	0.893640	0.000053
 273	2.7064e+01	2.7069	-10.357272	0.000649	6.492532	1.099865	0.000065
 274	2.7163e+01	2.7142	-10.316900	0.000406	4.057832	0.687415	0.000041
 275	2.7263e+01	2.7267	-10.268455	0.000487	4.869399	0.824898	0.000049
 276	2.7363e+01	2.7357	-10.220009	0.000487	4.869399	0.824898	0.000049
 277	2.7462e+01	2.7449	-10.224046	-0.000041	-0.405783	-0.068742	-0.000004
 278	2.7561e+01	2.7560	-10.119081	0.001055	10.550364	1.787280	0.000105
 279	2.7661e+01	2.7660	-10.074672	0.000446	4.463615	0.756157	0.000045
 280	2.7761e+01	2.7747	-10.050449	0.000243	2.434699	0.412449	0.000024
 281	2.7860e+01	2.7853	-9.993930	0.000568	5.680965	0.962382	0.000057
 282	2.7959e+01	2.7953	-9.937410	0.000568	5.680965	0.962382	0.000057
 283	2.8059e+01	2.8057	-9.868778	0.000690	6.898315	1.168606	0.000069
 284	2.8159e+01	2.8151	-9.860704	0.000081	0.811566	0.137483	0.000008
 285	2.8258e+01	2.8252	-9.816296	0.000446	4.463615	0.756157	0.000045
 286	2.8358e+01	2.8350	-9.727479	0.000893	8.927231	1.512314	0.000089
 287	2.8457e+01	2.8455	-9.703256	0.000243	2.434699	0.412449	0.000024
 288	2.8556e+01	2.8549	-9.670959	0.000325	3.246266	0.549932	0.000032
 289	2.8656e+01	2.8648	-9.618476	0.000528	5.275182	0.893640	0.000053
 290	2.8756e+01	2.8754	-9.602327	0.000162	1.623133	0.274966	0.000016
 291	2.8855e+01	2.8856	-9.533696	0.000690	6.898315	1.168606	0.000069
 292	2.8954e+01	2.8944	-9.473139	0.000609	6.086748	1.031123	0.000061
 293	2.9054e+01	2.9063	-9.452953	0.000203	2.028916	0.343708	0.000020
 294	2.9154e+01	2.9156	-9.396433	0.000568	5.680965	0.962382	0.000057
 295	2.9253e+01	2.9243	-9.339914	0.000568	5.680965	0.962382	0.000057
 296	2.9352e+01	2.9348	-9.307616	0.000325	3.246266	0.549932	0.000032
 297	2.9452e+01	2.9453	-9.267245	0.000406	4.057832	0.687415	0.000041
 298	2.9552e+01	2.9544	-9.222837	0.000446	4.463615	0.756157	0.000045
 299	2.9651e+01	2.9644	-9.170354	0.000528	5.275182	0.893640	0.000053
 300	2.9750e+01	2.9745	-9.186502	-0.000162	-1.623133	-0.274966	-0.000016
 301	2.9850e+01	2.9839	-9.105760	0.000812	8.115664	1.374831	0.000081
 302	2.9950e+01	2.9940	-9.045203	0.000609	6.086748	1.031123	0.000061
 303	3.0049e+01	3.0053	-9.004831	0.000406	4.057832	0.687415	0.000041
 304	3.0148e+01	3.0143	-8.960423	0.000446	4.463615	0.756157	0.000045
 305	3.0248e+01	3.0244	-8.968497	-0.000081	-0.811566	-0.137483	-0.000008
 306	3.0348e+01	3.0338	-8.891791	0.000771	7.709881	1.306089	0.000077
 307	3.0447e+01	3.0449	-8.827197	0.000649	6.492532	1.099865	0.000065
 308	3.0547e+01	3.0540	-8.823160	0.000041	0.405783	0.068742	0.000004
 309	3.0646e+01	3.0646	-8.766640	0.000568	5.680965	0.962382	0.000057
 310	3.0745e+01	3.0739	-8.714157	0.000528	5.275182	0.893640	0.000053
 311	3.0845e+01	3.0834	-8.641489	0.000730	7.304098	1.237348	0.000073
 312	3.0945e+01	3.0929	-8.605155	0.000365	3.652049	0.618674	0.000037
 313	3.1044e+01	3.1039	-8.589006	0.000162	1.623133	0.274966	0.000016
 314	3.1143e+01	3.1141	-8.548635	0.000406	4.057832	0.687415	0.000041
 315	3.1243e+01	3.1237	-8.492115	0.000568	5.680965	0.962382	0.000057
 316	3.1343e+01	3.1334	-8.459818	0.000325	3.246266	0.549932	0.000032
 317	3.1442e+01	3.1435	-8.395224	0.000649	6.492532	1.099865	0.000065
 318	3.1541e+01	3.1526	-8.371001	0.000243	2.434699	0.412449	0.000024
 319	3.1641e+01	3.1632	-8.326592	0.000446	4.463615	0.756157	0.000045
 320	3.1741e+01	3.1734	-8.286221	0.000406	4.057832	0.687415	0.000041
 321	3.1840e+01	3.1834	-8.266035	0.000203	2.028916	0.343708	0.000020
 322	3.1939e+01	3.1916	-8.213553	0.000528	5.275182	0.893640	0.000053
 323	3.2039e+01	3.2037	-8.169144	0.000446	4.463615	0.756157	0.000045
 324	3.2139e+01	3.2137	-8.157033	0.000122	1.217350	0.206225	0.000012
 325	3.2238e+01	3.2236	-8.092439	0.000649	6.492532	1.099865	0.000065
 326	3.2337e+01	3.2328	-8.015733	0.000771	7.709881	1.306089	0.000077
 327	3.2437e+01	3.2433	-8.011696	0.000041	0.405783	0.068742	0.000004
 328	3.2536e+01	3.2537	-7.934990	0.000771	7.709881	1.306089	0.000077
 329	3.2636e+01	3.2629	-7.943065	-0.000081	-0.811566	-0.137483	-0.000008
 330	3.2736e+01	3.2732	-7.886545	0.000568	5.680965	0.962382	0.000057
 331	3.2835e+01	3.2829	-7.850210	0.000365	3.652049	0.618674	0.000037
 332	3.2934e+01	3.2928	-7.813876	0.000365	3.652049	0.618674	0.000037
 333	3.3034e+01	3.3023	-7.757356	0.000568	5.680965	0.962382	0.000057
 334	3.3133e+01	3.3130	-7.700836	0.000568	5.680965	0.962382	0.000057
 335	3.3233e+01	3.3227	-7.660465	0.000406	4.057832	0.687415	0.000041
 336	3.3333e+01	3.3320	-7.624131	0.000365	3.652049	0.618674	0.000037
 337	3.3432e+01	3.3426	-7.583759	0.000406	4.057832	0.687415	0.000041
 338	3.3532e+01	3.3527	-7.547425	0.000365	3.652049	0.618674	0.000037
 339	3.3631e+01	3.3633	-7.450534	0.000974	9.738797	1.649797	0.000097
 340	3.3730e+01	3.3726	-7.450534	0.000000	0.000000	0.000000	0.000000
 341	3.3830e+01	3.3822	-7.426311	0.000243	2.434699	0.412449	0.000024
 342	3.3929e+01	3.3920	-7.369791	0.000568	5.680965	0.962382	0.000057
 343	3.4029e+01	3.4023	-7.353643	0.000162	1.623133	0.274966	0.000016
 344	3.4129e+01	3.4129	-7.256751	0.000974	9.738797	1.649797	0.000097
 345	3.4228e+01	3.4229	-7.252714	0.000041	0.405783	0.068742	0.000004
 346	3.4328e+01	3.4328	-7.220417	0.000325	3.246266	0.549932	0.000032
 347	3.4427e+01	3.4429	-7.163897	0.000568	5.680965	0.962382	0.000057
 348	3.4526e+01	3.4523	-7.115452	0.000487	4.869399	0.824898	0.000049
 349	3.4626e+01	3.4614	-7.095266	0.000203	2.028916	0.343708	0.000020
 350	3.4725e+01	3.4722	-7.002412	0.000933	9.333014	1.581055	0.000093
 351	3.4825e+01	3.4824	-7.002412	0.000000	0.000000	0.000000	0.000000
 352	3.4925e+01	3.4924	-6.937818	0.000649	6.492532	1.099865	0.000065
 353	3.5024e+01	3.5012	-6.909558	0.000284	2.840483	0.481191	0.000028
 354	3.5123e+01	3.5130	-6.881298	0.000284	2.840483	0.481191	0.000028
 355	3.5223e+01	3.5219	-6.796518	0.000852	8.521448	1.443572	0.000085
 356	3.5322e+01	3.5318	-6.784407	0.000122	1.217350	0.206225	0.000012
 357	3.5422e+01	3.5421	-6.764221	0.000203	2.028916	0.343708	0.000020
 358	3.5522e+01	3.5516	-6.679441	0.000852	8.521448	1.443572	0.000085
 359	3.5621e+01	3.5622	-6.667330	0.000122	1.217350	0.206225	0.000012
 360	3.5721e+01	3.5722	-6.626958	0.000406	4.057832	0.687415	0.000041
 361	3.5820e+01	3.5825	-6.558327	0.000690	6.898315	1.168606	0.000069
 362	3.5919e+01	3.5912	-6.505844	0.000528	5.275182	0.893640	0.000053
 363	3.6019e+01	3.6010	-6.481621	0.000243	2.434699	0.412449	0.000024
 364	3.6118e+01	3.6117	-6.433176	0.000487	4.869399	0.824898	0.000049
 365	3.6218e+01	3.6208	-6.437213	-0.000041	-0.405783	-0.068742	-0.000004
 366	3.6318e+01	3.6317	-6.344359	0.000933	9.333014	1.581055	0.000093
 367	3.6417e+01	3.6419	-6.308025	0.000365	3.652049	0.618674	0.000037
 368	3.6517e+01	3.6519	-6.235356	0.000730	7.304098	1.237348	0.000073
 369	3.6616e+01	3.6611	-6.251505	-0.000162	-1.623133	-0.274966	-0.000016
 370	3.6715e+01	3.6718	-6.170762	0.000812	8.115664	1.374831	0.000081
 371	3.6815e+01	3.6810	-6.118279	0.000528	5.275182	0.893640	0.000053
 372	3.6914e+01	3.6923	-6.065796	0.000528	5.275182	0.893640	0.000053
 373	3.7014e+01	3.7012	-6.025425	0.000406	4.057832	0.687415	0.000041
 374	3.7114e+01	3.7083	-5.972942	0.000528	5.275182	0.893640	0.000053
 375	3.7213e+01	3.7200	-5.940645	0.000325	3.246266	0.549932	0.000032
 376	3.7313e+01	3.7312	-5.892200	0.000487	4.869399	0.824898	0.000049
 377	3.7412e+01	3.7411	-5.867977	0.000243	2.434699	0.412449	0.000024
 378	3.7511e+01	3.7520	-5.855865	0.000122	1.217350	0.206225	0.000012
 379	3.7611e+01	3.7611	-5.758974	0.000974	9.738797	1.649797	0.000097
 380	3.7711e+01	3.7695	-5.722640	0.000365	3.652049	0.618674	0.000037
 381	3.7810e+01	3.7808	-5.674194	0.000487	4.869399	0.824898	0.000049
 382	3.7910e+01	3.7896	-5.649971	0.000243	2.434699	0.412449	0.000024
 383	3.8009e+01	3.8000	-5.613637	0.000365	3.652049	0.618674	0.000037
 384	3.8108e+01	3.8102	-5.593452	0.000203	2.028916	0.343708	0.000020
 385	3.8208e+01	3.8209	-5.532895	0.000609	6.086748	1.031123	0.000061
 386	3.8307e+01	3.8300	-5.500597	0.000325	3.246266	0.549932	0.000032
 387	3.8407e+01	3.8405	-5.395632	0.001055	10.550364	1.787280	0.000105
 388	3.8507e+01	3.8494	-5.375446	0.000203	2.028916	0.343708	0.000020
 389	3.8606e+01	3.8601	-5.339112	0.000365	3.652049	0.618674	0.000037
 390	3.8706e+01	3.8699	-5.331038	0.000081	0.811566	0.137483	0.000008
 391	3.8805e+01	3.8795	-5.266444	0.000649	6.492532	1.099865	0.000065
 392	3.8904e+01	3.8892	-5.197812	0.000690	6.898315	1.168606	0.000069
 393	3.9004e+01	3.8993	-5.157441	0.000406	4.057832	0.687415	0.000041
 394	3.9103e+01	3.9097	-5.133218	0.000243	2.434699	0.412449	0.000024
 395	3.9203e+01	3.9198	-5.076698	0.000568	5.680965	0.962382	0.000057
 396	3.9303e+01	3.9303	-5.036327	0.000406	4.057832	0.687415	0.000041
 397	3.9402e+01	3.9393	-5.016141	0.000203	2.028916	0.343708	0.000020
 398	3.9502e+01	3.9499	-4.939436	0.000771	7.709881	1.306089	0.000077
 399	3.9601e+01	3.9597	-4.899064	0.000406	4.057832	0.687415	0.000041
 400	3.9700e+01	3.9686	-4.854656	0.000446	4.463615	0.756157	0.000045
 401	3.9800e+01	3.9790	-4.786024	0.000690	6.898315	1.168606	0.000069
 402	3.9900e+01	3.9893	-4.794099	-0.000081	-0.811566	-0.137483	-0.000008
 403	3.9999e+01	4.0000	-4.717393	0.000771	7.709881	1.306089	0.000077
 404	4.0099e+01	4.0093	-4.705282	0.000122	1.217350	0.206225	0.000012
 405	4.0198e+01	4.0192	-4.640688	0.000649	6.492532	1.099865	0.000065
 406	4.0297e+01	4.0285	-4.612428	0.000284	2.840483	0.481191	0.000028
 407	4.0397e+01	4.0392	-4.539759	0.000730	7.304098	1.237348	0.000073
 408	4.0496e+01	4.0481	-4.543796	-0.000041	-0.405783	-0.068742	-0.000004
 409	4.0596e+01	4.0589	-4.450942	0.000933	9.333014	1.581055	0.000093
 410	4.0696e+01	4.0687	-4.370199	0.000812	8.115664	1.374831	0.000081
 411	4.0795e+01	4.0783	-4.370199	0.000000	0.000000	0.000000	0.000000
 412	4.0895e+01	4.0902	-4.345977	0.000243	2.434699	0.412449	0.000024
 413	4.0994e+01	4.0991	-4.309642	0.000365	3.652049	0.618674	0.000037
 414	4.1093e+01	4.1096	-4.241011	0.000690	6.898315	1.168606	0.000069
 415	4.1193e+01	4.1192	-4.196603	0.000446	4.463615	0.756157	0.000045
 416	4.1292e+01	4.1286	-4.156231	0.000406	4.057832	0.687415	0.000041
 417	4.1392e+01	4.1389	-4.140083	0.000162	1.623133	0.274966	0.000016
 418	4.1492e+01	4.1489	-4.055303	0.000852	8.521448	1.443572	0.000085
 419	4.1591e+01	4.1585	-4.018969	0.000365	3.652049	0.618674	0.000037
 420	4.1691e+01	4.1684	-3.994746	0.000243	2.434699	0.412449	0.000024
 421	4.1790e+01	4.1784	-3.934189	0.000609	6.086748	1.031123	0.000061
 422	4.1889e+01	4.1872	-3.893817	0.000406	4.057832	0.687415	0.000041
 423	4.1989e+01	4.1978	-3.869595	0.000243	2.434699	0.412449	0.000024
 424	4.2089e+01	4.2084	-3.760592	0.001096	10.956147	1.856022	0.000110
 425	4.2188e+01	4.2178	-3.776740	-0.000162	-1.623133	-0.274966	-0.000016
 426	4.2288e+01	4.2282	-3.768666	0.000081	0.811566	0.137483	0.000008
 427	4.2387e+01	4.2379	-3.675812	0.000933	9.333014	1.581055	0.000093
 428	4.2486e+01	4.2483	-3.663701	0.000122	1.217350	0.206225	0.000012
 429	4.2586e+01	4.2580	-3.599107	0.000649	6.492532	1.099865	0.000065
 430	4.2685e+01	4.2683	-3.558735	0.000406	4.057832	0.687415	0.000041
 431	4.2785e+01	4.2779	-3.518364	0.000406	4.057832	0.687415	0.000041
 432	4.2885e+01	4.2879	-3.469918	0.000487	4.869399	0.824898	0.000049
 433	4.2984e+01	4.2973	-3.469918	0.000000	0.000000	0.000000	0.000000
 434	4.3084e+01	4.3085	-3.397250	0.000730	7.304098	1.237348	0.000073
 435	4.3183e+01	4.3181	-3.364953	0.000325	3.246266	0.549932	0.000032
 436	4.3282e+01	4.3272	-3.288247	0.000771	7.709881	1.306089	0.000077
 437	4.3382e+01	4.3373	-3.231727	0.000568	5.680965	0.962382	0.000057
 438	4.3481e+01	4.3481	-3.223653	0.000081	0.811566	0.137483	0.000008
 439	4.3581e+01	4.3576	-3.146947	0.000771	7.709881	1.306089	0.000077
 440	4.3681e+01	4.3678	-3.142910	0.000041	0.405783	0.068742	0.000004
 441	4.3780e+01	4.3781	-3.122724	0.000203	2.028916	0.343708	0.000020
 442	4.3880e+01	4.3876	-3.066205	0.000568	5.680965	0.962382	0.000057
 443	4.3979e+01	4.3974	-3.025833	0.000406	4.057832	0.687415	0.000041
 444	4.4078e+01	4.4073	-2.973350	0.000528	5.275182	0.893640	0.000053
 445	4.4178e+01	4.4170	-2.969313	0.000041	0.405783	0.068742	0.000004
 446	4.4278e+01	4.4279	-2.900682	0.000690	6.898315	1.168606	0.000069
 447	4.4377e+01	4.4363	-2.872422	0.000284	2.840483	0.481191	0.000028
 448	4.4477e+01	4.4469	-2.803791	0.000690	6.898315	1.168606	0.000069
 449	4.4576e+01	4.4572	-2.815902	-0.000122	-1.217350	-0.206225	-0.000012
 450	4.4675e+01	4.4676	-2.751308	0.000649	6.492532	1.099865	0.000065
 451	4.4775e+01	4.4781	-2.743234	0.000081	0.811566	0.137483	0.000008
 452	4.4874e+01	4.4863	-2.698825	0.000446	4.463615	0.756157	0.000045
 453	4.4974e+01	4.4971	-2.646342	0.000528	5.275182	0.893640	0.000053
 454	4.5074e+01	4.5072	-2.593860	0.000528	5.275182	0.893640	0.000053
 455	4.5173e+01	4.5177	-2.577711	0.000162	1.623133	0.274966	0.000016
 456	4.5273e+01	4.5271	-2.525228	0.000528	5.275182	0.893640	0.000053
 457	4.5372e+01	4.5365	-2.480820	0.000446	4.463615	0.756157	0.000045
 458	4.5471e+01	4.5466	-2.440449	0.000406	4.057832	0.687415	0.000041
 459	4.5571e+01	4.5568	-2.379892	0.000609	6.086748	1.031123	0.000061
 460	4.5670e+01	4.5663	-2.331446	0.000487	4.869399	0.824898	0.000049
 461	4.5770e+01	4.5771	-2.347594	-0.000162	-1.623133	-0.274966	-0.000016
 462	4.5870e+01	4.5872	-2.299149	0.000487	4.869399	0.824898	0.000049
 463	4.5969e+01	4.5965	-2.258777	0.000406	4.057832	0.687415	0.000041
 464	4.6069e+01	4.6071	-2.214369	0.000446	4.463615	0.756157	0.000045
 465	4.6168e+01	4.6166	-2.182072	0.000325	3.246266	0.549932	0.000032
 466	4.6267e+01	4.6252	-2.109403	0.000730	7.304098	1.237348	0.000073
 467	4.6367e+01	4.6368	-2.109403	0.000000	0.000000	0.000000	0.000000
 468	4.6467e+01	4.6467	-2.073069	0.000365	3.652049	0.618674	0.000037
 469	4.6566e+01	4.6566	-2.060958	0.000122	1.217350	0.206225	0.000012
 470	4.6666e+01	4.6658	-1.976178	0.000852	8.521448	1.443572	0.000085
 471	4.6765e+01	4.6770	-1.951955	0.000243	2.434699	0.412449	0.000024
 472	4.6864e+01	4.6857	-1.887361	0.000649	6.492532	1.099865	0.000065
 473	4.6964e+01	4.6961	-1.879287	0.000081	0.811566	0.137483	0.000008
 474	4.7063e+01	4.7051	-1.838915	0.000406	4.057832	0.687415	0.000041
 475	4.7163e+01	4.7164	-1.774321	0.000649	6.492532	1.099865	0.000065
 476	4.7263e+01	4.7260	-1.746061	0.000284	2.840483	0.481191	0.000028
 477	4.7362e+01	4.7353	-1.717801	0.000284	2.840483	0.481191	0.000028
 478	4.7462e+01	4.7457	-1.705690	0.000122	1.217350	0.206225	0.000012
 479	4.7561e+01	4.7562	-1.657244	0.000487	4.869399	0.824898	0.000049
 480	4.7660e+01	4.7655	-1.624947	0.000325	3.246266	0.549932	0.000032
 481	4.7760e+01	4.7750	-1.596687	0.000284	2.840483	0.481191	0.000028
 482	4.7859e+01	4.7861	-1.552279	0.000446	4.463615	0.756157	0.000045
 483	4.7959e+01	4.7960	-1.495759	0.000568	5.680965	0.962382	0.000057
 484	4.8059e+01	4.8052	-1.467499	0.000284	2.840483	0.481191	0.000028
 485	4.8158e+01	4.8154	-1.475573	-0.000081	-0.811566	-0.137483	-0.000008
 486	4.8258e+01	4.8253	-1.378682	0.000974	9.738797	1.649797	0.000097
 487	4.8357e+01	4.8354	-1.390793	-0.000122	-1.217350	-0.206225	-0.000012
 488	4.8456e+01	4.8454	-1.350422	0.000406	4.057832	0.687415	0.000041
 489	4.8556e+01	4.8550	-1.281791	0.000690	6.898315	1.168606	0.000069
 490	4.8656e+01	4.8650	-1.281791	0.000000	0.000000	0.000000	0.000000
 491	4.8755e+01	4.8754	-1.213159	0.000690	6.898315	1.168606	0.000069
 492	4.8855e+01	4.8850	-1.176825	0.000365	3.652049	0.618674	0.000037
 493	4.8954e+01	4.8954	-1.156639	0.000203	2.028916	0.343708	0.000020
 494	4.9053e+01	4.9059	-1.092045	0.000649	6.492532	1.099865	0.000065
 495	4.9153e+01	4.9145	-1.063785	0.000284	2.840483	0.481191	0.000028
 496	4.9252e+01	4.9261	-1.019377	0.000446	4.463615	0.756157	0.000045
 497	4.9352e+01	4.9352	-1.003228	0.000162	1.623133	0.274966	0.000016
 498	4.9452e+01	4.9454	-0.974968	0.000284	2.840483	0.481191	0.000028
 499	4.9551e+01	4.9548	-0.926523	0.000487	4.869399	0.824898	0.000049
 500	4.9651e+01	4.9653	-0.898263	0.000284	2.840483	0.481191	0.000028
 501	4.9750e+01	4.9752	-0.882114	0.000162	1.623133	0.274966	0.000016
 502	4.9849e+01	4.9831	-0.821557	0.000609	6.086748	1.031123	0.000061
 503	4.9949e+01	4.9944	-0.740814	0.000812	8.115664	1.374831	0.000081
 504	5.0048e+01	5.0043	-0.728703	0.000122	1.217350	0.206225	0.000012
 505	5.0148e+01	5.0146	-0.728703	0.000000	0.000000	0.000000	0.000000
 506	5.0248e+01	5.0234	-0.684295	0.000446	4.463615	0.756157	0.000045
 507	5.0347e+01	5.0343	-0.639886	0.000446	4.463615	0.756157	0.000045
 508	5.0447e+01	5.0449	-0.615663	0.000243	2.434699	0.412449	0.000024
 509	5.0546e+01	5.0544	-0.579329	0.000365	3.652049	0.618674	0.000037
 510	5.0645e+01	5.0637	-0.510698	0.000690	6.898315	1.168606	0.000069
 511	5.0745e+01	5.0736	-0.486475	0.000243	2.434699	0.412449	0.000024
 512	5.0844e+01	5.0835	-0.474363	0.000122	1.217350	0.206225	0.000012
 513	5.0944e+01	5.0941	-0.413806	0.000609	6.086748	1.031123	0.000061
 514	5.1044e+01	5.1044	-0.385546	0.000284	2.840483	0.481191	0.000028
 515	5.1143e+01	5.1147	-0.349212	0.000365	3.652049	0.618674	0.000037
 516	5.1242e+01	5.1241	-0.296729	0.000528	5.275182	0.893640	0.000053
 517	5.1342e+01	5.1330	-0.260395	0.000365	3.652049	0.618674	0.000037
 518	5.1441e+01	5.1438	-0.236172	0.000243	2.434699	0.412449	0.000024
 519	5.1541e+01	5.1528	-0.199838	0.000365	3.652049	0.618674	0.000037
 520	5.1641e+01	5.1624	-0.127170	0.000730	7.304098	1.237348	0.000073
 521	5.1740e+01	5.1730	-0.111021	0.000162	1.623133	0.274966	0.000016
 522	5.1840e+01	5.1830	-0.070650	0.000406	4.057832	0.687415	0.000041
 523	5.1939e+01	5.1934	-0.062576	0.000081	0.811566	0.137483	0.000008
 524	5.2038e+01	5.2029	-0.030279	0.000325	3.246266	0.549932	0.000032
 525	5.2138e+01	5.2132	-0.002019	0.000284	2.840483	0.481191	0.000028
 526	5.2237e+01	5.2224	0.042390	0.000446	4.463615	0.756157	0.000045
 527	5.2337e+01	5.2330	0.086798	0.000446	4.463615	0.756157	0.000045
 528	5.2437e+01	5.2433	0.159467	0.000730	7.304098	1.237348	0.000073
 529	5.2536e+01	5.2540	0.199838	0.000406	4.057832	0.687415	0.000041
 530	5.2636e+01	5.2625	0.207912	0.000081	0.811566	0.137483	0.000008
 531	5.2735e+01	5.2734	0.232135	0.000243	2.434699	0.412449	0.000024
 532	5.2834e+01	5.2822	0.292692	0.000609	6.086748	1.031123	0.000061
 533	5.2934e+01	5.2925	0.345175	0.000528	5.275182	0.893640	0.000053
 534	5.3033e+01	5.3036	0.361324	0.000162	1.623133	0.274966	0.000016
 535	5.3133e+01	5.3130	0.417844	0.000568	5.680965	0.962382	0.000057
 536	5.3233e+01	5.3225	0.458215	0.000406	4.057832	0.687415	0.000041
 537	5.3332e+01	5.3329	0.482438	0.000243	2.434699	0.412449	0.000024
 538	5.3431e+01	5.3432	0.518772	0.000365	3.652049	0.618674	0.000037
 539	5.3531e+01	5.3530	0.538958	0.000203	2.028916	0.343708	0.000020
 540	5.3630e+01	5.3629	0.631812	0.000933	9.333014	1.581055	0.000093
 541	5.3730e+01	5.3727	0.627775	-0.000041	-0.405783	-0.068742	-0.000004
 542	5.3830e+01	5.3822	0.704480	0.000771	7.709881	1.306089	0.000077
 543	5.3929e+01	5.3918	0.716592	0.000122	1.217350	0.206225	0.000012
 544	5.4029e+01	5.4023	0.724666	0.000081	0.811566	0.137483	0.000008
 545	5.4128e+01	5.4121	0.773111	0.000487	4.869399	0.824898	0.000049
 546	5.4227e+01	5.4224	0.805409	0.000325	3.246266	0.549932	0.000032
 547	5.4327e+01	5.4327	0.857891	0.000528	5.275182	0.893640	0.000053
 548	5.4426e+01	5.4420	0.902300	0.000446	4.463615	0.756157	0.000045
 549	5.4526e+01	5.4517	0.926523	0.000243	2.434699	0.412449	0.000024
 550	5.4626e+01	5.4620	0.991117	0.000649	6.492532	1.099865	0.000065
 551	5.4725e+01	5.4729	1.027451	0.000365	3.652049	0.618674	0.000037
 552	5.4825e+01	5.4815	1.067822	0.000406	4.057832	0.687415	0.000041
 553	5.4924e+01	5.4922	1.096082	0.000284	2.840483	0.481191	0.000028
 554	5.5023e+01	5.5016	1.108194	0.000122	1.217350	0.206225	0.000012
 555	5.5123e+01	5.5111	1.172788	0.000649	6.492532	1.099865	0.000065
 556	5.5222e+01	5.5206	1.201048	0.000284	2.840483	0.481191	0.000028
 557	5.5322e+01	5.5313	1.249494	0.000487	4.869399	0.824898	0.000049
 558	5.5422e+01	5.5422	1.281791	0.000325	3.246266	0.549932	0.000032
 559	5.5521e+01	5.5511	1.338310	0.000568	5.680965	0.962382	0.000057
 560	5.5620e+01	5.5616	1.394830	0.000568	5.680965	0.962382	0.000057
 561	5.5720e+01	5.5713	1.423090	0.000284	2.840483	0.481191	0.000028
 562	5.5819e+01	5.5811	1.431165	0.000081	0.811566	0.137483	0.000008
 563	5.5919e+01	5.5914	1.435202	0.000041	0.405783	0.068742	0.000004
 564	5.6019e+01	5.6011	1.487685	0.000528	5.275182	0.893640	0.000053
 565	5.6118e+01	5.6112	1.572464	0.000852	8.521448	1.443572	0.000085
 566	5.6218e+01	5.6207	1.596687	0.000243	2.434699	0.412449	0.000024
 567	5.6317e+01	5.6318	1.645133	0.000487	4.869399	0.824898	0.000049
 568	5.6416e+01	5.6410	1.693578	0.000487	4.869399	0.824898	0.000049
 569	5.6516e+01	5.6518	1.737987	0.000446	4.463615	0.756157	0.000045
 570	5.6615e+01	5.6603	1.754135	0.000162	1.623133	0.274966	0.000016
 571	5.6715e+01	5.6705	1.802581	0.000487	4.869399	0.824898	0.000049
 572	5.6815e+01	5.6814	1.842952	0.000406	4.057832	0.687415	0.000041
 573	5.6914e+01	5.6911	1.883324	0.000406	4.057832	0.687415	0.000041
 574	5.7014e+01	5.7006	1.931769	0.000487	4.869399	0.824898	0.000049
 575	5.7113e+01	5.7107	1.939844	0.000081	0.811566	0.137483	0.000008
 576	5.7212e+01	5.7210	2.044809	0.001055	10.550364	1.787280	0.000105
 577	5.7312e+01	5.7305	2.077106	0.000325	3.246266	0.549932	0.000032
 578	5.7411e+01	5.7398	2.052884	-0.000243	-2.434699	-0.412449	-0.000024
 579	5.7511e+01	5.7510	2.141701	0.000893	8.927231	1.512314	0.000089
 580	5.7611e+01	5.7598	2.161886	0.000203	2.028916	0.343708	0.000020
 581	5.7710e+01	5.7705	2.210332	0.000487	4.869399	0.824898	0.000049
 582	5.7809e+01	5.7803	2.234555	0.000243	2.434699	0.412449	0.000024
 583	5.7909e+01	5.7894	2.234555	0.000000	0.000000	0.000000	0.000000
 584	5.8008e+01	5.8010	2.299149	0.000649	6.492532	1.099865	0.000065
 585	5.8108e+01	5.8105	2.359706	0.000609	6.086748	1.031123	0.000061
 586	5.8208e+01	5.8205	2.396040	0.000365	3.652049	0.618674	0.000037
 587	5.8307e+01	5.8309	2.396040	0.000000	0.000000	0.000000	0.000000
 588	5.8407e+01	5.8401	2.468709	0.000730	7.304098	1.237348	0.000073
 589	5.8506e+01	5.8501	2.501006	0.000325	3.246266	0.549932	0.000032
 590	5.8605e+01	5.8601	2.505043	0.000041	0.405783	0.068742	0.000004
 591	5.8705e+01	5.8707	2.581748	0.000771	7.709881	1.306089	0.000077
 592	5.8804e+01	5.8811	2.577711	-0.000041	-0.405783	-0.068742	-0.000004
 593	5.8904e+01	5.8909	2.634231	0.000568	5.680965	0.962382	0.000057
 594	5.9004e+01	5.8982	2.702862	0.000690	6.898315	1.168606	0.000069
 595	5.9103e+01	5.9104	2.759382	0.000568	5.680965	0.962382	0.000057
 596	5.9203e+01	5.9194	2.771494	0.000122	1.217350	0.206225	0.000012
 597	5.9302e+01	5.9306	2.815902	0.000446	4.463615	0.756157	0.000045
 598	5.9401e+01	5.9398	2.852236	0.000365	3.652049	0.618674	0.000037
 599	5.9501e+01	5.9502	2.864348	0.000122	1.217350	0.206225	0.000012
 600	5.9600e+01	5.9608	2.912793	0.000487	4.869399	0.824898	0.000049
 601	5.9700e+01	5.9704	2.945091	0.000325	3.246266	0.549932	0.000032
 602	5.9800e+01	5.9796	3.013722	0.000690	6.898315	1.168606	0.000069
 603	5.9899e+01	5.9888	3.025833	0.000122	1.217350	0.206225	0.000012
 604	5.9998e+01	5.9992	3.025833	0.000000	0.000000	0.000000	0.000000
 605	6.0098e+01	6.0091	3.086390	0.000609	6.086748	1.031123	0.000061
 606	6.0197e+01	6.0194	3.134836	0.000487	4.869399	0.824898	0.000049
 607	6.0297e+01	6.0291	3.195393	0.000609	6.086748	1.031123	0.000061
 608	6.0397e+01	6.0387	3.211541	0.000162	1.623133	0.274966	0.000016
 609	6.0496e+01	6.0502	3.259987	0.000487	4.869399	0.824898	0.000049
 610	6.0596e+01	6.0592	3.304396	0.000446	4.463615	0.756157	0.000045
 611	6.0695e+01	6.0694	3.280173	-0.000243	-2.434699	-0.412449	-0.000024
 612	6.0794e+01	6.0798	3.344767	0.000649	6.492532	1.099865	0.000065
 613	6.0894e+01	6.0885	3.385138	0.000406	4.057832	0.687415	0.000041
 614	6.0993e+01	6.0990	3.421473	0.000365	3.652049	0.618674	0.000037
 615	6.1093e+01	6.1092	3.449732	0.000284	2.840483	0.481191	0.000028
 616	6.1193e+01	6.1189	3.498178	0.000487	4.869399	0.824898	0.000049
 617	6.1292e+01	6.1288	3.546624	0.000487	4.869399	0.824898	0.000049
 618	6.1392e+01	6.1382	3.538549	-0.000081	-0.811566	-0.137483	-0.000008
 619	6.1491e+01	6.1482	3.631404	0.000933	9.333014	1.581055	0.000093
 620	6.1590e+01	6.1578	3.611218	-0.000203	-2.028916	-0.343708	-0.000020
 621	6.1690e+01	6.1684	3.647552	0.000365	3.652049	0.618674	0.000037
 622	6.1789e+01	6.1785	3.724258	0.000771	7.709881	1.306089	0.000077
 623	6.1889e+01	6.1887	3.732332	0.000081	0.811566	0.137483	0.000008
 624	6.1989e+01	6.1988	3.760592	0.000284	2.840483	0.481191	0.000028
 625	6.2088e+01	6.2084	3.817112	0.000568	5.680965	0.962382	0.000057
 626	6.2188e+01	6.2179	3.865557	0.000487	4.869399	0.824898	0.000049
 627	6.2287e+01	6.2290	3.885743	0.000203	2.028916	0.343708	0.000020
 628	6.2386e+01	6.2379	3.918040	0.000325	3.246266	0.549932	0.000032
 629	6.2486e+01	6.2482	3.970523	0.000528	5.275182	0.893640	0.000053
 630	6.2586e+01	6.2582	3.946300	-0.000243	-2.434699	-0.412449	-0.000024
 631	6.2685e+01	6.2686	4.010894	0.000649	6.492532	1.099865	0.000065
 632	6.2785e+01	6.2774	4.035117	0.000243	2.434699	0.412449	0.000024
 633	6.2884e+01	6.2867	4.075489	0.000406	4.057832	0.687415	0.000041
 634	6.2983e+01	6.2981	4.168343	0.000933	9.333014	1.581055	0.000093
 635	6.3083e+01	6.3088	4.123934	-0.000446	-4.463615	-0.756157	-0.000045
 636	6.3182e+01	6.3158	4.184491	0.000609	6.086748	1.031123	0.000061
 637	6.3282e+01	6.3276	4.236974	0.000528	5.275182	0.893640	0.000053
 638	6.3382e+01	6.3372	4.269271	0.000325	3.246266	0.549932	0.000032
 639	6.3481e+01	6.3473	4.293494	0.000243	2.434699	0.412449	0.000024
 640	6.3581e+01	6.3566	4.321754	0.000284	2.840483	0.481191	0.000028
 641	6.3680e+01	6.3670	4.386348	0.000649	6.492532	1.099865	0.000065
 642	6.3779e+01	6.3771	4.406534	0.000203	2.028916	0.343708	0.000020
 643	6.3879e+01	6.3872	4.410571	0.000041	0.405783	0.068742	0.000004
 644	6.3978e+01	6.3972	4.471128	0.000609	6.086748	1.031123	0.000061
 645	6.4078e+01	6.4074	4.523611	0.000528	5.275182	0.893640	0.000053
 646	6.4177e+01	6.4165	4.503425	-0.000203	-2.028916	-0.343708	-0.000020
 647	6.4277e+01	6.4260	4.527648	0.000243	2.434699	0.412449	0.000024
 648	6.4376e+01	6.4361	4.572056	0.000446	4.463615	0.756157	0.000045
 649	6.4476e+01	6.4471	4.628576	0.000568	5.680965	0.962382	0.000057
 650	6.4576e+01	6.4574	4.640688	0.000122	1.217350	0.206225	0.000012
 651	6.4675e+01	6.4659	4.713356	0.000730	7.304098	1.237348	0.000073
 652	6.4775e+01	6.4761	4.741616	0.000284	2.840483	0.481191	0.000028
 653	6.4874e+01	6.4865	4.737579	-0.000041	-0.405783	-0.068742	-0.000004
 654	6.4974e+01	6.4962	4.790062	0.000528	5.275182	0.893640	0.000053
 655	6.5073e+01	6.5061	4.826396	0.000365	3.652049	0.618674	0.000037
 656	6.5172e+01	6.5172	4.874841	0.000487	4.869399	0.824898	0.000049
 657	6.5272e+01	6.5260	4.842544	-0.000325	-3.246266	-0.549932	-0.000032
 658	6.5371e+01	6.5365	4.870804	0.000284	2.840483	0.481191	0.000028
 659	6.5471e+01	6.5464	4.947510	0.000771	7.709881	1.306089	0.000077
 660	6.5570e+01	6.5563	4.999993	0.000528	5.275182	0.893640	0.000053
 661	6.5670e+01	6.5667	5.032290	0.000325	3.246266	0.549932	0.000032
 662	6.5769e+01	6.5766	5.060550	0.000284	2.840483	0.481191	0.000028
 663	6.5869e+01	6.5859	5.117070	0.000568	5.680965	0.962382	0.000057
 664	6.5969e+01	6.5955	5.117070	0.000000	0.000000	0.000000	0.000000
 665	6.6068e+01	6.6055	5.145329	0.000284	2.840483	0.481191	0.000028
 666	6.6168e+01	6.6162	5.226072	0.000812	8.115664	1.374831	0.000081
 667	6.6267e+01	6.6261	5.197812	-0.000284	-2.840483	-0.481191	-0.000028
 668	6.6367e+01	6.6356	5.278555	0.000812	8.115664	1.374831	0.000081
 669	6.6466e+01	6.6474	5.254332	-0.000243	-2.434699	-0.412449	-0.000024
 670	6.6566e+01	6.6546	5.282592	0.000284	2.840483	0.481191	0.000028
 671	6.6665e+01	6.6653	5.310852	0.000284	2.840483	0.481191	0.000028
 672	6.6764e+01	6.6763	5.343149	0.000325	3.246266	0.549932	0.000032
 673	6.6864e+01	6.6851	5.423892	0.000812	8.115664	1.374831	0.000081
 674	6.6963e+01	6.6948	5.423892	0.000000	0.000000	0.000000	0.000000
 675	6.7063e+01	6.7069	5.484449	0.000609	6.086748	1.031123	0.000061
 676	6.7162e+01	6.7153	5.540969	0.000568	5.680965	0.962382	0.000057
 677	6.7262e+01	6.7250	5.565192	0.000243	2.434699	0.412449	0.000024
 678	6.7362e+01	6.7352	5.573266	0.000081	0.811566	0.137483	0.000008
 679	6.7461e+01	6.7462	5.621712	0.000487	4.869399	0.824898	0.000049
 680	6.7561e+01	6.7554	5.658046	0.000365	3.652049	0.618674	0.000037
 681	6.7660e+01	6.7655	5.670157	0.000122	1.217350	0.206225	0.000012
 682	6.7760e+01	6.7751	5.714566	0.000446	4.463615	0.756157	0.000045
 683	6.7859e+01	6.7852	5.758974	0.000446	4.463615	0.756157	0.000045
 684	6.7959e+01	6.7953	5.807420	0.000487	4.869399	0.824898	0.000049
 685	6.8058e+01	6.8047	5.827605	0.000203	2.028916	0.343708	0.000020
 686	6.8157e+01	6.8151	5.863940	0.000365	3.652049	0.618674	0.000037
 687	6.8257e+01	6.8246	5.916422	0.000528	5.275182	0.893640	0.000053
 688	6.8356e+01	6.8340	5.924497	0.000081	0.811566	0.137483	0.000008
 689	6.8456e+01	6.8450	5.944682	0.000203	2.028916	0.343708	0.000020
 690	6.8555e+01	6.8542	5.993128	0.000487	4.869399	0.824898	0.000049
 691	6.8655e+01	6.8645	6.017351	0.000243	2.434699	0.412449	0.000024
 692	6.8754e+01	6.8748	6.061759	0.000446	4.463615	0.756157	0.000045
 693	6.8854e+01	6.8850	6.110205	0.000487	4.869399	0.824898	0.000049
 694	6.8954e+01	6.8945	6.130391	0.000203	2.028916	0.343708	0.000020
 695	6.9053e+01	6.9043	6.162688	0.000325	3.246266	0.549932	0.000032
 696	6.9153e+01	6.9134	6.227282	0.000649	6.492532	1.099865	0.000065
 697	6.9252e+01	6.9248	6.255542	0.000284	2.840483	0.481191	0.000028
 698	6.9352e+01	6.9347	6.275728	0.000203	2.028916	0.343708	0.000020
 699	6.9451e+01	6.9449	6.320136	0.000446	4.463615	0.756157	0.000045
 700	6.9550e+01	6.9543	6.396842	0.000771	7.709881	1.306089	0.000077
 701	6.9650e+01	6.9642	6.376656	-0.000203	-2.028916	-0.343708	-0.000020
 702	6.9749e+01	6.9747	6.417027	0.000406	4.057832	0.687415	0.000041
 703	6.9849e+01	6.9847	6.453361	0.000365	3.652049	0.618674	0.000037
 704	6.9948e+01	6.9942	6.485659	0.000325	3.246266	0.549932	0.000032
 705	7.0048e+01	7.0080	6.521993	0.000365	3.652049	0.618674	0.000037
 706	7.0147e+01	7.0146	6.550253	0.000284	2.840483	0.481191	0.000028
 707	7.0247e+01	7.0243	6.610810	0.000609	6.086748	1.031123	0.000061
 708	7.0347e+01	7.0338	6.647144	0.000365	3.652049	0.618674	0.000037
 709	7.0446e+01	7.0436	6.651181	0.000041	0.405783	0.068742	0.000004
 710	7.0546e+01	7.0537	6.707701	0.000568	5.680965	0.962382	0.000057
 711	7.0645e+01	7.0639	6.776332	0.000690	6.898315	1.168606	0.000069
 712	7.0745e+01	7.0740	6.792481	0.000162	1.623133	0.274966	0.000016
 713	7.0844e+01	7.0833	6.812667	0.000203	2.028916	0.343708	0.000020
 714	7.0944e+01	7.0933	6.865149	0.000528	5.275182	0.893640	0.000053
 715	7.1043e+01	7.1038	6.861112	-0.000041	-0.405783	-0.068742	-0.000004
 716	7.1142e+01	7.1136	6.966078	0.001055	10.550364	1.787280	0.000105
 717	7.1242e+01	7.1243	6.978189	0.000122	1.217350	0.206225	0.000012
 718	7.1341e+01	7.1331	6.990301	0.000122	1.217350	0.206225	0.000012
 719	7.1441e+01	7.1436	7.046820	0.000568	5.680965	0.962382	0.000057
 720	7.1540e+01	7.1533	7.087192	0.000406	4.057832	0.687415	0.000041
 721	7.1640e+01	7.1629	7.107377	0.000203	2.028916	0.343708	0.000020
 722	7.1740e+01	7.1729	7.139675	0.000325	3.246266	0.549932	0.000032
 723	7.1839e+01	7.1832	7.200232	0.000609	6.086748	1.031123	0.000061
 724	7.1939e+01	7.1925	7.252714	0.000528	5.275182	0.893640	0.000053
 725	7.2038e+01	7.2025	7.293086	0.000406	4.057832	0.687415	0.000041
 726	7.2138e+01	7.2136	7.260789	-0.000325	-3.246266	-0.549932	-0.000032
 727	7.2237e+01	7.2243	7.317309	0.000568	5.680965	0.962382	0.000057
 728	7.2337e+01	7.2324	7.385940	0.000690	6.898315	1.168606	0.000069
 729	7.2436e+01	7.2430	7.389977	0.000041	0.405783	0.068742	0.000004
 730	7.2535e+01	7.2517	7.450534	0.000609	6.086748	1.031123	0.000061
 731	7.2635e+01	7.2626	7.498980	0.000487	4.869399	0.824898	0.000049
 732	7.2734e+01	7.2720	7.507054	0.000081	0.811566	0.137483	0.000008
 733	7.2834e+01	7.2829	7.567611	0.000609	6.086748	1.031123	0.000061
 734	7.2933e+01	7.2929	7.603945	0.000365	3.652049	0.618674	0.000037
 735	7.3033e+01	7.3016	7.660465	0.000568	5.680965	0.962382	0.000057
 736	7.3132e+01	7.3125	7.721022	0.000609	6.086748	1.031123	0.000061
 737	7.3232e+01	7.3232	7.729096	0.000081	0.811566	0.137483	0.000008
 738	7.3332e+01	7.3316	7.801765	0.000730	7.304098	1.237348	0.000073
 739	7.3431e+01	7.3421	7.797728	-0.000041	-0.405783	-0.068742	-0.000004
 740	7.3531e+01	7.3516	7.834062	0.000365	3.652049	0.618674	0.000037
 741	7.3630e+01	7.3630	7.898656	0.000649	6.492532	1.099865	0.000065
 742	7.3730e+01	7.3720	7.898656	0.000000	0.000000	0.000000	0.000000
 743	7.3829e+01	7.3824	7.971325	0.000730	7.304098	1.237348	0.000073
 744	7.3928e+01	7.3912	7.959213	-0.000122	-1.217350	-0.206225	-0.000012
 745	7.4028e+01	7.4007	8.011696	0.000528	5.275182	0.893640	0.000053
 746	7.4127e+01	7.4108	8.088401	0.000771	7.709881	1.306089	0.000077
 747	7.4227e+01	7.4215	8.140884	0.000528	5.275182	0.893640	0.000053
 748	7.4326e+01	7.4321	8.140884	0.000000	0.000000	0.000000	0.000000
 749	7.4426e+01	7.4415	8.197404	0.000568	5.680965	0.962382	0.000057
 750	7.4525e+01	7.4513	8.225664	0.000284	2.840483	0.481191	0.000028
 751	7.4625e+01	7.4619	8.286221	0.000609	6.086748	1.031123	0.000061
 752	7.4725e+01	7.4717	8.330630	0.000446	4.463615	0.756157	0.000045
 753	7.4824e+01	7.4818	8.358890	0.000284	2.840483	0.481191	0.000028
 754	7.4924e+01	7.4908	8.387149	0.000284	2.840483	0.481191	0.000028
 755	7.5023e+01	7.5026	8.423484	0.000365	3.652049	0.618674	0.000037
 756	7.5123e+01	7.5108	8.455781	0.000325	3.246266	0.549932	0.000032
 757	7.5222e+01	7.5172	8.480004	0.000243	2.434699	0.412449	0.000024
 758	7.5322e+01	7.5313	8.524412	0.000446	4.463615	0.756157	0.000045
 759	7.5421e+01	7.5411	8.572858	0.000487	4.869399	0.824898	0.000049
 760	7.5520e+01	7.5520	8.625341	0.000528	5.275182	0.893640	0.000053
 761	7.5620e+01	7.5603	8.681860	0.000568	5.680965	0.962382	0.000057
 762	7.5719e+01	7.5708	8.730306	0.000487	4.869399	0.824898	0.000049
 763	7.5819e+01	7.5817	8.730306	0.000000	0.000000	0.000000	0.000000
 764	7.5918e+01	7.5906	8.790863	0.000609	6.086748	1.031123	0.000061
 765	7.6018e+01	7.6012	8.786826	-0.000041	-0.405783	-0.068742	-0.000004
 766	7.6118e+01	7.6116	8.843346	0.000568	5.680965	0.962382	0.000057
 767	7.6217e+01	7.6221	8.863532	0.000203	2.028916	0.343708	0.000020
 768	7.6317e+01	7.6309	8.932163	0.000690	6.898315	1.168606	0.000069
 769	7.6416e+01	7.6410	8.924089	-0.000081	-0.811566	-0.137483	-0.000008
 770	7.6516e+01	7.6508	8.980608	0.000568	5.680965	0.962382	0.000057
 771	7.6615e+01	7.6613	9.016943	0.000365	3.652049	0.618674	0.000037
 772	7.6715e+01	7.6715	9.093648	0.000771	7.709881	1.306089	0.000077
 773	7.6814e+01	7.6797	9.125945	0.000325	3.246266	0.549932	0.000032
 774	7.6913e+01	7.6902	9.154205	0.000284	2.840483	0.481191	0.000028
 775	7.7013e+01	7.7004	9.166317	0.000122	1.217350	0.206225	0.000012
 776	7.7112e+01	7.7108	9.226874	0.000609	6.086748	1.031123	0.000061
 777	7.7212e+01	7.7206	9.259171	0.000325	3.246266	0.549932	0.000032
 778	7.7311e+01	7.7306	9.311654	0.000528	5.275182	0.893640	0.000053
 779	7.7411e+01	7.7405	9.352025	0.000406	4.057832	0.687415	0.000041
 780	7.7510e+01	7.7495	9.364136	0.000122	1.217350	0.206225	0.000012
 781	7.7610e+01	7.7599	9.420656	0.000568	5.680965	0.962382	0.000057
 782	7.7710e+01	7.7708	9.412582	-0.000081	-0.811566	-0.137483	-0.000008
 783	7.7809e+01	7.7802	9.493325	0.000812	8.115664	1.374831	0.000081
 784	7.7909e+01	7.7898	9.525622	0.000325	3.246266	0.549932	0.000032
 785	7.8008e+01	7.8002	9.537733	0.000122	1.217350	0.206225	0.000012
 786	7.8108e+01	7.8101	9.630587	0.000933	9.333014	1.581055	0.000093
 787	7.8207e+01	7.8201	9.618476	-0.000122	-1.217350	-0.206225	-0.000012
 788	7.8306e+01	7.8288	9.691144	0.000730	7.304098	1.237348	0.000073
 789	7.8406e+01	7.8397	9.727479	0.000365	3.652049	0.618674	0.000037
 790	7.8505e+01	7.8489	9.731516	0.000041	0.405783	0.068742	0.000004
 791	7.8605e+01	7.8602	9.783998	0.000528	5.275182	0.893640	0.000053
 792	7.8704e+01	7.8692	9.808221	0.000243	2.434699	0.412449	0.000024
 793	7.8804e+01	7.8801	9.824370	0.000162	1.623133	0.274966	0.000016
 794	7.8903e+01	7.8906	9.893001	0.000690	6.898315	1.168606	0.000069
 795	7.9003e+01	7.8996	9.933372	0.000406	4.057832	0.687415	0.000041
 796	7.9103e+01	7.9095	9.981818	0.000487	4.869399	0.824898	0.000049
 797	7.9202e+01	7.9178	10.018152	0.000365	3.652049	0.618674	0.000037
 798	7.9302e+01	7.9284	10.002004	-0.000162	-1.623133	-0.274966	-0.000016
 799	7.9401e+01	7.9380	10.050449	0.000487	4.869399	0.824898	0.000049
 800	7.9501e+01	7.9485	10.135229	0.000852	8.521448	1.443572	0.000085
 801	7.9600e+01	7.9584	10.143304	0.000081	0.811566	0.137483	0.000008
 802	7.9700e+01	7.9688	10.171563	0.000284	2.840483	0.481191	0.000028
 803	7.9799e+01	7.9800	10.207898	0.000365	3.652049	0.618674	0.000037
 804	7.9898e+01	7.9897	10.256343	0.000487	4.869399	0.824898	0.000049
 805	7.9998e+01	7.9986	10.296715	0.000406	4.057832	0.687415	0.000041
 806	8.0097e+01	8.0084	10.324975	0.000284	2.840483	0.481191	0.000028
 807	8.0197e+01	8.0176	10.345160	0.000203	2.028916	0.343708	0.000020
 808	8.0296e+01	8.0289	10.413792	0.000690	6.898315	1.168606	0.000069
 809	8.0396e+01	8.0375	10.417829	0.000041	0.405783	0.068742	0.000004
 810	8.0496e+01	8.0480	10.486460	0.000690	6.898315	1.168606	0.000069
 811	8.0595e+01	8.0585	10.518757	0.000325	3.246266	0.549932	0.000032
 812	8.0695e+01	8.0695	10.534906	0.000162	1.623133	0.274966	0.000016
 813	8.0794e+01	8.0783	10.619686	0.000852	8.521448	1.443572	0.000085
 814	8.0894e+01	8.0880	10.635834	0.000162	1.623133	0.274966	0.000016
 815	8.0993e+01	8.0983	10.635834	0.000000	0.000000	0.000000	0.000000
 816	8.1093e+01	8.1081	10.664094	0.000284	2.840483	0.481191	0.000028
 817	8.1192e+01	8.1184	10.748874	0.000852	8.521448	1.443572	0.000085
 818	8.1291e+01	8.1277	10.777134	0.000284	2.840483	0.481191	0.000028
 819	8.1391e+01	8.1389	10.809431	0.000325	3.246266	0.549932	0.000032
 820	8.1490e+01	8.1480	10.865951	0.000568	5.680965	0.962382	0.000057
 821	8.1590e+01	8.1580	10.890174	0.000243	2.434699	0.412449	0.000024
 822	8.1689e+01	8.1678	10.938619	0.000487	4.869399	0.824898	0.000049
 823	8.1789e+01	8.1788	10.950731	0.000122	1.217350	0.206225	0.000012
 824	8.1888e+01	8.1887	11.011288	0.000609	6.086748	1.031123	0.000061
 825	8.1988e+01	8.1971	11.059733	0.000487	4.869399	0.824898	0.000049
 826	8.2088e+01	8.2083	11.079919	0.000203	2.028916	0.343708	0.000020
 827	8.2187e+01	8.2178	11.100105	0.000203	2.028916	0.343708	0.000020
 828	8.2287e+01	8.2278	11.168736	0.000690	6.898315	1.168606	0.000069
 829	8.2386e+01	8.2376	11.201033	0.000325	3.246266	0.549932	0.000032
 830	8.2486e+01	8.2480	11.237367	0.000365	3.652049	0.618674	0.000037
 831	8.2585e+01	8.2579	11.265627	0.000284	2.840483	0.481191	0.000028
 832	8.2684e+01	8.2679	11.326184	0.000609	6.086748	1.031123	0.000061
 833	8.2784e+01	8.2777	11.350407	0.000243	2.434699	0.412449	0.000024
 834	8.2883e+01	8.2874	11.394816	0.000446	4.463615	0.756157	0.000045
 835	8.2983e+01	8.2972	11.439224	0.000446	4.463615	0.756157	0.000045
 836	8.3082e+01	8.3073	11.471521	0.000325	3.246266	0.549932	0.000032
 837	8.3182e+01	8.3176	11.511893	0.000406	4.057832	0.687415	0.000041
 838	8.3281e+01	8.3266	11.564375	0.000528	5.275182	0.893640	0.000053
 839	8.3381e+01	8.3363	11.588598	0.000243	2.434699	0.412449	0.000024
 840	8.3481e+01	8.3470	11.612821	0.000243	2.434699	0.412449	0.000024
 841	8.3580e+01	8.3569	11.709712	0.000974	9.738797	1.649797	0.000097
 842	8.3680e+01	8.3680	11.750084	0.000406	4.057832	0.687415	0.000041
 843	8.3779e+01	8.3777	11.750084	0.000000	0.000000	0.000000	0.000000
 844	8.3879e+01	8.3872	11.774306	0.000243	2.434699	0.412449	0.000024
 845	8.3978e+01	8.3969	11.818715	0.000446	4.463615	0.756157	0.000045
 846	8.4078e+01	8.4064	11.867161	0.000487	4.869399	0.824898	0.000049
 847	8.4177e+01	8.4171	11.883309	0.000162	1.623133	0.274966	0.000016
 848	8.4276e+01	8.4266	11.968089	0.000852	8.521448	1.443572	0.000085
 849	8.4376e+01	8.4361	11.996349	0.000284	2.840483	0.481191	0.000028
 850	8.4475e+01	8.4464	12.008460	0.000122	1.217350	0.206225	0.000012
 851	8.4575e+01	8.4569	12.056906	0.000487	4.869399	0.824898	0.000049
 852	8.4674e+01	8.4668	12.153797	0.000974	9.738797	1.649797	0.000097
 853	8.4774e+01	8.4766	12.121500	-0.000325	-3.246266	-0.549932	-0.000032
 854	8.4874e+01	8.4863	12.190131	0.000690	6.898315	1.168606	0.000069
 855	8.4973e+01	8.4982	12.242614	0.000528	5.275182	0.893640	0.000053
 856	8.5073e+01	8.5053	12.287023	0.000446	4.463615	0.756157	0.000045
 857	8.5172e+01	8.5159	12.323357	0.000365	3.652049	0.618674	0.000037
 858	8.5272e+01	8.5261	12.363728	0.000406	4.057832	0.687415	0.000041
 859	8.5371e+01	8.5360	12.452545	0.000893	8.927231	1.512314	0.000089
 860	8.5471e+01	8.5467	12.440434	-0.000122	-1.217350	-0.206225	-0.000012
 861	8.5570e+01	8.5553	12.496954	0.000568	5.680965	0.962382	0.000057
 862	8.5669e+01	8.5657	12.565585	0.000690	6.898315	1.168606	0.000069
 863	8.5769e+01	8.5770	12.614031	0.000487	4.869399	0.824898	0.000049
 864	8.5868e+01	8.5865	12.646328	0.000325	3.246266	0.549932	0.000032
 865	8.5968e+01	8.5966	12.678625	0.000325	3.246266	0.549932	0.000032
 866	8.6067e+01	8.6069	12.723033	0.000446	4.463615	0.756157	0.000045
 867	8.6167e+01	8.6167	12.791665	0.000690	6.898315	1.168606	0.000069
 868	8.6266e+01	8.6263	12.852222	0.000609	6.086748	1.031123	0.000061
 869	8.6366e+01	8.6353	12.888556	0.000365	3.652049	0.618674	0.000037
 870	8.6466e+01	8.6463	12.949113	0.000609	6.086748	1.031123	0.000061
 871	8.6565e+01	8.6555	12.981410	0.000325	3.246266	0.549932	0.000032
 872	8.6665e+01	8.6662	13.009670	0.000284	2.840483	0.481191	0.000028
 873	8.6764e+01	8.6757	13.058116	0.000487	4.869399	0.824898	0.000049
 874	8.6864e+01	8.6865	13.094450	0.000365	3.652049	0.618674	0.000037
 875	8.6963e+01	8.6963	13.159044	0.000649	6.492532	1.099865	0.000065
 876	8.7063e+01	8.7061	13.171155	0.000122	1.217350	0.206225	0.000012
 877	8.7162e+01	8.7161	13.251898	0.000812	8.115664	1.374831	0.000081
 878	8.7261e+01	8.7256	13.268047	0.000162	1.623133	0.274966	0.000016
 879	8.7361e+01	8.7348	13.328604	0.000609	6.086748	1.031123	0.000061
 880	8.7460e+01	8.7457	13.381086	0.000528	5.275182	0.893640	0.000053
 881	8.7560e+01	8.7553	13.437606	0.000568	5.680965	0.962382	0.000057
 882	8.7659e+01	8.7650	13.486052	0.000487	4.869399	0.824898	0.000049
 883	8.7759e+01	8.7744	13.510275	0.000243	2.434699	0.412449	0.000024
 884	8.7859e+01	8.7849	13.582943	0.000730	7.304098	1.237348	0.000073
 885	8.7958e+01	8.7946	13.643500	0.000609	6.086748	1.031123	0.000061
 886	8.8058e+01	8.8047	13.695983	0.000528	5.275182	0.893640	0.000053
 887	8.8157e+01	8.8142	13.740391	0.000446	4.463615	0.756157	0.000045
 888	8.8257e+01	8.8241	13.792874	0.000528	5.275182	0.893640	0.000053
 889	8.8356e+01	8.8342	13.841320	0.000487	4.869399	0.824898	0.000049
 890	8.8456e+01	8.8452	13.877654	0.000365	3.652049	0.618674	0.000037
 891	8.8555e+01	8.8538	13.926100	0.000487	4.869399	0.824898	0.000049
 892	8.8654e+01	8.8642	14.014917	0.000893	8.927231	1.512314	0.000089
 893	8.8754e+01	8.8734	14.022991	0.000081	0.811566	0.137483	0.000008
 894	8.8853e+01	8.8843	14.103734	0.000812	8.115664	1.374831	0.000081
 895	8.8953e+01	8.8935	14.115845	0.000122	1.217350	0.206225	0.000012
 896	8.9052e+01	8.9047	14.188514	0.000730	7.304098	1.237348	0.000073
 897	8.9152e+01	8.9130	14.277331	0.000893	8.927231	1.512314	0.000089
 898	8.9251e+01	8.9233	14.317702	0.000406	4.057832	0.687415	0.000041
 899	8.9351e+01	8.9339	14.358073	0.000406	4.057832	0.687415	0.000041
 900	8.9451e+01	8.9429	14.402482	0.000446	4.463615	0.756157	0.000045
 901	8.9550e+01	8.9536	14.454965	0.000528	5.275182	0.893640	0.000053
 902	8.9650e+01	8.9637	14.523596	0.000690	6.898315	1.168606	0.000069
 903	8.9749e+01	8.9736	14.596264	0.000730	7.304098	1.237348	0.000073
 904	8.9849e+01	8.9826	14.628561	0.000325	3.246266	0.549932	0.000032
 905	8.9948e+01	8.9941	14.697193	0.000690	6.898315	1.168606	0.000069
 906	9.0047e+01	9.0039	14.769861	0.000730	7.304098	1.237348	0.000073
 907	9.0147e+01	9.0125	14.822344	0.000528	5.275182	0.893640	0.000053
 908	9.0246e+01	9.0225	14.870789	0.000487	4.869399	0.824898	0.000049
 909	9.0346e+01	9.0327	14.915198	0.000446	4.463615	0.756157	0.000045
 910	9.0445e+01	9.0439	14.963644	0.000487	4.869399	0.824898	0.000049
 911	9.0545e+01	9.0530	15.044386	0.000812	8.115664	1.374831	0.000081
 912	9.0644e+01	9.0631	15.113018	0.000690	6.898315	1.168606	0.000069
 913	9.0744e+01	9.0723	15.145315	0.000325	3.246266	0.549932	0.000032
 914	9.0844e+01	9.0827	15.205872	0.000609	6.086748	1.031123	0.000061
 915	9.0943e+01	9.0932	15.270466	0.000649	6.492532	1.099865	0.000065
 916	9.1043e+01	9.1026	15.298726	0.000284	2.840483	0.481191	0.000028
 917	9.1142e+01	9.1132	15.395617	0.000974	9.738797	1.649797	0.000097
 918	9.1242e+01	9.1223	15.407729	0.000122	1.217350	0.206225	0.000012
 919	9.1341e+01	9.1315	15.508657	0.001014	10.144581	1.718538	0.000101
 920	9.1441e+01	9.1421	15.605548	0.000974	9.738797	1.649797	0.000097
 921	9.1540e+01	9.1517	15.605548	0.000000	0.000000	0.000000	0.000000
 922	9.1639e+01	9.1620	15.702439	0.000974	9.738797	1.649797	0.000097
 923	9.1739e+01	9.1724	15.767034	0.000649	6.492532	1.099865	0.000065
 924	9.1838e+01	9.1821	15.819516	0.000528	5.275182	0.893640	0.000053
 925	9.1938e+01	9.1934	15.859888	0.000406	4.057832	0.687415	0.000041
 926	9.2037e+01	9.2021	15.924482	0.000649	6.492532	1.099865	0.000065
 927	9.2137e+01	9.2130	15.960816	0.000365	3.652049	0.618674	0.000037
 928	9.2237e+01	9.2213	16.053670	0.000933	9.333014	1.581055	0.000093
 929	9.2336e+01	9.2285	16.106153	0.000528	5.275182	0.893640	0.000053
 930	9.2436e+01	9.2432	16.154599	0.000487	4.869399	0.824898	0.000049
 931	9.2535e+01	9.2518	16.235341	0.000812	8.115664	1.374831	0.000081
 932	9.2635e+01	9.2627	16.259564	0.000243	2.434699	0.412449	0.000024
 933	9.2734e+01	9.2678	16.364530	0.001055	10.550364	1.787280	0.000105
 934	9.2834e+01	9.2816	16.384715	0.000203	2.028916	0.343708	0.000020
 935	9.2933e+01	9.2920	16.469495	0.000852	8.521448	1.443572	0.000085
 936	9.3032e+01	9.3021	16.550238	0.000812	8.115664	1.374831	0.000081
 937	9.3132e+01	9.3121	16.622906	0.000730	7.304098	1.237348	0.000073
 938	9.3231e+01	9.3213	16.647129	0.000243	2.434699	0.412449	0.000024
 939	9.3331e+01	9.3320	16.735946	0.000893	8.927231	1.512314	0.000089
 940	9.3430e+01	9.3411	16.804578	0.000690	6.898315	1.168606	0.000069
 941	9.3530e+01	9.3515	16.844949	0.000406	4.057832	0.687415	0.000041
 942	9.3629e+01	9.3622	16.953952	0.001096	10.956147	1.856022	0.000110
 943	9.3729e+01	9.3713	16.974137	0.000203	2.028916	0.343708	0.000020
 944	9.3829e+01	9.3821	17.058917	0.000852	8.521448	1.443572	0.000085
 945	9.3928e+01	9.3909	17.123511	0.000649	6.492532	1.099865	0.000065
 946	9.4028e+01	9.4012	17.216365	0.000933	9.333014	1.581055	0.000093
 947	9.4127e+01	9.4117	17.289034	0.000730	7.304098	1.237348	0.000073
 948	9.4227e+01	9.4215	17.341517	0.000528	5.275182	0.893640	0.000053
 949	9.4326e+01	9.4308	17.414185	0.000730	7.304098	1.237348	0.000073
 950	9.4425e+01	9.4408	17.498965	0.000852	8.521448	1.443572	0.000085
 951	9.4525e+01	9.4519	17.519151	0.000203	2.028916	0.343708	0.000020
 952	9.4624e+01	9.4604	17.567596	0.000487	4.869399	0.824898	0.000049
 953	9.4724e+01	9.4706	17.680636	0.001136	11.361930	1.924763	0.000114
 954	9.4823e+01	9.4801	17.773490	0.000933	9.333014	1.581055	0.000093
 955	9.4923e+01	9.4906	17.854233	0.000812	8.115664	1.374831	0.000081
 956	9.5022e+01	9.5001	17.906716	0.000528	5.275182	0.893640	0.000053
 957	9.5122e+01	9.5099	17.947087	0.000406	4.057832	0.687415	0.000041
 958	9.5222e+01	9.5197	18.023793	0.000771	7.709881	1.306089	0.000077
 959	9.5321e+01	9.5304	18.104535	0.000812	8.115664	1.374831	0.000081
 960	9.5421e+01	9.5400	18.233724	0.001299	12.985063	2.199729	0.000130
 961	9.5520e+01	9.5502	18.290243	0.000568	5.680965	0.962382	0.000057
 962	9.5620e+01	9.5596	18.354838	0.000649	6.492532	1.099865	0.000065
 963	9.5719e+01	9.5712	18.431543	0.000771	7.709881	1.306089	0.000077
 964	9.5819e+01	9.5802	18.500175	0.000690	6.898315	1.168606	0.000069
 965	9.5918e+01	9.5902	18.593029	0.000933	9.333014	1.581055	0.000093
 966	9.6017e+01	9.5996	18.673771	0.000812	8.115664	1.374831	0.000081
 967	9.6117e+01	9.6105	18.722217	0.000487	4.869399	0.824898	0.000049
 968	9.6216e+01	9.6198	18.811034	0.000893	8.927231	1.512314	0.000089
 969	9.6316e+01	9.6301	18.924074	0.001136	11.361930	1.924763	0.000114
 970	9.6415e+01	9.6407	18.956371	0.000325	3.246266	0.549932	0.000032
 971	9.6515e+01	9.6497	19.069411	0.001136	11.361930	1.924763	0.000114
 972	9.6615e+01	9.6603	19.178413	0.001096	10.956147	1.856022	0.000110
 973	9.6714e+01	9.6686	19.226859	0.000487	4.869399	0.824898	0.000049
 974	9.6814e+01	9.6793	19.299527	0.000730	7.304098	1.237348	0.000073
 975	9.6913e+01	9.6906	19.408530	0.001096	10.956147	1.856022	0.000110
 976	9.7013e+01	9.6994	19.493310	0.000852	8.521448	1.443572	0.000085
 977	9.7112e+01	9.7102	19.565978	0.000730	7.304098	1.237348	0.000073
 978	9.7212e+01	9.7187	19.638647	0.000730	7.304098	1.237348	0.000073
 979	9.7311e+01	9.7293	19.715352	0.000771	7.709881	1.306089	0.000077
 980	9.7410e+01	9.7388	19.788021	0.000730	7.304098	1.237348	0.000073
 981	9.7510e+01	9.7495	19.884912	0.000974	9.738797	1.649797	0.000097
 982	9.7609e+01	9.7599	19.969692	0.000852	8.521448	1.443572	0.000085
 983	9.7709e+01	9.7682	20.078695	0.001096	10.956147	1.856022	0.000110
 984	9.7808e+01	9.7784	20.159437	0.000812	8.115664	1.374831	0.000081
 985	9.7908e+01	9.7894	20.215957	0.000568	5.680965	0.962382	0.000057
 986	9.8007e+01	9.7981	20.357257	0.001420	14.202413	2.405954	0.000142
 987	9.8107e+01	9.8096	20.425888	0.000690	6.898315	1.168606	0.000069
 988	9.8207e+01	9.8182	20.502594	0.000771	7.709881	1.306089	0.000077
 989	9.8306e+01	9.8291	20.607559	0.001055	10.550364	1.787280	0.000105
 990	9.8406e+01	9.8389	20.684265	0.000771	7.709881	1.306089	0.000077
 991	9.8505e+01	9.8486	20.861899	0.001785	17.854462	3.024628	0.000179
 992	9.8605e+01	9.8586	20.934567	0.000730	7.304098	1.237348	0.000073
 993	9.8704e+01	9.8682	21.015310	0.000812	8.115664	1.374831	0.000081
 994	9.8803e+01	9.8792	21.116238	0.001014	10.144581	1.718538	0.000101
 995	9.8903e+01	9.8888	21.237353	0.001217	12.173497	2.062246	0.000122
 996	9.9002e+01	9.8988	21.346355	0.001096	10.956147	1.856022	0.000110
 997	9.9102e+01	9.9078	21.431135	0.000852	8.521448	1.443572	0.000085
 998	9.9201e+01	9.9177	21.519952	0.000893	8.927231	1.512314	0.000089
 999	9.9301e+01	9.9277	21.653178	0.001339	13.390846	2.268471	0.000134
1000	9.9400e+01	9.9385	21.758143	0.001055	10.550364	1.787280	0.000105
1001	9.9500e+01	9.9487	21.863109	0.001055	10.550364	1.787280	0.000105
1002	9.9600e+01	9.9580	21.947888	0.000852	8.521448	1.443572	0.000085
1003	9.9699e+01	9.9679	22.052854	0.001055	10.550364	1.787280	0.000105
1004	9.9799e+01	9.9773	22.202228	0.001501	15.013979	2.543437	0.000150
1005	9.9898e+01	9.9869	22.287008	0.000852	8.521448	1.443572	0.000085
1006	9.9998e+01	9.9979	22.424270	0.001380	13.796630	2.337212	0.000138
1007	1.0010e+02	9.9885	22.484827	-0.000609	-6.086748	-1.031123	0.000061
1008	1.0020e+02	9.9780	22.557496	-0.000730	-7.304098	-1.237348	0.000073
1009	1.0030e+02	9.9686	22.573644	-0.000162	-1.623133	-0.274966	0.000016
1010	1.0040e+02	9.9585	22.682647	-0.001096	-10.956147	-1.856022	0.000110
1011	1.0050e+02	9.9484	22.682647	-0.000000	-0.000000	-0.000000	0.000000
1012	1.0059e+02	9.9381	22.767427	-0.000852	-8.521448	-1.443572	0.000085
1013	1.0069e+02	9.9285	22.840095	-0.000730	-7.304098	-1.237348	0.000073
1014	1.0079e+02	9.9189	22.884504	-0.000446	-4.463615	-0.756157	0.000045
1015	1.0089e+02	9.9077	22.941024	-0.000568	-5.680965	-0.962382	0.000057
1016	1.0099e+02	9.8981	22.985432	-0.000446	-4.463615	-0.756157	0.000045
1017	1.0109e+02	9.8884	23.009655	-0.000243	-2.434699	-0.412449	0.000024
1018	1.0119e+02	9.8795	23.041952	-0.000325	-3.246266	-0.549932	0.000032
1019	1.0129e+02	9.8682	23.110584	-0.000690	-6.898315	-1.168606	0.000069
1020	1.0139e+02	9.8598	23.122695	-0.000122	-1.217350	-0.206225	0.000012
1021	1.0149e+02	9.8486	23.223623	-0.001014	-10.144581	-1.718538	0.000101
1022	1.0159e+02	9.8389	23.268032	-0.000446	-4.463615	-0.756157	0.000045
1023	1.0169e+02	9.8283	23.276106	-0.000081	-0.811566	-0.137483	0.000008
1024	1.0179e+02	9.8179	23.332626	-0.000568	-5.680965	-0.962382	0.000057
1025	1.0189e+02	9.8081	23.364923	-0.000325	-3.246266	-0.549932	0.000032
1026	1.0199e+02	9.7984	23.401257	-0.000365	-3.652049	-0.618674	0.000037
1027	1.0209e+02	9.7894	23.469889	-0.000690	-6.898315	-1.168606	0.000069
1028	1.0219e+02	9.7787	23.486037	-0.000162	-1.623133	-0.274966	0.000016
1029	1.0229e+02	9.7699	23.530446	-0.000446	-4.463615	-0.756157	0.000045
1030	1.0239e+02	9.7607	23.578891	-0.000487	-4.869399	-0.824898	0.000049
1031	1.0248e+02	9.7491	23.643485	-0.000649	-6.492532	-1.099865	0.000065
1032	1.0258e+02	9.7401	23.615225	0.000284	2.840483	0.481191	-0.000028
1033	1.0268e+02	9.7300	23.651560	-0.000365	-3.652049	-0.618674	0.000037
1034	1.0278e+02	9.7202	23.728265	-0.000771	-7.709881	-1.306089	0.000077
1035	1.0288e+02	9.7089	23.756525	-0.000284	-2.840483	-0.481191	0.000028
1036	1.0298e+02	9.6989	23.813045	-0.000568	-5.680965	-0.962382	0.000057
1037	1.0308e+02	9.6893	23.817082	-0.000041	-0.405783	-0.068742	0.000004
1038	1.0318e+02	9.6796	23.845342	-0.000284	-2.840483	-0.481191	0.000028
1039	1.0328e+02	9.6693	23.905899	-0.000609	-6.086748	-1.031123	0.000061
1040	1.0338e+02	9.6591	23.946271	-0.000406	-4.057832	-0.687415	0.000041
1041	1.0348e+02	9.6497	23.938196	0.000081	0.811566	0.137483	-0.000008
1042	1.0358e+02	9.6394	23.966456	-0.000284	-2.840483	-0.481191	0.000028
1043	1.0368e+02	9.6297	24.022976	-0.000568	-5.680965	-0.962382	0.000057
1044	1.0378e+02	9.6201	24.055273	-0.000325	-3.246266	-0.549932	0.000032
1045	1.0388e+02	9.6094	24.059310	-0.000041	-0.405783	-0.068742	0.000004
1046	1.0398e+02	9.5996	24.067385	-0.000081	-0.811566	-0.137483	0.000008
1047	1.0408e+02	9.5905	24.107756	-0.000406	-4.057832	-0.687415	0.000041
1048	1.0418e+02	9.5808	24.131979	-0.000243	-2.434699	-0.412449	0.000024
1049	1.0428e+02	9.5705	24.136016	-0.000041	-0.405783	-0.068742	0.000004
1050	1.0438e+02	9.5605	24.172350	-0.000365	-3.652049	-0.618674	0.000037
1051	1.0447e+02	9.5508	24.220796	-0.000487	-4.869399	-0.824898	0.000049
1052	1.0457e+02	9.5410	24.196573	0.000243	2.434699	0.412449	-0.000024
1053	1.0467e+02	9.5301	24.236944	-0.000406	-4.057832	-0.687415	0.000041
1054	1.0477e+02	9.5196	24.269241	-0.000325	-3.246266	-0.549932	0.000032
1055	1.0487e+02	9.5099	24.289427	-0.000203	-2.028916	-0.343708	0.000020
1056	1.0497e+02	9.5007	24.289427	-0.000000	-0.000000	-0.000000	0.000000
1057	1.0507e+02	9.4898	24.317687	-0.000284	-2.840483	-0.481191	0.000028
1058	1.0517e+02	9.4805	24.281353	0.000365	3.652049	0.618674	-0.000037
1059	1.0527e+02	9.4720	24.321724	-0.000406	-4.057832	-0.687415	0.000041
1060	1.0537e+02	9.4615	24.317687	0.000041	0.405783	0.068742	-0.000004
1061	1.0547e+02	9.4508	24.362096	-0.000446	-4.463615	-0.756157	0.000045
1062	1.0557e+02	9.4415	24.370170	-0.000081	-0.811566	-0.137483	0.000008
1063	1.0567e+02	9.4312	24.370170	-0.000000	-0.000000	-0.000000	0.000000
1064	1.0577e+02	9.4218	24.366133	0.000041	0.405783	0.068742	-0.000004
1065	1.0587e+02	9.4116	24.406504	-0.000406	-4.057832	-0.687415	0.000041
1066	1.0597e+02	9.4007	24.422653	-0.000162	-1.623133	-0.274966	0.000016
1067	1.0607e+02	9.3912	24.422653	-0.000000	-0.000000	-0.000000	0.000000
1068	1.0617e+02	9.3812	24.446875	-0.000243	-2.434699	-0.412449	0.000024
1069	1.0627e+02	9.3710	24.414578	0.000325	3.246266	0.549932	-0.000032
1070	1.0637e+02	9.3613	24.463024	-0.000487	-4.869399	-0.824898	0.000049
1071	1.0647e+02	9.3515	24.422653	0.000406	4.057832	0.687415	-0.000041
1072	1.0656e+02	9.3417	24.446875	-0.000243	-2.434699	-0.412449	0.000024
1073	1.0666e+02	9.3314	24.454950	-0.000081	-0.811566	-0.137483	0.000008
1074	1.0676e+02	9.3213	24.475135	-0.000203	-2.028916	-0.343708	0.000020
1075	1.0686e+02	9.3121	24.446875	0.000284	2.840483	0.481191	-0.000028
1076	1.0696e+02	9.3021	24.483210	-0.000365	-3.652049	-0.618674	0.000037
1077	1.0706e+02	9.2921	24.495321	-0.000122	-1.217350	-0.206225	0.000012
1078	1.0716e+02	9.2822	24.471098	0.000243	2.434699	0.412449	-0.000024
1079	1.0726e+02	9.2715	24.515507	-0.000446	-4.463615	-0.756157	0.000045
1080	1.0736e+02	9.2615	24.519544	-0.000041	-0.405783	-0.068742	0.000004
1081	1.0746e+02	9.2529	24.515507	0.000041	0.405783	0.068742	-0.000004
1082	1.0756e+02	9.2424	24.487247	0.000284	2.840483	0.481191	-0.000028
1083	1.0766e+02	9.2328	24.515507	-0.000284	-2.840483	-0.481191	0.000028
1084	1.0776e+02	9.2207	24.491284	0.000243	2.434699	0.412449	-0.000024
1085	1.0786e+02	9.2122	24.547804	-0.000568	-5.680965	-0.962382	0.000057
1086	1.0796e+02	9.2010	24.527618	0.000203	2.028916	0.343708	-0.000020
1087	1.0806e+02	9.1919	24.531655	-0.000041	-0.405783	-0.068742	0.000004
1088	1.0816e+02	9.1821	24.511470	0.000203	2.028916	0.343708	-0.000020
1089	1.0826e+02	9.1724	24.511470	-0.000000	-0.000000	-0.000000	0.000000
1090	1.0836e+02	9.1626	24.535692	-0.000243	-2.434699	-0.412449	0.000024
1091	1.0845e+02	9.1521	24.495321	0.000406	4.057832	0.687415	-0.000041
1092	1.0855e+02	9.1428	24.499358	-0.000041	-0.405783	-0.068742	0.000004
1093	1.0865e+02	9.1333	24.503395	-0.000041	-0.405783	-0.068742	0.000004
1094	1.0875e+02	9.1228	24.527618	-0.000243	-2.434699	-0.412449	0.000024
1095	1.0885e+02	9.1132	24.535692	-0.000081	-0.811566	-0.137483	0.000008
1096	1.0895e+02	9.1024	24.487247	0.000487	4.869399	0.824898	-0.000049
1097	1.0905e+02	9.0928	24.511470	-0.000243	-2.434699	-0.412449	0.000024
1098	1.0915e+02	9.0821	24.483210	0.000284	2.840483	0.481191	-0.000028
1099	1.0925e+02	9.0726	24.475135	0.000081	0.811566	0.137483	-0.000008
1100	1.0935e+02	9.0637	24.491284	-0.000162	-1.623133	-0.274966	0.000016
1101	1.0945e+02	9.0527	24.487247	0.000041	0.405783	0.068742	-0.000004
1102	1.0955e+02	9.0433	24.479173	0.000081	0.811566	0.137483	-0.000008
1103	1.0965e+02	9.0332	24.475135	0.000041	0.405783	0.068742	-0.000004
1104	1.0975e+02	9.0237	24.434764	0.000406	4.057832	0.687415	-0.000041
1105	1.0985e+02	9.0123	24.446875	-0.000122	-1.217350	-0.206225	0.000012
1106	1.0995e+02	9.0043	24.414578	0.000325	3.246266	0.549932	-0.000032
1107	1.1005e+02	8.9931	24.398430	0.000162	1.623133	0.274966	-0.000016
1108	1.1015e+02	8.9838	24.402467	-0.000041	-0.405783	-0.068742	0.000004
1109	1.1025e+02	8.9738	24.386318	0.000162	1.623133	0.274966	-0.000016
1110	1.1035e+02	8.9634	24.390356	-0.000041	-0.405783	-0.068742	0.000004
1111	1.1044e+02	8.9542	24.374207	0.000162	1.623133	0.274966	-0.000016
1112	1.1054e+02	8.9435	24.374207	-0.000000	-0.000000	-0.000000	0.000000
1113	1.1064e+02	8.9331	24.349984	0.000243	2.434699	0.412449	-0.000024
1114	1.1074e+02	8.9230	24.341910	0.000081	0.811566	0.137483	-0.000008
1115	1.1084e+02	8.9130	24.337873	0.000041	0.405783	0.068742	-0.000004
1116	1.1094e+02	8.9045	24.305576	0.000325	3.246266	0.549932	-0.000032
1117	1.1104e+02	8.8931	24.317687	-0.000122	-1.217350	-0.206225	0.000012
1118	1.1114e+02	8.8831	24.293464	0.000243	2.434699	0.412449	-0.000024
1119	1.1124e+02	8.8740	24.269241	0.000243	2.434699	0.412449	-0.000024
1120	1.1134e+02	8.8641	24.265204	0.000041	0.405783	0.068742	-0.000004
1121	1.1144e+02	8.8544	24.245019	0.000203	2.028916	0.343708	-0.000020
1122	1.1154e+02	8.8441	24.261167	-0.000162	-1.623133	-0.274966	0.000016
1123	1.1164e+02	8.8347	24.240982	0.000203	2.028916	0.343708	-0.000020
1124	1.1174e+02	8.8245	24.196573	0.000446	4.463615	0.756157	-0.000045
1125	1.1184e+02	8.8149	24.180425	0.000162	1.623133	0.274966	-0.000016
1126	1.1194e+02	8.8050	24.180425	-0.000000	-0.000000	-0.000000	0.000000
1127	1.1204e+02	8.7954	24.164276	0.000162	1.623133	0.274966	-0.000016
1128	1.1214e+02	8.7857	24.131979	0.000325	3.246266	0.549932	-0.000032
1129	1.1224e+02	8.7749	24.083533	0.000487	4.869399	0.824898	-0.000049
1130	1.1234e+02	8.7653	24.111793	-0.000284	-2.840483	-0.481191	0.000028
1131	1.1244e+02	8.7555	24.103719	0.000081	0.811566	0.137483	-0.000008
1132	1.1253e+02	8.7451	24.067385	0.000365	3.652049	0.618674	-0.000037
1133	1.1263e+02	8.7354	24.039125	0.000284	2.840483	0.481191	-0.000028
1134	1.1273e+02	8.7256	24.063348	-0.000243	-2.434699	-0.412449	0.000024
1135	1.1283e+02	8.7151	24.027013	0.000365	3.652049	0.618674	-0.000037
1136	1.1293e+02	8.7055	24.010865	0.000162	1.623133	0.274966	-0.000016
1137	1.1303e+02	8.6963	23.994716	0.000162	1.623133	0.274966	-0.000016
1138	1.1313e+02	8.6865	23.966456	0.000284	2.840483	0.481191	-0.000028
1139	1.1323e+02	8.6758	23.926085	0.000406	4.057832	0.687415	-0.000041
1140	1.1333e+02	8.6670	23.942233	-0.000162	-1.623133	-0.274966	0.000016
1141	1.1343e+02	8.6561	23.942233	-0.000000	-0.000000	-0.000000	0.000000
1142	1.1353e+02	8.6452	23.881676	0.000609	6.086748	1.031123	-0.000061
1143	1.1363e+02	8.6356	23.877639	0.000041	0.405783	0.068742	-0.000004
1144	1.1373e+02	8.6243	23.849379	0.000284	2.840483	0.481191	-0.000028
1145	1.1383e+02	8.6157	23.833231	0.000162	1.623133	0.274966	-0.000016
1146	1.1393e+02	8.6052	23.825157	0.000081	0.811566	0.137483	-0.000008
1147	1.1403e+02	8.5964	23.792859	0.000325	3.246266	0.549932	-0.000032
1148	1.1413e+02	8.5855	23.792859	-0.000000	-0.000000	-0.000000	0.000000
1149	1.1423e+02	8.5761	23.768637	0.000243	2.434699	0.412449	-0.000024
1150	1.1433e+02	8.5649	23.724228	0.000446	4.463615	0.756157	-0.000045
1151	1.1442e+02	8.5556	23.708080	0.000162	1.623133	0.274966	-0.000016
1152	1.1452e+02	8.5455	23.647523	0.000609	6.086748	1.031123	-0.000061
1153	1.1462e+02	8.5361	23.651560	-0.000041	-0.405783	-0.068742	0.000004
1154	1.1472e+02	8.5260	23.639448	0.000122	1.217350	0.206225	-0.000012
1155	1.1482e+02	8.5166	23.631374	0.000081	0.811566	0.137483	-0.000008
1156	1.1492e+02	8.5068	23.595040	0.000365	3.652049	0.618674	-0.000037
1157	1.1502e+02	8.4954	23.566780	0.000284	2.840483	0.481191	-0.000028
1158	1.1512e+02	8.4874	23.542557	0.000243	2.434699	0.412449	-0.000024
1159	1.1522e+02	8.4772	23.542557	-0.000000	-0.000000	-0.000000	0.000000
1160	1.1532e+02	8.4666	23.498149	0.000446	4.463615	0.756157	-0.000045
1161	1.1542e+02	8.4581	23.490074	0.000081	0.811566	0.137483	-0.000008
1162	1.1552e+02	8.4470	23.429517	0.000609	6.086748	1.031123	-0.000061
1163	1.1562e+02	8.4375	23.465851	-0.000365	-3.652049	-0.618674	0.000037
1164	1.1572e+02	8.4265	23.473926	-0.000081	-0.811566	-0.137483	0.000008
1165	1.1582e+02	8.4168	23.401257	0.000730	7.304098	1.237348	-0.000073
1166	1.1592e+02	8.4068	23.377034	0.000243	2.434699	0.412449	-0.000024
1167	1.1602e+02	8.3974	23.308403	0.000690	6.898315	1.168606	-0.000069
1168	1.1612e+02	8.3877	23.312440	-0.000041	-0.405783	-0.068742	0.000004
1169	1.1622e+02	8.3772	23.276106	0.000365	3.652049	0.618674	-0.000037
1170	1.1632e+02	8.3673	23.255920	0.000203	2.028916	0.343708	-0.000020
1171	1.1642e+02	8.3572	23.247846	0.000081	0.811566	0.137483	-0.000008
1172	1.1651e+02	8.3465	23.195363	0.000528	5.275182	0.893640	-0.000053
1173	1.1661e+02	8.3371	23.211512	-0.000162	-1.623133	-0.274966	0.000016
1174	1.1671e+02	8.3276	23.159029	0.000528	5.275182	0.893640	-0.000053
1175	1.1681e+02	8.3167	23.171141	-0.000122	-1.217350	-0.206225	0.000012
1176	1.1691e+02	8.3073	23.118658	0.000528	5.275182	0.893640	-0.000053
1177	1.1701e+02	8.2975	23.102509	0.000162	1.623133	0.274966	-0.000016
1178	1.1711e+02	8.2888	23.098472	0.000041	0.405783	0.068742	-0.000004
1179	1.1721e+02	8.2778	23.054064	0.000446	4.463615	0.756157	-0.000045
1180	1.1731e+02	8.2666	23.029841	0.000243	2.434699	0.412449	-0.000024
1181	1.1741e+02	8.2574	23.050026	-0.000203	-2.028916	-0.343708	0.000020
1182	1.1751e+02	8.2481	22.973321	0.000771	7.709881	1.306089	-0.000077
1183	1.1761e+02	8.2374	22.961210	0.000122	1.217350	0.206225	-0.000012
1184	1.1771e+02	8.2264	22.896615	0.000649	6.492532	1.099865	-0.000065
1185	1.1781e+02	8.2185	22.908727	-0.000122	-1.217350	-0.206225	0.000012
1186	1.1791e+02	8.2080	22.904690	0.000041	0.405783	0.068742	-0.000004
1187	1.1801e+02	8.1979	22.852207	0.000528	5.275182	0.893640	-0.000053
1188	1.1811e+02	8.1885	22.864318	-0.000122	-1.217350	-0.206225	0.000012
1189	1.1821e+02	8.1775	22.783576	0.000812	8.115664	1.374831	-0.000081
1190	1.1831e+02	8.1689	22.771464	0.000122	1.217350	0.206225	-0.000012
1191	1.1841e+02	8.1592	22.775501	-0.000041	-0.405783	-0.068742	0.000004
1192	1.1850e+02	8.1462	22.739167	0.000365	3.652049	0.618674	-0.000037
1193	1.1860e+02	8.1387	22.727056	0.000122	1.217350	0.206225	-0.000012
1194	1.1870e+02	8.1280	22.710907	0.000162	1.623133	0.274966	-0.000016
1195	1.1880e+02	8.1184	22.642276	0.000690	6.898315	1.168606	-0.000069
1196	1.1890e+02	8.1079	22.662461	-0.000203	-2.028916	-0.343708	0.000020
1197	1.1900e+02	8.0978	22.626127	0.000365	3.652049	0.618674	-0.000037
1198	1.1910e+02	8.0889	22.605942	0.000203	2.028916	0.343708	-0.000020
1199	1.1920e+02	8.0788	22.565570	0.000406	4.057832	0.687415	-0.000041
1200	1.1930e+02	8.0694	22.557496	0.000081	0.811566	0.137483	-0.000008
1201	1.1940e+02	8.0594	22.537310	0.000203	2.028916	0.343708	-0.000020
1202	1.1950e+02	8.0485	22.517125	0.000203	2.028916	0.343708	-0.000020
1203	1.1960e+02	8.0390	22.464642	0.000528	5.275182	0.893640	-0.000053
1204	1.1970e+02	8.0284	22.464642	-0.000000	-0.000000	-0.000000	0.000000
1205	1.1980e+02	8.0181	22.428308	0.000365	3.652049	0.618674	-0.000037
1206	1.1990e+02	8.0099	22.391973	0.000365	3.652049	0.618674	-0.000037
1207	1.2000e+02	7.9989	22.400048	-0.000081	-0.811566	-0.137483	0.000008
1208	1.2010e+02	7.9892	22.335453	0.000649	6.492532	1.099865	-0.000065
1209	1.2020e+02	7.9787	22.363713	-0.000284	-2.840483	-0.481191	0.000028
1210	1.2030e+02	7.9696	22.307194	0.000568	5.680965	0.962382	-0.000057
1211	1.2039e+02	7.9594	22.291045	0.000162	1.623133	0.274966	-0.000016
1212	1.2049e+02	7.9485	22.234525	0.000568	5.680965	0.962382	-0.000057
1213	1.2059e+02	7.9395	22.222414	0.000122	1.217350	0.206225	-0.000012
1214	1.2069e+02	7.9279	22.202228	0.000203	2.028916	0.343708	-0.000020
1215	1.2079e+02	7.9202	22.202228	-0.000000	-0.000000	-0.000000	0.000000
1216	1.2089e+02	7.9088	22.169931	0.000325	3.246266	0.549932	-0.000032
1217	1.2099e+02	7.8996	22.145708	0.000243	2.434699	0.412449	-0.000024
1218	1.2109e+02	7.8893	22.133597	0.000122	1.217350	0.206225	-0.000012
1219	1.2119e+02	7.8813	22.117448	0.000162	1.623133	0.274966	-0.000016
1220	1.2129e+02	7.8698	22.077077	0.000406	4.057832	0.687415	-0.000041
1221	1.2139e+02	7.8603	22.077077	-0.000000	-0.000000	-0.000000	0.000000
1222	1.2149e+02	7.8488	22.024594	0.000528	5.275182	0.893640	-0.000053
1223	1.2159e+02	7.8399	22.028631	-0.000041	-0.405783	-0.068742	0.000004
1224	1.2169e+02	7.8294	21.964037	0.000649	6.492532	1.099865	-0.000065
1225	1.2179e+02	7.8199	21.927703	0.000365	3.652049	0.618674	-0.000037
1226	1.2189e+02	7.8101	21.919628	0.000081	0.811566	0.137483	-0.000008
1227	1.2199e+02	7.7999	21.915591	0.000041	0.405783	0.068742	-0.000004
1228	1.2209e+02	7.7902	21.899443	0.000162	1.623133	0.274966	-0.000016
1229	1.2219e+02	7.7802	21.875220	0.000243	2.434699	0.412449	-0.000024
1230	1.2229e+02	7.7702	21.810626	0.000649	6.492532	1.099865	-0.000065
1231	1.2239e+02	7.7608	21.822737	-0.000122	-1.217350	-0.206225	0.000012
1232	1.2248e+02	7.7496	21.770254	0.000528	5.275182	0.893640	-0.000053
1233	1.2258e+02	7.7412	21.762180	0.000081	0.811566	0.137483	-0.000008
1234	1.2268e+02	7.7291	21.762180	-0.000000	-0.000000	-0.000000	0.000000
1235	1.2278e+02	7.7203	21.681437	0.000812	8.115664	1.374831	-0.000081
1236	1.2288e+02	7.7100	21.677400	0.000041	0.405783	0.068742	-0.000004
1237	1.2298e+02	7.7007	21.649140	0.000284	2.840483	0.481191	-0.000028
1238	1.2308e+02	7.6911	21.649140	-0.000000	-0.000000	-0.000000	0.000000
1239	1.2318e+02	7.6800	21.604732	0.000446	4.463615	0.756157	-0.000045
1240	1.2328e+02	7.6712	21.576472	0.000284	2.840483	0.481191	-0.000028
1241	1.2338e+02	7.6611	21.584546	-0.000081	-0.811566	-0.137483	0.000008
1242	1.2348e+02	7.6504	21.532063	0.000528	5.275182	0.893640	-0.000053
1243	1.2358e+02	7.6401	21.507841	0.000243	2.434699	0.412449	-0.000024
1244	1.2368e+02	7.6315	21.507841	-0.000000	-0.000000	-0.000000	0.000000
1245	1.2378e+02	7.6206	21.491692	0.000162	1.623133	0.274966	-0.000016
1246	1.2388e+02	7.6104	21.479581	0.000122	1.217350	0.206225	-0.000012
1247	1.2398e+02	7.6006	21.455358	0.000243	2.434699	0.412449	-0.000024
1248	1.2408e+02	7.5909	21.402875	0.000528	5.275182	0.893640	-0.000053
1249	1.2418e+02	7.5802	21.382689	0.000203	2.028916	0.343708	-0.000020
1250	1.2428e+02	7.5708	21.346355	0.000365	3.652049	0.618674	-0.000037
1251	1.2438e+02	7.5613	21.350392	-0.000041	-0.405783	-0.068742	0.000004
1252	1.2447e+02	7.5506	21.277724	0.000730	7.304098	1.237348	-0.000073
1253	1.2457e+02	7.5410	21.269650	0.000081	0.811566	0.137483	-0.000008
1254	1.2467e+02	7.5312	21.253501	0.000162	1.623133	0.274966	-0.000016
1255	1.2477e+02	7.5217	21.249464	0.000041	0.405783	0.068742	-0.000004
1256	1.2487e+02	7.5122	21.225241	0.000243	2.434699	0.412449	-0.000024
1257	1.2497e+02	7.5016	21.148536	0.000771	7.709881	1.306089	-0.000077
1258	1.2507e+02	7.4917	21.140461	0.000081	0.811566	0.137483	-0.000008
1259	1.2517e+02	7.4819	21.132387	0.000081	0.811566	0.137483	-0.000008
1260	1.2527e+02	7.4711	21.092016	0.000406	4.057832	0.687415	-0.000041
1261	1.2537e+02	7.4616	21.092016	-0.000000	-0.000000	-0.000000	0.000000
1262	1.2547e+02	7.4519	21.059719	0.000325	3.246266	0.549932	-0.000032
1263	1.2557e+02	7.4425	21.011273	0.000487	4.869399	0.824898	-0.000049
1264	1.2567e+02	7.4317	21.007236	0.000041	0.405783	0.068742	-0.000004
1265	1.2577e+02	7.4228	20.983013	0.000243	2.434699	0.412449	-0.000024
1266	1.2587e+02	7.4111	20.926493	0.000568	5.680965	0.962382	-0.000057
1267	1.2597e+02	7.4016	20.922456	0.000041	0.405783	0.068742	-0.000004
1268	1.2607e+02	7.3908	20.906307	0.000162	1.623133	0.274966	-0.000016
1269	1.2617e+02	7.3812	20.894196	0.000122	1.217350	0.206225	-0.000012
1270	1.2627e+02	7.3714	20.857862	0.000365	3.652049	0.618674	-0.000037
1271	1.2636e+02	7.3641	20.793268	0.000649	6.492532	1.099865	-0.000065
1272	1.2646e+02	7.3528	20.781156	0.000122	1.217350	0.206225	-0.000012
1273	1.2656e+02	7.3421	20.748859	0.000325	3.246266	0.549932	-0.000032
1274	1.2666e+02	7.3321	20.688302	0.000609	6.086748	1.031123	-0.000061
1275	1.2676e+02	7.3226	20.688302	-0.000000	-0.000000	-0.000000	0.000000
1276	1.2686e+02	7.3129	20.724636	-0.000365	-3.652049	-0.618674	0.000037
1277	1.2696e+02	7.3019	20.664079	0.000609	6.086748	1.031123	-0.000061
1278	1.2706e+02	7.2936	20.627745	0.000365	3.652049	0.618674	-0.000037
1279	1.2716e+02	7.2828	20.571225	0.000568	5.680965	0.962382	-0.000057
1280	1.2726e+02	7.2723	20.551039	0.000203	2.028916	0.343708	-0.000020
1281	1.2736e+02	7.2628	20.542965	0.000081	0.811566	0.137483	-0.000008
1282	1.2746e+02	7.2525	20.498557	0.000446	4.463615	0.756157	-0.000045
1283	1.2756e+02	7.2430	20.478371	0.000203	2.028916	0.343708	-0.000020
1284	1.2766e+02	7.2320	20.425888	0.000528	5.275182	0.893640	-0.000053
1285	1.2776e+02	7.2231	20.417814	0.000081	0.811566	0.137483	-0.000008
1286	1.2786e+02	7.2123	20.405703	0.000122	1.217350	0.206225	-0.000012
1287	1.2796e+02	7.2023	20.361294	0.000446	4.463615	0.756157	-0.000045
1288	1.2806e+02	7.1935	20.328997	0.000325	3.246266	0.549932	-0.000032
1289	1.2816e+02	7.1841	20.288626	0.000406	4.057832	0.687415	-0.000041
1290	1.2826e+02	7.1719	20.264403	0.000243	2.434699	0.412449	-0.000024
1291	1.2835e+02	7.1636	20.232106	0.000325	3.246266	0.549932	-0.000032
1292	1.2845e+02	7.1542	20.240180	-0.000081	-0.811566	-0.137483	0.000008
1293	1.2855e+02	7.1428	20.195772	0.000446	4.463615	0.756157	-0.000045
1294	1.2865e+02	7.1328	20.094843	0.001014	10.144581	1.718538	-0.000101
1295	1.2875e+02	7.1241	20.135214	-0.000406	-4.057832	-0.687415	0.000041
1296	1.2885e+02	7.1132	20.094843	0.000406	4.057832	0.687415	-0.000041
1297	1.2895e+02	7.1022	20.090806	0.000041	0.405783	0.068742	-0.000004
1298	1.2905e+02	7.0930	20.042360	0.000487	4.869399	0.824898	-0.000049
1299	1.2915e+02	7.0840	20.030249	0.000122	1.217350	0.206225	-0.000012
1300	1.2925e+02	7.0738	19.985840	0.000446	4.463615	0.756157	-0.000045
1301	1.2935e+02	7.0638	19.957581	0.000284	2.840483	0.481191	-0.000028
1302	1.2945e+02	7.0541	19.905098	0.000528	5.275182	0.893640	-0.000053
1303	1.2955e+02	7.0442	19.909135	-0.000041	-0.405783	-0.068742	0.000004
1304	1.2965e+02	7.0329	19.820318	0.000893	8.927231	1.512314	-0.000089
1305	1.2975e+02	7.0238	19.840504	-0.000203	-2.028916	-0.343708	0.000020
1306	1.2985e+02	7.0135	19.788021	0.000528	5.275182	0.893640	-0.000053
1307	1.2995e+02	7.0039	19.751687	0.000365	3.652049	0.618674	-0.000037
1308	1.3005e+02	6.9946	19.723427	0.000284	2.840483	0.481191	-0.000028
1309	1.3015e+02	6.9839	19.687092	0.000365	3.652049	0.618674	-0.000037
1310	1.3025e+02	6.9752	19.691130	-0.000041	-0.405783	-0.068742	0.000004
1311	1.3034e+02	6.9643	19.630573	0.000609	6.086748	1.031123	-0.000061
1312	1.3044e+02	6.9543	19.561941	0.000690	6.898315	1.168606	-0.000069
1313	1.3054e+02	6.9448	19.574053	-0.000122	-1.217350	-0.206225	0.000012
1314	1.3064e+02	6.9337	19.553867	0.000203	2.028916	0.343708	-0.000020
1315	1.3074e+02	6.9250	19.501384	0.000528	5.275182	0.893640	-0.000053
1316	1.3084e+02	6.9125	19.505421	-0.000041	-0.405783	-0.068742	0.000004
1317	1.3094e+02	6.9043	19.461013	0.000446	4.463615	0.756157	-0.000045
1318	1.3104e+02	6.8937	19.416604	0.000446	4.463615	0.756157	-0.000045
1319	1.3114e+02	6.8842	19.408530	0.000081	0.811566	0.137483	-0.000008
1320	1.3124e+02	6.8758	19.311639	0.000974	9.738797	1.649797	-0.000097
1321	1.3134e+02	6.8638	19.319713	-0.000081	-0.811566	-0.137483	0.000008
1322	1.3144e+02	6.8543	19.287416	0.000325	3.246266	0.549932	-0.000032
1323	1.3154e+02	6.8452	19.243007	0.000446	4.463615	0.756157	-0.000045
1324	1.3164e+02	6.8353	19.202636	0.000406	4.057832	0.687415	-0.000041
1325	1.3174e+02	6.8250	19.174376	0.000284	2.840483	0.481191	-0.000028
1326	1.3184e+02	6.8148	19.121893	0.000528	5.275182	0.893640	-0.000053
1327	1.3194e+02	6.8052	19.109782	0.000122	1.217350	0.206225	-0.000012
1328	1.3204e+02	6.7947	19.089596	0.000203	2.028916	0.343708	-0.000020
1329	1.3214e+02	6.7850	19.033076	0.000568	5.680965	0.962382	-0.000057
1330	1.3224e+02	6.7761	19.012891	0.000203	2.028916	0.343708	-0.000020
1331	1.3234e+02	6.7654	18.960408	0.000528	5.275182	0.893640	-0.000053
1332	1.3243e+02	6.7551	18.944259	0.000162	1.623133	0.274966	-0.000016
1333	1.3253e+02	6.7439	18.944259	-0.000000	-0.000000	-0.000000	0.000000
1334	1.3263e+02	6.7351	18.867554	0.000771	7.709881	1.306089	-0.000077
1335	1.3273e+02	6.7252	18.859480	0.000081	0.811566	0.137483	-0.000008
1336	1.3283e+02	6.7159	18.786811	0.000730	7.304098	1.237348	-0.000073
1337	1.3293e+02	6.7056	18.778737	0.000081	0.811566	0.137483	-0.000008
1338	1.3303e+02	6.6967	18.774700	0.000041	0.405783	0.068742	-0.000004
1339	1.3313e+02	6.6856	18.706068	0.000690	6.898315	1.168606	-0.000069
1340	1.3323e+02	6.6766	18.677808	0.000284	2.840483	0.481191	-0.000028
1341	1.3333e+02	6.6659	18.653586	0.000243	2.434699	0.412449	-0.000024
1342	1.3343e+02	6.6555	18.637437	0.000162	1.623133	0.274966	-0.000016
1343	1.3353e+02	6.6463	18.605140	0.000325	3.246266	0.549932	-0.000032
1344	1.3363e+02	6.6352	18.580917	0.000243	2.434699	0.412449	-0.000024
1345	1.3373e+02	6.6261	18.532472	0.000487	4.869399	0.824898	-0.000049
1346	1.3383e+02	6.6145	18.463840	0.000690	6.898315	1.168606	-0.000069
1347	1.3393e+02	6.6064	18.443655	0.000203	2.028916	0.343708	-0.000020
1348	1.3403e+02	6.5961	18.407320	0.000365	3.652049	0.618674	-0.000037
1349	1.3413e+02	6.5865	18.399246	0.000081	0.811566	0.137483	-0.000008
1350	1.3423e+02	6.5765	18.375023	0.000243	2.434699	0.412449	-0.000024
1351	1.3432e+02	6.5656	18.338689	0.000365	3.652049	0.618674	-0.000037
1352	1.3442e+02	6.5548	18.290243	0.000487	4.869399	0.824898	-0.000049
1353	1.3452e+02	6.5466	18.253909	0.000365	3.652049	0.618674	-0.000037
1354	1.3462e+02	6.5363	18.278132	-0.000243	-2.434699	-0.412449	0.000024
1355	1.3472e+02	6.5270	18.177204	0.001014	10.144581	1.718538	-0.000101
1356	1.3482e+02	6.5166	18.169129	0.000081	0.811566	0.137483	-0.000008
1357	1.3492e+02	6.5063	18.169129	-0.000000	-0.000000	-0.000000	0.000000
1358	1.3502e+02	6.4961	18.088387	0.000812	8.115664	1.374831	-0.000081
1359	1.3512e+02	6.4855	18.068201	0.000203	2.028916	0.343708	-0.000020
1360	1.3522e+02	6.4761	18.048015	0.000203	2.028916	0.343708	-0.000020
1361	1.3532e+02	6.4665	17.995533	0.000528	5.275182	0.893640	-0.000053
1362	1.3542e+02	6.4574	17.987458	0.000081	0.811566	0.137483	-0.000008
1363	1.3552e+02	6.4471	17.939013	0.000487	4.869399	0.824898	-0.000049
1364	1.3562e+02	6.4370	17.926901	0.000122	1.217350	0.206225	-0.000012
1365	1.3572e+02	6.4272	17.870381	0.000568	5.680965	0.962382	-0.000057
1366	1.3582e+02	6.4175	17.850196	0.000203	2.028916	0.343708	-0.000020
1367	1.3592e+02	6.4064	17.834047	0.000162	1.623133	0.274966	-0.000016
1368	1.3602e+02	6.3947	17.830010	0.000041	0.405783	0.068742	-0.000004
1369	1.3612e+02	6.3867	17.777527	0.000528	5.275182	0.893640	-0.000053
1370	1.3622e+02	6.3765	17.729082	0.000487	4.869399	0.824898	-0.000049
1371	1.3631e+02	6.3677	17.721007	0.000081	0.811566	0.137483	-0.000008
1372	1.3641e+02	6.3580	17.688710	0.000325	3.246266	0.549932	-0.000032
1373	1.3651e+02	6.3469	17.616042	0.000730	7.304098	1.237348	-0.000073
1374	1.3661e+02	6.3378	17.624116	-0.000081	-0.811566	-0.137483	0.000008
1375	1.3671e+02	6.3271	17.555485	0.000690	6.898315	1.168606	-0.000069
1376	1.3681e+02	6.3165	17.523188	0.000325	3.246266	0.549932	-0.000032
1377	1.3691e+02	6.3064	17.503002	0.000203	2.028916	0.343708	-0.000020
1378	1.3701e+02	6.2983	17.503002	-0.000000	-0.000000	-0.000000	0.000000
1379	1.3711e+02	6.2881	17.422259	0.000812	8.115664	1.374831	-0.000081
1380	1.3721e+02	6.2771	17.422259	-0.000000	-0.000000	-0.000000	0.000000
1381	1.3731e+02	6.2688	17.369777	0.000528	5.275182	0.893640	-0.000053
1382	1.3741e+02	6.2576	17.369777	-0.000000	-0.000000	-0.000000	0.000000
1383	1.3751e+02	6.2482	17.317294	0.000528	5.275182	0.893640	-0.000053
1384	1.3761e+02	6.2389	17.321331	-0.000041	-0.405783	-0.068742	0.000004
1385	1.3771e+02	6.2286	17.264811	0.000568	5.680965	0.962382	-0.000057
1386	1.3781e+02	6.2192	17.260774	0.000041	0.405783	0.068742	-0.000004
1387	1.3791e+02	6.2081	17.188105	0.000730	7.304098	1.237348	-0.000073
1388	1.3801e+02	6.1993	17.175994	0.000122	1.217350	0.206225	-0.000012
1389	1.3811e+02	6.1880	17.171957	0.000041	0.405783	0.068742	-0.000004
1390	1.3821e+02	6.1787	17.103326	0.000690	6.898315	1.168606	-0.000069
1391	1.3831e+02	6.1695	17.079103	0.000243	2.434699	0.412449	-0.000024
1392	1.3840e+02	6.1590	17.034694	0.000446	4.463615	0.756157	-0.000045
1393	1.3850e+02	6.1480	17.002397	0.000325	3.246266	0.549932	-0.000032
1394	1.3860e+02	6.1393	16.998360	0.000041	0.405783	0.068742	-0.000004
1395	1.3870e+02	6.1294	16.974137	0.000243	2.434699	0.412449	-0.000024
1396	1.3880e+02	6.1189	16.957989	0.000162	1.623133	0.274966	-0.000016
1397	1.3890e+02	6.1088	16.937803	0.000203	2.028916	0.343708	-0.000020
1398	1.3900e+02	6.0986	16.877246	0.000609	6.086748	1.031123	-0.000061
1399	1.3910e+02	6.0886	16.832837	0.000446	4.463615	0.756157	-0.000045
1400	1.3920e+02	6.0802	16.828800	0.000041	0.405783	0.068742	-0.000004
1401	1.3930e+02	6.0697	16.780355	0.000487	4.869399	0.824898	-0.000049
1402	1.3940e+02	6.0584	16.760169	0.000203	2.028916	0.343708	-0.000020
1403	1.3950e+02	6.0496	16.735946	0.000243	2.434699	0.412449	-0.000024
1404	1.3960e+02	6.0400	16.699612	0.000365	3.652049	0.618674	-0.000037
1405	1.3970e+02	6.0290	16.671352	0.000284	2.840483	0.481191	-0.000028
1406	1.3980e+02	6.0197	16.663278	0.000081	0.811566	0.137483	-0.000008
1407	1.3990e+02	6.0105	16.602721	0.000609	6.086748	1.031123	-0.000061
1408	1.4000e+02	5.9994	16.570424	0.000325	3.246266	0.549932	-0.000032
1409	1.4010e+02	5.9896	16.574461	-0.000041	-0.405783	-0.068742	0.000004
1410	1.4020e+02	5.9792	16.505829	0.000690	6.898315	1.168606	-0.000069
1411	1.4029e+02	5.9698	16.469495	0.000365	3.652049	0.618674	-0.000037
1412	1.4039e+02	5.9588	16.465458	0.000041	0.405783	0.068742	-0.000004
1413	1.4049e+02	5.9495	16.429124	0.000365	3.652049	0.618674	-0.000037
1414	1.4059e+02	5.9400	16.396827	0.000325	3.246266	0.549932	-0.000032
1415	1.4069e+02	5.9298	16.352418	0.000446	4.463615	0.756157	-0.000045
1416	1.4079e+02	5.9199	16.352418	-0.000000	-0.000000	-0.000000	0.000000
1417	1.4089e+02	5.9100	16.279750	0.000730	7.304098	1.237348	-0.000073
1418	1.4099e+02	5.8997	16.275713	0.000041	0.405783	0.068742	-0.000004
1419	1.4109e+02	5.8904	16.259564	0.000162	1.623133	0.274966	-0.000016
1420	1.4119e+02	5.8807	16.223230	0.000365	3.652049	0.618674	-0.000037
1421	1.4129e+02	5.8698	16.186896	0.000365	3.652049	0.618674	-0.000037
1422	1.4139e+02	5.8596	16.178821	0.000081	0.811566	0.137483	-0.000008
1423	1.4149e+02	5.8499	16.162673	0.000162	1.623133	0.274966	-0.000016
1424	1.4159e+02	5.8400	16.110190	0.000528	5.275182	0.893640	-0.000053
1425	1.4169e+02	5.8300	16.053670	0.000568	5.680965	0.962382	-0.000057
1426	1.4179e+02	5.8196	16.009262	0.000446	4.463615	0.756157	-0.000045
1427	1.4189e+02	5.8099	16.021373	-0.000122	-1.217350	-0.206225	0.000012
1428	1.4199e+02	5.7996	15.960816	0.000609	6.086748	1.031123	-0.000061
1429	1.4209e+02	5.7910	15.948705	0.000122	1.217350	0.206225	-0.000012
1430	1.4219e+02	5.7807	15.896222	0.000528	5.275182	0.893640	-0.000053
1431	1.4228e+02	5.7711	15.867962	0.000284	2.840483	0.481191	-0.000028
1432	1.4238e+02	5.7592	15.855851	0.000122	1.217350	0.206225	-0.000012
1433	1.4248e+02	5.7504	15.807405	0.000487	4.869399	0.824898	-0.000049
1434	1.4258e+02	5.7418	15.783182	0.000243	2.434699	0.412449	-0.000024
1435	1.4268e+02	5.7314	15.779145	0.000041	0.405783	0.068742	-0.000004
1436	1.4278e+02	5.7211	15.698402	0.000812	8.115664	1.374831	-0.000081
1437	1.4288e+02	5.7116	15.710514	-0.000122	-1.217350	-0.206225	0.000012
1438	1.4298e+02	5.7008	15.678217	0.000325	3.246266	0.549932	-0.000032
1439	1.4308e+02	5.6907	15.617660	0.000609	6.086748	1.031123	-0.000061
1440	1.4318e+02	5.6802	15.581325	0.000365	3.652049	0.618674	-0.000037
1441	1.4328e+02	5.6707	15.528843	0.000528	5.275182	0.893640	-0.000053
1442	1.4338e+02	5.6605	15.557103	-0.000284	-2.840483	-0.481191	0.000028
1443	1.4348e+02	5.6516	15.512694	0.000446	4.463615	0.756157	-0.000045
1444	1.4358e+02	5.6417	15.440026	0.000730	7.304098	1.237348	-0.000073
1445	1.4368e+02	5.6314	15.407729	0.000325	3.246266	0.549932	-0.000032
1446	1.4378e+02	5.6216	15.395617	0.000122	1.217350	0.206225	-0.000012
1447	1.4388e+02	5.6121	15.351209	0.000446	4.463615	0.756157	-0.000045
1448	1.4398e+02	5.6020	15.302763	0.000487	4.869399	0.824898	-0.000049
1449	1.4408e+02	5.5926	15.282577	0.000203	2.028916	0.343708	-0.000020
1450	1.4418e+02	5.5818	15.254317	0.000284	2.840483	0.481191	-0.000028
1451	1.4428e+02	5.5718	15.230095	0.000243	2.434699	0.412449	-0.000024
1452	1.4437e+02	5.5611	15.185686	0.000446	4.463615	0.756157	-0.000045
1453	1.4447e+02	5.5517	15.137240	0.000487	4.869399	0.824898	-0.000049
1454	1.4457e+02	5.5427	15.108980	0.000284	2.840483	0.481191	-0.000028
1455	1.4467e+02	5.5328	15.060535	0.000487	4.869399	0.824898	-0.000049
1456	1.4477e+02	5.5220	15.040349	0.000203	2.028916	0.343708	-0.000020
1457	1.4487e+02	5.5114	15.004015	0.000365	3.652049	0.618674	-0.000037
1458	1.4497e+02	5.5026	14.967681	0.000365	3.652049	0.618674	-0.000037
1459	1.4507e+02	5.4921	14.911161	0.000568	5.680965	0.962382	-0.000057
1460	1.4517e+02	5.4815	14.890975	0.000203	2.028916	0.343708	-0.000020
1461	1.4527e+02	5.4726	14.822344	0.000690	6.898315	1.168606	-0.000069
1462	1.4537e+02	5.4626	14.870789	-0.000487	-4.869399	-0.824898	0.000049
1463	1.4547e+02	5.4513	14.786010	0.000852	8.521448	1.443572	-0.000085
1464	1.4557e+02	5.4424	14.786010	-0.000000	-0.000000	-0.000000	0.000000
1465	1.4567e+02	5.4317	14.749675	0.000365	3.652049	0.618674	-0.000037
1466	1.4577e+02	5.4218	14.677007	0.000730	7.304098	1.237348	-0.000073
1467	1.4587e+02	5.4118	14.664896	0.000122	1.217350	0.206225	-0.000012
1468	1.4597e+02	5.4026	14.604339	0.000609	6.086748	1.031123	-0.000061
1469	1.4607e+02	5.3920	14.531670	0.000730	7.304098	1.237348	-0.000073
1470	1.4617e+02	5.3826	14.531670	-0.000000	-0.000000	-0.000000	0.000000
1471	1.4626e+02	5.3727	14.511484	0.000203	2.028916	0.343708	-0.000020
1472	1.4636e+02	5.3624	14.471113	0.000406	4.057832	0.687415	-0.000041
1473	1.4646e+02	5.3527	14.434779	0.000365	3.652049	0.618674	-0.000037
1474	1.4656e+02	5.3431	14.418630	0.000162	1.623133	0.274966	-0.000016
1475	1.4666e+02	5.3335	14.382296	0.000365	3.652049	0.618674	-0.000037
1476	1.4676e+02	5.3235	14.333850	0.000487	4.869399	0.824898	-0.000049
1477	1.4686e+02	5.3123	14.285405	0.000487	4.869399	0.824898	-0.000049
1478	1.4696e+02	5.3027	14.257145	0.000284	2.840483	0.481191	-0.000028
1479	1.4706e+02	5.2932	14.216774	0.000406	4.057832	0.687415	-0.000041
1480	1.4716e+02	5.2831	14.152179	0.000649	6.492532	1.099865	-0.000065
1481	1.4726e+02	5.2737	14.140068	0.000122	1.217350	0.206225	-0.000012
1482	1.4736e+02	5.2629	14.087585	0.000528	5.275182	0.893640	-0.000053
1483	1.4746e+02	5.2534	14.051251	0.000365	3.652049	0.618674	-0.000037
1484	1.4756e+02	5.2432	14.035102	0.000162	1.623133	0.274966	-0.000016
1485	1.4766e+02	5.2332	14.014917	0.000203	2.028916	0.343708	-0.000020
1486	1.4776e+02	5.2240	13.974545	0.000406	4.057832	0.687415	-0.000041
1487	1.4786e+02	5.2134	13.934174	0.000406	4.057832	0.687415	-0.000041
1488	1.4796e+02	5.2036	13.897840	0.000365	3.652049	0.618674	-0.000037
1489	1.4806e+02	5.1929	13.829208	0.000690	6.898315	1.168606	-0.000069
1490	1.4816e+02	5.1830	13.841320	-0.000122	-1.217350	-0.206225	0.000012
1491	1.4825e+02	5.1735	13.732317	0.001096	10.956147	1.856022	-0.000110
1492	1.4835e+02	5.1633	13.740391	-0.000081	-0.811566	-0.137483	0.000008
1493	1.4845e+02	5.1533	13.704057	0.000365	3.652049	0.618674	-0.000037
1494	1.4855e+02	5.1444	13.675797	0.000284	2.840483	0.481191	-0.000028
1495	1.4865e+02	5.1336	13.627352	0.000487	4.869399	0.824898	-0.000049
1496	1.4875e+02	5.1235	13.578906	0.000487	4.869399	0.824898	-0.000049
1497	1.4885e+02	5.1134	13.514312	0.000649	6.492532	1.099865	-0.000065
1498	1.4895e+02	5.1038	13.510275	0.000041	0.405783	0.068742	-0.000004
1499	1.4905e+02	5.0941	13.461829	0.000487	4.869399	0.824898	-0.000049
1500	1.4915e+02	5.0835	13.441643	0.000203	2.028916	0.343708	-0.000020
1501	1.4925e+02	5.0739	13.413383	0.000284	2.840483	0.481191	-0.000028
1502	1.4935e+02	5.0640	13.364938	0.000487	4.869399	0.824898	-0.000049
1503	1.4945e+02	5.0538	13.308418	0.000568	5.680965	0.962382	-0.000057
1504	1.4955e+02	5.0436	13.251898	0.000568	5.680965	0.962382	-0.000057
1505	1.4965e+02	5.0347	13.239787	0.000122	1.217350	0.206225	-0.000012
1506	1.4975e+02	5.0245	13.191341	0.000487	4.869399	0.824898	-0.000049
1507	1.4985e+02	5.0146	13.118673	0.000730	7.304098	1.237348	-0.000073
1508	1.4995e+02	5.0049	13.130784	-0.000122	-1.217350	-0.206225	0.000012
1509	1.5005e+02	4.9950	13.078301	0.000528	5.275182	0.893640	-0.000053
1510	1.5015e+02	4.9841	13.090413	-0.000122	-1.217350	-0.206225	0.000012
1511	1.5025e+02	4.9746	13.013707	0.000771	7.709881	1.306089	-0.000077
1512	1.5034e+02	4.9648	12.981410	0.000325	3.246266	0.549932	-0.000032
1513	1.5044e+02	4.9545	12.920853	0.000609	6.086748	1.031123	-0.000061
1514	1.5054e+02	4.9447	12.900667	0.000203	2.028916	0.343708	-0.000020
1515	1.5064e+02	4.9346	12.848184	0.000528	5.275182	0.893640	-0.000053
1516	1.5074e+02	4.9249	12.827999	0.000203	2.028916	0.343708	-0.000020
1517	1.5084e+02	4.9149	12.787627	0.000406	4.057832	0.687415	-0.000041
1518	1.5094e+02	4.9049	12.739182	0.000487	4.869399	0.824898	-0.000049
1519	1.5104e+02	4.8949	12.710922	0.000284	2.840483	0.481191	-0.000028
1520	1.5114e+02	4.8844	12.706885	0.000041	0.405783	0.068742	-0.000004
1521	1.5124e+02	4.8745	12.642291	0.000649	6.492532	1.099865	-0.000065
1522	1.5134e+02	4.8649	12.618068	0.000243	2.434699	0.412449	-0.000024
1523	1.5144e+02	4.8557	12.569622	0.000487	4.869399	0.824898	-0.000049
1524	1.5154e+02	4.8452	12.537325	0.000325	3.246266	0.549932	-0.000032
1525	1.5164e+02	4.8353	12.480805	0.000568	5.680965	0.962382	-0.000057
1526	1.5174e+02	4.8257	12.464657	0.000162	1.623133	0.274966	-0.000016
1527	1.5184e+02	4.8161	12.404100	0.000609	6.086748	1.031123	-0.000061
1528	1.5194e+02	4.8058	12.363728	0.000406	4.057832	0.687415	-0.000041
1529	1.5204e+02	4.7957	12.299134	0.000649	6.492532	1.099865	-0.000065
1530	1.5214e+02	4.7852	12.295097	0.000041	0.405783	0.068742	-0.000004
1531	1.5224e+02	4.7765	12.287023	0.000081	0.811566	0.137483	-0.000008
1532	1.5233e+02	4.7643	12.250688	0.000365	3.652049	0.618674	-0.000037
1533	1.5243e+02	4.7562	12.210317	0.000406	4.057832	0.687415	-0.000041
1534	1.5253e+02	4.7449	12.157834	0.000528	5.275182	0.893640	-0.000053
1535	1.5263e+02	4.7355	12.161871	-0.000041	-0.405783	-0.068742	0.000004
1536	1.5273e+02	4.7265	12.077092	0.000852	8.521448	1.443572	-0.000085
1537	1.5283e+02	4.7161	12.056906	0.000203	2.028916	0.343708	-0.000020
1538	1.5293e+02	4.7061	12.032683	0.000243	2.434699	0.412449	-0.000024
1539	1.5303e+02	4.6972	11.988275	0.000446	4.463615	0.756157	-0.000045
1540	1.5313e+02	4.6862	11.960015	0.000284	2.840483	0.481191	-0.000028
1541	1.5323e+02	4.6756	11.931755	0.000284	2.840483	0.481191	-0.000028
1542	1.5333e+02	4.6666	11.863123	0.000690	6.898315	1.168606	-0.000069
1543	1.5343e+02	4.6569	11.830826	0.000325	3.246266	0.549932	-0.000032
1544	1.5353e+02	4.6467	11.810641	0.000203	2.028916	0.343708	-0.000020
1545	1.5363e+02	4.6368	11.754121	0.000568	5.680965	0.962382	-0.000057
1546	1.5373e+02	4.6262	11.721824	0.000325	3.246266	0.549932	-0.000032
1547	1.5383e+02	4.6166	11.705675	0.000162	1.623133	0.274966	-0.000016
1548	1.5393e+02	4.6061	11.677415	0.000284	2.840483	0.481191	-0.000028
1549	1.5403e+02	4.5968	11.653192	0.000243	2.434699	0.412449	-0.000024
1550	1.5413e+02	4.5866	11.564375	0.000893	8.927231	1.512314	-0.000089
1551	1.5422e+02	4.5773	11.532078	0.000325	3.246266	0.549932	-0.000032
1552	1.5432e+02	4.5665	11.524004	0.000081	0.811566	0.137483	-0.000008
1553	1.5442e+02	4.5566	11.491707	0.000325	3.246266	0.549932	-0.000032
1554	1.5452e+02	4.5464	11.447298	0.000446	4.463615	0.756157	-0.000045
1555	1.5462e+02	4.5375	11.394816	0.000528	5.275182	0.893640	-0.000053
1556	1.5472e+02	4.5274	11.370593	0.000243	2.434699	0.412449	-0.000024
1557	1.5482e+02	4.5181	11.322147	0.000487	4.869399	0.824898	-0.000049
1558	1.5492e+02	4.5107	11.297924	0.000243	2.434699	0.412449	-0.000024
1559	1.5502e+02	4.4966	11.233330	0.000649	6.492532	1.099865	-0.000065
1560	1.5512e+02	4.4862	11.237367	-0.000041	-0.405783	-0.068742	0.000004
1561	1.5522e+02	4.4773	11.192959	0.000446	4.463615	0.756157	-0.000045
1562	1.5532e+02	4.4662	11.120290	0.000730	7.304098	1.237348	-0.000073
1563	1.5542e+02	4.4573	11.120290	-0.000000	-0.000000	-0.000000	0.000000
1564	1.5552e+02	4.4478	11.063770	0.000568	5.680965	0.962382	-0.000057
1565	1.5562e+02	4.4372	11.067808	-0.000041	-0.405783	-0.068742	0.000004
1566	1.5572e+02	4.4265	10.995139	0.000730	7.304098	1.237348	-0.000073
1567	1.5582e+02	4.4165	11.003213	-0.000081	-0.811566	-0.137483	0.000008
1568	1.5592e+02	4.4070	10.934582	0.000690	6.898315	1.168606	-0.000069
1569	1.5602e+02	4.3975	10.910359	0.000243	2.434699	0.412449	-0.000024
1570	1.5612e+02	4.3871	10.882099	0.000284	2.840483	0.481191	-0.000028
1571	1.5622e+02	4.3786	10.837691	0.000446	4.463615	0.756157	-0.000045
1572	1.5631e+02	4.3679	10.789245	0.000487	4.869399	0.824898	-0.000049
1573	1.5641e+02	4.3571	10.748874	0.000406	4.057832	0.687415	-0.000041
1574	1.5651e+02	4.3481	10.752911	-0.000041	-0.405783	-0.068742	0.000004
1575	1.5661e+02	4.3369	10.708503	0.000446	4.463615	0.756157	-0.000045
1576	1.5671e+02	4.3276	10.688317	0.000203	2.028916	0.343708	-0.000020
1577	1.5681e+02	4.3180	10.611611	0.000771	7.709881	1.306089	-0.000077
1578	1.5691e+02	4.3082	10.603537	0.000081	0.811566	0.137483	-0.000008
1579	1.5701e+02	4.2975	10.559129	0.000446	4.463615	0.756157	-0.000045
1580	1.5711e+02	4.2889	10.534906	0.000243	2.434699	0.412449	-0.000024
1581	1.5721e+02	4.2777	10.486460	0.000487	4.869399	0.824898	-0.000049
1582	1.5731e+02	4.2687	10.425903	0.000609	6.086748	1.031123	-0.000061
1583	1.5741e+02	4.2583	10.429940	-0.000041	-0.405783	-0.068742	0.000004
1584	1.5751e+02	4.2477	10.365346	0.000649	6.492532	1.099865	-0.000065
1585	1.5761e+02	4.2384	10.316900	0.000487	4.869399	0.824898	-0.000049
1586	1.5771e+02	4.2281	10.292678	0.000243	2.434699	0.412449	-0.000024
1587	1.5781e+02	4.2184	10.284603	0.000081	0.811566	0.137483	-0.000008
1588	1.5791e+02	4.2092	10.232121	0.000528	5.275182	0.893640	-0.000053
1589	1.5801e+02	4.1982	10.195786	0.000365	3.652049	0.618674	-0.000037
1590	1.5811e+02	4.1891	10.127155	0.000690	6.898315	1.168606	-0.000069
1591	1.5821e+02	4.1798	10.147341	-0.000203	-2.028916	-0.343708	0.000020
1592	1.5830e+02	4.1681	10.086784	0.000609	6.086748	1.031123	-0.000061
1593	1.5840e+02	4.1576	10.022189	0.000649	6.492532	1.099865	-0.000065
1594	1.5850e+02	4.1483	10.046412	-0.000243	-2.434699	-0.412449	0.000024
1595	1.5860e+02	4.1390	9.969707	0.000771	7.709881	1.306089	-0.000077
1596	1.5870e+02	4.1277	9.913187	0.000568	5.680965	0.962382	-0.000057
1597	1.5880e+02	4.1182	9.876853	0.000365	3.652049	0.618674	-0.000037
1598	1.5890e+02	4.1093	9.868778	0.000081	0.811566	0.137483	-0.000008
1599	1.5900e+02	4.0985	9.836481	0.000325	3.246266	0.549932	-0.000032
1600	1.5910e+02	4.0890	9.763813	0.000730	7.304098	1.237348	-0.000073
1601	1.5920e+02	4.0788	9.759776	0.000041	0.405783	0.068742	-0.000004
1602	1.5930e+02	4.0691	9.703256	0.000568	5.680965	0.962382	-0.000057
1603	1.5940e+02	4.0601	9.707293	-0.000041	-0.405783	-0.068742	0.000004
1604	1.5950e+02	4.0495	9.666922	0.000406	4.057832	0.687415	-0.000041
1605	1.5960e+02	4.0397	9.582142	0.000852	8.521448	1.443572	-0.000085
1606	1.5970e+02	4.0289	9.557919	0.000243	2.434699	0.412449	-0.000024
1607	1.5980e+02	4.0191	9.509473	0.000487	4.869399	0.824898	-0.000049
1608	1.5990e+02	4.0089	9.477176	0.000325	3.246266	0.549932	-0.000032
1609	1.6000e+02	3.9997	9.428731	0.000487	4.869399	0.824898	-0.000049
1610	1.6010e+02	3.9886	9.412582	0.000162	1.623133	0.274966	-0.000016
1611	1.6019e+02	3.9798	9.380285	0.000325	3.246266	0.549932	-0.000032
1612	1.6029e+02	3.9698	9.352025	0.000284	2.840483	0.481191	-0.000028
1613	1.6039e+02	3.9606	9.283394	0.000690	6.898315	1.168606	-0.000069
1614	1.6049e+02	3.9497	9.238985	0.000446	4.463615	0.756157	-0.000045
1615	1.6059e+02	3.9393	9.194577	0.000446	4.463615	0.756157	-0.000045
1616	1.6069e+02	3.9299	9.206688	-0.000122	-1.217350	-0.206225	0.000012
1617	1.6079e+02	3.9191	9.125945	0.000812	8.115664	1.374831	-0.000081
1618	1.6089e+02	3.9101	9.125945	-0.000000	-0.000000	-0.000000	0.000000
1619	1.6099e+02	3.9002	9.057314	0.000690	6.898315	1.168606	-0.000069
1620	1.6109e+02	3.8895	8.984646	0.000730	7.304098	1.237348	-0.000073
1621	1.6119e+02	3.8802	8.968497	0.000162	1.623133	0.274966	-0.000016
1622	1.6129e+02	3.8699	8.907940	0.000609	6.086748	1.031123	-0.000061
1623	1.6139e+02	3.8610	8.855457	0.000528	5.275182	0.893640	-0.000053
1624	1.6149e+02	3.8502	8.855457	-0.000000	-0.000000	-0.000000	0.000000
1625	1.6159e+02	3.8403	8.770677	0.000852	8.521448	1.443572	-0.000085
1626	1.6169e+02	3.8297	8.750492	0.000203	2.028916	0.343708	-0.000020
1627	1.6179e+02	3.8204	8.718195	0.000325	3.246266	0.549932	-0.000032
1628	1.6189e+02	3.8105	8.637452	0.000812	8.115664	1.374831	-0.000081
1629	1.6199e+02	3.7991	8.649563	-0.000122	-1.217350	-0.206225	0.000012
1630	1.6209e+02	3.7900	8.580932	0.000690	6.898315	1.168606	-0.000069
1631	1.6219e+02	3.7806	8.572858	0.000081	0.811566	0.137483	-0.000008
1632	1.6228e+02	3.7710	8.532486	0.000406	4.057832	0.687415	-0.000041
1633	1.6238e+02	3.7612	8.492115	0.000406	4.057832	0.687415	-0.000041
1634	1.6248e+02	3.7510	8.423484	0.000690	6.898315	1.168606	-0.000069
1635	1.6258e+02	3.7409	8.431558	-0.000081	-0.811566	-0.137483	0.000008
1636	1.6268e+02	3.7316	8.350815	0.000812	8.115664	1.374831	-0.000081
1637	1.6278e+02	3.7206	8.314481	0.000365	3.652049	0.618674	-0.000037
1638	1.6288e+02	3.7109	8.261998	0.000528	5.275182	0.893640	-0.000053
1639	1.6298e+02	3.7014	8.221627	0.000406	4.057832	0.687415	-0.000041
1640	1.6308e+02	3.6916	8.197404	0.000243	2.434699	0.412449	-0.000024
1641	1.6318e+02	3.6815	8.132810	0.000649	6.492532	1.099865	-0.000065
1642	1.6328e+02	3.6713	8.096476	0.000365	3.652049	0.618674	-0.000037
1643	1.6338e+02	3.6622	8.048030	0.000487	4.869399	0.824898	-0.000049
1644	1.6348e+02	3.6516	7.995547	0.000528	5.275182	0.893640	-0.000053
1645	1.6358e+02	3.6414	7.991510	0.000041	0.405783	0.068742	-0.000004
1646	1.6368e+02	3.6321	7.943065	0.000487	4.869399	0.824898	-0.000049
1647	1.6378e+02	3.6217	7.894619	0.000487	4.869399	0.824898	-0.000049
1648	1.6388e+02	3.6127	7.854248	0.000406	4.057832	0.687415	-0.000041
1649	1.6398e+02	3.6023	7.817913	0.000365	3.652049	0.618674	-0.000037
1650	1.6408e+02	3.5912	7.773505	0.000446	4.463615	0.756157	-0.000045
1651	1.6418e+02	3.5816	7.737171	0.000365	3.652049	0.618674	-0.000037
1652	1.6427e+02	3.5712	7.668539	0.000690	6.898315	1.168606	-0.000069
1653	1.6437e+02	3.5623	7.652391	0.000162	1.623133	0.274966	-0.000016
1654	1.6447e+02	3.5519	7.599908	0.000528	5.275182	0.893640	-0.000053
1655	1.6457e+02	3.5416	7.531277	0.000690	6.898315	1.168606	-0.000069
1656	1.6467e+02	3.5324	7.478794	0.000528	5.275182	0.893640	-0.000053
1657	1.6477e+02	3.5221	7.446497	0.000325	3.246266	0.549932	-0.000032
1658	1.6487e+02	3.5125	7.406126	0.000406	4.057832	0.687415	-0.000041
1659	1.6497e+02	3.5028	7.381903	0.000243	2.434699	0.412449	-0.000024
1660	1.6507e+02	3.4927	7.297123	0.000852	8.521448	1.443572	-0.000085
1661	1.6517e+02	3.4817	7.280974	0.000162	1.623133	0.274966	-0.000016
1662	1.6527e+02	3.4726	7.228492	0.000528	5.275182	0.893640	-0.000053
1663	1.6537e+02	3.4620	7.159860	0.000690	6.898315	1.168606	-0.000069
1664	1.6547e+02	3.4522	7.131600	0.000284	2.840483	0.481191	-0.000028
1665	1.6557e+02	3.4419	7.099303	0.000325	3.246266	0.549932	-0.000032
1666	1.6567e+02	3.4315	7.042783	0.000568	5.680965	0.962382	-0.000057
1667	1.6577e+02	3.4223	7.022598	0.000203	2.028916	0.343708	-0.000020
1668	1.6587e+02	3.4129	6.966078	0.000568	5.680965	0.962382	-0.000057
1669	1.6597e+02	3.4022	6.933781	0.000325	3.246266	0.549932	-0.000032
1670	1.6607e+02	3.3916	6.873224	0.000609	6.086748	1.031123	-0.000061
1671	1.6616e+02	3.3838	6.808629	0.000649	6.492532	1.099865	-0.000065
1672	1.6626e+02	3.3722	6.808629	-0.000000	-0.000000	-0.000000	0.000000
1673	1.6636e+02	3.3627	6.739998	0.000690	6.898315	1.168606	-0.000069
1674	1.6646e+02	3.3526	6.679441	0.000609	6.086748	1.031123	-0.000061
1675	1.6656e+02	3.3434	6.655218	0.000243	2.434699	0.412449	-0.000024
1676	1.6666e+02	3.3329	6.622921	0.000325	3.246266	0.549932	-0.000032
1677	1.6676e+02	3.3233	6.562364	0.000609	6.086748	1.031123	-0.000061
1678	1.6686e+02	3.3132	6.530067	0.000325	3.246266	0.549932	-0.000032
1679	1.6696e+02	3.3024	6.457399	0.000730	7.304098	1.237348	-0.000073
1680	1.6706e+02	3.2943	6.433176	0.000243	2.434699	0.412449	-0.000024
1681	1.6716e+02	3.2832	6.425102	0.000081	0.811566	0.137483	-0.000008
1682	1.6726e+02	3.2731	6.376656	0.000487	4.869399	0.824898	-0.000049
1683	1.6736e+02	3.2632	6.320136	0.000568	5.680965	0.962382	-0.000057
1684	1.6746e+02	3.2526	6.215170	0.001055	10.550364	1.787280	-0.000105
1685	1.6756e+02	3.2439	6.223245	-0.000081	-0.811566	-0.137483	0.000008
1686	1.6766e+02	3.2330	6.182873	0.000406	4.057832	0.687415	-0.000041
1687	1.6776e+02	3.2229	6.146539	0.000365	3.652049	0.618674	-0.000037
1688	1.6786e+02	3.2133	6.098094	0.000487	4.869399	0.824898	-0.000049
1689	1.6796e+02	3.2034	6.049648	0.000487	4.869399	0.824898	-0.000049
1690	1.6806e+02	3.1933	6.013314	0.000365	3.652049	0.618674	-0.000037
1691	1.6816e+02	3.1834	5.940645	0.000730	7.304098	1.237348	-0.000073
1692	1.6825e+02	3.1731	5.888162	0.000528	5.275182	0.893640	-0.000053
1693	1.6835e+02	3.1637	5.863940	0.000243	2.434699	0.412449	-0.000024
1694	1.6845e+02	3.1538	5.839717	0.000243	2.434699	0.412449	-0.000024
1695	1.6855e+02	3.1438	5.775123	0.000649	6.492532	1.099865	-0.000065
1696	1.6865e+02	3.1336	5.726677	0.000487	4.869399	0.824898	-0.000049
1697	1.6875e+02	3.1241	5.678231	0.000487	4.869399	0.824898	-0.000049
1698	1.6885e+02	3.1141	5.633823	0.000446	4.463615	0.756157	-0.000045
1699	1.6895e+02	3.1055	5.609600	0.000243	2.434699	0.412449	-0.000024
1700	1.6905e+02	3.0946	5.589414	0.000203	2.028916	0.343708	-0.000020
1701	1.6915e+02	3.0843	5.520783	0.000690	6.898315	1.168606	-0.000069
1702	1.6925e+02	3.0703	5.508672	0.000122	1.217350	0.206225	-0.000012
1703	1.6935e+02	3.0637	5.436003	0.000730	7.304098	1.237348	-0.000073
1704	1.6945e+02	3.0535	5.371409	0.000649	6.492532	1.099865	-0.000065
1705	1.6955e+02	3.0439	5.395632	-0.000243	-2.434699	-0.412449	0.000024
1706	1.6965e+02	3.0344	5.286629	0.001096	10.956147	1.856022	-0.000110
1707	1.6975e+02	3.0247	5.270481	0.000162	1.623133	0.274966	-0.000016
1708	1.6985e+02	3.0145	5.238184	0.000325	3.246266	0.549932	-0.000032
1709	1.6995e+02	3.0051	5.185701	0.000528	5.275182	0.893640	-0.000053
1710	1.7005e+02	2.9942	5.121107	0.000649	6.492532	1.099865	-0.000065
1711	1.7015e+02	2.9842	5.072661	0.000487	4.869399	0.824898	-0.000049
1712	1.7024e+02	2.9745	5.056513	0.000162	1.623133	0.274966	-0.000016
1713	1.7034e+02	2.9650	5.012104	0.000446	4.463615	0.756157	-0.000045
1714	1.7044e+02	2.9545	5.008067	0.000041	0.405783	0.068742	-0.000004
1715	1.7054e+02	2.9451	4.931361	0.000771	7.709881	1.306089	-0.000077
1716	1.7064e+02	2.9340	4.895027	0.000365	3.652049	0.618674	-0.000037
1717	1.7074e+02	2.9243	4.854656	0.000406	4.057832	0.687415	-0.000041
1718	1.7084e+02	2.9150	4.761802	0.000933	9.333014	1.581055	-0.000093
1719	1.7094e+02	2.9050	4.777950	-0.000162	-1.623133	-0.274966	0.000016
1720	1.7104e+02	2.8936	4.717393	0.000609	6.086748	1.031123	-0.000061
1721	1.7114e+02	2.8851	4.640688	0.000771	7.709881	1.306089	-0.000077
1722	1.7124e+02	2.8744	4.648762	-0.000081	-0.811566	-0.137483	0.000008
1723	1.7134e+02	2.8658	4.572056	0.000771	7.709881	1.306089	-0.000077
1724	1.7144e+02	2.8547	4.563982	0.000081	0.811566	0.137483	-0.000008
1725	1.7154e+02	2.8448	4.507462	0.000568	5.680965	0.962382	-0.000057
1726	1.7164e+02	2.8352	4.446905	0.000609	6.086748	1.031123	-0.000061
1727	1.7174e+02	2.8253	4.414608	0.000325	3.246266	0.549932	-0.000032
1728	1.7184e+02	2.8150	4.378274	0.000365	3.652049	0.618674	-0.000037
1729	1.7194e+02	2.8056	4.341939	0.000365	3.652049	0.618674	-0.000037
1730	1.7204e+02	2.7949	4.289457	0.000528	5.275182	0.893640	-0.000053
1731	1.7213e+02	2.7856	4.257160	0.000325	3.246266	0.549932	-0.000032
1732	1.7223e+02	2.7752	4.192565	0.000649	6.492532	1.099865	-0.000065
1733	1.7233e+02	2.7660	4.148157	0.000446	4.463615	0.756157	-0.000045
1734	1.7243e+02	2.7560	4.127971	0.000203	2.028916	0.343708	-0.000020
1735	1.7253e+02	2.7460	4.075489	0.000528	5.275182	0.893640	-0.000053
1736	1.7263e+02	2.7360	4.014931	0.000609	6.086748	1.031123	-0.000061
1737	1.7273e+02	2.7255	3.962449	0.000528	5.275182	0.893640	-0.000053
1738	1.7283e+02	2.7151	3.970523	-0.000081	-0.811566	-0.137483	0.000008
1739	1.7293e+02	2.7061	3.897855	0.000730	7.304098	1.237348	-0.000073
1740	1.7303e+02	2.6959	3.914003	-0.000162	-1.623133	-0.274966	0.000016
1741	1.7313e+02	2.6851	3.800963	0.001136	11.361930	1.924763	-0.000114
1742	1.7323e+02	2.6749	3.768666	0.000325	3.246266	0.549932	-0.000032
1743	1.7333e+02	2.6666	3.744443	0.000243	2.434699	0.412449	-0.000024
1744	1.7343e+02	2.6556	3.687923	0.000568	5.680965	0.962382	-0.000057
1745	1.7353e+02	2.6451	3.639478	0.000487	4.869399	0.824898	-0.000049
1746	1.7363e+02	2.6365	3.599107	0.000406	4.057832	0.687415	-0.000041
1747	1.7373e+02	2.6266	3.574884	0.000243	2.434699	0.412449	-0.000024
1748	1.7383e+02	2.6156	3.502215	0.000730	7.304098	1.237348	-0.000073
1749	1.7393e+02	2.6061	3.494141	0.000081	0.811566	0.137483	-0.000008
1750	1.7403e+02	2.5970	3.461844	0.000325	3.246266	0.549932	-0.000032
1751	1.7413e+02	2.5863	3.373027	0.000893	8.927231	1.512314	-0.000089
1752	1.7422e+02	2.5760	3.324581	0.000487	4.869399	0.824898	-0.000049
1753	1.7432e+02	2.5663	3.316507	0.000081	0.811566	0.137483	-0.000008
1754	1.7442e+02	2.5571	3.259987	0.000568	5.680965	0.962382	-0.000057
1755	1.7452e+02	2.5472	3.203467	0.000568	5.680965	0.962382	-0.000057
1756	1.7462e+02	2.5370	3.203467	-0.000000	-0.000000	-0.000000	0.000000
1757	1.7472e+02	2.5205	3.142910	0.000609	6.086748	1.031123	-0.000061
1758	1.7482e+02	2.5161	3.062167	0.000812	8.115664	1.374831	-0.000081
1759	1.7492e+02	2.5066	3.029870	0.000325	3.246266	0.549932	-0.000032
1760	1.7502e+02	2.4967	2.985462	0.000446	4.463615	0.756157	-0.000045
1761	1.7512e+02	2.4871	2.961239	0.000243	2.434699	0.412449	-0.000024
1762	1.7522e+02	2.4767	2.904719	0.000568	5.680965	0.962382	-0.000057
1763	1.7532e+02	2.4667	2.848199	0.000568	5.680965	0.962382	-0.000057
1764	1.7542e+02	2.4578	2.840125	0.000081	0.811566	0.137483	-0.000008
1765	1.7552e+02	2.4471	2.799754	0.000406	4.057832	0.687415	-0.000041
1766	1.7562e+02	2.4371	2.767457	0.000325	3.246266	0.549932	-0.000032
1767	1.7572e+02	2.4276	2.706900	0.000609	6.086748	1.031123	-0.000061
1768	1.7582e+02	2.4169	2.694788	0.000122	1.217350	0.206225	-0.000012
1769	1.7592e+02	2.4081	2.589823	0.001055	10.550364	1.787280	-0.000105
1770	1.7602e+02	2.3982	2.565600	0.000243	2.434699	0.412449	-0.000024
1771	1.7612e+02	2.3882	2.501006	0.000649	6.492532	1.099865	-0.000065
1772	1.7621e+02	2.3770	2.460634	0.000406	4.057832	0.687415	-0.000041
1773	1.7631e+02	2.3668	2.428337	0.000325	3.246266	0.549932	-0.000032
1774	1.7641e+02	2.3575	2.359706	0.000690	6.898315	1.168606	-0.000069
1775	1.7651e+02	2.3482	2.307223	0.000528	5.275182	0.893640	-0.000053
1776	1.7661e+02	2.3383	2.274926	0.000325	3.246266	0.549932	-0.000032
1777	1.7671e+02	2.3278	2.222443	0.000528	5.275182	0.893640	-0.000053
1778	1.7681e+02	2.3174	2.194183	0.000284	2.840483	0.481191	-0.000028
1779	1.7691e+02	2.3081	2.153812	0.000406	4.057832	0.687415	-0.000041
1780	1.7701e+02	2.2980	2.109403	0.000446	4.463615	0.756157	-0.000045
1781	1.7711e+02	2.2884	2.028661	0.000812	8.115664	1.374831	-0.000081
1782	1.7721e+02	2.2781	2.048846	-0.000203	-2.028916	-0.343708	0.000020
1783	1.7731e+02	2.2676	1.943881	0.001055	10.550364	1.787280	-0.000105
1784	1.7741e+02	2.2584	1.935807	0.000081	0.811566	0.137483	-0.000008
1785	1.7751e+02	2.2478	1.863138	0.000730	7.304098	1.237348	-0.000073
1786	1.7761e+02	2.2376	1.842952	0.000203	2.028916	0.343708	-0.000020
1787	1.7771e+02	2.2277	1.798544	0.000446	4.463615	0.756157	-0.000045
1788	1.7781e+02	2.2183	1.709727	0.000893	8.927231	1.512314	-0.000089
1789	1.7791e+02	2.2082	1.665318	0.000446	4.463615	0.756157	-0.000045
1790	1.7801e+02	2.1983	1.596687	0.000690	6.898315	1.168606	-0.000069
1791	1.7810e+02	2.1889	1.580539	0.000162	1.623133	0.274966	-0.000016
1792	1.7820e+02	2.1783	1.540167	0.000406	4.057832	0.687415	-0.000041
1793	1.7830e+02	2.1680	1.475573	0.000649	6.492532	1.099865	-0.000065
1794	1.7840e+02	2.1587	1.427127	0.000487	4.869399	0.824898	-0.000049
1795	1.7850e+02	2.1488	1.386756	0.000406	4.057832	0.687415	-0.000041
1796	1.7860e+02	2.1386	1.350422	0.000365	3.652049	0.618674	-0.000037
1797	1.7870e+02	2.1284	1.269679	0.000812	8.115664	1.374831	-0.000081
1798	1.7880e+02	2.1180	1.257568	0.000122	1.217350	0.206225	-0.000012
1799	1.7890e+02	2.1095	1.160677	0.000974	9.738797	1.649797	-0.000097
1800	1.7900e+02	2.0990	1.124342	0.000365	3.652049	0.618674	-0.000037
1801	1.7910e+02	2.0895	1.079934	0.000446	4.463615	0.756157	-0.000045
1802	1.7920e+02	2.0781	1.043600	0.000365	3.652049	0.618674	-0.000037
1803	1.7930e+02	2.0688	0.966894	0.000771	7.709881	1.306089	-0.000077
1804	1.7940e+02	2.0586	0.958820	0.000081	0.811566	0.137483	-0.000008
1805	1.7950e+02	2.0489	0.882114	0.000771	7.709881	1.306089	-0.000077
1806	1.7960e+02	2.0394	0.849817	0.000325	3.246266	0.549932	-0.000032
1807	1.7970e+02	2.0286	0.793297	0.000568	5.680965	0.962382	-0.000057
1808	1.7980e+02	2.0190	0.748889	0.000446	4.463615	0.756157	-0.000045
1809	1.7990e+02	2.0093	0.676220	0.000730	7.304098	1.237348	-0.000073
1810	1.8000e+02	1.9975	0.635849	0.000406	4.057832	0.687415	-0.000041
1811	1.8009e+02	1.9898	0.607589	0.000284	2.840483	0.481191	-0.000028
1812	1.8019e+02	1.9792	0.506661	0.001014	10.144581	1.718538	-0.000101
1813	1.8029e+02	1.9691	0.494549	0.000122	1.217350	0.206225	-0.000012
1814	1.8039e+02	1.9592	0.462252	0.000325	3.246266	0.549932	-0.000032
1815	1.8049e+02	1.9500	0.369398	0.000933	9.333014	1.581055	-0.000093
1816	1.8059e+02	1.9402	0.324989	0.000446	4.463615	0.756157	-0.000045
1817	1.8069e+02	1.9295	0.296729	0.000284	2.840483	0.481191	-0.000028
1818	1.8079e+02	1.9186	0.195801	0.001014	10.144581	1.718538	-0.000101
1819	1.8089e+02	1.9097	0.224061	-0.000284	-2.840483	-0.481191	0.000028
1820	1.8099e+02	1.9000	0.131207	0.000933	9.333014	1.581055	-0.000093
1821	1.8109e+02	1.8891	0.066613	0.000649	6.492532	1.099865	-0.000065
1822	1.8119e+02	1.8804	0.046427	0.000203	2.028916	0.343708	-0.000020
1823	1.8129e+02	1.8699	0.010093	0.000365	3.652049	0.618674	-0.000037
1824	1.8139e+02	1.8603	-0.094873	0.001055	10.550364	1.787280	-0.000105
1825	1.8149e+02	1.8501	-0.102947	0.000081	0.811566	0.137483	-0.000008
1826	1.8159e+02	1.8398	-0.159467	0.000568	5.680965	0.962382	-0.000057
1827	1.8169e+02	1.8298	-0.288655	0.001299	12.985063	2.199729	-0.000130
1828	1.8179e+02	1.8190	-0.280581	-0.000081	-0.811566	-0.137483	0.000008
1829	1.8189e+02	1.8105	-0.329027	0.000487	4.869399	0.824898	-0.000049
1830	1.8199e+02	1.8002	-0.377472	0.000487	4.869399	0.824898	-0.000049
1831	1.8209e+02	1.7905	-0.462252	0.000852	8.521448	1.443572	-0.000085
1832	1.8218e+02	1.7810	-0.538958	0.000771	7.709881	1.306089	-0.000077
1833	1.8228e+02	1.7705	-0.547032	0.000081	0.811566	0.137483	-0.000008
1834	1.8238e+02	1.7577	-0.567218	0.000203	2.028916	0.343708	-0.000020
1835	1.8248e+02	1.7511	-0.660072	0.000933	9.333014	1.581055	-0.000093
1836	1.8258e+02	1.7408	-0.700443	0.000406	4.057832	0.687415	-0.000041
1837	1.8268e+02	1.7307	-0.777149	0.000771	7.709881	1.306089	-0.000077
1838	1.8278e+02	1.7204	-0.789260	0.000122	1.217350	0.206225	-0.000012
1839	1.8288e+02	1.7112	-0.870003	0.000812	8.115664	1.374831	-0.000081
1840	1.8298e+02	1.7012	-0.890188	0.000203	2.028916	0.343708	-0.000020
1841	1.8308e+02	1.6906	-0.991117	0.001014	10.144581	1.718538	-0.000101
1842	1.8318e+02	1.6798	-1.027451	0.000365	3.652049	0.618674	-0.000037
1843	1.8328e+02	1.6711	-1.100119	0.000730	7.304098	1.237348	-0.000073
1844	1.8338e+02	1.6615	-1.120305	0.000203	2.028916	0.343708	-0.000020
1845	1.8348e+02	1.6505	-1.180862	0.000609	6.086748	1.031123	-0.000061
1846	1.8358e+02	1.6409	-1.225271	0.000446	4.463615	0.756157	-0.000045
1847	1.8368e+02	1.6308	-1.269679	0.000446	4.463615	0.756157	-0.000045
1848	1.8378e+02	1.6213	-1.342348	0.000730	7.304098	1.237348	-0.000073
1849	1.8388e+02	1.6100	-1.394830	0.000528	5.275182	0.893640	-0.000053
1850	1.8398e+02	1.6029	-1.435202	0.000406	4.057832	0.687415	-0.000041
1851	1.8407e+02	1.5921	-1.467499	0.000325	3.246266	0.549932	-0.000032
1852	1.8417e+02	1.5807	-1.532093	0.000649	6.492532	1.099865	-0.000065
1853	1.8427e+02	1.5717	-1.580539	0.000487	4.869399	0.824898	-0.000049
1854	1.8437e+02	1.5612	-1.669356	0.000893	8.927231	1.512314	-0.000089
1855	1.8447e+02	1.5511	-1.685504	0.000162	1.623133	0.274966	-0.000016
1856	1.8457e+02	1.5414	-1.762210	0.000771	7.709881	1.306089	-0.000077
1857	1.8467e+02	1.5314	-1.814693	0.000528	5.275182	0.893640	-0.000053
1858	1.8477e+02	1.5214	-1.891398	0.000771	7.709881	1.306089	-0.000077
1859	1.8487e+02	1.5116	-1.895435	0.000041	0.405783	0.068742	-0.000004
1860	1.8497e+02	1.5015	-1.955992	0.000609	6.086748	1.031123	-0.000061
1861	1.8507e+02	1.4922	-2.016549	0.000609	6.086748	1.031123	-0.000061
1862	1.8517e+02	1.4812	-2.056921	0.000406	4.057832	0.687415	-0.000041
1863	1.8527e+02	1.4714	-2.097292	0.000406	4.057832	0.687415	-0.000041
1864	1.8537e+02	1.4615	-2.210332	0.001136	11.361930	1.924763	-0.000114
1865	1.8547e+02	1.4525	-2.230517	0.000203	2.028916	0.343708	-0.000020
1866	1.8557e+02	1.4407	-2.262815	0.000325	3.246266	0.549932	-0.000032
1867	1.8567e+02	1.4321	-2.311260	0.000487	4.869399	0.824898	-0.000049
1868	1.8577e+02	1.4216	-2.343557	0.000325	3.246266	0.549932	-0.000032
1869	1.8587e+02	1.4120	-2.420263	0.000771	7.709881	1.306089	-0.000077
1870	1.8597e+02	1.4028	-2.492931	0.000730	7.304098	1.237348	-0.000073
1871	1.8606e+02	1.3918	-2.525228	0.000325	3.246266	0.549932	-0.000032
1872	1.8616e+02	1.3815	-2.573674	0.000487	4.869399	0.824898	-0.000049
1873	1.8626e+02	1.3715	-2.642305	0.000690	6.898315	1.168606	-0.000069
1874	1.8636e+02	1.3621	-2.690751	0.000487	4.869399	0.824898	-0.000049
1875	1.8646e+02	1.3525	-2.735159	0.000446	4.463615	0.756157	-0.000045
1876	1.8656e+02	1.3428	-2.783605	0.000487	4.869399	0.824898	-0.000049
1877	1.8666e+02	1.3325	-2.832051	0.000487	4.869399	0.824898	-0.000049
1878	1.8676e+02	1.3220	-2.884533	0.000528	5.275182	0.893640	-0.000053
1879	1.8686e+02	1.3123	-2.949128	0.000649	6.492532	1.099865	-0.000065
1880	1.8696e+02	1.3030	-2.985462	0.000365	3.652049	0.618674	-0.000037
1881	1.8706e+02	1.2936	-3.041982	0.000568	5.680965	0.962382	-0.000057
1882	1.8716e+02	1.2826	-3.094465	0.000528	5.275182	0.893640	-0.000053
1883	1.8726e+02	1.2721	-3.159059	0.000649	6.492532	1.099865	-0.000065
1884	1.8736e+02	1.2624	-3.183282	0.000243	2.434699	0.412449	-0.000024
1885	1.8746e+02	1.2539	-3.247876	0.000649	6.492532	1.099865	-0.000065
1886	1.8756e+02	1.2440	-3.259987	0.000122	1.217350	0.206225	-0.000012
1887	1.8766e+02	1.2344	-3.364953	0.001055	10.550364	1.787280	-0.000105
1888	1.8776e+02	1.2233	-3.421473	0.000568	5.680965	0.962382	-0.000057
1889	1.8786e+02	1.2137	-3.457807	0.000365	3.652049	0.618674	-0.000037
1890	1.8796e+02	1.2044	-3.506252	0.000487	4.869399	0.824898	-0.000049
1891	1.8806e+02	1.1951	-3.554698	0.000487	4.869399	0.824898	-0.000049
1892	1.8815e+02	1.1840	-3.611218	0.000568	5.680965	0.962382	-0.000057
1893	1.8825e+02	1.1744	-3.675812	0.000649	6.492532	1.099865	-0.000065
1894	1.8835e+02	1.1640	-3.675812	-0.000000	-0.000000	-0.000000	0.000000
1895	1.8845e+02	1.1542	-3.792889	0.001177	11.767713	1.993505	-0.000118
1896	1.8855e+02	1.1442	-3.813075	0.000203	2.028916	0.343708	-0.000020
1897	1.8865e+02	1.1338	-3.881706	0.000690	6.898315	1.168606	-0.000069
1898	1.8875e+02	1.1239	-3.918040	0.000365	3.652049	0.618674	-0.000037
1899	1.8885e+02	1.1137	-3.982634	0.000649	6.492532	1.099865	-0.000065
1900	1.8895e+02	1.1047	-4.047229	0.000649	6.492532	1.099865	-0.000065
1901	1.8905e+02	1.0939	-4.123934	0.000771	7.709881	1.306089	-0.000077
1902	1.8915e+02	1.0847	-4.152194	0.000284	2.840483	0.481191	-0.000028
1903	1.8925e+02	1.0745	-4.192565	0.000406	4.057832	0.687415	-0.000041
1904	1.8935e+02	1.0639	-4.232937	0.000406	4.057832	0.687415	-0.000041
1905	1.8945e+02	1.0540	-4.257160	0.000243	2.434699	0.412449	-0.000024
1906	1.8955e+02	1.0435	-4.313680	0.000568	5.680965	0.962382	-0.000057
1907	1.8965e+02	1.0344	-4.386348	0.000730	7.304098	1.237348	-0.000073
1908	1.8975e+02	1.0243	-4.446905	0.000609	6.086748	1.031123	-0.000061
1909	1.8985e+02	1.0152	-4.511499	0.000649	6.492532	1.099865	-0.000065
1910	1.8995e+02	1.0034	-4.535722	0.000243	2.434699	0.412449	-0.000024
1911	1.9004e+02	0.9944	-4.580130	0.000446	4.463615	0.756157	-0.000045
1912	1.9014e+02	0.9846	-4.660873	0.000812	8.115664	1.374831	-0.000081
1913	1.9024e+02	0.9755	-4.705282	0.000446	4.463615	0.756157	-0.000045
1914	1.9034e+02	0.9652	-4.769876	0.000649	6.492532	1.099865	-0.000065
1915	1.9044e+02	0.9551	-4.810247	0.000406	4.057832	0.687415	-0.000041
1916	1.9054e+02	0.9453	-4.818322	0.000081	0.811566	0.137483	-0.000008
1917	1.9064e+02	0.9346	-4.882916	0.000649	6.492532	1.099865	-0.000065
1918	1.9074e+02	0.9258	-4.951547	0.000690	6.898315	1.168606	-0.000069
1919	1.9084e+02	0.9148	-5.016141	0.000649	6.492532	1.099865	-0.000065
1920	1.9094e+02	0.9042	-5.076698	0.000609	6.086748	1.031123	-0.000061
1921	1.9104e+02	0.8952	-5.088810	0.000122	1.217350	0.206225	-0.000012
1922	1.9114e+02	0.8849	-5.181664	0.000933	9.333014	1.581055	-0.000093
1923	1.9124e+02	0.8759	-5.246258	0.000649	6.492532	1.099865	-0.000065
1924	1.9134e+02	0.8650	-5.262406	0.000162	1.623133	0.274966	-0.000016
1925	1.9144e+02	0.8565	-5.294704	0.000325	3.246266	0.549932	-0.000032
1926	1.9154e+02	0.8448	-5.363335	0.000690	6.898315	1.168606	-0.000069
1927	1.9164e+02	0.8353	-5.456189	0.000933	9.333014	1.581055	-0.000093
1928	1.9174e+02	0.8249	-5.492523	0.000365	3.652049	0.618674	-0.000037
1929	1.9184e+02	0.8157	-5.545006	0.000528	5.275182	0.893640	-0.000053
1930	1.9194e+02	0.8053	-5.557117	0.000122	1.217350	0.206225	-0.000012
1931	1.9203e+02	0.7960	-5.666120	0.001096	10.956147	1.856022	-0.000110
1932	1.9213e+02	0.7851	-5.746863	0.000812	8.115664	1.374831	-0.000081
1933	1.9223e+02	0.7755	-5.758974	0.000122	1.217350	0.206225	-0.000012
1934	1.9233e+02	0.7648	-5.815494	0.000568	5.680965	0.962382	-0.000057
1935	1.9243e+02	0.7556	-5.847791	0.000325	3.246266	0.549932	-0.000032
1936	1.9253e+02	0.7459	-5.916422	0.000690	6.898315	1.168606	-0.000069
1937	1.9263e+02	0.7362	-5.964868	0.000487	4.869399	0.824898	-0.000049
1938	1.9273e+02	0.7259	-6.009277	0.000446	4.463615	0.756157	-0.000045
1939	1.9283e+02	0.7161	-6.085982	0.000771	7.709881	1.306089	-0.000077
1940	1.9293e+02	0.7059	-6.138465	0.000528	5.275182	0.893640	-0.000053
1941	1.9303e+02	0.6960	-6.186911	0.000487	4.869399	0.824898	-0.000049
1942	1.9313e+02	0.6854	-6.275728	0.000893	8.927231	1.512314	-0.000089
1943	1.9323e+02	0.6763	-6.303987	0.000284	2.840483	0.481191	-0.000028
1944	1.9333e+02	0.6663	-6.368582	0.000649	6.492532	1.099865	-0.000065
1945	1.9343e+02	0.6544	-6.437213	0.000690	6.898315	1.168606	-0.000069
1946	1.9353e+02	0.6464	-6.477584	0.000406	4.057832	0.687415	-0.000041
1947	1.9363e+02	0.6370	-6.534104	0.000568	5.680965	0.962382	-0.000057
1948	1.9373e+02	0.6261	-6.558327	0.000243	2.434699	0.412449	-0.000024
1949	1.9383e+02	0.6158	-6.643107	0.000852	8.521448	1.443572	-0.000085
1950	1.9393e+02	0.6065	-6.707701	0.000649	6.492532	1.099865	-0.000065
1951	1.9403e+02	0.5969	-6.800555	0.000933	9.333014	1.581055	-0.000093
1952	1.9412e+02	0.5856	-6.820741	0.000203	2.028916	0.343708	-0.000020
1953	1.9422e+02	0.5762	-6.885335	0.000649	6.492532	1.099865	-0.000065
1954	1.9432e+02	0.5671	-6.929743	0.000446	4.463615	0.756157	-0.000045
1955	1.9442e+02	0.5565	-7.006449	0.000771	7.709881	1.306089	-0.000077
1956	1.9452e+02	0.5467	-7.038746	0.000325	3.246266	0.549932	-0.000032
1957	1.9462e+02	0.5370	-7.103340	0.000649	6.492532	1.099865	-0.000065
1958	1.9472e+02	0.5268	-7.171972	0.000690	6.898315	1.168606	-0.000069
1959	1.9482e+02	0.5170	-7.224454	0.000528	5.275182	0.893640	-0.000053
1960	1.9492e+02	0.5071	-7.285011	0.000609	6.086748	1.031123	-0.000061
1961	1.9502e+02	0.4971	-7.333457	0.000487	4.869399	0.824898	-0.000049
1962	1.9512e+02	0.4861	-7.385940	0.000528	5.275182	0.893640	-0.000053
1963	1.9522e+02	0.4773	-7.470720	0.000852	8.521448	1.443572	-0.000085
1964	1.9532e+02	0.4674	-7.478794	0.000081	0.811566	0.137483	-0.000008
1965	1.9542e+02	0.4578	-7.571648	0.000933	9.333014	1.581055	-0.000093
1966	1.9552e+02	0.4470	-7.624131	0.000528	5.275182	0.893640	-0.000053
1967	1.9562e+02	0.4374	-7.676614	0.000528	5.275182	0.893640	-0.000053
1968	1.9572e+02	0.4274	-7.729096	0.000528	5.275182	0.893640	-0.000053
1969	1.9582e+02	0.4173	-7.789653	0.000609	6.086748	1.031123	-0.000061
1970	1.9592e+02	0.4075	-7.846173	0.000568	5.680965	0.962382	-0.000057
1971	1.9601e+02	0.3976	-7.930953	0.000852	8.521448	1.443572	-0.000085
1972	1.9611e+02	0.3867	-7.983436	0.000528	5.275182	0.893640	-0.000053
1973	1.9621e+02	0.3776	-8.048030	0.000649	6.492532	1.099865	-0.000065
1974	1.9631e+02	0.3674	-8.116661	0.000690	6.898315	1.168606	-0.000069
1975	1.9641e+02	0.3571	-8.132810	0.000162	1.623133	0.274966	-0.000016
1976	1.9651e+02	0.3478	-8.245850	0.001136	11.361930	1.924763	-0.000114
1977	1.9661e+02	0.3379	-8.302370	0.000568	5.680965	0.962382	-0.000057
1978	1.9671e+02	0.3276	-8.322555	0.000203	2.028916	0.343708	-0.000020
1979	1.9681e+02	0.3178	-8.375038	0.000528	5.275182	0.893640	-0.000053
1980	1.9691e+02	0.3077	-8.435595	0.000609	6.086748	1.031123	-0.000061
1981	1.9701e+02	0.2988	-8.528449	0.000933	9.333014	1.581055	-0.000093
1982	1.9711e+02	0.2882	-8.552672	0.000243	2.434699	0.412449	-0.000024
1983	1.9721e+02	0.2774	-8.653600	0.001014	10.144581	1.718538	-0.000101
1984	1.9731e+02	0.2692	-8.673786	0.000203	2.028916	0.343708	-0.000020
1985	1.9741e+02	0.2582	-8.782789	0.001096	10.956147	1.856022	-0.000110
1986	1.9751e+02	0.2481	-8.786826	0.000041	0.405783	0.068742	-0.000004
1987	1.9761e+02	0.2393	-8.903903	0.001177	11.767713	1.993505	-0.000118
1988	1.9771e+02	0.2273	-8.932163	0.000284	2.840483	0.481191	-0.000028
1989	1.9781e+02	0.2183	-9.012906	0.000812	8.115664	1.374831	-0.000081
1990	1.9791e+02	0.2082	-9.069425	0.000568	5.680965	0.962382	-0.000057
1991	1.9800e+02	0.1981	-9.138057	0.000690	6.898315	1.168606	-0.000069
1992	1.9810e+02	0.1884	-9.206688	0.000690	6.898315	1.168606	-0.000069
1993	1.9820e+02	0.1782	-9.198614	-0.000081	-0.811566	-0.137483	0.000008
1994	1.9830e+02	0.1672	-9.279356	0.000812	8.115664	1.374831	-0.000081
1995	1.9840e+02	0.1588	-9.360099	0.000812	8.115664	1.374831	-0.000081
1996	1.9850e+02	0.1485	-9.469102	0.001096	10.956147	1.856022	-0.000110
1997	1.9860e+02	0.1380	-9.477176	0.000081	0.811566	0.137483	-0.000008
1998	1.9870e+02	0.1283	-9.529659	0.000528	5.275182	0.893640	-0.000053
1999	1.9880e+02	0.1186	-9.646736	0.001177	11.767713	1.993505	-0.000118
2000	1.9890e+02	0.1086	-9.683070	0.000365	3.652049	0.618674	-0.000037
2001	1.9900e+02	0.0989	-9.755739	0.000730	7.304098	1.237348	-0.000073
2002	1.9910e+02	0.0900	-9.824370	0.000690	6.898315	1.168606	-0.000069
2003	1.9920e+02	0.0785	-9.852630	0.000284	2.840483	0.481191	-0.000028
2004	1.9930e+02	0.0689	-9.945484	0.000933	9.333014	1.581055	-0.000093
2005	1.9940e+02	0.0595	-10.010078	0.000649	6.492532	1.099865	-0.000065
2006	1.9950e+02	0.0491	-10.046412	0.000365	3.652049	0.618674	-0.000037
2007	1.9960e+02	0.0385	-10.115044	0.000690	6.898315	1.168606	-0.000069
2008	1.9970e+02	0.0286	-10.199823	0.000852	8.521448	1.443572	-0.000085
2009	1.9980e+02	0.0188	-10.292678	0.000933	9.333014	1.581055	-0.000093
2010	1.9990e+02	0.0088	-10.288640	-0.000041	-0.405783	-0.068742	0.000004
2011	2.0000e+02	-0.0010	-10.353235	-0.000041	-0.405783	-0.068742	-0.000065

PMax (uC/cm2):	4.70e+01
Pr (uC/cm2):	1.42e+01
-Pr (uC/cm2):	0.00e+00
PLoss (uC/cm2):	0.00e+00
C (Max-Eff) (nF):	4.70e-01
K (Eff):	7.96e+02
Vert. (+/-Pr) Shift (uC/cm2):	7.09e+00
Offset (uC/cm2):	2.45e+01

A (Loop Area - uC/cm2·Volts):	-8.66e-02



Hysteresis Version: 5.48.1 - Radiant Technologies, Inc., 1999 - 9/12/24

