»»»»»»»»»»»»»»»»»»»»»»»»»»»»»»»»»»»» Hysteresis ««««««««««««««««««««««««««««««««««««
»»»  Executed Version:	5.48.1
»»»  Vision Version:	5.48.4 (R)
»»»  Vision Compiled:	9/18/24
»»»  Driver Version:	5.47.0
»»»  Windows Version:	Windows 8 or 8.1
»»»  Processor Information:	x86 (AMD or Intel) - 32 Processors
»»»  Tester Name:	PMF21124-494 (100V)
»»»  Tester S/N:	PMF21124-494
»»»  Internal Amp Type:	100V RevK 270k
»»»  Internal Amp S/N:	iAB2-596/K     
»»»  Execution Count:	1
»»»»»»»»»»»»»»»»»»»»»»»»»»»»»»»»»»»»»»»»»»««««««««««««««««««««««««««««««««««««««««««

Stored:	6/25/2025 - 16:22:5
Configured:	06/25/25 10:44:40 AM
Executed:	06/25/25 04:21:41 PM

»»»»»»»»»»»»»»»»»»»»»»»»»»»»»»»»»»» Sample Info ««««««««««««««««««««««««««««««««««««
Sample Name:	
Lot Name:	
Wafer Name:	
Die Row/Column:	0/0
Capacitor Number:	0
Sample Area (cm2):	1.00e-04
Sample Thickness (microns):	1.50e-01

Amplifier:	Internal

»»»»»»»»»»»»»»»»»»»»»»»»»»»»»»»»»»» Tester Info «««««««««««««««««««««««««««««««««««
Tester Name:	PMF21124-494 (100V)
Tester Serial Number:	PMF21124-494
Return Signal Amp. Level:	0.19 [Index: 3]

»»»»»»»»»»»»»»»»»»»»»»»»»»»»»»»» Hysteresis Info ««««««««««««««««««««««««««««««««««
Task Name:	Hyst-116
Volts:	10.00
Field:	666.67 (kV/cm)
DCBias:	0.00
DCField:	0.00 (kV/cm)
Hysteresis Period (ms):	2.00e+02
Preset:	Enabled
Preset Delay (ms):	1.00e+03
Profile:	Standard Monopolar

»»»»»»»»»»»»»»»»»»»»»»»»»»»»»»»»»»»»»» Data «««««««««««««««««««««««««««««««««««««««
Points:	2011

Valid Data

Point	Time (ms)	Drive Voltage	Measured Polarization (uC/cm2)	Capacitance (uF)	Normalized Capacitance (uF/cm2)	Dielectric Constant	Instantaneous Current (mA)
   1	0.0000e+00	-0.0002	-25.415788	0.000974	9.739095	1.649847	0.000097
   2	9.9500e-02	0.0089	-25.318897	0.000974	9.739095	1.649847	0.000097
   3	1.9900e-01	0.0203	-25.286600	0.000325	3.246365	0.549949	0.000032
   4	2.9850e-01	0.0295	-25.197783	0.000893	8.927503	1.512360	0.000089
   5	3.9800e-01	0.0389	-25.153374	0.000446	4.463752	0.756180	0.000045
   6	4.9750e-01	0.0491	-25.052446	0.001014	10.144890	1.718591	0.000101
   7	5.9700e-01	0.0591	-25.024186	0.000284	2.840569	0.481205	0.000028
   8	6.9650e-01	0.0682	-24.987852	0.000365	3.652160	0.618693	0.000037
   9	7.9600e-01	0.0788	-24.911146	0.000771	7.710117	1.306129	0.000077
  10	8.9550e-01	0.0890	-24.850589	0.000609	6.086934	1.031155	0.000061
  11	9.9500e-01	0.0986	-24.753698	0.000974	9.739095	1.649847	0.000097
  12	1.0945e+00	0.1090	-24.672955	0.000812	8.115912	1.374873	0.000081
  13	1.1940e+00	0.1191	-24.620472	0.000528	5.275343	0.893667	0.000053
  14	1.2935e+00	0.1279	-24.567990	0.000528	5.275343	0.893667	0.000053
  15	1.3930e+00	0.1389	-24.499358	0.000690	6.898525	1.168642	0.000069
  16	1.4925e+00	0.1479	-24.471098	0.000284	2.840569	0.481205	0.000028
  17	1.5920e+00	0.1584	-24.382281	0.000893	8.927503	1.512360	0.000089
  18	1.6915e+00	0.1688	-24.265204	0.001177	11.768073	1.993565	0.000118
  19	1.7910e+00	0.1784	-24.232907	0.000325	3.246365	0.549949	0.000032
  20	1.8905e+00	0.1881	-24.200610	0.000325	3.246365	0.549949	0.000032
  21	1.9900e+00	0.1986	-24.119867	0.000812	8.115912	1.374873	0.000081
  22	2.0895e+00	0.2081	-24.043162	0.000771	7.710117	1.306129	0.000077
  23	2.1890e+00	0.2187	-23.974531	0.000690	6.898525	1.168642	0.000069
  24	2.2885e+00	0.2279	-23.893788	0.000812	8.115912	1.374873	0.000081
  25	2.3880e+00	0.2375	-23.849379	0.000446	4.463752	0.756180	0.000045
  26	2.4875e+00	0.2472	-23.784785	0.000649	6.492730	1.099898	0.000065
  27	2.5870e+00	0.2583	-23.728265	0.000568	5.681139	0.962411	0.000057
  28	2.6865e+00	0.2679	-23.675783	0.000528	5.275343	0.893667	0.000053
  29	2.7860e+00	0.2773	-23.603114	0.000730	7.304321	1.237385	0.000073
  30	2.8855e+00	0.2873	-23.522371	0.000812	8.115912	1.374873	0.000081
  31	2.9850e+00	0.2988	-23.429517	0.000933	9.333299	1.581104	0.000093
  32	3.0845e+00	0.3081	-23.421443	0.000081	0.811591	0.137487	0.000008
  33	3.1840e+00	0.3169	-23.356849	0.000649	6.492730	1.099898	0.000065
  34	3.2835e+00	0.3272	-23.280143	0.000771	7.710117	1.306129	0.000077
  35	3.3830e+00	0.3378	-23.175178	0.001055	10.550686	1.787335	0.000105
  36	3.4825e+00	0.3479	-23.154992	0.000203	2.028978	0.343718	0.000020
  37	3.5820e+00	0.3568	-23.045989	0.001096	10.956481	1.856078	0.000110
  38	3.6815e+00	0.3677	-23.037915	0.000081	0.811591	0.137487	0.000008
  39	3.7810e+00	0.3778	-22.957172	0.000812	8.115912	1.374873	0.000081
  40	3.8805e+00	0.3876	-22.876430	0.000812	8.115912	1.374873	0.000081
  41	3.9800e+00	0.3974	-22.832021	0.000446	4.463752	0.756180	0.000045
  42	4.0795e+00	0.4087	-22.747241	0.000852	8.521708	1.443616	0.000085
  43	4.1790e+00	0.4185	-22.702833	0.000446	4.463752	0.756180	0.000045
  44	4.2785e+00	0.4279	-22.642276	0.000609	6.086934	1.031155	0.000061
  45	4.3780e+00	0.4379	-22.593830	0.000487	4.869547	0.824924	0.000049
  46	4.4775e+00	0.4463	-22.513087	0.000812	8.115912	1.374873	0.000081
  47	4.5770e+00	0.4557	-22.456568	0.000568	5.681139	0.962411	0.000057
  48	4.6765e+00	0.4671	-22.391973	0.000649	6.492730	1.099898	0.000065
  49	4.7760e+00	0.4762	-22.315268	0.000771	7.710117	1.306129	0.000077
  50	4.8755e+00	0.4874	-22.258748	0.000568	5.681139	0.962411	0.000057
  51	4.9750e+00	0.4973	-22.169931	0.000893	8.927503	1.512360	0.000089
  52	5.0745e+00	0.5071	-22.129560	0.000406	4.057956	0.687436	0.000041
  53	5.1740e+00	0.5174	-22.060928	0.000690	6.898525	1.168642	0.000069
  54	5.2735e+00	0.5266	-22.008445	0.000528	5.275343	0.893667	0.000053
  55	5.3730e+00	0.5370	-21.923666	0.000852	8.521708	1.443616	0.000085
  56	5.4725e+00	0.5479	-21.871183	0.000528	5.275343	0.893667	0.000053
  57	5.5720e+00	0.5560	-21.814663	0.000568	5.681139	0.962411	0.000057
  58	5.6715e+00	0.5666	-21.721809	0.000933	9.333299	1.581104	0.000093
  59	5.7710e+00	0.5771	-21.653178	0.000690	6.898525	1.168642	0.000069
  60	5.8705e+00	0.5865	-21.624918	0.000284	2.840569	0.481205	0.000028
  61	5.9700e+00	0.5966	-21.560323	0.000649	6.492730	1.099898	0.000065
  62	6.0695e+00	0.6065	-21.443246	0.001177	11.768073	1.993565	0.000118
  63	6.1690e+00	0.6157	-21.419024	0.000243	2.434774	0.412462	0.000024
  64	6.2685e+00	0.6258	-21.342318	0.000771	7.710117	1.306129	0.000077
  65	6.3680e+00	0.6364	-21.310021	0.000325	3.246365	0.549949	0.000032
  66	6.4675e+00	0.6464	-21.209093	0.001014	10.144890	1.718591	0.000101
  67	6.5670e+00	0.6564	-21.164684	0.000446	4.463752	0.756180	0.000045
  68	6.6665e+00	0.6656	-21.067793	0.000974	9.739095	1.649847	0.000097
  69	6.7660e+00	0.6758	-21.015310	0.000528	5.275343	0.893667	0.000053
  70	6.8655e+00	0.6854	-20.970902	0.000446	4.463752	0.756180	0.000045
  71	6.9650e+00	0.6960	-20.906307	0.000649	6.492730	1.099898	0.000065
  72	7.0645e+00	0.7064	-20.809416	0.000974	9.739095	1.649847	0.000097
  73	7.1640e+00	0.7156	-20.789230	0.000203	2.028978	0.343718	0.000020
  74	7.2635e+00	0.7254	-20.732711	0.000568	5.681139	0.962411	0.000057
  75	7.3630e+00	0.7361	-20.672154	0.000609	6.086934	1.031155	0.000061
  76	7.4625e+00	0.7453	-20.591411	0.000812	8.115912	1.374873	0.000081
  77	7.5620e+00	0.7555	-20.514705	0.000771	7.710117	1.306129	0.000077
  78	7.6615e+00	0.7658	-20.450111	0.000649	6.492730	1.099898	0.000065
  79	7.7610e+00	0.7758	-20.409740	0.000406	4.057956	0.687436	0.000041
  80	7.8605e+00	0.7867	-20.341108	0.000690	6.898525	1.168642	0.000069
  81	7.9600e+00	0.7950	-20.236143	0.001055	10.550686	1.787335	0.000105
  82	8.0595e+00	0.8053	-20.232106	0.000041	0.405796	0.068744	0.000004
  83	8.1590e+00	0.8149	-20.102917	0.001299	12.985459	2.199796	0.000130
  84	8.2585e+00	0.8251	-20.102917	0.000000	0.000000	0.000000	0.000000
  85	8.3580e+00	0.8361	-20.026212	0.000771	7.710117	1.306129	0.000077
  86	8.4575e+00	0.8461	-19.929321	0.000974	9.739095	1.649847	0.000097
  87	8.5570e+00	0.8554	-19.856652	0.000730	7.304321	1.237385	0.000073
  88	8.6565e+00	0.8651	-19.788021	0.000690	6.898525	1.168642	0.000069
  89	8.7560e+00	0.8750	-19.715352	0.000730	7.304321	1.237385	0.000073
  90	8.8555e+00	0.8850	-19.683055	0.000325	3.246365	0.549949	0.000032
  91	8.9550e+00	0.8953	-19.586164	0.000974	9.739095	1.649847	0.000097
  92	9.0545e+00	0.9054	-19.549830	0.000365	3.652160	0.618693	0.000037
  93	9.1540e+00	0.9158	-19.509458	0.000406	4.057956	0.687436	0.000041
  94	9.2535e+00	0.9249	-19.416604	0.000933	9.333299	1.581104	0.000093
  95	9.3530e+00	0.9351	-19.339899	0.000771	7.710117	1.306129	0.000077
  96	9.4525e+00	0.9450	-19.299527	0.000406	4.057956	0.687436	0.000041
  97	9.5520e+00	0.9542	-19.210710	0.000893	8.927503	1.512360	0.000089
  98	9.6515e+00	0.9649	-19.146116	0.000649	6.492730	1.099898	0.000065
  99	9.7510e+00	0.9750	-19.053262	0.000933	9.333299	1.581104	0.000093
 100	9.8505e+00	0.9846	-18.984631	0.000690	6.898525	1.168642	0.000069
 101	9.9500e+00	0.9943	-18.988668	-0.000041	-0.405796	-0.068744	-0.000004
 102	1.0050e+01	1.0041	-18.903888	0.000852	8.521708	1.443616	0.000085
 103	1.0149e+01	1.0149	-18.815071	0.000893	8.927503	1.512360	0.000089
 104	1.0248e+01	1.0233	-18.758551	0.000568	5.681139	0.962411	0.000057
 105	1.0348e+01	1.0336	-18.714143	0.000446	4.463752	0.756180	0.000045
 106	1.0447e+01	1.0441	-18.601103	0.001136	11.362277	1.924822	0.000114
 107	1.0547e+01	1.0548	-18.580917	0.000203	2.028978	0.343718	0.000020
 108	1.0646e+01	1.0650	-18.508249	0.000730	7.304321	1.237385	0.000073
 109	1.0746e+01	1.0740	-18.439617	0.000690	6.898525	1.168642	0.000069
 110	1.0845e+01	1.0849	-18.366949	0.000730	7.304321	1.237385	0.000073
 111	1.0945e+01	1.0952	-18.326578	0.000406	4.057956	0.687436	0.000041
 112	1.1044e+01	1.1042	-18.249872	0.000771	7.710117	1.306129	0.000077
 113	1.1144e+01	1.1138	-18.177204	0.000730	7.304321	1.237385	0.000073
 114	1.1243e+01	1.1235	-18.100498	0.000771	7.710117	1.306129	0.000077
 115	1.1343e+01	1.1341	-18.056090	0.000446	4.463752	0.756180	0.000045
 116	1.1443e+01	1.1446	-17.987458	0.000690	6.898525	1.168642	0.000069
 117	1.1542e+01	1.1537	-17.866344	0.001217	12.173868	2.062309	0.000122
 118	1.1642e+01	1.1646	-17.866344	0.000000	0.000000	0.000000	0.000000
 119	1.1741e+01	1.1742	-17.737156	0.001299	12.985459	2.199796	0.000130
 120	1.1841e+01	1.1839	-17.692747	0.000446	4.463752	0.756180	0.000045
 121	1.1940e+01	1.1942	-17.640265	0.000528	5.275343	0.893667	0.000053
 122	1.2040e+01	1.2035	-17.551448	0.000893	8.927503	1.512360	0.000089
 123	1.2139e+01	1.2125	-17.503002	0.000487	4.869547	0.824924	0.000049
 124	1.2239e+01	1.2240	-17.450519	0.000528	5.275343	0.893667	0.000053
 125	1.2338e+01	1.2331	-17.402074	0.000487	4.869547	0.824924	0.000049
 126	1.2438e+01	1.2432	-17.293071	0.001096	10.956481	1.856078	0.000110
 127	1.2537e+01	1.2537	-17.232514	0.000609	6.086934	1.031155	0.000061
 128	1.2636e+01	1.2631	-17.200217	0.000325	3.246365	0.549949	0.000032
 129	1.2736e+01	1.2720	-17.135623	0.000649	6.492730	1.099898	0.000065
 130	1.2835e+01	1.2827	-17.046806	0.000893	8.927503	1.512360	0.000089
 131	1.2935e+01	1.2936	-16.974137	0.000730	7.304321	1.237385	0.000073
 132	1.3034e+01	1.3022	-16.966063	0.000081	0.811591	0.137487	0.000008
 133	1.3134e+01	1.3127	-16.824763	0.001420	14.202846	2.406027	0.000142
 134	1.3233e+01	1.3229	-16.788429	0.000365	3.652160	0.618693	0.000037
 135	1.3333e+01	1.3322	-16.715761	0.000730	7.304321	1.237385	0.000073
 136	1.3432e+01	1.3425	-16.687501	0.000284	2.840569	0.481205	0.000028
 137	1.3532e+01	1.3519	-16.630981	0.000568	5.681139	0.962411	0.000057
 138	1.3632e+01	1.3624	-16.546201	0.000852	8.521708	1.443616	0.000085
 139	1.3731e+01	1.3718	-16.481607	0.000649	6.492730	1.099898	0.000065
 140	1.3831e+01	1.3824	-16.408938	0.000730	7.304321	1.237385	0.000073
 141	1.3930e+01	1.3911	-16.332233	0.000771	7.710117	1.306129	0.000077
 142	1.4030e+01	1.4017	-16.263601	0.000690	6.898525	1.168642	0.000069
 143	1.4129e+01	1.4120	-16.219193	0.000446	4.463752	0.756180	0.000045
 144	1.4229e+01	1.4215	-16.134413	0.000852	8.521708	1.443616	0.000085
 145	1.4328e+01	1.4318	-16.065782	0.000690	6.898525	1.168642	0.000069
 146	1.4428e+01	1.4423	-16.013299	0.000528	5.275343	0.893667	0.000053
 147	1.4527e+01	1.4521	-15.981002	0.000325	3.246365	0.549949	0.000032
 148	1.4627e+01	1.4624	-15.892185	0.000893	8.927503	1.512360	0.000089
 149	1.4726e+01	1.4722	-15.811442	0.000812	8.115912	1.374873	0.000081
 150	1.4825e+01	1.4813	-15.779145	0.000325	3.246365	0.549949	0.000032
 151	1.4925e+01	1.4923	-15.706477	0.000730	7.304321	1.237385	0.000073
 152	1.5024e+01	1.5020	-15.605548	0.001014	10.144890	1.718591	0.000101
 153	1.5124e+01	1.5093	-15.540954	0.000649	6.492730	1.099898	0.000065
 154	1.5223e+01	1.5208	-15.512694	0.000284	2.840569	0.481205	0.000028
 155	1.5323e+01	1.5313	-15.472323	0.000406	4.057956	0.687436	0.000041
 156	1.5422e+01	1.5420	-15.375431	0.000974	9.739095	1.649847	0.000097
 157	1.5522e+01	1.5517	-15.310837	0.000649	6.492730	1.099898	0.000065
 158	1.5621e+01	1.5609	-15.294689	0.000162	1.623182	0.274975	0.000016
 159	1.5721e+01	1.5714	-15.181649	0.001136	11.362277	1.924822	0.000114
 160	1.5820e+01	1.5815	-15.149352	0.000325	3.246365	0.549949	0.000032
 161	1.5920e+01	1.5919	-15.088795	0.000609	6.086934	1.031155	0.000061
 162	1.6020e+01	1.6017	-14.995941	0.000933	9.333299	1.581104	0.000093
 163	1.6119e+01	1.6107	-14.943458	0.000528	5.275343	0.893667	0.000053
 164	1.6218e+01	1.6197	-14.878864	0.000649	6.492730	1.099898	0.000065
 165	1.6318e+01	1.6312	-14.806195	0.000730	7.304321	1.237385	0.000073
 166	1.6418e+01	1.6407	-14.773898	0.000325	3.246365	0.549949	0.000032
 167	1.6517e+01	1.6512	-14.721415	0.000528	5.275343	0.893667	0.000053
 168	1.6616e+01	1.6610	-14.648747	0.000730	7.304321	1.237385	0.000073
 169	1.6716e+01	1.6711	-14.572041	0.000771	7.710117	1.306129	0.000077
 170	1.6816e+01	1.6808	-14.531670	0.000406	4.057956	0.687436	0.000041
 171	1.6915e+01	1.6915	-14.454965	0.000771	7.710117	1.306129	0.000077
 172	1.7015e+01	1.7003	-14.366148	0.000893	8.927503	1.512360	0.000089
 173	1.7114e+01	1.7106	-14.329813	0.000365	3.652160	0.618693	0.000037
 174	1.7213e+01	1.7199	-14.281368	0.000487	4.869547	0.824924	0.000049
 175	1.7313e+01	1.7307	-14.212736	0.000690	6.898525	1.168642	0.000069
 176	1.7413e+01	1.7415	-14.156216	0.000568	5.681139	0.962411	0.000057
 177	1.7512e+01	1.7500	-14.107771	0.000487	4.869547	0.824924	0.000049
 178	1.7611e+01	1.7607	-14.035102	0.000730	7.304321	1.237385	0.000073
 179	1.7711e+01	1.7706	-14.010880	0.000243	2.434774	0.412462	0.000024
 180	1.7811e+01	1.7808	-13.901877	0.001096	10.956481	1.856078	0.000110
 181	1.7910e+01	1.7906	-13.877654	0.000243	2.434774	0.412462	0.000024
 182	1.8009e+01	1.8008	-13.829208	0.000487	4.869547	0.824924	0.000049
 183	1.8109e+01	1.8105	-13.764614	0.000649	6.492730	1.099898	0.000065
 184	1.8209e+01	1.8200	-13.667723	0.000974	9.739095	1.649847	0.000097
 185	1.8308e+01	1.8301	-13.627352	0.000406	4.057956	0.687436	0.000041
 186	1.8407e+01	1.8401	-13.550646	0.000771	7.710117	1.306129	0.000077
 187	1.8507e+01	1.8501	-13.514312	0.000365	3.652160	0.618693	0.000037
 188	1.8607e+01	1.8597	-13.449718	0.000649	6.492730	1.099898	0.000065
 189	1.8706e+01	1.8703	-13.413383	0.000365	3.652160	0.618693	0.000037
 190	1.8805e+01	1.8802	-13.324567	0.000893	8.927503	1.512360	0.000089
 191	1.8905e+01	1.8900	-13.243824	0.000812	8.115912	1.374873	0.000081
 192	1.9005e+01	1.8994	-13.223638	0.000203	2.028978	0.343718	0.000020
 193	1.9104e+01	1.9096	-13.134821	0.000893	8.927503	1.512360	0.000089
 194	1.9203e+01	1.9194	-13.086375	0.000487	4.869547	0.824924	0.000049
 195	1.9303e+01	1.9301	-13.025818	0.000609	6.086934	1.031155	0.000061
 196	1.9402e+01	1.9398	-12.977373	0.000487	4.869547	0.824924	0.000049
 197	1.9502e+01	1.9489	-12.900667	0.000771	7.710117	1.306129	0.000077
 198	1.9602e+01	1.9595	-12.864333	0.000365	3.652160	0.618693	0.000037
 199	1.9701e+01	1.9698	-12.819925	0.000446	4.463752	0.756180	0.000045
 200	1.9800e+01	1.9800	-12.755330	0.000649	6.492730	1.099898	0.000065
 201	1.9900e+01	1.9897	-12.694773	0.000609	6.086934	1.031155	0.000061
 202	2.0000e+01	1.9985	-12.674588	0.000203	2.028978	0.343718	0.000020
 203	2.0099e+01	2.0097	-12.573659	0.001014	10.144890	1.718591	0.000101
 204	2.0198e+01	2.0190	-12.525214	0.000487	4.869547	0.824924	0.000049
 205	2.0298e+01	2.0287	-12.496954	0.000284	2.840569	0.481205	0.000028
 206	2.0398e+01	2.0393	-12.424285	0.000730	7.304321	1.237385	0.000073
 207	2.0497e+01	2.0493	-12.347580	0.000771	7.710117	1.306129	0.000077
 208	2.0596e+01	2.0586	-12.303171	0.000446	4.463752	0.756180	0.000045
 209	2.0696e+01	2.0690	-12.254726	0.000487	4.869547	0.824924	0.000049
 210	2.0796e+01	2.0792	-12.173983	0.000812	8.115912	1.374873	0.000081
 211	2.0895e+01	2.0898	-12.133611	0.000406	4.057956	0.687436	0.000041
 212	2.0994e+01	2.0990	-12.064980	0.000690	6.898525	1.168642	0.000069
 213	2.1094e+01	2.1095	-12.032683	0.000325	3.246365	0.549949	0.000032
 214	2.1194e+01	2.1190	-11.947903	0.000852	8.521708	1.443616	0.000085
 215	2.1293e+01	2.1282	-11.935792	0.000122	1.217387	0.206231	0.000012
 216	2.1392e+01	2.1381	-11.846975	0.000893	8.927503	1.512360	0.000089
 217	2.1492e+01	2.1489	-11.754121	0.000933	9.333299	1.581104	0.000093
 218	2.1591e+01	2.1577	-11.725861	0.000284	2.840569	0.481205	0.000028
 219	2.1691e+01	2.1683	-11.673378	0.000528	5.275343	0.893667	0.000053
 220	2.1791e+01	2.1792	-11.608784	0.000649	6.492730	1.099898	0.000065
 221	2.1890e+01	2.1889	-11.552264	0.000568	5.681139	0.962411	0.000057
 222	2.1989e+01	2.1981	-11.487670	0.000649	6.492730	1.099898	0.000065
 223	2.2089e+01	2.2085	-11.439224	0.000487	4.869547	0.824924	0.000049
 224	2.2189e+01	2.2181	-11.402890	0.000365	3.652160	0.618693	0.000037
 225	2.2288e+01	2.2285	-11.318110	0.000852	8.521708	1.443616	0.000085
 226	2.2387e+01	2.2379	-11.301961	0.000162	1.623182	0.274975	0.000016
 227	2.2487e+01	2.2485	-11.241404	0.000609	6.086934	1.031155	0.000061
 228	2.2587e+01	2.2575	-11.172773	0.000690	6.898525	1.168642	0.000069
 229	2.2686e+01	2.2640	-11.096068	0.000771	7.710117	1.306129	0.000077
 230	2.2785e+01	2.2779	-11.035511	0.000609	6.086934	1.031155	0.000061
 231	2.2885e+01	2.2884	-11.031473	0.000041	0.405796	0.068744	0.000004
 232	2.2985e+01	2.2973	-10.958805	0.000730	7.304321	1.237385	0.000073
 233	2.3084e+01	2.3081	-10.845765	0.001136	11.362277	1.924822	0.000114
 234	2.3183e+01	2.3180	-10.857877	-0.000122	-1.217387	-0.206231	-0.000012
 235	2.3283e+01	2.3284	-10.781171	0.000771	7.710117	1.306129	0.000077
 236	2.3383e+01	2.3367	-10.708503	0.000730	7.304321	1.237385	0.000073
 237	2.3482e+01	2.3472	-10.700428	0.000081	0.811591	0.137487	0.000008
 238	2.3581e+01	2.3580	-10.607574	0.000933	9.333299	1.581104	0.000093
 239	2.3681e+01	2.3678	-10.575277	0.000325	3.246365	0.549949	0.000032
 240	2.3780e+01	2.3779	-10.498571	0.000771	7.710117	1.306129	0.000077
 241	2.3880e+01	2.3874	-10.446089	0.000528	5.275343	0.893667	0.000053
 242	2.3980e+01	2.4008	-10.377457	0.000690	6.898525	1.168642	0.000069
 243	2.4079e+01	2.4074	-10.349197	0.000284	2.840569	0.481205	0.000028
 244	2.4178e+01	2.4171	-10.300752	0.000487	4.869547	0.824924	0.000049
 245	2.4278e+01	2.4267	-10.220009	0.000812	8.115912	1.374873	0.000081
 246	2.4378e+01	2.4379	-10.111006	0.001096	10.956481	1.856078	0.000110
 247	2.4477e+01	2.4477	-10.090821	0.000203	2.028978	0.343718	0.000020
 248	2.4576e+01	2.4566	-10.014115	0.000771	7.710117	1.306129	0.000077
 249	2.4676e+01	2.4660	-10.010078	0.000041	0.405796	0.068744	0.000004
 250	2.4776e+01	2.4780	-9.937410	0.000730	7.304321	1.237385	0.000073
 251	2.4875e+01	2.4873	-9.860704	0.000771	7.710117	1.306129	0.000077
 252	2.4974e+01	2.4970	-9.783998	0.000771	7.710117	1.306129	0.000077
 253	2.5074e+01	2.5069	-9.759776	0.000243	2.434774	0.412462	0.000024
 254	2.5174e+01	2.5163	-9.679033	0.000812	8.115912	1.374873	0.000081
 255	2.5273e+01	2.5265	-9.630587	0.000487	4.869547	0.824924	0.000049
 256	2.5372e+01	2.5364	-9.594253	0.000365	3.652160	0.618693	0.000037
 257	2.5472e+01	2.5454	-9.549845	0.000446	4.463752	0.756180	0.000045
 258	2.5572e+01	2.5559	-9.448916	0.001014	10.144890	1.718591	0.000101
 259	2.5671e+01	2.5664	-9.400471	0.000487	4.869547	0.824924	0.000049
 260	2.5770e+01	2.5764	-9.360099	0.000406	4.057956	0.687436	0.000041
 261	2.5870e+01	2.5864	-9.303579	0.000568	5.681139	0.962411	0.000057
 262	2.5970e+01	2.5958	-9.238985	0.000649	6.492730	1.099898	0.000065
 263	2.6069e+01	2.6069	-9.182465	0.000568	5.681139	0.962411	0.000057
 264	2.6169e+01	2.6157	-9.150168	0.000325	3.246365	0.549949	0.000032
 265	2.6268e+01	2.6267	-9.097685	0.000528	5.275343	0.893667	0.000053
 266	2.6367e+01	2.6363	-9.008868	0.000893	8.927503	1.512360	0.000089
 267	2.6467e+01	2.6453	-8.948311	0.000609	6.086934	1.031155	0.000061
 268	2.6567e+01	2.6563	-8.871606	0.000771	7.710117	1.306129	0.000077
 269	2.6666e+01	2.6661	-8.815086	0.000568	5.681139	0.962411	0.000057
 270	2.6765e+01	2.6759	-8.823160	-0.000081	-0.811591	-0.137487	-0.000008
 271	2.6865e+01	2.6854	-8.726269	0.000974	9.739095	1.649847	0.000097
 272	2.6965e+01	2.6965	-8.673786	0.000528	5.275343	0.893667	0.000053
 273	2.7064e+01	2.7055	-8.637452	0.000365	3.652160	0.618693	0.000037
 274	2.7163e+01	2.7150	-8.552672	0.000852	8.521708	1.443616	0.000085
 275	2.7263e+01	2.7258	-8.512301	0.000406	4.057956	0.687436	0.000041
 276	2.7363e+01	2.7357	-8.475966	0.000365	3.652160	0.618693	0.000037
 277	2.7462e+01	2.7456	-8.379075	0.000974	9.739095	1.649847	0.000097
 278	2.7561e+01	2.7561	-8.326592	0.000528	5.275343	0.893667	0.000053
 279	2.7661e+01	2.7666	-8.286221	0.000406	4.057956	0.687436	0.000041
 280	2.7761e+01	2.7757	-8.257961	0.000284	2.840569	0.481205	0.000028
 281	2.7860e+01	2.7857	-8.181256	0.000771	7.710117	1.306129	0.000077
 282	2.7959e+01	2.7953	-8.112624	0.000690	6.898525	1.168642	0.000069
 283	2.8059e+01	2.8060	-8.048030	0.000649	6.492730	1.099898	0.000065
 284	2.8159e+01	2.8153	-7.991510	0.000568	5.681139	0.962411	0.000057
 285	2.8258e+01	2.8257	-7.926916	0.000649	6.492730	1.099898	0.000065
 286	2.8358e+01	2.8356	-7.898656	0.000284	2.840569	0.481205	0.000028
 287	2.8457e+01	2.8454	-7.797728	0.001014	10.144890	1.718591	0.000101
 288	2.8556e+01	2.8548	-7.781579	0.000162	1.623182	0.274975	0.000016
 289	2.8656e+01	2.8656	-7.712948	0.000690	6.898525	1.168642	0.000069
 290	2.8756e+01	2.8745	-7.652391	0.000609	6.086934	1.031155	0.000061
 291	2.8855e+01	2.8853	-7.603945	0.000487	4.869547	0.824924	0.000049
 292	2.8954e+01	2.8946	-7.539351	0.000649	6.492730	1.099898	0.000065
 293	2.9054e+01	2.9051	-7.478794	0.000609	6.086934	1.031155	0.000061
 294	2.9154e+01	2.9150	-7.446497	0.000325	3.246365	0.549949	0.000032
 295	2.9253e+01	2.9242	-7.410163	0.000365	3.652160	0.618693	0.000037
 296	2.9352e+01	2.9351	-7.337494	0.000730	7.304321	1.237385	0.000073
 297	2.9452e+01	2.9449	-7.268863	0.000690	6.898525	1.168642	0.000069
 298	2.9552e+01	2.9549	-7.200232	0.000690	6.898525	1.168642	0.000069
 299	2.9651e+01	2.9649	-7.123526	0.000771	7.710117	1.306129	0.000077
 300	2.9750e+01	2.9747	-7.071043	0.000528	5.275343	0.893667	0.000053
 301	2.9850e+01	2.9848	-7.062969	0.000081	0.811591	0.137487	0.000008
 302	2.9950e+01	2.9945	-6.966078	0.000974	9.739095	1.649847	0.000097
 303	3.0049e+01	3.0052	-6.925706	0.000406	4.057956	0.687436	0.000041
 304	3.0148e+01	3.0145	-6.901484	0.000243	2.434774	0.412462	0.000024
 305	3.0248e+01	3.0241	-6.820741	0.000812	8.115912	1.374873	0.000081
 306	3.0348e+01	3.0347	-6.756147	0.000649	6.492730	1.099898	0.000065
 307	3.0447e+01	3.0440	-6.691552	0.000649	6.492730	1.099898	0.000065
 308	3.0547e+01	3.0535	-6.655218	0.000365	3.652160	0.618693	0.000037
 309	3.0646e+01	3.0643	-6.598698	0.000568	5.681139	0.962411	0.000057
 310	3.0745e+01	3.0740	-6.526030	0.000730	7.304321	1.237385	0.000073
 311	3.0845e+01	3.0841	-6.497770	0.000284	2.840569	0.481205	0.000028
 312	3.0945e+01	3.0947	-6.449324	0.000487	4.869547	0.824924	0.000049
 313	3.1044e+01	3.1048	-6.356470	0.000933	9.333299	1.581104	0.000093
 314	3.1143e+01	3.1142	-6.303987	0.000528	5.275343	0.893667	0.000053
 315	3.1243e+01	3.1244	-6.275728	0.000284	2.840569	0.481205	0.000028
 316	3.1343e+01	3.1352	-6.203059	0.000730	7.304321	1.237385	0.000073
 317	3.1442e+01	3.1441	-6.174799	0.000284	2.840569	0.481205	0.000028
 318	3.1541e+01	3.1542	-6.094056	0.000812	8.115912	1.374873	0.000081
 319	3.1641e+01	3.1640	-6.037536	0.000568	5.681139	0.962411	0.000057
 320	3.1741e+01	3.1729	-6.009277	0.000284	2.840569	0.481205	0.000028
 321	3.1840e+01	3.1832	-5.932571	0.000771	7.710117	1.306129	0.000077
 322	3.1939e+01	3.1927	-5.876051	0.000568	5.681139	0.962411	0.000057
 323	3.2039e+01	3.2040	-5.815494	0.000609	6.086934	1.031155	0.000061
 324	3.2139e+01	3.2139	-5.746863	0.000690	6.898525	1.168642	0.000069
 325	3.2238e+01	3.2230	-5.706491	0.000406	4.057956	0.687436	0.000041
 326	3.2337e+01	3.2333	-5.649971	0.000568	5.681139	0.962411	0.000057
 327	3.2437e+01	3.2439	-5.649971	0.000000	0.000000	0.000000	0.000000
 328	3.2536e+01	3.2537	-5.565192	0.000852	8.521708	1.443616	0.000085
 329	3.2636e+01	3.2639	-5.500597	0.000649	6.492730	1.099898	0.000065
 330	3.2736e+01	3.2723	-5.436003	0.000649	6.492730	1.099898	0.000065
 331	3.2835e+01	3.2836	-5.383521	0.000528	5.275343	0.893667	0.000053
 332	3.2934e+01	3.2923	-5.339112	0.000446	4.463752	0.756180	0.000045
 333	3.3034e+01	3.3031	-5.278555	0.000609	6.086934	1.031155	0.000061
 334	3.3133e+01	3.3134	-5.242221	0.000365	3.652160	0.618693	0.000037
 335	3.3233e+01	3.3230	-5.165515	0.000771	7.710117	1.306129	0.000077
 336	3.3333e+01	3.3327	-5.117070	0.000487	4.869547	0.824924	0.000049
 337	3.3432e+01	3.3430	-5.108995	0.000081	0.811591	0.137487	0.000008
 338	3.3532e+01	3.3530	-5.076698	0.000325	3.246365	0.549949	0.000032
 339	3.3631e+01	3.3622	-4.963658	0.001136	11.362277	1.924822	0.000114
 340	3.3730e+01	3.3720	-4.927324	0.000365	3.652160	0.618693	0.000037
 341	3.3830e+01	3.3823	-4.878879	0.000487	4.869547	0.824924	0.000049
 342	3.3929e+01	3.3929	-4.826396	0.000528	5.275343	0.893667	0.000053
 343	3.4029e+01	3.4026	-4.777950	0.000487	4.869547	0.824924	0.000049
 344	3.4129e+01	3.4119	-4.737579	0.000406	4.057956	0.687436	0.000041
 345	3.4228e+01	3.4215	-4.705282	0.000325	3.246365	0.549949	0.000032
 346	3.4328e+01	3.4319	-4.604353	0.001014	10.144890	1.718591	0.000101
 347	3.4427e+01	3.4420	-4.572056	0.000325	3.246365	0.549949	0.000032
 348	3.4526e+01	3.4531	-4.539759	0.000325	3.246365	0.549949	0.000032
 349	3.4626e+01	3.4619	-4.450942	0.000893	8.927503	1.512360	0.000089
 350	3.4725e+01	3.4717	-4.422682	0.000284	2.840569	0.481205	0.000028
 351	3.4825e+01	3.4818	-4.358088	0.000649	6.492730	1.099898	0.000065
 352	3.4925e+01	3.4911	-4.317717	0.000406	4.057956	0.687436	0.000041
 353	3.5024e+01	3.5012	-4.309642	0.000081	0.811591	0.137487	0.000008
 354	3.5123e+01	3.5120	-4.236974	0.000730	7.304321	1.237385	0.000073
 355	3.5223e+01	3.5223	-4.168343	0.000690	6.898525	1.168642	0.000069
 356	3.5322e+01	3.5319	-4.140083	0.000284	2.840569	0.481205	0.000028
 357	3.5422e+01	3.5421	-4.051266	0.000893	8.927503	1.512360	0.000089
 358	3.5522e+01	3.5519	-3.998783	0.000528	5.275343	0.893667	0.000053
 359	3.5621e+01	3.5615	-3.978597	0.000203	2.028978	0.343718	0.000020
 360	3.5721e+01	3.5706	-3.901892	0.000771	7.710117	1.306129	0.000077
 361	3.5820e+01	3.5816	-3.853446	0.000487	4.869547	0.824924	0.000049
 362	3.5919e+01	3.5920	-3.809038	0.000446	4.463752	0.756180	0.000045
 363	3.6019e+01	3.6012	-3.776740	0.000325	3.246365	0.549949	0.000032
 364	3.6118e+01	3.6121	-3.712146	0.000649	6.492730	1.099898	0.000065
 365	3.6218e+01	3.6211	-3.667738	0.000446	4.463752	0.756180	0.000045
 366	3.6318e+01	3.6318	-3.623329	0.000446	4.463752	0.756180	0.000045
 367	3.6417e+01	3.6411	-3.578921	0.000446	4.463752	0.756180	0.000045
 368	3.6517e+01	3.6510	-3.558735	0.000203	2.028978	0.343718	0.000020
 369	3.6616e+01	3.6622	-3.494141	0.000649	6.492730	1.099898	0.000065
 370	3.6715e+01	3.6707	-3.445695	0.000487	4.869547	0.824924	0.000049
 371	3.6815e+01	3.6816	-3.397250	0.000487	4.869547	0.824924	0.000049
 372	3.6914e+01	3.6914	-3.352841	0.000446	4.463752	0.756180	0.000045
 373	3.7014e+01	3.7012	-3.288247	0.000649	6.492730	1.099898	0.000065
 374	3.7114e+01	3.7114	-3.243839	0.000446	4.463752	0.756180	0.000045
 375	3.7213e+01	3.7206	-3.183282	0.000609	6.086934	1.031155	0.000061
 376	3.7313e+01	3.7316	-3.159059	0.000243	2.434774	0.412462	0.000024
 377	3.7412e+01	3.7408	-3.110613	0.000487	4.869547	0.824924	0.000049
 378	3.7511e+01	3.7517	-3.058130	0.000528	5.275343	0.893667	0.000053
 379	3.7611e+01	3.7615	-3.017759	0.000406	4.057956	0.687436	0.000041
 380	3.7711e+01	3.7708	-2.989499	0.000284	2.840569	0.481205	0.000028
 381	3.7810e+01	3.7807	-2.904719	0.000852	8.521708	1.443616	0.000085
 382	3.7910e+01	3.7902	-2.852236	0.000528	5.275343	0.893667	0.000053
 383	3.8009e+01	3.8006	-2.832051	0.000203	2.028978	0.343718	0.000020
 384	3.8108e+01	3.8105	-2.751308	0.000812	8.115912	1.374873	0.000081
 385	3.8208e+01	3.8204	-2.719011	0.000325	3.246365	0.549949	0.000032
 386	3.8307e+01	3.8305	-2.710937	0.000081	0.811591	0.137487	0.000008
 387	3.8407e+01	3.8400	-2.630194	0.000812	8.115912	1.374873	0.000081
 388	3.8507e+01	3.8498	-2.581748	0.000487	4.869547	0.824924	0.000049
 389	3.8606e+01	3.8607	-2.533303	0.000487	4.869547	0.824924	0.000049
 390	3.8706e+01	3.8700	-2.452560	0.000812	8.115912	1.374873	0.000081
 391	3.8805e+01	3.8802	-2.436411	0.000162	1.623182	0.274975	0.000016
 392	3.8904e+01	3.8891	-2.335483	0.001014	10.144890	1.718591	0.000101
 393	3.9004e+01	3.8992	-2.347594	-0.000122	-1.217387	-0.206231	-0.000012
 394	3.9103e+01	3.9103	-2.274926	0.000730	7.304321	1.237385	0.000073
 395	3.9203e+01	3.9194	-2.218406	0.000568	5.681139	0.962411	0.000057
 396	3.9303e+01	3.9301	-2.206295	0.000122	1.217387	0.206231	0.000012
 397	3.9402e+01	3.9394	-2.149775	0.000568	5.681139	0.962411	0.000057
 398	3.9502e+01	3.9492	-2.081143	0.000690	6.898525	1.168642	0.000069
 399	3.9601e+01	3.9600	-2.052884	0.000284	2.840569	0.481205	0.000028
 400	3.9700e+01	3.9696	-1.992326	0.000609	6.086934	1.031155	0.000061
 401	3.9800e+01	3.9799	-1.968104	0.000243	2.434774	0.412462	0.000024
 402	3.9900e+01	3.9892	-1.907547	0.000609	6.086934	1.031155	0.000061
 403	3.9999e+01	3.9995	-1.883324	0.000243	2.434774	0.412462	0.000024
 404	4.0099e+01	4.0087	-1.794507	0.000893	8.927503	1.512360	0.000089
 405	4.0198e+01	4.0192	-1.729913	0.000649	6.492730	1.099898	0.000065
 406	4.0297e+01	4.0284	-1.713764	0.000162	1.623182	0.274975	0.000016
 407	4.0397e+01	4.0395	-1.661281	0.000528	5.275343	0.893667	0.000053
 408	4.0496e+01	4.0490	-1.608799	0.000528	5.275343	0.893667	0.000053
 409	4.0596e+01	4.0590	-1.568427	0.000406	4.057956	0.687436	0.000041
 410	4.0696e+01	4.0693	-1.544204	0.000243	2.434774	0.412462	0.000024
 411	4.0795e+01	4.0794	-1.479610	0.000649	6.492730	1.099898	0.000065
 412	4.0895e+01	4.0893	-1.443276	0.000365	3.652160	0.618693	0.000037
 413	4.0994e+01	4.0993	-1.366570	0.000771	7.710117	1.306129	0.000077
 414	4.1093e+01	4.1090	-1.318125	0.000487	4.869547	0.824924	0.000049
 415	4.1193e+01	4.1193	-1.301976	0.000162	1.623182	0.274975	0.000016
 416	4.1292e+01	4.1293	-1.241419	0.000609	6.086934	1.031155	0.000061
 417	4.1392e+01	4.1384	-1.180862	0.000609	6.086934	1.031155	0.000061
 418	4.1492e+01	4.1485	-1.160677	0.000203	2.028978	0.343718	0.000020
 419	4.1591e+01	4.1598	-1.096082	0.000649	6.492730	1.099898	0.000065
 420	4.1691e+01	4.1689	-1.075897	0.000203	2.028978	0.343718	0.000020
 421	4.1790e+01	4.1793	-0.987080	0.000893	8.927503	1.512360	0.000089
 422	4.1889e+01	4.1875	-0.962857	0.000243	2.434774	0.412462	0.000024
 423	4.1989e+01	4.1983	-0.882114	0.000812	8.115912	1.374873	0.000081
 424	4.2089e+01	4.2081	-0.898263	-0.000162	-1.623182	-0.274975	-0.000016
 425	4.2188e+01	4.2183	-0.825594	0.000730	7.304321	1.237385	0.000073
 426	4.2288e+01	4.2289	-0.769074	0.000568	5.681139	0.962411	0.000057
 427	4.2387e+01	4.2387	-0.720629	0.000487	4.869547	0.824924	0.000049
 428	4.2486e+01	4.2478	-0.672183	0.000487	4.869547	0.824924	0.000049
 429	4.2586e+01	4.2589	-0.611626	0.000609	6.086934	1.031155	0.000061
 430	4.2685e+01	4.2681	-0.542995	0.000690	6.898525	1.168642	0.000069
 431	4.2785e+01	4.2785	-0.510698	0.000325	3.246365	0.549949	0.000032
 432	4.2885e+01	4.2870	-0.498586	0.000122	1.217387	0.206231	0.000012
 433	4.2984e+01	4.2976	-0.405732	0.000933	9.333299	1.581104	0.000093
 434	4.3084e+01	4.3087	-0.401695	0.000041	0.405796	0.068744	0.000004
 435	4.3183e+01	4.3179	-0.341138	0.000609	6.086934	1.031155	0.000061
 436	4.3282e+01	4.3278	-0.240210	0.001014	10.144890	1.718591	0.000101
 437	4.3382e+01	4.3375	-0.228098	0.000122	1.217387	0.206231	0.000012
 438	4.3481e+01	4.3482	-0.163504	0.000649	6.492730	1.099898	0.000065
 439	4.3581e+01	4.3580	-0.143318	0.000203	2.028978	0.343718	0.000020
 440	4.3681e+01	4.3666	-0.102947	0.000406	4.057956	0.687436	0.000041
 441	4.3780e+01	4.3783	-0.002019	0.001014	10.144890	1.718591	0.000101
 442	4.3880e+01	4.3870	0.018167	0.000203	2.028978	0.343718	0.000020
 443	4.3979e+01	4.3973	0.054501	0.000365	3.652160	0.618693	0.000037
 444	4.4078e+01	4.4075	0.111021	0.000568	5.681139	0.962411	0.000057
 445	4.4178e+01	4.4178	0.159467	0.000487	4.869547	0.824924	0.000049
 446	4.4278e+01	4.4267	0.228098	0.000690	6.898525	1.168642	0.000069
 447	4.4377e+01	4.4372	0.268470	0.000406	4.057956	0.687436	0.000041
 448	4.4477e+01	4.4466	0.324989	0.000568	5.681139	0.962411	0.000057
 449	4.4576e+01	4.4576	0.369398	0.000446	4.463752	0.756180	0.000045
 450	4.4675e+01	4.4666	0.417844	0.000487	4.869547	0.824924	0.000049
 451	4.4775e+01	4.4784	0.442066	0.000243	2.434774	0.412462	0.000024
 452	4.4874e+01	4.4877	0.534920	0.000933	9.333299	1.581104	0.000093
 453	4.4974e+01	4.4965	0.575292	0.000406	4.057956	0.687436	0.000041
 454	4.5074e+01	4.5071	0.611626	0.000365	3.652160	0.618693	0.000037
 455	4.5173e+01	4.5168	0.660072	0.000487	4.869547	0.824924	0.000049
 456	4.5273e+01	4.5264	0.716592	0.000568	5.681139	0.962411	0.000057
 457	4.5372e+01	4.5366	0.789260	0.000730	7.304321	1.237385	0.000073
 458	4.5471e+01	4.5473	0.797334	0.000081	0.811591	0.137487	0.000008
 459	4.5571e+01	4.5571	0.841743	0.000446	4.463752	0.756180	0.000045
 460	4.5670e+01	4.5658	0.946708	0.001055	10.550686	1.787335	0.000105
 461	4.5770e+01	4.5770	0.974968	0.000284	2.840569	0.481205	0.000028
 462	4.5870e+01	4.5864	0.999191	0.000243	2.434774	0.412462	0.000024
 463	4.5969e+01	4.5959	1.055711	0.000568	5.681139	0.962411	0.000057
 464	4.6069e+01	4.6069	1.108194	0.000528	5.275343	0.893667	0.000053
 465	4.6168e+01	4.6163	1.152602	0.000446	4.463752	0.756180	0.000045
 466	4.6267e+01	4.6262	1.225271	0.000730	7.304321	1.237385	0.000073
 467	4.6367e+01	4.6368	1.233345	0.000081	0.811591	0.137487	0.000008
 468	4.6467e+01	4.6465	1.314088	0.000812	8.115912	1.374873	0.000081
 469	4.6566e+01	4.6558	1.374645	0.000609	6.086934	1.031155	0.000061
 470	4.6666e+01	4.6662	1.382719	0.000081	0.811591	0.137487	0.000008
 471	4.6765e+01	4.6770	1.439239	0.000568	5.681139	0.962411	0.000057
 472	4.6864e+01	4.6856	1.491722	0.000528	5.275343	0.893667	0.000053
 473	4.6964e+01	4.6968	1.544204	0.000528	5.275343	0.893667	0.000053
 474	4.7063e+01	4.7054	1.576502	0.000325	3.246365	0.549949	0.000032
 475	4.7163e+01	4.7160	1.628984	0.000528	5.275343	0.893667	0.000053
 476	4.7263e+01	4.7269	1.713764	0.000852	8.521708	1.443616	0.000085
 477	4.7362e+01	4.7348	1.717801	0.000041	0.405796	0.068744	0.000004
 478	4.7462e+01	4.7466	1.762210	0.000446	4.463752	0.756180	0.000045
 479	4.7561e+01	4.7559	1.822767	0.000609	6.086934	1.031155	0.000061
 480	4.7660e+01	4.7662	1.871212	0.000487	4.869547	0.824924	0.000049
 481	4.7760e+01	4.7755	1.939844	0.000690	6.898525	1.168642	0.000069
 482	4.7859e+01	4.7855	1.964067	0.000243	2.434774	0.412462	0.000024
 483	4.7959e+01	4.7962	1.984252	0.000203	2.028978	0.343718	0.000020
 484	4.8059e+01	4.8055	2.077106	0.000933	9.333299	1.581104	0.000093
 485	4.8158e+01	4.8154	2.113441	0.000365	3.652160	0.618693	0.000037
 486	4.8258e+01	4.8260	2.178035	0.000649	6.492730	1.099898	0.000065
 487	4.8357e+01	4.8353	2.182072	0.000041	0.405796	0.068744	0.000004
 488	4.8456e+01	4.8452	2.250703	0.000690	6.898525	1.168642	0.000069
 489	4.8556e+01	4.8551	2.278963	0.000284	2.840569	0.481205	0.000028
 490	4.8656e+01	4.8652	2.343557	0.000649	6.492730	1.099898	0.000065
 491	4.8755e+01	4.8754	2.387966	0.000446	4.463752	0.756180	0.000045
 492	4.8855e+01	4.8846	2.448523	0.000609	6.086934	1.031155	0.000061
 493	4.8954e+01	4.8951	2.480820	0.000325	3.246365	0.549949	0.000032
 494	4.9053e+01	4.9053	2.525228	0.000446	4.463752	0.756180	0.000045
 495	4.9153e+01	4.9148	2.561563	0.000365	3.652160	0.618693	0.000037
 496	4.9252e+01	4.9246	2.618083	0.000568	5.681139	0.962411	0.000057
 497	4.9352e+01	4.9350	2.710937	0.000933	9.333299	1.581104	0.000093
 498	4.9452e+01	4.9456	2.710937	0.000000	0.000000	0.000000	0.000000
 499	4.9551e+01	4.9552	2.767457	0.000568	5.681139	0.962411	0.000057
 500	4.9651e+01	4.9641	2.815902	0.000487	4.869547	0.824924	0.000049
 501	4.9750e+01	4.9746	2.868385	0.000528	5.275343	0.893667	0.000053
 502	4.9849e+01	4.9842	2.840125	-0.000284	-2.840569	-0.481205	-0.000028
 503	4.9949e+01	4.9944	2.932979	0.000933	9.333299	1.581104	0.000093
 504	5.0048e+01	5.0045	2.973350	0.000406	4.057956	0.687436	0.000041
 505	5.0148e+01	5.0147	3.025833	0.000528	5.275343	0.893667	0.000053
 506	5.0248e+01	5.0238	3.090427	0.000649	6.492730	1.099898	0.000065
 507	5.0347e+01	5.0350	3.130799	0.000406	4.057956	0.687436	0.000041
 508	5.0447e+01	5.0436	3.163096	0.000325	3.246365	0.549949	0.000032
 509	5.0546e+01	5.0539	3.179244	0.000162	1.623182	0.274975	0.000016
 510	5.0645e+01	5.0635	3.207504	0.000284	2.840569	0.481205	0.000028
 511	5.0745e+01	5.0732	3.304396	0.000974	9.739095	1.649847	0.000097
 512	5.0844e+01	5.0835	3.336693	0.000325	3.246365	0.549949	0.000032
 513	5.0944e+01	5.0939	3.401287	0.000649	6.492730	1.099898	0.000065
 514	5.1044e+01	5.1044	3.421473	0.000203	2.028978	0.343718	0.000020
 515	5.1143e+01	5.1144	3.433584	0.000122	1.217387	0.206231	0.000012
 516	5.1242e+01	5.1235	3.526438	0.000933	9.333299	1.581104	0.000093
 517	5.1342e+01	5.1340	3.534512	0.000081	0.811591	0.137487	0.000008
 518	5.1441e+01	5.1423	3.615255	0.000812	8.115912	1.374873	0.000081
 519	5.1541e+01	5.1534	3.639478	0.000243	2.434774	0.412462	0.000024
 520	5.1641e+01	5.1640	3.651589	0.000122	1.217387	0.206231	0.000012
 521	5.1740e+01	5.1733	3.736369	0.000852	8.521708	1.443616	0.000085
 522	5.1840e+01	5.1827	3.748481	0.000122	1.217387	0.206231	0.000012
 523	5.1939e+01	5.1937	3.780778	0.000325	3.246365	0.549949	0.000032
 524	5.2038e+01	5.2039	3.853446	0.000730	7.304321	1.237385	0.000073
 525	5.2138e+01	5.2142	3.897855	0.000446	4.463752	0.756180	0.000045
 526	5.2237e+01	5.2229	3.946300	0.000487	4.869547	0.824924	0.000049
 527	5.2337e+01	5.2332	3.978597	0.000325	3.246365	0.549949	0.000032
 528	5.2437e+01	5.2410	4.002820	0.000243	2.434774	0.412462	0.000024
 529	5.2536e+01	5.2529	4.071451	0.000690	6.898525	1.168642	0.000069
 530	5.2636e+01	5.2624	4.095674	0.000243	2.434774	0.412462	0.000024
 531	5.2735e+01	5.2734	4.136046	0.000406	4.057956	0.687436	0.000041
 532	5.2834e+01	5.2828	4.148157	0.000122	1.217387	0.206231	0.000012
 533	5.2934e+01	5.2932	4.241011	0.000933	9.333299	1.581104	0.000093
 534	5.3033e+01	5.3027	4.269271	0.000284	2.840569	0.481205	0.000028
 535	5.3133e+01	5.3123	4.337902	0.000690	6.898525	1.168642	0.000069
 536	5.3233e+01	5.3214	4.358088	0.000203	2.028978	0.343718	0.000020
 537	5.3332e+01	5.3320	4.402497	0.000446	4.463752	0.756180	0.000045
 538	5.3431e+01	5.3429	4.430756	0.000284	2.840569	0.481205	0.000028
 539	5.3531e+01	5.3520	4.479202	0.000487	4.869547	0.824924	0.000049
 540	5.3630e+01	5.3619	4.499388	0.000203	2.028978	0.343718	0.000020
 541	5.3730e+01	5.3728	4.604353	0.001055	10.550686	1.787335	0.000105
 542	5.3830e+01	5.3812	4.588205	-0.000162	-1.623182	-0.274975	-0.000016
 543	5.3929e+01	5.3918	4.628576	0.000406	4.057956	0.687436	0.000041
 544	5.4029e+01	5.4025	4.664910	0.000365	3.652160	0.618693	0.000037
 545	5.4128e+01	5.4128	4.693170	0.000284	2.840569	0.481205	0.000028
 546	5.4227e+01	5.4226	4.769876	0.000771	7.710117	1.306129	0.000077
 547	5.4327e+01	5.4322	4.790062	0.000203	2.028978	0.343718	0.000020
 548	5.4426e+01	5.4427	4.862730	0.000730	7.304321	1.237385	0.000073
 549	5.4526e+01	5.4513	4.907138	0.000446	4.463752	0.756180	0.000045
 550	5.4626e+01	5.4609	4.907138	0.000000	0.000000	0.000000	0.000000
 551	5.4725e+01	5.4726	4.967696	0.000609	6.086934	1.031155	0.000061
 552	5.4825e+01	5.4821	4.991918	0.000243	2.434774	0.412462	0.000024
 553	5.4924e+01	5.4916	5.040364	0.000487	4.869547	0.824924	0.000049
 554	5.5023e+01	5.5015	5.096884	0.000568	5.681139	0.962411	0.000057
 555	5.5123e+01	5.5119	5.137255	0.000406	4.057956	0.687436	0.000041
 556	5.5222e+01	5.5215	5.193775	0.000568	5.681139	0.962411	0.000057
 557	5.5322e+01	5.5318	5.222035	0.000284	2.840569	0.481205	0.000028
 558	5.5422e+01	5.5415	5.270481	0.000487	4.869547	0.824924	0.000049
 559	5.5521e+01	5.5514	5.278555	0.000081	0.811591	0.137487	0.000008
 560	5.5620e+01	5.5618	5.359298	0.000812	8.115912	1.374873	0.000081
 561	5.5720e+01	5.5717	5.403706	0.000446	4.463752	0.756180	0.000045
 562	5.5819e+01	5.5817	5.444078	0.000406	4.057956	0.687436	0.000041
 563	5.5919e+01	5.5930	5.468300	0.000243	2.434774	0.412462	0.000024
 564	5.6019e+01	5.6017	5.508672	0.000406	4.057956	0.687436	0.000041
 565	5.6118e+01	5.6116	5.549043	0.000406	4.057956	0.687436	0.000041
 566	5.6218e+01	5.6216	5.585377	0.000365	3.652160	0.618693	0.000037
 567	5.6317e+01	5.6307	5.633823	0.000487	4.869547	0.824924	0.000049
 568	5.6416e+01	5.6409	5.682269	0.000487	4.869547	0.824924	0.000049
 569	5.6516e+01	5.6515	5.710529	0.000284	2.840569	0.481205	0.000028
 570	5.6615e+01	5.6615	5.783197	0.000730	7.304321	1.237385	0.000073
 571	5.6715e+01	5.6716	5.787234	0.000041	0.405796	0.068744	0.000004
 572	5.6815e+01	5.6812	5.867977	0.000812	8.115912	1.374873	0.000081
 573	5.6914e+01	5.6908	5.876051	0.000081	0.811591	0.137487	0.000008
 574	5.7014e+01	5.7008	5.892200	0.000162	1.623182	0.274975	0.000016
 575	5.7113e+01	5.7110	5.948720	0.000568	5.681139	0.962411	0.000057
 576	5.7212e+01	5.7207	6.021388	0.000730	7.304321	1.237385	0.000073
 577	5.7312e+01	5.7308	6.009277	-0.000122	-1.217387	-0.206231	-0.000012
 578	5.7411e+01	5.7409	6.069834	0.000609	6.086934	1.031155	0.000061
 579	5.7511e+01	5.7510	6.114242	0.000446	4.463752	0.756180	0.000045
 580	5.7611e+01	5.7604	6.162688	0.000487	4.869547	0.824924	0.000049
 581	5.7710e+01	5.7706	6.199022	0.000365	3.652160	0.618693	0.000037
 582	5.7809e+01	5.7809	6.219208	0.000203	2.028978	0.343718	0.000020
 583	5.7909e+01	5.7905	6.275728	0.000568	5.681139	0.962411	0.000057
 584	5.8008e+01	5.8009	6.344359	0.000690	6.898525	1.168642	0.000069
 585	5.8108e+01	5.8108	6.380693	0.000365	3.652160	0.618693	0.000037
 586	5.8208e+01	5.8202	6.412990	0.000325	3.246365	0.549949	0.000032
 587	5.8307e+01	5.8304	6.445287	0.000325	3.246365	0.549949	0.000032
 588	5.8407e+01	5.8410	6.481621	0.000365	3.652160	0.618693	0.000037
 589	5.8506e+01	5.8497	6.546216	0.000649	6.492730	1.099898	0.000065
 590	5.8605e+01	5.8601	6.574476	0.000284	2.840569	0.481205	0.000028
 591	5.8705e+01	5.8702	6.614847	0.000406	4.057956	0.687436	0.000041
 592	5.8804e+01	5.8808	6.651181	0.000365	3.652160	0.618693	0.000037
 593	5.8904e+01	5.8910	6.739998	0.000893	8.927503	1.512360	0.000089
 594	5.9004e+01	5.9010	6.756147	0.000162	1.623182	0.274975	0.000016
 595	5.9103e+01	5.9109	6.800555	0.000446	4.463752	0.756180	0.000045
 596	5.9203e+01	5.9206	6.816704	0.000162	1.623182	0.274975	0.000016
 597	5.9302e+01	5.9304	6.881298	0.000649	6.492730	1.099898	0.000065
 598	5.9401e+01	5.9393	6.941855	0.000609	6.086934	1.031155	0.000061
 599	5.9501e+01	5.9504	6.986263	0.000446	4.463752	0.756180	0.000045
 600	5.9600e+01	5.9597	7.018560	0.000325	3.246365	0.549949	0.000032
 601	5.9700e+01	5.9698	7.050858	0.000325	3.246365	0.549949	0.000032
 602	5.9800e+01	5.9789	7.075080	0.000243	2.434774	0.412462	0.000024
 603	5.9899e+01	5.9896	7.135637	0.000609	6.086934	1.031155	0.000061
 604	5.9998e+01	5.9997	7.171972	0.000365	3.652160	0.618693	0.000037
 605	6.0098e+01	6.0084	7.224454	0.000528	5.275343	0.893667	0.000053
 606	6.0197e+01	6.0191	7.264826	0.000406	4.057956	0.687436	0.000041
 607	6.0297e+01	6.0284	7.313271	0.000487	4.869547	0.824924	0.000049
 608	6.0397e+01	6.0392	7.329420	0.000162	1.623182	0.274975	0.000016
 609	6.0496e+01	6.0485	7.406126	0.000771	7.710117	1.306129	0.000077
 610	6.0596e+01	6.0592	7.426311	0.000203	2.028978	0.343718	0.000020
 611	6.0695e+01	6.0683	7.474757	0.000487	4.869547	0.824924	0.000049
 612	6.0794e+01	6.0789	7.511091	0.000365	3.652160	0.618693	0.000037
 613	6.0894e+01	6.0899	7.551462	0.000406	4.057956	0.687436	0.000041
 614	6.0993e+01	6.0995	7.599908	0.000487	4.869547	0.824924	0.000049
 615	6.1093e+01	6.1089	7.632205	0.000325	3.246365	0.549949	0.000032
 616	6.1193e+01	6.1184	7.664502	0.000325	3.246365	0.549949	0.000032
 617	6.1292e+01	6.1285	7.733134	0.000690	6.898525	1.168642	0.000069
 618	6.1392e+01	6.1385	7.773505	0.000406	4.057956	0.687436	0.000041
 619	6.1491e+01	6.1480	7.854248	0.000812	8.115912	1.374873	0.000081
 620	6.1590e+01	6.1590	7.878470	0.000243	2.434774	0.412462	0.000024
 621	6.1690e+01	6.1680	7.914805	0.000365	3.652160	0.618693	0.000037
 622	6.1789e+01	6.1790	7.951139	0.000365	3.652160	0.618693	0.000037
 623	6.1889e+01	6.1895	7.967287	0.000162	1.623182	0.274975	0.000016
 624	6.1989e+01	6.1991	8.011696	0.000446	4.463752	0.756180	0.000045
 625	6.2088e+01	6.2089	8.084364	0.000730	7.304321	1.237385	0.000073
 626	6.2188e+01	6.2185	8.144921	0.000609	6.086934	1.031155	0.000061
 627	6.2287e+01	6.2286	8.185293	0.000406	4.057956	0.687436	0.000041
 628	6.2386e+01	6.2377	8.221627	0.000365	3.652160	0.618693	0.000037
 629	6.2486e+01	6.2482	8.310444	0.000893	8.927503	1.512360	0.000089
 630	6.2586e+01	6.2577	8.302370	-0.000081	-0.811591	-0.137487	-0.000008
 631	6.2685e+01	6.2677	8.322555	0.000203	2.028978	0.343718	0.000020
 632	6.2785e+01	6.2782	8.411372	0.000893	8.927503	1.512360	0.000089
 633	6.2884e+01	6.2881	8.439632	0.000284	2.840569	0.481205	0.000028
 634	6.2983e+01	6.2984	8.496152	0.000568	5.681139	0.962411	0.000057
 635	6.3083e+01	6.3074	8.544598	0.000487	4.869547	0.824924	0.000049
 636	6.3182e+01	6.3176	8.601118	0.000568	5.681139	0.962411	0.000057
 637	6.3282e+01	6.3280	8.572858	-0.000284	-2.840569	-0.481205	-0.000028
 638	6.3382e+01	6.3377	8.689935	0.001177	11.768073	1.993565	0.000118
 639	6.3481e+01	6.3477	8.698009	0.000081	0.811591	0.137487	0.000008
 640	6.3581e+01	6.3570	8.782789	0.000852	8.521708	1.443616	0.000085
 641	6.3680e+01	6.3668	8.762603	-0.000203	-2.028978	-0.343718	-0.000020
 642	6.3779e+01	6.3775	8.863532	0.001014	10.144890	1.718591	0.000101
 643	6.3879e+01	6.3876	8.863532	0.000000	0.000000	0.000000	0.000000
 644	6.3978e+01	6.3970	8.920051	0.000568	5.681139	0.962411	0.000057
 645	6.4078e+01	6.4063	8.924089	0.000041	0.405796	0.068744	0.000004
 646	6.4177e+01	6.4175	9.004831	0.000812	8.115912	1.374873	0.000081
 647	6.4277e+01	6.4275	9.045203	0.000406	4.057956	0.687436	0.000041
 648	6.4376e+01	6.4365	9.061351	0.000162	1.623182	0.274975	0.000016
 649	6.4476e+01	6.4477	9.113834	0.000528	5.275343	0.893667	0.000053
 650	6.4576e+01	6.4553	9.154205	0.000406	4.057956	0.687436	0.000041
 651	6.4675e+01	6.4669	9.194577	0.000406	4.057956	0.687436	0.000041
 652	6.4775e+01	6.4756	9.210725	0.000162	1.623182	0.274975	0.000016
 653	6.4874e+01	6.4858	9.311654	0.001014	10.144890	1.718591	0.000101
 654	6.4974e+01	6.4956	9.343951	0.000325	3.246365	0.549949	0.000032
 655	6.5073e+01	6.5055	9.376248	0.000325	3.246365	0.549949	0.000032
 656	6.5172e+01	6.5157	9.444879	0.000690	6.898525	1.168642	0.000069
 657	6.5272e+01	6.5240	9.473139	0.000284	2.840569	0.481205	0.000028
 658	6.5371e+01	6.5361	9.497362	0.000243	2.434774	0.412462	0.000024
 659	6.5471e+01	6.5459	9.533696	0.000365	3.652160	0.618693	0.000037
 660	6.5570e+01	6.5557	9.570030	0.000365	3.652160	0.618693	0.000037
 661	6.5670e+01	6.5661	9.614439	0.000446	4.463752	0.756180	0.000045
 662	6.5769e+01	6.5760	9.642699	0.000284	2.840569	0.481205	0.000028
 663	6.5869e+01	6.5862	9.711330	0.000690	6.898525	1.168642	0.000069
 664	6.5969e+01	6.5954	9.763813	0.000528	5.275343	0.893667	0.000053
 665	6.6068e+01	6.6058	9.771887	0.000081	0.811591	0.137487	0.000008
 666	6.6168e+01	6.6159	9.844555	0.000730	7.304321	1.237385	0.000073
 667	6.6267e+01	6.6265	9.864741	0.000203	2.028978	0.343718	0.000020
 668	6.6367e+01	6.6351	9.888964	0.000243	2.434774	0.412462	0.000024
 669	6.6466e+01	6.6462	9.957595	0.000690	6.898525	1.168642	0.000069
 670	6.6566e+01	6.6555	10.006041	0.000487	4.869547	0.824924	0.000049
 671	6.6665e+01	6.6656	10.046412	0.000406	4.057956	0.687436	0.000041
 672	6.6764e+01	6.6755	10.078709	0.000325	3.246365	0.549949	0.000032
 673	6.6864e+01	6.6857	10.090821	0.000122	1.217387	0.206231	0.000012
 674	6.6963e+01	6.6955	10.151378	0.000609	6.086934	1.031155	0.000061
 675	6.7063e+01	6.7062	10.228083	0.000771	7.710117	1.306129	0.000077
 676	6.7162e+01	6.7150	10.207898	-0.000203	-2.028978	-0.343718	-0.000020
 677	6.7262e+01	6.7251	10.228083	0.000203	2.028978	0.343718	0.000020
 678	6.7362e+01	6.7352	10.292678	0.000649	6.492730	1.099898	0.000065
 679	6.7461e+01	6.7458	10.341123	0.000487	4.869547	0.824924	0.000049
 680	6.7561e+01	6.7547	10.357272	0.000162	1.623182	0.274975	0.000016
 681	6.7660e+01	6.7656	10.413792	0.000568	5.681139	0.962411	0.000057
 682	6.7760e+01	6.7757	10.466274	0.000528	5.275343	0.893667	0.000053
 683	6.7859e+01	6.7848	10.510683	0.000446	4.463752	0.756180	0.000045
 684	6.7959e+01	6.7953	10.530869	0.000203	2.028978	0.343718	0.000020
 685	6.8058e+01	6.8046	10.559129	0.000284	2.840569	0.481205	0.000028
 686	6.8157e+01	6.8150	10.615648	0.000568	5.681139	0.962411	0.000057
 687	6.8257e+01	6.8252	10.664094	0.000487	4.869547	0.824924	0.000049
 688	6.8356e+01	6.8340	10.700428	0.000365	3.652160	0.618693	0.000037
 689	6.8456e+01	6.8455	10.708503	0.000081	0.811591	0.137487	0.000008
 690	6.8555e+01	6.8552	10.756948	0.000487	4.869547	0.824924	0.000049
 691	6.8655e+01	6.8654	10.817505	0.000609	6.086934	1.031155	0.000061
 692	6.8754e+01	6.8743	10.865951	0.000487	4.869547	0.824924	0.000049
 693	6.8854e+01	6.8844	10.849802	-0.000162	-1.623182	-0.274975	-0.000016
 694	6.8954e+01	6.8947	10.934582	0.000852	8.521708	1.443616	0.000085
 695	6.9053e+01	6.9044	10.970916	0.000365	3.652160	0.618693	0.000037
 696	6.9153e+01	6.9145	11.003213	0.000325	3.246365	0.549949	0.000032
 697	6.9252e+01	6.9252	11.031473	0.000284	2.840569	0.481205	0.000028
 698	6.9352e+01	6.9352	11.096068	0.000649	6.492730	1.099898	0.000065
 699	6.9451e+01	6.9445	11.096068	0.000000	0.000000	0.000000	0.000000
 700	6.9550e+01	6.9540	11.172773	0.000771	7.710117	1.306129	0.000077
 701	6.9650e+01	6.9630	11.201033	0.000284	2.840569	0.481205	0.000028
 702	6.9749e+01	6.9740	11.253516	0.000528	5.275343	0.893667	0.000053
 703	6.9849e+01	6.9840	11.261590	0.000081	0.811591	0.137487	0.000008
 704	6.9948e+01	6.9933	11.297924	0.000365	3.652160	0.618693	0.000037
 705	7.0048e+01	7.0036	11.358481	0.000609	6.086934	1.031155	0.000061
 706	7.0147e+01	7.0134	11.370593	0.000122	1.217387	0.206231	0.000012
 707	7.0247e+01	7.0240	11.394816	0.000243	2.434774	0.412462	0.000024
 708	7.0347e+01	7.0329	11.415001	0.000203	2.028978	0.343718	0.000020
 709	7.0446e+01	7.0435	11.503818	0.000893	8.927503	1.512360	0.000089
 710	7.0546e+01	7.0538	11.524004	0.000203	2.028978	0.343718	0.000020
 711	7.0645e+01	7.0635	11.580524	0.000568	5.681139	0.962411	0.000057
 712	7.0745e+01	7.0730	11.616858	0.000365	3.652160	0.618693	0.000037
 713	7.0844e+01	7.0845	11.633007	0.000162	1.623182	0.274975	0.000016
 714	7.0944e+01	7.0928	11.657229	0.000243	2.434774	0.412462	0.000024
 715	7.1043e+01	7.1026	11.725861	0.000690	6.898525	1.168642	0.000069
 716	7.1142e+01	7.1127	11.766232	0.000406	4.057956	0.687436	0.000041
 717	7.1242e+01	7.1235	11.802566	0.000365	3.652160	0.618693	0.000037
 718	7.1341e+01	7.1329	11.810641	0.000081	0.811591	0.137487	0.000008
 719	7.1441e+01	7.1441	11.875235	0.000649	6.492730	1.099898	0.000065
 720	7.1540e+01	7.1534	11.911569	0.000365	3.652160	0.618693	0.000037
 721	7.1640e+01	7.1618	11.972126	0.000609	6.086934	1.031155	0.000061
 722	7.1740e+01	7.1734	11.947903	-0.000243	-2.434774	-0.412462	-0.000024
 723	7.1839e+01	7.1837	12.016535	0.000690	6.898525	1.168642	0.000069
 724	7.1939e+01	7.1929	12.048832	0.000325	3.246365	0.549949	0.000032
 725	7.2038e+01	7.2023	12.125537	0.000771	7.710117	1.306129	0.000077
 726	7.2138e+01	7.2131	12.165909	0.000406	4.057956	0.687436	0.000041
 727	7.2237e+01	7.2237	12.145723	-0.000203	-2.028978	-0.343718	-0.000020
 728	7.2337e+01	7.2321	12.226466	0.000812	8.115912	1.374873	0.000081
 729	7.2436e+01	7.2421	12.246651	0.000203	2.028978	0.343718	0.000020
 730	7.2535e+01	7.2521	12.270874	0.000243	2.434774	0.412462	0.000024
 731	7.2635e+01	7.2637	12.327394	0.000568	5.681139	0.962411	0.000057
 732	7.2734e+01	7.2729	12.379877	0.000528	5.275343	0.893667	0.000053
 733	7.2834e+01	7.2829	12.391988	0.000122	1.217387	0.206231	0.000012
 734	7.2933e+01	7.2926	12.424285	0.000325	3.246365	0.549949	0.000032
 735	7.3033e+01	7.3026	12.496954	0.000730	7.304321	1.237385	0.000073
 736	7.3132e+01	7.3121	12.505028	0.000081	0.811591	0.137487	0.000008
 737	7.3232e+01	7.3217	12.565585	0.000609	6.086934	1.031155	0.000061
 738	7.3332e+01	7.3314	12.561548	-0.000041	-0.405796	-0.068744	-0.000004
 739	7.3431e+01	7.3426	12.642291	0.000812	8.115912	1.374873	0.000081
 740	7.3531e+01	7.3521	12.686699	0.000446	4.463752	0.756180	0.000045
 741	7.3630e+01	7.3627	12.690736	0.000041	0.405796	0.068744	0.000004
 742	7.3730e+01	7.3721	12.747256	0.000568	5.681139	0.962411	0.000057
 743	7.3829e+01	7.3823	12.767442	0.000203	2.028978	0.343718	0.000020
 744	7.3928e+01	7.3922	12.807813	0.000406	4.057956	0.687436	0.000041
 745	7.4028e+01	7.4018	12.856259	0.000487	4.869547	0.824924	0.000049
 746	7.4127e+01	7.4126	12.876444	0.000203	2.028978	0.343718	0.000020
 747	7.4227e+01	7.4229	12.932964	0.000568	5.681139	0.962411	0.000057
 748	7.4326e+01	7.4319	12.957187	0.000243	2.434774	0.412462	0.000024
 749	7.4426e+01	7.4425	13.029856	0.000730	7.304321	1.237385	0.000073
 750	7.4525e+01	7.4519	12.997559	-0.000325	-3.246365	-0.549949	-0.000032
 751	7.4625e+01	7.4619	13.074264	0.000771	7.710117	1.306129	0.000077
 752	7.4725e+01	7.4721	13.134821	0.000609	6.086934	1.031155	0.000061
 753	7.4824e+01	7.4812	13.142895	0.000081	0.811591	0.137487	0.000008
 754	7.4924e+01	7.4918	13.231712	0.000893	8.927503	1.512360	0.000089
 755	7.5023e+01	7.5031	13.247861	0.000162	1.623182	0.274975	0.000016
 756	7.5123e+01	7.5110	13.296307	0.000487	4.869547	0.824924	0.000049
 757	7.5222e+01	7.5204	13.336678	0.000406	4.057956	0.687436	0.000041
 758	7.5322e+01	7.5314	13.377049	0.000406	4.057956	0.687436	0.000041
 759	7.5421e+01	7.5406	13.409346	0.000325	3.246365	0.549949	0.000032
 760	7.5520e+01	7.5515	13.457792	0.000487	4.869547	0.824924	0.000049
 761	7.5620e+01	7.5610	13.490089	0.000325	3.246365	0.549949	0.000032
 762	7.5719e+01	7.5703	13.538535	0.000487	4.869547	0.824924	0.000049
 763	7.5819e+01	7.5814	13.542572	0.000041	0.405796	0.068744	0.000004
 764	7.5918e+01	7.5917	13.615240	0.000730	7.304321	1.237385	0.000073
 765	7.6018e+01	7.6006	13.667723	0.000528	5.275343	0.893667	0.000053
 766	7.6118e+01	7.6108	13.687909	0.000203	2.028978	0.343718	0.000020
 767	7.6217e+01	7.6216	13.748466	0.000609	6.086934	1.031155	0.000061
 768	7.6317e+01	7.6318	13.772689	0.000243	2.434774	0.412462	0.000024
 769	7.6416e+01	7.6398	13.825171	0.000528	5.275343	0.893667	0.000053
 770	7.6516e+01	7.6505	13.833246	0.000081	0.811591	0.137487	0.000008
 771	7.6615e+01	7.6617	13.901877	0.000690	6.898525	1.168642	0.000069
 772	7.6715e+01	7.6716	13.934174	0.000325	3.246365	0.549949	0.000032
 773	7.6814e+01	7.6811	13.998768	0.000649	6.492730	1.099898	0.000065
 774	7.6913e+01	7.6905	14.047214	0.000487	4.869547	0.824924	0.000049
 775	7.7013e+01	7.7007	14.071437	0.000243	2.434774	0.412462	0.000024
 776	7.7112e+01	7.7100	14.083548	0.000122	1.217387	0.206231	0.000012
 777	7.7212e+01	7.7197	14.164291	0.000812	8.115912	1.374873	0.000081
 778	7.7311e+01	7.7299	14.216774	0.000528	5.275343	0.893667	0.000053
 779	7.7411e+01	7.7404	14.216774	0.000000	0.000000	0.000000	0.000000
 780	7.7510e+01	7.7507	14.289442	0.000730	7.304321	1.237385	0.000073
 781	7.7610e+01	7.7599	14.297516	0.000081	0.811591	0.137487	0.000008
 782	7.7710e+01	7.7696	14.354036	0.000568	5.681139	0.962411	0.000057
 783	7.7809e+01	7.7798	14.422667	0.000690	6.898525	1.168642	0.000069
 784	7.7909e+01	7.7894	14.454965	0.000325	3.246365	0.549949	0.000032
 785	7.8008e+01	7.8012	14.483224	0.000284	2.840569	0.481205	0.000028
 786	7.8108e+01	7.8103	14.511484	0.000284	2.840569	0.481205	0.000028
 787	7.8207e+01	7.8206	14.608376	0.000974	9.739095	1.649847	0.000097
 788	7.8306e+01	7.8299	14.624524	0.000162	1.623182	0.274975	0.000016
 789	7.8406e+01	7.8403	14.668933	0.000446	4.463752	0.756180	0.000045
 790	7.8505e+01	7.8495	14.713341	0.000446	4.463752	0.756180	0.000045
 791	7.8605e+01	7.8604	14.705267	-0.000081	-0.811591	-0.137487	-0.000008
 792	7.8704e+01	7.8693	14.802158	0.000974	9.739095	1.649847	0.000097
 793	7.8804e+01	7.8786	14.822344	0.000203	2.028978	0.343718	0.000020
 794	7.8903e+01	7.8896	14.874827	0.000528	5.275343	0.893667	0.000053
 795	7.9003e+01	7.8988	14.915198	0.000406	4.057956	0.687436	0.000041
 796	7.9103e+01	7.9102	14.959606	0.000446	4.463752	0.756180	0.000045
 797	7.9202e+01	7.9194	14.995941	0.000365	3.652160	0.618693	0.000037
 798	7.9302e+01	7.9289	15.060535	0.000649	6.492730	1.099898	0.000065
 799	7.9401e+01	7.9395	15.076683	0.000162	1.623182	0.274975	0.000016
 800	7.9501e+01	7.9489	15.117055	0.000406	4.057956	0.687436	0.000041
 801	7.9600e+01	7.9591	15.173575	0.000568	5.681139	0.962411	0.000057
 802	7.9700e+01	7.9690	15.209909	0.000365	3.652160	0.618693	0.000037
 803	7.9799e+01	7.9792	15.270466	0.000609	6.086934	1.031155	0.000061
 804	7.9898e+01	7.9885	15.286614	0.000162	1.623182	0.274975	0.000016
 805	7.9998e+01	7.9989	15.326986	0.000406	4.057956	0.687436	0.000041
 806	8.0097e+01	8.0081	15.347172	0.000203	2.028978	0.343718	0.000020
 807	8.0197e+01	8.0184	15.444063	0.000974	9.739095	1.649847	0.000097
 808	8.0296e+01	8.0285	15.476360	0.000325	3.246365	0.549949	0.000032
 809	8.0396e+01	8.0396	15.492508	0.000162	1.623182	0.274975	0.000016
 810	8.0496e+01	8.0480	15.557103	0.000649	6.492730	1.099898	0.000065
 811	8.0595e+01	8.0591	15.585363	0.000284	2.840569	0.481205	0.000028
 812	8.0695e+01	8.0694	15.645920	0.000609	6.086934	1.031155	0.000061
 813	8.0794e+01	8.0781	15.690328	0.000446	4.463752	0.756180	0.000045
 814	8.0894e+01	8.0879	15.730699	0.000406	4.057956	0.687436	0.000041
 815	8.0993e+01	8.0978	15.783182	0.000528	5.275343	0.893667	0.000053
 816	8.1093e+01	8.1081	15.787219	0.000041	0.405796	0.068744	0.000004
 817	8.1192e+01	8.1188	15.900259	0.001136	11.362277	1.924822	0.000114
 818	8.1291e+01	8.1287	15.880073	-0.000203	-2.028978	-0.343718	-0.000020
 819	8.1391e+01	8.1389	15.924482	0.000446	4.463752	0.756180	0.000045
 820	8.1490e+01	8.1487	15.997150	0.000730	7.304321	1.237385	0.000073
 821	8.1590e+01	8.1584	16.029447	0.000325	3.246365	0.549949	0.000032
 822	8.1689e+01	8.1679	16.053670	0.000243	2.434774	0.412462	0.000024
 823	8.1789e+01	8.1779	16.118264	0.000649	6.492730	1.099898	0.000065
 824	8.1888e+01	8.1885	16.150562	0.000325	3.246365	0.549949	0.000032
 825	8.1988e+01	8.1982	16.178821	0.000284	2.840569	0.481205	0.000028
 826	8.2088e+01	8.2075	16.259564	0.000812	8.115912	1.374873	0.000081
 827	8.2187e+01	8.2188	16.283787	0.000243	2.434774	0.412462	0.000024
 828	8.2287e+01	8.2278	16.340307	0.000568	5.681139	0.962411	0.000057
 829	8.2386e+01	8.2374	16.356455	0.000162	1.623182	0.274975	0.000016
 830	8.2486e+01	8.2484	16.412975	0.000568	5.681139	0.962411	0.000057
 831	8.2585e+01	8.2576	16.473532	0.000609	6.086934	1.031155	0.000061
 832	8.2684e+01	8.2681	16.501792	0.000284	2.840569	0.481205	0.000028
 833	8.2784e+01	8.2770	16.530052	0.000284	2.840569	0.481205	0.000028
 834	8.2883e+01	8.2874	16.598684	0.000690	6.898525	1.168642	0.000069
 835	8.2983e+01	8.2980	16.626944	0.000284	2.840569	0.481205	0.000028
 836	8.3082e+01	8.3082	16.655203	0.000284	2.840569	0.481205	0.000028
 837	8.3182e+01	8.3175	16.707686	0.000528	5.275343	0.893667	0.000053
 838	8.3281e+01	8.3277	16.796503	0.000893	8.927503	1.512360	0.000089
 839	8.3381e+01	8.3366	16.804578	0.000081	0.811591	0.137487	0.000008
 840	8.3481e+01	8.3472	16.828800	0.000243	2.434774	0.412462	0.000024
 841	8.3580e+01	8.3562	16.869172	0.000406	4.057956	0.687436	0.000041
 842	8.3680e+01	8.3671	16.913580	0.000446	4.463752	0.756180	0.000045
 843	8.3779e+01	8.3773	16.949914	0.000365	3.652160	0.618693	0.000037
 844	8.3879e+01	8.3875	16.994323	0.000446	4.463752	0.756180	0.000045
 845	8.3978e+01	8.3976	17.062954	0.000690	6.898525	1.168642	0.000069
 846	8.4078e+01	8.4068	17.091214	0.000284	2.840569	0.481205	0.000028
 847	8.4177e+01	8.4186	17.131586	0.000406	4.057956	0.687436	0.000041
 848	8.4276e+01	8.4277	17.192143	0.000609	6.086934	1.031155	0.000061
 849	8.4376e+01	8.4364	17.192143	0.000000	0.000000	0.000000	0.000000
 850	8.4475e+01	8.4463	17.293071	0.001014	10.144890	1.718591	0.000101
 851	8.4575e+01	8.4570	17.284997	-0.000081	-0.811591	-0.137487	-0.000008
 852	8.4674e+01	8.4677	17.329405	0.000446	4.463752	0.756180	0.000045
 853	8.4774e+01	8.4766	17.361702	0.000325	3.246365	0.549949	0.000032
 854	8.4874e+01	8.4869	17.442445	0.000812	8.115912	1.374873	0.000081
 855	8.4973e+01	8.4971	17.498965	0.000568	5.681139	0.962411	0.000057
 856	8.5073e+01	8.5062	17.498965	0.000000	0.000000	0.000000	0.000000
 857	8.5172e+01	8.5162	17.567596	0.000690	6.898525	1.168642	0.000069
 858	8.5272e+01	8.5269	17.612005	0.000446	4.463752	0.756180	0.000045
 859	8.5371e+01	8.5365	17.640265	0.000284	2.840569	0.481205	0.000028
 860	8.5471e+01	8.5457	17.680636	0.000406	4.057956	0.687436	0.000041
 861	8.5570e+01	8.5559	17.741193	0.000609	6.086934	1.031155	0.000061
 862	8.5669e+01	8.5664	17.765416	0.000243	2.434774	0.412462	0.000024
 863	8.5769e+01	8.5761	17.813861	0.000487	4.869547	0.824924	0.000049
 864	8.5868e+01	8.5864	17.886530	0.000730	7.304321	1.237385	0.000073
 865	8.5968e+01	8.5968	17.866344	-0.000203	-2.028978	-0.343718	-0.000020
 866	8.6067e+01	8.6060	17.943050	0.000771	7.710117	1.306129	0.000077
 867	8.6167e+01	8.6154	17.959198	0.000162	1.623182	0.274975	0.000016
 868	8.6266e+01	8.6253	18.039941	0.000812	8.115912	1.374873	0.000081
 869	8.6366e+01	8.6361	18.068201	0.000284	2.840569	0.481205	0.000028
 870	8.6466e+01	8.6457	18.092424	0.000243	2.434774	0.412462	0.000024
 871	8.6565e+01	8.6549	18.144907	0.000528	5.275343	0.893667	0.000053
 872	8.6665e+01	8.6655	18.161055	0.000162	1.623182	0.274975	0.000016
 873	8.6764e+01	8.6752	18.261984	0.001014	10.144890	1.718591	0.000101
 874	8.6864e+01	8.6853	18.298318	0.000365	3.652160	0.618693	0.000037
 875	8.6963e+01	8.6963	18.318503	0.000203	2.028978	0.343718	0.000020
 876	8.7063e+01	8.7053	18.358875	0.000406	4.057956	0.687436	0.000041
 877	8.7162e+01	8.7151	18.395209	0.000365	3.652160	0.618693	0.000037
 878	8.7261e+01	8.7256	18.451729	0.000568	5.681139	0.962411	0.000057
 879	8.7361e+01	8.7354	18.479989	0.000284	2.840569	0.481205	0.000028
 880	8.7460e+01	8.7452	18.520360	0.000406	4.057956	0.687436	0.000041
 881	8.7560e+01	8.7550	18.576880	0.000568	5.681139	0.962411	0.000057
 882	8.7659e+01	8.7656	18.621289	0.000446	4.463752	0.756180	0.000045
 883	8.7759e+01	8.7748	18.649549	0.000284	2.840569	0.481205	0.000028
 884	8.7859e+01	8.7842	18.714143	0.000649	6.492730	1.099898	0.000065
 885	8.7958e+01	8.7956	18.754514	0.000406	4.057956	0.687436	0.000041
 886	8.8058e+01	8.8042	18.782774	0.000284	2.840569	0.481205	0.000028
 887	8.8157e+01	8.8151	18.843331	0.000609	6.086934	1.031155	0.000061
 888	8.8257e+01	8.8251	18.911962	0.000690	6.898525	1.168642	0.000069
 889	8.8356e+01	8.8340	18.928111	0.000162	1.623182	0.274975	0.000016
 890	8.8456e+01	8.8442	18.976557	0.000487	4.869547	0.824924	0.000049
 891	8.8555e+01	8.8537	19.004816	0.000284	2.840569	0.481205	0.000028
 892	8.8654e+01	8.8631	19.041151	0.000365	3.652160	0.618693	0.000037
 893	8.8754e+01	8.8734	19.117856	0.000771	7.710117	1.306129	0.000077
 894	8.8853e+01	8.8836	19.146116	0.000284	2.840569	0.481205	0.000028
 895	8.8953e+01	8.8943	19.190525	0.000446	4.463752	0.756180	0.000045
 896	8.9052e+01	8.9036	19.238970	0.000487	4.869547	0.824924	0.000049
 897	8.9152e+01	8.9136	19.259156	0.000203	2.028978	0.343718	0.000020
 898	8.9251e+01	8.9236	19.343936	0.000852	8.521708	1.443616	0.000085
 899	8.9351e+01	8.9340	19.380270	0.000365	3.652160	0.618693	0.000037
 900	8.9451e+01	8.9429	19.404493	0.000243	2.434774	0.412462	0.000024
 901	8.9550e+01	8.9535	19.461013	0.000568	5.681139	0.962411	0.000057
 902	8.9650e+01	8.9628	19.485236	0.000243	2.434774	0.412462	0.000024
 903	8.9749e+01	8.9731	19.537718	0.000528	5.275343	0.893667	0.000053
 904	8.9849e+01	8.9841	19.634610	0.000974	9.739095	1.649847	0.000097
 905	8.9948e+01	8.9923	19.638647	0.000041	0.405796	0.068744	0.000004
 906	9.0047e+01	9.0023	19.679018	0.000406	4.057956	0.687436	0.000041
 907	9.0147e+01	9.0139	19.751687	0.000730	7.304321	1.237385	0.000073
 908	9.0246e+01	9.0234	19.800132	0.000487	4.869547	0.824924	0.000049
 909	9.0346e+01	9.0335	19.832429	0.000325	3.246365	0.549949	0.000032
 910	9.0445e+01	9.0430	19.876838	0.000446	4.463752	0.756180	0.000045
 911	9.0545e+01	9.0533	19.921246	0.000446	4.463752	0.756180	0.000045
 912	9.0644e+01	9.0625	19.973729	0.000528	5.275343	0.893667	0.000053
 913	9.0744e+01	9.0726	20.030249	0.000568	5.681139	0.962411	0.000057
 914	9.0844e+01	9.0821	20.090806	0.000609	6.086934	1.031155	0.000061
 915	9.0943e+01	9.0936	20.115029	0.000243	2.434774	0.412462	0.000024
 916	9.1043e+01	9.1027	20.163474	0.000487	4.869547	0.824924	0.000049
 917	9.1142e+01	9.1125	20.199809	0.000365	3.652160	0.618693	0.000037
 918	9.1242e+01	9.1219	20.248254	0.000487	4.869547	0.824924	0.000049
 919	9.1341e+01	9.1321	20.316886	0.000690	6.898525	1.168642	0.000069
 920	9.1441e+01	9.1419	20.337071	0.000203	2.028978	0.343718	0.000020
 921	9.1540e+01	9.1523	20.425888	0.000893	8.927503	1.512360	0.000089
 922	9.1639e+01	9.1619	20.458185	0.000325	3.246365	0.549949	0.000032
 923	9.1739e+01	9.1721	20.530854	0.000730	7.304321	1.237385	0.000073
 924	9.1838e+01	9.1814	20.551039	0.000203	2.028978	0.343718	0.000020
 925	9.1938e+01	9.1913	20.603522	0.000528	5.275343	0.893667	0.000053
 926	9.2037e+01	9.2020	20.660042	0.000568	5.681139	0.962411	0.000057
 927	9.2137e+01	9.2121	20.724636	0.000649	6.492730	1.099898	0.000065
 928	9.2237e+01	9.2215	20.752896	0.000284	2.840569	0.481205	0.000028
 929	9.2336e+01	9.2316	20.845750	0.000933	9.333299	1.581104	0.000093
 930	9.2436e+01	9.2419	20.865936	0.000203	2.028978	0.343718	0.000020
 931	9.2535e+01	9.2521	20.906307	0.000406	4.057956	0.687436	0.000041
 932	9.2635e+01	9.2617	20.946679	0.000406	4.057956	0.687436	0.000041
 933	9.2734e+01	9.2725	21.011273	0.000649	6.492730	1.099898	0.000065
 934	9.2834e+01	9.2814	21.083941	0.000730	7.304321	1.237385	0.000073
 935	9.2933e+01	9.2921	21.128350	0.000446	4.463752	0.756180	0.000045
 936	9.3032e+01	9.3005	21.192944	0.000649	6.492730	1.099898	0.000065
 937	9.3132e+01	9.3115	21.241390	0.000487	4.869547	0.824924	0.000049
 938	9.3231e+01	9.3213	21.289835	0.000487	4.869547	0.824924	0.000049
 939	9.3331e+01	9.3325	21.322132	0.000325	3.246365	0.549949	0.000032
 940	9.3430e+01	9.3409	21.382689	0.000609	6.086934	1.031155	0.000061
 941	9.3530e+01	9.3508	21.475544	0.000933	9.333299	1.581104	0.000093
 942	9.3629e+01	9.3616	21.519952	0.000446	4.463752	0.756180	0.000045
 943	9.3729e+01	9.3708	21.568398	0.000487	4.869547	0.824924	0.000049
 944	9.3829e+01	9.3815	21.628955	0.000609	6.086934	1.031155	0.000061
 945	9.3928e+01	9.3906	21.681437	0.000528	5.275343	0.893667	0.000053
 946	9.4028e+01	9.4012	21.705660	0.000243	2.434774	0.412462	0.000024
 947	9.4127e+01	9.4104	21.786403	0.000812	8.115912	1.374873	0.000081
 948	9.4227e+01	9.4211	21.830812	0.000446	4.463752	0.756180	0.000045
 949	9.4326e+01	9.4308	21.887331	0.000568	5.681139	0.962411	0.000057
 950	9.4425e+01	9.4402	21.923666	0.000365	3.652160	0.618693	0.000037
 951	9.4525e+01	9.4501	21.988260	0.000649	6.492730	1.099898	0.000065
 952	9.4624e+01	9.4599	22.028631	0.000406	4.057956	0.687436	0.000041
 953	9.4724e+01	9.4706	22.093225	0.000649	6.492730	1.099898	0.000065
 954	9.4823e+01	9.4819	22.173968	0.000812	8.115912	1.374873	0.000081
 955	9.4923e+01	9.4913	22.214339	0.000406	4.057956	0.687436	0.000041
 956	9.5022e+01	9.5007	22.282971	0.000690	6.898525	1.168642	0.000069
 957	9.5122e+01	9.5109	22.343528	0.000609	6.086934	1.031155	0.000061
 958	9.5222e+01	9.5209	22.396011	0.000528	5.275343	0.893667	0.000053
 959	9.5321e+01	9.5313	22.472716	0.000771	7.710117	1.306129	0.000077
 960	9.5421e+01	9.5392	22.500976	0.000284	2.840569	0.481205	0.000028
 961	9.5520e+01	9.5509	22.553459	0.000528	5.275343	0.893667	0.000053
 962	9.5620e+01	9.5597	22.614016	0.000609	6.086934	1.031155	0.000061
 963	9.5719e+01	9.5703	22.658424	0.000446	4.463752	0.756180	0.000045
 964	9.5819e+01	9.5801	22.743204	0.000852	8.521708	1.443616	0.000085
 965	9.5918e+01	9.5911	22.795687	0.000528	5.275343	0.893667	0.000053
 966	9.6017e+01	9.6002	22.876430	0.000812	8.115912	1.374873	0.000081
 967	9.6117e+01	9.6108	22.912764	0.000365	3.652160	0.618693	0.000037
 968	9.6216e+01	9.6201	23.017729	0.001055	10.550686	1.787335	0.000105
 969	9.6316e+01	9.6309	23.013692	-0.000041	-0.405796	-0.068744	-0.000004
 970	9.6415e+01	9.6400	23.114621	0.001014	10.144890	1.718591	0.000101
 971	9.6515e+01	9.6493	23.159029	0.000446	4.463752	0.756180	0.000045
 972	9.6615e+01	9.6592	23.223623	0.000649	6.492730	1.099898	0.000065
 973	9.6714e+01	9.6690	23.292255	0.000690	6.898525	1.168642	0.000069
 974	9.6814e+01	9.6784	23.348775	0.000568	5.681139	0.962411	0.000057
 975	9.6913e+01	9.6899	23.397220	0.000487	4.869547	0.824924	0.000049
 976	9.7013e+01	9.6992	23.441629	0.000446	4.463752	0.756180	0.000045
 977	9.7112e+01	9.7097	23.522371	0.000812	8.115912	1.374873	0.000081
 978	9.7212e+01	9.7192	23.574854	0.000528	5.275343	0.893667	0.000053
 979	9.7311e+01	9.7297	23.635411	0.000609	6.086934	1.031155	0.000061
 980	9.7410e+01	9.7394	23.687894	0.000528	5.275343	0.893667	0.000053
 981	9.7510e+01	9.7485	23.752488	0.000649	6.492730	1.099898	0.000065
 982	9.7609e+01	9.7601	23.809008	0.000568	5.681139	0.962411	0.000057
 983	9.7709e+01	9.7683	23.865528	0.000568	5.681139	0.962411	0.000057
 984	9.7808e+01	9.7794	23.974531	0.001096	10.956481	1.856078	0.000110
 985	9.7908e+01	9.7900	24.014902	0.000406	4.057956	0.687436	0.000041
 986	9.8007e+01	9.7998	24.063348	0.000487	4.869547	0.824924	0.000049
 987	9.8107e+01	9.8096	24.111793	0.000487	4.869547	0.824924	0.000049
 988	9.8207e+01	9.8193	24.176387	0.000649	6.492730	1.099898	0.000065
 989	9.8306e+01	9.8291	24.265204	0.000893	8.927503	1.512360	0.000089
 990	9.8406e+01	9.8392	24.321724	0.000568	5.681139	0.962411	0.000057
 991	9.8505e+01	9.8486	24.370170	0.000487	4.869547	0.824924	0.000049
 992	9.8605e+01	9.8591	24.450913	0.000812	8.115912	1.374873	0.000081
 993	9.8704e+01	9.8682	24.487247	0.000365	3.652160	0.618693	0.000037
 994	9.8803e+01	9.8782	24.572027	0.000852	8.521708	1.443616	0.000085
 995	9.8903e+01	9.8881	24.656807	0.000852	8.521708	1.443616	0.000085
 996	9.9002e+01	9.8981	24.737549	0.000812	8.115912	1.374873	0.000081
 997	9.9102e+01	9.9082	24.749661	0.000122	1.217387	0.206231	0.000012
 998	9.9201e+01	9.9185	24.842515	0.000933	9.333299	1.581104	0.000093
 999	9.9301e+01	9.9286	24.903072	0.000609	6.086934	1.031155	0.000061
1000	9.9400e+01	9.9377	24.959592	0.000568	5.681139	0.962411	0.000057
1001	9.9500e+01	9.9487	25.040334	0.000812	8.115912	1.374873	0.000081
1002	9.9600e+01	9.9579	25.100891	0.000609	6.086934	1.031155	0.000061
1003	9.9699e+01	9.9681	25.161448	0.000609	6.086934	1.031155	0.000061
1004	9.9799e+01	9.9780	25.217968	0.000568	5.681139	0.962411	0.000057
1005	9.9898e+01	9.9891	25.314860	0.000974	9.739095	1.649847	0.000097
1006	9.9998e+01	9.9982	25.310823	-0.000041	-0.405796	-0.068744	-0.000004
1007	1.0010e+02	9.9881	25.343120	-0.000325	-3.246365	-0.549949	0.000032
1008	1.0020e+02	9.9787	25.363305	-0.000203	-2.028978	-0.343718	0.000020
1009	1.0030e+02	9.9677	25.331008	0.000325	3.246365	0.549949	-0.000032
1010	1.0040e+02	9.9585	25.375417	-0.000446	-4.463752	-0.756180	0.000045
1011	1.0050e+02	9.9480	25.371380	0.000041	0.405796	0.068744	-0.000004
1012	1.0059e+02	9.9381	25.343120	0.000284	2.840569	0.481205	-0.000028
1013	1.0069e+02	9.9276	25.395602	-0.000528	-5.275343	-0.893667	0.000053
1014	1.0079e+02	9.9189	25.407714	-0.000122	-1.217387	-0.206231	0.000012
1015	1.0089e+02	9.9083	25.387528	0.000203	2.028978	0.343718	-0.000020
1016	1.0099e+02	9.8981	25.379454	0.000081	0.811591	0.137487	-0.000008
1017	1.0109e+02	9.8877	25.387528	-0.000081	-0.811591	-0.137487	0.000008
1018	1.0119e+02	9.8782	25.415788	-0.000284	-2.840569	-0.481205	0.000028
1019	1.0129e+02	9.8682	25.391565	0.000243	2.434774	0.412462	-0.000024
1020	1.0139e+02	9.8584	25.407714	-0.000162	-1.623182	-0.274975	0.000016
1021	1.0149e+02	9.8493	25.379454	0.000284	2.840569	0.481205	-0.000028
1022	1.0159e+02	9.8389	25.391565	-0.000122	-1.217387	-0.206231	0.000012
1023	1.0169e+02	9.8294	25.395602	-0.000041	-0.405796	-0.068744	0.000004
1024	1.0179e+02	9.8181	25.395602	-0.000000	-0.000000	-0.000000	0.000000
1025	1.0189e+02	9.8096	25.347157	0.000487	4.869547	0.824924	-0.000049
1026	1.0199e+02	9.7998	25.379454	-0.000325	-3.246365	-0.549949	0.000032
1027	1.0209e+02	9.7904	25.339082	0.000406	4.057956	0.687436	-0.000041
1028	1.0219e+02	9.7785	25.355231	-0.000162	-1.623182	-0.274975	0.000016
1029	1.0229e+02	9.7691	25.331008	0.000243	2.434774	0.412462	-0.000024
1030	1.0239e+02	9.7598	25.335045	-0.000041	-0.405796	-0.068744	0.000004
1031	1.0248e+02	9.7495	25.351194	-0.000162	-1.623182	-0.274975	0.000016
1032	1.0258e+02	9.7395	25.363305	-0.000122	-1.217387	-0.206231	0.000012
1033	1.0268e+02	9.7291	25.322934	0.000406	4.057956	0.687436	-0.000041
1034	1.0278e+02	9.7192	25.322934	-0.000000	-0.000000	-0.000000	0.000000
1035	1.0288e+02	9.7095	25.331008	-0.000081	-0.811591	-0.137487	0.000008
1036	1.0298e+02	9.6997	25.282563	0.000487	4.869547	0.824924	-0.000049
1037	1.0308e+02	9.6905	25.278525	0.000041	0.405796	0.068744	-0.000004
1038	1.0318e+02	9.6796	25.250265	0.000284	2.840569	0.481205	-0.000028
1039	1.0328e+02	9.6692	25.246228	0.000041	0.405796	0.068744	-0.000004
1040	1.0338e+02	9.6598	25.266414	-0.000203	-2.028978	-0.343718	0.000020
1041	1.0348e+02	9.6499	25.226043	0.000406	4.057956	0.687436	-0.000041
1042	1.0358e+02	9.6400	25.213931	0.000122	1.217387	0.206231	-0.000012
1043	1.0368e+02	9.6304	25.185671	0.000284	2.840569	0.481205	-0.000028
1044	1.0378e+02	9.6199	25.169523	0.000162	1.623182	0.274975	-0.000016
1045	1.0388e+02	9.6094	25.189708	-0.000203	-2.028978	-0.343718	0.000020
1046	1.0398e+02	9.5998	25.129151	0.000609	6.086934	1.031155	-0.000061
1047	1.0408e+02	9.5904	25.145300	-0.000162	-1.623182	-0.274975	0.000016
1048	1.0418e+02	9.5792	25.137226	0.000081	0.811591	0.137487	-0.000008
1049	1.0428e+02	9.5698	25.113003	0.000243	2.434774	0.412462	-0.000024
1050	1.0438e+02	9.5612	25.133189	-0.000203	-2.028978	-0.343718	0.000020
1051	1.0447e+02	9.5508	25.092817	0.000406	4.057956	0.687436	-0.000041
1052	1.0457e+02	9.5410	25.096854	-0.000041	-0.405796	-0.068744	0.000004
1053	1.0467e+02	9.5300	25.100891	-0.000041	-0.405796	-0.068744	0.000004
1054	1.0477e+02	9.5206	25.056483	0.000446	4.463752	0.756180	-0.000045
1055	1.0487e+02	9.5111	25.052446	0.000041	0.405796	0.068744	-0.000004
1056	1.0497e+02	9.5005	25.044372	0.000081	0.811591	0.137487	-0.000008
1057	1.0507e+02	9.4910	24.999963	0.000446	4.463752	0.756180	-0.000045
1058	1.0517e+02	9.4812	24.983815	0.000162	1.623182	0.274975	-0.000016
1059	1.0527e+02	9.4707	24.967666	0.000162	1.623182	0.274975	-0.000016
1060	1.0537e+02	9.4614	25.004000	-0.000365	-3.652160	-0.618693	0.000037
1061	1.0547e+02	9.4507	24.939406	0.000649	6.492730	1.099898	-0.000065
1062	1.0557e+02	9.4411	24.935369	0.000041	0.405796	0.068744	-0.000004
1063	1.0567e+02	9.4308	24.903072	0.000325	3.246365	0.549949	-0.000032
1064	1.0577e+02	9.4214	24.907109	-0.000041	-0.405796	-0.068744	0.000004
1065	1.0587e+02	9.4122	24.923257	-0.000162	-1.623182	-0.274975	0.000016
1066	1.0597e+02	9.4006	24.866738	0.000568	5.681139	0.962411	-0.000057
1067	1.0607e+02	9.3916	24.846552	0.000203	2.028978	0.343718	-0.000020
1068	1.0617e+02	9.3812	24.846552	-0.000000	-0.000000	-0.000000	0.000000
1069	1.0627e+02	9.3703	24.781958	0.000649	6.492730	1.099898	-0.000065
1070	1.0637e+02	9.3609	24.818292	-0.000365	-3.652160	-0.618693	0.000037
1071	1.0647e+02	9.3512	24.794069	0.000243	2.434774	0.412462	-0.000024
1072	1.0656e+02	9.3417	24.781958	0.000122	1.217387	0.206231	-0.000012
1073	1.0666e+02	9.3311	24.757735	0.000243	2.434774	0.412462	-0.000024
1074	1.0676e+02	9.3213	24.729475	0.000284	2.840569	0.481205	-0.000028
1075	1.0686e+02	9.3124	24.721401	0.000081	0.811591	0.137487	-0.000008
1076	1.0696e+02	9.3018	24.668918	0.000528	5.275343	0.893667	-0.000053
1077	1.0706e+02	9.2910	24.644695	0.000243	2.434774	0.412462	-0.000024
1078	1.0716e+02	9.2816	24.620472	0.000243	2.434774	0.412462	-0.000024
1079	1.0726e+02	9.2725	24.632584	-0.000122	-1.217387	-0.206231	0.000012
1080	1.0736e+02	9.2616	24.616435	0.000162	1.623182	0.274975	-0.000016
1081	1.0746e+02	9.2518	24.572027	0.000446	4.463752	0.756180	-0.000045
1082	1.0756e+02	9.2426	24.555878	0.000162	1.623182	0.274975	-0.000016
1083	1.0766e+02	9.2319	24.559915	-0.000041	-0.405796	-0.068744	0.000004
1084	1.0776e+02	9.2224	24.503395	0.000568	5.681139	0.962411	-0.000057
1085	1.0786e+02	9.2122	24.527618	-0.000243	-2.434774	-0.412462	0.000024
1086	1.0796e+02	9.2019	24.479173	0.000487	4.869547	0.824924	-0.000049
1087	1.0806e+02	9.1920	24.483210	-0.000041	-0.405796	-0.068744	0.000004
1088	1.0816e+02	9.1827	24.450913	0.000325	3.246365	0.549949	-0.000032
1089	1.0826e+02	9.1724	24.450913	-0.000000	-0.000000	-0.000000	0.000000
1090	1.0836e+02	9.1626	24.418616	0.000325	3.246365	0.549949	-0.000032
1091	1.0845e+02	9.1534	24.398430	0.000203	2.028978	0.343718	-0.000020
1092	1.0855e+02	9.1422	24.382281	0.000162	1.623182	0.274975	-0.000016
1093	1.0865e+02	9.1321	24.366133	0.000162	1.623182	0.274975	-0.000016
1094	1.0875e+02	9.1228	24.317687	0.000487	4.869547	0.824924	-0.000049
1095	1.0885e+02	9.1132	24.329799	-0.000122	-1.217387	-0.206231	0.000012
1096	1.0895e+02	9.1028	24.301539	0.000284	2.840569	0.481205	-0.000028
1097	1.0905e+02	9.0932	24.253093	0.000487	4.869547	0.824924	-0.000049
1098	1.0915e+02	9.0823	24.273279	-0.000203	-2.028978	-0.343718	0.000020
1099	1.0925e+02	9.0731	24.257130	0.000162	1.623182	0.274975	-0.000016
1100	1.0935e+02	9.0625	24.257130	-0.000000	-0.000000	-0.000000	0.000000
1101	1.0945e+02	9.0527	24.232907	0.000243	2.434774	0.412462	-0.000024
1102	1.0955e+02	9.0433	24.176387	0.000568	5.681139	0.962411	-0.000057
1103	1.0965e+02	9.0343	24.168313	0.000081	0.811591	0.137487	-0.000008
1104	1.0975e+02	9.0229	24.136016	0.000325	3.246365	0.549949	-0.000032
1105	1.0985e+02	9.0131	24.111793	0.000243	2.434774	0.412462	-0.000024
1106	1.0995e+02	9.0034	24.091608	0.000203	2.028978	0.343718	-0.000020
1107	1.1005e+02	8.9935	24.071422	0.000203	2.028978	0.343718	-0.000020
1108	1.1015e+02	8.9825	24.059310	0.000122	1.217387	0.206231	-0.000012
1109	1.1025e+02	8.9733	24.047199	0.000122	1.217387	0.206231	-0.000012
1110	1.1035e+02	8.9633	24.014902	0.000325	3.246365	0.549949	-0.000032
1111	1.1044e+02	8.9536	23.982605	0.000325	3.246365	0.549949	-0.000032
1112	1.1054e+02	8.9434	23.970493	0.000122	1.217387	0.206231	-0.000012
1113	1.1064e+02	8.9336	23.946271	0.000243	2.434774	0.412462	-0.000024
1114	1.1074e+02	8.9234	23.909936	0.000365	3.652160	0.618693	-0.000037
1115	1.1084e+02	8.9129	23.918011	-0.000081	-0.811591	-0.137487	0.000008
1116	1.1094e+02	8.9044	23.897825	0.000203	2.028978	0.343718	-0.000020
1117	1.1104e+02	8.8933	23.877639	0.000203	2.028978	0.343718	-0.000020
1118	1.1114e+02	8.8840	23.885714	-0.000081	-0.811591	-0.137487	0.000008
1119	1.1124e+02	8.8726	23.804971	0.000812	8.115912	1.374873	-0.000081
1120	1.1134e+02	8.8635	23.821119	-0.000162	-1.623182	-0.274975	0.000016
1121	1.1144e+02	8.8541	23.804971	0.000162	1.623182	0.274975	-0.000016
1122	1.1154e+02	8.8438	23.800934	0.000041	0.405796	0.068744	-0.000004
1123	1.1164e+02	8.8343	23.764600	0.000365	3.652160	0.618693	-0.000037
1124	1.1174e+02	8.8248	23.679820	0.000852	8.521708	1.443616	-0.000085
1125	1.1184e+02	8.8159	23.712117	-0.000325	-3.246365	-0.549949	0.000032
1126	1.1194e+02	8.8039	23.663671	0.000487	4.869547	0.824924	-0.000049
1127	1.1204e+02	8.7943	23.655597	0.000081	0.811591	0.137487	-0.000008
1128	1.1214e+02	8.7848	23.643485	0.000122	1.217387	0.206231	-0.000012
1129	1.1224e+02	8.7746	23.603114	0.000406	4.057956	0.687436	-0.000041
1130	1.1234e+02	8.7653	23.611188	-0.000081	-0.811591	-0.137487	0.000008
1131	1.1244e+02	8.7551	23.566780	0.000446	4.463752	0.756180	-0.000045
1132	1.1253e+02	8.7451	23.542557	0.000243	2.434774	0.412462	-0.000024
1133	1.1263e+02	8.7354	23.546594	-0.000041	-0.405796	-0.068744	0.000004
1134	1.1273e+02	8.7251	23.506223	0.000406	4.057956	0.687436	-0.000041
1135	1.1283e+02	8.7164	23.510260	-0.000041	-0.405796	-0.068744	0.000004
1136	1.1293e+02	8.7061	23.425480	0.000852	8.521708	1.443616	-0.000085
1137	1.1303e+02	8.6947	23.461814	-0.000365	-3.652160	-0.618693	0.000037
1138	1.1313e+02	8.6856	23.405294	0.000568	5.681139	0.962411	-0.000057
1139	1.1323e+02	8.6749	23.377034	0.000284	2.840569	0.481205	-0.000028
1140	1.1333e+02	8.6658	23.344737	0.000325	3.246365	0.549949	-0.000032
1141	1.1343e+02	8.6556	23.356849	-0.000122	-1.217387	-0.206231	0.000012
1142	1.1353e+02	8.6456	23.284180	0.000730	7.304321	1.237385	-0.000073
1143	1.1363e+02	8.6353	23.300329	-0.000162	-1.623182	-0.274975	0.000016
1144	1.1373e+02	8.6251	23.268032	0.000325	3.246365	0.549949	-0.000032
1145	1.1383e+02	8.6158	23.239772	0.000284	2.840569	0.481205	-0.000028
1146	1.1393e+02	8.6060	23.235735	0.000041	0.405796	0.068744	-0.000004
1147	1.1403e+02	8.5960	23.183252	0.000528	5.275343	0.893667	-0.000053
1148	1.1413e+02	8.5864	23.199401	-0.000162	-1.623182	-0.274975	0.000016
1149	1.1423e+02	8.5767	23.163066	0.000365	3.652160	0.618693	-0.000037
1150	1.1433e+02	8.5669	23.146918	0.000162	1.623182	0.274975	-0.000016
1151	1.1442e+02	8.5566	23.102509	0.000446	4.463752	0.756180	-0.000045
1152	1.1452e+02	8.5472	23.094435	0.000081	0.811591	0.137487	-0.000008
1153	1.1462e+02	8.5365	23.058101	0.000365	3.652160	0.618693	-0.000037
1154	1.1472e+02	8.5258	23.029841	0.000284	2.840569	0.481205	-0.000028
1155	1.1482e+02	8.5168	22.993507	0.000365	3.652160	0.618693	-0.000037
1156	1.1492e+02	8.5059	22.989469	0.000041	0.405796	0.068744	-0.000004
1157	1.1502e+02	8.4956	23.001581	-0.000122	-1.217387	-0.206231	0.000012
1158	1.1512e+02	8.4866	22.908727	0.000933	9.333299	1.581104	-0.000093
1159	1.1522e+02	8.4766	22.916801	-0.000081	-0.811591	-0.137487	0.000008
1160	1.1532e+02	8.4672	22.880467	0.000365	3.652160	0.618693	-0.000037
1161	1.1542e+02	8.4566	22.832021	0.000487	4.869547	0.824924	-0.000049
1162	1.1552e+02	8.4464	22.803761	0.000284	2.840569	0.481205	-0.000028
1163	1.1562e+02	8.4364	22.783576	0.000203	2.028978	0.343718	-0.000020
1164	1.1572e+02	8.4266	22.779538	0.000041	0.405796	0.068744	-0.000004
1165	1.1582e+02	8.4170	22.783576	-0.000041	-0.405796	-0.068744	0.000004
1166	1.1592e+02	8.4076	22.723019	0.000609	6.086934	1.031155	-0.000061
1167	1.1602e+02	8.3976	22.690721	0.000325	3.246365	0.549949	-0.000032
1168	1.1612e+02	8.3875	22.678610	0.000122	1.217387	0.206231	-0.000012
1169	1.1622e+02	8.3765	22.650350	0.000284	2.840569	0.481205	-0.000028
1170	1.1632e+02	8.3667	22.614016	0.000365	3.652160	0.618693	-0.000037
1171	1.1642e+02	8.3566	22.581719	0.000325	3.246365	0.549949	-0.000032
1172	1.1651e+02	8.3468	22.549422	0.000325	3.246365	0.549949	-0.000032
1173	1.1661e+02	8.3363	22.529236	0.000203	2.028978	0.343718	-0.000020
1174	1.1671e+02	8.3271	22.533273	-0.000041	-0.405796	-0.068744	0.000004
1175	1.1681e+02	8.3171	22.500976	0.000325	3.246365	0.549949	-0.000032
1176	1.1691e+02	8.3071	22.432345	0.000690	6.898525	1.168642	-0.000069
1177	1.1701e+02	8.2976	22.448493	-0.000162	-1.623182	-0.274975	0.000016
1178	1.1711e+02	8.2874	22.387936	0.000609	6.086934	1.031155	-0.000061
1179	1.1721e+02	8.2780	22.331416	0.000568	5.681139	0.962411	-0.000057
1180	1.1731e+02	8.2679	22.347565	-0.000162	-1.623182	-0.274975	0.000016
1181	1.1741e+02	8.2575	22.327379	0.000203	2.028978	0.343718	-0.000020
1182	1.1751e+02	8.2463	22.307194	0.000203	2.028978	0.343718	-0.000020
1183	1.1761e+02	8.2380	22.242599	0.000649	6.492730	1.099898	-0.000065
1184	1.1771e+02	8.2269	22.238562	0.000041	0.405796	0.068744	-0.000004
1185	1.1781e+02	8.2181	22.210302	0.000284	2.840569	0.481205	-0.000028
1186	1.1791e+02	8.2085	22.161857	0.000487	4.869547	0.824924	-0.000049
1187	1.1801e+02	8.1977	22.133597	0.000284	2.840569	0.481205	-0.000028
1188	1.1811e+02	8.1879	22.129560	0.000041	0.405796	0.068744	-0.000004
1189	1.1821e+02	8.1782	22.064965	0.000649	6.492730	1.099898	-0.000065
1190	1.1831e+02	8.1689	22.060928	0.000041	0.405796	0.068744	-0.000004
1191	1.1841e+02	8.1580	22.032668	0.000284	2.840569	0.481205	-0.000028
1192	1.1850e+02	8.1486	21.976148	0.000568	5.681139	0.962411	-0.000057
1193	1.1860e+02	8.1388	21.927703	0.000487	4.869547	0.824924	-0.000049
1194	1.1870e+02	8.1274	21.903480	0.000243	2.434774	0.412462	-0.000024
1195	1.1880e+02	8.1190	21.919628	-0.000162	-1.623182	-0.274975	0.000016
1196	1.1890e+02	8.1081	21.859071	0.000609	6.086934	1.031155	-0.000061
1197	1.1900e+02	8.0970	21.818700	0.000406	4.057956	0.687436	-0.000041
1198	1.1910e+02	8.0882	21.802552	0.000162	1.623182	0.274975	-0.000016
1199	1.1920e+02	8.0790	21.774292	0.000284	2.840569	0.481205	-0.000028
1200	1.1930e+02	8.0687	21.701623	0.000730	7.304321	1.237385	-0.000073
1201	1.1940e+02	8.0595	21.709697	-0.000081	-0.811591	-0.137487	0.000008
1202	1.1950e+02	8.0489	21.641066	0.000690	6.898525	1.168642	-0.000069
1203	1.1960e+02	8.0384	21.620880	0.000203	2.028978	0.343718	-0.000020
1204	1.1970e+02	8.0288	21.596658	0.000243	2.434774	0.412462	-0.000024
1205	1.1980e+02	8.0192	21.600695	-0.000041	-0.405796	-0.068744	0.000004
1206	1.1990e+02	8.0082	21.556286	0.000446	4.463752	0.756180	-0.000045
1207	1.2000e+02	7.9992	21.528026	0.000284	2.840569	0.481205	-0.000028
1208	1.2010e+02	7.9880	21.491692	0.000365	3.652160	0.618693	-0.000037
1209	1.2020e+02	7.9788	21.463432	0.000284	2.840569	0.481205	-0.000028
1210	1.2030e+02	7.9690	21.435172	0.000284	2.840569	0.481205	-0.000028
1211	1.2039e+02	7.9593	21.398838	0.000365	3.652160	0.618693	-0.000037
1212	1.2049e+02	7.9495	21.346355	0.000528	5.275343	0.893667	-0.000053
1213	1.2059e+02	7.9395	21.330207	0.000162	1.623182	0.274975	-0.000016
1214	1.2069e+02	7.9292	21.277724	0.000528	5.275343	0.893667	-0.000053
1215	1.2079e+02	7.9191	21.269650	0.000081	0.811591	0.137487	-0.000008
1216	1.2089e+02	7.9093	21.225241	0.000446	4.463752	0.756180	-0.000045
1217	1.2099e+02	7.8993	21.164684	0.000609	6.086934	1.031155	-0.000061
1218	1.2109e+02	7.8892	21.136424	0.000284	2.840569	0.481205	-0.000028
1219	1.2119e+02	7.8801	21.136424	-0.000000	-0.000000	-0.000000	0.000000
1220	1.2129e+02	7.8705	21.100090	0.000365	3.652160	0.618693	-0.000037
1221	1.2139e+02	7.8590	21.035496	0.000649	6.492730	1.099898	-0.000065
1222	1.2149e+02	7.8501	20.978976	0.000568	5.681139	0.962411	-0.000057
1223	1.2159e+02	7.8402	20.991087	-0.000122	-1.217387	-0.206231	0.000012
1224	1.2169e+02	7.8300	20.934567	0.000568	5.681139	0.962411	-0.000057
1225	1.2179e+02	7.8191	20.922456	0.000122	1.217387	0.206231	-0.000012
1226	1.2189e+02	7.8100	20.918419	0.000041	0.405796	0.068744	-0.000004
1227	1.2199e+02	7.8002	20.886122	0.000325	3.246365	0.549949	-0.000032
1228	1.2209e+02	7.7905	20.841713	0.000446	4.463752	0.756180	-0.000045
1229	1.2219e+02	7.7792	20.821528	0.000203	2.028978	0.343718	-0.000020
1230	1.2229e+02	7.7699	20.752896	0.000690	6.898525	1.168642	-0.000069
1231	1.2239e+02	7.7602	20.752896	-0.000000	-0.000000	-0.000000	0.000000
1232	1.2248e+02	7.7495	20.724636	0.000284	2.840569	0.481205	-0.000028
1233	1.2258e+02	7.7406	20.688302	0.000365	3.652160	0.618693	-0.000037
1234	1.2268e+02	7.7300	20.627745	0.000609	6.086934	1.031155	-0.000061
1235	1.2278e+02	7.7209	20.583337	0.000446	4.463752	0.756180	-0.000045
1236	1.2288e+02	7.7094	20.583337	-0.000000	-0.000000	-0.000000	0.000000
1237	1.2298e+02	7.7003	20.547002	0.000365	3.652160	0.618693	-0.000037
1238	1.2308e+02	7.6907	20.506631	0.000406	4.057956	0.687436	-0.000041
1239	1.2318e+02	7.6804	20.486445	0.000203	2.028978	0.343718	-0.000020
1240	1.2328e+02	7.6708	20.421851	0.000649	6.492730	1.099898	-0.000065
1241	1.2338e+02	7.6603	20.429925	-0.000081	-0.811591	-0.137487	0.000008
1242	1.2348e+02	7.6508	20.397628	0.000325	3.246365	0.549949	-0.000032
1243	1.2358e+02	7.6417	20.341108	0.000568	5.681139	0.962411	-0.000057
1244	1.2368e+02	7.6307	20.308811	0.000325	3.246365	0.549949	-0.000032
1245	1.2378e+02	7.6210	20.304774	0.000041	0.405796	0.068744	-0.000004
1246	1.2388e+02	7.6101	20.252291	0.000528	5.275343	0.893667	-0.000053
1247	1.2398e+02	7.6004	20.219994	0.000325	3.246365	0.549949	-0.000032
1248	1.2408e+02	7.5903	20.191734	0.000284	2.840569	0.481205	-0.000028
1249	1.2418e+02	7.5811	20.151363	0.000406	4.057956	0.687436	-0.000041
1250	1.2428e+02	7.5716	20.106955	0.000446	4.463752	0.756180	-0.000045
1251	1.2438e+02	7.5610	20.054472	0.000528	5.275343	0.893667	-0.000053
1252	1.2447e+02	7.5509	20.058509	-0.000041	-0.405796	-0.068744	0.000004
1253	1.2457e+02	7.5420	20.038323	0.000203	2.028978	0.343718	-0.000020
1254	1.2467e+02	7.5317	20.001989	0.000365	3.652160	0.618693	-0.000037
1255	1.2477e+02	7.5215	19.953543	0.000487	4.869547	0.824924	-0.000049
1256	1.2487e+02	7.5123	19.925283	0.000284	2.840569	0.481205	-0.000028
1257	1.2497e+02	7.5015	19.888949	0.000365	3.652160	0.618693	-0.000037
1258	1.2507e+02	7.4915	19.832429	0.000568	5.681139	0.962411	-0.000057
1259	1.2517e+02	7.4812	19.840504	-0.000081	-0.811591	-0.137487	0.000008
1260	1.2527e+02	7.4717	19.783984	0.000568	5.681139	0.962411	-0.000057
1261	1.2537e+02	7.4626	19.739575	0.000446	4.463752	0.756180	-0.000045
1262	1.2547e+02	7.4523	19.731501	0.000081	0.811591	0.137487	-0.000008
1263	1.2557e+02	7.4422	19.699204	0.000325	3.246365	0.549949	-0.000032
1264	1.2567e+02	7.4323	19.642684	0.000568	5.681139	0.962411	-0.000057
1265	1.2577e+02	7.4218	19.650758	-0.000081	-0.811591	-0.137487	0.000008
1266	1.2587e+02	7.4122	19.598275	0.000528	5.275343	0.893667	-0.000053
1267	1.2597e+02	7.4017	19.549830	0.000487	4.869547	0.824924	-0.000049
1268	1.2607e+02	7.3918	19.565978	-0.000162	-1.623182	-0.274975	0.000016
1269	1.2617e+02	7.3821	19.541756	0.000243	2.434774	0.412462	-0.000024
1270	1.2627e+02	7.3730	19.461013	0.000812	8.115912	1.374873	-0.000081
1271	1.2636e+02	7.3621	19.456976	0.000041	0.405796	0.068744	-0.000004
1272	1.2646e+02	7.3521	19.416604	0.000406	4.057956	0.687436	-0.000041
1273	1.2656e+02	7.3423	19.376233	0.000406	4.057956	0.687436	-0.000041
1274	1.2666e+02	7.3324	19.347973	0.000284	2.840569	0.481205	-0.000028
1275	1.2676e+02	7.3232	19.323750	0.000243	2.434774	0.412462	-0.000024
1276	1.2686e+02	7.3118	19.283379	0.000406	4.057956	0.687436	-0.000041
1277	1.2696e+02	7.3018	19.218785	0.000649	6.492730	1.099898	-0.000065
1278	1.2706e+02	7.2925	19.263193	-0.000446	-4.463752	-0.756180	0.000045
1279	1.2716e+02	7.2832	19.218785	0.000446	4.463752	0.756180	-0.000045
1280	1.2726e+02	7.2726	19.134005	0.000852	8.521708	1.443616	-0.000085
1281	1.2736e+02	7.2623	19.142079	-0.000081	-0.811591	-0.137487	0.000008
1282	1.2746e+02	7.2536	19.097671	0.000446	4.463752	0.756180	-0.000045
1283	1.2756e+02	7.2440	19.093633	0.000041	0.405796	0.068744	-0.000004
1284	1.2766e+02	7.2321	19.016928	0.000771	7.710117	1.306129	-0.000077
1285	1.2776e+02	7.2234	19.025002	-0.000081	-0.811591	-0.137487	0.000008
1286	1.2786e+02	7.2131	18.992705	0.000325	3.246365	0.549949	-0.000032
1287	1.2796e+02	7.2027	18.956371	0.000365	3.652160	0.618693	-0.000037
1288	1.2806e+02	7.1929	18.920037	0.000365	3.652160	0.618693	-0.000037
1289	1.2816e+02	7.1832	18.895814	0.000243	2.434774	0.412462	-0.000024
1290	1.2826e+02	7.1729	18.847368	0.000487	4.869547	0.824924	-0.000049
1291	1.2835e+02	7.1624	18.839294	0.000081	0.811591	0.137487	-0.000008
1292	1.2845e+02	7.1526	18.778737	0.000609	6.086934	1.031155	-0.000061
1293	1.2855e+02	7.1429	18.766625	0.000122	1.217387	0.206231	-0.000012
1294	1.2865e+02	7.1334	18.718180	0.000487	4.869547	0.824924	-0.000049
1295	1.2875e+02	7.1240	18.697994	0.000203	2.028978	0.343718	-0.000020
1296	1.2885e+02	7.1139	18.697994	-0.000000	-0.000000	-0.000000	0.000000
1297	1.2895e+02	7.1035	18.633400	0.000649	6.492730	1.099898	-0.000065
1298	1.2905e+02	7.0930	18.584954	0.000487	4.869547	0.824924	-0.000049
1299	1.2915e+02	7.0839	18.552657	0.000325	3.246365	0.549949	-0.000032
1300	1.2925e+02	7.0744	18.512286	0.000406	4.057956	0.687436	-0.000041
1301	1.2935e+02	7.0635	18.504212	0.000081	0.811591	0.137487	-0.000008
1302	1.2945e+02	7.0541	18.500175	0.000041	0.405796	0.068744	-0.000004
1303	1.2955e+02	7.0446	18.471915	0.000284	2.840569	0.481205	-0.000028
1304	1.2965e+02	7.0339	18.427506	0.000446	4.463752	0.756180	-0.000045
1305	1.2975e+02	7.0245	18.391172	0.000365	3.652160	0.618693	-0.000037
1306	1.2985e+02	7.0132	18.338689	0.000528	5.275343	0.893667	-0.000053
1307	1.2995e+02	7.0044	18.310429	0.000284	2.840569	0.481205	-0.000028
1308	1.3005e+02	6.9950	18.253909	0.000568	5.681139	0.962411	-0.000057
1309	1.3015e+02	6.9849	18.233724	0.000203	2.028978	0.343718	-0.000020
1310	1.3025e+02	6.9741	18.229686	0.000041	0.405796	0.068744	-0.000004
1311	1.3034e+02	6.9643	18.181241	0.000487	4.869547	0.824924	-0.000049
1312	1.3044e+02	6.9550	18.173167	0.000081	0.811591	0.137487	-0.000008
1313	1.3054e+02	6.9442	18.112609	0.000609	6.086934	1.031155	-0.000061
1314	1.3064e+02	6.9344	18.084350	0.000284	2.840569	0.481205	-0.000028
1315	1.3074e+02	6.9250	18.072238	0.000122	1.217387	0.206231	-0.000012
1316	1.3084e+02	6.9154	17.995533	0.000771	7.710117	1.306129	-0.000077
1317	1.3094e+02	6.9043	18.007644	-0.000122	-1.217387	-0.206231	0.000012
1318	1.3104e+02	6.8946	17.967273	0.000406	4.057956	0.687436	-0.000041
1319	1.3114e+02	6.8850	17.967273	-0.000000	-0.000000	-0.000000	0.000000
1320	1.3124e+02	6.8750	17.882493	0.000852	8.521708	1.443616	-0.000085
1321	1.3134e+02	6.8650	17.874418	0.000081	0.811591	0.137487	-0.000008
1322	1.3144e+02	6.8546	17.813861	0.000609	6.086934	1.031155	-0.000061
1323	1.3154e+02	6.8444	17.785601	0.000284	2.840569	0.481205	-0.000028
1324	1.3164e+02	6.8353	17.769453	0.000162	1.623182	0.274975	-0.000016
1325	1.3174e+02	6.8249	17.733119	0.000365	3.652160	0.618693	-0.000037
1326	1.3184e+02	6.8150	17.704859	0.000284	2.840569	0.481205	-0.000028
1327	1.3194e+02	6.8049	17.644302	0.000609	6.086934	1.031155	-0.000061
1328	1.3204e+02	6.7953	17.652376	-0.000081	-0.811591	-0.137487	0.000008
1329	1.3214e+02	6.7847	17.620079	0.000325	3.246365	0.549949	-0.000032
1330	1.3224e+02	6.7751	17.559522	0.000609	6.086934	1.031155	-0.000061
1331	1.3234e+02	6.7652	17.559522	-0.000000	-0.000000	-0.000000	0.000000
1332	1.3243e+02	6.7554	17.482816	0.000771	7.710117	1.306129	-0.000077
1333	1.3253e+02	6.7458	17.462631	0.000203	2.028978	0.343718	-0.000020
1334	1.3263e+02	6.7340	17.446482	0.000162	1.623182	0.274975	-0.000016
1335	1.3273e+02	6.7250	17.385925	0.000609	6.086934	1.031155	-0.000061
1336	1.3283e+02	6.7147	17.353628	0.000325	3.246365	0.549949	-0.000032
1337	1.3293e+02	6.7056	17.317294	0.000365	3.652160	0.618693	-0.000037
1338	1.3303e+02	6.6958	17.264811	0.000528	5.275343	0.893667	-0.000053
1339	1.3313e+02	6.6857	17.244625	0.000203	2.028978	0.343718	-0.000020
1340	1.3323e+02	6.6753	17.244625	-0.000000	-0.000000	-0.000000	0.000000
1341	1.3333e+02	6.6660	17.163883	0.000812	8.115912	1.374873	-0.000081
1342	1.3343e+02	6.6553	17.188105	-0.000243	-2.434774	-0.412462	0.000024
1343	1.3353e+02	6.6460	17.091214	0.000974	9.739095	1.649847	-0.000097
1344	1.3363e+02	6.6358	17.079103	0.000122	1.217387	0.206231	-0.000012
1345	1.3373e+02	6.6265	17.050843	0.000284	2.840569	0.481205	-0.000028
1346	1.3383e+02	6.6169	16.994323	0.000568	5.681139	0.962411	-0.000057
1347	1.3393e+02	6.6067	16.953952	0.000406	4.057956	0.687436	-0.000041
1348	1.3403e+02	6.5971	16.949914	0.000041	0.405796	0.068744	-0.000004
1349	1.3413e+02	6.5862	16.901469	0.000487	4.869547	0.824924	-0.000049
1350	1.3423e+02	6.5771	16.857060	0.000446	4.463752	0.756180	-0.000045
1351	1.3432e+02	6.5678	16.812652	0.000446	4.463752	0.756180	-0.000045
1352	1.3442e+02	6.5563	16.804578	0.000081	0.811591	0.137487	-0.000008
1353	1.3452e+02	6.5456	16.764206	0.000406	4.057956	0.687436	-0.000041
1354	1.3462e+02	6.5362	16.707686	0.000568	5.681139	0.962411	-0.000057
1355	1.3472e+02	6.5250	16.695575	0.000122	1.217387	0.206231	-0.000012
1356	1.3482e+02	6.5162	16.663278	0.000325	3.246365	0.549949	-0.000032
1357	1.3492e+02	6.5062	16.574461	0.000893	8.927503	1.512360	-0.000089
1358	1.3502e+02	6.4962	16.582535	-0.000081	-0.811591	-0.137487	0.000008
1359	1.3512e+02	6.4864	16.542164	0.000406	4.057956	0.687436	-0.000041
1360	1.3522e+02	6.4777	16.497755	0.000446	4.463752	0.756180	-0.000045
1361	1.3532e+02	6.4660	16.449310	0.000487	4.869547	0.824924	-0.000049
1362	1.3542e+02	6.4560	16.421050	0.000284	2.840569	0.481205	-0.000028
1363	1.3552e+02	6.4468	16.412975	0.000081	0.811591	0.137487	-0.000008
1364	1.3562e+02	6.4367	16.324158	0.000893	8.927503	1.512360	-0.000089
1365	1.3572e+02	6.4272	16.324158	-0.000000	-0.000000	-0.000000	0.000000
1366	1.3582e+02	6.4175	16.255527	0.000690	6.898525	1.168642	-0.000069
1367	1.3592e+02	6.4063	16.243416	0.000122	1.217387	0.206231	-0.000012
1368	1.3602e+02	6.3970	16.190933	0.000528	5.275343	0.893667	-0.000053
1369	1.3612e+02	6.3868	16.138450	0.000528	5.275343	0.893667	-0.000053
1370	1.3622e+02	6.3766	16.118264	0.000203	2.028978	0.343718	-0.000020
1371	1.3631e+02	6.3670	16.077893	0.000406	4.057956	0.687436	-0.000041
1372	1.3641e+02	6.3567	16.049633	0.000284	2.840569	0.481205	-0.000028
1373	1.3651e+02	6.3464	15.976965	0.000730	7.304321	1.237385	-0.000073
1374	1.3661e+02	6.3366	15.948705	0.000284	2.840569	0.481205	-0.000028
1375	1.3671e+02	6.3274	15.916408	0.000325	3.246365	0.549949	-0.000032
1376	1.3681e+02	6.3171	15.888148	0.000284	2.840569	0.481205	-0.000028
1377	1.3691e+02	6.3070	15.803368	0.000852	8.521708	1.443616	-0.000085
1378	1.3701e+02	6.2984	15.787219	0.000162	1.623182	0.274975	-0.000016
1379	1.3711e+02	6.2881	15.791256	-0.000041	-0.405796	-0.068744	0.000004
1380	1.3721e+02	6.2789	15.734737	0.000568	5.681139	0.962411	-0.000057
1381	1.3731e+02	6.2687	15.694365	0.000406	4.057956	0.687436	-0.000041
1382	1.3741e+02	6.2585	15.641882	0.000528	5.275343	0.893667	-0.000053
1383	1.3751e+02	6.2490	15.589400	0.000528	5.275343	0.893667	-0.000053
1384	1.3761e+02	6.2392	15.553065	0.000365	3.652160	0.618693	-0.000037
1385	1.3771e+02	6.2283	15.549028	0.000041	0.405796	0.068744	-0.000004
1386	1.3781e+02	6.2185	15.472323	0.000771	7.710117	1.306129	-0.000077
1387	1.3791e+02	6.2086	15.444063	0.000284	2.840569	0.481205	-0.000028
1388	1.3801e+02	6.1979	15.403691	0.000406	4.057956	0.687436	-0.000041
1389	1.3811e+02	6.1889	15.383506	0.000203	2.028978	0.343718	-0.000020
1390	1.3821e+02	6.1790	15.322949	0.000609	6.086934	1.031155	-0.000061
1391	1.3831e+02	6.1686	15.314874	0.000081	0.811591	0.137487	-0.000008
1392	1.3840e+02	6.1588	15.274503	0.000406	4.057956	0.687436	-0.000041
1393	1.3850e+02	6.1486	15.201835	0.000730	7.304321	1.237385	-0.000073
1394	1.3860e+02	6.1385	15.165500	0.000365	3.652160	0.618693	-0.000037
1395	1.3870e+02	6.1293	15.165500	-0.000000	-0.000000	-0.000000	0.000000
1396	1.3880e+02	6.1187	15.133203	0.000325	3.246365	0.549949	-0.000032
1397	1.3890e+02	6.1089	15.084758	0.000487	4.869547	0.824924	-0.000049
1398	1.3900e+02	6.0986	15.028238	0.000568	5.681139	0.962411	-0.000057
1399	1.3910e+02	6.0891	14.983829	0.000446	4.463752	0.756180	-0.000045
1400	1.3920e+02	6.0782	14.955569	0.000284	2.840569	0.481205	-0.000028
1401	1.3930e+02	6.0683	14.915198	0.000406	4.057956	0.687436	-0.000041
1402	1.3940e+02	6.0596	14.882901	0.000325	3.246365	0.549949	-0.000032
1403	1.3950e+02	6.0493	14.810232	0.000730	7.304321	1.237385	-0.000073
1404	1.3960e+02	6.0390	14.773898	0.000365	3.652160	0.618693	-0.000037
1405	1.3970e+02	6.0294	14.765824	0.000081	0.811591	0.137487	-0.000008
1406	1.3980e+02	6.0195	14.709304	0.000568	5.681139	0.962411	-0.000057
1407	1.3990e+02	6.0094	14.668933	0.000406	4.057956	0.687436	-0.000041
1408	1.4000e+02	6.0004	14.632598	0.000365	3.652160	0.618693	-0.000037
1409	1.4010e+02	5.9899	14.636636	-0.000041	-0.405796	-0.068744	0.000004
1410	1.4020e+02	5.9801	14.572041	0.000649	6.492730	1.099898	-0.000065
1411	1.4029e+02	5.9704	14.531670	0.000406	4.057956	0.687436	-0.000041
1412	1.4039e+02	5.9599	14.499373	0.000325	3.246365	0.549949	-0.000032
1413	1.4049e+02	5.9495	14.446890	0.000528	5.275343	0.893667	-0.000053
1414	1.4059e+02	5.9388	14.370185	0.000771	7.710117	1.306129	-0.000077
1415	1.4069e+02	5.9309	14.329813	0.000406	4.057956	0.687436	-0.000041
1416	1.4079e+02	5.9203	14.337888	-0.000081	-0.811591	-0.137487	0.000008
1417	1.4089e+02	5.9095	14.257145	0.000812	8.115912	1.374873	-0.000081
1418	1.4099e+02	5.8997	14.236959	0.000203	2.028978	0.343718	-0.000020
1419	1.4109e+02	5.8903	14.172365	0.000649	6.492730	1.099898	-0.000065
1420	1.4119e+02	5.8799	14.160254	0.000122	1.217387	0.206231	-0.000012
1421	1.4129e+02	5.8706	14.144105	0.000162	1.623182	0.274975	-0.000016
1422	1.4139e+02	5.8598	14.123919	0.000203	2.028978	0.343718	-0.000020
1423	1.4149e+02	5.8511	14.079511	0.000446	4.463752	0.756180	-0.000045
1424	1.4159e+02	5.8401	14.006842	0.000730	7.304321	1.237385	-0.000073
1425	1.4169e+02	5.8303	13.946285	0.000609	6.086934	1.031155	-0.000061
1426	1.4179e+02	5.8205	13.954360	-0.000081	-0.811591	-0.137487	0.000008
1427	1.4189e+02	5.8100	13.881691	0.000730	7.304321	1.237385	-0.000073
1428	1.4199e+02	5.8001	13.853431	0.000284	2.840569	0.481205	-0.000028
1429	1.4209e+02	5.7903	13.837283	0.000162	1.623182	0.274975	-0.000016
1430	1.4219e+02	5.7806	13.784800	0.000528	5.275343	0.893667	-0.000053
1431	1.4228e+02	5.7703	13.752503	0.000325	3.246365	0.549949	-0.000032
1432	1.4238e+02	5.7610	13.728280	0.000243	2.434774	0.412462	-0.000024
1433	1.4248e+02	5.7508	13.663686	0.000649	6.492730	1.099898	-0.000065
1434	1.4258e+02	5.7412	13.651574	0.000122	1.217387	0.206231	-0.000012
1435	1.4268e+02	5.7304	13.619277	0.000325	3.246365	0.549949	-0.000032
1436	1.4278e+02	5.7207	13.558720	0.000609	6.086934	1.031155	-0.000061
1437	1.4288e+02	5.7107	13.522386	0.000365	3.652160	0.618693	-0.000037
1438	1.4298e+02	5.7015	13.486052	0.000365	3.652160	0.618693	-0.000037
1439	1.4308e+02	5.6913	13.441643	0.000446	4.463752	0.756180	-0.000045
1440	1.4318e+02	5.6815	13.433569	0.000081	0.811591	0.137487	-0.000008
1441	1.4328e+02	5.6713	13.348789	0.000852	8.521708	1.443616	-0.000085
1442	1.4338e+02	5.6612	13.340715	0.000081	0.811591	0.137487	-0.000008
1443	1.4348e+02	5.6521	13.308418	0.000325	3.246365	0.549949	-0.000032
1444	1.4358e+02	5.6408	13.255935	0.000528	5.275343	0.893667	-0.000053
1445	1.4368e+02	5.6310	13.223638	0.000325	3.246365	0.549949	-0.000032
1446	1.4378e+02	5.6207	13.159044	0.000649	6.492730	1.099898	-0.000065
1447	1.4388e+02	5.6098	13.138858	0.000203	2.028978	0.343718	-0.000020
1448	1.4398e+02	5.6014	13.122710	0.000162	1.623182	0.274975	-0.000016
1449	1.4408e+02	5.5909	13.054078	0.000690	6.898525	1.168642	-0.000069
1450	1.4418e+02	5.5813	13.029856	0.000243	2.434774	0.412462	-0.000024
1451	1.4428e+02	5.5718	13.001596	0.000284	2.840569	0.481205	-0.000028
1452	1.4437e+02	5.5624	12.957187	0.000446	4.463752	0.756180	-0.000045
1453	1.4447e+02	5.5511	12.924890	0.000325	3.246365	0.549949	-0.000032
1454	1.4457e+02	5.5410	12.904704	0.000203	2.028978	0.343718	-0.000020
1455	1.4467e+02	5.5323	12.840110	0.000649	6.492730	1.099898	-0.000065
1456	1.4477e+02	5.5218	12.799739	0.000406	4.057956	0.687436	-0.000041
1457	1.4487e+02	5.5119	12.775516	0.000243	2.434774	0.412462	-0.000024
1458	1.4497e+02	5.5013	12.759368	0.000162	1.623182	0.274975	-0.000016
1459	1.4507e+02	5.4916	12.727070	0.000325	3.246365	0.549949	-0.000032
1460	1.4517e+02	5.4816	12.658439	0.000690	6.898525	1.168642	-0.000069
1461	1.4527e+02	5.4719	12.642291	0.000162	1.623182	0.274975	-0.000016
1462	1.4537e+02	5.4620	12.589808	0.000528	5.275343	0.893667	-0.000053
1463	1.4547e+02	5.4525	12.553474	0.000365	3.652160	0.618693	-0.000037
1464	1.4557e+02	5.4420	12.529251	0.000243	2.434774	0.412462	-0.000024
1465	1.4567e+02	5.4319	12.452545	0.000771	7.710117	1.306129	-0.000077
1466	1.4577e+02	5.4215	12.436397	0.000162	1.623182	0.274975	-0.000016
1467	1.4587e+02	5.4131	12.428322	0.000081	0.811591	0.137487	-0.000008
1468	1.4597e+02	5.4029	12.391988	0.000365	3.652160	0.618693	-0.000037
1469	1.4607e+02	5.3925	12.339505	0.000528	5.275343	0.893667	-0.000053
1470	1.4617e+02	5.3820	12.291060	0.000487	4.869547	0.824924	-0.000049
1471	1.4626e+02	5.3722	12.242614	0.000487	4.869547	0.824924	-0.000049
1472	1.4636e+02	5.3619	12.218391	0.000243	2.434774	0.412462	-0.000024
1473	1.4646e+02	5.3530	12.186094	0.000325	3.246365	0.549949	-0.000032
1474	1.4656e+02	5.3426	12.161871	0.000243	2.434774	0.412462	-0.000024
1475	1.4666e+02	5.3329	12.109389	0.000528	5.275343	0.893667	-0.000053
1476	1.4676e+02	5.3234	12.028646	0.000812	8.115912	1.374873	-0.000081
1477	1.4686e+02	5.3131	12.012497	0.000162	1.623182	0.274975	-0.000016
1478	1.4696e+02	5.3036	11.980200	0.000325	3.246365	0.549949	-0.000032
1479	1.4706e+02	5.2938	11.972126	0.000081	0.811591	0.137487	-0.000008
1480	1.4716e+02	5.2830	11.915606	0.000568	5.681139	0.962411	-0.000057
1481	1.4726e+02	5.2724	11.855049	0.000609	6.086934	1.031155	-0.000061
1482	1.4736e+02	5.2637	11.879272	-0.000243	-2.434774	-0.412462	0.000024
1483	1.4746e+02	5.2535	11.794492	0.000852	8.521708	1.443616	-0.000085
1484	1.4756e+02	5.2444	11.770269	0.000243	2.434774	0.412462	-0.000024
1485	1.4766e+02	5.2328	11.685489	0.000852	8.521708	1.443616	-0.000085
1486	1.4776e+02	5.2233	11.689527	-0.000041	-0.405796	-0.068744	0.000004
1487	1.4786e+02	5.2132	11.645118	0.000446	4.463752	0.756180	-0.000045
1488	1.4796e+02	5.2035	11.604747	0.000406	4.057956	0.687436	-0.000041
1489	1.4806e+02	5.1929	11.568412	0.000365	3.652160	0.618693	-0.000037
1490	1.4816e+02	5.1836	11.540153	0.000284	2.840569	0.481205	-0.000028
1491	1.4825e+02	5.1744	11.479595	0.000609	6.086934	1.031155	-0.000061
1492	1.4835e+02	5.1635	11.435187	0.000446	4.463752	0.756180	-0.000045
1493	1.4845e+02	5.1542	11.402890	0.000325	3.246365	0.549949	-0.000032
1494	1.4855e+02	5.1441	11.382704	0.000203	2.028978	0.343718	-0.000020
1495	1.4865e+02	5.1342	11.326184	0.000568	5.681139	0.962411	-0.000057
1496	1.4875e+02	5.1232	11.314073	0.000122	1.217387	0.206231	-0.000012
1497	1.4885e+02	5.1136	11.285813	0.000284	2.840569	0.481205	-0.000028
1498	1.4895e+02	5.1034	11.209107	0.000771	7.710117	1.306129	-0.000077
1499	1.4905e+02	5.0945	11.152587	0.000568	5.681139	0.962411	-0.000057
1500	1.4915e+02	5.0838	11.152587	-0.000000	-0.000000	-0.000000	0.000000
1501	1.4925e+02	5.0745	11.100105	0.000528	5.275343	0.893667	-0.000053
1502	1.4935e+02	5.0640	11.051659	0.000487	4.869547	0.824924	-0.000049
1503	1.4945e+02	5.0541	11.015325	0.000365	3.652160	0.618693	-0.000037
1504	1.4955e+02	5.0446	10.978991	0.000365	3.652160	0.618693	-0.000037
1505	1.4965e+02	5.0346	10.942656	0.000365	3.652160	0.618693	-0.000037
1506	1.4975e+02	5.0241	10.869988	0.000730	7.304321	1.237385	-0.000073
1507	1.4985e+02	5.0143	10.865951	0.000041	0.405796	0.068744	-0.000004
1508	1.4995e+02	5.0047	10.801357	0.000649	6.492730	1.099898	-0.000065
1509	1.5005e+02	4.9938	10.765022	0.000365	3.652160	0.618693	-0.000037
1510	1.5015e+02	4.9844	10.720614	0.000446	4.463752	0.756180	-0.000045
1511	1.5025e+02	4.9752	10.684280	0.000365	3.652160	0.618693	-0.000037
1512	1.5034e+02	4.9645	10.639871	0.000446	4.463752	0.756180	-0.000045
1513	1.5044e+02	4.9551	10.623723	0.000162	1.623182	0.274975	-0.000016
1514	1.5054e+02	4.9456	10.559129	0.000649	6.492730	1.099898	-0.000065
1515	1.5064e+02	4.9348	10.498571	0.000609	6.086934	1.031155	-0.000061
1516	1.5074e+02	4.9257	10.462237	0.000365	3.652160	0.618693	-0.000037
1517	1.5084e+02	4.9155	10.413792	0.000487	4.869547	0.824924	-0.000049
1518	1.5094e+02	4.9053	10.401680	0.000122	1.217387	0.206231	-0.000012
1519	1.5104e+02	4.8946	10.373420	0.000284	2.840569	0.481205	-0.000028
1520	1.5114e+02	4.8849	10.316900	0.000568	5.681139	0.962411	-0.000057
1521	1.5124e+02	4.8751	10.232121	0.000852	8.521708	1.443616	-0.000085
1522	1.5134e+02	4.8656	10.240195	-0.000081	-0.811591	-0.137487	0.000008
1523	1.5144e+02	4.8556	10.175601	0.000649	6.492730	1.099898	-0.000065
1524	1.5154e+02	4.8455	10.115044	0.000609	6.086934	1.031155	-0.000061
1525	1.5164e+02	4.8351	10.066598	0.000487	4.869547	0.824924	-0.000049
1526	1.5174e+02	4.8254	10.046412	0.000203	2.028978	0.343718	-0.000020
1527	1.5184e+02	4.8147	10.026227	0.000203	2.028978	0.343718	-0.000020
1528	1.5194e+02	4.8057	9.937410	0.000893	8.927503	1.512360	-0.000089
1529	1.5204e+02	4.7952	9.909150	0.000284	2.840569	0.481205	-0.000028
1530	1.5214e+02	4.7855	9.864741	0.000446	4.463752	0.756180	-0.000045
1531	1.5224e+02	4.7765	9.775924	0.000893	8.927503	1.512360	-0.000089
1532	1.5233e+02	4.7652	9.783998	-0.000081	-0.811591	-0.137487	0.000008
1533	1.5243e+02	4.7552	9.743627	0.000406	4.057956	0.687436	-0.000041
1534	1.5253e+02	4.7459	9.674996	0.000690	6.898525	1.168642	-0.000069
1535	1.5263e+02	4.7355	9.691144	-0.000162	-1.623182	-0.274975	0.000016
1536	1.5273e+02	4.7259	9.646736	0.000446	4.463752	0.756180	-0.000045
1537	1.5283e+02	4.7152	9.565993	0.000812	8.115912	1.374873	-0.000081
1538	1.5293e+02	4.7070	9.485250	0.000812	8.115912	1.374873	-0.000081
1539	1.5303e+02	4.6961	9.477176	0.000081	0.811591	0.137487	-0.000008
1540	1.5313e+02	4.6857	9.404508	0.000730	7.304321	1.237385	-0.000073
1541	1.5323e+02	4.6757	9.364136	0.000406	4.057956	0.687436	-0.000041
1542	1.5333e+02	4.6658	9.356062	0.000081	0.811591	0.137487	-0.000008
1543	1.5343e+02	4.6569	9.291468	0.000649	6.492730	1.099898	-0.000065
1544	1.5353e+02	4.6468	9.287431	0.000041	0.405796	0.068744	-0.000004
1545	1.5363e+02	4.6358	9.162280	0.001258	12.579664	2.131053	-0.000126
1546	1.5373e+02	4.6257	9.150168	0.000122	1.217387	0.206231	-0.000012
1547	1.5383e+02	4.6160	9.105760	0.000446	4.463752	0.756180	-0.000045
1548	1.5393e+02	4.6066	9.041165	0.000649	6.492730	1.099898	-0.000065
1549	1.5403e+02	4.5963	9.012906	0.000284	2.840569	0.481205	-0.000028
1550	1.5413e+02	4.5866	8.964460	0.000487	4.869547	0.824924	-0.000049
1551	1.5422e+02	4.5768	8.948311	0.000162	1.623182	0.274975	-0.000016
1552	1.5432e+02	4.5672	8.883717	0.000649	6.492730	1.099898	-0.000065
1553	1.5442e+02	4.5568	8.823160	0.000609	6.086934	1.031155	-0.000061
1554	1.5452e+02	4.5474	8.774715	0.000487	4.869547	0.824924	-0.000049
1555	1.5462e+02	4.5365	8.734343	0.000406	4.057956	0.687436	-0.000041
1556	1.5472e+02	4.5271	8.653600	0.000812	8.115912	1.374873	-0.000081
1557	1.5482e+02	4.5172	8.661675	-0.000081	-0.811591	-0.137487	0.000008
1558	1.5492e+02	4.5068	8.617266	0.000446	4.463752	0.756180	-0.000045
1559	1.5502e+02	4.4975	8.560746	0.000568	5.681139	0.962411	-0.000057
1560	1.5512e+02	4.4869	8.512301	0.000487	4.869547	0.824924	-0.000049
1561	1.5522e+02	4.4761	8.484041	0.000284	2.840569	0.481205	-0.000028
1562	1.5532e+02	4.4668	8.415409	0.000690	6.898525	1.168642	-0.000069
1563	1.5542e+02	4.4548	8.391187	0.000243	2.434774	0.412462	-0.000024
1564	1.5552e+02	4.4471	8.358890	0.000325	3.246365	0.549949	-0.000032
1565	1.5562e+02	4.4375	8.270073	0.000893	8.927503	1.512360	-0.000089
1566	1.5572e+02	4.4277	8.266035	0.000041	0.405796	0.068744	-0.000004
1567	1.5582e+02	4.4176	8.181256	0.000852	8.521708	1.443616	-0.000085
1568	1.5592e+02	4.4077	8.144921	0.000365	3.652160	0.618693	-0.000037
1569	1.5602e+02	4.3978	8.080327	0.000649	6.492730	1.099898	-0.000065
1570	1.5612e+02	4.3875	8.064179	0.000162	1.623182	0.274975	-0.000016
1571	1.5622e+02	4.3781	8.015733	0.000487	4.869547	0.824924	-0.000049
1572	1.5631e+02	4.3675	7.971325	0.000446	4.463752	0.756180	-0.000045
1573	1.5641e+02	4.3574	7.894619	0.000771	7.710117	1.306129	-0.000077
1574	1.5651e+02	4.3472	7.854248	0.000406	4.057956	0.687436	-0.000041
1575	1.5661e+02	4.3382	7.809839	0.000446	4.463752	0.756180	-0.000045
1576	1.5671e+02	4.3287	7.793691	0.000162	1.623182	0.274975	-0.000016
1577	1.5681e+02	4.3182	7.729096	0.000649	6.492730	1.099898	-0.000065
1578	1.5691e+02	4.3081	7.696799	0.000325	3.246365	0.549949	-0.000032
1579	1.5701e+02	4.2983	7.668539	0.000284	2.840569	0.481205	-0.000028
1580	1.5711e+02	4.2875	7.587797	0.000812	8.115912	1.374873	-0.000081
1581	1.5721e+02	4.2780	7.543388	0.000446	4.463752	0.756180	-0.000045
1582	1.5731e+02	4.2675	7.478794	0.000649	6.492730	1.099898	-0.000065
1583	1.5741e+02	4.2583	7.442460	0.000365	3.652160	0.618693	-0.000037
1584	1.5751e+02	4.2481	7.422274	0.000203	2.028978	0.343718	-0.000020
1585	1.5761e+02	4.2377	7.349606	0.000730	7.304321	1.237385	-0.000073
1586	1.5771e+02	4.2287	7.337494	0.000122	1.217387	0.206231	-0.000012
1587	1.5781e+02	4.2187	7.268863	0.000690	6.898525	1.168642	-0.000069
1588	1.5791e+02	4.2085	7.232529	0.000365	3.652160	0.618693	-0.000037
1589	1.5801e+02	4.1976	7.184083	0.000487	4.869547	0.824924	-0.000049
1590	1.5811e+02	4.1881	7.167935	0.000162	1.623182	0.274975	-0.000016
1591	1.5821e+02	4.1790	7.095266	0.000730	7.304321	1.237385	-0.000073
1592	1.5830e+02	4.1685	7.062969	0.000325	3.246365	0.549949	-0.000032
1593	1.5840e+02	4.1581	6.998375	0.000649	6.492730	1.099898	-0.000065
1594	1.5850e+02	4.1494	6.990301	0.000081	0.811591	0.137487	-0.000008
1595	1.5860e+02	4.1390	6.917632	0.000730	7.304321	1.237385	-0.000073
1596	1.5870e+02	4.1280	6.901484	0.000162	1.623182	0.274975	-0.000016
1597	1.5880e+02	4.1193	6.857075	0.000446	4.463752	0.756180	-0.000045
1598	1.5890e+02	4.1091	6.760184	0.000974	9.739095	1.649847	-0.000097
1599	1.5900e+02	4.0990	6.752110	0.000081	0.811591	0.137487	-0.000008
1600	1.5910e+02	4.0882	6.687515	0.000649	6.492730	1.099898	-0.000065
1601	1.5920e+02	4.0783	6.643107	0.000446	4.463752	0.756180	-0.000045
1602	1.5930e+02	4.0691	6.598698	0.000446	4.463752	0.756180	-0.000045
1603	1.5940e+02	4.0592	6.586587	0.000122	1.217387	0.206231	-0.000012
1604	1.5950e+02	4.0494	6.505844	0.000812	8.115912	1.374873	-0.000081
1605	1.5960e+02	4.0389	6.469510	0.000365	3.652160	0.618693	-0.000037
1606	1.5970e+02	4.0296	6.425102	0.000446	4.463752	0.756180	-0.000045
1607	1.5980e+02	4.0195	6.376656	0.000487	4.869547	0.824924	-0.000049
1608	1.5990e+02	4.0092	6.344359	0.000325	3.246365	0.549949	-0.000032
1609	1.6000e+02	3.9996	6.324173	0.000203	2.028978	0.343718	-0.000020
1610	1.6010e+02	3.9892	6.259579	0.000649	6.492730	1.099898	-0.000065
1611	1.6019e+02	3.9792	6.207096	0.000528	5.275343	0.893667	-0.000053
1612	1.6029e+02	3.9692	6.142502	0.000649	6.492730	1.099898	-0.000065
1613	1.6039e+02	3.9599	6.146539	-0.000041	-0.405796	-0.068744	0.000004
1614	1.6049e+02	3.9490	6.085982	0.000609	6.086934	1.031155	-0.000061
1615	1.6059e+02	3.9397	6.041574	0.000446	4.463752	0.756180	-0.000045
1616	1.6069e+02	3.9303	5.993128	0.000487	4.869547	0.824924	-0.000049
1617	1.6079e+02	3.9196	5.948720	0.000446	4.463752	0.756180	-0.000045
1618	1.6089e+02	3.9095	5.896237	0.000528	5.275343	0.893667	-0.000053
1619	1.6099e+02	3.8993	5.843754	0.000528	5.275343	0.893667	-0.000053
1620	1.6109e+02	3.8900	5.815494	0.000284	2.840569	0.481205	-0.000028
1621	1.6119e+02	3.8795	5.763011	0.000528	5.275343	0.893667	-0.000053
1622	1.6129e+02	3.8712	5.742826	0.000203	2.028978	0.343718	-0.000020
1623	1.6139e+02	3.8604	5.670157	0.000730	7.304321	1.237385	-0.000073
1624	1.6149e+02	3.8500	5.637860	0.000325	3.246365	0.549949	-0.000032
1625	1.6159e+02	3.8392	5.577303	0.000609	6.086934	1.031155	-0.000061
1626	1.6169e+02	3.8302	5.536932	0.000406	4.057956	0.687436	-0.000041
1627	1.6179e+02	3.8201	5.500597	0.000365	3.652160	0.618693	-0.000037
1628	1.6189e+02	3.8100	5.476375	0.000243	2.434774	0.412462	-0.000024
1629	1.6199e+02	3.8000	5.403706	0.000730	7.304321	1.237385	-0.000073
1630	1.6209e+02	3.7905	5.391595	0.000122	1.217387	0.206231	-0.000012
1631	1.6219e+02	3.7804	5.339112	0.000528	5.275343	0.893667	-0.000053
1632	1.6228e+02	3.7705	5.290666	0.000487	4.869547	0.824924	-0.000049
1633	1.6238e+02	3.7601	5.201849	0.000893	8.927503	1.512360	-0.000089
1634	1.6248e+02	3.7506	5.209924	-0.000081	-0.811591	-0.137487	0.000008
1635	1.6258e+02	3.7403	5.157441	0.000528	5.275343	0.893667	-0.000053
1636	1.6268e+02	3.7308	5.125144	0.000325	3.246365	0.549949	-0.000032
1637	1.6278e+02	3.7220	5.068624	0.000568	5.681139	0.962411	-0.000057
1638	1.6288e+02	3.7109	5.016141	0.000528	5.275343	0.893667	-0.000053
1639	1.6298e+02	3.7008	4.995955	0.000203	2.028978	0.343718	-0.000020
1640	1.6308e+02	3.6915	4.919250	0.000771	7.710117	1.306129	-0.000077
1641	1.6318e+02	3.6814	4.903101	0.000162	1.623182	0.274975	-0.000016
1642	1.6328e+02	3.6717	4.858693	0.000446	4.463752	0.756180	-0.000045
1643	1.6338e+02	3.6620	4.798136	0.000609	6.086934	1.031155	-0.000061
1644	1.6348e+02	3.6517	4.757764	0.000406	4.057956	0.687436	-0.000041
1645	1.6358e+02	3.6408	4.701245	0.000568	5.681139	0.962411	-0.000057
1646	1.6368e+02	3.6320	4.612428	0.000893	8.927503	1.512360	-0.000089
1647	1.6378e+02	3.6211	4.640688	-0.000284	-2.840569	-0.481205	0.000028
1648	1.6388e+02	3.6114	4.572056	0.000690	6.898525	1.168642	-0.000069
1649	1.6398e+02	3.6014	4.499388	0.000730	7.304321	1.237385	-0.000073
1650	1.6408e+02	3.5913	4.463054	0.000365	3.652160	0.618693	-0.000037
1651	1.6418e+02	3.5827	4.426719	0.000365	3.652160	0.618693	-0.000037
1652	1.6427e+02	3.5714	4.398459	0.000284	2.840569	0.481205	-0.000028
1653	1.6437e+02	3.5622	4.317717	0.000812	8.115912	1.374873	-0.000081
1654	1.6447e+02	3.5519	4.305605	0.000122	1.217387	0.206231	-0.000012
1655	1.6457e+02	3.5422	4.253123	0.000528	5.275343	0.893667	-0.000053
1656	1.6467e+02	3.5320	4.224863	0.000284	2.840569	0.481205	-0.000028
1657	1.6477e+02	3.5220	4.144120	0.000812	8.115912	1.374873	-0.000081
1658	1.6487e+02	3.5117	4.099711	0.000446	4.463752	0.756180	-0.000045
1659	1.6497e+02	3.5018	4.010894	0.000893	8.927503	1.512360	-0.000089
1660	1.6507e+02	3.4921	4.014931	-0.000041	-0.405796	-0.068744	0.000004
1661	1.6517e+02	3.4814	3.954374	0.000609	6.086934	1.031155	-0.000061
1662	1.6527e+02	3.4725	3.897855	0.000568	5.681139	0.962411	-0.000057
1663	1.6537e+02	3.4627	3.893817	0.000041	0.405796	0.068744	-0.000004
1664	1.6547e+02	3.4519	3.817112	0.000771	7.710117	1.306129	-0.000077
1665	1.6557e+02	3.4421	3.756555	0.000609	6.086934	1.031155	-0.000061
1666	1.6567e+02	3.4322	3.732332	0.000243	2.434774	0.412462	-0.000024
1667	1.6577e+02	3.4225	3.679849	0.000528	5.275343	0.893667	-0.000053
1668	1.6587e+02	3.4126	3.635441	0.000446	4.463752	0.756180	-0.000045
1669	1.6597e+02	3.4026	3.619292	0.000162	1.623182	0.274975	-0.000016
1670	1.6607e+02	3.3922	3.506252	0.001136	11.362277	1.924822	-0.000114
1671	1.6616e+02	3.3822	3.417435	0.000893	8.927503	1.512360	-0.000089
1672	1.6626e+02	3.3729	3.413398	0.000041	0.405796	0.068744	-0.000004
1673	1.6636e+02	3.3618	3.405324	0.000081	0.811591	0.137487	-0.000008
1674	1.6646e+02	3.3534	3.328618	0.000771	7.710117	1.306129	-0.000077
1675	1.6656e+02	3.3420	3.288247	0.000406	4.057956	0.687436	-0.000041
1676	1.6666e+02	3.3321	3.251913	0.000365	3.652160	0.618693	-0.000037
1677	1.6676e+02	3.3233	3.159059	0.000933	9.333299	1.581104	-0.000093
1678	1.6686e+02	3.3133	3.122724	0.000365	3.652160	0.618693	-0.000037
1679	1.6696e+02	3.3031	3.070242	0.000528	5.275343	0.893667	-0.000053
1680	1.6706e+02	3.2922	3.054093	0.000162	1.623182	0.274975	-0.000016
1681	1.6716e+02	3.2827	2.993536	0.000609	6.086934	1.031155	-0.000061
1682	1.6726e+02	3.2723	2.920868	0.000730	7.304321	1.237385	-0.000073
1683	1.6736e+02	3.2627	2.892608	0.000284	2.840569	0.481205	-0.000028
1684	1.6746e+02	3.2534	2.856274	0.000365	3.652160	0.618693	-0.000037
1685	1.6756e+02	3.2418	2.791679	0.000649	6.492730	1.099898	-0.000065
1686	1.6766e+02	3.2332	2.731122	0.000609	6.086934	1.031155	-0.000061
1687	1.6776e+02	3.2235	2.670565	0.000609	6.086934	1.031155	-0.000061
1688	1.6786e+02	3.2137	2.614045	0.000568	5.681139	0.962411	-0.000057
1689	1.6796e+02	3.2030	2.589823	0.000243	2.434774	0.412462	-0.000024
1690	1.6806e+02	3.1931	2.537340	0.000528	5.275343	0.893667	-0.000053
1691	1.6816e+02	3.1850	2.488894	0.000487	4.869547	0.824924	-0.000049
1692	1.6825e+02	3.1731	2.452560	0.000365	3.652160	0.618693	-0.000037
1693	1.6835e+02	3.1634	2.392003	0.000609	6.086934	1.031155	-0.000061
1694	1.6845e+02	3.1535	2.335483	0.000568	5.681139	0.962411	-0.000057
1695	1.6855e+02	3.1443	2.278963	0.000568	5.681139	0.962411	-0.000057
1696	1.6865e+02	3.1339	2.250703	0.000284	2.840569	0.481205	-0.000028
1697	1.6875e+02	3.1239	2.169960	0.000812	8.115912	1.374873	-0.000081
1698	1.6885e+02	3.1136	2.105366	0.000649	6.492730	1.099898	-0.000065
1699	1.6895e+02	3.1051	2.040772	0.000649	6.492730	1.099898	-0.000065
1700	1.6905e+02	3.0941	2.024624	0.000162	1.623182	0.274975	-0.000016
1701	1.6915e+02	3.0830	1.964067	0.000609	6.086934	1.031155	-0.000061
1702	1.6925e+02	3.0737	1.931769	0.000325	3.246365	0.549949	-0.000032
1703	1.6935e+02	3.0643	1.895435	0.000365	3.652160	0.618693	-0.000037
1704	1.6945e+02	3.0535	1.822767	0.000730	7.304321	1.237385	-0.000073
1705	1.6955e+02	3.0439	1.750098	0.000730	7.304321	1.237385	-0.000073
1706	1.6965e+02	3.0349	1.669356	0.000812	8.115912	1.374873	-0.000081
1707	1.6975e+02	3.0247	1.657244	0.000122	1.217387	0.206231	-0.000012
1708	1.6985e+02	3.0157	1.592650	0.000649	6.492730	1.099898	-0.000065
1709	1.6995e+02	3.0042	1.544204	0.000487	4.869547	0.824924	-0.000049
1710	1.7005e+02	2.9942	1.487685	0.000568	5.681139	0.962411	-0.000057
1711	1.7015e+02	2.9842	1.431165	0.000568	5.681139	0.962411	-0.000057
1712	1.7024e+02	2.9745	1.419053	0.000122	1.217387	0.206231	-0.000012
1713	1.7034e+02	2.9621	1.322162	0.000974	9.739095	1.649847	-0.000097
1714	1.7044e+02	2.9539	1.229308	0.000933	9.333299	1.581104	-0.000093
1715	1.7054e+02	2.9449	1.201048	0.000284	2.840569	0.481205	-0.000028
1716	1.7064e+02	2.9339	1.176825	0.000243	2.434774	0.412462	-0.000024
1717	1.7074e+02	2.9244	1.092045	0.000852	8.521708	1.443616	-0.000085
1718	1.7084e+02	2.9147	1.067822	0.000243	2.434774	0.412462	-0.000024
1719	1.7094e+02	2.9054	0.987080	0.000812	8.115912	1.374873	-0.000081
1720	1.7104e+02	2.8951	0.914411	0.000730	7.304321	1.237385	-0.000073
1721	1.7114e+02	2.8848	0.922486	-0.000081	-0.811591	-0.137487	0.000008
1722	1.7124e+02	2.8747	0.829631	0.000933	9.333299	1.581104	-0.000093
1723	1.7134e+02	2.8653	0.797334	0.000325	3.246365	0.549949	-0.000032
1724	1.7144e+02	2.8546	0.732740	0.000649	6.492730	1.099898	-0.000065
1725	1.7154e+02	2.8442	0.664109	0.000690	6.898525	1.168642	-0.000069
1726	1.7164e+02	2.8352	0.627775	0.000365	3.652160	0.618693	-0.000037
1727	1.7174e+02	2.8245	0.579329	0.000487	4.869547	0.824924	-0.000049
1728	1.7184e+02	2.8152	0.510698	0.000690	6.898525	1.168642	-0.000069
1729	1.7194e+02	2.8056	0.478401	0.000325	3.246365	0.549949	-0.000032
1730	1.7204e+02	2.7950	0.417844	0.000609	6.086934	1.031155	-0.000061
1731	1.7213e+02	2.7857	0.337101	0.000812	8.115912	1.374873	-0.000081
1732	1.7223e+02	2.7752	0.312878	0.000243	2.434774	0.412462	-0.000024
1733	1.7233e+02	2.7648	0.264432	0.000487	4.869547	0.824924	-0.000049
1734	1.7243e+02	2.7551	0.203875	0.000609	6.086934	1.031155	-0.000061
1735	1.7253e+02	2.7454	0.143318	0.000609	6.086934	1.031155	-0.000061
1736	1.7263e+02	2.7360	0.062576	0.000812	8.115912	1.374873	-0.000081
1737	1.7273e+02	2.7250	0.022204	0.000406	4.057956	0.687436	-0.000041
1738	1.7283e+02	2.7158	0.002019	0.000203	2.028978	0.343718	-0.000020
1739	1.7293e+02	2.7055	-0.062576	0.000649	6.492730	1.099898	-0.000065
1740	1.7303e+02	2.6957	-0.106984	0.000446	4.463752	0.756180	-0.000045
1741	1.7313e+02	2.6865	-0.207912	0.001014	10.144890	1.718591	-0.000101
1742	1.7323e+02	2.6771	-0.244247	0.000365	3.652160	0.618693	-0.000037
1743	1.7333e+02	2.6662	-0.292692	0.000487	4.869547	0.824924	-0.000049
1744	1.7343e+02	2.6565	-0.341138	0.000487	4.869547	0.824924	-0.000049
1745	1.7353e+02	2.6469	-0.438029	0.000974	9.739095	1.649847	-0.000097
1746	1.7363e+02	2.6366	-0.490512	0.000528	5.275343	0.893667	-0.000053
1747	1.7373e+02	2.6257	-0.518772	0.000284	2.840569	0.481205	-0.000028
1748	1.7383e+02	2.6161	-0.567218	0.000487	4.869547	0.824924	-0.000049
1749	1.7393e+02	2.6064	-0.639886	0.000730	7.304321	1.237385	-0.000073
1750	1.7403e+02	2.5968	-0.696406	0.000568	5.681139	0.962411	-0.000057
1751	1.7413e+02	2.5866	-0.744852	0.000487	4.869547	0.824924	-0.000049
1752	1.7422e+02	2.5759	-0.801371	0.000568	5.681139	0.962411	-0.000057
1753	1.7432e+02	2.5660	-0.870003	0.000690	6.898525	1.168642	-0.000069
1754	1.7442e+02	2.5565	-0.918448	0.000487	4.869547	0.824924	-0.000049
1755	1.7452e+02	2.5463	-0.950745	0.000325	3.246365	0.549949	-0.000032
1756	1.7462e+02	2.5375	-1.011303	0.000609	6.086934	1.031155	-0.000061
1757	1.7472e+02	2.5260	-1.055711	0.000446	4.463752	0.756180	-0.000045
1758	1.7482e+02	2.5177	-1.108194	0.000528	5.275343	0.893667	-0.000053
1759	1.7492e+02	2.5063	-1.160677	0.000528	5.275343	0.893667	-0.000053
1760	1.7502e+02	2.4969	-1.233345	0.000730	7.304321	1.237385	-0.000073
1761	1.7512e+02	2.4883	-1.285828	0.000528	5.275343	0.893667	-0.000053
1762	1.7522e+02	2.4776	-1.301976	0.000162	1.623182	0.274975	-0.000016
1763	1.7532e+02	2.4660	-1.358496	0.000568	5.681139	0.962411	-0.000057
1764	1.7542e+02	2.4569	-1.415016	0.000568	5.681139	0.962411	-0.000057
1765	1.7552e+02	2.4478	-1.483647	0.000690	6.898525	1.168642	-0.000069
1766	1.7562e+02	2.4371	-1.548242	0.000649	6.492730	1.099898	-0.000065
1767	1.7572e+02	2.4274	-1.616873	0.000690	6.898525	1.168642	-0.000069
1768	1.7582e+02	2.4166	-1.637059	0.000203	2.028978	0.343718	-0.000020
1769	1.7592e+02	2.4082	-1.709727	0.000730	7.304321	1.237385	-0.000073
1770	1.7602e+02	2.3966	-1.750098	0.000406	4.057956	0.687436	-0.000041
1771	1.7612e+02	2.3875	-1.798544	0.000487	4.869547	0.824924	-0.000049
1772	1.7621e+02	2.3763	-1.851027	0.000528	5.275343	0.893667	-0.000053
1773	1.7631e+02	2.3676	-1.927732	0.000771	7.710117	1.306129	-0.000077
1774	1.7641e+02	2.3581	-1.972141	0.000446	4.463752	0.756180	-0.000045
1775	1.7651e+02	2.3471	-2.016549	0.000446	4.463752	0.756180	-0.000045
1776	1.7661e+02	2.3374	-2.060958	0.000446	4.463752	0.756180	-0.000045
1777	1.7671e+02	2.3267	-2.153812	0.000933	9.333299	1.581104	-0.000093
1778	1.7681e+02	2.3178	-2.182072	0.000284	2.840569	0.481205	-0.000028
1779	1.7691e+02	2.3072	-2.246666	0.000649	6.492730	1.099898	-0.000065
1780	1.7701e+02	2.2973	-2.299149	0.000528	5.275343	0.893667	-0.000053
1781	1.7711e+02	2.2881	-2.339520	0.000406	4.057956	0.687436	-0.000041
1782	1.7721e+02	2.2778	-2.400077	0.000609	6.086934	1.031155	-0.000061
1783	1.7731e+02	2.2683	-2.488894	0.000893	8.927503	1.512360	-0.000089
1784	1.7741e+02	2.2575	-2.496968	0.000081	0.811591	0.137487	-0.000008
1785	1.7751e+02	2.2477	-2.581748	0.000852	8.521708	1.443616	-0.000085
1786	1.7761e+02	2.2388	-2.614045	0.000325	3.246365	0.549949	-0.000032
1787	1.7771e+02	2.2281	-2.678640	0.000649	6.492730	1.099898	-0.000065
1788	1.7781e+02	2.2186	-2.743234	0.000649	6.492730	1.099898	-0.000065
1789	1.7791e+02	2.2072	-2.775531	0.000325	3.246365	0.549949	-0.000032
1790	1.7801e+02	2.1985	-2.840125	0.000649	6.492730	1.099898	-0.000065
1791	1.7810e+02	2.1893	-2.904719	0.000649	6.492730	1.099898	-0.000065
1792	1.7820e+02	2.1779	-2.957202	0.000528	5.275343	0.893667	-0.000053
1793	1.7830e+02	2.1676	-2.973350	0.000162	1.623182	0.274975	-0.000016
1794	1.7840e+02	2.1580	-3.058130	0.000852	8.521708	1.443616	-0.000085
1795	1.7850e+02	2.1485	-3.110613	0.000528	5.275343	0.893667	-0.000053
1796	1.7860e+02	2.1391	-3.146947	0.000365	3.652160	0.618693	-0.000037
1797	1.7870e+02	2.1290	-3.207504	0.000609	6.086934	1.031155	-0.000061
1798	1.7880e+02	2.1181	-3.268061	0.000609	6.086934	1.031155	-0.000061
1799	1.7890e+02	2.1085	-3.328618	0.000609	6.086934	1.031155	-0.000061
1800	1.7900e+02	2.0988	-3.368990	0.000406	4.057956	0.687436	-0.000041
1801	1.7910e+02	2.0889	-3.445695	0.000771	7.710117	1.306129	-0.000077
1802	1.7920e+02	2.0786	-3.473955	0.000284	2.840569	0.481205	-0.000028
1803	1.7930e+02	2.0690	-3.546624	0.000730	7.304321	1.237385	-0.000073
1804	1.7940e+02	2.0588	-3.627366	0.000812	8.115912	1.374873	-0.000081
1805	1.7950e+02	2.0486	-3.687923	0.000609	6.086934	1.031155	-0.000061
1806	1.7960e+02	2.0393	-3.712146	0.000243	2.434774	0.412462	-0.000024
1807	1.7970e+02	2.0286	-3.784815	0.000730	7.304321	1.237385	-0.000073
1808	1.7980e+02	2.0188	-3.845372	0.000609	6.086934	1.031155	-0.000061
1809	1.7990e+02	2.0094	-3.885743	0.000406	4.057956	0.687436	-0.000041
1810	1.8000e+02	1.9988	-3.966486	0.000812	8.115912	1.374873	-0.000081
1811	1.8009e+02	1.9897	-3.970523	0.000041	0.405796	0.068744	-0.000004
1812	1.8019e+02	1.9791	-4.031080	0.000609	6.086934	1.031155	-0.000061
1813	1.8029e+02	1.9682	-4.075489	0.000446	4.463752	0.756180	-0.000045
1814	1.8039e+02	1.9595	-4.127971	0.000528	5.275343	0.893667	-0.000053
1815	1.8049e+02	1.9497	-4.212751	0.000852	8.521708	1.443616	-0.000085
1816	1.8059e+02	1.9398	-4.289457	0.000771	7.710117	1.306129	-0.000077
1817	1.8069e+02	1.9299	-4.329828	0.000406	4.057956	0.687436	-0.000041
1818	1.8079e+02	1.9195	-4.358088	0.000284	2.840569	0.481205	-0.000028
1819	1.8089e+02	1.9091	-4.414608	0.000568	5.681139	0.962411	-0.000057
1820	1.8099e+02	1.8993	-4.491314	0.000771	7.710117	1.306129	-0.000077
1821	1.8109e+02	1.8901	-4.535722	0.000446	4.463752	0.756180	-0.000045
1822	1.8119e+02	1.8793	-4.624539	0.000893	8.927503	1.512360	-0.000089
1823	1.8129e+02	1.8703	-4.644725	0.000203	2.028978	0.343718	-0.000020
1824	1.8139e+02	1.8603	-4.753727	0.001096	10.956481	1.856078	-0.000110
1825	1.8149e+02	1.8499	-4.794099	0.000406	4.057956	0.687436	-0.000041
1826	1.8159e+02	1.8402	-4.806210	0.000122	1.217387	0.206231	-0.000012
1827	1.8169e+02	1.8309	-4.886953	0.000812	8.115912	1.374873	-0.000081
1828	1.8179e+02	1.8191	-4.943473	0.000568	5.681139	0.962411	-0.000057
1829	1.8189e+02	1.8102	-5.024215	0.000812	8.115912	1.374873	-0.000081
1830	1.8199e+02	1.8002	-5.068624	0.000446	4.463752	0.756180	-0.000045
1831	1.8209e+02	1.7899	-5.088810	0.000203	2.028978	0.343718	-0.000020
1832	1.8218e+02	1.7798	-5.153404	0.000649	6.492730	1.099898	-0.000065
1833	1.8228e+02	1.7702	-5.242221	0.000893	8.927503	1.512360	-0.000089
1834	1.8238e+02	1.7603	-5.306815	0.000649	6.492730	1.099898	-0.000065
1835	1.8248e+02	1.7507	-5.347186	0.000406	4.057956	0.687436	-0.000041
1836	1.8258e+02	1.7406	-5.411780	0.000649	6.492730	1.099898	-0.000065
1837	1.8268e+02	1.7302	-5.431966	0.000203	2.028978	0.343718	-0.000020
1838	1.8278e+02	1.7194	-5.557117	0.001258	12.579664	2.131053	-0.000126
1839	1.8288e+02	1.7107	-5.597489	0.000406	4.057956	0.687436	-0.000041
1840	1.8298e+02	1.7008	-5.654009	0.000568	5.681139	0.962411	-0.000057
1841	1.8308e+02	1.6915	-5.670157	0.000162	1.623182	0.274975	-0.000016
1842	1.8318e+02	1.6811	-5.787234	0.001177	11.768073	1.993565	-0.000118
1843	1.8328e+02	1.6710	-5.819531	0.000325	3.246365	0.549949	-0.000032
1844	1.8338e+02	1.6617	-5.880088	0.000609	6.086934	1.031155	-0.000061
1845	1.8348e+02	1.6506	-5.952757	0.000730	7.304321	1.237385	-0.000073
1846	1.8358e+02	1.6412	-6.017351	0.000649	6.492730	1.099898	-0.000065
1847	1.8368e+02	1.6302	-6.065796	0.000487	4.869547	0.824924	-0.000049
1848	1.8378e+02	1.6214	-6.138465	0.000730	7.304321	1.237385	-0.000073
1849	1.8388e+02	1.6106	-6.190948	0.000528	5.275343	0.893667	-0.000053
1850	1.8398e+02	1.6019	-6.235356	0.000446	4.463752	0.756180	-0.000045
1851	1.8407e+02	1.5920	-6.312062	0.000771	7.710117	1.306129	-0.000077
1852	1.8417e+02	1.5810	-6.380693	0.000690	6.898525	1.168642	-0.000069
1853	1.8427e+02	1.5717	-6.445287	0.000649	6.492730	1.099898	-0.000065
1854	1.8437e+02	1.5611	-6.530067	0.000852	8.521708	1.443616	-0.000085
1855	1.8447e+02	1.5512	-6.562364	0.000325	3.246365	0.549949	-0.000032
1856	1.8457e+02	1.5421	-6.626958	0.000649	6.492730	1.099898	-0.000065
1857	1.8467e+02	1.5320	-6.703664	0.000771	7.710117	1.306129	-0.000077
1858	1.8477e+02	1.5212	-6.731924	0.000284	2.840569	0.481205	-0.000028
1859	1.8487e+02	1.5114	-6.768258	0.000365	3.652160	0.618693	-0.000037
1860	1.8497e+02	1.5009	-6.853038	0.000852	8.521708	1.443616	-0.000085
1861	1.8507e+02	1.4920	-6.933781	0.000812	8.115912	1.374873	-0.000081
1862	1.8517e+02	1.4819	-6.974152	0.000406	4.057956	0.687436	-0.000041
1863	1.8527e+02	1.4713	-7.067006	0.000933	9.333299	1.581104	-0.000093
1864	1.8537e+02	1.4617	-7.067006	-0.000000	-0.000000	-0.000000	0.000000
1865	1.8547e+02	1.4520	-7.184083	0.001177	11.768073	1.993565	-0.000118
1866	1.8557e+02	1.4426	-7.264826	0.000812	8.115912	1.374873	-0.000081
1867	1.8567e+02	1.4320	-7.301160	0.000365	3.652160	0.618693	-0.000037
1868	1.8577e+02	1.4223	-7.394014	0.000933	9.333299	1.581104	-0.000093
1869	1.8587e+02	1.4124	-7.458608	0.000649	6.492730	1.099898	-0.000065
1870	1.8597e+02	1.4020	-7.511091	0.000528	5.275343	0.893667	-0.000053
1871	1.8606e+02	1.3924	-7.563574	0.000528	5.275343	0.893667	-0.000053
1872	1.8616e+02	1.3818	-7.612019	0.000487	4.869547	0.824924	-0.000049
1873	1.8626e+02	1.3716	-7.721022	0.001096	10.956481	1.856078	-0.000110
1874	1.8636e+02	1.3628	-7.753319	0.000325	3.246365	0.549949	-0.000032
1875	1.8646e+02	1.3525	-7.801765	0.000487	4.869547	0.824924	-0.000049
1876	1.8656e+02	1.3425	-7.890582	0.000893	8.927503	1.512360	-0.000089
1877	1.8666e+02	1.3317	-7.943065	0.000528	5.275343	0.893667	-0.000053
1878	1.8676e+02	1.3220	-8.031882	0.000893	8.927503	1.512360	-0.000089
1879	1.8686e+02	1.3118	-8.072253	0.000406	4.057956	0.687436	-0.000041
1880	1.8696e+02	1.3024	-8.161070	0.000893	8.927503	1.512360	-0.000089
1881	1.8706e+02	1.2927	-8.205478	0.000446	4.463752	0.756180	-0.000045
1882	1.8716e+02	1.2818	-8.261998	0.000568	5.681139	0.962411	-0.000057
1883	1.8726e+02	1.2730	-8.334667	0.000730	7.304321	1.237385	-0.000073
1884	1.8736e+02	1.2627	-8.411372	0.000771	7.710117	1.306129	-0.000077
1885	1.8746e+02	1.2532	-8.475966	0.000649	6.492730	1.099898	-0.000065
1886	1.8756e+02	1.2437	-8.540561	0.000649	6.492730	1.099898	-0.000065
1887	1.8766e+02	1.2331	-8.589006	0.000487	4.869547	0.824924	-0.000049
1888	1.8776e+02	1.2231	-8.665712	0.000771	7.710117	1.306129	-0.000077
1889	1.8786e+02	1.2136	-8.742417	0.000771	7.710117	1.306129	-0.000077
1890	1.8796e+02	1.2041	-8.827197	0.000852	8.521708	1.443616	-0.000085
1891	1.8806e+02	1.1940	-8.887754	0.000609	6.086934	1.031155	-0.000061
1892	1.8815e+02	1.1845	-8.928126	0.000406	4.057956	0.687436	-0.000041
1893	1.8825e+02	1.1733	-9.004831	0.000771	7.710117	1.306129	-0.000077
1894	1.8835e+02	1.1647	-9.077500	0.000730	7.304321	1.237385	-0.000073
1895	1.8845e+02	1.1547	-9.162280	0.000852	8.521708	1.443616	-0.000085
1896	1.8855e+02	1.1436	-9.202651	0.000406	4.057956	0.687436	-0.000041
1897	1.8865e+02	1.1347	-9.247059	0.000446	4.463752	0.756180	-0.000045
1898	1.8875e+02	1.1247	-9.323765	0.000771	7.710117	1.306129	-0.000077
1899	1.8885e+02	1.1143	-9.343951	0.000203	2.028978	0.343718	-0.000020
1900	1.8895e+02	1.1042	-9.436805	0.000933	9.333299	1.581104	-0.000093
1901	1.8905e+02	1.0945	-9.497362	0.000609	6.086934	1.031155	-0.000061
1902	1.8915e+02	1.0843	-9.606364	0.001096	10.956481	1.856078	-0.000110
1903	1.8925e+02	1.0738	-9.654810	0.000487	4.869547	0.824924	-0.000049
1904	1.8935e+02	1.0641	-9.715367	0.000609	6.086934	1.031155	-0.000061
1905	1.8945e+02	1.0538	-9.788036	0.000730	7.304321	1.237385	-0.000073
1906	1.8955e+02	1.0439	-9.884927	0.000974	9.739095	1.649847	-0.000097
1907	1.8965e+02	1.0343	-9.933372	0.000487	4.869547	0.824924	-0.000049
1908	1.8975e+02	1.0243	-9.993930	0.000609	6.086934	1.031155	-0.000061
1909	1.8985e+02	1.0143	-10.070635	0.000771	7.710117	1.306129	-0.000077
1910	1.8995e+02	1.0046	-10.094858	0.000243	2.434774	0.412462	-0.000024
1911	1.9004e+02	0.9953	-10.199823	0.001055	10.550686	1.787335	-0.000105
1912	1.9014e+02	0.9847	-10.276529	0.000771	7.710117	1.306129	-0.000077
1913	1.9024e+02	0.9740	-10.353235	0.000771	7.710117	1.306129	-0.000077
1914	1.9034e+02	0.9637	-10.421866	0.000690	6.898525	1.168642	-0.000069
1915	1.9044e+02	0.9547	-10.502609	0.000812	8.115912	1.374873	-0.000081
1916	1.9054e+02	0.9454	-10.547017	0.000446	4.463752	0.756180	-0.000045
1917	1.9064e+02	0.9348	-10.619686	0.000730	7.304321	1.237385	-0.000073
1918	1.9074e+02	0.9242	-10.664094	0.000446	4.463752	0.756180	-0.000045
1919	1.9084e+02	0.9153	-10.724651	0.000609	6.086934	1.031155	-0.000061
1920	1.9094e+02	0.9048	-10.805394	0.000812	8.115912	1.374873	-0.000081
1921	1.9104e+02	0.8958	-10.841728	0.000365	3.652160	0.618693	-0.000037
1922	1.9114e+02	0.8849	-10.946694	0.001055	10.550686	1.787335	-0.000105
1923	1.9124e+02	0.8761	-11.023399	0.000771	7.710117	1.306129	-0.000077
1924	1.9134e+02	0.8652	-11.075882	0.000528	5.275343	0.893667	-0.000053
1925	1.9144e+02	0.8559	-11.116253	0.000406	4.057956	0.687436	-0.000041
1926	1.9154e+02	0.8459	-11.188922	0.000730	7.304321	1.237385	-0.000073
1927	1.9164e+02	0.8359	-11.265627	0.000771	7.710117	1.306129	-0.000077
1928	1.9174e+02	0.8250	-11.326184	0.000609	6.086934	1.031155	-0.000061
1929	1.9184e+02	0.8153	-11.378667	0.000528	5.275343	0.893667	-0.000053
1930	1.9194e+02	0.8056	-11.479595	0.001014	10.144890	1.718591	-0.000101
1931	1.9203e+02	0.7955	-11.499781	0.000203	2.028978	0.343718	-0.000020
1932	1.9213e+02	0.7860	-11.572450	0.000730	7.304321	1.237385	-0.000073
1933	1.9223e+02	0.7751	-11.665304	0.000933	9.333299	1.581104	-0.000093
1934	1.9233e+02	0.7658	-11.754121	0.000893	8.927503	1.512360	-0.000089
1935	1.9243e+02	0.7553	-11.786418	0.000325	3.246365	0.549949	-0.000032
1936	1.9253e+02	0.7458	-11.855049	0.000690	6.898525	1.168642	-0.000069
1937	1.9263e+02	0.7359	-11.923680	0.000690	6.898525	1.168642	-0.000069
1938	1.9273e+02	0.7254	-12.008460	0.000852	8.521708	1.443616	-0.000085
1939	1.9283e+02	0.7159	-12.032683	0.000243	2.434774	0.412462	-0.000024
1940	1.9293e+02	0.7053	-12.105352	0.000730	7.304321	1.237385	-0.000073
1941	1.9303e+02	0.6961	-12.226466	0.001217	12.173868	2.062309	-0.000122
1942	1.9313e+02	0.6861	-12.262800	0.000365	3.652160	0.618693	-0.000037
1943	1.9323e+02	0.6767	-12.327394	0.000649	6.492730	1.099898	-0.000065
1944	1.9333e+02	0.6659	-12.400062	0.000730	7.304321	1.237385	-0.000073
1945	1.9343e+02	0.6556	-12.436397	0.000365	3.652160	0.618693	-0.000037
1946	1.9353e+02	0.6457	-12.509065	0.000730	7.304321	1.237385	-0.000073
1947	1.9363e+02	0.6363	-12.605956	0.000974	9.739095	1.649847	-0.000097
1948	1.9373e+02	0.6267	-12.654402	0.000487	4.869547	0.824924	-0.000049
1949	1.9383e+02	0.6164	-12.739182	0.000852	8.521708	1.443616	-0.000085
1950	1.9393e+02	0.6069	-12.811850	0.000730	7.304321	1.237385	-0.000073
1951	1.9403e+02	0.5962	-12.884519	0.000730	7.304321	1.237385	-0.000073
1952	1.9412e+02	0.5859	-12.953150	0.000690	6.898525	1.168642	-0.000069
1953	1.9422e+02	0.5767	-13.021781	0.000690	6.898525	1.168642	-0.000069
1954	1.9432e+02	0.5663	-13.098487	0.000771	7.710117	1.306129	-0.000077
1955	1.9442e+02	0.5573	-13.134821	0.000365	3.652160	0.618693	-0.000037
1956	1.9452e+02	0.5470	-13.150970	0.000162	1.623182	0.274975	-0.000016
1957	1.9462e+02	0.5371	-13.243824	0.000933	9.333299	1.581104	-0.000093
1958	1.9472e+02	0.5263	-13.340715	0.000974	9.739095	1.649847	-0.000097
1959	1.9482e+02	0.5168	-13.409346	0.000690	6.898525	1.168642	-0.000069
1960	1.9492e+02	0.5072	-13.494126	0.000852	8.521708	1.443616	-0.000085
1961	1.9502e+02	0.4975	-13.530460	0.000365	3.652160	0.618693	-0.000037
1962	1.9512e+02	0.4864	-13.627352	0.000974	9.739095	1.649847	-0.000097
1963	1.9522e+02	0.4778	-13.667723	0.000406	4.057956	0.687436	-0.000041
1964	1.9532e+02	0.4670	-13.744429	0.000771	7.710117	1.306129	-0.000077
1965	1.9542e+02	0.4571	-13.821134	0.000771	7.710117	1.306129	-0.000077
1966	1.9552e+02	0.4481	-13.869580	0.000487	4.869547	0.824924	-0.000049
1967	1.9562e+02	0.4373	-13.942248	0.000730	7.304321	1.237385	-0.000073
1968	1.9572e+02	0.4272	-14.031065	0.000893	8.927503	1.512360	-0.000089
1969	1.9582e+02	0.4172	-14.083548	0.000528	5.275343	0.893667	-0.000053
1970	1.9592e+02	0.4067	-14.156216	0.000730	7.304321	1.237385	-0.000073
1971	1.9601e+02	0.3977	-14.236959	0.000812	8.115912	1.374873	-0.000081
1972	1.9611e+02	0.3875	-14.301553	0.000649	6.492730	1.099898	-0.000065
1973	1.9621e+02	0.3769	-14.362110	0.000609	6.086934	1.031155	-0.000061
1974	1.9631e+02	0.3682	-14.454965	0.000933	9.333299	1.581104	-0.000093
1975	1.9641e+02	0.3576	-14.491299	0.000365	3.652160	0.618693	-0.000037
1976	1.9651e+02	0.3475	-14.568004	0.000771	7.710117	1.306129	-0.000077
1977	1.9661e+02	0.3371	-14.612413	0.000446	4.463752	0.756180	-0.000045
1978	1.9671e+02	0.3275	-14.749675	0.001380	13.797051	2.337284	-0.000138
1979	1.9681e+02	0.3185	-14.790047	0.000406	4.057956	0.687436	-0.000041
1980	1.9691e+02	0.3078	-14.842530	0.000528	5.275343	0.893667	-0.000053
1981	1.9701e+02	0.2983	-14.899049	0.000568	5.681139	0.962411	-0.000057
1982	1.9711e+02	0.2879	-14.995941	0.000974	9.739095	1.649847	-0.000097
1983	1.9721e+02	0.2781	-15.072646	0.000771	7.710117	1.306129	-0.000077
1984	1.9731e+02	0.2680	-15.141278	0.000690	6.898525	1.168642	-0.000069
1985	1.9741e+02	0.2588	-15.177612	0.000365	3.652160	0.618693	-0.000037
1986	1.9751e+02	0.2482	-15.242206	0.000649	6.492730	1.099898	-0.000065
1987	1.9761e+02	0.2390	-15.331023	0.000893	8.927503	1.512360	-0.000089
1988	1.9771e+02	0.2279	-15.383506	0.000528	5.275343	0.893667	-0.000053
1989	1.9781e+02	0.2177	-15.444063	0.000609	6.086934	1.031155	-0.000061
1990	1.9791e+02	0.2078	-15.532880	0.000893	8.927503	1.512360	-0.000089
1991	1.9800e+02	0.1993	-15.581325	0.000487	4.869547	0.824924	-0.000049
1992	1.9810e+02	0.1879	-15.674180	0.000933	9.333299	1.581104	-0.000093
1993	1.9820e+02	0.1784	-15.754922	0.000812	8.115912	1.374873	-0.000081
1994	1.9830e+02	0.1692	-15.847776	0.000933	9.333299	1.581104	-0.000093
1995	1.9840e+02	0.1579	-15.892185	0.000446	4.463752	0.756180	-0.000045
1996	1.9850e+02	0.1484	-15.972928	0.000812	8.115912	1.374873	-0.000081
1997	1.9860e+02	0.1382	-16.033485	0.000609	6.086934	1.031155	-0.000061
1998	1.9870e+02	0.1282	-16.122302	0.000893	8.927503	1.512360	-0.000089
1999	1.9880e+02	0.1191	-16.207081	0.000852	8.521708	1.443616	-0.000085
2000	1.9890e+02	0.1083	-16.267638	0.000609	6.086934	1.031155	-0.000061
2001	1.9900e+02	0.0993	-16.344344	0.000771	7.710117	1.306129	-0.000077
2002	1.9910e+02	0.0894	-16.368567	0.000243	2.434774	0.412462	-0.000024
2003	1.9920e+02	0.0790	-16.497755	0.001299	12.985459	2.199796	-0.000130
2004	1.9930e+02	0.0679	-16.526015	0.000284	2.840569	0.481205	-0.000028
2005	1.9940e+02	0.0589	-16.570424	0.000446	4.463752	0.756180	-0.000045
2006	1.9950e+02	0.0480	-16.679426	0.001096	10.956481	1.856078	-0.000110
2007	1.9960e+02	0.0383	-16.748058	0.000690	6.898525	1.168642	-0.000069
2008	1.9970e+02	0.0289	-16.836875	0.000893	8.927503	1.512360	-0.000089
2009	1.9980e+02	0.0190	-16.953952	0.001177	11.768073	1.993565	-0.000118
2010	1.9990e+02	0.0096	-16.945877	-0.000081	-0.811591	-0.137487	0.000008
2011	2.0000e+02	-0.0002	-17.066991	-0.000081	-0.811591	-0.137487	-0.000122

PMax (uC/cm2):	5.07e+01
Pr (uC/cm2):	8.34e+00
-Pr (uC/cm2):	0.00e+00
PLoss (uC/cm2):	0.00e+00
C (Max-Eff) (nF):	5.07e-01
K (Eff):	8.59e+02
Vert. (+/-Pr) Shift (uC/cm2):	4.17e+00
Offset (uC/cm2):	2.54e+01

A (Loop Area - uC/cm2·Volts):	-6.81e-02



Hysteresis Version: 5.48.1 - Radiant Technologies, Inc., 1999 - 9/12/24

