»»»»»»»»»»»»»»»»»»»»»»»»»»»»»»»»»»»» Hysteresis ««««««««««««««««««««««««««««««««««««
»»»  Executed Version:	5.48.1
»»»  Vision Version:	5.48.4 (R)
»»»  Vision Compiled:	9/18/24
»»»  Driver Version:	5.47.0
»»»  Windows Version:	Windows 8 or 8.1
»»»  Processor Information:	x86 (AMD or Intel) - 32 Processors
»»»  Tester Name:	PMF21124-494 (100V)
»»»  Tester S/N:	PMF21124-494
»»»  Internal Amp Type:	100V RevK 270k
»»»  Internal Amp S/N:	iAB2-596/K     
»»»  Execution Count:	1
»»»»»»»»»»»»»»»»»»»»»»»»»»»»»»»»»»»»»»»»»»««««««««««««««««««««««««««««««««««««««««««

Stored:	6/9/2025 - 11:46:4
Configured:	06/09/25 11:17:29 AM
Executed:	06/09/25 11:45:26 AM

»»»»»»»»»»»»»»»»»»»»»»»»»»»»»»»»»»» Sample Info ««««««««««««««««««««««««««««««««««««
Sample Name:	
Lot Name:	
Wafer Name:	
Die Row/Column:	0/0
Capacitor Number:	0
Sample Area (cm2):	1.00e-04
Sample Thickness (microns):	3.00e-01

Amplifier:	Internal

»»»»»»»»»»»»»»»»»»»»»»»»»»»»»»»»»»» Tester Info «««««««««««««««««««««««««««««««««««
Tester Name:	PMF21124-494 (100V)
Tester Serial Number:	PMF21124-494
Return Signal Amp. Level:	1.9 [Index: 2]

»»»»»»»»»»»»»»»»»»»»»»»»»»»»»»»» Hysteresis Info ««««««««««««««««««««««««««««««««««
Task Name:	Hyst-785
Volts:	20.00
Field:	666.67 (kV/cm)
DCBias:	0.00
DCField:	0.00 (kV/cm)
Hysteresis Period (ms):	2.00e+02
Preset:	Enabled
Preset Delay (ms):	1.00e+03
Profile:	Standard Bipolar

»»»»»»»»»»»»»»»»»»»»»»»»»»»»»»»»»»»»»» Data «««««««««««««««««««««««««««««««««««««««
Points:	2009

Valid Data

Point	Time (ms)	Drive Voltage	Measured Polarization (uC/cm2)	Capacitance (uF)	Normalized Capacitance (uF/cm2)	Dielectric Constant	Instantaneous Current (mA)
   1	0.0000e+00	0.0176	-0.568650	0.000042	0.421723	0.142884	0.000017
   2	9.9500e-02	0.0401	-0.551542	0.000042	0.421723	0.142884	0.000017
   3	1.9900e-01	0.1011	-0.520991	0.000075	0.753077	0.255149	0.000031
   4	2.9850e-01	0.1235	-0.496143	0.000061	0.612502	0.207521	0.000025
   5	3.9800e-01	0.1877	-0.467222	0.000071	0.712913	0.241541	0.000029
   6	4.9750e-01	0.2294	-0.444003	0.000057	0.572338	0.193913	0.000023
   7	5.9700e-01	0.2936	-0.415082	0.000071	0.712913	0.241541	0.000029
   8	6.9650e-01	0.3064	-0.385346	0.000073	0.732995	0.248345	0.000030
   9	7.9600e-01	0.3289	-0.359683	0.000063	0.632584	0.214325	0.000026
  10	8.9550e-01	0.3642	-0.329947	0.000073	0.732995	0.248345	0.000030
  11	9.9500e-01	0.4187	-0.300211	0.000073	0.732995	0.248345	0.000030
  12	1.0945e+00	0.4444	-0.270068	0.000074	0.743036	0.251747	0.000030
  13	1.1940e+00	0.4941	-0.240332	0.000073	0.732995	0.248345	0.000030
  14	1.2935e+00	0.5101	-0.208967	0.000077	0.773159	0.261953	0.000032
  15	1.3930e+00	0.5599	-0.179638	0.000072	0.722954	0.244943	0.000029
  16	1.4925e+00	0.5855	-0.146643	0.000081	0.813323	0.275561	0.000033
  17	1.5920e+00	0.6465	-0.122203	0.000060	0.602461	0.204119	0.000025
  18	1.6915e+00	0.6818	-0.093281	0.000071	0.712913	0.241541	0.000029
  19	1.7910e+00	0.7476	-0.066804	0.000065	0.652666	0.221129	0.000027
  20	1.8905e+00	0.7379	-0.037883	-0.000071	-0.712913	-0.241541	0.000029
  21	1.9900e+00	0.8117	-0.005703	0.000079	0.793241	0.268757	0.000032
  22	2.0895e+00	0.8535	0.020774	0.000065	0.652666	0.221129	0.000027
  23	2.1890e+00	0.8903	0.048066	0.000067	0.672748	0.227933	0.000027
  24	2.2885e+00	0.9048	0.080246	0.000079	0.793241	0.268757	0.000032
  25	2.3880e+00	0.9561	0.111205	0.000076	0.763118	0.258551	0.000031
  26	2.4875e+00	0.9994	0.142163	0.000076	0.763118	0.258551	0.000031
  27	2.5870e+00	1.0684	0.174750	0.000080	0.803282	0.272159	0.000033
  28	2.6865e+00	1.1021	0.194302	0.000048	0.481969	0.163296	0.000020
  29	2.7860e+00	1.1262	0.229334	0.000086	0.863528	0.292571	0.000035
  30	2.8855e+00	1.1583	0.255404	0.000064	0.642625	0.217727	0.000026
  31	2.9850e+00	1.1919	0.284325	0.000071	0.712913	0.241541	0.000029
  32	3.0845e+00	1.2497	0.317727	0.000082	0.823364	0.278963	0.000034
  33	3.1840e+00	1.2834	0.345834	0.000069	0.692831	0.234737	0.000028
  34	3.2835e+00	1.3299	0.377199	0.000077	0.773159	0.261953	0.000032
  35	3.3830e+00	1.3877	0.408157	0.000076	0.763118	0.258551	0.000031
  36	3.4825e+00	1.4069	0.441559	0.000082	0.823364	0.278963	0.000034
  37	3.5820e+00	1.4679	0.469666	0.000069	0.692831	0.234737	0.000028
  38	3.6815e+00	1.5000	0.501439	0.000078	0.783200	0.265355	0.000032
  39	3.7810e+00	1.5240	0.532804	0.000077	0.773159	0.261953	0.000032
  40	3.8805e+00	1.5465	0.565799	0.000081	0.813323	0.275561	0.000033
  41	3.9800e+00	1.5994	0.599608	0.000083	0.833405	0.282365	0.000034
  42	4.0795e+00	1.6556	0.630566	0.000076	0.763118	0.258551	0.000031
  43	4.1790e+00	1.6764	0.663968	0.000082	0.823364	0.278963	0.000034
  44	4.2785e+00	1.7342	0.701851	0.000093	0.933815	0.316385	0.000038
  45	4.3780e+00	1.7823	0.733624	0.000078	0.783200	0.265355	0.000032
  46	4.4775e+00	1.8288	0.761731	0.000069	0.692831	0.234737	0.000028
  47	4.5770e+00	1.8304	0.798391	0.000090	0.903692	0.306179	0.000037
  48	4.6765e+00	1.8609	0.829757	0.000077	0.773159	0.261953	0.000032
  49	4.7760e+00	1.9058	0.862344	0.000080	0.803282	0.272159	0.000033
  50	4.8755e+00	1.9443	0.895746	0.000082	0.823364	0.278963	0.000034
  51	4.9750e+00	2.0278	0.929556	0.000083	0.833405	0.282365	0.000034
  52	5.0745e+00	2.0486	0.960514	0.000076	0.763118	0.258551	0.000031
  53	5.1740e+00	2.1031	0.994323	0.000083	0.833405	0.282365	0.000034
  54	5.2735e+00	2.0999	1.030169	-0.000088	-0.883610	-0.299375	0.000036
  55	5.3730e+00	2.1368	1.064386	0.000084	0.843446	0.285767	0.000034
  56	5.4725e+00	2.1930	1.092493	0.000069	0.692831	0.234737	0.000028
  57	5.5720e+00	2.2748	1.134856	0.000104	1.044266	0.353807	0.000043
  58	5.6715e+00	2.3069	1.167444	0.000080	0.803282	0.272159	0.000033
  59	5.7710e+00	2.3213	1.195958	0.000070	0.702872	0.238139	0.000029
  60	5.8705e+00	2.3967	1.230175	0.000084	0.843446	0.285767	0.000034
  61	5.9700e+00	2.3999	1.263169	0.000081	0.813323	0.275561	0.000033
  62	6.0695e+00	2.4465	1.300237	0.000091	0.913733	0.309581	0.000037
  63	6.1690e+00	2.5443	1.332417	0.000079	0.793241	0.268757	0.000032
  64	6.2685e+00	2.5523	1.365820	0.000082	0.823364	0.278963	0.000034
  65	6.3680e+00	2.5780	1.400444	0.000085	0.853487	0.289169	0.000035
  66	6.4675e+00	2.6117	1.430994	0.000075	0.753077	0.255149	0.000031
  67	6.5670e+00	2.6470	1.461138	0.000074	0.743036	0.251747	0.000030
  68	6.6665e+00	2.6823	1.496169	0.000086	0.863528	0.292571	0.000035
  69	6.7660e+00	2.7240	1.534459	0.000094	0.943856	0.319787	0.000038
  70	6.8655e+00	2.7609	1.568269	0.000083	0.833405	0.282365	0.000034
  71	6.9650e+00	2.7882	1.602486	0.000084	0.843446	0.285767	0.000034
  72	7.0645e+00	2.8379	1.636702	0.000084	0.843446	0.285767	0.000034
  73	7.1640e+00	2.8700	1.674178	0.000092	0.923774	0.312983	0.000038
  74	7.2635e+00	2.9037	1.710431	0.000089	0.893651	0.302777	0.000036
  75	7.3630e+00	2.9662	1.741797	0.000077	0.773159	0.261953	0.000032
  76	7.4625e+00	3.0160	1.782124	0.000099	0.994061	0.336797	0.000041
  77	7.5620e+00	3.0432	1.819192	0.000091	0.913733	0.309581	0.000037
  78	7.6615e+00	3.0865	1.855445	0.000089	0.893651	0.302777	0.000036
  79	7.7610e+00	3.1010	1.890884	0.000087	0.873569	0.295973	0.000036
  80	7.8605e+00	3.1443	1.926323	0.000087	0.873569	0.295973	0.000036
  81	7.9600e+00	3.1812	1.961762	0.000087	0.873569	0.295973	0.000036
  82	8.0595e+00	3.2181	1.994349	0.000080	0.803282	0.272159	0.000033
  83	8.1590e+00	3.2871	2.035491	0.000101	1.014143	0.343601	0.000041
  84	8.2585e+00	3.3336	2.065227	0.000073	0.732995	0.248345	0.000030
  85	8.3580e+00	3.3577	2.105146	0.000098	0.984020	0.333395	0.000040
  86	8.4575e+00	3.3946	2.137734	0.000080	0.803282	0.272159	0.000033
  87	8.5570e+00	3.4651	2.175617	0.000093	0.933815	0.316385	0.000038
  88	8.6565e+00	3.4603	2.215129	-0.000097	-0.973979	-0.329993	0.000040
  89	8.7560e+00	3.5277	2.250568	0.000087	0.873569	0.295973	0.000036
  90	8.8555e+00	3.5710	2.281933	0.000077	0.773159	0.261953	0.000032
  91	8.9550e+00	3.5919	2.317372	0.000087	0.873569	0.295973	0.000036
  92	9.0545e+00	3.6320	2.351181	0.000083	0.833405	0.282365	0.000034
  93	9.1540e+00	3.6721	2.386213	0.000086	0.863528	0.292571	0.000035
  94	9.2535e+00	3.7154	2.415541	0.000072	0.722954	0.244943	0.000029
  95	9.3530e+00	3.7555	2.453424	0.000093	0.933815	0.316385	0.000038
  96	9.4525e+00	3.8020	2.481938	0.000070	0.702872	0.238139	0.000029
  97	9.5520e+00	3.8373	2.516562	0.000085	0.853487	0.289169	0.000035
  98	9.6515e+00	3.8678	2.550779	0.000084	0.843446	0.285767	0.000034
  99	9.7510e+00	3.9223	2.585811	0.000086	0.863528	0.292571	0.000035
 100	9.8505e+00	3.9833	2.620842	0.000086	0.863528	0.292571	0.000035
 101	9.9500e+00	4.0106	2.650985	0.000074	0.743036	0.251747	0.000030
 102	1.0050e+01	4.0379	2.688461	0.000092	0.923774	0.312983	0.000038
 103	1.0149e+01	4.0844	2.723085	0.000085	0.853487	0.289169	0.000035
 104	1.0248e+01	4.1405	2.756894	0.000083	0.833405	0.282365	0.000034
 105	1.0348e+01	4.1742	2.795592	0.000095	0.953897	0.323189	0.000039
 106	1.0447e+01	4.1614	2.831845	-0.000089	-0.893651	-0.302777	0.000036
 107	1.0547e+01	4.2255	2.860359	0.000070	0.702872	0.238139	0.000029
 108	1.0646e+01	4.2657	2.896613	0.000089	0.893651	0.302777	0.000036
 109	1.0746e+01	4.3186	2.929200	0.000080	0.803282	0.272159	0.000033
 110	1.0845e+01	4.4004	2.967083	0.000093	0.933815	0.316385	0.000038
 111	1.0945e+01	4.3892	2.998449	-0.000077	-0.773159	-0.261953	0.000032
 112	1.1044e+01	4.4341	3.033073	0.000085	0.853487	0.289169	0.000035
 113	1.1144e+01	4.4485	3.068919	0.000088	0.883610	0.299375	0.000036
 114	1.1243e+01	4.5320	3.104358	0.000087	0.873569	0.295973	0.000036
 115	1.1343e+01	4.5528	3.133279	0.000071	0.712913	0.241541	0.000029
 116	1.1443e+01	4.5993	3.170754	0.000092	0.923774	0.312983	0.000038
 117	1.1542e+01	4.6009	3.202120	0.000077	0.773159	0.261953	0.000032
 118	1.1642e+01	4.6908	3.239188	0.000091	0.913733	0.309581	0.000037
 119	1.1741e+01	4.7084	3.270146	0.000076	0.763118	0.258551	0.000031
 120	1.1841e+01	4.7646	3.301511	0.000077	0.773159	0.261953	0.000032
 121	1.1940e+01	4.7870	3.334913	0.000082	0.823364	0.278963	0.000034
 122	1.2040e+01	4.8223	3.364649	0.000073	0.732995	0.248345	0.000030
 123	1.2139e+01	4.9025	3.396015	0.000077	0.773159	0.261953	0.000032
 124	1.2239e+01	4.9218	3.429417	0.000082	0.823364	0.278963	0.000034
 125	1.2338e+01	4.9619	3.457931	0.000070	0.702872	0.238139	0.000029
 126	1.2438e+01	4.9811	3.492962	0.000086	0.863528	0.292571	0.000035
 127	1.2537e+01	5.0132	3.519032	0.000064	0.642625	0.217727	0.000026
 128	1.2636e+01	5.0678	3.552027	0.000081	0.813323	0.275561	0.000033
 129	1.2736e+01	5.1255	3.577282	0.000062	0.622543	0.210923	0.000025
 130	1.2835e+01	5.1319	3.607426	0.000074	0.743036	0.251747	0.000030
 131	1.2935e+01	5.1849	3.636754	0.000072	0.722954	0.244943	0.000029
 132	1.3034e+01	5.2458	3.668934	0.000079	0.793241	0.268757	0.000032
 133	1.3134e+01	5.2603	3.699892	0.000076	0.763118	0.258551	0.000031
 134	1.3233e+01	5.3116	3.727999	0.000069	0.692831	0.234737	0.000028
 135	1.3333e+01	5.3373	3.763030	0.000086	0.863528	0.292571	0.000035
 136	1.3432e+01	5.3966	3.793174	0.000074	0.743036	0.251747	0.000030
 137	1.3532e+01	5.4351	3.822910	0.000073	0.732995	0.248345	0.000030
 138	1.3632e+01	5.4672	3.852646	0.000073	0.732995	0.248345	0.000030
 139	1.3731e+01	5.5154	3.885233	0.000080	0.803282	0.272159	0.000033
 140	1.3831e+01	5.5394	3.911303	0.000064	0.642625	0.217727	0.000026
 141	1.3930e+01	5.6052	3.941854	0.000075	0.753077	0.255149	0.000031
 142	1.4030e+01	5.6148	3.967924	0.000064	0.642625	0.217727	0.000026
 143	1.4129e+01	5.6902	3.996845	0.000071	0.712913	0.241541	0.000029
 144	1.4229e+01	5.7239	4.027396	0.000075	0.753077	0.255149	0.000031
 145	1.4328e+01	5.7544	4.059576	0.000079	0.793241	0.268757	0.000032
 146	1.4428e+01	5.7672	4.089312	0.000073	0.732995	0.248345	0.000030
 147	1.4527e+01	5.8490	4.114160	0.000061	0.612502	0.207521	0.000025
 148	1.4627e+01	5.8603	4.143896	0.000073	0.732995	0.248345	0.000030
 149	1.4726e+01	5.9100	4.176891	0.000081	0.813323	0.275561	0.000033
 150	1.4825e+01	5.9501	4.200516	0.000058	0.582379	0.197315	0.000024
 151	1.4925e+01	5.9870	4.233104	0.000080	0.803282	0.272159	0.000033
 152	1.5024e+01	6.0480	4.262840	0.000073	0.732995	0.248345	0.000030
 153	1.5124e+01	6.0768	4.289317	0.000065	0.652666	0.221129	0.000027
 154	1.5223e+01	6.0993	4.321497	0.000079	0.793241	0.268757	0.000032
 155	1.5323e+01	6.1763	4.346752	0.000062	0.622543	0.210923	0.000025
 156	1.5422e+01	6.1923	4.375674	0.000071	0.712913	0.241541	0.000029
 157	1.5522e+01	6.2389	4.402151	0.000065	0.652666	0.221129	0.000027
 158	1.5621e+01	6.2758	4.432702	0.000075	0.753077	0.255149	0.000031
 159	1.5721e+01	6.2982	4.456735	0.000059	0.592420	0.200717	0.000024
 160	1.5820e+01	6.3447	4.481990	0.000062	0.622543	0.210923	0.000025
 161	1.5920e+01	6.3752	4.511726	0.000073	0.732995	0.248345	0.000030
 162	1.6020e+01	6.4233	4.536167	0.000060	0.602461	0.204119	0.000025
 163	1.6119e+01	6.4955	4.558570	0.000055	0.552256	0.187109	0.000023
 164	1.6218e+01	6.5164	4.588306	0.000073	0.732995	0.248345	0.000030
 165	1.6318e+01	6.5389	4.617228	0.000071	0.712913	0.241541	0.000029
 166	1.6418e+01	6.5822	4.639632	0.000055	0.552256	0.187109	0.000023
 167	1.6517e+01	6.6239	4.670590	0.000076	0.763118	0.258551	0.000031
 168	1.6616e+01	6.6672	4.697067	0.000065	0.652666	0.221129	0.000027
 169	1.6716e+01	6.6929	4.718656	0.000053	0.532174	0.180305	0.000022
 170	1.6816e+01	6.7490	4.746355	0.000068	0.682789	0.231335	0.000028
 171	1.6915e+01	6.7907	4.770389	0.000059	0.592420	0.200717	0.000024
 172	1.7015e+01	6.8228	4.799310	0.000071	0.712913	0.241541	0.000029
 173	1.7114e+01	6.8693	4.824158	0.000061	0.612502	0.207521	0.000025
 174	1.7213e+01	6.8902	4.846154	0.000054	0.542215	0.183707	0.000022
 175	1.7313e+01	6.9319	4.874668	0.000070	0.702872	0.238139	0.000029
 176	1.7413e+01	7.0057	4.906034	0.000077	0.773159	0.261953	0.000032
 177	1.7512e+01	7.0570	4.932511	0.000065	0.652666	0.221129	0.000027
 178	1.7611e+01	7.0410	4.960618	-0.000069	-0.692831	-0.234737	0.000028
 179	1.7711e+01	7.0891	4.989946	0.000072	0.722954	0.244943	0.000029
 180	1.7811e+01	7.1501	5.021312	0.000077	0.773159	0.261953	0.000032
 181	1.7910e+01	7.1886	5.045345	0.000059	0.592420	0.200717	0.000024
 182	1.8009e+01	7.2271	5.071415	0.000064	0.642625	0.217727	0.000026
 183	1.8109e+01	7.2575	5.099521	0.000069	0.692831	0.234737	0.000028
 184	1.8209e+01	7.3169	5.125184	0.000063	0.632584	0.214325	0.000026
 185	1.8308e+01	7.3827	5.159401	0.000084	0.843446	0.285767	0.000034
 186	1.8407e+01	7.3811	5.179768	-0.000050	-0.502051	-0.170100	0.000020
 187	1.8507e+01	7.4180	5.206652	0.000066	0.662707	0.224531	0.000027
 188	1.8607e+01	7.4789	5.233944	0.000067	0.672748	0.227933	0.000027
 189	1.8706e+01	7.4998	5.258792	0.000061	0.612502	0.207521	0.000025
 190	1.8805e+01	7.5287	5.288528	0.000073	0.732995	0.248345	0.000030
 191	1.8905e+01	7.5656	5.315006	0.000065	0.652666	0.221129	0.000027
 192	1.9005e+01	7.6426	5.341076	0.000064	0.642625	0.217727	0.000026
 193	1.9104e+01	7.6570	5.369590	0.000070	0.702872	0.238139	0.000029
 194	1.9203e+01	7.7356	5.395252	0.000063	0.632584	0.214325	0.000026
 195	1.9303e+01	7.7420	5.421729	0.000065	0.652666	0.221129	0.000027
 196	1.9402e+01	7.7629	5.448614	0.000066	0.662707	0.224531	0.000027
 197	1.9502e+01	7.8287	5.473869	0.000062	0.622543	0.210923	0.000025
 198	1.9602e+01	7.8656	5.498310	0.000060	0.602461	0.204119	0.000025
 199	1.9701e+01	7.8880	5.529268	0.000076	0.763118	0.258551	0.000031
 200	1.9800e+01	7.9426	5.552079	0.000056	0.562297	0.190511	0.000023
 201	1.9900e+01	8.0099	5.578556	0.000065	0.652666	0.221129	0.000027
 202	2.0000e+01	8.0147	5.610736	0.000079	0.793241	0.268757	0.000032
 203	2.0099e+01	8.0565	5.639250	0.000070	0.702872	0.238139	0.000029
 204	2.0198e+01	8.1078	5.665728	0.000065	0.652666	0.221129	0.000027
 205	2.0298e+01	8.1190	5.693427	0.000068	0.682789	0.231335	0.000028
 206	2.0398e+01	8.1511	5.721126	0.000068	0.682789	0.231335	0.000028
 207	2.0497e+01	8.2297	5.751677	0.000075	0.753077	0.255149	0.000031
 208	2.0596e+01	8.2730	5.781413	0.000073	0.732995	0.248345	0.000030
 209	2.0696e+01	8.3003	5.810334	0.000071	0.712913	0.241541	0.000029
 210	2.0796e+01	8.3500	5.844144	0.000083	0.833405	0.282365	0.000034
 211	2.0895e+01	8.3837	5.871436	0.000067	0.672748	0.227933	0.000027
 212	2.0994e+01	8.3966	5.899950	0.000070	0.702872	0.238139	0.000029
 213	2.1094e+01	8.4511	5.926427	0.000065	0.652666	0.221129	0.000027
 214	2.1194e+01	8.5089	5.957385	0.000076	0.763118	0.258551	0.000031
 215	2.1293e+01	8.4992	5.985899	-0.000070	-0.702872	-0.238139	0.000029
 216	2.1392e+01	8.5586	6.016449	0.000075	0.753077	0.255149	0.000031
 217	2.1492e+01	8.6115	6.047408	0.000076	0.763118	0.258551	0.000031
 218	2.1591e+01	8.6725	6.078773	0.000077	0.773159	0.261953	0.000032
 219	2.1691e+01	8.6933	6.106880	0.000069	0.692831	0.234737	0.000028
 220	2.1791e+01	8.7383	6.136616	0.000073	0.732995	0.248345	0.000030
 221	2.1890e+01	8.7912	6.163093	0.000065	0.652666	0.221129	0.000027
 222	2.1989e+01	8.8233	6.194458	0.000077	0.773159	0.261953	0.000032
 223	2.2089e+01	8.8682	6.219713	0.000062	0.622543	0.210923	0.000025
 224	2.2189e+01	8.8939	6.253116	0.000082	0.823364	0.278963	0.000034
 225	2.2288e+01	8.9292	6.284888	0.000078	0.783200	0.265355	0.000032
 226	2.2387e+01	8.9661	6.312588	0.000068	0.682789	0.231335	0.000028
 227	2.2487e+01	9.0014	6.344360	0.000078	0.783200	0.265355	0.000032
 228	2.2587e+01	9.0992	6.369208	0.000061	0.612502	0.207521	0.000025
 229	2.2686e+01	9.0880	6.399759	-0.000075	-0.753077	-0.255149	0.000031
 230	2.2785e+01	9.1505	6.429495	0.000073	0.732995	0.248345	0.000030
 231	2.2885e+01	9.1858	6.459638	0.000074	0.743036	0.251747	0.000030
 232	2.2985e+01	9.2484	6.488967	0.000072	0.722954	0.244943	0.000029
 233	2.3084e+01	9.2677	6.515444	0.000065	0.652666	0.221129	0.000027
 234	2.3183e+01	9.3029	6.548032	0.000080	0.803282	0.272159	0.000033
 235	2.3283e+01	9.3254	6.579397	0.000077	0.773159	0.261953	0.000032
 236	2.3383e+01	9.3848	6.606282	0.000066	0.662707	0.224531	0.000027
 237	2.3482e+01	9.4056	6.638054	0.000078	0.783200	0.265355	0.000032
 238	2.3581e+01	9.4361	6.668605	0.000075	0.753077	0.255149	0.000031
 239	2.3681e+01	9.4730	6.699563	0.000076	0.763118	0.258551	0.000031
 240	2.3780e+01	9.5500	6.729299	0.000073	0.732995	0.248345	0.000030
 241	2.3880e+01	9.5789	6.766367	0.000091	0.913733	0.309581	0.000037
 242	2.3980e+01	9.6126	6.792844	0.000065	0.652666	0.221129	0.000027
 243	2.4079e+01	9.6815	6.826246	0.000082	0.823364	0.278963	0.000034
 244	2.4178e+01	9.6751	6.855575	-0.000072	-0.722954	-0.244943	0.000029
 245	2.4278e+01	9.7152	6.889385	0.000083	0.833405	0.282365	0.000034
 246	2.4378e+01	9.7634	6.923194	0.000083	0.833405	0.282365	0.000034
 247	2.4477e+01	9.8356	6.949671	0.000065	0.652666	0.221129	0.000027
 248	2.4576e+01	9.8452	6.984295	0.000085	0.853487	0.289169	0.000035
 249	2.4676e+01	9.9126	7.012809	0.000070	0.702872	0.238139	0.000029
 250	2.4776e+01	9.9318	7.041731	0.000071	0.712913	0.241541	0.000029
 251	2.4875e+01	9.9928	7.073911	0.000079	0.793241	0.268757	0.000032
 252	2.4974e+01	10.0168	7.106905	0.000081	0.813323	0.275561	0.000033
 253	2.5074e+01	10.0553	7.136234	0.000072	0.722954	0.244943	0.000029
 254	2.5174e+01	10.0922	7.169636	0.000082	0.823364	0.278963	0.000034
 255	2.5273e+01	10.1051	7.202224	0.000080	0.803282	0.272159	0.000033
 256	2.5372e+01	10.1516	7.232367	0.000074	0.743036	0.251747	0.000030
 257	2.5472e+01	10.2061	7.269435	0.000091	0.913733	0.309581	0.000037
 258	2.5572e+01	10.2639	7.297134	0.000068	0.682789	0.231335	0.000028
 259	2.5671e+01	10.2928	7.327278	0.000074	0.743036	0.251747	0.000030
 260	2.5770e+01	10.3457	7.356606	0.000072	0.722954	0.244943	0.000029
 261	2.5870e+01	10.3826	7.386342	0.000073	0.732995	0.248345	0.000030
 262	2.5970e+01	10.4147	7.412412	0.000064	0.642625	0.217727	0.000026
 263	2.6069e+01	10.4660	7.440926	0.000070	0.702872	0.238139	0.000029
 264	2.6169e+01	10.5462	7.474328	0.000082	0.823364	0.278963	0.000034
 265	2.6268e+01	10.5703	7.498769	0.000060	0.602461	0.204119	0.000025
 266	2.6367e+01	10.5398	7.530542	-0.000078	-0.783200	-0.265355	0.000032
 267	2.6467e+01	10.6184	7.562722	0.000079	0.793241	0.268757	0.000032
 268	2.6567e+01	10.6537	7.588384	0.000063	0.632584	0.214325	0.000026
 269	2.6666e+01	10.6970	7.620157	0.000078	0.783200	0.265355	0.000032
 270	2.6765e+01	10.7355	7.649893	0.000073	0.732995	0.248345	0.000030
 271	2.6865e+01	10.7692	7.680851	0.000076	0.763118	0.258551	0.000031
 272	2.6965e+01	10.7981	7.713846	0.000081	0.813323	0.275561	0.000033
 273	2.7064e+01	10.8398	7.744397	0.000075	0.753077	0.255149	0.000031
 274	2.7163e+01	10.9152	7.770059	0.000063	0.632584	0.214325	0.000026
 275	2.7263e+01	10.9377	7.798980	0.000071	0.712913	0.241541	0.000029
 276	2.7363e+01	10.9810	7.831161	0.000079	0.793241	0.268757	0.000032
 277	2.7462e+01	10.9954	7.860897	0.000073	0.732995	0.248345	0.000030
 278	2.7561e+01	11.0628	7.894299	0.000082	0.823364	0.278963	0.000034
 279	2.7661e+01	11.1029	7.919147	0.000061	0.612502	0.207521	0.000025
 280	2.7761e+01	11.1446	7.950105	0.000076	0.763118	0.258551	0.000031
 281	2.7860e+01	11.1478	7.983099	0.000081	0.813323	0.275561	0.000033
 282	2.7959e+01	11.2312	8.014465	0.000077	0.773159	0.261953	0.000032
 283	2.8059e+01	11.2505	8.039720	0.000062	0.622543	0.210923	0.000025
 284	2.8159e+01	11.2890	8.072307	0.000080	0.803282	0.272159	0.000033
 285	2.8258e+01	11.3179	8.099599	0.000067	0.672748	0.227933	0.000027
 286	2.8358e+01	11.3724	8.128928	0.000072	0.722954	0.244943	0.000029
 287	2.8457e+01	11.3820	8.154998	0.000064	0.642625	0.217727	0.000026
 288	2.8556e+01	11.4462	8.182697	0.000068	0.682789	0.231335	0.000028
 289	2.8656e+01	11.5007	8.214470	0.000078	0.783200	0.265355	0.000032
 290	2.8756e+01	11.5264	8.240132	0.000063	0.632584	0.214325	0.000026
 291	2.8855e+01	11.5729	8.267424	0.000067	0.672748	0.227933	0.000027
 292	2.8954e+01	11.5890	8.294716	0.000067	0.672748	0.227933	0.000027
 293	2.9054e+01	11.6580	8.320379	0.000063	0.632584	0.214325	0.000026
 294	2.9154e+01	11.7061	8.345227	0.000061	0.612502	0.207521	0.000025
 295	2.9253e+01	11.7414	8.371704	0.000065	0.652666	0.221129	0.000027
 296	2.9352e+01	11.8007	8.396552	0.000061	0.612502	0.207521	0.000025
 297	2.9452e+01	11.8200	8.425066	0.000070	0.702872	0.238139	0.000029
 298	2.9552e+01	11.8649	8.444211	0.000047	0.471928	0.159894	0.000019
 299	2.9651e+01	11.8922	8.473540	0.000072	0.722954	0.244943	0.000029
 300	2.9750e+01	11.9114	8.500424	0.000066	0.662707	0.224531	0.000027
 301	2.9850e+01	11.9660	8.529346	0.000071	0.712913	0.241541	0.000029
 302	2.9950e+01	11.9692	8.546454	0.000042	0.421723	0.142884	0.000017
 303	3.0049e+01	12.0510	8.578634	0.000079	0.793241	0.268757	0.000032
 304	3.0148e+01	12.0767	8.602667	0.000059	0.592420	0.200717	0.000024
 305	3.0248e+01	12.1473	8.628330	0.000063	0.632584	0.214325	0.000026
 306	3.0348e+01	12.1681	8.654400	0.000064	0.642625	0.217727	0.000026
 307	3.0447e+01	12.1874	8.682914	0.000070	0.702872	0.238139	0.000029
 308	3.0547e+01	12.2467	8.703281	0.000050	0.502051	0.170100	0.000020
 309	3.0646e+01	12.2628	8.728536	0.000062	0.622543	0.210923	0.000025
 310	3.0745e+01	12.3221	8.755828	0.000067	0.672748	0.227933	0.000027
 311	3.0845e+01	12.3590	8.780676	0.000061	0.612502	0.207521	0.000025
 312	3.0945e+01	12.4055	8.808783	0.000069	0.692831	0.234737	0.000028
 313	3.1044e+01	12.4456	8.829964	0.000052	0.522133	0.176903	0.000021
 314	3.1143e+01	12.4793	8.854405	0.000060	0.602461	0.204119	0.000025
 315	3.1243e+01	12.5355	8.882512	0.000069	0.692831	0.234737	0.000028
 316	3.1343e+01	12.5579	8.905730	0.000057	0.572338	0.193913	0.000023
 317	3.1442e+01	12.5964	8.931800	0.000064	0.642625	0.217727	0.000026
 318	3.1541e+01	12.6414	8.959499	0.000068	0.682789	0.231335	0.000028
 319	3.1641e+01	12.6863	8.984347	0.000061	0.612502	0.207521	0.000025
 320	3.1741e+01	12.7007	9.005122	0.000051	0.512092	0.173502	0.000021
 321	3.1840e+01	12.7472	9.033636	0.000070	0.702872	0.238139	0.000029
 322	3.1939e+01	12.8355	9.056040	0.000055	0.552256	0.187109	0.000023
 323	3.2039e+01	12.8547	9.078443	0.000055	0.552256	0.187109	0.000023
 324	3.2139e+01	12.8852	9.104106	0.000063	0.632584	0.214325	0.000026
 325	3.2238e+01	12.9061	9.120400	0.000040	0.401641	0.136080	0.000016
 326	3.2337e+01	12.9574	9.145248	0.000061	0.612502	0.207521	0.000025
 327	3.2437e+01	13.0055	9.164393	0.000047	0.471928	0.159894	0.000019
 328	3.2536e+01	13.0055	9.187204	-0.000056	-0.562297	-0.190511	0.000023
 329	3.2636e+01	13.0697	9.211237	0.000059	0.592420	0.200717	0.000024
 330	3.2736e+01	13.1306	9.233641	0.000055	0.552256	0.187109	0.000023
 331	3.2835e+01	13.1708	9.257267	0.000058	0.582379	0.197315	0.000024
 332	3.2934e+01	13.1804	9.278449	0.000052	0.522133	0.176903	0.000021
 333	3.3034e+01	13.2622	9.303297	0.000061	0.612502	0.207521	0.000025
 334	3.3133e+01	13.2702	9.326922	0.000058	0.582379	0.197315	0.000024
 335	3.3233e+01	13.3071	9.345660	0.000046	0.461887	0.156492	0.000019
 336	3.3333e+01	13.3713	9.367657	0.000054	0.542215	0.183707	0.000022
 337	3.3432e+01	13.4258	9.389653	0.000054	0.542215	0.183707	0.000022
 338	3.3532e+01	13.4547	9.409206	0.000048	0.481969	0.163296	0.000020
 339	3.3631e+01	13.4659	9.434461	0.000062	0.622543	0.210923	0.000025
 340	3.3730e+01	13.5253	9.456865	0.000055	0.552256	0.187109	0.000023
 341	3.3830e+01	13.5510	9.478046	0.000052	0.522133	0.176903	0.000021
 342	3.3929e+01	13.5959	9.504524	0.000065	0.652666	0.221129	0.000027
 343	3.4029e+01	13.6151	9.526520	0.000054	0.542215	0.183707	0.000022
 344	3.4129e+01	13.6649	9.549739	0.000057	0.572338	0.193913	0.000023
 345	3.4228e+01	13.7338	9.570513	0.000051	0.512092	0.173502	0.000021
 346	3.4328e+01	13.7836	9.597398	0.000066	0.662707	0.224531	0.000027
 347	3.4427e+01	13.8269	9.620616	0.000057	0.572338	0.193913	0.000023
 348	3.4526e+01	13.8333	9.641391	0.000051	0.512092	0.173502	0.000021
 349	3.4626e+01	13.8766	9.663387	0.000054	0.542215	0.183707	0.000022
 350	3.4725e+01	13.9167	9.691901	0.000070	0.702872	0.238139	0.000029
 351	3.4825e+01	13.9729	9.713898	0.000054	0.542215	0.183707	0.000022
 352	3.4925e+01	14.0066	9.738746	0.000061	0.612502	0.207521	0.000025
 353	3.5024e+01	14.0162	9.761557	0.000056	0.562297	0.190511	0.000023
 354	3.5123e+01	14.0691	9.777851	0.000040	0.401641	0.136080	0.000016
 355	3.5223e+01	14.1285	9.805143	0.000067	0.672748	0.227933	0.000027
 356	3.5322e+01	14.1558	9.825102	0.000049	0.492010	0.166698	0.000020
 357	3.5422e+01	14.1878	9.849950	0.000061	0.612502	0.207521	0.000025
 358	3.5522e+01	14.2311	9.869910	0.000049	0.492010	0.166698	0.000020
 359	3.5621e+01	14.2568	9.895573	0.000063	0.632584	0.214325	0.000026
 360	3.5721e+01	14.3226	9.915532	0.000049	0.492010	0.166698	0.000020
 361	3.5820e+01	14.3675	9.942417	0.000066	0.662707	0.224531	0.000027
 362	3.5919e+01	14.3980	9.962377	0.000049	0.492010	0.166698	0.000020
 363	3.6019e+01	14.4541	9.985595	0.000057	0.572338	0.193913	0.000023
 364	3.6118e+01	14.4702	10.007184	0.000053	0.532174	0.180305	0.000022
 365	3.6218e+01	14.5311	10.028774	0.000053	0.532174	0.180305	0.000022
 366	3.6318e+01	14.5584	10.055658	0.000066	0.662707	0.224531	0.000027
 367	3.6417e+01	14.6242	10.076025	0.000050	0.502051	0.170100	0.000020
 368	3.6517e+01	14.6482	10.098837	0.000056	0.562297	0.190511	0.000023
 369	3.6616e+01	14.6675	10.121648	0.000056	0.562297	0.190511	0.000023
 370	3.6715e+01	14.7445	10.142422	0.000051	0.512092	0.173502	0.000021
 371	3.6815e+01	14.7605	10.170936	0.000070	0.702872	0.238139	0.000029
 372	3.6914e+01	14.8007	10.193340	0.000055	0.552256	0.187109	0.000023
 373	3.7014e+01	14.8263	10.216966	0.000058	0.582379	0.197315	0.000024
 374	3.7114e+01	14.8552	10.240999	0.000059	0.592420	0.200717	0.000024
 375	3.7213e+01	14.9322	10.267476	0.000065	0.652666	0.221129	0.000027
 376	3.7313e+01	14.9402	10.293139	0.000063	0.632584	0.214325	0.000026
 377	3.7412e+01	14.9980	10.316765	0.000058	0.582379	0.197315	0.000024
 378	3.7511e+01	15.0268	10.341613	0.000061	0.612502	0.207521	0.000025
 379	3.7611e+01	15.0670	10.370941	0.000072	0.722954	0.244943	0.000029
 380	3.7711e+01	15.0990	10.398641	0.000068	0.682789	0.231335	0.000028
 381	3.7810e+01	15.1632	10.420637	0.000054	0.542215	0.183707	0.000022
 382	3.7910e+01	15.2065	10.447522	0.000066	0.662707	0.224531	0.000027
 383	3.8009e+01	15.2210	10.469926	0.000055	0.552256	0.187109	0.000023
 384	3.8108e+01	15.2675	10.495996	0.000064	0.642625	0.217727	0.000026
 385	3.8208e+01	15.3236	10.521251	0.000062	0.622543	0.210923	0.000025
 386	3.8307e+01	15.3702	10.548950	0.000068	0.682789	0.231335	0.000028
 387	3.8407e+01	15.4054	10.575427	0.000065	0.652666	0.221129	0.000027
 388	3.8507e+01	15.4151	10.600275	0.000061	0.612502	0.207521	0.000025
 389	3.8606e+01	15.4680	10.626752	0.000065	0.652666	0.221129	0.000027
 390	3.8706e+01	15.5161	10.649564	0.000056	0.562297	0.190511	0.000023
 391	3.8805e+01	15.5546	10.675226	0.000063	0.632584	0.214325	0.000026
 392	3.8904e+01	15.5899	10.700889	0.000063	0.632584	0.214325	0.000026
 393	3.9004e+01	15.6349	10.726959	0.000064	0.642625	0.217727	0.000026
 394	3.9103e+01	15.6782	10.752621	0.000063	0.632584	0.214325	0.000026
 395	3.9203e+01	15.6990	10.779506	0.000066	0.662707	0.224531	0.000027
 396	3.9303e+01	15.7488	10.803946	0.000060	0.602461	0.204119	0.000025
 397	3.9402e+01	15.8017	10.832868	0.000071	0.712913	0.241541	0.000029
 398	3.9502e+01	15.8354	10.858123	0.000062	0.622543	0.210923	0.000025
 399	3.9601e+01	15.8659	10.878490	0.000050	0.502051	0.170100	0.000020
 400	3.9700e+01	15.9188	10.904153	0.000063	0.632584	0.214325	0.000026
 401	3.9800e+01	15.9525	10.932259	0.000069	0.692831	0.234737	0.000028
 402	3.9900e+01	15.9782	10.955885	0.000058	0.582379	0.197315	0.000024
 403	3.9999e+01	16.0311	10.980326	0.000060	0.602461	0.204119	0.000025
 404	4.0099e+01	16.0664	11.008025	0.000068	0.682789	0.231335	0.000028
 405	4.0198e+01	16.1209	11.035317	0.000067	0.672748	0.227933	0.000027
 406	4.0297e+01	16.1626	11.060572	0.000062	0.622543	0.210923	0.000025
 407	4.0397e+01	16.1771	11.089494	0.000071	0.712913	0.241541	0.000029
 408	4.0496e+01	16.2172	11.116378	0.000066	0.662707	0.224531	0.000027
 409	4.0596e+01	16.2765	11.142041	0.000063	0.632584	0.214325	0.000026
 410	4.0696e+01	16.3086	11.171777	0.000073	0.732995	0.248345	0.000030
 411	4.0795e+01	16.3247	11.199069	0.000067	0.672748	0.227933	0.000027
 412	4.0895e+01	16.3953	11.225546	0.000065	0.652666	0.221129	0.000027
 413	4.0994e+01	16.4225	11.258541	0.000081	0.813323	0.275561	0.000033
 414	4.1093e+01	16.4739	11.285018	0.000065	0.652666	0.221129	0.000027
 415	4.1193e+01	16.4819	11.308644	0.000058	0.582379	0.197315	0.000024
 416	4.1292e+01	16.5541	11.339602	0.000076	0.763118	0.258551	0.000031
 417	4.1392e+01	16.5781	11.363635	0.000059	0.592420	0.200717	0.000024
 418	4.1492e+01	16.6359	11.392964	0.000072	0.722954	0.244943	0.000029
 419	4.1591e+01	16.6953	11.416590	0.000058	0.582379	0.197315	0.000024
 420	4.1691e+01	16.7065	11.447955	0.000077	0.773159	0.261953	0.000032
 421	4.1790e+01	16.7690	11.476469	0.000070	0.702872	0.238139	0.000029
 422	4.1889e+01	16.7867	11.504983	0.000070	0.702872	0.238139	0.000029
 423	4.1989e+01	16.8348	11.531868	0.000066	0.662707	0.224531	0.000027
 424	4.2089e+01	16.8637	11.559974	0.000069	0.692831	0.234737	0.000028
 425	4.2188e+01	16.9070	11.584822	0.000061	0.612502	0.207521	0.000025
 426	4.2288e+01	16.9439	11.613336	0.000070	0.702872	0.238139	0.000029
 427	4.2387e+01	17.0065	11.638184	0.000061	0.612502	0.207521	0.000025
 428	4.2486e+01	17.0450	11.663847	0.000063	0.632584	0.214325	0.000026
 429	4.2586e+01	17.0771	11.688287	0.000060	0.602461	0.204119	0.000025
 430	4.2685e+01	17.1220	11.713950	0.000063	0.632584	0.214325	0.000026
 431	4.2785e+01	17.1428	11.735132	0.000052	0.522133	0.176903	0.000021
 432	4.2885e+01	17.1605	11.766497	0.000077	0.773159	0.261953	0.000032
 433	4.2984e+01	17.2038	11.788901	0.000055	0.552256	0.187109	0.000023
 434	4.3084e+01	17.2744	11.815378	0.000065	0.652666	0.221129	0.000027
 435	4.3183e+01	17.3017	11.841041	0.000063	0.632584	0.214325	0.000026
 436	4.3282e+01	17.3337	11.867518	0.000065	0.652666	0.221129	0.000027
 437	4.3382e+01	17.3819	11.893588	0.000064	0.642625	0.217727	0.000026
 438	4.3481e+01	17.4188	11.920880	0.000067	0.672748	0.227933	0.000027
 439	4.3581e+01	17.4829	11.946542	0.000063	0.632584	0.214325	0.000026
 440	4.3681e+01	17.5519	11.972612	0.000064	0.642625	0.217727	0.000026
 441	4.3780e+01	17.5471	12.002756	-0.000074	-0.743036	-0.251747	0.000030
 442	4.3880e+01	17.5712	12.022715	0.000049	0.492010	0.166698	0.000020
 443	4.3979e+01	17.6369	12.048785	0.000064	0.642625	0.217727	0.000026
 444	4.4078e+01	17.6610	12.078114	0.000072	0.722954	0.244943	0.000029
 445	4.4178e+01	17.7220	12.102147	0.000059	0.592420	0.200717	0.000024
 446	4.4278e+01	17.7492	12.130661	0.000070	0.702872	0.238139	0.000029
 447	4.4377e+01	17.7813	12.158768	0.000069	0.692831	0.234737	0.000028
 448	4.4477e+01	17.8343	12.184023	0.000062	0.622543	0.210923	0.000025
 449	4.4576e+01	17.8535	12.210500	0.000065	0.652666	0.221129	0.000027
 450	4.4675e+01	17.9225	12.233312	0.000056	0.562297	0.190511	0.000023
 451	4.4775e+01	17.9786	12.260603	0.000067	0.672748	0.227933	0.000027
 452	4.4874e+01	17.9899	12.285451	0.000061	0.612502	0.207521	0.000025
 453	4.4974e+01	18.0187	12.313151	0.000068	0.682789	0.231335	0.000028
 454	4.5074e+01	18.0605	12.335962	0.000056	0.562297	0.190511	0.000023
 455	4.5173e+01	18.0701	12.362439	0.000065	0.652666	0.221129	0.000027
 456	4.5273e+01	18.1679	12.386880	0.000060	0.602461	0.204119	0.000025
 457	4.5372e+01	18.1920	12.404803	0.000044	0.441805	0.149688	0.000018
 458	4.5471e+01	18.2225	12.432095	0.000067	0.672748	0.227933	0.000027
 459	4.5571e+01	18.2786	12.456535	0.000060	0.602461	0.204119	0.000025
 460	4.5670e+01	18.2963	12.476495	0.000049	0.492010	0.166698	0.000020
 461	4.5770e+01	18.3428	12.501343	0.000061	0.612502	0.207521	0.000025
 462	4.5870e+01	18.3813	12.522117	0.000051	0.512092	0.173502	0.000021
 463	4.5969e+01	18.4423	12.541262	0.000047	0.471928	0.159894	0.000019
 464	4.6069e+01	18.4567	12.562852	0.000053	0.532174	0.180305	0.000022
 465	4.6168e+01	18.4968	12.588107	0.000062	0.622543	0.210923	0.000025
 466	4.6267e+01	18.5321	12.610918	0.000056	0.562297	0.190511	0.000023
 467	4.6367e+01	18.5995	12.633729	0.000056	0.562297	0.190511	0.000023
 468	4.6467e+01	18.6380	12.653689	0.000049	0.492010	0.166698	0.000020
 469	4.6566e+01	18.6604	12.677722	0.000059	0.592420	0.200717	0.000024
 470	4.6666e+01	18.7166	12.701348	0.000058	0.582379	0.197315	0.000024
 471	4.6765e+01	18.7439	12.720493	0.000047	0.471928	0.159894	0.000019
 472	4.6864e+01	18.7791	12.744119	0.000058	0.582379	0.197315	0.000024
 473	4.6964e+01	18.8160	12.767338	0.000057	0.572338	0.193913	0.000023
 474	4.7063e+01	18.8545	12.788519	0.000052	0.522133	0.176903	0.000021
 475	4.7163e+01	18.8786	12.809294	0.000051	0.512092	0.173502	0.000021
 476	4.7263e+01	18.9733	12.830883	0.000053	0.532174	0.180305	0.000022
 477	4.7362e+01	18.9717	12.851657	-0.000051	-0.512092	-0.173502	0.000021
 478	4.7462e+01	19.0262	12.875283	0.000058	0.582379	0.197315	0.000024
 479	4.7561e+01	19.0647	12.897687	0.000055	0.552256	0.187109	0.000023
 480	4.7660e+01	19.1209	12.916832	0.000047	0.471928	0.159894	0.000019
 481	4.7760e+01	19.1481	12.938014	0.000052	0.522133	0.176903	0.000021
 482	4.7859e+01	19.1658	12.960825	0.000056	0.562297	0.190511	0.000023
 483	4.7959e+01	19.2075	12.985266	0.000060	0.602461	0.204119	0.000025
 484	4.8059e+01	19.2604	13.004818	0.000048	0.481969	0.163296	0.000020
 485	4.8158e+01	19.2941	13.030481	0.000063	0.632584	0.214325	0.000026
 486	4.8258e+01	19.3583	13.048404	0.000044	0.441805	0.149688	0.000018
 487	4.8357e+01	19.3679	13.072437	0.000059	0.592420	0.200717	0.000024
 488	4.8456e+01	19.4369	13.092397	0.000049	0.492010	0.166698	0.000020
 489	4.8556e+01	19.4706	13.110727	0.000045	0.451846	0.153090	0.000018
 490	4.8656e+01	19.4866	13.128243	0.000043	0.431764	0.146286	0.000018
 491	4.8755e+01	19.5283	13.151054	0.000056	0.562297	0.190511	0.000023
 492	4.8855e+01	19.6005	13.172236	0.000052	0.522133	0.176903	0.000021
 493	4.8954e+01	19.6150	13.188937	0.000041	0.411682	0.139482	0.000017
 494	4.9053e+01	19.6615	13.210526	0.000053	0.532174	0.180305	0.000022
 495	4.9153e+01	19.7128	13.228857	0.000045	0.451846	0.153090	0.000018
 496	4.9252e+01	19.7449	13.243114	0.000035	0.351436	0.119070	0.000014
 497	4.9352e+01	19.7690	13.263073	0.000049	0.492010	0.166698	0.000020
 498	4.9452e+01	19.8347	13.285477	0.000055	0.552256	0.187109	0.000023
 499	4.9551e+01	19.8412	13.300549	0.000037	0.371518	0.125874	0.000015
 500	4.9651e+01	19.9069	13.323768	0.000057	0.572338	0.193913	0.000023
 501	4.9750e+01	19.9438	13.343727	0.000049	0.492010	0.166698	0.000020
 502	4.9849e+01	19.9855	13.361650	0.000044	0.441805	0.149688	0.000018
 503	4.9949e+01	19.9936	13.382425	0.000051	0.512092	0.173502	0.000021
 504	5.0048e+01	19.9711	13.364094	0.000045	0.451846	0.153090	-0.000018
 505	5.0148e+01	19.9518	13.340469	0.000058	0.582379	0.197315	-0.000024
 506	5.0248e+01	19.8941	13.317657	0.000056	0.562297	0.190511	-0.000023
 507	5.0347e+01	19.8748	13.291587	0.000064	0.642625	0.217727	-0.000026
 508	5.0447e+01	19.8091	13.270406	0.000052	0.522133	0.176903	-0.000021
 509	5.0546e+01	19.7754	13.252483	0.000044	0.441805	0.149688	-0.000018
 510	5.0645e+01	19.7465	13.228857	0.000058	0.582379	0.197315	-0.000024
 511	5.0745e+01	19.6887	13.215007	0.000034	0.341395	0.115668	-0.000014
 512	5.0844e+01	19.6358	13.191789	0.000057	0.572338	0.193913	-0.000023
 513	5.0944e+01	19.5957	13.169385	0.000055	0.552256	0.187109	-0.000023
 514	5.1044e+01	19.5893	13.150240	0.000047	0.471928	0.159894	-0.000019
 515	5.1143e+01	19.5428	13.129058	0.000052	0.522133	0.176903	-0.000021
 516	5.1242e+01	19.4818	13.111135	0.000044	0.441805	0.149688	-0.000018
 517	5.1342e+01	19.4337	13.092804	0.000045	0.451846	0.153090	-0.000018
 518	5.1441e+01	19.4241	13.069586	0.000057	0.572338	0.193913	-0.000023
 519	5.1541e+01	19.3968	13.049626	0.000049	0.492010	0.166698	-0.000020
 520	5.1641e+01	19.3262	13.024778	0.000061	0.612502	0.207521	-0.000025
 521	5.1740e+01	19.3102	13.001967	0.000056	0.562297	0.190511	-0.000023
 522	5.1840e+01	19.2540	12.982822	0.000047	0.471928	0.159894	-0.000019
 523	5.1939e+01	19.2364	12.961640	0.000052	0.522133	0.176903	-0.000021
 524	5.2038e+01	19.1850	12.938014	0.000058	0.582379	0.197315	-0.000024
 525	5.2138e+01	19.1353	12.913166	0.000061	0.612502	0.207521	-0.000025
 526	5.2237e+01	19.0968	12.894428	0.000046	0.461887	0.156492	-0.000019
 527	5.2337e+01	19.0503	12.869173	0.000062	0.622543	0.210923	-0.000025
 528	5.2437e+01	19.0198	12.853694	0.000038	0.381559	0.129276	-0.000016
 529	5.2536e+01	18.9620	12.830476	0.000057	0.572338	0.193913	-0.000023
 530	5.2636e+01	18.9219	12.806442	0.000059	0.592420	0.200717	-0.000024
 531	5.2735e+01	18.9075	12.784853	0.000053	0.532174	0.180305	-0.000022
 532	5.2834e+01	18.8529	12.762042	0.000056	0.562297	0.190511	-0.000023
 533	5.2934e+01	18.8080	12.737602	0.000060	0.602461	0.204119	-0.000025
 534	5.3033e+01	18.7647	12.719271	0.000045	0.451846	0.153090	-0.000018
 535	5.3133e+01	18.7262	12.694016	0.000062	0.622543	0.210923	-0.000025
 536	5.3233e+01	18.7070	12.672427	0.000053	0.532174	0.180305	-0.000022
 537	5.3332e+01	18.6636	12.653689	0.000046	0.461887	0.156492	-0.000019
 538	5.3431e+01	18.6251	12.631285	0.000055	0.552256	0.187109	-0.000023
 539	5.3531e+01	18.5674	12.612955	0.000045	0.451846	0.153090	-0.000018
 540	5.3630e+01	18.5177	12.589329	0.000058	0.582379	0.197315	-0.000024
 541	5.3730e+01	18.5048	12.569369	0.000049	0.492010	0.166698	-0.000020
 542	5.3830e+01	18.4695	12.548595	0.000051	0.512092	0.173502	-0.000021
 543	5.3929e+01	18.3973	12.527413	0.000052	0.522133	0.176903	-0.000021
 544	5.4029e+01	18.3861	12.511119	0.000040	0.401641	0.136080	-0.000016
 545	5.4128e+01	18.3460	12.490752	0.000050	0.502051	0.170100	-0.000020
 546	5.4227e+01	18.3235	12.466719	0.000059	0.592420	0.200717	-0.000024
 547	5.4327e+01	18.2738	12.453276	0.000033	0.331354	0.112266	-0.000014
 548	5.4426e+01	18.2321	12.433724	0.000048	0.481969	0.163296	-0.000020
 549	5.4526e+01	18.1824	12.414986	0.000046	0.461887	0.156492	-0.000019
 550	5.4626e+01	18.1375	12.394619	0.000050	0.502051	0.170100	-0.000020
 551	5.4725e+01	18.1038	12.375067	0.000048	0.481969	0.163296	-0.000020
 552	5.4825e+01	18.0588	12.357144	0.000044	0.441805	0.149688	-0.000018
 553	5.4924e+01	18.0155	12.336369	0.000051	0.512092	0.173502	-0.000021
 554	5.5023e+01	17.9851	12.318039	0.000045	0.451846	0.153090	-0.000018
 555	5.5123e+01	17.9417	12.294413	0.000058	0.582379	0.197315	-0.000024
 556	5.5222e+01	17.9032	12.276082	0.000045	0.451846	0.153090	-0.000018
 557	5.5322e+01	17.8744	12.254901	0.000052	0.522133	0.176903	-0.000021
 558	5.5422e+01	17.8503	12.236570	0.000045	0.451846	0.153090	-0.000018
 559	5.5521e+01	17.7573	12.215388	0.000052	0.522133	0.176903	-0.000021
 560	5.5620e+01	17.7236	12.195021	0.000050	0.502051	0.170100	-0.000020
 561	5.5720e+01	17.6915	12.177506	0.000043	0.431764	0.146286	-0.000018
 562	5.5819e+01	17.6674	12.159175	0.000045	0.451846	0.153090	-0.000018
 563	5.5919e+01	17.6161	12.138808	0.000050	0.502051	0.170100	-0.000020
 564	5.6019e+01	17.5872	12.116404	0.000055	0.552256	0.187109	-0.000023
 565	5.6118e+01	17.5311	12.101333	0.000037	0.371518	0.125874	-0.000015
 566	5.6218e+01	17.4733	12.080965	0.000050	0.502051	0.170100	-0.000020
 567	5.6317e+01	17.4637	12.060598	0.000050	0.502051	0.170100	-0.000020
 568	5.6416e+01	17.4396	12.043083	0.000043	0.431764	0.146286	-0.000018
 569	5.6516e+01	17.4123	12.021086	0.000054	0.542215	0.183707	-0.000022
 570	5.6615e+01	17.3177	12.001941	0.000047	0.471928	0.159894	-0.000019
 571	5.6715e+01	17.3049	11.984018	0.000044	0.441805	0.149688	-0.000018
 572	5.6815e+01	17.2888	11.965280	0.000046	0.461887	0.156492	-0.000019
 573	5.6914e+01	17.2295	11.946950	0.000045	0.451846	0.153090	-0.000018
 574	5.7014e+01	17.2006	11.927805	0.000047	0.471928	0.159894	-0.000019
 575	5.7113e+01	17.1412	11.909882	0.000044	0.441805	0.149688	-0.000018
 576	5.7212e+01	17.1059	11.892366	0.000043	0.431764	0.146286	-0.000018
 577	5.7312e+01	17.0738	11.876887	0.000038	0.381559	0.129276	-0.000016
 578	5.7411e+01	17.0530	11.858964	0.000044	0.441805	0.149688	-0.000018
 579	5.7511e+01	17.0161	11.840633	0.000045	0.451846	0.153090	-0.000018
 580	5.7611e+01	16.9648	11.825154	0.000038	0.381559	0.129276	-0.000016
 581	5.7710e+01	16.8958	11.808861	0.000040	0.401641	0.136080	-0.000016
 582	5.7809e+01	16.8685	11.793382	0.000038	0.381559	0.129276	-0.000016
 583	5.7909e+01	16.8236	11.768941	0.000060	0.602461	0.204119	-0.000025
 584	5.8008e+01	16.8059	11.754277	0.000036	0.361477	0.122472	-0.000015
 585	5.8108e+01	16.7370	11.732688	0.000053	0.532174	0.180305	-0.000022
 586	5.8208e+01	16.7161	11.717616	0.000037	0.371518	0.125874	-0.000015
 587	5.8307e+01	16.6712	11.697249	0.000050	0.502051	0.170100	-0.000020
 588	5.8407e+01	16.6279	11.682177	0.000037	0.371518	0.125874	-0.000015
 589	5.8506e+01	16.5621	11.666698	0.000038	0.381559	0.129276	-0.000016
 590	5.8605e+01	16.5236	11.647146	0.000048	0.481969	0.163296	-0.000020
 591	5.8705e+01	16.4851	11.626371	0.000051	0.512092	0.173502	-0.000021
 592	5.8804e+01	16.4658	11.613336	0.000032	0.321313	0.108864	-0.000013
 593	5.8904e+01	16.4370	11.593784	0.000048	0.481969	0.163296	-0.000020
 594	5.9004e+01	16.3760	11.575453	0.000045	0.451846	0.153090	-0.000018
 595	5.9103e+01	16.3584	11.556716	0.000046	0.461887	0.156492	-0.000019
 596	5.9203e+01	16.2958	11.537163	0.000048	0.481969	0.163296	-0.000020
 597	5.9302e+01	16.2637	11.513945	0.000057	0.572338	0.193913	-0.000023
 598	5.9401e+01	16.2461	11.494799	0.000047	0.471928	0.159894	-0.000019
 599	5.9501e+01	16.1995	11.476876	0.000044	0.441805	0.149688	-0.000018
 600	5.9600e+01	16.1354	11.451214	0.000063	0.632584	0.214325	-0.000026
 601	5.9700e+01	16.1049	11.436549	0.000036	0.361477	0.122472	-0.000015
 602	5.9800e+01	16.0520	11.417404	0.000047	0.471928	0.159894	-0.000019
 603	5.9899e+01	16.0183	11.395001	0.000055	0.552256	0.187109	-0.000023
 604	5.9998e+01	16.0183	11.377485	0.000043	0.431764	0.146286	-0.000018
 605	6.0098e+01	15.9573	11.359562	0.000044	0.441805	0.149688	-0.000018
 606	6.0197e+01	15.8979	11.346119	0.000033	0.331354	0.112266	-0.000014
 607	6.0297e+01	15.8434	11.327382	0.000046	0.461887	0.156492	-0.000019
 608	6.0397e+01	15.8177	11.304978	0.000055	0.552256	0.187109	-0.000023
 609	6.0496e+01	15.8017	11.283389	0.000053	0.532174	0.180305	-0.000022
 610	6.0596e+01	15.7937	11.266688	0.000041	0.411682	0.139482	-0.000017
 611	6.0695e+01	15.7504	11.245506	0.000052	0.522133	0.176903	-0.000021
 612	6.0794e+01	15.6878	11.225953	0.000048	0.481969	0.163296	-0.000020
 613	6.0894e+01	15.6236	11.208030	0.000044	0.441805	0.149688	-0.000018
 614	6.0993e+01	15.6060	11.188071	0.000049	0.492010	0.166698	-0.000020
 615	6.1093e+01	15.5627	11.170147	0.000044	0.441805	0.149688	-0.000018
 616	6.1193e+01	15.5097	11.151410	0.000046	0.461887	0.156492	-0.000019
 617	6.1292e+01	15.4776	11.133079	0.000045	0.451846	0.153090	-0.000018
 618	6.1392e+01	15.4375	11.113119	0.000049	0.492010	0.166698	-0.000020
 619	6.1491e+01	15.3782	11.092752	0.000050	0.502051	0.170100	-0.000020
 620	6.1590e+01	15.3557	11.071571	0.000052	0.522133	0.176903	-0.000021
 621	6.1690e+01	15.3012	11.049981	0.000053	0.532174	0.180305	-0.000022
 622	6.1789e+01	15.2450	11.030022	0.000049	0.492010	0.166698	-0.000020
 623	6.1889e+01	15.2210	11.008432	0.000053	0.532174	0.180305	-0.000022
 624	6.1989e+01	15.1953	10.992139	0.000040	0.401641	0.136080	-0.000016
 625	6.2088e+01	15.1424	10.968106	0.000059	0.592420	0.200717	-0.000024
 626	6.2188e+01	15.1103	10.943665	0.000060	0.602461	0.204119	-0.000025
 627	6.2287e+01	15.0670	10.923705	0.000049	0.492010	0.166698	-0.000020
 628	6.2386e+01	15.0509	10.905375	0.000045	0.451846	0.153090	-0.000018
 629	6.2486e+01	14.9883	10.878083	0.000067	0.672748	0.227933	-0.000027
 630	6.2586e+01	14.9338	10.856494	0.000053	0.532174	0.180305	-0.000022
 631	6.2685e+01	14.9178	10.827980	0.000070	0.702872	0.238139	-0.000029
 632	6.2785e+01	14.8664	10.806391	0.000053	0.532174	0.180305	-0.000022
 633	6.2884e+01	14.8680	10.782357	-0.000059	-0.592420	-0.200717	-0.000024
 634	6.2983e+01	14.8151	10.760768	0.000053	0.532174	0.180305	-0.000022
 635	6.3083e+01	14.7589	10.737550	0.000057	0.572338	0.193913	-0.000023
 636	6.3182e+01	14.7156	10.715146	0.000055	0.552256	0.187109	-0.000023
 637	6.3282e+01	14.6499	10.691520	0.000058	0.582379	0.197315	-0.000024
 638	6.3382e+01	14.6338	10.668301	0.000057	0.572338	0.193913	-0.000023
 639	6.3481e+01	14.6033	10.647120	0.000052	0.522133	0.176903	-0.000021
 640	6.3581e+01	14.5680	10.623494	0.000058	0.582379	0.197315	-0.000024
 641	6.3680e+01	14.5151	10.601497	0.000054	0.542215	0.183707	-0.000022
 642	6.3779e+01	14.4975	10.577057	0.000060	0.602461	0.204119	-0.000025
 643	6.3879e+01	14.4654	10.552616	0.000060	0.602461	0.204119	-0.000025
 644	6.3978e+01	14.3739	10.528176	0.000060	0.602461	0.204119	-0.000025
 645	6.4078e+01	14.3659	10.504550	0.000058	0.582379	0.197315	-0.000024
 646	6.4177e+01	14.3017	10.482146	0.000055	0.552256	0.187109	-0.000023
 647	6.4277e+01	14.2777	10.459335	0.000056	0.562297	0.190511	-0.000023
 648	6.4376e+01	14.2440	10.431228	0.000069	0.692831	0.234737	-0.000028
 649	6.4476e+01	14.1878	10.411676	0.000048	0.481969	0.163296	-0.000020
 650	6.4576e+01	14.1766	10.386828	0.000061	0.612502	0.207521	-0.000025
 651	6.4675e+01	14.1541	10.359128	0.000068	0.682789	0.231335	-0.000028
 652	6.4775e+01	14.0916	10.335910	0.000057	0.572338	0.193913	-0.000023
 653	6.4874e+01	14.0515	10.314321	0.000053	0.532174	0.180305	-0.000022
 654	6.4974e+01	14.0130	10.291510	0.000056	0.562297	0.190511	-0.000023
 655	6.5073e+01	13.9632	10.266254	0.000062	0.622543	0.210923	-0.000025
 656	6.5172e+01	13.9231	10.243443	0.000056	0.562297	0.190511	-0.000023
 657	6.5272e+01	13.8862	10.216559	0.000066	0.662707	0.224531	-0.000027
 658	6.5371e+01	13.8253	10.190081	0.000065	0.652666	0.221129	-0.000027
 659	6.5471e+01	13.7996	10.165233	0.000061	0.612502	0.207521	-0.000025
 660	6.5570e+01	13.7547	10.139978	0.000062	0.622543	0.210923	-0.000025
 661	6.5670e+01	13.7242	10.114316	0.000063	0.632584	0.214325	-0.000026
 662	6.5769e+01	13.6857	10.082135	0.000079	0.793241	0.268757	-0.000032
 663	6.5869e+01	13.6536	10.060139	0.000054	0.542215	0.183707	-0.000022
 664	6.5969e+01	13.6087	10.030403	0.000073	0.732995	0.248345	-0.000030
 665	6.6068e+01	13.5526	10.003111	0.000067	0.672748	0.227933	-0.000027
 666	6.6168e+01	13.4932	9.979078	0.000059	0.592420	0.200717	-0.000024
 667	6.6267e+01	13.4836	9.955045	0.000059	0.592420	0.200717	-0.000024
 668	6.6367e+01	13.4306	9.931011	0.000059	0.592420	0.200717	-0.000024
 669	6.6466e+01	13.3969	9.905349	0.000063	0.632584	0.214325	-0.000026
 670	6.6566e+01	13.3456	9.873983	0.000077	0.773159	0.261953	-0.000032
 671	6.6665e+01	13.3264	9.850358	0.000058	0.582379	0.197315	-0.000024
 672	6.6764e+01	13.2879	9.818992	0.000077	0.773159	0.261953	-0.000032
 673	6.6864e+01	13.2269	9.793737	0.000062	0.622543	0.210923	-0.000025
 674	6.6963e+01	13.2044	9.767667	0.000064	0.642625	0.217727	-0.000026
 675	6.7063e+01	13.1531	9.742004	0.000063	0.632584	0.214325	-0.000026
 676	6.7162e+01	13.1130	9.710232	0.000078	0.783200	0.265355	-0.000032
 677	6.7262e+01	13.0601	9.689050	0.000052	0.522133	0.176903	-0.000021
 678	6.7362e+01	13.0328	9.661351	0.000068	0.682789	0.231335	-0.000028
 679	6.7461e+01	13.0264	9.633651	0.000068	0.682789	0.231335	-0.000028
 680	6.7561e+01	12.9654	9.607989	0.000063	0.632584	0.214325	-0.000026
 681	6.7660e+01	12.9381	9.586807	0.000052	0.522133	0.176903	-0.000021
 682	6.7760e+01	12.9189	9.563588	0.000057	0.572338	0.193913	-0.000023
 683	6.7859e+01	12.8403	9.539148	0.000060	0.602461	0.204119	-0.000025
 684	6.7959e+01	12.8018	9.511449	0.000068	0.682789	0.231335	-0.000028
 685	6.8058e+01	12.7889	9.487008	0.000060	0.602461	0.204119	-0.000025
 686	6.8157e+01	12.7360	9.459716	0.000067	0.672748	0.227933	-0.000027
 687	6.8257e+01	12.6879	9.433239	0.000065	0.652666	0.221129	-0.000027
 688	6.8356e+01	12.6638	9.407984	0.000062	0.622543	0.210923	-0.000025
 689	6.8456e+01	12.6012	9.381914	0.000064	0.642625	0.217727	-0.000026
 690	6.8555e+01	12.5884	9.357066	0.000061	0.612502	0.207521	-0.000025
 691	6.8655e+01	12.5499	9.326515	0.000075	0.753077	0.255149	-0.000031
 692	6.8754e+01	12.4569	9.302482	0.000059	0.592420	0.200717	-0.000024
 693	6.8854e+01	12.4392	9.275190	0.000067	0.672748	0.227933	-0.000027
 694	6.8954e+01	12.3799	9.249527	0.000063	0.632584	0.214325	-0.000026
 695	6.9053e+01	12.3911	9.226716	-0.000056	-0.562297	-0.190511	-0.000023
 696	6.9153e+01	12.3269	9.196165	0.000075	0.753077	0.255149	-0.000031
 697	6.9252e+01	12.2997	9.174169	0.000054	0.542215	0.183707	-0.000022
 698	6.9352e+01	12.2756	9.148506	0.000063	0.632584	0.214325	-0.000026
 699	6.9451e+01	12.2050	9.116734	0.000078	0.783200	0.265355	-0.000032
 700	6.9550e+01	12.1569	9.091886	0.000061	0.612502	0.207521	-0.000025
 701	6.9650e+01	12.1248	9.061335	0.000075	0.753077	0.255149	-0.000031
 702	6.9749e+01	12.0783	9.040561	0.000051	0.512092	0.173502	-0.000021
 703	6.9849e+01	12.0542	9.014083	0.000065	0.652666	0.221129	-0.000027
 704	6.9948e+01	12.0093	8.985977	0.000069	0.692831	0.234737	-0.000028
 705	7.0048e+01	11.9596	8.963166	0.000056	0.562297	0.190511	-0.000023
 706	7.0147e+01	11.9307	8.937096	0.000064	0.642625	0.217727	-0.000026
 707	7.0247e+01	11.8906	8.913877	0.000057	0.572338	0.193913	-0.000023
 708	7.0347e+01	11.8537	8.884548	0.000072	0.722954	0.244943	-0.000029
 709	7.0446e+01	11.8168	8.862959	0.000053	0.532174	0.180305	-0.000022
 710	7.0546e+01	11.7719	8.838111	0.000061	0.612502	0.207521	-0.000025
 711	7.0645e+01	11.7382	8.816522	0.000053	0.532174	0.180305	-0.000022
 712	7.0745e+01	11.6772	8.792082	0.000060	0.602461	0.204119	-0.000025
 713	7.0844e+01	11.6660	8.768048	0.000059	0.592420	0.200717	-0.000024
 714	7.0944e+01	11.5938	8.744015	0.000059	0.592420	0.200717	-0.000024
 715	7.1043e+01	11.5585	8.721611	0.000055	0.552256	0.187109	-0.000023
 716	7.1142e+01	11.5441	8.700022	0.000053	0.532174	0.180305	-0.000022
 717	7.1242e+01	11.4799	8.675174	0.000061	0.612502	0.207521	-0.000025
 718	7.1341e+01	11.4478	8.653178	0.000054	0.542215	0.183707	-0.000022
 719	7.1441e+01	11.4013	8.629145	0.000059	0.592420	0.200717	-0.000024
 720	7.1540e+01	11.3724	8.609592	0.000048	0.481969	0.163296	-0.000020
 721	7.1640e+01	11.3612	8.581486	0.000069	0.692831	0.234737	-0.000028
 722	7.1740e+01	11.2874	8.558674	0.000056	0.562297	0.190511	-0.000023
 723	7.1839e+01	11.2360	8.534641	0.000059	0.592420	0.200717	-0.000024
 724	7.1939e+01	11.2184	8.514274	0.000050	0.502051	0.170100	-0.000020
 725	7.2038e+01	11.1895	8.486982	0.000067	0.672748	0.227933	-0.000027
 726	7.2138e+01	11.1414	8.460505	0.000065	0.652666	0.221129	-0.000027
 727	7.2237e+01	11.0852	8.438508	0.000054	0.542215	0.183707	-0.000022
 728	7.2337e+01	11.0644	8.415697	0.000056	0.562297	0.190511	-0.000023
 729	7.2436e+01	11.0098	8.393293	0.000055	0.552256	0.187109	-0.000023
 730	7.2535e+01	10.9826	8.368445	0.000061	0.612502	0.207521	-0.000025
 731	7.2635e+01	10.9393	8.342783	0.000063	0.632584	0.214325	-0.000026
 732	7.2734e+01	10.9024	8.320379	0.000055	0.552256	0.187109	-0.000023
 733	7.2834e+01	10.8703	8.305307	0.000037	0.371518	0.125874	-0.000015
 734	7.2933e+01	10.8029	8.277201	0.000069	0.692831	0.234737	-0.000028
 735	7.3033e+01	10.7435	8.251131	0.000064	0.642625	0.217727	-0.000026
 736	7.3132e+01	10.7419	8.230764	0.000050	0.502051	0.170100	-0.000020
 737	7.3232e+01	10.6730	8.202657	0.000069	0.692831	0.234737	-0.000028
 738	7.3332e+01	10.6216	8.183919	0.000046	0.461887	0.156492	-0.000019
 739	7.3431e+01	10.6088	8.157035	0.000066	0.662707	0.224531	-0.000027
 740	7.3531e+01	10.5671	8.133816	0.000057	0.572338	0.193913	-0.000023
 741	7.3630e+01	10.5334	8.115486	0.000045	0.451846	0.153090	-0.000018
 742	7.3730e+01	10.5061	8.092267	0.000057	0.572338	0.193913	-0.000023
 743	7.3829e+01	10.4660	8.070271	0.000054	0.542215	0.183707	-0.000022
 744	7.3928e+01	10.4484	8.045423	0.000061	0.612502	0.207521	-0.000025
 745	7.4028e+01	10.3473	8.025870	0.000048	0.481969	0.163296	-0.000020
 746	7.4127e+01	10.3152	8.006318	0.000048	0.481969	0.163296	-0.000020
 747	7.4227e+01	10.3040	7.985951	0.000050	0.502051	0.170100	-0.000020
 748	7.4326e+01	10.2639	7.965176	0.000051	0.512092	0.173502	-0.000021
 749	7.4426e+01	10.2366	7.942365	0.000056	0.562297	0.190511	-0.000023
 750	7.4525e+01	10.1564	7.917110	0.000062	0.622543	0.210923	-0.000025
 751	7.4625e+01	10.1371	7.897150	0.000049	0.492010	0.166698	-0.000020
 752	7.4725e+01	10.0794	7.874339	0.000056	0.562297	0.190511	-0.000023
 753	7.4824e+01	10.0425	7.852342	0.000054	0.542215	0.183707	-0.000022
 754	7.4924e+01	10.0200	7.833605	0.000046	0.461887	0.156492	-0.000019
 755	7.5023e+01	9.9671	7.813237	0.000050	0.502051	0.170100	-0.000020
 756	7.5123e+01	9.9495	7.788390	0.000061	0.612502	0.207521	-0.000025
 757	7.5222e+01	9.8997	7.768430	0.000049	0.492010	0.166698	-0.000020
 758	7.5322e+01	9.8468	7.747248	0.000052	0.522133	0.176903	-0.000021
 759	7.5421e+01	9.8099	7.722807	0.000060	0.602461	0.204119	-0.000025
 760	7.5520e+01	9.7826	7.700404	0.000055	0.552256	0.187109	-0.000023
 761	7.5620e+01	9.7409	7.679222	0.000052	0.522133	0.176903	-0.000021
 762	7.5719e+01	9.6912	7.656411	0.000056	0.562297	0.190511	-0.000023
 763	7.5819e+01	9.6559	7.634821	0.000053	0.532174	0.180305	-0.000022
 764	7.5918e+01	9.6013	7.609159	0.000063	0.632584	0.214325	-0.000026
 765	7.6018e+01	9.5917	7.582274	0.000066	0.662707	0.224531	-0.000027
 766	7.6118e+01	9.5420	7.556204	0.000064	0.642625	0.217727	-0.000026
 767	7.6217e+01	9.5163	7.533800	0.000055	0.552256	0.187109	-0.000023
 768	7.6317e+01	9.4586	7.514655	0.000047	0.471928	0.159894	-0.000019
 769	7.6416e+01	9.4120	7.488178	0.000065	0.652666	0.221129	-0.000027
 770	7.6516e+01	9.3687	7.463330	0.000061	0.612502	0.207521	-0.000025
 771	7.6615e+01	9.3447	7.440112	0.000057	0.572338	0.193913	-0.000023
 772	7.6715e+01	9.2789	7.418115	0.000054	0.542215	0.183707	-0.000022
 773	7.6814e+01	9.2548	7.397748	0.000050	0.502051	0.170100	-0.000020
 774	7.6913e+01	9.2195	7.374530	0.000057	0.572338	0.193913	-0.000023
 775	7.7013e+01	9.1425	7.352533	0.000054	0.542215	0.183707	-0.000022
 776	7.7112e+01	9.1489	7.327685	-0.000061	-0.612502	-0.207521	-0.000025
 777	7.7212e+01	9.0992	7.306911	0.000051	0.512092	0.173502	-0.000021
 778	7.7311e+01	9.0623	7.278804	0.000069	0.692831	0.234737	-0.000028
 779	7.7411e+01	8.9933	7.255993	0.000056	0.562297	0.190511	-0.000023
 780	7.7510e+01	8.9997	7.227886	-0.000069	-0.692831	-0.234737	-0.000028
 781	7.7610e+01	8.9500	7.209148	0.000046	0.461887	0.156492	-0.000019
 782	7.7710e+01	8.8923	7.187559	0.000053	0.532174	0.180305	-0.000022
 783	7.7809e+01	8.8345	7.163526	0.000059	0.592420	0.200717	-0.000024
 784	7.7909e+01	8.8457	7.139086	-0.000060	-0.602461	-0.204119	-0.000025
 785	7.8008e+01	8.8265	7.115867	0.000057	0.572338	0.193913	-0.000023
 786	7.8108e+01	8.7511	7.092241	0.000058	0.582379	0.197315	-0.000024
 787	7.8207e+01	8.7174	7.065764	0.000065	0.652666	0.221129	-0.000027
 788	7.8306e+01	8.6516	7.046619	0.000047	0.471928	0.159894	-0.000019
 789	7.8406e+01	8.6179	7.015661	0.000076	0.763118	0.258551	-0.000031
 790	7.8505e+01	8.5939	6.994886	0.000051	0.512092	0.173502	-0.000021
 791	7.8605e+01	8.5474	6.967187	0.000068	0.682789	0.231335	-0.000028
 792	7.8704e+01	8.4832	6.943968	0.000057	0.572338	0.193913	-0.000023
 793	7.8804e+01	8.4431	6.915454	0.000070	0.702872	0.238139	-0.000029
 794	7.8903e+01	8.4030	6.887755	0.000068	0.682789	0.231335	-0.000028
 795	7.9003e+01	8.4030	6.863315	0.000060	0.602461	0.204119	-0.000025
 796	7.9103e+01	8.3532	6.836430	0.000066	0.662707	0.224531	-0.000027
 797	7.9202e+01	8.2762	6.809545	0.000066	0.662707	0.224531	-0.000027
 798	7.9302e+01	8.2875	6.776143	-0.000082	-0.823364	-0.278963	-0.000034
 799	7.9401e+01	8.2169	6.746815	0.000072	0.722954	0.244943	-0.000029
 800	7.9501e+01	8.1800	6.724411	0.000055	0.552256	0.187109	-0.000023
 801	7.9600e+01	8.1094	6.699156	0.000062	0.622543	0.210923	-0.000025
 802	7.9700e+01	8.1142	6.669420	-0.000073	-0.732995	-0.248345	-0.000030
 803	7.9799e+01	8.0629	6.638869	0.000075	0.753077	0.255149	-0.000031
 804	7.9898e+01	8.0340	6.612392	0.000065	0.652666	0.221129	-0.000027
 805	7.9998e+01	7.9778	6.587544	0.000061	0.612502	0.207521	-0.000025
 806	8.0097e+01	7.9393	6.558215	0.000072	0.722954	0.244943	-0.000029
 807	8.0197e+01	7.8864	6.534182	0.000059	0.592420	0.200717	-0.000024
 808	8.0296e+01	7.8639	6.503631	0.000075	0.753077	0.255149	-0.000031
 809	8.0396e+01	7.8479	6.472266	0.000077	0.773159	0.261953	-0.000032
 810	8.0496e+01	7.7821	6.447418	0.000061	0.612502	0.207521	-0.000025
 811	8.0595e+01	7.7484	6.419719	0.000068	0.682789	0.231335	-0.000028
 812	8.0695e+01	7.7148	6.391612	0.000069	0.692831	0.234737	-0.000028
 813	8.0794e+01	7.7083	6.364320	0.000067	0.672748	0.227933	-0.000027
 814	8.0894e+01	7.6185	6.332955	0.000077	0.773159	0.261953	-0.000032
 815	8.0993e+01	7.6073	6.309329	0.000058	0.582379	0.197315	-0.000024
 816	8.1093e+01	7.5800	6.280000	0.000072	0.722954	0.244943	-0.000029
 817	8.1192e+01	7.5030	6.251079	0.000071	0.712913	0.241541	-0.000029
 818	8.1291e+01	7.4870	6.218899	0.000079	0.793241	0.268757	-0.000032
 819	8.1391e+01	7.4132	6.189977	0.000071	0.712913	0.241541	-0.000029
 820	8.1490e+01	7.3875	6.163500	0.000065	0.652666	0.221129	-0.000027
 821	8.1590e+01	7.3426	6.136208	0.000067	0.672748	0.227933	-0.000027
 822	8.1689e+01	7.3041	6.109731	0.000065	0.652666	0.221129	-0.000027
 823	8.1789e+01	7.2527	6.076736	0.000081	0.813323	0.275561	-0.000033
 824	8.1888e+01	7.2110	6.051074	0.000063	0.632584	0.214325	-0.000026
 825	8.1988e+01	7.1789	6.019708	0.000077	0.773159	0.261953	-0.000032
 826	8.2088e+01	7.1661	5.987936	0.000078	0.783200	0.265355	-0.000032
 827	8.2187e+01	7.1019	5.955348	0.000080	0.803282	0.272159	-0.000033
 828	8.2287e+01	7.0634	5.928056	0.000067	0.672748	0.227933	-0.000027
 829	8.2386e+01	7.0089	5.895469	0.000080	0.803282	0.272159	-0.000033
 830	8.2486e+01	6.9800	5.860845	0.000085	0.853487	0.289169	-0.000035
 831	8.2585e+01	6.9415	5.831516	0.000072	0.722954	0.244943	-0.000029
 832	8.2684e+01	6.9126	5.798929	0.000080	0.803282	0.272159	-0.000033
 833	8.2784e+01	6.8790	5.766749	0.000079	0.793241	0.268757	-0.000032
 834	8.2883e+01	6.8324	5.735383	0.000077	0.773159	0.261953	-0.000032
 835	8.2983e+01	6.7907	5.708091	0.000067	0.672748	0.227933	-0.000027
 836	8.3082e+01	6.7506	5.678763	0.000072	0.722954	0.244943	-0.000029
 837	8.3182e+01	6.7185	5.646582	0.000079	0.793241	0.268757	-0.000032
 838	8.3281e+01	6.7201	5.613995	-0.000080	-0.803282	-0.272159	-0.000033
 839	8.3381e+01	6.6447	5.579371	0.000085	0.853487	0.289169	-0.000035
 840	8.3481e+01	6.5886	5.549228	0.000074	0.743036	0.251747	-0.000030
 841	8.3580e+01	6.5709	5.514603	0.000085	0.853487	0.289169	-0.000035
 842	8.3680e+01	6.5196	5.484053	0.000075	0.753077	0.255149	-0.000031
 843	8.3779e+01	6.4651	5.454317	0.000073	0.732995	0.248345	-0.000030
 844	8.3879e+01	6.4121	5.423359	0.000076	0.763118	0.258551	-0.000031
 845	8.3978e+01	6.3816	5.395252	0.000069	0.692831	0.234737	-0.000028
 846	8.4078e+01	6.3624	5.363479	0.000078	0.783200	0.265355	-0.000032
 847	8.4177e+01	6.3175	5.332114	0.000077	0.773159	0.261953	-0.000032
 848	8.4276e+01	6.2902	5.302785	0.000072	0.722954	0.244943	-0.000029
 849	8.4376e+01	6.2469	5.271827	0.000076	0.763118	0.258551	-0.000031
 850	8.4475e+01	6.1763	5.243721	0.000069	0.692831	0.234737	-0.000028
 851	8.4575e+01	6.1699	5.215207	0.000070	0.702872	0.238139	-0.000029
 852	8.4674e+01	6.0849	5.180990	0.000084	0.843446	0.285767	-0.000034
 853	8.4774e+01	6.0897	5.153698	-0.000067	-0.672748	-0.227933	-0.000027
 854	8.4874e+01	6.0351	5.121518	0.000079	0.793241	0.268757	-0.000032
 855	8.4973e+01	5.9982	5.088930	0.000080	0.803282	0.272159	-0.000033
 856	8.5073e+01	5.9469	5.058787	0.000074	0.743036	0.251747	-0.000030
 857	8.5172e+01	5.9212	5.027422	0.000077	0.773159	0.261953	-0.000032
 858	8.5272e+01	5.8635	4.996056	0.000077	0.773159	0.261953	-0.000032
 859	8.5371e+01	5.8250	4.960618	0.000087	0.873569	0.295973	-0.000036
 860	8.5471e+01	5.7801	4.931289	0.000072	0.722954	0.244943	-0.000029
 861	8.5570e+01	5.7528	4.898294	0.000081	0.813323	0.275561	-0.000033
 862	8.5669e+01	5.7159	4.868558	0.000073	0.732995	0.248345	-0.000030
 863	8.5769e+01	5.6662	4.836785	0.000078	0.783200	0.265355	-0.000032
 864	8.5868e+01	5.6389	4.805827	0.000076	0.763118	0.258551	-0.000031
 865	8.5968e+01	5.5827	4.777313	0.000070	0.702872	0.238139	-0.000029
 866	8.6067e+01	5.5587	4.741467	0.000088	0.883610	0.299375	-0.000036
 867	8.6167e+01	5.5105	4.710509	0.000076	0.763118	0.258551	-0.000031
 868	8.6266e+01	5.4672	4.682403	0.000069	0.692831	0.234737	-0.000028
 869	8.6366e+01	5.4736	4.651037	-0.000077	-0.773159	-0.261953	-0.000032
 870	8.6466e+01	5.4191	4.620894	0.000074	0.743036	0.251747	-0.000030
 871	8.6565e+01	5.3662	4.587084	0.000083	0.833405	0.282365	-0.000034
 872	8.6665e+01	5.3052	4.555719	0.000077	0.773159	0.261953	-0.000032
 873	8.6764e+01	5.3148	4.524354	-0.000077	-0.773159	-0.261953	-0.000032
 874	8.6864e+01	5.2314	4.498284	0.000064	0.642625	0.217727	-0.000026
 875	8.6963e+01	5.1817	4.466918	0.000077	0.773159	0.261953	-0.000032
 876	8.7063e+01	5.1785	4.436775	0.000074	0.743036	0.251747	-0.000030
 877	8.7162e+01	5.1063	4.407039	0.000073	0.732995	0.248345	-0.000030
 878	8.7261e+01	5.0662	4.377303	0.000073	0.732995	0.248345	-0.000030
 879	8.7361e+01	5.0325	4.349196	0.000069	0.692831	0.234737	-0.000028
 880	8.7460e+01	4.9844	4.321497	0.000068	0.682789	0.231335	-0.000028
 881	8.7560e+01	4.9426	4.290946	0.000075	0.753077	0.255149	-0.000031
 882	8.7659e+01	4.9090	4.262840	0.000069	0.692831	0.234737	-0.000028
 883	8.7759e+01	4.8753	4.233104	0.000073	0.732995	0.248345	-0.000030
 884	8.7859e+01	4.8336	4.207034	0.000064	0.642625	0.217727	-0.000026
 885	8.7958e+01	4.7902	4.175668	0.000077	0.773159	0.261953	-0.000032
 886	8.8058e+01	4.7549	4.148377	0.000067	0.672748	0.227933	-0.000027
 887	8.8157e+01	4.7389	4.118233	0.000074	0.743036	0.251747	-0.000030
 888	8.8257e+01	4.7116	4.088090	0.000074	0.743036	0.251747	-0.000030
 889	8.8356e+01	4.6571	4.059576	0.000070	0.702872	0.238139	-0.000029
 890	8.8456e+01	4.6090	4.032691	0.000066	0.662707	0.224531	-0.000027
 891	8.8555e+01	4.5576	4.003363	0.000072	0.722954	0.244943	-0.000029
 892	8.8654e+01	4.4951	3.973219	0.000074	0.743036	0.251747	-0.000030
 893	8.8754e+01	4.4886	3.943076	0.000074	0.743036	0.251747	-0.000030
 894	8.8853e+01	4.4357	3.914562	0.000070	0.702872	0.238139	-0.000029
 895	8.8953e+01	4.3956	3.886048	0.000070	0.702872	0.238139	-0.000029
 896	8.9052e+01	4.3411	3.857941	0.000069	0.692831	0.234737	-0.000028
 897	8.9152e+01	4.3042	3.831464	0.000065	0.652666	0.221129	-0.000027
 898	8.9251e+01	4.2913	3.801728	0.000073	0.732995	0.248345	-0.000030
 899	8.9351e+01	4.2127	3.772399	0.000072	0.722954	0.244943	-0.000029
 900	8.9451e+01	4.1806	3.743478	0.000071	0.712913	0.241541	-0.000029
 901	8.9550e+01	4.1630	3.714964	0.000070	0.702872	0.238139	-0.000029
 902	8.9650e+01	4.1309	3.684006	0.000076	0.763118	0.258551	-0.000031
 903	8.9749e+01	4.1004	3.657121	0.000066	0.662707	0.224531	-0.000027
 904	8.9849e+01	4.0362	3.626163	0.000076	0.763118	0.258551	-0.000031
 905	8.9948e+01	3.9881	3.595205	0.000076	0.763118	0.258551	-0.000031
 906	9.0047e+01	3.9817	3.567506	0.000068	0.682789	0.231335	-0.000028
 907	9.0147e+01	3.9207	3.536141	0.000077	0.773159	0.261953	-0.000032
 908	9.0246e+01	3.8871	3.510478	0.000063	0.632584	0.214325	-0.000026
 909	9.0346e+01	3.8726	3.483186	0.000067	0.672748	0.227933	-0.000027
 910	9.0445e+01	3.8036	3.455080	0.000069	0.692831	0.234737	-0.000028
 911	9.0545e+01	3.7411	3.429417	0.000063	0.632584	0.214325	-0.000026
 912	9.0644e+01	3.7218	3.400903	0.000070	0.702872	0.238139	-0.000029
 913	9.0744e+01	3.6978	3.369538	0.000077	0.773159	0.261953	-0.000032
 914	9.0844e+01	3.6368	3.349985	0.000048	0.481969	0.163296	-0.000020
 915	9.0943e+01	3.5790	3.319434	0.000075	0.753077	0.255149	-0.000031
 916	9.1043e+01	3.5582	3.291328	0.000069	0.692831	0.234737	-0.000028
 917	9.1142e+01	3.5165	3.262406	0.000071	0.712913	0.241541	-0.000029
 918	9.1242e+01	3.4684	3.238781	0.000058	0.582379	0.197315	-0.000024
 919	9.1341e+01	3.4363	3.209859	0.000071	0.712913	0.241541	-0.000029
 920	9.1441e+01	3.4138	3.182567	0.000067	0.672748	0.227933	-0.000027
 921	9.1540e+01	3.3561	3.151202	0.000077	0.773159	0.261953	-0.000032
 922	9.1639e+01	3.3448	3.126761	0.000060	0.602461	0.204119	-0.000025
 923	9.1739e+01	3.2935	3.099469	0.000067	0.672748	0.227933	-0.000027
 924	9.1838e+01	3.2020	3.069733	0.000073	0.732995	0.248345	-0.000030
 925	9.1938e+01	3.1924	3.047330	0.000055	0.552256	0.187109	-0.000023
 926	9.2037e+01	3.1892	3.019223	0.000069	0.692831	0.234737	-0.000028
 927	9.2137e+01	3.1234	2.989487	0.000073	0.732995	0.248345	-0.000030
 928	9.2237e+01	3.0962	2.959751	0.000073	0.732995	0.248345	-0.000030
 929	9.2336e+01	3.0095	2.938569	0.000052	0.522133	0.176903	-0.000021
 930	9.2436e+01	2.9887	2.906389	0.000079	0.793241	0.268757	-0.000032
 931	9.2535e+01	2.9807	2.872580	0.000083	0.833405	0.282365	-0.000034
 932	9.2635e+01	2.9261	2.846510	0.000064	0.642625	0.217727	-0.000026
 933	9.2734e+01	2.8748	2.816366	0.000074	0.743036	0.251747	-0.000030
 934	9.2834e+01	2.8283	2.785001	0.000077	0.773159	0.261953	-0.000032
 935	9.2933e+01	2.7930	2.755672	0.000072	0.722954	0.244943	-0.000029
 936	9.3032e+01	2.7545	2.726344	0.000072	0.722954	0.244943	-0.000029
 937	9.3132e+01	2.7336	2.696200	0.000074	0.743036	0.251747	-0.000030
 938	9.3231e+01	2.6871	2.667279	0.000071	0.712913	0.241541	-0.000029
 939	9.3331e+01	2.6614	2.638765	0.000070	0.702872	0.238139	-0.000029
 940	9.3430e+01	2.6069	2.609436	0.000072	0.722954	0.244943	-0.000029
 941	9.3530e+01	2.5700	2.584588	0.000061	0.612502	0.207521	-0.000025
 942	9.3629e+01	2.5379	2.556889	0.000068	0.682789	0.231335	-0.000028
 943	9.3729e+01	2.4609	2.522265	0.000085	0.853487	0.289169	-0.000035
 944	9.3829e+01	2.4304	2.493344	0.000071	0.712913	0.241541	-0.000029
 945	9.3928e+01	2.4063	2.468903	0.000060	0.602461	0.204119	-0.000025
 946	9.4028e+01	2.3502	2.436316	0.000080	0.803282	0.272159	-0.000033
 947	9.4127e+01	2.3261	2.403728	0.000080	0.803282	0.272159	-0.000033
 948	9.4227e+01	2.2796	2.379695	0.000059	0.592420	0.200717	-0.000024
 949	9.4326e+01	2.2668	2.347922	0.000078	0.783200	0.265355	-0.000032
 950	9.4425e+01	2.2010	2.316150	0.000078	0.783200	0.265355	-0.000032
 951	9.4525e+01	2.1802	2.286821	0.000072	0.722954	0.244943	-0.000029
 952	9.4624e+01	2.1128	2.256678	0.000074	0.743036	0.251747	-0.000030
 953	9.4724e+01	2.0839	2.232645	0.000059	0.592420	0.200717	-0.000024
 954	9.4823e+01	2.0598	2.199242	0.000082	0.823364	0.278963	-0.000034
 955	9.4923e+01	2.0069	2.169099	0.000074	0.743036	0.251747	-0.000030
 956	9.5022e+01	1.9973	2.140585	0.000070	0.702872	0.238139	-0.000029
 957	9.5122e+01	1.9395	2.110849	0.000073	0.732995	0.248345	-0.000030
 958	9.5222e+01	1.8673	2.079076	0.000078	0.783200	0.265355	-0.000032
 959	9.5321e+01	1.8288	2.043638	0.000087	0.873569	0.295973	-0.000036
 960	9.5421e+01	1.8096	2.012272	0.000077	0.773159	0.261953	-0.000032
 961	9.5520e+01	1.7598	1.980907	0.000077	0.773159	0.261953	-0.000032
 962	9.5620e+01	1.7358	1.948319	0.000080	0.803282	0.272159	-0.000033
 963	9.5719e+01	1.6732	1.910844	0.000092	0.923774	0.312983	-0.000038
 964	9.5819e+01	1.6524	1.877849	0.000081	0.813323	0.275561	-0.000033
 965	9.5918e+01	1.6267	1.847706	0.000074	0.743036	0.251747	-0.000030
 966	9.6017e+01	1.5577	1.812674	0.000086	0.863528	0.292571	-0.000035
 967	9.6117e+01	1.5401	1.779680	0.000081	0.813323	0.275561	-0.000033
 968	9.6216e+01	1.4743	1.744241	0.000087	0.873569	0.295973	-0.000036
 969	9.6316e+01	1.4358	1.711653	0.000080	0.803282	0.272159	-0.000033
 970	9.6415e+01	1.4069	1.676622	0.000086	0.863528	0.292571	-0.000035
 971	9.6515e+01	1.3620	1.648923	0.000068	0.682789	0.231335	-0.000028
 972	9.6615e+01	1.3411	1.610632	0.000094	0.943856	0.319787	-0.000038
 973	9.6714e+01	1.3171	1.581304	0.000072	0.722954	0.244943	-0.000029
 974	9.6814e+01	1.2481	1.544643	0.000090	0.903692	0.306179	-0.000037
 975	9.6913e+01	1.2064	1.513278	0.000077	0.773159	0.261953	-0.000032
 976	9.7013e+01	1.1727	1.481912	0.000077	0.773159	0.261953	-0.000032
 977	9.7112e+01	1.1310	1.446066	0.000088	0.883610	0.299375	-0.000036
 978	9.7212e+01	1.0668	1.411035	0.000086	0.863528	0.292571	-0.000035
 979	9.7311e+01	1.0379	1.376003	0.000086	0.863528	0.292571	-0.000035
 980	9.7410e+01	0.9898	1.342601	0.000082	0.823364	0.278963	-0.000034
 981	9.7510e+01	0.9882	1.305940	0.000090	0.903692	0.306179	-0.000037
 982	9.7609e+01	0.9337	1.272131	0.000083	0.833405	0.282365	-0.000034
 983	9.7709e+01	0.9032	1.241580	0.000075	0.753077	0.255149	-0.000031
 984	9.7808e+01	0.8535	1.203290	0.000094	0.943856	0.319787	-0.000038
 985	9.7908e+01	0.7989	1.170295	0.000081	0.813323	0.275561	-0.000033
 986	9.8007e+01	0.7941	1.137708	0.000080	0.803282	0.272159	-0.000033
 987	9.8107e+01	0.7107	1.099825	0.000093	0.933815	0.316385	-0.000038
 988	9.8207e+01	0.6642	1.072126	0.000068	0.682789	0.231335	-0.000028
 989	9.8306e+01	0.6305	1.032206	0.000098	0.984020	0.333395	-0.000040
 990	9.8406e+01	0.6208	0.999619	0.000080	0.803282	0.272159	-0.000033
 991	9.8505e+01	0.5807	0.962958	0.000090	0.903692	0.306179	-0.000037
 992	9.8605e+01	0.5422	0.928334	0.000085	0.853487	0.289169	-0.000035
 993	9.8704e+01	0.4797	0.894117	0.000084	0.843446	0.285767	-0.000034
 994	9.8803e+01	0.4139	0.859493	0.000085	0.853487	0.289169	-0.000035
 995	9.8903e+01	0.3946	0.820795	0.000095	0.953897	0.323189	-0.000039
 996	9.9002e+01	0.3658	0.785764	0.000086	0.863528	0.292571	-0.000035
 997	9.9102e+01	0.3449	0.749510	0.000089	0.893651	0.302777	-0.000036
 998	9.9201e+01	0.3128	0.709591	0.000098	0.984020	0.333395	-0.000040
 999	9.9301e+01	0.2503	0.673337	0.000089	0.893651	0.302777	-0.000036
1000	9.9400e+01	0.2150	0.636269	0.000091	0.913733	0.309581	-0.000037
1001	9.9500e+01	0.1588	0.600423	0.000088	0.883610	0.299375	-0.000036
1002	9.9600e+01	0.1540	0.564984	0.000087	0.873569	0.295973	-0.000036
1003	9.9699e+01	0.1139	0.525472	0.000097	0.973979	0.329993	-0.000040
1004	9.9799e+01	0.0545	0.490848	0.000085	0.853487	0.289169	-0.000035
1005	9.9898e+01	0.0080	0.461112	0.000073	0.732995	0.248345	-0.000030
1006	9.9998e+01	-0.0209	0.423229	0.000093	0.933815	0.316385	-0.000038
1007	1.0010e+02	-0.0481	0.385346	0.000093	0.933815	0.316385	-0.000038
1008	1.0020e+02	-0.1027	0.346241	0.000096	0.963938	0.326591	-0.000039
1009	1.0030e+02	-0.1171	0.309173	0.000091	0.913733	0.309581	-0.000037
1010	1.0040e+02	-0.1893	0.274956	0.000084	0.843446	0.285767	-0.000034
1011	1.0050e+02	-0.2134	0.235037	0.000098	0.984020	0.333395	-0.000040
1012	1.0059e+02	-0.2358	0.202857	0.000079	0.793241	0.268757	-0.000032
1013	1.0069e+02	-0.2952	0.164159	0.000095	0.953897	0.323189	-0.000039
1014	1.0079e+02	-0.3401	0.128313	0.000088	0.883610	0.299375	-0.000036
1015	1.0089e+02	-0.3834	0.097355	0.000076	0.763118	0.258551	-0.000031
1016	1.0099e+02	-0.4235	0.059879	0.000092	0.923774	0.312983	-0.000038
1017	1.0109e+02	-0.4732	0.026885	0.000081	0.813323	0.275561	-0.000033
1018	1.0119e+02	-0.5294	-0.009369	0.000089	0.893651	0.302777	-0.000036
1019	1.0129e+02	-0.5519	-0.043178	0.000083	0.833405	0.282365	-0.000034
1020	1.0139e+02	-0.5519	-0.079839	0.000090	0.903692	0.306179	-0.000037
1021	1.0149e+02	-0.6305	-0.116093	0.000089	0.893651	0.302777	-0.000036
1022	1.0159e+02	-0.6658	-0.151531	0.000087	0.873569	0.295973	-0.000036
1023	1.0169e+02	-0.6690	-0.184526	0.000081	0.813323	0.275561	-0.000033
1024	1.0179e+02	-0.7396	-0.224853	0.000099	0.994061	0.336797	-0.000041
1025	1.0189e+02	-0.8150	-0.257440	0.000080	0.803282	0.272159	-0.000033
1026	1.0199e+02	-0.8262	-0.294916	0.000092	0.923774	0.312983	-0.000038
1027	1.0209e+02	-0.8535	-0.329947	0.000086	0.863528	0.292571	-0.000035
1028	1.0219e+02	-0.9208	-0.365794	0.000088	0.883610	0.299375	-0.000036
1029	1.0229e+02	-0.9577	-0.401232	0.000087	0.873569	0.295973	-0.000036
1030	1.0239e+02	-1.0107	-0.437893	0.000090	0.903692	0.306179	-0.000037
1031	1.0248e+02	-1.0171	-0.472925	0.000086	0.863528	0.292571	-0.000035
1032	1.0258e+02	-1.0508	-0.508364	0.000087	0.873569	0.295973	-0.000036
1033	1.0268e+02	-1.0909	-0.541358	0.000081	0.813323	0.275561	-0.000033
1034	1.0278e+02	-1.1326	-0.576797	0.000087	0.873569	0.295973	-0.000036
1035	1.0288e+02	-1.1743	-0.617124	0.000099	0.994061	0.336797	-0.000041
1036	1.0298e+02	-1.2144	-0.655822	0.000095	0.953897	0.323189	-0.000039
1037	1.0308e+02	-1.2738	-0.685558	0.000073	0.732995	0.248345	-0.000030
1038	1.0318e+02	-1.3058	-0.719367	0.000083	0.833405	0.282365	-0.000034
1039	1.0328e+02	-1.3299	-0.752769	0.000082	0.823364	0.278963	-0.000034
1040	1.0338e+02	-1.3508	-0.791059	0.000094	0.943856	0.319787	-0.000038
1041	1.0348e+02	-1.3909	-0.823239	0.000079	0.793241	0.268757	-0.000032
1042	1.0358e+02	-1.4246	-0.858271	0.000086	0.863528	0.292571	-0.000035
1043	1.0368e+02	-1.5016	-0.890451	0.000079	0.793241	0.268757	-0.000032
1044	1.0378e+02	-1.5176	-0.923038	0.000080	0.803282	0.272159	-0.000033
1045	1.0388e+02	-1.5689	-0.955626	0.000080	0.803282	0.272159	-0.000033
1046	1.0398e+02	-1.6203	-0.990250	0.000085	0.853487	0.289169	-0.000035
1047	1.0408e+02	-1.6572	-1.017949	0.000068	0.682789	0.231335	-0.000028
1048	1.0418e+02	-1.6764	-1.048907	0.000076	0.763118	0.258551	-0.000031
1049	1.0428e+02	-1.7454	-1.081494	0.000080	0.803282	0.272159	-0.000033
1050	1.0438e+02	-1.7871	-1.112860	0.000077	0.773159	0.261953	-0.000032
1051	1.0447e+02	-1.8080	-1.143003	0.000074	0.743036	0.251747	-0.000030
1052	1.0457e+02	-1.8352	-1.174369	0.000077	0.773159	0.261953	-0.000032
1053	1.0467e+02	-1.8802	-1.212659	0.000094	0.943856	0.319787	-0.000038
1054	1.0477e+02	-1.9411	-1.239543	0.000066	0.662707	0.224531	-0.000027
1055	1.0487e+02	-1.9620	-1.269687	0.000074	0.743036	0.251747	-0.000030
1056	1.0497e+02	-1.9748	-1.305126	0.000087	0.873569	0.295973	-0.000036
1057	1.0507e+02	-2.0406	-1.334862	0.000073	0.732995	0.248345	-0.000030
1058	1.0517e+02	-2.0919	-1.364598	0.000073	0.732995	0.248345	-0.000030
1059	1.0527e+02	-2.1529	-1.400036	0.000087	0.873569	0.295973	-0.000036
1060	1.0537e+02	-2.1641	-1.432216	0.000079	0.793241	0.268757	-0.000032
1061	1.0547e+02	-2.2251	-1.461138	0.000071	0.712913	0.241541	-0.000029
1062	1.0557e+02	-2.2604	-1.492096	0.000076	0.763118	0.258551	-0.000031
1063	1.0567e+02	-2.3037	-1.521424	0.000072	0.722954	0.244943	-0.000029
1064	1.0577e+02	-2.3550	-1.552790	0.000077	0.773159	0.261953	-0.000032
1065	1.0587e+02	-2.4208	-1.582526	0.000073	0.732995	0.248345	-0.000030
1066	1.0597e+02	-2.4096	-1.615113	-0.000080	-0.803282	-0.272159	-0.000033
1067	1.0607e+02	-2.4609	-1.645664	0.000075	0.753077	0.255149	-0.000031
1068	1.0617e+02	-2.4930	-1.675807	0.000074	0.743036	0.251747	-0.000030
1069	1.0627e+02	-2.5475	-1.708802	0.000081	0.813323	0.275561	-0.000033
1070	1.0637e+02	-2.5748	-1.736501	0.000068	0.682789	0.231335	-0.000028
1071	1.0647e+02	-2.5924	-1.763386	0.000066	0.662707	0.224531	-0.000027
1072	1.0656e+02	-2.6614	-1.803305	0.000098	0.984020	0.333395	-0.000040
1073	1.0666e+02	-2.6807	-1.830190	0.000066	0.662707	0.224531	-0.000027
1074	1.0676e+02	-2.7224	-1.859926	0.000073	0.732995	0.248345	-0.000030
1075	1.0686e+02	-2.7705	-1.890884	0.000076	0.763118	0.258551	-0.000031
1076	1.0696e+02	-2.8042	-1.915325	0.000060	0.602461	0.204119	-0.000025
1077	1.0706e+02	-2.8876	-1.945875	0.000075	0.753077	0.255149	-0.000031
1078	1.0716e+02	-2.8924	-1.974797	0.000071	0.712913	0.241541	-0.000029
1079	1.0726e+02	-2.9678	-2.005347	0.000075	0.753077	0.255149	-0.000031
1080	1.0736e+02	-2.9759	-2.033861	0.000070	0.702872	0.238139	-0.000029
1081	1.0746e+02	-3.0047	-2.059117	0.000062	0.622543	0.210923	-0.000025
1082	1.0756e+02	-3.0609	-2.089667	0.000075	0.753077	0.255149	-0.000031
1083	1.0766e+02	-3.1010	-2.111664	0.000054	0.542215	0.183707	-0.000022
1084	1.0776e+02	-3.1074	-2.140178	0.000070	0.702872	0.238139	-0.000029
1085	1.0786e+02	-3.1828	-2.168692	0.000070	0.702872	0.238139	-0.000029
1086	1.0796e+02	-3.2133	-2.197613	0.000071	0.712913	0.241541	-0.000029
1087	1.0806e+02	-3.2406	-2.229793	0.000079	0.793241	0.268757	-0.000032
1088	1.0816e+02	-3.2807	-2.256270	0.000065	0.652666	0.221129	-0.000027
1089	1.0826e+02	-3.3480	-2.283970	0.000068	0.682789	0.231335	-0.000028
1090	1.0836e+02	-3.3689	-2.309225	0.000062	0.622543	0.210923	-0.000025
1091	1.0845e+02	-3.4042	-2.336517	0.000067	0.672748	0.227933	-0.000027
1092	1.0855e+02	-3.4379	-2.360957	0.000060	0.602461	0.204119	-0.000025
1093	1.0865e+02	-3.4956	-2.390286	0.000072	0.722954	0.244943	-0.000029
1094	1.0875e+02	-3.5101	-2.417985	0.000068	0.682789	0.231335	-0.000028
1095	1.0885e+02	-3.5774	-2.443241	0.000062	0.622543	0.210923	-0.000025
1096	1.0895e+02	-3.6015	-2.474199	0.000076	0.763118	0.258551	-0.000031
1097	1.0905e+02	-3.6496	-2.503935	0.000073	0.732995	0.248345	-0.000030
1098	1.0915e+02	-3.6657	-2.530412	0.000065	0.652666	0.221129	-0.000027
1099	1.0925e+02	-3.7250	-2.557704	0.000067	0.672748	0.227933	-0.000027
1100	1.0935e+02	-3.7667	-2.591106	0.000082	0.823364	0.278963	-0.000034
1101	1.0945e+02	-3.8341	-2.620435	0.000072	0.722954	0.244943	-0.000029
1102	1.0955e+02	-3.8405	-2.648541	0.000069	0.692831	0.234737	-0.000028
1103	1.0965e+02	-3.8935	-2.675019	0.000065	0.652666	0.221129	-0.000027
1104	1.0975e+02	-3.9384	-2.709235	0.000084	0.843446	0.285767	-0.000034
1105	1.0985e+02	-3.9609	-2.736120	0.000066	0.662707	0.224531	-0.000027
1106	1.0995e+02	-4.0010	-2.760968	0.000061	0.612502	0.207521	-0.000025
1107	1.1005e+02	-4.0619	-2.790296	0.000072	0.722954	0.244943	-0.000029
1108	1.1015e+02	-4.0956	-2.817588	0.000067	0.672748	0.227933	-0.000027
1109	1.1025e+02	-4.1389	-2.839992	0.000055	0.552256	0.187109	-0.000023
1110	1.1035e+02	-4.1582	-2.872987	0.000081	0.813323	0.275561	-0.000033
1111	1.1044e+02	-4.2191	-2.896613	0.000058	0.582379	0.197315	-0.000024
1112	1.1054e+02	-4.2368	-2.924312	0.000068	0.682789	0.231335	-0.000028
1113	1.1064e+02	-4.2721	-2.958529	0.000084	0.843446	0.285767	-0.000034
1114	1.1074e+02	-4.3234	-2.985414	0.000066	0.662707	0.224531	-0.000027
1115	1.1084e+02	-4.3667	-3.012706	0.000067	0.672748	0.227933	-0.000027
1116	1.1094e+02	-4.4181	-3.038368	0.000063	0.632584	0.214325	-0.000026
1117	1.1104e+02	-4.4341	-3.067697	0.000072	0.722954	0.244943	-0.000029
1118	1.1114e+02	-4.4662	-3.092952	0.000062	0.622543	0.210923	-0.000025
1119	1.1124e+02	-4.5095	-3.114134	0.000052	0.522133	0.176903	-0.000021
1120	1.1134e+02	-4.5801	-3.148758	0.000085	0.853487	0.289169	-0.000035
1121	1.1144e+02	-4.6266	-3.175643	0.000066	0.662707	0.224531	-0.000027
1122	1.1154e+02	-4.6346	-3.203749	0.000069	0.692831	0.234737	-0.000028
1123	1.1164e+02	-4.7004	-3.236744	0.000081	0.813323	0.275561	-0.000033
1124	1.1174e+02	-4.7197	-3.258740	0.000054	0.542215	0.183707	-0.000022
1125	1.1184e+02	-4.7662	-3.290920	0.000079	0.793241	0.268757	-0.000032
1126	1.1194e+02	-4.7951	-3.314954	0.000059	0.592420	0.200717	-0.000024
1127	1.1204e+02	-4.8688	-3.345912	0.000076	0.763118	0.258551	-0.000031
1128	1.1214e+02	-4.8672	-3.377684	-0.000078	-0.783200	-0.265355	-0.000032
1129	1.1224e+02	-4.9555	-3.405384	0.000068	0.682789	0.231335	-0.000028
1130	1.1234e+02	-4.9378	-3.438378	-0.000081	-0.813323	-0.275561	-0.000033
1131	1.1244e+02	-4.9779	-3.465670	0.000067	0.672748	0.227933	-0.000027
1132	1.1253e+02	-5.0277	-3.497443	0.000078	0.783200	0.265355	-0.000032
1133	1.1263e+02	-5.0966	-3.529216	0.000078	0.783200	0.265355	-0.000032
1134	1.1273e+02	-5.1191	-3.560581	0.000077	0.773159	0.261953	-0.000032
1135	1.1283e+02	-5.1801	-3.596020	0.000087	0.873569	0.295973	-0.000036
1136	1.1293e+02	-5.2138	-3.620461	0.000060	0.602461	0.204119	-0.000025
1137	1.1303e+02	-5.2490	-3.646938	0.000065	0.652666	0.221129	-0.000027
1138	1.1313e+02	-5.2731	-3.683599	0.000090	0.903692	0.306179	-0.000037
1139	1.1323e+02	-5.3325	-3.713742	0.000074	0.743036	0.251747	-0.000030
1140	1.1333e+02	-5.3630	-3.741034	0.000067	0.672748	0.227933	-0.000027
1141	1.1343e+02	-5.3934	-3.775658	0.000085	0.853487	0.289169	-0.000035
1142	1.1353e+02	-5.4416	-3.802135	0.000065	0.652666	0.221129	-0.000027
1143	1.1363e+02	-5.4849	-3.836352	0.000084	0.843446	0.285767	-0.000034
1144	1.1373e+02	-5.5218	-3.862015	0.000063	0.632584	0.214325	-0.000026
1145	1.1383e+02	-5.5715	-3.895824	0.000083	0.833405	0.282365	-0.000034
1146	1.1393e+02	-5.5956	-3.922709	0.000066	0.662707	0.224531	-0.000027
1147	1.1403e+02	-5.6132	-3.956926	0.000084	0.843446	0.285767	-0.000034
1148	1.1413e+02	-5.6966	-3.987884	0.000076	0.763118	0.258551	-0.000031
1149	1.1423e+02	-5.7383	-4.019656	0.000078	0.783200	0.265355	-0.000032
1150	1.1433e+02	-5.7608	-4.051022	0.000077	0.773159	0.261953	-0.000032
1151	1.1442e+02	-5.8025	-4.077906	0.000066	0.662707	0.224531	-0.000027
1152	1.1452e+02	-5.8683	-4.105606	0.000068	0.682789	0.231335	-0.000028
1153	1.1462e+02	-5.8731	-4.139415	0.000083	0.833405	0.282365	-0.000034
1154	1.1472e+02	-5.9148	-4.169558	0.000074	0.743036	0.251747	-0.000030
1155	1.1482e+02	-5.9886	-4.195628	0.000064	0.642625	0.217727	-0.000026
1156	1.1492e+02	-6.0111	-4.228623	0.000081	0.813323	0.275561	-0.000033
1157	1.1502e+02	-6.0271	-4.260396	0.000078	0.783200	0.265355	-0.000032
1158	1.1512e+02	-6.0977	-4.289724	0.000072	0.722954	0.244943	-0.000029
1159	1.1522e+02	-6.1185	-4.321497	0.000078	0.783200	0.265355	-0.000032
1160	1.1532e+02	-6.1490	-4.350826	0.000072	0.722954	0.244943	-0.000029
1161	1.1542e+02	-6.1522	-4.383006	0.000079	0.793241	0.268757	-0.000032
1162	1.1552e+02	-6.2212	-4.417630	0.000085	0.853487	0.289169	-0.000035
1163	1.1562e+02	-6.2758	-4.450625	0.000081	0.813323	0.275561	-0.000033
1164	1.1572e+02	-6.3335	-4.481583	0.000076	0.763118	0.258551	-0.000031
1165	1.1582e+02	-6.3528	-4.512948	0.000077	0.773159	0.261953	-0.000032
1166	1.1592e+02	-6.4185	-4.550424	0.000092	0.923774	0.312983	-0.000038
1167	1.1602e+02	-6.4233	-4.577308	0.000066	0.662707	0.224531	-0.000027
1168	1.1612e+02	-6.4843	-4.608674	0.000077	0.773159	0.261953	-0.000032
1169	1.1622e+02	-6.5180	-4.640446	0.000078	0.783200	0.265355	-0.000032
1170	1.1632e+02	-6.5774	-4.671812	0.000077	0.773159	0.261953	-0.000032
1171	1.1642e+02	-6.5966	-4.703992	0.000079	0.793241	0.268757	-0.000032
1172	1.1651e+02	-6.6351	-4.737394	0.000082	0.823364	0.278963	-0.000034
1173	1.1661e+02	-6.6784	-4.765908	0.000070	0.702872	0.238139	-0.000029
1174	1.1671e+02	-6.7073	-4.798903	0.000081	0.813323	0.275561	-0.000033
1175	1.1681e+02	-6.7522	-4.835156	0.000089	0.893651	0.302777	-0.000036
1176	1.1691e+02	-6.7843	-4.864077	0.000071	0.712913	0.241541	-0.000029
1177	1.1701e+02	-6.8036	-4.893813	0.000073	0.732995	0.248345	-0.000030
1178	1.1711e+02	-6.8645	-4.932511	0.000095	0.953897	0.323189	-0.000039
1179	1.1721e+02	-6.9078	-4.961432	0.000071	0.712913	0.241541	-0.000029
1180	1.1731e+02	-6.9463	-4.993612	0.000079	0.793241	0.268757	-0.000032
1181	1.1741e+02	-6.9800	-5.022941	0.000072	0.722954	0.244943	-0.000029
1182	1.1751e+02	-7.0570	-5.052677	0.000073	0.732995	0.248345	-0.000030
1183	1.1761e+02	-7.0410	-5.083228	-0.000075	-0.753077	-0.255149	-0.000031
1184	1.1771e+02	-7.0843	-5.112149	0.000071	0.712913	0.241541	-0.000029
1185	1.1781e+02	-7.1805	-5.144329	0.000079	0.793241	0.268757	-0.000032
1186	1.1791e+02	-7.1822	-5.172028	0.000068	0.682789	0.231335	-0.000028
1187	1.1801e+02	-7.2158	-5.201764	0.000073	0.732995	0.248345	-0.000030
1188	1.1811e+02	-7.2768	-5.239647	0.000093	0.933815	0.316385	-0.000038
1189	1.1821e+02	-7.3105	-5.268569	0.000071	0.712913	0.241541	-0.000029
1190	1.1831e+02	-7.3426	-5.296675	0.000069	0.692831	0.234737	-0.000028
1191	1.1841e+02	-7.3859	-5.325189	0.000070	0.702872	0.238139	-0.000029
1192	1.1850e+02	-7.4388	-5.356555	0.000077	0.773159	0.261953	-0.000032
1193	1.1860e+02	-7.4725	-5.385883	0.000072	0.722954	0.244943	-0.000029
1194	1.1870e+02	-7.5206	-5.421322	0.000087	0.873569	0.295973	-0.000036
1195	1.1880e+02	-7.5383	-5.451873	0.000075	0.753077	0.255149	-0.000031
1196	1.1890e+02	-7.5656	-5.483645	0.000078	0.783200	0.265355	-0.000032
1197	1.1900e+02	-7.6361	-5.513789	0.000074	0.743036	0.251747	-0.000030
1198	1.1910e+02	-7.6618	-5.543525	0.000073	0.732995	0.248345	-0.000030
1199	1.1920e+02	-7.7067	-5.570409	0.000066	0.662707	0.224531	-0.000027
1200	1.1930e+02	-7.7035	-5.601367	-0.000076	-0.763118	-0.258551	-0.000031
1201	1.1940e+02	-7.8030	-5.634770	0.000082	0.823364	0.278963	-0.000034
1202	1.1950e+02	-7.8078	-5.665320	0.000075	0.753077	0.255149	-0.000031
1203	1.1960e+02	-7.9105	-5.694649	0.000072	0.722954	0.244943	-0.000029
1204	1.1970e+02	-7.8960	-5.726422	-0.000078	-0.783200	-0.265355	-0.000032
1205	1.1980e+02	-7.9554	-5.755750	0.000072	0.722954	0.244943	-0.000029
1206	1.1990e+02	-7.9971	-5.789152	0.000082	0.823364	0.278963	-0.000034
1207	1.2000e+02	-7.9843	-5.815222	-0.000064	-0.642625	-0.217727	-0.000026
1208	1.2010e+02	-8.0581	-5.846995	0.000078	0.783200	0.265355	-0.000032
1209	1.2020e+02	-8.1174	-5.869806	0.000056	0.562297	0.190511	-0.000023
1210	1.2030e+02	-8.1752	-5.899950	0.000074	0.743036	0.251747	-0.000030
1211	1.2039e+02	-8.1816	-5.930500	0.000075	0.753077	0.255149	-0.000031
1212	1.2049e+02	-8.2265	-5.960236	0.000073	0.732995	0.248345	-0.000030
1213	1.2059e+02	-8.2794	-5.985084	0.000061	0.612502	0.207521	-0.000025
1214	1.2069e+02	-8.3099	-6.011154	0.000064	0.642625	0.217727	-0.000026
1215	1.2079e+02	-8.3324	-6.042112	0.000076	0.763118	0.258551	-0.000031
1216	1.2089e+02	-8.3901	-6.066145	0.000059	0.592420	0.200717	-0.000024
1217	1.2099e+02	-8.4190	-6.090993	0.000061	0.612502	0.207521	-0.000025
1218	1.2109e+02	-8.4864	-6.124395	0.000082	0.823364	0.278963	-0.000034
1219	1.2119e+02	-8.5072	-6.151280	0.000066	0.662707	0.224531	-0.000027
1220	1.2129e+02	-8.5490	-6.173684	0.000055	0.552256	0.187109	-0.000023
1221	1.2139e+02	-8.5939	-6.203420	0.000073	0.732995	0.248345	-0.000030
1222	1.2149e+02	-8.6195	-6.228268	0.000061	0.612502	0.207521	-0.000025
1223	1.2159e+02	-8.6452	-6.251893	0.000058	0.582379	0.197315	-0.000024
1224	1.2169e+02	-8.7062	-6.282444	0.000075	0.753077	0.255149	-0.000031
1225	1.2179e+02	-8.7447	-6.304441	0.000054	0.542215	0.183707	-0.000022
1226	1.2189e+02	-8.7928	-6.333769	0.000072	0.722954	0.244943	-0.000029
1227	1.2199e+02	-8.8056	-6.362691	0.000071	0.712913	0.241541	-0.000029
1228	1.2209e+02	-8.8538	-6.388353	0.000063	0.632584	0.214325	-0.000026
1229	1.2219e+02	-8.9019	-6.408313	0.000049	0.492010	0.166698	-0.000020
1230	1.2229e+02	-8.9580	-6.437234	0.000071	0.712913	0.241541	-0.000029
1231	1.2239e+02	-8.9693	-6.465748	0.000070	0.702872	0.238139	-0.000029
1232	1.2248e+02	-9.0302	-6.488560	0.000056	0.562297	0.190511	-0.000023
1233	1.2258e+02	-9.0671	-6.518296	0.000073	0.732995	0.248345	-0.000030
1234	1.2268e+02	-9.1265	-6.539477	0.000052	0.522133	0.176903	-0.000021
1235	1.2278e+02	-9.1746	-6.565955	0.000065	0.652666	0.221129	-0.000027
1236	1.2288e+02	-9.1906	-6.595691	0.000073	0.732995	0.248345	-0.000030
1237	1.2298e+02	-9.2660	-6.626649	0.000076	0.763118	0.258551	-0.000031
1238	1.2308e+02	-9.2677	-6.648238	0.000053	0.532174	0.180305	-0.000022
1239	1.2318e+02	-9.3174	-6.672678	0.000060	0.602461	0.204119	-0.000025
1240	1.2328e+02	-9.3527	-6.698341	0.000063	0.632584	0.214325	-0.000026
1241	1.2338e+02	-9.4088	-6.723596	0.000062	0.622543	0.210923	-0.000025
1242	1.2348e+02	-9.4361	-6.747629	0.000059	0.592420	0.200717	-0.000024
1243	1.2358e+02	-9.4682	-6.769626	0.000054	0.542215	0.183707	-0.000022
1244	1.2368e+02	-9.5051	-6.797732	0.000069	0.692831	0.234737	-0.000028
1245	1.2378e+02	-9.5596	-6.823395	0.000063	0.632584	0.214325	-0.000026
1246	1.2388e+02	-9.5773	-6.841318	0.000044	0.441805	0.149688	-0.000018
1247	1.2398e+02	-9.6254	-6.864537	0.000057	0.572338	0.193913	-0.000023
1248	1.2408e+02	-9.6623	-6.892643	0.000069	0.692831	0.234737	-0.000028
1249	1.2418e+02	-9.7024	-6.915454	0.000056	0.562297	0.190511	-0.000023
1250	1.2428e+02	-9.7457	-6.937451	0.000054	0.542215	0.183707	-0.000022
1251	1.2438e+02	-9.7794	-6.960670	0.000057	0.572338	0.193913	-0.000023
1252	1.2447e+02	-9.8067	-6.982666	0.000054	0.542215	0.183707	-0.000022
1253	1.2457e+02	-9.8692	-7.009551	0.000066	0.662707	0.224531	-0.000027
1254	1.2467e+02	-9.9142	-7.031140	0.000053	0.532174	0.180305	-0.000022
1255	1.2477e+02	-9.9238	-7.057617	0.000065	0.652666	0.221129	-0.000027
1256	1.2487e+02	-9.9751	-7.080021	0.000055	0.552256	0.187109	-0.000023
1257	1.2497e+02	-10.0457	-7.103647	0.000058	0.582379	0.197315	-0.000024
1258	1.2507e+02	-10.0794	-7.127680	0.000059	0.592420	0.200717	-0.000024
1259	1.2517e+02	-10.1083	-7.151713	0.000059	0.592420	0.200717	-0.000024
1260	1.2527e+02	-10.1580	-7.174117	0.000055	0.552256	0.187109	-0.000023
1261	1.2537e+02	-10.1885	-7.192855	0.000046	0.461887	0.156492	-0.000019
1262	1.2547e+02	-10.2286	-7.212000	0.000047	0.471928	0.159894	-0.000019
1263	1.2557e+02	-10.2783	-7.238477	0.000065	0.652666	0.221129	-0.000027
1264	1.2567e+02	-10.2863	-7.261696	0.000057	0.572338	0.193913	-0.000023
1265	1.2577e+02	-10.3666	-7.287358	0.000063	0.632584	0.214325	-0.000026
1266	1.2587e+02	-10.3874	-7.313836	0.000065	0.652666	0.221129	-0.000027
1267	1.2597e+02	-10.4195	-7.338683	0.000061	0.612502	0.207521	-0.000025
1268	1.2607e+02	-10.4516	-7.362717	0.000059	0.592420	0.200717	-0.000024
1269	1.2617e+02	-10.5029	-7.387565	0.000061	0.612502	0.207521	-0.000025
1270	1.2627e+02	-10.5414	-7.414449	0.000066	0.662707	0.224531	-0.000027
1271	1.2636e+02	-10.5847	-7.439297	0.000061	0.612502	0.207521	-0.000025
1272	1.2646e+02	-10.6088	-7.461701	0.000055	0.552256	0.187109	-0.000023
1273	1.2656e+02	-10.6537	-7.489807	0.000069	0.692831	0.234737	-0.000028
1274	1.2666e+02	-10.7034	-7.508545	0.000046	0.461887	0.156492	-0.000019
1275	1.2676e+02	-10.7115	-7.533800	0.000062	0.622543	0.210923	-0.000025
1276	1.2686e+02	-10.7692	-7.555390	0.000053	0.532174	0.180305	-0.000022
1277	1.2696e+02	-10.8270	-7.577386	0.000054	0.542215	0.183707	-0.000022
1278	1.2706e+02	-10.8302	-7.598975	0.000053	0.532174	0.180305	-0.000022
1279	1.2716e+02	-10.8799	-7.624231	0.000062	0.622543	0.210923	-0.000025
1280	1.2726e+02	-10.9345	-7.651115	0.000066	0.662707	0.224531	-0.000027
1281	1.2736e+02	-10.9842	-7.671890	0.000051	0.512092	0.173502	-0.000021
1282	1.2746e+02	-11.0291	-7.699996	0.000069	0.692831	0.234737	-0.000028
1283	1.2756e+02	-11.0612	-7.722807	0.000056	0.562297	0.190511	-0.000023
1284	1.2766e+02	-11.1013	-7.743582	0.000051	0.512092	0.173502	-0.000021
1285	1.2776e+02	-11.1141	-7.766393	0.000056	0.562297	0.190511	-0.000023
1286	1.2786e+02	-11.2072	-7.794092	0.000068	0.682789	0.231335	-0.000028
1287	1.2796e+02	-11.2264	-7.812015	0.000044	0.441805	0.149688	-0.000018
1288	1.2806e+02	-11.2328	-7.836863	0.000061	0.612502	0.207521	-0.000025
1289	1.2816e+02	-11.2826	-7.862526	0.000063	0.632584	0.214325	-0.000026
1290	1.2826e+02	-11.3243	-7.887374	0.000061	0.612502	0.207521	-0.000025
1291	1.2835e+02	-11.3997	-7.908556	0.000052	0.522133	0.176903	-0.000021
1292	1.2845e+02	-11.4109	-7.934218	0.000063	0.632584	0.214325	-0.000026
1293	1.2855e+02	-11.4655	-7.963140	0.000071	0.712913	0.241541	-0.000029
1294	1.2865e+02	-11.5040	-7.986358	0.000057	0.572338	0.193913	-0.000023
1295	1.2875e+02	-11.5344	-8.010799	0.000060	0.602461	0.204119	-0.000025
1296	1.2885e+02	-11.5473	-8.033610	0.000056	0.562297	0.190511	-0.000023
1297	1.2895e+02	-11.6002	-8.064160	0.000075	0.753077	0.255149	-0.000031
1298	1.2905e+02	-11.6692	-8.084528	0.000050	0.502051	0.170100	-0.000020
1299	1.2915e+02	-11.6997	-8.114264	0.000073	0.732995	0.248345	-0.000030
1300	1.2925e+02	-11.7109	-8.143185	0.000071	0.712913	0.241541	-0.000029
1301	1.2935e+02	-11.7638	-8.164367	0.000052	0.522133	0.176903	-0.000021
1302	1.2945e+02	-11.8200	-8.199398	0.000086	0.863528	0.292571	-0.000035
1303	1.2955e+02	-11.8424	-8.223024	0.000058	0.582379	0.197315	-0.000024
1304	1.2965e+02	-11.8906	-8.251945	0.000071	0.712913	0.241541	-0.000029
1305	1.2975e+02	-11.9307	-8.278015	0.000064	0.642625	0.217727	-0.000026
1306	1.2985e+02	-11.9724	-8.303678	0.000063	0.632584	0.214325	-0.000026
1307	1.2995e+02	-12.0526	-8.331785	0.000069	0.692831	0.234737	-0.000028
1308	1.3005e+02	-12.0799	-8.357040	0.000062	0.622543	0.210923	-0.000025
1309	1.3015e+02	-12.1087	-8.380258	0.000057	0.572338	0.193913	-0.000023
1310	1.3025e+02	-12.1489	-8.408365	0.000069	0.692831	0.234737	-0.000028
1311	1.3034e+02	-12.1793	-8.432806	0.000060	0.602461	0.204119	-0.000025
1312	1.3044e+02	-12.2387	-8.460505	0.000068	0.682789	0.231335	-0.000028
1313	1.3054e+02	-12.2371	-8.481279	-0.000051	-0.512092	-0.173502	-0.000021
1314	1.3064e+02	-12.2820	-8.513052	0.000078	0.783200	0.265355	-0.000032
1315	1.3074e+02	-12.3301	-8.541566	0.000070	0.702872	0.238139	-0.000029
1316	1.3084e+02	-12.3783	-8.571302	0.000073	0.732995	0.248345	-0.000030
1317	1.3094e+02	-12.3895	-8.594520	0.000057	0.572338	0.193913	-0.000023
1318	1.3104e+02	-12.4200	-8.621812	0.000067	0.672748	0.227933	-0.000027
1319	1.3114e+02	-12.5018	-8.649512	0.000068	0.682789	0.231335	-0.000028
1320	1.3124e+02	-12.5339	-8.678026	0.000070	0.702872	0.238139	-0.000029
1321	1.3134e+02	-12.5531	-8.700022	0.000054	0.542215	0.183707	-0.000022
1322	1.3144e+02	-12.6253	-8.727314	0.000067	0.672748	0.227933	-0.000027
1323	1.3154e+02	-12.6285	-8.751755	0.000060	0.602461	0.204119	-0.000025
1324	1.3164e+02	-12.6863	-8.783935	0.000079	0.793241	0.268757	-0.000032
1325	1.3174e+02	-12.7408	-8.806339	0.000055	0.552256	0.187109	-0.000023
1326	1.3184e+02	-12.7504	-8.836075	0.000073	0.732995	0.248345	-0.000030
1327	1.3194e+02	-12.8098	-8.859293	0.000057	0.572338	0.193913	-0.000023
1328	1.3204e+02	-12.8339	-8.886992	0.000068	0.682789	0.231335	-0.000028
1329	1.3214e+02	-12.8852	-8.920395	0.000082	0.823364	0.278963	-0.000034
1330	1.3224e+02	-12.9430	-8.945650	0.000062	0.622543	0.210923	-0.000025
1331	1.3234e+02	-12.9590	-8.972127	0.000065	0.652666	0.221129	-0.000027
1332	1.3243e+02	-13.0216	-9.003085	0.000076	0.763118	0.258551	-0.000031
1333	1.3253e+02	-13.0520	-9.032006	0.000071	0.712913	0.241541	-0.000029
1334	1.3263e+02	-13.0697	-9.062150	0.000074	0.743036	0.251747	-0.000030
1335	1.3273e+02	-13.1114	-9.089442	0.000067	0.672748	0.227933	-0.000027
1336	1.3283e+02	-13.1659	-9.118770	0.000072	0.722954	0.244943	-0.000029
1337	1.3293e+02	-13.2237	-9.141582	0.000056	0.562297	0.190511	-0.000023
1338	1.3303e+02	-13.2590	-9.169688	0.000069	0.692831	0.234737	-0.000028
1339	1.3313e+02	-13.3151	-9.201461	0.000078	0.783200	0.265355	-0.000032
1340	1.3323e+02	-13.3488	-9.230382	0.000071	0.712913	0.241541	-0.000029
1341	1.3333e+02	-13.3745	-9.256859	0.000065	0.652666	0.221129	-0.000027
1342	1.3343e+02	-13.4146	-9.289854	0.000081	0.813323	0.275561	-0.000033
1343	1.3353e+02	-13.4435	-9.317146	0.000067	0.672748	0.227933	-0.000027
1344	1.3363e+02	-13.5012	-9.343216	0.000064	0.642625	0.217727	-0.000026
1345	1.3373e+02	-13.5189	-9.374989	0.000078	0.783200	0.265355	-0.000032
1346	1.3383e+02	-13.5622	-9.403910	0.000071	0.712913	0.241541	-0.000029
1347	1.3393e+02	-13.5975	-9.432424	0.000070	0.702872	0.238139	-0.000029
1348	1.3403e+02	-13.6633	-9.458494	0.000064	0.642625	0.217727	-0.000026
1349	1.3413e+02	-13.7178	-9.483342	0.000061	0.612502	0.207521	-0.000025
1350	1.3423e+02	-13.7306	-9.513893	0.000075	0.753077	0.255149	-0.000031
1351	1.3432e+02	-13.7804	-9.541185	0.000067	0.672748	0.227933	-0.000027
1352	1.3442e+02	-13.8076	-9.563588	0.000055	0.552256	0.187109	-0.000023
1353	1.3452e+02	-13.8092	-9.595768	0.000079	0.793241	0.268757	-0.000032
1354	1.3462e+02	-13.8798	-9.619394	0.000058	0.582379	0.197315	-0.000024
1355	1.3472e+02	-13.9119	-9.646686	0.000067	0.672748	0.227933	-0.000027
1356	1.3482e+02	-13.9584	-9.676830	0.000074	0.743036	0.251747	-0.000030
1357	1.3492e+02	-14.0017	-9.701270	0.000060	0.602461	0.204119	-0.000025
1358	1.3502e+02	-14.0707	-9.727747	0.000065	0.652666	0.221129	-0.000027
1359	1.3512e+02	-14.0755	-9.755447	0.000068	0.682789	0.231335	-0.000028
1360	1.3522e+02	-14.1237	-9.779887	0.000060	0.602461	0.204119	-0.000025
1361	1.3532e+02	-14.1638	-9.813697	0.000083	0.833405	0.282365	-0.000034
1362	1.3542e+02	-14.2007	-9.839767	0.000064	0.642625	0.217727	-0.000026
1363	1.3552e+02	-14.2568	-9.864207	0.000060	0.602461	0.204119	-0.000025
1364	1.3562e+02	-14.2729	-9.893943	0.000073	0.732995	0.248345	-0.000030
1365	1.3572e+02	-14.3242	-9.920828	0.000066	0.662707	0.224531	-0.000027
1366	1.3582e+02	-14.3627	-9.944454	0.000058	0.582379	0.197315	-0.000024
1367	1.3592e+02	-14.4012	-9.970931	0.000065	0.652666	0.221129	-0.000027
1368	1.3602e+02	-14.4349	-9.999852	0.000071	0.712913	0.241541	-0.000029
1369	1.3612e+02	-14.5007	-10.028366	0.000070	0.702872	0.238139	-0.000029
1370	1.3622e+02	-14.5392	-10.060139	0.000078	0.783200	0.265355	-0.000032
1371	1.3631e+02	-14.5616	-10.084987	0.000061	0.612502	0.207521	-0.000025
1372	1.3641e+02	-14.6114	-10.107798	0.000056	0.562297	0.190511	-0.000023
1373	1.3651e+02	-14.6563	-10.133461	0.000063	0.632584	0.214325	-0.000026
1374	1.3661e+02	-14.6964	-10.163604	0.000074	0.743036	0.251747	-0.000030
1375	1.3671e+02	-14.7365	-10.188045	0.000060	0.602461	0.204119	-0.000025
1376	1.3681e+02	-14.7301	-10.214929	-0.000066	-0.662707	-0.224531	-0.000027
1377	1.3691e+02	-14.8103	-10.238962	0.000059	0.592420	0.200717	-0.000024
1378	1.3701e+02	-14.8520	-10.260144	0.000052	0.522133	0.176903	-0.000021
1379	1.3711e+02	-14.8744	-10.291917	0.000078	0.783200	0.265355	-0.000032
1380	1.3721e+02	-14.9338	-10.315135	0.000057	0.572338	0.193913	-0.000023
1381	1.3731e+02	-14.9627	-10.335095	0.000049	0.492010	0.166698	-0.000020
1382	1.3741e+02	-15.0285	-10.361572	0.000065	0.652666	0.221129	-0.000027
1383	1.3751e+02	-15.0365	-10.386828	0.000062	0.622543	0.210923	-0.000025
1384	1.3761e+02	-15.0589	-10.409232	0.000055	0.552256	0.187109	-0.000023
1385	1.3771e+02	-15.1295	-10.435709	0.000065	0.652666	0.221129	-0.000027
1386	1.3781e+02	-15.1536	-10.458520	0.000056	0.562297	0.190511	-0.000023
1387	1.3791e+02	-15.2306	-10.478072	0.000048	0.481969	0.163296	-0.000020
1388	1.3801e+02	-15.2338	-10.506179	0.000069	0.692831	0.234737	-0.000028
1389	1.3811e+02	-15.2643	-10.527768	0.000053	0.532174	0.180305	-0.000022
1390	1.3821e+02	-15.3108	-10.552209	0.000060	0.602461	0.204119	-0.000025
1391	1.3831e+02	-15.3493	-10.574613	0.000055	0.552256	0.187109	-0.000023
1392	1.3840e+02	-15.3894	-10.599461	0.000061	0.612502	0.207521	-0.000025
1393	1.3850e+02	-15.4439	-10.620642	0.000052	0.522133	0.176903	-0.000021
1394	1.3860e+02	-15.4472	-10.645898	0.000062	0.622543	0.210923	-0.000025
1395	1.3870e+02	-15.5514	-10.667894	0.000054	0.542215	0.183707	-0.000022
1396	1.3880e+02	-15.5627	-10.694371	0.000065	0.652666	0.221129	-0.000027
1397	1.3890e+02	-15.6204	-10.715553	0.000052	0.522133	0.176903	-0.000021
1398	1.3900e+02	-15.6252	-10.736735	0.000052	0.522133	0.176903	-0.000021
1399	1.3910e+02	-15.6750	-10.761176	0.000060	0.602461	0.204119	-0.000025
1400	1.3920e+02	-15.7135	-10.783579	0.000055	0.552256	0.187109	-0.000023
1401	1.3930e+02	-15.7680	-10.808020	0.000060	0.602461	0.204119	-0.000025
1402	1.3940e+02	-15.8001	-10.829202	0.000052	0.522133	0.176903	-0.000021
1403	1.3950e+02	-15.8338	-10.849569	0.000050	0.502051	0.170100	-0.000020
1404	1.3960e+02	-15.8578	-10.875231	0.000063	0.632584	0.214325	-0.000026
1405	1.3970e+02	-15.9252	-10.900079	0.000061	0.612502	0.207521	-0.000025
1406	1.3980e+02	-15.9541	-10.923705	0.000058	0.582379	0.197315	-0.000024
1407	1.3990e+02	-16.0102	-10.945294	0.000053	0.532174	0.180305	-0.000022
1408	1.4000e+02	-16.0471	-10.970957	0.000063	0.632584	0.214325	-0.000026
1409	1.4010e+02	-16.1113	-10.995805	0.000061	0.612502	0.207521	-0.000025
1410	1.4020e+02	-16.1225	-11.015765	0.000049	0.492010	0.166698	-0.000020
1411	1.4029e+02	-16.1899	-11.036132	0.000050	0.502051	0.170100	-0.000020
1412	1.4039e+02	-16.1851	-11.056906	-0.000051	-0.512092	-0.173502	-0.000021
1413	1.4049e+02	-16.2396	-11.080939	0.000059	0.592420	0.200717	-0.000024
1414	1.4059e+02	-16.2541	-11.099677	0.000046	0.461887	0.156492	-0.000019
1415	1.4069e+02	-16.3183	-11.117600	0.000044	0.441805	0.149688	-0.000018
1416	1.4079e+02	-16.3600	-11.138782	0.000052	0.522133	0.176903	-0.000021
1417	1.4089e+02	-16.4161	-11.164037	0.000062	0.622543	0.210923	-0.000025
1418	1.4099e+02	-16.4241	-11.181553	0.000043	0.431764	0.146286	-0.000018
1419	1.4109e+02	-16.4691	-11.202328	0.000051	0.512092	0.173502	-0.000021
1420	1.4119e+02	-16.5300	-11.222695	0.000050	0.502051	0.170100	-0.000020
1421	1.4129e+02	-16.5541	-11.244284	0.000053	0.532174	0.180305	-0.000022
1422	1.4139e+02	-16.5605	-11.267502	0.000057	0.572338	0.193913	-0.000023
1423	1.4149e+02	-16.6182	-11.287462	0.000049	0.492010	0.166698	-0.000020
1424	1.4159e+02	-16.6936	-11.309459	0.000054	0.542215	0.183707	-0.000022
1425	1.4169e+02	-16.7161	-11.328604	0.000047	0.471928	0.159894	-0.000019
1426	1.4179e+02	-16.7418	-11.348971	0.000050	0.502051	0.170100	-0.000020
1427	1.4189e+02	-16.8124	-11.371375	0.000055	0.552256	0.187109	-0.000023
1428	1.4199e+02	-16.8460	-11.390927	0.000048	0.481969	0.163296	-0.000020
1429	1.4209e+02	-16.8525	-11.410480	0.000048	0.481969	0.163296	-0.000020
1430	1.4219e+02	-16.9086	-11.427181	0.000041	0.411682	0.139482	-0.000017
1431	1.4228e+02	-16.9535	-11.453658	0.000065	0.652666	0.221129	-0.000027
1432	1.4238e+02	-17.0129	-11.480135	0.000065	0.652666	0.221129	-0.000027
1433	1.4248e+02	-17.0065	-11.495207	-0.000037	-0.371518	-0.125874	-0.000015
1434	1.4258e+02	-17.0738	-11.521277	0.000064	0.642625	0.217727	-0.000026
1435	1.4268e+02	-17.1027	-11.544088	0.000056	0.562297	0.190511	-0.000023
1436	1.4278e+02	-17.1492	-11.563233	0.000047	0.471928	0.159894	-0.000019
1437	1.4288e+02	-17.1910	-11.590118	0.000066	0.662707	0.224531	-0.000027
1438	1.4298e+02	-17.2166	-11.610485	0.000050	0.502051	0.170100	-0.000020
1439	1.4308e+02	-17.3113	-11.631667	0.000052	0.522133	0.176903	-0.000021
1440	1.4318e+02	-17.3450	-11.660588	0.000071	0.712913	0.241541	-0.000029
1441	1.4328e+02	-17.3963	-11.680548	0.000049	0.492010	0.166698	-0.000020
1442	1.4338e+02	-17.3819	-11.698063	-0.000043	-0.431764	-0.146286	-0.000018
1443	1.4348e+02	-17.4284	-11.722097	0.000059	0.592420	0.200717	-0.000024
1444	1.4358e+02	-17.5070	-11.746130	0.000059	0.592420	0.200717	-0.000024
1445	1.4368e+02	-17.5150	-11.763238	0.000042	0.421723	0.142884	-0.000017
1446	1.4378e+02	-17.5567	-11.783198	0.000049	0.492010	0.166698	-0.000020
1447	1.4388e+02	-17.5968	-11.808453	0.000062	0.622543	0.210923	-0.000025
1448	1.4398e+02	-17.6032	-11.832079	0.000058	0.582379	0.197315	-0.000024
1449	1.4408e+02	-17.6658	-11.852854	0.000051	0.512092	0.173502	-0.000021
1450	1.4418e+02	-17.7188	-11.875665	0.000056	0.562297	0.190511	-0.000023
1451	1.4428e+02	-17.7733	-11.898069	0.000055	0.552256	0.187109	-0.000023
1452	1.4437e+02	-17.7925	-11.917621	0.000048	0.481969	0.163296	-0.000020
1453	1.4447e+02	-17.8134	-11.940432	0.000056	0.562297	0.190511	-0.000023
1454	1.4457e+02	-17.8840	-11.962836	0.000055	0.552256	0.187109	-0.000023
1455	1.4467e+02	-17.8663	-11.985240	-0.000055	-0.552256	-0.187109	-0.000023
1456	1.4477e+02	-17.9706	-12.006014	0.000051	0.512092	0.173502	-0.000021
1457	1.4487e+02	-17.9594	-12.029233	-0.000057	-0.572338	-0.193913	-0.000023
1458	1.4497e+02	-18.0171	-12.053266	0.000059	0.592420	0.200717	-0.000024
1459	1.4507e+02	-18.0717	-12.075263	0.000054	0.542215	0.183707	-0.000022
1460	1.4517e+02	-18.1070	-12.094408	0.000047	0.471928	0.159894	-0.000019
1461	1.4527e+02	-18.1615	-12.121292	0.000066	0.662707	0.224531	-0.000027
1462	1.4537e+02	-18.1936	-12.148177	0.000066	0.662707	0.224531	-0.000027
1463	1.4547e+02	-18.2449	-12.174654	0.000065	0.652666	0.221129	-0.000027
1464	1.4557e+02	-18.2706	-12.197465	0.000056	0.562297	0.190511	-0.000023
1465	1.4567e+02	-18.2866	-12.216203	0.000046	0.461887	0.156492	-0.000019
1466	1.4577e+02	-18.3476	-12.245939	0.000073	0.732995	0.248345	-0.000030
1467	1.4587e+02	-18.4102	-12.275675	0.000073	0.732995	0.248345	-0.000030
1468	1.4597e+02	-18.4551	-12.302967	0.000067	0.672748	0.227933	-0.000027
1469	1.4607e+02	-18.4743	-12.329444	0.000065	0.652666	0.221129	-0.000027
1470	1.4617e+02	-18.5257	-12.356736	0.000067	0.672748	0.227933	-0.000027
1471	1.4626e+02	-18.5690	-12.378733	0.000054	0.542215	0.183707	-0.000022
1472	1.4636e+02	-18.5786	-12.403988	0.000062	0.622543	0.210923	-0.000025
1473	1.4646e+02	-18.6588	-12.432502	0.000070	0.702872	0.238139	-0.000029
1474	1.4656e+02	-18.6652	-12.458979	0.000065	0.652666	0.221129	-0.000027
1475	1.4666e+02	-18.7005	-12.487493	0.000070	0.702872	0.238139	-0.000029
1476	1.4676e+02	-18.7455	-12.513971	0.000065	0.652666	0.221129	-0.000027
1477	1.4686e+02	-18.8112	-12.542892	0.000071	0.712913	0.241541	-0.000029
1478	1.4696e+02	-18.8353	-12.559186	0.000040	0.401641	0.136080	-0.000016
1479	1.4706e+02	-18.8674	-12.591366	0.000079	0.793241	0.268757	-0.000032
1480	1.4716e+02	-18.9251	-12.614584	0.000057	0.572338	0.193913	-0.000023
1481	1.4726e+02	-18.9267	-12.645950	0.000077	0.773159	0.261953	-0.000032
1482	1.4736e+02	-18.9652	-12.674056	0.000069	0.692831	0.234737	-0.000028
1483	1.4746e+02	-19.0535	-12.699311	0.000062	0.622543	0.210923	-0.000025
1484	1.4756e+02	-19.0567	-12.724974	0.000063	0.632584	0.214325	-0.000026
1485	1.4766e+02	-19.1176	-12.749007	0.000059	0.592420	0.200717	-0.000024
1486	1.4776e+02	-19.1449	-12.777521	0.000070	0.702872	0.238139	-0.000029
1487	1.4786e+02	-19.1802	-12.807257	0.000073	0.732995	0.248345	-0.000030
1488	1.4796e+02	-19.2235	-12.831698	0.000060	0.602461	0.204119	-0.000025
1489	1.4806e+02	-19.2813	-12.861434	0.000073	0.732995	0.248345	-0.000030
1490	1.4816e+02	-19.2861	-12.887911	0.000065	0.652666	0.221129	-0.000027
1491	1.4825e+02	-19.3519	-12.914796	0.000066	0.662707	0.224531	-0.000027
1492	1.4835e+02	-19.3791	-12.940051	0.000062	0.622543	0.210923	-0.000025
1493	1.4845e+02	-19.4192	-12.964491	0.000060	0.602461	0.204119	-0.000025
1494	1.4855e+02	-19.4593	-12.995042	0.000075	0.753077	0.255149	-0.000031
1495	1.4865e+02	-19.4802	-13.022334	0.000067	0.672748	0.227933	-0.000027
1496	1.4875e+02	-19.5251	-13.056958	0.000085	0.853487	0.289169	-0.000035
1497	1.4885e+02	-19.5700	-13.084657	0.000068	0.682789	0.231335	-0.000028
1498	1.4895e+02	-19.6470	-13.115615	0.000076	0.763118	0.258551	-0.000031
1499	1.4905e+02	-19.6470	-13.140871	0.000062	0.622543	0.210923	-0.000025
1500	1.4915e+02	-19.6887	-13.175087	0.000084	0.843446	0.285767	-0.000034
1501	1.4925e+02	-19.7497	-13.207268	0.000079	0.793241	0.268757	-0.000032
1502	1.4935e+02	-19.7850	-13.239040	0.000078	0.783200	0.265355	-0.000032
1503	1.4945e+02	-19.8139	-13.267554	0.000070	0.702872	0.238139	-0.000029
1504	1.4955e+02	-19.8636	-13.295661	0.000069	0.692831	0.234737	-0.000028
1505	1.4965e+02	-19.9166	-13.323768	0.000069	0.692831	0.234737	-0.000028
1506	1.4975e+02	-19.9182	-13.354318	0.000075	0.753077	0.255149	-0.000031
1507	1.4985e+02	-20.0064	-13.382425	0.000069	0.692831	0.234737	-0.000028
1508	1.4995e+02	-19.9406	-13.380795	0.000004	0.040164	0.013608	0.000002
1509	1.5005e+02	-19.8797	-13.368983	0.000029	0.291190	0.098658	0.000012
1510	1.5015e+02	-19.8764	-13.364502	0.000011	0.110451	0.037422	0.000005
1511	1.5025e+02	-19.8139	-13.355948	0.000021	0.210861	0.071442	0.000009
1512	1.5034e+02	-19.7658	-13.344135	0.000029	0.291190	0.098658	0.000012
1513	1.5044e+02	-19.7337	-13.332729	0.000028	0.281149	0.095256	0.000011
1514	1.5054e+02	-19.7176	-13.323360	0.000023	0.230944	0.078246	0.000009
1515	1.5064e+02	-19.6551	-13.311547	0.000029	0.291190	0.098658	0.000012
1516	1.5074e+02	-19.6069	-13.300956	0.000026	0.261067	0.088452	0.000011
1517	1.5084e+02	-19.5989	-13.285070	0.000039	0.391600	0.132678	0.000016
1518	1.5094e+02	-19.5492	-13.273664	0.000028	0.281149	0.095256	0.000011
1519	1.5104e+02	-19.5139	-13.260629	0.000032	0.321313	0.108864	0.000013
1520	1.5114e+02	-19.4369	-13.245558	0.000037	0.371518	0.125874	0.000015
1521	1.5124e+02	-19.4385	-13.235782	-0.000024	-0.240985	-0.081648	0.000010
1522	1.5134e+02	-19.3968	-13.219488	0.000040	0.401641	0.136080	0.000016
1523	1.5144e+02	-19.3759	-13.205638	0.000034	0.341395	0.115668	0.000014
1524	1.5154e+02	-19.3085	-13.187715	0.000044	0.441805	0.149688	0.000018
1525	1.5164e+02	-19.2460	-13.179161	0.000021	0.210861	0.071442	0.000009
1526	1.5174e+02	-19.2588	-13.163275	-0.000039	-0.391600	-0.132678	0.000016
1527	1.5184e+02	-19.2139	-13.152684	0.000026	0.261067	0.088452	0.000011
1528	1.5194e+02	-19.1658	-13.139241	0.000033	0.331354	0.112266	0.000014
1529	1.5204e+02	-19.1144	-13.124170	0.000037	0.371518	0.125874	0.000015
1530	1.5214e+02	-19.0727	-13.113986	0.000025	0.251026	0.085050	0.000010
1531	1.5224e+02	-19.0214	-13.101766	0.000030	0.301231	0.102060	0.000012
1532	1.5233e+02	-18.9957	-13.079362	0.000055	0.552256	0.187109	0.000023
1533	1.5243e+02	-18.9588	-13.064290	0.000037	0.371518	0.125874	0.000015
1534	1.5253e+02	-18.9027	-13.051255	0.000032	0.321313	0.108864	0.000013
1535	1.5263e+02	-18.8594	-13.030481	0.000051	0.512092	0.173502	0.000021
1536	1.5273e+02	-18.8465	-13.019075	0.000028	0.281149	0.095256	0.000011
1537	1.5283e+02	-18.8000	-13.005226	0.000034	0.341395	0.115668	0.000014
1538	1.5293e+02	-18.7647	-12.992191	0.000032	0.321313	0.108864	0.000013
1539	1.5303e+02	-18.7406	-12.978341	0.000034	0.341395	0.115668	0.000014
1540	1.5313e+02	-18.6620	-12.965713	0.000031	0.311272	0.105462	0.000013
1541	1.5323e+02	-18.6524	-12.945754	0.000049	0.492010	0.166698	0.000020
1542	1.5333e+02	-18.5882	-12.928238	0.000043	0.431764	0.146286	0.000018
1543	1.5343e+02	-18.5337	-12.916425	0.000029	0.291190	0.098658	0.000012
1544	1.5353e+02	-18.4968	-12.895650	0.000051	0.512092	0.173502	0.000021
1545	1.5363e+02	-18.4711	-12.878949	0.000041	0.411682	0.139482	0.000017
1546	1.5373e+02	-18.4567	-12.856953	0.000054	0.542215	0.183707	0.000022
1547	1.5383e+02	-18.3781	-12.839030	0.000044	0.441805	0.149688	0.000018
1548	1.5393e+02	-18.3620	-12.824366	0.000036	0.361477	0.122472	0.000015
1549	1.5403e+02	-18.3139	-12.803184	0.000052	0.522133	0.176903	0.000021
1550	1.5413e+02	-18.3027	-12.787297	0.000039	0.391600	0.132678	0.000016
1551	1.5422e+02	-18.2562	-12.768967	0.000045	0.451846	0.153090	0.000018
1552	1.5432e+02	-18.1808	-12.746970	0.000054	0.542215	0.183707	0.000022
1553	1.5442e+02	-18.1262	-12.729862	0.000042	0.421723	0.142884	0.000017
1554	1.5452e+02	-18.1006	-12.709902	0.000049	0.492010	0.166698	0.000020
1555	1.5462e+02	-18.0893	-12.690350	0.000048	0.481969	0.163296	0.000020
1556	1.5472e+02	-18.0396	-12.669168	0.000052	0.522133	0.176903	0.000021
1557	1.5482e+02	-17.9995	-12.648394	0.000051	0.512092	0.173502	0.000021
1558	1.5492e+02	-17.9738	-12.630063	0.000045	0.451846	0.153090	0.000018
1559	1.5502e+02	-17.9225	-12.609696	0.000050	0.502051	0.170100	0.000020
1560	1.5512e+02	-17.8695	-12.590551	0.000047	0.471928	0.159894	0.000019
1561	1.5522e+02	-17.8278	-12.573035	0.000043	0.431764	0.146286	0.000018
1562	1.5532e+02	-17.8022	-12.552668	0.000050	0.502051	0.170100	0.000020
1563	1.5542e+02	-17.7573	-12.531079	0.000053	0.532174	0.180305	0.000022
1564	1.5552e+02	-17.7043	-12.513156	0.000044	0.441805	0.149688	0.000018
1565	1.5562e+02	-17.6754	-12.491974	0.000052	0.522133	0.176903	0.000021
1566	1.5572e+02	-17.6161	-12.474458	0.000043	0.431764	0.146286	0.000018
1567	1.5582e+02	-17.5680	-12.452869	0.000053	0.532174	0.180305	0.000022
1568	1.5592e+02	-17.5776	-12.432909	-0.000049	-0.492010	-0.166698	0.000020
1569	1.5602e+02	-17.5022	-12.410098	0.000056	0.562297	0.190511	0.000023
1570	1.5612e+02	-17.4605	-12.387694	0.000055	0.552256	0.187109	0.000023
1571	1.5622e+02	-17.4204	-12.365698	0.000054	0.542215	0.183707	0.000022
1572	1.5631e+02	-17.3787	-12.351034	0.000036	0.361477	0.122472	0.000015
1573	1.5641e+02	-17.3610	-12.331074	0.000049	0.492010	0.166698	0.000020
1574	1.5651e+02	-17.3000	-12.305818	0.000062	0.622543	0.210923	0.000025
1575	1.5661e+02	-17.2567	-12.291154	0.000036	0.361477	0.122472	0.000015
1576	1.5671e+02	-17.2471	-12.265492	0.000063	0.632584	0.214325	0.000026
1577	1.5681e+02	-17.2022	-12.245939	0.000048	0.481969	0.163296	0.000020
1578	1.5691e+02	-17.1300	-12.224757	0.000052	0.522133	0.176903	0.000021
1579	1.5701e+02	-17.1268	-12.202353	0.000055	0.552256	0.187109	0.000023
1580	1.5711e+02	-17.0658	-12.176691	0.000063	0.632584	0.214325	0.000026
1581	1.5721e+02	-17.0289	-12.157953	0.000046	0.461887	0.156492	0.000019
1582	1.5731e+02	-16.9920	-12.131476	0.000065	0.652666	0.221129	0.000027
1583	1.5741e+02	-16.9375	-12.107035	0.000060	0.602461	0.204119	0.000025
1584	1.5751e+02	-16.8910	-12.086668	0.000050	0.502051	0.170100	0.000020
1585	1.5761e+02	-16.8637	-12.059376	0.000067	0.672748	0.227933	0.000027
1586	1.5771e+02	-16.8316	-12.042268	0.000042	0.421723	0.142884	0.000017
1587	1.5781e+02	-16.8188	-12.013754	0.000070	0.702872	0.238139	0.000029
1588	1.5791e+02	-16.7450	-11.992572	0.000052	0.522133	0.176903	0.000021
1589	1.5801e+02	-16.7386	-11.972205	0.000050	0.502051	0.170100	0.000020
1590	1.5811e+02	-16.6856	-11.942062	0.000074	0.743036	0.251747	0.000030
1591	1.5821e+02	-16.6311	-11.926175	0.000039	0.391600	0.132678	0.000016
1592	1.5830e+02	-16.6054	-11.900513	0.000063	0.632584	0.214325	0.000026
1593	1.5840e+02	-16.5380	-11.869962	0.000075	0.753077	0.255149	0.000031
1594	1.5850e+02	-16.5011	-11.848780	0.000052	0.522133	0.176903	0.000021
1595	1.5860e+02	-16.4819	-11.826784	0.000054	0.542215	0.183707	0.000022
1596	1.5870e+02	-16.4370	-11.803158	0.000058	0.582379	0.197315	0.000024
1597	1.5880e+02	-16.4225	-11.776273	0.000066	0.662707	0.224531	0.000027
1598	1.5890e+02	-16.3455	-11.761609	0.000036	0.361477	0.122472	0.000015
1599	1.5900e+02	-16.3102	-11.730651	0.000076	0.763118	0.258551	0.000031
1600	1.5910e+02	-16.2509	-11.709469	0.000052	0.522133	0.176903	0.000021
1601	1.5920e+02	-16.2445	-11.688695	0.000051	0.512092	0.173502	0.000021
1602	1.5930e+02	-16.1899	-11.667513	0.000052	0.522133	0.176903	0.000021
1603	1.5940e+02	-16.1418	-11.645109	0.000055	0.552256	0.187109	0.000023
1604	1.5950e+02	-16.1129	-11.621076	0.000059	0.592420	0.200717	0.000024
1605	1.5960e+02	-16.0600	-11.605189	0.000039	0.391600	0.132678	0.000016
1606	1.5970e+02	-16.0423	-11.579119	0.000064	0.642625	0.217727	0.000026
1607	1.5980e+02	-16.0054	-11.555901	0.000057	0.572338	0.193913	0.000023
1608	1.5990e+02	-15.9685	-11.535126	0.000051	0.512092	0.173502	0.000021
1609	1.6000e+02	-15.8691	-11.510686	0.000060	0.602461	0.204119	0.000025
1610	1.6010e+02	-15.8627	-11.487875	0.000056	0.562297	0.190511	0.000023
1611	1.6019e+02	-15.8578	-11.464656	0.000057	0.572338	0.193913	0.000023
1612	1.6029e+02	-15.8129	-11.440623	0.000059	0.592420	0.200717	0.000024
1613	1.6039e+02	-15.7616	-11.414960	0.000063	0.632584	0.214325	0.000026
1614	1.6049e+02	-15.7231	-11.392964	0.000054	0.542215	0.183707	0.000022
1615	1.6059e+02	-15.6862	-11.370967	0.000054	0.542215	0.183707	0.000022
1616	1.6069e+02	-15.6685	-11.342861	0.000069	0.692831	0.234737	0.000028
1617	1.6079e+02	-15.5755	-11.324123	0.000046	0.461887	0.156492	0.000019
1618	1.6089e+02	-15.5306	-11.302534	0.000053	0.532174	0.180305	0.000022
1619	1.6099e+02	-15.5386	-11.276871	-0.000063	-0.632584	-0.214325	0.000026
1620	1.6109e+02	-15.4937	-11.256097	0.000051	0.512092	0.173502	0.000021
1621	1.6119e+02	-15.4584	-11.227990	0.000069	0.692831	0.234737	0.000028
1622	1.6129e+02	-15.3734	-11.205179	0.000056	0.562297	0.190511	0.000023
1623	1.6139e+02	-15.3381	-11.183997	0.000052	0.522133	0.176903	0.000021
1624	1.6149e+02	-15.3060	-11.162408	0.000053	0.532174	0.180305	0.000022
1625	1.6159e+02	-15.2964	-11.137153	0.000062	0.622543	0.210923	0.000025
1626	1.6169e+02	-15.2595	-11.113934	0.000057	0.572338	0.193913	0.000023
1627	1.6179e+02	-15.2129	-11.092752	0.000052	0.522133	0.176903	0.000021
1628	1.6189e+02	-15.1520	-11.071163	0.000053	0.532174	0.180305	0.000022
1629	1.6199e+02	-15.1279	-11.050796	0.000050	0.502051	0.170100	0.000020
1630	1.6209e+02	-15.0589	-11.029207	0.000053	0.532174	0.180305	0.000022
1631	1.6219e+02	-15.0124	-11.007618	0.000053	0.532174	0.180305	0.000022
1632	1.6228e+02	-15.0060	-10.983992	0.000058	0.582379	0.197315	0.000024
1633	1.6238e+02	-14.9611	-10.960773	0.000057	0.572338	0.193913	0.000023
1634	1.6248e+02	-14.9274	-10.943665	0.000042	0.421723	0.142884	0.000017
1635	1.6258e+02	-14.8873	-10.923705	0.000049	0.492010	0.166698	0.000020
1636	1.6268e+02	-14.8167	-10.904967	0.000046	0.461887	0.156492	0.000019
1637	1.6278e+02	-14.7622	-10.885008	0.000049	0.492010	0.166698	0.000020
1638	1.6288e+02	-14.7750	-10.866270	-0.000046	-0.461887	-0.156492	0.000019
1639	1.6298e+02	-14.7622	-10.845088	0.000052	0.522133	0.176903	0.000021
1640	1.6308e+02	-14.6515	-10.824314	0.000051	0.512092	0.173502	0.000021
1641	1.6318e+02	-14.6868	-10.805169	-0.000047	-0.471928	-0.159894	0.000019
1642	1.6328e+02	-14.6033	-10.783987	0.000052	0.522133	0.176903	0.000021
1643	1.6338e+02	-14.5841	-10.763212	0.000051	0.512092	0.173502	0.000021
1644	1.6348e+02	-14.5119	-10.738364	0.000061	0.612502	0.207521	0.000025
1645	1.6358e+02	-14.5071	-10.722885	0.000038	0.381559	0.129276	0.000016
1646	1.6368e+02	-14.4525	-10.700481	0.000055	0.552256	0.187109	0.000023
1647	1.6378e+02	-14.4012	-10.678078	0.000055	0.552256	0.187109	0.000023
1648	1.6388e+02	-14.3242	-10.658525	0.000048	0.481969	0.163296	0.000020
1649	1.6398e+02	-14.3595	-10.638158	-0.000050	-0.502051	-0.170100	0.000020
1650	1.6408e+02	-14.2777	-10.619828	0.000045	0.451846	0.153090	0.000018
1651	1.6418e+02	-14.2440	-10.597831	0.000054	0.542215	0.183707	0.000022
1652	1.6427e+02	-14.1894	-10.580723	0.000042	0.421723	0.142884	0.000017
1653	1.6437e+02	-14.1991	-10.558726	-0.000054	-0.542215	-0.183707	0.000022
1654	1.6447e+02	-14.1044	-10.538766	0.000049	0.492010	0.166698	0.000020
1655	1.6457e+02	-14.0402	-10.514326	0.000060	0.602461	0.204119	0.000025
1656	1.6467e+02	-14.0739	-10.498440	-0.000039	-0.391600	-0.132678	0.000016
1657	1.6477e+02	-13.9969	-10.475221	0.000057	0.572338	0.193913	0.000023
1658	1.6487e+02	-13.9905	-10.458113	0.000042	0.421723	0.142884	0.000017
1659	1.6497e+02	-13.9247	-10.439782	0.000045	0.451846	0.153090	0.000018
1660	1.6507e+02	-13.8911	-10.411676	0.000069	0.692831	0.234737	0.000028
1661	1.6517e+02	-13.8445	-10.395382	0.000040	0.401641	0.136080	0.000016
1662	1.6527e+02	-13.7996	-10.378681	0.000041	0.411682	0.139482	0.000017
1663	1.6537e+02	-13.7723	-10.353833	0.000061	0.612502	0.207521	0.000025
1664	1.6547e+02	-13.7274	-10.334281	0.000048	0.481969	0.163296	0.000020
1665	1.6557e+02	-13.7034	-10.322875	0.000028	0.281149	0.095256	0.000011
1666	1.6567e+02	-13.6568	-10.301286	0.000053	0.532174	0.180305	0.000022
1667	1.6577e+02	-13.5959	-10.283363	0.000044	0.441805	0.149688	0.000018
1668	1.6587e+02	-13.5702	-10.260959	0.000055	0.552256	0.187109	0.000023
1669	1.6597e+02	-13.5253	-10.242628	0.000045	0.451846	0.153090	0.000018
1670	1.6607e+02	-13.4964	-10.228371	0.000035	0.351436	0.119070	0.000014
1671	1.6616e+02	-13.4435	-10.209226	0.000047	0.471928	0.159894	0.000019
1672	1.6626e+02	-13.4162	-10.186008	0.000057	0.572338	0.193913	0.000023
1673	1.6636e+02	-13.3841	-10.170529	0.000038	0.381559	0.129276	0.000016
1674	1.6646e+02	-13.3232	-10.150162	0.000050	0.502051	0.170100	0.000020
1675	1.6656e+02	-13.2863	-10.135090	0.000037	0.371518	0.125874	0.000015
1676	1.6666e+02	-13.2381	-10.113094	0.000054	0.542215	0.183707	0.000022
1677	1.6676e+02	-13.1868	-10.097207	0.000039	0.391600	0.132678	0.000016
1678	1.6686e+02	-13.1659	-10.080913	0.000040	0.401641	0.136080	0.000016
1679	1.6696e+02	-13.0809	-10.060139	0.000051	0.512092	0.173502	0.000021
1680	1.6706e+02	-13.0954	-10.042623	-0.000043	-0.431764	-0.146286	0.000018
1681	1.6716e+02	-13.0569	-10.024293	0.000045	0.451846	0.153090	0.000018
1682	1.6726e+02	-13.0119	-10.006777	0.000043	0.431764	0.146286	0.000018
1683	1.6736e+02	-12.9542	-9.983151	0.000058	0.582379	0.197315	0.000024
1684	1.6746e+02	-12.9558	-9.970524	-0.000031	-0.311272	-0.105462	0.000013
1685	1.6756e+02	-12.8916	-9.946083	0.000060	0.602461	0.204119	0.000025
1686	1.6766e+02	-12.8676	-9.927345	0.000046	0.461887	0.156492	0.000019
1687	1.6776e+02	-12.8355	-9.905756	0.000053	0.532174	0.180305	0.000022
1688	1.6786e+02	-12.7520	-9.881723	0.000059	0.592420	0.200717	0.000024
1689	1.6796e+02	-12.7232	-9.862171	0.000048	0.481969	0.163296	0.000020
1690	1.6806e+02	-12.7007	-9.843840	0.000045	0.451846	0.153090	0.000018
1691	1.6816e+02	-12.6301	-9.818178	0.000063	0.632584	0.214325	0.000026
1692	1.6825e+02	-12.6301	-9.800662	-0.000043	-0.431764	-0.146286	0.000018
1693	1.6835e+02	-12.5692	-9.783961	0.000041	0.411682	0.139482	0.000017
1694	1.6845e+02	-12.5242	-9.761964	0.000054	0.542215	0.183707	0.000022
1695	1.6855e+02	-12.5098	-9.742004	0.000049	0.492010	0.166698	0.000020
1696	1.6865e+02	-12.4617	-9.720823	0.000052	0.522133	0.176903	0.000021
1697	1.6875e+02	-12.4152	-9.702900	0.000044	0.441805	0.149688	0.000018
1698	1.6885e+02	-12.3654	-9.685384	0.000043	0.431764	0.146286	0.000018
1699	1.6895e+02	-12.3205	-9.665831	0.000048	0.481969	0.163296	0.000020
1700	1.6905e+02	-12.3077	-9.640984	0.000061	0.612502	0.207521	0.000025
1701	1.6915e+02	-12.2612	-9.622653	0.000045	0.451846	0.153090	0.000018
1702	1.6925e+02	-12.1986	-9.601064	0.000053	0.532174	0.180305	0.000022
1703	1.6935e+02	-12.1569	-9.584770	0.000040	0.401641	0.136080	0.000016
1704	1.6945e+02	-12.1505	-9.563588	0.000052	0.522133	0.176903	0.000021
1705	1.6955e+02	-12.0943	-9.541592	0.000054	0.542215	0.183707	0.000022
1706	1.6965e+02	-12.0478	-9.524891	0.000041	0.411682	0.139482	0.000017
1707	1.6975e+02	-11.9836	-9.504524	0.000050	0.502051	0.170100	0.000020
1708	1.6985e+02	-11.9644	-9.483749	0.000051	0.512092	0.173502	0.000021
1709	1.6995e+02	-11.9371	-9.462160	0.000053	0.532174	0.180305	0.000022
1710	1.7005e+02	-11.9162	-9.443422	0.000046	0.461887	0.156492	0.000019
1711	1.7015e+02	-11.8569	-9.418167	0.000062	0.622543	0.210923	0.000025
1712	1.7024e+02	-11.7991	-9.396578	0.000053	0.532174	0.180305	0.000022
1713	1.7034e+02	-11.7735	-9.375804	0.000051	0.512092	0.173502	0.000021
1714	1.7044e+02	-11.7446	-9.351770	0.000059	0.592420	0.200717	0.000024
1715	1.7054e+02	-11.6868	-9.326515	0.000062	0.622543	0.210923	0.000025
1716	1.7064e+02	-11.6227	-9.304926	0.000053	0.532174	0.180305	0.000022
1717	1.7074e+02	-11.6098	-9.279671	0.000062	0.622543	0.210923	0.000025
1718	1.7084e+02	-11.5729	-9.257674	0.000054	0.542215	0.183707	0.000022
1719	1.7094e+02	-11.5328	-9.232012	0.000063	0.632584	0.214325	0.000026
1720	1.7104e+02	-11.5120	-9.210015	0.000054	0.542215	0.183707	0.000022
1721	1.7114e+02	-11.4751	-9.179872	0.000074	0.743036	0.251747	0.000030
1722	1.7124e+02	-11.4366	-9.161134	0.000046	0.461887	0.156492	0.000019
1723	1.7134e+02	-11.3708	-9.135879	0.000062	0.622543	0.210923	0.000025
1724	1.7144e+02	-11.3130	-9.115512	0.000050	0.502051	0.170100	0.000020
1725	1.7154e+02	-11.3163	-9.091478	-0.000059	-0.592420	-0.200717	0.000024
1726	1.7164e+02	-11.2569	-9.067038	0.000060	0.602461	0.204119	0.000025
1727	1.7174e+02	-11.2216	-9.041783	0.000062	0.622543	0.210923	0.000025
1728	1.7184e+02	-11.2024	-9.018971	0.000056	0.562297	0.190511	0.000023
1729	1.7194e+02	-11.1478	-8.994531	0.000060	0.602461	0.204119	0.000025
1730	1.7204e+02	-11.1109	-8.968054	0.000065	0.652666	0.221129	0.000027
1731	1.7213e+02	-11.0676	-8.943613	0.000060	0.602461	0.204119	0.000025
1732	1.7223e+02	-11.0147	-8.925283	0.000045	0.451846	0.153090	0.000018
1733	1.7233e+02	-10.9778	-8.896361	0.000071	0.712913	0.241541	0.000029
1734	1.7243e+02	-10.9312	-8.873957	0.000055	0.552256	0.187109	0.000023
1735	1.7253e+02	-10.8976	-8.845444	0.000070	0.702872	0.238139	0.000029
1736	1.7263e+02	-10.8911	-8.816930	0.000070	0.702872	0.238139	0.000029
1737	1.7273e+02	-10.8189	-8.792489	0.000060	0.602461	0.204119	0.000025
1738	1.7283e+02	-10.7756	-8.771307	0.000052	0.522133	0.176903	0.000021
1739	1.7293e+02	-10.7195	-8.744423	0.000066	0.662707	0.224531	0.000027
1740	1.7303e+02	-10.6922	-8.720797	0.000058	0.582379	0.197315	0.000024
1741	1.7313e+02	-10.6489	-8.697578	0.000057	0.572338	0.193913	0.000023
1742	1.7323e+02	-10.6152	-8.671916	0.000063	0.632584	0.214325	0.000026
1743	1.7333e+02	-10.5767	-8.642180	0.000073	0.732995	0.248345	0.000030
1744	1.7343e+02	-10.5414	-8.620998	0.000052	0.522133	0.176903	0.000021
1745	1.7353e+02	-10.4965	-8.594520	0.000065	0.652666	0.221129	0.000027
1746	1.7363e+02	-10.4756	-8.567229	0.000067	0.672748	0.227933	0.000027
1747	1.7373e+02	-10.4211	-8.540751	0.000065	0.652666	0.221129	0.000027
1748	1.7383e+02	-10.3714	-8.515496	0.000062	0.622543	0.210923	0.000025
1749	1.7393e+02	-10.3313	-8.489833	0.000063	0.632584	0.214325	0.000026
1750	1.7403e+02	-10.2751	-8.461727	0.000069	0.692831	0.234737	0.000028
1751	1.7413e+02	-10.2719	-8.432806	0.000071	0.712913	0.241541	0.000029
1752	1.7422e+02	-10.2174	-8.401033	0.000078	0.783200	0.265355	0.000032
1753	1.7432e+02	-10.1612	-8.378629	0.000055	0.552256	0.187109	0.000023
1754	1.7442e+02	-10.1195	-8.348078	0.000075	0.753077	0.255149	0.000031
1755	1.7452e+02	-10.0922	-8.322008	0.000064	0.642625	0.217727	0.000026
1756	1.7462e+02	-10.0762	-8.295531	0.000065	0.652666	0.221129	0.000027
1757	1.7472e+02	-9.9976	-8.273127	0.000055	0.552256	0.187109	0.000023
1758	1.7482e+02	-9.9799	-8.238503	0.000085	0.853487	0.289169	0.000035
1759	1.7492e+02	-9.9398	-8.217729	0.000051	0.512092	0.173502	0.000021
1760	1.7502e+02	-9.9077	-8.187993	0.000073	0.732995	0.248345	0.000030
1761	1.7512e+02	-9.8949	-8.159886	0.000069	0.692831	0.234737	0.000028
1762	1.7522e+02	-9.8051	-8.129743	0.000074	0.743036	0.251747	0.000030
1763	1.7532e+02	-9.7794	-8.102858	0.000066	0.662707	0.224531	0.000027
1764	1.7542e+02	-9.7730	-8.074751	0.000069	0.692831	0.234737	0.000028
1765	1.7552e+02	-9.7217	-8.047052	0.000068	0.682789	0.231335	0.000028
1766	1.7562e+02	-9.6527	-8.018538	0.000070	0.702872	0.238139	0.000029
1767	1.7572e+02	-9.6366	-7.991654	0.000066	0.662707	0.224531	0.000027
1768	1.7582e+02	-9.5773	-7.968842	0.000056	0.562297	0.190511	0.000023
1769	1.7592e+02	-9.5548	-7.937477	0.000077	0.773159	0.261953	0.000032
1770	1.7602e+02	-9.5211	-7.914258	0.000057	0.572338	0.193913	0.000023
1771	1.7612e+02	-9.4650	-7.889003	0.000062	0.622543	0.210923	0.000025
1772	1.7621e+02	-9.4297	-7.860489	0.000070	0.702872	0.238139	0.000029
1773	1.7631e+02	-9.4008	-7.835641	0.000061	0.612502	0.207521	0.000025
1774	1.7641e+02	-9.3174	-7.811608	0.000059	0.592420	0.200717	0.000024
1775	1.7651e+02	-9.3013	-7.783909	0.000068	0.682789	0.231335	0.000028
1776	1.7661e+02	-9.2516	-7.753765	0.000074	0.743036	0.251747	0.000030
1777	1.7671e+02	-9.2420	-7.729732	0.000059	0.592420	0.200717	0.000024
1778	1.7681e+02	-9.1826	-7.697960	0.000078	0.783200	0.265355	0.000032
1779	1.7691e+02	-9.1409	-7.671890	0.000064	0.642625	0.217727	0.000026
1780	1.7701e+02	-9.1104	-7.643376	0.000070	0.702872	0.238139	0.000029
1781	1.7711e+02	-9.0832	-7.618528	0.000061	0.612502	0.207521	0.000025
1782	1.7721e+02	-9.0030	-7.591643	0.000066	0.662707	0.224531	0.000027
1783	1.7731e+02	-8.9869	-7.559463	0.000079	0.793241	0.268757	0.000032
1784	1.7741e+02	-8.9661	-7.536245	0.000057	0.572338	0.193913	0.000023
1785	1.7751e+02	-8.9163	-7.507323	0.000071	0.712913	0.241541	0.000029
1786	1.7761e+02	-8.8634	-7.483697	0.000058	0.582379	0.197315	0.000024
1787	1.7771e+02	-8.8313	-7.453961	0.000073	0.732995	0.248345	0.000030
1788	1.7781e+02	-8.7703	-7.425855	0.000069	0.692831	0.234737	0.000028
1789	1.7791e+02	-8.7463	-7.397341	0.000070	0.702872	0.238139	0.000029
1790	1.7801e+02	-8.7046	-7.372900	0.000060	0.602461	0.204119	0.000025
1791	1.7810e+02	-8.6532	-7.342349	0.000075	0.753077	0.255149	0.000031
1792	1.7820e+02	-8.6067	-7.314243	0.000069	0.692831	0.234737	0.000028
1793	1.7830e+02	-8.5971	-7.285729	0.000070	0.702872	0.238139	0.000029
1794	1.7840e+02	-8.5554	-7.263325	0.000055	0.552256	0.187109	0.000023
1795	1.7850e+02	-8.5425	-7.235626	0.000068	0.682789	0.231335	0.000028
1796	1.7860e+02	-8.4174	-7.207926	0.000068	0.682789	0.231335	0.000028
1797	1.7870e+02	-8.4367	-7.185523	-0.000055	-0.552256	-0.187109	0.000023
1798	1.7880e+02	-8.4126	-7.160267	0.000062	0.622543	0.210923	0.000025
1799	1.7890e+02	-8.3500	-7.132161	0.000069	0.692831	0.234737	0.000028
1800	1.7900e+02	-8.3115	-7.110572	0.000053	0.532174	0.180305	0.000022
1801	1.7910e+02	-8.2746	-7.083280	0.000067	0.672748	0.227933	0.000027
1802	1.7920e+02	-8.2040	-7.058024	0.000062	0.622543	0.210923	0.000025
1803	1.7930e+02	-8.2137	-7.034399	-0.000058	-0.582379	-0.197315	0.000024
1804	1.7940e+02	-8.1559	-7.009551	0.000061	0.612502	0.207521	0.000025
1805	1.7950e+02	-8.1094	-6.985517	0.000059	0.592420	0.200717	0.000024
1806	1.7960e+02	-8.0565	-6.961892	0.000058	0.582379	0.197315	0.000024
1807	1.7970e+02	-8.0324	-6.940710	0.000052	0.522133	0.176903	0.000021
1808	1.7980e+02	-7.9827	-6.913418	0.000067	0.672748	0.227933	0.000027
1809	1.7990e+02	-7.9811	-6.887755	0.000063	0.632584	0.214325	0.000026
1810	1.8000e+02	-7.9345	-6.866166	0.000053	0.532174	0.180305	0.000022
1811	1.8009e+02	-7.8928	-6.838059	0.000069	0.692831	0.234737	0.000028
1812	1.8019e+02	-7.8447	-6.814026	0.000059	0.592420	0.200717	0.000024
1813	1.8029e+02	-7.7821	-6.787549	0.000065	0.652666	0.221129	0.000027
1814	1.8039e+02	-7.7693	-6.759850	0.000068	0.682789	0.231335	0.000028
1815	1.8049e+02	-7.7115	-6.745593	0.000035	0.351436	0.119070	0.000014
1816	1.8059e+02	-7.6698	-6.713413	0.000079	0.793241	0.268757	0.000032
1817	1.8069e+02	-7.6410	-6.688157	0.000062	0.622543	0.210923	0.000025
1818	1.8079e+02	-7.5784	-6.664124	0.000059	0.592420	0.200717	0.000024
1819	1.8089e+02	-7.5415	-6.646201	0.000044	0.441805	0.149688	0.000018
1820	1.8099e+02	-7.5062	-6.616872	0.000072	0.722954	0.244943	0.000029
1821	1.8109e+02	-7.4837	-6.590395	0.000065	0.652666	0.221129	0.000027
1822	1.8119e+02	-7.4116	-6.568806	0.000053	0.532174	0.180305	0.000022
1823	1.8129e+02	-7.3875	-6.543551	0.000062	0.622543	0.210923	0.000025
1824	1.8139e+02	-7.3089	-6.519925	0.000058	0.582379	0.197315	0.000024
1825	1.8149e+02	-7.3009	-6.494670	0.000062	0.622543	0.210923	0.000025
1826	1.8159e+02	-7.2977	-6.465341	0.000072	0.722954	0.244943	0.000029
1827	1.8169e+02	-7.2351	-6.439678	0.000063	0.632584	0.214325	0.000026
1828	1.8179e+02	-7.1918	-6.416867	0.000056	0.562297	0.190511	0.000023
1829	1.8189e+02	-7.1613	-6.393649	0.000057	0.572338	0.193913	0.000023
1830	1.8199e+02	-7.1260	-6.372467	0.000052	0.522133	0.176903	0.000021
1831	1.8209e+02	-7.0442	-6.347619	0.000061	0.612502	0.207521	0.000025
1832	1.8218e+02	-7.0201	-6.323586	0.000059	0.592420	0.200717	0.000024
1833	1.8228e+02	-6.9640	-6.299960	0.000058	0.582379	0.197315	0.000024
1834	1.8238e+02	-6.9688	-6.279593	-0.000050	-0.502051	-0.170100	0.000020
1835	1.8248e+02	-6.9094	-6.254745	0.000061	0.612502	0.207521	0.000025
1836	1.8258e+02	-6.8453	-6.233970	0.000051	0.512092	0.173502	0.000021
1837	1.8268e+02	-6.8260	-6.209123	0.000061	0.612502	0.207521	0.000025
1838	1.8278e+02	-6.7715	-6.189977	0.000047	0.471928	0.159894	0.000019
1839	1.8288e+02	-6.7298	-6.165130	0.000061	0.612502	0.207521	0.000025
1840	1.8298e+02	-6.7041	-6.138652	0.000065	0.652666	0.221129	0.000027
1841	1.8308e+02	-6.6640	-6.114212	0.000060	0.602461	0.204119	0.000025
1842	1.8318e+02	-6.6255	-6.095474	0.000046	0.461887	0.156492	0.000019
1843	1.8328e+02	-6.6094	-6.069811	0.000063	0.632584	0.214325	0.000026
1844	1.8338e+02	-6.5645	-6.048222	0.000053	0.532174	0.180305	0.000022
1845	1.8348e+02	-6.5068	-6.021745	0.000065	0.652666	0.221129	0.000027
1846	1.8358e+02	-6.4715	-6.005451	0.000040	0.401641	0.136080	0.000016
1847	1.8368e+02	-6.4458	-5.981418	0.000059	0.592420	0.200717	0.000024
1848	1.8378e+02	-6.3993	-5.956570	0.000061	0.612502	0.207521	0.000025
1849	1.8388e+02	-6.3544	-5.935388	0.000052	0.522133	0.176903	0.000021
1850	1.8398e+02	-6.3335	-5.916243	0.000047	0.471928	0.159894	0.000019
1851	1.8407e+02	-6.2902	-5.888137	0.000069	0.692831	0.234737	0.000028
1852	1.8417e+02	-6.2645	-5.868991	0.000047	0.471928	0.159894	0.000019
1853	1.8427e+02	-6.2116	-5.837219	0.000078	0.783200	0.265355	0.000032
1854	1.8437e+02	-6.1619	-5.811964	0.000062	0.622543	0.210923	0.000025
1855	1.8447e+02	-6.1105	-5.783857	0.000069	0.692831	0.234737	0.000028
1856	1.8457e+02	-6.0752	-5.762268	0.000053	0.532174	0.180305	0.000022
1857	1.8467e+02	-6.0447	-5.739049	0.000057	0.572338	0.193913	0.000023
1858	1.8477e+02	-5.9998	-5.715016	0.000059	0.592420	0.200717	0.000024
1859	1.8487e+02	-5.9854	-5.688946	0.000064	0.642625	0.217727	0.000026
1860	1.8497e+02	-5.9357	-5.666950	0.000054	0.542215	0.183707	0.000022
1861	1.8507e+02	-5.8875	-5.637621	0.000072	0.722954	0.244943	0.000029
1862	1.8517e+02	-5.8522	-5.613588	0.000059	0.592420	0.200717	0.000024
1863	1.8527e+02	-5.7961	-5.586703	0.000066	0.662707	0.224531	0.000027
1864	1.8537e+02	-5.7576	-5.565521	0.000052	0.522133	0.176903	0.000021
1865	1.8547e+02	-5.7319	-5.543117	0.000055	0.552256	0.187109	0.000023
1866	1.8557e+02	-5.6597	-5.519084	0.000059	0.592420	0.200717	0.000024
1867	1.8567e+02	-5.6228	-5.490978	0.000069	0.692831	0.234737	0.000028
1868	1.8577e+02	-5.5956	-5.466537	0.000060	0.602461	0.204119	0.000025
1869	1.8587e+02	-5.5667	-5.439652	0.000066	0.662707	0.224531	0.000027
1870	1.8597e+02	-5.5057	-5.418063	0.000053	0.532174	0.180305	0.000022
1871	1.8606e+02	-5.4785	-5.390364	0.000068	0.682789	0.231335	0.000028
1872	1.8616e+02	-5.4464	-5.367145	0.000057	0.572338	0.193913	0.000023
1873	1.8626e+02	-5.4271	-5.342298	0.000061	0.612502	0.207521	0.000025
1874	1.8636e+02	-5.3597	-5.317450	0.000061	0.612502	0.207521	0.000025
1875	1.8646e+02	-5.2892	-5.289343	0.000069	0.692831	0.234737	0.000028
1876	1.8656e+02	-5.2811	-5.268976	0.000050	0.502051	0.170100	0.000020
1877	1.8666e+02	-5.2330	-5.244943	0.000059	0.592420	0.200717	0.000024
1878	1.8676e+02	-5.2057	-5.214799	0.000074	0.743036	0.251747	0.000030
1879	1.8686e+02	-5.1769	-5.187100	0.000068	0.682789	0.231335	0.000028
1880	1.8696e+02	-5.1303	-5.158586	0.000070	0.702872	0.238139	0.000029
1881	1.8706e+02	-5.0902	-5.135368	0.000057	0.572338	0.193913	0.000023
1882	1.8716e+02	-5.0229	-5.108076	0.000067	0.672748	0.227933	0.000027
1883	1.8726e+02	-5.0068	-5.078340	0.000073	0.732995	0.248345	0.000030
1884	1.8736e+02	-4.9619	-5.050233	0.000069	0.692831	0.234737	0.000028
1885	1.8746e+02	-4.9234	-5.014387	0.000088	0.883610	0.299375	0.000036
1886	1.8756e+02	-4.8416	-4.989946	0.000060	0.602461	0.204119	0.000025
1887	1.8766e+02	-4.8191	-4.964691	0.000062	0.622543	0.210923	0.000025
1888	1.8776e+02	-4.8143	-4.932918	0.000078	0.783200	0.265355	0.000032
1889	1.8786e+02	-4.7662	-4.906441	0.000065	0.652666	0.221129	0.000027
1890	1.8796e+02	-4.7164	-4.873854	0.000080	0.803282	0.272159	0.000033
1891	1.8806e+02	-4.6988	-4.848191	0.000063	0.632584	0.214325	0.000026
1892	1.8815e+02	-4.6491	-4.822528	0.000063	0.632584	0.214325	0.000026
1893	1.8825e+02	-4.6058	-4.786275	0.000089	0.893651	0.302777	0.000036
1894	1.8835e+02	-4.5673	-4.757761	0.000070	0.702872	0.238139	0.000029
1895	1.8845e+02	-4.5368	-4.727210	0.000075	0.753077	0.255149	0.000031
1896	1.8855e+02	-4.4582	-4.705621	0.000053	0.532174	0.180305	0.000022
1897	1.8865e+02	-4.4598	-4.673441	-0.000079	-0.793241	-0.268757	0.000032
1898	1.8875e+02	-4.3715	-4.641668	0.000078	0.783200	0.265355	0.000032
1899	1.8885e+02	-4.3796	-4.610303	-0.000077	-0.773159	-0.261953	0.000032
1900	1.8895e+02	-4.3186	-4.583418	0.000066	0.662707	0.224531	0.000027
1901	1.8905e+02	-4.2961	-4.551646	0.000078	0.783200	0.265355	0.000032
1902	1.8915e+02	-4.2592	-4.522317	0.000072	0.722954	0.244943	0.000029
1903	1.8925e+02	-4.2047	-4.492581	0.000073	0.732995	0.248345	0.000030
1904	1.8935e+02	-4.1630	-4.463252	0.000072	0.722954	0.244943	0.000029
1905	1.8945e+02	-4.1261	-4.435146	0.000069	0.692831	0.234737	0.000028
1906	1.8955e+02	-4.0731	-4.400522	0.000085	0.853487	0.289169	0.000035
1907	1.8965e+02	-4.0731	-4.370378	-0.000074	-0.743036	-0.251747	0.000030
1908	1.8975e+02	-3.9994	-4.343494	0.000066	0.662707	0.224531	0.000027
1909	1.8985e+02	-3.9560	-4.313350	0.000074	0.743036	0.251747	0.000030
1910	1.8995e+02	-3.9288	-4.283614	0.000073	0.732995	0.248345	0.000030
1911	1.9004e+02	-3.8983	-4.250212	0.000082	0.823364	0.278963	0.000034
1912	1.9014e+02	-3.8453	-4.218439	0.000078	0.783200	0.265355	0.000032
1913	1.9024e+02	-3.8068	-4.193184	0.000062	0.622543	0.210923	0.000025
1914	1.9034e+02	-3.7732	-4.159375	0.000083	0.833405	0.282365	0.000034
1915	1.9044e+02	-3.7250	-4.129231	0.000074	0.743036	0.251747	0.000030
1916	1.9054e+02	-3.6785	-4.094200	0.000086	0.863528	0.292571	0.000035
1917	1.9064e+02	-3.6737	-4.061613	0.000080	0.803282	0.272159	0.000033
1918	1.9074e+02	-3.6208	-4.029433	0.000079	0.793241	0.268757	0.000032
1919	1.9084e+02	-3.5502	-3.997660	0.000078	0.783200	0.265355	0.000032
1920	1.9094e+02	-3.5229	-3.960184	0.000092	0.923774	0.312983	0.000038
1921	1.9104e+02	-3.4956	-3.928819	0.000077	0.773159	0.261953	0.000032
1922	1.9114e+02	-3.4700	-3.897046	0.000078	0.783200	0.265355	0.000032
1923	1.9124e+02	-3.4122	-3.865273	0.000078	0.783200	0.265355	0.000032
1924	1.9134e+02	-3.3721	-3.831871	0.000082	0.823364	0.278963	0.000034
1925	1.9144e+02	-3.3432	-3.797655	0.000084	0.843446	0.285767	0.000034
1926	1.9154e+02	-3.3047	-3.765067	0.000080	0.803282	0.272159	0.000033
1927	1.9164e+02	-3.2582	-3.735331	0.000073	0.732995	0.248345	0.000030
1928	1.9174e+02	-3.2037	-3.700707	0.000085	0.853487	0.289169	0.000035
1929	1.9184e+02	-3.1539	-3.666083	0.000085	0.853487	0.289169	0.000035
1930	1.9194e+02	-3.0946	-3.632274	0.000083	0.833405	0.282365	0.000034
1931	1.9203e+02	-3.0978	-3.600501	-0.000078	-0.783200	-0.265355	0.000032
1932	1.9213e+02	-3.0561	-3.562618	0.000093	0.933815	0.316385	0.000038
1933	1.9223e+02	-2.9726	-3.535326	0.000067	0.672748	0.227933	0.000027
1934	1.9233e+02	-2.9341	-3.502331	0.000081	0.813323	0.275561	0.000033
1935	1.9243e+02	-2.9293	-3.469744	0.000080	0.803282	0.272159	0.000033
1936	1.9253e+02	-2.8796	-3.432268	0.000092	0.923774	0.312983	0.000038
1937	1.9263e+02	-2.8636	-3.404976	0.000067	0.672748	0.227933	0.000027
1938	1.9273e+02	-2.7994	-3.372389	0.000080	0.803282	0.272159	0.000033
1939	1.9283e+02	-2.7657	-3.342246	0.000074	0.743036	0.251747	0.000030
1940	1.9293e+02	-2.7384	-3.312510	0.000073	0.732995	0.248345	0.000030
1941	1.9303e+02	-2.7144	-3.275441	0.000091	0.913733	0.309581	0.000037
1942	1.9313e+02	-2.6454	-3.245298	0.000074	0.743036	0.251747	0.000030
1943	1.9323e+02	-2.6358	-3.214340	0.000076	0.763118	0.258551	0.000031
1944	1.9333e+02	-2.5539	-3.180531	0.000083	0.833405	0.282365	0.000034
1945	1.9343e+02	-2.5459	-3.147129	0.000082	0.823364	0.278963	0.000034
1946	1.9353e+02	-2.4930	-3.112912	0.000084	0.843446	0.285767	0.000034
1947	1.9363e+02	-2.4368	-3.078695	0.000084	0.843446	0.285767	0.000034
1948	1.9373e+02	-2.4384	-3.042034	-0.000090	-0.903692	-0.306179	0.000037
1949	1.9383e+02	-2.3903	-3.012298	0.000073	0.732995	0.248345	0.000030
1950	1.9393e+02	-2.3486	-2.977674	0.000085	0.853487	0.289169	0.000035
1951	1.9403e+02	-2.2957	-2.945494	0.000079	0.793241	0.268757	0.000032
1952	1.9412e+02	-2.2379	-2.914536	0.000076	0.763118	0.258551	0.000031
1953	1.9422e+02	-2.2042	-2.877875	0.000090	0.903692	0.306179	0.000037
1954	1.9432e+02	-2.1978	-2.845695	0.000079	0.793241	0.268757	0.000032
1955	1.9442e+02	-2.1368	-2.812700	0.000081	0.813323	0.275561	0.000033
1956	1.9452e+02	-2.0823	-2.776447	0.000089	0.893651	0.302777	0.000036
1957	1.9462e+02	-2.0534	-2.743859	0.000080	0.803282	0.272159	0.000033
1958	1.9472e+02	-2.0213	-2.709235	0.000085	0.853487	0.289169	0.000035
1959	1.9482e+02	-1.9780	-2.676241	0.000081	0.813323	0.275561	0.000033
1960	1.9492e+02	-1.9524	-2.643653	0.000080	0.803282	0.272159	0.000033
1961	1.9502e+02	-1.9058	-2.612695	0.000076	0.763118	0.258551	0.000031
1962	1.9512e+02	-1.8641	-2.578071	0.000085	0.853487	0.289169	0.000035
1963	1.9522e+02	-1.8208	-2.544669	0.000082	0.823364	0.278963	0.000034
1964	1.9532e+02	-1.7566	-2.511267	0.000082	0.823364	0.278963	0.000034
1965	1.9542e+02	-1.7358	-2.483568	0.000068	0.682789	0.231335	0.000028
1966	1.9552e+02	-1.7069	-2.449351	0.000084	0.843446	0.285767	0.000034
1967	1.9562e+02	-1.6379	-2.419615	0.000073	0.732995	0.248345	0.000030
1968	1.9572e+02	-1.5962	-2.386620	0.000081	0.813323	0.275561	0.000033
1969	1.9582e+02	-1.5689	-2.358513	0.000069	0.692831	0.234737	0.000028
1970	1.9592e+02	-1.5320	-2.328370	0.000074	0.743036	0.251747	0.000030
1971	1.9601e+02	-1.5016	-2.297005	0.000077	0.773159	0.261953	0.000032
1972	1.9611e+02	-1.4374	-2.267676	0.000072	0.722954	0.244943	0.000029
1973	1.9621e+02	-1.4278	-2.235496	0.000079	0.793241	0.268757	0.000032
1974	1.9631e+02	-1.3877	-2.204945	0.000075	0.753077	0.255149	0.000031
1975	1.9641e+02	-1.3299	-2.172765	0.000079	0.793241	0.268757	0.000032
1976	1.9651e+02	-1.3058	-2.143844	0.000071	0.712913	0.241541	0.000029
1977	1.9661e+02	-1.2577	-2.112886	0.000076	0.763118	0.258551	0.000031
1978	1.9671e+02	-1.2032	-2.084372	0.000070	0.702872	0.238139	0.000029
1979	1.9681e+02	-1.1935	-2.050970	0.000082	0.823364	0.278963	0.000034
1980	1.9691e+02	-1.1278	-2.017568	0.000082	0.823364	0.278963	0.000034
1981	1.9701e+02	-1.0957	-1.986202	0.000077	0.773159	0.261953	0.000032
1982	1.9711e+02	-1.0444	-1.955244	0.000076	0.763118	0.258551	0.000031
1983	1.9721e+02	-0.9818	-1.924286	0.000076	0.763118	0.258551	0.000031
1984	1.9731e+02	-0.9866	-1.892106	-0.000079	-0.793241	-0.268757	0.000032
1985	1.9741e+02	-0.9417	-1.864814	0.000067	0.672748	0.227933	0.000027
1986	1.9751e+02	-0.9176	-1.830597	0.000084	0.843446	0.285767	0.000034
1987	1.9761e+02	-0.8743	-1.801676	0.000071	0.712913	0.241541	0.000029
1988	1.9771e+02	-0.8150	-1.768681	0.000081	0.813323	0.275561	0.000033
1989	1.9781e+02	-0.7716	-1.738538	0.000074	0.743036	0.251747	0.000030
1990	1.9791e+02	-0.7684	-1.706765	0.000078	0.783200	0.265355	0.000032
1991	1.9800e+02	-0.6674	-1.671326	0.000087	0.873569	0.295973	0.000036
1992	1.9810e+02	-0.6609	-1.642405	0.000071	0.712913	0.241541	0.000029
1993	1.9820e+02	-0.6321	-1.612262	0.000074	0.743036	0.251747	0.000030
1994	1.9830e+02	-0.5920	-1.579267	0.000081	0.813323	0.275561	0.000033
1995	1.9840e+02	-0.5278	-1.551568	0.000068	0.682789	0.231335	0.000028
1996	1.9850e+02	-0.5037	-1.521017	0.000075	0.753077	0.255149	0.000031
1997	1.9860e+02	-0.4299	-1.487615	0.000082	0.823364	0.278963	0.000034
1998	1.9870e+02	-0.4299	-1.458286	-0.000072	-0.722954	-0.244943	0.000029
1999	1.9880e+02	-0.3658	-1.427736	0.000075	0.753077	0.255149	0.000031
2000	1.9890e+02	-0.3305	-1.398000	0.000073	0.732995	0.248345	0.000030
2001	1.9900e+02	-0.2952	-1.367449	0.000075	0.753077	0.255149	0.000031
2002	1.9910e+02	-0.2487	-1.338528	0.000071	0.712913	0.241541	0.000029
2003	1.9920e+02	-0.2262	-1.312050	0.000065	0.652666	0.221129	0.000027
2004	1.9930e+02	-0.1813	-1.281907	0.000074	0.743036	0.251747	0.000030
2005	1.9940e+02	-0.1428	-1.256244	0.000063	0.632584	0.214325	0.000026
2006	1.9950e+02	-0.1043	-1.224472	0.000078	0.783200	0.265355	0.000032
2007	1.9960e+02	-0.0545	-1.193106	0.000077	0.773159	0.261953	0.000032
2008	1.9970e+02	-0.0144	-1.159297	0.000083	0.833405	0.282365	0.000034
2009	1.9980e+02	0.0144	-1.132005	0.000083	0.833405	0.282365	0.000027

Center data before PMax,+/-Pr and +/-Vc Calc.

PMax (uC/cm2):	1.34e+01
Pr (uC/cm2):	4.51e-01
-Pr (uC/cm2):	-1.13e+00
PLoss (uC/cm2):	-5.63e-01
Vc:	8.21e-01
-Vc:	-5.15e-01
C (Max-Eff) (nF):	6.69e-02
K (Eff):	2.27e+02
Vert. (+/-Pr) Shift (uC/cm2):	-3.41e-01
Horiz. Shift (+/-Vc):	1.53e-01
Offset (uC/cm2):	5.40e-01

A (Loop Area - uC/cm2·Volts):	1.10e-02



Hysteresis Version: 5.48.1 - Radiant Technologies, Inc., 1999 - 9/12/24

