»»»»»»»»»»»»»»»»»»»»»»»»»»»»»»»»»»»» Hysteresis ««««««««««««««««««««««««««««««««««««
»»»  Executed Version:	5.48.1
»»»  Vision Version:	5.48.4 (R)
»»»  Vision Compiled:	9/18/24
»»»  Driver Version:	5.47.0
»»»  Windows Version:	Windows 8 or 8.1
»»»  Processor Information:	x86 (AMD or Intel) - 32 Processors
»»»  Tester Name:	PMF21124-494 (100V)
»»»  Tester S/N:	PMF21124-494
»»»  Internal Amp Type:	100V RevK 270k
»»»  Internal Amp S/N:	iAB2-596/K     
»»»  Execution Count:	1
»»»»»»»»»»»»»»»»»»»»»»»»»»»»»»»»»»»»»»»»»»««««««««««««««««««««««««««««««««««««««««««

Stored:	6/5/2025 - 15:48:27
Configured:	06/05/25 02:51:50 PM
Executed:	06/05/25 03:47:54 PM

»»»»»»»»»»»»»»»»»»»»»»»»»»»»»»»»»»» Sample Info ««««««««««««««««««««««««««««««««««««
Sample Name:	
Lot Name:	
Wafer Name:	
Die Row/Column:	0/0
Capacitor Number:	0
Sample Area (cm2):	1.00e-04
Sample Thickness (microns):	3.00e-01

Amplifier:	Internal

»»»»»»»»»»»»»»»»»»»»»»»»»»»»»»»»»»» Tester Info «««««««««««««««««««««««««««««««««««
Tester Name:	PMF21124-494 (100V)
Tester Serial Number:	PMF21124-494
Return Signal Amp. Level:	0.019 [Index: 4]

»»»»»»»»»»»»»»»»»»»»»»»»»»»»»»»» Hysteresis Info ««««««««««««««««««««««««««««««««««
Task Name:	Hyst-353
Volts:	20.00
Field:	666.67 (kV/cm)
DCBias:	0.00
DCField:	0.00 (kV/cm)
Hysteresis Period (ms):	2.00e+02
Preset:	Enabled
Preset Delay (ms):	1.00e+03
Profile:	Standard Bipolar

»»»»»»»»»»»»»»»»»»»»»»»»»»»»»»»»»»»»»» Data «««««««««««««««««««««««««««««««««««««««
Points:	2009

Valid Data

Point	Time (ms)	Drive Voltage	Measured Polarization (uC/cm2)	Capacitance (uF)	Normalized Capacitance (uF/cm2)	Dielectric Constant	Instantaneous Current (mA)
   1	0.0000e+00	0.0048	6.190806	0.001114	11.136518	3.773155	0.000446
   2	9.9500e-02	0.0305	6.634447	0.001114	11.136518	3.773155	0.000446
   3	1.9900e-01	0.0626	6.553785	-0.000202	-2.024822	-0.686028	-0.000081
   4	2.9850e-01	0.1187	6.876433	0.000810	8.099286	2.744112	0.000324
   5	3.9800e-01	0.1540	7.400736	0.001316	13.161340	4.459183	0.000527
   6	4.9750e-01	0.1973	7.562060	0.000405	4.049643	1.372056	0.000162
   7	5.9700e-01	0.2390	7.683053	0.000304	3.037232	1.029042	0.000122
   8	6.9650e-01	0.2727	8.409011	0.001822	18.223394	6.174253	0.000730
   9	7.9600e-01	0.3112	8.731658	0.000810	8.099286	2.744112	0.000324
  10	8.9550e-01	0.3481	9.215630	0.001215	12.148929	4.116169	0.000486
  11	9.9500e-01	0.3930	9.417285	0.000506	5.062054	1.715070	0.000203
  12	1.0945e+00	0.4347	9.820595	0.001012	10.124108	3.430141	0.000405
  13	1.1940e+00	0.4781	9.941588	0.000304	3.037232	1.029042	0.000122
  14	1.2935e+00	0.5118	10.264236	0.000810	8.099286	2.744112	0.000324
  15	1.3930e+00	0.5551	10.707877	0.001114	11.136518	3.773155	0.000446
  16	1.4925e+00	0.5888	10.909532	0.000506	5.062054	1.715070	0.000203
  17	1.5920e+00	0.6353	11.111187	0.000506	5.062054	1.715070	0.000203
  18	1.6915e+00	0.6706	11.554827	0.001114	11.136518	3.773155	0.000446
  19	1.7910e+00	0.7107	11.756482	0.000506	5.062054	1.715070	0.000203
  20	1.8905e+00	0.7444	12.159792	0.001012	10.124108	3.430141	0.000405
  21	1.9900e+00	0.7893	12.038799	-0.000304	-3.037232	-1.029042	-0.000122
  22	2.0895e+00	0.8358	13.006743	0.002430	24.297858	8.232337	0.000973
  23	2.1890e+00	0.8759	13.087405	0.000202	2.024822	0.686028	0.000081
  24	2.2885e+00	0.9128	13.450384	0.000911	9.111697	3.087126	0.000365
  25	2.3880e+00	0.9417	13.813363	0.000911	9.111697	3.087126	0.000365
  26	2.4875e+00	0.9882	14.498989	0.001721	17.210983	5.831239	0.000689
  27	2.5870e+00	1.0363	14.418328	-0.000202	-2.024822	-0.686028	-0.000081
  28	2.6865e+00	1.0748	14.539320	0.000304	3.037232	1.029042	0.000122
  29	2.7860e+00	1.1053	14.902299	0.000911	9.111697	3.087126	0.000365
  30	2.8855e+00	1.1406	15.507264	0.001519	15.186162	5.145211	0.000608
  31	2.9850e+00	1.1759	15.829912	0.000810	8.099286	2.744112	0.000324
  32	3.0845e+00	1.2256	16.273553	0.001114	11.136518	3.773155	0.000446
  33	3.1840e+00	1.2689	16.354215	0.000202	2.024822	0.686028	0.000081
  34	3.2835e+00	1.3074	17.039842	0.001721	17.210983	5.831239	0.000689
  35	3.3830e+00	1.3556	17.402820	0.000911	9.111697	3.087126	0.000365
  36	3.4825e+00	1.3925	17.725468	0.000810	8.099286	2.744112	0.000324
  37	3.5820e+00	1.4326	17.725468	0.000000	0.000000	0.000000	0.000000
  38	3.6815e+00	1.4695	17.644806	-0.000202	-2.024822	-0.686028	-0.000081
  39	3.7810e+00	1.5096	18.249771	0.001519	15.186162	5.145211	0.000608
  40	3.8805e+00	1.5465	18.653081	0.001012	10.124108	3.430141	0.000405
  41	3.9800e+00	1.5818	18.854736	0.000506	5.062054	1.715070	0.000203
  42	4.0795e+00	1.6203	19.419370	0.001417	14.173751	4.802197	0.000567
  43	4.1790e+00	1.6620	19.701687	0.000709	7.086875	2.401098	0.000284
  44	4.2785e+00	1.7117	20.306651	0.001519	15.186162	5.145211	0.000608
  45	4.3780e+00	1.7310	20.225989	-0.000202	-2.024822	-0.686028	-0.000081
  46	4.4775e+00	1.7839	20.911616	0.001721	17.210983	5.831239	0.000689
  47	4.5770e+00	1.8320	20.951947	0.000101	1.012411	0.343014	0.000041
  48	4.6765e+00	1.8641	21.476250	0.001316	13.161340	4.459183	0.000527
  49	4.7760e+00	1.9058	21.839229	0.000911	9.111697	3.087126	0.000365
  50	4.8755e+00	1.9459	22.121546	0.000709	7.086875	2.401098	0.000284
  51	4.9750e+00	1.9828	22.484525	0.000911	9.111697	3.087126	0.000365
  52	5.0745e+00	2.0245	22.928166	0.001114	11.136518	3.773155	0.000446
  53	5.1740e+00	2.0646	23.210482	0.000709	7.086875	2.401098	0.000284
  54	5.2735e+00	2.1031	23.533130	0.000810	8.099286	2.744112	0.000324
  55	5.3730e+00	2.1417	24.057433	0.001316	13.161340	4.459183	0.000527
  56	5.4725e+00	2.1818	23.896109	-0.000405	-4.049643	-1.372056	-0.000162
  57	5.5720e+00	2.2251	24.541405	0.001620	16.198572	5.488225	0.000649
  58	5.6715e+00	2.2668	24.944715	0.001012	10.124108	3.430141	0.000405
  59	5.7710e+00	2.3053	25.227032	0.000709	7.086875	2.401098	0.000284
  60	5.8705e+00	2.3390	25.590011	0.000911	9.111697	3.087126	0.000365
  61	5.9700e+00	2.3823	26.114313	0.001316	13.161340	4.459183	0.000527
  62	6.0695e+00	2.4304	26.638616	0.001316	13.161340	4.459183	0.000527
  63	6.1690e+00	2.4689	26.356299	-0.000709	-7.086875	-2.401098	-0.000284
  64	6.2685e+00	2.5074	26.678947	0.000810	8.099286	2.744112	0.000324
  65	6.3680e+00	2.5427	26.840271	0.000405	4.049643	1.372056	0.000162
  66	6.4675e+00	2.5812	27.485567	0.001620	16.198572	5.488225	0.000649
  67	6.5670e+00	2.6245	27.606560	0.000304	3.037232	1.029042	0.000122
  68	6.6665e+00	2.6630	28.090532	0.001215	12.148929	4.116169	0.000486
  69	6.7660e+00	2.6999	28.534173	0.001114	11.136518	3.773155	0.000446
  70	6.8655e+00	2.7400	28.776159	0.000607	6.074465	2.058084	0.000243
  71	6.9650e+00	2.7817	28.897151	0.000304	3.037232	1.029042	0.000122
  72	7.0645e+00	2.8234	29.582778	0.001721	17.210983	5.831239	0.000689
  73	7.1640e+00	2.8571	29.623109	0.000101	1.012411	0.343014	0.000041
  74	7.2635e+00	2.9005	30.026419	0.001012	10.124108	3.430141	0.000405
  75	7.3630e+00	2.9486	30.671715	0.001620	16.198572	5.488225	0.000649
  76	7.4625e+00	2.9839	30.954032	0.000709	7.086875	2.401098	0.000284
  77	7.5620e+00	3.0127	31.075025	0.000304	3.037232	1.029042	0.000122
  78	7.6615e+00	3.0673	31.760651	0.001721	17.210983	5.831239	0.000689
  79	7.7610e+00	3.1042	31.438004	-0.000810	-8.099286	-2.744112	-0.000324
  80	7.8605e+00	3.1475	32.123630	0.001721	17.210983	5.831239	0.000689
  81	7.9600e+00	3.1812	32.446278	0.000810	8.099286	2.744112	0.000324
  82	8.0595e+00	3.2213	33.131905	0.001721	17.210983	5.831239	0.000689
  83	8.1590e+00	3.2694	33.252898	0.000304	3.037232	1.029042	0.000122
  84	8.2585e+00	3.3063	33.656208	0.001012	10.124108	3.430141	0.000405
  85	8.3580e+00	3.3352	34.180511	0.001316	13.161340	4.459183	0.000527
  86	8.4575e+00	3.3641	34.261173	0.000202	2.024822	0.686028	0.000081
  87	8.5570e+00	3.4170	34.462828	0.000506	5.062054	1.715070	0.000203
  88	8.6565e+00	3.4651	34.785475	0.000810	8.099286	2.744112	0.000324
  89	8.7560e+00	3.5101	35.027461	0.000607	6.074465	2.058084	0.000243
  90	8.8555e+00	3.5357	35.390440	0.000911	9.111697	3.087126	0.000365
  91	8.9550e+00	3.5662	35.551764	0.000405	4.049643	1.372056	0.000162
  92	9.0545e+00	3.6175	35.955074	0.001012	10.124108	3.430141	0.000405
  93	9.1540e+00	3.6560	36.479377	0.001316	13.161340	4.459183	0.000527
  94	9.2535e+00	3.7090	36.923018	0.001114	11.136518	3.773155	0.000446
  95	9.3530e+00	3.7379	37.406990	0.001215	12.148929	4.116169	0.000486
  96	9.4525e+00	3.7812	37.487652	0.000202	2.024822	0.686028	0.000081
  97	9.5520e+00	3.8197	38.011954	0.001316	13.161340	4.459183	0.000527
  98	9.6515e+00	3.8630	38.132947	0.000304	3.037232	1.029042	0.000122
  99	9.7510e+00	3.8935	38.455595	0.000810	8.099286	2.744112	0.000324
 100	9.8505e+00	3.9336	38.858905	0.001012	10.124108	3.430141	0.000405
 101	9.9500e+00	3.9785	39.181553	0.000810	8.099286	2.744112	0.000324
 102	1.0050e+01	4.0106	39.423539	0.000607	6.074465	2.058084	0.000243
 103	1.0149e+01	4.0555	39.746187	0.000810	8.099286	2.744112	0.000324
 104	1.0248e+01	4.0972	40.351152	0.001519	15.186162	5.145211	0.000608
 105	1.0348e+01	4.1405	40.472144	0.000304	3.037232	1.029042	0.000122
 106	1.0447e+01	4.1838	40.673799	0.000506	5.062054	1.715070	0.000203
 107	1.0547e+01	4.2159	41.319095	0.001620	16.198572	5.488225	0.000649
 108	1.0646e+01	4.2512	41.480419	0.000405	4.049643	1.372056	0.000162
 109	1.0746e+01	4.2961	41.762736	0.000709	7.086875	2.401098	0.000284
 110	1.0845e+01	4.3443	41.319095	-0.001114	-11.136518	-3.773155	-0.000446
 111	1.0945e+01	4.3715	42.287039	0.002430	24.297858	8.232337	0.000973
 112	1.1044e+01	4.4213	42.690349	0.001012	10.124108	3.430141	0.000405
 113	1.1144e+01	4.4614	43.295313	0.001519	15.186162	5.145211	0.000608
 114	1.1243e+01	4.5015	43.012997	-0.000709	-7.086875	-2.401098	-0.000284
 115	1.1343e+01	4.5368	43.496968	0.001215	12.148929	4.116169	0.000486
 116	1.1443e+01	4.5785	44.142264	0.001620	16.198572	5.488225	0.000649
 117	1.1542e+01	4.6154	44.343919	0.000506	5.062054	1.715070	0.000203
 118	1.1642e+01	4.6619	44.827891	0.001215	12.148929	4.116169	0.000486
 119	1.1741e+01	4.6972	44.908553	0.000202	2.024822	0.686028	0.000081
 120	1.1841e+01	4.7309	45.352194	0.001114	11.136518	3.773155	0.000446
 121	1.1940e+01	4.7646	45.473187	0.000304	3.037232	1.029042	0.000122
 122	1.2040e+01	4.8159	45.795835	0.000810	8.099286	2.744112	0.000324
 123	1.2139e+01	4.8544	46.078152	0.000709	7.086875	2.401098	0.000284
 124	1.2239e+01	4.8865	46.521792	0.001114	11.136518	3.773155	0.000446
 125	1.2338e+01	4.9394	46.723447	0.000506	5.062054	1.715070	0.000203
 126	1.2438e+01	4.9747	47.167088	0.001114	11.136518	3.773155	0.000446
 127	1.2537e+01	5.0116	47.449405	0.000709	7.086875	2.401098	0.000284
 128	1.2636e+01	5.0517	47.812384	0.000911	9.111697	3.087126	0.000365
 129	1.2736e+01	5.0854	48.135032	0.000810	8.099286	2.744112	0.000324
 130	1.2835e+01	5.1351	48.256025	0.000304	3.037232	1.029042	0.000122
 131	1.2935e+01	5.1672	48.578673	0.000810	8.099286	2.744112	0.000324
 132	1.3034e+01	5.2122	49.022314	0.001114	11.136518	3.773155	0.000446
 133	1.3134e+01	5.2571	49.223968	0.000506	5.062054	1.715070	0.000203
 134	1.3233e+01	5.2956	49.667609	0.001114	11.136518	3.773155	0.000446
 135	1.3333e+01	5.3389	49.909595	0.000607	6.074465	2.058084	0.000243
 136	1.3432e+01	5.3694	50.393567	0.001215	12.148929	4.116169	0.000486
 137	1.3532e+01	5.4207	50.151581	-0.000607	-6.074465	-2.058084	-0.000243
 138	1.3632e+01	5.4464	50.675884	0.001316	13.161340	4.459183	0.000527
 139	1.3731e+01	5.4929	51.442173	0.001924	19.235805	6.517267	0.000770
 140	1.3831e+01	5.5218	51.240518	-0.000506	-5.062054	-1.715070	-0.000203
 141	1.3930e+01	5.5731	51.684159	0.001114	11.136518	3.773155	0.000446
 142	1.4030e+01	5.6100	52.127799	0.001114	11.136518	3.773155	0.000446
 143	1.4129e+01	5.6565	52.208461	0.000202	2.024822	0.686028	0.000081
 144	1.4229e+01	5.6918	52.732764	0.001316	13.161340	4.459183	0.000527
 145	1.4328e+01	5.7367	53.015081	0.000709	7.086875	2.401098	0.000284
 146	1.4428e+01	5.7720	53.418391	0.001012	10.124108	3.430141	0.000405
 147	1.4527e+01	5.8041	53.902363	0.001215	12.148929	4.116169	0.000486
 148	1.4627e+01	5.8554	53.821701	-0.000202	-2.024822	-0.686028	-0.000081
 149	1.4726e+01	5.8923	54.346004	0.001316	13.161340	4.459183	0.000527
 150	1.4825e+01	5.9341	54.386335	0.000101	1.012411	0.343014	0.000041
 151	1.4925e+01	5.9758	54.870306	0.001215	12.148929	4.116169	0.000486
 152	1.5024e+01	6.0062	54.708983	-0.000405	-4.049643	-1.372056	-0.000162
 153	1.5124e+01	6.0496	55.434940	0.001822	18.223394	6.174253	0.000730
 154	1.5223e+01	6.0865	55.757588	0.000810	8.099286	2.744112	0.000324
 155	1.5323e+01	6.1234	56.080236	0.000810	8.099286	2.744112	0.000324
 156	1.5422e+01	6.1715	56.281891	0.000506	5.062054	1.715070	0.000203
 157	1.5522e+01	6.2148	56.685201	0.001012	10.124108	3.430141	0.000405
 158	1.5621e+01	6.2453	56.806194	0.000304	3.037232	1.029042	0.000122
 159	1.5721e+01	6.2918	57.249835	0.001114	11.136518	3.773155	0.000446
 160	1.5820e+01	6.3239	57.491821	0.000607	6.074465	2.058084	0.000243
 161	1.5920e+01	6.3704	57.854799	0.000911	9.111697	3.087126	0.000365
 162	1.6020e+01	6.4105	58.217778	0.000911	9.111697	3.087126	0.000365
 163	1.6119e+01	6.4474	58.419433	0.000506	5.062054	1.715070	0.000203
 164	1.6218e+01	6.4875	58.943736	0.001316	13.161340	4.459183	0.000527
 165	1.6318e+01	6.5228	58.943736	0.000000	0.000000	0.000000	0.000000
 166	1.6418e+01	6.5693	59.589032	0.001620	16.198572	5.488225	0.000649
 167	1.6517e+01	6.6094	59.548701	-0.000101	-1.012411	-0.343014	-0.000041
 168	1.6616e+01	6.6479	59.750356	0.000506	5.062054	1.715070	0.000203
 169	1.6716e+01	6.6864	59.508370	-0.000607	-6.074465	-2.058084	-0.000243
 170	1.6816e+01	6.7282	59.669694	0.000405	4.049643	1.372056	0.000162
 171	1.6915e+01	6.7699	59.629363	-0.000101	-1.012411	-0.343014	-0.000041
 172	1.7015e+01	6.8164	60.395652	0.001924	19.235805	6.517267	0.000770
 173	1.7114e+01	6.8404	60.274659	-0.000304	-3.037232	-1.029042	-0.000122
 174	1.7213e+01	6.8854	60.395652	0.000304	3.037232	1.029042	0.000122
 175	1.7313e+01	6.9271	60.960285	0.001417	14.173751	4.802197	0.000567
 176	1.7413e+01	6.9752	61.000616	0.000101	1.012411	0.343014	0.000041
 177	1.7512e+01	7.0073	61.484588	0.001215	12.148929	4.116169	0.000486
 178	1.7611e+01	7.0490	61.766905	0.000709	7.086875	2.401098	0.000284
 179	1.7711e+01	7.0795	61.968560	0.000506	5.062054	1.715070	0.000203
 180	1.7811e+01	7.1324	61.726574	-0.000607	-6.074465	-2.058084	-0.000243
 181	1.7910e+01	7.1629	62.089553	0.000911	9.111697	3.087126	0.000365
 182	1.8009e+01	7.1982	62.291208	0.000506	5.062054	1.715070	0.000203
 183	1.8109e+01	7.2415	63.017166	0.001822	18.223394	6.174253	0.000730
 184	1.8209e+01	7.2961	62.775180	-0.000607	-6.074465	-2.058084	-0.000243
 185	1.8308e+01	7.3249	62.896173	0.000304	3.037232	1.029042	0.000122
 186	1.8407e+01	7.3650	62.734849	-0.000405	-4.049643	-1.372056	-0.000162
 187	1.8507e+01	7.4067	62.896173	0.000405	4.049643	1.372056	0.000162
 188	1.8607e+01	7.4468	63.259152	0.000911	9.111697	3.087126	0.000365
 189	1.8706e+01	7.4821	63.218821	-0.000101	-1.012411	-0.343014	-0.000041
 190	1.8805e+01	7.5271	63.178490	-0.000101	-1.012411	-0.343014	-0.000041
 191	1.8905e+01	7.5704	63.662461	0.001215	12.148929	4.116169	0.000486
 192	1.9005e+01	7.5993	63.460807	-0.000506	-5.062054	-1.715070	-0.000203
 193	1.9104e+01	7.6458	63.420476	-0.000101	-1.012411	-0.343014	-0.000041
 194	1.9203e+01	7.6795	63.581799	0.000405	4.049643	1.372056	0.000162
 195	1.9303e+01	7.7148	63.783454	0.000506	5.062054	1.715070	0.000203
 196	1.9402e+01	7.7645	64.065771	0.000709	7.086875	2.401098	0.000284
 197	1.9502e+01	7.8030	63.823785	-0.000607	-6.074465	-2.058084	-0.000243
 198	1.9602e+01	7.8399	63.823785	0.000000	0.000000	0.000000	0.000000
 199	1.9701e+01	7.8864	64.025440	0.000506	5.062054	1.715070	0.000203
 200	1.9800e+01	7.9137	63.864116	-0.000405	-4.049643	-1.372056	-0.000162
 201	1.9900e+01	7.9602	63.985109	0.000304	3.037232	1.029042	0.000122
 202	2.0000e+01	8.0035	64.993384	0.002531	25.310269	8.575351	0.001013
 203	2.0099e+01	8.0404	66.646954	0.004151	41.508841	14.063576	0.001662
 204	2.0198e+01	8.0757	68.139201	0.003746	37.459198	12.691520	0.001500
 205	2.0298e+01	8.1254	69.591116	0.003645	36.446788	12.348506	0.001459
 206	2.0398e+01	8.1463	70.317074	0.001822	18.223394	6.174253	0.000730
 207	2.0497e+01	8.1992	70.639722	0.000810	8.099286	2.744112	0.000324
 208	2.0596e+01	8.2329	70.397736	-0.000607	-6.074465	-2.058084	-0.000243
 209	2.0696e+01	8.2859	70.922039	0.001316	13.161340	4.459183	0.000527
 210	2.0796e+01	8.3196	71.123694	0.000506	5.062054	1.715070	0.000203
 211	2.0895e+01	8.3548	71.527004	0.001012	10.124108	3.430141	0.000405
 212	2.0994e+01	8.3998	71.647997	0.000304	3.037232	1.029042	0.000122
 213	2.1094e+01	8.4383	72.051307	0.001012	10.124108	3.430141	0.000405
 214	2.1194e+01	8.4768	71.970645	-0.000202	-2.024822	-0.686028	-0.000081
 215	2.1293e+01	8.5169	72.615940	0.001620	16.198572	5.488225	0.000649
 216	2.1392e+01	8.5554	73.382229	0.001924	19.235805	6.517267	0.000770
 217	2.1492e+01	8.5907	73.664546	0.000709	7.086875	2.401098	0.000284
 218	2.1591e+01	8.6308	73.906532	0.000607	6.074465	2.058084	0.000243
 219	2.1691e+01	8.6789	73.946863	0.000101	1.012411	0.343014	0.000041
 220	2.1791e+01	8.7254	74.269511	0.000810	8.099286	2.744112	0.000324
 221	2.1890e+01	8.7623	74.632490	0.000911	9.111697	3.087126	0.000365
 222	2.1989e+01	8.7976	75.277785	0.001620	16.198572	5.488225	0.000649
 223	2.2089e+01	8.8361	75.681095	0.001012	10.124108	3.430141	0.000405
 224	2.2189e+01	8.8810	75.802088	0.000304	3.037232	1.029042	0.000122
 225	2.2288e+01	8.9195	75.882750	0.000202	2.024822	0.686028	0.000081
 226	2.2387e+01	8.9532	76.205398	0.000810	8.099286	2.744112	0.000324
 227	2.2487e+01	8.9917	76.608708	0.001012	10.124108	3.430141	0.000405
 228	2.2587e+01	9.0318	76.931356	0.000810	8.099286	2.744112	0.000324
 229	2.2686e+01	9.0784	77.294335	0.000911	9.111697	3.087126	0.000365
 230	2.2785e+01	9.1265	77.173342	-0.000304	-3.037232	-1.029042	-0.000122
 231	2.2885e+01	9.1634	77.818638	0.001620	16.198572	5.488225	0.000649
 232	2.2985e+01	9.2051	77.939630	0.000304	3.037232	1.029042	0.000122
 233	2.3084e+01	9.2532	78.544595	0.001519	15.186162	5.145211	0.000608
 234	2.3183e+01	9.2757	78.705919	0.000405	4.049643	1.372056	0.000162
 235	2.3283e+01	9.3174	78.786581	0.000202	2.024822	0.686028	0.000081
 236	2.3383e+01	9.3623	78.907574	0.000304	3.037232	1.029042	0.000122
 237	2.3482e+01	9.3912	79.068898	0.000405	4.049643	1.372056	0.000162
 238	2.3581e+01	9.4345	80.036842	0.002430	24.297858	8.232337	0.000973
 239	2.3681e+01	9.4714	79.875518	-0.000405	-4.049643	-1.372056	-0.000162
 240	2.3780e+01	9.5195	80.157835	0.000709	7.086875	2.401098	0.000284
 241	2.3880e+01	9.5484	80.480483	0.000810	8.099286	2.744112	0.000324
 242	2.3980e+01	9.5997	80.601476	0.000304	3.037232	1.029042	0.000122
 243	2.4079e+01	9.6350	81.206440	0.001519	15.186162	5.145211	0.000608
 244	2.4178e+01	9.6831	81.287102	0.000202	2.024822	0.686028	0.000081
 245	2.4278e+01	9.7152	81.327433	0.000101	1.012411	0.343014	0.000041
 246	2.4378e+01	9.7521	81.892067	0.001417	14.173751	4.802197	0.000567
 247	2.4477e+01	9.7954	82.093722	0.000506	5.062054	1.715070	0.000203
 248	2.4576e+01	9.8323	82.013060	-0.000202	-2.024822	-0.686028	-0.000081
 249	2.4676e+01	9.8676	82.093722	0.000202	2.024822	0.686028	0.000081
 250	2.4776e+01	9.9206	82.860011	0.001924	19.235805	6.517267	0.000770
 251	2.4875e+01	9.9559	82.900342	0.000101	1.012411	0.343014	0.000041
 252	2.4974e+01	9.9928	82.981004	0.000202	2.024822	0.686028	0.000081
 253	2.5074e+01	10.0313	83.384314	0.001012	10.124108	3.430141	0.000405
 254	2.5174e+01	10.0714	83.747292	0.000911	9.111697	3.087126	0.000365
 255	2.5273e+01	10.1067	84.029609	0.000709	7.086875	2.401098	0.000284
 256	2.5372e+01	10.1548	84.352257	0.000810	8.099286	2.744112	0.000324
 257	2.5472e+01	10.1965	84.553912	0.000506	5.062054	1.715070	0.000203
 258	2.5572e+01	10.2286	84.473250	-0.000202	-2.024822	-0.686028	-0.000081
 259	2.5671e+01	10.2687	85.279870	0.002025	20.248215	6.860281	0.000811
 260	2.5770e+01	10.3152	85.441194	0.000405	4.049643	1.372056	0.000162
 261	2.5870e+01	10.3505	85.562187	0.000304	3.037232	1.029042	0.000122
 262	2.5970e+01	10.3746	85.804173	0.000607	6.074465	2.058084	0.000243
 263	2.6069e+01	10.4323	86.207483	0.001012	10.124108	3.430141	0.000405
 264	2.6169e+01	10.4756	86.409138	0.000506	5.062054	1.715070	0.000203
 265	2.6268e+01	10.5061	86.651123	0.000607	6.074465	2.058084	0.000243
 266	2.6367e+01	10.5478	87.054433	0.001012	10.124108	3.430141	0.000405
 267	2.6467e+01	10.5911	87.498074	0.001114	11.136518	3.773155	0.000446
 268	2.6567e+01	10.6329	87.578736	0.000202	2.024822	0.686028	0.000081
 269	2.6666e+01	10.6730	87.578736	0.000000	0.000000	0.000000	0.000000
 270	2.6765e+01	10.7099	88.183701	0.001519	15.186162	5.145211	0.000608
 271	2.6865e+01	10.7564	88.062708	-0.000304	-3.037232	-1.029042	-0.000122
 272	2.6965e+01	10.7869	88.587011	0.001316	13.161340	4.459183	0.000527
 273	2.7064e+01	10.8270	88.990321	0.001012	10.124108	3.430141	0.000405
 274	2.7163e+01	10.8751	88.990321	0.000000	0.000000	0.000000	0.000000
 275	2.7263e+01	10.9152	89.353300	0.000911	9.111697	3.087126	0.000365
 276	2.7363e+01	10.9553	89.474292	0.000304	3.037232	1.029042	0.000122
 277	2.7462e+01	10.9842	90.079257	0.001519	15.186162	5.145211	0.000608
 278	2.7561e+01	11.0307	90.079257	0.000000	0.000000	0.000000	0.000000
 279	2.7661e+01	11.0772	90.482567	0.001012	10.124108	3.430141	0.000405
 280	2.7761e+01	11.1109	90.764884	0.000709	7.086875	2.401098	0.000284
 281	2.7860e+01	11.1558	90.805215	0.000101	1.012411	0.343014	0.000041
 282	2.7959e+01	11.1959	91.087532	0.000709	7.086875	2.401098	0.000284
 283	2.8059e+01	11.2328	91.450511	0.000911	9.111697	3.087126	0.000365
 284	2.8159e+01	11.2810	91.732828	0.000709	7.086875	2.401098	0.000284
 285	2.8258e+01	11.3082	91.894152	0.000405	4.049643	1.372056	0.000162
 286	2.8358e+01	11.3499	92.378123	0.001215	12.148929	4.116169	0.000486
 287	2.8457e+01	11.3949	92.337792	-0.000101	-1.012411	-0.343014	-0.000041
 288	2.8556e+01	11.4334	92.378123	0.000101	1.012411	0.343014	0.000041
 289	2.8656e+01	11.4719	92.700771	0.000810	8.099286	2.744112	0.000324
 290	2.8756e+01	11.5007	92.902426	0.000506	5.062054	1.715070	0.000203
 291	2.8855e+01	11.5553	93.910701	0.002531	25.310269	8.575351	0.001013
 292	2.8954e+01	11.5890	93.588053	-0.000810	-8.099286	-2.744112	-0.000324
 293	2.9054e+01	11.6355	93.668715	0.000202	2.024822	0.686028	0.000081
 294	2.9154e+01	11.6676	93.951032	0.000709	7.086875	2.401098	0.000284
 295	2.9253e+01	11.7077	94.435004	0.001215	12.148929	4.116169	0.000486
 296	2.9352e+01	11.7430	94.475335	0.000101	1.012411	0.343014	0.000041
 297	2.9452e+01	11.7975	95.080300	0.001519	15.186162	5.145211	0.000608
 298	2.9552e+01	11.8280	95.201293	0.000304	3.037232	1.029042	0.000122
 299	2.9651e+01	11.8633	95.281954	0.000202	2.024822	0.686028	0.000081
 300	2.9750e+01	11.9034	95.281954	0.000000	0.000000	0.000000	0.000000
 301	2.9850e+01	11.9483	95.201293	-0.000202	-2.024822	-0.686028	-0.000081
 302	2.9950e+01	11.9884	95.644933	0.001114	11.136518	3.773155	0.000446
 303	3.0049e+01	12.0221	96.290229	0.001620	16.198572	5.488225	0.000649
 304	3.0148e+01	12.0670	96.532215	0.000607	6.074465	2.058084	0.000243
 305	3.0248e+01	12.1039	96.693539	0.000405	4.049643	1.372056	0.000162
 306	3.0348e+01	12.1424	96.733870	0.000101	1.012411	0.343014	0.000041
 307	3.0447e+01	12.1841	97.258173	0.001316	13.161340	4.459183	0.000527
 308	3.0547e+01	12.2259	97.298504	0.000101	1.012411	0.343014	0.000041
 309	3.0646e+01	12.2804	97.701814	0.001012	10.124108	3.430141	0.000405
 310	3.0745e+01	12.3029	97.984131	0.000709	7.086875	2.401098	0.000284
 311	3.0845e+01	12.3430	98.468102	0.001215	12.148929	4.116169	0.000486
 312	3.0945e+01	12.3911	98.750419	0.000709	7.086875	2.401098	0.000284
 313	3.1044e+01	12.4296	98.710088	-0.000101	-1.012411	-0.343014	-0.000041
 314	3.1143e+01	12.4665	98.629426	-0.000202	-2.024822	-0.686028	-0.000081
 315	3.1243e+01	12.5050	99.234391	0.001519	15.186162	5.145211	0.000608
 316	3.1343e+01	12.5435	99.476377	0.000607	6.074465	2.058084	0.000243
 317	3.1442e+01	12.5820	99.637701	0.000405	4.049643	1.372056	0.000162
 318	3.1541e+01	12.6269	99.758694	0.000304	3.037232	1.029042	0.000122
 319	3.1641e+01	12.6766	99.879687	0.000304	3.037232	1.029042	0.000122
 320	3.1741e+01	12.7023	100.444321	0.001417	14.173751	4.802197	0.000567
 321	3.1840e+01	12.7553	100.484652	0.000101	1.012411	0.343014	0.000041
 322	3.1939e+01	12.7857	100.766969	0.000709	7.086875	2.401098	0.000284
 323	3.2039e+01	12.8210	101.129947	0.000911	9.111697	3.087126	0.000365
 324	3.2139e+01	12.8643	101.452595	0.000810	8.099286	2.744112	0.000324
 325	3.2238e+01	12.8948	101.573588	0.000304	3.037232	1.029042	0.000122
 326	3.2337e+01	12.9397	102.097891	0.001316	13.161340	4.459183	0.000527
 327	3.2437e+01	12.9782	101.734912	-0.000911	-9.111697	-3.087126	-0.000365
 328	3.2536e+01	13.0312	102.097891	0.000911	9.111697	3.087126	0.000365
 329	3.2636e+01	13.0569	102.460870	0.000911	9.111697	3.087126	0.000365
 330	3.2736e+01	13.0921	102.783518	0.000810	8.099286	2.744112	0.000324
 331	3.2835e+01	13.1419	103.106166	0.000810	8.099286	2.744112	0.000324
 332	3.2934e+01	13.1820	102.985173	-0.000304	-3.037232	-1.029042	-0.000122
 333	3.3034e+01	13.2237	103.307821	0.000810	8.099286	2.744112	0.000324
 334	3.3133e+01	13.2590	103.509476	0.000506	5.062054	1.715070	0.000203
 335	3.3233e+01	13.2975	103.832124	0.000810	8.099286	2.744112	0.000324
 336	3.3333e+01	13.3264	104.195102	0.000911	9.111697	3.087126	0.000365
 337	3.3432e+01	13.3761	104.598412	0.001012	10.124108	3.430141	0.000405
 338	3.3532e+01	13.4226	104.759736	0.000405	4.049643	1.372056	0.000162
 339	3.3631e+01	13.4547	105.163046	0.001012	10.124108	3.430141	0.000405
 340	3.3730e+01	13.5044	105.122715	-0.000101	-1.012411	-0.343014	-0.000041
 341	3.3830e+01	13.5397	105.526025	0.001012	10.124108	3.430141	0.000405
 342	3.3929e+01	13.5798	105.324370	-0.000506	-5.062054	-1.715070	-0.000203
 343	3.4029e+01	13.6167	105.848673	0.001316	13.161340	4.459183	0.000527
 344	3.4129e+01	13.6600	105.727680	-0.000304	-3.037232	-1.029042	-0.000122
 345	3.4228e+01	13.6953	106.453638	0.001822	18.223394	6.174253	0.000730
 346	3.4328e+01	13.7403	106.735955	0.000709	7.086875	2.401098	0.000284
 347	3.4427e+01	13.7788	106.856947	0.000304	3.037232	1.029042	0.000122
 348	3.4526e+01	13.8189	106.897278	0.000101	1.012411	0.343014	0.000041
 349	3.4626e+01	13.8638	107.542574	0.001620	16.198572	5.488225	0.000649
 350	3.4725e+01	13.8927	107.260257	-0.000709	-7.086875	-2.401098	-0.000284
 351	3.4825e+01	13.9360	107.623236	0.000911	9.111697	3.087126	0.000365
 352	3.4925e+01	13.9777	107.986215	0.000911	9.111697	3.087126	0.000365
 353	3.5024e+01	14.0194	107.824891	-0.000405	-4.049643	-1.372056	-0.000162
 354	3.5123e+01	14.0515	108.228201	0.001012	10.124108	3.430141	0.000405
 355	3.5223e+01	14.0964	108.429856	0.000506	5.062054	1.715070	0.000203
 356	3.5322e+01	14.1381	108.591180	0.000405	4.049643	1.372056	0.000162
 357	3.5422e+01	14.1734	108.792835	0.000506	5.062054	1.715070	0.000203
 358	3.5522e+01	14.2151	109.236476	0.001114	11.136518	3.773155	0.000446
 359	3.5621e+01	14.2584	109.438131	0.000506	5.062054	1.715070	0.000203
 360	3.5721e+01	14.2969	109.639786	0.000506	5.062054	1.715070	0.000203
 361	3.5820e+01	14.3370	109.639786	0.000000	0.000000	0.000000	0.000000
 362	3.5919e+01	14.3723	109.962433	0.000810	8.099286	2.744112	0.000324
 363	3.6019e+01	14.4140	110.285081	0.000810	8.099286	2.744112	0.000324
 364	3.6118e+01	14.4606	110.446405	0.000405	4.049643	1.372056	0.000162
 365	3.6218e+01	14.4878	110.527067	0.000202	2.024822	0.686028	0.000081
 366	3.6318e+01	14.5408	111.051370	0.001316	13.161340	4.459183	0.000527
 367	3.6417e+01	14.5729	111.172363	0.000304	3.037232	1.029042	0.000122
 368	3.6517e+01	14.6242	111.495011	0.000810	8.099286	2.744112	0.000324
 369	3.6616e+01	14.6515	112.059645	0.001417	14.173751	4.802197	0.000567
 370	3.6715e+01	14.6932	112.099976	0.000101	1.012411	0.343014	0.000041
 371	3.6815e+01	14.7349	112.099976	0.000000	0.000000	0.000000	0.000000
 372	3.6914e+01	14.7734	112.220969	0.000304	3.037232	1.029042	0.000122
 373	3.7014e+01	14.8167	112.341962	0.000304	3.037232	1.029042	0.000122
 374	3.7114e+01	14.8568	113.269574	0.002329	23.285448	7.889323	0.000932
 375	3.7213e+01	14.8953	113.148581	-0.000304	-3.037232	-1.029042	-0.000122
 376	3.7313e+01	14.9322	112.987257	-0.000405	-4.049643	-1.372056	-0.000162
 377	3.7412e+01	14.9691	113.471229	0.001215	12.148929	4.116169	0.000486
 378	3.7511e+01	15.0060	113.672884	0.000506	5.062054	1.715070	0.000203
 379	3.7611e+01	15.0589	113.874539	0.000506	5.062054	1.715070	0.000203
 380	3.7711e+01	15.0926	113.995532	0.000304	3.037232	1.029042	0.000122
 381	3.7810e+01	15.1359	114.398842	0.001012	10.124108	3.430141	0.000405
 382	3.7910e+01	15.1712	114.519835	0.000304	3.037232	1.029042	0.000122
 383	3.8009e+01	15.2113	115.003807	0.001215	12.148929	4.116169	0.000486
 384	3.8108e+01	15.2530	114.842483	-0.000405	-4.049643	-1.372056	-0.000162
 385	3.8208e+01	15.2996	114.842483	0.000000	0.000000	0.000000	0.000000
 386	3.8307e+01	15.3204	115.407117	0.001417	14.173751	4.802197	0.000567
 387	3.8407e+01	15.3750	115.689433	0.000709	7.086875	2.401098	0.000284
 388	3.8507e+01	15.4054	115.891088	0.000506	5.062054	1.715070	0.000203
 389	3.8606e+01	15.4552	115.971750	0.000202	2.024822	0.686028	0.000081
 390	3.8706e+01	15.4808	116.576715	0.001519	15.186162	5.145211	0.000608
 391	3.8805e+01	15.5338	116.334729	-0.000607	-6.074465	-2.058084	-0.000243
 392	3.8904e+01	15.5723	116.738039	0.001012	10.124108	3.430141	0.000405
 393	3.9004e+01	15.6124	116.778370	0.000101	1.012411	0.343014	0.000041
 394	3.9103e+01	15.6573	116.818701	0.000101	1.012411	0.343014	0.000041
 395	3.9203e+01	15.6846	117.423666	0.001519	15.186162	5.145211	0.000608
 396	3.9303e+01	15.7311	117.584990	0.000405	4.049643	1.372056	0.000162
 397	3.9402e+01	15.7664	117.988300	0.001012	10.124108	3.430141	0.000405
 398	3.9502e+01	15.8081	118.230286	0.000607	6.074465	2.058084	0.000243
 399	3.9601e+01	15.8514	118.431940	0.000506	5.062054	1.715070	0.000203
 400	3.9700e+01	15.8883	118.714257	0.000709	7.086875	2.401098	0.000284
 401	3.9800e+01	15.9397	118.875581	0.000405	4.049643	1.372056	0.000162
 402	3.9900e+01	15.9701	118.835250	-0.000101	-1.012411	-0.343014	-0.000041
 403	3.9999e+01	16.0151	118.956243	0.000304	3.037232	1.029042	0.000122
 404	4.0099e+01	16.0536	119.157898	0.000506	5.062054	1.715070	0.000203
 405	4.0198e+01	16.0953	119.682201	0.001316	13.161340	4.459183	0.000527
 406	4.0297e+01	16.1322	120.125842	0.001114	11.136518	3.773155	0.000446
 407	4.0397e+01	16.1610	120.085511	-0.000101	-1.012411	-0.343014	-0.000041
 408	4.0496e+01	16.2028	120.488821	0.001012	10.124108	3.430141	0.000405
 409	4.0596e+01	16.2380	120.609814	0.000304	3.037232	1.029042	0.000122
 410	4.0696e+01	16.2894	120.609814	0.000000	0.000000	0.000000	0.000000
 411	4.0795e+01	16.3215	120.730807	0.000304	3.037232	1.029042	0.000122
 412	4.0895e+01	16.3680	121.174448	0.001114	11.136518	3.773155	0.000446
 413	4.0994e+01	16.4081	121.698750	0.001316	13.161340	4.459183	0.000527
 414	4.1093e+01	16.4482	121.698750	0.000000	0.000000	0.000000	0.000000
 415	4.1193e+01	16.4851	121.698750	0.000000	0.000000	0.000000	0.000000
 416	4.1292e+01	16.5316	122.021398	0.000810	8.099286	2.744112	0.000324
 417	4.1392e+01	16.5685	122.102060	0.000202	2.024822	0.686028	0.000081
 418	4.1492e+01	16.6102	122.102060	0.000000	0.000000	0.000000	0.000000
 419	4.1591e+01	16.6487	122.465039	0.000911	9.111697	3.087126	0.000365
 420	4.1691e+01	16.6888	122.868349	0.001012	10.124108	3.430141	0.000405
 421	4.1790e+01	16.7225	123.110335	0.000607	6.074465	2.058084	0.000243
 422	4.1889e+01	16.7610	123.190997	0.000202	2.024822	0.686028	0.000081
 423	4.1989e+01	16.8075	123.553976	0.000911	9.111697	3.087126	0.000365
 424	4.2089e+01	16.8396	123.392652	-0.000405	-4.049643	-1.372056	-0.000162
 425	4.2188e+01	16.8797	123.876624	0.001215	12.148929	4.116169	0.000486
 426	4.2288e+01	16.9214	123.916955	0.000101	1.012411	0.343014	0.000041
 427	4.2387e+01	16.9648	124.400926	0.001215	12.148929	4.116169	0.000486
 428	4.2486e+01	17.0049	124.925229	0.001316	13.161340	4.459183	0.000527
 429	4.2586e+01	17.0450	124.884898	-0.000101	-1.012411	-0.343014	-0.000041
 430	4.2685e+01	17.0899	125.288208	0.001012	10.124108	3.430141	0.000405
 431	4.2785e+01	17.1252	125.086553	-0.000506	-5.062054	-1.715070	-0.000203
 432	4.2885e+01	17.1733	125.772180	0.001721	17.210983	5.831239	0.000689
 433	4.2984e+01	17.2134	125.973835	0.000506	5.062054	1.715070	0.000203
 434	4.3084e+01	17.2439	125.812511	-0.000405	-4.049643	-1.372056	-0.000162
 435	4.3183e+01	17.2904	126.135159	0.000810	8.099286	2.744112	0.000324
 436	4.3282e+01	17.3257	125.812511	-0.000810	-8.099286	-2.744112	-0.000324
 437	4.3382e+01	17.3514	126.094828	0.000709	7.086875	2.401098	0.000284
 438	4.3481e+01	17.3963	126.498138	0.001012	10.124108	3.430141	0.000405
 439	4.3581e+01	17.4428	126.901448	0.001012	10.124108	3.430141	0.000405
 440	4.3681e+01	17.4877	127.022440	0.000304	3.037232	1.029042	0.000122
 441	4.3780e+01	17.5230	127.466081	0.001114	11.136518	3.773155	0.000446
 442	4.3880e+01	17.5599	127.546743	0.000202	2.024822	0.686028	0.000081
 443	4.3979e+01	17.6065	127.950053	0.001012	10.124108	3.430141	0.000405
 444	4.4078e+01	17.6450	128.313032	0.000911	9.111697	3.087126	0.000365
 445	4.4178e+01	17.6883	127.990384	-0.000810	-8.099286	-2.744112	-0.000324
 446	4.4278e+01	17.7188	128.393694	0.001012	10.124108	3.430141	0.000405
 447	4.4377e+01	17.7685	128.877666	0.001215	12.148929	4.116169	0.000486
 448	4.4477e+01	17.7974	128.756673	-0.000304	-3.037232	-1.029042	-0.000122
 449	4.4576e+01	17.8455	129.119652	0.000911	9.111697	3.087126	0.000365
 450	4.4675e+01	17.8824	129.240645	0.000304	3.037232	1.029042	0.000122
 451	4.4775e+01	17.9129	129.563293	0.000810	8.099286	2.744112	0.000324
 452	4.4874e+01	17.9594	129.724617	0.000405	4.049643	1.372056	0.000162
 453	4.4974e+01	17.9963	129.563293	-0.000405	-4.049643	-1.372056	-0.000162
 454	4.5074e+01	18.0508	130.168257	0.001519	15.186162	5.145211	0.000608
 455	4.5173e+01	18.0797	130.531236	0.000911	9.111697	3.087126	0.000365
 456	4.5273e+01	18.1246	130.813553	0.000709	7.086875	2.401098	0.000284
 457	4.5372e+01	18.1567	131.378187	0.001417	14.173751	4.802197	0.000567
 458	4.5471e+01	18.2080	131.136201	-0.000607	-6.074465	-2.058084	-0.000243
 459	4.5571e+01	18.2385	131.095870	-0.000101	-1.012411	-0.343014	-0.000041
 460	4.5670e+01	18.2802	131.257194	0.000405	4.049643	1.372056	0.000162
 461	4.5770e+01	18.3316	131.418518	0.000405	4.049643	1.372056	0.000162
 462	4.5870e+01	18.3653	131.862159	0.001114	11.136518	3.773155	0.000446
 463	4.5969e+01	18.3989	132.225138	0.000911	9.111697	3.087126	0.000365
 464	4.6069e+01	18.4407	132.426793	0.000506	5.062054	1.715070	0.000203
 465	4.6168e+01	18.4792	132.507455	0.000202	2.024822	0.686028	0.000081
 466	4.6267e+01	18.5225	132.426793	-0.000202	-2.024822	-0.686028	-0.000081
 467	4.6367e+01	18.5546	132.951095	0.001316	13.161340	4.459183	0.000527
 468	4.6467e+01	18.5931	133.031757	0.000202	2.024822	0.686028	0.000081
 469	4.6566e+01	18.6380	133.193081	0.000405	4.049643	1.372056	0.000162
 470	4.6666e+01	18.6925	133.435067	0.000607	6.074465	2.058084	0.000243
 471	4.6765e+01	18.7198	133.798046	0.000911	9.111697	3.087126	0.000365
 472	4.6864e+01	18.7535	133.798046	0.000000	0.000000	0.000000	0.000000
 473	4.6964e+01	18.8000	134.362680	0.001417	14.173751	4.802197	0.000567
 474	4.7063e+01	18.8401	134.322349	-0.000101	-1.012411	-0.343014	-0.000041
 475	4.7163e+01	18.8706	134.483673	0.000405	4.049643	1.372056	0.000162
 476	4.7263e+01	18.9139	135.169300	0.001721	17.210983	5.831239	0.000689
 477	4.7362e+01	18.9572	134.886983	-0.000709	-7.086875	-2.401098	-0.000284
 478	4.7462e+01	18.9941	135.370955	0.001215	12.148929	4.116169	0.000486
 479	4.7561e+01	19.0294	135.088638	-0.000709	-7.086875	-2.401098	-0.000284
 480	4.7660e+01	19.0743	135.653271	0.001417	14.173751	4.802197	0.000567
 481	4.7760e+01	19.1128	135.895257	0.000607	6.074465	2.058084	0.000243
 482	4.7859e+01	19.1481	135.895257	0.000000	0.000000	0.000000	0.000000
 483	4.7959e+01	19.1946	136.379229	0.001215	12.148929	4.116169	0.000486
 484	4.8059e+01	19.2348	136.379229	0.000000	0.000000	0.000000	0.000000
 485	4.8158e+01	19.2861	136.943863	0.001417	14.173751	4.802197	0.000567
 486	4.8258e+01	19.3166	136.863201	-0.000202	-2.024822	-0.686028	-0.000081
 487	4.8357e+01	19.3535	136.822870	-0.000101	-1.012411	-0.343014	-0.000041
 488	4.8456e+01	19.4000	137.266511	0.001114	11.136518	3.773155	0.000446
 489	4.8556e+01	19.4385	137.548828	0.000709	7.086875	2.401098	0.000284
 490	4.8656e+01	19.4834	137.790814	0.000607	6.074465	2.058084	0.000243
 491	4.8755e+01	19.5187	137.629490	-0.000405	-4.049643	-1.372056	-0.000162
 492	4.8855e+01	19.5588	138.194124	0.001417	14.173751	4.802197	0.000567
 493	4.8954e+01	19.5989	138.355448	0.000405	4.049643	1.372056	0.000162
 494	4.9053e+01	19.6390	138.557102	0.000506	5.062054	1.715070	0.000203
 495	4.9153e+01	19.6775	139.000743	0.001114	11.136518	3.773155	0.000446
 496	4.9252e+01	19.7160	139.041074	0.000101	1.012411	0.343014	0.000041
 497	4.9352e+01	19.7674	139.000743	-0.000101	-1.012411	-0.343014	-0.000041
 498	4.9452e+01	19.7978	139.565377	0.001417	14.173751	4.802197	0.000567
 499	4.9551e+01	19.8315	139.686370	0.000304	3.037232	1.029042	0.000122
 500	4.9651e+01	19.8732	139.928356	0.000607	6.074465	2.058084	0.000243
 501	4.9750e+01	19.9166	140.291335	0.000911	9.111697	3.087126	0.000365
 502	4.9849e+01	19.9486	140.331666	0.000101	1.012411	0.343014	0.000041
 503	4.9949e+01	19.9903	140.412328	0.000202	2.024822	0.686028	0.000081
 504	5.0048e+01	19.9583	140.049349	0.000911	9.111697	3.087126	-0.000365
 505	5.0148e+01	19.9101	140.492990	-0.001114	-11.136518	-3.773155	0.000446
 506	5.0248e+01	19.8764	140.049349	0.001114	11.136518	3.773155	-0.000446
 507	5.0347e+01	19.8331	139.686370	0.000911	9.111697	3.087126	-0.000365
 508	5.0447e+01	19.7978	139.605708	0.000202	2.024822	0.686028	-0.000081
 509	5.0546e+01	19.7609	139.646039	-0.000101	-1.012411	-0.343014	0.000041
 510	5.0645e+01	19.7208	139.525046	0.000304	3.037232	1.029042	-0.000122
 511	5.0745e+01	19.6775	139.000743	0.001316	13.161340	4.459183	-0.000527
 512	5.0844e+01	19.6358	138.920081	0.000202	2.024822	0.686028	-0.000081
 513	5.0944e+01	19.5957	138.920081	-0.000000	-0.000000	-0.000000	0.000000
 514	5.1044e+01	19.5556	138.920081	-0.000000	-0.000000	-0.000000	0.000000
 515	5.1143e+01	19.5107	138.315117	0.001519	15.186162	5.145211	-0.000608
 516	5.1242e+01	19.4770	138.395779	-0.000202	-2.024822	-0.686028	0.000081
 517	5.1342e+01	19.4321	138.355448	0.000101	1.012411	0.343014	-0.000041
 518	5.1441e+01	19.3968	138.436110	-0.000202	-2.024822	-0.686028	0.000081
 519	5.1541e+01	19.3487	138.234455	0.000506	5.062054	1.715070	-0.000203
 520	5.1641e+01	19.3198	137.669821	0.001417	14.173751	4.802197	-0.000567
 521	5.1740e+01	19.2813	138.113462	-0.001114	-11.136518	-3.773155	0.000446
 522	5.1840e+01	19.2348	137.710152	0.001012	10.124108	3.430141	-0.000405
 523	5.1939e+01	19.1898	137.629490	0.000202	2.024822	0.686028	-0.000081
 524	5.2038e+01	19.1626	137.952138	-0.000810	-8.099286	-2.744112	0.000324
 525	5.2138e+01	19.1128	137.629490	0.000810	8.099286	2.744112	-0.000324
 526	5.2237e+01	19.0775	136.903532	0.001822	18.223394	6.174253	-0.000730
 527	5.2337e+01	19.0358	136.782539	0.000304	3.037232	1.029042	-0.000122
 528	5.2437e+01	19.0053	136.984194	-0.000506	-5.062054	-1.715070	0.000203
 529	5.2536e+01	18.9540	136.984194	-0.000000	-0.000000	-0.000000	0.000000
 530	5.2636e+01	18.9187	136.822870	0.000405	4.049643	1.372056	-0.000162
 531	5.2735e+01	18.8802	136.661546	0.000405	4.049643	1.372056	-0.000162
 532	5.2834e+01	18.8401	136.298567	0.000911	9.111697	3.087126	-0.000365
 533	5.2934e+01	18.7984	136.217905	0.000202	2.024822	0.686028	-0.000081
 534	5.3033e+01	18.7551	135.895257	0.000810	8.099286	2.744112	-0.000324
 535	5.3133e+01	18.7150	135.572610	0.000810	8.099286	2.744112	-0.000324
 536	5.3233e+01	18.6733	135.653271	-0.000202	-2.024822	-0.686028	0.000081
 537	5.3332e+01	18.6348	135.451617	0.000506	5.062054	1.715070	-0.000203
 538	5.3431e+01	18.6043	135.330624	0.000304	3.037232	1.029042	-0.000122
 539	5.3531e+01	18.5626	135.048307	0.000709	7.086875	2.401098	-0.000284
 540	5.3630e+01	18.5177	134.927314	0.000304	3.037232	1.029042	-0.000122
 541	5.3730e+01	18.4872	134.806321	0.000304	3.037232	1.029042	-0.000122
 542	5.3830e+01	18.4439	134.362680	0.001114	11.136518	3.773155	-0.000446
 543	5.3929e+01	18.3973	134.524004	-0.000405	-4.049643	-1.372056	0.000162
 544	5.4029e+01	18.3588	134.604666	-0.000202	-2.024822	-0.686028	0.000081
 545	5.4128e+01	18.3252	134.241687	0.000911	9.111697	3.087126	-0.000365
 546	5.4227e+01	18.2866	133.999701	0.000607	6.074465	2.058084	-0.000243
 547	5.4327e+01	18.2369	133.717384	0.000709	7.086875	2.401098	-0.000284
 548	5.4426e+01	18.2032	133.636722	0.000202	2.024822	0.686028	-0.000081
 549	5.4526e+01	18.1663	133.556060	0.000202	2.024822	0.686028	-0.000081
 550	5.4626e+01	18.1166	133.031757	0.001316	13.161340	4.459183	-0.000527
 551	5.4725e+01	18.0797	133.394736	-0.000911	-9.111697	-3.087126	0.000365
 552	5.4825e+01	18.0412	132.709110	0.001721	17.210983	5.831239	-0.000689
 553	5.4924e+01	18.0027	132.588117	0.000304	3.037232	1.029042	-0.000122
 554	5.5023e+01	17.9690	132.588117	-0.000000	-0.000000	-0.000000	0.000000
 555	5.5123e+01	17.9209	132.749440	-0.000405	-4.049643	-1.372056	0.000162
 556	5.5222e+01	17.8792	132.265469	0.001215	12.148929	4.116169	-0.000486
 557	5.5322e+01	17.8439	132.346131	-0.000202	-2.024822	-0.686028	0.000081
 558	5.5422e+01	17.8070	132.063814	0.000709	7.086875	2.401098	-0.000284
 559	5.5521e+01	17.7621	131.902490	0.000405	4.049643	1.372056	-0.000162
 560	5.5620e+01	17.7188	131.257194	0.001620	16.198572	5.488225	-0.000649
 561	5.5720e+01	17.6883	131.781497	-0.001316	-13.161340	-4.459183	0.000527
 562	5.5819e+01	17.6385	131.499180	0.000709	7.086875	2.401098	-0.000284
 563	5.5919e+01	17.5968	131.257194	0.000607	6.074465	2.058084	-0.000243
 564	5.6019e+01	17.5615	131.257194	-0.000000	-0.000000	-0.000000	0.000000
 565	5.6118e+01	17.5311	130.773222	0.001215	12.148929	4.116169	-0.000486
 566	5.6218e+01	17.4845	130.894215	-0.000304	-3.037232	-1.029042	0.000122
 567	5.6317e+01	17.4380	130.611898	0.000709	7.086875	2.401098	-0.000284
 568	5.6416e+01	17.4075	130.611898	-0.000000	-0.000000	-0.000000	0.000000
 569	5.6516e+01	17.3610	130.289250	0.000810	8.099286	2.744112	-0.000324
 570	5.6615e+01	17.3273	130.127926	0.000405	4.049643	1.372056	-0.000162
 571	5.6715e+01	17.2792	129.724617	0.001012	10.124108	3.430141	-0.000405
 572	5.6815e+01	17.2487	129.724617	-0.000000	-0.000000	-0.000000	0.000000
 573	5.6914e+01	17.2134	129.361638	0.000911	9.111697	3.087126	-0.000365
 574	5.7014e+01	17.1605	129.280976	0.000202	2.024822	0.686028	-0.000081
 575	5.7113e+01	17.1172	129.240645	0.000101	1.012411	0.343014	-0.000041
 576	5.7212e+01	17.0915	129.038990	0.000506	5.062054	1.715070	-0.000203
 577	5.7312e+01	17.0530	128.877666	0.000405	4.049643	1.372056	-0.000162
 578	5.7411e+01	17.0113	128.353363	0.001316	13.161340	4.459183	-0.000527
 579	5.7511e+01	16.9583	128.555018	-0.000506	-5.062054	-1.715070	0.000203
 580	5.7611e+01	16.9182	128.434025	0.000304	3.037232	1.029042	-0.000122
 581	5.7710e+01	16.8878	127.909722	0.001316	13.161340	4.459183	-0.000527
 582	5.7809e+01	16.8477	127.788729	0.000304	3.037232	1.029042	-0.000122
 583	5.7909e+01	16.8124	127.829060	-0.000101	-1.012411	-0.343014	0.000041
 584	5.8008e+01	16.7706	127.587074	0.000607	6.074465	2.058084	-0.000243
 585	5.8108e+01	16.7273	127.304757	0.000709	7.086875	2.401098	-0.000284
 586	5.8208e+01	16.6856	127.345088	-0.000101	-1.012411	-0.343014	0.000041
 587	5.8307e+01	16.6439	127.183764	0.000405	4.049643	1.372056	-0.000162
 588	5.8407e+01	16.6199	126.578800	0.001519	15.186162	5.145211	-0.000608
 589	5.8506e+01	16.5685	126.740124	-0.000405	-4.049643	-1.372056	0.000162
 590	5.8605e+01	16.5284	126.377145	0.000911	9.111697	3.087126	-0.000365
 591	5.8705e+01	16.4899	126.175490	0.000506	5.062054	1.715070	-0.000203
 592	5.8804e+01	16.4450	126.175490	-0.000000	-0.000000	-0.000000	0.000000
 593	5.8904e+01	16.4033	125.772180	0.001012	10.124108	3.430141	-0.000405
 594	5.9004e+01	16.3664	125.247877	0.001316	13.161340	4.459183	-0.000527
 595	5.9103e+01	16.3215	125.772180	-0.001316	-13.161340	-4.459183	0.000527
 596	5.9203e+01	16.2894	125.288208	0.001215	12.148929	4.116169	-0.000486
 597	5.9302e+01	16.2509	125.247877	0.000101	1.012411	0.343014	-0.000041
 598	5.9401e+01	16.2060	125.368870	-0.000304	-3.037232	-1.029042	0.000122
 599	5.9501e+01	16.1659	124.804236	0.001417	14.173751	4.802197	-0.000567
 600	5.9600e+01	16.1290	124.521919	0.000709	7.086875	2.401098	-0.000284
 601	5.9700e+01	16.0921	124.844567	-0.000810	-8.099286	-2.744112	0.000324
 602	5.9800e+01	16.0536	124.400926	0.001114	11.136518	3.773155	-0.000446
 603	5.9899e+01	16.0151	124.400926	-0.000000	-0.000000	-0.000000	0.000000
 604	5.9998e+01	15.9750	124.279933	0.000304	3.037232	1.029042	-0.000122
 605	6.0098e+01	15.9397	123.594307	0.001721	17.210983	5.831239	-0.000689
 606	6.0197e+01	15.8931	123.755631	-0.000405	-4.049643	-1.372056	0.000162
 607	6.0297e+01	15.8482	123.513645	0.000607	6.074465	2.058084	-0.000243
 608	6.0397e+01	15.8081	123.311990	0.000506	5.062054	1.715070	-0.000203
 609	6.0496e+01	15.7760	122.908680	0.001012	10.124108	3.430141	-0.000405
 610	6.0596e+01	15.7391	122.828018	0.000202	2.024822	0.686028	-0.000081
 611	6.0695e+01	15.6910	122.828018	-0.000000	-0.000000	-0.000000	0.000000
 612	6.0794e+01	15.6557	122.505370	0.000810	8.099286	2.744112	-0.000324
 613	6.0894e+01	15.6044	122.303715	0.000506	5.062054	1.715070	-0.000203
 614	6.0993e+01	15.5755	122.142391	0.000405	4.049643	1.372056	-0.000162
 615	6.1093e+01	15.5354	121.940736	0.000506	5.062054	1.715070	-0.000203
 616	6.1193e+01	15.4776	121.779412	0.000405	4.049643	1.372056	-0.000162
 617	6.1292e+01	15.4552	121.981067	-0.000506	-5.062054	-1.715070	0.000203
 618	6.1392e+01	15.4151	121.698750	0.000709	7.086875	2.401098	-0.000284
 619	6.1491e+01	15.3653	121.658419	0.000101	1.012411	0.343014	-0.000041
 620	6.1590e+01	15.3365	120.892131	0.001924	19.235805	6.517267	-0.000770
 621	6.1690e+01	15.2883	121.214778	-0.000810	-8.099286	-2.744112	0.000324
 622	6.1789e+01	15.2611	120.811469	0.001012	10.124108	3.430141	-0.000405
 623	6.1889e+01	15.2145	121.013124	-0.000506	-5.062054	-1.715070	0.000203
 624	6.1989e+01	15.1728	120.448490	0.001417	14.173751	4.802197	-0.000567
 625	6.2088e+01	15.1343	119.964518	0.001215	12.148929	4.116169	-0.000486
 626	6.2188e+01	15.0910	120.367828	-0.001012	-10.124108	-3.430141	0.000405
 627	6.2287e+01	15.0493	120.166173	0.000506	5.062054	1.715070	-0.000203
 628	6.2386e+01	15.0108	119.682201	0.001215	12.148929	4.116169	-0.000486
 629	6.2486e+01	14.9739	119.682201	-0.000000	-0.000000	-0.000000	0.000000
 630	6.2586e+01	14.9322	119.440215	0.000607	6.074465	2.058084	-0.000243
 631	6.2685e+01	14.8841	119.520877	-0.000202	-2.024822	-0.686028	0.000081
 632	6.2785e+01	14.8584	118.996574	0.001316	13.161340	4.459183	-0.000527
 633	6.2884e+01	14.8167	119.117567	-0.000304	-3.037232	-1.029042	0.000122
 634	6.2983e+01	14.7686	118.593264	0.001316	13.161340	4.459183	-0.000527
 635	6.3083e+01	14.7381	118.714257	-0.000304	-3.037232	-1.029042	0.000122
 636	6.3182e+01	14.6948	118.472271	0.000607	6.074465	2.058084	-0.000243
 637	6.3282e+01	14.6531	117.947969	0.001316	13.161340	4.459183	-0.000527
 638	6.3382e+01	14.6081	117.705983	0.000607	6.074465	2.058084	-0.000243
 639	6.3481e+01	14.5648	117.826976	-0.000304	-3.037232	-1.029042	0.000122
 640	6.3581e+01	14.5360	117.544659	0.000709	7.086875	2.401098	-0.000284
 641	6.3680e+01	14.4894	117.020356	0.001316	13.161340	4.459183	-0.000527
 642	6.3779e+01	14.4638	116.859032	0.000405	4.049643	1.372056	-0.000162
 643	6.3879e+01	14.4124	116.899363	-0.000101	-1.012411	-0.343014	0.000041
 644	6.3978e+01	14.3771	116.818701	0.000202	2.024822	0.686028	-0.000081
 645	6.4078e+01	14.3386	116.334729	0.001215	12.148929	4.116169	-0.000486
 646	6.4177e+01	14.2969	116.375060	-0.000101	-1.012411	-0.343014	0.000041
 647	6.4277e+01	14.2552	116.133074	0.000607	6.074465	2.058084	-0.000243
 648	6.4376e+01	14.2135	115.971750	0.000405	4.049643	1.372056	-0.000162
 649	6.4476e+01	14.1718	115.810426	0.000405	4.049643	1.372056	-0.000162
 650	6.4576e+01	14.1317	115.689433	0.000304	3.037232	1.029042	-0.000122
 651	6.4675e+01	14.0932	115.366786	0.000810	8.099286	2.744112	-0.000324
 652	6.4775e+01	14.0547	115.084469	0.000709	7.086875	2.401098	-0.000284
 653	6.4874e+01	14.0178	115.447447	-0.000911	-9.111697	-3.087126	0.000365
 654	6.4974e+01	13.9825	114.721490	0.001822	18.223394	6.174253	-0.000730
 655	6.5073e+01	13.9408	114.923145	-0.000506	-5.062054	-1.715070	0.000203
 656	6.5172e+01	13.8927	114.277849	0.001620	16.198572	5.488225	-0.000649
 657	6.5272e+01	13.8509	114.277849	-0.000000	-0.000000	-0.000000	0.000000
 658	6.5371e+01	13.8189	113.955201	0.000810	8.099286	2.744112	-0.000324
 659	6.5471e+01	13.7739	114.076194	-0.000304	-3.037232	-1.029042	0.000122
 660	6.5570e+01	13.7386	113.753546	0.000810	8.099286	2.744112	-0.000324
 661	6.5670e+01	13.6921	113.430898	0.000810	8.099286	2.744112	-0.000324
 662	6.5769e+01	13.6584	113.188912	0.000607	6.074465	2.058084	-0.000243
 663	6.5869e+01	13.6199	112.866264	0.000810	8.099286	2.744112	-0.000324
 664	6.5969e+01	13.5814	112.987257	-0.000304	-3.037232	-1.029042	0.000122
 665	6.6068e+01	13.5397	113.148581	-0.000405	-4.049643	-1.372056	0.000162
 666	6.6168e+01	13.4964	112.422624	0.001822	18.223394	6.174253	-0.000730
 667	6.6267e+01	13.4707	112.906595	-0.001215	-12.148929	-4.116169	0.000486
 668	6.6367e+01	13.4162	111.736997	0.002936	29.359912	9.947408	-0.001175
 669	6.6466e+01	13.3889	111.857990	-0.000304	-3.037232	-1.029042	0.000122
 670	6.6566e+01	13.3408	111.535342	0.000810	8.099286	2.744112	-0.000324
 671	6.6665e+01	13.3039	111.535342	-0.000000	-0.000000	-0.000000	0.000000
 672	6.6764e+01	13.2494	111.454680	0.000202	2.024822	0.686028	-0.000081
 673	6.6864e+01	13.2173	111.293356	0.000405	4.049643	1.372056	-0.000162
 674	6.6963e+01	13.1836	110.849715	0.001114	11.136518	3.773155	-0.000446
 675	6.7063e+01	13.1290	110.567398	0.000709	7.086875	2.401098	-0.000284
 676	6.7162e+01	13.0954	110.567398	-0.000000	-0.000000	-0.000000	0.000000
 677	6.7262e+01	13.0713	110.607729	-0.000101	-1.012411	-0.343014	0.000041
 678	6.7362e+01	13.0280	110.204419	0.001012	10.124108	3.430141	-0.000405
 679	6.7461e+01	12.9702	110.002764	0.000506	5.062054	1.715070	-0.000203
 680	6.7561e+01	12.9413	109.720447	0.000709	7.086875	2.401098	-0.000284
 681	6.7660e+01	12.9028	109.478462	0.000607	6.074465	2.058084	-0.000243
 682	6.7760e+01	12.8692	109.397800	0.000202	2.024822	0.686028	-0.000081
 683	6.7859e+01	12.8210	109.397800	-0.000000	-0.000000	-0.000000	0.000000
 684	6.7959e+01	12.7873	108.913828	0.001215	12.148929	4.116169	-0.000486
 685	6.8058e+01	12.7488	108.752504	0.000405	4.049643	1.372056	-0.000162
 686	6.8157e+01	12.7039	109.155814	-0.001012	-10.124108	-3.430141	0.000405
 687	6.8257e+01	12.6622	108.308863	0.002126	21.260626	7.203295	-0.000851
 688	6.8356e+01	12.6285	108.349194	-0.000101	-1.012411	-0.343014	0.000041
 689	6.8456e+01	12.5804	107.865222	0.001215	12.148929	4.116169	-0.000486
 690	6.8555e+01	12.5499	108.228201	-0.000911	-9.111697	-3.087126	0.000365
 691	6.8655e+01	12.5034	107.300588	0.002329	23.285448	7.889323	-0.000932
 692	6.8754e+01	12.4665	107.381250	-0.000202	-2.024822	-0.686028	0.000081
 693	6.8854e+01	12.4216	107.058602	0.000810	8.099286	2.744112	-0.000324
 694	6.8954e+01	12.3895	107.300588	-0.000607	-6.074465	-2.058084	0.000243
 695	6.9053e+01	12.3558	106.776285	0.001316	13.161340	4.459183	-0.000527
 696	6.9153e+01	12.3013	106.816616	-0.000101	-1.012411	-0.343014	0.000041
 697	6.9252e+01	12.2708	106.614962	0.000506	5.062054	1.715070	-0.000203
 698	6.9352e+01	12.2226	106.332645	0.000709	7.086875	2.401098	-0.000284
 699	6.9451e+01	12.1841	106.050328	0.000709	7.086875	2.401098	-0.000284
 700	6.9550e+01	12.1473	105.284039	0.001924	19.235805	6.517267	-0.000770
 701	6.9650e+01	12.0975	105.445363	-0.000405	-4.049643	-1.372056	0.000162
 702	6.9749e+01	12.0654	105.526025	-0.000202	-2.024822	-0.686028	0.000081
 703	6.9849e+01	12.0334	105.203377	0.000810	8.099286	2.744112	-0.000324
 704	6.9948e+01	11.9868	105.001722	0.000506	5.062054	1.715070	-0.000203
 705	7.0048e+01	11.9515	104.275764	0.001822	18.223394	6.174253	-0.000730
 706	7.0147e+01	11.9050	104.800067	-0.001316	-13.161340	-4.459183	0.000527
 707	7.0247e+01	11.8697	104.396757	0.001012	10.124108	3.430141	-0.000405
 708	7.0347e+01	11.8280	104.074109	0.000810	8.099286	2.744112	-0.000324
 709	7.0446e+01	11.7863	103.912785	0.000405	4.049643	1.372056	-0.000162
 710	7.0546e+01	11.7478	103.590138	0.000810	8.099286	2.744112	-0.000324
 711	7.0645e+01	11.7125	103.388483	0.000506	5.062054	1.715070	-0.000203
 712	7.0745e+01	11.6660	103.307821	0.000202	2.024822	0.686028	-0.000081
 713	7.0844e+01	11.6291	103.106166	0.000506	5.062054	1.715070	-0.000203
 714	7.0944e+01	11.5842	102.783518	0.000810	8.099286	2.744112	-0.000324
 715	7.1043e+01	11.5569	102.581863	0.000506	5.062054	1.715070	-0.000203
 716	7.1142e+01	11.5136	102.178553	0.001012	10.124108	3.430141	-0.000405
 717	7.1242e+01	11.4751	102.138222	0.000101	1.012411	0.343014	-0.000041
 718	7.1341e+01	11.4286	101.775243	0.000911	9.111697	3.087126	-0.000365
 719	7.1441e+01	11.3804	101.896236	-0.000304	-3.037232	-1.029042	0.000122
 720	7.1540e+01	11.3483	101.492926	0.001012	10.124108	3.430141	-0.000405
 721	7.1640e+01	11.3050	101.452595	0.000101	1.012411	0.343014	-0.000041
 722	7.1740e+01	11.2681	101.250940	0.000506	5.062054	1.715070	-0.000203
 723	7.1839e+01	11.2232	101.008954	0.000607	6.074465	2.058084	-0.000243
 724	7.1939e+01	11.1831	100.565314	0.001114	11.136518	3.773155	-0.000446
 725	7.2038e+01	11.1494	100.403990	0.000405	4.049643	1.372056	-0.000162
 726	7.2138e+01	11.1061	100.524983	-0.000304	-3.037232	-1.029042	0.000122
 727	7.2237e+01	11.0708	99.960349	0.001417	14.173751	4.802197	-0.000567
 728	7.2337e+01	11.0275	99.960349	-0.000000	-0.000000	-0.000000	0.000000
 729	7.2436e+01	10.9874	100.000680	-0.000101	-1.012411	-0.343014	0.000041
 730	7.2535e+01	10.9633	99.113398	0.002227	22.273037	7.546309	-0.000892
 731	7.2635e+01	10.9088	99.516708	-0.001012	-10.124108	-3.430141	0.000405
 732	7.2734e+01	10.8687	99.234391	0.000709	7.086875	2.401098	-0.000284
 733	7.2834e+01	10.8398	98.952074	0.000709	7.086875	2.401098	-0.000284
 734	7.2933e+01	10.7949	98.589095	0.000911	9.111697	3.087126	-0.000365
 735	7.3033e+01	10.7435	98.548764	0.000101	1.012411	0.343014	-0.000041
 736	7.3132e+01	10.7099	98.145454	0.001012	10.124108	3.430141	-0.000405
 737	7.3232e+01	10.6665	97.863138	0.000709	7.086875	2.401098	-0.000284
 738	7.3332e+01	10.6329	97.621152	0.000607	6.074465	2.058084	-0.000243
 739	7.3431e+01	10.5944	97.137180	0.001215	12.148929	4.116169	-0.000486
 740	7.3531e+01	10.5559	96.774201	0.000911	9.111697	3.087126	-0.000365
 741	7.3630e+01	10.5109	97.338835	-0.001417	-14.173751	-4.802197	0.000567
 742	7.3730e+01	10.4756	97.177511	0.000405	4.049643	1.372056	-0.000162
 743	7.3829e+01	10.4339	96.572546	0.001519	15.186162	5.145211	-0.000608
 744	7.3928e+01	10.3938	96.491884	0.000202	2.024822	0.686028	-0.000081
 745	7.4028e+01	10.3457	96.491884	-0.000000	-0.000000	-0.000000	0.000000
 746	7.4127e+01	10.3184	95.685264	0.002025	20.248215	6.860281	-0.000811
 747	7.4227e+01	10.2639	95.806257	-0.000304	-3.037232	-1.029042	0.000122
 748	7.4326e+01	10.2382	95.564271	0.000607	6.074465	2.058084	-0.000243
 749	7.4426e+01	10.1997	95.039969	0.001316	13.161340	4.459183	-0.000527
 750	7.4525e+01	10.1468	95.241623	-0.000506	-5.062054	-1.715070	0.000203
 751	7.4625e+01	10.1083	95.120631	0.000304	3.037232	1.029042	-0.000122
 752	7.4725e+01	10.0682	94.918976	0.000506	5.062054	1.715070	-0.000203
 753	7.4824e+01	10.0361	94.193018	0.001822	18.223394	6.174253	-0.000730
 754	7.4924e+01	9.9944	94.314011	-0.000304	-3.037232	-1.029042	0.000122
 755	7.5023e+01	9.9543	93.910701	0.001012	10.124108	3.430141	-0.000405
 756	7.5123e+01	9.9126	94.314011	-0.001012	-10.124108	-3.430141	0.000405
 757	7.5222e+01	9.8692	93.628384	0.001721	17.210983	5.831239	-0.000689
 758	7.5322e+01	9.8372	93.023419	0.001519	15.186162	5.145211	-0.000608
 759	7.5421e+01	9.7954	92.781433	0.000607	6.074465	2.058084	-0.000243
 760	7.5520e+01	9.7585	93.265405	-0.001215	-12.148929	-4.116169	0.000486
 761	7.5620e+01	9.7088	92.620109	0.001620	16.198572	5.488225	-0.000649
 762	7.5719e+01	9.6719	92.257131	0.000911	9.111697	3.087126	-0.000365
 763	7.5819e+01	9.6238	92.176469	0.000202	2.024822	0.686028	-0.000081
 764	7.5918e+01	9.5981	92.015145	0.000405	4.049643	1.372056	-0.000162
 765	7.6018e+01	9.5580	91.692497	0.000810	8.099286	2.744112	-0.000324
 766	7.6118e+01	9.5291	91.531173	0.000405	4.049643	1.372056	-0.000162
 767	7.6217e+01	9.4746	90.966539	0.001417	14.173751	4.802197	-0.000567
 768	7.6317e+01	9.4377	91.289187	-0.000810	-8.099286	-2.744112	0.000324
 769	7.6416e+01	9.3944	90.966539	0.000810	8.099286	2.744112	-0.000324
 770	7.6516e+01	9.3559	90.885877	0.000202	2.024822	0.686028	-0.000081
 771	7.6615e+01	9.3206	90.361574	0.001316	13.161340	4.459183	-0.000527
 772	7.6715e+01	9.2725	89.877602	0.001215	12.148929	4.116169	-0.000486
 773	7.6814e+01	9.2388	89.837271	0.000101	1.012411	0.343014	-0.000041
 774	7.6913e+01	9.2019	89.796940	0.000101	1.012411	0.343014	-0.000041
 775	7.7013e+01	9.1570	89.595285	0.000506	5.062054	1.715070	-0.000203
 776	7.7112e+01	9.1169	89.191976	0.001012	10.124108	3.430141	-0.000405
 777	7.7212e+01	9.0816	89.151645	0.000101	1.012411	0.343014	-0.000041
 778	7.7311e+01	9.0318	88.627342	0.001316	13.161340	4.459183	-0.000527
 779	7.7411e+01	8.9949	88.587011	0.000101	1.012411	0.343014	-0.000041
 780	7.7510e+01	8.9580	88.425687	0.000405	4.049643	1.372056	-0.000162
 781	7.7610e+01	8.9163	88.183701	0.000607	6.074465	2.058084	-0.000243
 782	7.7710e+01	8.8778	87.740060	0.001114	11.136518	3.773155	-0.000446
 783	7.7809e+01	8.8281	87.740060	-0.000000	-0.000000	-0.000000	0.000000
 784	7.7909e+01	8.8008	87.457743	0.000709	7.086875	2.401098	-0.000284
 785	7.8008e+01	8.7623	87.256088	0.000506	5.062054	1.715070	-0.000203
 786	7.8108e+01	8.7222	86.893109	0.000911	9.111697	3.087126	-0.000365
 787	7.8207e+01	8.6757	86.852778	0.000101	1.012411	0.343014	-0.000041
 788	7.8306e+01	8.6356	86.772116	0.000202	2.024822	0.686028	-0.000081
 789	7.8406e+01	8.5923	86.409138	0.000911	9.111697	3.087126	-0.000365
 790	7.8505e+01	8.5602	85.965497	0.001114	11.136518	3.773155	-0.000446
 791	7.8605e+01	8.5217	85.602518	0.000911	9.111697	3.087126	-0.000365
 792	7.8704e+01	8.4752	85.602518	-0.000000	-0.000000	-0.000000	0.000000
 793	7.8804e+01	8.4447	85.400863	0.000506	5.062054	1.715070	-0.000203
 794	7.8903e+01	8.3998	85.320201	0.000202	2.024822	0.686028	-0.000081
 795	7.9003e+01	8.3629	84.916891	0.001012	10.124108	3.430141	-0.000405
 796	7.9103e+01	8.3228	84.473250	0.001114	11.136518	3.773155	-0.000446
 797	7.9202e+01	8.2714	84.392588	0.000202	2.024822	0.686028	-0.000081
 798	7.9302e+01	8.2249	84.392588	-0.000000	-0.000000	-0.000000	0.000000
 799	7.9401e+01	8.1992	84.069940	0.000810	8.099286	2.744112	-0.000324
 800	7.9501e+01	8.1559	83.787623	0.000709	7.086875	2.401098	-0.000284
 801	7.9600e+01	8.1222	83.787623	-0.000000	-0.000000	-0.000000	0.000000
 802	7.9700e+01	8.0741	83.343983	0.001114	11.136518	3.773155	-0.000446
 803	7.9799e+01	8.0420	83.061666	0.000709	7.086875	2.401098	-0.000284
 804	7.9898e+01	8.0051	82.295377	0.001924	19.235805	6.517267	-0.000770
 805	7.9998e+01	7.9650	82.537363	-0.000607	-6.074465	-2.058084	0.000243
 806	8.0097e+01	7.9153	82.093722	0.001114	11.136518	3.773155	-0.000446
 807	8.0197e+01	7.8848	82.295377	-0.000506	-5.062054	-1.715070	0.000203
 808	8.0296e+01	7.8351	81.811405	0.001215	12.148929	4.116169	-0.000486
 809	8.0396e+01	7.8094	81.408095	0.001012	10.124108	3.430141	-0.000405
 810	8.0496e+01	7.7613	81.085447	0.000810	8.099286	2.744112	-0.000324
 811	8.0595e+01	7.7260	81.085447	-0.000000	-0.000000	-0.000000	0.000000
 812	8.0695e+01	7.6859	80.964454	0.000304	3.037232	1.029042	-0.000122
 813	8.0794e+01	7.6474	80.561145	0.001012	10.124108	3.430141	-0.000405
 814	8.0894e+01	7.5993	80.641807	-0.000202	-2.024822	-0.686028	0.000081
 815	8.0993e+01	7.5656	80.399821	0.000607	6.074465	2.058084	-0.000243
 816	8.1093e+01	7.5174	79.915849	0.001215	12.148929	4.116169	-0.000486
 817	8.1192e+01	7.4773	79.431877	0.001215	12.148929	4.116169	-0.000486
 818	8.1291e+01	7.4452	79.714194	-0.000709	-7.086875	-2.401098	0.000284
 819	8.1391e+01	7.4003	79.230222	0.001215	12.148929	4.116169	-0.000486
 820	8.1490e+01	7.3618	79.028567	0.000506	5.062054	1.715070	-0.000203
 821	8.1590e+01	7.3249	78.544595	0.001215	12.148929	4.116169	-0.000486
 822	8.1689e+01	7.2864	78.544595	-0.000000	-0.000000	-0.000000	0.000000
 823	8.1789e+01	7.2367	78.786581	-0.000607	-6.074465	-2.058084	0.000243
 824	8.1888e+01	7.2014	77.939630	0.002126	21.260626	7.203295	-0.000851
 825	8.1988e+01	7.1725	77.737976	0.000506	5.062054	1.715070	-0.000203
 826	8.2088e+01	7.1260	77.576652	0.000405	4.049643	1.372056	-0.000162
 827	8.2187e+01	7.0747	77.173342	0.001012	10.124108	3.430141	-0.000405
 828	8.2287e+01	7.0458	77.012018	0.000405	4.049643	1.372056	-0.000162
 829	8.2386e+01	6.9945	77.012018	-0.000000	-0.000000	-0.000000	0.000000
 830	8.2486e+01	6.9688	76.729701	0.000709	7.086875	2.401098	-0.000284
 831	8.2585e+01	6.9271	76.165067	0.001417	14.173751	4.802197	-0.000567
 832	8.2684e+01	6.8838	76.165067	-0.000000	-0.000000	-0.000000	0.000000
 833	8.2784e+01	6.8437	75.600433	0.001417	14.173751	4.802197	-0.000567
 834	8.2883e+01	6.8132	75.439109	0.000405	4.049643	1.372056	-0.000162
 835	8.2983e+01	6.7683	75.519771	-0.000202	-2.024822	-0.686028	0.000081
 836	8.3082e+01	6.7330	74.793814	0.001822	18.223394	6.174253	-0.000730
 837	8.3182e+01	6.6880	74.511497	0.000709	7.086875	2.401098	-0.000284
 838	8.3281e+01	6.6544	74.511497	-0.000000	-0.000000	-0.000000	0.000000
 839	8.3381e+01	6.6062	74.309842	0.000506	5.062054	1.715070	-0.000203
 840	8.3481e+01	6.5725	74.067856	0.000607	6.074465	2.058084	-0.000243
 841	8.3580e+01	6.5260	73.704877	0.000911	9.111697	3.087126	-0.000365
 842	8.3680e+01	6.4875	73.382229	0.000810	8.099286	2.744112	-0.000324
 843	8.3779e+01	6.4426	73.261236	0.000304	3.037232	1.029042	-0.000122
 844	8.3879e+01	6.4105	73.180574	0.000202	2.024822	0.686028	-0.000081
 845	8.3978e+01	6.3608	72.575609	0.001519	15.186162	5.145211	-0.000608
 846	8.4078e+01	6.3287	72.736933	-0.000405	-4.049643	-1.372056	0.000162
 847	8.4177e+01	6.2854	72.010976	0.001822	18.223394	6.174253	-0.000730
 848	8.4276e+01	6.2581	71.930314	0.000202	2.024822	0.686028	-0.000081
 849	8.4376e+01	6.2100	71.446342	0.001215	12.148929	4.116169	-0.000486
 850	8.4475e+01	6.1699	71.486673	-0.000101	-1.012411	-0.343014	0.000041
 851	8.4575e+01	6.1330	71.123694	0.000911	9.111697	3.087126	-0.000365
 852	8.4674e+01	6.0993	71.043032	0.000202	2.024822	0.686028	-0.000081
 853	8.4774e+01	6.0576	70.317074	0.001822	18.223394	6.174253	-0.000730
 854	8.4874e+01	6.0191	70.034757	0.000709	7.086875	2.401098	-0.000284
 855	8.4973e+01	5.9677	69.833102	0.000506	5.062054	1.715070	-0.000203
 856	8.5073e+01	5.9325	70.115419	-0.000709	-7.086875	-2.401098	0.000284
 857	8.5172e+01	5.8972	69.550785	0.001417	14.173751	4.802197	-0.000567
 858	8.5272e+01	5.8554	69.349130	0.000506	5.062054	1.715070	-0.000203
 859	8.5371e+01	5.8169	69.147476	0.000506	5.062054	1.715070	-0.000203
 860	8.5471e+01	5.7672	68.784497	0.000911	9.111697	3.087126	-0.000365
 861	8.5570e+01	5.7335	68.542511	0.000607	6.074465	2.058084	-0.000243
 862	8.5669e+01	5.7030	68.582842	-0.000101	-1.012411	-0.343014	0.000041
 863	8.5769e+01	5.6485	67.977877	0.001519	15.186162	5.145211	-0.000608
 864	8.5868e+01	5.6132	67.856884	0.000304	3.037232	1.029042	-0.000122
 865	8.5968e+01	5.5747	67.292250	0.001417	14.173751	4.802197	-0.000567
 866	8.6067e+01	5.5346	66.969602	0.000810	8.099286	2.744112	-0.000324
 867	8.6167e+01	5.4929	66.888940	0.000202	2.024822	0.686028	-0.000081
 868	8.6266e+01	5.4512	66.767947	0.000304	3.037232	1.029042	-0.000122
 869	8.6366e+01	5.4159	66.243645	0.001316	13.161340	4.459183	-0.000527
 870	8.6466e+01	5.3678	65.840335	0.001012	10.124108	3.430141	-0.000405
 871	8.6565e+01	5.3421	65.759673	0.000202	2.024822	0.686028	-0.000081
 872	8.6665e+01	5.2859	65.719342	0.000101	1.012411	0.343014	-0.000041
 873	8.6764e+01	5.2490	65.598349	0.000304	3.037232	1.029042	-0.000122
 874	8.6864e+01	5.2089	65.074046	0.001316	13.161340	4.459183	-0.000527
 875	8.6963e+01	5.1720	64.711067	0.000911	9.111697	3.087126	-0.000365
 876	8.7063e+01	5.1303	64.388419	0.000810	8.099286	2.744112	-0.000324
 877	8.7162e+01	5.0950	64.065771	0.000810	8.099286	2.744112	-0.000324
 878	8.7261e+01	5.0598	64.186764	-0.000304	-3.037232	-1.029042	0.000122
 879	8.7361e+01	5.0116	63.823785	0.000911	9.111697	3.087126	-0.000365
 880	8.7460e+01	4.9763	63.541468	0.000709	7.086875	2.401098	-0.000284
 881	8.7560e+01	4.9298	63.339814	0.000506	5.062054	1.715070	-0.000203
 882	8.7659e+01	4.8945	62.896173	0.001114	11.136518	3.773155	-0.000446
 883	8.7759e+01	4.8528	62.412201	0.001215	12.148929	4.116169	-0.000486
 884	8.7859e+01	4.8159	62.291208	0.000304	3.037232	1.029042	-0.000122
 885	8.7958e+01	4.7806	61.807236	0.001215	12.148929	4.116169	-0.000486
 886	8.8058e+01	4.7405	62.210546	-0.001012	-10.124108	-3.430141	0.000405
 887	8.8157e+01	4.6908	61.605581	0.001519	15.186162	5.145211	-0.000608
 888	8.8257e+01	4.6587	61.323264	0.000709	7.086875	2.401098	-0.000284
 889	8.8356e+01	4.6090	60.556976	0.001924	19.235805	6.517267	-0.000770
 890	8.8456e+01	4.5801	60.677968	-0.000304	-3.037232	-1.029042	0.000122
 891	8.8555e+01	4.5304	60.355321	0.000810	8.099286	2.744112	-0.000324
 892	8.8654e+01	4.4919	60.073004	0.000709	7.086875	2.401098	-0.000284
 893	8.8754e+01	4.4630	59.790687	0.000709	7.086875	2.401098	-0.000284
 894	8.8853e+01	4.4181	59.871349	-0.000202	-2.024822	-0.686028	0.000081
 895	8.8953e+01	4.3667	59.226053	0.001620	16.198572	5.488225	-0.000649
 896	8.9052e+01	4.3411	58.822743	0.001012	10.124108	3.430141	-0.000405
 897	8.9152e+01	4.2961	58.540426	0.000709	7.086875	2.401098	-0.000284
 898	8.9251e+01	4.2512	58.580757	-0.000101	-1.012411	-0.343014	0.000041
 899	8.9351e+01	4.2079	58.096785	0.001215	12.148929	4.116169	-0.000486
 900	8.9451e+01	4.1774	58.177447	-0.000202	-2.024822	-0.686028	0.000081
 901	8.9550e+01	4.1373	57.169173	0.002531	25.310269	8.575351	-0.001013
 902	8.9650e+01	4.1004	56.967518	0.000506	5.062054	1.715070	-0.000203
 903	8.9749e+01	4.0619	57.209504	-0.000607	-6.074465	-2.058084	0.000243
 904	8.9849e+01	4.0106	56.927187	0.000709	7.086875	2.401098	-0.000284
 905	8.9948e+01	3.9785	56.523877	0.001012	10.124108	3.430141	-0.000405
 906	9.0047e+01	3.9352	56.322222	0.000506	5.062054	1.715070	-0.000203
 907	9.0147e+01	3.8983	55.596264	0.001822	18.223394	6.174253	-0.000730
 908	9.0246e+01	3.8582	55.959243	-0.000911	-9.111697	-3.087126	0.000365
 909	9.0346e+01	3.8181	55.676926	0.000709	7.086875	2.401098	-0.000284
 910	9.0445e+01	3.7780	54.749314	0.002329	23.285448	7.889323	-0.000932
 911	9.0545e+01	3.7411	54.789645	-0.000101	-1.012411	-0.343014	0.000041
 912	9.0644e+01	3.7026	54.547659	0.000607	6.074465	2.058084	-0.000243
 913	9.0744e+01	3.6560	54.346004	0.000506	5.062054	1.715070	-0.000203
 914	9.0844e+01	3.6175	53.741039	0.001519	15.186162	5.145211	-0.000608
 915	9.0943e+01	3.5855	53.579715	0.000405	4.049643	1.372056	-0.000162
 916	9.1043e+01	3.5421	53.418391	0.000405	4.049643	1.372056	-0.000162
 917	9.1142e+01	3.5101	53.015081	0.001012	10.124108	3.430141	-0.000405
 918	9.1242e+01	3.4491	52.450447	0.001417	14.173751	4.802197	-0.000567
 919	9.1341e+01	3.4170	52.531109	-0.000202	-2.024822	-0.686028	0.000081
 920	9.1441e+01	3.3817	52.127799	0.001012	10.124108	3.430141	-0.000405
 921	9.1540e+01	3.3416	51.805152	0.000810	8.099286	2.744112	-0.000324
 922	9.1639e+01	3.3047	51.603497	0.000506	5.062054	1.715070	-0.000203
 923	9.1739e+01	3.2598	51.401842	0.000506	5.062054	1.715070	-0.000203
 924	9.1838e+01	3.2245	50.958201	0.001114	11.136518	3.773155	-0.000446
 925	9.1938e+01	3.1764	50.514560	0.001114	11.136518	3.773155	-0.000446
 926	9.2037e+01	3.1491	50.514560	-0.000000	-0.000000	-0.000000	0.000000
 927	9.2137e+01	3.1058	50.030588	0.001215	12.148929	4.116169	-0.000486
 928	9.2237e+01	3.0625	49.909595	0.000304	3.037232	1.029042	-0.000122
 929	9.2336e+01	3.0176	49.425623	0.001215	12.148929	4.116169	-0.000486
 930	9.2436e+01	2.9839	49.344961	0.000202	2.024822	0.686028	-0.000081
 931	9.2535e+01	2.9390	49.062644	0.000709	7.086875	2.401098	-0.000284
 932	9.2635e+01	2.9053	48.619004	0.001114	11.136518	3.773155	-0.000446
 933	9.2734e+01	2.8587	48.175363	0.001114	11.136518	3.773155	-0.000446
 934	9.2834e+01	2.8234	47.812384	0.000911	9.111697	3.087126	-0.000365
 935	9.2933e+01	2.7801	47.893046	-0.000202	-2.024822	-0.686028	0.000081
 936	9.3032e+01	2.7416	47.610729	0.000709	7.086875	2.401098	-0.000284
 937	9.3132e+01	2.6967	47.570398	0.000101	1.012411	0.343014	-0.000041
 938	9.3231e+01	2.6694	46.844440	0.001822	18.223394	6.174253	-0.000730
 939	9.3331e+01	2.6229	46.562123	0.000709	7.086875	2.401098	-0.000284
 940	9.3430e+01	2.5876	46.441130	0.000304	3.037232	1.029042	-0.000122
 941	9.3530e+01	2.5379	45.755504	0.001721	17.210983	5.831239	-0.000689
 942	9.3629e+01	2.5026	45.997490	-0.000607	-6.074465	-2.058084	0.000243
 943	9.3729e+01	2.4529	45.110208	0.002227	22.273037	7.546309	-0.000892
 944	9.3829e+01	2.4224	45.231201	-0.000304	-3.037232	-1.029042	0.000122
 945	9.3928e+01	2.3839	45.392525	-0.000405	-4.049643	-1.372056	0.000162
 946	9.4028e+01	2.3422	44.464912	0.002329	23.285448	7.889323	-0.000932
 947	9.4127e+01	2.3069	44.384250	0.000202	2.024822	0.686028	-0.000081
 948	9.4227e+01	2.2620	44.263257	0.000304	3.037232	1.029042	-0.000122
 949	9.4326e+01	2.2106	43.738954	0.001316	13.161340	4.459183	-0.000527
 950	9.4425e+01	2.1850	43.496968	0.000607	6.074465	2.058084	-0.000243
 951	9.4525e+01	2.1368	43.133990	0.000911	9.111697	3.087126	-0.000365
 952	9.4624e+01	2.1080	42.851673	0.000709	7.086875	2.401098	-0.000284
 953	9.4724e+01	2.0646	42.690349	0.000405	4.049643	1.372056	-0.000162
 954	9.4823e+01	2.0245	41.964391	0.001822	18.223394	6.174253	-0.000730
 955	9.4923e+01	1.9780	41.803067	0.000405	4.049643	1.372056	-0.000162
 956	9.5022e+01	1.9475	41.399757	0.001012	10.124108	3.430141	-0.000405
 957	9.5122e+01	1.9090	41.278764	0.000304	3.037232	1.029042	-0.000122
 958	9.5222e+01	1.8673	40.875454	0.001012	10.124108	3.430141	-0.000405
 959	9.5321e+01	1.8336	40.270490	0.001519	15.186162	5.145211	-0.000608
 960	9.5421e+01	1.7903	40.310821	-0.000101	-1.012411	-0.343014	0.000041
 961	9.5520e+01	1.7454	40.028504	0.000709	7.086875	2.401098	-0.000284
 962	9.5620e+01	1.7053	39.463870	0.001417	14.173751	4.802197	-0.000567
 963	9.5719e+01	1.6668	39.181553	0.000709	7.086875	2.401098	-0.000284
 964	9.5819e+01	1.6251	39.100891	0.000202	2.024822	0.686028	-0.000081
 965	9.5918e+01	1.5834	39.100891	-0.000000	-0.000000	-0.000000	0.000000
 966	9.6017e+01	1.5513	38.294271	0.002025	20.248215	6.860281	-0.000811
 967	9.6117e+01	1.5144	38.455595	-0.000405	-4.049643	-1.372056	0.000162
 968	9.6216e+01	1.4599	37.527982	0.002329	23.285448	7.889323	-0.000932
 969	9.6316e+01	1.4358	37.205335	0.000810	8.099286	2.744112	-0.000324
 970	9.6415e+01	1.3909	37.044011	0.000405	4.049643	1.372056	-0.000162
 971	9.6515e+01	1.3524	36.923018	0.000304	3.037232	1.029042	-0.000122
 972	9.6615e+01	1.3026	36.761694	0.000405	4.049643	1.372056	-0.000162
 973	9.6714e+01	1.2673	36.560039	0.000506	5.062054	1.715070	-0.000203
 974	9.6814e+01	1.2272	35.592095	0.002430	24.297858	8.232337	-0.000973
 975	9.6913e+01	1.1855	35.793750	-0.000506	-5.062054	-1.715070	0.000203
 976	9.7013e+01	1.1550	35.269447	0.001316	13.161340	4.459183	-0.000527
 977	9.7112e+01	1.1053	35.148454	0.000304	3.037232	1.029042	-0.000122
 978	9.7212e+01	1.0732	34.543490	0.001519	15.186162	5.145211	-0.000608
 979	9.7311e+01	1.0283	34.462828	0.000202	2.024822	0.686028	-0.000081
 980	9.7410e+01	0.9834	33.696539	0.001924	19.235805	6.517267	-0.000770
 981	9.7510e+01	0.9497	33.978856	-0.000709	-7.086875	-2.401098	0.000284
 982	9.7609e+01	0.9064	33.494884	0.001215	12.148929	4.116169	-0.000486
 983	9.7709e+01	0.8727	32.809257	0.001721	17.210983	5.831239	-0.000689
 984	9.7808e+01	0.8294	33.131905	-0.000810	-8.099286	-2.744112	0.000324
 985	9.7908e+01	0.7877	32.446278	0.001721	17.210983	5.831239	-0.000689
 986	9.8007e+01	0.7476	32.163961	0.000709	7.086875	2.401098	-0.000284
 987	9.8107e+01	0.7043	32.042968	0.000304	3.037232	1.029042	-0.000122
 988	9.8207e+01	0.6690	31.518666	0.001316	13.161340	4.459183	-0.000527
 989	9.8306e+01	0.6305	31.236349	0.000709	7.086875	2.401098	-0.000284
 990	9.8406e+01	0.5823	30.913701	0.000810	8.099286	2.744112	-0.000324
 991	9.8505e+01	0.5519	30.792708	0.000304	3.037232	1.029042	-0.000122
 992	9.8605e+01	0.5085	30.631384	0.000405	4.049643	1.372056	-0.000162
 993	9.8704e+01	0.4668	29.865095	0.001924	19.235805	6.517267	-0.000770
 994	9.8803e+01	0.4251	29.381123	0.001215	12.148929	4.116169	-0.000486
 995	9.8903e+01	0.3962	29.340792	0.000101	1.012411	0.343014	-0.000041
 996	9.9002e+01	0.3545	28.937482	0.001012	10.124108	3.430141	-0.000405
 997	9.9102e+01	0.3144	28.695497	0.000607	6.074465	2.058084	-0.000243
 998	9.9201e+01	0.2711	28.130863	0.001417	14.173751	4.802197	-0.000567
 999	9.9301e+01	0.2262	28.050201	0.000202	2.024822	0.686028	-0.000081
1000	9.9400e+01	0.2037	27.485567	0.001417	14.173751	4.802197	-0.000567
1001	9.9500e+01	0.1476	27.324243	0.000405	4.049643	1.372056	-0.000162
1002	9.9600e+01	0.1059	26.598285	0.001822	18.223394	6.174253	-0.000730
1003	9.9699e+01	0.0754	26.598285	-0.000000	-0.000000	-0.000000	0.000000
1004	9.9799e+01	0.0401	26.275637	0.000810	8.099286	2.744112	-0.000324
1005	9.9898e+01	-0.0064	26.598285	-0.000810	-8.099286	-2.744112	0.000324
1006	9.9998e+01	-0.0369	25.590011	0.002531	25.310269	8.575351	-0.001013
1007	1.0010e+02	-0.0786	25.711004	-0.000304	-3.037232	-1.029042	0.000122
1008	1.0020e+02	-0.1155	25.388356	0.000810	8.099286	2.744112	-0.000324
1009	1.0030e+02	-0.1668	24.662398	0.001822	18.223394	6.174253	-0.000730
1010	1.0040e+02	-0.2102	24.299419	0.000911	9.111697	3.087126	-0.000365
1011	1.0050e+02	-0.2390	24.178426	0.000304	3.037232	1.029042	-0.000122
1012	1.0059e+02	-0.2775	23.896109	0.000709	7.086875	2.401098	-0.000284
1013	1.0069e+02	-0.3208	23.936440	-0.000101	-1.012411	-0.343014	0.000041
1014	1.0079e+02	-0.3561	23.089489	0.002126	21.260626	7.203295	-0.000851
1015	1.0089e+02	-0.4043	22.726511	0.000911	9.111697	3.087126	-0.000365
1016	1.0099e+02	-0.4428	22.524856	0.000506	5.062054	1.715070	-0.000203
1017	1.0109e+02	-0.4829	22.121546	0.001012	10.124108	3.430141	-0.000405
1018	1.0119e+02	-0.5166	22.040884	0.000202	2.024822	0.686028	-0.000081
1019	1.0129e+02	-0.5567	21.516581	0.001316	13.161340	4.459183	-0.000527
1020	1.0139e+02	-0.6016	21.113271	0.001012	10.124108	3.430141	-0.000405
1021	1.0149e+02	-0.6417	20.911616	0.000506	5.062054	1.715070	-0.000203
1022	1.0159e+02	-0.6818	20.548637	0.000911	9.111697	3.087126	-0.000365
1023	1.0169e+02	-0.7139	19.863011	0.001721	17.210983	5.831239	-0.000689
1024	1.0179e+02	-0.7540	19.621025	0.000607	6.074465	2.058084	-0.000243
1025	1.0189e+02	-0.7909	19.661356	-0.000101	-1.012411	-0.343014	0.000041
1026	1.0199e+02	-0.8326	19.056391	0.001519	15.186162	5.145211	-0.000608
1027	1.0209e+02	-0.8775	18.774074	0.000709	7.086875	2.401098	-0.000284
1028	1.0219e+02	-0.9176	18.290102	0.001215	12.148929	4.116169	-0.000486
1029	1.0229e+02	-0.9561	17.886792	0.001012	10.124108	3.430141	-0.000405
1030	1.0239e+02	-0.9978	17.483482	0.001012	10.124108	3.430141	-0.000405
1031	1.0248e+02	-1.0395	17.322158	0.000405	4.049643	1.372056	-0.000162
1032	1.0258e+02	-1.0780	16.959180	0.000911	9.111697	3.087126	-0.000365
1033	1.0268e+02	-1.1230	16.676863	0.000709	7.086875	2.401098	-0.000284
1034	1.0278e+02	-1.1470	16.273553	0.001012	10.124108	3.430141	-0.000405
1035	1.0288e+02	-1.1968	16.313884	-0.000101	-1.012411	-0.343014	0.000041
1036	1.0298e+02	-1.2304	15.587926	0.001822	18.223394	6.174253	-0.000730
1037	1.0308e+02	-1.2722	15.265278	0.000810	8.099286	2.744112	-0.000324
1038	1.0318e+02	-1.3187	14.902299	0.000911	9.111697	3.087126	-0.000365
1039	1.0328e+02	-1.3572	14.498989	0.001012	10.124108	3.430141	-0.000405
1040	1.0338e+02	-1.3941	14.458658	0.000101	1.012411	0.343014	-0.000041
1041	1.0348e+02	-1.4342	14.015018	0.001114	11.136518	3.773155	-0.000446
1042	1.0358e+02	-1.4679	13.531046	0.001215	12.148929	4.116169	-0.000486
1043	1.0368e+02	-1.5112	13.248729	0.000709	7.086875	2.401098	-0.000284
1044	1.0378e+02	-1.5561	13.127736	0.000304	3.037232	1.029042	-0.000122
1045	1.0388e+02	-1.5994	12.643764	0.001215	12.148929	4.116169	-0.000486
1046	1.0398e+02	-1.6379	12.240454	0.001012	10.124108	3.430141	-0.000405
1047	1.0408e+02	-1.6812	12.200123	0.000101	1.012411	0.343014	-0.000041
1048	1.0418e+02	-1.7181	11.595158	0.001519	15.186162	5.145211	-0.000608
1049	1.0428e+02	-1.7614	11.272511	0.000810	8.099286	2.744112	-0.000324
1050	1.0438e+02	-1.7935	10.546553	0.001822	18.223394	6.174253	-0.000730
1051	1.0447e+02	-1.8272	10.506222	0.000101	1.012411	0.343014	-0.000041
1052	1.0457e+02	-1.8737	9.941588	0.001417	14.173751	4.802197	-0.000567
1053	1.0467e+02	-1.9187	9.457616	0.001215	12.148929	4.116169	-0.000486
1054	1.0477e+02	-1.9636	9.538278	-0.000202	-2.024822	-0.686028	0.000081
1055	1.0487e+02	-1.9925	9.175299	0.000911	9.111697	3.087126	-0.000365
1056	1.0497e+02	-2.0358	8.449342	0.001822	18.223394	6.174253	-0.000730
1057	1.0507e+02	-2.0646	8.046032	0.001012	10.124108	3.430141	-0.000405
1058	1.0517e+02	-2.1176	7.844377	0.000506	5.062054	1.715070	-0.000203
1059	1.0527e+02	-2.1449	7.642722	0.000506	5.062054	1.715070	-0.000203
1060	1.0537e+02	-2.1850	6.876433	0.001924	19.235805	6.517267	-0.000770
1061	1.0547e+02	-2.2331	7.078088	-0.000506	-5.062054	-1.715070	0.000203
1062	1.0557e+02	-2.2684	6.795771	0.000709	7.086875	2.401098	-0.000284
1063	1.0567e+02	-2.3149	6.190806	0.001519	15.186162	5.145211	-0.000608
1064	1.0577e+02	-2.3534	5.626173	0.001417	14.173751	4.802197	-0.000567
1065	1.0587e+02	-2.3919	5.505180	0.000304	3.037232	1.029042	-0.000122
1066	1.0597e+02	-2.4320	5.343856	0.000405	4.049643	1.372056	-0.000162
1067	1.0607e+02	-2.4689	4.738891	0.001519	15.186162	5.145211	-0.000608
1068	1.0617e+02	-2.5106	4.254919	0.001215	12.148929	4.116169	-0.000486
1069	1.0627e+02	-2.5475	4.093595	0.000405	4.049643	1.372056	-0.000162
1070	1.0637e+02	-2.5844	3.972602	0.000304	3.037232	1.029042	-0.000122
1071	1.0647e+02	-2.6309	3.448299	0.001316	13.161340	4.459183	-0.000527
1072	1.0656e+02	-2.6694	3.044989	0.001012	10.124108	3.430141	-0.000405
1073	1.0666e+02	-2.7144	3.004658	0.000101	1.012411	0.343014	-0.000041
1074	1.0676e+02	-2.7448	2.359363	0.001620	16.198572	5.488225	-0.000649
1075	1.0686e+02	-2.7962	2.198039	0.000405	4.049643	1.372056	-0.000162
1076	1.0696e+02	-2.8251	1.633405	0.001417	14.173751	4.802197	-0.000567
1077	1.0706e+02	-2.8684	1.230095	0.001012	10.124108	3.430141	-0.000405
1078	1.0716e+02	-2.9037	1.270426	-0.000101	-1.012411	-0.343014	0.000041
1079	1.0726e+02	-2.9566	0.746123	0.001316	13.161340	4.459183	-0.000527
1080	1.0736e+02	-2.9919	0.504137	0.000607	6.074465	2.058084	-0.000243
1081	1.0746e+02	-3.0272	-0.100827	0.001519	15.186162	5.145211	-0.000608
1082	1.0756e+02	-3.0689	-0.060496	-0.000101	-1.012411	-0.343014	0.000041
1083	1.0766e+02	-3.1154	-0.584799	0.001316	13.161340	4.459183	-0.000527
1084	1.0776e+02	-3.1491	-1.068771	0.001215	12.148929	4.116169	-0.000486
1085	1.0786e+02	-3.1860	-0.988109	-0.000202	-2.024822	-0.686028	0.000081
1086	1.0796e+02	-3.2309	-1.431750	0.001114	11.136518	3.773155	-0.000446
1087	1.0806e+02	-3.2694	-1.915722	0.001215	12.148929	4.116169	-0.000486
1088	1.0816e+02	-3.3111	-1.915722	-0.000000	-0.000000	-0.000000	0.000000
1089	1.0826e+02	-3.3464	-2.198039	0.000709	7.086875	2.401098	-0.000284
1090	1.0836e+02	-3.3817	-2.238370	0.000101	1.012411	0.343014	-0.000041
1091	1.0845e+02	-3.4379	-3.085320	0.002126	21.260626	7.203295	-0.000851
1092	1.0855e+02	-3.4684	-3.125651	0.000101	1.012411	0.343014	-0.000041
1093	1.0865e+02	-3.5069	-3.690285	0.001417	14.173751	4.802197	-0.000567
1094	1.0875e+02	-3.5454	-4.254919	0.001417	14.173751	4.802197	-0.000567
1095	1.0885e+02	-3.5806	-4.738891	0.001215	12.148929	4.116169	-0.000486
1096	1.0895e+02	-3.6256	-4.819553	0.000202	2.024822	0.686028	-0.000081
1097	1.0905e+02	-3.6689	-5.263194	0.001114	11.136518	3.773155	-0.000446
1098	1.0915e+02	-3.7042	-5.626173	0.000911	9.111697	3.087126	-0.000365
1099	1.0925e+02	-3.7459	-5.666504	0.000101	1.012411	0.343014	-0.000041
1100	1.0935e+02	-3.7908	-5.706835	0.000101	1.012411	0.343014	-0.000041
1101	1.0945e+02	-3.8309	-5.868158	0.000405	4.049643	1.372056	-0.000162
1102	1.0955e+02	-3.8726	-6.674778	0.002025	20.248215	6.860281	-0.000811
1103	1.0965e+02	-3.9095	-6.836102	0.000405	4.049643	1.372056	-0.000162
1104	1.0975e+02	-3.9448	-6.594116	-0.000607	-6.074465	-2.058084	0.000243
1105	1.0985e+02	-3.9994	-6.957095	0.000911	9.111697	3.087126	-0.000365
1106	1.0995e+02	-4.0282	-6.957095	-0.000000	-0.000000	-0.000000	0.000000
1107	1.1005e+02	-4.0699	-7.118419	0.000405	4.049643	1.372056	-0.000162
1108	1.1015e+02	-4.1068	-7.441067	0.000810	8.099286	2.744112	-0.000324
1109	1.1025e+02	-4.1534	-7.965370	0.001316	13.161340	4.459183	-0.000527
1110	1.1035e+02	-4.1806	-8.247687	0.000709	7.086875	2.401098	-0.000284
1111	1.1044e+02	-4.2272	-8.328349	0.000202	2.024822	0.686028	-0.000081
1112	1.1054e+02	-4.2624	-8.368680	0.000101	1.012411	0.343014	-0.000041
1113	1.1064e+02	-4.2961	-8.892982	0.001316	13.161340	4.459183	-0.000527
1114	1.1074e+02	-4.3411	-9.659271	0.001924	19.235805	6.517267	-0.000770
1115	1.1084e+02	-4.3780	-9.901257	0.000607	6.074465	2.058084	-0.000243
1116	1.1094e+02	-4.4309	-10.546553	0.001620	16.198572	5.488225	-0.000649
1117	1.1104e+02	-4.4662	-10.949863	0.001012	10.124108	3.430141	-0.000405
1118	1.1114e+02	-4.5079	-11.232180	0.000709	7.086875	2.401098	-0.000284
1119	1.1124e+02	-4.5432	-11.393504	0.000405	4.049643	1.372056	-0.000162
1120	1.1134e+02	-4.5833	-11.353173	-0.000101	-1.012411	-0.343014	0.000041
1121	1.1144e+02	-4.6234	-11.837144	0.001215	12.148929	4.116169	-0.000486
1122	1.1154e+02	-4.6667	-12.522771	0.001721	17.210983	5.831239	-0.000689
1123	1.1164e+02	-4.7004	-12.522771	-0.000000	-0.000000	-0.000000	0.000000
1124	1.1174e+02	-4.7437	-13.127736	0.001519	15.186162	5.145211	-0.000608
1125	1.1184e+02	-4.7838	-13.410053	0.000709	7.086875	2.401098	-0.000284
1126	1.1194e+02	-4.8255	-14.015018	0.001519	15.186162	5.145211	-0.000608
1127	1.1204e+02	-4.8576	-14.055349	0.000101	1.012411	0.343014	-0.000041
1128	1.1214e+02	-4.8977	-14.458658	0.001012	10.124108	3.430141	-0.000405
1129	1.1224e+02	-4.9523	-15.063623	0.001519	15.186162	5.145211	-0.000608
1130	1.1234e+02	-4.9795	-15.063623	-0.000000	-0.000000	-0.000000	0.000000
1131	1.1244e+02	-5.0196	-15.628257	0.001417	14.173751	4.802197	-0.000567
1132	1.1253e+02	-5.0662	-15.991236	0.000911	9.111697	3.087126	-0.000365
1133	1.1263e+02	-5.1095	-16.354215	0.000911	9.111697	3.087126	-0.000365
1134	1.1273e+02	-5.1384	-16.717194	0.000911	9.111697	3.087126	-0.000365
1135	1.1283e+02	-5.1801	-16.918849	0.000506	5.062054	1.715070	-0.000203
1136	1.1293e+02	-5.2298	-17.120504	0.000506	5.062054	1.715070	-0.000203
1137	1.1303e+02	-5.2651	-17.241497	0.000304	3.037232	1.029042	-0.000122
1138	1.1313e+02	-5.2972	-17.201166	-0.000101	-1.012411	-0.343014	0.000041
1139	1.1323e+02	-5.3421	-17.846461	0.001620	16.198572	5.488225	-0.000649
1140	1.1333e+02	-5.3822	-18.169109	0.000810	8.099286	2.744112	-0.000324
1141	1.1343e+02	-5.4207	-18.532088	0.000911	9.111697	3.087126	-0.000365
1142	1.1353e+02	-5.4576	-19.177384	0.001620	16.198572	5.488225	-0.000649
1143	1.1363e+02	-5.5009	-19.540363	0.000911	9.111697	3.087126	-0.000365
1144	1.1373e+02	-5.5346	-19.822680	0.000709	7.086875	2.401098	-0.000284
1145	1.1383e+02	-5.5827	-20.185659	0.000911	9.111697	3.087126	-0.000365
1146	1.1393e+02	-5.6180	-20.024335	-0.000405	-4.049643	-1.372056	0.000162
1147	1.1403e+02	-5.6597	-20.871285	0.002126	21.260626	7.203295	-0.000851
1148	1.1413e+02	-5.7030	-21.153602	0.000709	7.086875	2.401098	-0.000284
1149	1.1423e+02	-5.7480	-21.193933	0.000101	1.012411	0.343014	-0.000041
1150	1.1433e+02	-5.7849	-21.718236	0.001316	13.161340	4.459183	-0.000527
1151	1.1442e+02	-5.8202	-21.798898	0.000202	2.024822	0.686028	-0.000081
1152	1.1452e+02	-5.8603	-22.484525	0.001721	17.210983	5.831239	-0.000689
1153	1.1462e+02	-5.9004	-22.202208	-0.000709	-7.086875	-2.401098	0.000284
1154	1.1472e+02	-5.9453	-22.282870	0.000202	2.024822	0.686028	-0.000081
1155	1.1482e+02	-5.9774	-23.049159	0.001924	19.235805	6.517267	-0.000770
1156	1.1492e+02	-6.0191	-23.492799	0.001114	11.136518	3.773155	-0.000446
1157	1.1502e+02	-6.0624	-23.573461	0.000202	2.024822	0.686028	-0.000081
1158	1.1512e+02	-6.0929	-23.896109	0.000810	8.099286	2.744112	-0.000324
1159	1.1522e+02	-6.1330	-24.380081	0.001215	12.148929	4.116169	-0.000486
1160	1.1532e+02	-6.1795	-24.501074	0.000304	3.037232	1.029042	-0.000122
1161	1.1542e+02	-6.2196	-24.864053	0.000911	9.111697	3.087126	-0.000365
1162	1.1552e+02	-6.2517	-25.106039	0.000607	6.074465	2.058084	-0.000243
1163	1.1562e+02	-6.2966	-25.348025	0.000607	6.074465	2.058084	-0.000243
1164	1.1572e+02	-6.3367	-25.872328	0.001316	13.161340	4.459183	-0.000527
1165	1.1582e+02	-6.3832	-26.114313	0.000607	6.074465	2.058084	-0.000243
1166	1.1592e+02	-6.4169	-26.033651	-0.000202	-2.024822	-0.686028	0.000081
1167	1.1602e+02	-6.4570	-26.799940	0.001924	19.235805	6.517267	-0.000770
1168	1.1612e+02	-6.4971	-26.961264	0.000405	4.049643	1.372056	-0.000162
1169	1.1622e+02	-6.5276	-26.678947	-0.000709	-7.086875	-2.401098	0.000284
1170	1.1632e+02	-6.5709	-27.687222	0.002531	25.310269	8.575351	-0.001013
1171	1.1642e+02	-6.6126	-27.767884	0.000202	2.024822	0.686028	-0.000081
1172	1.1651e+02	-6.6431	-28.130863	0.000911	9.111697	3.087126	-0.000365
1173	1.1661e+02	-6.6913	-28.009870	-0.000304	-3.037232	-1.029042	0.000122
1174	1.1671e+02	-6.7378	-28.776159	0.001924	19.235805	6.517267	-0.000770
1175	1.1681e+02	-6.7731	-29.139137	0.000911	9.111697	3.087126	-0.000365
1176	1.1691e+02	-6.8132	-29.300461	0.000405	4.049643	1.372056	-0.000162
1177	1.1701e+02	-6.8517	-29.219799	-0.000202	-2.024822	-0.686028	0.000081
1178	1.1711e+02	-6.8982	-29.905426	0.001721	17.210983	5.831239	-0.000689
1179	1.1721e+02	-6.9239	-30.187743	0.000709	7.086875	2.401098	-0.000284
1180	1.1731e+02	-6.9688	-30.752377	0.001417	14.173751	4.802197	-0.000567
1181	1.1741e+02	-7.0121	-30.671715	-0.000202	-2.024822	-0.686028	0.000081
1182	1.1751e+02	-7.0570	-30.994363	0.000810	8.099286	2.744112	-0.000324
1183	1.1761e+02	-7.1003	-30.712046	-0.000709	-7.086875	-2.401098	0.000284
1184	1.1771e+02	-7.1388	-31.599328	0.002227	22.273037	7.546309	-0.000892
1185	1.1781e+02	-7.1773	-31.639659	0.000101	1.012411	0.343014	-0.000041
1186	1.1791e+02	-7.2110	-32.042968	0.001012	10.124108	3.430141	-0.000405
1187	1.1801e+02	-7.2527	-32.567271	0.001316	13.161340	4.459183	-0.000527
1188	1.1811e+02	-7.2880	-32.446278	-0.000304	-3.037232	-1.029042	0.000122
1189	1.1821e+02	-7.3217	-33.010912	0.001417	14.173751	4.802197	-0.000567
1190	1.1831e+02	-7.3682	-33.333560	0.000810	8.099286	2.744112	-0.000324
1191	1.1841e+02	-7.4067	-33.373891	0.000101	1.012411	0.343014	-0.000041
1192	1.1850e+02	-7.4581	-33.857863	0.001215	12.148929	4.116169	-0.000486
1193	1.1860e+02	-7.4934	-34.261173	0.001012	10.124108	3.430141	-0.000405
1194	1.1870e+02	-7.5271	-34.462828	0.000506	5.062054	1.715070	-0.000203
1195	1.1880e+02	-7.5656	-35.148454	0.001721	17.210983	5.831239	-0.000689
1196	1.1890e+02	-7.6169	-34.946799	-0.000506	-5.062054	-1.715070	0.000203
1197	1.1900e+02	-7.6458	-35.390440	0.001114	11.136518	3.773155	-0.000446
1198	1.1910e+02	-7.6923	-35.269447	-0.000304	-3.037232	-1.029042	0.000122
1199	1.1920e+02	-7.7244	-35.551764	0.000709	7.086875	2.401098	-0.000284
1200	1.1930e+02	-7.7725	-35.793750	0.000607	6.074465	2.058084	-0.000243
1201	1.1940e+02	-7.8158	-36.479377	0.001721	17.210983	5.831239	-0.000689
1202	1.1950e+02	-7.8495	-36.398715	-0.000202	-2.024822	-0.686028	0.000081
1203	1.1960e+02	-7.8864	-36.963349	0.001417	14.173751	4.802197	-0.000567
1204	1.1970e+02	-7.9169	-36.963349	-0.000000	-0.000000	-0.000000	0.000000
1205	1.1980e+02	-7.9650	-37.487652	0.001316	13.161340	4.459183	-0.000527
1206	1.1990e+02	-8.0051	-37.568313	0.000202	2.024822	0.686028	-0.000081
1207	1.2000e+02	-8.0532	-38.213609	0.001620	16.198572	5.488225	-0.000649
1208	1.2010e+02	-8.0918	-38.415264	0.000506	5.062054	1.715070	-0.000203
1209	1.2020e+02	-8.1351	-38.576588	0.000405	4.049643	1.372056	-0.000162
1210	1.2030e+02	-8.1736	-38.858905	0.000709	7.086875	2.401098	-0.000284
1211	1.2039e+02	-8.2008	-38.576588	-0.000709	-7.086875	-2.401098	0.000284
1212	1.2049e+02	-8.2409	-39.100891	0.001316	13.161340	4.459183	-0.000527
1213	1.2059e+02	-8.2875	-39.342877	0.000607	6.074465	2.058084	-0.000243
1214	1.2069e+02	-8.3276	-40.109166	0.001924	19.235805	6.517267	-0.000770
1215	1.2079e+02	-8.3693	-40.028504	-0.000202	-2.024822	-0.686028	0.000081
1216	1.2089e+02	-8.4094	-40.552806	0.001316	13.161340	4.459183	-0.000527
1217	1.2099e+02	-8.4431	-40.754461	0.000506	5.062054	1.715070	-0.000203
1218	1.2109e+02	-8.4864	-41.077109	0.000810	8.099286	2.744112	-0.000324
1219	1.2119e+02	-8.5265	-41.319095	0.000607	6.074465	2.058084	-0.000243
1220	1.2129e+02	-8.5666	-41.601412	0.000709	7.086875	2.401098	-0.000284
1221	1.2139e+02	-8.6131	-41.883729	0.000709	7.086875	2.401098	-0.000284
1222	1.2149e+02	-8.6452	-42.448363	0.001417	14.173751	4.802197	-0.000567
1223	1.2159e+02	-8.6789	-42.085384	-0.000911	-9.111697	-3.087126	0.000365
1224	1.2169e+02	-8.7270	-42.972666	0.002227	22.273037	7.546309	-0.000892
1225	1.2179e+02	-8.7687	-43.093659	0.000304	3.037232	1.029042	-0.000122
1226	1.2189e+02	-8.8024	-43.254983	0.000405	4.049643	1.372056	-0.000162
1227	1.2199e+02	-8.8377	-43.617961	0.000911	9.111697	3.087126	-0.000365
1228	1.2209e+02	-8.8891	-43.980940	0.000911	9.111697	3.087126	-0.000365
1229	1.2219e+02	-8.9324	-43.859947	-0.000304	-3.037232	-1.029042	0.000122
1230	1.2229e+02	-8.9612	-44.303588	0.001114	11.136518	3.773155	-0.000446
1231	1.2239e+02	-9.0046	-44.585905	0.000709	7.086875	2.401098	-0.000284
1232	1.2248e+02	-9.0382	-44.706898	0.000304	3.037232	1.029042	-0.000122
1233	1.2258e+02	-9.0912	-45.271532	0.001417	14.173751	4.802197	-0.000567
1234	1.2268e+02	-9.1249	-45.634511	0.000911	9.111697	3.087126	-0.000365
1235	1.2278e+02	-9.1634	-45.513518	-0.000304	-3.037232	-1.029042	0.000122
1236	1.2288e+02	-9.2067	-45.957159	0.001114	11.136518	3.773155	-0.000446
1237	1.2298e+02	-9.2404	-46.199144	0.000607	6.074465	2.058084	-0.000243
1238	1.2308e+02	-9.2885	-46.642785	0.001114	11.136518	3.773155	-0.000446
1239	1.2318e+02	-9.3238	-46.804109	0.000405	4.049643	1.372056	-0.000162
1240	1.2328e+02	-9.3639	-46.884771	0.000202	2.024822	0.686028	-0.000081
1241	1.2338e+02	-9.4088	-47.288081	0.001012	10.124108	3.430141	-0.000405
1242	1.2348e+02	-9.4441	-47.570398	0.000709	7.086875	2.401098	-0.000284
1243	1.2358e+02	-9.4826	-47.893046	0.000810	8.099286	2.744112	-0.000324
1244	1.2368e+02	-9.5243	-48.054370	0.000405	4.049643	1.372056	-0.000162
1245	1.2378e+02	-9.5628	-48.417349	0.000911	9.111697	3.087126	-0.000365
1246	1.2388e+02	-9.5981	-48.175363	-0.000607	-6.074465	-2.058084	0.000243
1247	1.2398e+02	-9.6350	-48.820659	0.001620	16.198572	5.488225	-0.000649
1248	1.2408e+02	-9.6815	-48.901321	0.000202	2.024822	0.686028	-0.000081
1249	1.2418e+02	-9.7152	-48.820659	-0.000202	-2.024822	-0.686028	0.000081
1250	1.2428e+02	-9.7666	-49.788602	0.002430	24.297858	8.232337	-0.000973
1251	1.2438e+02	-9.8003	-49.990257	0.000506	5.062054	1.715070	-0.000203
1252	1.2447e+02	-9.8372	-50.030588	0.000101	1.012411	0.343014	-0.000041
1253	1.2457e+02	-9.8757	-50.393567	0.000911	9.111697	3.087126	-0.000365
1254	1.2467e+02	-9.9238	-50.958201	0.001417	14.173751	4.802197	-0.000567
1255	1.2477e+02	-9.9575	-51.280849	0.000810	8.099286	2.744112	-0.000324
1256	1.2487e+02	-9.9944	-51.442173	0.000405	4.049643	1.372056	-0.000162
1257	1.2497e+02	-10.0457	-51.563166	0.000304	3.037232	1.029042	-0.000122
1258	1.2507e+02	-10.0746	-51.926145	0.000911	9.111697	3.087126	-0.000365
1259	1.2517e+02	-10.1163	-52.289123	0.000911	9.111697	3.087126	-0.000365
1260	1.2527e+02	-10.1516	-52.047137	-0.000607	-6.074465	-2.058084	0.000243
1261	1.2537e+02	-10.2093	-52.450447	0.001012	10.124108	3.430141	-0.000405
1262	1.2547e+02	-10.2286	-53.095743	0.001620	16.198572	5.488225	-0.000649
1263	1.2557e+02	-10.2831	-53.539384	0.001114	11.136518	3.773155	-0.000446
1264	1.2567e+02	-10.3184	-53.176405	-0.000911	-9.111697	-3.087126	0.000365
1265	1.2577e+02	-10.3666	-53.539384	0.000911	9.111697	3.087126	-0.000365
1266	1.2587e+02	-10.3986	-53.983025	0.001114	11.136518	3.773155	-0.000446
1267	1.2597e+02	-10.4291	-54.305673	0.000810	8.099286	2.744112	-0.000324
1268	1.2607e+02	-10.4837	-54.346004	0.000101	1.012411	0.343014	-0.000041
1269	1.2617e+02	-10.5206	-54.547659	0.000506	5.062054	1.715070	-0.000203
1270	1.2627e+02	-10.5687	-54.708983	0.000405	4.049643	1.372056	-0.000162
1271	1.2636e+02	-10.6072	-55.354278	0.001620	16.198572	5.488225	-0.000649
1272	1.2646e+02	-10.6489	-54.870306	-0.001215	-12.148929	-4.116169	0.000486
1273	1.2656e+02	-10.6858	-55.878581	0.002531	25.310269	8.575351	-0.001013
1274	1.2666e+02	-10.7259	-56.160898	0.000709	7.086875	2.401098	-0.000284
1275	1.2676e+02	-10.7580	-56.322222	0.000405	4.049643	1.372056	-0.000162
1276	1.2686e+02	-10.7949	-56.281891	-0.000101	-1.012411	-0.343014	0.000041
1277	1.2696e+02	-10.8318	-56.685201	0.001012	10.124108	3.430141	-0.000405
1278	1.2706e+02	-10.8799	-57.088511	0.001012	10.124108	3.430141	-0.000405
1279	1.2716e+02	-10.9200	-57.330497	0.000607	6.074465	2.058084	-0.000243
1280	1.2726e+02	-10.9569	-57.612814	0.000709	7.086875	2.401098	-0.000284
1281	1.2736e+02	-11.0034	-57.532152	-0.000202	-2.024822	-0.686028	0.000081
1282	1.2746e+02	-11.0371	-57.975792	0.001114	11.136518	3.773155	-0.000446
1283	1.2756e+02	-11.0772	-58.258109	0.000709	7.086875	2.401098	-0.000284
1284	1.2766e+02	-11.1189	-58.863074	0.001519	15.186162	5.145211	-0.000608
1285	1.2776e+02	-11.1590	-58.338771	-0.001316	-13.161340	-4.459183	0.000527
1286	1.2786e+02	-11.2024	-58.943736	0.001519	15.186162	5.145211	-0.000608
1287	1.2796e+02	-11.2393	-59.427708	0.001215	12.148929	4.116169	-0.000486
1288	1.2806e+02	-11.2762	-59.306715	-0.000304	-3.037232	-1.029042	0.000122
1289	1.2816e+02	-11.3179	-59.871349	0.001417	14.173751	4.802197	-0.000567
1290	1.2826e+02	-11.3612	-60.032673	0.000405	4.049643	1.372056	-0.000162
1291	1.2835e+02	-11.3997	-60.274659	0.000607	6.074465	2.058084	-0.000243
1292	1.2845e+02	-11.4350	-60.476314	0.000506	5.062054	1.715070	-0.000203
1293	1.2855e+02	-11.4847	-60.879623	0.001012	10.124108	3.430141	-0.000405
1294	1.2865e+02	-11.5007	-61.323264	0.001114	11.136518	3.773155	-0.000446
1295	1.2875e+02	-11.5537	-61.403926	0.000202	2.024822	0.686028	-0.000081
1296	1.2885e+02	-11.5938	-61.726574	0.000810	8.099286	2.744112	-0.000324
1297	1.2895e+02	-11.6355	-61.847567	0.000304	3.037232	1.029042	-0.000122
1298	1.2905e+02	-11.6772	-62.371870	0.001316	13.161340	4.459183	-0.000527
1299	1.2915e+02	-11.7237	-62.170215	-0.000506	-5.062054	-1.715070	0.000203
1300	1.2925e+02	-11.7494	-62.533194	0.000911	9.111697	3.087126	-0.000365
1301	1.2935e+02	-11.7879	-62.976835	0.001114	11.136518	3.773155	-0.000446
1302	1.2945e+02	-11.8344	-63.138159	0.000405	4.049643	1.372056	-0.000162
1303	1.2955e+02	-11.8729	-63.178490	0.000101	1.012411	0.343014	-0.000041
1304	1.2965e+02	-11.9227	-63.662461	0.001215	12.148929	4.116169	-0.000486
1305	1.2975e+02	-11.9499	-63.702792	0.000101	1.012411	0.343014	-0.000041
1306	1.2985e+02	-11.9981	-63.783454	0.000202	2.024822	0.686028	-0.000081
1307	1.2995e+02	-12.0350	-64.590074	0.002025	20.248215	6.860281	-0.000811
1308	1.3005e+02	-12.0799	-64.711067	0.000304	3.037232	1.029042	-0.000122
1309	1.3015e+02	-12.1168	-64.670736	-0.000101	-1.012411	-0.343014	0.000041
1310	1.3025e+02	-12.1473	-65.154708	0.001215	12.148929	4.116169	-0.000486
1311	1.3034e+02	-12.1874	-65.396694	0.000607	6.074465	2.058084	-0.000243
1312	1.3044e+02	-12.2275	-65.437025	0.000101	1.012411	0.343014	-0.000041
1313	1.3054e+02	-12.2724	-65.880666	0.001114	11.136518	3.773155	-0.000446
1314	1.3064e+02	-12.3125	-66.203314	0.000810	8.099286	2.744112	-0.000324
1315	1.3074e+02	-12.3430	-66.162983	-0.000101	-1.012411	-0.343014	0.000041
1316	1.3084e+02	-12.3943	-66.848609	0.001721	17.210983	5.831239	-0.000689
1317	1.3094e+02	-12.4344	-66.727616	-0.000304	-3.037232	-1.029042	0.000122
1318	1.3104e+02	-12.4665	-67.171257	0.001114	11.136518	3.773155	-0.000446
1319	1.3114e+02	-12.5146	-67.655229	0.001215	12.148929	4.116169	-0.000486
1320	1.3124e+02	-12.5499	-67.534236	-0.000304	-3.037232	-1.029042	0.000122
1321	1.3134e+02	-12.5900	-68.179532	0.001620	16.198572	5.488225	-0.000649
1322	1.3144e+02	-12.6301	-68.461849	0.000709	7.086875	2.401098	-0.000284
1323	1.3154e+02	-12.6783	-68.542511	0.000202	2.024822	0.686028	-0.000081
1324	1.3164e+02	-12.7071	-69.107145	0.001417	14.173751	4.802197	-0.000567
1325	1.3174e+02	-12.7520	-69.268468	0.000405	4.049643	1.372056	-0.000162
1326	1.3184e+02	-12.7938	-69.228138	-0.000101	-1.012411	-0.343014	0.000041
1327	1.3194e+02	-12.8419	-69.752440	0.001316	13.161340	4.459183	-0.000527
1328	1.3204e+02	-12.8676	-69.792771	0.000101	1.012411	0.343014	-0.000041
1329	1.3214e+02	-12.9044	-70.397736	0.001519	15.186162	5.145211	-0.000608
1330	1.3224e+02	-12.9446	-70.236412	-0.000405	-4.049643	-1.372056	0.000162
1331	1.3234e+02	-12.9831	-70.236412	-0.000000	-0.000000	-0.000000	0.000000
1332	1.3243e+02	-13.0296	-70.639722	0.001012	10.124108	3.430141	-0.000405
1333	1.3253e+02	-13.0729	-71.204356	0.001417	14.173751	4.802197	-0.000567
1334	1.3263e+02	-13.1018	-71.325349	0.000304	3.037232	1.029042	-0.000122
1335	1.3273e+02	-13.1387	-71.446342	0.000304	3.037232	1.029042	-0.000122
1336	1.3283e+02	-13.1900	-71.728659	0.000709	7.086875	2.401098	-0.000284
1337	1.3293e+02	-13.2237	-72.051307	0.000810	8.099286	2.744112	-0.000324
1338	1.3303e+02	-13.2670	-72.494947	0.001114	11.136518	3.773155	-0.000446
1339	1.3313e+02	-13.3199	-72.373954	-0.000304	-3.037232	-1.029042	0.000122
1340	1.3323e+02	-13.3520	-73.019250	0.001620	16.198572	5.488225	-0.000649
1341	1.3333e+02	-13.3825	-72.938588	-0.000202	-2.024822	-0.686028	0.000081
1342	1.3343e+02	-13.4354	-73.583884	0.001620	16.198572	5.488225	-0.000649
1343	1.3353e+02	-13.4707	-73.624215	0.000101	1.012411	0.343014	-0.000041
1344	1.3363e+02	-13.5044	-73.987194	0.000911	9.111697	3.087126	-0.000365
1345	1.3373e+02	-13.5494	-74.430835	0.001114	11.136518	3.773155	-0.000446
1346	1.3383e+02	-13.5927	-74.188849	-0.000607	-6.074465	-2.058084	0.000243
1347	1.3393e+02	-13.6199	-74.753483	0.001417	14.173751	4.802197	-0.000567
1348	1.3403e+02	-13.6777	-74.793814	0.000101	1.012411	0.343014	-0.000041
1349	1.3413e+02	-13.7210	-74.995469	0.000506	5.062054	1.715070	-0.000203
1350	1.3423e+02	-13.7451	-75.560102	0.001417	14.173751	4.802197	-0.000567
1351	1.3432e+02	-13.7900	-76.447384	0.002227	22.273037	7.546309	-0.000892
1352	1.3442e+02	-13.8237	-75.923081	-0.001316	-13.161340	-4.459183	0.000527
1353	1.3452e+02	-13.8590	-76.165067	0.000607	6.074465	2.058084	-0.000243
1354	1.3462e+02	-13.9087	-76.810363	0.001620	16.198572	5.488225	-0.000649
1355	1.3472e+02	-13.9408	-76.850694	0.000101	1.012411	0.343014	-0.000041
1356	1.3482e+02	-13.9825	-76.891025	0.000101	1.012411	0.343014	-0.000041
1357	1.3492e+02	-14.0242	-77.213673	0.000810	8.099286	2.744112	-0.000324
1358	1.3502e+02	-14.0611	-77.254004	0.000101	1.012411	0.343014	-0.000041
1359	1.3512e+02	-14.1076	-77.536321	0.000709	7.086875	2.401098	-0.000284
1360	1.3522e+02	-14.1413	-78.262278	0.001822	18.223394	6.174253	-0.000730
1361	1.3532e+02	-14.1846	-78.665588	0.001012	10.124108	3.430141	-0.000405
1362	1.3542e+02	-14.2328	-79.028567	0.000911	9.111697	3.087126	-0.000365
1363	1.3552e+02	-14.2600	-79.109229	0.000202	2.024822	0.686028	-0.000081
1364	1.3562e+02	-14.3017	-79.109229	-0.000000	-0.000000	-0.000000	0.000000
1365	1.3572e+02	-14.3450	-79.391546	0.000709	7.086875	2.401098	-0.000284
1366	1.3582e+02	-14.3787	-79.633532	0.000607	6.074465	2.058084	-0.000243
1367	1.3592e+02	-14.4221	-79.996511	0.000911	9.111697	3.087126	-0.000365
1368	1.3602e+02	-14.4622	-80.077173	0.000202	2.024822	0.686028	-0.000081
1369	1.3612e+02	-14.5023	-80.682138	0.001519	15.186162	5.145211	-0.000608
1370	1.3622e+02	-14.5456	-80.964454	0.000709	7.086875	2.401098	-0.000284
1371	1.3631e+02	-14.5889	-81.045116	0.000202	2.024822	0.686028	-0.000081
1372	1.3641e+02	-14.6258	-81.408095	0.000911	9.111697	3.087126	-0.000365
1373	1.3651e+02	-14.6723	-81.408095	-0.000000	-0.000000	-0.000000	0.000000
1374	1.3661e+02	-14.7060	-82.093722	0.001721	17.210983	5.831239	-0.000689
1375	1.3671e+02	-14.7429	-82.376039	0.000709	7.086875	2.401098	-0.000284
1376	1.3681e+02	-14.7862	-82.416370	0.000101	1.012411	0.343014	-0.000041
1377	1.3691e+02	-14.8311	-83.021335	0.001519	15.186162	5.145211	-0.000608
1378	1.3701e+02	-14.8616	-83.101997	0.000202	2.024822	0.686028	-0.000081
1379	1.3711e+02	-14.9017	-83.545638	0.001114	11.136518	3.773155	-0.000446
1380	1.3721e+02	-14.9450	-83.868285	0.000810	8.099286	2.744112	-0.000324
1381	1.3731e+02	-14.9755	-84.069940	0.000506	5.062054	1.715070	-0.000203
1382	1.3741e+02	-15.0252	-84.473250	0.001012	10.124108	3.430141	-0.000405
1383	1.3751e+02	-15.0654	-84.795898	0.000810	8.099286	2.744112	-0.000324
1384	1.3761e+02	-15.0958	-85.078215	0.000709	7.086875	2.401098	-0.000284
1385	1.3771e+02	-15.1456	-84.916891	-0.000405	-4.049643	-1.372056	0.000162
1386	1.3781e+02	-15.1841	-85.763842	0.002126	21.260626	7.203295	-0.000851
1387	1.3791e+02	-15.2226	-86.086490	0.000810	8.099286	2.744112	-0.000324
1388	1.3801e+02	-15.2675	-86.247814	0.000405	4.049643	1.372056	-0.000162
1389	1.3811e+02	-15.2996	-86.530131	0.000709	7.086875	2.401098	-0.000284
1390	1.3821e+02	-15.3381	-86.409138	-0.000304	-3.037232	-1.029042	0.000122
1391	1.3831e+02	-15.3830	-86.772116	0.000911	9.111697	3.087126	-0.000365
1392	1.3840e+02	-15.4199	-87.054433	0.000709	7.086875	2.401098	-0.000284
1393	1.3850e+02	-15.4584	-87.619067	0.001417	14.173751	4.802197	-0.000567
1394	1.3860e+02	-15.5033	-88.062708	0.001114	11.136518	3.773155	-0.000446
1395	1.3870e+02	-15.5370	-88.103039	0.000101	1.012411	0.343014	-0.000041
1396	1.3880e+02	-15.5723	-88.788666	0.001721	17.210983	5.831239	-0.000689
1397	1.3890e+02	-15.6172	-88.304694	-0.001215	-12.148929	-4.116169	0.000486
1398	1.3900e+02	-15.6605	-89.232307	0.002329	23.285448	7.889323	-0.000932
1399	1.3910e+02	-15.7022	-89.474292	0.000607	6.074465	2.058084	-0.000243
1400	1.3920e+02	-15.7391	-89.998595	0.001316	13.161340	4.459183	-0.000527
1401	1.3930e+02	-15.7792	-89.917933	-0.000202	-2.024822	-0.686028	0.000081
1402	1.3940e+02	-15.8225	-90.159919	0.000607	6.074465	2.058084	-0.000243
1403	1.3950e+02	-15.8578	-90.845546	0.001721	17.210983	5.831239	-0.000689
1404	1.3960e+02	-15.8963	-91.087532	0.000607	6.074465	2.058084	-0.000243
1405	1.3970e+02	-15.9445	-91.490842	0.001012	10.124108	3.430141	-0.000405
1406	1.3980e+02	-15.9830	-91.894152	0.001012	10.124108	3.430141	-0.000405
1407	1.3990e+02	-16.0135	-91.692497	-0.000506	-5.062054	-1.715070	0.000203
1408	1.4000e+02	-16.0520	-92.378123	0.001721	17.210983	5.831239	-0.000689
1409	1.4010e+02	-16.1017	-92.781433	0.001012	10.124108	3.430141	-0.000405
1410	1.4020e+02	-16.1338	-92.821764	0.000101	1.012411	0.343014	-0.000041
1411	1.4029e+02	-16.1755	-93.144412	0.000810	8.099286	2.744112	-0.000324
1412	1.4039e+02	-16.2172	-93.346067	0.000506	5.062054	1.715070	-0.000203
1413	1.4049e+02	-16.2557	-93.830039	0.001215	12.148929	4.116169	-0.000486
1414	1.4059e+02	-16.2942	-94.193018	0.000911	9.111697	3.087126	-0.000365
1415	1.4069e+02	-16.3455	-94.878645	0.001721	17.210983	5.831239	-0.000689
1416	1.4079e+02	-16.3696	-95.080300	0.000506	5.062054	1.715070	-0.000203
1417	1.4089e+02	-16.4161	-95.523940	0.001114	11.136518	3.773155	-0.000446
1418	1.4099e+02	-16.4626	-95.604602	0.000202	2.024822	0.686028	-0.000081
1419	1.4109e+02	-16.5027	-95.927250	0.000810	8.099286	2.744112	-0.000324
1420	1.4119e+02	-16.5268	-96.572546	0.001620	16.198572	5.488225	-0.000649
1421	1.4129e+02	-16.5830	-97.056518	0.001215	12.148929	4.116169	-0.000486
1422	1.4139e+02	-16.6215	-97.016187	-0.000101	-1.012411	-0.343014	0.000041
1423	1.4149e+02	-16.6503	-97.217842	0.000506	5.062054	1.715070	-0.000203
1424	1.4159e+02	-16.6969	-97.580821	0.000911	9.111697	3.087126	-0.000365
1425	1.4169e+02	-16.7354	-97.782476	0.000506	5.062054	1.715070	-0.000203
1426	1.4179e+02	-16.7723	-98.266447	0.001215	12.148929	4.116169	-0.000486
1427	1.4189e+02	-16.8220	-98.790750	0.001316	13.161340	4.459183	-0.000527
1428	1.4199e+02	-16.8589	-98.750419	-0.000101	-1.012411	-0.343014	0.000041
1429	1.4209e+02	-16.8974	-99.678032	0.002329	23.285448	7.889323	-0.000932
1430	1.4219e+02	-16.9311	-100.081342	0.001012	10.124108	3.430141	-0.000405
1431	1.4228e+02	-16.9824	-100.323328	0.000607	6.074465	2.058084	-0.000243
1432	1.4238e+02	-17.0081	-100.484652	0.000405	4.049643	1.372056	-0.000162
1433	1.4248e+02	-17.0578	-100.807300	0.000810	8.099286	2.744112	-0.000324
1434	1.4258e+02	-17.0947	-101.613919	0.002025	20.248215	6.860281	-0.000811
1435	1.4268e+02	-17.1396	-101.412264	-0.000506	-5.062054	-1.715070	0.000203
1436	1.4278e+02	-17.1733	-101.936567	0.001316	13.161340	4.459183	-0.000527
1437	1.4288e+02	-17.2166	-102.581863	0.001620	16.198572	5.488225	-0.000649
1438	1.4298e+02	-17.2535	-102.944842	0.000911	9.111697	3.087126	-0.000365
1439	1.4308e+02	-17.2968	-103.146497	0.000506	5.062054	1.715070	-0.000203
1440	1.4318e+02	-17.3337	-103.912785	0.001924	19.235805	6.517267	-0.000770
1441	1.4328e+02	-17.3754	-104.195102	0.000709	7.086875	2.401098	-0.000284
1442	1.4338e+02	-17.4188	-104.517750	0.000810	8.099286	2.744112	-0.000324
1443	1.4348e+02	-17.4605	-104.437088	-0.000202	-2.024822	-0.686028	0.000081
1444	1.4358e+02	-17.4845	-104.638743	0.000506	5.062054	1.715070	-0.000203
1445	1.4368e+02	-17.5327	-105.687349	0.002632	26.322680	8.918365	-0.001054
1446	1.4378e+02	-17.5712	-106.009997	0.000810	8.099286	2.744112	-0.000324
1447	1.4388e+02	-17.6081	-106.372976	0.000911	9.111697	3.087126	-0.000365
1448	1.4398e+02	-17.6546	-106.695624	0.000810	8.099286	2.744112	-0.000324
1449	1.4408e+02	-17.6915	-107.582905	0.002227	22.273037	7.546309	-0.000892
1450	1.4418e+02	-17.7348	-107.663567	0.000202	2.024822	0.686028	-0.000081
1451	1.4428e+02	-17.7653	-108.268532	0.001519	15.186162	5.145211	-0.000608
1452	1.4437e+02	-17.8102	-108.308863	0.000101	1.012411	0.343014	-0.000041
1453	1.4447e+02	-17.8551	-108.833166	0.001316	13.161340	4.459183	-0.000527
1454	1.4457e+02	-17.8888	-109.115483	0.000709	7.086875	2.401098	-0.000284
1455	1.4467e+02	-17.9353	-109.962433	0.002126	21.260626	7.203295	-0.000851
1456	1.4477e+02	-17.9754	-110.325412	0.000911	9.111697	3.087126	-0.000365
1457	1.4487e+02	-18.0091	-110.607729	0.000709	7.086875	2.401098	-0.000284
1458	1.4497e+02	-18.0460	-110.930377	0.000810	8.099286	2.744112	-0.000324
1459	1.4507e+02	-18.0941	-111.736997	0.002025	20.248215	6.860281	-0.000811
1460	1.4517e+02	-18.1342	-112.341962	0.001519	15.186162	5.145211	-0.000608
1461	1.4527e+02	-18.1663	-112.503286	0.000405	4.049643	1.372056	-0.000162
1462	1.4537e+02	-18.2113	-113.229243	0.001822	18.223394	6.174253	-0.000730
1463	1.4547e+02	-18.2401	-113.390567	0.000405	4.049643	1.372056	-0.000162
1464	1.4557e+02	-18.2818	-113.713215	0.000810	8.099286	2.744112	-0.000324
1465	1.4567e+02	-18.3380	-114.600497	0.002227	22.273037	7.546309	-0.000892
1466	1.4577e+02	-18.3749	-114.882814	0.000709	7.086875	2.401098	-0.000284
1467	1.4587e+02	-18.4198	-115.205462	0.000810	8.099286	2.744112	-0.000324
1468	1.4597e+02	-18.4439	-116.092743	0.002227	22.273037	7.546309	-0.000892
1469	1.4607e+02	-18.4856	-116.133074	0.000101	1.012411	0.343014	-0.000041
1470	1.4617e+02	-18.5289	-117.060687	0.002329	23.285448	7.889323	-0.000932
1471	1.4626e+02	-18.5738	-117.383335	0.000810	8.099286	2.744112	-0.000324
1472	1.4636e+02	-18.6107	-117.544659	0.000405	4.049643	1.372056	-0.000162
1473	1.4646e+02	-18.6476	-118.149624	0.001519	15.186162	5.145211	-0.000608
1474	1.4656e+02	-18.6909	-118.996574	0.002126	21.260626	7.203295	-0.000851
1475	1.4666e+02	-18.7342	-119.319222	0.000810	8.099286	2.744112	-0.000324
1476	1.4676e+02	-18.7647	-119.964518	0.001620	16.198572	5.488225	-0.000649
1477	1.4686e+02	-18.8128	-119.843525	-0.000304	-3.037232	-1.029042	0.000122
1478	1.4696e+02	-18.8513	-120.771138	0.002329	23.285448	7.889323	-0.000932
1479	1.4706e+02	-18.8995	-120.972793	0.000506	5.062054	1.715070	-0.000203
1480	1.4716e+02	-18.9283	-121.618088	0.001620	16.198572	5.488225	-0.000649
1481	1.4726e+02	-18.9701	-122.061729	0.001114	11.136518	3.773155	-0.000446
1482	1.4736e+02	-19.0086	-123.110335	0.002632	26.322680	8.918365	-0.001054
1483	1.4746e+02	-19.0438	-122.908680	-0.000506	-5.062054	-1.715070	0.000203
1484	1.4756e+02	-19.0872	-123.594307	0.001721	17.210983	5.831239	-0.000689
1485	1.4766e+02	-19.1289	-124.562250	0.002430	24.297858	8.232337	-0.000973
1486	1.4776e+02	-19.1610	-125.005891	0.001114	11.136518	3.773155	-0.000446
1487	1.4786e+02	-19.2139	-125.449532	0.001114	11.136518	3.773155	-0.000446
1488	1.4796e+02	-19.2492	-126.175490	0.001822	18.223394	6.174253	-0.000730
1489	1.4806e+02	-19.2893	-126.659462	0.001215	12.148929	4.116169	-0.000486
1490	1.4816e+02	-19.3294	-127.708067	0.002632	26.322680	8.918365	-0.001054
1491	1.4825e+02	-19.3647	-127.788729	0.000202	2.024822	0.686028	-0.000081
1492	1.4835e+02	-19.4112	-128.111377	0.000810	8.099286	2.744112	-0.000324
1493	1.4845e+02	-19.4497	-128.716342	0.001519	15.186162	5.145211	-0.000608
1494	1.4855e+02	-19.4818	-129.724617	0.002531	25.310269	8.575351	-0.001013
1495	1.4865e+02	-19.5187	-130.087595	0.000911	9.111697	3.087126	-0.000365
1496	1.4875e+02	-19.5668	-130.773222	0.001721	17.210983	5.831239	-0.000689
1497	1.4885e+02	-19.5973	-131.257194	0.001215	12.148929	4.116169	-0.000486
1498	1.4895e+02	-19.6390	-132.265469	0.002531	25.310269	8.575351	-0.001013
1499	1.4905e+02	-19.6807	-132.386462	0.000304	3.037232	1.029042	-0.000122
1500	1.4915e+02	-19.7208	-133.273743	0.002227	22.273037	7.546309	-0.000892
1501	1.4925e+02	-19.7529	-134.040032	0.001924	19.235805	6.517267	-0.000770
1502	1.4935e+02	-19.8091	-133.919039	-0.000304	-3.037232	-1.029042	0.000122
1503	1.4945e+02	-19.8363	-135.007976	0.002734	27.335091	9.261379	-0.001094
1504	1.4955e+02	-19.8764	-135.491948	0.001215	12.148929	4.116169	-0.000486
1505	1.4965e+02	-19.9262	-136.217905	0.001822	18.223394	6.174253	-0.000730
1506	1.4975e+02	-19.9567	-136.863201	0.001620	16.198572	5.488225	-0.000649
1507	1.4985e+02	-20.0096	-137.185849	0.000810	8.099286	2.744112	-0.000324
1508	1.4995e+02	-19.9631	-137.871476	-0.001721	-17.210983	-5.831239	-0.000689
1509	1.5005e+02	-19.9326	-138.395779	-0.001316	-13.161340	-4.459183	-0.000527
1510	1.5015e+02	-19.8764	-138.153793	0.000607	6.074465	2.058084	0.000243
1511	1.5025e+02	-19.8412	-138.516771	-0.000911	-9.111697	-3.087126	-0.000365
1512	1.5034e+02	-19.7962	-138.557102	-0.000101	-1.012411	-0.343014	-0.000041
1513	1.5044e+02	-19.7513	-138.436110	0.000304	3.037232	1.029042	0.000122
1514	1.5054e+02	-19.7192	-139.121736	-0.001721	-17.210983	-5.831239	-0.000689
1515	1.5064e+02	-19.6871	-139.202398	-0.000202	-2.024822	-0.686028	-0.000081
1516	1.5074e+02	-19.6519	-139.242729	-0.000101	-1.012411	-0.343014	-0.000041
1517	1.5084e+02	-19.6053	-139.444384	-0.000506	-5.062054	-1.715070	-0.000203
1518	1.5094e+02	-19.5700	-139.202398	0.000607	6.074465	2.058084	0.000243
1519	1.5104e+02	-19.5219	-140.009018	-0.002025	-20.248215	-6.860281	-0.000811
1520	1.5114e+02	-19.4786	-140.049349	-0.000101	-1.012411	-0.343014	-0.000041
1521	1.5124e+02	-19.4369	-139.968687	0.000202	2.024822	0.686028	0.000081
1522	1.5134e+02	-19.4064	-140.009018	-0.000101	-1.012411	-0.343014	-0.000041
1523	1.5144e+02	-19.3663	-140.049349	-0.000101	-1.012411	-0.343014	-0.000041
1524	1.5154e+02	-19.3310	-140.130011	-0.000202	-2.024822	-0.686028	-0.000081
1525	1.5164e+02	-19.2877	-140.251004	-0.000304	-3.037232	-1.029042	-0.000122
1526	1.5174e+02	-19.2508	-140.371997	-0.000304	-3.037232	-1.029042	-0.000122
1527	1.5184e+02	-19.2043	-140.251004	0.000304	3.037232	1.029042	0.000122
1528	1.5194e+02	-19.1690	-140.170342	0.000202	2.024822	0.686028	0.000081
1529	1.5204e+02	-19.1273	-140.210673	-0.000101	-1.012411	-0.343014	-0.000041
1530	1.5214e+02	-19.0872	-139.847694	0.000911	9.111697	3.087126	0.000365
1531	1.5224e+02	-19.0438	-139.928356	-0.000202	-2.024822	-0.686028	-0.000081
1532	1.5233e+02	-19.0021	-140.210673	-0.000709	-7.086875	-2.401098	-0.000284
1533	1.5243e+02	-18.9701	-140.170342	0.000101	1.012411	0.343014	0.000041
1534	1.5253e+02	-18.9187	-140.452659	-0.000709	-7.086875	-2.401098	-0.000284
1535	1.5263e+02	-18.8850	-140.452659	0.000000	0.000000	0.000000	0.000000
1536	1.5273e+02	-18.8529	-140.210673	0.000607	6.074465	2.058084	0.000243
1537	1.5283e+02	-18.8080	-140.331666	-0.000304	-3.037232	-1.029042	-0.000122
1538	1.5293e+02	-18.7711	-140.492990	-0.000405	-4.049643	-1.372056	-0.000162
1539	1.5303e+02	-18.7294	-140.130011	0.000911	9.111697	3.087126	0.000365
1540	1.5313e+02	-18.6893	-140.089680	0.000101	1.012411	0.343014	0.000041
1541	1.5323e+02	-18.6508	-140.009018	0.000202	2.024822	0.686028	0.000081
1542	1.5333e+02	-18.6139	-140.210673	-0.000506	-5.062054	-1.715070	-0.000203
1543	1.5343e+02	-18.5738	-139.767032	0.001114	11.136518	3.773155	0.000446
1544	1.5353e+02	-18.5257	-139.847694	-0.000202	-2.024822	-0.686028	-0.000081
1545	1.5363e+02	-18.4872	-140.130011	-0.000709	-7.086875	-2.401098	-0.000284
1546	1.5373e+02	-18.4471	-139.847694	0.000709	7.086875	2.401098	0.000284
1547	1.5383e+02	-18.4150	-139.484715	0.000911	9.111697	3.087126	0.000365
1548	1.5393e+02	-18.3669	-139.605708	-0.000304	-3.037232	-1.029042	-0.000122
1549	1.5403e+02	-18.3300	-139.646039	-0.000101	-1.012411	-0.343014	-0.000041
1550	1.5413e+02	-18.2963	-139.283060	0.000911	9.111697	3.087126	0.000365
1551	1.5422e+02	-18.2449	-139.404053	-0.000304	-3.037232	-1.029042	-0.000122
1552	1.5432e+02	-18.2193	-139.363722	0.000101	1.012411	0.343014	0.000041
1553	1.5442e+02	-18.1727	-138.879750	0.001215	12.148929	4.116169	0.000486
1554	1.5452e+02	-18.1342	-139.000743	-0.000304	-3.037232	-1.029042	-0.000122
1555	1.5462e+02	-18.0893	-138.960412	0.000101	1.012411	0.343014	0.000041
1556	1.5472e+02	-18.0508	-138.920081	0.000101	1.012411	0.343014	0.000041
1557	1.5482e+02	-18.0091	-139.121736	-0.000506	-5.062054	-1.715070	-0.000203
1558	1.5492e+02	-17.9690	-138.678095	0.001114	11.136518	3.773155	0.000446
1559	1.5502e+02	-17.9321	-138.678095	0.000000	0.000000	0.000000	0.000000
1560	1.5512e+02	-17.8872	-138.597433	0.000202	2.024822	0.686028	0.000081
1561	1.5522e+02	-17.8535	-138.476441	0.000304	3.037232	1.029042	0.000122
1562	1.5532e+02	-17.8118	-138.557102	-0.000202	-2.024822	-0.686028	-0.000081
1563	1.5542e+02	-17.7685	-138.516771	0.000101	1.012411	0.343014	0.000041
1564	1.5552e+02	-17.7316	-137.992469	0.001316	13.161340	4.459183	0.000527
1565	1.5562e+02	-17.6979	-138.113462	-0.000304	-3.037232	-1.029042	-0.000122
1566	1.5572e+02	-17.6594	-137.992469	0.000304	3.037232	1.029042	0.000122
1567	1.5582e+02	-17.6209	-137.911807	0.000202	2.024822	0.686028	0.000081
1568	1.5592e+02	-17.5872	-137.831145	0.000202	2.024822	0.686028	0.000081
1569	1.5602e+02	-17.5343	-137.427835	0.001012	10.124108	3.430141	0.000405
1570	1.5612e+02	-17.4861	-137.468166	-0.000101	-1.012411	-0.343014	-0.000041
1571	1.5622e+02	-17.4428	-137.427835	0.000101	1.012411	0.343014	0.000041
1572	1.5631e+02	-17.4027	-137.387504	0.000101	1.012411	0.343014	0.000041
1573	1.5641e+02	-17.3754	-136.984194	0.001012	10.124108	3.430141	0.000405
1574	1.5651e+02	-17.3321	-137.105187	-0.000304	-3.037232	-1.029042	-0.000122
1575	1.5661e+02	-17.3000	-136.701877	0.001012	10.124108	3.430141	0.000405
1576	1.5671e+02	-17.2583	-136.822870	-0.000304	-3.037232	-1.029042	-0.000122
1577	1.5681e+02	-17.2150	-136.500222	0.000810	8.099286	2.744112	0.000324
1578	1.5691e+02	-17.1749	-136.379229	0.000304	3.037232	1.029042	0.000122
1579	1.5701e+02	-17.1364	-136.298567	0.000202	2.024822	0.686028	0.000081
1580	1.5711e+02	-17.0931	-136.338898	-0.000101	-1.012411	-0.343014	-0.000041
1581	1.5721e+02	-17.0578	-135.895257	0.001114	11.136518	3.773155	0.000446
1582	1.5731e+02	-17.0145	-136.258236	-0.000911	-9.111697	-3.087126	-0.000365
1583	1.5741e+02	-16.9776	-135.814595	0.001114	11.136518	3.773155	0.000446
1584	1.5751e+02	-16.9279	-135.895257	-0.000202	-2.024822	-0.686028	-0.000081
1585	1.5761e+02	-16.8926	-135.693602	0.000506	5.062054	1.715070	0.000203
1586	1.5771e+02	-16.8557	-135.370955	0.000810	8.099286	2.744112	0.000324
1587	1.5781e+02	-16.8140	-135.169300	0.000506	5.062054	1.715070	0.000203
1588	1.5791e+02	-16.7706	-135.693602	-0.001316	-13.161340	-4.459183	-0.000527
1589	1.5801e+02	-16.7305	-135.411286	0.000709	7.086875	2.401098	0.000284
1590	1.5811e+02	-16.6872	-134.806321	0.001519	15.186162	5.145211	0.000608
1591	1.5821e+02	-16.6535	-134.846652	-0.000101	-1.012411	-0.343014	-0.000041
1592	1.5830e+02	-16.6102	-134.524004	0.000810	8.099286	2.744112	0.000324
1593	1.5840e+02	-16.5733	-134.806321	-0.000709	-7.086875	-2.401098	-0.000284
1594	1.5850e+02	-16.5364	-134.080363	0.001822	18.223394	6.174253	0.000730
1595	1.5860e+02	-16.4995	-133.798046	0.000709	7.086875	2.401098	0.000284
1596	1.5870e+02	-16.4578	-133.919039	-0.000304	-3.037232	-1.029042	-0.000122
1597	1.5880e+02	-16.4145	-133.878708	0.000101	1.012411	0.343014	0.000041
1598	1.5890e+02	-16.3712	-133.878708	0.000000	0.000000	0.000000	0.000000
1599	1.5900e+02	-16.3327	-133.515729	0.000911	9.111697	3.087126	0.000365
1600	1.5910e+02	-16.2862	-133.757715	-0.000607	-6.074465	-2.058084	-0.000243
1601	1.5920e+02	-16.2557	-133.394736	0.000911	9.111697	3.087126	0.000365
1602	1.5930e+02	-16.2156	-133.152750	0.000607	6.074465	2.058084	0.000243
1603	1.5940e+02	-16.1787	-132.870433	0.000709	7.086875	2.401098	0.000284
1604	1.5950e+02	-16.1386	-132.830102	0.000101	1.012411	0.343014	0.000041
1605	1.5960e+02	-16.0937	-132.507455	0.000810	8.099286	2.744112	0.000324
1606	1.5970e+02	-16.0584	-132.709110	-0.000506	-5.062054	-1.715070	-0.000203
1607	1.5980e+02	-16.0167	-131.781497	0.002329	23.285448	7.889323	0.000932
1608	1.5990e+02	-15.9750	-132.265469	-0.001215	-12.148929	-4.116169	-0.000486
1609	1.6000e+02	-15.9445	-131.942821	0.000810	8.099286	2.744112	0.000324
1610	1.6010e+02	-15.9076	-131.821828	0.000304	3.037232	1.029042	0.000122
1611	1.6019e+02	-15.8643	-131.660504	0.000405	4.049643	1.372056	0.000162
1612	1.6029e+02	-15.8065	-131.297525	0.000911	9.111697	3.087126	0.000365
1613	1.6039e+02	-15.7776	-131.862159	-0.001417	-14.173751	-4.802197	-0.000567
1614	1.6049e+02	-15.7391	-131.095870	0.001924	19.235805	6.517267	0.000770
1615	1.6059e+02	-15.7135	-131.015208	0.000202	2.024822	0.686028	0.000081
1616	1.6069e+02	-15.6525	-130.934546	0.000202	2.024822	0.686028	0.000081
1617	1.6079e+02	-15.6268	-130.611898	0.000810	8.099286	2.744112	0.000324
1618	1.6089e+02	-15.5803	-130.410243	0.000506	5.062054	1.715070	0.000203
1619	1.6099e+02	-15.5386	-130.853884	-0.001114	-11.136518	-3.773155	-0.000446
1620	1.6109e+02	-15.5065	-130.329581	0.001316	13.161340	4.459183	0.000527
1621	1.6119e+02	-15.4664	-130.329581	0.000000	0.000000	0.000000	0.000000
1622	1.6129e+02	-15.4167	-129.926271	0.001012	10.124108	3.430141	0.000405
1623	1.6139e+02	-15.3894	-129.845610	0.000202	2.024822	0.686028	0.000081
1624	1.6149e+02	-15.3413	-129.563293	0.000709	7.086875	2.401098	0.000284
1625	1.6159e+02	-15.3060	-129.321307	0.000607	6.074465	2.058084	0.000243
1626	1.6169e+02	-15.2627	-129.200314	0.000304	3.037232	1.029042	0.000122
1627	1.6179e+02	-15.2226	-128.917997	0.000709	7.086875	2.401098	0.000284
1628	1.6189e+02	-15.1857	-129.119652	-0.000506	-5.062054	-1.715070	-0.000203
1629	1.6199e+02	-15.1440	-128.958328	0.000405	4.049643	1.372056	0.000162
1630	1.6209e+02	-15.1055	-128.514687	0.001114	11.136518	3.773155	0.000446
1631	1.6219e+02	-15.0589	-128.030715	0.001215	12.148929	4.116169	0.000486
1632	1.6228e+02	-15.0268	-128.434025	-0.001012	-10.124108	-3.430141	-0.000405
1633	1.6238e+02	-14.9819	-128.071046	0.000911	9.111697	3.087126	0.000365
1634	1.6248e+02	-14.9434	-128.030715	0.000101	1.012411	0.343014	0.000041
1635	1.6258e+02	-14.8921	-127.869391	0.000405	4.049643	1.372056	0.000162
1636	1.6268e+02	-14.8664	-127.748398	0.000304	3.037232	1.029042	0.000122
1637	1.6278e+02	-14.8247	-127.667736	0.000202	2.024822	0.686028	0.000081
1638	1.6288e+02	-14.7814	-127.183764	0.001215	12.148929	4.116169	0.000486
1639	1.6298e+02	-14.7445	-127.224095	-0.000101	-1.012411	-0.343014	-0.000041
1640	1.6308e+02	-14.7044	-127.022440	0.000506	5.062054	1.715070	0.000203
1641	1.6318e+02	-14.6659	-126.901448	0.000304	3.037232	1.029042	0.000122
1642	1.6328e+02	-14.6322	-127.224095	-0.000810	-8.099286	-2.744112	-0.000324
1643	1.6338e+02	-14.5873	-126.699793	0.001316	13.161340	4.459183	0.000527
1644	1.6348e+02	-14.5392	-126.498138	0.000506	5.062054	1.715070	0.000203
1645	1.6358e+02	-14.5039	-126.498138	0.000000	0.000000	0.000000	0.000000
1646	1.6368e+02	-14.4606	-126.175490	0.000810	8.099286	2.744112	0.000324
1647	1.6378e+02	-14.4237	-125.570525	0.001519	15.186162	5.145211	0.000608
1648	1.6388e+02	-14.3868	-125.893173	-0.000810	-8.099286	-2.744112	-0.000324
1649	1.6398e+02	-14.3418	-125.570525	0.000810	8.099286	2.744112	0.000324
1650	1.6408e+02	-14.2969	-125.489863	0.000202	2.024822	0.686028	0.000081
1651	1.6418e+02	-14.2680	-125.005891	0.001215	12.148929	4.116169	0.000486
1652	1.6427e+02	-14.2231	-124.763905	0.000607	6.074465	2.058084	0.000243
1653	1.6437e+02	-14.1798	-124.763905	0.000000	0.000000	0.000000	0.000000
1654	1.6447e+02	-14.1477	-124.763905	0.000000	0.000000	0.000000	0.000000
1655	1.6457e+02	-14.1060	-124.441257	0.000810	8.099286	2.744112	0.000324
1656	1.6467e+02	-14.0627	-124.400926	0.000101	1.012411	0.343014	0.000041
1657	1.6477e+02	-14.0226	-124.360595	0.000101	1.012411	0.343014	0.000041
1658	1.6487e+02	-13.9809	-124.037948	0.000810	8.099286	2.744112	0.000324
1659	1.6497e+02	-13.9440	-123.755631	0.000709	7.086875	2.401098	0.000284
1660	1.6507e+02	-13.9087	-123.674969	0.000202	2.024822	0.686028	0.000081
1661	1.6517e+02	-13.8638	-123.674969	0.000000	0.000000	0.000000	0.000000
1662	1.6527e+02	-13.8317	-123.311990	0.000911	9.111697	3.087126	0.000365
1663	1.6537e+02	-13.7788	-123.271659	0.000101	1.012411	0.343014	0.000041
1664	1.6547e+02	-13.7451	-123.070004	0.000506	5.062054	1.715070	0.000203
1665	1.6557e+02	-13.7082	-122.626363	0.001114	11.136518	3.773155	0.000446
1666	1.6567e+02	-13.6697	-122.828018	-0.000506	-5.062054	-1.715070	-0.000203
1667	1.6577e+02	-13.6247	-121.981067	0.002126	21.260626	7.203295	0.000851
1668	1.6587e+02	-13.5766	-122.021398	-0.000101	-1.012411	-0.343014	-0.000041
1669	1.6597e+02	-13.5510	-121.981067	0.000101	1.012411	0.343014	0.000041
1670	1.6607e+02	-13.5028	-122.344046	-0.000911	-9.111697	-3.087126	-0.000365
1671	1.6616e+02	-13.4740	-122.102060	0.000607	6.074465	2.058084	0.000243
1672	1.6626e+02	-13.4242	-121.497095	0.001519	15.186162	5.145211	0.000608
1673	1.6636e+02	-13.3857	-121.255109	0.000607	6.074465	2.058084	0.000243
1674	1.6646e+02	-13.3488	-121.174448	0.000202	2.024822	0.686028	0.000081
1675	1.6656e+02	-13.3167	-121.174448	0.000000	0.000000	0.000000	0.000000
1676	1.6666e+02	-13.2750	-120.730807	0.001114	11.136518	3.773155	0.000446
1677	1.6676e+02	-13.2237	-120.932462	-0.000506	-5.062054	-1.715070	-0.000203
1678	1.6686e+02	-13.1900	-120.932462	0.000000	0.000000	0.000000	0.000000
1679	1.6696e+02	-13.1563	-120.125842	0.002025	20.248215	6.860281	0.000811
1680	1.6706e+02	-13.1098	-120.287166	-0.000405	-4.049643	-1.372056	-0.000162
1681	1.6716e+02	-13.0681	-120.125842	0.000405	4.049643	1.372056	0.000162
1682	1.6726e+02	-13.0312	-119.803194	0.000810	8.099286	2.744112	0.000324
1683	1.6736e+02	-12.9879	-119.924187	-0.000304	-3.037232	-1.029042	-0.000122
1684	1.6746e+02	-12.9494	-119.641870	0.000709	7.086875	2.401098	0.000284
1685	1.6756e+02	-12.9044	-119.601539	0.000101	1.012411	0.343014	0.000041
1686	1.6766e+02	-12.8852	-119.520877	0.000202	2.024822	0.686028	0.000081
1687	1.6776e+02	-12.8371	-119.399884	0.000304	3.037232	1.029042	0.000122
1688	1.6786e+02	-12.7889	-119.036905	0.000911	9.111697	3.087126	0.000365
1689	1.6796e+02	-12.7488	-119.077236	-0.000101	-1.012411	-0.343014	-0.000041
1690	1.6806e+02	-12.7168	-119.278891	-0.000506	-5.062054	-1.715070	-0.000203
1691	1.6816e+02	-12.6670	-118.310947	0.002430	24.297858	8.232337	0.000973
1692	1.6825e+02	-12.6317	-118.431940	-0.000304	-3.037232	-1.029042	-0.000122
1693	1.6835e+02	-12.5996	-118.512602	-0.000202	-2.024822	-0.686028	-0.000081
1694	1.6845e+02	-12.5531	-118.391609	0.000304	3.037232	1.029042	0.000122
1695	1.6855e+02	-12.5050	-118.109293	0.000709	7.086875	2.401098	0.000284
1696	1.6865e+02	-12.4649	-117.786645	0.000810	8.099286	2.744112	0.000324
1697	1.6875e+02	-12.4312	-117.907638	-0.000304	-3.037232	-1.029042	-0.000122
1698	1.6885e+02	-12.3943	-117.907638	0.000000	0.000000	0.000000	0.000000
1699	1.6895e+02	-12.3526	-117.826976	0.000202	2.024822	0.686028	0.000081
1700	1.6905e+02	-12.3141	-117.222011	0.001519	15.186162	5.145211	0.000608
1701	1.6915e+02	-12.2740	-117.060687	0.000405	4.049643	1.372056	0.000162
1702	1.6925e+02	-12.2387	-117.141349	-0.000202	-2.024822	-0.686028	-0.000081
1703	1.6935e+02	-12.1906	-116.617046	0.001316	13.161340	4.459183	0.000527
1704	1.6945e+02	-12.1473	-116.899363	-0.000709	-7.086875	-2.401098	-0.000284
1705	1.6955e+02	-12.1071	-116.697708	0.000506	5.062054	1.715070	0.000203
1706	1.6965e+02	-12.0799	-116.213736	0.001215	12.148929	4.116169	0.000486
1707	1.6975e+02	-12.0334	-116.173405	0.000101	1.012411	0.343014	0.000041
1708	1.6985e+02	-11.9932	-115.891088	0.000709	7.086875	2.401098	0.000284
1709	1.6995e+02	-11.9547	-115.245793	0.001620	16.198572	5.488225	0.000649
1710	1.7005e+02	-11.9114	-115.326455	-0.000202	-2.024822	-0.686028	-0.000081
1711	1.7015e+02	-11.8793	-114.842483	0.001215	12.148929	4.116169	0.000486
1712	1.7024e+02	-11.8280	-114.963476	-0.000304	-3.037232	-1.029042	-0.000122
1713	1.7034e+02	-11.7879	-114.681159	0.000709	7.086875	2.401098	0.000284
1714	1.7044e+02	-11.7670	-114.721490	-0.000101	-1.012411	-0.343014	-0.000041
1715	1.7054e+02	-11.7221	-114.479504	0.000607	6.074465	2.058084	0.000243
1716	1.7064e+02	-11.6692	-113.955201	0.001316	13.161340	4.459183	0.000527
1717	1.7074e+02	-11.6371	-113.874539	0.000202	2.024822	0.686028	0.000081
1718	1.7084e+02	-11.5842	-113.672884	0.000506	5.062054	1.715070	0.000203
1719	1.7094e+02	-11.5617	-113.229243	0.001114	11.136518	3.773155	0.000446
1720	1.7104e+02	-11.5296	-113.551891	-0.000810	-8.099286	-2.744112	-0.000324
1721	1.7114e+02	-11.4783	-113.148581	0.001012	10.124108	3.430141	0.000405
1722	1.7124e+02	-11.4430	-112.503286	0.001620	16.198572	5.488225	0.000649
1723	1.7134e+02	-11.3965	-112.987257	-0.001215	-12.148929	-4.116169	-0.000486
1724	1.7144e+02	-11.3516	-112.785602	0.000506	5.062054	1.715070	0.000203
1725	1.7154e+02	-11.3211	-111.777328	0.002531	25.310269	8.575351	0.001013
1726	1.7164e+02	-11.2762	-111.898321	-0.000304	-3.037232	-1.029042	-0.000122
1727	1.7174e+02	-11.2344	-111.414349	0.001215	12.148929	4.116169	0.000486
1728	1.7184e+02	-11.1863	-111.293356	0.000304	3.037232	1.029042	0.000122
1729	1.7194e+02	-11.1590	-111.132032	0.000405	4.049643	1.372056	0.000162
1730	1.7204e+02	-11.1029	-110.849715	0.000709	7.086875	2.401098	0.000284
1731	1.7213e+02	-11.0756	-110.446405	0.001012	10.124108	3.430141	0.000405
1732	1.7223e+02	-11.0467	-110.728722	-0.000709	-7.086875	-2.401098	-0.000284
1733	1.7233e+02	-10.9922	-110.890046	-0.000405	-4.049643	-1.372056	-0.000162
1734	1.7243e+02	-10.9617	-110.285081	0.001519	15.186162	5.145211	0.000608
1735	1.7253e+02	-10.9200	-109.841440	0.001114	11.136518	3.773155	0.000446
1736	1.7263e+02	-10.8783	-109.881771	-0.000101	-1.012411	-0.343014	-0.000041
1737	1.7273e+02	-10.8430	-109.397800	0.001215	12.148929	4.116169	0.000486
1738	1.7283e+02	-10.7949	-108.913828	0.001215	12.148929	4.116169	0.000486
1739	1.7293e+02	-10.7612	-108.792835	0.000304	3.037232	1.029042	0.000122
1740	1.7303e+02	-10.7307	-108.954159	-0.000405	-4.049643	-1.372056	-0.000162
1741	1.7313e+02	-10.6681	-108.510518	0.001114	11.136518	3.773155	0.000446
1742	1.7323e+02	-10.6393	-108.308863	0.000506	5.062054	1.715070	0.000203
1743	1.7333e+02	-10.6008	-108.187870	0.000304	3.037232	1.029042	0.000122
1744	1.7343e+02	-10.5607	-108.349194	-0.000405	-4.049643	-1.372056	-0.000162
1745	1.7353e+02	-10.5157	-107.986215	0.000911	9.111697	3.087126	0.000365
1746	1.7363e+02	-10.4805	-107.945884	0.000101	1.012411	0.343014	0.000041
1747	1.7373e+02	-10.4371	-107.542574	0.001012	10.124108	3.430141	0.000405
1748	1.7383e+02	-10.4034	-107.421581	0.000304	3.037232	1.029042	0.000122
1749	1.7393e+02	-10.3633	-106.735955	0.001721	17.210983	5.831239	0.000689
1750	1.7403e+02	-10.3152	-106.977940	-0.000607	-6.074465	-2.058084	-0.000243
1751	1.7413e+02	-10.2912	-106.816616	0.000405	4.049643	1.372056	0.000162
1752	1.7422e+02	-10.2398	-106.050328	0.001924	19.235805	6.517267	0.000770
1753	1.7432e+02	-10.2029	-106.292314	-0.000607	-6.074465	-2.058084	-0.000243
1754	1.7442e+02	-10.1580	-105.969666	0.000810	8.099286	2.744112	0.000324
1755	1.7452e+02	-10.1339	-105.848673	0.000304	3.037232	1.029042	0.000122
1756	1.7462e+02	-10.0714	-105.606687	0.000607	6.074465	2.058084	0.000243
1757	1.7472e+02	-10.0265	-105.324370	0.000709	7.086875	2.401098	0.000284
1758	1.7482e+02	-10.0024	-105.243708	0.000202	2.024822	0.686028	0.000081
1759	1.7492e+02	-9.9655	-105.243708	0.000000	0.000000	0.000000	0.000000
1760	1.7502e+02	-9.9254	-104.638743	0.001519	15.186162	5.145211	0.000608
1761	1.7512e+02	-9.8837	-104.598412	0.000101	1.012411	0.343014	0.000041
1762	1.7522e+02	-9.8452	-104.033778	0.001417	14.173751	4.802197	0.000567
1763	1.7532e+02	-9.8035	-104.396757	-0.000911	-9.111697	-3.087126	-0.000365
1764	1.7542e+02	-9.7602	-103.872455	0.001316	13.161340	4.459183	0.000527
1765	1.7552e+02	-9.7233	-103.872455	0.000000	0.000000	0.000000	0.000000
1766	1.7562e+02	-9.6815	-104.114440	-0.000607	-6.074465	-2.058084	-0.000243
1767	1.7572e+02	-9.6414	-103.227159	0.002227	22.273037	7.546309	0.000892
1768	1.7582e+02	-9.6045	-103.348152	-0.000304	-3.037232	-1.029042	-0.000122
1769	1.7592e+02	-9.5580	-102.985173	0.000911	9.111697	3.087126	0.000365
1770	1.7602e+02	-9.5243	-102.743187	0.000607	6.074465	2.058084	0.000243
1771	1.7612e+02	-9.4906	-102.743187	0.000000	0.000000	0.000000	0.000000
1772	1.7621e+02	-9.4441	-101.855905	0.002227	22.273037	7.546309	0.000892
1773	1.7631e+02	-9.4088	-102.339877	-0.001215	-12.148929	-4.116169	-0.000486
1774	1.7641e+02	-9.3591	-101.936567	0.001012	10.124108	3.430141	0.000405
1775	1.7651e+02	-9.3238	-101.734912	0.000506	5.062054	1.715070	0.000203
1776	1.7661e+02	-9.2821	-101.452595	0.000709	7.086875	2.401098	0.000284
1777	1.7671e+02	-9.2484	-101.049285	0.001012	10.124108	3.430141	0.000405
1778	1.7681e+02	-9.2051	-100.887962	0.000405	4.049643	1.372056	0.000162
1779	1.7691e+02	-9.1570	-100.524983	0.000911	9.111697	3.087126	0.000365
1780	1.7701e+02	-9.1185	-100.726638	-0.000506	-5.062054	-1.715070	-0.000203
1781	1.7711e+02	-9.0912	-100.484652	0.000607	6.074465	2.058084	0.000243
1782	1.7721e+02	-9.0495	-99.879687	0.001519	15.186162	5.145211	0.000608
1783	1.7731e+02	-9.0062	-100.121673	-0.000607	-6.074465	-2.058084	-0.000243
1784	1.7741e+02	-8.9645	-99.637701	0.001215	12.148929	4.116169	0.000486
1785	1.7751e+02	-8.9292	-99.395715	0.000607	6.074465	2.058084	0.000243
1786	1.7761e+02	-8.8858	-99.194060	0.000506	5.062054	1.715070	0.000203
1787	1.7771e+02	-8.8409	-98.750419	0.001114	11.136518	3.773155	0.000446
1788	1.7781e+02	-8.8040	-99.032736	-0.000709	-7.086875	-2.401098	-0.000284
1789	1.7791e+02	-8.7671	-98.508433	0.001316	13.161340	4.459183	0.000527
1790	1.7801e+02	-8.7254	-98.347109	0.000405	4.049643	1.372056	0.000162
1791	1.7810e+02	-8.6869	-98.185785	0.000405	4.049643	1.372056	0.000162
1792	1.7820e+02	-8.6564	-97.782476	0.001012	10.124108	3.430141	0.000405
1793	1.7830e+02	-8.6003	-97.459828	0.000810	8.099286	2.744112	0.000324
1794	1.7840e+02	-8.5650	-97.621152	-0.000405	-4.049643	-1.372056	-0.000162
1795	1.7850e+02	-8.5233	-97.298504	0.000810	8.099286	2.744112	0.000324
1796	1.7860e+02	-8.4880	-96.935525	0.000911	9.111697	3.087126	0.000365
1797	1.7870e+02	-8.4351	-96.935525	0.000000	0.000000	0.000000	0.000000
1798	1.7880e+02	-8.4094	-96.693539	0.000607	6.074465	2.058084	0.000243
1799	1.7890e+02	-8.3661	-96.088574	0.001519	15.186162	5.145211	0.000608
1800	1.7900e+02	-8.3276	-96.007912	0.000202	2.024822	0.686028	0.000081
1801	1.7910e+02	-8.2827	-95.927250	0.000202	2.024822	0.686028	0.000081
1802	1.7920e+02	-8.2458	-95.523940	0.001012	10.124108	3.430141	0.000405
1803	1.7930e+02	-8.2089	-95.443278	0.000202	2.024822	0.686028	0.000081
1804	1.7940e+02	-8.1720	-95.201293	0.000607	6.074465	2.058084	0.000243
1805	1.7950e+02	-8.1158	-95.039969	0.000405	4.049643	1.372056	0.000162
1806	1.7960e+02	-8.0869	-94.757652	0.000709	7.086875	2.401098	0.000284
1807	1.7970e+02	-8.0436	-94.193018	0.001417	14.173751	4.802197	0.000567
1808	1.7980e+02	-8.0051	-94.354342	-0.000405	-4.049643	-1.372056	-0.000162
1809	1.7990e+02	-7.9634	-94.152687	0.000506	5.062054	1.715070	0.000203
1810	1.8000e+02	-7.9345	-93.628384	0.001316	13.161340	4.459183	0.000527
1811	1.8009e+02	-7.8880	-93.547722	0.000202	2.024822	0.686028	0.000081
1812	1.8019e+02	-7.8559	-93.668715	-0.000304	-3.037232	-1.029042	-0.000122
1813	1.8029e+02	-7.8078	-93.063750	0.001519	15.186162	5.145211	0.000608
1814	1.8039e+02	-7.7693	-93.184743	-0.000304	-3.037232	-1.029042	-0.000122
1815	1.8049e+02	-7.7228	-92.741102	0.001114	11.136518	3.773155	0.000446
1816	1.8059e+02	-7.6907	-92.579778	0.000405	4.049643	1.372056	0.000162
1817	1.8069e+02	-7.6490	-92.378123	0.000506	5.062054	1.715070	0.000203
1818	1.8079e+02	-7.6121	-92.095807	0.000709	7.086875	2.401098	0.000284
1819	1.8089e+02	-7.5704	-91.974814	0.000304	3.037232	1.029042	0.000122
1820	1.8099e+02	-7.5287	-91.531173	0.001114	11.136518	3.773155	0.000446
1821	1.8109e+02	-7.4886	-91.208525	0.000810	8.099286	2.744112	0.000324
1822	1.8119e+02	-7.4501	-91.047201	0.000405	4.049643	1.372056	0.000162
1823	1.8129e+02	-7.4164	-90.966539	0.000202	2.024822	0.686028	0.000081
1824	1.8139e+02	-7.3666	-90.482567	0.001215	12.148929	4.116169	0.000486
1825	1.8149e+02	-7.3362	-90.321243	0.000405	4.049643	1.372056	0.000162
1826	1.8159e+02	-7.2944	-89.917933	0.001012	10.124108	3.430141	0.000405
1827	1.8169e+02	-7.2447	-90.079257	-0.000405	-4.049643	-1.372056	-0.000162
1828	1.8179e+02	-7.2030	-89.635616	0.001114	11.136518	3.773155	0.000446
1829	1.8189e+02	-7.1741	-89.232307	0.001012	10.124108	3.430141	0.000405
1830	1.8199e+02	-7.1324	-89.756609	-0.001316	-13.161340	-4.459183	-0.000527
1831	1.8209e+02	-7.0907	-89.111314	0.001620	16.198572	5.488225	0.000649
1832	1.8218e+02	-7.0538	-88.788666	0.000810	8.099286	2.744112	0.000324
1833	1.8228e+02	-7.0105	-88.949990	-0.000405	-4.049643	-1.372056	-0.000162
1834	1.8238e+02	-6.9736	-88.183701	0.001924	19.235805	6.517267	0.000770
1835	1.8248e+02	-6.9303	-88.062708	0.000304	3.037232	1.029042	0.000122
1836	1.8258e+02	-6.8950	-87.780391	0.000709	7.086875	2.401098	0.000284
1837	1.8268e+02	-6.8549	-87.457743	0.000810	8.099286	2.744112	0.000324
1838	1.8278e+02	-6.8084	-87.336750	0.000304	3.037232	1.029042	0.000122
1839	1.8288e+02	-6.7618	-86.973771	0.000911	9.111697	3.087126	0.000365
1840	1.8298e+02	-6.7298	-86.812447	0.000405	4.049643	1.372056	0.000162
1841	1.8308e+02	-6.6929	-86.368807	0.001114	11.136518	3.773155	0.000446
1842	1.8318e+02	-6.6495	-86.691454	-0.000810	-8.099286	-2.744112	-0.000324
1843	1.8328e+02	-6.6175	-86.247814	0.001114	11.136518	3.773155	0.000446
1844	1.8338e+02	-6.5725	-85.844504	0.001012	10.124108	3.430141	0.000405
1845	1.8348e+02	-6.5372	-85.683180	0.000405	4.049643	1.372056	0.000162
1846	1.8358e+02	-6.4939	-85.360532	0.000810	8.099286	2.744112	0.000324
1847	1.8368e+02	-6.4538	-84.957222	0.001012	10.124108	3.430141	0.000405
1848	1.8378e+02	-6.4105	-84.876560	0.000202	2.024822	0.686028	0.000081
1849	1.8388e+02	-6.3752	-84.513581	0.000911	9.111697	3.087126	0.000365
1850	1.8398e+02	-6.3351	-84.069940	0.001114	11.136518	3.773155	0.000446
1851	1.8407e+02	-6.2982	-84.392588	-0.000810	-8.099286	-2.744112	-0.000324
1852	1.8417e+02	-6.2629	-83.948947	0.001114	11.136518	3.773155	0.000446
1853	1.8427e+02	-6.2228	-83.263321	0.001721	17.210983	5.831239	0.000689
1854	1.8437e+02	-6.1779	-83.545638	-0.000709	-7.086875	-2.401098	-0.000284
1855	1.8447e+02	-6.1362	-83.222990	0.000810	8.099286	2.744112	0.000324
1856	1.8457e+02	-6.1009	-83.222990	0.000000	0.000000	0.000000	0.000000
1857	1.8467e+02	-6.0576	-82.698687	0.001316	13.161340	4.459183	0.000527
1858	1.8477e+02	-6.0127	-82.900342	-0.000506	-5.062054	-1.715070	-0.000203
1859	1.8487e+02	-5.9806	-82.053391	0.002126	21.260626	7.203295	0.000851
1860	1.8497e+02	-5.9389	-81.972729	0.000202	2.024822	0.686028	0.000081
1861	1.8507e+02	-5.9052	-81.811405	0.000405	4.049643	1.372056	0.000162
1862	1.8517e+02	-5.8571	-81.569419	0.000607	6.074465	2.058084	0.000243
1863	1.8527e+02	-5.8137	-81.327433	0.000607	6.074465	2.058084	0.000243
1864	1.8537e+02	-5.7865	-80.883792	0.001114	11.136518	3.773155	0.000446
1865	1.8547e+02	-5.7351	-80.561145	0.000810	8.099286	2.744112	0.000324
1866	1.8557e+02	-5.6998	-80.480483	0.000202	2.024822	0.686028	0.000081
1867	1.8567e+02	-5.6629	-80.198166	0.000709	7.086875	2.401098	0.000284
1868	1.8577e+02	-5.6228	-79.794856	0.001012	10.124108	3.430141	0.000405
1869	1.8587e+02	-5.5795	-79.431877	0.000911	9.111697	3.087126	0.000365
1870	1.8597e+02	-5.5394	-79.431877	0.000000	0.000000	0.000000	0.000000
1871	1.8606e+02	-5.4977	-79.552870	-0.000304	-3.037232	-1.029042	-0.000122
1872	1.8616e+02	-5.4544	-78.947905	0.001519	15.186162	5.145211	0.000608
1873	1.8626e+02	-5.4159	-78.746250	0.000506	5.062054	1.715070	0.000203
1874	1.8636e+02	-5.3662	-78.705919	0.000101	1.012411	0.343014	0.000041
1875	1.8646e+02	-5.3373	-78.100954	0.001519	15.186162	5.145211	0.000608
1876	1.8656e+02	-5.3132	-78.181616	-0.000202	-2.024822	-0.686028	-0.000081
1877	1.8666e+02	-5.2587	-77.778307	0.001012	10.124108	3.430141	0.000405
1878	1.8676e+02	-5.2234	-77.616983	0.000405	4.049643	1.372056	0.000162
1879	1.8686e+02	-5.1833	-76.891025	0.001822	18.223394	6.174253	0.000730
1880	1.8696e+02	-5.1416	-76.850694	0.000101	1.012411	0.343014	0.000041
1881	1.8706e+02	-5.1079	-76.407053	0.001114	11.136518	3.773155	0.000446
1882	1.8716e+02	-5.0614	-76.326391	0.000202	2.024822	0.686028	0.000081
1883	1.8726e+02	-5.0245	-76.084405	0.000607	6.074465	2.058084	0.000243
1884	1.8736e+02	-4.9795	-75.721426	0.000911	9.111697	3.087126	0.000365
1885	1.8746e+02	-4.9426	-75.519771	0.000506	5.062054	1.715070	0.000203
1886	1.8756e+02	-4.9041	-75.439109	0.000202	2.024822	0.686028	0.000081
1887	1.8766e+02	-4.8640	-75.439109	0.000000	0.000000	0.000000	0.000000
1888	1.8776e+02	-4.8287	-74.753483	0.001721	17.210983	5.831239	0.000689
1889	1.8786e+02	-4.7806	-74.995469	-0.000607	-6.074465	-2.058084	-0.000243
1890	1.8796e+02	-4.7373	-74.148518	0.002126	21.260626	7.203295	0.000851
1891	1.8806e+02	-4.6988	-74.108187	0.000101	1.012411	0.343014	0.000041
1892	1.8815e+02	-4.6571	-73.583884	0.001316	13.161340	4.459183	0.000527
1893	1.8825e+02	-4.6186	-73.462891	0.000304	3.037232	1.029042	0.000122
1894	1.8835e+02	-4.5817	-73.341898	0.000304	3.037232	1.029042	0.000122
1895	1.8845e+02	-4.5400	-72.777264	0.001417	14.173751	4.802197	0.000567
1896	1.8855e+02	-4.4999	-72.656271	0.000304	3.037232	1.029042	0.000122
1897	1.8865e+02	-4.4662	-72.172299	0.001215	12.148929	4.116169	0.000486
1898	1.8875e+02	-4.4261	-72.333623	-0.000405	-4.049643	-1.372056	-0.000162
1899	1.8885e+02	-4.3780	-72.212630	0.000304	3.037232	1.029042	0.000122
1900	1.8895e+02	-4.3443	-71.527004	0.001721	17.210983	5.831239	0.000689
1901	1.8905e+02	-4.3154	-71.285018	0.000607	6.074465	2.058084	0.000243
1902	1.8915e+02	-4.2657	-71.204356	0.000202	2.024822	0.686028	0.000081
1903	1.8925e+02	-4.2255	-71.002701	0.000506	5.062054	1.715070	0.000203
1904	1.8935e+02	-4.1887	-70.276743	0.001822	18.223394	6.174253	0.000730
1905	1.8945e+02	-4.1502	-70.478398	-0.000506	-5.062054	-1.715070	-0.000203
1906	1.8955e+02	-4.0988	-70.155750	0.000810	8.099286	2.744112	0.000324
1907	1.8965e+02	-4.0748	-69.792771	0.000911	9.111697	3.087126	0.000365
1908	1.8975e+02	-4.0266	-69.308799	0.001215	12.148929	4.116169	0.000486
1909	1.8985e+02	-3.9881	-69.147476	0.000405	4.049643	1.372056	0.000162
1910	1.8995e+02	-3.9512	-68.824828	0.000810	8.099286	2.744112	0.000324
1911	1.9004e+02	-3.9031	-68.663504	0.000405	4.049643	1.372056	0.000162
1912	1.9014e+02	-3.8694	-68.300525	0.000911	9.111697	3.087126	0.000365
1913	1.9024e+02	-3.8213	-67.816553	0.001215	12.148929	4.116169	0.000486
1914	1.9034e+02	-3.7876	-67.897215	-0.000202	-2.024822	-0.686028	-0.000081
1915	1.9044e+02	-3.7475	-67.534236	0.000911	9.111697	3.087126	0.000365
1916	1.9054e+02	-3.7106	-67.171257	0.000911	9.111697	3.087126	0.000365
1917	1.9064e+02	-3.6609	-66.969602	0.000506	5.062054	1.715070	0.000203
1918	1.9074e+02	-3.6272	-66.606623	0.000911	9.111697	3.087126	0.000365
1919	1.9084e+02	-3.5871	-66.041990	0.001417	14.173751	4.802197	0.000567
1920	1.9094e+02	-3.5486	-66.364638	-0.000810	-8.099286	-2.744112	-0.000324
1921	1.9104e+02	-3.5101	-65.800004	0.001417	14.173751	4.802197	0.000567
1922	1.9114e+02	-3.4732	-65.316032	0.001215	12.148929	4.116169	0.000486
1923	1.9124e+02	-3.4331	-65.477356	-0.000405	-4.049643	-1.372056	-0.000162
1924	1.9134e+02	-3.3881	-65.275701	0.000506	5.062054	1.715070	0.000203
1925	1.9144e+02	-3.3577	-64.751398	0.001316	13.161340	4.459183	0.000527
1926	1.9154e+02	-3.3159	-64.307757	0.001114	11.136518	3.773155	0.000446
1927	1.9164e+02	-3.2694	-64.106102	0.000506	5.062054	1.715070	0.000203
1928	1.9174e+02	-3.2293	-64.025440	0.000202	2.024822	0.686028	0.000081
1929	1.9184e+02	-3.1860	-63.339814	0.001721	17.210983	5.831239	0.000689
1930	1.9194e+02	-3.1459	-63.380145	-0.000101	-1.012411	-0.343014	-0.000041
1931	1.9203e+02	-3.1122	-62.896173	0.001215	12.148929	4.116169	0.000486
1932	1.9213e+02	-3.0721	-62.654187	0.000607	6.074465	2.058084	0.000243
1933	1.9223e+02	-3.0272	-62.452532	0.000506	5.062054	1.715070	0.000203
1934	1.9233e+02	-2.9839	-62.008891	0.001114	11.136518	3.773155	0.000446
1935	1.9243e+02	-2.9502	-61.807236	0.000506	5.062054	1.715070	0.000203
1936	1.9253e+02	-2.9101	-61.363595	0.001114	11.136518	3.773155	0.000446
1937	1.9263e+02	-2.8732	-60.919954	0.001114	11.136518	3.773155	0.000446
1938	1.9273e+02	-2.8315	-60.718299	0.000506	5.062054	1.715070	0.000203
1939	1.9283e+02	-2.7962	-60.718299	0.000000	0.000000	0.000000	0.000000
1940	1.9293e+02	-2.7529	-60.516645	0.000506	5.062054	1.715070	0.000203
1941	1.9303e+02	-2.7095	-60.073004	0.001114	11.136518	3.773155	0.000446
1942	1.9313e+02	-2.6646	-59.911680	0.000405	4.049643	1.372056	0.000162
1943	1.9323e+02	-2.6342	-59.064729	0.002126	21.260626	7.203295	0.000851
1944	1.9333e+02	-2.5908	-59.064729	0.000000	0.000000	0.000000	0.000000
1945	1.9343e+02	-2.5620	-58.782412	0.000709	7.086875	2.401098	0.000284
1946	1.9353e+02	-2.5058	-58.379102	0.001012	10.124108	3.430141	0.000405
1947	1.9363e+02	-2.4657	-57.975792	0.001012	10.124108	3.430141	0.000405
1948	1.9373e+02	-2.4304	-57.854799	0.000304	3.037232	1.029042	0.000122
1949	1.9383e+02	-2.3935	-57.330497	0.001316	13.161340	4.459183	0.000527
1950	1.9393e+02	-2.3518	-57.733806	-0.001012	-10.124108	-3.430141	-0.000405
1951	1.9403e+02	-2.3133	-56.644870	0.002734	27.335091	9.261379	0.001094
1952	1.9412e+02	-2.2684	-56.644870	0.000000	0.000000	0.000000	0.000000
1953	1.9422e+02	-2.2331	-55.999574	0.001620	16.198572	5.488225	0.000649
1954	1.9432e+02	-2.1898	-55.757588	0.000607	6.074465	2.058084	0.000243
1955	1.9442e+02	-2.1545	-55.918912	-0.000405	-4.049643	-1.372056	-0.000162
1956	1.9452e+02	-2.1192	-55.354278	0.001417	14.173751	4.802197	0.000567
1957	1.9462e+02	-2.0711	-54.708983	0.001620	16.198572	5.488225	0.000649
1958	1.9472e+02	-2.0310	-54.829975	-0.000304	-3.037232	-1.029042	-0.000122
1959	1.9482e+02	-1.9957	-54.386335	0.001114	11.136518	3.773155	0.000446
1960	1.9492e+02	-1.9524	-54.265342	0.000304	3.037232	1.029042	0.000122
1961	1.9502e+02	-1.9155	-53.983025	0.000709	7.086875	2.401098	0.000284
1962	1.9512e+02	-1.8705	-53.418391	0.001417	14.173751	4.802197	0.000567
1963	1.9522e+02	-1.8368	-53.216736	0.000506	5.062054	1.715070	0.000203
1964	1.9532e+02	-1.7903	-52.652102	0.001417	14.173751	4.802197	0.000567
1965	1.9542e+02	-1.7566	-52.208461	0.001114	11.136518	3.773155	0.000446
1966	1.9552e+02	-1.7181	-52.006806	0.000506	5.062054	1.715070	0.000203
1967	1.9562e+02	-1.6716	-51.966475	0.000101	1.012411	0.343014	0.000041
1968	1.9572e+02	-1.6283	-51.200187	0.001924	19.235805	6.517267	0.000770
1969	1.9582e+02	-1.5898	-51.079194	0.000304	3.037232	1.029042	0.000122
1970	1.9592e+02	-1.5561	-50.756546	0.000810	8.099286	2.744112	0.000324
1971	1.9601e+02	-1.5160	-50.312905	0.001114	11.136518	3.773155	0.000446
1972	1.9611e+02	-1.4727	-50.111250	0.000506	5.062054	1.715070	0.000203
1973	1.9621e+02	-1.4422	-50.353236	-0.000607	-6.074465	-2.058084	-0.000243
1974	1.9631e+02	-1.3973	-49.869264	0.001215	12.148929	4.116169	0.000486
1975	1.9641e+02	-1.3540	-49.506285	0.000911	9.111697	3.087126	0.000365
1976	1.9651e+02	-1.3107	-48.901321	0.001519	15.186162	5.145211	0.000608
1977	1.9661e+02	-1.2754	-48.981983	-0.000202	-2.024822	-0.686028	-0.000081
1978	1.9671e+02	-1.2321	-48.336687	0.001620	16.198572	5.488225	0.000649
1979	1.9681e+02	-1.2032	-48.094701	0.000607	6.074465	2.058084	0.000243
1980	1.9691e+02	-1.1599	-47.772053	0.000810	8.099286	2.744112	0.000324
1981	1.9701e+02	-1.1214	-47.167088	0.001519	15.186162	5.145211	0.000608
1982	1.9711e+02	-1.0780	-46.763778	0.001012	10.124108	3.430141	0.000405
1983	1.9721e+02	-1.0347	-46.804109	-0.000101	-1.012411	-0.343014	-0.000041
1984	1.9731e+02	-1.0010	-46.400799	0.001012	10.124108	3.430141	0.000405
1985	1.9741e+02	-0.9497	-45.997490	0.001012	10.124108	3.430141	0.000405
1986	1.9751e+02	-0.9112	-45.513518	0.001215	12.148929	4.116169	0.000486
1987	1.9761e+02	-0.8647	-45.432856	0.000202	2.024822	0.686028	0.000081
1988	1.9771e+02	-0.8438	-45.110208	0.000810	8.099286	2.744112	0.000324
1989	1.9781e+02	-0.7925	-45.392525	-0.000709	-7.086875	-2.401098	-0.000284
1990	1.9791e+02	-0.7556	-45.392525	0.000000	0.000000	0.000000	0.000000
1991	1.9800e+02	-0.7219	-44.706898	0.001721	17.210983	5.831239	0.000689
1992	1.9810e+02	-0.6770	-44.706898	0.000000	0.000000	0.000000	0.000000
1993	1.9820e+02	-0.6353	-44.061602	0.001620	16.198572	5.488225	0.000649
1994	1.9830e+02	-0.6032	-44.142264	-0.000202	-2.024822	-0.686028	-0.000081
1995	1.9840e+02	-0.5567	-44.182595	-0.000101	-1.012411	-0.343014	-0.000041
1996	1.9850e+02	-0.5101	-44.142264	0.000101	1.012411	0.343014	0.000041
1997	1.9860e+02	-0.4765	-43.900278	0.000607	6.074465	2.058084	0.000243
1998	1.9870e+02	-0.4315	-44.464912	-0.001417	-14.173751	-4.802197	-0.000567
1999	1.9880e+02	-0.4059	-43.537299	0.002329	23.285448	7.889323	0.000932
2000	1.9890e+02	-0.3561	-42.811342	0.001822	18.223394	6.174253	0.000730
2001	1.9900e+02	-0.3241	-42.166046	0.001620	16.198572	5.488225	0.000649
2002	1.9910e+02	-0.2775	-42.246708	-0.000202	-2.024822	-0.686028	-0.000081
2003	1.9920e+02	-0.2374	-41.682074	0.001417	14.173751	4.802197	0.000567
2004	1.9930e+02	-0.1893	-41.520750	0.000405	4.049643	1.372056	0.000162
2005	1.9940e+02	-0.1684	-40.794792	0.001822	18.223394	6.174253	0.000730
2006	1.9950e+02	-0.1267	-40.754461	0.000101	1.012411	0.343014	0.000041
2007	1.9960e+02	-0.0802	-40.351152	0.001012	10.124108	3.430141	0.000405
2008	1.9970e+02	-0.0385	-40.270490	0.000202	2.024822	0.686028	0.000081
2009	1.9980e+02	-0.0032	-39.665525	0.000202	2.024822	0.686028	0.000608

Center data before PMax,+/-Pr and +/-Vc Calc.

PMax (uC/cm2):	1.40e+02
Pr (uC/cm2):	2.66e+01
-Pr (uC/cm2):	-3.97e+01
PLoss (uC/cm2):	-4.59e+01
-Vc:	-3.02e+00
C (Max-Eff) (nF):	7.02e-01
K (Eff):	2.38e+03
Vert. (+/-Pr) Shift (uC/cm2):	-6.56e+00
Offset (uC/cm2):	-6.31e+00

A (Loop Area - uC/cm2·Volts):	-2.19e-01



Hysteresis Version: 5.48.1 - Radiant Technologies, Inc., 1999 - 9/12/24

